DTS Sentinel unit serial number:	SN413079Multiplexer serial number:	ORYXHardware model number:	OX4-SRSoftware version number:	ORYX F/W v4.00 Oryx Data Collector v3.7.2.0data status	okinstallation	princeton_trtdifferential loss correction	single-endedforward channel	channel 2reverse channel	N/Adate	2019/09/19time	06:55:35forward acquisition time	60.00reverse acquisition time	0.00gamma	496.2192k internal	0.2350k external	0.2350temperature offset calibration	1.0013default loss term (dB/km)	0.3790temperature slope calibration	1.0000multiplexer offset coefficient	1.0000multiplexer slope coefficient	1.0000fibre end	0.00T internal ref (°C)	19.00T ext. ref 1 (°C)	0.56T ext. ref 2 (°C)	12.76length (m)	temperature (°C)	Stokes	anti-Stokes-747.200	594.570	0.185	0.456
-746.185	-200.000	0.047	0.268
-745.171	241.320	-0.165	-0.276
-744.156	-48.191	0.224	-0.108
-743.142	97.863	-0.202	-0.232
-742.127	114.722	0.116	-0.141
-741.112	-27.954	0.440	0.254
-740.098	-35.020	-0.137	-0.074
-739.083	82.493	0.180	0.195
-738.069	-105.464	-0.257	0.058
-737.054	-62.565	0.395	0.164
-736.039	-79.552	0.268	0.090
-735.025	55.047	0.110	0.106
-734.010	-67.673	-0.116	-0.045
-732.996	800.000	0.070	-0.231
-731.981	191.470	-0.282	-0.424
-730.966	-200.000	0.012	0.201
-729.952	-200.000	-0.029	-0.156
-728.937	-5.341	0.214	-0.146
-727.923	-200.000	-0.012	-0.339
-726.908	69.907	-0.255	-0.262
-725.894	-200.000	-0.006	-0.088
-724.879	-200.000	0.015	-0.068
-723.864	-33.409	-0.235	-0.130
-722.850	-61.637	0.040	0.017
-721.835	-144.200	-0.244	-0.023
-720.821	-78.485	-0.238	0.081
-719.806	17.219	-0.151	-0.120
-718.791	-200.000	0.038	-0.411
-717.777	-66.776	-0.442	-0.174
-716.762	-9.226	-0.118	-0.079
-715.748	-169.819	-0.162	0.006
-714.733	-67.036	0.318	0.125
-713.718	-90.503	-0.162	0.047
-712.704	800.000	-0.084	0.242
-711.689	-71.245	0.207	0.078
-710.675	800.000	-0.058	-0.171
-709.660	73.301	-0.095	-0.099
-708.645	174.910	0.103	-0.149
-707.631	127.083	0.147	0.186
-706.616	540.671	-0.079	-0.186
-705.602	-200.000	0.054	0.245
-704.587	-70.578	-0.284	-0.107
-703.572	-3.357	0.092	0.064
-702.558	65.498	0.158	0.160
-701.543	-62.038	-0.195	0.081
-700.529	800.000	-0.026	0.084
-699.514	-200.000	0.003	-0.118
-698.499	321.417	0.162	-0.307
-697.485	-187.881	-0.173	0.002
-696.470	7.930	0.162	-0.121
-695.456	800.000	-0.043	0.146
-694.441	-65.102	0.133	-0.054
-693.426	800.000	-0.099	-0.331
-692.412	315.841	-0.059	0.110
-691.397	246.078	-0.079	-0.133
-690.383	-6.606	-0.142	0.096
-689.368	-137.473	0.232	0.026
-688.354	72.521	0.190	0.197
-687.339	-75.558	0.260	0.092
-686.324	800.000	-0.049	0.197
-685.310	46.691	-0.157	-0.145
-684.295	330.734	-0.070	0.135
-683.281	-200.000	0.009	-0.119
-682.266	55.048	0.240	-0.231
-681.251	44.510	-0.170	-0.156
-680.237	800.000	-0.069	0.191
-679.222	62.352	-0.259	0.257
-678.208	16.359	0.089	-0.070
-677.193	29.480	-0.236	0.200
-676.178	-200.000	0.030	-0.136
-675.164	73.932	-0.254	0.266
-674.149	402.191	-0.181	0.380
-673.135	173.247	0.058	0.083
-672.120	260.655	0.094	0.161
-671.105	2.923	-0.069	0.050
-670.091	-66.438	-0.072	-0.028
-669.076	55.931	-0.031	0.030
-668.062	149.691	-0.175	0.236
-667.047	-200.000	0.038	0.229
-666.032	-2.816	0.208	-0.145
-665.018	-17.353	-0.165	0.104
-664.003	800.000	0.098	0.421
-662.989	-200.000	-0.299	0.001
-661.974	-200.000	0.005	-0.211
-660.959	800.000	-0.070	-0.207
-659.945	-85.868	-0.119	0.037
-658.930	-200.000	-0.006	0.244
-657.916	-70.998	0.215	0.080
-656.901	-126.069	-0.207	0.031
-655.886	589.815	-0.142	-0.349
-654.872	-200.000	-0.000	-0.118
-653.857	-200.000	-0.085	-0.395
-652.843	-36.265	0.501	-0.269
-651.828	-68.454	0.124	0.048
-650.814	61.894	-0.139	-0.138
-649.799	-200.000	0.023	0.270
-648.784	-87.635	-0.126	0.038
-647.770	-78.838	-0.296	-0.100
-646.755	95.553	-0.320	-0.363
-645.741	619.279	-0.054	0.134
-644.726	-46.857	0.094	0.046
-643.711	-41.232	-0.257	-0.132
-642.697	122.719	0.102	0.127
-641.682	87.952	0.157	-0.174
-640.668	-200.000	-0.014	0.155
-639.653	-200.000	0.004	-0.236
-638.638	7.905	0.167	-0.124
-637.624	121.911	-0.176	-0.218
-636.609	132.333	0.175	-0.224
-635.595	273.349	-0.109	-0.192
-634.580	341.356	-0.095	-0.184
-633.565	100.628	0.102	-0.118
-632.551	-59.998	-0.389	-0.165
-631.536	-145.613	-0.224	0.020
-630.522	153.278	0.182	0.248
-629.507	-77.624	0.198	0.068
-628.492	44.803	-0.262	0.240
-627.478	372.191	-0.096	-0.193
-626.463	-63.278	-0.070	-0.029
-625.449	266.250	-0.033	-0.058
-624.434	-79.793	-0.337	-0.113
-623.419	-22.105	0.352	-0.212
-622.405	107.991	0.098	0.116
-621.390	169.064	-0.099	0.140
-620.376	-103.255	0.189	0.044
-619.361	426.280	-0.063	-0.134
-618.346	-120.542	0.147	-0.025
-617.332	800.000	0.041	-0.150
-616.317	574.947	-0.067	0.163
-615.303	168.459	-0.112	0.158
-614.288	-185.941	-0.231	-0.003
-613.273	-67.413	0.159	0.062
-612.259	-44.810	0.232	-0.115
-611.244	-200.000	0.008	-0.163
-610.230	-40.648	-0.287	-0.148
-609.215	800.000	0.055	0.195
-608.201	143.945	-0.257	-0.341
-607.186	6.549	0.110	0.081
-606.171	800.000	0.068	-0.253
-605.157	-72.669	-0.042	-0.015
-604.142	-20.494	-0.013	-0.008
-603.128	666.276	-0.062	-0.160
-602.113	53.893	0.260	-0.248
-601.098	-79.320	-0.246	0.083
-600.084	800.000	0.070	0.266
-599.069	-21.746	-0.162	-0.098
-598.055	-58.836	0.092	-0.040
-597.040	-112.266	-0.240	-0.048
-596.025	-75.238	0.120	-0.043
-595.011	-200.000	0.080	-0.541
-593.996	-100.946	-0.163	-0.040
-592.982	-200.000	-0.007	0.189
-591.967	800.000	0.037	-0.141
-590.952	-15.668	0.126	-0.080
-589.938	-131.028	0.262	-0.035
-588.923	-80.541	0.107	0.035
-587.909	65.655	0.133	0.134
-586.894	-9.071	-0.285	0.189
-585.879	228.231	0.192	-0.310
-584.865	-36.672	0.148	-0.079
-583.850	-200.000	0.027	0.147
-582.836	307.476	-0.182	0.336
-581.821	-200.000	-0.081	0.379
-580.806	-200.000	0.015	-0.136
-579.792	-67.637	0.228	0.089
-578.777	219.092	0.099	0.157
-577.763	-166.407	-0.136	0.006
-576.748	-147.116	0.087	-0.007
-575.733	86.715	-0.140	0.153
-574.719	771.700	-0.029	0.077
-573.704	24.284	-0.421	-0.345
-572.690	-79.122	0.463	-0.156
-571.675	-200.000	0.035	-0.270
-570.661	-65.938	-0.156	-0.062
-569.646	800.000	0.061	-0.246
-568.631	-200.000	-0.006	0.098
-567.617	57.983	-0.124	-0.120
-566.602	164.446	0.188	0.263
-565.588	133.876	0.116	-0.149
-564.573	-1.497	0.097	0.067
-563.558	-27.958	0.134	0.077
-562.544	-69.404	-0.069	0.026
-561.529	-200.000	-0.005	0.084
-560.515	15.069	0.239	-0.185
-559.500	-200.000	0.005	-0.189
-558.485	-120.264	-0.291	0.049
-557.471	-61.987	-0.170	0.070
-556.456	-98.949	-0.066	0.017
-555.442	-200.000	0.026	-0.293
-554.427	-133.954	-0.238	-0.029
-553.412	-23.227	-0.011	-0.007
-552.398	426.909	0.034	-0.073
-551.383	191.108	-0.240	0.358
-550.369	800.000	-0.131	-0.362
-549.354	48.211	0.060	0.056
-548.339	58.725	-0.147	0.143
-547.325	338.281	0.120	0.231
-546.310	-8.281	-0.190	-0.127
-545.296	321.579	0.086	0.162
-544.281	800.000	-0.135	-0.490
-543.266	-200.000	-0.013	0.258
-542.252	-53.519	-0.138	-0.062
-541.237	800.000	-0.105	-0.344
-540.223	168.337	0.045	-0.064
-539.208	51.036	0.140	0.131
-538.193	800.000	-0.057	-0.240
-537.179	17.741	-0.108	-0.085
-536.164	49.708	-0.169	0.158
-535.150	-160.953	-0.219	-0.011
-534.135	259.540	0.082	-0.141
-533.121	-12.037	0.372	0.241
-532.106	401.574	0.123	-0.256
-531.091	-78.449	-0.246	0.083
-530.077	387.357	-0.166	-0.339
-529.062	32.985	0.495	0.424
-528.048	800.000	0.064	0.214
-527.033	-114.919	0.168	0.032
-526.018	-53.027	-0.106	-0.048
-525.004	260.622	-0.037	0.063
-523.989	-150.667	-0.082	0.006
-522.975	-55.237	-0.181	-0.080
-521.960	82.108	0.117	0.126
-520.945	96.901	0.066	0.075
-519.931	-200.000	-0.042	0.242
-518.916	2.761	-0.157	-0.113
-517.902	17.966	0.049	-0.039
-516.887	-73.948	0.119	-0.043
-515.872	800.000	-0.128	-0.385
-514.858	317.285	0.069	-0.130
-513.843	-200.000	-0.056	0.443
-512.829	108.838	-0.146	-0.173
-511.814	-200.000	-0.012	-0.081
-510.799	-2.491	-0.126	-0.088
-509.785	462.127	-0.070	-0.155
-508.770	-100.543	-0.127	-0.031
-507.756	-200.000	0.004	0.291
-506.741	-164.525	0.317	0.014
-505.726	-200.000	0.005	0.046
-504.712	447.611	-0.022	-0.048
-503.697	31.152	-0.278	-0.235
-502.683	-84.659	-0.272	0.085
-501.668	141.249	-0.212	-0.277
-500.653	-22.292	0.244	0.146
-499.639	128.923	0.071	-0.089
-498.624	762.825	0.043	-0.116
-497.610	33.145	0.194	-0.166
-496.595	143.236	0.214	-0.281
-495.581	17.763	0.299	0.235
-494.566	-41.422	0.413	0.210
-493.551	-60.044	0.202	0.085
-492.537	54.564	0.187	0.179
-491.522	-94.449	-0.188	0.051
-490.508	-140.374	0.266	-0.027
-489.493	19.822	0.329	-0.262
-488.478	217.614	0.275	-0.434
-487.464	-49.619	0.303	-0.142
-486.449	-22.611	-0.360	-0.215
-485.435	-200.000	0.056	0.309
-484.420	800.000	0.037	-0.155
-483.405	205.928	-0.077	-0.119
-482.391	49.864	0.108	-0.101
-481.376	-59.969	-0.182	-0.077
-480.362	167.337	-0.063	0.088
-479.347	30.564	-0.310	-0.262
-478.332	150.451	0.151	-0.203
-477.318	286.486	-0.107	0.190
-476.303	-142.164	0.324	-0.032
-475.289	60.519	0.290	-0.283
-474.274	244.404	0.040	0.066
-473.259	-171.638	-0.303	-0.010
-472.245	58.544	-0.181	0.176
-471.230	-200.000	-0.052	-0.232
-470.216	-169.933	0.135	0.005
-469.201	-32.996	0.104	-0.057
-468.186	-20.304	0.174	0.106
-467.172	800.000	-0.060	0.250
-466.157	18.819	-0.044	-0.035
-465.143	-88.901	-0.272	0.080
-464.128	124.730	-0.112	-0.139
-463.113	-200.000	0.044	-0.247
-462.099	-90.264	0.167	0.048
-461.084	110.805	0.188	-0.223
-460.070	-200.000	0.028	-0.177
-459.055	-59.333	-0.248	-0.106
-458.040	-18.458	0.155	0.095
-457.026	800.000	-0.028	-0.118
-456.011	-200.000	0.016	0.366
-454.997	311.110	0.119	0.221
-453.982	-200.000	0.043	0.313
-452.968	-200.000	-0.047	-0.275
-451.953	-15.120	-0.118	-0.075
-450.938	64.893	0.105	0.105
-449.924	-200.000	-0.011	0.380
-448.909	800.000	0.070	0.213
-447.895	-132.441	0.139	0.018
-446.880	-126.990	0.246	0.036
-445.865	396.859	0.084	0.173
-444.851	-200.000	-0.035	0.248
-443.836	-147.661	-0.308	-0.026
-442.822	-200.000	0.046	0.202
-441.807	66.079	0.180	-0.180
-440.792	-89.871	-0.148	-0.043
-439.778	126.036	-0.138	0.172
-438.763	-200.000	0.050	0.295
-437.749	-30.870	-0.271	-0.151
-436.734	-72.723	0.440	-0.160
-435.719	-200.000	0.007	-0.036
-434.705	549.402	0.157	0.372
-433.690	1.405	-0.167	-0.118
-432.676	-200.000	0.037	0.175
-431.661	309.882	0.077	0.142
-430.646	90.997	-0.103	-0.114
-429.632	47.408	0.124	0.114
-428.617	28.070	-0.142	0.118
-427.603	-17.846	0.175	-0.109
-426.588	-166.524	-0.179	-0.007
-425.573	116.702	0.088	-0.106
-424.559	-200.000	-0.008	-0.127
-423.544	53.244	-0.124	0.117
-422.530	50.702	-0.188	0.175
-421.515	193.196	-0.254	-0.379
-420.500	-118.935	0.281	0.049
-419.486	-68.797	-0.280	0.107
-418.471	169.480	-0.217	-0.306
-417.457	-107.687	-0.148	0.032
-416.442	556.975	0.042	0.101
-415.428	215.044	-0.203	0.317
-414.413	116.099	0.196	-0.236
-413.398	-200.000	0.024	0.241
-412.384	4.611	0.198	-0.143
-411.369	243.969	0.211	0.349
-410.355	-200.000	0.033	0.351
-409.340	435.058	0.087	0.187
-408.325	88.599	0.235	0.257
-407.311	-36.781	0.255	0.135
-406.296	-125.769	-0.091	0.014
-405.282	-74.018	0.227	0.081
-404.267	318.683	-0.088	-0.164
-403.252	-200.000	0.004	0.144
-402.238	-40.251	-0.230	0.118
-401.223	-39.934	0.262	0.135
-400.209	-200.000	0.015	0.413
-399.194	-70.457	0.141	-0.053
-398.179	350.144	0.041	0.079
-397.165	-33.901	0.250	0.136
-396.150	-159.757	0.048	-0.003
-395.136	-200.000	0.029	0.184
-394.121	17.753	-0.078	-0.061
-393.106	-154.232	-0.219	0.015
-392.092	-200.000	-0.040	-0.346
-391.077	-163.754	0.254	0.012
-390.063	417.595	-0.077	0.162
-389.048	154.103	-0.049	0.066
-388.033	-133.052	-0.115	0.014
-387.019	94.454	-0.279	-0.312
-386.004	-121.153	-0.191	0.032
-384.990	344.630	0.018	-0.035
-383.975	46.440	-0.018	0.016
-382.960	-26.332	0.304	-0.175
-381.946	-56.331	-0.061	-0.027
-380.931	568.439	-0.084	0.202
-379.917	81.499	-0.159	-0.169
-378.902	57.828	-0.237	0.228
-377.888	-96.421	0.251	0.065
-376.873	36.172	0.050	0.043
-375.858	800.000	0.083	0.233
-374.844	-32.627	-0.138	0.076
-373.829	-48.564	0.172	0.081
-372.815	0.848	0.164	-0.116
-371.800	-0.942	0.157	0.109
-370.785	352.359	-0.094	0.183
-369.771	-185.321	0.055	-0.001
-368.756	142.667	-0.201	-0.263
-367.742	-200.000	0.014	-0.156
-366.727	-3.077	-0.139	-0.095
-365.712	429.250	-0.105	-0.224
-364.698	-200.000	0.067	-0.598
-363.683	-200.000	-0.000	0.167
-362.669	-200.000	0.031	-0.233
-361.654	-31.604	0.071	-0.039
-360.639	-112.343	0.183	0.036
-359.625	-12.126	-0.109	0.070
-358.610	12.385	-0.323	0.245
-357.596	-200.000	0.003	-0.070
-356.581	-181.233	-0.251	-0.005
-355.566	103.795	0.092	0.107
-354.552	-37.699	-0.088	0.046
-353.537	-99.448	0.406	0.101
-352.523	-200.000	-0.006	0.290
-351.508	663.906	0.083	-0.212
-350.493	800.000	-0.032	0.095
-349.479	-21.061	-0.247	-0.148
-348.464	-33.760	0.118	0.064
-347.450	23.023	0.070	0.057
-346.435	-2.247	-0.276	-0.191
-345.420	-200.000	-0.021	0.174
-344.406	372.163	0.008	0.016
-343.391	0.615	0.205	-0.144
-342.377	-66.875	-0.331	-0.129
-341.362	744.557	-0.191	0.506
-340.348	-118.131	-0.232	0.041
-339.333	-200.000	-0.004	-0.139
-338.318	-66.160	-0.171	0.067
-337.304	44.533	0.163	0.147
-336.289	122.329	-0.117	-0.144
-335.275	-200.000	-0.040	-0.313
-334.260	109.983	0.121	-0.142
-333.245	-82.597	0.186	-0.059
-332.231	-200.000	-0.026	-0.218
-331.216	24.004	-0.174	-0.141
-330.202	339.314	0.127	0.242
-329.187	-40.389	-0.229	-0.117
-328.172	-119.327	0.301	-0.052
-327.158	-66.326	0.080	0.031
-326.143	-136.213	0.201	0.023
-325.129	-200.000	-0.026	-0.247
-324.114	-200.000	-0.039	-0.342
-323.099	172.824	0.195	0.276
-322.085	800.000	0.039	-0.121
-321.070	-129.746	0.312	0.042
-320.056	-62.396	0.191	-0.078
-319.041	-159.618	-0.130	-0.007
-318.026	-98.336	0.345	0.087
-317.012	7.222	-0.262	-0.192
-315.997	-30.608	-0.227	0.126
-314.983	-41.311	0.137	0.069
-313.968	185.102	0.054	0.079
-312.953	34.518	-0.091	-0.078
-311.939	14.033	-0.133	0.102
-310.924	-200.000	0.029	-0.280
-309.910	-200.000	0.009	0.306
-308.895	89.077	0.210	0.230
-307.880	56.737	-0.207	0.198
-306.866	-27.947	0.304	0.173
-305.851	134.493	0.142	0.180
-304.837	-155.810	-0.259	0.016
-303.822	-200.000	0.003	-0.181
-302.807	-124.415	0.215	-0.033
-301.793	-84.539	0.148	-0.046
-300.778	-200.000	-0.042	0.278
-299.764	66.152	0.203	-0.202
-298.749	-38.240	0.365	0.190
-297.735	-37.175	-0.074	0.039
-296.720	-26.063	-0.289	0.167
-295.705	53.710	0.139	0.131
-294.691	800.000	-0.039	-0.135
-293.676	-200.000	-0.009	-0.069
-292.662	58.814	0.286	0.276
-291.647	55.261	-0.292	-0.277
-290.632	-51.981	-0.341	-0.155
-289.618	-155.245	0.314	0.020
-288.603	212.776	0.090	0.140
-287.589	7.192	-0.287	0.210
-286.574	-63.176	-0.124	0.050
-285.559	-87.100	-0.090	-0.027
-284.545	-26.678	0.212	-0.121
-283.530	110.411	-0.203	0.239
-282.516	45.305	0.202	-0.183
-281.501	149.204	0.129	0.171
-280.486	489.534	0.024	0.053
-279.472	59.982	-0.119	0.115
-278.457	-26.237	0.281	-0.162
-277.443	800.000	-0.028	0.082
-276.428	800.000	-0.045	0.137
-275.413	27.812	0.087	0.072
-274.399	-79.122	0.359	0.119
-273.384	-52.080	0.244	-0.111
-272.370	465.655	-0.026	-0.057
-271.355	133.398	-0.330	0.419
-270.340	-200.000	0.058	-0.473
-269.326	-200.000	-0.032	0.261
-268.311	-38.935	0.170	0.088
-267.297	-57.696	-0.439	-0.188
-266.282	-28.411	-0.228	0.129
-265.267	-195.018	-0.061	0.000
-264.253	-60.398	0.189	0.079
-263.238	-129.685	0.311	-0.042
-262.224	0.105	0.190	0.133
-261.209	800.000	-0.046	-0.135
-260.195	800.000	0.059	-0.239
-259.180	-200.000	0.013	0.136
-258.165	226.286	0.057	0.091
-257.151	64.944	-0.084	0.083
-256.136	-54.100	0.291	-0.130
-255.122	69.440	-0.269	0.271
-254.107	-29.219	-0.317	-0.178
-253.092	168.391	0.100	0.139
-252.078	-157.614	-0.247	0.014
-251.063	-74.213	0.148	-0.052
-250.049	-39.742	-0.120	-0.061
-249.034	-200.000	0.045	-0.256
-248.019	121.090	-0.117	0.142
-247.005	-200.000	0.032	-0.185
-245.990	-84.293	-0.049	-0.015
-244.976	-200.000	-0.096	-0.417
-243.961	-53.018	-0.085	-0.038
-242.946	110.939	0.133	-0.157
-241.932	-60.665	0.165	-0.069
-240.917	-92.021	-0.103	0.029
-239.903	-65.046	-0.346	0.137
-238.888	60.041	-0.178	0.172
-237.873	58.944	-0.105	0.101
-236.859	-163.520	0.054	-0.003
-235.844	121.983	0.236	0.289
-234.830	634.793	0.030	0.074
-233.815	-128.749	0.383	0.053
-232.800	-69.241	-0.261	0.098
-231.786	240.071	0.275	-0.449
-230.771	-170.483	0.348	0.012
-229.757	30.090	0.026	0.021
-228.742	-100.051	-0.157	0.038
-227.727	-125.039	-0.252	0.038
-226.713	-29.165	-0.247	-0.139
-225.698	163.538	-0.118	-0.162
-224.684	101.250	0.223	-0.254
-223.669	151.627	-0.165	0.219
-222.655	78.313	-0.066	-0.068
-221.640	-43.155	-0.165	0.082
-220.625	800.000	0.029	0.099
-219.611	-7.607	-0.181	0.120
-218.596	-35.023	-0.214	0.114
-217.582	95.984	0.066	0.074
-216.567	-37.851	0.104	-0.054
-215.552	-74.800	0.161	-0.057
-214.538	-5.823	0.265	0.178
-213.523	-200.000	-0.010	0.138
-212.509	40.386	-0.247	-0.217
-211.494	82.063	0.024	-0.025
-210.479	-96.011	0.116	0.030
-209.465	90.063	0.065	0.071
-208.450	800.000	-0.075	-0.208
-207.436	-17.808	0.174	-0.107
-206.421	-17.810	-0.028	-0.017
-205.406	104.764	-0.144	0.166
-204.392	733.013	-0.070	0.183
-203.377	800.000	0.095	0.337
-202.363	-36.015	-0.194	0.102
-201.348	-63.521	-0.248	-0.100
-200.333	49.836	0.037	0.034
-199.319	408.690	-0.069	-0.143
-198.304	287.910	0.047	0.083
-197.290	-157.172	-0.347	-0.021
-196.275	-200.000	-0.035	0.158
-195.260	230.214	-0.223	0.356
-194.246	-200.000	-0.006	-0.045
-193.231	30.285	-0.376	0.314
-192.217	141.405	0.042	-0.054
-191.202	82.375	0.214	0.227
-190.187	368.839	0.089	-0.175
-189.173	36.825	-0.198	-0.171
-188.158	-121.047	0.494	0.081
-187.144	181.379	-0.061	0.087
-186.129	-200.000	0.009	-0.164
-185.114	-200.000	0.019	0.318
-184.100	-117.827	-0.291	0.051
-183.085	-59.862	0.311	-0.130
-182.071	7.088	-0.119	0.087
-181.056	618.183	0.064	-0.156
-180.042	-70.981	0.225	0.083
-179.027	50.037	-0.343	0.316
-178.012	-110.624	0.165	-0.033
-176.998	-11.911	0.372	-0.238
-175.983	-200.000	0.024	-0.219
-174.969	295.777	0.064	0.114
-173.954	-79.770	-0.187	-0.061
-172.939	164.594	0.118	-0.163
-171.925	-135.573	0.160	0.019
-170.910	152.017	0.164	0.219
-169.896	-200.000	0.038	-0.229
-168.881	19.804	-0.275	0.216
-167.866	-118.259	0.102	0.018
-166.852	-22.738	-0.138	-0.081
-165.837	-53.136	0.061	0.027
-164.823	-73.441	-0.196	0.070
-163.808	81.142	0.045	-0.047
-162.793	405.483	0.075	0.155
-161.779	373.773	-0.100	-0.198
-160.764	-200.000	-0.002	0.069
-159.750	-118.247	-0.475	-0.082
-158.735	-85.392	0.158	-0.048
-157.720	130.709	-0.122	0.152
-156.706	-19.561	0.263	-0.159
-155.691	399.294	0.040	-0.081
-154.677	-200.000	-0.010	-0.084
-153.662	10.269	0.166	-0.123
-152.647	800.000	0.045	0.142
-151.633	-6.207	-0.306	-0.204
-150.618	-200.000	-0.053	-0.251
-149.604	45.069	0.109	-0.098
-148.589	318.446	0.058	-0.107
-147.574	-200.000	0.001	-0.144
-146.560	64.728	0.242	-0.238
-145.545	261.263	-0.124	-0.209
-144.531	35.443	-0.129	-0.110
-143.516	-106.978	0.316	0.068
-142.502	19.036	0.082	-0.064
-141.487	173.685	-0.083	0.117
-140.472	134.101	0.020	-0.025
-139.458	250.276	-0.202	0.335
-138.443	800.000	0.089	0.274
-137.429	131.101	0.080	-0.100
-136.414	-8.550	0.101	-0.066
-135.399	-200.000	0.043	0.244
-134.385	56.247	0.197	0.187
-133.370	287.975	0.099	0.175
-132.356	153.838	-0.038	-0.051
-131.341	5.458	0.156	0.112
-130.326	226.822	-0.082	0.129
-129.312	48.248	0.163	-0.148
-128.297	114.890	0.045	-0.054
-127.283	3.553	0.060	-0.043
-126.268	50.197	0.124	-0.114
-125.253	-103.762	-0.200	0.046
-124.239	800.000	-0.113	0.329
-123.224	800.000	-0.078	-0.265
-122.210	800.000	-0.027	0.106
-121.195	170.111	-0.136	-0.190
-120.180	-200.000	0.020	-0.203
-119.166	-200.000	0.020	-0.190
