DTS Sentinel unit serial number:	SN413079Multiplexer serial number:	ORYXHardware model number:	OX4-SRSoftware version number:	ORYX F/W v4.00 Oryx Data Collector v3.7.2.0data status	okinstallation	princeton_trtdifferential loss correction	single-endedforward channel	channel 2reverse channel	N/Adate	2019/09/19time	05:19:35forward acquisition time	60.00reverse acquisition time	0.00gamma	496.2192k internal	0.2352k external	0.2352temperature offset calibration	1.0011default loss term (dB/km)	0.3790temperature slope calibration	1.0000multiplexer offset coefficient	1.0000multiplexer slope coefficient	1.0000fibre end	0.00T internal ref (°C)	19.50T ext. ref 1 (°C)	0.59T ext. ref 2 (°C)	12.84length (m)	temperature (°C)	Stokes	anti-Stokes-747.200	-6.529	0.056	0.038
-746.185	251.737	-0.217	-0.368
-745.171	-17.628	-0.271	0.170
-744.156	-49.398	0.225	-0.107
-743.142	-66.455	0.148	0.058
-742.127	289.458	-0.057	0.103
-741.112	128.653	0.159	0.202
-740.098	-97.457	0.296	0.077
-739.083	130.817	0.099	0.127
-738.069	-93.554	-0.303	0.084
-737.054	800.000	-0.066	0.217
-736.039	-111.719	-0.264	-0.053
-735.025	-200.000	0.012	0.123
-734.010	-200.000	-0.042	-0.242
-732.996	265.074	-0.107	-0.186
-731.981	-200.000	-0.025	-0.119
-730.966	326.738	0.051	-0.097
-729.952	800.000	-0.074	-0.300
-728.937	176.076	0.086	-0.124
-727.923	-200.000	0.028	-0.180
-726.908	76.317	-0.269	-0.284
-725.894	-22.429	0.219	-0.132
-724.879	-144.446	-0.175	-0.016
-723.864	10.265	0.102	0.077
-722.850	332.194	-0.146	-0.281
-721.835	501.749	0.074	-0.170
-720.821	-200.000	0.022	0.155
-719.806	33.794	0.193	0.168
-718.791	231.452	0.088	0.144
-717.777	-6.390	-0.236	0.160
-716.762	-200.000	-0.002	-0.114
-715.748	-75.698	0.102	-0.036
-714.733	-200.000	-0.053	-0.235
-713.718	639.146	-0.141	-0.357
-712.704	-6.492	-0.124	-0.084
-711.689	-119.576	0.237	-0.041
-710.675	74.411	0.064	0.067
-709.660	74.016	0.204	-0.213
-708.645	-200.000	-0.014	0.173
-707.631	800.000	-0.017	0.066
-706.616	-96.901	0.106	-0.028
-705.602	130.289	-0.119	0.151
-704.587	-17.125	-0.108	-0.068
-703.572	304.162	0.092	-0.170
-702.558	218.279	0.060	0.096
-701.543	151.810	-0.177	-0.240
-700.529	-53.283	0.242	-0.111
-699.514	101.229	0.026	-0.031
-698.499	-122.080	0.365	-0.060
-697.485	298.413	0.039	0.071
-696.470	155.534	-0.162	0.222
-695.456	-200.000	-0.028	0.354
-694.441	200.265	0.129	-0.197
-693.426	-131.130	0.103	0.014
-692.412	71.854	-0.221	-0.229
-691.397	199.383	-0.024	-0.036
-690.383	359.697	0.065	-0.130
-689.368	-141.466	0.205	-0.021
-688.354	-70.622	0.016	-0.006
-687.339	163.370	-0.097	0.136
-686.324	800.000	-0.032	-0.103
-685.310	-119.792	-0.197	-0.034
-684.295	-28.115	-0.163	-0.094
-683.281	4.111	-0.447	-0.326
-682.266	174.926	-0.049	0.071
-681.251	-200.000	-0.003	-0.219
-680.237	532.050	0.084	-0.198
-679.222	34.268	-0.068	-0.059
-678.208	-57.672	0.407	-0.177
-677.193	-200.000	0.029	-0.207
-676.178	-67.413	-0.224	-0.087
-675.164	-87.037	-0.087	-0.026
-674.149	249.172	-0.161	-0.271
-673.135	-123.194	0.151	0.024
-672.120	-173.269	0.289	0.009
-671.105	56.185	-0.174	-0.168
-670.091	-45.900	0.517	-0.254
-669.076	-19.640	0.393	0.242
-668.062	173.422	0.236	0.338
-667.047	273.900	0.128	0.225
-666.032	-16.339	-0.153	-0.097
-665.018	72.546	-0.244	-0.253
-664.003	-85.402	-0.307	-0.095
-662.989	16.640	-0.355	0.279
-661.974	-124.132	-0.183	0.028
-660.959	-83.170	-0.128	-0.041
-659.945	12.622	-0.210	0.162
-658.930	800.000	0.025	0.109
-657.916	-41.934	-0.058	-0.030
-656.901	-22.566	-0.164	0.099
-655.886	-36.536	-0.272	-0.146
-654.872	-29.442	-0.235	0.134
-653.857	-35.082	-0.089	-0.048
-652.843	-200.000	-0.070	0.356
-651.828	-200.000	0.038	0.227
-650.814	-134.697	-0.176	-0.021
-649.799	95.114	-0.091	-0.103
-648.784	-200.000	-0.030	-0.201
-647.770	-200.000	0.002	-0.266
-646.755	-143.324	0.063	-0.006
-645.741	186.360	0.105	-0.155
-644.726	-200.000	0.045	-0.357
-643.711	800.000	0.083	-0.248
-642.697	86.652	0.078	-0.085
-641.682	-48.344	-0.171	-0.082
-640.668	-74.943	-0.154	-0.055
-639.653	274.528	-0.087	-0.153
-638.638	-34.362	-0.123	-0.067
-637.624	-15.075	-0.140	-0.089
-636.609	140.287	-0.101	0.132
-635.595	-114.931	0.258	0.049
-634.580	-200.000	0.010	0.142
-633.565	-7.934	-0.201	-0.134
-632.551	-200.000	-0.008	0.049
-631.536	237.739	0.095	-0.157
-630.522	-66.151	-0.106	-0.042
-629.507	-131.114	-0.285	-0.038
-628.492	-17.356	-0.309	0.193
-627.478	-16.400	-0.271	-0.171
-626.463	-200.000	-0.022	-0.281
-625.449	-114.366	-0.332	-0.063
-624.434	-6.281	-0.102	-0.069
-623.419	-200.000	0.003	-0.025
-622.405	557.223	0.048	0.115
-621.390	-110.641	0.185	0.038
-620.376	15.453	0.199	-0.155
-619.361	53.214	0.426	-0.405
-618.346	-129.169	0.227	-0.031
-617.332	22.798	-0.365	0.297
-616.317	-119.700	0.200	0.034
-615.303	142.605	0.115	-0.152
-614.288	-110.282	-0.114	-0.023
-613.273	-69.447	-0.033	0.012
-612.259	40.683	0.074	-0.066
-611.244	-155.834	0.166	-0.011
-610.230	-147.329	0.211	0.018
-609.215	-200.000	0.051	-0.235
-608.201	-18.190	0.056	-0.035
-607.186	-167.981	-0.328	-0.013
-606.171	-200.000	-0.024	-0.232
-605.157	585.843	0.051	-0.124
-604.142	153.339	0.162	-0.220
-603.128	-200.000	-0.059	0.322
-602.113	380.207	0.041	-0.084
-601.098	44.274	0.289	0.263
-600.084	-200.000	-0.006	0.032
-599.069	-38.820	-0.120	0.063
-598.055	236.013	0.052	-0.085
-597.040	-71.333	0.126	-0.047
-596.025	-85.487	0.091	-0.028
-595.011	-154.162	0.405	0.027
-593.996	254.884	0.094	0.159
-592.982	45.163	-0.163	-0.149
-591.967	-29.049	-0.181	-0.103
-590.952	-94.098	0.234	-0.064
-589.938	-121.833	-0.208	0.034
-588.923	800.000	0.077	-0.300
-587.909	381.896	-0.139	0.284
-586.894	-16.713	0.181	-0.114
-585.879	-200.000	0.078	-0.411
-584.865	145.811	0.155	0.206
-583.850	104.743	-0.090	-0.105
-582.836	281.296	0.271	0.481
-581.821	-200.000	-0.026	0.129
-580.806	108.749	0.145	-0.171
-579.792	468.435	-0.103	-0.230
-578.777	-200.000	-0.055	-0.244
-577.763	-112.059	0.027	0.005
-576.748	-200.000	0.084	-0.367
-575.733	449.810	0.108	-0.236
-574.719	124.815	0.188	0.235
-573.704	-62.750	-0.163	-0.067
-572.690	-119.769	-0.245	-0.042
-571.675	308.253	0.128	-0.236
-570.661	-102.155	-0.274	0.065
-569.646	302.472	-0.093	-0.171
-568.631	162.758	0.037	0.052
-567.617	-51.131	0.014	0.006
-566.602	-23.606	-0.335	0.199
-565.588	537.956	0.069	-0.162
-564.573	800.000	-0.081	0.223
-563.558	800.000	-0.065	0.198
-562.544	192.559	0.017	0.025
-561.529	193.998	-0.058	0.087
-560.515	51.879	0.161	-0.152
-559.500	-39.719	0.255	-0.132
-558.485	49.614	0.099	-0.093
-557.471	133.427	-0.206	0.264
-556.456	201.622	0.135	0.206
-555.442	-200.000	0.033	0.233
-554.427	-102.063	0.168	-0.040
-553.412	-73.353	0.185	0.067
-552.398	12.853	-0.062	-0.048
-551.383	-200.000	0.019	-0.196
-550.369	608.849	-0.147	-0.363
-549.354	-6.537	0.095	-0.064
-548.339	248.874	-0.146	0.245
-547.325	-167.872	-0.352	-0.014
-546.310	-200.000	0.011	0.272
-545.296	72.960	-0.250	0.259
-544.281	-34.754	0.155	-0.084
-543.266	800.000	0.101	-0.352
-542.252	78.066	0.128	-0.135
-541.237	442.490	0.055	-0.120
-540.223	78.251	0.143	0.151
-539.208	-200.000	-0.010	-0.073
-538.193	800.000	-0.088	0.254
-537.179	-51.814	-0.090	-0.041
-536.164	-21.277	0.308	-0.186
-535.150	318.494	0.038	-0.072
-534.135	541.254	0.064	-0.150
-533.121	174.267	-0.177	0.253
-532.106	37.647	-0.260	-0.228
-531.091	331.034	0.055	-0.105
-530.077	48.841	0.030	0.028
-529.062	800.000	-0.047	0.142
-528.048	800.000	0.015	-0.056
-527.033	90.584	-0.108	0.120
-526.018	265.832	0.114	0.198
-525.004	800.000	0.042	-0.137
-523.989	-42.617	0.095	0.048
-522.975	180.578	-0.084	-0.122
-521.960	-75.004	0.262	-0.093
-520.945	-103.907	0.099	0.023
-519.931	-161.805	-0.231	0.012
-518.916	-102.570	0.189	0.045
-517.902	193.386	0.069	0.103
-516.887	-86.861	0.162	-0.049
-515.872	275.981	-0.058	-0.103
-514.858	-15.721	0.198	0.125
-513.843	7.717	0.073	-0.054
-512.829	-78.739	0.108	-0.037
-511.814	16.290	-0.274	-0.214
-510.799	-200.000	-0.090	0.524
-509.785	62.605	0.181	0.179
-508.770	-1.419	-0.178	-0.124
-507.756	89.326	-0.142	-0.157
-506.741	-71.227	0.285	-0.106
-505.726	-80.719	0.315	0.103
-504.712	-29.094	-0.062	0.035
-503.697	-138.706	0.287	-0.031
-502.683	-94.126	-0.143	-0.039
-501.668	631.966	-0.076	-0.191
-500.653	-79.447	0.059	-0.020
-499.639	531.553	-0.139	-0.325
-498.624	-34.700	0.291	0.157
-497.610	-106.963	0.054	0.012
-496.595	180.815	-0.102	-0.148
-495.581	-58.186	-0.160	0.069
-494.566	800.000	-0.084	-0.318
-493.551	91.875	0.052	0.058
-492.537	-44.993	-0.266	-0.131
-491.522	-87.442	0.282	0.084
-490.508	-200.000	-0.005	0.312
-489.493	65.272	-0.126	0.126
-488.478	-92.963	0.094	0.026
-487.464	20.394	-0.318	-0.254
-486.449	-200.000	-0.040	-0.180
-485.435	-104.708	-0.153	0.035
-484.420	554.553	0.163	0.388
-483.405	-85.123	-0.032	-0.010
-482.391	-114.345	0.167	-0.032
-481.376	84.173	0.073	-0.079
-480.362	800.000	0.024	0.097
-479.347	685.515	0.151	0.390
-478.332	-151.738	-0.228	0.017
-477.318	331.245	0.188	0.357
-476.303	47.819	0.119	-0.109
-475.289	-96.997	-0.095	-0.025
-474.274	-82.803	0.179	0.057
-473.259	-99.317	-0.173	0.043
-472.245	95.413	-0.055	-0.062
-471.230	-92.753	-0.112	-0.031
-470.216	-138.533	0.333	0.036
-469.201	-92.301	0.143	-0.040
-468.186	215.054	-0.067	-0.104
-467.172	-200.000	0.011	-0.312
-466.157	-131.985	-0.229	0.029
-465.143	-19.562	0.385	0.235
-464.128	-19.227	-0.228	-0.139
-463.113	-87.402	-0.184	0.055
-462.099	-200.000	0.052	0.257
-461.084	-34.107	0.253	0.137
-460.070	177.162	-0.157	-0.226
-459.055	61.185	-0.025	-0.024
-458.040	-200.000	-0.025	-0.110
-457.026	-8.713	-0.132	0.087
-456.011	-200.000	-0.020	-0.091
-454.997	-6.805	0.193	0.129
-453.982	-35.734	0.267	0.143
-452.968	-49.937	-0.081	0.038
-451.953	-7.612	-0.168	-0.112
-450.938	27.330	0.236	0.196
-449.924	-200.000	-0.003	0.118
-448.909	-160.864	0.228	0.012
-447.895	-105.514	0.312	0.070
-446.880	75.022	-0.372	-0.386
-445.865	-158.147	0.155	-0.009
-444.851	-101.256	-0.183	-0.044
-443.836	-200.000	-0.027	0.204
-442.822	-200.000	0.042	-0.301
-441.807	155.991	0.155	-0.211
-440.792	-66.652	-0.142	0.055
-439.778	25.364	0.134	0.110
-438.763	123.228	-0.159	-0.197
-437.749	51.797	-0.257	0.241
-436.734	-126.805	0.327	0.048
-435.719	411.307	0.034	0.070
-434.705	-128.810	0.234	-0.032
-433.690	-56.675	0.085	-0.037
-432.676	4.405	0.272	0.197
-431.661	-200.000	0.004	-0.328
-430.646	800.000	-0.098	-0.365
-429.632	62.662	0.172	0.170
-428.617	-170.723	-0.101	0.003
-427.603	-200.000	-0.011	0.086
-426.588	-54.756	0.090	0.040
-425.573	580.863	-0.138	-0.333
-424.559	16.459	-0.205	0.159
-423.544	-200.000	0.013	-0.190
-422.530	145.958	-0.107	-0.141
-421.515	800.000	-0.090	0.385
-420.500	-63.448	-0.398	-0.161
-419.486	-43.656	0.144	0.072
-418.471	9.499	-0.166	0.124
-417.457	-112.951	0.177	0.035
-416.442	800.000	0.042	0.143
-415.428	361.933	-0.059	-0.117
-414.413	-53.703	-0.241	-0.109
-413.398	-14.665	0.099	-0.063
-412.384	218.845	0.180	-0.284
-411.369	-106.811	-0.157	0.034
-410.355	-21.594	0.163	-0.098
-409.340	391.159	-0.071	-0.146
-408.325	800.000	0.053	0.185
-407.311	-71.650	-0.114	0.042
-406.296	-164.289	-0.142	0.006
-405.282	74.483	-0.126	0.130
-404.267	-81.634	0.321	-0.104
-403.252	20.865	-0.176	-0.141
-402.238	48.184	0.025	0.023
-401.223	448.687	-0.063	0.136
-400.209	-13.634	-0.210	0.134
-399.194	-116.592	-0.440	0.080
-398.179	800.000	0.069	0.234
-397.165	606.082	0.075	0.185
-396.150	141.569	0.057	-0.075
-395.136	135.952	-0.307	0.394
-394.121	-49.868	0.303	-0.142
-393.106	156.908	0.090	0.122
-392.092	-200.000	0.023	-0.125
-391.077	637.745	0.149	-0.372
-390.063	-30.664	-0.096	-0.053
-389.048	800.000	-0.041	0.130
-388.033	-200.000	0.018	0.230
-387.019	37.401	-0.364	-0.317
-386.004	-21.944	0.061	-0.037
-384.990	-18.858	-0.314	-0.193
-383.975	-200.000	-0.048	0.232
-382.960	162.010	-0.120	0.165
-381.946	186.994	0.069	-0.101
-380.931	162.349	0.129	0.178
-379.917	-176.225	-0.114	-0.003
-378.902	46.313	-0.132	-0.120
-377.888	-171.255	0.080	-0.003
-376.873	-200.000	0.070	-0.480
-375.858	800.000	0.028	0.114
-374.844	247.111	-0.060	0.100
-373.829	-67.262	-0.187	0.072
-372.815	-200.000	-0.035	-0.437
-371.800	-139.170	-0.184	-0.020
-370.785	-42.140	0.178	-0.089
-369.771	132.207	-0.105	0.133
-368.756	-200.000	-0.014	-0.062
-367.742	13.089	0.316	-0.241
-366.727	-116.917	0.128	0.023
-365.712	800.000	-0.051	0.182
-364.698	-200.000	0.017	-0.132
-363.683	0.346	-0.178	-0.125
-362.669	213.889	-0.102	0.159
-361.654	17.550	-0.136	0.106
-360.639	-200.000	0.021	0.308
-359.625	163.089	-0.068	-0.093
-358.610	800.000	-0.092	-0.263
-357.596	179.244	-0.118	-0.169
-356.581	800.000	0.066	-0.250
-355.566	420.195	-0.082	0.172
-354.552	-29.800	-0.210	0.117
-353.537	-137.637	0.169	-0.019
-352.523	75.363	0.173	0.180
-351.508	-200.000	0.014	0.139
-350.493	-102.924	-0.045	0.010
-349.479	-85.591	0.249	-0.076
-348.464	-200.000	0.014	-0.185
-347.450	53.168	-0.180	0.169
-346.435	214.403	0.072	0.112
-345.420	657.517	-0.079	-0.199
-344.406	43.899	-0.206	0.185
-343.391	-77.655	0.236	-0.080
-342.377	-17.466	0.283	-0.175
-341.362	66.774	0.178	0.178
-340.348	38.468	-0.167	-0.147
-339.333	119.384	0.261	0.317
-338.318	-200.000	-0.155	0.000
-337.304	-200.000	0.088	0.431
-336.289	-26.226	0.383	-0.221
-335.275	389.338	-0.202	-0.411
-334.260	-139.099	-0.286	0.030
-333.245	448.177	-0.056	0.120
-332.231	-78.254	0.208	0.070
-331.216	-95.120	-0.244	-0.065
-330.202	-200.000	0.114	0.498
-329.187	-72.849	-0.362	0.131
-328.172	8.799	-0.171	0.126
-327.158	235.587	0.225	-0.364
-326.143	84.501	-0.254	0.273
-325.129	352.166	0.116	0.226
-324.114	303.783	-0.135	-0.245
-323.099	-135.178	-0.479	0.057
-322.085	354.048	0.167	0.325
-321.070	-67.507	-0.254	0.098
-320.056	136.637	-0.033	0.042
-319.041	-200.000	-0.036	0.175
-318.026	-59.029	0.201	-0.085
-317.012	29.103	-0.243	0.203
-315.997	-57.947	0.368	-0.158
-314.983	84.976	0.137	0.147
-313.968	-148.940	-0.327	0.026
-312.953	800.000	0.022	0.062
-311.939	-36.856	0.038	0.020
-310.924	108.870	0.353	0.414
-309.910	153.555	-0.127	-0.171
-308.895	415.851	0.142	0.297
-307.880	6.917	-0.229	0.167
-306.866	-122.181	0.198	0.032
-305.851	56.284	-0.131	-0.125
-304.837	-29.452	0.184	0.103
-303.822	378.511	-0.199	0.399
-302.807	56.814	0.183	0.175
-301.793	-82.345	0.383	-0.122
-300.778	36.550	0.102	-0.089
-299.764	-200.000	0.016	0.155
-298.749	291.084	-0.123	-0.220
-297.735	800.000	-0.033	0.131
-296.720	-10.969	-0.122	-0.079
-295.705	-200.000	0.048	0.379
-294.691	-0.821	-0.253	-0.176
-293.676	20.618	0.395	0.313
-292.662	-124.985	-0.300	-0.045
-291.647	398.949	0.053	0.109
-290.632	-98.733	0.318	0.079
-289.618	46.294	0.330	-0.299
-288.603	11.107	-0.021	-0.016
-287.589	167.440	-0.099	0.138
-286.574	-172.765	-0.195	0.006
-285.559	-100.319	0.071	0.017
-284.545	334.672	-0.063	-0.120
-283.530	-171.606	-0.095	0.003
-282.516	141.142	0.089	0.116
-281.501	214.503	0.136	-0.211
-280.486	800.000	-0.053	0.208
-279.472	195.666	-0.153	0.228
-278.457	-115.324	0.136	0.025
-277.443	-58.944	0.155	0.066
-276.428	800.000	0.070	0.217
-275.413	-200.000	0.019	-0.177
-274.399	800.000	-0.066	-0.205
-273.384	645.717	-0.031	-0.078
-272.370	-166.367	-0.140	-0.006
-271.355	-83.584	-0.211	-0.066
-270.340	71.495	-0.097	0.098
-269.326	423.997	-0.033	0.070
-268.311	119.764	0.056	-0.067
-267.297	800.000	-0.106	-0.387
-266.282	-200.000	0.000	0.013
-265.267	800.000	0.094	-0.341
-264.253	151.372	-0.041	-0.055
-263.238	-68.369	-0.196	0.075
-262.224	86.411	0.207	0.223
-261.209	-8.206	-0.285	-0.188
-260.195	-92.973	0.173	-0.047
-259.180	182.429	-0.185	-0.267
-258.165	-154.440	0.192	-0.013
-257.151	-10.878	0.066	0.043
-256.136	-69.294	0.096	0.036
-255.122	571.236	-0.119	-0.283
-254.107	24.189	0.178	-0.144
-253.092	-188.267	-0.236	0.003
-252.078	1.893	-0.106	-0.075
-251.063	-200.000	0.036	0.209
-250.049	-136.295	-0.246	0.028
-249.034	-200.000	0.003	-0.056
-248.019	105.908	-0.096	0.111
-247.005	152.266	-0.173	0.231
-245.990	306.691	-0.077	-0.140
-244.976	-200.000	-0.016	-0.287
-243.961	166.134	0.132	0.183
-242.946	484.318	-0.082	0.183
-241.932	-200.000	0.002	0.144
-240.917	15.114	0.231	0.177
-239.903	-200.000	-0.009	0.188
-238.888	38.723	-0.148	-0.129
-237.873	-82.057	-0.144	-0.046
-236.859	80.842	0.086	0.091
-235.844	3.809	-0.178	-0.127
-234.830	83.489	-0.096	0.102
-233.815	-147.814	0.321	-0.026
-232.800	-200.000	-0.029	-0.134
-231.786	800.000	-0.032	-0.086
-230.771	-94.245	-0.087	-0.023
-229.757	-30.536	-0.163	0.090
-228.742	368.733	0.159	0.314
-227.727	-84.150	-0.304	-0.094
-226.713	-200.000	0.013	0.190
-225.698	-16.886	0.181	-0.112
-224.684	95.280	0.037	-0.041
-223.669	624.224	0.034	0.084
-222.655	-69.664	0.260	-0.097
-221.640	-36.917	0.183	0.096
-220.625	-154.996	0.290	0.019
-219.611	101.900	-0.150	-0.171
-218.596	-133.222	0.270	0.033
-217.582	-77.565	0.182	0.062
-216.567	237.928	0.145	-0.235
-215.552	-77.413	0.261	-0.089
-214.538	116.571	0.100	-0.120
-213.523	113.261	0.122	0.144
-212.509	-200.000	0.006	0.352
-211.494	96.152	0.102	0.114
-210.479	176.762	-0.138	0.197
-209.465	252.405	-0.085	-0.141
-208.450	-179.466	-0.175	-0.004
-207.436	51.807	0.154	-0.143
-206.421	726.158	-0.135	0.352
-205.406	-179.502	0.216	0.005
-204.392	-200.000	-0.006	0.213
-203.377	-79.500	-0.265	-0.088
-202.363	-200.000	0.093	-0.000
-201.348	26.837	-0.354	0.290
-200.333	-120.967	0.386	-0.063
-199.319	-200.000	0.037	-0.191
-198.304	-123.087	0.290	-0.045
-197.290	-113.302	-0.232	-0.044
-196.275	-18.913	-0.102	-0.062
-195.260	-4.194	0.088	-0.060
-194.246	131.876	0.093	-0.117
-193.231	-22.585	-0.132	0.078
-192.217	-61.991	-0.157	-0.064
-191.202	-122.480	-0.297	-0.047
-190.187	-106.416	-0.115	0.025
-189.173	389.848	-0.059	-0.120
-188.158	800.000	-0.161	0.433
-187.144	-131.173	-0.098	-0.013
-186.129	-172.517	0.253	0.008
-185.114	-56.447	-0.307	-0.133
-184.100	-19.910	0.085	0.051
-183.085	-88.400	0.135	0.039
-182.071	298.739	0.156	0.280
-181.056	-70.122	0.150	0.056
-180.042	89.968	0.261	0.284
-179.027	800.000	-0.040	-0.149
-178.012	15.470	-0.124	-0.095
-176.998	-30.469	0.357	0.198
-175.983	-5.152	-0.163	-0.109
-174.969	-150.511	-0.283	-0.021
-173.954	-123.359	0.137	-0.021
-172.939	-200.000	-0.013	-0.307
-171.925	214.858	0.282	-0.436
-170.910	784.898	0.054	-0.143
-169.896	-56.922	-0.167	-0.072
-168.881	800.000	-0.049	0.136
-167.866	-146.141	-0.141	0.012
-166.852	81.875	-0.248	0.262
-165.837	800.000	-0.101	0.340
-164.823	335.064	0.068	0.128
-163.808	-12.920	0.258	0.164
-162.793	81.257	0.220	0.232
-161.779	134.199	-0.053	0.067
-160.764	-20.427	-0.182	0.109
-159.750	-200.000	-0.060	0.260
-158.735	-131.086	-0.212	-0.028
-157.720	-114.402	-0.118	-0.022
-156.706	-68.964	-0.278	-0.105
-155.691	167.778	0.091	0.126
-154.677	295.483	-0.053	0.094
-153.662	140.391	-0.085	-0.109
-152.647	427.296	0.085	-0.179
-151.633	-111.647	0.139	-0.027
-150.618	-200.000	0.004	0.021
-149.604	-22.579	-0.401	-0.236
-148.589	-200.000	0.010	0.261
-147.574	-200.000	-0.021	0.425
-146.560	86.039	-0.184	0.197
-145.545	-100.477	0.342	0.082
-144.531	134.083	-0.349	-0.441
-143.516	38.871	0.064	0.056
-142.502	-16.302	-0.095	-0.059
-141.487	45.384	0.091	-0.081
-140.472	45.379	-0.194	-0.175
-139.458	-200.000	0.013	-0.108
-138.443	-200.000	0.028	0.150
-137.429	-200.000	0.005	-0.051
-136.414	800.000	-0.018	0.054
-135.399	-142.812	0.522	0.049
-134.385	800.000	0.037	0.151
-133.370	-90.882	-0.041	0.012
-132.356	-62.402	-0.267	0.108
-131.341	27.491	0.086	0.071
-130.326	4.247	0.292	-0.208
-129.312	-9.748	-0.332	-0.215
-128.297	193.122	-0.146	-0.215
-127.283	-21.841	-0.115	-0.068
-126.268	47.216	0.114	0.103
-125.253	-91.523	-0.146	0.040
-124.239	-46.348	0.056	-0.027
-123.224	800.000	0.060	-0.233
-122.210	194.159	-0.084	-0.124
-121.195	-200.000	0.019	-0.111
