DTS Sentinel unit serial number:	SN413079Multiplexer serial number:	ORYXHardware model number:	OX4-SRSoftware version number:	ORYX F/W v4.00 Oryx Data Collector v3.7.2.0data status	okinstallation	princeton_trtdifferential loss correction	single-endedforward channel	channel 2reverse channel	N/Adate	2019/09/14time	19:11:35forward acquisition time	60.00reverse acquisition time	0.00gamma	496.2192k internal	0.2321k external	0.2321temperature offset calibration	1.0094default loss term (dB/km)	0.3790temperature slope calibration	1.0000multiplexer offset coefficient	1.0000multiplexer slope coefficient	1.0000fibre end	0.00T internal ref (°C)	35.30T ext. ref 1 (°C)	4.86T ext. ref 2 (°C)	29.22length (m)	temperature (°C)	Stokes	anti-Stokes-747.200	420.979	0.164	0.355
-746.185	-200.000	-0.287	0.001
-745.171	120.469	-0.329	-0.413
-744.156	43.194	0.066	0.061
-743.142	-200.000	-0.017	0.290
-742.127	-200.000	0.013	0.255
-741.112	800.000	-0.036	-0.136
-740.098	82.175	-0.203	0.223
-739.083	-114.921	0.258	-0.050
-738.069	-154.736	-0.336	0.023
-737.054	-200.000	-0.051	-0.271
-736.039	-200.000	0.041	-0.187
-735.025	-125.069	0.185	0.029
-734.010	-106.666	-0.429	-0.096
-732.996	30.391	-0.397	0.343
-731.981	-16.980	-0.252	-0.161
-730.966	-200.000	0.011	-0.083
-729.952	-38.214	-0.220	-0.118
-728.937	229.295	0.027	0.044
-727.923	-33.181	-0.234	-0.131
-726.908	387.361	0.039	0.081
-725.894	800.000	-0.068	0.215
-724.879	-149.621	-0.257	0.020
-723.864	800.000	0.042	0.159
-722.850	111.607	0.102	-0.124
-721.835	9.699	0.129	-0.098
-720.821	203.853	0.070	-0.110
-719.806	-160.152	-0.141	0.008
-718.791	-127.993	-0.397	0.058
-717.777	152.034	0.052	0.072
-716.762	-74.365	-0.111	0.041
-715.748	53.187	-0.134	-0.129
-714.733	800.000	0.073	-0.269
-713.718	-134.067	0.159	-0.020
-712.704	-29.486	0.186	-0.107
-711.689	-83.349	-0.182	0.059
-710.675	-141.843	-0.260	0.026
-709.660	-200.000	-0.010	-0.051
-708.645	-97.868	-0.238	-0.062
-707.631	133.397	-0.148	0.194
-706.616	-159.625	0.170	-0.009
-705.602	233.701	0.117	0.194
-704.587	36.094	0.216	-0.192
-703.572	-158.508	0.244	0.014
-702.558	372.282	-0.072	0.147
-701.543	60.038	0.113	0.113
-700.529	-51.523	0.067	-0.031
-699.514	-200.000	-0.072	-0.328
-698.499	-29.949	0.242	-0.139
-697.485	-38.307	-0.171	-0.092
-696.470	-109.919	-0.311	-0.066
-695.456	-156.255	-0.131	-0.008
-694.441	-195.459	-0.260	0.002
-693.426	91.830	0.108	0.122
-692.412	800.000	-0.068	0.205
-691.397	-200.000	-0.043	0.211
-690.383	185.941	-0.149	-0.223
-689.368	651.570	-0.051	-0.132
-688.354	-16.223	0.085	-0.054
-687.339	-107.919	-0.075	0.016
-686.324	800.000	-0.165	0.572
-685.310	-200.000	0.021	0.300
-684.295	255.975	-0.168	0.291
-683.281	132.791	0.154	0.200
-682.266	534.772	0.014	-0.034
-681.251	-163.924	-0.155	-0.007
-680.237	142.529	0.414	-0.555
-679.222	800.000	0.048	-0.146
-678.208	800.000	-0.072	0.234
-677.193	601.169	0.114	0.284
-676.178	226.393	0.164	-0.268
-675.164	5.715	-0.240	0.179
-674.149	102.007	-0.097	0.114
-673.135	-20.232	-0.128	0.080
-672.120	35.968	0.122	-0.108
-671.105	800.000	-0.077	0.295
-670.091	800.000	-0.094	0.312
-669.076	559.995	0.094	0.229
-668.062	-45.427	-0.374	-0.187
-667.047	-200.000	-0.017	-0.151
-666.032	-117.336	-0.438	0.080
-665.018	229.320	0.071	0.117
-664.003	-96.117	0.200	-0.053
-662.989	-169.494	0.145	-0.005
-661.974	-166.152	-0.219	-0.009
-660.959	-8.245	0.185	-0.125
-659.945	-43.992	-0.141	-0.071
-658.930	-101.256	-0.224	-0.055
-657.916	158.718	-0.036	-0.050
-656.901	132.514	-0.118	0.154
-655.886	-200.000	-0.035	0.328
-654.872	-200.000	0.026	0.270
-653.857	-16.163	0.159	-0.102
-652.843	-54.428	-0.109	-0.050
-651.828	47.137	0.198	0.186
-650.814	-23.658	-0.225	-0.136
-649.799	-135.529	0.101	-0.012
-648.784	452.747	0.048	0.107
-647.770	-43.348	-0.097	0.050
-646.755	278.122	-0.011	-0.019
-645.741	-59.516	0.124	-0.054
-644.726	-200.000	0.022	0.331
-643.711	-112.746	-0.298	0.060
-642.697	-8.996	-0.201	0.136
-641.682	550.121	-0.073	-0.176
-640.668	182.657	0.121	0.179
-639.653	3.955	-0.469	-0.345
-638.638	276.908	-0.067	-0.120
-637.624	247.945	0.196	-0.334
-636.609	657.710	0.044	0.114
-635.595	-34.733	-0.228	0.125
-634.580	42.037	-0.142	-0.130
-633.565	556.772	-0.080	0.195
-632.551	-117.574	-0.163	0.030
-631.536	71.375	-0.228	0.238
-630.522	149.494	-0.048	-0.066
-629.507	68.785	-0.221	-0.228
-628.492	217.359	0.119	-0.191
-627.478	797.188	-0.101	-0.281
-626.463	-200.000	0.011	-0.076
-625.449	-123.163	-0.249	0.040
-624.434	-136.211	-0.184	-0.022
-623.419	-200.000	0.030	-0.185
-622.405	-77.756	-0.427	-0.148
-621.390	108.987	-0.060	0.072
-620.376	22.023	0.204	-0.168
-619.361	-200.000	-0.039	-0.334
-618.346	-97.956	0.122	-0.032
-617.332	-20.956	0.171	-0.105
-616.317	-30.880	-0.208	-0.118
-615.303	-49.494	-0.214	0.103
-614.288	12.962	0.225	0.175
-613.273	-120.721	-0.335	0.057
-612.259	-200.000	-0.029	0.322
-611.244	800.000	0.063	0.207
-610.230	53.068	-0.312	0.300
-609.215	689.662	0.082	-0.215
-608.201	-98.734	-0.223	-0.057
-607.186	-106.925	0.057	0.013
-606.171	-132.168	-0.304	0.040
-605.157	800.000	0.036	-0.130
-604.142	224.847	0.136	-0.221
-603.128	187.918	0.127	0.190
-602.113	800.000	-0.070	-0.281
-601.098	203.489	-0.134	-0.208
-600.084	-200.000	0.020	-0.115
-599.069	40.316	-0.065	0.059
-598.055	-200.000	0.040	0.339
-597.040	-73.223	-0.154	-0.057
-596.025	24.324	0.077	0.064
-595.011	-137.660	0.172	-0.019
-593.996	-163.083	-0.141	-0.007
-592.982	-73.473	0.275	0.101
-591.967	636.635	-0.049	-0.124
-590.952	627.999	-0.068	0.172
-589.938	7.535	0.240	-0.180
-588.923	64.473	-0.084	0.085
-587.909	800.000	0.048	-0.157
-586.894	-161.761	-0.165	-0.008
-585.879	19.099	0.073	0.059
-584.865	154.476	0.161	0.222
-583.850	-200.000	0.005	-0.176
-582.836	2.709	-0.315	-0.229
-581.821	-73.263	-0.576	0.212
-580.806	33.489	-0.050	0.044
-579.792	354.094	0.095	0.189
-578.777	0.438	-0.197	-0.141
-577.763	-200.000	0.002	-0.206
-576.748	-17.877	-0.343	-0.216
-575.733	-111.619	0.165	-0.034
-574.719	297.551	0.091	-0.168
-573.704	-89.973	0.265	0.078
-572.690	5.210	-0.121	0.089
-571.675	-169.396	-0.270	-0.010
-570.661	-200.000	-0.063	-0.288
-569.646	295.582	0.134	-0.246
-568.631	18.111	0.245	0.196
-567.617	-74.484	0.177	-0.064
-566.602	-81.030	-0.146	-0.049
-565.588	-110.304	0.259	-0.054
-564.573	-90.559	-0.479	0.139
-563.558	-189.716	-0.220	-0.003
-562.544	800.000	0.048	0.179
-561.529	339.216	-0.152	0.298
-560.515	-84.573	-0.200	-0.063
-559.500	668.434	0.045	-0.116
-558.485	105.095	0.139	-0.164
-557.471	28.616	0.095	-0.081
-556.456	-34.079	0.283	0.156
-555.442	-122.896	-0.171	0.028
-554.427	283.973	0.125	0.225
-553.412	-54.660	0.407	0.184
-552.398	-109.773	0.282	-0.059
-551.383	141.798	-0.106	0.141
-550.369	113.447	-0.181	0.221
-549.354	-174.873	0.453	-0.013
-548.339	-72.145	0.291	0.108
-547.325	-103.678	0.069	-0.016
-546.310	-100.149	-0.438	0.109
-545.296	-70.497	0.056	-0.021
-544.281	-150.549	-0.058	0.004
-543.266	-137.713	-0.212	0.024
-542.252	145.835	0.032	-0.043
-541.237	47.153	-0.093	-0.087
-540.223	120.096	0.041	-0.051
-539.208	217.412	0.118	0.189
-538.193	161.268	0.104	-0.146
-537.179	-200.000	-0.021	0.201
-536.164	-42.192	0.323	0.165
-535.150	38.261	-0.131	-0.117
-534.135	11.449	-0.090	0.069
-533.121	415.475	0.205	-0.438
-532.106	800.000	0.060	-0.208
-531.091	282.358	-0.062	0.112
-530.077	-200.000	0.007	-0.303
-529.062	103.308	0.087	-0.102
-528.048	192.087	-0.143	-0.216
-527.033	99.028	0.164	-0.190
-526.018	150.956	0.182	0.248
-525.004	800.000	-0.137	-0.457
-523.989	-200.000	-0.001	-0.030
-522.975	11.792	0.276	-0.212
-521.960	-200.000	-0.002	-0.053
-520.945	-104.699	0.241	-0.056
-519.931	14.015	0.442	0.345
-518.916	-72.227	0.274	0.102
-517.902	800.000	-0.029	0.091
-516.887	14.772	-0.296	0.232
-515.872	-55.255	-0.133	-0.060
-514.858	697.566	0.089	0.233
-513.843	354.421	-0.203	0.403
-512.829	-193.397	0.427	-0.004
-511.814	29.333	0.191	0.162
-510.799	147.307	-0.155	0.209
-509.785	21.886	0.055	-0.045
-508.770	-2.252	-0.296	-0.208
-507.756	35.049	-0.138	0.121
-506.741	-78.927	-0.117	0.040
-505.726	-10.028	0.130	-0.086
-504.712	750.821	0.189	-0.511
-503.697	230.169	0.165	-0.271
-502.683	-187.613	-0.234	0.003
-501.668	-162.076	0.309	0.016
-500.653	81.466	-0.151	0.164
-499.639	5.082	0.089	-0.066
-498.624	-72.136	-0.193	0.072
-497.610	-200.000	-0.017	-0.230
-496.595	-155.596	0.166	0.011
-495.581	-200.000	-0.008	0.203
-494.566	-97.089	0.190	0.050
-493.551	-40.374	0.180	0.094
-492.537	17.140	0.131	-0.104
-491.522	800.000	-0.031	0.099
-490.508	159.824	0.045	0.063
-489.493	-88.966	-0.161	0.048
-488.478	-200.000	0.027	0.295
-487.464	-200.000	-0.103	-0.471
-486.449	187.916	0.044	-0.065
-485.435	-18.549	-0.202	-0.126
-484.420	-89.160	-0.231	0.068
-483.405	-67.924	-0.028	0.011
-482.391	514.089	0.086	0.201
-481.376	137.052	-0.121	0.158
-480.362	800.000	0.059	-0.224
-479.347	800.000	-0.087	-0.358
-478.332	-200.000	-0.009	-0.227
-477.318	-89.412	-0.170	0.050
-476.303	-102.220	0.172	0.041
-475.289	-200.000	0.016	0.155
-474.274	324.704	0.172	0.328
-473.259	406.849	-0.082	0.173
-472.245	32.923	-0.285	0.246
-471.230	-43.502	-0.106	0.053
-470.216	14.508	-0.189	0.148
-469.201	-89.008	-0.219	-0.065
-468.186	376.624	-0.084	-0.171
-467.172	-8.921	-0.045	-0.030
-466.157	338.014	0.260	-0.505
-465.143	389.138	0.147	-0.304
-464.128	-79.861	0.290	0.098
-463.113	-72.242	0.037	-0.014
-462.099	134.404	0.119	-0.154
-461.084	103.483	-0.043	0.050
-460.070	-172.567	-0.127	0.004
-459.055	-156.848	0.577	-0.035
-458.040	358.927	0.185	0.370
-457.026	-180.658	-0.138	-0.003
-456.011	-200.000	0.040	0.300
-454.997	-200.000	0.044	0.198
-453.982	-60.876	-0.048	-0.020
-452.968	137.676	0.089	-0.116
-451.953	103.704	0.186	0.219
-450.938	604.818	0.078	-0.194
-449.924	-74.159	-0.344	0.124
-448.909	800.000	0.069	-0.218
-447.895	-200.000	-0.051	0.278
-446.880	-21.260	-0.070	-0.043
-445.865	16.529	0.039	-0.031
-444.851	1.536	0.178	-0.128
-443.836	-70.452	-0.065	-0.025
-442.822	-18.805	-0.165	0.103
-441.807	162.346	-0.177	0.248
-440.792	684.896	-0.077	0.202
-439.778	-58.937	-0.339	-0.146
-438.763	-7.595	-0.136	0.092
-437.749	-200.000	-0.255	0.001
-436.734	-98.173	-0.316	-0.081
-435.719	105.126	0.159	0.187
-434.705	135.994	-0.155	-0.201
-433.690	-71.719	-0.206	-0.077
-432.676	-200.000	0.047	0.234
-431.661	-120.875	0.204	-0.034
-430.646	83.294	-0.071	0.078
-429.632	-53.645	0.244	0.111
-428.617	160.008	-0.202	0.281
-427.603	-116.771	0.010	0.002
-426.588	316.201	0.121	0.227
-425.573	-85.660	0.173	0.054
-424.559	42.460	0.037	0.034
-423.544	673.098	0.072	-0.185
-422.530	-122.247	-0.036	-0.006
-421.515	264.812	0.191	0.333
-420.500	-73.469	-0.282	-0.103
-419.486	-143.085	0.160	-0.015
-418.471	16.922	0.110	-0.087
-417.457	-200.000	0.509	0.001
-416.442	-146.666	0.082	-0.007
-415.428	-34.142	-0.387	0.212
-414.413	312.033	0.246	-0.461
-413.398	111.509	-0.147	0.177
-412.384	-102.144	0.401	-0.096
-411.369	431.565	-0.058	-0.126
-410.355	800.000	0.078	0.340
-409.340	154.035	0.178	-0.243
-408.325	-135.154	0.080	-0.010
-407.311	400.179	0.090	-0.189
-406.296	8.947	0.285	-0.214
-405.282	-200.000	-0.028	0.145
-404.267	800.000	0.049	-0.188
-403.252	800.000	0.117	-0.477
-402.238	800.000	0.043	-0.179
-401.223	-200.000	0.032	-0.259
-400.209	11.369	-0.107	0.082
-399.194	22.530	0.262	-0.214
-398.179	532.751	-0.166	-0.393
-397.165	800.000	0.068	0.207
-396.150	-200.000	0.038	0.250
-395.136	251.918	0.130	0.221
-394.121	-12.942	0.329	-0.214
-393.106	-200.000	0.025	-0.242
-392.092	177.727	-0.005	0.007
-391.077	-40.945	-0.322	0.166
-390.063	54.686	0.111	0.107
-389.048	-103.441	0.414	0.097
-388.033	10.678	-0.174	0.133
-387.019	-200.000	0.022	0.113
-386.004	363.657	0.049	0.097
-384.990	176.382	0.126	-0.182
-383.975	-152.801	0.296	-0.021
-382.960	-200.000	0.016	0.135
-381.946	593.574	-0.020	-0.050
-380.931	-5.801	-0.048	0.032
-379.917	-200.000	-0.009	0.090
-378.902	-100.445	0.123	-0.030
-377.888	396.026	-0.076	0.159
-376.873	105.938	0.069	-0.081
-375.858	587.459	0.112	-0.274
-374.844	-54.331	-0.324	-0.146
-373.829	-82.770	-0.229	0.074
-372.815	-8.013	0.168	-0.113
-371.800	-113.853	0.183	-0.035
-370.785	10.397	0.103	0.078
-369.771	25.185	-0.080	-0.066
-368.756	-105.062	0.290	-0.066
-367.742	-94.369	-0.151	0.041
-366.727	490.570	-0.039	0.089
-365.712	110.198	0.040	0.048
-364.698	99.642	-0.029	-0.034
-363.683	-200.000	0.092	-0.483
-362.669	-200.000	0.018	-0.118
-361.654	-200.000	-0.041	-0.203
-360.639	-28.832	-0.298	-0.170
-359.625	-139.673	-0.157	0.017
-358.610	-94.601	0.231	0.062
-357.596	-29.585	0.093	-0.053
-356.581	-99.457	0.200	-0.050
-355.566	-55.740	0.136	-0.061
-354.552	-200.000	-0.033	-0.354
-353.537	593.834	0.096	0.235
-352.523	67.994	0.299	-0.304
-351.508	-72.574	0.054	-0.020
-350.493	-59.029	-0.357	0.154
-349.479	166.635	0.144	0.203
-348.464	317.556	0.094	0.177
-347.450	-200.000	-0.111	0.498
-346.435	800.000	-0.093	0.303
-345.420	800.000	0.013	0.053
-344.406	-117.007	-0.176	-0.032
-343.391	-200.000	0.016	-0.138
-342.377	77.818	0.091	-0.096
-341.362	21.648	0.073	0.059
-340.348	12.688	-0.283	-0.218
-339.333	-42.574	0.378	0.192
-338.318	105.922	-0.105	0.123
-337.304	425.504	0.057	-0.123
-336.289	-91.975	0.158	0.045
-335.275	-200.000	-0.012	0.162
-334.260	-42.082	0.189	0.096
-333.245	-116.140	0.281	0.052
-332.231	-72.370	-0.219	0.081
-331.216	99.368	-0.214	0.246
-330.202	-124.773	0.384	-0.059
-329.187	-30.305	-0.182	-0.103
-328.172	-116.378	0.101	-0.019
-327.158	-45.460	0.113	0.056
-326.143	96.496	-0.177	-0.201
-325.129	675.557	-0.052	0.135
-324.114	-181.786	0.312	-0.006
-323.099	-127.411	0.198	-0.029
-322.085	526.848	0.127	0.297
-321.070	-8.985	-0.358	-0.238
-320.056	-136.047	-0.104	0.012
-319.041	284.606	0.086	0.155
-318.026	-8.386	-0.198	0.132
-317.012	-148.328	0.267	-0.022
-315.997	13.194	0.030	-0.023
-314.983	589.114	-0.066	0.162
-313.968	-200.000	0.013	0.299
-312.953	-200.000	-0.013	0.324
-311.939	272.417	-0.035	-0.062
-310.924	620.785	-0.124	0.310
-309.910	24.116	0.100	0.082
-308.895	35.400	0.120	-0.105
-307.880	-31.685	-0.209	-0.116
-306.866	-87.039	0.256	-0.077
-305.851	800.000	-0.150	0.469
-304.837	-81.552	-0.081	-0.027
-303.822	-175.534	0.522	0.014
-302.807	255.136	-0.093	-0.159
-301.793	800.000	-0.041	0.123
-300.778	226.982	0.280	-0.452
-299.764	313.146	-0.111	-0.207
-298.749	28.034	0.243	0.204
-297.735	445.255	-0.099	-0.217
-296.720	-31.668	0.183	0.102
-295.705	-35.254	-0.070	0.038
-294.691	190.913	-0.140	0.209
-293.676	-20.716	-0.127	0.077
-292.662	-87.656	0.195	-0.058
-291.647	186.948	-0.046	0.069
-290.632	264.914	0.146	-0.252
-289.618	-14.715	-0.385	0.245
-288.603	108.680	-0.192	0.228
-287.589	-60.582	0.262	-0.111
-286.574	125.687	-0.029	-0.036
-285.559	-10.739	-0.225	-0.148
-284.545	800.000	0.124	-0.385
-283.530	-29.595	-0.148	0.084
-282.516	-135.908	0.342	0.040
-281.501	800.000	-0.034	0.112
-280.486	-170.133	0.236	-0.008
-279.472	-72.516	0.111	0.041
-278.457	51.661	-0.227	-0.214
-277.443	151.015	0.040	0.054
-276.428	619.995	-0.031	-0.078
-275.413	-4.039	-0.214	-0.147
-274.399	141.064	0.177	0.233
-273.384	697.548	0.216	-0.563
-272.370	-65.938	0.160	-0.063
-271.355	-179.206	0.128	-0.003
-270.340	43.068	0.339	0.307
-269.326	-82.151	0.221	-0.072
-268.311	-126.873	0.165	-0.024
-267.297	-200.000	0.001	0.336
-266.282	-95.552	0.210	0.056
-265.267	-200.000	0.366	0.002
-264.253	-200.000	0.001	0.018
-263.238	800.000	0.025	-0.106
-262.224	100.932	-0.036	0.041
-261.209	-65.189	0.295	0.118
-260.195	-200.000	-0.049	-0.244
-259.180	514.042	0.049	-0.114
-258.165	642.365	0.066	-0.168
-257.151	88.184	-0.356	-0.392
-256.136	17.204	-0.248	-0.195
-255.122	-93.307	-0.053	0.015
-254.107	-117.605	0.059	-0.011
-253.092	156.727	-0.137	0.188
-252.078	-12.706	-0.270	0.174
-251.063	-139.961	-0.441	-0.046
-250.049	-109.381	0.346	-0.073
-249.034	-23.493	0.250	0.149
-248.019	-37.815	0.082	0.043
-247.005	-116.699	-0.070	0.013
-245.990	-200.000	0.006	-0.274
-244.976	800.000	-0.045	0.125
-243.961	-48.180	-0.103	0.049
-242.946	-170.808	-0.148	-0.005
-241.932	-84.215	0.373	-0.117
-240.917	14.082	-0.219	-0.169
-239.903	-174.883	0.101	0.003
-238.888	-68.087	0.158	-0.061
-237.873	477.893	-0.162	0.364
-236.859	10.165	0.171	0.129
-235.844	-68.525	-0.295	-0.113
-234.830	354.546	-0.153	0.301
-233.815	90.855	-0.046	-0.051
-232.800	-200.000	0.002	-0.084
-231.786	149.343	0.192	0.257
-230.771	68.511	-0.180	0.183
-229.757	50.606	0.154	-0.144
-228.742	121.410	-0.097	-0.120
-227.727	-200.000	0.010	0.083
-226.713	-200.000	-0.025	0.191
-225.698	-200.000	-0.010	0.051
-224.684	-70.270	-0.182	0.068
-223.669	285.801	-0.106	-0.189
-222.655	-134.504	0.442	0.054
-221.640	41.857	-0.160	0.144
-220.625	-162.312	-0.115	-0.006
-219.611	170.696	-0.288	0.409
-218.596	549.310	0.076	-0.181
-217.582	-136.240	-0.523	-0.061
-216.567	108.832	0.158	-0.187
-215.552	-100.367	-0.255	-0.063
-214.538	-69.403	0.089	0.034
-213.523	430.443	-0.046	0.098
-212.509	-146.660	-0.297	0.026
-211.494	-57.920	0.165	-0.071
-210.479	-168.185	0.023	-0.001
-209.465	51.095	-0.155	-0.146
-208.450	26.018	-0.180	0.148
-207.436	-200.000	-0.041	0.251
-206.421	-29.959	-0.200	-0.113
-205.406	-135.555	-0.563	0.066
-204.392	521.176	0.070	-0.164
-203.377	-200.000	0.022	0.260
-202.363	-72.793	0.076	0.028
-201.348	298.825	0.166	0.303
-200.333	-125.405	-0.328	0.049
-199.319	-119.667	-0.241	-0.041
-198.304	-40.015	0.205	-0.106
-197.290	30.013	0.228	0.193
-196.275	-40.089	-0.138	0.071
-195.260	-69.515	-0.116	0.044
-194.246	553.888	-0.087	0.207
-193.231	-22.061	-0.085	-0.051
-192.217	418.494	-0.175	0.369
-191.202	5.994	0.068	0.050
-190.187	44.110	-0.207	0.188
-189.173	56.709	0.079	0.076
-188.158	-45.138	-0.246	-0.121
-187.144	-7.591	0.142	-0.095
-186.129	-139.729	-0.105	-0.011
-185.114	-200.000	0.009	0.039
-184.100	800.000	-0.058	-0.241
-183.085	108.948	-0.193	-0.228
-182.071	36.665	0.128	-0.111
-181.056	-84.153	-0.236	0.074
-180.042	65.900	-0.258	-0.258
-179.027	-200.000	0.022	-0.234
-178.012	60.639	-0.159	0.155
-176.998	198.082	-0.086	-0.130
-175.983	-200.000	-0.014	-0.283
-174.969	-49.861	-0.172	-0.081
-173.954	-200.000	-0.010	-0.097
-172.939	-191.798	-0.137	-0.001
-171.925	-200.000	-0.008	-0.321
-170.910	-82.131	0.468	-0.151
-169.896	4.708	-0.168	0.122
-168.881	-200.000	0.016	0.296
-167.866	-63.894	0.085	-0.034
-166.852	451.808	0.061	0.132
-165.837	-19.354	0.023	-0.014
-164.823	171.286	0.136	0.193
-163.808	-100.878	-0.285	-0.069
-162.793	-200.000	-0.013	0.166
-161.779	559.498	0.041	-0.098
-160.764	422.763	-0.119	-0.253
-159.750	-24.083	0.126	-0.074
-158.735	-21.246	0.195	-0.118
-157.720	800.000	-0.057	-0.241
-156.706	-126.645	-0.103	-0.015
-155.691	-200.000	0.062	0.292
-154.677	-60.630	-0.128	0.054
-153.662	-45.127	0.207	-0.102
-152.647	800.000	0.063	0.185
-151.633	169.258	0.114	0.161
-150.618	-172.814	-0.173	-0.005
-149.604	69.523	-0.150	0.153
-148.589	576.429	-0.093	-0.226
-147.574	-87.088	0.237	-0.071
-146.560	800.000	-0.056	0.228
-145.545	17.562	-0.235	-0.184
-144.531	-96.980	-0.392	-0.101
-143.516	169.644	0.100	-0.142
-142.502	-19.924	-0.131	0.080
-141.487	-101.684	0.317	0.076
-140.472	130.041	0.015	0.019
-139.458	-200.000	-0.016	0.257
-138.443	-55.129	-0.165	-0.073
-137.429	-126.548	-0.113	0.017
-136.414	301.543	-0.052	-0.095
-135.399	800.000	-0.007	0.024
-134.385	59.157	-0.238	0.232
-133.370	800.000	0.056	-0.211
-132.356	28.474	-0.156	-0.130
-131.341	522.533	0.083	-0.193
-130.326	800.000	0.068	0.285
-129.312	-200.000	-0.019	0.105
-128.297	109.240	0.376	-0.444
-127.283	-200.000	-0.028	0.226
-126.268	338.089	0.155	0.297
-125.253	-19.089	0.148	-0.091
-124.239	222.358	-0.040	0.063
-123.224	533.087	0.081	0.190
-122.210	630.676	0.014	0.036
-121.195	-44.835	-0.226	0.111
