DTS Sentinel unit serial number:	SN413079Multiplexer serial number:	ORYXHardware model number:	OX4-SRSoftware version number:	ORYX F/W v4.00 Oryx Data Collector v3.7.2.0data status	okinstallation	princeton_trtdifferential loss correction	single-endedforward channel	channel 2reverse channel	N/Adate	2019/09/14time	08:59:35forward acquisition time	60.00reverse acquisition time	0.00gamma	496.2192k internal	0.2324k external	0.2324temperature offset calibration	1.0124default loss term (dB/km)	0.3790temperature slope calibration	1.0000multiplexer offset coefficient	1.0000multiplexer slope coefficient	1.0000fibre end	0.00T internal ref (°C)	29.86T ext. ref 1 (°C)	3.73T ext. ref 2 (°C)	28.17length (m)	temperature (°C)	Stokes	anti-Stokes-747.200	520.686	-0.099	-0.235
-746.185	-200.000	-0.007	0.377
-745.171	-182.455	0.212	-0.004
-744.156	581.206	-0.058	-0.143
-743.142	800.000	-0.077	0.228
-742.127	-93.707	0.157	0.044
-741.112	-200.000	-0.010	-0.049
-740.098	-33.759	-0.264	-0.147
-739.083	800.000	-0.025	0.086
-738.069	800.000	-0.101	0.359
-737.054	93.088	0.141	-0.161
-736.039	-94.501	-0.368	-0.101
-735.025	114.880	0.060	0.074
-734.010	-123.689	-0.313	0.050
-732.996	71.263	-0.236	-0.247
-731.981	-200.000	-0.011	-0.268
-730.966	719.573	-0.046	0.124
-729.952	107.483	-0.085	-0.102
-728.937	28.308	-0.271	-0.231
-727.923	148.692	-0.234	0.318
-726.908	20.788	-0.241	-0.197
-725.894	-43.532	0.490	0.250
-724.879	131.801	0.176	-0.229
-723.864	-175.039	-0.376	0.011
-722.850	-200.000	0.003	-0.148
-721.835	144.782	-0.065	-0.088
-720.821	346.135	-0.105	-0.208
-719.806	800.000	-0.067	0.226
-718.791	800.000	-0.087	-0.254
-717.777	523.422	-0.051	-0.122
-716.762	146.878	-0.103	-0.139
-715.748	-200.000	0.006	-0.269
-714.733	-55.203	-0.124	-0.056
-713.718	6.292	-0.129	-0.097
-712.704	-200.000	-0.000	-0.267
-711.689	-187.511	0.075	-0.001
-710.675	-35.928	-0.037	-0.020
-709.660	800.000	0.069	-0.201
-708.645	-14.275	-0.034	-0.022
-707.631	800.000	-0.095	-0.384
-706.616	27.242	0.173	0.146
-705.602	-96.233	-0.189	0.051
-704.587	-28.494	0.132	-0.077
-703.572	-130.450	0.180	-0.025
-702.558	-6.372	-0.210	-0.144
-701.543	-54.825	0.191	-0.087
-700.529	466.990	0.052	0.117
-699.514	-102.252	0.203	-0.049
-698.499	-83.745	0.261	0.084
-697.485	-58.572	0.070	-0.030
-696.470	-200.000	0.016	0.106
-695.456	4.889	-0.265	-0.196
-694.441	-200.000	0.019	-0.254
-693.426	-7.654	0.383	-0.261
-692.412	-200.000	0.009	-0.302
-691.397	-200.000	0.020	-0.397
-690.383	-200.000	-0.021	-0.176
-689.368	15.612	-0.067	-0.053
-688.354	120.965	-0.144	-0.180
-687.339	359.743	-0.078	-0.157
-686.324	-200.000	0.032	-0.171
-685.310	-100.661	0.044	0.011
-684.295	166.388	-0.104	0.148
-683.281	-162.398	-0.142	-0.007
-682.266	-200.000	-0.104	0.000
-681.251	800.000	0.039	0.141
-680.237	800.000	0.047	-0.148
-679.222	60.219	-0.239	-0.238
-678.208	130.740	-0.123	-0.159
-677.193	754.811	-0.125	-0.342
-676.178	800.000	-0.171	0.484
-675.164	-57.965	-0.190	-0.084
-674.149	-102.764	0.323	-0.078
-673.135	34.078	0.101	-0.089
-672.120	-104.598	0.342	-0.079
-671.105	86.650	0.179	-0.199
-670.091	800.000	0.073	0.288
-669.076	220.352	-0.066	-0.107
-668.062	-53.895	-0.004	0.002
-667.047	-200.000	0.060	-0.344
-666.032	-33.658	-0.171	-0.095
-665.018	-200.000	-0.034	0.251
-664.003	110.477	0.259	-0.313
-662.989	-149.527	-0.274	-0.022
-661.974	-200.000	0.016	-0.246
-660.959	-13.066	-0.216	0.142
-659.945	-33.011	0.089	0.050
-658.930	-200.000	-0.038	0.214
-657.916	59.776	-0.146	0.145
-656.901	-36.552	0.158	-0.086
-655.886	-28.313	-0.038	0.022
-654.872	-25.311	-0.115	-0.068
-653.857	-200.000	0.063	0.339
-652.843	71.505	-0.261	-0.273
-651.828	-60.998	-0.288	0.122
-650.814	-26.925	0.147	-0.086
-649.799	-168.853	-0.221	0.008
-648.784	-200.000	-0.053	-0.301
-647.770	-176.843	-0.229	0.006
-646.755	-56.803	-0.172	0.076
-645.741	45.580	0.047	0.043
-644.726	-200.000	0.024	-0.146
-643.711	75.711	0.130	0.138
-642.697	146.246	0.109	0.146
-641.682	-200.000	0.035	-0.194
-640.668	14.522	0.058	0.045
-639.653	-200.000	0.003	0.259
-638.638	-55.641	0.286	0.129
-637.624	-98.561	0.112	-0.029
-636.609	-102.369	-0.319	-0.077
-635.595	96.115	0.171	-0.197
-634.580	-200.000	-0.028	-0.309
-633.565	-34.929	-0.160	-0.088
-632.551	-99.266	0.251	-0.064
-631.536	-121.341	0.261	-0.044
-630.522	75.646	0.059	0.063
-629.507	-64.020	-0.089	-0.036
-628.492	-114.630	0.151	-0.029
-627.478	-200.000	-0.016	-0.315
-626.463	-114.869	-0.320	-0.061
-625.449	168.349	0.123	0.176
-624.434	-40.300	0.318	0.166
-623.419	-200.000	0.057	0.301
-622.405	79.482	-0.291	0.314
-621.390	-4.822	-0.238	-0.165
-620.376	-200.000	-0.003	0.035
-619.361	-200.000	0.000	-0.178
-618.346	154.061	-0.206	0.283
-617.332	259.494	0.203	-0.353
-616.317	-38.099	0.220	0.117
-615.303	800.000	-0.073	-0.216
-614.288	-120.133	0.321	-0.055
-613.273	-149.621	0.289	0.023
-612.259	218.183	-0.397	0.637
-611.244	800.000	0.087	-0.334
-610.230	-51.250	-0.597	-0.281
-609.215	607.709	-0.088	-0.222
-608.201	22.853	0.063	0.052
-607.186	-200.000	-0.050	0.282
-606.171	26.437	-0.371	0.312
-605.157	273.995	-0.113	0.200
-604.142	59.842	0.311	0.309
-603.128	539.003	0.126	0.301
-602.113	6.008	-0.190	0.141
-601.098	24.487	0.110	0.091
-600.084	596.248	-0.014	-0.036
-599.069	-200.000	-0.018	-0.200
-598.055	800.000	-0.057	0.171
-597.040	-194.053	-0.136	-0.001
-596.025	-12.473	-0.217	0.142
-595.011	326.450	0.194	-0.374
-593.996	-15.880	-0.164	-0.105
-592.982	77.887	-0.098	0.105
-591.967	-180.184	-0.107	0.002
-590.952	800.000	0.143	0.483
-589.938	288.144	0.044	0.080
-588.923	-149.307	-0.251	0.020
-587.909	674.259	0.094	-0.246
-586.894	71.342	-0.048	0.049
-585.879	-78.110	0.079	-0.027
-584.865	-135.665	-0.221	-0.026
-583.850	-80.848	-0.238	0.079
-582.836	-131.059	-0.420	-0.056
-581.821	-69.972	-0.252	-0.096
-580.806	-200.000	0.009	0.079
-579.792	227.830	-0.147	-0.239
-578.777	-200.000	-0.000	-0.097
-577.763	-165.307	0.235	-0.010
-576.748	2.456	-0.016	0.011
-575.733	-83.431	0.174	-0.056
-574.719	-128.574	-0.106	0.015
-573.704	108.829	-0.164	-0.196
-572.690	-80.192	0.218	0.073
-571.675	-200.000	0.037	-0.264
-570.661	6.621	0.173	0.129
-569.646	86.152	0.151	0.166
-568.631	-92.478	-0.297	0.084
-567.617	179.874	-0.019	-0.028
-566.602	26.232	-0.057	0.048
-565.588	72.859	-0.087	-0.091
-564.573	-78.627	0.410	-0.140
-563.558	-58.357	0.385	0.168
-562.544	98.761	-0.287	-0.332
-561.529	-200.000	-0.056	-0.354
-560.515	-132.507	-0.227	0.029
-559.500	-174.709	-0.104	-0.003
-558.485	443.966	-0.082	-0.180
-557.471	689.864	-0.133	-0.349
-556.456	-135.741	0.233	-0.028
-555.442	800.000	0.091	-0.291
-554.427	735.362	-0.083	-0.224
-553.412	800.000	0.033	-0.136
-552.398	-180.907	-0.194	0.004
-551.383	30.518	0.075	0.064
-550.369	-200.000	0.005	0.128
-549.354	542.693	-0.128	0.306
-548.339	-85.942	-0.263	-0.082
-547.325	-62.893	0.002	0.001
-546.310	153.258	-0.082	0.113
-545.296	-103.046	-0.255	0.061
-544.281	300.122	0.160	0.295
-543.266	6.350	-0.256	0.190
-542.252	18.986	-0.104	-0.083
-541.237	121.727	0.153	-0.191
-540.223	-200.000	0.004	-0.171
-539.208	-200.000	0.124	0.000
-538.193	125.379	0.148	0.187
-537.179	361.430	-0.118	-0.237
-536.164	258.300	-0.069	-0.120
-535.150	-92.944	0.260	0.073
-534.135	-164.868	-0.220	0.010
-533.121	-118.286	0.244	0.044
-532.106	16.549	-0.251	-0.199
-531.091	-111.984	0.140	-0.028
-530.077	4.204	-0.239	-0.175
-529.062	454.899	-0.097	0.214
-528.048	36.958	-0.046	-0.041
-527.033	-10.464	0.266	0.176
-526.018	-146.729	0.417	0.036
-525.004	67.092	0.116	0.118
-523.989	-88.486	-0.198	0.059
-522.975	-140.873	-0.222	-0.023
-521.960	800.000	0.050	0.142
-520.945	116.537	0.229	-0.281
-519.931	-158.021	-0.324	-0.019
-518.916	356.844	0.115	-0.229
-517.902	379.461	0.150	-0.307
-516.887	265.281	-0.073	-0.128
-515.872	518.362	0.031	-0.073
-514.858	-200.000	-0.015	-0.078
-513.843	91.511	0.299	0.337
-512.829	-76.223	-0.173	0.061
-511.814	-200.000	-0.033	0.269
-510.799	77.423	0.017	-0.018
-509.785	317.212	0.121	-0.229
-508.770	-96.235	0.219	-0.058
-507.756	-200.000	-0.018	-0.423
-506.741	6.602	0.086	0.064
-505.726	-77.802	0.053	-0.018
-504.712	-200.000	-0.039	-0.325
-503.697	6.055	-0.199	-0.148
-502.683	139.089	-0.146	-0.192
-501.668	-91.244	0.210	0.060
-500.653	101.399	0.278	0.324
-499.639	-1.319	-0.170	0.120
-498.624	13.698	-0.259	-0.201
-497.610	-200.000	-0.028	0.310
-496.595	-200.000	0.072	-0.322
-495.581	50.438	-0.130	0.122
-494.566	55.912	-0.179	-0.174
-493.551	-200.000	0.002	0.161
-492.537	18.539	0.152	0.121
-491.522	-115.877	0.237	-0.044
-490.508	-108.541	-0.451	0.097
-489.493	355.217	0.099	-0.198
-488.478	-200.000	0.051	-0.345
-487.464	453.640	0.040	-0.088
-486.449	-13.862	-0.288	-0.186
-485.435	800.000	0.092	0.278
-484.420	-20.534	0.245	0.151
-483.405	-200.000	0.000	0.284
-482.391	107.449	0.110	-0.131
-481.376	120.817	-0.169	0.210
-480.362	638.872	-0.056	0.143
-479.347	800.000	-0.126	-0.372
-478.332	-91.517	0.118	-0.034
-477.318	75.725	-0.182	0.192
-476.303	800.000	0.025	-0.083
-475.289	-200.000	0.003	0.409
-474.274	800.000	-0.058	-0.205
-473.259	-154.104	0.014	0.001
-472.245	-95.966	0.041	-0.011
-471.230	-200.000	0.012	-0.392
-470.216	644.459	0.131	0.333
-469.201	-200.000	0.051	0.233
-468.186	-121.805	0.187	-0.031
-467.172	-173.277	-0.241	0.007
-466.157	-63.131	0.230	-0.095
-465.143	58.448	-0.078	-0.077
-464.128	198.303	-0.195	-0.297
-463.113	14.063	0.188	0.146
-462.099	-103.527	0.278	0.065
-461.084	47.087	-0.148	-0.137
-460.070	-69.865	-0.110	0.042
-459.055	800.000	0.061	-0.189
-458.040	-8.948	-0.090	0.060
-457.026	159.472	0.118	-0.164
-456.011	-181.759	-0.257	0.005
-454.997	139.607	0.092	-0.121
-453.982	588.451	0.086	0.213
-452.968	-200.000	0.069	0.387
-451.953	-200.000	0.000	-0.001
-450.938	598.334	0.081	0.200
-449.924	43.026	0.201	-0.183
-448.909	359.979	0.145	0.290
-447.895	148.184	-0.111	0.149
-446.880	409.032	0.111	-0.234
-445.865	30.658	-0.139	-0.118
-444.851	212.191	0.100	0.157
-443.836	-2.316	0.152	0.106
-442.822	-200.000	0.041	0.188
-441.807	-200.000	-0.026	-0.153
-440.792	-200.000	-0.008	0.075
-439.778	800.000	0.062	0.258
-438.763	800.000	0.078	-0.326
-437.749	800.000	0.075	-0.228
-436.734	-200.000	0.006	0.143
-435.719	800.000	0.030	0.101
-434.705	41.308	0.156	-0.141
-433.690	32.203	-0.393	-0.338
-432.676	31.944	0.190	0.163
-431.661	-82.265	-0.286	-0.093
-430.646	-121.836	0.186	-0.031
-429.632	-52.999	-0.352	0.161
-428.617	56.147	0.159	-0.154
-427.603	-136.212	-0.304	-0.035
-426.588	541.945	-0.091	-0.217
-425.573	800.000	0.078	-0.243
-424.559	424.403	-0.093	0.200
-423.544	77.957	-0.228	0.242
-422.530	-140.495	-0.330	0.034
-421.515	-61.844	-0.222	-0.093
-420.500	-200.000	-0.029	-0.150
-419.486	6.230	0.137	-0.101
-418.471	-74.170	0.256	0.092
-417.457	412.452	-0.149	0.316
-416.442	-200.000	-0.027	0.217
-415.428	-137.440	-0.341	0.038
-414.413	-44.724	-0.126	0.063
-413.398	55.061	0.117	0.113
-412.384	46.096	0.165	-0.153
-411.369	-12.236	0.225	0.146
-410.355	70.029	0.146	-0.150
-409.340	230.030	0.172	0.280
-408.325	606.820	-0.062	0.154
-407.311	171.677	-0.064	0.092
-406.296	238.679	-0.034	-0.056
-405.282	-98.619	-0.261	-0.066
-404.267	34.095	-0.049	0.043
-403.252	157.371	0.053	0.073
-402.238	283.892	0.077	0.137
-401.223	26.376	-0.216	-0.180
-400.209	-116.392	0.170	0.031
-399.194	143.528	0.161	0.214
-398.179	82.449	0.143	-0.154
-397.165	-200.000	-0.123	-0.000
-396.150	-156.765	-0.168	-0.010
-395.136	-200.000	0.020	-0.419
-394.121	800.000	0.040	-0.165
-393.106	787.606	0.062	-0.168
-392.092	800.000	-0.059	0.252
-391.077	-16.376	0.190	-0.120
-390.063	800.000	0.024	-0.078
-389.048	-32.298	-0.190	0.106
-388.033	101.309	-0.071	0.082
-387.019	199.522	-0.078	0.119
-386.004	259.607	0.101	-0.174
-384.990	-200.000	-0.031	-0.142
-383.975	-200.000	0.025	0.182
-382.960	-113.353	0.315	0.062
-381.946	63.138	0.060	-0.060
-380.931	-200.000	-0.013	0.267
-379.917	86.349	-0.208	-0.228
-378.902	92.880	0.229	-0.257
-377.888	-164.937	0.246	-0.011
-376.873	42.422	0.267	0.242
-375.858	-172.573	0.286	0.009
-374.844	-68.109	-0.445	0.172
-373.829	115.564	-0.212	0.258
-372.815	1.968	-0.019	-0.013
-371.800	88.229	0.131	-0.144
-370.785	-109.713	0.225	-0.047
-369.771	20.495	0.087	-0.070
-368.756	-200.000	-0.031	0.199
-367.742	72.291	-0.074	0.077
-366.727	-24.964	0.144	-0.085
-365.712	75.498	-0.173	-0.182
-364.698	26.076	0.175	0.145
-363.683	171.965	-0.100	0.142
-362.669	64.978	-0.146	-0.146
-361.654	-120.445	-0.128	0.022
-360.639	-146.395	-0.167	-0.015
-359.625	171.212	-0.044	0.063
-358.610	-110.342	-0.331	-0.068
-357.596	491.807	-0.077	-0.175
-356.581	106.754	-0.236	0.279
-355.566	-102.824	0.298	0.070
-354.552	382.678	-0.068	0.139
-353.537	-200.000	-0.023	-0.206
-352.523	32.613	-0.152	0.131
-351.508	-39.299	-0.105	-0.055
-350.493	-68.249	-0.238	0.092
-349.479	569.549	-0.043	0.105
-348.464	260.565	-0.119	0.204
-347.450	-32.690	-0.076	0.042
-346.435	-104.033	-0.500	-0.116
-345.420	125.866	0.082	-0.103
-344.406	-101.620	0.093	0.022
-343.391	-38.945	0.229	0.120
-342.377	-54.700	-0.164	0.073
-341.362	-113.367	-0.344	-0.067
-340.348	206.643	0.047	-0.072
-339.333	-200.000	-0.061	-0.531
-338.318	-120.000	-0.061	-0.010
-337.304	424.244	0.059	0.127
-336.289	-52.646	0.172	-0.079
-335.275	-200.000	-0.007	-0.138
-334.260	800.000	-0.035	-0.105
-333.245	1.646	0.221	0.158
-332.231	14.376	-0.185	0.144
-331.216	227.842	0.070	0.114
-330.202	-74.018	-0.236	-0.085
-329.187	-200.000	-0.004	0.032
-328.172	-61.216	-0.056	0.023
-327.158	-132.924	0.064	-0.008
-326.143	100.081	-0.112	0.129
-325.129	-51.536	0.277	-0.128
-324.114	-4.252	0.260	0.179
-323.099	-2.720	0.266	0.185
-322.085	196.229	0.280	0.423
-321.070	558.216	-0.056	-0.134
-320.056	70.470	-0.300	0.308
-319.041	717.671	-0.015	-0.040
-318.026	10.619	0.204	0.155
-317.012	800.000	-0.029	0.096
-315.997	-87.787	0.301	0.090
-314.983	-15.113	0.126	-0.080
-313.968	-101.653	0.451	0.109
-312.953	283.820	0.079	0.141
-311.939	-44.525	-0.160	-0.079
-310.924	69.226	0.249	-0.254
-309.910	-200.000	0.025	0.178
-308.895	277.668	-0.067	-0.118
-307.880	781.383	0.096	-0.261
-306.866	130.886	0.210	-0.267
-305.851	-141.205	-0.159	0.016
-304.837	105.305	-0.086	-0.101
-303.822	800.000	-0.045	0.157
-302.807	199.278	0.123	0.187
-301.793	-174.086	0.260	-0.008
-300.778	737.666	0.149	0.397
-299.764	-69.245	-0.226	0.086
-298.749	182.008	0.148	0.216
-297.735	35.030	0.162	-0.141
-296.720	115.003	0.218	-0.264
-295.705	800.000	0.151	-0.533
-294.691	134.619	-0.118	0.152
-293.676	-4.965	-0.146	0.100
-292.662	601.390	0.075	-0.186
-291.647	-200.000	-0.058	0.261
-290.632	-110.594	0.193	-0.040
-289.618	-27.851	0.110	0.063
-288.603	659.137	0.146	0.373
-287.589	40.107	-0.105	-0.093
-286.574	54.578	-0.254	-0.243
-285.559	-175.220	0.212	0.006
-284.545	-144.411	-0.336	-0.031
-283.530	-200.000	-0.039	-0.278
-282.516	374.817	-0.089	0.180
-281.501	-138.175	0.415	0.046
-280.486	-41.659	-0.037	0.019
-279.472	-200.000	-0.027	-0.256
-278.457	-200.000	0.009	0.263
-277.443	350.225	-0.061	0.120
-276.428	800.000	-0.197	-0.577
-275.413	-5.546	0.338	0.230
-274.399	-60.074	-0.087	0.037
-273.384	-200.000	0.000	-0.158
-272.370	-100.689	0.187	0.046
-271.355	-200.000	-0.034	0.205
-270.340	583.246	0.180	0.438
-269.326	89.546	0.148	-0.164
-268.311	-113.912	-0.319	0.061
-267.297	-200.000	0.028	-0.154
-266.282	-200.000	0.008	-0.185
-265.267	36.375	0.058	-0.051
-264.253	-200.000	0.032	0.253
-263.238	-105.342	0.111	0.025
-262.224	800.000	0.059	0.189
-261.209	47.047	0.165	0.152
-260.195	-5.049	0.219	-0.149
-259.180	-200.000	-0.008	-0.237
-258.165	-200.000	-0.034	-0.152
-257.151	-16.235	-0.089	0.056
-256.136	-15.890	0.135	-0.085
-255.122	-10.825	-0.136	0.089
-254.107	-60.645	-0.039	0.017
-253.092	-200.000	0.007	-0.090
-252.078	-74.692	-0.194	0.069
-251.063	-200.000	0.055	-0.378
-250.049	-47.605	0.196	0.094
-249.034	0.673	-0.069	0.049
-248.019	92.628	0.069	-0.078
-247.005	-143.207	0.070	-0.007
-245.990	-126.192	-0.034	0.005
-244.976	-200.000	-0.059	0.282
-243.961	239.780	-0.065	0.108
-242.946	800.000	0.119	0.364
-241.932	800.000	-0.043	0.162
-240.917	11.990	-0.127	-0.097
-239.903	-110.012	0.314	-0.065
-238.888	565.996	-0.087	0.210
-237.873	-56.756	-0.256	-0.112
-236.859	-1.906	0.243	-0.169
-235.844	800.000	-0.075	0.224
-234.830	800.000	0.133	0.399
-233.815	-141.639	-0.217	-0.022
-232.800	800.000	-0.019	0.076
-231.786	800.000	-0.033	-0.122
-230.771	96.847	0.296	-0.336
-229.757	-45.173	0.375	0.184
-228.742	-200.000	0.033	-0.199
-227.727	107.972	-0.114	0.134
-226.713	600.451	-0.041	0.100
-225.698	-67.483	-0.168	-0.065
-224.684	-200.000	-0.033	-0.148
-223.669	-13.245	0.048	-0.031
-222.655	-200.000	-0.014	0.406
-221.640	-200.000	0.019	-0.236
-220.625	130.742	0.244	0.309
-219.611	191.929	-0.057	0.084
-218.596	-200.000	-0.015	-0.083
-217.582	5.388	0.233	-0.170
-216.567	119.288	0.073	0.089
-215.552	-118.281	0.184	-0.032
-214.538	0.240	-0.219	0.154
-213.523	174.074	-0.077	0.109
-212.509	-188.316	0.192	0.002
-211.494	-44.421	-0.117	-0.058
-210.479	-11.924	-0.221	-0.143
-209.465	587.170	-0.134	-0.327
-208.450	-200.000	-0.026	0.369
-207.436	734.526	-0.134	-0.355
-206.421	-200.000	0.037	-0.212
-205.406	-65.928	-0.336	0.133
-204.392	-200.000	0.065	-0.306
-203.377	33.843	-0.202	-0.174
-202.363	-118.346	0.272	0.048
-201.348	-77.429	0.245	0.084
-200.333	44.231	0.065	-0.059
-199.319	185.926	0.056	0.083
-198.304	239.563	0.100	-0.165
-197.290	478.172	-0.050	-0.112
-196.275	201.142	-0.251	-0.382
-195.260	-60.585	0.387	0.162
-194.246	209.811	0.162	-0.251
-193.231	374.689	-0.108	-0.217
-192.217	715.669	0.049	-0.129
-191.202	-8.653	-0.335	0.222
-190.187	18.936	0.152	-0.120
-189.173	-122.833	-0.486	-0.078
-188.158	-118.254	-0.481	0.085
-187.144	257.153	0.093	0.158
-186.129	-114.724	-0.263	0.050
-185.114	-64.759	0.320	-0.128
-184.100	-200.000	0.040	0.175
-183.085	-200.000	0.011	-0.130
-182.071	50.656	0.042	0.039
-181.056	-26.668	0.233	0.134
-180.042	22.704	0.200	0.161
-179.027	610.096	-0.046	0.113
-178.012	182.073	0.119	-0.173
-176.998	-200.000	-0.019	0.487
-175.983	800.000	0.074	-0.226
-174.969	-97.626	-0.280	0.072
-173.954	-87.359	0.116	-0.035
-172.939	104.767	-0.122	-0.142
-171.925	-17.396	0.161	-0.100
-170.910	105.803	0.106	-0.124
-169.896	800.000	0.038	-0.124
-168.881	340.947	-0.119	0.230
-167.866	-200.000	0.018	-0.151
-166.852	64.223	-0.201	0.200
-165.837	-52.251	-0.040	0.018
-164.823	-134.031	-0.504	0.062
-163.808	356.872	0.145	-0.286
-162.793	-200.000	0.035	0.212
-161.779	19.448	0.172	0.137
-160.764	-155.916	0.323	-0.020
-159.750	351.655	0.151	0.294
-158.735	340.213	-0.053	-0.103
-157.720	207.085	0.102	0.158
-156.706	-17.725	-0.023	0.014
-155.691	-150.002	-0.206	-0.016
-154.677	-20.245	0.121	0.073
-153.662	138.642	0.084	-0.109
-152.647	240.318	-0.220	-0.362
-151.633	-150.859	0.213	0.016
-150.618	-189.392	-0.354	-0.004
-149.604	-46.024	-0.155	-0.075
-148.589	-1.898	-0.342	0.238
-147.574	-100.150	-0.140	-0.034
-146.560	-89.058	-0.186	-0.054
-145.545	-88.490	0.228	-0.067
-144.531	682.718	0.118	0.304
-143.516	-105.679	0.255	-0.057
-142.502	-200.000	0.063	-0.289
-141.487	59.552	0.191	-0.185
-140.472	800.000	0.060	-0.177
-139.458	274.190	-0.065	-0.113
-138.443	-114.450	-0.147	0.028
-137.429	-38.277	0.209	0.109
-136.414	-17.166	0.046	0.029
-135.399	620.758	-0.081	-0.202
-134.385	-17.648	0.103	0.064
-133.370	186.419	-0.186	-0.273
-132.356	94.305	-0.147	0.165
-131.341	-14.869	0.096	-0.061
-130.326	-200.000	-0.006	0.153
-129.312	77.389	-0.099	-0.104
-128.297	-44.838	0.051	0.025
-127.283	-43.423	0.184	0.092
-126.268	-171.273	-0.061	-0.002
-125.253	28.428	0.451	0.375
-124.239	-148.414	-0.218	-0.018
-123.224	-182.454	-0.361	0.007
-122.210	-200.000	-0.008	-0.395
-121.195	-82.466	0.169	0.054
