DTS Sentinel unit serial number:	SN413079Multiplexer serial number:	ORYXHardware model number:	OX4-SRSoftware version number:	ORYX F/W v4.00 Oryx Data Collector v3.7.2.0data status	okinstallation	princeton_trtdifferential loss correction	single-endedforward channel	channel 2reverse channel	N/Adate	2019/09/13time	11:23:35forward acquisition time	60.00reverse acquisition time	0.00gamma	496.2192k internal	0.2320k external	0.2320temperature offset calibration	1.0190default loss term (dB/km)	0.3790temperature slope calibration	1.0000multiplexer offset coefficient	1.0000multiplexer slope coefficient	1.0000fibre end	0.00T internal ref (°C)	32.52T ext. ref 1 (°C)	4.40T ext. ref 2 (°C)	29.61length (m)	temperature (°C)	Stokes	anti-Stokes-747.200	-111.202	0.095	0.020
-746.185	-98.926	-0.238	0.061
-745.171	-200.000	0.056	0.263
-744.156	304.499	0.040	-0.074
-743.142	-32.036	-0.210	0.119
-742.127	205.351	-0.280	0.439
-741.112	-200.000	-0.024	-0.267
-740.098	-62.546	0.190	0.080
-739.083	-200.000	0.021	0.329
-738.069	163.023	-0.190	0.270
-737.054	253.004	0.075	0.129
-736.039	-80.111	0.296	-0.100
-735.025	-98.689	-0.144	-0.037
-734.010	-172.128	0.180	0.006
-732.996	-18.563	-0.209	0.132
-731.981	-81.857	0.094	0.031
-730.966	497.065	0.097	0.225
-729.952	139.390	-0.060	-0.080
-728.937	-76.520	-0.196	0.070
-727.923	-57.169	-0.529	-0.235
-726.908	-10.534	0.236	-0.158
-725.894	294.866	-0.115	-0.213
-724.879	-200.000	0.099	-0.449
-723.864	-146.130	-0.429	-0.038
-722.850	722.604	-0.105	0.282
-721.835	226.298	0.050	0.083
-720.821	-107.781	-0.043	0.009
-719.806	-53.080	-0.236	-0.109
-718.791	-46.276	0.136	0.068
-717.777	-200.000	0.015	-0.250
-716.762	111.656	-0.233	-0.283
-715.748	496.572	0.107	0.249
-714.733	-41.249	-0.319	0.166
-713.718	73.252	-0.095	-0.100
-712.704	-7.272	-0.402	0.275
-711.689	-97.987	-0.295	0.077
-710.675	-65.080	0.141	0.058
-709.660	800.000	-0.023	0.085
-708.645	-162.808	-0.288	0.014
-707.631	165.296	0.192	0.274
-706.616	-79.341	0.048	-0.016
-705.602	-200.000	-0.030	-0.205
-704.587	-98.699	0.022	0.006
-703.572	495.431	0.093	0.215
-702.558	-200.000	0.027	-0.309
-701.543	-141.715	0.241	0.024
-700.529	-50.599	-0.098	0.046
-699.514	-200.000	0.009	-0.576
-698.499	-47.462	-0.134	-0.066
-697.485	110.134	-0.058	-0.071
-696.470	-27.165	0.281	0.165
-695.456	134.633	-0.279	0.365
-694.441	-153.606	-0.235	-0.016
-693.426	-113.298	0.175	-0.035
-692.412	-151.888	0.193	-0.014
-691.397	-200.000	-0.012	0.329
-690.383	-176.088	-0.341	-0.009
-689.368	-200.000	-0.037	-0.213
-688.354	432.460	0.113	-0.247
-687.339	800.000	0.172	-0.566
-686.324	-105.820	-0.186	0.042
-685.310	800.000	0.137	-0.395
-684.295	-200.000	0.037	-0.399
-683.281	-145.425	-0.447	-0.041
-682.266	-136.396	0.048	0.006
-681.251	-200.000	-0.015	-0.280
-680.237	-200.000	-0.013	0.303
-679.222	-42.173	-0.292	-0.151
-678.208	-9.794	0.210	0.141
-677.193	-200.000	0.015	0.363
-676.178	572.650	0.093	-0.227
-675.164	-131.029	-0.341	0.046
-674.149	486.591	-0.211	0.484
-673.135	-37.011	-0.310	0.167
-672.120	28.264	-0.067	-0.057
-671.105	-85.408	-0.045	0.014
-670.091	384.727	0.135	0.280
-669.076	-200.000	0.009	0.376
-668.062	-120.582	-0.327	-0.056
-667.047	-69.974	-0.086	-0.033
-666.032	392.841	0.119	-0.249
-665.018	-41.547	-0.119	-0.062
-664.003	-73.447	-0.367	0.135
-662.989	-144.040	-0.562	0.053
-661.974	-33.440	-0.035	0.020
-660.959	78.353	0.071	-0.077
-659.945	69.446	-0.110	-0.115
-658.930	-200.000	-0.017	-0.347
-657.916	27.479	-0.116	0.099
-656.901	211.765	0.061	-0.097
-655.886	-200.000	0.004	-0.158
-654.872	231.238	-0.171	0.282
-653.857	675.447	0.055	-0.143
-652.843	534.373	-0.114	-0.273
-651.828	800.000	0.167	0.472
-650.814	-200.000	0.039	-0.183
-649.799	117.393	-0.116	-0.144
-648.784	-133.420	-0.135	0.017
-647.770	-19.109	0.136	0.085
-646.755	120.128	-0.113	0.141
-645.741	448.122	0.137	0.303
-644.726	-25.446	0.120	-0.071
-643.711	-56.160	-0.267	0.120
-642.697	300.345	-0.083	0.155
-641.682	-117.620	0.121	-0.022
-640.668	39.829	-0.114	0.103
-639.653	-21.047	0.061	-0.038
-638.638	-102.062	0.460	0.112
-637.624	800.000	0.070	0.267
-636.609	-56.378	-0.301	-0.135
-635.595	156.344	-0.016	-0.022
-634.580	800.000	0.101	-0.363
-633.565	-49.549	-0.144	-0.069
-632.551	281.168	-0.157	0.283
-631.536	-149.044	0.254	0.021
-630.522	-162.962	0.174	-0.009
-629.507	305.460	-0.127	-0.237
-628.492	30.122	-0.225	-0.193
-627.478	800.000	0.065	-0.228
-626.463	9.826	0.193	0.148
-625.449	800.000	0.107	-0.334
-624.434	223.792	-0.079	0.129
-623.419	800.000	0.070	0.283
-622.405	449.019	-0.082	0.183
-621.390	800.000	0.068	-0.215
-620.376	239.890	-0.006	0.011
-619.361	-21.824	-0.381	-0.233
-618.346	-200.000	-0.054	-0.244
-617.332	-92.486	-0.271	-0.077
-616.317	-200.000	-0.034	0.156
-615.303	119.307	-0.136	-0.170
-614.288	41.522	0.100	-0.091
-613.273	21.063	0.200	-0.163
-612.259	115.730	-0.284	-0.350
-611.244	311.013	0.051	-0.097
-610.230	33.439	0.179	0.157
-609.215	139.421	0.130	-0.172
-608.201	-25.948	-0.227	-0.134
-607.186	-200.000	0.021	-0.249
-606.171	0.271	0.206	0.148
-605.157	-73.025	0.240	0.089
-604.142	-135.070	-0.291	-0.035
-603.128	121.747	0.134	-0.168
-602.113	-37.378	0.106	-0.057
-601.098	-115.022	0.242	-0.046
-600.084	-35.425	0.452	-0.247
-599.069	78.221	-0.131	0.140
-598.055	-200.000	0.013	-0.118
-597.040	239.577	0.091	0.153
-596.025	-7.658	0.401	-0.272
-595.011	36.481	-0.212	0.188
-593.996	-200.000	-0.042	-0.283
-592.982	-200.000	-0.048	-0.222
-591.967	-56.621	-0.085	-0.038
-590.952	312.493	0.080	-0.151
-589.938	800.000	-0.113	-0.414
-588.923	-173.918	-0.139	0.004
-587.909	34.076	-0.281	0.246
-586.894	800.000	0.030	-0.096
-585.879	173.671	-0.221	0.321
-584.865	-17.002	0.172	-0.109
-583.850	800.000	0.138	0.429
-582.836	129.137	0.127	0.163
-581.821	62.971	-0.103	-0.104
-580.806	132.066	-0.239	-0.309
-579.792	480.639	-0.157	0.359
-578.777	228.648	0.185	-0.303
-577.763	103.478	-0.049	-0.058
-576.748	-200.000	-0.131	-0.001
-575.733	-188.449	0.267	0.003
-574.719	-130.247	0.069	0.009
-573.704	-200.000	0.015	-0.280
-572.690	23.505	0.107	-0.088
-571.675	-64.495	0.128	-0.052
-570.661	800.000	-0.058	0.206
-569.646	99.672	-0.123	0.143
-568.631	165.805	-0.065	-0.093
-567.617	346.268	0.169	-0.334
-566.602	62.634	0.231	-0.232
-565.588	353.148	-0.080	-0.159
-564.573	151.528	0.020	-0.027
-563.558	-200.000	-0.021	0.412
-562.544	-138.988	0.081	0.009
-561.529	800.000	0.063	0.203
-560.515	-92.612	-0.149	-0.042
-559.500	181.626	-0.048	0.070
-558.485	137.797	-0.081	0.107
-557.471	800.000	0.033	-0.111
-556.456	28.132	-0.119	-0.101
-555.442	-50.027	0.015	-0.007
-554.427	189.562	0.108	0.163
-553.412	86.101	0.130	0.144
-552.398	-77.550	-0.176	0.061
-551.383	133.160	0.095	0.123
-550.369	800.000	-0.032	-0.126
-549.354	-26.814	0.236	0.139
-548.339	426.438	-0.080	0.173
-547.325	336.935	0.250	-0.488
-546.310	800.000	0.071	-0.251
-545.296	-70.070	-0.329	-0.126
-544.281	36.796	-0.211	0.187
-543.266	-200.000	-0.003	-0.329
-542.252	-8.554	-0.153	-0.103
-541.237	-87.660	0.210	0.064
-540.223	253.539	0.100	-0.172
-539.208	-200.000	0.074	-0.449
-538.193	-83.077	0.268	0.086
-537.179	14.762	-0.243	0.191
-536.164	14.859	0.160	0.126
-535.150	666.254	-0.142	-0.368
-534.135	26.074	0.091	-0.076
-533.121	-41.257	0.175	-0.090
-532.106	252.124	0.047	0.080
-531.091	-188.676	0.176	0.002
-530.077	-135.319	-0.050	0.006
-529.062	-145.376	-0.168	-0.015
-528.048	103.840	0.200	0.236
-527.033	-102.184	-0.204	-0.049
-526.018	295.270	-0.104	-0.190
-525.004	-200.000	-0.087	0.396
-523.989	70.154	-0.099	0.102
-522.975	625.220	-0.023	0.058
-521.960	-42.531	-0.216	-0.110
-520.945	42.206	-0.352	0.321
-519.931	85.608	-0.321	0.354
-518.916	216.917	0.031	0.050
-517.902	-38.571	0.141	0.074
-516.887	800.000	-0.109	-0.354
-515.872	181.857	0.199	-0.294
-514.858	127.630	0.143	-0.182
-513.843	196.553	0.050	-0.076
-512.829	654.852	0.035	0.090
-511.814	-38.601	0.226	0.119
-510.799	446.005	-0.140	0.309
-509.785	800.000	-0.055	-0.153
-508.770	-18.739	0.219	-0.137
-507.756	585.584	-0.103	-0.254
-506.741	-200.000	0.001	-0.028
-505.726	111.425	-0.133	-0.160
-504.712	-112.659	0.168	-0.034
-503.697	-81.489	0.161	0.053
-502.683	52.184	0.273	-0.261
-501.668	-38.709	0.208	0.110
-500.653	800.000	0.035	0.106
-499.639	800.000	-0.089	-0.285
-498.624	-95.750	-0.275	-0.073
-497.610	47.700	-0.153	0.143
-496.595	-21.303	0.161	0.099
-495.581	129.399	0.149	-0.191
-494.566	533.616	-0.075	-0.177
-493.551	-200.000	0.019	0.232
-492.537	-200.000	0.021	0.276
-491.522	72.365	-0.131	0.137
-490.508	198.626	-0.118	0.181
-489.493	-50.231	0.140	0.066
-488.478	203.191	-0.143	-0.221
-487.464	-200.000	0.004	0.167
-486.449	-29.669	-0.368	0.210
-485.435	182.809	0.094	0.139
-484.420	47.685	0.351	-0.327
-483.405	-200.000	-0.005	0.120
-482.391	800.000	0.051	-0.144
-481.376	-130.873	0.208	0.028
-480.362	-88.633	-0.223	0.067
-479.347	-48.933	-0.054	0.026
-478.332	33.025	-0.141	-0.122
-477.318	-200.000	-0.030	0.183
-476.303	800.000	-0.091	0.324
-475.289	-72.599	-0.119	-0.044
-474.274	-45.237	-0.206	-0.102
-473.259	60.536	-0.043	0.043
-472.245	98.460	0.092	-0.106
-471.230	-74.721	0.331	-0.119
-470.216	188.126	0.247	0.370
-469.201	-171.939	0.329	-0.011
-468.186	581.287	0.063	0.155
-467.172	11.732	-0.045	0.035
-466.157	-200.000	0.015	0.093
-465.143	78.063	0.271	-0.289
-464.128	-40.205	-0.268	-0.139
-463.113	-200.000	-0.009	0.284
-462.099	-7.709	-0.178	-0.120
-461.084	-52.070	-0.395	-0.183
-460.070	-52.225	-0.077	-0.036
-459.055	-83.077	-0.252	0.081
-458.040	-200.000	0.037	0.186
-457.026	16.802	0.194	0.153
-456.011	14.763	0.498	0.389
-454.997	780.923	0.095	0.261
-453.982	93.440	0.053	0.060
-452.968	-57.603	-0.098	-0.043
-451.953	-200.000	0.016	0.081
-450.938	-9.752	-0.326	0.217
-449.924	-78.508	-0.184	-0.063
-448.909	155.543	-0.032	0.044
-447.895	-80.972	-0.051	-0.017
-446.880	160.755	-0.092	0.128
-445.865	-200.000	0.001	-0.044
-444.851	32.186	-0.180	0.155
-443.836	0.135	-0.329	0.234
-442.822	461.452	0.111	-0.248
-441.807	-100.685	-0.195	0.048
-440.792	-200.000	0.061	-0.306
-439.778	-117.210	-0.220	0.040
-438.763	44.446	-0.104	0.095
-437.749	215.005	0.050	0.079
-436.734	-200.000	0.021	-0.273
-435.719	399.727	-0.092	0.192
-434.705	-200.000	0.026	0.328
-433.690	157.490	0.131	-0.181
-432.676	449.774	0.115	0.254
-431.661	61.871	-0.140	0.140
-430.646	-200.000	-0.004	0.205
-429.632	-200.000	-0.041	-0.366
-428.617	473.475	-0.032	0.073
-427.603	262.169	0.067	-0.116
-426.588	-172.423	-0.279	0.009
-425.573	-84.755	0.140	-0.044
-424.559	163.650	0.271	-0.381
-423.544	-200.000	-0.056	-0.508
-422.530	546.687	-0.057	0.136
-421.515	-144.350	0.114	0.011
-420.500	-181.617	-0.381	0.007
-419.486	240.267	0.061	0.101
-418.471	-53.046	0.193	-0.089
-417.457	-14.179	0.063	0.041
-416.442	-200.000	0.329	0.001
-415.428	364.229	0.116	-0.233
-414.413	85.702	-0.084	-0.092
-413.398	-200.000	0.003	-0.242
-412.384	-200.000	-0.008	-0.144
-411.369	-200.000	0.006	-0.088
-410.355	630.484	0.142	-0.359
-409.340	800.000	0.082	0.260
-408.325	-58.921	-0.083	-0.036
-407.311	3.241	0.101	0.074
-406.296	137.804	-0.106	0.139
-405.282	54.281	-0.036	0.035
-404.267	-147.954	-0.431	-0.036
-403.252	286.706	0.086	-0.155
-402.238	-103.394	-0.162	0.038
-401.223	332.761	-0.204	0.392
-400.209	-163.729	-0.357	0.017
-399.194	162.576	-0.189	-0.265
-398.179	29.914	0.177	-0.151
-397.165	-119.460	-0.303	-0.052
-396.150	-57.660	-0.071	0.031
-395.136	-12.702	-0.197	-0.128
-394.121	-116.408	0.388	-0.072
-393.106	469.881	0.025	0.057
-392.092	302.676	0.102	0.189
-391.077	-147.726	-0.231	-0.019
-390.063	-190.812	0.369	-0.004
-389.048	-96.036	-0.395	0.105
-388.033	-124.294	0.089	-0.014
-387.019	169.730	-0.160	-0.228
-386.004	-200.000	-0.160	0.000
-384.990	586.541	-0.063	0.155
-383.975	494.978	0.103	-0.235
-382.960	40.844	0.284	0.256
-381.946	-121.406	-0.325	0.054
-380.931	645.956	0.075	0.191
-379.917	800.000	0.044	-0.154
-378.902	419.414	-0.026	0.055
-377.888	-154.518	-0.299	-0.020
-376.873	-71.797	0.115	-0.043
-375.858	-98.871	0.028	-0.007
-374.844	-111.007	-0.111	-0.023
-373.829	176.540	0.098	0.142
-372.815	-41.124	0.274	-0.141
-371.800	-200.000	-0.053	0.463
-370.785	-200.000	0.012	-0.167
-369.771	96.709	-0.138	-0.158
-368.756	-70.676	0.393	-0.148
-367.742	221.734	-0.061	0.097
-366.727	39.108	0.069	0.062
-365.712	-200.000	-0.002	-0.202
-364.698	800.000	-0.114	-0.359
-363.683	271.366	0.082	0.144
-362.669	800.000	0.050	0.171
-361.654	800.000	0.141	0.394
-360.639	168.955	-0.230	0.327
-359.625	-27.207	-0.102	0.059
-358.610	-147.603	0.206	0.017
-357.596	-130.540	-0.164	-0.022
-356.581	318.909	-0.120	0.226
-355.566	-87.578	-0.239	-0.072
-354.552	-110.341	-0.250	-0.052
-353.537	-200.000	0.033	0.251
-352.523	96.086	-0.095	-0.108
-351.508	15.447	-0.207	-0.162
-350.493	419.499	0.095	-0.203
-349.479	464.875	-0.071	0.157
-348.464	35.585	-0.214	0.187
-347.450	-31.654	0.103	-0.058
-346.435	-130.556	0.240	0.032
-345.420	-200.000	0.049	0.371
-344.406	-200.000	0.010	-0.108
-343.391	-65.040	-0.303	0.122
-342.377	800.000	0.047	-0.199
-341.362	109.052	0.081	-0.096
-340.348	-200.000	0.017	0.193
-339.333	63.649	0.156	0.156
-338.318	-200.000	-0.010	0.151
-337.304	-200.000	0.045	-0.293
-336.289	800.000	0.035	-0.144
-335.275	-91.502	-0.166	0.047
-334.260	-62.671	0.145	0.060
-333.245	-200.000	0.049	0.319
-332.231	222.406	0.178	0.285
-331.216	-56.059	0.084	-0.037
-330.202	-170.349	0.270	0.009
-329.187	-176.145	-0.276	0.007
-328.172	83.001	0.144	-0.156
-327.158	199.066	0.065	0.098
-326.143	-200.000	-0.055	0.264
-325.129	307.269	0.198	0.367
-324.114	-200.000	-0.077	0.571
-323.099	-81.335	0.144	-0.047
-322.085	319.414	0.045	-0.086
-321.070	361.728	0.124	-0.248
-320.056	-71.975	-0.192	0.071
-319.041	95.149	0.054	0.061
-318.026	74.668	0.009	-0.009
-317.012	-151.518	0.046	0.003
-315.997	53.342	0.196	-0.187
-314.983	-84.190	-0.190	-0.060
-313.968	-149.045	-0.111	0.009
-312.953	-200.000	0.036	-0.235
-311.939	-57.590	-0.098	-0.043
-310.924	-200.000	0.009	-0.209
-309.910	-41.777	0.015	-0.008
-308.895	-200.000	-0.041	0.336
-307.880	-130.781	0.102	-0.014
-306.866	-33.712	0.157	0.086
-305.851	267.678	0.087	-0.152
-304.837	110.435	-0.104	0.124
-303.822	217.136	0.196	0.310
-302.807	-38.908	-0.316	-0.166
-301.793	408.656	-0.137	0.288
-300.778	39.041	-0.061	-0.054
-299.764	13.834	0.248	0.191
-298.749	-200.000	0.054	-0.265
-297.735	-46.191	0.231	0.113
-296.720	-161.644	-0.392	-0.020
-295.705	737.371	0.111	-0.295
-294.691	-168.991	0.205	-0.008
-293.676	-86.354	-0.468	-0.143
-292.662	162.910	-0.123	0.171
-291.647	-48.080	-0.189	0.091
-290.632	-200.000	0.048	-0.224
-289.618	-7.039	0.070	-0.047
-288.603	409.043	-0.052	0.109
-287.589	146.770	-0.082	0.110
-286.574	-141.315	0.369	0.037
-285.559	155.993	0.067	-0.092
-284.545	-46.645	-0.292	-0.142
-283.530	-4.769	-0.218	0.149
-282.516	49.313	0.179	0.167
-281.501	350.313	-0.105	-0.206
-280.486	-52.670	0.300	-0.138
-279.472	-78.532	-0.074	0.025
-278.457	-200.000	0.020	0.154
-277.443	188.316	-0.118	-0.176
-276.428	-20.084	-0.185	-0.113
-275.413	15.681	-0.129	0.101
-274.399	48.642	0.244	-0.227
-273.384	-38.106	-0.131	0.069
-272.370	800.000	-0.050	0.169
-271.355	-200.000	0.009	-0.064
-270.340	-200.000	0.072	-0.000
-269.326	-71.686	0.261	-0.097
-268.311	-200.000	-0.014	0.396
-267.297	-124.788	0.262	0.040
-266.282	103.144	0.022	-0.026
-265.267	800.000	-0.032	0.107
-264.253	3.883	0.164	-0.119
-263.238	-200.000	-0.002	0.296
-262.224	-200.000	0.026	-0.241
-261.209	-200.000	-0.013	-0.134
-260.195	14.027	-0.201	-0.156
-259.180	348.888	0.056	-0.109
-258.165	-200.000	-0.049	0.264
-257.151	-98.033	0.172	-0.044
-256.136	800.000	-0.049	0.196
-255.122	-79.227	-0.173	0.058
-254.107	588.492	-0.031	-0.076
-253.092	370.743	0.042	-0.084
-252.078	-71.304	0.075	0.028
-251.063	71.116	-0.253	-0.261
-250.049	-171.220	-0.401	-0.013
-249.034	-136.880	0.013	0.001
-248.019	-134.671	-0.170	-0.021
-247.005	-7.553	0.094	-0.063
-245.990	421.118	0.119	0.252
-244.976	-177.419	0.047	0.001
-243.961	38.489	0.157	-0.139
-242.946	-27.663	-0.253	-0.146
-241.932	-48.357	-0.216	-0.103
-240.917	11.946	0.181	-0.138
-239.903	-200.000	-0.015	0.286
-238.888	28.733	0.283	-0.237
-237.873	-200.000	0.032	0.371
-236.859	223.529	-0.054	0.086
-235.844	79.171	-0.202	0.214
-234.830	50.533	-0.239	0.224
-233.815	303.894	-0.136	-0.250
-232.800	67.010	0.476	0.481
-231.786	-63.845	-0.063	0.025
-230.771	-43.991	0.203	0.101
-229.757	99.751	-0.154	0.177
-228.742	306.490	-0.088	-0.162
-227.727	61.359	-0.085	0.084
-226.713	50.033	0.142	-0.133
-225.698	-200.000	0.032	0.143
-224.684	-200.000	0.048	-0.287
-223.669	455.004	0.070	-0.153
-222.655	-200.000	-0.016	0.147
-221.640	-125.070	0.110	-0.017
-220.625	-200.000	-0.035	-0.186
-219.611	68.393	0.272	-0.276
-218.596	800.000	-0.045	0.161
-217.582	-159.279	0.226	0.013
-216.567	-139.413	-0.296	0.031
-215.552	27.257	0.139	0.116
-214.538	34.198	0.208	-0.179
-213.523	-56.731	0.203	0.089
-212.509	-117.890	0.507	-0.090
-211.494	736.403	-0.098	0.260
-210.479	800.000	-0.044	-0.137
-209.465	552.273	-0.093	0.221
-208.450	310.736	0.102	0.188
-207.436	-200.000	0.041	-0.200
-206.421	-82.252	-0.151	0.049
-205.406	323.746	0.168	-0.317
-204.392	-53.514	-0.392	-0.177
-203.377	-15.232	-0.091	-0.057
-202.363	140.170	-0.147	0.192
-201.348	192.208	0.195	0.291
-200.333	-200.000	0.039	0.286
-199.319	-78.634	-0.138	0.047
-198.304	-200.000	0.019	-0.201
-197.290	128.217	-0.180	-0.227
-196.275	328.436	0.031	0.059
-195.260	-89.533	0.214	0.062
-194.246	-31.939	0.228	0.126
-193.231	-91.001	0.336	0.096
-192.217	67.378	-0.062	-0.062
-191.202	800.000	-0.049	0.154
-190.187	14.302	-0.415	0.320
-189.173	-104.661	-0.127	-0.029
-188.158	-86.345	-0.363	-0.111
-187.144	153.993	0.187	-0.254
-186.129	154.728	0.164	0.222
-185.114	72.703	-0.202	-0.208
-184.100	360.409	0.013	0.025
-183.085	-74.718	-0.044	0.016
-182.071	-200.000	0.008	-0.226
-181.056	33.644	0.301	-0.259
-180.042	-34.373	-0.108	0.059
-179.027	-108.180	0.122	-0.026
-178.012	-132.007	0.056	0.007
-176.998	-94.559	0.292	0.079
-175.983	-111.343	0.476	0.096
-174.969	800.000	-0.031	0.089
-173.954	-142.181	-0.334	0.033
-172.939	417.320	-0.112	0.236
-171.925	36.918	-0.162	0.142
-170.910	-200.000	-0.000	0.246
-169.896	36.115	-0.091	-0.079
-168.881	123.456	-0.110	-0.137
-167.866	310.362	-0.048	0.088
-166.852	-189.305	0.093	-0.001
-165.837	-149.442	0.241	-0.019
-164.823	-44.188	0.108	0.054
-163.808	-63.739	0.176	-0.071
-162.793	-131.027	0.233	-0.031
-161.779	-200.000	0.101	-0.735
-160.764	-200.000	-0.023	-0.305
-159.750	773.334	-0.055	0.147
-158.735	800.000	-0.044	-0.139
-157.720	-127.513	0.138	0.020
-156.706	-123.929	-0.353	-0.055
-155.691	-200.000	-0.002	0.102
-154.677	-48.962	-0.094	-0.045
-153.662	-132.802	0.170	0.021
-152.647	-70.228	-0.194	-0.073
-151.633	-146.239	0.540	0.047
-150.618	17.215	0.111	-0.087
-149.604	168.405	0.114	-0.160
-148.589	-155.097	-0.212	-0.014
-147.574	81.468	0.140	0.149
-146.560	-200.000	0.038	-0.191
-145.545	258.719	-0.081	-0.138
-144.531	800.000	0.055	-0.230
-143.516	-45.864	-0.358	0.175
-142.502	-18.498	-0.052	-0.032
-141.487	-39.395	-0.099	0.051
-140.472	143.293	-0.092	0.121
-139.458	-200.000	0.004	-0.023
-138.443	110.983	0.026	-0.031
-137.429	533.576	-0.081	-0.190
-136.414	457.442	-0.033	-0.073
-135.399	185.073	-0.112	-0.164
-134.385	800.000	-0.191	0.550
-133.370	27.931	0.116	-0.097
-132.356	800.000	-0.080	0.299
-131.341	800.000	0.015	0.043
-130.326	149.389	-0.071	0.095
-129.312	-17.429	0.288	-0.179
-128.297	157.336	-0.084	-0.115
-127.283	-2.275	-0.308	0.214
-126.268	457.492	-0.199	0.437
-125.253	-35.796	0.133	0.071
-124.239	-33.380	-0.079	-0.043
-123.224	-75.395	-0.194	-0.068
-122.210	73.536	0.217	-0.224
-121.195	-148.697	0.163	-0.013
