DTS Sentinel unit serial number:	SN413079Multiplexer serial number:	ORYXHardware model number:	OX4-SRSoftware version number:	ORYX F/W v4.00 Oryx Data Collector v3.7.2.0data status	okinstallation	princeton_trtdifferential loss correction	single-endedforward channel	channel 2reverse channel	N/Adate	2019/09/14time	20:47:35forward acquisition time	60.00reverse acquisition time	0.00gamma	496.2192k internal	0.2323k external	0.2323temperature offset calibration	1.0079default loss term (dB/km)	0.3790temperature slope calibration	1.0000multiplexer offset coefficient	1.0000multiplexer slope coefficient	1.0000fibre end	0.00T internal ref (°C)	33.31T ext. ref 1 (°C)	4.81T ext. ref 2 (°C)	27.94length (m)	temperature (°C)	Stokes	anti-Stokes-747.200	-28.258	-0.127	-0.074
-746.185	-200.000	0.027	0.464
-745.171	-110.891	0.165	-0.034
-744.156	-92.336	-0.274	0.078
-743.142	102.495	-0.023	-0.027
-742.127	-200.000	-0.013	0.527
-741.112	339.460	-0.051	-0.101
-740.098	204.838	-0.138	0.216
-739.083	-200.000	0.015	0.079
-738.069	14.725	-0.320	0.252
-737.054	800.000	-0.046	-0.182
-736.039	148.067	-0.092	-0.126
-735.025	-126.422	0.423	0.064
-734.010	239.605	-0.030	-0.050
-732.996	800.000	0.032	-0.125
-731.981	131.881	-0.143	0.185
-730.966	-95.318	-0.576	0.156
-729.952	99.985	0.110	0.129
-728.937	505.073	-0.079	0.184
-727.923	800.000	-0.040	-0.131
-726.908	-183.970	0.644	0.011
-725.894	-72.024	-0.204	-0.077
-724.879	-117.668	-0.502	0.091
-723.864	-63.577	-0.182	-0.075
-722.850	-86.697	-0.197	0.061
-721.835	-200.000	0.001	-0.090
-720.821	212.187	0.029	-0.047
-719.806	85.699	0.116	0.129
-718.791	31.179	0.083	-0.072
-717.777	113.047	-0.090	-0.110
-716.762	-30.305	-0.056	0.032
-715.748	280.250	-0.140	0.252
-714.733	9.802	0.062	-0.048
-713.718	-200.000	-0.012	-0.076
-712.704	-134.721	0.023	0.003
-711.689	17.991	0.387	-0.311
-710.675	238.834	-0.007	0.011
-709.660	20.493	0.180	0.147
-708.645	194.055	0.143	-0.219
-707.631	-75.457	-0.111	-0.040
-706.616	-200.000	-0.053	-0.450
-705.602	-200.000	0.015	-0.202
-704.587	-200.000	0.029	-0.139
-703.572	28.839	0.266	0.228
-702.558	-14.959	0.434	-0.281
-701.543	-107.840	-0.210	-0.046
-700.529	-75.982	0.007	-0.002
-699.514	351.779	0.104	0.208
-698.499	-74.071	0.303	-0.111
-697.485	144.302	0.084	-0.114
-696.470	-97.984	0.196	0.051
-695.456	800.000	0.044	0.179
-694.441	-38.830	-0.188	-0.100
-693.426	3.598	0.173	0.127
-692.412	-200.000	0.418	0.001
-691.397	-30.884	-0.166	-0.095
-690.383	471.582	-0.072	-0.163
-689.368	-200.000	-0.031	-0.152
-688.354	74.933	-0.410	-0.436
-687.339	800.000	0.048	-0.206
-686.324	-200.000	-0.016	0.456
-685.310	-200.000	-0.024	-0.293
-684.295	800.000	-0.073	-0.232
-683.281	-200.000	0.036	-0.167
-682.266	800.000	0.026	-0.089
-681.251	-172.996	-0.106	0.003
-680.237	138.719	0.131	-0.173
-679.222	88.123	-0.089	-0.099
-678.208	-74.515	-0.453	-0.164
-677.193	30.808	-0.171	-0.148
-676.178	338.783	0.033	-0.064
-675.164	-70.519	0.224	-0.085
-674.149	-200.000	-0.000	-0.314
-673.135	71.692	-0.178	0.186
-672.120	-148.487	0.170	-0.014
-671.105	541.115	0.091	-0.219
-670.091	-200.000	0.032	-0.279
-669.076	225.751	-0.238	0.389
-668.062	-142.571	0.315	0.031
-667.047	-104.493	0.173	0.040
-666.032	800.000	-0.082	-0.249
-665.018	61.988	0.105	0.105
-664.003	800.000	-0.179	0.524
-662.989	-126.836	0.068	-0.010
-661.974	124.685	-0.250	-0.317
-660.959	-45.424	-0.234	0.117
-659.945	119.282	0.189	0.235
-658.930	-200.000	0.002	0.085
-657.916	-200.000	0.015	0.072
-656.901	-146.783	0.356	-0.031
-655.886	-200.000	0.125	0.000
-654.872	-116.009	-0.128	0.024
-653.857	-158.799	-0.207	-0.012
-652.843	-153.883	0.113	0.008
-651.828	42.628	-0.013	0.012
-650.814	-13.499	-0.215	0.140
-649.799	-200.000	-0.076	-0.380
-648.784	800.000	0.096	-0.415
-647.770	243.602	0.092	0.156
-646.755	333.126	-0.102	-0.198
-645.741	-83.638	0.304	-0.098
-644.726	16.331	-0.312	0.248
-643.711	-147.408	-0.149	0.013
-642.697	800.000	0.070	0.230
-641.682	112.882	-0.235	0.287
-640.668	-26.147	0.161	-0.095
-639.653	313.423	0.163	0.308
-638.638	-200.000	0.062	0.345
-637.624	-4.246	-0.053	0.037
-636.609	-116.308	-0.215	0.040
-635.595	-73.800	-0.050	-0.018
-634.580	348.531	-0.066	0.131
-633.565	-147.747	-0.100	0.008
-632.551	-200.000	0.036	-0.220
-631.536	-43.245	-0.096	-0.049
-630.522	-86.627	0.054	-0.017
-629.507	94.026	0.081	0.092
-628.492	-62.697	0.197	-0.082
-627.478	311.285	-0.041	0.077
-626.463	285.758	-0.154	-0.279
-625.449	26.458	-0.145	-0.122
-624.434	-92.825	0.215	-0.060
-623.419	-140.152	-0.094	0.010
-622.405	-0.234	-0.151	0.108
-621.390	101.380	0.021	0.024
-620.376	175.959	-0.149	-0.217
-619.361	38.572	-0.082	0.074
-618.346	800.000	-0.067	-0.238
-617.332	-200.000	0.015	-0.259
-616.317	-200.000	-0.031	0.136
-615.303	163.803	0.061	0.086
-614.288	95.314	-0.178	-0.204
-613.273	-200.000	0.287	0.001
-612.259	344.507	0.014	-0.028
-611.244	150.271	-0.142	0.193
-610.230	83.963	-0.208	-0.228
-609.215	156.376	0.111	0.155
-608.201	-39.149	-0.230	-0.121
-607.186	-148.950	0.162	-0.013
-606.171	42.048	-0.124	0.113
-605.157	320.565	0.049	-0.094
-604.142	356.036	0.124	-0.249
-603.128	-200.000	-0.008	-0.106
-602.113	515.155	-0.078	0.183
-601.098	-200.000	0.019	0.166
-600.084	2.504	0.311	0.226
-599.069	-114.817	0.082	-0.016
-598.055	-200.000	0.021	0.094
-597.040	273.546	-0.166	0.295
-596.025	233.624	0.077	-0.127
-595.011	126.427	0.237	-0.302
-593.996	-48.643	0.057	-0.027
-592.982	800.000	-0.065	-0.213
-591.967	-200.000	-0.024	-0.183
-590.952	-200.000	0.030	-0.160
-589.938	-113.241	-0.178	0.035
-588.923	-49.699	-0.169	-0.081
-587.909	-69.807	0.101	-0.039
-586.894	56.976	0.203	-0.198
-585.879	313.026	0.103	-0.194
-584.865	133.892	-0.099	0.129
-583.850	59.940	-0.086	0.086
-582.836	-200.000	-0.036	-0.314
-581.821	-121.747	0.056	0.009
-580.806	230.828	0.175	-0.288
-579.792	-122.138	-0.230	0.038
-578.777	-79.216	-0.309	-0.105
-577.763	-200.000	-0.073	0.368
-576.748	-169.578	-0.210	0.008
-575.733	524.618	0.049	0.116
-574.719	216.646	0.140	-0.224
-573.704	100.495	-0.150	-0.175
-572.690	266.025	-0.047	-0.082
-571.675	-123.197	0.291	0.047
-570.661	403.392	-0.129	0.272
-569.646	94.383	0.191	0.218
-568.631	-200.000	-0.044	-0.295
-567.617	158.704	0.074	0.103
-566.602	800.000	0.095	-0.268
-565.588	270.804	0.052	0.093
-564.573	-126.268	-0.348	0.052
-563.558	800.000	-0.079	0.236
-562.544	-7.490	0.141	-0.095
-561.529	-38.242	0.334	-0.177
-560.515	-107.431	0.167	-0.037
-559.500	660.012	-0.188	-0.484
-558.485	-78.422	-0.124	-0.043
-557.471	265.758	-0.146	0.255
-556.456	-200.000	0.009	-0.178
-555.442	800.000	0.104	0.330
-554.427	31.957	-0.091	0.079
-553.412	136.437	-0.133	0.174
-552.398	-118.646	-0.103	-0.018
-551.383	194.448	-0.187	-0.285
-550.369	-66.405	-0.355	0.141
-549.354	-200.000	0.072	0.321
-548.339	-121.814	-0.209	0.034
-547.325	-125.986	0.163	0.025
-546.310	-200.000	-0.028	-0.207
-545.296	205.149	-0.080	0.125
-544.281	467.188	0.080	-0.181
-543.266	207.614	0.055	0.086
-542.252	-200.000	-0.057	-0.257
-541.237	121.330	-0.054	-0.067
-540.223	-76.530	-0.205	-0.072
-539.208	800.000	-0.046	-0.141
-538.193	11.190	-0.134	0.103
-537.179	58.966	0.054	0.054
-536.164	-140.236	0.047	-0.005
-535.150	-200.000	-0.005	0.031
-534.135	800.000	-0.072	-0.230
-533.121	-73.172	0.074	0.027
-532.106	-33.713	0.215	0.119
-531.091	-6.830	-0.249	-0.170
-530.077	-113.673	-0.217	-0.042
-529.062	-74.813	-0.148	-0.053
-528.048	155.158	-0.067	0.093
-527.033	-200.000	-0.013	0.143
-526.018	-65.051	-0.129	-0.052
-525.004	13.540	0.379	-0.294
-523.989	-132.680	0.081	0.010
-522.975	-129.421	-0.415	-0.058
-521.960	-86.623	0.095	0.029
-520.945	449.474	-0.024	0.053
-519.931	-30.173	0.133	0.076
-518.916	-120.639	-0.349	0.059
-517.902	-200.000	0.003	-0.128
-516.887	168.713	0.154	0.219
-515.872	-35.795	0.289	0.157
-514.858	-80.281	0.392	0.131
-513.843	700.074	0.024	-0.064
-512.829	149.613	-0.151	-0.205
-511.814	-9.270	-0.020	-0.013
-510.799	-147.549	-0.198	-0.017
-509.785	203.395	-0.147	0.227
-508.770	-81.169	-0.044	0.014
-507.756	-141.235	-0.155	0.016
-506.741	-62.606	0.097	-0.040
-505.726	206.565	0.068	0.106
-504.712	-37.060	0.161	0.086
-503.697	668.369	0.106	-0.274
-502.683	-101.564	-0.183	-0.044
-501.668	162.903	0.162	0.227
-500.653	180.988	-0.251	-0.369
-499.639	-141.512	0.303	0.031
-498.624	-66.861	0.051	0.020
-497.610	800.000	-0.040	0.123
-496.595	-10.379	0.321	-0.213
-495.581	-49.231	0.296	-0.141
-494.566	-32.438	-0.107	0.060
-493.551	87.416	-0.205	0.227
-492.537	316.893	0.139	0.263
-491.522	143.192	0.277	0.368
-490.508	-43.207	0.263	-0.133
-489.493	-200.000	-0.074	-0.463
-488.478	405.585	-0.087	-0.183
-487.464	727.611	-0.103	0.274
-486.449	-149.167	-0.345	0.028
-485.435	-49.216	0.154	-0.074
-484.420	-101.694	-0.166	-0.040
-483.405	-200.000	0.036	-0.202
-482.391	721.986	0.071	-0.188
-481.376	-26.226	-0.228	-0.134
-480.362	800.000	-0.113	-0.322
-479.347	-114.428	-0.057	0.011
-478.332	299.451	0.085	0.157
-477.318	-100.401	0.298	0.074
-476.303	-200.000	-0.056	-0.301
-475.289	-137.441	0.215	0.024
-474.274	-17.541	-0.213	0.134
-473.259	-55.832	0.090	-0.040
-472.245	-115.692	-0.162	-0.030
-471.230	-77.515	-0.135	-0.047
-470.216	-119.636	0.340	0.059
-469.201	-200.000	0.006	-0.147
-468.186	27.644	0.132	0.111
-467.172	6.207	-0.260	0.193
-466.157	800.000	-0.076	0.282
-465.143	-200.000	-0.057	-0.341
-464.128	-200.000	-0.002	-0.165
-463.113	-200.000	0.058	0.377
-462.099	-200.000	0.116	0.565
-461.084	-114.629	0.191	-0.037
-460.070	-102.615	0.098	0.023
-459.055	-200.000	-0.022	0.341
-458.040	-200.000	-0.011	0.187
-457.026	-70.389	-0.549	0.208
-456.011	187.475	0.223	0.332
-454.997	46.337	0.113	0.104
-453.982	-60.053	-0.220	-0.094
-452.968	-53.648	-0.320	-0.146
-451.953	-116.169	-0.181	-0.034
-450.938	-74.478	-0.200	-0.072
-449.924	-88.971	0.231	-0.068
-448.909	-126.543	-0.272	-0.040
-447.895	-129.187	-0.263	0.037
-446.880	-54.015	0.075	-0.034
-445.865	-63.411	0.140	-0.057
-444.851	314.596	-0.099	0.185
-443.836	-72.772	-0.134	0.049
-442.822	-11.398	-0.190	0.125
-441.807	258.949	-0.230	0.397
-440.792	108.605	0.202	-0.241
-439.778	192.478	0.093	-0.140
-438.763	-81.153	-0.143	-0.047
-437.749	-91.859	0.176	0.050
-436.734	-140.699	0.136	0.014
-435.719	-71.314	-0.112	0.042
-434.705	14.218	-0.070	-0.054
-433.690	-60.290	-0.107	0.046
-432.676	216.654	-0.180	0.285
-431.661	164.824	0.236	-0.333
-430.646	166.498	0.091	-0.129
-429.632	-200.000	-0.019	-0.130
-428.617	-28.079	0.081	0.047
-427.603	88.158	0.105	0.116
-426.588	136.481	-0.169	0.220
-425.573	-45.852	-0.116	0.057
-424.559	-200.000	-0.070	0.331
-423.544	397.796	0.098	0.204
-422.530	-41.740	-0.338	-0.173
-421.515	392.195	-0.077	-0.160
-420.500	102.408	-0.095	0.111
-419.486	800.000	0.062	-0.262
-418.471	5.520	0.230	0.169
-417.457	-11.962	-0.158	0.103
-416.442	-35.178	-0.260	-0.141
-415.428	-200.000	-0.011	-0.129
-414.413	800.000	-0.030	0.087
-413.398	-142.297	0.149	-0.015
-412.384	-60.700	-0.438	-0.185
-411.369	-71.443	-0.343	-0.128
-410.355	348.837	0.011	-0.022
-409.340	681.979	-0.102	0.265
-408.325	-35.959	-0.348	-0.187
-407.311	271.261	0.096	0.168
-406.296	43.865	-0.212	0.194
-405.282	800.000	-0.084	0.322
-404.267	11.967	0.278	0.213
-403.252	-200.000	-0.026	-0.127
-402.238	483.559	0.048	-0.108
-401.223	133.496	-0.247	0.318
-400.209	-200.000	0.038	-0.305
-399.194	66.466	-0.184	0.186
-398.179	-200.000	-0.023	-0.143
-397.165	139.881	-0.000	0.001
-396.150	-137.415	0.374	0.042
-395.136	-82.576	0.138	-0.044
-394.121	482.258	0.115	-0.259
-393.106	-63.441	0.201	0.082
-392.092	-200.000	0.007	0.137
-391.077	800.000	0.072	-0.205
-390.063	-12.911	0.252	0.163
-389.048	-131.260	0.190	-0.025
-388.033	-142.895	-0.200	-0.019
-387.019	10.330	0.205	-0.155
-386.004	-77.536	-0.317	0.109
-384.990	519.752	-0.071	0.167
-383.975	-56.204	0.332	0.147
-382.960	-184.942	0.138	-0.002
-381.946	-200.000	-0.001	-0.083
-380.931	-24.453	-0.085	0.051
-379.917	-32.909	-0.045	0.025
-378.902	510.799	0.030	-0.069
-377.888	-40.137	0.216	0.112
-376.873	800.000	-0.077	0.285
-375.858	-45.723	-0.151	0.074
-374.844	-200.000	0.035	0.277
-373.829	-126.632	0.389	-0.057
-372.815	-200.000	-0.027	0.187
-371.800	2.825	-0.141	0.102
-370.785	-200.000	0.067	0.321
-369.771	348.088	0.173	0.340
-368.756	-173.832	-0.285	-0.008
-367.742	-55.855	0.097	0.043
-366.727	-146.477	-0.263	-0.023
-365.712	252.884	0.217	-0.369
-364.698	711.164	-0.073	-0.192
-363.683	-200.000	0.205	0.001
-362.669	156.956	0.100	-0.137
-361.654	800.000	0.049	-0.193
-360.639	-31.202	-0.253	-0.142
-359.625	159.708	-0.046	0.064
-358.610	-200.000	-0.014	-0.116
-357.596	7.023	-0.272	0.202
-356.581	27.910	0.095	0.080
-355.566	-200.000	-0.014	-0.073
-354.552	-189.458	0.175	-0.002
-353.537	461.463	-0.161	-0.358
-352.523	455.355	0.138	0.305
-351.508	472.391	-0.058	-0.129
-350.493	147.185	0.156	0.209
-349.479	800.000	-0.102	-0.306
-348.464	-147.788	-0.141	0.012
-347.450	141.099	0.144	-0.189
-346.435	-121.678	0.226	-0.037
-345.420	-4.133	0.246	-0.169
-344.406	-200.000	0.129	0.580
-343.391	-89.003	0.097	-0.029
-342.377	182.731	0.120	0.176
-341.362	-105.985	0.429	-0.096
-340.348	-75.661	0.173	-0.061
-339.333	50.937	0.162	0.153
-338.318	83.311	-0.205	-0.222
-337.304	-18.320	0.128	-0.079
-336.289	-106.127	0.058	-0.013
-335.275	53.651	0.234	-0.224
-334.260	-92.705	0.183	-0.051
-333.245	-200.000	0.034	0.221
-332.231	800.000	-0.016	0.065
-331.216	-33.211	0.102	0.056
-330.202	182.832	-0.253	-0.371
-329.187	-200.000	0.004	-0.153
-328.172	-156.174	0.136	0.009
-327.158	800.000	-0.071	0.215
-326.143	-90.901	0.154	-0.044
-325.129	-200.000	0.046	0.305
-324.114	-62.063	-0.065	-0.027
-323.099	12.856	-0.409	0.314
-322.085	800.000	0.065	0.250
-321.070	-81.598	-0.422	0.138
-320.056	-186.690	0.208	-0.003
-319.041	-43.368	0.079	0.040
-318.026	-81.453	-0.143	0.047
-317.012	-200.000	0.070	-0.355
-315.997	94.605	0.051	-0.057
-314.983	-120.653	0.250	-0.042
-313.968	469.177	0.081	0.181
-312.953	-200.000	0.012	0.244
-311.939	43.679	-0.180	0.164
-310.924	31.541	-0.221	0.188
-309.910	219.529	-0.107	0.170
-308.895	176.265	0.102	0.147
-307.880	-5.938	-0.294	-0.200
-306.866	229.777	-0.046	-0.074
-305.851	364.478	0.051	-0.101
-304.837	-200.000	-0.011	0.127
-303.822	455.206	0.111	0.245
-302.807	-41.817	-0.150	-0.076
-301.793	-200.000	0.004	0.159
-300.778	-126.077	0.179	-0.027
-299.764	-200.000	0.028	-0.176
-298.749	-200.000	-0.016	0.172
-297.735	145.581	0.334	-0.444
-296.720	-94.976	-0.338	0.091
-295.705	-200.000	-0.011	-0.088
-294.691	696.140	-0.023	0.060
-293.676	304.054	0.088	0.163
-292.662	40.854	0.181	-0.162
-291.647	-155.591	-0.327	-0.021
-290.632	62.691	0.105	-0.104
-289.618	270.227	0.075	-0.131
-288.603	-146.312	-0.197	0.017
-287.589	535.438	0.069	-0.162
-286.574	170.814	0.183	-0.260
-285.559	740.447	0.076	0.202
-284.545	-200.000	-0.008	0.267
-283.530	-20.051	-0.231	0.141
-282.516	338.676	-0.019	-0.037
-281.501	797.163	-0.142	-0.387
-280.486	319.813	-0.140	-0.263
-279.472	206.131	0.148	-0.228
-278.457	-22.652	-0.290	0.174
-277.443	103.124	-0.080	-0.093
-276.428	-153.677	0.324	-0.022
-275.413	-145.463	0.297	0.026
-274.399	800.000	0.064	-0.198
-273.384	-200.000	0.057	-0.309
-272.370	-21.406	0.205	-0.124
-271.355	-87.249	-0.227	-0.068
-270.340	-47.104	-0.349	0.169
-269.326	-28.587	0.221	-0.126
-268.311	-37.433	0.019	0.010
-267.297	197.174	0.170	0.257
-266.282	-200.000	0.026	-0.276
-265.267	495.671	0.095	0.217
-264.253	-87.895	-0.109	0.032
-263.238	104.903	0.056	0.065
-262.224	-200.000	-0.040	-0.233
-261.209	53.025	0.125	0.119
-260.195	-200.000	0.009	0.112
-259.180	254.714	-0.128	-0.217
-258.165	172.670	0.119	-0.170
-257.151	390.328	0.072	0.148
-256.136	-34.359	-0.200	0.108
-255.122	-148.205	-0.142	0.012
-254.107	-43.074	0.249	-0.125
-253.092	-94.100	0.188	-0.051
-252.078	322.743	-0.172	-0.324
-251.063	15.095	-0.155	-0.121
-250.049	-145.060	0.055	0.005
-249.034	24.740	-0.065	-0.053
-248.019	59.380	0.157	0.153
-247.005	15.325	0.250	-0.194
-245.990	-200.000	-0.024	-0.250
-244.976	202.452	-0.056	0.085
-243.961	280.331	0.157	-0.278
-242.946	14.780	-0.250	-0.193
-241.932	131.847	-0.148	0.189
-240.917	800.000	0.066	-0.252
-239.903	152.188	-0.142	0.191
-238.888	-200.000	0.035	0.322
-237.873	-56.465	-0.055	-0.024
-236.859	-96.930	0.134	-0.035
-235.844	229.336	0.077	-0.124
-234.830	256.829	0.168	0.285
-233.815	-200.000	0.038	0.307
-232.800	585.969	-0.011	0.027
-231.786	136.307	-0.100	0.129
-230.771	-147.466	0.153	0.013
-229.757	-41.842	0.042	0.021
-228.742	-68.553	0.207	-0.079
-227.727	329.533	0.219	0.418
-226.713	-188.335	-0.067	-0.001
-225.698	-103.947	-0.153	-0.035
-224.684	-200.000	0.045	-0.216
-223.669	-56.527	0.026	0.012
-222.655	201.818	0.143	-0.219
-221.640	-161.306	-0.333	-0.017
-220.625	-37.898	-0.157	-0.082
-219.611	-120.244	0.168	-0.028
-218.596	-14.757	0.228	-0.145
-217.582	504.183	0.052	-0.120
-216.567	562.416	-0.107	0.256
-215.552	-200.000	0.008	-0.055
-214.538	-200.000	-0.036	-0.255
-213.523	-200.000	0.004	-0.130
-212.509	51.083	0.122	-0.115
-211.494	-200.000	-0.001	0.252
-210.479	-120.149	-0.261	-0.044
-209.465	800.000	0.069	-0.233
-208.450	-200.000	-0.011	0.085
-207.436	-80.146	-0.249	-0.082
-206.421	657.579	0.101	0.256
-205.406	-41.072	0.219	-0.112
-204.392	100.217	-0.207	0.237
-203.377	-115.565	0.262	0.049
-202.363	-29.552	0.217	-0.123
-201.348	800.000	0.052	0.209
-200.333	-81.812	-0.327	-0.106
-199.319	70.539	0.103	0.106
-198.304	87.716	-0.231	-0.253
-197.290	73.519	0.195	-0.202
-196.275	-200.000	-0.259	-0.001
-195.260	-10.615	-0.113	0.074
-194.246	800.000	0.059	0.177
-193.231	-108.384	0.219	-0.047
-192.217	31.205	0.191	0.162
-191.202	186.837	-0.145	-0.214
-190.187	102.494	-0.177	-0.205
-189.173	794.840	0.108	-0.293
-188.158	-200.000	0.016	0.081
-187.144	-3.983	0.151	0.104
-186.129	-200.000	-0.030	-0.190
-185.114	-46.406	0.084	0.041
-184.100	186.508	0.127	0.186
-183.085	-142.774	-0.018	-0.002
-182.071	129.858	0.257	-0.325
-181.056	-94.819	0.152	-0.041
-180.042	-200.000	0.042	-0.208
-179.027	94.332	0.084	0.094
-178.012	-200.000	-0.045	0.414
-176.998	34.087	-0.234	0.201
-175.983	91.382	0.128	0.142
-174.969	-200.000	0.021	0.244
-173.954	372.120	0.156	-0.313
-172.939	-99.783	0.431	0.107
-171.925	65.234	0.147	0.147
-170.910	-9.956	-0.042	0.027
-169.896	-112.367	-0.138	-0.027
-168.881	-92.327	0.214	0.059
-167.866	-65.800	-0.224	0.089
-166.852	-200.000	0.086	-0.384
-165.837	2.421	0.260	-0.186
-164.823	-107.332	-0.329	-0.071
-163.808	680.565	-0.012	0.030
-162.793	-200.000	0.062	0.334
-161.779	800.000	0.020	0.083
-160.764	-200.000	-0.004	0.166
-159.750	-200.000	-0.012	-0.336
-158.735	800.000	0.036	0.099
-157.720	330.224	0.044	-0.084
-156.706	92.843	-0.143	0.159
-155.691	-7.660	-0.038	-0.025
-154.677	-200.000	0.005	0.461
-153.662	669.346	0.124	-0.316
-152.647	192.678	0.205	0.305
-151.633	5.286	-0.280	0.204
-150.618	-89.082	0.190	-0.056
-149.604	-179.345	-0.043	0.001
-148.589	-93.712	-0.156	-0.042
-147.574	-136.896	0.138	0.016
-146.560	-118.467	0.469	0.082
-145.545	4.830	-0.154	0.112
-144.531	763.805	-0.012	0.033
-143.516	125.552	-0.056	0.070
-142.502	800.000	0.037	0.106
-141.487	-200.000	0.065	0.421
-140.472	-45.034	-0.117	-0.058
-139.458	-13.119	-0.270	0.173
-138.443	-68.483	0.465	0.178
-137.429	800.000	-0.053	-0.162
-136.414	-114.817	-0.131	-0.025
-135.399	-200.000	0.016	-0.118
-134.385	-200.000	0.000	-0.045
-133.370	368.671	0.047	-0.094
-132.356	-102.199	-0.172	-0.041
-131.341	800.000	-0.063	0.230
-130.326	162.473	-0.268	0.370
-129.312	-31.854	0.070	-0.039
-128.297	-200.000	-0.011	0.086
-127.283	260.752	0.100	0.170
-126.268	-200.000	-0.009	0.074
-125.253	32.331	0.214	-0.182
-124.239	582.376	0.185	-0.449
-123.224	134.870	0.121	-0.154
-122.210	-44.389	-0.085	-0.042
