DTS Sentinel unit serial number:	SN413079Multiplexer serial number:	ORYXHardware model number:	OX4-SRSoftware version number:	ORYX F/W v4.00 Oryx Data Collector v3.7.2.0data status	okinstallation	princeton_trtdifferential loss correction	single-endedforward channel	channel 2reverse channel	N/Adate	2019/09/12time	01:13:11forward acquisition time	60.00reverse acquisition time	0.00gamma	496.2192k internal	0.2326k external	0.2326temperature offset calibration	1.0089default loss term (dB/km)	0.3790temperature slope calibration	1.0000multiplexer offset coefficient	1.0000multiplexer slope coefficient	1.0000fibre end	0.00T internal ref (°C)	33.05T ext. ref 1 (°C)	2.08T ext. ref 2 (°C)	27.81length (m)	temperature (°C)	Stokes	anti-Stokes-747.200	800.000	-0.037	-0.147
-746.185	534.951	-0.101	0.243
-745.171	-200.000	-0.018	0.415
-744.156	30.484	-0.057	0.049
-743.142	-200.000	0.014	0.061
-742.127	310.922	-0.096	0.181
-741.112	-115.096	-0.089	-0.017
-740.098	-22.600	-0.126	0.077
-739.083	-56.668	0.392	0.175
-738.069	-46.348	-0.037	0.019
-737.054	164.965	0.070	-0.099
-736.039	-49.677	-0.277	-0.133
-735.025	426.765	-0.062	0.134
-734.010	124.113	0.285	0.361
-732.996	333.735	-0.106	-0.207
-731.981	800.000	0.039	-0.124
-730.966	-62.492	0.214	-0.089
-729.952	7.468	-0.254	-0.191
-728.937	560.724	-0.167	-0.406
-727.923	157.882	-0.180	-0.251
-726.908	59.508	-0.189	-0.187
-725.894	-125.742	-0.378	0.058
-724.879	-176.044	-0.381	0.010
-723.864	-130.441	0.192	0.026
-722.850	-55.209	-0.139	-0.063
-721.835	90.220	-0.145	0.163
-720.821	-200.000	-0.027	0.205
-719.806	296.577	0.133	-0.246
-718.791	-200.000	-0.051	0.282
-717.777	351.376	-0.144	-0.286
-716.762	-153.661	-0.408	0.028
-715.748	489.735	-0.052	-0.119
-714.733	-82.829	0.238	-0.077
-713.718	800.000	0.035	-0.127
-712.704	307.017	0.297	-0.558
-711.689	-188.480	0.177	0.002
-710.675	-88.062	-0.120	-0.036
-709.660	-128.120	-0.345	-0.050
-708.645	29.583	0.089	-0.076
-707.631	-44.368	0.259	-0.131
-706.616	-200.000	0.007	-0.055
-705.602	64.444	-0.130	-0.132
-704.587	-60.708	-0.330	-0.141
-703.572	-35.964	-0.040	0.022
-702.558	374.411	-0.125	-0.255
-701.543	-122.657	-0.158	0.026
-700.529	-95.631	-0.270	0.073
-699.514	129.328	0.075	-0.096
-698.499	45.153	-0.027	-0.025
-697.485	264.454	-0.110	-0.193
-696.470	167.921	-0.211	0.302
-695.456	61.387	-0.152	0.152
-694.441	30.453	0.218	0.187
-693.426	21.682	-0.173	-0.142
-692.412	-45.723	0.102	-0.051
-691.397	154.937	-0.194	0.268
-690.383	-79.292	0.279	-0.095
-689.368	-31.802	-0.249	0.141
-688.354	17.541	-0.071	0.057
-687.339	-200.000	-0.000	0.427
-686.324	-72.468	0.302	0.112
-685.310	800.000	0.173	-0.537
-684.295	-62.509	0.095	0.040
-683.281	173.008	0.240	-0.348
-682.266	75.348	-0.118	-0.125
-681.251	-99.639	-0.059	-0.015
-680.237	310.459	0.165	-0.311
-679.222	-200.000	0.018	0.255
-678.208	-200.000	-0.002	0.155
-677.193	17.167	-0.094	0.075
-676.178	139.008	0.071	-0.094
-675.164	-200.000	0.029	0.274
-674.149	59.008	-0.141	-0.139
-673.135	-28.625	-0.119	-0.069
-672.120	472.984	0.192	-0.436
-671.105	707.312	0.050	-0.134
-670.091	-200.000	-0.329	0.001
-669.076	-113.063	-0.206	-0.041
-668.062	-128.593	0.202	0.029
-667.047	53.818	-0.193	0.186
-666.032	-73.678	0.171	0.062
-665.018	-122.818	-0.215	0.035
-664.003	124.796	-0.058	-0.073
-662.989	612.050	-0.056	-0.140
-661.974	-200.000	-0.021	-0.129
-660.959	707.447	0.069	-0.183
-659.945	-133.321	0.264	-0.033
-658.930	-106.668	0.305	0.068
-657.916	-200.000	0.034	0.378
-656.901	87.580	0.440	-0.489
-655.886	174.793	0.203	-0.295
-654.872	-67.717	-0.207	-0.081
-653.857	-3.243	0.095	-0.067
-652.843	163.404	-0.182	0.256
-651.828	214.465	-0.076	0.121
-650.814	-200.000	0.016	0.308
-649.799	14.585	0.256	-0.201
-648.784	800.000	0.037	0.110
-647.770	49.236	-0.287	0.271
-646.755	-105.851	0.494	-0.112
-645.741	225.556	0.032	-0.052
-644.726	-57.012	0.597	0.265
-643.711	-200.000	-0.057	-0.261
-642.697	-104.113	-0.316	0.074
-641.682	240.516	0.090	0.151
-640.668	800.000	-0.028	0.082
-639.653	-11.436	-0.068	0.045
-638.638	-112.410	0.248	0.050
-637.624	36.154	-0.039	0.034
-636.609	-51.877	0.270	-0.126
-635.595	-200.000	-0.004	-0.050
-634.580	800.000	0.092	-0.260
-633.565	-112.804	-0.261	0.052
-632.551	-59.525	-0.173	0.075
-631.536	800.000	-0.039	0.159
-630.522	-93.851	-0.189	-0.052
-629.507	-152.987	-0.249	-0.018
-628.492	-200.000	0.107	-0.532
-627.478	-9.364	-0.416	0.279
-626.463	211.551	0.109	-0.172
-625.449	460.015	-0.194	-0.434
-624.434	225.519	-0.130	-0.212
-623.419	315.261	-0.138	0.261
-622.405	-144.112	-0.223	-0.021
-621.390	-125.836	-0.315	-0.048
-620.376	95.498	0.203	-0.232
-619.361	-200.000	-0.002	0.210
-618.346	-200.000	-0.020	-0.163
-617.332	800.000	-0.039	0.122
-616.317	-102.088	0.265	0.064
-615.303	-71.405	-0.220	-0.083
-614.288	-200.000	0.005	0.069
-613.273	134.940	-0.141	-0.184
-612.259	-63.063	-0.160	-0.066
-611.244	-87.073	0.099	-0.030
-610.230	-113.631	-0.112	0.022
-609.215	-100.121	0.208	-0.052
-608.201	-200.000	-0.015	0.171
-607.186	46.374	-0.068	0.064
-606.171	-200.000	0.084	-0.585
-605.157	800.000	-0.028	-0.122
-604.142	-28.342	-0.292	0.169
-603.128	-168.472	0.103	-0.004
-602.113	-200.000	-0.018	-0.102
-601.098	-200.000	-0.036	-0.343
-600.084	61.332	-0.149	0.149
-599.069	-132.922	0.160	-0.020
-598.055	-200.000	0.017	0.159
-597.040	38.624	0.110	-0.098
-596.025	-32.093	-0.212	0.119
-595.011	145.519	-0.016	-0.021
-593.996	345.304	0.178	-0.350
-592.982	463.569	-0.061	-0.138
-591.967	-43.366	0.196	0.099
-590.952	-200.000	-0.016	0.070
-589.938	106.254	-0.117	0.139
-588.923	-96.766	0.275	0.072
-587.909	698.315	-0.133	0.350
-586.894	407.462	0.104	-0.220
-585.879	-112.377	0.271	0.054
-584.865	-106.954	-0.053	-0.012
-583.850	-156.966	-0.351	0.022
-582.836	-46.274	0.253	-0.125
-581.821	83.492	0.137	-0.150
-580.806	-97.680	0.341	-0.089
-579.792	7.631	-0.533	0.400
-578.777	214.039	0.062	-0.099
-577.763	-69.250	-0.462	-0.178
-576.748	53.872	-0.164	-0.158
-575.733	-56.822	-0.487	0.215
-574.719	-24.480	-0.098	0.059
-573.704	203.801	-0.081	-0.125
-572.690	406.174	-0.125	0.264
-571.675	-200.000	-0.026	0.208
-570.661	49.510	0.221	-0.208
-569.646	-200.000	-0.010	-0.085
-568.631	6.476	-0.274	0.204
-567.617	18.353	0.192	0.154
-566.602	-125.584	-0.146	-0.022
-565.588	-123.143	-0.333	-0.053
-564.573	-200.000	0.005	-0.108
-563.558	79.979	0.173	-0.187
-562.544	-28.427	-0.134	-0.078
-561.529	-200.000	0.010	-0.117
-560.515	-200.000	0.005	0.045
-559.500	-166.346	0.332	-0.014
-558.485	33.776	-0.198	-0.173
-557.471	-170.480	-0.089	0.003
-556.456	100.063	0.224	0.260
-555.442	146.938	0.117	0.158
-554.427	121.316	0.117	0.146
-553.412	-171.528	-0.058	0.002
-552.398	-155.804	0.243	0.016
-551.383	-8.996	-0.176	-0.118
-550.369	800.000	0.034	0.135
-549.354	35.280	-0.129	0.113
-548.339	-200.000	-0.038	0.259
-547.325	79.021	-0.068	-0.073
-546.310	-64.150	0.250	-0.102
-545.296	506.821	-0.173	-0.401
-544.281	326.346	0.190	0.365
-543.266	-200.000	-0.009	0.172
-542.252	-36.869	-0.122	-0.065
-541.237	-122.759	-0.184	0.030
-540.223	-147.266	0.092	-0.008
-539.208	142.894	-0.025	-0.033
-538.193	33.138	-0.241	-0.209
-537.179	800.000	-0.028	0.114
-536.164	76.607	-0.153	0.163
-535.150	149.347	0.247	0.334
-534.135	-26.883	0.141	-0.083
-533.121	-130.359	0.260	0.035
-532.106	20.702	-0.134	-0.109
-531.091	-110.383	-0.196	0.041
-530.077	-23.139	-0.170	0.102
-529.062	-200.000	0.011	-0.103
-528.048	-37.444	-0.104	0.055
-527.033	800.000	-0.077	-0.242
-526.018	117.106	-0.064	-0.079
-525.004	800.000	-0.079	0.304
-523.989	-200.000	0.039	0.222
-522.975	800.000	-0.044	0.176
-521.960	27.856	-0.115	-0.097
-520.945	124.001	0.077	-0.097
-519.931	-200.000	0.005	0.123
-518.916	152.499	-0.220	0.301
-517.902	-33.346	-0.136	0.075
-516.887	-27.039	-0.093	0.054
-515.872	-47.494	0.149	0.072
-514.858	-200.000	-0.027	0.175
-513.843	-17.423	0.224	-0.141
-512.829	335.669	-0.213	0.413
-511.814	-200.000	-0.022	0.421
-510.799	196.038	-0.113	-0.171
-509.785	-12.144	-0.201	-0.131
-508.770	75.608	0.118	0.125
-507.756	260.018	0.089	0.154
-506.741	-23.022	-0.166	0.100
-505.726	-200.000	0.039	-0.290
-504.712	733.865	0.060	-0.159
-503.697	-200.000	0.021	0.315
-502.683	-1.887	-0.055	-0.038
-501.668	127.751	-0.138	0.175
-500.653	258.467	-0.069	0.119
-499.639	-200.000	-0.009	0.183
-498.624	-35.310	-0.101	-0.055
-497.610	800.000	0.159	-0.440
-496.595	-85.857	-0.234	-0.072
-495.581	-84.624	0.320	-0.101
-494.566	247.771	-0.141	-0.238
-493.551	23.592	-0.216	0.178
-492.537	293.823	0.196	-0.357
-491.522	12.627	-0.172	-0.132
-490.508	800.000	-0.020	-0.072
-489.493	562.403	-0.088	-0.212
-488.478	-200.000	0.102	-0.460
-487.464	88.029	0.083	0.092
-486.449	225.707	-0.158	0.255
-485.435	-109.329	0.260	-0.055
-484.420	193.104	-0.012	-0.018
-483.405	-137.390	0.270	0.031
-482.391	-200.000	0.009	-0.101
-481.376	-107.149	-0.388	-0.085
-480.362	-120.029	-0.409	0.070
-479.347	18.546	-0.173	0.138
-478.332	82.820	0.067	-0.072
-477.318	-53.361	0.294	0.134
-476.303	485.749	-0.062	-0.141
-475.289	26.736	0.158	-0.132
-474.274	800.000	0.023	0.067
-473.259	800.000	-0.115	-0.341
-472.245	800.000	0.073	-0.241
-471.230	-200.000	0.039	-0.453
-470.216	177.370	-0.028	-0.040
-469.201	-52.393	0.372	-0.172
-468.186	-200.000	0.009	0.206
-467.172	-200.000	-0.034	-0.294
-466.157	238.009	0.046	0.077
-465.143	41.425	-0.148	-0.134
-464.128	470.378	0.062	0.139
-463.113	-200.000	0.078	0.357
-462.099	-119.993	-0.129	0.022
-461.084	-25.543	-0.387	-0.228
-460.070	83.837	-0.281	0.306
-459.055	247.585	-0.140	0.235
-458.040	27.748	-0.101	-0.085
-457.026	279.616	-0.179	0.319
-456.011	73.429	-0.260	-0.272
-454.997	-22.158	0.307	-0.186
-453.982	800.000	0.041	0.160
-452.968	-200.000	-0.026	-0.175
-451.953	800.000	-0.025	-0.091
-450.938	112.798	0.031	0.037
-449.924	29.615	0.279	0.237
-448.909	-9.142	-0.265	0.177
-447.895	83.949	0.041	-0.044
-446.880	800.000	0.043	-0.149
-445.865	200.497	-0.071	-0.108
-444.851	-99.571	0.066	-0.016
-443.836	-200.000	-0.006	-0.183
-442.822	649.359	0.128	-0.327
-441.807	-200.000	-0.011	0.323
-440.792	795.759	0.025	0.070
-439.778	209.871	0.099	-0.155
-438.763	93.745	-0.148	-0.167
-437.749	110.825	-0.220	-0.264
-436.734	-200.000	0.001	-0.119
-435.719	74.282	-0.254	0.266
-434.705	85.890	-0.055	-0.061
-433.690	-54.790	-0.209	-0.094
-432.676	46.349	-0.133	-0.122
-431.661	-125.627	-0.111	-0.017
-430.646	-54.604	0.124	-0.056
-429.632	226.966	0.081	0.131
-428.617	23.061	-0.099	0.081
-427.603	-182.525	0.252	0.005
-426.588	157.694	-0.115	-0.158
-425.573	-200.000	0.037	0.361
-424.559	57.789	-0.192	0.187
-423.544	-200.000	0.083	-0.458
-422.530	202.734	-0.080	-0.123
-421.515	94.427	0.088	-0.100
-420.500	-83.096	-0.160	0.051
-419.486	-200.000	0.026	0.134
-418.471	800.000	0.037	-0.110
-417.457	31.654	-0.164	0.140
-416.442	195.636	0.144	0.218
-415.428	-162.258	0.188	0.009
-414.413	-54.882	0.160	0.072
-413.398	-130.460	0.064	-0.009
-412.384	129.404	0.225	-0.287
-411.369	-95.301	0.391	-0.105
-410.355	-84.317	0.488	-0.154
-409.340	-200.000	0.118	-0.547
-408.325	47.340	-0.178	-0.165
-407.311	-118.721	-0.196	0.034
-406.296	800.000	0.088	-0.323
-405.282	-200.000	-0.032	-0.373
-404.267	-87.626	-0.145	0.044
-403.252	119.494	-0.105	0.129
-402.238	236.012	0.164	0.270
-401.223	24.737	-0.035	-0.029
-400.209	30.334	-0.075	0.064
-399.194	-175.984	-0.163	0.004
-398.179	-116.492	0.255	0.047
-397.165	42.290	0.241	-0.218
-396.150	-103.058	0.356	0.084
-395.136	-63.610	-0.127	0.052
-394.121	-25.174	-0.168	0.099
-393.106	-151.872	-0.182	-0.013
-392.092	800.000	-0.097	-0.283
-391.077	-200.000	-0.002	0.362
-390.063	-24.378	0.224	0.133
-389.048	-4.154	-0.061	0.042
-388.033	116.847	-0.054	-0.066
-387.019	-52.128	-0.157	0.072
-386.004	-177.607	0.193	0.005
-384.990	-2.097	0.113	-0.079
-383.975	-93.486	-0.124	0.034
-382.960	343.772	0.058	0.112
-381.946	33.906	0.076	-0.066
-380.931	-124.835	0.141	0.022
-379.917	-117.867	-0.189	-0.034
-378.902	217.949	0.101	0.161
-377.888	-83.681	0.318	0.101
-376.873	-19.573	0.091	0.056
-375.858	-177.044	-0.223	0.006
-374.844	736.252	0.133	0.355
-373.829	800.000	0.018	0.074
-372.815	-147.528	0.466	-0.039
-371.800	109.660	0.283	0.337
-370.785	12.983	0.047	-0.036
-369.771	567.134	-0.062	0.150
-368.756	-200.000	-0.056	0.253
-367.742	-68.729	0.036	-0.014
-366.727	67.731	0.078	-0.079
-365.712	-159.249	0.206	0.012
-364.698	412.401	0.032	0.069
-363.683	-178.125	0.041	-0.001
-362.669	-40.608	0.267	-0.138
-361.654	778.812	0.079	-0.216
-360.639	-200.000	0.073	-0.391
-359.625	164.180	0.189	-0.264
-358.610	545.962	-0.112	0.266
-357.596	32.676	-0.096	0.083
-356.581	168.641	0.101	0.143
-355.566	800.000	-0.138	-0.525
-354.552	-34.689	0.160	0.087
-353.537	-101.827	0.181	-0.044
-352.523	800.000	0.025	0.070
-351.508	714.677	-0.054	0.143
-350.493	143.525	-0.106	0.140
-349.479	152.923	-0.136	-0.184
-348.464	751.182	0.056	-0.149
-347.450	165.087	-0.127	0.178
-346.435	-119.858	0.213	-0.036
-345.420	-200.000	-0.034	0.333
-344.406	184.460	0.260	-0.382
-343.391	61.906	-0.126	-0.125
-342.377	44.175	-0.072	0.065
-341.362	-200.000	-0.064	0.335
-340.348	-200.000	0.022	0.104
-339.333	-59.486	0.306	0.131
-338.318	64.855	0.308	0.309
-337.304	0.989	0.122	0.086
-336.289	415.228	-0.105	0.222
-335.275	-91.420	0.372	-0.106
-334.260	35.295	0.172	0.149
-333.245	-133.189	0.150	-0.019
-332.231	-44.849	0.294	-0.145
-331.216	3.591	0.058	-0.042
-330.202	23.660	0.221	-0.181
-329.187	-190.346	-0.170	0.002
-328.172	612.106	-0.070	-0.175
-327.158	-45.984	-0.282	-0.138
-326.143	208.567	-0.138	-0.214
-325.129	452.570	0.134	-0.295
-324.114	43.426	-0.347	0.315
-323.099	46.118	-0.094	0.086
-322.085	-35.807	0.257	0.138
-321.070	-50.616	-0.047	-0.022
-320.056	-121.912	-0.384	-0.063
-319.041	800.000	-0.115	0.435
-318.026	-84.878	0.172	0.054
-317.012	247.047	-0.161	-0.269
-315.997	-71.584	-0.212	-0.079
-314.983	156.662	-0.247	0.338
-313.968	-95.410	0.070	0.019
-312.953	-200.000	-0.004	-0.029
-311.939	305.101	-0.077	-0.141
-310.924	35.174	0.140	-0.122
-309.910	112.995	0.255	-0.306
-308.895	16.057	-0.407	-0.318
-307.880	800.000	0.026	0.078
-306.866	-28.210	-0.434	-0.249
-305.851	800.000	-0.054	-0.154
-304.837	22.550	0.182	-0.148
-303.822	-36.296	0.097	0.052
-302.807	-120.010	0.364	-0.062
-301.793	-59.490	-0.124	-0.053
-300.778	-37.788	-0.215	-0.113
-299.764	-59.688	0.231	0.098
-298.749	-200.000	0.005	-0.269
-297.735	-144.324	0.414	0.038
-296.720	-25.288	-0.206	0.121
-295.705	-143.992	0.064	-0.006
-294.691	-200.000	0.033	0.210
-293.676	63.068	0.115	0.114
-292.662	236.080	0.152	-0.249
-291.647	-200.000	0.025	0.391
-290.632	-200.000	-0.012	0.156
-289.618	50.357	0.219	0.205
-288.603	295.011	0.086	-0.155
-287.589	277.946	-0.148	0.262
-286.574	-113.487	-0.225	0.044
-285.559	84.014	0.144	-0.155
-284.545	488.418	0.080	0.180
-283.530	-200.000	0.058	0.324
-282.516	-200.000	0.029	-0.201
-281.501	-90.587	-0.229	-0.066
-280.486	199.548	-0.121	0.184
-279.472	68.364	0.261	0.265
-278.457	-105.586	0.066	0.015
-277.443	12.140	-0.372	0.283
-276.428	64.354	0.109	0.109
-275.413	-37.120	-0.052	-0.027
-274.399	-5.341	-0.268	-0.182
-273.384	-200.000	-0.010	-0.180
-272.370	-200.000	-0.036	-0.241
-271.355	-200.000	-0.038	0.208
-270.340	-89.474	-0.253	0.074
-269.326	-96.879	-0.102	-0.026
-268.311	-200.000	0.020	0.289
-267.297	-42.466	0.254	0.128
-266.282	77.936	0.239	0.252
-265.267	800.000	0.063	0.210
-264.253	61.394	0.167	0.164
-263.238	198.625	0.152	0.231
-262.224	166.981	-0.128	-0.180
-261.209	117.174	0.200	-0.243
-260.195	-130.085	0.210	-0.028
-259.180	-200.000	0.018	-0.123
-258.165	44.065	0.049	-0.045
-257.151	-200.000	0.016	-0.125
-256.136	-73.056	-0.141	-0.051
-255.122	-124.908	0.087	-0.013
-254.107	800.000	0.019	-0.055
-253.092	-200.000	0.005	-0.071
-252.078	18.098	-0.258	0.204
-251.063	-129.108	-0.293	-0.041
-250.049	-47.663	0.213	0.102
-249.034	397.416	0.114	-0.237
-248.019	-200.000	-0.003	0.014
-247.005	-126.776	-0.447	-0.065
-245.990	233.323	-0.062	0.101
-244.976	-200.000	0.017	-0.101
-243.961	-26.709	0.019	-0.011
-242.946	-78.369	0.231	-0.078
-241.932	-8.166	-0.161	0.107
-240.917	-170.443	-0.258	0.009
-239.903	462.445	-0.209	0.461
-238.888	-200.000	0.021	-0.338
-237.873	-200.000	0.004	0.129
-236.859	319.014	-0.053	-0.100
-235.844	-137.878	0.104	-0.012
-234.830	27.823	-0.222	-0.185
-233.815	163.787	0.039	0.054
-232.800	46.254	0.251	-0.230
-231.786	-140.981	-0.071	-0.007
-230.771	35.219	-0.058	0.050
-229.757	-12.778	-0.087	0.056
-228.742	438.524	0.136	-0.293
-227.727	792.323	0.136	0.371
-226.713	-138.665	0.210	-0.023
-225.698	-38.355	-0.091	-0.048
-224.684	171.037	-0.062	0.088
-223.669	-187.100	0.324	-0.004
-222.655	368.519	0.133	0.267
-221.640	-63.907	0.269	0.109
-220.625	-83.036	0.355	-0.113
-219.611	-200.000	-0.054	0.518
-218.596	288.870	-0.252	0.451
-217.582	-50.869	-0.053	-0.025
-216.567	-200.000	-0.049	-0.269
-215.552	-59.051	0.154	0.066
-214.538	227.235	0.101	0.162
-213.523	78.970	0.114	-0.121
-212.509	-141.192	0.133	-0.013
-211.494	-6.496	0.242	0.163
-210.479	25.929	0.293	0.241
-209.465	-113.582	-0.074	0.014
-208.450	-124.701	-0.555	-0.085
-207.436	266.986	0.113	0.196
-206.421	6.070	-0.068	-0.050
-205.406	-105.752	0.262	0.058
-204.392	800.000	0.024	0.091
-203.377	-138.302	0.237	0.026
-202.363	276.728	0.040	0.071
-201.348	-200.000	0.006	0.132
-200.333	23.664	0.161	-0.131
-199.319	-200.000	0.014	-0.229
-198.304	138.812	-0.100	-0.130
-197.290	22.268	-0.107	-0.087
-196.275	282.445	-0.070	-0.123
-195.260	-142.736	0.243	0.023
-194.246	-200.000	-0.021	-0.139
-193.231	102.828	0.062	0.072
-192.217	-75.882	0.073	0.026
-191.202	-17.660	-0.131	-0.081
-190.187	112.800	0.027	0.032
-189.173	-54.993	0.218	-0.097
-188.158	79.622	0.096	0.101
-187.144	363.035	-0.123	0.244
-186.129	800.000	-0.052	0.208
-185.114	-72.530	-0.270	-0.099
-184.100	191.109	-0.114	-0.169
-183.085	226.736	0.052	-0.083
-182.071	-72.059	-0.340	0.124
-181.056	168.374	0.137	-0.192
-180.042	-13.316	-0.152	-0.098
-179.027	-200.000	0.019	0.173
-178.012	-93.563	-0.310	-0.085
-176.998	-200.000	-0.008	0.209
-175.983	-35.604	-0.185	0.099
-174.969	350.254	0.072	0.140
-173.954	800.000	0.102	-0.379
-172.939	9.750	-0.288	0.216
-171.925	-200.000	-0.011	-0.210
-170.910	69.565	0.124	-0.126
-169.896	228.774	-0.079	-0.127
-168.881	-200.000	-0.035	-0.304
-167.866	-164.488	0.208	-0.009
-166.852	46.681	0.151	0.138
-165.837	-37.464	-0.136	-0.071
-164.823	12.530	-0.257	-0.196
-163.808	-200.000	0.019	-0.189
-162.793	28.606	0.133	0.111
-161.779	-48.954	0.169	0.080
-160.764	-61.885	-0.388	-0.160
-159.750	26.671	0.185	-0.153
-158.735	2.884	-0.235	-0.168
-157.720	524.715	-0.183	0.424
-156.706	50.060	0.170	-0.158
-155.691	-184.173	0.264	-0.004
-154.677	-200.000	0.060	0.334
-153.662	-200.000	0.013	0.350
-152.647	-200.000	-0.011	-0.068
-151.633	-158.795	0.271	0.015
-150.618	722.578	0.134	0.351
-149.604	800.000	-0.034	0.118
-148.589	800.000	0.038	-0.111
-147.574	217.882	-0.033	-0.051
-146.560	-8.230	0.197	0.131
-145.545	-200.000	-0.001	-0.216
-144.531	-62.389	0.206	0.085
-143.516	-89.642	-0.152	-0.044
-142.502	-81.778	-0.379	0.122
-141.487	134.198	0.199	0.254
-140.472	-200.000	-0.003	-0.103
-139.458	64.314	0.106	-0.105
-138.443	-200.000	0.015	-0.084
-137.429	5.248	0.118	-0.086
-136.414	800.000	-0.073	-0.251
-135.399	-121.775	0.137	0.022
-134.385	-121.929	-0.114	0.018
-133.370	-76.182	-0.327	-0.113
-132.356	-17.208	0.275	-0.171
-131.341	-200.000	0.063	-0.348
-130.326	-49.484	0.044	-0.021
-129.312	-124.307	-0.497	-0.076
-128.297	173.114	0.234	-0.332
-127.283	-62.257	-0.089	0.036
-126.268	-179.848	0.137	-0.003
-125.253	-30.276	-0.188	0.105
-124.239	224.339	0.158	0.251
-123.224	-200.000	0.069	0.423
-122.210	317.982	-0.214	0.399
