DTS Sentinel unit serial number:	SN413079Multiplexer serial number:	ORYXHardware model number:	OX4-SRSoftware version number:	ORYX F/W v4.00 Oryx Data Collector v3.7.2.0data status	okinstallation	princeton_trtdifferential loss correction	single-endedforward channel	channel 2reverse channel	N/Adate	2019/09/12time	07:05:11forward acquisition time	60.00reverse acquisition time	0.00gamma	496.2192k internal	0.2324k external	0.2324temperature offset calibration	1.0061default loss term (dB/km)	0.3790temperature slope calibration	1.0000multiplexer offset coefficient	1.0000multiplexer slope coefficient	1.0000fibre end	0.00T internal ref (°C)	32.17T ext. ref 1 (°C)	1.59T ext. ref 2 (°C)	27.48length (m)	temperature (°C)	Stokes	anti-Stokes-747.200	26.089	0.151	0.127
-746.185	800.000	0.117	0.422
-745.171	385.228	0.110	0.230
-744.156	-200.000	0.041	-0.441
-743.142	800.000	0.096	-0.318
-742.127	239.461	-0.057	0.097
-741.112	42.691	0.053	-0.049
-740.098	-200.000	0.014	0.428
-739.083	230.948	-0.289	0.477
-738.069	-200.000	0.002	0.336
-737.054	-102.543	0.039	-0.009
-736.039	-71.593	-0.201	0.076
-735.025	119.989	0.206	0.257
-734.010	16.441	-0.070	0.056
-732.996	-200.000	-0.014	-0.333
-731.981	-95.876	-0.203	-0.055
-730.966	2.741	0.073	0.054
-729.952	800.000	-0.021	-0.077
-728.937	355.194	0.091	-0.183
-727.923	-200.000	-0.002	0.101
-726.908	41.598	-0.069	-0.063
-725.894	76.596	-0.239	-0.256
-724.879	-107.275	-0.425	0.094
-723.864	191.685	-0.074	-0.112
-722.850	342.757	-0.162	0.320
-721.835	-110.743	-0.099	-0.021
-720.821	-200.000	-0.016	-0.155
-719.806	-200.000	-0.001	-0.098
-718.791	-101.943	-0.176	0.043
-717.777	13.851	-0.195	0.153
-716.762	-74.334	-0.176	-0.064
-715.748	-200.000	-0.003	0.115
-714.733	21.913	0.160	-0.131
-713.718	-81.058	-0.319	0.106
-712.704	-200.000	0.021	-0.138
-711.689	-90.684	-0.306	-0.089
-710.675	-166.651	-0.105	-0.004
-709.660	-21.096	0.064	0.040
-708.645	-200.000	0.027	-0.255
-707.631	-112.397	0.197	-0.040
-706.616	-200.000	0.009	-0.233
-705.602	258.190	0.119	0.206
-704.587	-121.956	-0.122	-0.020
-703.572	-12.066	0.372	0.246
-702.558	-159.897	0.342	0.019
-701.543	-200.000	-0.048	0.624
-700.529	-121.383	0.128	-0.021
-699.514	-104.567	-0.225	0.052
-698.499	-200.000	0.029	0.186
-697.485	-104.637	0.511	-0.119
-696.470	508.592	0.017	-0.040
-695.456	172.356	-0.045	-0.065
-694.441	-59.905	-0.191	0.082
-693.426	-49.459	-0.106	0.051
-692.412	556.498	-0.054	-0.132
-691.397	-25.531	-0.207	-0.123
-690.383	-147.410	-0.296	0.025
-689.368	-37.658	0.224	-0.120
-688.354	-2.075	0.089	-0.063
-687.339	-105.467	0.088	-0.020
-686.324	-122.789	-0.471	-0.077
-685.310	-200.000	0.014	-0.347
-684.295	-94.744	-0.148	-0.041
-683.281	-88.073	-0.297	0.090
-682.266	255.758	-0.037	-0.064
-681.251	-149.014	0.336	-0.027
-680.237	106.450	0.152	-0.182
-679.222	800.000	-0.037	0.122
-678.208	-200.000	0.021	0.129
-677.193	-12.529	0.285	0.187
-676.178	23.776	-0.061	-0.051
-675.164	25.506	0.257	-0.215
-674.149	-91.433	0.270	-0.078
-673.135	-59.998	0.311	-0.134
-672.120	-143.887	-0.173	-0.016
-671.105	-200.000	-0.033	0.314
-670.091	279.485	-0.100	-0.179
-669.076	800.000	0.045	0.194
-668.062	58.306	-0.267	0.264
-667.047	800.000	-0.039	0.124
-666.032	-102.135	-0.093	-0.022
-665.018	47.572	-0.099	-0.093
-664.003	-107.635	-0.291	0.064
-662.989	-143.562	0.120	0.011
-661.974	16.069	-0.058	0.046
-660.959	-110.677	0.157	0.033
-659.945	-200.000	0.022	0.288
-658.930	-12.050	-0.133	0.088
-657.916	-200.000	-0.009	-0.043
-656.901	800.000	-0.022	0.066
-655.886	-200.000	0.019	0.106
-654.872	-200.000	0.000	0.004
-653.857	-24.937	-0.204	-0.122
-652.843	171.475	0.167	0.242
-651.828	-200.000	-0.035	-0.355
-650.814	800.000	0.094	-0.282
-649.799	-200.000	0.009	-0.259
-648.784	235.463	0.102	0.169
-647.770	-200.000	-0.042	-0.188
-646.755	165.699	-0.031	0.044
-645.741	-200.000	0.037	0.184
-644.726	-187.074	-0.148	-0.002
-643.711	-145.443	-0.289	0.026
-642.697	713.496	0.125	0.332
-641.682	560.990	0.126	-0.305
-640.668	29.584	0.275	-0.235
-639.653	-36.413	0.062	0.034
-638.638	213.188	0.100	-0.159
-637.624	800.000	0.074	-0.247
-636.609	-69.600	-0.067	-0.026
-635.595	367.091	0.062	-0.126
-634.580	800.000	0.062	0.203
-633.565	-69.845	-0.106	-0.041
-632.551	-200.000	0.017	-0.294
-631.536	332.213	-0.143	0.278
-630.522	98.069	-0.102	-0.118
-629.507	534.368	-0.096	-0.229
-628.492	49.934	0.063	0.059
-627.478	-13.571	0.368	-0.239
-626.463	-102.437	-0.425	-0.102
-625.449	-160.915	-0.100	-0.005
-624.434	800.000	0.044	-0.140
-623.419	66.804	-0.226	-0.231
-622.405	-139.608	-0.308	0.033
-621.390	-10.724	0.268	-0.178
-620.376	-119.560	0.062	-0.011
-619.361	800.000	0.042	-0.184
-618.346	-121.631	-0.438	-0.073
-617.332	800.000	0.011	0.045
-616.317	-129.297	-0.172	0.024
-615.303	141.839	-0.080	-0.106
-614.288	491.079	-0.096	-0.222
-613.273	-146.818	-0.263	-0.023
-612.259	-200.000	-0.062	0.279
-611.244	56.301	-0.328	0.320
-610.230	-200.000	0.036	0.344
-609.215	-200.000	0.005	-0.365
-608.201	-72.838	0.010	0.004
-607.186	203.319	0.091	-0.142
-606.171	800.000	0.112	-0.358
-605.157	131.406	-0.073	-0.094
-604.142	-111.517	0.245	-0.050
-603.128	53.380	-0.155	-0.149
-602.113	126.925	-0.044	0.056
-601.098	-200.000	0.026	-0.216
-600.084	-101.518	-0.073	-0.018
-599.069	111.565	0.109	-0.132
-598.055	233.520	-0.055	0.090
-597.040	142.515	0.022	0.029
-596.025	-200.000	0.150	0.000
-595.011	-82.194	0.210	-0.069
-593.996	-151.351	-0.073	-0.005
-592.982	173.399	-0.108	0.156
-591.967	129.205	0.114	-0.146
-590.952	-0.589	-0.249	-0.177
-589.938	800.000	0.089	0.315
-588.923	-200.000	-0.016	-0.091
-587.909	-111.166	-0.156	0.032
-586.894	-69.124	-0.280	0.108
-585.879	18.579	0.095	0.076
-584.865	800.000	-0.110	-0.308
-583.850	563.859	0.091	-0.222
-582.836	800.000	-0.078	0.333
-581.821	-115.492	0.245	-0.046
-580.806	125.298	-0.123	0.156
-579.792	-34.487	0.171	-0.094
-578.777	2.768	0.117	-0.085
-577.763	-189.584	0.144	0.002
-576.748	-24.091	0.066	0.039
-575.733	-90.779	-0.117	-0.034
-574.719	-91.059	-0.199	0.057
-573.704	47.938	0.050	-0.047
-572.690	-117.999	-0.186	0.033
-571.675	-200.000	-0.025	0.122
-570.661	-107.832	-0.448	0.098
-569.646	-200.000	0.079	0.377
-568.631	-200.000	0.023	-0.102
-567.617	-32.657	0.204	-0.114
-566.602	151.436	0.119	-0.162
-565.588	16.201	-0.356	-0.281
-564.573	666.224	0.043	-0.112
-563.558	800.000	-0.029	-0.094
-562.544	482.115	0.028	-0.065
-561.529	-104.047	0.137	-0.032
-560.515	4.308	-0.278	0.204
-559.500	-132.905	-0.152	-0.019
-558.485	96.697	-0.058	-0.066
-557.471	-4.682	-0.255	0.177
-556.456	-129.382	0.413	-0.057
-555.442	-119.306	0.198	-0.035
-554.427	218.846	-0.108	0.173
-553.412	-53.939	0.080	-0.036
-552.398	-133.443	-0.162	0.020
-551.383	-73.881	0.145	0.053
-550.369	-151.522	0.083	0.006
-549.354	185.744	0.067	0.100
-548.339	174.532	0.025	-0.036
-547.325	-4.987	0.129	0.089
-546.310	-65.136	0.098	0.040
-545.296	-72.869	0.080	-0.030
-544.281	109.415	-0.187	-0.224
-543.266	800.000	-0.067	-0.193
-542.252	-139.983	0.224	0.024
-541.237	83.835	-0.120	-0.131
-540.223	151.944	-0.144	-0.196
-539.208	800.000	-0.116	-0.400
-538.193	152.201	0.079	0.108
-537.179	-110.109	0.103	-0.021
-536.164	-9.981	0.181	-0.120
-535.150	-105.524	0.165	-0.037
-534.135	-54.162	0.421	-0.192
-533.121	54.904	-0.070	-0.068
-532.106	246.016	-0.163	-0.274
-531.091	-53.521	-0.208	-0.095
-530.077	422.091	-0.123	-0.265
-529.062	-15.997	-0.051	-0.033
-528.048	-18.939	0.220	0.137
-527.033	-60.034	-0.198	0.085
-526.018	-74.918	0.150	-0.054
-525.004	-77.335	0.262	-0.091
-523.989	251.441	-0.081	-0.138
-522.975	561.337	-0.053	-0.129
-521.960	-25.439	-0.111	0.065
-520.945	-13.280	-0.265	0.172
-519.931	86.111	0.266	0.294
-518.916	197.280	0.102	-0.155
-517.902	-200.000	0.030	0.331
-516.887	800.000	-0.028	-0.122
-515.872	-84.310	0.142	-0.045
-514.858	124.852	0.179	0.225
-513.843	9.948	0.165	-0.125
-512.829	274.711	0.143	0.254
-511.814	-76.544	0.161	0.056
-510.799	800.000	0.069	-0.273
-509.785	-147.040	0.091	0.008
-508.770	800.000	0.023	-0.066
-507.756	382.639	-0.083	-0.170
-506.741	359.787	0.041	-0.081
-505.726	-200.000	-0.002	0.152
-504.712	-200.000	0.173	-0.000
-503.697	-16.340	0.104	-0.066
-502.683	-200.000	-0.005	-0.154
-501.668	66.623	-0.141	0.144
-500.653	188.864	-0.055	-0.083
-499.639	13.956	-0.127	-0.098
-498.624	-200.000	-0.018	0.291
-497.610	-140.443	-0.300	-0.031
-496.595	227.834	-0.152	-0.248
-495.581	-30.068	-0.309	0.176
-494.566	-35.511	0.254	-0.138
-493.551	-200.000	-0.036	-0.176
-492.537	53.667	-0.025	-0.024
-491.522	-110.418	-0.108	0.022
-490.508	-100.698	0.296	0.073
-489.493	-8.508	-0.089	0.060
-488.478	154.923	0.105	-0.145
-487.464	-13.679	0.111	0.072
-486.449	-150.224	-0.130	-0.010
-485.435	-156.938	-0.173	0.011
-484.420	4.336	-0.098	0.072
-483.405	72.542	0.182	0.190
-482.391	171.097	-0.187	0.267
-481.376	-200.000	-0.040	0.175
-480.362	57.386	-0.060	-0.059
-479.347	-200.000	0.013	-0.281
-478.332	-53.390	0.113	0.052
-477.318	446.868	0.044	0.097
-476.303	28.836	-0.149	0.126
-475.289	-69.028	-0.359	-0.138
-474.274	-124.434	-0.317	-0.049
-473.259	112.130	0.115	-0.139
-472.245	-87.680	-0.077	0.023
-471.230	85.944	0.245	-0.269
-470.216	-200.000	-0.038	0.220
-469.201	-200.000	-0.008	-0.157
-468.186	-91.219	0.376	0.108
-467.172	-115.599	0.213	-0.040
-466.157	-85.156	-0.264	0.082
-465.143	-200.000	0.007	-0.167
-464.128	800.000	0.035	-0.122
-463.113	-200.000	0.055	0.265
-462.099	800.000	-0.209	0.631
-461.084	54.714	-0.295	0.284
-460.070	16.922	-0.194	-0.153
-459.055	-159.440	0.153	0.009
-458.040	-200.000	0.025	-0.197
-457.026	300.135	-0.199	0.366
-456.011	-77.430	-0.180	0.062
-454.997	-200.000	-0.093	-0.444
-453.982	54.820	0.265	0.256
-452.968	-27.155	-0.262	0.152
-451.953	800.000	-0.066	-0.262
-450.938	731.419	-0.062	-0.167
-449.924	-147.791	-0.176	0.015
-448.909	419.098	-0.098	0.209
-447.895	-134.801	-0.120	-0.014
-446.880	-60.702	0.079	0.033
-445.865	-111.622	-0.120	-0.024
-444.851	-24.039	-0.050	-0.030
-443.836	135.174	-0.045	-0.058
-442.822	-55.857	0.128	-0.057
-441.807	800.000	0.093	-0.261
-440.792	-8.939	0.212	0.142
-439.778	-52.631	-0.280	0.129
-438.763	800.000	-0.019	-0.066
-437.749	-71.779	0.259	0.096
-436.734	-34.392	-0.151	-0.082
-435.719	-200.000	0.038	-0.190
-434.705	102.151	-0.163	-0.190
-433.690	522.909	0.039	-0.090
-432.676	-200.000	0.011	0.281
-431.661	-200.000	0.026	0.221
-430.646	-12.544	-0.082	0.053
-429.632	-168.612	-0.144	-0.005
-428.617	-200.000	0.018	0.182
-427.603	121.603	0.212	0.263
-426.588	59.233	0.355	-0.349
-425.573	455.854	-0.030	0.066
-424.559	-98.314	-0.257	0.066
-423.544	-200.000	0.040	-0.273
-422.530	-144.554	0.217	-0.020
-421.515	-26.726	-0.375	0.219
-420.500	-16.696	0.108	0.068
-419.486	29.183	0.080	0.068
-418.471	-126.438	-0.151	0.022
-417.457	1.286	-0.106	0.076
-416.442	3.620	-0.213	-0.155
-415.428	-129.076	-0.259	0.036
-414.413	209.118	0.108	0.169
-413.398	76.039	0.126	0.133
-412.384	100.201	-0.252	0.291
-411.369	54.380	0.191	0.183
-410.355	477.741	0.020	-0.045
-409.340	347.537	0.031	-0.061
-408.325	72.344	0.197	0.204
-407.311	213.748	-0.148	-0.234
-406.296	-160.677	0.133	0.007
-405.282	-97.133	-0.388	-0.101
-404.267	-75.127	-0.563	0.201
-403.252	-5.099	0.182	-0.125
-402.238	-200.000	-0.001	0.284
-401.223	-147.675	0.420	-0.035
-400.209	-150.805	0.352	0.027
-399.194	380.451	-0.154	0.315
-398.179	-200.000	0.004	-0.237
-397.165	800.000	-0.120	-0.512
-396.150	-80.913	0.138	0.045
-395.136	-200.000	-0.063	0.407
-394.121	-90.787	-0.207	-0.060
-393.106	800.000	0.005	-0.020
-392.092	33.239	0.250	0.216
-391.077	-64.545	0.284	-0.115
-390.063	-150.922	-0.156	0.012
-389.048	-139.951	0.069	0.007
-388.033	-200.000	0.013	-0.351
-387.019	-57.259	-0.316	-0.138
-386.004	111.936	0.293	-0.353
-384.990	-200.000	0.002	-0.194
-383.975	-145.111	-0.046	0.004
-382.960	800.000	0.057	-0.247
-381.946	-200.000	0.008	-0.143
-380.931	-164.042	-0.136	0.006
-379.917	44.316	0.042	0.038
-378.902	621.627	0.093	0.233
-377.888	-76.164	-0.036	0.013
-376.873	-40.568	-0.478	0.247
-375.858	-112.733	-0.072	0.014
-374.844	50.070	0.055	-0.051
-373.829	-183.486	-0.126	-0.002
-372.815	-5.137	0.078	0.054
-371.800	-63.686	-0.294	-0.120
-370.785	39.060	0.088	-0.078
-369.771	531.876	-0.100	0.235
-368.756	735.702	-0.026	0.068
-367.742	-87.350	-0.270	0.081
-366.727	-200.000	0.028	0.179
-365.712	181.299	0.106	-0.156
-364.698	257.286	-0.152	-0.260
-363.683	107.466	-0.067	0.080
-362.669	800.000	0.095	-0.282
-361.654	281.267	-0.061	0.109
-360.639	-107.302	-0.112	0.025
-359.625	-121.946	-0.238	-0.039
-358.610	341.677	-0.067	-0.131
-357.596	204.587	0.107	0.165
-356.581	-40.500	-0.283	0.146
-355.566	531.517	0.101	0.238
-354.552	56.298	0.172	-0.166
-353.537	-119.002	0.152	0.026
-352.523	-200.000	0.016	0.104
-351.508	405.647	0.100	-0.209
-350.493	192.232	0.055	0.082
-349.479	561.856	-0.076	0.182
-348.464	141.040	0.033	-0.044
-347.450	-9.646	0.248	-0.164
-346.435	423.617	0.123	-0.263
-345.420	-84.516	0.138	0.043
-344.406	-63.716	0.115	-0.047
-343.391	-120.501	-0.071	0.012
-342.377	156.597	-0.158	0.217
-341.362	-121.908	-0.363	0.059
-340.348	-200.000	0.002	-0.162
-339.333	-200.000	-0.000	0.238
-338.318	-104.342	0.209	-0.048
-337.304	82.375	-0.063	0.068
-336.289	-111.881	-0.158	0.032
-335.275	69.331	-0.216	0.221
-334.260	-107.001	-0.229	0.050
-333.245	-125.368	0.153	0.023
-332.231	404.264	-0.070	-0.146
-331.216	-118.921	0.301	-0.052
-330.202	-26.635	0.189	0.110
-329.187	-3.618	0.109	-0.075
-328.172	41.491	0.147	0.132
-327.158	-112.558	0.165	0.033
-326.143	66.708	-0.251	0.254
-325.129	800.000	-0.108	0.324
-324.114	-200.000	0.000	0.244
-323.099	-200.000	0.252	-0.000
-322.085	-98.445	-0.176	-0.045
-321.070	232.992	-0.097	0.158
-320.056	-197.012	-0.295	-0.002
-319.041	-16.645	-0.265	0.166
-318.026	-47.942	0.165	-0.079
-317.012	65.359	0.126	0.127
-315.997	800.000	0.037	-0.111
-314.983	759.770	0.069	-0.185
-313.968	393.930	0.111	-0.230
-312.953	-200.000	0.042	0.000
-311.939	-92.241	0.342	0.096
-310.924	-53.896	0.069	0.031
-309.910	-134.131	-0.233	-0.029
-308.895	174.844	0.213	-0.306
-307.880	357.945	0.201	0.398
-306.866	286.606	0.081	0.144
-305.851	161.303	0.205	-0.284
-304.837	-130.915	-0.213	-0.028
-303.822	800.000	0.032	0.123
-302.807	64.989	0.038	0.038
-301.793	124.808	0.114	-0.142
-300.778	-28.664	0.115	0.065
-299.764	57.861	-0.050	-0.049
-298.749	304.018	-0.114	-0.210
-297.735	-85.458	-0.244	-0.075
-296.720	399.545	-0.080	-0.166
-295.705	-113.079	0.431	-0.084
-294.691	251.997	-0.064	0.108
-293.676	-158.534	0.168	-0.010
-292.662	-200.000	-0.002	0.191
-291.647	-50.051	0.044	-0.021
-290.632	154.100	0.075	0.102
-289.618	2.757	0.307	-0.221
-288.603	-197.365	0.127	0.001
-287.589	7.490	-0.095	0.070
-286.574	-185.950	-0.502	-0.007
-285.559	-95.937	0.403	0.107
-284.545	147.859	0.057	0.076
-283.530	-132.103	0.116	-0.015
-282.516	68.513	0.185	0.188
-281.501	800.000	-0.047	0.198
-280.486	57.683	0.179	-0.173
-279.472	171.885	0.055	-0.078
-278.457	339.082	-0.071	0.137
-277.443	-200.000	-0.011	-0.064
-276.428	-100.831	0.105	0.026
-275.413	-86.738	0.068	0.021
-274.399	800.000	0.118	0.502
-273.384	-200.000	-0.002	-0.076
-272.370	-7.356	0.167	0.112
-271.355	527.115	0.078	-0.183
-270.340	19.435	0.039	-0.031
-269.326	147.980	0.104	-0.139
-268.311	6.314	0.121	0.089
-267.297	67.042	0.086	-0.086
-266.282	51.024	0.245	0.230
-265.267	127.298	0.117	-0.148
-264.253	800.000	0.087	-0.357
-263.238	43.081	0.044	-0.040
-262.224	0.826	0.091	0.064
-261.209	92.633	0.141	0.158
-260.195	-141.968	0.310	0.031
-259.180	16.920	0.244	0.191
-258.165	782.360	-0.109	0.296
-257.151	-200.000	0.019	0.436
-256.136	-45.573	-0.540	-0.265
-255.122	65.210	-0.075	0.075
-254.107	83.731	0.238	0.257
-253.092	-200.000	0.031	-0.196
-252.078	-78.718	-0.104	-0.035
-251.063	295.363	-0.074	0.135
-250.049	13.292	0.269	0.206
-249.034	98.121	-0.150	0.171
-248.019	-9.886	-0.237	-0.156
-247.005	104.599	0.202	0.235
-245.990	-104.338	0.409	-0.094
-244.976	800.000	-0.030	0.097
-243.961	45.542	-0.103	0.094
-242.946	-200.000	-0.001	0.006
-241.932	-200.000	0.007	-0.123
-240.917	25.484	0.105	0.086
-239.903	-82.480	-0.427	0.137
-238.888	-159.066	0.112	0.006
-237.873	-108.873	-0.071	0.015
-236.859	-42.594	0.175	0.088
-235.844	-200.000	0.007	-0.234
-234.830	161.123	-0.043	0.059
-233.815	-200.000	0.028	-0.355
-232.800	54.560	-0.129	0.123
-231.786	21.323	0.019	0.015
-230.771	-200.000	0.006	0.111
-229.757	532.230	-0.085	0.199
-228.742	-200.000	0.019	0.111
-227.727	800.000	-0.164	0.459
-226.713	197.057	-0.108	-0.162
-225.698	85.640	-0.225	0.245
-224.684	72.916	-0.101	0.104
-223.669	-200.000	0.002	-0.103
-222.655	34.210	-0.088	0.076
-221.640	-142.439	-0.178	-0.017
-220.625	-200.000	-0.016	-0.140
-219.611	-49.093	-0.179	-0.084
-218.596	-200.000	-0.026	0.203
-217.582	325.708	0.046	0.086
-216.567	562.289	-0.008	0.020
-215.552	-61.053	0.091	-0.038
-214.538	673.958	0.044	0.113
-213.523	176.033	-0.123	-0.176
-212.509	404.334	0.053	-0.109
-211.494	401.497	0.110	-0.227
-210.479	-69.899	0.208	-0.079
-209.465	349.079	0.143	0.279
-208.450	800.000	0.060	-0.255
-207.436	-63.561	0.301	0.122
-206.421	800.000	-0.052	-0.214
-205.406	800.000	-0.105	0.335
-204.392	106.442	-0.138	0.162
-203.377	-33.285	-0.021	0.012
-202.363	-50.187	-0.067	-0.031
-201.348	-122.787	0.243	-0.039
-200.333	-118.527	0.010	-0.002
-199.319	-39.590	0.303	-0.157
-198.304	323.927	0.135	-0.254
-197.290	74.075	0.123	0.127
-196.275	196.253	-0.098	0.148
-195.260	-97.481	0.254	0.065
-194.246	203.694	0.071	-0.108
-193.231	-178.040	0.131	-0.003
-192.217	92.962	-0.135	0.151
-191.202	114.875	-0.089	-0.108
-190.187	421.574	-0.119	-0.253
-189.173	-82.070	-0.164	0.053
-188.158	41.569	-0.230	-0.206
-187.144	-107.018	0.271	0.059
-186.129	-17.826	0.058	0.036
-185.114	2.792	-0.150	0.107
-184.100	-24.320	0.049	-0.029
-183.085	800.000	-0.036	-0.138
-182.071	482.581	0.021	-0.048
-181.056	800.000	0.048	0.199
-180.042	-200.000	-0.010	-0.364
-179.027	-200.000	-0.006	-0.107
-178.012	-200.000	0.241	0.000
-176.998	376.203	-0.157	-0.316
-175.983	4.278	0.189	0.137
-174.969	179.088	0.190	-0.274
-173.954	-200.000	-0.041	0.215
-172.939	361.438	0.051	0.101
-171.925	-131.347	-0.350	0.046
-170.910	53.188	0.139	-0.131
-169.896	-200.000	-0.063	-0.453
-168.881	7.926	-0.085	0.063
-167.866	12.497	0.271	0.206
-166.852	-119.681	0.320	-0.055
-165.837	-62.462	-0.126	-0.052
-164.823	205.268	-0.133	0.204
-163.808	-59.972	-0.126	0.053
-162.793	405.558	-0.131	-0.272
-161.779	304.521	-0.035	-0.064
-160.764	-118.775	0.113	-0.020
-159.750	794.143	-0.084	0.229
-158.735	281.468	0.073	-0.129
-157.720	-200.000	-0.010	0.541
-156.706	-54.904	0.432	0.192
-155.691	206.559	-0.124	0.190
-154.677	-29.957	-0.051	0.029
-153.662	-111.283	-0.325	0.066
-152.647	-53.320	-0.092	0.042
-151.633	-160.293	0.097	-0.005
-150.618	84.961	-0.064	0.070
-149.604	389.071	0.152	0.311
-148.589	460.264	0.131	-0.287
-147.574	-103.393	0.120	0.028
-146.560	29.007	0.068	0.057
-145.545	-32.289	-0.179	-0.098
-144.531	-98.199	-0.050	-0.013
-143.516	-200.000	-0.039	0.170
-142.502	-200.000	-0.018	-0.105
-141.487	-154.457	-0.363	-0.024
-140.472	-87.414	-0.161	-0.048
-139.458	-200.000	0.007	0.085
-138.443	-200.000	0.056	-0.364
-137.429	-76.560	-0.136	0.047
-136.414	-36.143	-0.316	-0.168
-135.399	-9.765	-0.364	-0.239
-134.385	-21.240	0.283	0.171
-133.370	97.708	0.183	0.207
-132.356	800.000	-0.048	-0.163
-131.341	-177.159	-0.168	-0.004
-130.326	-200.000	-0.058	-0.318
-129.312	-66.192	-0.234	-0.092
-128.297	800.000	0.065	-0.270
-127.283	187.251	-0.221	-0.325
-126.268	-200.000	-0.045	-0.276
-125.253	-200.000	-0.009	0.126
-124.239	-200.000	-0.007	-0.103
-123.224	12.382	0.092	0.070
-122.210	-200.000	-0.030	0.237
