DTS Sentinel unit serial number:	SN413079Multiplexer serial number:	ORYXHardware model number:	OX4-SRSoftware version number:	ORYX F/W v4.00 Oryx Data Collector v3.7.2.0data status	okinstallation	princeton_trtdifferential loss correction	single-endedforward channel	channel 2reverse channel	N/Adate	2019/09/11time	11:09:11forward acquisition time	60.00reverse acquisition time	0.00gamma	496.2192k internal	0.2307k external	0.2307temperature offset calibration	0.9970default loss term (dB/km)	0.3790temperature slope calibration	1.0000multiplexer offset coefficient	1.0000multiplexer slope coefficient	1.0000fibre end	0.00T internal ref (°C)	37.47T ext. ref 1 (°C)	0.18T ext. ref 2 (°C)	33.79length (m)	temperature (°C)	Stokes	anti-Stokes-747.200	-200.000	0.083	-0.000
-746.185	413.829	-0.089	0.192
-745.171	-10.519	0.144	-0.097
-744.156	-1.588	0.142	0.102
-743.142	425.708	0.087	-0.190
-742.127	-200.000	0.025	0.150
-741.112	-103.194	0.131	-0.032
-740.098	18.420	-0.280	0.228
-739.083	49.568	0.308	0.295
-738.069	342.108	-0.182	0.363
-737.054	11.729	0.112	-0.087
-736.039	-89.904	-0.255	-0.076
-735.025	721.952	-0.123	-0.333
-734.010	230.371	0.188	-0.312
-732.996	273.284	-0.090	-0.162
-731.981	-42.514	-0.162	-0.084
-730.966	-200.000	0.017	-0.138
-729.952	149.788	0.076	-0.104
-728.937	57.224	-0.106	-0.105
-727.923	-200.000	0.017	-0.541
-726.908	141.480	0.171	-0.230
-725.894	-182.351	-0.299	-0.006
-724.879	153.236	-0.177	-0.246
-723.864	26.920	-0.073	-0.062
-722.850	-200.000	-0.019	0.116
-721.835	-81.681	-0.178	-0.059
-720.821	126.829	-0.083	-0.106
-719.806	800.000	0.052	0.185
-718.791	23.858	0.135	-0.113
-717.777	-155.937	0.395	-0.026
-716.762	-59.635	0.109	0.048
-715.748	800.000	-0.048	-0.200
-714.733	-138.419	0.135	-0.015
-713.718	-14.193	0.048	0.032
-712.704	-200.000	-0.009	-0.321
-711.689	-134.051	-0.446	0.056
-710.675	643.321	-0.102	-0.264
-709.660	800.000	0.095	-0.282
-708.645	-80.854	0.096	-0.032
-707.631	-136.612	-0.171	0.020
-706.616	-90.093	-0.130	-0.038
-705.602	-188.671	0.308	-0.004
-704.587	-200.000	0.024	-0.194
-703.572	-19.868	-0.243	-0.152
-702.558	60.229	0.150	0.150
-701.543	208.841	-0.157	0.250
-700.529	-54.828	0.241	0.110
-699.514	-123.733	0.264	-0.042
-698.499	800.000	-0.054	-0.154
-697.485	800.000	-0.154	0.485
-696.470	69.138	-0.077	0.080
-695.456	-96.817	-0.065	-0.017
-694.441	-122.257	-0.135	0.022
-693.426	99.407	-0.095	-0.112
-692.412	496.124	-0.158	-0.368
-691.397	-109.525	-0.388	-0.083
-690.383	-200.000	-0.002	-0.157
-689.368	-200.000	0.002	0.045
-688.354	85.021	0.249	-0.277
-687.339	-45.152	0.441	-0.222
-686.324	800.000	-0.064	0.181
-685.310	-139.138	-0.390	-0.043
-684.295	-2.053	0.018	0.012
-683.281	250.305	0.030	0.051
-682.266	-40.029	-0.271	0.143
-681.251	800.000	0.088	0.306
-680.237	-200.000	0.011	-0.057
-679.222	157.860	0.306	-0.430
-678.208	51.166	0.123	-0.119
-677.193	7.503	0.235	-0.178
-676.178	25.187	-0.134	-0.113
-675.164	-1.454	-0.047	-0.034
-674.149	1.069	-0.050	0.036
-673.135	-113.735	0.188	0.037
-672.120	-87.229	-0.342	-0.105
-671.105	-62.326	0.116	-0.049
-670.091	-200.000	0.007	0.039
-669.076	251.917	0.246	0.425
-668.062	-200.000	-0.046	0.207
-667.047	200.121	0.055	0.086
-666.032	-137.002	-0.136	-0.016
-665.018	-200.000	-0.017	-0.418
-664.003	800.000	-0.096	-0.333
-662.989	321.430	-0.068	0.132
-661.974	-44.871	0.176	-0.089
-660.959	800.000	-0.066	0.241
-659.945	-200.000	-0.014	0.178
-658.930	343.226	0.076	0.151
-657.916	-5.925	0.174	-0.121
-656.901	-200.000	-0.010	-0.074
-655.886	172.630	0.126	-0.183
-654.872	75.292	0.049	-0.052
-653.857	800.000	0.088	-0.339
-652.843	-171.011	-0.147	0.005
-651.828	-99.840	-0.295	-0.075
-650.814	-90.556	0.191	0.056
-649.799	321.993	-0.075	0.145
-648.784	6.259	-0.163	-0.123
-647.770	196.036	-0.199	-0.307
-646.755	-178.140	-0.105	-0.003
-645.741	166.692	0.060	0.085
-644.726	-200.000	-0.012	0.252
-643.711	-66.408	-0.198	0.080
-642.697	-117.674	0.110	0.020
-641.682	-74.969	0.029	-0.010
-640.668	-200.000	-0.041	-0.186
-639.653	203.112	-0.062	0.096
-638.638	-134.997	0.285	-0.035
-637.624	6.476	-0.175	-0.132
-636.609	-49.629	0.087	-0.042
-635.595	-122.474	0.099	-0.016
-634.580	45.163	0.183	-0.171
-633.565	800.000	0.024	0.101
-632.551	-158.960	-0.152	0.009
-631.536	-172.934	0.249	-0.008
-630.522	-105.097	0.069	-0.016
-629.507	-155.994	0.295	-0.019
-628.492	214.716	-0.095	-0.152
-627.478	-200.000	0.039	0.317
-626.463	-0.042	-0.341	0.246
-625.449	-138.305	-0.187	0.021
-624.434	-106.812	-0.067	-0.015
-623.419	-51.902	0.161	0.076
-622.405	-33.349	0.281	-0.157
-621.390	-78.391	-0.183	-0.064
-620.376	208.915	-0.109	0.172
-619.361	800.000	-0.143	-0.443
-618.346	-144.900	0.157	0.015
-617.332	-56.722	-0.353	-0.158
-616.317	-187.849	0.269	-0.004
-615.303	48.271	-0.089	-0.084
-614.288	-66.362	0.199	-0.080
-613.273	411.324	-0.166	0.357
-612.259	800.000	-0.022	0.090
-611.244	269.471	-0.055	-0.097
-610.230	404.311	-0.074	0.157
-609.215	-200.000	-0.009	0.179
-608.201	-88.118	-0.169	-0.051
-607.186	-182.144	0.330	0.006
-606.171	800.000	0.038	-0.146
-605.157	-46.950	-0.279	-0.138
-604.142	800.000	-0.058	-0.162
-603.128	-7.554	-0.162	-0.110
-602.113	-164.027	-0.351	-0.016
-601.098	264.685	0.062	-0.110
-600.084	-98.855	0.353	0.091
-599.069	-50.226	0.183	0.088
-598.055	27.281	0.040	0.034
-597.040	-42.889	-0.303	-0.156
-596.025	800.000	-0.045	0.168
-595.011	161.595	0.082	-0.116
-593.996	-200.000	-0.011	-0.079
-592.982	-69.444	0.254	0.098
-591.967	263.886	-0.044	0.078
-590.952	465.573	0.097	0.220
-589.938	65.618	0.212	-0.217
-588.923	800.000	-0.048	0.188
-587.909	-155.636	-0.137	-0.009
-586.894	-105.763	0.186	0.042
-585.879	-140.853	0.121	0.013
-584.865	392.924	0.139	0.293
-583.850	-200.000	-0.073	0.461
-582.836	-200.000	0.005	0.092
-581.821	-200.000	0.054	-0.454
-580.806	56.607	-0.114	-0.112
-579.792	-200.000	-0.058	0.295
-578.777	-41.563	-0.202	-0.105
-577.763	22.878	-0.262	0.217
-576.748	383.975	0.181	0.377
-575.733	-200.000	0.029	-0.294
-574.719	-89.972	0.290	0.086
-573.704	-57.682	0.245	-0.108
-572.690	60.971	-0.131	-0.132
-571.675	-200.000	0.002	-0.234
-570.661	-74.624	-0.349	-0.127
-569.646	-49.982	-0.140	-0.067
-568.631	531.814	-0.090	0.214
-567.617	277.571	-0.112	-0.201
-566.602	303.435	-0.041	-0.077
-565.588	-187.851	-0.158	0.002
-564.573	-62.719	0.202	0.084
-563.558	-112.754	-0.170	-0.034
-562.544	-105.674	0.237	-0.054
-561.529	-200.000	-0.037	-0.204
-560.515	-104.786	0.300	-0.070
-559.500	-57.858	0.293	0.130
-558.485	-35.434	-0.364	0.200
-557.471	322.350	0.049	-0.094
-556.456	-48.868	-0.126	-0.061
-555.442	-200.000	-0.008	0.329
-554.427	-73.101	-0.373	-0.138
-553.412	-200.000	-0.004	-0.101
-552.398	-83.623	0.201	-0.065
-551.383	-200.000	0.013	0.133
-550.369	414.695	-0.059	-0.126
-549.354	176.020	0.118	0.172
-548.339	-81.190	0.274	-0.091
-547.325	-54.062	0.265	0.122
-546.310	42.193	0.359	-0.329
-545.296	-200.000	-0.034	-0.354
-544.281	34.168	0.151	-0.133
-543.266	-106.285	0.083	0.019
-542.252	-148.794	-0.091	0.007
-541.237	96.000	-0.221	-0.255
-540.223	800.000	0.054	0.192
-539.208	627.161	-0.124	0.317
-538.193	204.442	0.243	0.381
-537.179	-54.043	-0.256	0.117
-536.164	127.249	0.105	-0.134
-535.150	360.848	-0.063	-0.128
-534.135	-40.966	0.109	-0.057
-533.121	-63.741	0.286	0.118
-532.106	-200.000	-0.035	-0.280
-531.091	181.351	0.160	-0.237
-530.077	-185.977	-0.296	-0.004
-529.062	800.000	0.022	0.075
-528.048	244.508	-0.140	-0.238
-527.033	800.000	-0.109	0.320
-526.018	-109.614	0.347	-0.074
-525.004	166.480	-0.143	-0.204
-523.989	-200.000	0.010	0.109
-522.975	119.523	-0.150	0.188
-521.960	640.328	0.071	-0.181
-520.945	-133.788	0.156	-0.020
-519.931	800.000	-0.030	-0.109
-518.916	5.245	-0.153	-0.113
-517.902	144.808	0.182	0.246
-516.887	265.068	0.058	0.102
-515.872	-79.790	-0.265	-0.090
-514.858	109.903	0.322	-0.389
-513.843	160.572	-0.192	0.270
-512.829	-200.000	0.003	-0.055
-511.814	360.939	0.182	0.367
-510.799	-200.000	0.059	0.362
-509.785	209.610	-0.090	-0.142
-508.770	-124.669	0.160	0.025
-507.756	767.101	0.034	-0.092
-506.741	-116.572	0.269	0.050
-505.726	472.632	0.084	0.190
-504.712	800.000	-0.043	-0.161
-503.697	116.879	-0.125	-0.154
-502.683	21.970	-0.210	-0.172
-501.668	800.000	-0.091	-0.254
-500.653	322.363	-0.084	-0.161
-499.639	-51.554	-0.288	0.136
-498.624	-53.295	0.376	-0.174
-497.610	183.535	0.066	-0.099
-496.595	-102.981	-0.437	0.104
-495.581	-102.239	0.153	-0.037
-494.566	-38.256	0.192	0.102
-493.551	-117.910	-0.397	0.072
-492.537	-200.000	-0.005	0.233
-491.522	-157.341	0.356	-0.022
-490.508	126.169	0.100	-0.127
-489.493	171.446	-0.093	0.134
-488.478	-19.929	0.232	0.144
-487.464	-188.140	-0.262	-0.003
-486.449	-200.000	0.007	0.103
-485.435	-145.683	0.203	-0.018
-484.420	-38.860	-0.357	0.189
-483.405	21.263	-0.184	0.150
-482.391	800.000	0.081	0.270
-481.376	-82.800	-0.224	-0.073
-480.362	-200.000	-0.023	-0.162
-479.347	284.839	0.076	-0.138
-478.332	-11.655	-0.066	-0.043
-477.318	131.563	-0.212	-0.274
-476.303	81.313	0.101	-0.110
-475.289	290.238	0.100	-0.183
-474.274	-147.881	0.106	0.009
-473.259	10.776	0.165	0.127
-472.245	-65.217	-0.116	0.047
-471.230	87.066	0.066	0.074
-470.216	-61.417	0.139	-0.059
-469.201	-3.295	-0.073	-0.051
-468.186	66.709	0.130	-0.134
-467.172	-15.666	-0.394	-0.252
-466.157	-200.000	0.044	-0.258
-465.143	800.000	0.092	-0.287
-464.128	-43.855	0.298	-0.151
-463.113	2.927	0.092	-0.067
-462.099	-33.586	0.507	-0.281
-461.084	-200.000	-0.092	-0.000
-460.070	25.315	-0.251	0.209
-459.055	-71.869	0.178	0.066
-458.040	-151.036	0.141	-0.011
-457.026	-43.859	-0.134	0.068
-456.011	-169.175	-0.247	-0.009
-454.997	769.621	0.015	0.042
-453.982	48.974	0.101	0.096
-452.968	-36.804	-0.031	-0.017
-451.953	-61.754	-0.283	0.119
-450.938	126.930	0.044	0.057
-449.924	-200.000	-0.042	0.185
-448.909	-84.565	-0.135	-0.043
-447.895	22.401	-0.104	0.085
-446.880	-61.382	0.132	0.056
-445.865	-200.000	0.003	-0.147
-444.851	-82.449	-0.267	-0.087
-443.836	12.032	-0.104	-0.080
-442.822	-33.632	-0.021	-0.012
-441.807	82.365	-0.350	-0.382
-440.792	-37.686	0.245	0.131
-439.778	-200.000	-0.004	0.059
-438.763	-27.582	-0.081	0.048
-437.749	800.000	-0.102	0.388
-436.734	-134.777	-0.243	-0.030
-435.719	-1.913	0.188	0.133
-434.705	-20.546	-0.081	-0.050
-433.690	371.230	0.163	0.331
-432.676	-200.000	0.013	-0.514
-431.661	23.511	-0.151	0.125
-430.646	-79.905	0.323	0.109
-429.632	56.089	0.221	-0.215
-428.617	-200.000	0.022	0.200
-427.603	243.674	0.180	-0.302
-426.588	-164.341	-0.212	-0.010
-425.573	-73.302	-0.346	-0.127
-424.559	-64.937	-0.155	0.063
-423.544	-53.377	0.231	0.106
-422.530	-200.000	0.003	-0.041
-421.515	-200.000	-0.010	-0.263
-420.500	800.000	0.038	0.165
-419.486	-108.172	-0.106	-0.023
-418.471	64.779	0.040	-0.041
-417.457	-49.078	0.073	0.035
-416.442	-200.000	0.024	-0.147
-415.428	800.000	-0.066	-0.189
-414.413	-200.000	-0.035	-0.191
-413.398	-28.966	-0.385	0.222
-412.384	800.000	-0.037	0.129
-411.369	-117.368	-0.347	0.063
-410.355	-106.235	-0.198	0.045
-409.340	-151.150	-0.414	-0.031
-408.325	208.589	-0.101	-0.159
-407.311	-55.541	0.180	0.081
-406.296	31.639	0.094	0.081
-405.282	-108.182	-0.249	-0.054
-404.267	-200.000	0.006	-0.120
-403.252	-20.205	0.149	-0.092
-402.238	-84.412	0.250	-0.079
-401.223	-200.000	0.008	0.098
-400.209	369.928	-0.196	-0.398
-399.194	9.895	0.092	0.070
-398.179	-80.222	0.115	0.039
-397.165	1.481	-0.303	0.219
-396.150	-92.052	-0.156	-0.044
-395.136	32.327	0.457	-0.396
-394.121	-60.741	-0.042	-0.018
-393.106	-200.000	-0.015	0.323
-392.092	-91.495	0.230	0.066
-391.077	250.313	0.204	-0.347
-390.063	800.000	-0.018	-0.072
-389.048	521.061	0.150	-0.354
-388.033	59.785	-0.203	-0.201
-387.019	-110.008	-0.228	0.048
-386.004	12.777	0.118	-0.091
-384.990	-24.435	-0.118	-0.071
-383.975	-200.000	0.046	0.366
-382.960	800.000	-0.029	-0.120
-381.946	-41.665	0.121	-0.062
-380.931	523.757	-0.062	-0.147
-379.917	-90.593	0.208	-0.060
-378.902	38.356	0.077	-0.069
-377.888	-16.122	0.138	0.088
-376.873	-144.689	0.121	0.011
-375.858	-77.076	-0.104	0.036
-374.844	212.167	0.101	0.159
-373.829	-17.351	0.073	-0.046
-372.815	300.010	0.116	-0.215
-371.800	482.853	0.067	0.153
-370.785	800.000	-0.041	-0.130
-369.771	-145.669	-0.246	0.022
-368.756	173.629	-0.099	0.143
-367.742	8.371	0.083	0.062
-366.727	86.366	-0.062	-0.068
-365.712	44.125	0.141	0.129
-364.698	-115.505	0.201	-0.038
-363.683	-200.000	-0.018	-0.190
-362.669	-151.862	-0.255	0.019
-361.654	148.323	-0.130	0.176
-360.639	-200.000	-0.001	0.144
-359.625	-200.000	-0.026	0.173
-358.610	406.019	0.070	0.147
-357.596	800.000	-0.056	-0.226
-356.581	-200.000	0.003	-0.132
-355.566	-109.971	-0.191	0.040
-354.552	15.473	0.109	-0.086
-353.537	127.467	0.128	0.163
-352.523	148.851	-0.085	-0.115
-351.508	-49.794	0.188	0.090
-350.493	-109.810	0.277	0.058
-349.479	-200.000	-0.027	0.205
-348.464	-200.000	0.017	0.090
-347.450	-50.378	0.308	0.146
-346.435	800.000	-0.015	0.047
-345.420	-200.000	0.018	-0.185
-344.406	133.013	-0.063	-0.081
-343.391	-112.052	0.165	-0.033
-342.377	145.188	0.062	-0.084
-341.362	56.965	-0.299	0.292
-340.348	92.538	-0.087	-0.098
-339.333	226.281	-0.284	-0.462
-338.318	-51.425	-0.153	0.072
-337.304	481.336	-0.060	-0.137
-336.289	-67.894	0.209	0.082
-335.275	176.131	-0.107	0.155
-334.260	-200.000	-0.007	-0.433
-333.245	-175.450	-0.205	-0.006
-332.231	103.719	-0.034	0.040
-331.216	555.943	-0.130	-0.313
-330.202	-43.033	0.167	-0.085
-329.187	-80.277	0.305	0.102
-328.172	30.898	-0.081	-0.069
-327.158	-60.653	0.200	0.085
-326.143	11.233	-0.090	-0.069
-325.129	-200.000	0.008	0.364
-324.114	237.191	-0.067	-0.112
-323.099	45.856	0.226	0.209
-322.085	-46.592	-0.357	0.175
-321.070	-20.755	0.052	0.032
-320.056	46.676	-0.176	0.163
-319.041	-85.231	0.261	-0.082
-318.026	96.835	0.119	-0.136
-317.012	800.000	-0.066	-0.206
-315.997	-200.000	-0.114	0.580
-314.983	-121.257	0.371	0.062
-313.968	124.153	0.302	-0.379
-312.953	249.012	0.110	-0.187
-311.939	709.949	0.085	0.225
-310.924	18.992	0.052	0.042
-309.910	-76.540	-0.374	-0.131
-308.895	700.347	-0.034	0.089
-307.880	-157.602	-0.184	-0.011
-306.866	-78.853	-0.132	-0.045
-305.851	-103.541	0.102	-0.024
-304.837	-80.450	0.204	0.068
-303.822	-27.385	0.332	0.193
-302.807	276.006	0.091	0.161
-301.793	54.687	0.108	0.104
-300.778	-152.738	-0.409	-0.029
-299.764	-45.199	-0.058	-0.029
-298.749	50.174	-0.264	0.249
-297.735	-200.000	-0.008	0.049
-296.720	116.020	-0.084	-0.103
-295.705	-87.905	-0.211	-0.063
-294.691	166.767	0.009	-0.013
-293.676	-102.871	-0.300	0.071
-292.662	-200.000	-0.007	-0.040
-291.647	64.856	0.102	0.103
-290.632	152.482	-0.125	0.170
-289.618	-38.886	-0.114	-0.060
-288.603	-200.000	-0.015	-0.243
-287.589	800.000	-0.029	-0.082
-286.574	62.796	0.156	0.155
-285.559	-1.448	0.387	-0.272
-284.545	232.779	-0.096	0.158
-283.530	-107.312	-0.130	0.028
-282.516	-200.000	-0.009	-0.364
-281.501	-59.433	0.307	-0.132
-280.486	-31.082	0.311	-0.175
-279.472	-159.039	-0.155	-0.009
-278.457	-200.000	-0.047	0.347
-277.443	-1.738	0.359	0.252
-276.428	232.346	0.085	0.139
-275.413	47.348	0.340	0.316
-274.399	-31.522	-0.141	-0.079
-273.384	45.737	0.074	-0.068
-272.370	181.716	-0.062	0.091
-271.355	-124.381	-0.107	0.017
-270.340	105.634	-0.032	0.037
-269.326	-200.000	0.014	-0.148
-268.311	-200.000	0.015	-0.388
-267.297	800.000	-0.071	0.259
-266.282	343.947	0.083	0.162
-265.267	21.297	0.149	-0.121
-264.253	0.680	-0.054	-0.039
-263.238	-200.000	-0.028	0.278
-262.224	194.770	-0.097	0.146
-261.209	-83.884	-0.138	0.044
-260.195	293.944	0.125	0.228
-259.180	-106.414	-0.144	0.032
-258.165	-100.049	0.202	0.050
-257.151	37.535	0.128	0.113
-256.136	-74.112	0.086	0.031
-255.122	48.790	0.070	0.065
-254.107	248.018	-0.092	-0.156
-253.092	-200.000	-0.016	-0.220
-252.078	-200.000	-0.022	0.147
-251.063	-32.865	-0.173	0.096
-250.049	57.936	-0.041	0.040
-249.034	78.082	0.104	0.111
-248.019	-41.117	0.226	-0.117
-247.005	142.674	0.037	-0.049
-245.990	800.000	-0.099	0.279
-244.976	524.566	0.081	0.190
-243.961	67.998	0.129	-0.132
-242.946	715.510	0.038	-0.099
-241.932	800.000	0.056	-0.240
-240.917	253.112	-0.169	-0.287
-239.903	-73.394	0.109	-0.040
-238.888	-16.822	0.204	-0.128
-237.873	-200.000	-0.036	0.289
-236.859	-114.835	0.354	0.067
-235.844	91.132	-0.243	-0.272
-234.830	-15.795	0.165	0.105
-233.815	-48.363	-0.227	-0.109
-232.800	-26.028	-0.158	0.092
-231.786	-170.267	0.189	-0.007
-230.771	-162.053	0.367	-0.018
-229.757	665.427	0.125	0.321
-228.742	-146.631	-0.221	0.019
-227.727	-194.469	-0.256	-0.002
-226.713	119.966	-0.094	-0.116
-225.698	267.998	0.102	0.178
-224.684	266.334	0.161	0.281
-223.669	-31.136	-0.228	-0.128
-222.655	-57.293	-0.224	0.098
-221.640	-29.544	-0.198	-0.113
-220.625	800.000	0.027	0.084
-219.611	-20.329	-0.048	-0.030
-218.596	44.324	-0.306	0.280
-217.582	-166.854	0.117	0.005
-216.567	-97.115	0.521	-0.136
-215.552	-134.410	0.241	0.029
-214.538	-200.000	0.001	0.025
-213.523	308.265	0.042	0.078
-212.509	229.332	-0.100	-0.162
-211.494	-26.456	0.183	-0.107
-210.479	-200.000	-0.014	0.139
-209.465	-105.933	0.147	-0.033
-208.450	16.458	-0.144	-0.113
-207.436	800.000	0.067	0.211
-206.421	191.803	0.149	-0.224
-205.406	491.332	0.054	-0.124
-204.392	71.550	-0.154	-0.159
-203.377	-169.500	-0.350	-0.013
-202.363	-200.000	-0.073	0.549
-201.348	49.953	-0.146	-0.137
-200.333	800.000	-0.019	0.069
-199.319	23.760	-0.209	-0.172
-198.304	-118.715	0.167	-0.029
-197.290	267.605	-0.266	0.463
-196.275	10.246	0.252	-0.191
-195.260	-65.047	0.334	0.134
-194.246	-85.902	0.169	-0.052
-193.231	-125.021	-0.216	0.033
-192.217	273.203	-0.089	0.157
-191.202	-200.000	-0.041	-0.257
-190.187	-154.924	-0.036	0.002
-189.173	57.542	0.074	0.072
-188.158	-86.065	-0.402	-0.123
-187.144	-9.802	0.394	0.261
-186.129	440.856	-0.038	0.082
-185.114	-169.296	0.226	-0.008
-184.100	96.799	-0.152	0.173
-183.085	-200.000	0.014	0.086
-182.071	781.926	-0.086	0.233
-181.056	800.000	-0.031	-0.130
-180.042	-102.992	-0.249	0.059
-179.027	-200.000	0.015	-0.092
-178.012	380.931	0.126	0.256
-176.998	-200.000	-0.071	0.468
-175.983	159.909	0.025	0.034
-174.969	147.978	0.191	0.255
-173.954	498.425	-0.038	-0.086
-172.939	800.000	-0.154	-0.621
-171.925	-29.106	-0.081	0.046
-170.910	85.144	0.069	0.075
-169.896	51.688	-0.261	-0.247
-168.881	309.846	-0.098	0.181
-167.866	-30.236	-0.203	0.115
-166.852	-200.000	0.003	-0.024
-165.837	-200.000	-0.086	0.402
-164.823	-60.190	0.080	-0.034
-163.808	200.960	0.041	-0.062
-162.793	124.978	0.114	-0.143
-161.779	-182.628	0.073	-0.001
-160.764	55.512	-0.322	-0.309
-159.750	417.990	-0.061	-0.129
-158.735	-138.304	0.465	0.051
-157.720	140.492	-0.165	0.217
-156.706	372.162	-0.162	0.327
-155.691	90.868	0.132	-0.147
-154.677	-27.181	0.168	-0.097
-153.662	-200.000	-0.029	-0.256
-152.647	-24.708	-0.175	-0.103
-151.633	578.005	-0.004	-0.009
-150.618	632.398	0.065	0.163
-149.604	774.263	-0.129	0.350
-148.589	800.000	-0.032	-0.133
-147.574	-10.325	-0.179	-0.118
-146.560	-44.771	-0.237	0.118
-145.545	-27.825	0.156	0.090
-144.531	-165.461	0.091	-0.004
-143.516	573.909	0.052	0.126
-142.502	569.798	-0.110	0.265
-141.487	-200.000	0.037	-0.387
-140.472	800.000	0.034	0.134
-139.458	6.324	-0.060	0.044
-138.443	-200.000	0.002	0.273
-137.429	-61.980	0.272	-0.113
-136.414	-200.000	-0.016	-0.161
-135.399	-200.000	0.020	-0.118
-134.385	-92.836	-0.162	-0.045
-133.370	-200.000	0.005	0.058
-132.356	114.813	0.160	0.194
-131.341	287.471	0.063	0.112
-130.326	-200.000	0.078	-0.352
-129.312	800.000	0.095	-0.279
-128.297	-148.973	0.206	0.017
-127.283	-54.445	-0.116	0.052
-126.268	-101.370	0.066	-0.016
-125.253	-19.535	0.122	0.075
-124.239	-89.939	0.218	-0.063
-123.224	143.539	-0.130	0.171
-122.210	-26.301	-0.134	0.078
