DTS Sentinel unit serial number:	SN413079Multiplexer serial number:	ORYXHardware model number:	OX4-SRSoftware version number:	ORYX F/W v4.00 Oryx Data Collector v3.7.2.0data status	okinstallation	princeton_trtdifferential loss correction	single-endedforward channel	channel 2reverse channel	N/Adate	2019/09/18time	10:07:35forward acquisition time	60.00reverse acquisition time	0.00gamma	496.2192k internal	0.2333k external	0.2333temperature offset calibration	0.9983default loss term (dB/km)	0.3790temperature slope calibration	1.0000multiplexer offset coefficient	1.0000multiplexer slope coefficient	1.0000fibre end	0.00T internal ref (°C)	27.66T ext. ref 1 (°C)	0.32T ext. ref 2 (°C)	24.16length (m)	temperature (°C)	Stokes	anti-Stokes-747.200	171.432	0.239	-0.344
-746.185	-121.807	0.305	-0.051
-745.171	283.910	0.039	0.070
-744.156	396.724	-0.085	0.178
-743.142	800.000	0.088	0.374
-742.127	-200.000	0.012	0.279
-741.112	-200.000	0.015	0.178
-740.098	141.771	0.214	0.285
-739.083	187.157	-0.067	-0.101
-738.069	-200.000	-0.025	0.358
-737.054	-200.000	-0.028	-0.185
-736.039	19.345	-0.247	-0.199
-735.025	-97.897	-0.048	-0.013
-734.010	46.076	-0.205	0.191
-732.996	-20.887	-0.296	-0.182
-731.981	-125.893	-0.513	-0.078
-730.966	-200.000	-0.042	-0.441
-729.952	800.000	-0.050	-0.190
-728.937	117.965	-0.091	0.113
-727.923	62.870	-0.172	-0.173
-726.908	-34.860	-0.167	0.092
-725.894	-200.000	0.009	-0.171
-724.879	-14.923	0.140	-0.090
-723.864	800.000	-0.016	0.049
-722.850	145.909	-0.172	-0.232
-721.835	-200.000	-0.024	0.211
-720.821	800.000	-0.056	-0.167
-719.806	69.965	-0.139	0.144
-718.791	110.947	0.152	-0.184
-717.777	-200.000	0.015	-0.116
-716.762	420.059	-0.138	-0.297
-715.748	12.103	0.082	0.063
-714.733	27.632	0.037	0.031
-713.718	-103.840	-0.279	0.066
-712.704	-118.278	-0.502	-0.090
-711.689	-109.345	-0.245	-0.052
-710.675	-51.936	-0.356	-0.166
-709.660	-122.771	0.160	-0.026
-708.645	-17.169	0.433	0.274
-707.631	337.590	-0.127	0.247
-706.616	-68.713	-0.221	0.086
-705.602	403.633	-0.126	0.267
-704.587	147.967	0.054	-0.072
-703.572	505.879	-0.120	-0.280
-702.558	-48.754	-0.117	-0.056
-701.543	-200.000	-0.033	-0.212
-700.529	-200.000	-0.014	0.121
-699.514	75.754	-0.310	0.329
-698.499	-28.525	-0.209	-0.121
-697.485	-89.330	-0.132	0.039
-696.470	450.679	-0.049	-0.110
-695.456	57.396	-0.237	0.233
-694.441	-200.000	-0.067	-0.504
-693.426	31.777	-0.282	-0.243
-692.412	-58.395	-0.251	0.110
-691.397	-122.944	0.285	0.046
-690.383	-48.870	-0.273	-0.131
-689.368	800.000	-0.087	-0.295
-688.354	-183.196	0.399	0.007
-687.339	151.994	0.170	0.233
-686.324	-77.077	-0.194	-0.068
-685.310	360.232	0.102	-0.206
-684.295	-86.242	0.216	0.067
-683.281	-67.122	-0.265	0.105
-682.266	800.000	0.025	0.104
-681.251	-194.365	0.492	0.004
-680.237	-21.398	-0.163	-0.100
-679.222	-200.000	0.016	-0.160
-678.208	4.613	-0.187	-0.138
-677.193	447.954	0.035	-0.078
-676.178	-123.606	-0.088	0.014
-675.164	-160.842	-0.179	0.009
-674.149	800.000	0.032	-0.125
-673.135	132.953	0.114	0.147
-672.120	75.249	-0.303	-0.320
-671.105	-87.878	0.129	-0.039
-670.091	242.808	0.058	-0.097
-669.076	-200.000	-0.044	-0.205
-668.062	674.884	-0.068	0.178
-667.047	265.699	-0.255	0.446
-666.032	259.455	-0.184	-0.318
-665.018	800.000	0.056	-0.165
-664.003	242.772	0.054	0.091
-662.989	50.624	-0.170	0.161
-661.974	260.431	0.164	0.284
-660.959	263.355	-0.047	0.083
-659.945	708.597	0.113	0.299
-658.930	-36.216	0.100	-0.054
-657.916	-36.738	-0.089	0.048
-656.901	50.374	-0.379	0.359
-655.886	685.366	0.131	0.343
-654.872	-200.000	-0.002	0.028
-653.857	-113.448	0.161	-0.032
-652.843	-111.640	-0.360	-0.073
-651.828	68.652	-0.372	-0.383
-650.814	-20.074	-0.044	-0.027
-649.799	216.427	-0.131	0.209
-648.784	800.000	-0.097	0.315
-647.770	-200.000	-0.053	0.265
-646.755	138.147	0.106	-0.139
-645.741	465.627	-0.211	-0.474
-644.726	-191.501	0.062	-0.001
-643.711	-200.000	0.034	0.229
-642.697	206.582	-0.096	0.150
-641.682	800.000	0.059	0.214
-640.668	149.475	-0.208	0.282
-639.653	275.089	-0.157	0.278
-638.638	-200.000	-0.025	0.135
-637.624	115.722	-0.116	-0.142
-636.609	-106.486	0.233	-0.052
-635.595	-80.996	0.248	-0.082
-634.580	-200.000	0.009	-0.311
-633.565	-123.010	-0.147	-0.024
-632.551	218.860	-0.143	-0.228
-631.536	764.889	0.068	-0.184
-630.522	-200.000	-0.005	0.154
-629.507	84.605	0.175	0.192
-628.492	141.033	-0.180	0.239
-627.478	-37.953	0.175	-0.093
-626.463	-66.009	-0.112	0.045
-625.449	-200.000	0.011	-0.344
-624.434	4.521	-0.339	-0.249
-623.419	126.774	0.247	-0.314
-622.405	-53.819	0.075	-0.034
-621.390	-78.600	0.272	-0.093
-620.376	-59.974	0.216	0.092
-619.361	1.920	0.258	-0.186
-618.346	-200.000	0.012	-0.285
-617.332	15.386	0.301	-0.236
-616.317	-162.661	-0.150	0.007
-615.303	-200.000	0.057	-0.396
-614.288	177.287	0.062	0.091
-613.273	36.267	0.192	0.169
-612.259	18.232	-0.216	-0.172
-611.244	394.358	0.180	-0.375
-610.230	-200.000	0.248	-0.001
-609.215	-70.407	0.006	0.002
-608.201	98.890	-0.141	0.163
-607.186	13.565	-0.167	-0.130
-606.171	-23.682	-0.354	-0.212
-605.157	445.863	0.086	-0.188
-604.142	22.892	-0.098	-0.080
-603.128	263.246	0.136	-0.236
-602.113	-127.991	0.317	0.046
-601.098	649.747	0.135	0.345
-600.084	800.000	-0.044	0.146
-599.069	63.817	0.122	0.123
-598.055	368.335	-0.124	-0.251
-597.040	24.128	-0.184	-0.152
-596.025	239.016	0.151	-0.251
-595.011	86.169	0.138	-0.152
-593.996	-74.019	0.264	-0.096
-592.982	44.467	-0.179	-0.165
-591.967	800.000	0.073	-0.253
-590.952	35.728	-0.237	-0.208
-589.938	800.000	-0.055	0.163
-588.923	-134.775	-0.101	-0.012
-587.909	-63.018	0.483	-0.199
-586.894	105.404	0.149	0.175
-585.879	104.049	-0.164	0.192
-584.865	-2.926	0.180	-0.126
-583.850	-200.000	0.051	-0.333
-582.836	1.436	-0.187	-0.134
-581.821	-200.000	0.030	-0.222
-580.806	12.266	0.227	-0.175
-579.792	-200.000	-0.009	-0.043
-578.777	-159.230	0.210	0.012
-577.763	-61.573	-0.135	0.057
-576.748	-51.578	-0.134	0.063
-575.733	-70.447	0.046	0.017
-574.719	-95.896	0.297	0.079
-573.704	450.101	-0.078	-0.173
-572.690	-200.000	0.031	0.338
-571.675	-165.278	0.131	0.006
-570.661	531.534	0.020	0.048
-569.646	109.682	-0.233	-0.279
-568.631	215.591	0.269	0.426
-567.617	79.268	-0.405	0.434
-566.602	-200.000	-0.055	-0.290
-565.588	-147.927	0.296	0.025
-564.573	-28.897	-0.186	0.107
-563.558	-125.981	0.078	-0.012
-562.544	124.721	-0.284	0.357
-561.529	-128.569	0.210	0.030
-560.515	-157.474	-0.236	-0.014
-559.500	548.091	0.048	0.115
-558.485	-200.000	-0.015	-0.123
-557.471	-200.000	0.019	0.133
-556.456	133.832	0.132	0.171
-555.442	-103.729	-0.345	-0.081
-554.427	800.000	-0.054	0.213
-553.412	38.164	-0.315	0.280
-552.398	800.000	0.044	0.173
-551.383	800.000	-0.099	-0.286
-550.369	797.367	-0.093	-0.256
-549.354	-72.390	0.190	0.070
-548.339	-128.625	0.290	-0.041
-547.325	-14.933	0.229	0.147
-546.310	800.000	-0.088	-0.339
-545.296	358.241	0.065	-0.129
-544.281	-200.000	0.011	0.295
-543.266	14.391	0.260	0.202
-542.252	-41.597	-0.370	-0.190
-541.237	800.000	0.042	0.184
-540.223	36.335	-0.044	0.039
-539.208	70.489	-0.038	0.039
-538.193	-163.872	0.158	0.007
-537.179	46.261	0.156	0.144
-536.164	-55.999	-0.285	-0.127
-535.150	62.112	0.041	0.041
-534.135	-58.722	0.136	-0.059
-533.121	117.529	-0.102	0.125
-532.106	-143.362	0.264	0.025
-531.091	-84.951	-0.203	-0.064
-530.077	-38.992	0.132	-0.069
-529.062	-60.875	-0.154	-0.065
-528.048	160.439	0.109	-0.152
-527.033	103.354	-0.134	0.157
-526.018	-200.000	-0.005	0.330
-525.004	585.139	-0.024	0.058
-523.989	228.452	0.131	-0.213
-522.975	-35.170	-0.166	0.090
-521.960	-108.508	-0.199	-0.043
-520.945	-34.156	0.027	-0.015
-519.931	-200.000	0.001	-0.185
-518.916	-4.205	-0.325	-0.225
-517.902	-82.194	-0.148	0.048
-516.887	-97.249	-0.198	0.051
-515.872	189.975	-0.222	-0.331
-514.858	-10.733	0.170	0.112
-513.843	112.309	0.149	-0.179
-512.829	-44.876	0.236	0.117
-511.814	-33.583	-0.119	-0.066
-510.799	-46.086	0.233	0.115
-509.785	-82.693	-0.121	0.039
-508.770	125.938	-0.040	0.050
-507.756	-21.661	-0.112	0.068
-506.741	-76.956	-0.147	0.051
-505.726	90.835	0.249	-0.278
-504.712	37.808	0.179	-0.159
-503.697	92.678	-0.121	0.136
-502.683	-29.582	-0.076	-0.043
-501.668	800.000	0.057	0.219
-500.653	786.553	-0.065	-0.179
-499.639	-1.736	0.245	0.172
-498.624	6.609	-0.370	-0.274
-497.610	-19.760	0.291	-0.179
-496.595	-183.064	0.195	-0.003
-495.581	-200.000	-0.013	0.216
-494.566	-66.896	-0.139	0.055
-493.551	800.000	-0.084	-0.339
-492.537	-200.000	0.042	0.312
-491.522	-10.400	0.176	0.116
-490.508	-84.446	-0.137	-0.043
-489.493	800.000	-0.068	0.258
-488.478	74.625	-0.275	-0.288
-487.464	77.580	-0.055	-0.058
-486.449	43.432	-0.370	0.337
-485.435	-89.233	0.254	-0.075
-484.420	749.606	-0.040	-0.109
-483.405	404.944	0.112	0.236
-482.391	10.580	0.038	-0.029
-481.376	-120.238	0.112	0.019
-480.362	-68.463	-0.114	-0.044
-479.347	-102.348	-0.225	-0.054
-478.332	55.784	0.187	0.180
-477.318	43.743	0.047	0.043
-476.303	-127.991	-0.108	0.015
-475.289	800.000	-0.072	0.217
-474.274	124.689	-0.146	0.183
-473.259	-50.975	-0.234	-0.109
-472.245	123.083	-0.073	-0.091
-471.230	5.537	-0.076	0.056
-470.216	209.310	0.047	0.073
-469.201	546.458	0.113	-0.270
-468.186	-49.028	-0.325	0.155
-467.172	-31.317	0.182	-0.102
-466.157	786.535	-0.134	-0.366
-465.143	679.926	-0.063	0.163
-464.128	118.751	0.046	-0.057
-463.113	-24.430	-0.237	-0.141
-462.099	-200.000	0.009	0.171
-461.084	-200.000	-0.026	-0.137
-460.070	-33.520	0.286	-0.157
-459.055	99.400	0.141	-0.162
-458.040	552.580	0.169	-0.404
-457.026	-126.542	-0.193	-0.029
-456.011	231.227	-0.079	0.128
-454.997	-41.020	0.154	0.079
-453.982	427.717	0.057	0.123
-452.968	182.252	-0.183	-0.268
-451.953	-105.618	-0.290	0.065
-450.938	-79.728	0.224	0.075
-449.924	106.966	-0.111	-0.130
-448.909	800.000	0.015	-0.058
-447.895	800.000	0.047	0.155
-446.880	-88.378	0.092	-0.027
-445.865	800.000	0.046	-0.165
-444.851	-138.305	0.098	0.011
-443.836	485.475	-0.070	-0.159
-442.822	-200.000	0.030	0.262
-441.807	668.659	0.143	-0.369
-440.792	800.000	0.117	-0.345
-439.778	-125.274	0.275	-0.042
-438.763	-53.984	0.110	0.050
-437.749	-106.259	-0.425	0.095
-436.734	53.567	-0.288	-0.275
-435.719	-168.685	0.194	-0.007
-434.705	106.947	-0.060	-0.070
-433.690	800.000	0.022	0.086
-432.676	56.996	-0.149	-0.144
-431.661	-56.447	0.311	-0.137
-430.646	-168.516	-0.080	-0.003
-429.632	140.988	0.232	0.305
-428.617	533.398	0.084	-0.198
-427.603	800.000	-0.054	0.227
-426.588	-200.000	0.025	0.119
-425.573	-64.964	-0.105	0.042
-424.559	-81.609	0.177	-0.058
-423.544	-17.424	-0.154	0.096
-422.530	306.555	0.141	0.261
-421.515	431.106	0.061	-0.131
-420.500	133.541	-0.107	-0.137
-419.486	800.000	0.093	-0.259
-418.471	-33.834	0.207	0.113
-417.457	-200.000	0.021	0.105
-416.442	6.194	0.322	0.237
-415.428	102.941	0.050	0.058
-414.413	2.680	0.029	0.021
-413.398	49.206	-0.156	-0.146
-412.384	-122.879	-0.127	0.020
-411.369	7.923	-0.059	-0.044
-410.355	-37.465	-0.305	0.162
-409.340	-200.000	0.048	0.456
-408.325	561.826	0.049	0.117
-407.311	336.206	0.123	-0.237
-406.296	-200.000	-0.039	0.206
-405.282	-129.966	-0.076	0.010
-404.267	-112.589	-0.201	0.040
-403.252	32.297	0.156	0.133
-402.238	-80.545	-0.091	-0.030
-401.223	-0.495	0.142	-0.100
-400.209	-21.104	0.161	0.097
-399.194	-56.621	0.138	0.061
-398.179	-164.520	-0.317	-0.014
-397.165	-135.068	0.378	0.045
-396.150	800.000	-0.099	0.308
-395.136	-32.738	0.003	-0.002
-394.121	-47.738	-0.103	-0.049
-393.106	-54.397	-0.235	-0.106
-392.092	-200.000	-0.033	0.269
-391.077	-104.269	0.200	0.046
-390.063	52.033	-0.179	-0.170
-389.048	765.346	0.094	0.254
-388.033	-166.071	-0.181	-0.008
-387.019	-200.000	-0.035	0.552
-386.004	-72.079	-0.150	-0.055
-384.990	-81.501	0.330	-0.108
-383.975	96.555	-0.082	0.093
-382.960	681.803	0.063	-0.163
-381.946	-200.000	-0.119	-0.531
-380.931	-19.713	-0.031	-0.019
-379.917	-146.880	0.180	0.015
-378.902	-158.924	-0.197	0.011
-377.888	800.000	0.097	0.307
-376.873	10.075	-0.194	-0.146
-375.858	-166.270	0.172	-0.007
-374.844	800.000	0.047	0.165
-373.829	-151.437	0.384	-0.028
-372.815	800.000	-0.120	0.499
-371.800	157.445	0.133	0.182
-370.785	-200.000	-0.008	0.088
-369.771	267.278	-0.140	0.243
-368.756	243.630	-0.118	-0.196
-367.742	-50.621	-0.207	-0.097
-366.727	33.833	0.015	-0.013
-365.712	800.000	-0.091	0.249
-364.698	-119.791	-0.249	0.043
-363.683	-200.000	0.078	-0.515
-362.669	193.724	0.040	0.059
-361.654	800.000	0.054	-0.158
-360.639	800.000	-0.112	0.319
-359.625	-89.955	-0.348	0.101
-358.610	-10.142	-0.295	-0.194
-357.596	-200.000	-0.022	-0.119
-356.581	-200.000	0.048	0.248
-355.566	-200.000	0.006	-0.226
-354.552	-200.000	0.003	-0.224
-353.537	-200.000	-0.040	-0.413
-352.523	-200.000	0.044	-0.229
-351.508	11.574	0.292	0.222
-350.493	-72.056	-0.326	-0.120
-349.479	-22.416	-0.334	0.200
-348.464	186.776	-0.064	-0.095
-347.450	367.638	0.017	-0.034
-346.435	800.000	0.028	-0.096
-345.420	800.000	-0.120	0.396
-344.406	-71.936	-0.046	0.017
-343.391	-200.000	0.013	0.117
-342.377	-200.000	-0.000	0.102
-341.362	-5.341	0.250	0.170
-340.348	-135.259	-0.360	-0.043
-339.333	-63.582	-0.124	0.051
-338.318	-114.708	0.103	-0.019
-337.304	-200.000	-0.027	0.139
-336.289	-125.137	0.115	-0.017
-335.275	76.988	-0.146	-0.153
-334.260	-84.608	-0.142	0.044
-333.245	447.854	0.163	0.355
-332.231	231.822	0.130	0.211
-331.216	-113.152	0.196	0.038
-330.202	-83.494	-0.191	-0.061
-329.187	-126.183	-0.196	-0.029
-328.172	78.778	0.108	0.115
-327.158	800.000	-0.041	0.124
-326.143	233.157	0.099	0.161
-325.129	-188.115	-0.321	-0.004
-324.114	-90.065	0.297	0.086
-323.099	-113.469	-0.264	0.051
-322.085	-200.000	-0.027	-0.390
-321.070	800.000	0.043	-0.179
-320.056	-34.831	-0.206	-0.111
-319.041	8.069	-0.036	0.026
-318.026	-25.465	0.061	-0.035
-317.012	-45.841	-0.314	-0.153
-315.997	412.537	0.050	0.105
-314.983	19.790	0.159	-0.127
-313.968	121.900	0.081	-0.100
-312.953	-88.062	-0.189	-0.056
-311.939	228.157	-0.106	0.170
-310.924	-47.428	-0.179	-0.086
-309.910	94.394	0.181	-0.203
-308.895	-118.032	0.149	0.026
-307.880	-200.000	0.040	-0.177
-306.866	-200.000	-0.002	0.136
-305.851	-200.000	0.010	0.131
-304.837	-145.632	-0.271	0.024
-303.822	95.441	-0.246	-0.277
-302.807	311.454	0.044	-0.082
-301.793	-96.160	0.530	-0.139
-300.778	-57.754	-0.103	0.045
-299.764	-59.466	-0.088	0.037
-298.749	232.522	0.122	0.198
-297.735	171.336	0.038	-0.054
-296.720	361.790	0.097	-0.193
-295.705	118.529	-0.238	-0.290
-294.691	-58.959	-0.120	0.051
-293.676	-60.100	0.098	-0.041
-292.662	-9.673	0.182	0.120
-291.647	-117.328	0.306	-0.055
-290.632	800.000	0.003	-0.009
-289.618	90.396	0.172	0.191
-288.603	-200.000	-0.069	-0.342
-287.589	-95.467	0.109	-0.029
-286.574	-105.368	0.415	-0.093
-285.559	51.400	-0.184	0.173
-284.545	7.125	-0.154	-0.114
-283.530	-11.013	0.209	-0.136
-282.516	800.000	-0.025	-0.068
-281.501	800.000	0.086	-0.294
-280.486	-200.000	-0.029	0.183
-279.472	-200.000	-0.062	0.520
-278.457	800.000	-0.044	0.191
-277.443	-150.850	-0.153	-0.011
-276.428	800.000	0.070	-0.241
-275.413	-12.057	0.183	0.119
-274.399	800.000	0.082	-0.274
-273.384	90.792	0.224	0.248
-272.370	-130.678	0.059	0.008
-271.355	-93.581	0.326	-0.089
-270.340	441.496	-0.069	-0.150
-269.326	333.009	-0.223	-0.426
-268.311	-31.775	-0.134	-0.074
-267.297	337.603	0.132	0.252
-266.282	7.306	-0.181	-0.133
-265.267	-200.000	0.012	-0.151
-264.253	-200.000	0.060	0.366
-263.238	-156.858	0.176	0.011
-262.224	-200.000	0.028	0.245
-261.209	-200.000	-0.017	0.268
-260.195	-200.000	0.008	-0.186
-259.180	663.271	-0.111	0.282
-258.165	-94.076	0.220	-0.059
-257.151	200.867	0.248	-0.377
-256.136	370.450	-0.243	0.485
-255.122	-121.309	0.362	-0.060
-254.107	-97.792	-0.224	0.057
-253.092	-8.608	0.045	-0.030
-252.078	-81.079	0.251	-0.082
-251.063	-158.714	0.373	-0.021
-250.049	800.000	-0.081	-0.324
-249.034	-159.377	-0.124	-0.007
-248.019	34.354	-0.299	-0.257
-247.005	-140.143	0.127	0.013
-245.990	-134.986	0.113	0.013
-244.976	67.227	0.210	-0.211
-243.961	-57.956	0.267	-0.115
-242.946	316.367	0.150	-0.279
-241.932	37.334	0.133	-0.116
-240.917	-10.830	-0.095	0.062
-239.903	800.000	0.059	-0.237
-238.888	74.520	0.207	-0.214
-237.873	23.330	0.124	-0.100
-236.859	-88.830	-0.210	-0.061
-235.844	185.542	0.234	-0.343
-234.830	-114.209	0.246	0.047
-233.815	-200.000	0.004	-0.030
-232.800	-131.860	-0.360	0.046
-231.786	-200.000	0.022	0.112
-230.771	800.000	0.027	-0.086
-229.757	-143.673	-0.202	0.019
-228.742	800.000	0.045	-0.181
-227.727	160.285	-0.226	0.310
-226.713	-160.089	-0.258	-0.014
-225.698	31.497	0.100	0.085
-224.684	-200.000	-0.020	0.154
-223.669	-116.120	-0.132	-0.024
-222.655	-200.000	-0.007	-0.299
-221.640	49.352	0.259	0.240
-220.625	-200.000	0.021	0.115
-219.611	101.237	0.268	0.307
-218.596	800.000	-0.093	0.276
-217.582	455.655	0.126	0.276
-216.567	-95.057	0.137	-0.037
-215.552	64.754	0.146	0.145
-214.538	-200.000	-0.063	-0.284
-213.523	164.124	0.220	-0.305
-212.509	184.225	-0.314	0.457
-211.494	800.000	0.024	0.067
-210.479	-200.000	0.016	-0.155
-209.465	440.353	-0.078	0.168
-208.450	6.738	0.348	0.255
-207.436	742.798	-0.065	0.172
-206.421	-183.231	-0.161	0.003
-205.406	-97.504	-0.560	0.143
-204.392	139.383	0.077	-0.099
-203.377	-45.073	0.062	0.030
-202.363	571.578	0.102	-0.244
-201.348	196.037	0.048	-0.072
-200.333	141.726	-0.206	-0.269
-199.319	-141.938	-0.205	-0.020
-198.304	-200.000	-0.030	0.183
-197.290	-105.191	-0.199	-0.045
-196.275	15.135	0.244	0.188
-195.260	-110.221	0.314	0.064
-194.246	-39.942	0.242	0.124
-193.231	-200.000	0.007	0.120
-192.217	-143.072	0.202	-0.019
-191.202	-1.713	-0.180	-0.125
-190.187	-200.000	-0.025	0.501
-189.173	45.255	-0.073	0.066
-188.158	-28.793	0.063	-0.036
-187.144	121.568	-0.140	-0.172
-186.129	-80.928	-0.112	0.037
-185.114	-21.144	-0.215	-0.129
-184.100	-43.677	-0.241	-0.119
-183.085	574.525	0.108	0.258
-182.071	125.549	0.099	-0.123
-181.056	516.239	-0.156	0.358
-180.042	710.903	0.075	-0.195
-179.027	-67.517	-0.148	0.057
-178.012	-103.052	-0.311	-0.072
-176.998	138.191	0.008	0.010
-175.983	285.365	0.056	-0.100
-174.969	800.000	-0.056	0.230
-173.954	-200.000	-0.013	-0.058
-172.939	-148.216	0.387	0.031
-171.925	-142.457	-0.398	-0.038
-170.910	-200.000	-0.049	0.235
-169.896	-200.000	-0.071	0.406
-168.881	54.897	0.053	0.050
-167.866	-200.000	0.043	-0.271
-166.852	-4.071	0.228	0.155
-165.837	-200.000	0.006	0.179
-164.823	728.339	0.071	-0.185
-163.808	-135.526	-0.100	-0.012
-162.793	214.447	-0.129	0.201
-161.779	163.246	-0.072	0.099
-160.764	-62.252	0.160	0.066
-159.750	783.978	-0.067	-0.181
-158.735	-24.664	-0.031	0.018
-157.720	-63.957	0.166	0.067
-156.706	800.000	0.063	0.191
-155.691	52.120	0.183	0.172
-154.677	-0.609	-0.308	0.214
-153.662	-54.542	-0.145	0.065
-152.647	180.212	-0.148	-0.213
-151.633	-200.000	0.023	0.211
-150.618	-200.000	0.043	0.227
-149.604	800.000	0.118	0.341
-148.589	-100.039	0.329	-0.080
-147.574	47.050	-0.011	-0.010
-146.560	-54.431	-0.206	-0.092
-145.545	800.000	0.017	-0.064
-144.531	-200.000	-0.030	0.165
-143.516	-66.080	-0.172	-0.068
-142.502	-200.000	0.014	0.063
-141.487	-145.164	0.220	-0.020
-140.472	-87.997	-0.179	0.053
-139.458	-200.000	-0.000	-0.243
-138.443	10.430	-0.036	-0.027
-137.429	745.978	0.098	0.259
-136.414	-171.771	-0.519	0.017
-135.399	478.137	0.059	-0.131
-134.385	152.326	0.020	0.027
-133.370	-200.000	0.055	0.347
-132.356	-126.449	-0.136	-0.020
-131.341	-200.000	0.001	0.121
-130.326	-58.206	0.212	0.090
-129.312	-175.116	0.508	-0.014
-128.297	-59.281	0.494	-0.209
-127.283	-11.141	-0.081	-0.052
-126.268	-200.000	0.069	0.300
-125.253	264.067	0.056	0.095
-124.239	219.829	0.100	-0.157
-123.224	-119.681	0.281	0.048
-122.210	425.035	0.036	-0.075
-121.195	-77.996	-0.139	0.047
