DTS Sentinel unit serial number:	SN413079Multiplexer serial number:	ORYXHardware model number:	OX4-SRSoftware version number:	ORYX F/W v4.00 Oryx Data Collector v3.7.2.0data status	okinstallation	princeton_trtdifferential loss correction	single-endedforward channel	channel 2reverse channel	N/Adate	2019/09/17time	13:31:35forward acquisition time	60.00reverse acquisition time	0.00gamma	496.2192k internal	0.2317k external	0.2317temperature offset calibration	0.9986default loss term (dB/km)	0.3790temperature slope calibration	1.0000multiplexer offset coefficient	1.0000multiplexer slope coefficient	1.0000fibre end	0.00T internal ref (°C)	34.59T ext. ref 1 (°C)	0.41T ext. ref 2 (°C)	31.64length (m)	temperature (°C)	Stokes	anti-Stokes-747.200	800.000	0.011	-0.039
-746.185	350.965	-0.240	0.481
-745.171	65.770	0.206	0.211
-744.156	-200.000	-0.075	0.338
-743.142	-41.298	0.260	0.136
-742.127	-84.191	-0.103	-0.033
-741.112	-85.425	-0.083	0.026
-740.098	-66.356	-0.186	0.075
-739.083	-43.169	0.416	0.213
-738.069	-55.472	-0.178	0.081
-737.054	-60.781	-0.086	-0.037
-736.039	800.000	0.037	0.129
-735.025	439.750	0.165	0.364
-734.010	-28.246	-0.316	-0.185
-732.996	-25.891	0.290	-0.173
-731.981	-54.067	-0.312	-0.144
-730.966	-92.127	-0.199	-0.057
-729.952	418.723	0.031	-0.068
-728.937	800.000	0.076	-0.252
-727.923	5.772	-0.195	0.146
-726.908	59.705	0.131	-0.131
-725.894	-200.000	0.003	-0.372
-724.879	239.100	-0.085	-0.143
-723.864	104.715	-0.182	-0.218
-722.850	105.829	-0.200	0.240
-721.835	-69.147	-0.180	-0.070
-720.821	-4.787	-0.176	-0.123
-719.806	19.710	-0.060	-0.049
-718.791	-19.736	0.217	0.136
-717.777	-200.000	-0.025	0.140
-716.762	800.000	0.073	0.271
-715.748	286.547	0.168	-0.306
-714.733	-200.000	0.003	-0.151
-713.718	-200.000	0.024	-0.175
-712.704	-112.071	-0.191	-0.039
-711.689	74.904	-0.186	-0.198
-710.675	672.786	0.102	-0.268
-709.660	-67.834	-0.078	-0.031
-708.645	686.444	-0.151	-0.399
-707.631	-126.388	-0.339	0.051
-706.616	324.405	0.139	0.268
-705.602	64.783	-0.231	-0.236
-704.587	-50.828	0.298	-0.142
-703.572	-49.242	-0.247	0.119
-702.558	-10.791	0.150	-0.100
-701.543	-38.132	0.114	0.061
-700.529	700.142	-0.120	0.319
-699.514	143.614	0.165	0.222
-698.499	-200.000	0.016	0.168
-697.485	-200.000	-0.029	0.349
-696.470	800.000	-0.078	0.220
-695.456	-5.978	-0.366	0.253
-694.441	17.540	-0.320	0.257
-693.426	-200.000	-0.102	0.492
-692.412	-145.607	0.227	-0.021
-691.397	-13.064	-0.203	-0.133
-690.383	328.097	0.062	-0.120
-689.368	-120.270	-0.258	0.044
-688.354	-117.669	-0.200	0.036
-687.339	-21.924	-0.139	0.086
-686.324	-200.000	-0.014	-0.281
-685.310	-54.824	-0.307	-0.140
-684.295	97.138	-0.233	0.271
-683.281	-78.546	0.126	0.044
-682.266	361.109	-0.178	-0.361
-681.251	-118.363	-0.177	0.032
-680.237	3.469	-0.040	0.029
-679.222	-27.821	-0.177	0.104
-678.208	1.570	-0.129	-0.094
-677.193	800.000	-0.038	-0.132
-676.178	-57.290	0.230	-0.102
-675.164	-31.444	-0.253	-0.144
-674.149	215.554	0.174	-0.279
-673.135	-135.271	0.122	-0.015
-672.120	800.000	-0.010	0.037
-671.105	-20.427	0.162	-0.101
-670.091	-101.783	-0.343	-0.084
-669.076	178.744	-0.091	0.134
-668.062	145.756	-0.167	-0.226
-667.047	-82.272	0.097	-0.032
-666.032	611.196	-0.060	-0.152
-665.018	-106.093	0.386	0.088
-664.003	41.964	-0.234	0.215
-662.989	-200.000	-0.016	0.174
-661.974	800.000	-0.065	0.189
-660.959	-3.008	0.150	0.106
-659.945	800.000	0.053	-0.205
-658.930	-79.736	-0.108	-0.037
-657.916	368.620	-0.106	-0.216
-656.901	109.928	-0.060	0.072
-655.886	51.916	0.065	-0.063
-654.872	59.622	-0.133	0.132
-653.857	107.856	-0.179	0.215
-652.843	253.968	-0.280	0.483
-651.828	-7.027	0.202	0.139
-650.814	0.545	0.100	-0.072
-649.799	-106.864	0.455	-0.102
-648.784	448.330	-0.072	0.160
-647.770	161.466	0.125	0.177
-646.755	511.988	-0.080	-0.188
-645.741	208.906	0.133	-0.210
-644.726	26.522	-0.150	-0.126
-643.711	800.000	-0.175	-0.525
-642.697	156.920	-0.101	0.141
-641.682	222.599	0.113	0.184
-640.668	104.491	-0.061	-0.072
-639.653	-59.984	-0.464	-0.200
-638.638	30.621	-0.191	-0.164
-637.624	507.379	-0.076	0.178
-636.609	69.813	-0.179	0.186
-635.595	-71.776	-0.069	-0.026
-634.580	26.604	0.177	-0.149
-633.565	-200.000	-0.028	-0.171
-632.551	-56.949	0.158	0.070
-631.536	800.000	0.011	-0.039
-630.522	-200.000	0.043	0.206
-629.507	-71.645	-0.138	0.052
-628.492	-17.008	0.129	0.082
-627.478	-200.000	-0.036	0.323
-626.463	313.525	-0.075	0.143
-625.449	142.140	0.148	-0.198
-624.434	-200.000	0.033	-0.211
-623.419	-6.502	-0.134	0.092
-622.405	359.556	-0.039	0.079
-621.390	-200.000	0.072	0.343
-620.376	-200.000	0.003	-0.192
-619.361	-8.426	0.262	0.177
-618.346	-5.047	-0.098	-0.068
-617.332	51.439	-0.224	-0.214
-616.317	800.000	0.135	0.379
-615.303	800.000	-0.056	0.223
-614.288	-17.481	0.297	0.188
-613.273	800.000	-0.047	-0.144
-612.259	93.956	0.030	-0.035
-611.244	105.601	0.112	0.133
-610.230	141.499	-0.089	0.118
-609.215	-78.851	-0.169	0.058
-608.201	321.034	-0.092	0.176
-607.186	-85.059	-0.098	-0.031
-606.171	-200.000	-0.026	-0.220
-605.157	3.107	-0.211	0.155
-604.142	-75.297	0.116	-0.042
-603.128	-200.000	0.042	0.348
-602.113	-71.785	-0.196	-0.074
-601.098	-57.556	-0.220	0.097
-600.084	369.145	-0.221	0.450
-599.069	-37.861	-0.111	-0.059
-598.055	800.000	-0.059	0.225
-597.040	8.229	0.017	0.013
-596.025	624.156	-0.121	0.308
-595.011	-116.771	0.149	-0.028
-593.996	29.459	0.330	0.283
-592.982	58.486	-0.095	0.094
-591.967	-31.556	-0.123	0.069
-590.952	800.000	-0.043	0.186
-589.938	103.373	-0.277	-0.327
-588.923	800.000	-0.063	0.278
-587.909	-101.207	-0.248	-0.061
-586.894	-200.000	0.072	-0.356
-585.879	116.806	-0.188	0.232
-584.865	-158.995	0.033	-0.002
-583.850	30.134	-0.041	0.035
-582.836	-200.000	-0.033	-0.164
-581.821	-200.000	0.054	0.259
-580.806	800.000	0.046	0.135
-579.792	-97.351	-0.383	-0.100
-578.777	-200.000	0.030	-0.289
-577.763	-200.000	-0.001	-0.332
-576.748	-170.628	0.227	0.008
-575.733	81.726	-0.073	0.080
-574.719	-148.955	-0.207	0.017
-573.704	153.586	-0.090	0.124
-572.690	-135.802	-0.100	0.012
-571.675	-30.728	-0.229	0.130
-570.661	-200.000	0.010	-0.130
-569.646	192.925	0.039	0.059
-568.631	-113.371	-0.161	-0.032
-567.617	38.335	-0.120	-0.108
-566.602	-94.187	0.193	0.053
-565.588	-200.000	0.098	0.509
-564.573	-148.689	-0.054	-0.004
-563.558	-71.638	-0.246	0.093
-562.544	-125.121	-0.312	0.048
-561.529	-53.187	0.263	0.121
-560.515	688.079	-0.033	0.086
-559.500	-200.000	-0.006	-0.143
-558.485	-142.912	0.387	-0.038
-557.471	132.624	0.068	0.088
-556.456	278.465	0.209	0.374
-555.442	800.000	0.109	-0.347
-554.427	-50.731	-0.066	-0.031
-553.412	-200.000	-0.071	-0.329
-552.398	401.694	0.040	0.084
-551.383	614.603	-0.064	0.161
-550.369	-200.000	0.056	-0.262
-549.354	148.606	-0.164	-0.223
-548.339	400.447	-0.006	-0.013
-547.325	-200.000	0.000	0.150
-546.310	-4.386	-0.113	-0.079
-545.296	43.488	0.251	0.231
-544.281	-22.695	-0.261	-0.159
-543.266	-65.194	-0.208	-0.084
-542.252	-139.973	0.216	0.023
-541.237	318.238	0.041	0.078
-540.223	-24.996	0.247	-0.147
-539.208	-118.348	0.212	-0.038
-538.193	341.170	-0.090	-0.176
-537.179	172.050	0.225	-0.325
-536.164	-200.000	-0.011	-0.223
-535.150	463.087	-0.092	0.206
-534.135	-85.330	-0.134	0.042
-533.121	-40.404	0.127	-0.066
-532.106	-69.454	0.339	-0.131
-531.091	-30.684	-0.042	-0.024
-530.077	-68.058	-0.064	0.025
-529.062	-22.971	-0.153	-0.092
-528.048	-37.927	0.317	0.169
-527.033	166.917	-0.105	-0.149
-526.018	800.000	0.015	-0.057
-525.004	-128.477	-0.090	0.013
-523.989	-107.457	0.090	0.020
-522.975	-59.953	0.011	0.005
-521.960	-136.870	0.255	-0.029
-520.945	800.000	-0.025	-0.076
-519.931	678.406	0.066	-0.172
-518.916	-98.815	0.222	0.057
-517.902	-28.445	-0.158	-0.091
-516.887	-200.000	0.023	-0.202
-515.872	800.000	0.027	0.118
-514.858	-120.283	-0.245	-0.042
-513.843	-200.000	0.039	-0.199
-512.829	56.051	0.165	-0.161
-511.814	43.234	-0.182	0.167
-510.799	79.861	-0.074	0.080
-509.785	-200.000	-0.011	0.250
-508.770	-0.471	0.224	-0.160
-507.756	-49.197	-0.239	-0.115
-506.741	-85.919	0.172	0.054
-505.726	105.817	0.062	0.073
-504.712	639.868	0.147	0.375
-503.697	501.904	-0.105	-0.244
-502.683	23.596	0.222	-0.183
-501.668	-67.537	0.040	0.016
-500.653	-200.000	0.102	-0.479
-499.639	-38.563	-0.279	-0.148
-498.624	90.185	-0.113	-0.127
-497.610	156.552	-0.108	-0.149
-496.595	-143.451	-0.306	0.029
-495.581	-51.212	-0.016	0.007
-494.566	-47.972	-0.074	-0.036
-493.551	-135.495	-0.209	-0.025
-492.537	90.674	0.184	-0.207
-491.522	800.000	0.076	0.248
-490.508	-50.218	0.056	-0.027
-489.493	68.412	-0.083	-0.085
-488.478	127.420	-0.074	0.095
-487.464	-55.066	0.180	-0.081
-486.449	-139.581	0.214	-0.023
-485.435	761.968	0.085	-0.230
-484.420	51.193	0.069	0.066
-483.405	16.989	0.028	-0.022
-482.391	-53.291	-0.084	0.039
-481.376	-57.456	0.128	-0.056
-480.362	-110.909	0.285	0.059
-479.347	115.134	-0.168	0.206
-478.332	-146.184	0.230	-0.020
-477.318	-200.000	-0.020	0.144
-476.303	-134.973	0.148	0.018
-475.289	-86.707	-0.142	-0.043
-474.274	-22.537	0.258	0.157
-473.259	-142.923	-0.106	-0.010
-472.245	-200.000	0.002	-0.134
-471.230	-114.287	-0.122	0.024
-470.216	-12.342	-0.118	-0.078
-469.201	53.380	0.316	-0.303
-468.186	49.286	0.196	0.185
-467.172	-200.000	0.052	0.270
-466.157	3.701	0.317	-0.232
-465.143	-200.000	-0.044	-0.282
-464.128	184.373	-0.178	-0.265
-463.113	-89.575	0.196	0.058
-462.099	415.288	-0.039	0.083
-461.084	-77.022	-0.369	0.129
-460.070	300.709	-0.109	0.202
-459.055	601.528	0.041	0.103
-458.040	800.000	0.012	0.050
-457.026	800.000	0.079	-0.223
-456.011	9.684	0.170	0.129
-454.997	800.000	-0.040	-0.142
-453.982	-142.813	-0.154	-0.015
-452.968	-14.648	0.197	0.127
-451.953	73.664	-0.275	-0.288
-450.938	-53.852	0.224	-0.102
-449.924	-200.000	0.003	0.038
-448.909	800.000	-0.071	0.300
-447.895	0.616	-0.296	0.212
-446.880	531.889	-0.065	0.153
-445.865	241.228	0.080	-0.134
-444.851	-84.928	0.166	0.052
-443.836	-37.869	-0.256	-0.136
-442.822	593.532	0.090	-0.224
-441.807	-92.835	0.202	0.056
-440.792	124.372	0.040	0.051
-439.778	-4.635	-0.281	0.194
-438.763	213.883	0.109	-0.172
-437.749	-75.470	0.326	-0.116
-436.734	-20.013	-0.255	-0.158
-435.719	383.927	0.145	0.300
-434.705	-200.000	0.023	0.220
-433.690	265.758	0.098	-0.170
-432.676	48.228	0.068	-0.063
-431.661	-101.317	-0.211	0.052
-430.646	12.350	0.125	0.096
-429.632	-50.618	-0.141	0.067
-428.617	-200.000	0.017	-0.146
-427.603	-157.380	0.427	0.026
-426.588	31.116	-0.176	-0.151
-425.573	-200.000	0.042	-0.232
-424.559	-151.318	0.385	-0.029
-423.544	274.860	0.254	0.449
-422.530	-28.517	-0.065	0.037
-421.515	-200.000	-0.005	-0.123
-420.500	-40.231	0.233	-0.121
-419.486	-35.994	0.138	-0.075
-418.471	233.775	-0.040	0.065
-417.457	-184.982	-0.335	0.005
-416.442	-100.740	-0.130	-0.032
-415.428	209.595	0.180	0.283
-414.413	-200.000	0.040	-0.264
-413.398	-200.000	-0.025	0.168
-412.384	102.225	0.135	0.157
-411.369	-36.676	0.339	0.182
-410.355	-200.000	0.018	0.150
-409.340	-199.990	0.281	-0.001
-408.325	495.480	-0.086	-0.197
-407.311	380.261	0.084	-0.172
-406.296	226.457	-0.227	0.368
-405.282	-9.349	-0.233	-0.155
-404.267	234.038	-0.048	-0.078
-403.252	-9.248	-0.112	-0.075
-402.238	-85.257	0.261	0.081
-401.223	-113.950	0.333	0.065
-400.209	-10.026	-0.430	0.286
-399.194	-37.539	-0.149	-0.080
-398.179	800.000	-0.107	-0.298
-397.165	616.219	-0.084	-0.210
-396.150	800.000	-0.062	-0.224
-395.136	-128.218	0.045	-0.006
-394.121	-150.927	-0.259	-0.020
-393.106	27.371	-0.155	-0.130
-392.092	53.485	-0.162	0.155
-391.077	87.630	0.189	0.209
-390.063	-105.338	-0.064	-0.014
-389.048	-68.583	-0.160	0.062
-388.033	800.000	-0.021	-0.064
-387.019	136.729	0.339	-0.442
-386.004	-72.561	0.185	-0.068
-384.990	-200.000	-0.019	-0.358
-383.975	-7.532	-0.103	-0.070
-382.960	-111.648	-0.141	0.029
-381.946	85.108	-0.049	-0.054
-380.931	256.582	0.144	-0.246
-379.917	74.398	0.225	0.236
-378.902	55.490	0.118	0.114
-377.888	-91.850	-0.332	-0.094
-376.873	-62.426	-0.078	-0.032
-375.858	66.660	0.245	0.249
-374.844	104.385	-0.103	0.121
-373.829	-200.000	0.066	0.376
-372.815	305.215	-0.146	0.270
-371.800	85.094	-0.238	-0.260
-370.785	-200.000	-0.036	0.204
-369.771	-200.000	0.024	-0.271
-368.756	308.034	0.154	-0.286
-367.742	-127.537	0.152	0.022
-366.727	425.586	-0.097	-0.209
-365.712	-72.696	-0.241	-0.089
-364.698	-200.000	-0.015	-0.068
-363.683	22.938	0.089	0.073
-362.669	200.286	-0.029	-0.044
-361.654	-86.967	-0.229	0.070
-360.639	-145.488	-0.162	0.014
-359.625	-181.062	-0.064	-0.001
-358.610	-86.579	0.254	0.078
-357.596	18.164	-0.242	-0.192
-356.581	800.000	0.064	-0.191
-355.566	130.382	-0.154	0.197
-354.552	-131.977	0.109	0.014
-353.537	38.979	0.138	-0.123
-352.523	-70.259	-0.091	-0.034
-351.508	341.203	-0.083	0.162
-350.493	332.082	0.065	0.125
-349.479	75.016	-0.133	0.139
-348.464	-82.125	-0.126	-0.041
-347.450	117.812	-0.096	0.118
-346.435	22.442	0.237	-0.193
-345.420	800.000	-0.030	0.085
-344.406	62.757	0.037	0.037
-343.391	-25.493	0.067	0.039
-342.377	-200.000	-0.008	-0.398
-341.362	-188.485	0.162	-0.002
-340.348	-200.000	0.041	0.217
-339.333	183.280	0.142	-0.209
-338.318	-90.680	0.111	-0.032
-337.304	-153.506	0.143	0.010
-336.289	800.000	-0.075	-0.257
-335.275	91.903	-0.153	0.171
-334.260	306.684	-0.128	-0.238
-333.245	258.972	-0.089	-0.153
-332.231	-86.332	-0.202	-0.062
-331.216	800.000	-0.024	-0.089
-330.202	42.478	-0.186	-0.168
-329.187	-126.506	-0.080	0.012
-328.172	-33.695	-0.091	-0.050
-327.158	181.134	-0.083	0.121
-326.143	-54.985	-0.360	0.162
-325.129	164.243	0.062	0.087
-324.114	-200.000	-0.006	-0.084
-323.099	69.419	-0.260	-0.267
-322.085	-200.000	0.043	-0.189
-321.070	35.150	-0.094	-0.082
-320.056	-5.888	-0.240	-0.164
-319.041	-200.000	0.011	0.176
-318.026	-200.000	0.071	-0.337
-317.012	-33.969	-0.146	0.080
-315.997	-139.557	0.248	-0.026
-314.983	308.430	0.093	-0.172
-313.968	-17.056	-0.033	0.021
-312.953	145.767	-0.177	0.236
-311.939	800.000	0.015	-0.048
-310.924	800.000	0.114	0.322
-309.910	-144.560	-0.219	0.020
-308.895	-200.000	0.017	0.081
-307.880	-166.249	0.442	-0.019
-306.866	-200.000	0.000	0.009
-305.851	-14.335	0.126	0.081
-304.837	-200.000	0.000	-0.086
-303.822	-200.000	-0.042	0.262
-302.807	237.257	0.152	0.250
-301.793	-30.280	0.115	-0.065
-300.778	-68.922	0.183	-0.070
-299.764	-105.479	-0.042	0.010
-298.749	-66.270	0.252	-0.100
-297.735	474.909	0.033	0.073
-296.720	178.203	-0.104	-0.152
-295.705	-116.004	-0.260	0.048
-294.691	209.290	0.135	0.211
-293.676	37.603	0.123	-0.109
-292.662	65.570	-0.229	-0.231
-291.647	800.000	-0.042	-0.124
-290.632	-18.375	0.073	0.045
-289.618	490.921	0.077	-0.175
-288.603	800.000	0.046	0.154
-287.589	-95.648	-0.271	0.072
-286.574	-0.230	0.087	-0.062
-285.559	437.340	-0.031	-0.067
-284.545	454.446	-0.096	-0.213
-283.530	-200.000	-0.017	0.203
-282.516	-200.000	-0.031	0.138
-281.501	-27.791	0.210	0.121
-280.486	-31.467	0.264	0.148
-279.472	-67.092	-0.028	0.011
-278.457	-200.000	-0.001	0.228
-277.443	-72.485	-0.301	-0.110
-276.428	-181.214	0.102	-0.002
-275.413	32.430	0.347	-0.298
-274.399	644.426	0.161	-0.409
-273.384	15.460	0.136	0.106
-272.370	-51.421	0.346	-0.161
-271.355	448.992	0.144	0.316
-270.340	-200.000	-0.057	-0.321
-269.326	-200.000	-0.086	-0.420
-268.311	-200.000	0.017	-0.225
-267.297	-200.000	-0.030	-0.187
-266.282	-113.010	0.301	0.059
-265.267	-80.070	0.130	-0.043
-264.253	-50.648	-0.394	-0.184
-263.238	-63.129	0.178	0.073
-262.224	96.212	0.265	-0.302
-261.209	-57.600	0.351	-0.153
-260.195	-113.885	0.077	-0.015
-259.180	-200.000	-0.031	0.448
-258.165	-76.706	-0.205	-0.071
-257.151	29.732	-0.118	-0.100
-256.136	202.552	0.074	-0.113
-255.122	536.400	0.021	0.050
-254.107	99.399	0.061	0.070
-253.092	-76.194	-0.109	-0.038
-252.078	-200.000	-0.060	0.299
-251.063	-95.631	0.124	0.033
-250.049	54.270	0.089	-0.085
-249.034	-62.157	-0.234	-0.097
-248.019	105.089	0.163	0.192
-247.005	213.954	-0.112	-0.176
-245.990	377.717	0.142	-0.288
-244.976	362.644	-0.115	0.229
-243.961	-16.284	0.109	0.068
-242.946	-120.799	-0.429	0.072
-241.932	21.812	0.235	0.190
-240.917	473.376	0.036	0.079
-239.903	-200.000	0.034	0.238
-238.888	-18.807	0.136	0.084
-237.873	-8.592	0.151	-0.101
-236.859	217.200	0.112	0.176
-235.844	-113.300	0.200	-0.039
-234.830	-141.874	-0.159	0.016
-233.815	38.497	-0.236	0.209
-232.800	514.080	0.071	0.164
-231.786	387.277	-0.055	0.113
-230.771	-104.000	-0.371	-0.086
-229.757	800.000	-0.061	0.203
-228.742	357.592	-0.133	0.263
-227.727	-10.162	0.187	-0.123
-226.713	48.542	0.152	0.141
-225.698	271.941	-0.153	0.267
-224.684	122.504	-0.082	-0.102
-223.669	-59.188	-0.082	0.035
-222.655	-40.684	0.098	0.050
-221.640	243.903	0.068	0.114
-220.625	-93.923	-0.098	-0.027
-219.611	-76.869	0.205	0.071
-218.596	-115.618	-0.157	0.029
-217.582	800.000	0.062	-0.175
-216.567	-200.000	-0.045	-0.222
-215.552	-113.519	0.121	0.023
-214.538	126.532	0.096	-0.121
-213.523	-200.000	-0.014	-0.409
-212.509	-75.529	-0.292	0.103
-211.494	107.418	0.043	-0.050
-210.479	-40.605	-0.393	0.202
-209.465	38.445	0.137	0.121
-208.450	-200.000	-0.025	0.238
-207.436	-39.178	-0.241	0.126
-206.421	-115.627	-0.205	-0.038
-205.406	-200.000	-0.022	0.133
-204.392	26.742	0.148	0.123
-203.377	403.750	-0.097	0.203
-202.363	800.000	0.076	0.248
-201.348	555.289	-0.065	0.156
-200.333	-13.990	0.257	-0.164
-199.319	40.515	-0.162	0.144
-198.304	-200.000	0.011	0.171
-197.290	-106.614	-0.073	-0.016
-196.275	-200.000	-0.021	-0.113
-195.260	-123.980	-0.163	-0.025
-194.246	-30.433	-0.147	-0.083
-193.231	281.922	-0.063	-0.112
-192.217	-200.000	0.056	-0.358
-191.202	705.267	0.063	-0.165
-190.187	-78.852	-0.344	-0.116
-189.173	800.000	-0.007	0.027
-188.158	800.000	0.026	0.078
-187.144	-95.276	0.090	-0.024
-186.129	32.885	0.171	0.147
-185.114	82.544	0.138	-0.149
-184.100	800.000	0.027	0.080
-183.085	674.034	0.090	0.230
-182.071	-2.331	0.220	-0.153
-181.056	-64.420	-0.103	0.041
-180.042	-121.015	-0.237	0.039
-179.027	-110.121	0.305	-0.063
-178.012	12.337	-0.167	0.127
-176.998	-139.965	0.104	0.011
-175.983	465.789	0.132	-0.292
-174.969	-200.000	0.038	0.288
-173.954	-200.000	-0.001	-0.028
-172.939	-134.223	-0.300	-0.037
-171.925	-65.343	0.050	0.020
-170.910	-74.505	0.184	0.065
-169.896	800.000	0.031	0.132
-168.881	668.778	0.107	-0.273
-167.866	-200.000	-0.047	0.471
-166.852	438.808	-0.150	0.323
-165.837	-68.575	0.357	-0.137
-164.823	16.533	-0.220	0.172
-163.808	163.005	0.062	-0.087
-162.793	-169.780	0.155	0.006
-161.779	-80.505	0.121	-0.040
-160.764	177.490	-0.120	0.173
-159.750	629.017	-0.011	-0.027
-158.735	-104.988	-0.300	0.068
-157.720	316.134	0.190	0.356
-156.706	65.625	0.240	-0.240
-155.691	33.949	0.159	0.137
-154.677	42.426	-0.229	-0.206
-153.662	-200.000	0.000	0.325
-152.647	-200.000	0.005	-0.263
-151.633	133.740	0.066	-0.084
-150.618	-68.970	-0.298	-0.114
-149.604	-161.476	-0.086	0.004
-148.589	-33.837	0.096	-0.052
-147.574	423.929	0.171	-0.364
-146.560	-157.601	-0.360	-0.021
-145.545	-69.725	-0.313	0.118
-144.531	-180.254	0.081	0.002
-143.516	170.091	0.170	0.240
-142.502	-144.025	0.177	-0.016
-141.487	-200.000	0.035	0.161
-140.472	-200.000	-0.033	-0.275
-139.458	162.567	0.105	-0.146
-138.443	-5.254	-0.240	0.163
-137.429	-200.000	0.047	0.308
-136.414	42.157	0.275	-0.247
-135.399	-92.002	-0.135	-0.038
-134.385	-200.000	0.004	-0.036
-133.370	-2.353	0.306	-0.212
-132.356	-145.928	-0.126	-0.011
-131.341	251.143	-0.135	0.228
-130.326	-129.210	0.013	0.002
-129.312	-135.060	0.318	0.038
-128.297	-21.245	0.152	0.092
-127.283	150.234	-0.227	0.304
-126.268	-76.683	-0.432	0.150
-125.253	-96.764	-0.120	-0.031
-124.239	800.000	0.033	0.101
-123.224	800.000	0.031	0.093
-122.210	-143.316	0.176	0.017
-121.195	552.276	-0.056	0.133
