DTS Sentinel unit serial number:	SN413079Multiplexer serial number:	ORYXHardware model number:	OX4-SRSoftware version number:	ORYX F/W v4.00 Oryx Data Collector v3.7.2.0data status	okinstallation	princeton_trtdifferential loss correction	single-endedforward channel	channel 2reverse channel	N/Adate	2019/09/17time	07:31:34forward acquisition time	60.00reverse acquisition time	0.00gamma	496.2192k internal	0.2335k external	0.2335temperature offset calibration	0.9975default loss term (dB/km)	0.3790temperature slope calibration	1.0000multiplexer offset coefficient	1.0000multiplexer slope coefficient	1.0000fibre end	0.00T internal ref (°C)	27.19T ext. ref 1 (°C)	0.12T ext. ref 2 (°C)	21.72length (m)	temperature (°C)	Stokes	anti-Stokes-747.200	-16.402	-0.130	-0.083
-746.185	-200.000	-0.005	0.223
-745.171	286.338	0.130	0.235
-744.156	113.414	-0.241	0.294
-743.142	-42.467	-0.429	-0.220
-742.127	50.224	-0.148	0.140
-741.112	-54.029	0.283	-0.129
-740.098	5.306	-0.237	0.176
-739.083	-181.173	-0.468	0.009
-738.069	113.570	0.131	-0.160
-737.054	110.293	-0.220	-0.266
-736.039	800.000	0.049	0.145
-735.025	201.726	-0.141	0.219
-734.010	794.459	-0.041	0.115
-732.996	149.762	0.060	0.082
-731.981	102.955	0.060	-0.070
-730.966	-130.634	-0.280	0.038
-729.952	14.061	-0.132	0.103
-728.937	-4.202	-0.451	-0.313
-727.923	800.000	0.033	0.100
-726.908	426.447	0.055	0.119
-725.894	29.033	-0.093	-0.079
-724.879	701.604	-0.120	-0.318
-723.864	208.586	0.078	-0.122
-722.850	183.807	-0.243	-0.361
-721.835	-52.984	0.115	0.053
-720.821	-164.233	0.064	0.003
-719.806	-8.215	-0.124	-0.084
-718.791	-116.675	-0.034	0.006
-717.777	93.890	-0.060	0.069
-716.762	-87.349	-0.203	-0.062
-715.748	-109.292	0.174	-0.037
-714.733	55.825	0.127	-0.124
-713.718	-105.212	-0.367	-0.084
-712.704	113.966	0.100	-0.121
-711.689	64.993	0.195	-0.197
-710.675	24.317	-0.229	-0.190
-709.660	-5.603	0.323	0.222
-708.645	-60.474	0.220	-0.094
-707.631	-104.352	0.106	0.025
-706.616	194.720	0.219	-0.334
-705.602	90.514	0.127	-0.143
-704.587	180.958	-0.224	-0.331
-703.572	-119.990	0.271	0.047
-702.558	-7.377	0.008	0.005
-701.543	12.948	0.228	-0.177
-700.529	342.178	-0.042	0.083
-699.514	800.000	0.048	-0.159
-698.499	173.960	-0.037	-0.054
-697.485	36.956	0.117	0.104
-696.470	-55.980	-0.039	-0.018
-695.456	-200.000	0.027	-0.189
-694.441	261.117	-0.158	0.274
-693.426	-59.921	-0.151	-0.065
-692.412	-67.882	0.241	-0.094
-691.397	116.623	-0.261	0.321
-690.383	556.237	0.068	-0.164
-689.368	172.914	0.125	-0.181
-688.354	-27.160	-0.227	0.133
-687.339	10.948	0.135	0.103
-686.324	-131.434	-0.123	0.016
-685.310	278.152	0.034	-0.060
-684.295	-200.000	-0.002	0.299
-683.281	-53.575	-0.065	-0.030
-682.266	-97.433	-0.129	0.034
-681.251	33.713	-0.170	-0.148
-680.237	800.000	-0.132	-0.377
-679.222	-200.000	0.001	0.164
-678.208	800.000	0.013	0.056
-677.193	257.749	0.166	-0.287
-676.178	463.082	0.104	-0.233
-675.164	-99.734	-0.107	0.027
-674.149	-16.111	0.065	-0.042
-673.135	-154.437	0.111	-0.007
-672.120	492.654	-0.173	0.396
-671.105	-200.000	-0.036	-0.328
-670.091	777.229	0.016	0.043
-669.076	-31.326	-0.220	0.124
-668.062	25.139	0.189	-0.157
-667.047	322.788	0.055	-0.105
-666.032	-133.784	0.197	0.025
-665.018	57.139	0.212	0.207
-664.003	192.619	0.237	-0.359
-662.989	-44.480	-0.223	-0.112
-661.974	91.778	-0.231	-0.260
-660.959	387.138	0.076	0.156
-659.945	-16.287	0.064	0.041
-658.930	-200.000	0.037	0.165
-657.916	-142.718	-0.042	-0.004
-656.901	371.690	-0.040	0.081
-655.886	-161.391	-0.186	-0.010
-654.872	-87.399	0.278	-0.084
-653.857	-134.710	0.398	0.049
-652.843	-136.579	-0.248	0.029
-651.828	29.248	-0.209	-0.178
-650.814	233.437	0.068	-0.111
-649.799	800.000	-0.105	-0.298
-648.784	800.000	0.009	0.025
-647.770	-68.073	0.102	0.040
-646.755	-200.000	-0.322	-0.000
-645.741	-200.000	0.018	-0.249
-644.726	-100.923	-0.161	0.040
-643.711	136.717	0.103	-0.135
-642.697	-200.000	-0.112	0.000
-641.682	233.608	0.107	-0.177
-640.668	39.465	0.080	0.072
-639.653	-200.000	-0.041	0.194
-638.638	800.000	-0.035	0.135
-637.624	271.781	0.090	-0.159
-636.609	412.852	0.038	0.081
-635.595	800.000	0.035	0.137
-634.580	-166.290	0.093	-0.004
-633.565	-200.000	-0.036	-0.241
-632.551	-119.610	0.109	0.019
-631.536	-200.000	0.025	-0.353
-630.522	-41.738	0.136	0.070
-629.507	110.063	0.091	0.109
-628.492	43.723	-0.293	0.268
-627.478	-200.000	-0.008	0.102
-626.463	179.654	-0.112	0.164
-625.449	-128.087	0.190	-0.027
-624.434	71.017	-0.180	0.187
-623.419	4.238	-0.226	-0.165
-622.405	7.798	-0.088	-0.066
-621.390	-19.841	0.087	-0.054
-620.376	-20.100	0.193	-0.119
-619.361	152.882	-0.223	0.304
-618.346	468.408	-0.097	0.217
-617.332	-21.457	-0.159	0.097
-616.317	-181.935	0.135	-0.003
-615.303	800.000	0.018	-0.074
-614.288	800.000	0.108	0.441
-613.273	-157.383	-0.349	-0.021
-612.259	-146.108	0.169	-0.015
-611.244	721.912	-0.106	0.282
-610.230	130.286	0.109	-0.139
-609.215	25.805	0.348	0.290
-608.201	-200.000	-0.020	0.098
-607.186	-38.867	-0.192	-0.101
-606.171	76.053	-0.044	-0.046
-605.157	528.650	-0.083	0.195
-604.142	76.639	0.069	-0.073
-603.128	-164.637	0.124	-0.006
-602.113	-200.000	0.097	-0.455
-601.098	322.655	-0.114	-0.217
-600.084	208.152	0.204	0.318
-599.069	-1.208	-0.313	-0.221
-598.055	38.581	0.079	0.070
-597.040	-200.000	-0.001	0.013
-596.025	305.406	-0.087	-0.162
-595.011	671.323	-0.067	-0.172
-593.996	-163.683	-0.260	-0.012
-592.982	-200.000	-0.009	-0.184
-591.967	21.826	0.394	0.321
-590.952	7.304	0.241	-0.179
-589.938	-87.639	-0.339	0.102
-588.923	569.885	-0.062	0.151
-587.909	357.836	0.080	-0.160
-586.894	-172.675	-0.109	-0.003
-585.879	-200.000	0.086	0.514
-584.865	-86.400	-0.312	0.096
-583.850	-59.770	0.178	-0.076
-582.836	188.159	0.133	0.199
-581.821	-69.842	-0.146	-0.056
-580.806	38.809	-0.070	0.062
-579.792	800.000	0.053	0.200
-578.777	61.255	0.055	0.055
-577.763	-184.041	-0.136	-0.002
-576.748	20.450	-0.128	-0.103
-575.733	-26.254	0.234	0.137
-574.719	-50.585	0.249	0.117
-573.704	-200.000	0.037	-0.186
-572.690	61.401	-0.094	0.093
-571.675	800.000	0.038	-0.124
-570.661	-54.315	0.129	-0.059
-569.646	46.912	0.293	0.272
-568.631	-200.000	0.015	-0.255
-567.617	-36.887	0.084	0.045
-566.602	5.983	0.177	-0.131
-565.588	-23.695	-0.088	-0.053
-564.573	800.000	-0.045	-0.129
-563.558	-151.306	0.130	-0.010
-562.544	46.650	0.085	0.078
-561.529	-99.347	0.260	0.065
-560.515	32.877	0.138	-0.120
-559.500	187.348	0.156	0.232
-558.485	-34.628	-0.065	-0.035
-557.471	82.151	-0.193	-0.209
-556.456	-200.000	0.015	0.230
-555.442	309.812	-0.037	0.068
-554.427	54.183	0.273	-0.262
-553.412	-33.349	-0.169	0.093
-552.398	58.426	-0.158	-0.154
-551.383	-200.000	-0.027	0.122
-550.369	-73.721	-0.077	0.028
-549.354	178.363	0.046	0.067
-548.339	-200.000	0.010	0.100
-547.325	321.767	-0.054	0.102
-546.310	-91.564	0.350	0.099
-545.296	27.758	-0.211	-0.177
-544.281	71.997	0.246	0.255
-543.266	-132.466	-0.604	0.078
-542.252	-200.000	-0.038	-0.294
-541.237	-10.713	-0.208	-0.137
-540.223	111.685	-0.137	0.164
-539.208	218.284	-0.143	-0.228
-538.193	30.015	0.157	-0.134
-537.179	528.283	-0.041	-0.097
-536.164	238.622	0.169	0.280
-535.150	-12.343	-0.330	0.215
-534.135	83.489	0.119	0.129
-533.121	-55.198	0.081	-0.036
-532.106	-54.184	0.209	-0.095
-531.091	108.741	0.247	0.295
-530.077	800.000	0.071	0.241
-529.062	-116.312	0.325	-0.060
-528.048	-46.363	-0.183	0.090
-527.033	366.763	0.134	-0.268
-526.018	-51.077	0.406	0.190
-525.004	-178.574	-0.178	0.004
-523.989	-56.020	-0.188	-0.084
-522.975	-200.000	0.010	0.174
-521.960	-8.810	0.279	-0.186
-520.945	71.378	0.280	-0.290
-519.931	-22.567	-0.406	-0.245
-518.916	800.000	0.106	-0.351
-517.902	-159.009	-0.037	0.002
-516.887	-200.000	0.052	-0.360
-515.872	275.609	0.086	-0.152
-514.858	-53.643	0.149	0.068
-513.843	-69.083	-0.181	0.069
-512.829	-98.070	-0.127	-0.033
-511.814	-22.645	0.330	-0.199
-510.799	-124.832	-0.333	-0.051
-509.785	800.000	0.067	-0.265
-508.770	-200.000	-0.006	-0.150
-507.756	-200.000	0.006	-0.190
-506.741	-200.000	0.002	-0.020
-505.726	-121.902	-0.326	-0.053
-504.712	-65.208	-0.143	0.057
-503.697	-149.772	-0.194	0.015
-502.683	-127.600	-0.157	-0.023
-501.668	-51.831	0.222	0.103
-500.653	9.128	-0.283	-0.213
-499.639	-16.520	-0.261	0.164
-498.624	350.820	-0.121	-0.238
-497.610	800.000	-0.069	0.229
-496.595	-200.000	0.065	0.409
-495.581	-43.197	-0.363	-0.183
-494.566	16.807	0.144	0.114
-493.551	222.534	0.185	-0.296
-492.537	165.924	0.180	-0.253
-491.522	-28.633	0.193	-0.111
-490.508	-114.313	-0.607	-0.116
-489.493	800.000	0.048	-0.161
-488.478	-200.000	-0.030	-0.265
-487.464	332.453	0.184	-0.354
-486.449	-119.764	-0.338	0.058
-485.435	38.500	0.118	-0.105
-484.420	800.000	-0.095	0.298
-483.405	36.312	-0.196	0.172
-482.391	1.888	-0.086	0.062
-481.376	-163.269	0.343	0.016
-480.362	-61.573	-0.392	0.164
-479.347	800.000	0.014	-0.052
-478.332	55.600	-0.117	-0.113
-477.318	178.094	-0.155	0.224
-476.303	-200.000	-0.013	0.127
-475.289	-113.110	0.321	0.063
-474.274	-2.015	-0.342	0.239
-473.259	-200.000	0.025	0.225
-472.245	-200.000	0.001	0.205
-471.230	77.668	-0.149	-0.158
-470.216	546.428	-0.126	0.301
-469.201	-200.000	-0.091	0.736
-468.186	134.022	0.231	0.298
-467.172	172.425	0.024	0.035
-466.157	-65.542	-0.063	-0.025
-465.143	800.000	-0.027	0.097
-464.128	-67.654	0.151	0.059
-463.113	284.804	0.018	0.032
-462.099	273.610	0.120	0.212
-461.084	-127.348	-0.147	-0.021
-460.070	523.970	0.118	0.275
-459.055	33.947	0.292	0.252
-458.040	-61.876	-0.340	0.141
-457.026	-22.966	-0.229	0.137
-456.011	-200.000	0.001	-0.248
-454.997	445.939	-0.139	-0.304
-453.982	430.594	0.091	-0.195
-452.968	150.467	0.105	-0.142
-451.953	127.088	-0.054	0.068
-450.938	-122.781	-0.433	0.070
-449.924	800.000	-0.007	0.025
-448.909	-63.039	0.105	0.043
-447.895	-200.000	-0.004	0.193
-446.880	-161.041	-0.171	0.009
-445.865	-200.000	0.016	-0.218
-444.851	-93.571	-0.421	0.116
-443.836	800.000	0.056	-0.154
-442.822	121.061	0.114	0.141
-441.807	-96.859	0.311	-0.081
-440.792	536.695	0.027	-0.064
-439.778	-200.000	-0.019	0.095
-438.763	171.590	0.159	0.227
-437.749	53.849	-0.019	0.018
-436.734	-144.673	0.169	0.015
-435.719	-143.983	0.142	0.013
-434.705	13.468	0.215	0.166
-433.690	800.000	-0.072	-0.293
-432.676	800.000	0.095	0.309
-431.661	-18.172	0.201	0.125
-430.646	-33.538	0.217	0.119
-429.632	299.849	0.151	0.277
-428.617	-141.204	-0.284	-0.029
-427.603	-101.841	0.325	0.078
-426.588	-127.929	-0.608	-0.087
-425.573	800.000	-0.041	0.156
-424.559	6.525	-0.223	0.164
-423.544	46.500	0.264	-0.243
-422.530	800.000	0.066	-0.280
-421.515	-67.182	0.207	-0.081
-420.500	-87.177	0.179	-0.054
-419.486	-39.749	-0.180	-0.093
-418.471	345.966	-0.023	0.045
-417.457	-114.844	0.372	-0.070
-416.442	152.605	0.167	-0.226
-415.428	-130.373	0.368	0.049
-414.413	-200.000	-0.024	-0.165
-413.398	-200.000	-0.003	0.142
-412.384	-113.245	-0.154	-0.030
-411.369	-200.000	0.008	0.099
-410.355	99.733	-0.076	0.087
-409.340	-62.273	0.225	-0.093
-408.325	-59.646	0.086	-0.037
-407.311	-5.324	-0.213	-0.145
-406.296	-138.808	0.140	-0.015
-405.282	-200.000	0.033	0.167
-404.267	419.912	-0.106	-0.225
-403.252	800.000	-0.038	0.113
-402.238	125.328	-0.083	-0.104
-401.223	27.687	-0.229	0.191
-400.209	-200.000	0.002	-0.129
-399.194	4.708	-0.219	-0.160
-398.179	21.130	0.271	0.218
-397.165	632.469	-0.084	-0.210
-396.150	-143.271	0.368	-0.035
-395.136	-200.000	0.028	-0.384
-394.121	-200.000	-0.008	-0.180
-393.106	9.391	0.017	0.012
-392.092	800.000	-0.016	-0.050
-391.077	45.705	0.099	0.090
-390.063	-84.196	-0.173	-0.054
-389.048	-167.125	0.362	-0.015
-388.033	465.736	0.175	0.389
-387.019	-67.811	-0.294	-0.114
-386.004	-103.845	0.391	0.090
-384.990	-200.000	-0.001	-0.035
-383.975	-87.730	-0.198	-0.059
-382.960	-0.841	-0.190	-0.134
-381.946	-164.625	-0.377	0.017
-380.931	706.007	-0.037	0.096
-379.917	-200.000	0.047	0.238
-378.902	45.281	0.218	-0.199
-377.888	48.761	-0.025	-0.023
-376.873	800.000	0.031	-0.096
-375.858	-200.000	-0.027	-0.196
-374.844	-99.307	-0.433	-0.108
-373.829	-108.510	-0.090	-0.019
-372.815	152.165	-0.192	0.259
-371.800	13.549	0.322	-0.247
-370.785	-200.000	-0.037	-0.200
-369.771	-113.725	-0.128	-0.025
-368.756	-26.234	0.081	0.047
-367.742	-61.474	0.115	-0.048
-366.727	53.432	0.248	0.236
-365.712	-56.403	0.269	0.118
-364.698	800.000	0.057	0.216
-363.683	-200.000	0.012	-0.319
-362.669	-80.566	0.229	-0.076
-361.654	90.882	-0.105	-0.117
-360.639	-47.585	-0.022	-0.011
-359.625	414.837	-0.096	-0.202
-358.610	-120.872	0.339	-0.057
-357.596	709.866	-0.170	0.444
-356.581	-53.209	-0.230	0.105
-355.566	-49.154	-0.232	0.110
-354.552	800.000	-0.051	0.174
-353.537	800.000	0.074	0.284
-352.523	79.517	-0.255	-0.270
-351.508	4.225	0.125	0.091
-350.493	-200.000	0.057	-0.315
-349.479	-200.000	0.050	0.233
-348.464	-15.185	-0.145	-0.092
-347.450	-93.870	-0.136	0.037
-346.435	-200.000	-0.002	0.110
-345.420	800.000	0.018	0.063
-344.406	800.000	0.038	0.150
-343.391	-200.000	0.069	0.322
-342.377	778.292	-0.134	-0.361
-341.362	365.837	-0.134	-0.268
-340.348	800.000	-0.075	0.261
-339.333	-52.884	-0.324	0.148
-338.318	-138.403	-0.128	-0.014
-337.304	-99.286	-0.370	0.092
-336.289	477.808	0.083	0.185
-335.275	-200.000	0.062	-0.319
-334.260	-200.000	-0.067	-0.327
-333.245	-163.786	-0.387	0.018
-332.231	-114.303	0.178	-0.034
-331.216	-200.000	0.019	-0.203
-330.202	207.366	0.025	-0.038
-329.187	15.268	-0.126	-0.098
-328.172	-150.819	0.148	0.011
-327.158	-68.275	-0.108	-0.042
-326.143	534.814	-0.110	0.258
-325.129	-71.871	-0.073	0.027
-324.114	238.722	0.113	0.186
-323.099	-74.073	-0.395	-0.141
-322.085	-100.068	0.291	-0.072
-321.070	-200.000	-0.001	0.219
-320.056	-1.891	0.228	0.158
-319.041	-41.732	0.265	0.135
-318.026	-122.935	-0.242	0.039
-317.012	-162.172	0.210	-0.010
-315.997	-167.170	-0.153	-0.006
-314.983	276.073	-0.223	-0.391
-313.968	-61.667	0.111	-0.046
-312.953	-165.586	-0.055	0.002
-311.939	-129.172	-0.150	-0.021
-310.924	800.000	-0.085	-0.235
-309.910	-200.000	0.008	0.243
-308.895	609.118	0.135	-0.334
-307.880	90.184	0.021	-0.023
-306.866	-78.693	0.125	0.042
-305.851	590.972	0.070	-0.170
-304.837	130.529	0.107	0.136
-303.822	-200.000	0.031	0.285
-302.807	-174.681	-0.243	-0.007
-301.793	-200.000	0.058	-0.308
-300.778	9.867	-0.318	-0.239
-299.764	161.905	-0.210	0.291
-298.749	-140.113	0.216	0.022
-297.735	-200.000	-0.013	0.087
-296.720	157.864	-0.026	0.036
-295.705	-200.000	0.019	-0.238
-294.691	4.727	0.207	0.150
-293.676	-16.874	-0.166	-0.104
-292.662	-148.919	-0.370	-0.030
-291.647	150.100	0.149	-0.200
-290.632	-200.000	0.007	-0.193
-289.618	49.708	-0.097	0.090
-288.603	-71.780	0.025	-0.009
-287.589	219.004	0.146	-0.230
-286.574	226.869	0.178	-0.285
-285.559	288.673	0.080	0.143
-284.545	404.719	-0.032	0.067
-283.530	147.722	0.004	0.005
-282.516	-69.604	-0.199	-0.075
-281.501	237.678	-0.154	0.252
-280.486	553.188	0.173	0.410
-279.472	-200.000	-0.045	0.252
-278.457	94.655	-0.173	-0.194
-277.443	25.214	0.109	-0.090
-276.428	253.874	0.122	0.206
-275.413	151.809	0.190	0.256
-274.399	-23.127	-0.342	-0.203
-273.384	-33.663	-0.200	-0.109
-272.370	28.282	0.211	0.176
-271.355	70.648	-0.165	-0.169
-270.340	-123.990	0.234	0.036
-269.326	-200.000	-0.037	-0.460
-268.311	-108.064	0.039	0.008
-267.297	-8.994	-0.297	-0.196
-266.282	798.451	-0.056	0.152
-265.267	96.700	0.178	0.201
-264.253	229.288	0.082	0.132
-263.238	376.917	0.131	-0.264
-262.224	260.816	0.118	0.202
-261.209	800.000	0.102	-0.278
-260.195	76.877	0.076	0.080
-259.180	82.736	0.166	-0.178
-258.165	60.679	0.348	0.340
-257.151	-7.843	0.261	0.173
-256.136	-200.000	0.026	0.164
-255.122	800.000	0.030	0.100
-254.107	800.000	-0.146	-0.582
-253.092	500.292	-0.028	0.063
-252.078	-99.189	-0.422	-0.105
-251.063	66.133	-0.086	0.086
-250.049	245.178	-0.143	0.237
-249.034	14.264	0.182	-0.140
-248.019	108.796	-0.098	-0.116
-247.005	-46.407	0.311	0.151
-245.990	85.492	-0.180	-0.195
-244.976	-45.852	0.434	-0.211
-243.961	-75.831	0.096	-0.034
-242.946	-200.000	-0.019	0.274
-241.932	-186.476	-0.116	0.002
-240.917	800.000	-0.044	0.181
-239.903	625.246	-0.028	-0.069
-238.888	-192.739	0.175	0.002
-237.873	-57.934	-0.182	-0.078
-236.859	27.025	-0.167	0.138
-235.844	800.000	-0.064	0.194
-234.830	800.000	0.080	0.239
-233.815	-200.000	0.076	0.409
-232.800	39.134	0.141	-0.124
-231.786	741.361	-0.063	0.166
-230.771	125.777	0.043	0.054
-229.757	-200.000	0.033	0.197
-228.742	108.898	0.198	0.234
-227.727	96.141	-0.101	0.113
-226.713	207.574	-0.248	-0.382
-225.698	286.424	0.105	0.187
-224.684	657.964	0.167	0.422
-223.669	-200.000	0.398	-0.001
-222.655	150.835	0.048	-0.064
-221.640	-200.000	-0.003	-0.052
-220.625	800.000	0.037	0.109
-219.611	-200.000	0.006	-0.132
-218.596	-42.219	-0.006	-0.003
-217.582	35.875	0.116	-0.101
-216.567	800.000	0.063	-0.235
-215.552	-200.000	0.006	-0.089
-214.538	-44.472	0.022	0.011
-213.523	-132.395	-0.206	-0.026
-212.509	-8.140	-0.052	0.035
-211.494	-87.654	0.111	-0.033
-210.479	16.806	-0.079	0.061
-209.465	-87.213	-0.130	0.039
-208.450	-20.893	0.165	0.100
-207.436	147.492	0.085	0.113
-206.421	-1.407	-0.061	0.042
-205.406	-64.477	0.056	-0.022
-204.392	126.145	0.126	-0.157
-203.377	-200.000	-0.009	0.107
-202.363	177.487	0.214	-0.307
-201.348	-25.483	0.110	0.064
-200.333	-61.079	0.184	-0.077
-199.319	-148.668	-0.337	0.027
-198.304	-23.058	-0.239	0.142
-197.290	-45.009	0.369	0.181
-196.275	24.828	0.038	0.031
-195.260	-104.585	0.246	0.056
-194.246	-9.481	-0.542	-0.356
-193.231	-200.000	0.043	0.617
-192.217	-73.351	-0.190	-0.068
-191.202	70.858	0.031	-0.032
-190.187	-184.855	-0.079	-0.001
-189.173	-80.673	0.560	0.183
-188.158	-171.211	-0.334	0.011
-187.144	-99.223	-0.040	0.010
-186.129	419.360	-0.233	-0.491
-185.114	-137.637	-0.226	-0.025
-184.100	548.592	-0.171	-0.402
-183.085	-85.298	0.253	-0.078
-182.071	32.234	0.214	0.181
-181.056	141.838	-0.179	-0.233
-180.042	-200.000	0.033	-0.206
-179.027	88.342	0.310	-0.338
-178.012	449.480	0.188	-0.408
-176.998	5.799	0.271	-0.197
-175.983	-126.870	0.390	0.056
-174.969	-89.141	-0.146	-0.042
-173.954	398.489	-0.078	0.160
-172.939	341.454	-0.080	0.153
-171.925	445.992	-0.154	-0.333
-170.910	108.029	-0.187	0.219
-169.896	5.254	-0.188	0.136
-168.881	-133.693	-0.019	0.002
-167.866	-41.241	-0.127	-0.064
-166.852	-200.000	0.083	-0.367
-165.837	800.000	-0.033	-0.118
-164.823	-64.600	0.185	0.074
-163.808	-200.000	-0.007	-0.065
-162.793	-67.297	-0.094	0.036
-161.779	127.312	-0.134	-0.167
-160.764	-129.347	0.112	-0.015
-159.750	629.897	0.062	0.154
-158.735	438.422	-0.018	-0.038
-157.720	-24.656	-0.126	-0.074
-156.706	51.719	-0.112	-0.105
-155.691	-106.954	-0.240	0.052
-154.677	800.000	-0.057	-0.229
-153.662	-166.076	0.219	0.009
-152.647	-50.104	0.339	0.158
-151.633	-106.257	0.278	-0.061
-150.618	68.182	-0.398	-0.400
-149.604	33.147	0.028	-0.024
-148.589	-55.244	-0.072	0.032
-147.574	-200.000	-0.015	-0.470
-146.560	133.019	0.290	-0.367
-145.545	551.608	-0.013	-0.030
-144.531	245.368	-0.131	-0.216
-143.516	-200.000	-0.058	-0.447
-142.502	-200.000	0.005	-0.315
-141.487	-200.000	-0.012	0.124
-140.472	-153.646	0.327	0.022
-139.458	-35.852	0.207	-0.110
-138.443	-162.067	-0.171	0.008
-137.429	144.913	0.019	0.025
-136.414	122.302	0.095	0.117
-135.399	-200.000	0.007	-0.045
-134.385	-55.182	0.101	0.044
-133.370	641.779	-0.165	0.412
-132.356	-47.409	-0.201	-0.096
-131.341	-17.155	0.198	0.122
-130.326	166.518	0.108	0.151
-129.312	4.036	-0.197	0.141
-128.297	-200.000	-0.021	0.292
-127.283	571.019	0.065	0.155
-126.268	800.000	-0.075	0.319
-125.253	-200.000	-0.005	0.033
-124.239	-111.919	0.207	-0.041
-123.224	14.441	-0.187	-0.143
-122.210	166.016	-0.057	-0.079
-121.195	-61.292	-0.254	-0.105
-120.180	-166.141	0.160	-0.007
