DTS Sentinel unit serial number:	SN413079Multiplexer serial number:	ORYXHardware model number:	OX4-SRSoftware version number:	ORYX F/W v4.00 Oryx Data Collector v3.7.2.0data status	okinstallation	princeton_trtdifferential loss correction	single-endedforward channel	channel 2reverse channel	N/Adate	2019/09/12time	19:37:49forward acquisition time	15.00reverse acquisition time	0.00gamma	496.2192k internal	0.2327k external	0.2327temperature offset calibration	1.0153default loss term (dB/km)	0.3790temperature slope calibration	1.0000multiplexer offset coefficient	1.0000multiplexer slope coefficient	1.0000fibre end	0.00T internal ref (°C)	32.12T ext. ref 1 (°C)	3.34T ext. ref 2 (°C)	26.71length (m)	temperature (°C)	Stokes	anti-Stokes-747.200	-200.000	0.001	0.735
-746.185	50.878	0.557	0.532
-745.171	-200.000	0.055	-0.656
-744.156	-200.000	-0.051	-1.173
-743.142	-200.000	0.193	-1.135
-742.127	-68.866	-0.188	0.073
-741.112	-190.160	-0.342	0.004
-740.098	-70.629	0.299	-0.114
-739.083	800.000	-0.260	-0.779
-738.069	239.473	0.085	-0.142
-737.054	800.000	-0.060	-0.232
-736.039	-94.303	0.401	-0.111
-735.025	-45.639	-0.414	-0.207
-734.010	-59.157	0.277	0.120
-732.996	800.000	-0.100	-0.347
-731.981	-16.352	0.305	0.195
-730.966	-21.497	-0.602	0.370
-729.952	4.320	-0.473	0.349
-728.937	194.981	0.611	0.935
-727.923	-52.410	-0.711	-0.332
-726.908	61.243	-0.541	0.542
-725.894	-41.833	-0.876	-0.453
-724.879	148.876	-0.075	0.102
-723.864	181.471	0.372	-0.551
-722.850	-69.305	0.207	0.080
-721.835	-97.025	-0.522	0.138
-720.821	-32.545	0.409	0.229
-719.806	800.000	-0.127	0.443
-718.791	800.000	0.096	-0.303
-717.777	139.460	-0.145	-0.192
-716.762	66.442	-0.265	0.272
-715.748	800.000	-0.116	0.353
-714.733	800.000	-0.070	0.270
-713.718	-26.346	-0.277	-0.164
-712.704	14.082	-0.428	0.335
-711.689	-12.487	0.204	-0.134
-710.675	-55.936	-0.187	0.084
-709.660	-73.746	0.334	-0.122
-708.645	-200.000	0.030	-0.400
-707.631	153.659	-0.398	-0.549
-706.616	-118.656	-0.404	-0.072
-705.602	56.709	0.496	-0.486
-704.587	507.069	0.278	-0.648
-703.572	78.788	0.096	0.104
-702.558	2.793	-0.374	0.274
-701.543	-30.393	-0.422	-0.241
-700.529	-57.656	0.090	0.040
-699.514	80.251	-0.447	-0.484
-698.499	111.946	-0.194	-0.236
-697.485	-132.814	-0.880	-0.113
-696.470	-80.348	0.655	0.220
-695.456	-169.112	-0.611	0.023
-694.441	164.727	-0.476	0.675
-693.426	210.953	0.261	-0.413
-692.412	60.755	0.229	0.228
-691.397	111.138	0.601	0.728
-690.383	800.000	-0.234	-0.699
-689.368	-51.006	-0.216	0.102
-688.354	-53.610	-0.508	-0.234
-687.339	441.370	-0.215	0.473
-686.324	-117.124	-1.163	0.213
-685.310	-127.119	0.023	-0.003
-684.295	566.443	0.473	-1.156
-683.281	-96.054	-0.337	0.090
-682.266	-86.874	0.757	0.232
-681.251	-200.000	0.122	-0.900
-680.237	249.169	0.305	-0.521
-679.222	274.399	0.250	-0.445
-678.208	8.055	0.539	0.407
-677.193	113.906	0.445	-0.544
-676.178	-77.017	-0.179	0.063
-675.164	103.149	-0.401	-0.473
-674.149	-70.103	0.543	0.208
-673.135	-80.654	-0.576	0.193
-672.120	-200.000	-0.015	-0.302
-671.105	-161.943	0.031	0.002
-670.091	-129.502	0.362	-0.050
-669.076	-6.871	0.434	0.297
-668.062	-18.549	-0.747	0.468
-667.047	16.903	-0.279	0.222
-666.032	493.097	0.183	-0.422
-665.018	118.362	-0.236	-0.292
-664.003	151.280	-0.410	0.562
-662.989	-200.000	-0.130	1.364
-661.974	647.796	-0.348	-0.893
-660.959	-18.365	-0.306	-0.192
-659.945	89.053	0.718	0.803
-658.930	-38.155	-0.023	0.012
-657.916	-162.176	-0.559	0.028
-656.901	-0.771	0.153	0.109
-655.886	-25.225	-0.259	-0.154
-654.872	107.552	0.186	0.222
-653.857	800.000	-0.085	0.237
-652.843	70.820	0.065	-0.068
-651.828	78.400	-0.295	-0.317
-650.814	-200.000	0.002	0.617
-649.799	-59.073	0.247	-0.107
-648.784	800.000	0.010	0.028
-647.770	130.372	-0.428	-0.551
-646.755	-105.411	0.543	-0.124
-645.741	-32.314	-0.571	0.320
-644.726	-14.208	-0.450	0.292
-643.711	87.715	0.185	0.206
-642.697	97.788	0.385	-0.445
-641.682	-105.656	-0.746	0.170
-640.668	93.060	0.562	-0.638
-639.653	-34.308	-0.557	-0.307
-638.638	24.839	-0.478	-0.397
-637.624	-200.000	0.086	-0.526
-636.609	96.294	-0.235	0.270
-635.595	88.064	-0.195	0.217
-634.580	597.437	0.165	0.410
-633.565	560.897	-0.083	0.202
-632.551	628.843	0.101	-0.257
-631.536	200.758	0.285	0.440
-630.522	-12.606	-0.677	0.443
-629.507	-37.536	-0.589	-0.315
-628.492	24.934	-0.301	-0.251
-627.478	230.262	-0.332	0.545
-626.463	409.175	0.296	-0.628
-625.449	-162.746	-0.802	0.039
-624.434	34.843	0.287	-0.252
-623.419	-34.394	-0.247	0.136
-622.405	-174.428	0.827	0.024
-621.390	-79.800	0.631	0.213
-620.376	-36.446	-0.522	0.282
-619.361	496.230	-0.327	0.755
-618.346	155.679	-0.309	0.427
-617.332	439.511	-0.434	-0.952
-616.317	-200.000	0.203	0.942
-615.303	84.036	-0.237	-0.260
-614.288	-200.000	-0.138	1.275
-613.273	-200.000	-0.012	0.526
-612.259	800.000	-0.121	-0.393
-611.244	99.558	-0.328	-0.380
-610.230	273.577	-0.344	0.610
-609.215	272.179	-0.126	0.222
-608.201	-200.000	0.040	0.256
-607.186	307.018	-0.521	0.974
-606.171	-52.755	0.757	0.350
-605.157	-148.498	-0.216	0.018
-604.142	-69.642	-0.566	0.217
-603.128	800.000	0.225	0.668
-602.113	212.075	-0.125	0.197
-601.098	66.222	0.247	0.251
-600.084	143.739	-0.599	-0.801
-599.069	-200.000	0.056	-0.965
-598.055	-50.714	0.353	0.167
-597.040	-43.686	-0.760	0.384
-596.025	293.200	-0.446	-0.816
-595.011	-156.386	-0.133	-0.008
-593.996	800.000	-0.052	-0.215
-592.982	-125.970	0.607	-0.092
-591.967	-200.000	0.002	0.639
-590.952	180.876	-0.302	-0.444
-589.938	131.942	-0.540	-0.697
-588.923	-111.246	0.307	0.063
-587.909	800.000	0.043	0.130
-586.894	800.000	-0.179	-0.764
-585.879	-39.903	0.673	-0.352
-584.865	-58.054	-0.489	0.214
-583.850	-168.477	-0.625	0.024
-582.836	94.137	-0.198	-0.225
-581.821	61.071	0.242	0.241
-580.806	-200.000	0.013	0.277
-579.792	800.000	-0.112	0.476
-578.777	16.891	0.236	-0.188
-577.763	-168.738	-0.433	0.016
-576.748	500.940	-0.464	1.072
-575.733	578.718	0.145	0.355
-574.719	-94.301	-0.565	-0.155
-573.704	-164.225	0.239	-0.011
-572.690	-120.842	0.363	-0.061
-571.675	-11.734	-0.523	-0.344
-570.661	-153.774	-0.267	-0.018
-569.646	236.618	0.107	0.177
-568.631	-15.281	-0.483	0.310
-567.617	79.674	-0.137	-0.148
-566.602	800.000	-0.199	0.665
-565.588	314.359	-0.532	-1.003
-564.573	150.032	-0.545	-0.740
-563.558	-200.000	0.194	-0.871
-562.544	-85.723	0.160	0.050
-561.529	800.000	-0.151	0.599
-560.515	-26.497	-1.069	0.627
-559.500	672.803	0.217	-0.563
-558.485	225.912	0.393	0.639
-557.471	-79.785	0.600	0.202
-556.456	113.284	-0.026	0.031
-555.442	210.458	-0.590	0.927
-554.427	800.000	0.072	0.315
-553.412	-24.741	0.341	0.203
-552.398	-171.258	0.894	-0.030
-551.383	61.042	0.160	0.159
-550.369	156.424	0.417	-0.576
-549.354	-36.421	-0.447	-0.241
-548.339	-146.829	0.962	-0.083
-547.325	-120.174	-0.678	0.116
-546.310	-200.000	0.038	0.494
-545.296	-22.781	0.279	0.169
-544.281	340.681	0.282	0.551
-543.266	-200.000	-0.027	-0.268
-542.252	-135.692	0.384	0.046
-541.237	-106.315	-0.264	0.059
-540.223	637.064	-0.280	0.712
-539.208	227.687	0.206	-0.334
-538.193	-60.982	0.245	0.104
-537.179	-72.304	-0.269	0.100
-536.164	-200.000	0.154	-0.895
-535.150	18.986	0.381	0.306
-534.135	281.521	-0.496	0.888
-533.121	-200.000	0.079	-0.538
-532.106	141.902	-0.136	-0.180
-531.091	-99.132	0.716	0.181
-530.077	-200.000	-0.050	0.444
-529.062	-200.000	-0.014	0.157
-528.048	413.702	-0.109	0.232
-527.033	-53.922	1.170	0.533
-526.018	491.195	-0.357	-0.818
-525.004	87.693	-0.283	0.313
-523.989	50.500	-0.442	-0.418
-522.975	800.000	0.061	-0.208
-521.960	35.604	0.127	-0.111
-520.945	132.791	-0.054	-0.070
-519.931	64.092	0.350	-0.352
-518.916	19.782	0.260	0.209
-517.902	121.705	-0.191	-0.237
-516.887	663.294	0.045	-0.115
-515.872	-104.340	-0.750	0.174
-514.858	-200.000	-0.168	-1.025
-513.843	-200.000	-0.049	-0.417
-512.829	-182.588	0.372	0.007
-511.814	-41.370	-0.148	0.076
-510.799	405.428	0.481	-1.013
-509.785	-101.981	0.726	0.175
-508.770	-32.082	1.163	0.650
-507.756	-200.000	-0.100	0.989
-506.741	-6.718	-0.409	0.278
-505.726	67.159	0.662	-0.674
-504.712	91.669	-0.145	-0.163
-503.697	-200.000	0.086	0.793
-502.683	-200.000	-0.108	0.622
-501.668	-67.115	-0.818	-0.322
-500.653	123.909	-0.230	0.289
-499.639	-114.185	-0.231	0.045
-498.624	73.865	-0.532	-0.557
-497.610	-63.934	-0.672	-0.274
-496.595	-102.281	0.462	0.111
-495.581	-72.594	-0.213	-0.079
-494.566	20.029	-0.596	-0.480
-493.551	-64.255	-0.922	-0.375
-492.537	800.000	-0.073	-0.292
-491.522	-22.217	-0.338	-0.205
-490.508	-82.718	-0.674	-0.218
-489.493	800.000	-0.166	-0.512
-488.478	800.000	0.274	-1.016
-487.464	-124.299	0.162	0.025
-486.449	800.000	-0.140	0.485
-485.435	196.064	-0.543	0.824
-484.420	573.928	-0.191	-0.466
-483.405	-115.875	0.984	-0.183
-482.391	39.657	0.350	0.313
-481.376	-172.833	0.799	-0.025
-480.362	800.000	-0.117	-0.373
-479.347	83.588	0.159	-0.173
-478.332	-200.000	0.109	1.073
-477.318	264.157	0.463	0.804
-476.303	-137.008	0.316	-0.036
-475.289	-21.089	0.135	-0.083
-474.274	-200.000	0.011	0.459
-473.259	800.000	0.101	-0.372
-472.245	149.413	0.253	-0.342
-471.230	-186.647	-0.456	-0.006
-470.216	125.832	-0.398	-0.502
-469.201	582.805	-0.335	-0.820
-468.186	-120.569	-0.590	-0.100
-467.172	-133.134	0.047	-0.006
-466.157	-184.962	-0.213	-0.003
-465.143	153.229	-0.157	-0.214
-464.128	71.765	0.414	-0.429
-463.113	352.615	0.128	0.254
-462.099	-200.000	0.013	-0.332
-461.084	-119.579	0.475	0.082
-460.070	529.834	0.390	0.919
-459.055	705.841	-0.218	0.573
-458.040	10.756	-0.311	0.237
-457.026	6.318	0.368	-0.272
-456.011	118.163	0.332	0.408
-454.997	-48.910	0.367	-0.175
-453.982	-90.026	-0.267	-0.077
-452.968	-18.623	0.824	-0.513
-451.953	62.398	-0.309	-0.308
-450.938	-186.919	-0.881	0.012
-449.924	436.657	0.082	0.177
-448.909	-154.050	-0.544	0.037
-447.895	147.542	-0.064	-0.086
-446.880	37.680	-0.573	-0.507
-445.865	-63.163	0.665	-0.273
-444.851	-83.510	-0.417	0.133
-443.836	331.687	0.540	-1.039
-442.822	-161.487	0.301	-0.015
-441.807	-200.000	0.020	0.186
-440.792	800.000	-0.061	0.251
-439.778	10.319	0.082	-0.062
-438.763	-200.000	-0.013	0.431
-437.749	80.224	-0.345	0.369
-436.734	-123.285	-0.840	0.134
-435.719	80.709	-0.242	-0.260
-434.705	-91.641	0.655	0.186
-433.690	800.000	0.118	-0.328
-432.676	-200.000	-0.036	-0.316
-431.661	298.409	-0.259	-0.475
-430.646	-164.736	-0.389	-0.017
-429.632	57.015	-0.278	0.270
-428.617	800.000	-0.318	-0.933
-427.603	-107.280	-0.226	-0.050
-426.588	-126.953	-0.242	-0.035
-425.573	-5.050	0.369	-0.253
-424.559	139.965	0.377	-0.495
-423.544	800.000	0.109	0.356
-422.530	166.993	0.323	0.457
-421.515	-110.443	-0.085	-0.018
-420.500	-200.000	-0.102	-0.485
-419.486	-72.778	0.637	-0.234
-418.471	-138.512	1.112	-0.122
-417.457	-35.754	0.554	-0.299
-416.442	-4.848	0.364	-0.250
-415.428	341.366	0.145	-0.281
-414.413	-164.056	-1.033	-0.048
-413.398	-200.000	-0.048	-0.414
-412.384	42.187	-0.504	0.455
-411.369	572.321	-0.297	-0.720
-410.355	135.671	0.277	-0.359
-409.340	-164.676	-0.263	0.012
-408.325	-200.000	-0.079	1.157
-407.311	-2.662	0.104	-0.072
-406.296	-22.139	-0.544	-0.329
-405.282	377.864	-0.145	0.296
-404.267	41.788	0.570	-0.515
-403.252	-200.000	-0.030	-0.832
-402.238	-55.886	0.773	0.343
-401.223	191.415	-0.132	-0.197
-400.209	133.727	0.438	-0.563
-399.194	14.174	-0.158	0.123
-398.179	-200.000	0.032	-1.469
-397.165	-200.000	0.042	-0.320
-396.150	174.944	0.251	0.362
-395.136	72.895	-0.234	-0.243
-394.121	-87.690	0.485	-0.145
-393.106	-200.000	-0.083	0.394
-392.092	800.000	0.049	0.151
-391.077	-79.710	-0.325	-0.109
-390.063	-112.831	-0.464	-0.092
-389.048	13.318	-0.132	-0.102
-388.033	-34.317	0.232	0.126
-387.019	-4.242	-0.320	-0.220
-386.004	389.165	-0.182	-0.374
-384.990	-24.407	0.671	0.398
-383.975	323.362	0.067	-0.128
-382.960	-200.000	0.027	-0.721
-381.946	-70.582	-0.405	-0.152
-380.931	-200.000	0.053	0.382
-379.917	446.648	0.320	-0.699
-378.902	-160.766	-0.305	-0.016
-377.888	-137.220	-0.806	0.091
-376.873	-92.396	0.504	-0.141
-375.858	211.908	0.576	0.902
-374.844	-200.000	-0.044	0.258
-373.829	-35.020	-0.756	0.410
-372.815	9.819	-0.256	0.193
-371.800	20.282	0.213	0.171
-370.785	387.989	0.229	0.470
-369.771	-25.707	0.319	0.187
-368.756	195.003	-0.542	0.818
-367.742	797.873	0.320	0.877
-366.727	-200.000	-0.028	0.255
-365.712	-179.717	0.266	0.006
-364.698	395.553	-0.144	-0.299
-363.683	-54.956	0.964	0.432
-362.669	299.581	-0.291	-0.532
-361.654	-108.542	0.434	-0.093
-360.639	201.739	-0.411	0.629
-359.625	11.335	-0.630	0.479
-358.610	800.000	0.136	0.455
-357.596	33.614	0.235	0.203
-356.581	353.351	0.227	0.447
-355.566	-14.277	-0.299	-0.191
-354.552	593.211	0.187	0.460
-353.537	-24.585	0.585	-0.346
-352.523	-200.000	-0.044	-0.435
-351.508	192.835	-0.227	0.340
-350.493	-3.933	-0.217	-0.149
-349.479	3.783	0.390	0.283
-348.464	-31.838	-0.411	-0.229
-347.450	-200.000	-0.090	-0.818
-346.435	-96.345	0.199	-0.052
-345.420	339.886	-0.083	0.160
-344.406	-139.280	1.242	0.133
-343.391	800.000	-0.107	-0.343
-342.377	-8.841	0.346	0.230
-341.362	-145.720	-0.425	0.038
-340.348	18.482	0.262	0.208
-339.333	78.482	0.186	0.198
-338.318	-21.643	0.685	0.414
-337.304	800.000	-0.078	-0.331
-336.289	-104.997	-0.374	0.085
-335.275	-109.389	0.267	-0.056
-334.260	364.601	0.183	0.366
-333.245	198.499	0.567	-0.861
-332.231	-40.814	0.210	-0.108
-331.216	62.643	-0.276	-0.273
-330.202	-61.076	0.161	-0.067
-329.187	36.666	-0.218	-0.191
-328.172	608.344	-0.199	0.492
-327.158	25.116	-0.205	-0.169
-326.143	755.959	0.183	-0.491
-325.129	139.794	-0.370	-0.484
-324.114	-77.804	0.407	-0.139
-323.099	-178.239	-0.528	0.012
-322.085	86.860	-0.403	-0.441
-321.070	201.913	-0.052	0.080
-320.056	-200.000	0.014	-0.183
-319.041	177.266	0.243	0.351
-318.026	-63.538	-0.113	0.046
-317.012	-109.174	-0.406	0.086
-315.997	54.251	-0.243	0.232
-314.983	190.732	-0.328	0.489
-313.968	184.648	0.463	0.680
-312.953	-175.685	-0.374	-0.010
-311.939	4.933	-0.535	-0.390
-310.924	-74.439	-0.652	-0.233
-309.910	143.459	0.176	-0.232
-308.895	-62.551	0.155	0.064
-307.880	92.261	0.715	0.799
-306.866	-95.586	0.499	0.132
-305.851	-99.371	0.875	-0.219
-304.837	-200.000	-0.125	-0.927
-303.822	98.977	-0.569	-0.652
-302.807	-65.120	-0.315	-0.126
-301.793	5.088	-0.532	0.388
-300.778	800.000	0.067	0.251
-299.764	-200.000	0.122	-0.533
-298.749	800.000	0.145	-0.548
-297.735	-108.278	0.126	0.027
-296.720	-125.302	-0.597	-0.090
-295.705	653.805	-0.142	-0.361
-294.691	289.309	-0.364	0.654
-293.676	-74.974	-0.095	0.034
-292.662	-128.823	0.552	-0.077
-291.647	636.565	0.271	-0.681
-290.632	-200.000	-0.075	0.798
-289.618	-164.594	0.479	-0.022
-288.603	69.031	-0.202	0.206
-287.589	-166.361	-0.220	-0.009
-286.574	299.931	-0.268	0.488
-285.559	-200.000	0.116	-0.745
-284.545	-55.409	0.500	-0.222
-283.530	800.000	-0.220	0.647
-282.516	-148.556	1.274	-0.103
-281.501	-200.000	0.196	-0.882
-280.486	-200.000	-0.026	0.167
-279.472	341.434	-0.158	-0.306
-278.457	-29.243	-0.581	0.329
-277.443	414.035	-0.411	0.865
-276.428	-200.000	-0.100	-0.663
-275.413	-62.900	-0.278	-0.114
-274.399	-30.093	-0.535	-0.302
-273.384	651.996	-0.238	0.603
-272.370	-186.718	-0.158	-0.002
-271.355	-165.910	0.321	0.014
-270.340	800.000	0.186	0.665
-269.326	-175.940	0.517	0.014
-268.311	800.000	0.167	0.639
-267.297	-200.000	-0.121	0.593
-266.282	325.243	0.548	1.036
-265.267	-200.000	-0.024	0.223
-264.253	-200.000	0.054	0.415
-263.238	800.000	0.080	-0.261
-262.224	-107.611	0.791	-0.171
-261.209	-67.797	-0.489	0.189
-260.195	-200.000	0.198	0.999
-259.180	-115.960	0.628	0.116
-258.165	91.223	-0.591	0.657
-257.151	-113.037	0.609	-0.119
-256.136	-50.212	1.022	-0.478
-255.122	800.000	0.164	0.572
-254.107	-200.000	0.075	0.596
-253.092	800.000	-0.322	0.894
-252.078	800.000	-0.176	0.605
-251.063	-10.478	-0.363	0.238
-250.049	46.953	0.454	-0.418
-249.034	800.000	-0.310	0.920
-248.019	-200.000	0.047	-0.728
-247.005	-200.000	-0.028	-1.209
-245.990	-90.712	-0.393	0.112
-244.976	670.130	0.158	-0.406
-243.961	800.000	0.121	0.368
-242.946	-92.483	0.269	0.075
-241.932	-109.470	1.186	-0.248
-240.917	374.671	-0.136	0.275
-239.903	509.049	-0.190	0.437
-238.888	-200.000	0.103	-0.525
-237.873	800.000	-0.156	0.579
-236.859	298.456	-0.105	-0.192
-235.844	-147.204	-0.046	-0.004
-234.830	-27.259	0.226	0.130
-233.815	78.012	-0.329	-0.347
-232.800	-200.000	-0.011	0.227
-231.786	114.867	-0.393	-0.474
-230.771	-60.661	-0.218	-0.091
-229.757	-200.000	0.059	-0.309
-228.742	-92.314	0.534	-0.149
-227.727	73.515	0.270	0.280
-226.713	-22.751	0.432	0.258
-225.698	800.000	0.207	-0.777
-224.684	713.201	0.047	0.123
-223.669	-200.000	0.222	1.447
-222.655	-131.470	-1.271	0.166
-221.640	-200.000	-0.067	-0.349
-220.625	49.297	-0.163	0.151
-219.611	157.673	-0.532	0.728
-218.596	-182.869	-0.358	-0.006
-217.582	294.057	0.236	-0.426
-216.567	22.964	-0.653	-0.529
-215.552	-155.197	0.632	0.041
-214.538	-9.433	-0.548	0.361
-213.523	-200.000	0.069	-0.579
-212.509	800.000	-0.078	0.317
-211.494	-44.952	-0.145	0.071
-210.479	-19.139	0.193	0.119
-209.465	-24.325	0.258	-0.152
-208.450	129.015	-0.162	0.204
-207.436	23.503	0.383	-0.311
-206.421	74.099	-0.244	0.253
-205.406	657.408	-0.108	0.273
-204.392	-185.881	-0.562	-0.008
-203.377	-78.838	0.384	0.129
-202.363	-56.428	-0.392	-0.172
-201.348	-200.000	-0.082	-0.571
-200.333	-200.000	0.187	0.812
-199.319	288.863	0.421	-0.753
-198.304	168.948	0.207	-0.291
-197.290	-43.666	0.181	-0.090
-196.275	303.088	-0.063	-0.116
-195.260	12.752	0.275	0.210
-194.246	800.000	0.038	-0.150
-193.231	249.362	0.358	-0.598
-192.217	23.056	-0.306	-0.248
-191.202	-200.000	0.017	-1.133
-190.187	169.927	-0.065	0.092
-189.173	352.591	0.284	-0.556
-188.158	-57.939	0.685	-0.295
-187.144	-200.000	0.127	0.687
-186.129	-62.349	0.371	0.153
-185.114	-85.290	0.850	-0.262
-184.100	278.771	0.395	-0.694
-183.085	-200.000	-0.044	0.582
-182.071	-174.187	0.439	-0.013
-181.056	-12.945	0.668	0.429
-180.042	800.000	-0.127	0.498
-179.027	115.083	0.208	0.250
-178.012	-200.000	-0.016	-0.226
-176.998	1.078	0.921	-0.652
-175.983	800.000	-0.069	0.240
-174.969	46.534	-0.307	-0.281
-173.954	490.672	0.437	0.986
-172.939	-122.456	0.648	0.104
-171.925	175.962	0.468	0.670
-170.910	168.169	0.379	-0.532
-169.896	72.942	-0.501	0.516
-168.881	340.262	0.255	0.490
-167.866	205.881	-0.203	-0.311
-166.852	-200.000	0.016	-0.154
-165.837	-9.071	-0.278	0.183
-164.823	800.000	-0.301	-0.900
-163.808	88.602	-0.294	-0.323
-162.793	98.766	0.529	0.602
-161.779	-18.714	-0.309	0.190
-160.764	-83.555	-1.019	-0.321
-159.750	98.681	0.431	-0.490
-158.735	-22.303	0.355	0.212
-157.720	180.705	-0.265	-0.384
-156.706	800.000	-0.335	-0.934
-155.691	100.421	-0.159	-0.182
-154.677	27.960	-0.262	-0.218
-153.662	-46.185	0.372	0.181
-152.647	186.121	0.069	0.101
-151.633	-200.000	-0.055	-0.337
-150.618	800.000	-0.217	-0.802
-149.604	316.935	-0.309	0.575
-148.589	383.856	0.482	0.977
-147.574	176.614	-0.091	0.131
-146.560	20.770	0.404	-0.323
-145.545	33.410	0.346	0.296
-144.531	800.000	0.184	0.517
-143.516	-5.362	-0.630	0.426
-142.502	-200.000	-0.104	-0.492
-141.487	132.684	0.107	-0.135
-140.472	-11.262	0.225	0.146
-139.458	800.000	-0.167	-0.502
-138.443	-200.000	0.019	-0.405
-137.429	-31.453	-0.528	0.292
-136.414	168.812	0.299	0.420
-135.399	-89.311	-0.704	0.204
-134.385	27.170	-0.495	-0.409
-133.370	-103.452	-0.115	0.027
-132.356	444.136	0.144	0.312
-131.341	-55.409	-0.948	0.419
-130.326	-62.746	0.651	-0.265
-129.312	-69.203	1.351	0.511
-128.297	-100.555	-0.488	-0.119
-127.283	-200.000	-0.081	0.535
-126.268	-135.576	-0.474	-0.055
-125.253	-62.730	-0.482	0.197
-124.239	-15.851	0.630	-0.395
-123.224	-23.109	0.452	-0.268
-122.210	-31.301	0.050	-0.028
-121.195	-28.877	-0.526	-0.298
