DTS Sentinel unit serial number:	SN413079Multiplexer serial number:	ORYXHardware model number:	OX4-SRSoftware version number:	ORYX F/W v4.00 Oryx Data Collector v3.7.2.0data status	okinstallation	princeton_trtdifferential loss correction	single-endedforward channel	channel 2reverse channel	N/Adate	2019/09/13time	20:15:35forward acquisition time	60.00reverse acquisition time	0.00gamma	496.2192k internal	0.2334k external	0.2334temperature offset calibration	1.0140default loss term (dB/km)	0.3790temperature slope calibration	1.0000multiplexer offset coefficient	1.0000multiplexer slope coefficient	1.0000fibre end	0.00T internal ref (°C)	29.42T ext. ref 1 (°C)	3.34T ext. ref 2 (°C)	23.83length (m)	temperature (°C)	Stokes	anti-Stokes-747.200	136.631	0.227	0.297
-746.185	135.846	-0.205	0.268
-745.171	-58.206	0.234	-0.102
-744.156	-200.000	0.023	0.138
-743.142	-89.347	0.195	0.058
-742.127	-200.000	-0.018	0.095
-741.112	-74.913	-0.302	0.109
-740.098	-37.418	-0.114	0.061
-739.083	-17.832	-0.118	-0.074
-738.069	-97.296	-0.152	0.040
-737.054	228.480	-0.135	-0.222
-736.039	9.527	-0.174	-0.132
-735.025	800.000	0.028	0.099
-734.010	-193.714	-0.273	-0.002
-732.996	-133.115	-0.282	0.036
-731.981	-200.000	-0.006	0.092
-730.966	-39.646	-0.120	-0.063
-729.952	-200.000	0.011	-0.097
-728.937	800.000	-0.042	-0.149
-727.923	53.657	-0.190	-0.183
-726.908	800.000	0.051	0.208
-725.894	-88.247	0.156	-0.047
-724.879	-151.087	0.243	0.018
-723.864	-200.000	0.022	0.155
-722.850	800.000	-0.053	-0.191
-721.835	-51.034	0.161	0.076
-720.821	368.932	0.051	-0.104
-719.806	-136.195	-0.178	-0.021
-718.791	-123.110	-0.249	0.040
-717.777	116.744	0.043	0.053
-716.762	114.972	-0.104	-0.127
-715.748	-116.732	-0.078	-0.014
-714.733	7.488	-0.105	0.079
-713.718	-169.201	0.297	0.011
-712.704	-200.000	0.007	0.083
-711.689	423.310	0.059	0.128
-710.675	15.200	0.312	-0.246
-709.660	-126.734	0.137	-0.020
-708.645	-200.000	0.007	0.136
-707.631	-128.803	0.116	-0.016
-706.616	-111.907	0.137	-0.028
-705.602	8.105	-0.028	0.021
-704.587	-59.087	0.197	-0.085
-703.572	-77.783	-0.284	-0.099
-702.558	-200.000	0.024	-0.122
-701.543	-97.052	-0.161	0.042
-700.529	0.104	0.101	-0.072
-699.514	-87.880	-0.335	-0.101
-698.499	481.990	-0.120	0.273
-697.485	52.040	0.135	-0.129
-696.470	-66.985	0.191	-0.075
-695.456	44.493	-0.191	-0.176
-694.441	-97.317	-0.249	0.065
-693.426	-114.553	-0.179	0.034
-692.412	723.767	0.032	-0.086
-691.397	123.647	-0.022	0.028
-690.383	-156.213	-0.162	0.010
-689.368	-200.000	0.001	-0.149
-688.354	-200.000	0.028	-0.355
-687.339	-31.606	0.117	-0.066
-686.324	16.874	-0.045	0.036
-685.310	-55.144	0.068	-0.031
-684.295	344.997	-0.145	0.285
-683.281	-79.798	-0.244	-0.082
-682.266	800.000	-0.033	-0.110
-681.251	764.972	0.092	0.250
-680.237	-200.000	0.013	-0.061
-679.222	189.909	-0.199	-0.300
-678.208	-200.000	-0.032	0.212
-677.193	-117.351	-0.129	-0.023
-676.178	250.042	0.151	-0.258
-675.164	74.878	-0.241	-0.254
-674.149	39.438	0.185	-0.166
-673.135	-200.000	0.034	-0.192
-672.120	-200.000	-0.005	0.184
-671.105	-80.717	-0.231	-0.077
-670.091	-27.386	-0.201	0.117
-669.076	104.117	-0.127	0.150
-668.062	-200.000	0.004	0.033
-667.047	-200.000	-0.049	0.380
-666.032	-200.000	-0.020	-0.169
-665.018	52.139	-0.169	0.161
-664.003	-118.478	0.130	0.023
-662.989	-196.820	0.188	0.001
-661.974	-90.935	-0.330	-0.095
-660.959	-200.000	0.002	0.083
-659.945	-200.000	-0.020	0.178
-658.930	-43.467	-0.221	-0.112
-657.916	800.000	0.060	-0.252
-656.901	313.464	0.098	-0.185
-655.886	101.204	-0.123	-0.143
-654.872	610.766	-0.066	0.164
-653.857	-90.984	0.090	-0.026
-652.843	-200.000	0.046	0.307
-651.828	-200.000	-0.023	0.162
-650.814	-72.590	-0.245	0.090
-649.799	-19.298	0.240	0.149
-648.784	-160.281	0.026	0.001
-647.770	-200.000	0.002	-0.334
-646.755	-154.804	0.196	-0.013
-645.741	-109.804	-0.096	-0.020
-644.726	235.766	0.173	-0.286
-643.711	-200.000	0.008	-0.296
-642.697	-61.838	-0.163	-0.068
-641.682	-6.227	0.077	-0.053
-640.668	94.117	0.308	-0.350
-639.653	107.129	-0.147	-0.175
-638.638	-200.000	0.033	-0.369
-637.624	5.350	0.471	-0.348
-636.609	36.162	0.054	-0.048
-635.595	235.068	0.084	0.139
-634.580	-54.970	-0.118	0.053
-633.565	-114.857	0.533	-0.102
-632.551	36.879	-0.160	0.142
-631.536	-200.000	0.007	-0.242
-630.522	-147.311	-0.161	0.014
-629.507	-200.000	0.008	0.042
-628.492	800.000	0.050	-0.185
-627.478	-68.147	-0.142	0.055
-626.463	65.328	0.060	-0.061
-625.449	-69.447	-0.099	0.038
-624.434	185.015	0.065	0.096
-623.419	142.562	-0.263	-0.350
-622.405	-42.669	0.275	0.140
-621.390	-134.604	-0.534	0.065
-620.376	-137.129	-0.162	0.018
-619.361	-75.865	-0.071	-0.025
-618.346	-200.000	-0.012	0.206
-617.332	-28.869	0.052	0.030
-616.317	564.476	-0.087	0.211
-615.303	-200.000	-0.053	-0.317
-614.288	800.000	-0.016	-0.049
-613.273	463.361	-0.042	0.094
-612.259	-116.393	-0.365	0.067
-611.244	-106.901	0.322	0.071
-610.230	-28.601	-0.299	-0.172
-609.215	136.982	0.083	-0.109
-608.201	-92.619	0.090	0.025
-607.186	-92.377	-0.059	-0.017
-606.171	417.491	0.123	-0.262
-605.157	-188.397	0.110	-0.001
-604.142	53.877	0.287	-0.276
-603.128	6.727	-0.023	0.017
-602.113	-96.560	0.446	-0.118
-601.098	-200.000	0.021	-0.335
-600.084	342.674	0.062	0.122
-599.069	-94.439	0.082	0.022
-598.055	114.267	-0.119	0.145
-597.040	-101.423	0.423	-0.103
-596.025	2.120	-0.264	0.191
-595.011	-200.000	0.006	-0.079
-593.996	-135.759	0.180	-0.021
-592.982	69.291	0.119	0.122
-591.967	66.906	-0.054	-0.055
-590.952	-200.000	0.012	-0.263
-589.938	627.105	0.108	-0.272
-588.923	7.211	-0.120	-0.089
-587.909	462.047	-0.103	-0.230
-586.894	800.000	-0.032	0.108
-585.879	227.529	-0.088	0.143
-584.865	-78.846	0.255	0.087
-583.850	-104.714	0.166	0.038
-582.836	-28.233	-0.035	-0.020
-581.821	800.000	0.021	-0.063
-580.806	-200.000	0.052	-0.265
-579.792	-200.000	0.003	-0.110
-578.777	-200.000	0.003	-0.069
-577.763	-200.000	0.033	-0.192
-576.748	2.128	-0.252	0.182
-575.733	-200.000	0.023	0.127
-574.719	-153.360	0.244	-0.017
-573.704	-96.240	0.047	0.012
-572.690	800.000	-0.051	0.182
-571.675	471.527	-0.036	0.081
-570.661	800.000	0.051	0.213
-569.646	-200.000	0.020	0.000
-568.631	155.338	0.058	0.079
-567.617	322.854	-0.116	0.221
-566.602	-18.530	-0.208	0.130
-565.588	-24.233	0.200	-0.119
-564.573	-200.000	0.004	0.165
-563.558	-168.310	-0.195	-0.008
-562.544	-86.051	-0.350	0.108
-561.529	123.714	0.079	0.099
-560.515	25.442	0.301	0.250
-559.500	-200.000	0.010	-0.056
-558.485	197.642	-0.252	-0.384
-557.471	-98.627	-0.354	-0.090
-556.456	310.964	0.050	-0.094
-555.442	-200.000	-0.017	0.508
-554.427	80.785	-0.207	0.222
-553.412	-200.000	0.051	0.592
-552.398	-52.552	-0.086	-0.040
-551.383	-200.000	0.101	-0.539
-550.369	-115.542	0.146	-0.027
-549.354	-102.541	0.360	0.086
-548.339	-91.944	-0.406	0.115
-547.325	-62.174	-0.222	-0.092
-546.310	246.941	-0.158	0.266
-545.296	147.110	-0.046	0.061
-544.281	-72.854	-0.157	0.057
-543.266	66.770	0.175	-0.178
-542.252	800.000	-0.067	0.234
-541.237	-200.000	-0.016	-0.194
-540.223	-186.162	-0.217	-0.003
-539.208	22.415	0.206	-0.168
-538.193	330.281	-0.120	-0.230
-537.179	24.940	-0.148	-0.122
-536.164	-186.430	0.184	0.003
-535.150	153.417	0.043	-0.059
-534.135	-65.026	0.069	-0.028
-533.121	-108.891	-0.090	0.019
-532.106	-77.324	-0.236	0.082
-531.091	204.991	-0.021	-0.033
-530.077	-103.648	0.175	0.041
-529.062	-112.238	0.197	0.039
-528.048	-200.000	0.009	0.076
-527.033	800.000	-0.109	-0.392
-526.018	271.601	0.024	-0.042
-525.004	569.528	-0.104	0.251
-523.989	-120.527	-0.428	0.072
-522.975	800.000	-0.062	0.259
-521.960	-35.948	-0.178	0.096
-520.945	-132.589	-0.228	-0.029
-519.931	800.000	-0.099	0.298
-518.916	186.140	0.023	0.035
-517.902	-200.000	-0.379	-0.001
-516.887	-106.157	-0.328	-0.073
-515.872	-69.685	-0.125	0.048
-514.858	73.556	0.164	-0.171
-513.843	133.960	0.167	0.216
-512.829	-101.137	-0.345	0.084
-511.814	26.819	0.085	-0.071
-510.799	-140.223	-0.028	0.003
-509.785	-65.688	0.144	-0.058
-508.770	-109.179	-0.298	-0.063
-507.756	376.182	0.064	-0.130
-506.741	68.168	-0.131	-0.133
-505.726	-200.000	-0.011	-0.545
-504.712	-174.764	0.139	0.004
-503.697	-200.000	-0.020	-0.115
-502.683	-15.795	-0.118	0.075
-501.668	-92.765	-0.114	0.032
-500.653	-146.202	0.136	0.012
-499.639	-200.000	0.015	-0.120
-498.624	-14.549	-0.027	0.017
-497.610	72.995	-0.272	0.283
-496.595	-200.000	-0.008	-0.208
-495.581	-152.854	0.151	0.011
-494.566	-44.645	-0.070	0.035
-493.551	-13.968	0.053	-0.034
-492.537	-44.161	-0.144	-0.072
-491.522	-141.001	0.072	0.007
-490.508	96.290	-0.126	-0.143
-489.493	49.612	-0.126	0.118
-488.478	-6.604	0.180	-0.122
-487.464	-200.000	0.014	0.212
-486.449	-200.000	-0.024	0.254
-485.435	-92.027	-0.255	-0.072
-484.420	786.438	0.140	0.383
-483.405	9.067	-0.290	0.218
-482.391	68.971	0.164	0.167
-481.376	91.766	-0.038	0.043
-480.362	800.000	-0.056	-0.186
-479.347	-59.713	-0.214	0.091
-478.332	-200.000	-0.064	0.308
-477.318	42.417	-0.103	0.093
-476.303	-12.603	-0.215	-0.139
-475.289	-197.578	-0.356	0.002
-474.274	-200.000	0.025	0.145
-473.259	-200.000	-0.008	-0.149
-472.245	-200.000	0.043	0.233
-471.230	798.300	-0.032	-0.088
-470.216	629.116	-0.078	-0.195
-469.201	57.448	-0.143	-0.139
-468.186	-12.929	-0.221	-0.143
-467.172	800.000	-0.112	0.320
-466.157	-2.345	-0.195	0.136
-465.143	-200.000	-0.004	-0.047
-464.128	-78.321	-0.217	-0.074
-463.113	-122.279	0.297	-0.048
-462.099	-46.928	0.426	0.207
-461.084	-26.040	-0.162	0.095
-460.070	-200.000	0.010	-0.070
-459.055	-78.547	-0.495	0.168
-458.040	-128.378	0.370	-0.052
-457.026	-200.000	-0.045	0.303
-456.011	-33.233	-0.047	-0.026
-454.997	-200.000	0.022	0.226
-453.982	-41.580	0.128	0.066
-452.968	-151.018	-0.159	-0.012
-451.953	-160.600	-0.113	0.006
-450.938	100.922	0.099	0.114
-449.924	-159.980	0.368	0.020
-448.909	-39.544	0.099	-0.052
-447.895	-135.076	0.398	-0.048
-446.880	-182.727	-0.456	-0.008
-445.865	-31.424	0.149	0.083
-444.851	-16.223	0.184	0.116
-443.836	-83.763	0.231	0.073
-442.822	800.000	0.074	0.251
-441.807	-103.850	-0.101	-0.024
-440.792	-200.000	0.018	0.223
-439.778	-127.751	0.070	-0.010
-438.763	97.475	-0.171	-0.195
-437.749	-21.271	-0.148	-0.090
-436.734	-51.975	0.209	-0.096
-435.719	-151.238	0.275	-0.020
-434.705	-5.409	0.177	0.121
-433.690	-97.907	0.289	-0.074
-432.676	-5.120	0.263	-0.180
-431.661	-200.000	-0.015	-0.155
-430.646	-127.261	-0.120	0.017
-429.632	311.268	-0.130	0.242
-428.617	-136.342	0.231	-0.027
-427.603	800.000	-0.021	-0.084
-426.588	-39.431	0.316	-0.164
-425.573	-57.136	0.082	0.036
-424.559	-200.000	-0.026	0.166
-423.544	553.255	0.014	0.033
-422.530	-17.238	0.107	0.067
-421.515	-27.318	-0.052	-0.030
-420.500	-58.402	0.212	0.091
-419.486	-66.176	-0.212	0.084
-418.471	-28.002	0.207	-0.119
-417.457	800.000	0.028	-0.115
-416.442	-200.000	0.195	-0.001
-415.428	-200.000	-0.011	0.081
-414.413	-200.000	0.000	-0.018
-413.398	-200.000	-0.018	-0.122
-412.384	590.865	-0.095	-0.232
-411.369	154.243	-0.063	-0.086
-410.355	-200.000	-0.064	-0.341
-409.340	-32.558	0.280	0.155
-408.325	-200.000	-0.032	0.208
-407.311	-200.000	-0.010	-0.428
-406.296	-154.793	0.279	-0.018
-405.282	800.000	0.065	-0.263
-404.267	348.080	-0.158	-0.310
-403.252	-123.053	-0.458	-0.073
-402.238	-71.452	0.026	-0.010
-401.223	462.118	0.108	-0.239
-400.209	-81.520	0.146	0.048
-399.194	-81.273	0.219	-0.072
-398.179	-14.789	-0.201	-0.128
-397.165	84.353	-0.062	0.067
-396.150	85.247	0.135	-0.147
-395.136	176.675	-0.117	-0.168
-394.121	-101.988	0.291	-0.070
-393.106	-104.774	-0.281	0.064
-392.092	81.394	-0.110	-0.118
-391.077	-18.084	-0.349	0.217
-390.063	-200.000	0.006	0.249
-389.048	-34.702	0.093	0.051
-388.033	-200.000	0.011	0.062
-387.019	101.758	0.305	0.352
-386.004	93.358	0.025	0.028
-384.990	-200.000	0.027	0.202
-383.975	-38.211	0.435	0.229
-382.960	116.105	0.141	-0.171
-381.946	262.620	0.176	-0.303
-380.931	94.679	-0.196	-0.221
-379.917	-59.591	-0.055	-0.023
-378.902	-97.205	-0.170	0.044
-377.888	52.682	-0.370	0.350
-376.873	-200.000	-0.012	-0.150
-375.858	800.000	-0.056	-0.180
-374.844	-200.000	0.009	0.057
-373.829	62.816	-0.088	0.087
-372.815	-141.182	0.164	-0.017
-371.800	74.295	0.354	-0.368
-370.785	169.000	-0.313	-0.442
-369.771	123.372	0.160	0.199
-368.756	-162.698	0.170	-0.008
-367.742	-82.717	-0.111	0.036
-366.727	-27.642	-0.084	0.048
-365.712	117.603	-0.265	0.323
-364.698	-200.000	0.046	-0.239
-363.683	-135.250	-0.225	-0.027
-362.669	506.480	-0.057	-0.131
-361.654	800.000	0.040	-0.133
-360.639	24.673	0.169	0.138
-359.625	-200.000	0.027	-0.339
-358.610	134.540	0.186	-0.239
-357.596	309.514	-0.183	0.339
-356.581	222.754	-0.064	-0.103
-355.566	-200.000	-0.017	-0.248
-354.552	-65.818	0.053	0.021
-353.537	322.155	0.221	-0.416
-352.523	800.000	0.057	0.164
-351.508	-28.145	-0.261	-0.150
-350.493	-84.590	-0.150	0.047
-349.479	-200.000	0.017	0.215
-348.464	-77.912	0.243	-0.083
-347.450	101.075	0.009	0.011
-346.435	24.532	-0.167	-0.137
-345.420	-200.000	0.011	-0.167
-344.406	-200.000	0.019	0.181
-343.391	-60.467	-0.180	-0.076
-342.377	-77.952	-0.304	-0.104
-341.362	61.932	0.278	-0.274
-340.348	-56.892	0.040	0.018
-339.333	7.370	0.183	0.135
-338.318	-90.172	-0.231	-0.067
-337.304	-200.000	-0.006	-0.052
-336.289	-16.954	-0.289	-0.181
-335.275	-158.189	0.235	0.014
-334.260	800.000	-0.094	0.276
-333.245	-113.014	0.211	-0.041
-332.231	-127.044	-0.403	-0.058
-331.216	-118.198	0.187	-0.033
-330.202	235.650	-0.042	-0.068
-329.187	-148.320	0.193	0.016
-328.172	-86.365	-0.067	0.020
-327.158	3.436	0.162	0.117
-326.143	-39.218	-0.247	-0.129
-325.129	130.085	0.259	-0.328
-324.114	88.611	-0.041	-0.045
-323.099	-7.424	-0.294	-0.197
-322.085	-179.961	-0.390	0.008
-321.070	126.803	0.119	-0.149
-320.056	-153.664	0.334	0.023
-319.041	4.802	-0.206	0.149
-318.026	119.425	0.182	-0.223
-317.012	-178.309	0.037	0.001
-315.997	-200.000	0.017	0.163
-314.983	800.000	-0.034	-0.099
-313.968	-65.360	-0.141	-0.056
-312.953	-26.962	0.039	-0.022
-311.939	-200.000	-0.039	0.285
-310.924	69.214	0.077	0.078
-309.910	-200.000	0.012	0.244
-308.895	218.547	-0.085	-0.134
-307.880	22.060	-0.069	0.056
-306.866	-2.173	0.109	0.076
-305.851	38.037	-0.113	0.099
-304.837	-200.000	-0.018	0.315
-303.822	-200.000	-0.044	0.236
-302.807	-37.719	-0.312	-0.164
-301.793	-200.000	-0.001	0.232
-300.778	473.843	0.114	0.253
-299.764	-0.894	-0.151	0.106
-298.749	586.776	0.107	0.259
-297.735	800.000	0.098	-0.371
-296.720	4.716	-0.059	-0.043
-295.705	-200.000	0.001	0.120
-294.691	-148.051	-0.185	-0.015
-293.676	134.889	0.165	-0.212
-292.662	-114.329	0.456	0.087
-291.647	-99.425	0.122	-0.030
-290.632	-98.578	0.281	0.071
-289.618	-129.837	0.104	0.014
-288.603	-200.000	0.002	-0.008
-287.589	800.000	0.084	0.304
-286.574	11.157	-0.126	0.095
-285.559	-200.000	-0.001	-0.034
-284.545	521.991	-0.017	-0.039
-283.530	-200.000	0.031	-0.251
-282.516	-200.000	-0.017	-0.265
-281.501	800.000	0.118	0.373
-280.486	-118.071	-0.113	0.020
-279.472	104.597	-0.077	0.089
-278.457	-88.329	0.209	-0.062
-277.443	-200.000	-0.030	-0.266
-276.428	-200.000	0.011	0.067
-275.413	-200.000	-0.006	0.127
-274.399	-105.643	0.273	-0.061
-273.384	-200.000	0.054	0.309
-272.370	-152.904	0.155	0.011
-271.355	-200.000	-0.054	0.261
-270.340	122.589	0.109	0.134
-269.326	78.039	-0.292	-0.308
-268.311	-200.000	-0.011	0.120
-267.297	40.187	-0.174	0.154
-266.282	-108.569	-0.323	0.068
-265.267	114.967	-0.140	-0.169
-264.253	-81.449	-0.273	-0.089
-263.238	800.000	0.098	0.345
-262.224	-59.094	0.152	-0.065
-261.209	232.879	0.228	-0.369
-260.195	-85.952	-0.093	-0.028
-259.180	65.186	0.227	0.226
-258.165	-160.855	0.381	0.020
-257.151	-95.269	0.224	-0.060
-256.136	-90.186	0.376	0.108
-255.122	800.000	-0.098	0.273
-254.107	-16.100	-0.251	0.158
-253.092	79.503	-0.057	-0.061
-252.078	-76.581	-0.291	0.101
-251.063	95.386	0.063	0.071
-250.049	148.112	-0.055	0.073
-249.034	-103.819	0.174	-0.040
-248.019	-3.341	0.214	-0.147
-247.005	-200.000	-0.057	-0.287
-245.990	-38.506	0.264	-0.137
-244.976	606.481	-0.044	0.109
-243.961	-86.493	-0.214	0.065
-242.946	-200.000	-0.011	0.282
-241.932	271.554	0.135	-0.235
-240.917	-166.668	-0.292	0.012
-239.903	-200.000	-0.028	0.168
-238.888	57.884	-0.313	-0.302
-237.873	99.749	-0.097	-0.111
-236.859	-200.000	0.282	0.001
-235.844	-170.925	0.094	-0.003
-234.830	-152.219	0.257	-0.018
-233.815	-30.925	-0.291	-0.162
-232.800	-76.013	-0.137	-0.048
-231.786	-43.192	0.343	0.171
-230.771	420.149	-0.115	0.244
-229.757	539.919	-0.064	0.150
-228.742	9.628	0.236	-0.176
-227.727	-5.287	-0.254	0.172
-226.713	572.087	0.073	0.175
-225.698	-101.495	-0.262	-0.063
-224.684	622.841	-0.150	-0.373
-223.669	800.000	-0.037	0.131
-222.655	-10.555	0.269	0.176
-221.640	48.018	-0.117	-0.108
-220.625	236.662	-0.045	0.074
-219.611	44.135	-0.101	-0.091
-218.596	335.603	-0.153	0.293
-217.582	152.099	-0.028	0.038
-216.567	-103.698	0.163	0.038
-215.552	-200.000	0.008	0.195
-214.538	-109.786	0.385	-0.080
-213.523	800.000	0.042	-0.160
-212.509	68.276	0.200	0.202
-211.494	251.421	0.113	0.189
-210.479	-42.233	0.023	0.011
-209.465	222.858	-0.035	0.056
-208.450	1.924	-0.072	0.051
-207.436	797.551	0.023	-0.062
-206.421	585.663	0.212	0.512
-205.406	70.020	-0.089	-0.090
-204.392	-200.000	-0.031	-0.151
-203.377	51.876	0.193	-0.181
-202.363	800.000	0.064	0.191
-201.348	-10.973	0.562	0.365
-200.333	800.000	-0.041	0.163
-199.319	-157.949	0.186	0.011
-198.304	-68.711	0.223	-0.085
-197.290	-49.251	-0.194	-0.091
-196.275	400.278	0.101	-0.208
-195.260	-200.000	-0.020	0.240
-194.246	-140.308	0.282	0.029
-193.231	-117.180	0.087	-0.016
-192.217	800.000	0.069	0.224
-191.202	-0.891	-0.256	-0.179
-190.187	-40.750	-0.096	0.049
-189.173	-2.779	0.175	-0.120
-188.158	-12.485	0.058	0.037
-187.144	20.793	-0.311	-0.248
-186.129	-200.000	-0.014	-0.135
-185.114	119.362	-0.043	-0.053
-184.100	90.211	-0.114	-0.125
-183.085	-58.030	-0.160	-0.069
-182.071	124.752	-0.144	0.178
-181.056	88.774	-0.328	-0.359
-180.042	800.000	0.084	-0.260
-179.027	800.000	-0.038	0.130
-178.012	-127.863	0.306	0.043
-176.998	-155.768	0.190	-0.012
-175.983	-200.000	0.030	-0.194
-174.969	-189.994	0.535	0.006
-173.954	160.466	-0.134	0.184
-172.939	-95.400	0.167	0.044
-171.925	-16.802	-0.185	0.115
-170.910	-4.823	-0.114	0.077
-169.896	0.720	0.181	0.127
-168.881	-200.000	-0.048	-0.388
-167.866	-200.000	0.007	0.040
-166.852	101.366	0.145	0.166
-165.837	-157.600	-0.334	0.020
-164.823	327.741	-0.106	0.201
-163.808	66.353	-0.055	-0.055
-162.793	99.769	-0.284	0.323
-161.779	247.407	0.128	-0.213
-160.764	507.424	0.143	0.326
-159.750	800.000	0.108	0.424
-158.735	-200.000	-0.036	0.200
-157.720	119.090	0.071	-0.086
-156.706	-187.756	0.296	0.004
-155.691	-62.599	-0.223	0.091
-154.677	-81.680	-0.166	0.054
-153.662	19.828	-0.141	0.111
-152.647	-133.999	-0.368	0.045
-151.633	111.465	-0.123	-0.146
-150.618	800.000	0.023	0.095
-149.604	-88.985	-0.195	-0.057
-148.589	-111.174	-0.132	0.027
-147.574	4.188	-0.228	0.164
-146.560	204.729	-0.120	0.183
-145.545	90.186	-0.164	-0.180
-144.531	-200.000	-0.001	0.234
-143.516	26.922	-0.267	-0.220
-142.502	31.263	0.082	0.069
-141.487	-94.525	0.167	0.045
-140.472	-105.314	-0.176	0.039
-139.458	-32.809	-0.123	-0.067
-138.443	800.000	0.022	-0.080
-137.429	-200.000	-0.011	-0.057
-136.414	-86.952	0.467	-0.140
-135.399	298.682	0.140	-0.253
-134.385	30.601	-0.102	0.086
-133.370	-109.991	0.427	-0.088
-132.356	-101.465	0.266	-0.063
-131.341	207.629	-0.044	0.067
-130.326	175.209	0.131	-0.186
-129.312	-197.781	-0.191	-0.001
-128.297	-14.386	-0.218	-0.138
-127.283	15.473	0.219	-0.169
-126.268	463.154	-0.095	0.207
-125.253	-144.947	0.180	0.016
-124.239	-77.377	0.079	0.027
-123.224	35.143	0.311	0.267
-122.210	800.000	-0.015	0.041
