DTS Sentinel unit serial number:	SN413079Multiplexer serial number:	ORYXHardware model number:	OX4-SRSoftware version number:	ORYX F/W v4.00 Oryx Data Collector v3.7.2.0data status	okinstallation	princeton_trtdifferential loss correction	single-endedforward channel	channel 2reverse channel	N/Adate	2019/09/15time	15:47:35forward acquisition time	60.00reverse acquisition time	0.00gamma	496.2192k internal	0.2289k external	0.2289temperature offset calibration	0.9950default loss term (dB/km)	0.3790temperature slope calibration	1.0000multiplexer offset coefficient	1.0000multiplexer slope coefficient	1.0000fibre end	0.00T internal ref (°C)	42.02T ext. ref 1 (°C)	5.22T ext. ref 2 (°C)	40.48length (m)	temperature (°C)	Stokes	anti-Stokes-747.200	-152.907	0.204	-0.015
-746.185	59.234	0.284	0.287
-745.171	-89.719	0.140	0.042
-744.156	-62.176	-0.149	0.063
-743.142	-200.000	-0.006	-0.190
-742.127	-200.000	-0.002	0.370
-741.112	-148.096	-0.356	-0.030
-740.098	-200.000	0.049	0.581
-739.083	253.161	-0.147	0.258
-738.069	-200.000	0.066	0.357
-737.054	189.335	-0.113	-0.174
-736.039	73.644	0.114	-0.123
-735.025	-88.103	-0.413	0.127
-734.010	15.831	-0.305	-0.246
-732.996	800.000	-0.038	-0.120
-731.981	259.429	0.066	-0.116
-730.966	54.415	-0.198	-0.195
-729.952	-55.909	-0.144	0.066
-728.937	-17.396	0.267	0.172
-727.923	-82.360	0.255	-0.085
-726.908	-200.000	-0.008	-0.261
-725.894	-101.207	0.127	-0.032
-724.879	-200.000	-0.036	0.296
-723.864	-65.496	0.172	0.071
-722.850	-200.000	0.041	0.283
-721.835	78.117	0.096	0.104
-720.821	-128.826	0.130	-0.019
-719.806	-6.547	-0.126	-0.088
-718.791	-107.267	-0.206	0.046
-717.777	-133.752	0.163	0.021
-716.762	83.988	-0.078	0.087
-715.748	-37.868	-0.203	-0.110
-714.733	-200.000	-0.023	-0.135
-713.718	167.926	-0.058	0.085
-712.704	-200.000	-0.128	-0.000
-711.689	-126.897	0.365	0.055
-710.675	55.209	0.095	-0.094
-709.660	174.092	-0.131	-0.194
-708.645	25.955	-0.104	-0.089
-707.631	638.185	0.084	-0.218
-706.616	497.848	0.080	0.189
-705.602	325.132	0.037	0.072
-704.587	-200.000	-0.018	0.083
-703.572	48.440	-0.130	0.124
-702.558	-143.527	-0.251	-0.024
-701.543	114.849	-0.235	-0.293
-700.529	550.130	0.088	-0.215
-699.514	-57.494	0.067	0.030
-698.499	506.012	-0.112	0.265
-697.485	296.249	-0.074	-0.138
-696.470	-107.352	0.266	-0.060
-695.456	-200.000	-0.030	0.169
-694.441	800.000	-0.107	0.301
-693.426	800.000	-0.080	0.298
-692.412	-97.559	0.121	0.032
-691.397	163.387	-0.198	-0.285
-690.383	-12.732	0.084	0.056
-689.368	-125.949	-0.167	-0.026
-688.354	-92.279	0.124	-0.036
-687.339	-179.589	0.412	-0.009
-686.324	-115.740	0.298	0.057
-685.310	-68.377	0.500	-0.199
-684.295	-45.729	-0.394	-0.199
-683.281	5.272	-0.212	0.160
-682.266	-200.000	-0.046	0.261
-681.251	56.014	-0.158	0.157
-680.237	-54.659	0.265	0.123
-679.222	-61.045	0.261	-0.113
-678.208	423.545	0.030	0.065
-677.193	718.065	0.182	0.495
-676.178	-98.266	-0.407	0.107
-675.164	-2.599	-0.217	-0.155
-674.149	233.772	0.122	0.206
-673.135	-157.054	-0.138	-0.009
-672.120	14.328	-0.261	0.208
-671.105	504.397	0.014	0.033
-670.091	505.899	0.128	-0.302
-669.076	800.000	-0.048	-0.211
-668.062	800.000	-0.067	-0.239
-667.047	-120.015	-0.075	-0.013
-666.032	38.197	-0.332	-0.302
-665.018	279.590	0.138	-0.252
-664.003	176.185	0.172	0.255
-662.989	-87.250	0.215	-0.067
-661.974	174.775	0.250	0.369
-660.959	-98.498	0.220	-0.057
-659.945	25.517	-0.131	0.111
-658.930	-180.583	-0.197	-0.004
-657.916	-135.481	-0.197	-0.024
-656.901	114.480	0.110	-0.136
-655.886	-200.000	-0.066	-0.298
-654.872	-61.850	0.200	-0.085
-653.857	800.000	0.051	-0.171
-652.843	-200.000	-0.174	0.000
-651.828	-48.227	-0.173	0.085
-650.814	604.861	-0.054	-0.138
-649.799	-66.990	0.333	0.134
-648.784	147.841	-0.057	-0.078
-647.770	-85.651	0.283	0.090
-646.755	-41.383	0.122	-0.064
-645.741	-23.512	-0.166	0.101
-644.726	332.645	0.189	0.372
-643.711	-200.000	0.048	0.218
-642.697	-32.149	-0.132	0.075
-641.682	99.491	-0.248	-0.293
-640.668	-200.000	-0.004	-0.104
-639.653	700.970	-0.048	-0.130
-638.638	800.000	-0.029	-0.098
-637.624	149.838	-0.078	0.108
-636.609	-200.000	-0.003	0.245
-635.595	-200.000	0.001	0.138
-634.580	106.044	-0.086	-0.104
-633.565	-200.000	0.034	-0.278
-632.551	-109.094	-0.107	0.023
-631.536	198.855	0.138	0.215
-630.522	-110.236	-0.044	0.009
-629.507	-90.690	-0.215	-0.063
-628.492	37.636	-0.042	-0.038
-627.478	-200.000	-0.010	-0.200
-626.463	70.524	-0.282	0.297
-625.449	-200.000	-0.019	0.193
-624.434	80.951	0.184	0.202
-623.419	-183.795	0.083	-0.001
-622.405	-135.120	0.180	0.022
-621.390	-90.236	0.241	0.072
-620.376	-8.419	0.200	-0.137
-619.361	44.852	-0.157	-0.147
-618.346	212.589	0.112	-0.180
-617.332	435.462	-0.130	-0.287
-616.317	800.000	-0.017	-0.059
-615.303	-110.252	0.304	-0.065
-614.288	-32.868	0.071	0.040
-613.273	800.000	0.036	0.150
-612.259	-48.256	-0.303	0.149
-611.244	-59.195	-0.234	-0.103
-610.230	-96.671	-0.215	-0.058
-609.215	6.806	0.197	0.150
-608.201	114.523	0.062	-0.077
-607.186	-63.300	-0.081	0.034
-606.171	127.338	0.117	0.151
-605.157	313.612	0.129	-0.248
-604.142	-200.000	-0.041	0.252
-603.128	425.960	0.067	0.147
-602.113	-200.000	0.069	0.319
-601.098	174.611	0.026	-0.038
-600.084	-72.498	0.096	0.036
-599.069	199.185	-0.117	0.182
-598.055	446.764	-0.007	0.016
-597.040	5.923	-0.182	0.138
-596.025	-85.898	-0.259	-0.082
-595.011	-48.055	0.128	-0.063
-593.996	-152.567	0.146	-0.011
-592.982	-104.934	-0.315	-0.074
-591.967	16.390	0.131	-0.106
-590.952	-147.688	-0.218	-0.019
-589.938	159.203	0.116	-0.164
-588.923	-200.000	0.031	-0.278
-587.909	-200.000	0.468	-0.000
-586.894	-128.340	0.326	0.047
-585.879	800.000	0.061	0.264
-584.865	-131.217	0.035	0.005
-583.850	79.329	0.196	-0.214
-582.836	800.000	-0.043	0.181
-581.821	-120.399	0.177	-0.031
-580.806	-12.215	-0.370	0.247
-579.792	-200.000	-0.025	-0.193
-578.777	180.744	-0.309	0.462
-577.763	366.567	0.085	-0.175
-576.748	62.970	0.179	-0.182
-575.733	800.000	-0.080	-0.294
-574.719	3.253	0.026	0.019
-573.704	-200.000	0.026	-0.210
-572.690	78.373	-0.137	0.149
-571.675	-200.000	0.029	-0.135
-570.661	-82.211	0.243	-0.081
-569.646	-114.285	0.108	-0.021
-568.631	-112.216	0.124	0.025
-567.617	-200.000	0.038	0.281
-566.602	3.254	0.073	0.054
-565.588	-200.000	0.015	0.076
-564.573	199.875	-0.068	-0.106
-563.558	-54.792	0.175	0.080
-562.544	-13.229	0.133	-0.088
-561.529	-169.326	-0.134	-0.005
-560.515	-200.000	-0.007	0.034
-559.500	-66.281	0.263	-0.106
-558.485	-29.005	-0.146	0.085
-557.471	-56.889	-0.157	0.071
-556.456	17.657	-0.218	-0.177
-555.442	800.000	-0.131	0.467
-554.427	-200.000	0.042	0.286
-553.412	319.851	-0.111	0.214
-552.398	-50.769	-0.125	0.060
-551.383	800.000	0.095	-0.363
-550.369	426.171	-0.061	0.134
-549.354	24.651	-0.104	0.087
-548.339	705.024	0.126	0.337
-547.325	-200.000	0.044	-0.285
-546.310	-200.000	0.025	-0.201
-545.296	-200.000	0.026	0.303
-544.281	108.872	-0.159	-0.193
-543.266	-194.463	0.110	0.001
-542.252	25.537	-0.090	0.076
-541.237	800.000	0.015	0.061
-540.223	751.715	0.145	-0.397
-539.208	800.000	0.064	-0.208
-538.193	-59.648	-0.117	-0.051
-537.179	-112.929	-0.278	0.056
-536.164	-200.000	-0.020	-0.269
-535.150	259.744	0.028	0.050
-534.135	218.227	-0.120	-0.195
-533.121	3.810	0.027	-0.020
-532.106	189.026	0.068	-0.103
-531.091	-22.875	0.277	-0.170
-530.077	-76.917	-0.102	0.036
-529.062	-118.310	0.028	0.005
-528.048	-200.000	-0.041	-0.315
-527.033	106.215	0.127	-0.153
-526.018	406.544	0.119	0.254
-525.004	-200.000	0.000	-0.119
-523.989	-114.196	-0.117	-0.023
-522.975	800.000	0.090	0.306
-521.960	-123.044	0.144	0.023
-520.945	348.827	0.167	0.335
-519.931	800.000	0.015	0.063
-518.916	5.705	0.237	-0.178
-517.902	-85.369	0.336	-0.106
-516.887	67.481	-0.014	0.015
-515.872	-62.651	-0.104	-0.044
-514.858	175.189	-0.194	-0.285
-513.843	16.667	0.225	-0.181
-512.829	-24.984	0.217	-0.130
-511.814	362.141	-0.149	-0.303
-510.799	800.000	-0.121	-0.519
-509.785	-19.253	0.069	0.044
-508.770	-30.050	-0.142	0.082
-507.756	69.024	-0.115	0.120
-506.741	800.000	-0.045	-0.139
-505.726	-76.418	-0.147	-0.052
-504.712	272.063	-0.134	-0.240
-503.697	162.784	-0.169	0.241
-502.683	663.802	-0.105	0.274
-501.668	5.396	0.169	-0.126
-500.653	57.042	0.078	0.077
-499.639	-128.233	0.347	0.050
-498.624	352.307	-0.201	-0.404
-497.610	-111.781	-0.237	-0.049
-496.595	-200.000	-0.003	-0.062
-495.581	800.000	0.059	-0.218
-494.566	244.028	0.241	-0.410
-493.551	323.237	-0.122	-0.235
-492.537	-200.000	-0.007	-0.051
-491.522	79.009	0.123	0.134
-490.508	100.206	0.286	-0.337
-489.493	-162.516	0.223	0.011
-488.478	-99.658	-0.143	0.036
-487.464	-89.998	0.196	0.058
-486.449	-200.000	0.012	-0.334
-485.435	482.412	0.164	-0.379
-484.420	-30.463	0.442	0.254
-483.405	146.722	-0.090	0.123
-482.391	-200.000	-0.038	-0.291
-481.376	-7.806	-0.318	0.218
-480.362	-125.026	0.311	0.049
-479.347	-162.916	-0.345	-0.017
-478.332	730.605	-0.077	0.209
-477.318	-146.176	-0.156	-0.014
-476.303	608.259	0.026	-0.065
-475.289	635.170	-0.044	-0.114
-474.274	-140.118	0.299	-0.032
-473.259	22.462	-0.151	0.126
-472.245	-200.000	-0.028	0.284
-471.230	-200.000	-0.079	0.359
-470.216	388.434	-0.134	-0.281
-469.201	106.631	0.091	0.110
-468.186	-116.426	-0.252	-0.047
-467.172	-200.000	0.016	0.170
-466.157	-200.000	0.003	-0.265
-465.143	169.242	-0.130	-0.188
-464.128	800.000	0.079	0.223
-463.113	321.982	0.111	0.213
-462.099	77.594	0.016	-0.017
-461.084	143.385	-0.143	-0.193
-460.070	600.999	0.058	-0.147
-459.055	800.000	0.077	0.333
-458.040	-3.789	-0.124	-0.087
-457.026	74.599	-0.091	-0.097
-456.011	-23.197	-0.267	0.163
-454.997	-57.145	-0.261	-0.117
-453.982	-68.538	-0.147	0.058
-452.968	-142.349	-0.260	0.026
-451.953	-61.547	-0.075	-0.032
-450.938	-200.000	0.030	0.158
-449.924	-136.903	0.147	-0.017
-448.909	-127.060	-0.078	0.012
-447.895	39.598	0.093	-0.084
-446.880	175.483	0.247	-0.363
-445.865	-113.417	0.136	0.027
-444.851	221.135	-0.140	0.227
-443.836	-200.000	-0.001	-0.008
-442.822	62.768	-0.076	0.077
-441.807	-200.000	-0.044	0.256
-440.792	-95.976	0.212	0.057
-439.778	-114.750	-0.228	0.044
-438.763	-200.000	-0.041	-0.316
-437.749	26.827	-0.243	-0.207
-436.734	800.000	-0.012	-0.033
-435.719	-200.000	-0.053	0.288
-434.705	719.442	-0.092	0.248
-433.690	-95.787	-0.184	-0.050
-432.676	800.000	-0.152	0.486
-431.661	768.368	0.033	0.092
-430.646	22.670	0.136	0.113
-429.632	459.605	0.173	0.390
-428.617	-99.976	-0.021	0.005
-427.603	-160.714	-0.130	0.007
-426.588	-9.081	-0.121	-0.082
-425.573	332.794	-0.077	0.150
-424.559	800.000	0.054	-0.223
-423.544	59.338	-0.226	-0.225
-422.530	129.247	-0.172	-0.223
-421.515	-86.577	0.162	-0.050
-420.500	23.608	-0.186	-0.155
-419.486	381.734	0.087	0.182
-418.471	-96.363	0.154	0.041
-417.457	-200.000	0.020	-0.236
-416.442	308.140	-0.116	0.219
-415.428	-111.407	-0.127	0.026
-414.413	173.489	-0.274	-0.401
-413.398	109.689	-0.079	0.096
-412.384	-67.238	0.383	0.152
-411.369	-89.776	-0.470	0.139
-410.355	-151.999	0.310	0.023
-409.340	-67.943	-0.347	-0.137
-408.325	423.249	-0.098	-0.213
-407.311	-61.819	-0.134	0.057
-406.296	16.786	-0.232	-0.186
-405.282	-200.000	-0.019	-0.121
-404.267	-72.026	-0.182	-0.068
-403.252	386.026	-0.132	-0.276
-402.238	129.072	-0.216	0.279
-401.223	165.063	0.125	0.178
-400.209	800.000	0.017	0.076
-399.194	-125.505	-0.062	0.009
-398.179	490.034	0.066	-0.152
-397.165	-200.000	0.075	0.337
-396.150	-103.821	-0.392	-0.093
-395.136	-200.000	0.036	0.000
-394.121	-71.561	-0.211	-0.080
-393.106	-200.000	-0.166	-0.000
-392.092	366.375	0.084	-0.171
-391.077	-36.720	0.265	-0.144
-390.063	-34.534	-0.140	0.077
-389.048	-200.000	-0.003	0.029
-388.033	392.561	0.117	-0.245
-387.019	162.426	-0.023	0.032
-386.004	800.000	0.181	0.572
-384.990	151.915	0.173	0.238
-383.975	-64.590	0.217	-0.089
-382.960	-145.611	0.236	-0.021
-381.946	278.569	0.084	0.151
-380.931	-30.619	-0.420	-0.241
-379.917	-51.492	0.341	-0.161
-378.902	118.283	-0.196	-0.244
-377.888	-44.291	0.329	-0.167
-376.873	-49.241	-0.126	-0.061
-375.858	100.211	-0.111	-0.130
-374.844	-200.000	0.044	-0.340
-373.829	-200.000	0.021	0.105
-372.815	-127.071	0.283	0.042
-371.800	-21.605	0.135	0.083
-370.785	-109.954	0.299	-0.063
-369.771	25.641	-0.289	0.243
-368.756	-116.782	0.176	-0.033
-367.742	63.350	-0.237	-0.240
-366.727	126.865	-0.047	-0.061
-365.712	-71.659	0.063	0.024
-364.698	-200.000	0.048	-0.425
-363.683	-122.212	0.322	0.053
-362.669	712.194	0.039	0.105
-361.654	-125.744	-0.283	0.043
-360.639	-94.753	0.201	-0.055
-359.625	800.000	0.068	-0.225
-358.610	800.000	-0.041	-0.164
-357.596	-107.458	0.278	0.061
-356.581	-94.869	0.093	0.025
-355.566	800.000	0.068	-0.229
-354.552	-143.576	0.150	-0.014
-353.537	-200.000	-0.045	-0.213
-352.523	190.202	-0.126	-0.191
-351.508	84.197	-0.085	0.093
-350.493	-134.647	-0.037	0.005
-349.479	-65.102	-0.181	-0.074
-348.464	-200.000	0.019	0.131
-347.450	82.916	0.145	0.159
-346.435	7.985	0.288	0.218
-345.420	291.640	0.183	-0.336
-344.406	-16.997	0.274	0.174
-343.391	205.557	0.120	0.189
-342.377	34.802	0.181	0.160
-341.362	109.412	-0.193	0.233
-340.348	75.054	-0.102	0.109
-339.333	-74.381	0.087	0.032
-338.318	-30.491	0.024	0.014
-337.304	-10.259	0.053	0.035
-336.289	301.875	-0.003	0.006
-335.275	-200.000	0.042	-0.210
-334.260	800.000	-0.073	0.262
-333.245	-200.000	0.292	-0.000
-332.231	-99.669	0.059	0.015
-331.216	800.000	-0.112	0.329
-330.202	283.562	0.143	-0.259
-329.187	-130.678	0.458	-0.062
-328.172	132.663	-0.072	-0.093
-327.158	-67.054	0.099	0.039
-326.143	-178.846	-0.084	-0.002
-325.129	9.323	0.103	0.078
-324.114	-200.000	0.052	0.292
-323.099	66.792	0.212	-0.217
-322.085	-74.117	0.121	-0.044
-321.070	-46.645	-0.135	-0.067
-320.056	-35.197	-0.037	-0.020
-319.041	721.277	0.077	0.207
-318.026	240.794	0.029	0.049
-317.012	-7.734	-0.155	0.106
-315.997	184.412	-0.175	-0.261
-314.983	62.844	0.050	0.050
-313.968	162.103	-0.142	-0.201
-312.953	-55.079	0.171	-0.078
-311.939	258.540	-0.073	-0.127
-310.924	-200.000	0.022	0.152
-309.910	800.000	-0.063	-0.213
-308.895	-7.374	0.434	-0.296
-307.880	-85.096	-0.090	-0.028
-306.866	229.801	0.146	0.240
-305.851	67.380	-0.209	0.215
-304.837	-200.000	0.003	-0.097
-303.822	129.466	0.075	0.097
-302.807	-169.570	0.373	0.014
-301.793	203.857	0.104	0.163
-300.778	-200.000	-0.015	-0.077
-299.764	-91.632	0.242	-0.069
-298.749	2.768	0.351	-0.256
-297.735	-35.827	0.199	0.109
-296.720	37.149	0.168	-0.150
-295.705	-94.908	0.344	-0.094
-294.691	62.706	-0.154	-0.156
-293.676	50.181	-0.361	-0.343
-292.662	-200.000	-0.027	-0.382
-291.647	421.641	-0.151	-0.326
-290.632	93.118	-0.110	0.126
-289.618	370.905	-0.050	0.102
-288.603	-200.000	0.237	-0.000
-287.589	-56.072	0.221	0.099
-286.574	571.224	0.069	-0.169
-285.559	139.867	-0.119	-0.157
-284.545	-82.068	-0.217	0.071
-283.530	-169.269	-0.463	-0.017
-282.516	27.589	0.091	-0.077
-281.501	100.323	-0.170	0.199
-280.486	-81.918	0.465	0.153
-279.472	-109.449	-0.099	0.021
-278.457	800.000	0.014	0.051
-277.443	135.362	0.212	0.277
-276.428	800.000	-0.046	-0.196
-275.413	-143.233	-0.222	0.022
-274.399	800.000	-0.063	-0.276
-273.384	709.556	-0.060	0.160
-272.370	3.523	-0.028	-0.021
-271.355	-61.081	-0.029	0.012
-270.340	509.485	-0.031	0.073
-269.326	177.015	-0.153	0.224
-268.311	34.757	0.390	-0.343
-267.297	800.000	0.046	-0.188
-266.282	300.154	-0.061	0.113
-265.267	800.000	-0.055	0.165
-264.253	-5.371	-0.260	0.179
-263.238	132.285	0.158	0.205
-262.224	87.340	-0.089	-0.099
-261.209	800.000	0.058	-0.167
-260.195	116.415	-0.105	-0.129
-259.180	52.542	0.084	-0.081
-258.165	496.193	-0.111	0.258
-257.151	-86.003	-0.427	0.133
-256.136	-200.000	-0.020	0.191
-255.122	-16.994	0.087	0.055
-254.107	250.106	0.080	-0.137
-253.092	-82.573	0.111	-0.036
-252.078	-200.000	-0.034	0.245
-251.063	102.288	0.113	-0.133
-250.049	307.203	-0.077	0.144
-249.034	-200.000	-0.056	-0.292
-248.019	49.353	0.047	0.044
-247.005	-43.311	0.269	-0.137
-245.990	-200.000	0.024	0.186
-244.976	197.055	0.051	0.079
-243.961	-200.000	-0.007	-0.072
-242.946	-57.316	-0.351	0.155
-241.932	119.565	-0.092	0.115
-240.917	800.000	-0.058	0.164
-239.903	41.027	-0.088	-0.080
-238.888	80.299	-0.030	-0.032
-237.873	800.000	-0.177	-0.648
-236.859	-200.000	-0.010	0.261
-235.844	-101.736	0.439	0.107
-234.830	-43.071	-0.347	0.177
-233.815	138.521	0.128	0.169
-232.800	205.448	-0.057	0.089
-231.786	79.520	-0.168	-0.181
-230.771	-200.000	0.015	0.095
-229.757	-124.429	-0.248	-0.039
-228.742	-193.229	0.234	-0.002
-227.727	-147.079	-0.132	0.011
-226.713	-104.498	-0.051	0.012
-225.698	-200.000	-0.079	0.357
-224.684	98.998	-0.110	0.128
-223.669	-36.228	0.161	-0.087
-222.655	376.412	0.075	-0.154
-221.640	-200.000	-0.008	0.135
-220.625	-200.000	0.003	-0.105
-219.611	58.945	0.073	0.072
-218.596	669.731	-0.113	0.295
-217.582	-54.126	-0.128	0.058
-216.567	1.059	0.225	0.162
-215.552	696.926	-0.095	0.251
-214.538	-32.776	-0.207	0.116
-213.523	18.159	-0.143	-0.114
-212.509	-18.364	0.084	0.053
-211.494	-58.842	-0.305	-0.133
-210.479	588.422	-0.186	0.460
-209.465	-200.000	0.004	0.270
-208.450	48.118	-0.076	0.071
-207.436	-1.192	-0.035	-0.025
-206.421	43.877	0.087	-0.080
-205.406	29.163	-0.358	-0.305
-204.392	-42.945	-0.291	0.148
-203.377	146.560	-0.149	0.200
-202.363	91.121	0.094	0.106
-201.348	46.470	-0.138	0.128
-200.333	-102.366	-0.160	-0.038
-199.319	-132.528	0.161	0.021
-198.304	40.522	-0.216	0.195
-197.290	-172.966	0.135	0.004
-196.275	17.132	0.049	0.039
-195.260	-60.123	-0.106	-0.045
-194.246	-69.524	0.333	-0.128
-193.231	-200.000	0.021	0.201
-192.217	800.000	-0.034	0.128
-191.202	29.029	-0.194	-0.165
-190.187	800.000	0.026	-0.085
-189.173	-200.000	-0.020	0.169
-188.158	45.286	-0.228	0.211
-187.144	153.772	-0.083	0.114
-186.129	-49.212	-0.233	0.112
-185.114	800.000	-0.023	0.097
-184.100	-25.354	0.291	0.172
-183.085	800.000	0.072	0.208
-182.071	-54.466	-0.268	-0.122
-181.056	800.000	-0.103	-0.375
-180.042	-56.234	-0.201	-0.090
-179.027	665.910	0.095	0.245
-178.012	117.389	0.097	0.119
-176.998	-19.239	-0.207	0.129
-175.983	441.055	-0.109	-0.238
-174.969	-47.849	0.147	0.071
-173.954	87.003	0.198	-0.220
-172.939	299.387	0.155	0.287
-171.925	-200.000	-0.036	0.180
-170.910	287.038	-0.086	-0.155
-169.896	-2.277	-0.227	0.160
-168.881	-49.150	-0.213	-0.102
-167.866	-113.566	-0.097	0.019
-166.852	-82.078	0.332	-0.109
-165.837	-132.566	0.020	0.003
-164.823	269.856	-0.077	-0.135
-163.808	800.000	-0.045	-0.165
-162.793	-200.000	0.077	0.414
-161.779	-40.873	0.326	-0.169
-160.764	250.995	0.104	-0.178
-159.750	-200.000	0.008	0.053
-158.735	-27.770	0.284	0.165
-157.720	52.050	0.069	0.066
-156.706	800.000	-0.053	0.199
-155.691	-33.357	0.232	-0.129
-154.677	789.594	0.100	-0.276
-153.662	-200.000	0.017	-0.101
-152.647	-20.153	-0.201	0.124
-151.633	-41.011	-0.057	-0.029
-150.618	-31.048	0.169	0.095
-149.604	-158.370	0.128	0.007
-148.589	253.403	0.135	0.231
-147.574	75.438	-0.093	0.098
-146.560	800.000	0.087	-0.380
-145.545	-157.880	0.135	0.008
-144.531	27.139	0.234	-0.196
-143.516	747.914	0.174	-0.471
-142.502	417.341	-0.080	0.171
-141.487	-8.104	-0.127	0.086
-140.472	-200.000	0.051	-0.242
-139.458	-193.108	-0.084	0.001
-138.443	-104.841	0.176	0.041
-137.429	-2.240	0.049	-0.034
-136.414	59.270	0.341	0.336
-135.399	800.000	-0.064	0.229
-134.385	117.187	0.302	-0.371
-133.370	416.633	-0.102	-0.217
-132.356	649.569	-0.095	0.244
-131.341	-73.880	0.203	0.074
-130.326	-200.000	0.001	-0.105
-129.312	66.778	0.102	0.104
-128.297	-200.000	0.016	0.173
-127.283	325.893	0.092	-0.176
-126.268	307.861	-0.134	0.249
-125.253	97.821	0.207	0.238
-124.239	150.137	0.247	0.335
-123.224	-26.799	-0.246	0.144
-122.210	-200.000	-0.004	0.241
-121.195	-95.753	0.208	0.056
-120.180	139.309	-0.128	0.169
