DTS Sentinel unit serial number:	SN413079Multiplexer serial number:	ORYXHardware model number:	OX4-SRSoftware version number:	ORYX F/W v4.00 Oryx Data Collector v3.7.2.0data status	okinstallation	princeton_trtdifferential loss correction	single-endedforward channel	channel 2reverse channel	N/Adate	2019/09/15time	04:55:35forward acquisition time	60.00reverse acquisition time	0.00gamma	496.2192k internal	0.2326k external	0.2326temperature offset calibration	1.0040default loss term (dB/km)	0.3790temperature slope calibration	1.0000multiplexer offset coefficient	1.0000multiplexer slope coefficient	1.0000fibre end	0.00T internal ref (°C)	30.75T ext. ref 1 (°C)	4.83T ext. ref 2 (°C)	25.21length (m)	temperature (°C)	Stokes	anti-Stokes-747.200	789.933	0.047	0.131
-746.185	171.218	-0.119	-0.172
-745.171	268.616	-0.180	0.319
-744.156	-46.535	-0.315	0.156
-743.142	44.326	0.131	0.121
-742.127	-200.000	0.004	0.151
-741.112	-37.081	-0.219	0.118
-740.098	27.366	0.375	0.318
-739.083	-16.502	-0.093	0.060
-738.069	279.378	-0.210	0.377
-737.054	-200.000	-0.027	0.357
-736.039	800.000	-0.115	-0.431
-735.025	800.000	0.031	0.093
-734.010	791.208	0.050	-0.139
-732.996	-37.065	-0.092	-0.050
-731.981	38.500	-0.370	-0.333
-730.966	480.806	-0.063	-0.145
-729.952	-15.348	-0.169	0.109
-728.937	-106.965	-0.115	-0.026
-727.923	46.582	-0.195	-0.182
-726.908	-109.759	0.172	-0.036
-725.894	-176.189	-0.180	0.005
-724.879	22.482	-0.082	-0.068
-723.864	-92.614	0.317	-0.090
-722.850	-28.173	-0.080	-0.046
-721.835	-76.828	0.285	0.101
-720.821	88.607	-0.160	0.179
-719.806	214.344	-0.068	0.108
-718.791	73.454	-0.177	-0.187
-717.777	800.000	0.072	0.214
-716.762	-136.761	-0.431	-0.050
-715.748	800.000	0.079	-0.222
-714.733	-200.000	-0.037	-0.383
-713.718	-16.004	0.176	-0.113
-712.704	90.311	0.157	0.177
-711.689	-22.169	0.214	-0.131
-710.675	-44.826	0.177	0.089
-709.660	179.971	0.160	-0.236
-708.645	-40.755	0.223	0.117
-707.631	709.336	-0.153	-0.408
-706.616	10.297	0.231	0.177
-705.602	-200.000	-0.028	0.176
-704.587	31.720	-0.088	-0.077
-703.572	224.226	-0.102	0.166
-702.558	351.336	0.159	-0.316
-701.543	-177.243	-0.130	-0.003
-700.529	-118.570	-0.460	0.082
-699.514	-85.201	-0.178	-0.056
-698.499	800.000	-0.051	0.224
-697.485	757.939	0.017	-0.047
-696.470	-200.000	0.035	-0.236
-695.456	168.114	0.133	0.190
-694.441	-200.000	-0.035	-0.332
-693.426	-172.369	0.064	-0.002
-692.412	390.992	-0.123	-0.256
-691.397	50.150	-0.068	-0.064
-690.383	199.027	-0.150	0.231
-689.368	158.424	0.042	-0.059
-688.354	453.164	-0.111	-0.247
-687.339	800.000	0.020	0.087
-686.324	381.844	-0.101	-0.210
-685.310	-13.916	0.218	-0.142
-684.295	800.000	0.061	0.192
-683.281	800.000	-0.092	-0.327
-682.266	800.000	0.069	0.210
-681.251	575.054	0.073	0.179
-680.237	141.358	-0.093	0.124
-679.222	800.000	0.049	-0.186
-678.208	-16.308	0.234	0.149
-677.193	153.684	-0.223	-0.307
-676.178	-133.845	0.270	0.034
-675.164	87.799	-0.092	0.103
-674.149	-200.000	0.048	0.315
-673.135	-65.289	-0.146	-0.059
-672.120	322.156	-0.093	0.179
-671.105	111.726	-0.083	0.101
-670.091	800.000	0.093	0.306
-669.076	-200.000	0.019	-0.242
-668.062	-155.540	0.188	-0.012
-667.047	291.712	0.186	-0.340
-666.032	800.000	0.026	0.078
-665.018	739.409	0.119	-0.320
-664.003	-73.533	0.379	0.139
-662.989	-103.592	-0.292	-0.069
-661.974	-89.636	0.083	-0.024
-660.959	-141.195	-0.103	-0.011
-659.945	329.559	-0.155	0.300
-658.930	-200.000	0.027	-0.144
-657.916	-31.933	0.079	-0.045
-656.901	-96.818	0.245	0.065
-655.886	-144.653	0.153	0.014
-654.872	283.667	-0.112	0.202
-653.857	384.727	-0.127	-0.262
-652.843	168.188	0.131	-0.188
-651.828	31.026	-0.180	0.155
-650.814	-133.145	0.316	0.040
-649.799	-45.133	-0.194	0.097
-648.784	-77.056	0.121	0.042
-647.770	800.000	-0.018	-0.059
-646.755	65.712	-0.087	0.088
-645.741	800.000	0.116	0.409
-644.726	800.000	0.061	-0.259
-643.711	-200.000	-0.008	-0.129
-642.697	-56.475	0.064	-0.028
-641.682	69.944	-0.039	-0.040
-640.668	-110.370	-0.047	-0.010
-639.653	-200.000	-0.016	-0.098
-638.638	223.991	-0.084	0.136
-637.624	-47.990	0.057	-0.027
-636.609	-134.507	0.405	0.050
-635.595	508.093	-0.119	-0.277
-634.580	735.463	0.005	0.014
-633.565	-98.740	-0.368	-0.094
-632.551	96.910	-0.037	-0.042
-631.536	510.217	-0.071	-0.165
-630.522	78.040	0.263	-0.281
-629.507	-200.000	0.011	-0.268
-628.492	113.598	0.180	0.219
-627.478	-200.000	-0.042	0.254
-626.463	84.067	-0.196	0.215
-625.449	-45.652	0.085	-0.042
-624.434	-200.000	-0.011	-0.302
-623.419	-111.504	-0.199	-0.041
-622.405	27.618	0.118	-0.100
-621.390	-43.574	-0.229	0.116
-620.376	233.299	-0.102	-0.168
-619.361	-12.697	0.145	0.095
-618.346	-139.409	-0.332	0.036
-617.332	-107.121	0.228	0.051
-616.317	-184.919	-0.149	-0.002
-615.303	414.911	-0.200	-0.428
-614.288	-200.000	-0.002	-0.009
-613.273	-116.384	-0.397	0.074
-612.259	243.377	-0.072	-0.120
-611.244	89.411	-0.128	0.143
-610.230	-145.494	0.199	-0.018
-609.215	-200.000	-0.023	-0.190
-608.201	800.000	-0.040	-0.121
-607.186	-200.000	-0.035	-0.365
-606.171	-125.390	0.255	0.039
-605.157	22.898	0.251	-0.207
-604.142	-200.000	-0.007	0.063
-603.128	-144.835	0.298	0.027
-602.113	-0.328	0.134	0.096
-601.098	0.548	0.180	-0.129
-600.084	231.232	-0.107	-0.176
-599.069	800.000	0.028	-0.096
-598.055	46.508	0.207	0.193
-597.040	734.887	-0.047	-0.125
-596.025	77.384	0.064	-0.068
-595.011	606.846	-0.058	-0.145
-593.996	-22.723	0.097	0.059
-592.982	-121.497	-0.244	-0.041
-591.967	-104.701	-0.431	0.100
-590.952	78.602	0.109	-0.117
-589.938	0.414	-0.174	0.125
-588.923	-143.400	-0.194	-0.019
-587.909	-120.601	0.244	-0.041
-586.894	800.000	0.051	0.156
-585.879	246.303	-0.135	-0.228
-584.865	-200.000	-0.061	-0.499
-583.850	-105.365	-0.348	-0.079
-582.836	-20.566	-0.156	0.096
-581.821	-156.567	-0.284	0.018
-580.806	-128.448	-0.245	-0.035
-579.792	-169.645	-0.270	0.010
-578.777	-14.006	0.143	-0.093
-577.763	800.000	-0.157	0.467
-576.748	-200.000	-0.035	0.257
-575.733	117.970	0.155	-0.192
-574.719	-24.769	-0.227	0.135
-573.704	285.110	-0.162	-0.292
-572.690	42.752	0.188	-0.172
-571.675	82.811	-0.184	0.201
-570.661	171.628	0.086	-0.124
-569.646	489.584	0.116	0.266
-568.631	800.000	-0.084	-0.232
-567.617	-72.188	0.287	0.107
-566.602	-177.644	-0.096	0.002
-565.588	133.659	-0.066	-0.085
-564.573	-60.900	0.141	0.060
-563.558	800.000	0.080	-0.291
-562.544	-200.000	0.017	0.122
-561.529	-70.613	-0.104	-0.039
-560.515	322.640	0.127	-0.243
-559.500	-200.000	-0.025	0.202
-558.485	144.856	-0.160	-0.214
-557.471	-200.000	0.043	0.224
-556.456	-17.425	0.178	-0.112
-555.442	417.698	0.058	-0.124
-554.427	-118.287	0.248	-0.044
-553.412	32.546	0.116	-0.100
-552.398	-200.000	-0.072	-0.331
-551.383	-200.000	0.008	-0.435
-550.369	-82.770	0.070	-0.023
-549.354	179.200	0.179	-0.262
-548.339	83.560	-0.174	0.190
-547.325	637.664	0.123	0.312
-546.310	-76.331	0.304	0.107
-545.296	98.608	0.159	0.184
-544.281	-132.199	0.127	-0.016
-543.266	-200.000	0.041	-0.292
-542.252	-100.777	-0.140	0.035
-541.237	-200.000	-0.051	-0.260
-540.223	-66.500	0.123	-0.049
-539.208	-2.886	-0.210	0.147
-538.193	48.997	-0.149	0.140
-537.179	304.813	0.089	-0.166
-536.164	-200.000	-0.005	0.144
-535.150	654.664	0.019	0.049
-534.135	-200.000	-0.005	0.141
-533.121	5.086	0.208	-0.153
-532.106	-50.264	0.293	0.138
-531.091	-5.827	0.130	0.089
-530.077	528.509	0.067	-0.157
-529.062	-114.683	-0.267	0.051
-528.048	-142.694	-0.316	0.031
-527.033	45.734	0.083	0.077
-526.018	32.296	-0.096	-0.083
-525.004	-96.949	0.315	0.082
-523.989	-147.583	0.443	0.037
-522.975	8.268	0.370	-0.278
-521.960	98.028	0.147	-0.169
-520.945	-52.264	-0.053	0.025
-519.931	173.393	-0.235	-0.339
-518.916	800.000	-0.062	0.259
-517.902	160.277	0.010	0.014
-516.887	-74.010	0.214	0.077
-515.872	-200.000	0.014	-0.245
-514.858	-92.237	-0.176	-0.050
-513.843	-92.024	-0.193	0.055
-512.829	79.388	0.068	0.073
-511.814	-55.214	-0.290	0.130
-510.799	-55.627	-0.030	0.014
-509.785	151.087	-0.113	0.153
-508.770	386.526	-0.055	0.114
-507.756	-162.682	0.247	0.012
-506.741	83.150	-0.100	-0.109
-505.726	800.000	-0.041	0.117
-504.712	-200.000	0.001	0.246
-503.697	-99.375	-0.043	-0.011
-502.683	-18.472	0.306	0.191
-501.668	-78.301	-0.226	-0.078
-500.653	8.476	-0.316	0.238
-499.639	23.537	0.081	0.067
-498.624	-73.440	-0.187	-0.068
-497.610	-200.000	0.092	0.428
-496.595	-200.000	0.021	0.130
-495.581	-200.000	0.052	0.292
-494.566	655.653	0.131	0.336
-493.551	10.333	0.295	0.224
-492.537	38.953	-0.271	0.242
-491.522	52.141	0.094	0.089
-490.508	-200.000	0.032	0.170
-489.493	-101.574	-0.426	0.103
-488.478	-130.368	-0.058	-0.008
-487.464	-31.630	0.066	-0.037
-486.449	-136.691	-0.165	-0.019
-485.435	25.865	0.133	-0.110
-484.420	-200.000	-0.010	0.052
-483.405	-170.144	0.142	0.005
-482.391	-122.143	-0.137	0.022
-481.376	76.884	-0.209	0.221
-480.362	236.897	0.163	0.270
-479.347	151.157	-0.207	0.281
-478.332	-102.027	-0.100	-0.024
-477.318	800.000	0.114	-0.357
-476.303	-200.000	0.029	-0.231
-475.289	-200.000	-0.004	0.265
-474.274	-52.138	-0.345	-0.160
-473.259	98.003	-0.167	-0.192
-472.245	55.766	-0.229	-0.222
-471.230	3.117	-0.094	-0.068
-470.216	611.898	0.084	-0.209
-469.201	-200.000	0.001	0.288
-468.186	-191.827	0.168	0.002
-467.172	421.783	-0.137	-0.293
-466.157	-131.577	0.155	-0.020
-465.143	-83.410	0.119	-0.038
-464.128	-129.775	-0.167	-0.023
-463.113	-150.246	-0.300	-0.023
-462.099	-48.986	0.305	-0.145
-461.084	-50.728	0.116	0.054
-460.070	94.065	-0.219	-0.248
-459.055	588.578	0.009	-0.021
-458.040	136.641	-0.176	-0.229
-457.026	278.093	-0.072	-0.127
-456.011	-64.509	-0.036	0.015
-454.997	-18.937	0.318	-0.198
-453.982	55.366	-0.234	0.225
-452.968	-200.000	-0.048	-0.234
-451.953	-65.730	0.294	0.117
-450.938	145.155	-0.200	-0.267
-449.924	-54.158	0.086	-0.039
-448.909	-200.000	-0.027	0.136
-447.895	-55.901	0.086	-0.038
-446.880	-20.664	0.221	-0.135
-445.865	-200.000	0.032	0.139
-444.851	264.675	0.096	-0.166
-443.836	800.000	-0.072	0.236
-442.822	318.178	0.212	0.401
-441.807	56.276	0.203	-0.197
-440.792	638.887	-0.078	0.196
-439.778	1.150	-0.206	-0.147
-438.763	-200.000	0.061	-0.430
-437.749	-139.908	-0.340	-0.036
-436.734	-200.000	-0.002	0.085
-435.719	800.000	0.107	-0.349
-434.705	800.000	-0.021	0.076
-433.690	91.793	0.106	-0.119
-432.676	-20.711	0.302	-0.184
-431.661	-13.342	-0.122	0.079
-430.646	-44.629	0.189	-0.094
-429.632	10.865	-0.245	-0.187
-428.617	-95.584	0.281	0.075
-427.603	38.396	0.176	-0.156
-426.588	12.006	0.078	0.059
-425.573	-66.179	0.213	-0.084
-424.559	-44.991	-0.328	-0.163
-423.544	-83.590	0.299	0.095
-422.530	350.567	0.004	0.007
-421.515	7.004	-0.235	0.175
-420.500	11.359	0.071	0.054
-419.486	87.784	0.153	0.169
-418.471	50.255	-0.150	0.141
-417.457	-34.083	0.257	-0.141
-416.442	-200.000	0.008	-0.116
-415.428	129.766	0.096	-0.122
-414.413	800.000	0.033	0.092
-413.398	-78.020	0.225	0.077
-412.384	-23.770	0.171	-0.102
-411.369	800.000	-0.103	-0.447
-410.355	52.614	0.049	-0.046
-409.340	-69.759	-0.193	0.074
-408.325	241.734	-0.020	0.033
-407.311	-200.000	0.038	-0.305
-406.296	-62.056	-0.482	0.200
-405.282	-200.000	0.030	-0.194
-404.267	-5.623	-0.429	-0.293
-403.252	165.907	-0.103	0.145
-402.238	660.416	0.066	-0.170
-401.223	-200.000	0.043	0.284
-400.209	147.308	-0.135	-0.181
-399.194	-200.000	0.000	0.119
-398.179	292.727	0.184	-0.334
-397.165	79.019	0.106	0.113
-396.150	12.275	-0.107	0.082
-395.136	42.046	-0.085	-0.077
-394.121	-200.000	0.008	0.382
-393.106	-72.387	-0.214	0.079
-392.092	-50.521	0.247	0.116
-391.077	-143.341	-0.363	0.035
-390.063	46.652	-0.074	0.068
-389.048	15.239	0.218	-0.170
-388.033	33.076	-0.174	0.150
-387.019	-200.000	-0.048	0.224
-386.004	-127.974	-0.185	-0.026
-384.990	-73.356	-0.144	-0.052
-383.975	-200.000	0.020	-0.278
-382.960	-82.010	-0.134	-0.044
-381.946	-200.000	0.021	0.105
-380.931	24.921	-0.069	-0.057
-379.917	-49.318	-0.129	-0.061
-378.902	77.107	-0.269	-0.284
-377.888	-200.000	0.075	0.342
-376.873	-97.936	0.114	0.029
-375.858	-131.947	-0.055	-0.007
-374.844	-16.348	0.470	0.296
-373.829	406.550	-0.089	0.187
-372.815	461.970	0.118	-0.262
-371.800	93.491	-0.209	0.235
-370.785	-200.000	-0.025	0.428
-369.771	731.383	0.162	0.431
-368.756	-25.525	0.447	0.263
-367.742	-127.929	0.167	-0.024
-366.727	-113.573	0.098	0.019
-365.712	-69.391	-0.299	0.114
-364.698	-144.702	-0.185	-0.017
-363.683	-200.000	0.026	-0.169
-362.669	34.880	0.094	-0.081
-361.654	-146.698	0.324	0.028
-360.639	280.390	-0.242	-0.430
-359.625	-47.499	-0.333	-0.161
-358.610	-129.202	-0.267	0.037
-357.596	-186.705	-0.267	-0.004
-356.581	13.758	-0.173	0.133
-355.566	47.600	0.166	0.154
-354.552	-200.000	0.011	0.119
-353.537	20.809	0.238	0.191
-352.523	-175.301	-0.174	0.005
-351.508	97.236	0.183	0.209
-350.493	263.108	0.108	-0.186
-349.479	-118.209	-0.674	0.119
-348.464	800.000	0.074	-0.277
-347.450	38.307	0.157	-0.139
-346.435	-51.329	-0.277	0.129
-345.420	800.000	0.081	-0.241
-344.406	-105.477	-0.344	-0.078
-343.391	386.204	-0.088	0.180
-342.377	554.337	-0.056	-0.134
-341.362	800.000	-0.086	0.237
-340.348	19.258	-0.229	0.183
-339.333	196.108	0.244	-0.369
-338.318	-53.258	0.114	-0.052
-337.304	73.163	0.058	-0.061
-336.289	102.951	0.166	0.193
-335.275	-4.407	-0.160	-0.109
-334.260	5.298	0.285	0.209
-333.245	-11.638	0.376	0.245
-332.231	577.139	-0.099	0.241
-331.216	-200.000	-0.003	-0.105
-330.202	14.828	0.169	0.131
-329.187	57.546	0.247	0.239
-328.172	800.000	-0.137	0.394
-327.158	55.688	-0.186	-0.179
-326.143	24.534	0.029	-0.023
-325.129	64.721	0.158	-0.158
-324.114	-65.910	0.028	-0.011
-323.099	138.534	0.100	0.130
-322.085	67.314	-0.154	0.156
-321.070	-76.675	0.354	-0.123
-320.056	-146.682	0.114	0.010
-319.041	-43.141	0.243	0.122
-318.026	-103.386	-0.280	-0.065
-317.012	4.318	0.141	0.103
-315.997	-78.362	0.313	-0.107
-314.983	-200.000	0.012	0.227
-313.968	516.424	-0.063	-0.147
-312.953	13.909	0.212	-0.163
-311.939	45.005	-0.225	0.206
-310.924	259.626	-0.228	0.391
-309.910	-200.000	0.310	-0.001
-308.895	-95.444	-0.039	-0.010
-307.880	592.579	0.139	0.340
-306.866	6.209	-0.066	0.048
-305.851	481.877	0.224	-0.504
-304.837	-103.402	-0.363	0.085
-303.822	-56.965	-0.054	0.024
-302.807	800.000	-0.101	-0.317
-301.793	-15.816	0.010	-0.006
-300.778	-128.226	0.186	-0.026
-299.764	-200.000	0.006	0.121
-298.749	513.217	-0.062	-0.142
-297.735	184.798	0.156	-0.229
-296.720	80.903	0.208	-0.222
-295.705	133.667	-0.221	0.283
-294.691	-56.876	-0.217	-0.095
-293.676	-93.171	0.229	-0.063
-292.662	800.000	-0.025	0.081
-291.647	-71.218	-0.100	-0.037
-290.632	-182.937	-0.258	0.005
-289.618	-198.788	0.138	0.001
-288.603	-39.812	0.375	-0.194
-287.589	-200.000	0.053	-0.281
-286.574	-102.426	0.169	0.040
-285.559	800.000	-0.084	-0.315
-284.545	-66.757	0.253	-0.099
-283.530	337.887	0.129	-0.249
-282.516	113.590	0.254	0.305
-281.501	-27.370	0.115	0.066
-280.486	-200.000	-0.003	0.150
-279.472	21.534	-0.158	0.128
-278.457	234.328	0.086	-0.140
-277.443	-200.000	-0.011	0.071
-276.428	-200.000	-0.005	-0.113
-275.413	2.434	0.155	0.111
-274.399	281.523	-0.174	-0.308
-273.384	152.014	0.172	-0.232
-272.370	-11.599	0.158	0.103
-271.355	-55.756	0.214	-0.095
-270.340	191.458	0.093	-0.138
-269.326	-200.000	0.015	-0.192
-268.311	-148.848	0.253	0.020
-267.297	717.331	0.017	-0.044
-266.282	168.970	0.216	0.305
-265.267	-36.466	0.081	0.043
-264.253	-200.000	0.068	0.307
-263.238	-148.337	0.223	0.018
-262.224	-71.435	-0.064	-0.024
-261.209	199.269	0.128	0.194
-260.195	800.000	0.037	-0.141
-259.180	-48.260	0.321	0.153
-258.165	-73.244	0.296	-0.107
-257.151	78.746	-0.098	0.103
-256.136	747.919	0.119	0.317
-255.122	-200.000	-0.039	0.202
-254.107	-200.000	-0.015	0.096
-253.092	-81.352	0.292	-0.095
-252.078	116.942	0.077	-0.093
-251.063	19.692	-0.268	-0.214
-250.049	352.493	0.030	0.058
-249.034	-200.000	0.052	0.344
-248.019	54.020	0.224	-0.213
-247.005	-121.295	-0.048	0.008
-245.990	181.490	-0.026	-0.038
-244.976	123.582	0.100	0.124
-243.961	658.413	0.144	0.366
-242.946	-58.721	-0.432	-0.185
-241.932	-22.370	-0.220	0.132
-240.917	125.929	0.123	0.154
-239.903	-62.599	-0.386	-0.158
-238.888	-72.586	0.310	-0.113
-237.873	-61.482	-0.303	0.126
-236.859	-34.297	0.286	-0.155
-235.844	483.376	0.048	0.108
-234.830	6.969	0.122	0.090
-233.815	800.000	-0.077	0.255
-232.800	659.113	-0.026	-0.067
-231.786	-174.545	-0.198	0.006
-230.771	396.505	0.075	0.154
-229.757	-149.998	-0.067	0.005
-228.742	-114.045	-0.355	0.068
-227.727	175.729	-0.212	-0.304
-226.713	10.648	-0.147	0.110
-225.698	39.492	-0.087	0.077
-224.684	1.142	0.165	0.117
-223.669	142.959	-0.085	-0.111
-222.655	-200.000	0.007	-0.071
-221.640	-69.416	0.077	-0.029
-220.625	-65.578	-0.360	0.143
-219.611	-109.238	-0.153	0.032
-218.596	282.219	-0.160	-0.283
-217.582	-73.770	0.148	0.053
-216.567	-200.000	-0.054	-0.365
-215.552	8.521	0.113	-0.084
-214.538	-34.188	0.104	0.057
-213.523	-123.027	0.204	-0.032
-212.509	-200.000	-0.010	-0.062
-211.494	800.000	0.086	-0.239
-210.479	-52.799	-0.280	-0.127
-209.465	505.816	-0.057	-0.130
-208.450	-165.222	-0.319	-0.014
-207.436	36.913	-0.172	0.150
-206.421	-19.186	0.165	-0.101
-205.406	-200.000	-0.030	0.203
-204.392	-100.382	0.327	0.080
-203.377	10.485	-0.369	0.278
-202.363	152.834	0.116	-0.157
-201.348	-62.065	0.347	-0.143
-200.333	-9.777	-0.201	-0.132
-199.319	-151.962	-0.170	0.012
-198.304	59.540	0.209	-0.203
-197.290	38.857	0.092	0.081
-196.275	115.601	0.101	0.122
-195.260	-108.668	-0.066	0.014
-194.246	-14.530	-0.277	0.176
-193.231	-8.081	-0.102	0.068
-192.217	-108.746	-0.377	-0.080
-191.202	24.023	0.091	0.074
-190.187	269.703	-0.088	0.153
-189.173	348.379	-0.112	0.218
-188.158	247.694	-0.146	0.244
-187.144	800.000	-0.111	-0.340
-186.129	-200.000	-0.016	0.243
-185.114	-154.490	-0.042	0.003
-184.100	-200.000	-0.016	0.186
-183.085	800.000	0.099	-0.276
-182.071	800.000	0.103	0.311
-181.056	-75.302	-0.143	-0.050
-180.042	7.669	0.063	0.047
-179.027	288.394	-0.079	0.141
-178.012	-17.350	-0.163	0.101
-176.998	-200.000	-0.026	0.312
-175.983	800.000	0.015	-0.043
-174.969	15.562	-0.052	-0.040
-173.954	233.695	-0.052	-0.085
-172.939	-57.730	0.232	0.100
-171.925	-96.936	-0.107	0.028
-170.910	800.000	0.072	0.252
-169.896	-150.599	-0.203	-0.015
-168.881	33.466	0.130	-0.112
-167.866	-55.905	-0.090	0.039
-166.852	800.000	-0.083	0.281
-165.837	69.288	-0.117	-0.118
-164.823	800.000	-0.106	0.296
-163.808	185.630	-0.155	0.226
-162.793	-200.000	0.063	-0.277
-161.779	-71.833	0.155	-0.057
-160.764	800.000	0.064	0.255
-159.750	59.244	-0.009	-0.009
-158.735	117.167	0.206	-0.249
-157.720	-181.810	0.541	-0.010
-156.706	-200.000	-0.065	0.416
-155.691	-38.606	-0.328	-0.171
-154.677	353.480	0.052	-0.102
-153.662	-101.442	0.251	-0.060
-152.647	695.457	0.081	-0.210
-151.633	-200.000	0.001	-0.039
-150.618	293.087	-0.131	-0.236
-149.604	-52.558	-0.125	0.057
-148.589	-108.462	0.207	0.044
-147.574	-106.856	0.176	0.038
-146.560	-9.979	0.235	0.154
-145.545	23.895	-0.355	0.288
-144.531	800.000	-0.123	-0.397
-143.516	800.000	0.113	-0.323
-142.502	247.727	0.075	-0.125
-141.487	-56.305	0.127	-0.056
-140.472	122.533	-0.047	0.058
-139.458	-200.000	-0.007	-0.211
-138.443	-200.000	-0.053	0.250
-137.429	-200.000	-0.016	0.230
-136.414	-200.000	0.272	0.001
-135.399	-101.363	-0.253	-0.061
-134.385	1.388	-0.051	-0.036
-133.370	-128.471	-0.277	-0.039
-132.356	454.180	0.067	-0.146
-131.341	-200.000	0.024	-0.144
-130.326	342.698	-0.150	0.290
-129.312	641.469	0.073	0.183
-128.297	-200.000	0.003	-0.066
-127.283	12.152	0.026	0.020
-126.268	-54.048	-0.217	0.097
-125.253	414.806	0.117	0.245
-124.239	77.143	0.061	-0.064
-123.224	-93.692	-0.225	-0.061
-122.210	7.270	-0.204	0.150
-121.195	-170.594	0.282	-0.010
-120.180	71.458	0.221	0.226
