DTS Sentinel unit serial number:	SN413079Multiplexer serial number:	ORYXHardware model number:	OX4-SRSoftware version number:	ORYX F/W v4.00 Oryx Data Collector v3.7.2.0data status	okinstallation	princeton_trtdifferential loss correction	single-endedforward channel	channel 2reverse channel	N/Adate	2019/09/15time	10:27:35forward acquisition time	60.00reverse acquisition time	0.00gamma	496.2192k internal	0.2316k external	0.2316temperature offset calibration	1.0016default loss term (dB/km)	0.3790temperature slope calibration	1.0000multiplexer offset coefficient	1.0000multiplexer slope coefficient	1.0000fibre end	0.00T internal ref (°C)	34.25T ext. ref 1 (°C)	5.05T ext. ref 2 (°C)	29.45length (m)	temperature (°C)	Stokes	anti-Stokes-747.200	-105.909	0.144	0.033
-746.185	599.444	-0.097	0.245
-745.171	600.802	-0.008	-0.019
-744.156	-200.000	0.031	-0.247
-743.142	497.091	0.106	-0.248
-742.127	23.087	-0.339	0.281
-741.112	800.000	-0.113	0.483
-740.098	-44.626	-0.248	-0.126
-739.083	-200.000	0.023	0.168
-738.069	30.039	0.186	0.161
-737.054	175.155	0.104	-0.152
-736.039	-107.805	-0.267	-0.059
-735.025	-152.701	0.263	0.019
-734.010	159.532	-0.178	-0.251
-732.996	76.312	0.084	0.091
-731.981	-78.578	0.236	0.082
-730.966	-200.000	0.005	-0.241
-729.952	-27.065	-0.131	-0.077
-728.937	137.813	-0.030	0.040
-727.923	-111.944	-0.142	0.029
-726.908	-140.251	-0.242	0.026
-725.894	99.263	0.018	0.021
-724.879	-132.084	0.154	0.020
-723.864	-47.745	-0.207	-0.102
-722.850	-61.082	0.047	-0.020
-721.835	-59.660	-0.123	-0.054
-720.821	-200.000	-0.035	0.300
-719.806	-200.000	-0.019	-0.116
-718.791	800.000	-0.090	-0.262
-717.777	-113.476	0.225	-0.045
-716.762	-200.000	0.022	0.386
-715.748	-200.000	0.019	-0.137
-714.733	-131.744	-0.266	-0.035
-713.718	34.629	0.266	-0.235
-712.704	-105.235	-0.090	0.021
-711.689	41.042	0.181	-0.166
-710.675	-158.345	-0.184	0.011
-709.660	-125.802	-0.318	-0.049
-708.645	-104.726	-0.128	-0.030
-707.631	89.723	0.211	-0.238
-706.616	331.836	0.103	-0.200
-705.602	-200.000	-0.138	0.000
-704.587	95.992	-0.087	-0.100
-703.572	-5.986	-0.031	0.021
-702.558	-131.257	-0.294	-0.039
-701.543	-191.350	0.202	-0.002
-700.529	87.412	0.195	0.218
-699.514	-200.000	-0.056	0.380
-698.499	624.146	-0.059	-0.150
-697.485	-200.000	-0.002	-0.055
-696.470	139.229	-0.141	0.187
-695.456	48.347	-0.141	0.133
-694.441	-103.732	0.107	0.025
-693.426	-200.000	0.003	-0.111
-692.412	143.375	0.123	-0.166
-691.397	-183.681	0.172	0.003
-690.383	-52.459	0.384	-0.179
-689.368	-97.628	-0.144	-0.038
-688.354	-200.000	0.014	-0.067
-687.339	-200.000	0.070	0.000
-686.324	482.231	0.115	0.263
-685.310	-119.014	-0.315	0.056
-684.295	192.660	-0.176	-0.269
-683.281	102.571	0.119	-0.140
-682.266	-131.957	-0.451	-0.059
-681.251	49.524	-0.070	-0.066
-680.237	240.583	0.096	0.162
-679.222	94.356	0.147	0.168
-678.208	598.275	0.092	-0.231
-677.193	21.062	0.297	0.244
-676.178	15.924	0.353	0.281
-675.164	-81.179	-0.521	-0.174
-674.149	373.305	0.097	-0.199
-673.135	462.874	-0.100	0.225
-672.120	-95.231	-0.353	0.096
-671.105	-200.000	0.015	0.072
-670.091	245.119	0.160	0.271
-669.076	-17.651	0.172	-0.109
-668.062	247.415	-0.060	-0.102
-667.047	109.205	-0.049	0.060
-666.032	-74.811	-0.098	-0.035
-665.018	-144.102	0.201	0.019
-664.003	629.617	0.126	-0.322
-662.989	-27.211	-0.119	-0.070
-661.974	28.017	0.132	0.112
-660.959	-80.530	0.180	-0.060
-659.945	-14.654	-0.272	0.176
-658.930	-86.045	-0.179	0.056
-657.916	623.505	-0.089	-0.227
-656.901	-2.484	-0.090	0.063
-655.886	-100.959	-0.130	0.032
-654.872	800.000	-0.068	0.200
-653.857	191.750	0.059	0.089
-652.843	-153.958	-0.289	-0.020
-651.828	-158.663	-0.300	-0.017
-650.814	-103.373	-0.446	0.106
-649.799	800.000	0.092	0.269
-648.784	-22.991	-0.084	0.051
-647.770	-200.000	0.394	-0.001
-646.755	800.000	0.013	0.038
-645.741	1.797	0.153	0.112
-644.726	-200.000	-0.003	0.254
-643.711	80.961	0.141	0.153
-642.697	736.788	-0.070	0.188
-641.682	-90.881	-0.027	0.008
-640.668	-56.946	0.256	-0.114
-639.653	28.451	0.157	0.134
-638.638	321.691	0.154	-0.296
-637.624	56.055	0.197	0.193
-636.609	440.690	-0.069	-0.152
-635.595	16.513	-0.062	0.050
-634.580	-72.917	-0.296	0.110
-633.565	163.608	0.152	-0.216
-632.551	-60.256	-0.196	0.084
-631.536	800.000	0.110	-0.344
-630.522	-200.000	0.019	0.153
-629.507	-55.469	0.023	0.010
-628.492	-140.561	-0.220	0.023
-627.478	147.010	0.208	0.283
-626.463	-200.000	-0.004	0.108
-625.449	-101.710	-0.316	-0.077
-624.434	-39.836	-0.198	0.104
-623.419	36.315	0.115	0.102
-622.405	642.394	-0.038	0.097
-621.390	103.059	0.171	-0.202
-620.376	134.117	0.104	-0.136
-619.361	-146.196	-0.368	-0.033
-618.346	127.841	-0.073	0.094
-617.332	-97.112	0.030	0.008
-616.317	1.840	-0.162	-0.118
-615.303	-53.794	0.101	-0.046
-614.288	-2.926	-0.224	0.157
-613.273	-172.139	-0.032	0.001
-612.259	-200.000	0.036	-0.310
-611.244	149.840	0.066	0.090
-610.230	800.000	0.045	0.131
-609.215	-200.000	0.061	-0.289
-608.201	111.286	0.038	-0.046
-607.186	156.134	-0.279	0.387
-606.171	-54.991	-0.172	0.078
-605.157	-200.000	0.020	0.099
-604.142	800.000	0.052	0.194
-603.128	-146.153	-0.219	-0.019
-602.113	-94.441	0.046	-0.013
-601.098	-14.425	-0.402	0.261
-600.084	-81.155	-0.085	0.028
-599.069	53.203	-0.132	-0.127
-598.055	800.000	0.157	-0.508
-597.040	-14.699	0.240	-0.156
-596.025	-64.366	-0.190	0.078
-595.011	155.863	0.092	-0.127
-593.996	-39.442	0.204	-0.107
-592.982	-55.407	0.125	0.056
-591.967	-88.183	0.041	0.012
-590.952	-200.000	0.003	-0.066
-589.938	107.256	-0.191	0.228
-588.923	-33.986	-0.255	-0.141
-587.909	-200.000	0.045	0.293
-586.894	10.573	0.207	-0.159
-585.879	196.896	0.145	0.223
-584.865	-131.756	-0.188	0.025
-583.850	170.782	0.021	0.031
-582.836	-26.412	0.360	-0.213
-581.821	42.079	0.118	-0.107
-580.806	-44.133	-0.462	0.234
-579.792	294.979	0.048	0.089
-578.777	-194.781	-0.285	-0.002
-577.763	374.572	-0.123	-0.252
-576.748	84.650	0.086	0.095
-575.733	-200.000	0.069	-0.410
-574.719	-98.573	0.186	0.048
-573.704	-117.094	-0.270	0.049
-572.690	-200.000	-0.002	-0.255
-571.675	-72.269	-0.191	0.071
-570.661	49.835	0.204	-0.194
-569.646	2.185	-0.054	-0.039
-568.631	11.560	-0.057	-0.044
-567.617	-200.000	-0.026	-0.198
-566.602	201.378	-0.142	-0.220
-565.588	-45.059	0.246	-0.123
-564.573	0.719	-0.239	0.172
-563.558	-200.000	-0.032	-0.356
-562.544	126.799	-0.174	0.222
-561.529	327.462	0.104	-0.200
-560.515	35.079	-0.239	-0.210
-559.500	-96.930	0.086	0.023
-558.485	-9.076	0.277	-0.187
-557.471	146.911	0.023	-0.032
-556.456	-58.336	-0.221	0.097
-555.442	449.603	-0.127	0.282
-554.427	-39.295	-0.260	0.137
-553.412	119.590	-0.065	-0.081
-552.398	120.149	0.206	-0.258
-551.383	-132.919	-0.158	0.020
-550.369	-100.835	0.373	-0.092
-549.354	572.619	-0.160	-0.392
-548.339	58.193	0.258	-0.255
-547.325	21.714	0.112	0.092
-546.310	-68.031	-0.211	0.083
-545.296	-8.570	-0.243	0.164
-544.281	7.920	-0.113	0.085
-543.266	-54.268	0.237	-0.108
-542.252	773.095	-0.048	-0.132
-541.237	65.210	0.247	-0.251
-540.223	800.000	0.063	-0.176
-539.208	800.000	-0.023	-0.089
-538.193	228.112	-0.085	-0.139
-537.179	-47.154	0.113	-0.056
-536.164	-42.006	-0.157	0.081
-535.150	-94.434	-0.261	0.072
-534.135	8.846	-0.058	0.044
-533.121	-69.385	-0.303	-0.117
-532.106	-58.553	0.170	-0.074
-531.091	228.271	-0.128	0.210
-530.077	-96.745	0.111	-0.029
-529.062	-200.000	-0.028	0.170
-528.048	313.332	-0.163	-0.308
-527.033	282.641	0.238	-0.428
-526.018	179.035	0.162	-0.238
-525.004	-200.000	0.102	-0.485
-523.989	-53.098	-0.221	0.102
-522.975	-6.511	0.222	-0.152
-521.960	-200.000	0.015	0.113
-520.945	340.245	-0.097	-0.191
-519.931	77.523	0.214	-0.229
-518.916	-27.415	-0.101	0.059
-517.902	-67.682	-0.316	0.124
-516.887	-200.000	0.003	-0.137
-515.872	-57.884	-0.171	0.075
-514.858	-200.000	0.054	0.333
-513.843	288.522	-0.154	0.280
-512.829	-104.293	-0.045	0.010
-511.814	504.995	0.086	-0.199
-510.799	800.000	0.085	-0.243
-509.785	-59.498	-0.078	-0.034
-508.770	-75.833	0.101	-0.036
-507.756	-200.000	0.011	-0.181
-506.741	-60.177	-0.178	-0.076
-505.726	-200.000	-0.030	-0.178
-504.712	-198.415	0.154	-0.001
-503.697	-200.000	0.018	0.123
-502.683	234.313	-0.235	0.388
-501.668	461.065	0.092	0.205
-500.653	-26.114	-0.272	-0.160
-499.639	-111.808	0.135	-0.027
-498.624	-28.483	-0.166	0.096
-497.610	-60.775	0.216	-0.092
-496.595	-200.000	0.002	0.047
-495.581	-200.000	0.012	-0.057
-494.566	278.920	-0.099	0.177
-493.551	-3.408	-0.122	0.085
-492.537	-156.410	0.666	-0.042
-491.522	314.205	-0.178	0.335
-490.508	370.386	-0.106	0.216
-489.493	-66.410	0.377	0.150
-488.478	241.655	-0.130	-0.219
-487.464	-67.168	0.124	0.049
-486.449	-200.000	-0.017	-0.091
-485.435	199.270	-0.204	-0.314
-484.420	-178.091	-0.356	-0.008
-483.405	216.059	-0.133	0.212
-482.391	160.544	-0.143	0.200
-481.376	-123.107	-0.293	0.047
-480.362	-200.000	0.021	-0.147
-479.347	239.030	-0.034	0.057
-478.332	-18.949	0.020	-0.013
-477.318	319.839	0.109	0.207
-476.303	125.126	-0.224	0.283
-475.289	-200.000	0.021	-0.195
-474.274	-172.709	-0.231	-0.007
-473.259	-61.480	0.207	0.087
-472.245	-108.237	0.210	0.045
-471.230	-4.784	-0.261	0.180
-470.216	-200.000	-0.006	-0.052
-469.201	21.873	0.269	-0.220
-468.186	-83.749	-0.293	0.094
-467.172	-38.212	-0.135	-0.072
-466.157	160.131	-0.079	0.111
-465.143	-41.251	-0.195	-0.101
-464.128	1.204	-0.214	0.154
-463.113	-83.856	0.164	0.052
-462.099	102.528	-0.259	-0.304
-461.084	-75.871	0.061	-0.022
-460.070	-200.000	-0.025	-0.120
-459.055	-33.704	0.197	-0.109
-458.040	122.124	0.306	0.383
-457.026	261.727	0.127	-0.221
-456.011	4.506	0.179	-0.131
-454.997	116.825	-0.048	0.059
-453.982	481.284	0.180	-0.409
-452.968	-148.384	-0.110	0.009
-451.953	85.833	-0.097	0.107
-450.938	800.000	0.039	0.149
-449.924	150.327	-0.134	-0.182
-448.909	-139.077	0.452	-0.049
-447.895	128.374	0.236	0.301
-446.880	28.253	0.434	-0.367
-445.865	-130.708	0.171	0.023
-444.851	-169.491	-0.040	0.001
-443.836	-40.433	0.205	-0.107
-442.822	72.521	0.153	0.159
-441.807	-200.000	-0.003	-0.176
-440.792	-10.375	0.315	0.209
-439.778	-36.192	0.080	-0.043
-438.763	-56.024	0.026	0.012
-437.749	800.000	0.062	0.221
-436.734	349.643	0.042	0.083
-435.719	-200.000	-0.009	0.207
-434.705	328.560	0.024	-0.046
-433.690	-15.252	-0.051	0.033
-432.676	-200.000	-0.001	-0.142
-431.661	-44.192	-0.190	-0.095
-430.646	575.892	0.209	0.512
-429.632	70.742	0.153	0.158
-428.617	76.858	-0.073	0.078
-427.603	-200.000	0.015	-0.151
-426.588	-124.348	-0.416	0.065
-425.573	34.110	-0.337	-0.294
-424.559	71.633	0.193	0.201
-423.544	91.522	-0.058	-0.065
-422.530	-200.000	-0.010	-0.193
-421.515	-110.636	-0.583	-0.121
-420.500	800.000	0.065	0.210
-419.486	-117.625	-0.255	-0.046
-418.471	179.386	-0.181	0.265
-417.457	-47.691	-0.103	0.050
-416.442	-200.000	-0.012	-0.486
-415.428	800.000	0.067	-0.242
-414.413	-200.000	-0.019	-0.089
-413.398	-78.619	0.050	-0.017
-412.384	70.843	-0.116	0.120
-411.369	72.360	-0.089	0.093
-410.355	-47.772	-0.219	0.106
-409.340	303.284	-0.199	0.368
-408.325	-10.879	-0.367	0.242
-407.311	-200.000	0.015	0.072
-406.296	-81.740	-0.082	-0.027
-405.282	77.610	0.089	-0.095
-404.267	-40.744	0.168	-0.087
-403.252	-200.000	-0.001	0.312
-402.238	-191.819	-0.105	0.001
-401.223	-16.254	0.064	-0.041
-400.209	-200.000	0.012	-0.526
-399.194	86.759	0.072	-0.079
-398.179	-25.131	-0.191	0.113
-397.165	800.000	0.026	-0.113
-396.150	-135.773	-0.245	0.029
-395.136	64.944	-0.119	0.120
-394.121	53.459	0.205	-0.197
-393.106	-96.282	-0.144	-0.038
-392.092	27.140	-0.090	-0.076
-391.077	62.702	-0.133	-0.133
-390.063	800.000	-0.081	0.285
-389.048	200.329	-0.123	0.188
-388.033	-67.103	-0.195	-0.077
-387.019	13.843	0.333	0.259
-386.004	-101.076	-0.364	-0.089
-384.990	800.000	0.120	-0.434
-383.975	59.318	-0.058	0.057
-382.960	91.486	0.165	0.185
-381.946	-82.721	-0.226	0.073
-380.931	-3.433	0.213	0.148
-379.917	-200.000	0.012	0.134
-378.902	1.067	0.214	-0.153
-377.888	-15.841	-0.171	-0.109
-376.873	-200.000	-0.007	-0.184
-375.858	800.000	-0.043	-0.185
-374.844	454.553	-0.063	-0.140
-373.829	-200.000	-0.017	-0.191
-372.815	628.423	0.035	-0.088
-371.800	-149.252	0.199	-0.016
-370.785	-83.867	0.465	-0.148
-369.771	91.973	-0.111	-0.125
-368.756	208.072	0.100	-0.155
-367.742	-200.000	-0.010	0.117
-366.727	479.143	0.023	0.052
-365.712	-125.802	0.118	0.018
-364.698	178.254	0.182	-0.265
-363.683	194.837	0.101	-0.153
-362.669	-91.439	-0.210	0.060
-361.654	-53.980	0.158	0.072
-360.639	-166.367	-0.255	0.011
-359.625	-28.162	-0.423	0.244
-358.610	204.078	0.113	0.174
-357.596	800.000	0.035	-0.127
-356.581	345.967	-0.087	0.171
-355.566	-103.247	0.256	0.060
-354.552	40.072	-0.096	0.086
-353.537	205.356	-0.115	0.178
-352.523	270.966	-0.144	0.253
-351.508	800.000	0.078	-0.229
-350.493	187.222	-0.169	-0.252
-349.479	436.962	0.086	0.187
-348.464	-83.982	0.298	0.094
-347.450	109.555	0.211	0.252
-346.435	-66.120	0.308	-0.122
-345.420	-200.000	0.023	-0.434
-344.406	-169.540	-0.126	-0.005
-343.391	712.968	-0.082	-0.218
-342.377	3.620	0.124	0.090
-341.362	44.846	0.030	-0.028
-340.348	561.166	0.066	0.160
-339.333	-144.371	-0.063	-0.006
-338.318	26.736	0.291	0.243
-337.304	150.398	0.035	-0.047
-336.289	-200.000	-0.011	0.092
-335.275	800.000	-0.032	-0.114
-334.260	524.601	0.064	-0.151
-333.245	201.908	0.131	-0.201
-332.231	106.257	0.061	0.072
-331.216	544.376	-0.058	-0.138
-330.202	61.966	-0.108	0.107
-329.187	-114.056	-0.192	-0.037
-328.172	669.330	-0.054	-0.140
-327.158	447.406	-0.064	0.140
-326.143	-200.000	0.046	-0.222
-325.129	122.766	0.077	-0.095
-324.114	124.936	-0.077	0.097
-323.099	201.405	0.064	-0.099
-322.085	106.235	0.137	0.162
-321.070	292.119	0.193	0.350
-320.056	-170.363	0.196	0.007
-319.041	-200.000	0.018	0.156
-318.026	-148.732	-0.215	0.017
-317.012	-29.479	0.061	0.035
-315.997	-98.715	0.509	-0.129
-314.983	-5.991	0.181	0.123
-313.968	-200.000	-0.035	0.268
-312.953	-105.333	-0.393	-0.089
-311.939	83.566	-0.185	-0.201
-310.924	11.653	-0.120	0.092
-309.910	-56.225	-0.087	-0.039
-308.895	800.000	0.086	0.245
-307.880	625.488	-0.117	0.295
-306.866	104.854	0.123	-0.144
-305.851	-113.710	-0.227	0.044
-304.837	1.864	-0.101	0.073
-303.822	-200.000	0.030	-0.134
-302.807	-106.186	0.046	0.010
-301.793	13.832	-0.067	-0.052
-300.778	-58.374	0.322	-0.140
-299.764	-200.000	-0.004	-0.144
-298.749	139.973	-0.097	-0.127
-297.735	-164.609	0.296	0.013
-296.720	175.933	-0.160	0.231
-295.705	800.000	-0.058	-0.223
-294.691	-94.467	0.096	-0.026
-293.676	-20.220	-0.169	0.103
-292.662	4.996	0.361	0.265
-291.647	-91.796	0.279	0.079
-290.632	-7.612	-0.233	-0.156
-289.618	-25.967	0.205	0.120
-288.603	425.927	-0.216	0.462
-287.589	-46.605	-0.223	0.109
-286.574	46.670	0.164	0.151
-285.559	49.379	-0.013	0.012
-284.545	-200.000	0.029	-0.270
-283.530	-120.632	0.486	0.082
-282.516	-58.115	0.308	-0.133
-281.501	-189.529	-0.257	-0.003
-280.486	-183.613	0.208	0.004
-279.472	-106.744	0.316	0.070
-278.457	42.518	-0.044	0.040
-277.443	-71.616	-0.183	0.068
-276.428	-104.408	0.123	-0.028
-275.413	800.000	-0.032	-0.104
-274.399	388.241	-0.060	-0.124
-273.384	-71.777	-0.342	0.127
-272.370	93.024	0.145	0.163
-271.355	-200.000	0.091	0.523
-270.340	142.073	0.062	0.081
-269.326	800.000	0.102	0.293
-268.311	-134.655	0.335	-0.041
-267.297	72.823	-0.122	0.126
-266.282	304.578	0.205	-0.379
-265.267	-46.410	0.059	-0.029
-264.253	203.427	0.113	0.174
-263.238	132.159	0.120	-0.154
-262.224	800.000	0.073	0.275
-261.209	4.027	0.072	-0.053
-260.195	-200.000	0.008	-0.152
-259.180	368.284	0.120	0.242
-258.165	800.000	-0.071	0.239
-257.151	-200.000	-0.001	-0.256
-256.136	189.719	0.090	0.134
-255.122	363.906	0.044	-0.089
-254.107	127.885	-0.125	0.158
-253.092	-200.000	-0.005	0.209
-252.078	508.351	-0.094	-0.217
-251.063	-96.005	-0.150	0.040
-250.049	-85.800	0.021	0.007
-249.034	328.479	0.109	-0.209
-248.019	800.000	-0.022	0.068
-247.005	-10.995	0.112	-0.073
-245.990	800.000	0.131	-0.381
-244.976	13.792	0.131	-0.101
-243.961	77.121	-0.071	0.075
-242.946	201.856	0.131	-0.201
-241.932	274.942	-0.147	-0.259
-240.917	42.178	-0.044	0.039
-239.903	800.000	0.024	-0.100
-238.888	-61.168	0.240	-0.100
-237.873	-200.000	-0.039	0.251
-236.859	800.000	-0.052	0.188
-235.844	-200.000	0.007	0.082
-234.830	342.719	-0.176	0.343
-233.815	-36.899	-0.040	0.021
-232.800	-121.788	-0.116	0.019
-231.786	-200.000	0.001	0.062
-230.771	129.487	-0.134	-0.170
-229.757	41.646	0.067	0.061
-228.742	-200.000	0.111	0.000
-227.727	183.594	0.157	-0.230
-226.713	-97.943	0.107	-0.027
-225.698	-200.000	-0.033	0.183
-224.684	-43.553	0.291	0.146
-223.669	-200.000	-0.041	0.259
-222.655	-25.588	0.217	0.127
-221.640	-65.310	0.249	-0.100
-220.625	800.000	0.060	-0.170
-219.611	-200.000	-0.008	-0.266
-218.596	800.000	-0.042	0.124
-217.582	-117.915	0.174	-0.031
-216.567	-113.292	0.175	0.034
-215.552	-40.978	0.249	-0.128
-214.538	295.952	0.083	0.150
-213.523	-5.629	-0.086	-0.058
-212.509	-200.000	-0.036	0.237
-211.494	-117.293	-0.196	0.035
-210.479	-94.714	-0.183	-0.049
-209.465	-200.000	-0.064	0.480
-208.450	118.407	-0.176	-0.215
-207.436	401.428	0.080	-0.166
-206.421	-134.813	0.180	-0.022
-205.406	-92.760	-0.252	-0.070
-204.392	-48.949	-0.101	0.048
-203.377	-115.303	-0.270	0.051
-202.363	-64.500	-0.258	-0.104
-201.348	104.568	0.120	-0.141
-200.333	30.246	-0.171	0.145
-199.319	-144.676	0.190	0.017
-198.304	800.000	0.031	-0.107
-197.290	-125.175	-0.190	0.029
-196.275	-30.191	0.346	-0.195
-195.260	-118.425	-0.224	-0.039
-194.246	-200.000	0.072	0.340
-193.231	-30.883	0.201	0.113
-192.217	179.157	-0.159	-0.230
-191.202	-67.713	0.304	0.118
-190.187	5.176	0.163	-0.119
-189.173	-27.452	0.183	0.105
-188.158	-102.962	-0.176	-0.041
-187.144	-132.553	-0.279	0.035
-186.129	-148.220	0.225	0.018
-185.114	328.657	-0.084	-0.161
-184.100	-30.217	-0.236	0.133
-183.085	751.064	-0.098	0.263
-182.071	-70.017	0.082	0.031
-181.056	17.898	-0.083	-0.066
-180.042	320.063	0.173	-0.325
-179.027	588.376	-0.128	0.314
-178.012	-200.000	0.006	0.240
-176.998	26.770	-0.233	-0.194
-175.983	-162.919	0.234	0.011
-174.969	192.787	-0.017	-0.025
-173.954	40.597	-0.452	-0.404
-172.939	166.157	-0.134	0.187
-171.925	-34.787	0.514	0.278
-170.910	-200.000	0.000	-0.003
-169.896	-99.099	0.181	0.045
-168.881	298.774	0.044	0.080
-167.866	98.312	-0.144	0.165
-166.852	22.339	-0.211	0.171
-165.837	800.000	0.027	-0.119
-164.823	800.000	-0.072	0.275
-163.808	-23.426	-0.171	-0.102
-162.793	20.634	0.128	0.102
-161.779	45.926	0.169	-0.155
-160.764	-184.427	-0.349	0.006
-159.750	-114.071	0.229	0.044
-158.735	-38.654	-0.361	-0.189
-157.720	111.168	-0.061	-0.073
-156.706	-152.683	0.238	-0.017
-155.691	390.985	-0.107	0.220
-154.677	521.904	0.170	-0.396
-153.662	164.520	-0.105	-0.147
-152.647	-200.000	-0.005	-0.052
-151.633	800.000	0.067	0.281
-150.618	-108.596	0.168	0.036
-149.604	158.403	0.083	0.114
-148.589	-44.767	0.091	-0.045
-147.574	-200.000	0.014	-0.214
-146.560	-200.000	0.016	-0.150
-145.545	502.505	0.053	-0.121
-144.531	133.874	-0.098	0.126
-143.516	-21.300	-0.488	-0.295
-142.502	-41.285	-0.263	0.134
-141.487	800.000	0.032	-0.111
-140.472	277.689	-0.138	-0.242
-139.458	102.476	0.130	-0.151
-138.443	271.035	-0.075	-0.131
-137.429	-200.000	0.011	-0.353
-136.414	455.273	0.122	-0.267
-135.399	23.019	-0.061	-0.050
-134.385	800.000	0.008	-0.031
-133.370	-114.002	0.276	-0.053
-132.356	322.671	-0.220	-0.415
-131.341	-88.624	0.178	-0.053
-130.326	289.437	0.044	-0.079
-129.312	238.988	0.114	0.187
-128.297	674.945	0.038	0.097
-127.283	-69.830	-0.334	0.126
-126.268	123.906	-0.155	0.192
-125.253	-53.023	-0.190	0.086
-124.239	-200.000	0.011	0.089
-123.224	-57.683	-0.246	0.106
-122.210	120.034	-0.041	-0.050
-121.195	31.741	0.189	0.161
