DTS Sentinel unit serial number:	SN413079Multiplexer serial number:	ORYXHardware model number:	OX4-SRSoftware version number:	ORYX F/W v4.00 Oryx Data Collector v3.7.2.0data status	okinstallation	princeton_trtdifferential loss correction	single-endedforward channel	channel 2reverse channel	N/Adate	2019/09/13time	18:23:35forward acquisition time	60.00reverse acquisition time	0.00gamma	496.2192k internal	0.2320k external	0.2320temperature offset calibration	1.0191default loss term (dB/km)	0.3790temperature slope calibration	1.0000multiplexer offset coefficient	1.0000multiplexer slope coefficient	1.0000fibre end	0.00T internal ref (°C)	33.75T ext. ref 1 (°C)	4.34T ext. ref 2 (°C)	26.68length (m)	temperature (°C)	Stokes	anti-Stokes-747.200	766.258	-0.034	0.092
-746.185	91.180	0.221	0.251
-745.171	69.185	0.235	-0.244
-744.156	-200.000	0.045	0.352
-743.142	-200.000	0.003	0.034
-742.127	52.780	-0.164	0.159
-741.112	125.926	-0.271	0.346
-740.098	-200.000	0.035	0.479
-739.083	-166.720	0.125	-0.005
-738.069	-62.083	0.204	0.086
-737.054	-95.005	-0.171	0.047
-736.039	192.258	-0.112	-0.172
-735.025	91.019	-0.177	0.201
-734.010	-166.546	-0.062	0.003
-732.996	54.023	0.090	0.088
-731.981	282.778	-0.036	-0.065
-730.966	-30.810	0.086	-0.049
-729.952	-73.178	-0.204	0.076
-728.937	-4.721	0.053	0.037
-727.923	-0.826	-0.282	-0.202
-726.908	-123.326	-0.452	-0.073
-725.894	-200.000	0.013	0.075
-724.879	156.676	-0.093	0.130
-723.864	-196.037	-0.237	-0.002
-722.850	-46.115	-0.243	0.121
-721.835	800.000	-0.072	0.287
-720.821	-200.000	-0.035	-0.208
-719.806	337.383	0.193	0.379
-718.791	2.167	-0.092	0.067
-717.777	-41.146	-0.366	0.191
-716.762	-67.792	0.109	-0.043
-715.748	63.792	-0.206	-0.209
-714.733	187.268	-0.137	0.207
-713.718	-130.139	0.035	-0.005
-712.704	-200.000	0.026	-0.135
-711.689	35.158	-0.413	-0.365
-710.675	39.263	0.080	-0.072
-709.660	800.000	-0.102	-0.355
-708.645	-163.537	0.246	-0.012
-707.631	93.029	-0.055	-0.062
-706.616	513.808	0.084	-0.197
-705.602	516.768	-0.079	0.187
-704.587	-117.932	0.094	0.017
-703.572	-200.000	-0.253	0.001
-702.558	242.572	0.099	0.167
-701.543	-142.626	0.159	0.016
-700.529	-42.836	-0.252	-0.129
-699.514	290.248	0.133	0.243
-698.499	577.088	-0.108	-0.265
-697.485	327.695	0.018	0.034
-696.470	40.282	0.123	-0.111
-695.456	-200.000	0.014	0.170
-694.441	-4.941	0.127	-0.088
-693.426	-68.126	-0.079	-0.031
-692.412	-121.732	-0.401	-0.067
-691.397	-106.010	0.156	-0.036
-690.383	-147.771	0.297	-0.025
-689.368	69.752	-0.210	-0.218
-688.354	88.073	0.153	-0.172
-687.339	798.660	-0.056	-0.156
-686.324	-166.482	0.302	0.013
-685.310	127.978	0.133	-0.171
-684.295	11.279	-0.119	0.092
-683.281	72.200	0.166	-0.174
-682.266	532.443	-0.032	-0.077
-681.251	139.937	-0.264	0.350
-680.237	800.000	-0.065	0.252
-679.222	-123.192	-0.274	-0.044
-678.208	-37.215	-0.042	0.023
-677.193	800.000	-0.050	0.167
-676.178	-118.810	0.298	-0.053
-675.164	230.428	0.260	-0.428
-674.149	-1.760	0.258	-0.183
-673.135	-200.000	0.020	-0.327
-672.120	124.306	0.102	-0.129
-671.105	800.000	0.045	0.132
-670.091	127.030	0.151	0.194
-669.076	8.686	0.113	-0.086
-668.062	-9.220	0.158	0.107
-667.047	754.112	0.142	0.387
-666.032	-89.545	-0.119	-0.035
-665.018	-96.034	-0.152	0.041
-664.003	205.712	0.153	-0.240
-662.989	209.941	0.173	0.274
-661.974	800.000	0.062	-0.213
-660.959	-3.241	0.270	0.189
-659.945	55.700	0.192	0.188
-658.930	64.640	-0.053	-0.054
-657.916	47.407	-0.081	-0.076
-656.901	346.427	-0.141	-0.280
-655.886	800.000	0.112	0.396
-654.872	244.133	0.206	0.348
-653.857	57.232	-0.170	-0.168
-652.843	30.199	0.147	0.126
-651.828	800.000	-0.031	-0.103
-650.814	108.813	-0.122	0.146
-649.799	-200.000	-0.062	0.346
-648.784	-49.864	0.224	0.107
-647.770	-8.025	-0.153	-0.104
-646.755	-157.304	0.109	0.007
-645.741	-200.000	0.003	0.031
-644.726	30.933	-0.180	0.155
-643.711	-64.003	-0.267	0.110
-642.697	-80.557	0.179	-0.060
-641.682	26.728	0.104	-0.088
-640.668	800.000	0.031	0.101
-639.653	-68.581	0.388	0.151
-638.638	-200.000	0.024	-0.150
-637.624	142.243	0.159	-0.212
-636.609	800.000	-0.066	-0.245
-635.595	-90.734	-0.336	-0.098
-634.580	39.848	0.117	-0.105
-633.565	800.000	0.009	0.037
-632.551	-200.000	-0.043	0.276
-631.536	-153.379	0.220	0.015
-630.522	-200.000	0.012	0.077
-629.507	150.284	0.325	0.445
-628.492	-28.582	0.053	0.031
-627.478	28.284	0.273	0.232
-626.463	-200.000	-0.039	-0.472
-625.449	-200.000	0.010	-0.243
-624.434	-200.000	0.029	-0.229
-623.419	-200.000	-0.021	-0.164
-622.405	-200.000	-0.032	-0.216
-621.390	-200.000	0.008	-0.060
-620.376	800.000	-0.132	0.449
-619.361	271.155	0.205	0.363
-618.346	800.000	0.122	0.486
-617.332	-200.000	-0.016	0.120
-616.317	104.290	0.149	0.177
-615.303	-104.830	-0.189	0.044
-614.288	198.697	-0.062	-0.095
-613.273	-88.554	-0.295	-0.089
-612.259	-34.244	0.021	0.012
-611.244	-142.159	0.238	0.024
-610.230	43.259	0.233	-0.214
-609.215	35.997	-0.249	0.221
-608.201	-200.000	-0.027	-0.129
-607.186	-38.310	-0.077	-0.041
-606.171	-200.000	-0.005	-0.144
-605.157	-53.262	-0.164	-0.075
-604.142	442.298	-0.047	-0.103
-603.128	144.747	0.168	-0.226
-602.113	-91.122	-0.097	0.028
-601.098	-75.228	-0.127	-0.046
-600.084	234.470	0.006	0.010
-599.069	-117.080	-0.152	-0.028
-598.055	613.203	-0.019	0.048
-597.040	176.620	-0.088	-0.129
-596.025	-81.159	-0.017	0.006
-595.011	800.000	0.054	0.196
-593.996	338.991	-0.126	0.247
-592.982	-151.110	0.187	0.014
-591.967	49.332	0.066	-0.063
-590.952	375.521	0.085	-0.174
-589.938	-200.000	-0.005	0.066
-588.923	-0.566	0.053	0.038
-587.909	175.254	-0.065	0.094
-586.894	-16.696	0.228	-0.145
-585.879	800.000	0.101	-0.380
-584.865	-157.068	0.261	0.016
-583.850	234.480	0.031	-0.052
-582.836	-96.906	-0.411	-0.108
-581.821	-200.000	0.048	0.267
-580.806	800.000	-0.101	0.282
-579.792	169.672	-0.106	-0.152
-578.777	-200.000	-0.052	0.266
-577.763	-200.000	-0.009	0.252
-576.748	62.721	-0.083	0.084
-575.733	-200.000	0.012	0.172
-574.719	-200.000	0.032	-0.160
-573.704	412.316	-0.215	-0.459
-572.690	-67.611	-0.184	0.072
-571.675	250.729	-0.092	0.157
-570.661	-110.106	0.101	0.021
-569.646	-200.000	-0.007	-0.043
-568.631	133.986	-0.161	-0.209
-567.617	-173.547	-0.205	0.006
-566.602	-200.000	-0.001	0.116
-565.588	-94.696	0.082	-0.022
-564.573	64.162	0.157	-0.158
-563.558	800.000	0.118	0.401
-562.544	25.706	-0.094	0.078
-561.529	-41.079	0.151	0.078
-560.515	-130.233	0.091	-0.012
-559.500	800.000	-0.059	-0.252
-558.485	88.337	-0.333	0.371
-557.471	-105.864	0.343	0.078
-556.456	155.816	0.197	-0.273
-555.442	800.000	0.019	0.084
-554.427	35.488	0.105	-0.092
-553.412	-48.308	0.168	0.081
-552.398	-12.810	-0.209	0.136
-551.383	800.000	-0.042	0.163
-550.369	-27.139	-0.205	0.120
-549.354	-129.825	-0.173	-0.024
-548.339	-143.711	0.309	-0.029
-547.325	65.817	0.135	-0.137
-546.310	-181.906	-0.185	0.004
-545.296	-27.227	0.159	-0.093
-544.281	-200.000	0.012	-0.276
-543.266	-200.000	0.008	0.039
-542.252	-74.952	0.384	-0.138
-541.237	-24.126	0.122	0.073
-540.223	160.230	-0.214	0.299
-539.208	272.664	0.106	0.188
-538.193	-102.966	-0.255	0.061
-537.179	358.519	-0.134	-0.269
-536.164	800.000	-0.021	-0.074
-535.150	-23.689	-0.229	-0.138
-534.135	-126.517	0.083	-0.012
-533.121	135.022	0.181	0.236
-532.106	800.000	-0.114	0.329
-531.091	-200.000	0.039	-0.371
-530.077	-93.380	-0.225	-0.063
-529.062	-71.258	-0.211	0.079
-528.048	77.115	-0.054	-0.058
-527.033	743.777	-0.037	-0.099
-526.018	115.004	-0.255	0.313
-525.004	-56.158	-0.209	-0.093
-523.989	50.469	0.066	0.063
-522.975	-130.923	-0.296	0.040
-521.960	-200.000	-0.611	-0.001
-520.945	-112.753	-0.416	-0.083
-519.931	800.000	0.076	0.224
-518.916	-30.561	0.211	0.120
-517.902	40.413	0.196	0.177
-516.887	-94.839	0.058	0.016
-515.872	-200.000	-0.016	-0.095
-514.858	68.988	0.060	0.062
-513.843	-111.114	0.147	-0.030
-512.829	-200.000	0.031	0.344
-511.814	-47.890	0.302	0.146
-510.799	-197.948	-0.132	-0.001
-509.785	-200.000	-0.001	0.077
-508.770	581.613	-0.162	-0.398
-507.756	30.256	-0.122	0.104
-506.741	-163.088	-0.189	0.009
-505.726	244.940	-0.086	-0.145
-504.712	800.000	0.081	0.255
-503.697	-200.000	0.002	0.125
-502.683	1.582	-0.287	-0.207
-501.668	-135.444	0.115	0.014
-500.653	-200.000	0.101	0.497
-499.639	-28.136	0.056	0.033
-498.624	62.151	0.058	-0.058
-497.610	800.000	-0.057	-0.182
-496.595	800.000	-0.082	-0.341
-495.581	800.000	0.059	-0.250
-494.566	-50.911	-0.315	-0.148
-493.551	-200.000	0.031	0.143
-492.537	-76.411	0.244	0.086
-491.522	800.000	-0.085	-0.252
-490.508	-58.997	-0.151	0.065
-489.493	-15.787	-0.105	-0.067
-488.478	800.000	0.082	0.312
-487.464	17.949	-0.152	0.121
-486.449	143.232	0.327	0.435
-485.435	271.099	0.101	-0.177
-484.420	356.890	0.089	0.177
-483.405	159.035	0.269	0.374
-482.391	-144.183	0.188	-0.018
-481.376	800.000	0.045	-0.181
-480.362	194.801	-0.127	-0.193
-479.347	-49.792	0.283	0.135
-478.332	111.678	0.134	0.161
-477.318	146.635	-0.052	0.069
-476.303	529.287	0.087	0.204
-475.289	-200.000	-0.003	0.408
-474.274	-125.639	0.435	-0.066
-473.259	800.000	-0.088	0.324
-472.245	-200.000	0.060	-0.326
-471.230	128.341	-0.207	-0.264
-470.216	-132.318	-0.189	0.024
-469.201	-81.208	-0.339	0.112
-468.186	-31.888	-0.161	-0.090
-467.172	-13.636	0.473	-0.306
-466.157	-200.000	0.006	0.030
-465.143	-94.393	-0.252	-0.069
-464.128	347.095	0.053	-0.105
-463.113	-48.702	0.306	-0.147
-462.099	-200.000	-0.019	0.108
-461.084	-135.519	-0.132	-0.016
-460.070	370.041	-0.156	-0.316
-459.055	-143.218	-0.377	-0.036
-458.040	372.917	-0.049	0.100
-457.026	-154.602	-0.014	-0.001
-456.011	-87.735	0.236	0.071
-454.997	39.772	0.198	-0.178
-453.982	274.760	-0.070	-0.125
-452.968	-200.000	-0.007	0.170
-451.953	-200.000	-0.020	-0.252
-450.938	76.811	0.112	-0.119
-449.924	-33.121	-0.144	-0.080
-448.909	18.160	0.216	-0.172
-447.895	20.327	0.222	0.179
-446.880	-103.237	0.299	0.071
-445.865	-87.316	0.449	0.136
-444.851	-192.997	-0.345	0.003
-443.836	226.593	-0.069	0.111
-442.822	30.719	0.147	-0.126
-441.807	-200.000	-0.016	-0.274
-440.792	-0.423	0.324	0.230
-439.778	-33.387	0.312	-0.173
-438.763	350.488	0.072	-0.142
-437.749	-200.000	-0.013	-0.150
-436.734	-198.538	-0.180	0.001
-435.719	158.677	-0.315	0.437
-434.705	-36.300	0.143	0.077
-433.690	-134.383	-0.226	0.028
-432.676	-200.000	-0.004	0.040
-431.661	-25.003	-0.383	0.227
-430.646	-133.891	-0.067	0.008
-429.632	-67.007	0.519	0.204
-428.617	509.325	0.116	-0.270
-427.603	-180.600	-0.414	-0.009
-426.588	-149.628	-0.334	-0.026
-425.573	197.990	0.100	-0.152
-424.559	3.172	0.210	-0.153
-423.544	189.927	-0.216	-0.324
-422.530	800.000	0.068	0.255
-421.515	14.629	0.186	0.146
-420.500	191.477	-0.173	0.260
-419.486	-144.578	0.406	-0.037
-418.471	-193.632	-0.246	-0.002
-417.457	204.722	0.222	0.344
-416.442	800.000	-0.027	-0.098
-415.428	252.043	0.142	0.242
-414.413	599.031	0.095	-0.236
-413.398	-73.518	0.044	-0.016
-412.384	341.549	0.012	0.023
-411.369	-101.840	0.203	-0.049
-410.355	-89.673	0.163	0.048
-409.340	472.176	0.020	-0.045
-408.325	395.776	-0.022	0.047
-407.311	-200.000	-0.036	-0.328
-406.296	270.412	-0.121	0.213
-405.282	-46.537	0.014	-0.007
-404.267	-200.000	-0.056	0.259
-403.252	13.409	0.170	0.132
-402.238	-162.589	0.254	-0.012
-401.223	31.657	-0.193	-0.166
-400.209	49.180	-0.129	-0.121
-399.194	-200.000	-0.015	-0.114
-398.179	-106.561	-0.170	0.038
-397.165	-78.688	0.236	-0.080
-396.150	800.000	0.084	-0.232
-395.136	-117.297	-0.300	-0.054
-394.121	800.000	0.032	-0.103
-393.106	-99.091	0.278	-0.070
-392.092	336.582	-0.114	-0.220
-391.077	118.297	-0.093	0.114
-390.063	-47.888	0.105	0.051
-389.048	-43.131	-0.224	-0.113
-388.033	800.000	-0.059	0.176
-387.019	-28.116	-0.209	-0.121
-386.004	-160.918	-0.167	-0.009
-384.990	-73.451	-0.173	0.063
-383.975	201.435	-0.116	-0.178
-382.960	140.195	0.131	0.172
-381.946	-120.428	-0.154	0.026
-380.931	-1.660	-0.363	-0.255
-379.917	85.803	-0.115	-0.127
-378.902	-200.000	0.010	0.085
-377.888	-109.837	0.220	-0.046
-376.873	10.454	0.363	-0.276
-375.858	699.698	-0.066	0.174
-374.844	103.662	-0.150	-0.175
-373.829	296.811	-0.092	-0.168
-372.815	-136.255	0.225	0.026
-371.800	168.595	-0.171	0.243
-370.785	-200.000	-0.014	-0.166
-369.771	-7.043	-0.195	0.132
-368.756	-79.108	-0.293	0.099
-367.742	53.855	-0.143	-0.137
-366.727	-62.674	0.425	0.176
-365.712	-185.278	-0.011	-0.000
-364.698	128.934	0.220	0.280
-363.683	-30.281	0.110	-0.062
-362.669	-128.133	-0.118	0.017
-361.654	-200.000	-0.017	-0.241
-360.639	-30.648	-0.193	-0.109
-359.625	-13.078	-0.243	-0.157
-358.610	-200.000	0.013	0.314
-357.596	259.093	0.264	0.454
-356.581	-78.489	-0.487	-0.166
-355.566	-200.000	0.056	-0.259
-354.552	443.288	-0.134	-0.293
-353.537	-88.556	0.066	-0.019
-352.523	800.000	-0.086	-0.293
-351.508	-1.257	-0.057	0.040
-350.493	-200.000	-0.007	0.073
-349.479	-66.577	-0.155	0.061
-348.464	66.732	0.089	0.091
-347.450	-200.000	0.035	0.197
-346.435	70.150	0.180	0.185
-345.420	250.988	-0.015	0.025
-344.406	-200.000	-0.012	-0.308
-343.391	-112.657	-0.430	0.085
-342.377	-4.412	-0.060	0.041
-341.362	-55.726	-0.148	-0.066
-340.348	-52.346	0.145	0.067
-339.333	800.000	0.051	0.220
-338.318	-200.000	0.017	0.119
-337.304	63.095	0.138	-0.138
-336.289	-25.427	0.152	-0.089
-335.275	800.000	-0.122	-0.459
-334.260	-200.000	-0.019	0.106
-333.245	-64.901	0.228	-0.092
-332.231	206.139	-0.143	-0.221
-331.216	-124.689	0.166	0.026
-330.202	-149.194	-0.027	0.002
-329.187	-55.730	-0.276	-0.123
-328.172	153.452	0.206	-0.281
-327.158	-117.032	0.190	0.034
-326.143	284.607	0.148	0.265
-325.129	-66.240	0.323	0.128
-324.114	305.821	0.036	-0.066
-323.099	-144.673	-0.306	0.028
-322.085	-69.416	0.316	0.121
-321.070	256.280	-0.088	-0.151
-320.056	24.601	0.050	0.041
-319.041	-152.003	-0.202	0.015
-318.026	233.676	0.126	0.207
-317.012	-16.013	0.079	-0.050
-315.997	-89.349	0.252	-0.074
-314.983	800.000	0.072	0.226
-313.968	-86.969	0.085	-0.026
-312.953	800.000	0.057	0.200
-311.939	-3.712	-0.123	0.085
-310.924	-100.001	0.198	-0.049
-309.910	-195.332	-0.367	-0.003
-308.895	-193.705	0.249	-0.002
-307.880	108.311	-0.295	-0.350
-306.866	45.556	-0.223	-0.205
-305.851	800.000	-0.121	0.363
-304.837	-101.064	-0.132	-0.032
-303.822	54.139	0.226	-0.216
-302.807	-200.000	0.022	0.288
-301.793	-59.536	0.066	-0.028
-300.778	-39.690	0.119	0.062
-299.764	143.021	-0.058	0.077
-298.749	-193.357	-0.276	-0.002
-297.735	-200.000	-0.061	0.303
-296.720	383.611	-0.181	0.370
-295.705	-200.000	-0.018	-0.159
-294.691	-200.000	-0.030	-0.173
-293.676	134.044	0.099	0.128
-292.662	-26.198	-0.135	-0.079
-291.647	-0.802	0.409	-0.288
-290.632	-112.804	0.307	-0.060
-289.618	-66.833	0.343	-0.135
-288.603	63.898	0.227	0.226
-287.589	-200.000	0.075	0.348
-286.574	-76.307	-0.025	-0.009
-285.559	800.000	-0.074	-0.219
-284.545	-133.946	-0.249	-0.031
-283.530	-200.000	-0.028	-0.221
-282.516	-200.000	0.024	0.365
-281.501	-36.234	0.113	0.061
-280.486	465.283	-0.179	-0.399
-279.472	-200.000	-0.001	-0.118
-278.457	240.294	-0.072	0.119
-277.443	201.369	-0.088	-0.134
-276.428	-41.297	0.348	-0.178
-275.413	-163.047	-0.354	-0.017
-274.399	-125.057	0.182	-0.028
-273.384	-125.144	-0.141	0.021
-272.370	-200.000	0.017	0.120
-271.355	-200.000	-0.033	-0.263
-270.340	-68.464	0.074	-0.029
-269.326	-200.000	0.057	0.300
-268.311	321.620	0.130	-0.246
-267.297	149.162	0.137	-0.184
-266.282	-105.351	0.172	-0.039
-265.267	-105.816	-0.336	0.075
-264.253	148.852	0.121	-0.162
-263.238	-42.234	-0.374	0.190
-262.224	40.417	-0.225	-0.201
-261.209	14.416	0.200	-0.155
-260.195	-120.899	-0.294	-0.049
-259.180	-8.716	0.249	-0.166
-258.165	800.000	0.025	0.093
-257.151	-200.000	-0.022	-0.110
-256.136	-200.000	0.031	0.282
-255.122	40.100	-0.140	0.125
-254.107	85.174	0.108	-0.118
-253.092	495.473	-0.085	-0.194
-252.078	76.449	-0.196	0.206
-251.063	94.191	-0.154	0.173
-250.049	113.579	0.051	0.061
-249.034	133.688	-0.156	-0.200
-248.019	443.717	0.093	0.201
-247.005	-132.403	-0.102	0.013
-245.990	521.210	0.138	-0.321
-244.976	-76.445	0.258	0.090
-243.961	-200.000	-0.015	-0.081
-242.946	-139.912	0.141	0.015
-241.932	-183.564	0.460	0.008
-240.917	227.960	-0.106	-0.171
-239.903	-200.000	-0.022	0.226
-238.888	-200.000	-0.021	0.331
-237.873	800.000	-0.090	0.372
-236.859	37.877	-0.083	0.073
-235.844	101.447	-0.264	-0.305
-234.830	-200.000	0.013	0.161
-233.815	-200.000	0.065	-0.312
-232.800	-124.647	0.248	-0.038
-231.786	-200.000	0.003	-0.449
-230.771	-50.372	0.189	-0.089
-229.757	16.118	0.114	-0.089
-228.742	-43.377	0.141	-0.070
-227.727	800.000	-0.091	-0.361
-226.713	74.326	-0.055	0.057
-225.698	-158.564	-0.323	-0.018
-224.684	52.399	-0.185	0.175
-223.669	-200.000	-0.031	-0.191
-222.655	175.999	0.154	0.221
-221.640	-92.813	0.212	0.059
-220.625	255.769	0.122	-0.207
-219.611	-32.542	0.179	-0.099
-218.596	67.990	0.181	-0.183
-217.582	4.211	-0.120	0.087
-216.567	-82.884	-0.281	-0.090
-215.552	469.426	0.038	0.084
-214.538	800.000	-0.083	-0.258
-213.523	-119.048	0.151	0.026
-212.509	-54.004	-0.353	-0.159
-211.494	50.146	0.259	0.242
-210.479	463.024	-0.028	-0.063
-209.465	-86.731	-0.228	0.069
-208.450	-127.206	0.228	0.033
-207.436	-77.715	0.255	-0.087
-206.421	-78.659	0.289	-0.098
-205.406	25.294	0.066	0.054
-204.392	-124.671	-0.345	0.053
-203.377	800.000	-0.017	-0.070
-202.363	-200.000	-0.011	0.183
-201.348	66.662	-0.061	-0.061
-200.333	187.707	-0.114	-0.168
-199.319	800.000	0.049	-0.181
-198.304	800.000	-0.063	0.204
-197.290	-200.000	0.048	-0.209
-196.275	5.596	-0.351	0.257
-195.260	357.914	-0.161	-0.317
-194.246	-72.182	-0.258	0.095
-193.231	-200.000	-0.051	0.236
-192.217	-200.000	-0.008	-0.073
-191.202	48.043	0.081	-0.075
-190.187	800.000	-0.082	0.249
-189.173	69.324	-0.225	0.229
-188.158	-178.983	0.102	-0.002
-187.144	125.365	0.084	0.105
-186.129	-65.771	0.262	-0.104
-185.114	103.796	0.087	-0.101
-184.100	-100.910	-0.052	0.013
-183.085	-180.527	-0.224	0.005
-182.071	92.591	0.216	0.241
-181.056	307.785	0.173	0.320
-180.042	-200.000	0.048	0.306
-179.027	-54.396	0.166	0.075
-178.012	39.634	-0.153	0.136
-176.998	314.496	-0.080	-0.150
-175.983	-25.015	0.162	0.095
-174.969	33.697	0.183	-0.158
-173.954	154.523	-0.138	0.188
-172.939	-183.616	0.307	-0.005
-171.925	-26.325	0.301	0.175
-170.910	394.626	0.095	0.196
-169.896	-125.775	0.058	0.009
-168.881	84.134	-0.144	-0.156
-167.866	-145.988	-0.186	0.016
-166.852	-200.000	-0.008	-0.228
-165.837	141.671	0.115	-0.151
-164.823	301.164	0.104	0.190
-163.808	-80.647	-0.429	-0.141
-162.793	381.277	-0.095	-0.193
-161.779	17.530	-0.075	0.059
-160.764	182.937	-0.097	-0.142
-159.750	-174.710	-0.242	0.007
-158.735	-200.000	0.049	-0.269
-157.720	800.000	0.039	-0.125
-156.706	773.431	0.070	0.188
-155.691	25.010	-0.377	-0.309
-154.677	-42.427	0.117	-0.059
-153.662	-123.009	0.162	-0.026
-152.647	58.381	0.233	0.225
-151.633	390.275	0.012	-0.025
-150.618	-68.290	-0.251	-0.096
-149.604	-95.923	-0.058	-0.015
-148.589	130.481	0.124	-0.157
-147.574	168.678	0.055	0.077
-146.560	134.365	-0.057	0.073
-145.545	800.000	-0.075	-0.214
-144.531	-200.000	0.022	0.268
-143.516	-85.945	0.473	0.144
-142.502	413.832	-0.045	-0.094
-141.487	800.000	0.004	-0.013
-140.472	-33.140	0.055	-0.030
-139.458	11.819	-0.410	0.311
-138.443	34.220	0.184	0.159
-137.429	-72.705	-0.140	0.051
-136.414	2.844	0.309	0.221
-135.399	800.000	0.145	0.411
-134.385	-69.919	0.430	-0.162
-133.370	-65.344	0.065	0.026
-132.356	22.663	-0.102	-0.083
-131.341	-16.382	0.325	-0.204
-130.326	-126.154	-0.225	-0.033
-129.312	77.930	-0.128	0.135
-128.297	480.545	-0.103	0.231
-127.283	53.400	0.037	-0.035
-126.268	800.000	-0.072	-0.225
-125.253	52.190	-0.119	-0.112
-124.239	438.605	0.031	0.067
-123.224	-8.921	0.233	0.154
-122.210	104.872	0.176	0.205
-121.195	800.000	0.040	-0.128
