DTS Sentinel unit serial number:	SN413079Multiplexer serial number:	ORYXHardware model number:	OX4-SRSoftware version number:	ORYX F/W v4.00 Oryx Data Collector v3.7.2.0data status	okinstallation	princeton_trtdifferential loss correction	single-endedforward channel	channel 2reverse channel	N/Adate	2019/09/17time	14:39:35forward acquisition time	60.00reverse acquisition time	0.00gamma	496.2192k internal	0.2312k external	0.2312temperature offset calibration	0.9983default loss term (dB/km)	0.3790temperature slope calibration	1.0000multiplexer offset coefficient	1.0000multiplexer slope coefficient	1.0000fibre end	0.00T internal ref (°C)	36.75T ext. ref 1 (°C)	0.40T ext. ref 2 (°C)	33.90length (m)	temperature (°C)	Stokes	anti-Stokes-747.200	-100.330	0.040	-0.010
-746.185	-55.373	0.083	0.038
-745.171	-29.998	-0.277	0.160
-744.156	376.247	-0.034	-0.069
-743.142	-10.770	0.101	0.068
-742.127	-200.000	-0.065	0.428
-741.112	39.166	0.170	0.154
-740.098	586.510	0.019	0.048
-739.083	25.180	-0.184	0.155
-738.069	540.812	0.159	0.385
-737.054	800.000	0.068	-0.237
-736.039	63.403	-0.178	-0.181
-735.025	-79.439	0.054	-0.019
-734.010	-200.000	0.006	0.311
-732.996	415.301	0.224	-0.484
-731.981	141.911	-0.055	0.074
-730.966	800.000	-0.051	0.149
-729.952	-181.302	-0.155	-0.003
-728.937	-64.326	-0.167	0.069
-727.923	92.857	-0.033	-0.037
-726.908	-65.576	-0.250	-0.102
-725.894	-200.000	-0.000	-0.056
-724.879	404.448	0.048	0.103
-723.864	-13.147	0.142	-0.093
-722.850	800.000	-0.076	-0.253
-721.835	514.269	0.015	-0.034
-720.821	-200.000	-0.011	0.108
-719.806	325.968	0.080	-0.155
-718.791	-200.000	-0.008	0.055
-717.777	-66.613	-0.319	0.128
-716.762	490.950	0.104	-0.242
-715.748	800.000	0.026	-0.072
-714.733	75.995	-0.225	-0.242
-713.718	-46.944	0.266	-0.132
-712.704	363.167	-0.178	0.363
-711.689	-47.920	-0.209	0.102
-710.675	-29.311	-0.183	-0.106
-709.660	-200.000	-0.009	-0.279
-708.645	-134.844	0.166	0.020
-707.631	-200.000	0.034	-0.167
-706.616	-200.000	-0.004	0.112
-705.602	-200.000	0.030	0.206
-704.587	800.000	0.091	-0.326
-703.572	168.805	-0.072	-0.104
-702.558	-154.614	-0.323	0.022
-701.543	35.559	0.129	0.115
-700.529	97.166	-0.364	0.423
-699.514	-112.279	0.345	-0.070
-698.499	-200.000	0.011	-0.255
-697.485	-115.431	0.168	-0.032
-696.470	-137.969	-0.510	0.058
-695.456	-45.339	0.207	0.104
-694.441	268.945	0.078	0.138
-693.426	-57.208	0.067	0.030
-692.412	-200.000	0.146	-0.000
-691.397	490.618	-0.125	-0.289
-690.383	-30.346	-0.348	-0.200
-689.368	-87.437	-0.251	-0.077
-688.354	140.130	-0.153	0.204
-687.339	443.724	0.065	-0.143
-686.324	800.000	0.070	-0.305
-685.310	7.018	0.300	0.226
-684.295	-200.000	-0.028	-0.261
-683.281	184.318	0.029	-0.043
-682.266	97.023	-0.048	-0.055
-681.251	151.947	-0.080	-0.110
-680.237	-81.404	-0.097	-0.032
-679.222	198.018	0.206	-0.319
-678.208	800.000	-0.054	-0.223
-677.193	-130.445	0.103	0.014
-676.178	-196.109	-0.174	-0.001
-675.164	-104.445	-0.178	-0.042
-674.149	800.000	-0.109	-0.422
-673.135	3.223	-0.104	0.077
-672.120	-185.033	0.408	0.006
-671.105	-200.000	0.020	-0.173
-670.091	29.251	-0.110	0.094
-669.076	288.610	-0.081	-0.148
-668.062	-18.651	-0.130	0.082
-667.047	-93.493	0.351	-0.098
-666.032	397.497	-0.140	0.295
-665.018	-200.000	0.069	0.338
-664.003	-135.349	0.226	-0.027
-662.989	-200.000	0.031	0.196
-661.974	-200.000	0.011	-0.207
-660.959	-200.000	0.007	-0.258
-659.945	-200.000	0.049	0.249
-658.930	51.694	0.090	-0.087
-657.916	-185.225	-0.325	-0.005
-656.901	319.466	-0.088	0.170
-655.886	-4.964	-0.191	-0.133
-654.872	-67.465	-0.392	-0.156
-653.857	-42.578	0.313	-0.161
-652.843	131.983	-0.130	-0.169
-651.828	-10.272	0.157	-0.106
-650.814	-74.567	-0.401	0.146
-649.799	37.309	0.163	0.146
-648.784	800.000	0.054	-0.226
-647.770	-104.961	-0.229	-0.053
-646.755	530.371	-0.070	-0.167
-645.741	436.644	0.071	0.156
-644.726	-200.000	-0.015	-0.069
-643.711	636.059	0.090	-0.231
-642.697	-64.747	0.105	0.043
-641.682	-200.000	-0.007	0.057
-640.668	698.204	-0.121	-0.322
-639.653	-200.000	-0.002	-0.049
-638.638	-200.000	0.024	-0.351
-637.624	90.217	0.219	-0.248
-636.609	238.076	0.151	-0.253
-635.595	-15.496	0.191	0.123
-634.580	800.000	0.059	0.190
-633.565	19.729	-0.019	0.016
-632.551	-200.000	-0.021	-0.197
-631.536	134.372	0.136	-0.178
-630.522	-9.456	0.031	-0.021
-629.507	-105.836	0.079	0.018
-628.492	-108.115	0.039	-0.008
-627.478	49.272	-0.208	-0.198
-626.463	179.170	-0.158	0.233
-625.449	42.944	-0.101	0.093
-624.434	-200.000	0.026	-0.138
-623.419	-200.000	-0.029	0.142
-622.405	44.052	-0.238	-0.221
-621.390	-106.045	0.081	-0.018
-620.376	800.000	-0.037	0.108
-619.361	-191.130	-0.038	0.000
-618.346	-82.976	0.235	0.076
-617.332	800.000	-0.084	0.243
-616.317	-54.343	0.181	-0.083
-615.303	-47.208	0.223	0.110
-614.288	-54.953	-0.268	-0.122
-613.273	440.946	-0.167	0.369
-612.259	-200.000	-0.017	0.094
-611.244	-44.863	0.171	-0.086
-610.230	-137.851	-0.334	-0.038
-609.215	-148.013	-0.228	0.019
-608.201	-49.986	0.128	0.061
-607.186	46.387	-0.193	-0.181
-606.171	363.988	-0.156	0.317
-605.157	-8.847	-0.064	0.043
-604.142	800.000	-0.105	-0.458
-603.128	229.112	0.238	-0.391
-602.113	-91.343	0.130	-0.037
-601.098	800.000	0.036	0.103
-600.084	800.000	0.073	-0.312
-599.069	-45.372	-0.130	-0.065
-598.055	-35.177	-0.186	0.102
-597.040	800.000	-0.008	-0.029
-596.025	-200.000	-0.011	0.053
-595.011	800.000	0.040	0.116
-593.996	535.349	-0.155	0.372
-592.982	-40.558	-0.189	0.099
-591.967	-200.000	0.003	-0.219
-590.952	-200.000	-0.018	-0.273
-589.938	-14.112	-0.251	0.163
-588.923	18.804	-0.178	-0.144
-587.909	-49.884	-0.289	0.138
-586.894	-200.000	-0.041	-0.257
-585.879	-57.814	-0.052	-0.023
-584.865	315.915	0.052	-0.100
-583.850	-200.000	-0.019	0.651
-582.836	-200.000	0.002	0.015
-581.821	-180.023	0.242	-0.005
-580.806	800.000	0.039	0.118
-579.792	-26.513	0.089	0.053
-578.777	140.184	0.185	0.246
-577.763	-78.704	-0.124	0.043
-576.748	-123.036	0.247	-0.040
-575.733	58.062	-0.282	-0.279
-574.719	-132.949	0.117	0.015
-573.704	100.540	0.103	-0.120
-572.690	-106.218	0.237	-0.053
-571.675	800.000	0.082	0.297
-570.661	132.470	0.092	0.119
-569.646	353.503	-0.053	0.106
-568.631	12.624	-0.338	-0.263
-567.617	531.246	0.102	-0.242
-566.602	-142.369	0.052	0.005
-565.588	247.021	0.098	-0.166
-564.573	800.000	0.051	0.159
-563.558	348.450	0.116	0.230
-562.544	-120.069	0.348	0.060
-561.529	-183.639	0.147	0.003
-560.515	-48.992	-0.204	-0.098
-559.500	680.646	-0.025	-0.066
-558.485	-183.662	0.175	-0.003
-557.471	-145.001	0.154	0.014
-556.456	62.151	-0.154	0.155
-555.442	103.444	-0.227	0.268
-554.427	-200.000	-0.079	0.415
-553.412	119.622	-0.146	0.183
-552.398	360.635	0.068	-0.136
-551.383	418.583	0.067	-0.143
-550.369	-156.300	0.078	-0.005
-549.354	-7.972	0.393	-0.267
-548.339	-150.692	-0.352	0.027
-547.325	-55.400	0.145	0.065
-546.310	-131.050	-0.104	0.014
-545.296	353.680	0.024	-0.048
-544.281	-69.209	0.245	0.095
-543.266	-200.000	0.013	0.173
-542.252	-95.882	-0.126	-0.034
-541.237	69.746	-0.142	0.148
-540.223	-105.361	-0.343	-0.079
-539.208	-101.065	0.256	0.063
-538.193	150.080	0.068	0.092
-537.179	63.053	0.182	-0.184
-536.164	-38.377	-0.487	0.259
-535.150	0.781	0.084	0.061
-534.135	-84.348	-0.098	0.031
-533.121	257.934	-0.107	-0.185
-532.106	-134.394	0.194	-0.024
-531.091	2.099	-0.255	-0.185
-530.077	-40.800	0.361	-0.188
-529.062	-15.995	-0.089	0.057
-528.048	-67.838	0.168	0.066
-527.033	-119.919	0.033	-0.006
-526.018	-41.360	-0.275	0.143
-525.004	57.948	0.196	0.193
-523.989	-24.528	-0.113	0.068
-522.975	-200.000	-0.031	0.258
-521.960	707.363	-0.077	0.204
-520.945	-67.587	-0.231	-0.091
-519.931	598.028	0.034	0.086
-518.916	-200.000	0.043	0.309
-517.902	-200.000	0.010	-0.321
-516.887	-37.089	0.115	-0.062
-515.872	-108.925	0.158	-0.034
-514.858	-33.688	-0.111	0.062
-513.843	68.960	-0.099	0.102
-512.829	-143.193	0.365	0.035
-511.814	118.115	0.250	0.310
-510.799	-41.739	-0.236	0.122
-509.785	-124.517	0.185	0.029
-508.770	-58.358	0.181	0.079
-507.756	-43.639	0.394	0.200
-506.741	-186.214	0.202	-0.003
-505.726	4.627	0.175	0.129
-504.712	-200.000	-0.031	-0.201
-503.697	-192.508	0.249	0.002
-502.683	218.257	-0.090	0.145
-501.668	1.348	0.122	-0.088
-500.653	-43.107	-0.444	0.226
-499.639	294.072	0.059	-0.109
-498.624	17.046	-0.207	-0.165
-497.610	800.000	-0.099	-0.397
-496.595	-200.000	-0.008	0.101
-495.581	88.644	0.201	0.224
-494.566	-17.145	-0.141	0.089
-493.551	69.185	0.156	-0.161
-492.537	-200.000	-0.057	0.278
-491.522	24.224	-0.170	-0.141
-490.508	22.130	0.098	-0.081
-489.493	92.556	0.290	0.329
-488.478	635.653	-0.181	0.461
-487.464	76.451	0.228	0.243
-486.449	-35.600	-0.089	0.049
-485.435	-83.765	0.188	0.060
-484.420	55.094	0.202	0.196
-483.405	-5.936	-0.411	-0.283
-482.391	501.723	0.080	0.185
-481.376	195.235	-0.158	0.240
-480.362	-200.000	-0.020	0.153
-479.347	27.561	0.156	-0.132
-478.332	800.000	-0.050	-0.161
-477.318	75.892	-0.053	0.056
-476.303	342.422	-0.064	-0.125
-475.289	473.515	0.029	-0.066
-474.274	172.299	-0.098	0.142
-473.259	116.699	-0.111	0.136
-472.245	-76.482	-0.111	-0.039
-471.230	-69.837	0.304	-0.116
-470.216	-161.909	0.093	-0.005
-469.201	575.454	0.171	-0.420
-468.186	-200.000	0.029	0.179
-467.172	49.602	0.227	0.215
-466.157	-78.695	-0.253	0.087
-465.143	4.171	-0.032	-0.023
-464.128	-141.184	0.261	0.027
-463.113	73.910	-0.082	0.086
-462.099	-100.060	0.193	-0.048
-461.084	-58.003	-0.156	0.068
-460.070	-127.998	0.387	0.056
-459.055	-105.205	-0.221	0.051
-458.040	14.264	0.026	-0.020
-457.026	75.157	-0.141	0.149
-456.011	-200.000	0.038	-0.394
-454.997	-30.822	-0.206	-0.117
-453.982	757.730	-0.069	-0.186
-452.968	-27.461	-0.199	-0.116
-451.953	-200.000	-0.026	-0.282
-450.938	36.886	-0.246	0.218
-449.924	-85.380	0.123	0.038
-448.909	-20.739	-0.064	0.039
-447.895	-135.208	-0.321	0.039
-446.880	152.363	0.085	0.117
-445.865	-150.311	-0.128	-0.010
-444.851	-152.739	-0.405	-0.029
-443.836	230.268	-0.096	-0.158
-442.822	800.000	-0.082	0.359
-441.807	-81.415	0.175	0.058
-440.792	-34.854	0.218	0.120
-439.778	-64.273	-0.175	0.071
-438.763	800.000	0.021	0.062
-437.749	383.843	0.042	0.086
-436.734	800.000	0.022	0.074
-435.719	421.137	-0.174	-0.373
-434.705	73.411	-0.053	-0.056
-433.690	-108.648	-0.272	0.059
-432.676	800.000	-0.070	-0.301
-431.661	-48.135	0.158	0.077
-430.646	-200.000	-0.001	0.225
-429.632	363.807	-0.090	0.181
-428.617	-200.000	0.004	-0.178
-427.603	15.218	0.114	-0.089
-426.588	-122.918	0.307	-0.050
-425.573	-38.862	0.082	0.043
-424.559	-200.000	0.027	0.122
-423.544	101.451	-0.266	-0.310
-422.530	-139.670	-0.206	0.022
-421.515	5.313	-0.162	-0.119
-420.500	-32.903	0.057	-0.032
-419.486	185.505	-0.029	0.044
-418.471	136.150	0.219	-0.286
-417.457	-165.049	0.167	0.007
-416.442	-200.000	-0.052	0.313
-415.428	167.241	0.136	0.193
-414.413	91.219	-0.070	-0.079
-413.398	145.603	-0.126	-0.169
-412.384	-175.703	-0.125	0.003
-411.369	246.863	0.072	0.121
-410.355	-200.000	0.051	0.241
-409.340	-200.000	-0.064	0.434
-408.325	370.142	-0.083	0.169
-407.311	390.982	-0.082	0.169
-406.296	166.189	0.089	-0.126
-405.282	55.396	-0.139	-0.135
-404.267	518.208	0.115	-0.269
-403.252	-200.000	-0.013	-0.128
-402.238	800.000	0.098	0.327
-401.223	-97.610	0.079	-0.020
-400.209	129.589	-0.156	0.200
-399.194	175.116	0.049	-0.072
-398.179	-200.000	0.043	-0.219
-397.165	219.951	0.121	0.195
-396.150	-200.000	0.029	0.255
-395.136	-135.306	0.215	-0.026
-394.121	-112.918	0.111	0.022
-393.106	-200.000	-0.005	-0.090
-392.092	153.552	0.209	-0.286
-391.077	355.636	0.277	-0.551
-390.063	161.553	-0.144	0.201
-389.048	-200.000	0.003	0.305
-388.033	525.049	-0.106	-0.249
-387.019	-200.000	0.020	0.160
-386.004	637.620	-0.052	-0.133
-384.990	-116.400	0.173	-0.032
-383.975	-27.647	-0.207	0.120
-382.960	421.159	-0.191	-0.410
-381.946	252.317	-0.095	0.162
-380.931	55.960	0.076	-0.074
-379.917	1.422	0.066	-0.048
-378.902	11.355	0.194	0.148
-377.888	-80.581	-0.242	-0.081
-376.873	-67.626	0.186	0.073
-375.858	-162.155	0.526	0.026
-374.844	-63.406	0.176	-0.072
-373.829	-129.290	0.158	-0.022
-372.815	800.000	-0.048	0.145
-371.800	-115.101	-0.200	0.038
-370.785	339.981	0.202	-0.394
-369.771	84.159	-0.317	-0.346
-368.756	-15.923	0.141	0.090
-367.742	-33.963	-0.075	-0.041
-366.727	282.991	0.198	0.355
-365.712	7.508	-0.244	0.182
-364.698	-200.000	-0.060	-0.487
-363.683	-156.694	-0.127	0.008
-362.669	-124.450	0.087	0.014
-361.654	-70.199	0.254	-0.096
-360.639	261.198	0.118	0.204
-359.625	-105.360	-0.193	-0.044
-358.610	89.559	0.101	-0.112
-357.596	-64.751	0.274	-0.111
-356.581	325.916	-0.144	0.276
-355.566	190.086	-0.064	0.097
-354.552	-200.000	0.009	0.050
-353.537	-58.192	0.076	0.033
-352.523	800.000	0.104	0.446
-351.508	64.991	0.183	0.185
-350.493	194.678	-0.090	0.137
-349.479	-15.341	0.070	0.045
-348.464	800.000	0.071	0.230
-347.450	-97.383	-0.431	-0.112
-346.435	42.247	-0.145	0.131
-345.420	-93.241	-0.160	-0.044
-344.406	188.283	-0.112	-0.168
-343.391	-137.050	0.310	-0.035
-342.377	-49.667	0.162	-0.077
-341.362	269.272	-0.168	0.295
-340.348	89.333	-0.176	0.196
-339.333	-56.341	-0.247	0.110
-338.318	-200.000	0.047	0.244
-337.304	235.512	0.057	-0.094
-336.289	36.924	-0.243	0.214
-335.275	-200.000	0.028	-0.265
-334.260	63.487	0.292	-0.293
-333.245	-57.058	-0.251	0.111
-332.231	-74.648	0.268	0.096
-331.216	-61.705	0.131	-0.055
-330.202	-59.281	0.275	0.118
-329.187	-30.904	0.043	-0.024
-328.172	84.103	-0.080	-0.087
-327.158	-110.802	-0.254	-0.052
-326.143	800.000	-0.133	-0.550
-325.129	-144.663	-0.179	0.016
-324.114	199.228	-0.057	-0.087
-323.099	-70.414	0.490	-0.185
-322.085	-93.784	-0.233	-0.064
-321.070	-170.195	-0.140	-0.005
-320.056	23.525	0.320	-0.263
-319.041	-2.881	-0.146	-0.102
-318.026	7.050	0.129	-0.096
-317.012	-196.980	-0.213	-0.001
-315.997	364.203	0.079	-0.159
-314.983	-200.000	-0.004	0.057
-313.968	800.000	0.085	-0.244
-312.953	800.000	-0.091	-0.272
-311.939	-137.773	0.165	0.018
-310.924	-200.000	-0.061	-0.523
-309.910	-59.602	-0.423	0.181
-308.895	18.620	-0.005	-0.004
-307.880	-78.367	-0.365	-0.125
-306.866	-200.000	-0.004	-0.069
-305.851	-139.287	-0.246	-0.026
-304.837	800.000	0.054	0.193
-303.822	-133.367	0.011	-0.001
-302.807	-52.780	-0.231	0.106
-301.793	-108.921	-0.281	0.060
-300.778	800.000	-0.017	-0.052
-299.764	114.882	-0.229	-0.278
-298.749	-200.000	-0.040	0.207
-297.735	800.000	0.068	0.191
-296.720	441.733	-0.095	-0.208
-295.705	166.834	-0.138	0.195
-294.691	-133.860	0.172	-0.021
-293.676	-200.000	0.052	-0.328
-292.662	800.000	0.093	-0.266
-291.647	-200.000	-0.021	-0.338
-290.632	-200.000	-0.005	0.058
-289.618	-59.635	0.171	0.073
-288.603	-23.031	0.338	-0.203
-287.589	734.682	-0.132	-0.351
-286.574	22.229	0.158	0.128
-285.559	-73.257	0.270	-0.098
-284.545	-100.180	-0.193	0.048
-283.530	-200.000	-0.033	0.163
-282.516	377.799	-0.091	-0.185
-281.501	98.699	-0.040	-0.046
-280.486	-30.227	-0.089	0.051
-279.472	800.000	0.056	0.198
-278.457	30.915	0.523	0.447
-277.443	-20.677	-0.339	0.207
-276.428	-65.965	-0.326	0.130
-275.413	-81.972	0.192	0.063
-274.399	94.171	-0.196	0.221
-273.384	-96.263	-0.430	-0.114
-272.370	124.921	0.067	-0.084
-271.355	-38.887	0.153	0.080
-270.340	-74.716	-0.255	0.091
-269.326	-46.814	0.240	-0.117
-268.311	42.296	0.145	0.131
-267.297	-1.812	0.140	0.098
-266.282	-161.332	-0.188	-0.010
-265.267	-35.026	0.199	0.108
-264.253	-116.658	-0.303	0.055
-263.238	800.000	-0.034	-0.095
-262.224	-129.851	0.168	0.023
-261.209	-52.260	0.281	0.130
-260.195	800.000	-0.040	0.144
-259.180	800.000	-0.068	-0.191
-258.165	302.850	-0.137	-0.252
-257.151	-118.538	0.174	-0.031
-256.136	-198.431	-0.279	0.002
-255.122	124.677	-0.031	0.038
-254.107	177.632	0.364	-0.528
-253.092	-200.000	-0.063	-0.346
-252.078	-142.760	-0.297	-0.029
-251.063	-200.000	0.042	0.294
-250.049	-200.000	0.033	-0.155
-249.034	-53.040	-0.185	0.085
-248.019	800.000	-0.113	-0.365
-247.005	800.000	-0.101	0.316
-245.990	402.463	0.108	0.227
-244.976	-200.000	-0.004	0.196
-243.961	90.981	-0.076	-0.085
-242.946	-200.000	-0.026	-0.167
-241.932	421.973	-0.035	-0.075
-240.917	-21.382	-0.167	0.101
-239.903	-79.475	0.181	0.061
-238.888	200.097	-0.217	-0.332
-237.873	-200.000	-0.020	-0.178
-236.859	79.404	-0.211	0.225
-235.844	-151.379	0.185	-0.014
-234.830	52.179	-0.138	-0.131
-233.815	116.351	0.020	0.024
-232.800	-1.212	-0.050	-0.035
-231.786	88.487	-0.122	0.134
-230.771	43.605	-0.112	0.102
-229.757	-135.312	-0.232	-0.028
-228.742	-5.401	0.101	0.069
-227.727	199.669	0.168	-0.256
-226.713	-200.000	-0.031	0.147
-225.698	-50.854	-0.082	-0.039
-224.684	103.333	0.266	-0.310
-223.669	35.625	0.260	-0.227
-222.655	-41.540	0.064	-0.033
-221.640	461.970	-0.105	0.233
-220.625	364.932	0.099	0.198
-219.611	-200.000	-0.015	-0.082
-218.596	-35.257	0.163	0.088
-217.582	55.688	0.213	-0.206
-216.567	217.839	-0.069	-0.109
-215.552	-157.397	-0.525	0.031
-214.538	561.762	0.114	-0.275
-213.523	73.554	-0.116	0.121
-212.509	-98.247	-0.075	0.019
-211.494	800.000	0.086	-0.361
-210.479	800.000	0.053	-0.166
-209.465	27.898	0.154	0.129
-208.450	69.361	-0.039	-0.040
-207.436	-200.000	-0.049	-0.232
-206.421	700.353	0.047	0.123
-205.406	-15.650	0.312	0.198
-204.392	-62.318	0.088	0.036
-203.377	-200.000	0.012	-0.085
-202.363	-200.000	0.007	-0.175
-201.348	-12.517	-0.031	-0.020
-200.333	-184.977	0.172	0.003
-199.319	320.515	0.098	0.185
-198.304	3.198	-0.094	0.068
-197.290	800.000	0.057	0.199
-196.275	570.222	0.076	0.184
-195.260	146.669	-0.213	0.284
-194.246	-98.930	-0.144	0.036
-193.231	1.796	0.265	0.190
-192.217	-200.000	-0.006	0.071
-191.202	800.000	0.048	-0.134
-190.187	515.744	-0.073	0.170
-189.173	-77.816	-0.349	-0.120
-188.158	-200.000	0.024	0.116
-187.144	-200.000	0.058	-0.263
-186.129	66.819	0.126	0.127
-185.114	141.730	0.165	0.218
-184.100	393.842	-0.111	0.229
-183.085	-200.000	0.027	0.275
-182.071	16.440	0.090	0.071
-181.056	-200.000	0.017	-0.198
-180.042	-42.573	-0.065	-0.033
-179.027	-200.000	-0.055	0.411
-178.012	-43.289	0.236	-0.118
-176.998	133.608	0.043	0.055
-175.983	112.888	0.087	-0.105
-174.969	-28.968	-0.040	0.023
-173.954	390.034	0.176	0.361
-172.939	74.938	-0.214	0.223
-171.925	-200.000	0.056	-0.413
-170.910	150.880	0.277	-0.374
-169.896	111.395	-0.214	-0.256
-168.881	-200.000	0.002	-0.084
-167.866	-125.989	-0.182	-0.027
-166.852	-4.389	-0.032	-0.022
-165.837	-11.330	0.226	-0.147
-164.823	542.252	0.137	-0.324
-163.808	492.555	0.040	-0.091
-162.793	800.000	0.107	-0.304
-161.779	-12.663	-0.253	0.164
-160.764	98.194	0.138	0.158
-159.750	-58.859	-0.156	0.067
-158.735	44.928	0.113	-0.103
-157.720	-103.339	0.070	-0.016
-156.706	-109.450	0.507	-0.106
-155.691	800.000	0.045	-0.174
-154.677	-109.240	-0.235	0.049
-153.662	-200.000	-0.291	0.000
-152.647	800.000	-0.055	0.228
-151.633	-11.054	0.203	-0.133
-150.618	-200.000	0.010	0.166
-149.604	-53.308	-0.108	-0.049
-148.589	-65.335	-0.160	-0.064
-147.574	-181.282	0.152	0.003
-146.560	-30.608	0.306	-0.172
-145.545	-81.005	-0.208	-0.068
-144.531	800.000	-0.099	-0.318
-143.516	164.575	0.053	0.074
-142.502	-102.818	0.374	-0.088
-141.487	-76.505	-0.142	-0.050
-140.472	53.486	-0.105	0.100
-139.458	-160.034	-0.104	-0.006
-138.443	282.871	-0.168	0.298
-137.429	-200.000	0.053	0.250
-136.414	222.471	-0.109	0.174
-135.399	-200.000	-0.060	-0.000
-134.385	262.539	-0.049	-0.085
-133.370	566.313	0.070	0.169
-132.356	27.736	0.234	0.195
-131.341	-86.139	0.174	-0.053
-130.326	-27.555	0.155	-0.089
-129.312	12.459	-0.200	0.153
-128.297	-123.271	-0.158	-0.025
-127.283	-7.283	0.252	-0.169
-126.268	-200.000	-0.042	0.206
-125.253	188.341	0.144	-0.214
-124.239	-96.034	-0.044	0.012
-123.224	549.734	-0.106	0.251
-122.210	18.563	0.138	-0.109
-121.195	-200.000	-0.023	0.114
