DTS Sentinel unit serial number:	SN413079Multiplexer serial number:	ORYXHardware model number:	OX4-SRSoftware version number:	ORYX F/W v4.00 Oryx Data Collector v3.7.2.0data status	okinstallation	princeton_trtdifferential loss correction	single-endedforward channel	channel 2reverse channel	N/Adate	2019/09/19time	04:11:35forward acquisition time	60.00reverse acquisition time	0.00gamma	496.2192k internal	0.2352k external	0.2352temperature offset calibration	1.0020default loss term (dB/km)	0.3790temperature slope calibration	1.0000multiplexer offset coefficient	1.0000multiplexer slope coefficient	1.0000fibre end	0.00T internal ref (°C)	20.33T ext. ref 1 (°C)	0.63T ext. ref 2 (°C)	13.79length (m)	temperature (°C)	Stokes	anti-Stokes-747.200	71.663	0.191	0.198
-746.185	-104.380	-0.152	0.035
-745.171	487.712	0.022	0.050
-744.156	-152.327	-0.252	-0.018
-743.142	-7.269	-0.302	-0.204
-742.127	498.442	-0.031	0.072
-741.112	190.479	0.087	0.130
-740.098	-137.259	-0.204	-0.023
-739.083	800.000	0.123	0.515
-738.069	119.804	0.116	0.143
-737.054	-107.176	0.070	0.015
-736.039	-101.706	-0.592	-0.143
-735.025	202.223	0.099	0.153
-734.010	-200.000	0.027	0.301
-732.996	281.265	0.090	0.160
-731.981	565.205	-0.093	-0.224
-730.966	800.000	-0.026	-0.102
-729.952	54.037	-0.240	-0.230
-728.937	-23.136	-0.166	-0.099
-727.923	-79.261	-0.150	-0.051
-726.908	-186.478	0.270	-0.004
-725.894	44.038	-0.201	-0.184
-724.879	245.682	-0.099	-0.167
-723.864	535.762	0.140	0.331
-722.850	-189.217	0.175	-0.002
-721.835	-178.320	-0.338	0.008
-720.821	800.000	-0.083	0.308
-719.806	-23.996	-0.103	0.061
-718.791	6.560	-0.179	-0.132
-717.777	-181.957	0.283	0.005
-716.762	-66.345	-0.167	0.066
-715.748	-49.029	0.200	0.095
-714.733	328.779	-0.054	-0.104
-713.718	800.000	0.063	-0.173
-712.704	161.160	0.105	0.146
-711.689	-16.474	0.121	0.077
-710.675	227.884	0.063	-0.102
-709.660	-169.059	-0.188	-0.007
-708.645	107.849	-0.153	-0.182
-707.631	-145.074	0.504	-0.046
-706.616	212.279	-0.046	0.073
-705.602	416.021	-0.076	-0.160
-704.587	-146.925	0.524	0.045
-703.572	-61.333	-0.427	0.179
-702.558	653.026	0.087	-0.223
-701.543	-72.145	0.064	0.024
-700.529	-200.000	-0.020	-0.115
-699.514	48.203	0.174	0.162
-698.499	319.192	0.096	0.182
-697.485	-21.687	-0.115	0.070
-696.470	800.000	0.119	-0.336
-695.456	230.265	0.132	-0.215
-694.441	-97.367	-0.117	0.030
-693.426	-200.000	0.004	-0.196
-692.412	106.560	0.062	0.073
-691.397	301.911	0.181	0.333
-690.383	-200.000	-0.031	0.470
-689.368	-28.083	-0.170	-0.098
-688.354	-102.581	-0.195	-0.046
-687.339	-129.952	-0.194	-0.026
-686.324	364.434	0.072	0.145
-685.310	86.739	-0.130	-0.143
-684.295	800.000	-0.086	-0.251
-683.281	-97.829	0.165	0.042
-682.266	269.456	-0.178	0.311
-681.251	-200.000	0.052	0.258
-680.237	-200.000	-0.033	0.379
-679.222	360.869	-0.145	0.289
-678.208	24.410	0.123	0.101
-677.193	-200.000	0.052	-0.434
-676.178	529.832	0.082	-0.194
-675.164	-128.365	-0.171	-0.024
-674.149	-200.000	-0.032	-0.288
-673.135	152.664	0.103	0.140
-672.120	-31.228	-0.297	0.167
-671.105	0.970	0.255	0.182
-670.091	-130.763	-0.107	0.014
-669.076	800.000	-0.032	-0.122
-668.062	-200.000	0.026	0.271
-667.047	98.375	0.036	0.041
-666.032	-106.071	-0.362	0.081
-665.018	-200.000	-0.030	-0.239
-664.003	15.350	0.203	-0.158
-662.989	-3.897	0.118	-0.081
-661.974	-68.024	0.129	-0.050
-660.959	-200.000	0.019	-0.229
-659.945	-137.000	-0.129	-0.015
-658.930	3.548	-0.169	0.122
-657.916	633.478	0.013	0.033
-656.901	-43.172	-0.218	0.110
-655.886	726.359	0.139	0.368
-654.872	199.488	-0.211	-0.322
-653.857	171.053	-0.148	0.211
-652.843	-11.505	-0.230	0.150
-651.828	800.000	-0.105	0.413
-650.814	275.861	0.184	0.324
-649.799	-186.707	-0.339	-0.005
-648.784	-200.000	0.037	-0.216
-647.770	-200.000	-0.014	0.274
-646.755	-200.000	-0.017	-0.150
-645.741	-200.000	-0.015	-0.093
-644.726	800.000	-0.094	-0.306
-643.711	577.634	-0.130	-0.317
-642.697	800.000	-0.078	-0.311
-641.682	23.986	-0.174	0.142
-640.668	554.804	0.058	-0.140
-639.653	134.699	-0.285	-0.367
-638.638	359.538	0.070	0.139
-637.624	-14.582	0.394	0.252
-636.609	570.017	-0.176	-0.425
-635.595	800.000	0.033	-0.108
-634.580	-51.452	-0.084	0.039
-633.565	154.693	-0.045	-0.062
-632.551	38.693	-0.217	-0.192
-631.536	800.000	0.066	0.209
-630.522	25.937	0.314	0.260
-629.507	-131.368	0.216	-0.028
-628.492	191.605	0.139	-0.207
-627.478	-9.154	-0.058	0.039
-626.463	-1.609	-0.056	0.039
-625.449	55.199	-0.237	-0.228
-624.434	13.569	-0.102	-0.079
-623.419	800.000	0.072	0.207
-622.405	-200.000	-0.026	0.173
-621.390	-0.082	-0.197	0.140
-620.376	-200.000	-0.002	0.285
-619.361	194.753	-0.128	-0.193
-618.346	118.255	-0.056	0.068
-617.332	49.070	0.176	-0.164
-616.317	-11.750	-0.051	0.033
-615.303	92.538	-0.114	0.128
-614.288	406.804	0.094	0.197
-613.273	-60.970	0.293	-0.123
-612.259	209.118	0.071	0.110
-611.244	-172.236	-0.322	0.010
-610.230	-21.752	0.229	-0.138
-609.215	-200.000	0.011	-0.273
-608.201	21.493	0.286	-0.231
-607.186	14.613	-0.098	-0.076
-606.171	420.459	0.071	0.150
-605.157	-55.608	-0.124	-0.055
-604.142	-200.000	0.007	0.039
-603.128	105.137	0.156	0.182
-602.113	-32.051	0.292	-0.162
-601.098	-138.755	-0.303	-0.033
-600.084	80.495	-0.205	0.219
-599.069	800.000	0.087	-0.368
-598.055	87.557	-0.196	0.215
-597.040	354.826	-0.164	0.324
-596.025	135.315	-0.087	-0.112
-595.011	173.197	0.131	0.188
-593.996	11.140	-0.101	-0.076
-592.982	24.153	-0.102	0.083
-591.967	217.113	-0.111	-0.175
-590.952	122.607	0.037	-0.045
-589.938	455.937	0.128	0.282
-588.923	182.981	0.149	-0.218
-587.909	-41.872	-0.030	0.015
-586.894	-9.080	-0.113	-0.075
-585.879	29.359	-0.168	-0.142
-584.865	-81.421	0.412	-0.134
-583.850	-200.000	-0.084	0.452
-582.836	800.000	-0.056	0.180
-581.821	-193.146	-0.120	0.001
-580.806	-81.121	0.263	0.086
-579.792	-200.000	0.044	-0.198
-578.777	141.182	-0.214	0.280
-577.763	134.102	-0.162	0.208
-576.748	-200.000	-0.025	-0.109
-575.733	-30.549	0.262	-0.147
-574.719	433.269	-0.067	-0.143
-573.704	243.931	-0.108	0.179
-572.690	-200.000	-0.023	-0.290
-571.675	-46.821	0.224	-0.109
-570.661	-34.219	-0.032	-0.017
-569.646	-0.453	0.090	0.063
-568.631	639.539	0.063	-0.159
-567.617	-200.000	-0.061	0.000
-566.602	-44.685	0.080	0.039
-565.588	791.811	-0.028	0.077
-564.573	329.413	0.050	0.094
-563.558	-98.178	-0.360	0.092
-562.544	237.155	-0.124	-0.203
-561.529	-200.000	0.028	-0.336
-560.515	-96.399	0.329	-0.086
-559.500	453.055	0.068	0.149
-558.485	-71.710	-0.127	-0.047
-557.471	73.627	0.162	-0.168
-556.456	-70.502	-0.156	0.058
-555.442	-75.795	0.226	0.079
-554.427	539.450	0.182	0.430
-553.412	595.080	-0.086	0.210
-552.398	40.929	-0.114	0.102
-551.383	-127.827	0.301	0.043
-550.369	142.319	-0.054	0.071
-549.354	-136.563	-0.127	-0.015
-548.339	77.307	0.234	-0.246
-547.325	-4.000	0.333	-0.229
-546.310	-200.000	-0.018	-0.219
-545.296	8.493	-0.235	0.175
-544.281	-200.000	-0.005	0.031
-543.266	580.978	-0.117	0.284
-542.252	745.808	-0.061	0.162
-541.237	-103.768	0.359	-0.083
-540.223	-200.000	0.037	-0.279
-539.208	162.022	0.236	0.327
-538.193	-65.215	0.196	0.078
-537.179	486.231	-0.072	0.162
-536.164	30.973	-0.084	0.071
-535.150	-101.535	-0.221	-0.053
-534.135	-200.000	0.027	0.193
-533.121	253.395	-0.114	0.193
-532.106	391.093	-0.108	0.221
-531.091	-200.000	0.023	-0.206
-530.077	35.721	0.231	-0.201
-529.062	-200.000	-0.060	0.299
-528.048	-63.375	-0.295	-0.120
-527.033	-49.473	0.307	-0.145
-526.018	800.000	-0.099	-0.309
-525.004	-29.112	-0.308	-0.175
-523.989	-96.028	0.237	-0.062
-522.975	203.006	-0.075	0.115
-521.960	285.918	-0.078	-0.140
-520.945	703.768	-0.084	0.220
-519.931	138.494	-0.191	0.248
-518.916	480.594	0.110	-0.246
-517.902	-11.431	0.049	-0.032
-516.887	22.426	-0.196	0.158
-515.872	577.775	0.077	0.187
-514.858	87.666	-0.140	0.153
-513.843	800.000	0.048	0.161
-512.829	-45.218	0.100	0.049
-511.814	800.000	-0.060	0.169
-510.799	-75.245	-0.146	-0.052
-509.785	204.545	0.207	-0.317
-508.770	-27.862	-0.016	-0.009
-507.756	154.573	-0.190	-0.258
-506.741	52.570	-0.039	-0.037
-505.726	22.422	0.129	0.104
-504.712	156.719	-0.233	-0.317
-503.697	-50.962	0.231	-0.107
-502.683	380.251	0.050	0.101
-501.668	-92.919	-0.288	0.080
-500.653	-53.100	-0.263	-0.119
-499.639	-200.000	-0.015	0.287
-498.624	623.331	-0.016	-0.039
-497.610	48.070	0.204	-0.188
-496.595	-21.596	-0.084	0.050
-495.581	-92.322	0.171	0.048
-494.566	-69.966	-0.067	0.025
-493.551	-53.039	0.181	0.082
-492.537	-5.412	0.120	0.081
-491.522	-200.000	-0.406	0.001
-490.508	-30.914	-0.203	0.113
-489.493	-23.839	0.168	-0.099
-488.478	204.431	0.123	-0.188
-487.464	-200.000	-0.032	-0.143
-486.449	-43.552	-0.231	-0.115
-485.435	10.382	0.198	0.149
-484.420	-200.000	0.027	0.137
-483.405	-54.885	0.097	-0.043
-482.391	-68.218	0.170	0.065
-481.376	-89.733	0.225	-0.065
-480.362	158.258	-0.203	-0.278
-479.347	-200.000	0.046	-0.248
-478.332	-83.059	0.093	0.030
-477.318	-200.000	-0.011	-0.081
-476.303	57.419	-0.148	-0.143
-475.289	142.166	0.053	0.069
-474.274	-62.306	0.149	-0.061
-473.259	-71.290	-0.121	0.045
-472.245	-197.673	-0.244	-0.001
-471.230	75.677	0.011	0.011
-470.216	-46.456	-0.134	-0.065
-469.201	24.402	0.123	-0.101
-468.186	-24.929	-0.241	-0.141
-467.172	119.957	-0.031	0.038
-466.157	-200.000	0.041	-0.401
-465.143	-58.793	-0.177	0.076
-464.128	168.331	0.128	0.179
-463.113	-200.000	-0.019	0.296
-462.099	-200.000	0.045	0.261
-461.084	386.756	0.060	0.122
-460.070	-30.213	0.175	-0.098
-459.055	-90.954	0.292	0.083
-458.040	-29.676	0.273	-0.153
-457.026	-95.048	-0.185	0.049
-456.011	0.125	0.102	0.071
-454.997	-180.790	-0.133	-0.003
-453.982	164.066	0.064	0.090
-452.968	-200.000	-0.086	-0.375
-451.953	4.521	-0.156	0.113
-450.938	-67.808	-0.345	0.133
-449.924	25.205	-0.113	0.092
-448.909	-8.408	-0.312	0.207
-447.895	800.000	-0.095	0.325
-446.880	606.012	-0.097	-0.239
-445.865	-23.595	0.132	-0.078
-444.851	-65.774	-0.109	-0.043
-443.836	-82.133	0.569	-0.183
-442.822	800.000	0.073	0.285
-441.807	341.056	-0.123	-0.237
-440.792	-200.000	0.018	0.178
-439.778	-81.367	0.315	0.102
-438.763	-94.041	-0.342	0.093
-437.749	-53.948	-0.209	0.094
-436.734	800.000	0.053	-0.177
-435.719	3.848	-0.343	-0.247
-434.705	99.296	-0.162	0.184
-433.690	-200.000	-0.026	0.116
-432.676	-103.664	-0.247	0.057
-431.661	642.628	0.110	-0.277
-430.646	-200.000	-0.027	-0.136
-429.632	-44.335	0.314	0.155
-428.617	-168.321	0.200	0.008
-427.603	-200.000	0.024	0.160
-426.588	196.541	0.118	0.177
-425.573	279.776	0.115	-0.202
-424.559	-93.603	0.011	-0.003
-423.544	-24.043	0.128	-0.075
-422.530	-111.575	-0.272	0.054
-421.515	669.788	-0.052	0.132
-420.500	-46.773	0.193	0.093
-419.486	-45.849	0.217	0.106
-418.471	-200.000	-0.018	0.192
-417.457	-76.066	0.075	0.026
-416.442	549.832	0.023	0.054
-415.428	-12.765	-0.253	0.162
-414.413	800.000	0.022	0.060
-413.398	-139.767	0.179	0.019
-412.384	-200.000	-0.018	0.307
-411.369	800.000	-0.014	-0.054
-410.355	63.496	-0.224	-0.221
-409.340	246.408	0.195	0.323
-408.325	800.000	0.042	-0.140
-407.311	-44.943	0.284	0.139
-406.296	-200.000	0.078	-0.415
-405.282	-108.556	0.168	-0.035
-404.267	-166.251	0.032	-0.001
-403.252	467.772	-0.107	0.236
-402.238	238.413	0.061	0.100
-401.223	57.918	-0.170	-0.164
-400.209	634.891	0.110	-0.275
-399.194	-200.000	-0.036	-0.531
-398.179	404.266	-0.112	0.232
-397.165	102.736	-0.067	0.077
-396.150	125.662	0.203	0.253
-395.136	-200.000	-0.023	-0.321
-394.121	-2.218	0.234	-0.162
-393.106	624.007	0.079	0.196
-392.092	-106.297	-0.218	0.048
-391.077	675.653	0.045	0.115
-390.063	17.651	-0.151	0.118
-389.048	619.969	-0.099	0.246
-388.033	471.565	0.113	0.249
-387.019	-200.000	0.008	0.079
-386.004	315.176	0.040	-0.073
-384.990	-43.107	0.115	-0.057
-383.975	135.639	-0.024	-0.030
-382.960	-78.387	0.363	-0.122
-381.946	800.000	-0.066	-0.186
-380.931	800.000	-0.053	-0.194
-379.917	-13.892	-0.361	-0.230
-378.902	82.536	-0.239	-0.255
-377.888	6.539	0.357	0.261
-376.873	-80.317	0.333	-0.109
-375.858	-51.613	-0.426	0.195
-374.844	-200.000	0.003	-0.058
-373.829	-84.834	-0.150	0.046
-372.815	-22.730	-0.034	0.020
-371.800	-200.000	-0.015	0.404
-370.785	-131.585	-0.344	-0.045
-369.771	269.314	-0.149	0.258
-368.756	-133.118	0.070	-0.009
-367.742	-108.123	-0.320	-0.068
-366.727	-97.975	-0.155	0.039
-365.712	800.000	-0.051	-0.204
-364.698	-48.435	-0.055	0.026
-363.683	-132.298	0.210	0.027
-362.669	467.069	-0.183	-0.404
-361.654	-145.965	0.159	-0.014
-360.639	31.659	0.137	-0.116
-359.625	-46.998	0.136	0.065
-358.610	-129.579	0.192	-0.026
-357.596	-200.000	-0.009	0.335
-356.581	-200.000	0.013	0.109
-355.566	134.798	-0.194	0.248
-354.552	-91.284	-0.295	0.083
-353.537	304.188	-0.076	0.139
-352.523	184.194	-0.072	0.105
-351.508	800.000	0.138	-0.395
-350.493	-8.973	0.280	0.184
-349.479	512.911	0.082	0.188
-348.464	33.348	-0.192	-0.164
-347.450	-58.940	-0.360	-0.153
-346.435	-20.223	-0.154	0.093
-345.420	800.000	-0.035	-0.142
-344.406	800.000	0.109	0.297
-343.391	258.687	0.136	-0.230
-342.377	121.374	0.331	-0.405
-341.362	-81.129	0.348	-0.113
-340.348	107.947	0.017	-0.020
-339.333	95.922	-0.116	-0.130
-338.318	800.000	0.026	-0.081
-337.304	-200.000	0.007	0.041
-336.289	-57.323	-0.063	0.027
-335.275	33.995	-0.140	0.120
-334.260	3.419	-0.254	-0.182
-333.245	19.433	-0.203	0.160
-332.231	166.515	-0.117	0.163
-331.216	185.415	0.052	0.075
-330.202	-90.206	0.159	-0.045
-329.187	-159.418	0.279	-0.015
-328.172	373.671	0.101	0.202
-327.158	800.000	0.087	0.240
-326.143	-131.175	-0.203	0.026
-325.129	68.465	0.174	-0.175
-324.114	-200.000	-0.010	-0.102
-323.099	-200.000	-0.022	0.324
-322.085	-200.000	-0.009	0.161
-321.070	-99.182	0.129	0.032
-320.056	-71.181	-0.355	0.131
-319.041	-200.000	-0.011	-0.050
-318.026	-107.750	-0.366	0.078
-317.012	-11.928	-0.152	-0.098
-315.997	-200.000	-0.017	-0.141
-314.983	206.275	-0.099	-0.151
-313.968	103.800	0.118	-0.136
-312.953	-92.027	0.254	-0.070
-311.939	34.499	0.348	-0.298
-310.924	-70.356	-0.373	-0.139
-309.910	-200.000	-0.030	0.198
-308.895	-182.640	-0.300	0.005
-307.880	-147.703	0.514	0.042
-306.866	-34.811	0.111	0.059
-305.851	-200.000	-0.063	0.285
-304.837	271.446	-0.171	0.295
-303.822	-65.078	0.261	0.103
-302.807	278.565	-0.077	-0.134
-301.793	-130.628	0.159	-0.021
-300.778	-108.276	0.046	0.010
-299.764	558.130	-0.027	0.065
-298.749	800.000	-0.056	-0.159
-297.735	15.570	-0.201	0.155
-296.720	-45.515	-0.104	-0.050
-295.705	354.059	0.149	-0.291
-294.691	47.820	0.227	0.208
-293.676	800.000	-0.088	0.285
-292.662	30.047	0.227	0.190
-291.647	-200.000	0.030	-0.159
-290.632	800.000	0.096	-0.325
-289.618	20.483	-0.220	-0.174
-288.603	-129.343	-0.082	-0.011
-287.589	10.010	-0.096	-0.072
-286.574	130.122	0.171	0.214
-285.559	247.622	0.384	-0.636
-284.545	-200.000	-0.023	-0.333
-283.530	-117.809	-0.191	-0.034
-282.516	-88.372	0.299	0.088
-281.501	-45.843	-0.158	0.077
-280.486	312.252	0.083	-0.152
-279.472	-87.409	-0.307	0.091
-278.457	161.597	0.102	-0.140
-277.443	-48.428	0.065	0.031
-276.428	-100.325	-0.367	0.089
-275.413	-135.818	0.171	0.020
-274.399	701.210	-0.015	-0.038
-273.384	247.362	0.049	0.081
-272.370	66.685	0.241	-0.240
-271.355	800.000	0.029	-0.100
-270.340	-200.000	0.053	0.255
-269.326	14.507	0.275	0.210
-268.311	-167.355	-0.162	0.006
-267.297	52.767	-0.048	0.045
-266.282	-200.000	0.045	0.277
-265.267	800.000	0.068	0.208
-264.253	330.981	0.183	0.345
-263.238	-200.000	-0.026	0.164
-262.224	12.049	0.115	-0.086
-261.209	125.930	-0.062	0.077
-260.195	229.211	-0.056	0.090
-259.180	-12.640	0.127	-0.081
-258.165	800.000	0.027	0.080
-257.151	-200.000	-0.043	0.257
-256.136	59.525	-0.301	-0.290
-255.122	238.191	0.228	0.370
-254.107	-62.639	0.227	-0.092
-253.092	214.148	-0.089	0.138
-252.078	138.555	0.198	0.255
-251.063	187.242	0.090	0.131
-250.049	-200.000	-0.024	-0.136
-249.034	5.320	0.307	0.221
-248.019	167.077	0.078	-0.108
-247.005	34.186	-0.128	0.109
-245.990	61.266	-0.218	0.212
-244.976	-175.548	-0.073	0.002
-243.961	-147.926	0.095	0.008
-242.946	-200.000	0.006	-0.109
-241.932	800.000	-0.026	-0.106
-240.917	87.945	0.135	0.147
-239.903	-2.219	0.134	0.092
-238.888	-1.081	-0.110	0.076
-237.873	-91.164	0.252	-0.071
-236.859	2.756	-0.114	0.081
-235.844	-16.496	-0.021	0.013
-234.830	800.000	0.088	-0.323
-233.815	-128.404	0.339	0.047
-232.800	-69.724	0.221	0.083
-231.786	-120.465	-0.292	-0.049
-230.771	-200.000	-0.012	0.289
-229.757	-200.000	-0.006	0.083
-228.742	210.738	-0.229	0.352
-227.727	-153.713	-0.342	0.023
-226.713	-68.052	-0.208	0.079
-225.698	69.157	0.177	-0.178
-224.684	-146.682	-0.317	0.027
-223.669	800.000	-0.133	0.454
-222.655	-158.307	-0.284	-0.016
-221.640	-58.696	0.182	-0.077
-220.625	-36.772	0.335	-0.176
-219.611	542.662	-0.109	-0.255
-218.596	-200.000	-0.000	0.103
-217.582	77.824	0.141	0.146
-216.567	-67.550	-0.145	0.056
-215.552	-109.267	0.095	0.020
-214.538	-200.000	0.007	-0.178
-213.523	800.000	0.054	0.148
-212.509	-200.000	0.005	0.213
-211.494	-4.930	-0.144	-0.097
-210.479	115.811	0.126	-0.151
-209.465	631.028	-0.112	-0.277
-208.450	-200.000	0.034	-0.179
-207.436	800.000	0.030	0.101
-206.421	188.038	0.183	-0.268
-205.406	800.000	-0.033	0.111
-204.392	-200.000	-0.024	0.248
-203.377	347.842	0.090	0.173
-202.363	407.886	0.072	-0.149
-201.348	800.000	-0.041	-0.159
-200.333	739.116	0.099	0.260
-199.319	-65.744	-0.035	-0.014
-198.304	299.491	-0.156	-0.281
-197.290	12.625	0.138	0.104
-196.275	-36.797	-0.238	0.125
-195.260	233.865	0.118	-0.190
-194.246	-200.000	-0.021	-0.148
-193.231	-7.361	0.134	0.089
-192.217	-109.872	-0.165	0.034
-191.202	335.030	0.079	-0.150
-190.187	407.153	-0.096	-0.197
-189.173	-8.584	0.087	0.057
-188.158	89.184	-0.194	-0.211
-187.144	-200.000	0.032	-0.162
-186.129	-105.733	0.204	0.045
-185.114	-152.842	0.176	-0.012
-184.100	307.093	-0.117	0.213
-183.085	800.000	0.069	-0.219
-182.071	12.446	-0.169	0.128
-181.056	800.000	-0.092	-0.308
-180.042	-162.304	0.196	0.010
-179.027	-48.541	-0.264	0.124
-178.012	-200.000	-0.002	-0.159
-176.998	89.063	0.225	-0.245
-175.983	19.684	-0.214	-0.168
-174.969	135.371	0.210	-0.267
-173.954	-200.000	-0.009	-0.139
-172.939	339.298	-0.060	0.114
-171.925	-8.719	-0.107	0.070
-170.910	-200.000	0.025	0.110
-169.896	-145.715	0.133	0.012
-168.881	200.217	0.061	0.092
-167.866	-115.427	-0.129	0.024
-166.852	756.608	0.081	0.215
-165.837	-43.106	-0.086	0.042
-164.823	-125.705	-0.114	-0.017
-163.808	-109.694	-0.197	-0.040
-162.793	598.743	0.170	-0.410
-161.779	-27.743	0.234	-0.132
-160.764	-22.683	-0.207	-0.122
-159.750	-163.095	-0.154	-0.007
-158.735	226.697	0.054	0.086
-157.720	560.972	0.031	-0.074
-156.706	609.352	-0.077	-0.189
-155.691	111.786	0.200	-0.236
-154.677	-31.175	-0.168	-0.092
-153.662	213.125	0.057	-0.088
-152.647	54.216	0.203	0.191
-151.633	387.622	0.112	-0.226
-150.618	-110.641	0.259	0.052
-149.604	183.043	-0.019	0.027
-148.589	42.509	0.079	-0.070
-147.574	356.370	-0.050	0.096
-146.560	-200.000	-0.013	0.240
-145.545	-43.835	-0.218	-0.107
-144.531	214.412	-0.061	-0.095
-143.516	-50.270	0.254	-0.117
-142.502	135.263	0.179	0.227
-141.487	-200.000	-0.007	0.194
-140.472	-200.000	-0.027	0.178
-139.458	-94.875	0.123	0.033
-138.443	800.000	-0.052	0.188
-137.429	-200.000	0.003	0.442
-136.414	1.374	0.146	-0.102
-135.399	7.436	-0.040	-0.029
-134.385	-0.151	0.094	0.065
-133.370	-141.637	0.315	-0.031
-132.356	8.614	0.253	0.186
-131.341	-11.237	-0.182	-0.117
-130.326	196.060	-0.055	-0.082
-129.312	-24.886	-0.180	0.104
-128.297	-155.175	-0.332	0.021
-127.283	298.920	0.030	0.054
-126.268	-200.000	0.054	0.635
-125.253	-7.916	-0.030	-0.020
-124.239	78.132	-0.176	0.183
-123.224	-200.000	0.387	-0.001
-122.210	800.000	0.189	0.544
-121.195	81.571	0.243	0.256
-120.180	515.424	0.098	0.224
