DTS Sentinel unit serial number:	SN413079Multiplexer serial number:	ORYXHardware model number:	OX4-SRSoftware version number:	ORYX F/W v4.00 Oryx Data Collector v3.7.2.0data status	okinstallation	princeton_trtdifferential loss correction	single-endedforward channel	channel 2reverse channel	N/Adate	2019/09/16time	22:35:35forward acquisition time	60.00reverse acquisition time	0.00gamma	496.2192k internal	0.2328k external	0.2328temperature offset calibration	0.9970default loss term (dB/km)	0.3790temperature slope calibration	1.0000multiplexer offset coefficient	1.0000multiplexer slope coefficient	1.0000fibre end	0.00T internal ref (°C)	30.73T ext. ref 1 (°C)	0.08T ext. ref 2 (°C)	24.40length (m)	temperature (°C)	Stokes	anti-Stokes-747.200	-143.227	0.255	0.025
-746.185	27.943	-0.110	-0.094
-745.171	152.472	-0.117	0.161
-744.156	-146.557	-0.334	-0.029
-743.142	800.000	-0.019	-0.058
-742.127	138.179	0.066	-0.087
-741.112	800.000	0.057	-0.177
-740.098	-49.420	0.111	-0.053
-739.083	0.620	-0.290	0.209
-738.069	800.000	0.156	0.436
-737.054	-129.738	-0.352	0.049
-736.039	-90.930	0.080	0.023
-735.025	161.365	0.086	0.121
-734.010	-109.303	0.195	-0.042
-732.996	157.125	0.143	-0.199
-731.981	-148.432	0.107	0.009
-730.966	-200.000	-0.031	-0.284
-729.952	260.965	-0.153	-0.266
-728.937	-3.558	0.176	-0.124
-727.923	-26.527	0.404	0.238
-726.908	-111.981	0.107	-0.022
-725.894	-200.000	0.090	0.411
-724.879	-199.311	-0.178	0.001
-723.864	-14.473	-0.182	-0.118
-722.850	-58.340	0.184	0.081
-721.835	27.870	0.085	-0.072
-720.821	711.060	-0.073	-0.194
-719.806	-200.000	-0.098	-0.000
-718.791	189.616	0.062	-0.094
-717.777	800.000	-0.057	0.231
-716.762	524.007	-0.055	-0.130
-715.748	153.381	0.159	-0.219
-714.733	596.915	0.068	-0.169
-713.718	-22.822	-0.181	0.110
-712.704	597.396	0.027	0.068
-711.689	-200.000	-0.095	-0.509
-710.675	-50.153	0.170	-0.081
-709.660	69.826	-0.386	0.401
-708.645	274.907	0.065	0.117
-707.631	5.746	0.206	0.153
-706.616	-88.317	0.192	0.058
-705.602	76.727	-0.270	-0.289
-704.587	800.000	-0.032	-0.135
-703.572	-200.000	-0.006	0.150
-702.558	-195.663	-0.378	-0.003
-701.543	221.213	0.236	-0.381
-700.529	-30.188	0.237	-0.136
-699.514	3.602	-0.053	-0.039
-698.499	800.000	-0.114	0.320
-697.485	-5.053	-0.102	-0.071
-696.470	38.889	0.054	0.048
-695.456	-107.232	-0.406	-0.090
-694.441	218.310	0.082	-0.132
-693.426	-96.389	0.196	0.052
-692.412	800.000	-0.020	0.062
-691.397	99.674	-0.244	0.284
-690.383	-200.000	-0.035	-0.194
-689.368	-59.430	0.223	-0.097
-688.354	-118.444	0.158	0.028
-687.339	-181.438	-0.147	-0.003
-686.324	268.263	0.162	0.285
-685.310	-76.758	0.096	0.034
-684.295	-200.000	0.006	-0.176
-683.281	-200.000	-0.008	0.089
-682.266	155.494	-0.269	0.373
-681.251	-172.228	0.481	0.016
-680.237	-29.130	0.363	-0.209
-679.222	191.300	0.145	0.219
-678.208	-104.588	-0.435	0.101
-677.193	11.421	-0.057	0.044
-676.178	-80.551	-0.177	-0.059
-675.164	185.541	0.011	-0.017
-674.149	-31.402	0.086	0.049
-673.135	-65.440	-0.160	-0.065
-672.120	-79.340	0.218	-0.074
-671.105	800.000	0.082	0.291
-670.091	-46.898	-0.290	0.142
-669.076	-200.000	0.045	-0.333
-668.062	60.564	0.178	0.178
-667.047	157.865	0.121	0.169
-666.032	800.000	-0.084	-0.259
-665.018	237.003	0.149	-0.248
-664.003	729.309	-0.092	-0.247
-662.989	39.352	0.295	-0.265
-661.974	-200.000	0.031	-0.162
-660.959	61.952	-0.183	0.184
-659.945	-19.284	0.337	-0.210
-658.930	-59.603	-0.170	-0.073
-657.916	389.949	-0.094	0.196
-656.901	208.537	-0.113	0.177
-655.886	-63.399	0.115	-0.048
-654.872	-170.307	-0.098	-0.003
-653.857	3.300	0.074	-0.054
-652.843	-38.513	-0.276	0.146
-651.828	-186.517	-0.304	0.004
-650.814	-41.160	0.341	-0.177
-649.799	800.000	-0.104	-0.371
-648.784	3.468	-0.208	-0.152
-647.770	-70.885	0.029	0.011
-646.755	-200.000	0.018	0.281
-645.741	448.975	-0.128	0.284
-644.726	235.575	0.119	0.197
-643.711	-38.189	0.522	-0.278
-642.697	-24.116	-0.266	0.160
-641.682	-200.000	0.013	0.122
-640.668	-22.166	-0.169	0.103
-639.653	-114.079	-0.470	-0.091
-638.638	343.606	0.074	0.146
-637.624	20.125	-0.075	0.060
-636.609	605.646	-0.185	-0.463
-635.595	229.375	-0.087	0.142
-634.580	380.914	0.074	0.152
-633.565	53.420	0.069	0.066
-632.551	36.610	-0.110	0.097
-631.536	-103.241	0.159	-0.038
-630.522	116.265	-0.079	0.097
-629.507	130.311	-0.083	-0.107
-628.492	106.447	-0.056	-0.067
-627.478	542.445	0.073	0.175
-626.463	75.402	0.297	0.314
-625.449	170.588	0.109	0.157
-624.434	-62.671	-0.311	-0.129
-623.419	80.758	0.168	-0.182
-622.405	-26.755	-0.134	0.078
-621.390	242.297	-0.100	-0.168
-620.376	272.708	-0.082	-0.145
-619.361	-95.946	0.450	0.120
-618.346	107.793	-0.205	-0.245
-617.332	4.464	0.307	-0.226
-616.317	432.853	-0.098	-0.214
-615.303	-97.301	-0.138	0.036
-614.288	4.997	-0.170	0.125
-613.273	800.000	-0.122	0.423
-612.259	-122.249	-0.238	-0.039
-611.244	-200.000	-0.024	-0.341
-610.230	-97.872	-0.276	-0.071
-609.215	329.892	-0.113	0.217
-608.201	11.968	0.131	0.101
-607.186	126.370	0.163	0.207
-606.171	-200.000	-0.009	0.064
-605.157	-109.734	0.069	0.014
-604.142	800.000	-0.056	0.192
-603.128	800.000	-0.012	0.039
-602.113	-153.385	0.082	0.006
-601.098	-200.000	-0.016	-0.192
-600.084	-200.000	0.007	0.174
-599.069	-200.000	-0.009	-0.168
-598.055	126.202	-0.162	0.205
-597.040	800.000	-0.113	-0.392
-596.025	800.000	-0.037	-0.122
-595.011	800.000	0.066	0.204
-593.996	601.786	-0.075	-0.186
-592.982	227.187	0.115	-0.187
-591.967	-161.310	0.030	0.002
-590.952	800.000	-0.133	0.417
-589.938	369.108	0.047	0.095
-588.923	-134.699	0.090	-0.011
-587.909	12.991	-0.230	-0.178
-586.894	-168.243	0.132	0.005
-585.879	800.000	0.065	0.191
-584.865	-41.449	-0.152	0.078
-583.850	-89.074	-0.264	0.078
-582.836	-82.644	0.104	0.034
-581.821	-200.000	0.010	-0.063
-580.806	430.171	-0.077	-0.166
-579.792	352.414	-0.143	0.284
-578.777	-200.000	-0.022	0.303
-577.763	-200.000	0.022	0.252
-576.748	-17.185	-0.137	0.087
-575.733	37.170	0.143	-0.127
-574.719	-3.995	0.187	0.130
-573.704	-151.029	0.296	-0.022
-572.690	80.968	-0.243	-0.262
-571.675	-126.626	-0.318	0.047
-570.661	-57.579	0.127	-0.056
-569.646	-92.958	0.047	0.013
-568.631	-200.000	0.041	0.412
-567.617	-191.345	-0.487	-0.005
-566.602	125.159	0.112	0.142
-565.588	177.773	-0.073	-0.106
-564.573	281.518	-0.133	0.238
-563.558	292.679	-0.110	0.201
-562.544	-200.000	0.044	-0.265
-561.529	-109.402	0.167	-0.035
-560.515	-9.469	0.231	0.155
-559.500	-200.000	0.008	-0.146
-558.485	-2.453	0.030	-0.021
-557.471	121.803	-0.036	0.044
-556.456	-12.187	-0.150	-0.098
-555.442	-77.954	0.167	-0.058
-554.427	-89.168	-0.150	-0.044
-553.412	-145.909	0.168	-0.015
-552.398	-40.245	0.123	-0.064
-551.383	800.000	0.033	-0.122
-550.369	-99.071	0.409	-0.104
-549.354	164.497	0.028	0.040
-548.339	-142.802	0.180	0.018
-547.325	-200.000	-0.031	-0.217
-546.310	-115.514	-0.048	-0.009
-545.296	170.676	-0.107	-0.153
-544.281	6.640	0.091	0.067
-543.266	-200.000	0.041	0.302
-542.252	177.327	-0.129	-0.187
-541.237	50.313	-0.287	-0.271
-540.223	16.976	0.139	0.110
-539.208	207.144	0.074	0.116
-538.193	178.283	0.247	0.360
-537.179	-75.978	-0.322	-0.114
-536.164	-47.020	-0.244	0.119
-535.150	-100.944	-0.098	0.024
-534.135	-66.253	0.221	-0.088
-533.121	-165.187	0.112	-0.005
-532.106	-42.027	-0.172	-0.088
-531.091	-169.142	0.058	0.002
-530.077	-200.000	0.047	-0.306
-529.062	6.014	-0.284	0.210
-528.048	151.914	0.167	0.228
-527.033	-24.327	-0.125	-0.075
-526.018	688.554	0.042	-0.110
-525.004	-200.000	0.033	0.280
-523.989	-69.648	-0.074	-0.028
-522.975	-40.700	0.300	0.155
-521.960	800.000	0.103	0.294
-520.945	-52.716	-0.182	0.084
-519.931	38.239	0.173	0.154
-518.916	124.034	0.110	-0.138
-517.902	309.206	-0.136	0.253
-516.887	158.614	-0.165	0.228
-515.872	-102.213	-0.401	-0.096
-514.858	1.376	0.080	-0.058
-513.843	3.761	-0.189	0.138
-512.829	-200.000	-0.068	0.438
-511.814	-157.205	-0.329	0.020
-510.799	726.762	-0.009	0.023
-509.785	-200.000	-0.025	0.151
-508.770	347.097	0.059	-0.116
-507.756	-118.598	0.110	0.019
-506.741	-89.869	0.443	0.129
-505.726	-148.576	-0.276	0.022
-504.712	-38.992	0.145	0.076
-503.697	219.247	-0.210	-0.335
-502.683	800.000	-0.115	0.466
-501.668	-119.917	0.123	-0.021
-500.653	192.368	0.249	-0.375
-499.639	-110.516	-0.068	0.014
-498.624	-46.043	-0.261	-0.128
-497.610	14.291	-0.175	-0.136
-496.595	-168.638	0.033	-0.001
-495.581	-47.538	-0.063	-0.030
-494.566	-94.142	-0.142	0.039
-493.551	5.855	-0.199	0.147
-492.537	597.199	-0.101	-0.249
-491.522	-200.000	-0.065	-0.331
-490.508	-116.448	0.350	0.064
-489.493	-19.915	-0.205	-0.126
-488.478	-120.112	0.290	-0.050
-487.464	22.294	0.164	0.134
-486.449	-65.212	0.184	0.074
-485.435	126.474	-0.052	-0.066
-484.420	588.829	0.055	-0.136
-483.405	-74.321	0.052	0.019
-482.391	-200.000	0.098	0.429
-481.376	-200.000	-0.009	0.109
-480.362	119.319	0.165	-0.203
-479.347	-84.124	-0.322	-0.102
-478.332	-75.690	0.254	0.090
-477.318	-89.144	0.180	-0.053
-476.303	800.000	-0.064	-0.274
-475.289	86.769	-0.135	-0.148
-474.274	288.797	-0.219	-0.397
-473.259	-75.727	-0.324	-0.115
-472.245	-134.448	-0.335	-0.041
-471.230	-200.000	0.029	-0.165
-470.216	-77.645	-0.165	0.057
-469.201	-61.862	-0.305	-0.127
-468.186	800.000	0.076	-0.217
-467.172	157.955	-0.085	-0.118
-466.157	-200.000	0.222	-0.001
-465.143	-128.865	-0.311	0.044
-464.128	381.161	-0.175	-0.358
-463.113	800.000	0.059	-0.183
-462.099	696.972	-0.145	0.381
-461.084	800.000	-0.116	0.334
-460.070	542.308	-0.147	-0.349
-459.055	-63.861	-0.170	-0.069
-458.040	95.223	0.148	-0.168
-457.026	87.118	-0.055	0.060
-456.011	-42.078	0.120	0.061
-454.997	-46.719	0.073	-0.035
-453.982	-41.752	-0.032	-0.016
-452.968	-73.634	-0.178	0.065
-451.953	441.293	-0.009	-0.019
-450.938	-131.992	-0.249	-0.032
-449.924	-31.102	0.221	-0.124
-448.909	-141.098	0.333	-0.034
-447.895	-15.016	0.259	-0.165
-446.880	261.178	-0.195	-0.337
-445.865	-152.059	0.046	0.003
-444.851	-86.509	-0.127	0.039
-443.836	-48.617	0.539	-0.258
-442.822	-200.000	-0.006	-0.065
-441.807	71.601	0.195	0.201
-440.792	305.140	0.057	-0.105
-439.778	-121.144	0.607	-0.101
-438.763	-165.583	-0.180	-0.008
-437.749	-200.000	-0.004	-0.508
-436.734	82.307	0.180	0.194
-435.719	-189.810	-0.374	0.004
-434.705	-18.728	-0.308	-0.191
-433.690	-95.495	-0.316	-0.084
-432.676	142.301	-0.076	-0.100
-431.661	334.009	0.118	-0.228
-430.646	-200.000	0.036	0.217
-429.632	226.807	-0.095	0.153
-428.617	-70.840	0.143	-0.054
-427.603	217.343	-0.103	0.163
-426.588	-65.680	-0.116	0.046
-425.573	-69.684	0.108	-0.041
-424.559	-57.225	0.248	-0.108
-423.544	-85.050	-0.417	0.130
-422.530	-161.456	0.086	-0.004
-421.515	800.000	-0.032	0.135
-420.500	35.120	0.018	-0.016
-419.486	-200.000	-0.016	0.214
-418.471	58.603	-0.113	-0.110
-417.457	66.392	0.193	-0.195
-416.442	223.659	-0.100	0.161
-415.428	-200.000	0.039	-0.256
-414.413	38.243	0.260	-0.231
-413.398	-99.857	0.036	-0.009
-412.384	403.889	0.095	-0.199
-411.369	258.008	0.145	0.248
-410.355	0.904	0.100	-0.072
-409.340	276.177	-0.151	0.266
-408.325	-33.066	-0.265	0.146
-407.311	87.047	-0.059	0.065
-406.296	76.536	-0.260	0.274
-405.282	-95.327	-0.156	-0.042
-404.267	84.874	-0.192	-0.210
-403.252	288.320	0.058	-0.105
-402.238	-200.000	-0.060	-0.266
-401.223	249.215	-0.091	-0.154
-400.209	-70.428	0.134	0.051
-399.194	186.168	0.206	0.304
-398.179	-200.000	-0.021	0.091
-397.165	-143.587	-0.180	0.017
-396.150	-200.000	-0.059	-0.286
-395.136	-92.055	0.234	0.066
-394.121	-200.000	0.071	0.381
-393.106	-135.882	0.171	0.020
-392.092	12.691	-0.291	-0.224
-391.077	-200.000	-0.066	-0.299
-390.063	-65.362	0.188	0.075
-389.048	-38.036	0.163	-0.086
-388.033	-83.108	0.225	-0.072
-387.019	-200.000	0.010	-0.411
-386.004	-76.912	0.272	0.095
-384.990	-200.000	-0.019	0.224
-383.975	-156.878	0.154	0.009
-382.960	-200.000	0.023	0.159
-381.946	-200.000	0.007	-0.148
-380.931	-200.000	-0.032	-0.302
-379.917	-55.177	-0.124	-0.055
-378.902	-200.000	0.000	-0.001
-377.888	-44.258	0.147	-0.073
-376.873	115.179	0.100	0.121
-375.858	-200.000	-0.005	0.089
-374.844	-196.217	-0.182	-0.001
-373.829	-0.561	0.206	-0.145
-372.815	800.000	0.023	0.070
-371.800	-20.111	-0.121	-0.074
-370.785	-200.000	0.061	0.455
-369.771	800.000	-0.049	0.186
-368.756	-97.628	0.143	0.037
-367.742	16.427	-0.322	0.253
-366.727	299.462	-0.211	-0.385
-365.712	-152.159	0.205	-0.015
-364.698	474.558	-0.043	0.097
-363.683	261.489	-0.205	0.353
-362.669	-55.459	-0.322	0.143
-361.654	-61.571	0.306	0.128
-360.639	800.000	-0.013	0.052
-359.625	196.221	-0.020	-0.030
-358.610	-52.522	-0.096	-0.044
-357.596	115.055	-0.087	-0.105
-356.581	-200.000	-0.010	0.057
-355.566	114.541	-0.144	0.174
-354.552	-131.444	-0.348	-0.046
-353.537	108.519	-0.174	-0.207
-352.523	800.000	-0.023	0.092
-351.508	800.000	-0.064	-0.225
-350.493	800.000	-0.076	-0.223
-349.479	-196.269	0.186	-0.001
-348.464	800.000	-0.108	-0.304
-347.450	590.464	-0.082	-0.201
-346.435	725.387	0.098	-0.260
-345.420	799.150	0.075	0.206
-344.406	40.161	-0.076	-0.068
-343.391	-200.000	-0.041	-0.246
-342.377	11.060	0.249	0.189
-341.362	-59.494	-0.086	-0.037
-340.348	-34.398	-0.108	-0.059
-339.333	-200.000	0.062	0.328
-338.318	203.014	0.128	-0.196
-337.304	-149.031	0.157	0.013
-336.289	404.867	0.135	0.282
-335.275	-200.000	0.003	-0.238
-334.260	-200.000	0.005	-0.180
-333.245	-200.000	0.035	0.373
-332.231	102.012	0.332	0.385
-331.216	-200.000	-0.010	-0.431
-330.202	71.351	-0.186	-0.191
-329.187	372.083	0.221	0.444
-328.172	-200.000	0.019	-0.209
-327.158	-200.000	0.010	-0.305
-326.143	800.000	-0.089	0.257
-325.129	-78.090	0.126	0.043
-324.114	-96.322	0.079	-0.021
-323.099	185.661	-0.157	0.232
-322.085	800.000	0.113	0.330
-321.070	-200.000	0.007	0.267
-320.056	23.830	0.097	-0.079
-319.041	-68.617	0.178	0.068
-318.026	-167.432	0.061	-0.002
-317.012	46.035	0.236	-0.217
-315.997	800.000	0.114	-0.318
-314.983	159.109	0.085	-0.118
-313.968	-73.636	0.157	-0.057
-312.953	-63.198	0.460	0.188
-311.939	393.400	-0.048	-0.100
-310.924	-168.815	-0.058	-0.002
-309.910	-106.132	0.163	0.036
-308.895	-200.000	-0.024	-0.619
-307.880	51.128	0.115	-0.108
-306.866	-200.000	-0.011	0.052
-305.851	-46.858	-0.134	-0.065
-304.837	582.653	0.102	0.248
-303.822	-42.182	0.195	-0.099
-302.807	48.918	0.130	0.121
-301.793	104.998	0.130	-0.152
-300.778	372.674	-0.187	0.377
-299.764	-200.000	0.065	0.367
-298.749	28.456	0.334	0.279
-297.735	63.952	0.158	0.157
-296.720	60.835	0.288	0.283
-295.705	-169.886	0.282	-0.010
-294.691	800.000	-0.062	-0.186
-293.676	391.961	-0.204	0.420
-292.662	102.143	-0.063	0.073
-291.647	-94.782	0.115	-0.031
-290.632	-200.000	-0.035	-0.297
-289.618	-8.010	0.188	0.126
-288.603	103.181	-0.087	-0.101
-287.589	-11.673	0.231	-0.150
-286.574	98.717	0.203	0.232
-285.559	112.492	-0.063	0.075
-284.545	-187.787	-0.133	-0.002
-283.530	-52.556	-0.198	0.091
-282.516	-50.420	-0.255	0.119
-281.501	-135.169	-0.176	0.021
-280.486	176.990	-0.144	-0.207
-279.472	467.642	-0.079	0.175
-278.457	-47.274	0.205	-0.099
-277.443	345.935	0.075	0.145
-276.428	-200.000	-0.008	-0.316
-275.413	-200.000	0.026	-0.216
-274.399	-200.000	-0.042	0.199
-273.384	37.596	0.044	0.039
-272.370	692.357	-0.084	-0.219
-271.355	-60.184	0.163	0.069
-270.340	-97.328	-0.036	0.009
-269.326	337.145	0.054	0.105
-268.311	-200.000	-0.036	-0.373
-267.297	242.974	-0.162	-0.269
-266.282	344.725	0.171	-0.332
-265.267	-43.901	-0.371	-0.185
-264.253	-200.000	-0.023	0.224
-263.238	-1.600	0.164	0.114
-262.224	118.877	0.054	0.066
-261.209	-170.654	-0.210	-0.007
-260.195	800.000	0.069	-0.255
-259.180	27.874	0.114	-0.095
-258.165	-57.652	-0.266	-0.115
-257.151	-65.826	0.210	-0.083
-256.136	-66.025	-0.164	0.065
-255.122	-21.528	-0.274	-0.165
-254.107	-57.887	-0.124	0.053
-253.092	-154.126	0.289	-0.019
-252.078	89.991	0.203	0.224
-251.063	-54.666	-0.252	-0.113
-250.049	800.000	-0.198	-0.542
-249.034	800.000	-0.023	-0.083
-248.019	800.000	-0.127	-0.369
-247.005	-55.529	-0.186	0.082
-245.990	-77.021	-0.305	-0.105
-244.976	22.515	-0.165	-0.133
-243.961	-67.302	0.329	0.128
-242.946	-22.574	0.113	-0.068
-241.932	193.397	-0.042	-0.063
-240.917	-159.976	-0.136	-0.007
-239.903	-200.000	0.024	0.299
-238.888	63.854	0.355	-0.353
-237.873	300.295	-0.102	0.185
-236.859	-34.347	0.249	-0.135
-235.844	-182.817	-0.263	-0.005
-234.830	41.696	-0.227	-0.203
-233.815	207.309	-0.125	-0.192
-232.800	90.070	0.069	0.076
-231.786	-144.662	0.183	0.017
-230.771	182.488	0.168	-0.244
-229.757	14.835	0.339	-0.262
-228.742	109.355	-0.101	-0.119
-227.727	574.827	0.126	0.304
-226.713	-113.464	0.108	-0.021
-225.698	-36.653	-0.094	-0.050
-224.684	143.974	0.089	0.117
-223.669	-35.789	0.277	-0.148
-222.655	-200.000	-0.048	0.311
-221.640	-86.379	-0.106	0.032
-220.625	-126.105	-0.193	0.029
-219.611	189.854	0.208	0.309
-218.596	-50.784	-0.201	-0.093
-217.582	227.391	0.141	-0.226
-216.567	-200.000	0.032	-0.296
-215.552	161.900	0.059	0.082
-214.538	419.576	-0.082	0.173
-213.523	-40.844	-0.209	0.107
-212.509	-94.246	0.381	0.103
-211.494	-39.372	0.183	0.095
-210.479	800.000	0.039	-0.130
-209.465	193.379	-0.097	0.145
-208.450	127.465	-0.126	-0.157
-207.436	800.000	0.110	0.320
-206.421	-200.000	-0.025	0.313
-205.406	-4.044	0.271	0.185
-204.392	-200.000	-0.051	0.305
-203.377	82.189	-0.111	0.119
-202.363	-140.930	0.252	0.026
-201.348	457.211	-0.188	-0.413
-200.333	-200.000	-0.034	0.156
-199.319	33.071	-0.142	0.121
-198.304	-128.575	-0.326	-0.046
-197.290	26.508	0.074	-0.061
-196.275	141.797	0.120	0.157
-195.260	-6.378	0.259	0.174
-194.246	-44.702	0.286	-0.141
-193.231	128.084	-0.072	0.091
-192.217	449.239	-0.061	0.132
-191.202	-26.697	0.229	0.132
-190.187	85.859	0.219	-0.238
-189.173	132.396	-0.053	-0.067
-188.158	97.694	0.069	0.079
-187.144	-51.659	0.240	0.111
-186.129	247.119	-0.069	-0.115
-185.114	100.078	-0.050	-0.057
-184.100	800.000	-0.075	0.296
-183.085	184.253	-0.152	-0.222
-182.071	-75.776	0.108	0.038
-181.056	-22.657	-0.238	-0.142
-180.042	-69.552	0.228	0.086
-179.027	-59.066	0.229	0.097
-178.012	55.597	-0.208	-0.199
-176.998	8.304	0.171	0.127
-175.983	342.502	-0.149	0.288
-174.969	-76.958	0.060	0.021
-173.954	-200.000	-0.006	-0.153
-172.939	-97.637	0.196	-0.050
-171.925	203.567	0.130	-0.199
-170.910	-37.642	0.200	0.105
-169.896	-126.343	-0.320	0.047
-168.881	11.759	0.109	-0.083
-167.866	-124.489	-0.064	0.010
-166.852	-200.000	-0.029	0.344
-165.837	-200.000	0.015	0.185
-164.823	-200.000	-0.010	-0.332
-163.808	170.869	0.086	0.121
-162.793	800.000	-0.073	0.301
-161.779	-112.989	0.156	0.030
-160.764	10.002	-0.138	0.103
-159.750	-4.044	0.014	0.010
-158.735	242.348	-0.217	-0.358
-157.720	-120.274	-0.175	-0.029
-156.706	216.223	-0.171	0.268
-155.691	-106.749	0.447	0.098
-154.677	-200.000	-0.020	0.252
-153.662	-35.653	-0.287	0.153
-152.647	49.134	0.110	-0.102
-151.633	12.660	0.149	0.113
-150.618	466.905	0.080	0.176
-149.604	-10.548	0.343	0.224
-148.589	-51.780	-0.241	-0.111
-147.574	27.908	0.240	-0.200
-146.560	365.329	-0.154	-0.306
-145.545	109.295	0.251	-0.296
-144.531	-200.000	0.041	-0.369
-143.516	-200.000	0.034	0.327
-142.502	55.076	0.023	0.022
-141.487	-200.000	0.003	-0.047
-140.472	100.754	-0.194	0.222
-139.458	297.560	-0.183	0.331
-138.443	173.906	-0.093	0.132
-137.429	147.659	0.074	-0.098
-136.414	-151.942	0.502	-0.036
-135.399	-73.144	-0.183	-0.066
-134.385	-26.351	0.184	0.106
-133.370	105.090	0.042	-0.049
-132.356	-63.645	0.333	0.134
-131.341	-176.131	0.300	-0.008
-130.326	9.076	0.114	0.085
-129.312	-200.000	0.019	-0.089
-128.297	-200.000	0.025	-0.197
-127.283	-74.798	0.132	-0.047
-126.268	-50.516	0.196	0.091
-125.253	-42.028	0.162	-0.082
-124.239	-60.487	0.041	-0.017
-123.224	800.000	0.102	-0.342
-122.210	-155.789	0.101	-0.006
-121.195	32.961	0.318	-0.271
