DTS Sentinel unit serial number:	SN413079Multiplexer serial number:	ORYXHardware model number:	OX4-SRSoftware version number:	ORYX F/W v4.00 Oryx Data Collector v3.7.2.0data status	okinstallation	princeton_trtdifferential loss correction	single-endedforward channel	channel 2reverse channel	N/Adate	2019/09/15time	10:39:34forward acquisition time	60.00reverse acquisition time	0.00gamma	496.2192k internal	0.2316k external	0.2316temperature offset calibration	1.0018default loss term (dB/km)	0.3790temperature slope calibration	1.0000multiplexer offset coefficient	1.0000multiplexer slope coefficient	1.0000fibre end	0.00T internal ref (°C)	34.25T ext. ref 1 (°C)	5.03T ext. ref 2 (°C)	29.62length (m)	temperature (°C)	Stokes	anti-Stokes-747.200	112.980	-0.155	0.190
-746.185	56.530	0.063	-0.062
-745.171	131.843	0.122	0.159
-744.156	-31.214	0.151	-0.086
-743.142	800.000	0.055	-0.169
-742.127	-143.650	0.266	-0.026
-741.112	-110.160	-0.007	0.001
-740.098	405.698	0.089	0.191
-739.083	-200.000	0.107	-0.506
-738.069	167.862	0.194	0.279
-737.054	-141.561	-0.283	-0.029
-736.039	-2.501	-0.128	-0.091
-735.025	800.000	0.045	0.174
-734.010	-200.000	0.010	-0.260
-732.996	800.000	-0.001	-0.002
-731.981	-39.736	0.179	-0.095
-730.966	-100.362	-0.244	-0.061
-729.952	-17.352	-0.131	0.084
-728.937	194.857	-0.066	-0.101
-727.923	-121.328	-0.273	0.046
-726.908	800.000	0.041	-0.167
-725.894	-200.000	0.038	-0.209
-724.879	-72.636	-0.122	0.045
-723.864	24.764	-0.122	-0.103
-722.850	520.661	-0.026	-0.062
-721.835	-200.000	0.009	-0.302
-720.821	-200.000	-0.079	-0.473
-719.806	-142.493	0.081	-0.008
-718.791	-3.381	-0.196	0.138
-717.777	659.449	-0.055	-0.144
-716.762	53.441	-0.108	-0.105
-715.748	28.280	-0.108	-0.093
-714.733	-59.107	-0.084	-0.036
-713.718	44.039	-0.170	-0.158
-712.704	-200.000	0.005	-0.159
-711.689	-200.000	0.053	-0.417
-710.675	170.901	0.190	-0.276
-709.660	-100.762	0.105	-0.026
-708.645	-200.000	0.073	-0.337
-707.631	421.665	0.049	0.107
-706.616	-67.703	-0.188	-0.074
-705.602	-200.000	0.034	-0.377
-704.587	800.000	0.044	0.175
-703.572	-130.409	-0.277	0.038
-702.558	-135.985	-0.155	0.018
-701.543	-200.000	0.005	0.022
-700.529	74.995	-0.223	-0.237
-699.514	-1.476	0.050	-0.035
-698.499	242.030	0.133	-0.224
-697.485	800.000	0.085	-0.327
-696.470	352.438	-0.064	-0.129
-695.456	17.539	-0.194	-0.156
-694.441	-81.170	-0.146	-0.049
-693.426	166.725	-0.057	0.082
-692.412	-150.644	-0.463	0.036
-691.397	525.656	0.061	0.146
-690.383	-53.853	-0.113	-0.052
-689.368	-168.200	0.014	0.001
-688.354	87.058	-0.139	0.155
-687.339	-66.958	-0.346	-0.138
-686.324	20.295	0.127	-0.104
-685.310	-186.207	-0.249	0.004
-684.295	66.356	-0.168	-0.172
-683.281	-43.374	0.371	0.189
-682.266	152.155	0.179	0.246
-681.251	50.300	0.129	-0.123
-680.237	497.148	-0.057	0.132
-679.222	50.783	-0.214	0.204
-678.208	-200.000	-0.100	-0.525
-677.193	-6.582	-0.323	-0.222
-676.178	800.000	0.052	-0.219
-675.164	26.475	0.106	0.090
-674.149	119.586	-0.167	-0.209
-673.135	3.428	-0.027	-0.020
-672.120	287.387	0.135	-0.247
-671.105	-54.387	-0.245	0.112
-670.091	-44.952	0.246	-0.124
-669.076	-111.759	0.113	-0.023
-668.062	-89.603	-0.092	0.027
-667.047	-200.000	-0.025	-0.295
-666.032	-22.599	-0.178	0.109
-665.018	92.097	-0.160	0.182
-664.003	40.338	0.133	0.121
-662.989	-24.724	-0.289	-0.173
-661.974	-54.741	0.242	-0.110
-660.959	14.243	-0.181	-0.142
-659.945	-121.392	-0.366	0.062
-658.930	321.760	-0.076	0.146
-657.916	-48.696	-0.269	-0.131
-656.901	-200.000	0.034	0.177
-655.886	-123.833	-0.153	-0.024
-654.872	-200.000	0.048	0.228
-653.857	119.315	-0.242	0.303
-652.843	93.055	0.168	-0.192
-651.828	-67.863	0.085	0.033
-650.814	-79.577	0.050	0.017
-649.799	153.384	-0.352	0.487
-648.784	-107.354	-0.389	-0.086
-647.770	27.858	0.081	0.069
-646.755	-76.102	0.181	-0.064
-645.741	93.721	0.084	-0.096
-644.726	449.686	-0.109	0.242
-643.711	-200.000	0.066	0.327
-642.697	-88.015	0.357	0.108
-641.682	-200.000	-0.073	-0.352
-640.668	800.000	0.135	-0.447
-639.653	-113.864	-0.013	-0.003
-638.638	402.920	-0.079	0.167
-637.624	800.000	0.027	0.098
-636.609	9.581	0.138	0.105
-635.595	208.021	0.139	-0.218
-634.580	800.000	-0.062	-0.224
-633.565	800.000	-0.062	-0.191
-632.551	800.000	-0.055	-0.164
-631.536	28.130	0.144	-0.123
-630.522	-12.022	0.102	0.068
-629.507	1.177	0.130	-0.094
-628.492	-179.938	-0.301	0.006
-627.478	-96.336	-0.165	0.044
-626.463	-137.847	0.277	0.031
-625.449	64.485	-0.095	-0.097
-624.434	330.898	-0.037	0.073
-623.419	-200.000	0.027	-0.157
-622.405	800.000	0.078	0.281
-621.390	47.581	0.034	-0.032
-620.376	-70.736	-0.101	0.038
-619.361	142.133	0.179	-0.239
-618.346	177.719	0.117	-0.172
-617.332	130.939	-0.259	-0.335
-616.317	-71.443	-0.317	-0.120
-615.303	-200.000	0.073	-0.411
-614.288	-200.000	-0.008	0.177
-613.273	480.407	0.082	0.188
-612.259	-200.000	0.033	0.158
-611.244	92.283	0.076	0.086
-610.230	-37.080	0.229	0.124
-609.215	-12.459	0.192	0.127
-608.201	-200.000	0.029	0.139
-607.186	-5.623	-0.269	0.186
-606.171	-200.000	-0.042	-0.330
-605.157	-200.000	0.013	0.061
-604.142	53.218	-0.068	0.065
-603.128	235.882	-0.149	0.249
-602.113	-26.787	-0.092	-0.054
-601.098	-41.233	0.024	-0.013
-600.084	-200.000	0.036	0.223
-599.069	-200.000	-0.010	0.207
-598.055	-200.000	-0.046	-0.338
-597.040	63.500	0.158	0.159
-596.025	-75.695	-0.052	-0.019
-595.011	-94.854	-0.125	-0.034
-593.996	-96.132	0.127	0.034
-592.982	38.981	0.175	-0.157
-591.967	800.000	-0.049	-0.210
-590.952	3.392	-0.096	-0.070
-589.938	130.028	0.150	-0.193
-588.923	-75.393	-0.258	-0.093
-587.909	-200.000	0.290	0.000
-586.894	-99.696	0.339	0.086
-585.879	800.000	0.018	-0.060
-584.865	88.227	-0.162	0.181
-583.850	407.544	0.107	-0.227
-582.836	47.797	0.159	-0.150
-581.821	-200.000	0.001	-0.070
-580.806	-45.449	0.344	-0.172
-579.792	-200.000	-0.063	0.358
-578.777	-200.000	-0.001	-0.166
-577.763	-134.658	-0.106	-0.013
-576.748	-113.254	0.154	0.031
-575.733	94.643	0.051	-0.059
-574.719	302.962	0.087	-0.162
-573.704	9.372	-0.124	0.094
-572.690	800.000	-0.153	-0.592
-571.675	129.857	0.210	-0.270
-570.661	-19.181	0.219	-0.137
-569.646	-200.000	-0.022	0.424
-568.631	602.919	0.042	-0.104
-567.617	-46.749	0.018	-0.009
-566.602	150.328	0.047	-0.064
-565.588	-25.665	-0.224	0.133
-564.573	-96.372	0.283	0.075
-563.558	119.493	-0.249	-0.310
-562.544	109.987	0.094	-0.114
-561.529	40.101	0.117	0.106
-560.515	784.125	-0.104	-0.288
-559.500	106.978	-0.091	-0.109
-558.485	-66.796	-0.430	0.171
-557.471	104.239	-0.113	0.134
-556.456	-52.241	0.184	-0.086
-555.442	45.988	-0.112	-0.104
-554.427	28.302	0.182	0.155
-553.412	135.284	-0.056	0.073
-552.398	-54.728	0.181	0.082
-551.383	-37.523	-0.108	-0.058
-550.369	43.341	-0.087	-0.079
-549.354	-123.574	-0.246	0.039
-548.339	24.503	-0.141	0.118
-547.325	-200.000	-0.039	0.601
-546.310	149.251	0.020	-0.027
-545.296	-40.844	0.282	-0.147
-544.281	-200.000	-0.019	-0.147
-543.266	-49.199	-0.262	0.126
-542.252	-190.570	-0.069	0.001
-541.237	-200.000	-0.003	-0.101
-540.223	-16.958	0.225	0.143
-539.208	400.992	-0.103	-0.218
-538.193	-200.000	0.044	-0.196
-537.179	62.189	-0.176	0.176
-536.164	-150.269	0.080	0.006
-535.150	800.000	0.057	-0.175
-534.135	206.400	0.050	0.078
-533.121	-200.000	0.045	-0.242
-532.106	51.929	0.053	-0.051
-531.091	203.139	0.106	-0.165
-530.077	-69.031	0.182	0.071
-529.062	-92.935	-0.348	-0.098
-528.048	668.516	-0.057	0.149
-527.033	-176.986	-0.219	-0.006
-526.018	-200.000	0.009	-0.270
-525.004	-200.000	-0.013	0.131
-523.989	-167.721	-0.287	-0.011
-522.975	151.988	-0.149	-0.204
-521.960	-94.873	0.363	-0.099
-520.945	-57.977	0.245	-0.107
-519.931	333.247	0.046	0.089
-518.916	-8.016	-0.274	0.185
-517.902	-63.565	0.154	-0.063
-516.887	-200.000	-0.076	-0.359
-515.872	109.299	-0.220	-0.265
-514.858	-121.850	-0.011	-0.002
-513.843	-200.000	0.010	-0.393
-512.829	-159.532	0.182	0.010
-511.814	-73.213	0.081	-0.030
-510.799	365.199	0.059	0.119
-509.785	120.369	0.091	0.113
-508.770	-31.149	0.427	-0.242
-507.756	640.765	-0.106	-0.271
-506.741	-133.479	-0.135	-0.017
-505.726	169.402	-0.073	-0.104
-504.712	309.596	-0.021	-0.040
-503.697	-110.992	-0.107	-0.022
-502.683	263.352	0.030	0.052
-501.668	-64.862	-0.029	-0.012
-500.653	197.039	-0.204	-0.313
-499.639	136.172	0.238	0.311
-498.624	58.621	-0.093	-0.091
-497.610	-200.000	-0.025	0.202
-496.595	-106.537	0.200	0.045
-495.581	48.155	-0.401	-0.376
-494.566	-58.394	0.174	-0.076
-493.551	800.000	-0.101	0.329
-492.537	296.557	0.078	0.144
-491.522	-33.113	-0.160	-0.089
-490.508	-102.290	0.189	0.046
-489.493	-124.882	0.085	0.013
-488.478	182.983	0.251	-0.372
-487.464	-169.978	-0.220	0.008
-486.449	-74.432	0.442	-0.160
-485.435	150.105	-0.182	-0.248
-484.420	495.700	0.032	0.074
-483.405	249.982	-0.111	-0.190
-482.391	800.000	0.064	0.179
-481.376	-109.838	-0.092	0.019
-480.362	258.032	0.033	0.056
-479.347	401.381	0.051	0.107
-478.332	73.902	-0.206	-0.217
-477.318	-200.000	0.032	-0.392
-476.303	800.000	-0.031	0.120
-475.289	-36.864	-0.181	0.097
-474.274	-99.468	0.383	-0.097
-473.259	-100.187	-0.306	-0.076
-472.245	166.849	-0.063	0.090
-471.230	173.407	0.239	-0.345
-470.216	50.156	0.211	-0.200
-469.201	348.123	-0.062	-0.122
-468.186	-107.884	0.236	0.051
-467.172	163.950	0.136	-0.192
-466.157	50.184	-0.371	0.351
-465.143	800.000	-0.045	0.170
-464.128	800.000	-0.054	-0.158
-463.113	78.789	-0.162	-0.173
-462.099	286.038	0.232	0.420
-461.084	-121.519	0.143	0.024
-460.070	800.000	-0.016	-0.062
-459.055	-8.902	0.192	0.129
-458.040	663.530	-0.045	0.115
-457.026	-162.015	0.144	-0.007
-456.011	119.707	-0.256	-0.317
-454.997	-1.912	-0.204	0.144
-453.982	800.000	-0.031	0.094
-452.968	471.143	-0.042	0.095
-451.953	260.172	0.066	0.114
-450.938	-83.831	-0.214	0.068
-449.924	-142.109	0.148	-0.015
-448.909	284.004	-0.147	0.264
-447.895	-1.616	0.351	0.247
-446.880	-119.693	-0.288	-0.050
-445.865	-200.000	-0.009	0.241
-444.851	-110.777	-0.348	0.072
-443.836	4.440	0.331	-0.243
-442.822	-118.308	0.221	-0.039
-441.807	38.269	-0.085	-0.076
-440.792	87.567	0.098	-0.108
-439.778	-188.725	-0.092	0.001
-438.763	-176.088	-0.123	-0.003
-437.749	-200.000	-0.018	0.169
-436.734	-200.000	0.010	-0.158
-435.719	-200.000	-0.002	-0.201
-434.705	129.436	0.152	0.194
-433.690	134.920	0.141	-0.183
-432.676	361.592	-0.067	0.134
-431.661	6.844	-0.199	-0.148
-430.646	-154.490	0.064	-0.004
-429.632	-141.170	-0.153	-0.016
-428.617	65.037	0.169	-0.171
-427.603	-91.358	-0.380	0.109
-426.588	800.000	0.115	0.437
-425.573	273.988	-0.227	0.403
-424.559	800.000	-0.094	0.268
-423.544	-85.679	0.309	-0.096
-422.530	104.776	-0.095	-0.112
-421.515	-16.960	-0.330	0.208
-420.500	32.897	-0.232	0.201
-419.486	270.011	-0.211	0.371
-418.471	-48.725	0.379	0.182
-417.457	-95.321	0.093	0.025
-416.442	-0.296	0.312	-0.222
-415.428	101.528	0.084	0.098
-414.413	-63.020	-0.099	-0.041
-413.398	800.000	-0.059	-0.193
-412.384	80.082	-0.172	0.185
-411.369	181.084	0.127	-0.186
-410.355	21.628	0.263	0.214
-409.340	-112.150	-0.068	-0.014
-408.325	484.704	-0.049	0.111
-407.311	-56.848	0.026	0.011
-406.296	-200.000	0.025	-0.371
-405.282	-60.584	-0.272	-0.116
-404.267	-23.055	-0.198	0.119
-403.252	-69.644	0.283	0.108
-402.238	239.736	-0.057	0.095
-401.223	-17.797	-0.102	-0.064
-400.209	-55.692	-0.229	-0.103
-399.194	-91.958	0.182	-0.052
-398.179	-200.000	0.060	0.269
-397.165	-141.482	-0.111	0.011
-396.150	800.000	-0.081	0.279
-395.136	373.671	0.090	-0.184
-394.121	800.000	0.032	0.098
-393.106	800.000	-0.041	0.160
-392.092	58.670	-0.076	-0.075
-391.077	-200.000	-0.039	-0.396
-390.063	-200.000	-0.064	-0.347
-389.048	-109.273	0.477	-0.101
-388.033	389.835	-0.275	0.570
-387.019	-28.627	0.284	-0.163
-386.004	800.000	-0.242	0.674
-384.990	-39.740	0.239	0.125
-383.975	31.290	-0.054	0.046
-382.960	-108.952	0.054	-0.012
-381.946	554.196	0.074	-0.177
-380.931	761.525	-0.068	0.185
-379.917	800.000	-0.034	-0.134
-378.902	800.000	-0.132	-0.383
-377.888	-200.000	0.026	0.353
-376.873	-110.294	0.075	0.016
-375.858	206.893	-0.085	0.132
-374.844	262.137	-0.155	0.268
-373.829	-87.281	0.039	-0.012
-372.815	19.082	-0.023	-0.019
-371.800	-4.440	0.227	0.156
-370.785	800.000	0.111	-0.367
-369.771	-200.000	-0.024	0.197
-368.756	-200.000	-0.010	0.193
-367.742	-103.063	0.241	-0.057
-366.727	800.000	0.050	-0.149
-365.712	407.192	0.041	0.086
-364.698	-110.664	-0.317	0.065
-363.683	384.762	0.194	-0.399
-362.669	23.466	-0.224	-0.184
-361.654	2.323	0.045	-0.032
-360.639	-200.000	0.072	0.384
-359.625	490.119	-0.121	0.277
-358.610	800.000	-0.065	0.250
-357.596	9.694	0.207	0.157
-356.581	-5.835	-0.209	0.143
-355.566	-12.487	-0.118	-0.077
-354.552	23.702	0.084	-0.069
-353.537	-86.014	-0.042	0.013
-352.523	-29.261	-0.499	0.285
-351.508	373.132	0.114	-0.231
-350.493	-200.000	0.003	-0.028
-349.479	-5.556	0.095	-0.065
-348.464	46.501	-0.071	0.066
-347.450	-200.000	0.006	0.080
-346.435	800.000	0.057	0.217
-345.420	-200.000	-0.030	0.380
-344.406	-82.918	-0.183	0.059
-343.391	105.489	0.230	0.271
-342.377	-165.439	0.033	0.001
-341.362	-106.646	0.232	-0.051
-340.348	119.460	0.118	0.146
-339.333	-165.214	-0.165	0.007
-338.318	491.275	0.136	0.311
-337.304	800.000	0.111	0.311
-336.289	-200.000	0.005	0.052
-335.275	-192.343	0.126	-0.001
-334.260	-154.741	0.246	0.016
-333.245	488.770	-0.224	-0.511
-332.231	-176.750	0.261	0.007
-331.216	-200.000	0.017	-0.336
-330.202	-128.646	0.350	-0.049
-329.187	373.370	-0.157	-0.318
-328.172	800.000	-0.039	-0.150
-327.158	800.000	0.029	0.095
-326.143	-135.302	0.195	0.023
-325.129	174.848	-0.091	0.131
-324.114	-107.584	0.355	-0.077
-323.099	46.201	-0.186	0.172
-322.085	104.815	-0.204	-0.240
-321.070	252.753	0.164	-0.279
-320.056	-60.756	-0.387	-0.163
-319.041	-200.000	-0.002	-0.022
-318.026	-83.947	0.229	0.072
-317.012	-99.594	-0.103	0.026
-315.997	146.856	-0.040	-0.054
-314.983	420.155	-0.079	0.168
-313.968	13.782	0.128	0.099
-312.953	106.559	0.098	-0.116
-311.939	431.716	-0.097	-0.210
-310.924	800.000	-0.040	-0.161
-309.910	352.618	0.091	0.179
-308.895	800.000	0.051	0.155
-307.880	108.658	0.121	0.144
-306.866	800.000	0.102	-0.307
-305.851	9.101	-0.131	-0.098
-304.837	138.818	0.090	-0.117
-303.822	-161.826	-0.061	0.003
-302.807	-86.654	-0.086	0.026
-301.793	403.681	0.138	0.290
-300.778	13.525	0.165	0.128
-299.764	85.555	-0.120	-0.131
-298.749	201.243	0.062	-0.095
-297.735	7.238	-0.181	0.134
-296.720	29.162	0.062	-0.052
-295.705	-200.000	-0.035	-0.210
-294.691	7.911	0.259	-0.194
-293.676	1.158	0.168	0.120
-292.662	-200.000	0.028	0.127
-291.647	-62.291	0.074	0.031
-290.632	-11.242	-0.360	-0.236
-289.618	-54.496	-0.202	-0.091
-288.603	81.829	-0.163	0.176
-287.589	-34.441	-0.297	0.162
-286.574	-200.000	-0.069	0.335
-285.559	800.000	-0.220	0.760
-284.545	35.014	0.061	-0.053
-283.530	387.390	-0.166	0.341
-282.516	8.948	0.431	0.323
-281.501	-200.000	0.005	-0.270
-280.486	-129.009	0.335	0.047
-279.472	-100.300	-0.222	-0.055
-278.457	-93.058	-0.167	-0.046
-277.443	-141.984	0.235	-0.023
-276.428	800.000	0.036	-0.130
-275.413	800.000	0.031	-0.113
-274.399	10.679	0.207	0.157
-273.384	-24.930	0.212	-0.125
-272.370	122.985	0.212	-0.265
-271.355	-5.487	0.230	-0.157
-270.340	-107.973	-0.084	-0.018
-269.326	248.956	-0.115	-0.193
-268.311	-27.527	-0.400	0.231
-267.297	-200.000	0.060	0.302
-266.282	-200.000	0.001	0.091
-265.267	158.217	-0.144	0.198
-264.253	800.000	-0.028	-0.122
-263.238	12.292	0.091	-0.069
-262.224	800.000	-0.042	0.133
-261.209	-91.734	0.382	-0.108
-260.195	113.875	-0.077	0.093
-259.180	-170.710	0.210	0.007
-258.165	800.000	0.011	-0.036
-257.151	400.896	-0.052	-0.109
-256.136	-117.274	-0.180	0.032
-255.122	-140.057	-0.308	-0.032
-254.107	367.769	-0.056	-0.113
-253.092	-43.604	0.283	-0.142
-252.078	-187.512	-0.258	0.003
-251.063	-171.028	-0.195	-0.007
-250.049	-40.978	0.095	0.049
-249.034	588.387	-0.115	-0.281
-248.019	1.314	-0.127	-0.091
-247.005	-200.000	-0.033	-0.158
-245.990	-24.792	-0.238	0.141
-244.976	528.074	0.128	0.301
-243.961	486.384	-0.031	-0.070
-242.946	-200.000	-0.003	-0.012
-241.932	-99.924	-0.253	-0.063
-240.917	-200.000	-0.023	0.136
-239.903	186.401	-0.064	-0.094
-238.888	-200.000	-0.068	0.498
-237.873	478.375	0.124	-0.279
-236.859	66.832	-0.122	0.123
-235.844	202.000	0.041	0.063
-234.830	-96.221	0.182	-0.048
-233.815	-128.815	0.040	-0.006
-232.800	24.114	0.159	-0.130
-231.786	-8.817	0.164	0.109
-230.771	-85.602	-0.095	-0.029
-229.757	169.173	-0.049	0.069
-228.742	-200.000	-0.019	-0.258
-227.727	800.000	0.063	-0.271
-226.713	22.352	-0.069	-0.056
-225.698	-73.451	0.292	0.106
-224.684	103.812	0.229	0.267
-223.669	102.793	0.261	0.304
-222.655	-200.000	0.133	-0.000
-221.640	68.119	-0.133	-0.135
-220.625	800.000	-0.064	-0.270
-219.611	181.070	-0.153	-0.224
-218.596	-159.040	0.131	0.007
-217.582	15.705	0.310	-0.242
-216.567	263.212	-0.046	-0.079
-215.552	7.712	0.088	0.065
-214.538	-103.322	0.056	0.013
-213.523	-43.275	-0.259	-0.130
-212.509	-44.288	0.162	-0.081
-211.494	-200.000	-0.036	-0.176
-210.479	524.711	-0.026	0.061
-209.465	-67.553	0.240	-0.093
-208.450	-115.250	0.103	-0.019
-207.436	216.763	0.080	0.126
-206.421	311.756	-0.010	-0.019
-205.406	52.586	-0.179	-0.170
-204.392	-127.036	-0.435	-0.063
-203.377	-197.057	0.092	-0.001
-202.363	-200.000	0.185	0.000
-201.348	-43.425	-0.100	0.050
-200.333	800.000	-0.036	-0.106
-199.319	-200.000	0.013	0.179
-198.304	800.000	0.070	0.245
-197.290	-134.758	-0.321	-0.039
-196.275	-78.220	-0.322	0.110
-195.260	-51.690	-0.136	0.063
-194.246	258.860	0.085	-0.145
-193.231	-94.807	0.029	0.008
-192.217	284.266	0.100	-0.178
-191.202	-200.000	0.024	-0.171
-190.187	800.000	-0.005	-0.015
-189.173	-200.000	0.039	0.292
-188.158	-94.326	0.262	0.071
-187.144	-115.550	-0.134	-0.025
-186.129	-86.898	-0.280	-0.085
-185.114	-63.673	-0.210	-0.085
-184.100	800.000	0.030	-0.116
-183.085	29.114	-0.256	0.215
-182.071	-200.000	-0.003	0.240
-181.056	-15.424	-0.233	0.148
-180.042	427.243	-0.067	0.144
-179.027	-200.000	0.064	0.334
-178.012	-55.210	0.259	0.115
-176.998	-29.494	-0.286	-0.162
-175.983	-34.569	-0.117	0.063
-174.969	-196.761	-0.114	0.001
-173.954	-12.628	-0.359	-0.232
-172.939	800.000	-0.006	0.019
-171.925	94.489	-0.061	-0.069
-170.910	644.853	0.122	0.308
-169.896	170.574	0.192	0.272
-168.881	-57.190	0.250	0.109
-167.866	-18.624	-0.159	-0.098
-166.852	474.993	0.105	-0.235
-165.837	-166.278	-0.345	-0.014
-164.823	-60.538	0.317	0.133
-163.808	-200.000	-0.021	-0.202
-162.793	128.170	0.131	-0.165
-161.779	86.029	0.034	-0.037
-160.764	481.762	0.132	0.298
-159.750	800.000	-0.049	0.210
-158.735	-200.000	0.017	-0.073
-157.720	57.735	0.098	0.095
-156.706	-12.551	-0.120	0.078
-155.691	-159.476	-0.333	0.018
-154.677	-81.112	0.254	0.083
-153.662	268.380	-0.155	-0.269
-152.647	-200.000	-0.012	0.184
-151.633	-133.348	0.044	-0.006
-150.618	-119.533	0.359	0.062
-149.604	-200.000	-0.056	0.380
-148.589	-174.997	0.488	-0.013
-147.574	-200.000	0.041	0.223
-146.560	350.361	-0.161	-0.315
-145.545	-5.876	0.373	0.253
-144.531	-100.444	0.282	0.069
-143.516	-131.838	0.318	-0.041
-142.502	-108.670	0.393	0.083
-141.487	-32.523	-0.137	-0.076
-140.472	2.348	-0.221	-0.158
-139.458	599.369	-0.139	0.341
-138.443	-112.629	0.255	-0.050
-137.429	-67.207	0.044	-0.017
-136.414	-82.225	-0.293	0.094
-135.399	102.707	0.112	0.130
-134.385	-141.902	-0.088	-0.009
-133.370	-66.687	0.184	-0.072
-132.356	63.712	0.150	-0.149
-131.341	113.089	-0.153	-0.184
-130.326	229.550	-0.174	0.281
-129.312	790.003	0.060	0.164
-128.297	-164.254	0.160	-0.007
-127.283	-80.827	0.419	0.138
-126.268	-23.635	0.248	-0.147
-125.253	-50.306	0.169	0.079
-124.239	376.801	0.114	-0.231
-123.224	226.508	0.124	-0.199
-122.210	157.099	-0.111	0.152
-121.195	40.142	0.020	-0.018
