DTS Sentinel unit serial number:	SN413079Multiplexer serial number:	ORYXHardware model number:	OX4-SRSoftware version number:	ORYX F/W v4.00 Oryx Data Collector v3.7.2.0data status	okinstallation	princeton_trtdifferential loss correction	single-endedforward channel	channel 2reverse channel	N/Adate	2019/09/15time	14:23:35forward acquisition time	60.00reverse acquisition time	0.00gamma	496.2192k internal	0.2299k external	0.2299temperature offset calibration	0.9992default loss term (dB/km)	0.3790temperature slope calibration	1.0000multiplexer offset coefficient	1.0000multiplexer slope coefficient	1.0000fibre end	0.00T internal ref (°C)	39.12T ext. ref 1 (°C)	4.96T ext. ref 2 (°C)	36.13length (m)	temperature (°C)	Stokes	anti-Stokes-747.200	31.842	-0.169	0.148
-746.185	17.514	0.260	-0.211
-745.171	96.226	0.161	0.188
-744.156	-200.000	0.044	0.328
-743.142	-12.373	-0.025	-0.017
-742.127	800.000	-0.136	0.473
-741.112	-67.619	-0.042	-0.017
-740.098	-200.000	-0.037	0.349
-739.083	82.189	0.234	-0.259
-738.069	-98.415	0.018	-0.005
-737.054	-3.791	0.056	-0.039
-736.039	-180.638	-0.390	0.008
-735.025	-53.320	0.195	-0.091
-734.010	285.236	0.092	-0.169
-732.996	306.414	0.109	-0.207
-731.981	800.000	0.035	-0.127
-730.966	-124.276	-0.259	-0.041
-729.952	800.000	0.027	0.101
-728.937	-108.609	-0.174	-0.038
-727.923	-81.468	-0.217	-0.073
-726.908	-33.330	-0.199	0.113
-725.894	-4.750	0.095	-0.067
-724.879	-18.179	-0.230	-0.147
-723.864	95.006	-0.078	0.090
-722.850	-200.000	-0.014	-0.270
-721.835	11.138	-0.173	0.135
-720.821	631.158	0.030	-0.078
-719.806	-200.000	-0.007	-0.038
-718.791	-99.482	-0.139	0.036
-717.777	-200.000	0.064	0.326
-716.762	-200.000	-0.050	0.360
-715.748	-71.054	-0.403	0.154
-714.733	25.622	0.128	0.109
-713.718	145.610	0.117	0.160
-712.704	92.020	-0.256	-0.294
-711.689	-33.286	0.037	-0.021
-710.675	-200.000	-0.025	-0.198
-709.660	-200.000	-0.016	-0.239
-708.645	800.000	0.072	-0.215
-707.631	141.012	-0.068	0.092
-706.616	-82.330	-0.379	0.125
-705.602	-200.000	-0.012	-0.101
-704.587	-43.511	0.370	0.190
-703.572	-200.000	-0.056	0.376
-702.558	-191.541	0.097	0.001
-701.543	3.616	-0.123	0.092
-700.529	16.937	0.097	-0.078
-699.514	-6.723	-0.238	-0.165
-698.499	-61.347	-0.283	-0.121
-697.485	-41.015	-0.221	0.116
-696.470	711.259	0.172	-0.463
-695.456	16.850	0.060	-0.048
-694.441	27.869	0.342	0.294
-693.426	-200.000	0.005	-0.074
-692.412	151.669	-0.054	0.075
-691.397	645.413	-0.030	0.078
-690.383	36.882	0.077	0.070
-689.368	-45.432	0.245	0.124
-688.354	194.628	-0.107	0.165
-687.339	-101.345	-0.387	-0.096
-686.324	-200.000	0.038	-0.465
-685.310	-107.719	0.669	-0.149
-684.295	-16.810	-0.103	-0.067
-683.281	428.849	0.138	0.305
-682.266	612.452	-0.116	-0.295
-681.251	800.000	-0.051	0.154
-680.237	-58.662	-0.180	-0.079
-679.222	-143.780	0.055	-0.005
-678.208	224.172	-0.064	0.106
-677.193	800.000	-0.054	-0.155
-676.178	-200.000	-0.034	0.436
-675.164	-144.972	-0.232	0.022
-674.149	800.000	0.054	0.238
-673.135	-200.000	0.028	-0.153
-672.120	538.456	-0.113	-0.274
-671.105	-125.251	-0.086	0.013
-670.091	-35.003	-0.088	-0.049
-669.076	420.004	0.097	-0.212
-668.062	357.569	0.116	-0.234
-667.047	571.410	-0.067	0.165
-666.032	-49.618	-0.324	0.157
-665.018	222.972	0.184	0.301
-664.003	309.264	0.178	0.338
-662.989	705.990	-0.075	-0.201
-661.974	-200.000	0.019	-0.155
-660.959	-200.000	-0.017	-0.306
-659.945	-47.801	-0.204	-0.101
-658.930	120.824	-0.065	0.082
-657.916	-104.370	-0.187	0.044
-656.901	-56.067	-0.113	0.051
-655.886	-114.817	0.188	-0.037
-654.872	-101.979	0.380	0.093
-653.857	800.000	-0.074	0.225
-652.843	183.403	0.096	0.144
-651.828	-100.149	0.266	-0.067
-650.814	34.910	-0.138	-0.123
-649.799	-0.538	-0.214	-0.155
-648.784	21.368	0.225	0.186
-647.770	77.969	0.067	-0.072
-646.755	-127.048	-0.260	-0.039
-645.741	181.329	0.047	0.070
-644.726	-200.000	0.035	-0.724
-643.711	800.000	0.062	0.253
-642.697	-40.946	-0.277	0.146
-641.682	-200.000	-0.009	-0.192
-640.668	144.588	-0.087	-0.118
-639.653	242.353	0.064	-0.109
-638.638	-20.727	-0.431	0.269
-637.624	243.831	0.185	0.316
-636.609	511.751	-0.008	0.018
-635.595	520.981	0.065	0.155
-634.580	800.000	-0.092	-0.392
-633.565	-127.859	-0.070	0.010
-632.551	199.036	-0.114	-0.177
-631.536	397.126	-0.041	0.086
-630.522	800.000	-0.044	-0.135
-629.507	-102.110	-0.208	-0.051
-628.492	-200.000	-0.021	-0.286
-627.478	-81.376	-0.057	0.019
-626.463	10.306	-0.087	0.068
-625.449	-200.000	-0.021	0.137
-624.434	579.460	0.046	0.113
-623.419	-200.000	-0.005	0.322
-622.405	-200.000	-0.001	-0.095
-621.390	-56.474	0.035	0.016
-620.376	-35.195	-0.215	-0.119
-619.361	-200.000	-0.017	-0.369
-618.346	195.749	0.155	-0.239
-617.332	15.225	-0.138	-0.110
-616.317	-27.369	-0.129	0.076
-615.303	-100.763	0.269	-0.067
-614.288	159.440	-0.012	0.017
-613.273	-112.159	-0.142	0.029
-612.259	-175.993	-0.193	-0.005
-611.244	-148.723	0.164	-0.014
-610.230	167.657	0.010	-0.015
-609.215	64.968	0.253	-0.259
-608.201	-200.000	0.011	0.231
-607.186	31.118	-0.357	-0.311
-606.171	-200.000	-0.004	-0.291
-605.157	373.611	0.074	-0.152
-604.142	-171.524	-0.198	0.007
-603.128	179.998	-0.178	0.264
-602.113	178.400	0.156	0.232
-601.098	105.339	0.244	0.292
-600.084	528.428	0.046	-0.111
-599.069	-200.000	-0.008	-0.338
-598.055	-200.000	0.065	-0.310
-597.040	429.017	-0.026	-0.056
-596.025	-200.000	-0.032	0.200
-595.011	-55.202	-0.274	-0.125
-593.996	74.234	-0.030	-0.032
-592.982	-32.508	0.071	0.040
-591.967	-59.930	0.062	-0.027
-590.952	130.365	-0.115	-0.149
-589.938	800.000	0.027	-0.120
-588.923	-200.000	-0.016	0.107
-587.909	-20.695	0.294	0.183
-586.894	-79.955	-0.099	0.034
-585.879	399.707	0.005	-0.011
-584.865	-113.343	-0.169	-0.034
-583.850	-147.304	0.279	0.024
-582.836	-200.000	-0.016	-0.291
-581.821	-22.297	0.281	-0.173
-580.806	-172.373	0.403	0.013
-579.792	800.000	0.041	-0.174
-578.777	490.998	0.097	-0.225
-577.763	324.646	-0.173	-0.335
-576.748	-13.095	-0.289	0.191
-575.733	-77.526	-0.368	-0.129
-574.719	-33.557	0.162	0.091
-573.704	217.935	-0.090	0.146
-572.690	-200.000	-0.053	-0.453
-571.675	44.541	0.148	0.137
-570.661	0.580	-0.048	0.035
-569.646	-47.895	0.104	0.051
-568.631	173.984	0.064	-0.093
-567.617	49.471	-0.121	-0.116
-566.602	136.321	-0.172	0.227
-565.588	101.834	0.073	-0.086
-564.573	-27.454	0.099	-0.058
-563.558	-200.000	-0.043	-0.305
-562.544	-134.969	-0.114	0.014
-561.529	-200.000	0.030	-0.184
-560.515	352.840	0.089	0.178
-559.500	-32.127	-0.036	-0.020
-558.485	-196.703	0.279	0.002
-557.471	175.492	0.033	-0.048
-556.456	-28.098	0.053	-0.031
-555.442	-107.136	-0.068	-0.015
-554.427	-98.882	0.200	-0.051
-553.412	-133.850	0.244	-0.031
-552.398	43.408	-0.307	-0.284
-551.383	14.960	0.293	-0.232
-550.369	560.026	-0.122	-0.298
-549.354	-81.938	0.148	-0.049
-548.339	800.000	0.046	0.145
-547.325	372.916	-0.055	-0.112
-546.310	102.455	0.040	0.048
-545.296	-78.418	-0.247	0.086
-544.281	75.184	-0.152	0.163
-543.266	-200.000	-0.043	0.240
-542.252	-200.000	0.015	0.140
-541.237	-94.375	-0.361	-0.100
-540.223	-200.000	-0.003	0.040
-539.208	112.952	-0.177	0.217
-538.193	61.547	-0.272	-0.274
-537.179	-200.000	-0.033	-0.352
-536.164	-118.964	0.127	0.023
-535.150	-131.383	-0.206	0.028
-534.135	92.349	0.072	0.082
-533.121	-200.000	-0.053	-0.280
-532.106	124.758	-0.145	0.185
-531.091	-200.000	-0.006	0.209
-530.077	-63.825	0.146	0.061
-529.062	95.554	0.147	-0.170
-528.048	-61.309	-0.193	-0.082
-527.033	354.674	-0.073	0.147
-526.018	515.831	0.054	0.128
-525.004	249.431	-0.132	-0.226
-523.989	-10.765	-0.270	-0.180
-522.975	311.830	0.057	0.109
-521.960	-56.572	0.075	-0.033
-520.945	87.403	0.106	0.118
-519.931	-200.000	-0.009	0.042
-518.916	203.469	0.077	-0.120
-517.902	-126.839	-0.270	0.040
-516.887	-125.196	0.217	-0.034
-515.872	19.800	-0.097	0.079
-514.858	-107.577	-0.280	0.062
-513.843	596.920	0.022	0.056
-512.829	49.018	-0.253	-0.240
-511.814	217.287	0.126	-0.203
-510.799	800.000	-0.020	-0.078
-509.785	681.172	-0.030	-0.078
-508.770	-200.000	-0.063	-0.370
-507.756	57.434	-0.202	-0.200
-506.741	800.000	-0.075	0.240
-505.726	-166.732	-0.084	0.004
-504.712	-200.000	0.038	0.254
-503.697	246.902	-0.123	-0.210
-502.683	-135.058	0.074	0.009
-501.668	145.536	-0.244	0.330
-500.653	643.395	-0.135	0.347
-499.639	-200.000	-0.011	-0.056
-498.624	-200.000	0.011	0.052
-497.610	121.106	-0.043	-0.054
-496.595	86.530	0.144	0.160
-495.581	-122.642	-0.178	-0.029
-494.566	-142.295	0.235	0.023
-493.551	320.321	0.041	0.079
-492.537	-99.148	0.099	0.025
-491.522	-50.804	-0.255	0.121
-490.508	85.631	-0.106	-0.118
-489.493	800.000	0.015	-0.054
-488.478	800.000	-0.032	0.126
-487.464	-47.446	-0.211	0.104
-486.449	60.700	-0.161	0.161
-485.435	-200.000	-0.054	-0.299
-484.420	-60.886	0.306	-0.131
-483.405	-200.000	-0.036	-0.288
-482.391	-66.910	0.250	-0.100
-481.376	-149.686	-0.305	0.024
-480.362	295.182	-0.090	-0.167
-479.347	-55.700	0.087	-0.040
-478.332	330.746	0.140	0.273
-477.318	800.000	-0.072	-0.276
-476.303	127.356	-0.218	0.280
-475.289	88.487	-0.115	0.129
-474.274	-80.586	-0.186	-0.062
-473.259	-156.811	-0.171	0.011
-472.245	-148.846	0.078	0.006
-471.230	-200.000	-0.007	-0.146
-470.216	-200.000	-0.044	-0.226
-469.201	-17.417	0.007	-0.004
-468.186	-61.506	0.235	0.100
-467.172	-200.000	0.019	0.353
-466.157	-200.000	-0.014	0.500
-465.143	6.153	0.289	0.217
-464.128	800.000	-0.091	0.307
-463.113	800.000	0.066	0.259
-462.099	-22.802	0.248	0.151
-461.084	-62.282	-0.039	-0.016
-460.070	222.822	-0.061	0.100
-459.055	-84.139	-0.077	-0.025
-458.040	-52.781	-0.182	0.085
-457.026	250.175	0.104	-0.178
-456.011	-94.142	-0.381	0.105
-454.997	800.000	0.104	0.297
-453.982	-200.000	0.006	0.121
-452.968	-153.836	-0.117	-0.008
-451.953	-188.055	-0.194	-0.003
-450.938	-17.238	-0.162	0.103
-449.924	-127.353	0.144	0.021
-448.909	515.076	-0.055	0.129
-447.895	-200.000	0.003	-0.135
-446.880	756.650	0.101	0.276
-445.865	667.176	-0.060	0.158
-444.851	-122.139	-0.276	0.046
-443.836	-91.696	0.149	-0.043
-442.822	62.579	0.222	-0.224
-441.807	-160.225	0.133	0.007
-440.792	-57.176	0.303	0.134
-439.778	-200.000	0.093	0.473
-438.763	198.707	0.078	0.120
-437.749	800.000	-0.052	-0.182
-436.734	-16.242	-0.182	-0.116
-435.719	-65.401	-0.071	0.029
-434.705	-150.637	0.279	0.021
-433.690	-18.854	0.059	0.037
-432.676	-113.306	0.439	-0.087
-431.661	66.960	0.071	0.073
-430.646	-30.855	0.142	0.081
-429.632	55.596	0.195	-0.191
-428.617	800.000	-0.058	-0.218
-427.603	137.346	0.087	-0.115
-426.588	-200.000	-0.023	0.300
-425.573	10.465	-0.198	0.152
-424.559	-200.000	-0.008	0.101
-423.544	46.907	0.193	-0.181
-422.530	-200.000	-0.013	-0.341
-421.515	-200.000	-0.009	0.059
-420.500	12.413	-0.432	-0.336
-419.486	-115.098	0.244	-0.047
-418.471	-61.440	0.264	0.112
-417.457	77.065	0.164	0.176
-416.442	-97.209	-0.116	-0.031
-415.428	442.802	-0.010	-0.023
-414.413	38.609	0.055	0.050
-413.398	-46.923	0.263	-0.129
-412.384	262.155	0.090	0.158
-411.369	297.290	-0.056	0.104
-410.355	-31.211	0.211	0.120
-409.340	-200.000	0.011	0.101
-408.325	800.000	0.043	-0.127
-407.311	-200.000	-0.101	0.513
-406.296	638.551	0.093	0.238
-405.282	31.154	-0.272	-0.235
-404.267	-60.861	0.175	-0.074
-403.252	-87.482	-0.301	-0.092
-402.238	-62.392	-0.185	0.077
-401.223	-68.936	0.158	-0.062
-400.209	75.284	0.146	-0.155
-399.194	788.221	-0.052	-0.145
-398.179	-200.000	-0.064	0.402
-397.165	136.655	0.209	0.274
-396.150	188.462	0.109	-0.164
-395.136	648.174	0.087	-0.224
-394.121	-200.000	0.084	-0.376
-393.106	682.115	-0.081	-0.213
-392.092	800.000	-0.114	0.331
-391.077	-86.987	-0.059	-0.018
-390.063	-200.000	-0.017	0.207
-389.048	-71.481	0.267	0.100
-388.033	260.175	0.053	-0.092
-387.019	-130.866	-0.077	-0.010
-386.004	532.721	-0.084	-0.201
-384.990	650.337	-0.037	-0.096
-383.975	-76.347	0.378	0.134
-382.960	-200.000	-0.029	-0.156
-381.946	259.155	0.077	0.134
-380.931	270.938	0.095	0.169
-379.917	-53.188	-0.350	0.162
-378.902	-18.418	-0.203	0.128
-377.888	24.155	-0.184	0.152
-376.873	7.490	0.186	0.140
-375.858	-71.929	-0.147	0.055
-374.844	22.287	0.135	-0.111
-373.829	235.180	-0.071	-0.119
-372.815	68.041	0.314	0.324
-371.800	800.000	-0.067	-0.267
-370.785	-89.605	0.321	-0.095
-369.771	-65.321	0.451	0.182
-368.756	-25.310	-0.216	-0.129
-367.742	-4.044	0.206	0.143
-366.727	-130.122	0.331	-0.045
-365.712	392.888	0.076	0.158
-364.698	29.211	-0.154	0.131
-363.683	800.000	-0.029	0.081
-362.669	-151.392	-0.417	0.031
-361.654	-200.000	-0.001	0.168
-360.639	-200.000	0.001	0.029
-359.625	800.000	0.051	0.148
-358.610	685.403	-0.078	0.206
-357.596	-200.000	-0.021	0.172
-356.581	-200.000	-0.016	0.253
-355.566	800.000	0.026	-0.103
-354.552	800.000	0.079	-0.222
-353.537	566.563	0.092	-0.225
-352.523	800.000	0.037	0.134
-351.508	-131.324	0.041	0.005
-350.493	-71.790	-0.185	0.069
-349.479	-200.000	0.025	0.119
-348.464	-68.406	-0.308	0.120
-347.450	192.796	-0.090	-0.136
-346.435	-66.871	0.133	-0.053
-345.420	800.000	-0.045	0.166
-344.406	-200.000	0.013	-0.179
-343.391	228.262	-0.128	0.210
-342.377	-6.021	-0.197	-0.135
-341.362	123.515	-0.255	-0.322
-340.348	800.000	-0.009	0.030
-339.333	59.964	-0.097	-0.097
-338.318	-19.723	0.094	-0.058
-337.304	-60.307	-0.179	0.077
-336.289	464.292	-0.038	-0.086
-335.275	184.176	-0.145	0.216
-334.260	60.354	-0.043	-0.043
-333.245	32.038	0.176	-0.152
-332.231	-48.486	0.284	0.137
-331.216	386.059	0.052	0.108
-330.202	178.812	0.230	-0.338
-329.187	-200.000	0.028	0.174
-328.172	-79.964	-0.143	-0.048
-327.158	58.053	-0.104	0.102
-326.143	-137.246	0.054	-0.006
-325.129	-31.115	0.256	-0.145
-324.114	231.845	0.134	0.221
-323.099	-28.623	0.130	0.075
-322.085	16.321	-0.141	0.112
-321.070	30.319	0.226	-0.194
-320.056	-70.832	-0.226	-0.085
-319.041	800.000	-0.010	0.043
-318.026	-200.000	-0.050	0.232
-317.012	58.420	0.079	-0.078
-315.997	562.043	-0.035	0.086
-314.983	311.131	0.140	0.263
-313.968	-9.042	0.166	0.111
-312.953	385.805	-0.033	-0.067
-311.939	-200.000	-0.012	0.059
-310.924	-161.348	0.356	0.018
-309.910	-111.694	-0.079	-0.016
-308.895	11.787	-0.259	-0.199
-307.880	-200.000	-0.033	0.336
-306.866	800.000	-0.088	0.304
-305.851	-72.082	-0.247	0.092
-304.837	118.660	0.083	-0.103
-303.822	-39.148	-0.273	-0.144
-302.807	800.000	-0.103	-0.429
-301.793	-4.897	0.070	0.049
-300.778	800.000	0.108	-0.470
-299.764	404.837	0.032	0.068
-298.749	36.012	-0.382	0.337
-297.735	800.000	-0.035	-0.108
-296.720	34.260	-0.065	0.057
-295.705	-50.215	0.122	0.058
-294.691	511.237	0.014	0.032
-293.676	-200.000	-0.014	0.279
-292.662	-117.999	0.235	0.042
-291.647	-46.575	-0.120	0.059
-290.632	800.000	0.016	0.062
-289.618	-56.512	0.082	0.036
-288.603	800.000	-0.080	-0.254
-287.589	-22.171	0.268	0.163
-286.574	20.762	-0.202	-0.164
-285.559	54.961	0.149	0.144
-284.545	579.779	-0.118	0.291
-283.530	-200.000	-0.002	-0.021
-282.516	390.426	-0.092	0.191
-281.501	-164.003	-0.102	-0.005
-280.486	-200.000	0.037	0.386
-279.472	-42.228	-0.069	-0.035
-278.457	-200.000	0.019	0.119
-277.443	800.000	-0.056	-0.185
-276.428	-164.948	0.120	-0.005
-275.413	-33.383	-0.073	0.041
-274.399	-165.929	0.134	0.006
-273.384	30.905	-0.288	0.247
-272.370	-20.960	0.067	0.041
-271.355	31.992	-0.066	0.057
-270.340	18.432	0.112	-0.090
-269.326	-101.665	-0.024	0.006
-268.311	31.255	-0.082	0.071
-267.297	-25.245	0.253	-0.150
-266.282	-63.174	0.142	-0.059
-265.267	-200.000	0.062	0.397
-264.253	-98.891	0.177	0.045
-263.238	-200.000	-0.245	0.001
-262.224	-200.000	-0.034	-0.317
-261.209	412.069	-0.042	-0.088
-260.195	37.397	0.316	-0.280
-259.180	562.630	0.051	-0.124
-258.165	-8.686	0.008	-0.005
-257.151	134.313	0.084	0.108
-256.136	-200.000	-0.007	-0.097
-255.122	-28.605	0.142	-0.082
-254.107	7.076	-0.049	0.037
-253.092	-200.000	0.023	0.116
-252.078	-118.313	0.137	0.024
-251.063	-200.000	0.033	0.275
-250.049	115.151	-0.080	0.097
-249.034	666.369	-0.093	-0.241
-248.019	500.059	0.114	-0.264
-247.005	30.729	0.123	-0.106
-245.990	-109.344	-0.060	-0.013
-244.976	-109.595	-0.373	0.079
-243.961	308.157	0.088	-0.164
-242.946	81.507	-0.187	0.202
-241.932	-123.163	0.183	-0.029
-240.917	18.570	0.272	-0.217
-239.903	39.911	0.120	-0.108
-238.888	-73.534	0.274	0.100
-237.873	-68.042	0.366	-0.143
-236.859	800.000	0.073	-0.320
-235.844	-35.028	0.344	-0.188
-234.830	-118.484	0.511	0.091
-233.815	-78.054	-0.402	-0.139
-232.800	-200.000	0.026	-0.187
-231.786	-32.574	-0.161	0.090
-230.771	-10.340	-0.165	0.109
-229.757	-64.884	0.121	0.049
-228.742	265.523	-0.124	-0.217
-227.727	-52.997	0.387	-0.178
-226.713	92.406	-0.195	-0.219
-225.698	8.286	-0.222	0.167
-224.684	-200.000	0.003	-0.154
-223.669	54.547	0.073	0.070
-222.655	101.534	0.140	0.163
-221.640	666.110	-0.137	0.354
-220.625	-6.815	-0.205	-0.139
-219.611	-200.000	-0.040	-0.189
-218.596	160.797	0.048	0.066
-217.582	727.696	0.064	-0.170
-216.567	67.927	0.064	-0.066
-215.552	-200.000	-0.008	-0.059
-214.538	590.463	0.050	0.122
-213.523	-136.577	-0.098	-0.011
-212.509	-200.000	-0.009	0.149
-211.494	-122.275	-0.298	-0.049
-210.479	192.784	0.214	0.323
-209.465	375.976	-0.114	0.233
-208.450	156.880	0.099	0.137
-207.436	-6.397	-0.077	-0.053
-206.421	-109.008	-0.288	-0.061
-205.406	-42.924	0.101	0.051
-204.392	34.116	-0.164	-0.143
-203.377	-200.000	0.053	-0.264
-202.363	-142.646	-0.123	0.012
-201.348	356.967	0.078	0.155
-200.333	-183.822	0.193	0.003
-199.319	-138.801	-0.064	-0.007
-198.304	800.000	0.211	-0.662
-197.290	-38.172	0.160	0.085
-196.275	42.743	-0.182	0.165
-195.260	423.962	-0.068	0.146
-194.246	-148.334	-0.379	0.031
-193.231	-195.762	0.159	0.001
-192.217	-0.129	0.165	-0.117
-191.202	150.337	-0.265	0.359
-190.187	-98.545	0.069	-0.017
-189.173	293.724	0.147	-0.267
-188.158	-200.000	0.035	-0.169
-187.144	-69.795	-0.342	-0.130
-186.129	800.000	0.123	-0.346
-185.114	-37.771	0.249	-0.132
-184.100	85.379	0.120	0.132
-183.085	195.742	0.110	0.167
-182.071	800.000	-0.031	-0.092
-181.056	363.904	-0.101	0.202
-180.042	628.689	0.101	0.254
-179.027	159.334	-0.109	-0.151
-178.012	-200.000	0.006	-0.141
-176.998	-200.000	0.057	-0.276
-175.983	127.569	0.167	0.211
-174.969	83.154	0.029	0.032
-173.954	0.819	0.064	-0.046
-172.939	-32.937	0.108	0.060
-171.925	-13.066	0.162	-0.105
-170.910	102.089	-0.110	0.128
-169.896	800.000	-0.024	-0.101
-168.881	428.199	0.048	-0.104
-167.866	-200.000	0.012	-0.226
-166.852	-200.000	0.042	0.288
-165.837	-105.475	-0.280	0.064
-164.823	-125.669	-0.088	0.013
-163.808	-79.564	0.273	0.092
-162.793	332.731	-0.058	-0.112
-161.779	5.310	0.140	0.103
-160.764	150.189	-0.094	0.127
-159.750	-200.000	-0.045	-0.203
-158.735	138.639	-0.045	0.059
-157.720	-200.000	-0.032	0.193
-156.706	-88.298	0.236	-0.071
-155.691	-109.686	0.165	0.035
-154.677	-200.000	0.039	-0.228
-153.662	-200.000	-0.003	0.071
-152.647	-200.000	-0.033	0.190
-151.633	208.842	0.024	0.037
-150.618	43.659	0.051	-0.047
-149.604	139.028	-0.169	0.222
-148.589	614.965	-0.067	-0.168
-147.574	78.276	0.145	0.154
-146.560	166.642	0.166	0.234
-145.545	-49.109	-0.101	0.048
-144.531	-61.852	0.130	0.054
-143.516	-49.873	0.139	0.066
-142.502	-74.862	-0.083	0.030
-141.487	800.000	0.023	0.087
-140.472	82.368	-0.195	0.211
-139.458	-200.000	0.037	-0.282
-138.443	-200.000	0.028	-0.178
-137.429	-89.247	0.121	-0.036
-136.414	-149.387	0.250	0.020
-135.399	121.152	-0.065	-0.081
-134.385	20.748	0.048	0.039
-133.370	83.980	-0.085	-0.092
-132.356	767.935	0.005	0.014
-131.341	63.833	0.220	-0.220
-130.326	-3.146	0.363	0.252
-129.312	28.489	0.232	0.195
-128.297	611.053	0.071	0.178
-127.283	378.297	-0.117	0.238
-126.268	373.984	-0.124	0.252
-125.253	57.005	-0.131	0.127
-124.239	-52.823	0.351	-0.161
-123.224	13.031	-0.153	0.118
-122.210	25.732	-0.098	-0.082
-121.195	-106.190	-0.153	-0.034
