DTS Sentinel unit serial number:	SN413079Multiplexer serial number:	ORYXHardware model number:	OX4-SRSoftware version number:	ORYX F/W v4.00 Oryx Data Collector v3.7.2.0data status	okinstallation	princeton_trtdifferential loss correction	single-endedforward channel	channel 2reverse channel	N/Adate	2019/09/15time	06:27:35forward acquisition time	60.00reverse acquisition time	0.00gamma	496.2192k internal	0.2326k external	0.2326temperature offset calibration	1.0036default loss term (dB/km)	0.3790temperature slope calibration	1.0000multiplexer offset coefficient	1.0000multiplexer slope coefficient	1.0000fibre end	0.00T internal ref (°C)	30.50T ext. ref 1 (°C)	4.84T ext. ref 2 (°C)	25.38length (m)	temperature (°C)	Stokes	anti-Stokes-747.200	546.812	-0.097	0.234
-746.185	97.135	-0.181	0.209
-745.171	-126.939	-0.334	0.050
-744.156	-200.000	-0.039	0.258
-743.142	-61.255	0.130	-0.055
-742.127	188.645	0.187	0.282
-741.112	-126.883	-0.118	-0.018
-740.098	76.658	-0.123	-0.131
-739.083	-16.048	-0.080	0.051
-738.069	-200.000	-0.045	0.488
-737.054	-92.442	0.299	-0.085
-736.039	-5.142	-0.209	0.145
-735.025	-38.374	0.090	0.048
-734.010	-109.863	-0.101	0.021
-732.996	-200.000	-0.028	-0.227
-731.981	-200.000	0.006	0.034
-730.966	800.000	-0.116	0.342
-729.952	114.661	-0.219	0.270
-728.937	-8.875	0.081	-0.055
-727.923	-200.000	-0.016	-0.182
-726.908	-200.000	-0.055	-0.270
-725.894	430.758	-0.149	-0.325
-724.879	146.921	0.068	0.092
-723.864	90.088	-0.055	-0.062
-722.850	-200.000	0.009	-0.146
-721.835	-80.317	0.091	-0.031
-720.821	-125.914	0.191	0.029
-719.806	-132.005	-0.349	-0.046
-718.791	-200.000	-0.014	0.364
-717.777	-133.935	-0.358	0.045
-716.762	-200.000	0.032	0.377
-715.748	-25.722	-0.228	-0.136
-714.733	-79.011	-0.181	-0.062
-713.718	119.839	-0.183	0.229
-712.704	-38.662	0.341	-0.182
-711.689	-146.493	-0.315	-0.028
-710.675	161.988	0.136	0.192
-709.660	-39.702	-0.251	0.132
-708.645	-32.123	-0.103	-0.058
-707.631	209.951	0.128	0.202
-706.616	-200.000	0.009	0.119
-705.602	-200.000	0.024	-0.190
-704.587	-14.701	-0.061	-0.040
-703.572	-69.413	-0.145	-0.056
-702.558	283.555	0.057	0.103
-701.543	407.396	0.037	-0.079
-700.529	800.000	0.049	-0.191
-699.514	99.145	0.166	0.193
-698.499	222.401	0.112	-0.182
-697.485	4.666	-0.168	0.124
-696.470	-189.864	0.270	0.003
-695.456	145.644	-0.089	0.120
-694.441	-69.530	-0.228	-0.088
-693.426	-200.000	0.001	0.007
-692.412	-200.000	-0.031	-0.352
-691.397	45.839	-0.303	-0.282
-690.383	685.706	-0.031	-0.081
-689.368	800.000	-0.034	0.140
-688.354	187.664	-0.057	0.086
-687.339	-74.719	-0.098	0.036
-686.324	-62.974	-0.061	0.025
-685.310	93.687	0.171	-0.195
-684.295	-105.468	0.159	0.036
-683.281	800.000	-0.003	-0.014
-682.266	180.368	0.044	-0.065
-681.251	-200.000	0.007	0.162
-680.237	41.053	-0.268	0.243
-679.222	-141.114	-0.158	-0.016
-678.208	-200.000	-0.034	0.218
-677.193	800.000	-0.121	-0.424
-676.178	800.000	0.117	-0.452
-675.164	779.437	0.060	0.165
-674.149	-200.000	-0.027	-0.131
-673.135	418.564	0.055	-0.118
-672.120	154.939	-0.161	-0.223
-671.105	-200.000	0.028	0.128
-670.091	-80.698	-0.217	-0.073
-669.076	-27.222	-0.068	0.040
-668.062	-77.238	-0.234	-0.082
-667.047	325.403	-0.025	-0.048
-666.032	-152.195	0.280	0.020
-665.018	-14.709	-0.310	-0.200
-664.003	120.869	0.090	-0.112
-662.989	-91.636	-0.198	0.057
-661.974	-115.848	0.043	-0.008
-660.959	526.466	-0.121	0.288
-659.945	33.794	0.263	0.230
-658.930	-101.268	0.225	-0.055
-657.916	-200.000	-0.002	0.124
-656.901	637.002	-0.054	-0.139
-655.886	-21.977	0.267	-0.163
-654.872	47.558	-0.157	-0.147
-653.857	268.450	-0.087	-0.154
-652.843	800.000	-0.060	0.172
-651.828	-200.000	0.037	-0.190
-650.814	-31.061	0.216	0.123
-649.799	-200.000	-0.042	0.283
-648.784	-200.000	-0.000	0.049
-647.770	293.171	-0.113	-0.207
-646.755	70.693	0.090	0.093
-645.741	-133.739	-0.360	0.045
-644.726	-200.000	0.049	-0.262
-643.711	-200.000	0.052	0.258
-642.697	-62.685	0.222	0.092
-641.682	104.727	-0.103	-0.122
-640.668	-159.651	0.178	-0.010
-639.653	169.828	-0.114	-0.163
-638.638	-149.159	0.202	-0.016
-637.624	-200.000	0.019	-0.160
-636.609	-72.570	-0.225	-0.084
-635.595	-200.000	0.003	0.079
-634.580	-200.000	-0.008	0.123
-633.565	97.574	-0.268	0.309
-632.551	-170.203	-0.119	-0.004
-631.536	45.910	-0.167	0.155
-630.522	-191.016	0.360	0.004
-629.507	800.000	0.069	0.218
-628.492	-142.938	-0.185	0.018
-627.478	-50.305	-0.176	0.083
-626.463	-56.987	-0.200	-0.089
-625.449	289.567	-0.142	-0.259
-624.434	221.540	-0.094	0.152
-623.419	171.944	-0.009	0.013
-622.405	-6.093	-0.357	0.245
-621.390	-61.931	-0.102	-0.043
-620.376	-200.000	0.020	0.248
-619.361	-174.737	0.161	0.005
-618.346	76.195	0.114	-0.122
-617.332	20.348	0.225	-0.182
-616.317	-200.000	-0.027	-0.134
-615.303	800.000	-0.037	-0.105
-614.288	-164.933	0.084	0.004
-613.273	400.576	-0.070	0.147
-612.259	-20.805	-0.171	-0.105
-611.244	-13.137	0.285	0.186
-610.230	800.000	-0.044	0.176
-609.215	331.836	0.164	-0.318
-608.201	-71.932	-0.084	-0.031
-607.186	-59.700	-0.352	0.151
-606.171	1.992	0.244	-0.177
-605.157	-200.000	0.011	-0.289
-604.142	800.000	0.072	-0.201
-603.128	352.708	-0.123	-0.244
-602.113	-200.000	0.014	-0.151
-601.098	175.521	0.073	0.106
-600.084	-49.482	0.015	0.007
-599.069	-200.000	-0.036	0.171
-598.055	266.817	-0.072	0.126
-597.040	-132.418	0.259	-0.034
-596.025	-31.390	0.262	0.148
-595.011	74.258	0.116	-0.122
-593.996	22.563	0.176	0.144
-592.982	6.325	0.251	-0.187
-591.967	112.730	-0.114	-0.138
-590.952	-64.034	0.570	-0.234
-589.938	-74.051	0.291	0.106
-588.923	-108.428	0.242	-0.052
-587.909	-130.415	-0.543	-0.074
-586.894	-200.000	0.028	-0.235
-585.879	-60.194	-0.260	-0.111
-584.865	-123.095	0.183	0.029
-583.850	-200.000	-0.048	-0.223
-582.836	-126.626	0.349	0.052
-581.821	-17.712	0.349	0.220
-580.806	111.877	-0.130	0.157
-579.792	589.193	-0.097	0.240
-578.777	83.394	0.024	-0.026
-577.763	232.118	-0.058	0.095
-576.748	-200.000	0.263	-0.001
-575.733	-15.844	0.276	0.176
-574.719	-200.000	0.063	0.292
-573.704	-90.750	-0.274	-0.079
-572.690	-46.555	0.138	0.068
-571.675	-91.422	-0.259	-0.074
-570.661	-20.972	-0.147	-0.090
-569.646	65.462	0.256	0.260
-568.631	207.627	0.145	-0.227
-567.617	-122.146	0.167	0.027
-566.602	-115.922	-0.037	-0.007
-565.588	63.174	0.211	-0.212
-564.573	-200.000	0.072	0.377
-563.558	-85.255	-0.198	-0.062
-562.544	41.339	-0.153	-0.139
-561.529	-20.267	-0.236	0.146
-560.515	-111.734	-0.107	0.022
-559.500	427.432	0.102	0.221
-558.485	287.017	0.149	-0.270
-557.471	110.188	0.054	-0.065
-556.456	192.232	-0.075	-0.113
-555.442	-122.487	-0.250	0.041
-554.427	-148.062	0.129	-0.011
-553.412	-94.151	-0.190	-0.052
-552.398	68.550	0.085	0.087
-551.383	525.571	-0.073	0.172
-550.369	-200.000	-0.003	0.030
-549.354	17.103	-0.315	-0.250
-548.339	-200.000	-0.023	-0.108
-547.325	215.885	-0.123	-0.195
-546.310	-93.264	-0.439	0.122
-545.296	800.000	-0.028	0.113
-544.281	-47.440	-0.167	0.081
-543.266	-48.504	0.388	-0.187
-542.252	800.000	-0.084	-0.296
-541.237	364.624	0.146	0.295
-540.223	-74.232	0.296	0.107
-539.208	136.107	0.273	-0.356
-538.193	235.277	0.050	-0.083
-537.179	-200.000	-0.091	-0.493
-536.164	-78.334	-0.128	0.044
-535.150	-200.000	0.028	-0.219
-534.135	-200.000	0.021	0.415
-533.121	-113.506	-0.077	-0.015
-532.106	-53.871	-0.235	-0.107
-531.091	-200.000	0.020	-0.088
-530.077	35.953	-0.094	0.083
-529.062	-200.000	0.011	-0.055
-528.048	800.000	-0.049	0.209
-527.033	249.969	-0.102	0.173
-526.018	142.360	0.054	-0.071
-525.004	-94.548	-0.089	-0.024
-523.989	-82.392	-0.419	0.136
-522.975	335.688	-0.074	0.143
-521.960	-30.831	0.203	-0.115
-520.945	-87.573	-0.130	0.039
-519.931	-113.442	-0.485	-0.095
-518.916	800.000	-0.121	-0.376
-517.902	-200.000	0.014	0.361
-516.887	-200.000	0.011	0.519
-515.872	482.918	-0.100	-0.228
-514.858	-40.075	-0.200	0.104
-513.843	-43.350	0.256	-0.129
-512.829	9.609	-0.075	-0.057
-511.814	177.844	0.190	0.277
-510.799	-160.134	-0.212	-0.012
-509.785	37.516	-0.203	0.180
-508.770	396.411	0.081	0.170
-507.756	-95.949	-0.426	-0.113
-506.741	-57.931	0.173	-0.076
-505.726	-68.472	-0.217	0.084
-504.712	-109.136	-0.204	-0.043
-503.697	-121.408	0.287	-0.048
-502.683	514.010	0.128	-0.299
-501.668	-12.364	0.059	-0.039
-500.653	-23.069	-0.316	0.190
-499.639	25.786	-0.086	0.071
-498.624	106.385	0.184	0.217
-497.610	-107.763	-0.110	-0.024
-496.595	-200.000	0.074	-0.394
-495.581	-85.470	-0.145	-0.045
-494.566	-99.475	0.170	0.043
-493.551	-55.315	-0.241	0.108
-492.537	35.344	-0.040	-0.035
-491.522	800.000	-0.072	0.287
-490.508	-70.455	0.094	-0.036
-489.493	120.239	-0.114	-0.141
-488.478	800.000	0.075	-0.210
-487.464	136.051	0.084	-0.109
-486.449	177.713	0.056	-0.082
-485.435	79.070	-0.033	-0.036
-484.420	-200.000	-0.038	-0.375
-483.405	-2.653	0.094	-0.065
-482.391	462.457	0.179	0.399
-481.376	-155.233	-0.101	-0.007
-480.362	79.482	-0.177	-0.190
-479.347	-149.628	0.211	0.017
-478.332	-59.837	-0.365	0.156
-477.318	15.882	-0.283	-0.223
-476.303	99.379	-0.328	-0.379
-475.289	-200.000	-0.042	0.442
-474.274	345.846	-0.137	0.269
-473.259	122.403	0.131	0.164
-472.245	702.892	0.094	0.246
-471.230	82.162	-0.115	-0.124
-470.216	-90.945	-0.174	0.050
-469.201	-14.245	0.178	-0.115
-468.186	-105.831	-0.215	0.048
-467.172	-135.764	-0.132	0.016
-466.157	-109.669	0.304	-0.064
-465.143	-28.638	-0.404	-0.232
-464.128	-62.632	0.069	-0.029
-463.113	-66.291	-0.416	0.165
-462.099	-49.400	0.287	0.137
-461.084	742.033	-0.092	0.246
-460.070	-170.560	0.251	-0.009
-459.055	60.007	0.085	-0.084
-458.040	-103.619	-0.427	-0.100
-457.026	-146.577	0.162	0.014
-456.011	204.188	0.145	0.224
-454.997	-94.558	0.216	-0.059
-453.982	271.821	-0.059	-0.104
-452.968	631.348	-0.086	0.218
-451.953	-166.707	-0.286	-0.012
-450.938	800.000	-0.046	-0.159
-449.924	204.643	0.063	-0.097
-448.909	-200.000	0.005	0.073
-447.895	-200.000	-0.035	-0.176
-446.880	10.430	0.292	-0.221
-445.865	435.412	0.026	0.057
-444.851	-103.867	0.227	0.053
-443.836	-74.622	-0.351	0.126
-442.822	800.000	0.075	0.279
-441.807	800.000	-0.084	0.240
-440.792	-16.896	0.126	-0.079
-439.778	-200.000	0.016	0.537
-438.763	-99.762	-0.179	-0.045
-437.749	220.311	0.104	-0.165
-436.734	-122.774	-0.341	0.055
-435.719	87.728	0.191	-0.211
-434.705	-128.153	0.384	0.055
-433.690	32.985	0.166	-0.143
-432.676	-200.000	-0.011	0.118
-431.661	44.584	-0.145	0.133
-430.646	-67.063	-0.174	-0.068
-429.632	-163.392	0.273	0.013
-428.617	-124.874	0.209	0.032
-427.603	-200.000	0.077	-0.401
-426.588	109.190	-0.220	-0.263
-425.573	11.536	0.163	0.124
-424.559	800.000	-0.059	-0.162
-423.544	-121.138	-0.265	-0.044
-422.530	-29.965	-0.192	0.109
-421.515	32.309	0.134	0.115
-420.500	333.514	0.195	0.376
-419.486	-50.425	0.199	-0.094
-418.471	-35.833	0.289	-0.156
-417.457	-51.611	0.101	-0.047
-416.442	-98.531	0.129	0.033
-415.428	140.345	0.067	0.088
-414.413	-160.756	0.200	-0.011
-413.398	800.000	-0.034	0.102
-412.384	188.177	0.137	0.204
-411.369	-64.924	0.215	-0.087
-410.355	-45.409	-0.368	-0.182
-409.340	-200.000	-0.026	0.116
-408.325	-84.853	0.209	-0.065
-407.311	-94.786	0.381	-0.103
-406.296	51.122	0.227	-0.214
-405.282	-200.000	-0.021	0.201
-404.267	-101.153	-0.438	0.107
-403.252	167.884	0.177	0.251
-402.238	-200.000	0.015	-0.116
-401.223	-140.037	0.100	-0.010
-400.209	-183.532	0.188	0.003
-399.194	236.946	0.054	0.090
-398.179	125.527	0.042	0.053
-397.165	-200.000	0.010	-0.258
-396.150	22.366	-0.106	0.086
-395.136	65.773	0.091	0.091
-394.121	105.095	-0.207	0.243
-393.106	-57.491	-0.135	-0.059
-392.092	703.526	0.046	-0.122
-391.077	181.948	0.083	0.122
-390.063	-200.000	-0.079	0.371
-389.048	173.743	-0.256	0.367
-388.033	-200.000	-0.033	-0.227
-387.019	-200.000	0.011	0.067
-386.004	800.000	-0.023	-0.086
-384.990	-91.592	-0.196	0.056
-383.975	-140.747	0.138	0.014
-382.960	-43.756	-0.150	0.075
-381.946	-200.000	0.040	0.195
-380.931	800.000	-0.056	-0.163
-379.917	-15.946	0.386	-0.244
-378.902	671.582	0.045	-0.117
-377.888	-50.349	0.145	0.068
-376.873	-200.000	-0.010	-0.071
-375.858	-200.000	-0.008	0.160
-374.844	-85.916	-0.045	0.014
-373.829	49.045	0.072	-0.068
-372.815	60.397	-0.076	-0.075
-371.800	-42.875	0.107	0.054
-370.785	-132.664	-0.354	0.045
-369.771	603.744	0.112	-0.276
-368.756	-200.000	0.022	0.129
-367.742	800.000	-0.091	0.271
-366.727	139.418	0.212	0.277
-365.712	-121.163	0.233	0.039
-364.698	388.197	-0.024	-0.049
-363.683	800.000	-0.044	-0.185
-362.669	-200.000	0.015	-0.290
-361.654	90.468	-0.172	-0.192
-360.639	-40.302	-0.406	-0.210
-359.625	-113.792	0.265	0.051
-358.610	800.000	0.050	-0.139
-357.596	-200.000	-0.015	-0.092
-356.581	136.828	-0.105	0.137
-355.566	70.400	-0.222	0.228
-354.552	800.000	-0.009	0.035
-353.537	-200.000	-0.066	0.493
-352.523	-114.309	-0.148	0.028
-351.508	200.532	-0.047	0.071
-350.493	81.884	-0.176	-0.189
-349.479	258.978	0.016	-0.028
-348.464	179.307	0.158	0.229
-347.450	-200.000	0.026	0.182
-346.435	127.331	-0.077	0.097
-345.420	-200.000	-0.076	0.417
-344.406	-107.396	0.360	0.079
-343.391	119.489	-0.081	0.099
-342.377	-103.141	0.071	-0.017
-341.362	11.692	-0.069	0.053
-340.348	76.484	-0.113	-0.119
-339.333	69.657	0.185	-0.189
-338.318	-108.936	0.275	-0.058
-337.304	-80.255	-0.295	0.098
-336.289	-52.091	-0.105	-0.049
-335.275	381.175	0.015	0.031
-334.260	-100.428	0.053	-0.013
-333.245	124.940	-0.079	-0.099
-332.231	86.671	-0.297	-0.325
-331.216	449.850	-0.124	0.272
-330.202	534.060	0.080	-0.188
-329.187	-119.108	0.217	0.038
-328.172	-200.000	0.016	-0.253
-327.158	48.866	-0.222	0.207
-326.143	39.355	-0.032	0.029
-325.129	-7.436	-0.196	-0.132
-324.114	-64.759	0.314	0.126
-323.099	33.659	0.162	-0.140
-322.085	528.442	-0.070	0.163
-321.070	6.361	0.079	-0.058
-320.056	93.707	-0.131	0.147
-319.041	77.345	-0.130	0.137
-318.026	-200.000	0.004	0.103
-317.012	216.700	-0.098	0.155
-315.997	310.270	0.023	0.042
-314.983	248.343	-0.211	-0.354
-313.968	800.000	-0.040	0.117
-312.953	-200.000	-0.043	-0.253
-311.939	578.459	-0.080	-0.193
-310.924	800.000	0.057	0.183
-309.910	-98.329	0.089	0.023
-308.895	618.710	0.107	0.266
-307.880	-57.687	0.351	-0.153
-306.866	-133.858	-0.185	0.023
-305.851	-155.910	-0.156	0.010
-304.837	-73.265	0.195	0.071
-303.822	-9.480	-0.072	0.048
-302.807	-200.000	0.025	-0.117
-301.793	112.303	0.102	-0.122
-300.778	184.619	0.072	0.106
-299.764	295.622	0.121	0.219
-298.749	800.000	-0.100	-0.379
-297.735	309.127	0.046	0.086
-296.720	800.000	0.060	0.248
-295.705	-200.000	0.001	-0.014
-294.691	420.583	-0.043	-0.092
-293.676	-102.001	-0.232	0.056
-292.662	56.122	0.160	0.154
-291.647	-133.896	-0.179	0.022
-290.632	174.177	-0.104	-0.149
-289.618	107.759	0.126	-0.149
-288.603	-148.169	0.270	-0.022
-287.589	332.322	-0.102	-0.196
-286.574	324.311	-0.086	0.162
-285.559	-200.000	0.003	-0.061
-284.545	125.456	-0.090	0.113
-283.530	-16.841	0.316	-0.198
-282.516	176.276	0.071	-0.101
-281.501	51.865	0.255	0.240
-280.486	-200.000	-0.042	-0.208
-279.472	-200.000	0.012	0.358
-278.457	-8.717	0.125	-0.083
-277.443	638.922	0.012	-0.030
-276.428	-30.551	0.057	0.032
-275.413	800.000	-0.023	0.091
-274.399	-200.000	-0.061	-0.372
-273.384	384.814	0.112	-0.228
-272.370	430.115	0.141	-0.301
-271.355	-200.000	0.023	-0.226
-270.340	187.628	0.185	-0.274
-269.326	-200.000	0.001	-0.260
-268.311	-85.448	0.340	0.105
-267.297	256.133	-0.172	-0.292
-266.282	383.478	-0.121	0.247
-265.267	-67.481	0.141	0.055
-264.253	800.000	0.054	0.149
-263.238	22.321	0.077	0.062
-262.224	-200.000	0.004	0.109
-261.209	-73.461	0.240	-0.087
-260.195	199.340	-0.080	-0.122
-259.180	117.241	-0.065	-0.079
-258.165	413.140	-0.061	0.128
-257.151	800.000	0.031	-0.087
-256.136	331.537	-0.025	0.047
-255.122	-200.000	0.048	-0.218
-254.107	-47.103	0.150	0.072
-253.092	-124.064	-0.216	-0.034
-252.078	225.795	0.166	0.266
-251.063	-123.994	0.198	0.031
-250.049	-200.000	-0.008	0.397
-249.034	153.490	0.237	0.321
-248.019	-132.309	-0.350	0.045
-247.005	-31.936	-0.280	0.155
-245.990	-200.000	0.338	0.001
-244.976	-59.201	0.188	-0.080
-243.961	-45.435	0.247	-0.121
-242.946	21.414	0.116	-0.094
-241.932	90.881	-0.207	-0.229
-240.917	-151.958	-0.251	0.018
-239.903	27.138	0.232	-0.192
-238.888	800.000	0.117	-0.353
-237.873	-200.000	-0.015	0.250
-236.859	-9.463	0.187	0.123
-235.844	203.557	-0.083	-0.127
-234.830	-57.120	0.141	-0.061
-233.815	-200.000	-0.092	-0.507
-232.800	800.000	-0.075	-0.313
-231.786	32.963	0.266	0.228
-230.771	-82.594	-0.356	0.114
-229.757	628.147	-0.077	0.192
-228.742	342.241	0.077	0.148
-227.727	-93.843	0.136	-0.037
-226.713	-200.000	0.067	0.310
-225.698	-173.348	0.256	0.008
-224.684	-18.937	0.119	-0.073
-223.669	-200.000	-0.004	0.407
-222.655	-46.634	-0.256	0.124
-221.640	285.084	-0.034	-0.061
-220.625	42.700	0.135	0.121
-219.611	-38.791	0.084	-0.044
-218.596	60.070	-0.109	-0.107
-217.582	-200.000	-0.076	0.330
-216.567	-90.144	-0.236	-0.068
-215.552	261.919	-0.080	-0.138
-214.538	800.000	-0.081	-0.228
-213.523	131.240	-0.208	0.265
-212.509	98.830	0.212	-0.241
-211.494	800.000	-0.093	0.307
-210.479	165.836	0.226	0.315
-209.465	-49.701	-0.140	0.066
-208.450	333.828	0.144	0.274
-207.436	353.988	0.077	-0.151
-206.421	-16.231	0.285	-0.179
-205.406	188.005	-0.058	-0.086
-204.392	-32.278	-0.100	-0.055
-203.377	31.660	0.249	-0.211
-202.363	-179.331	-0.084	0.002
-201.348	131.543	0.107	-0.135
-200.333	53.078	-0.093	0.088
-199.319	659.615	-0.074	0.189
-198.304	-200.000	-0.011	-0.092
-197.290	73.342	0.093	-0.096
-196.275	9.010	-0.341	-0.254
-195.260	-200.000	-0.002	-0.375
-194.246	-68.646	-0.126	0.048
-193.231	140.396	0.082	0.107
-192.217	-170.854	-0.317	0.011
-191.202	465.378	0.165	-0.364
-190.187	800.000	0.077	-0.251
-189.173	199.027	0.061	-0.093
-188.158	21.685	-0.123	0.099
-187.144	-200.000	0.004	-0.324
-186.129	450.201	-0.110	-0.240
-185.114	53.485	0.201	-0.190
-184.100	800.000	0.094	0.269
-183.085	-9.379	0.305	-0.201
-182.071	-200.000	-0.036	0.197
-181.056	46.669	-0.047	0.043
-180.042	-147.380	0.083	-0.007
-179.027	-123.226	-0.311	-0.049
-178.012	-60.663	-0.120	0.050
-176.998	2.534	0.196	-0.140
-175.983	-200.000	0.007	0.231
-174.969	-74.886	-0.210	-0.074
-173.954	-6.764	0.185	-0.124
-172.939	-102.447	0.144	-0.034
-171.925	104.813	-0.037	-0.043
-170.910	-76.202	0.096	-0.033
-169.896	64.017	0.197	-0.195
-168.881	105.339	0.177	-0.206
-167.866	70.470	-0.119	-0.122
-166.852	287.302	-0.002	0.003
-165.837	-200.000	-0.038	0.195
-164.823	-200.000	0.073	-0.382
-163.808	-200.000	0.099	0.434
-162.793	-82.660	-0.472	-0.151
-161.779	-200.000	-0.037	0.247
-160.764	-22.224	-0.142	0.085
-159.750	602.940	-0.048	0.117
-158.735	-165.313	-0.401	-0.017
-157.720	-91.567	0.242	-0.068
-156.706	-200.000	-0.041	-0.235
-155.691	-200.000	-0.052	0.414
-154.677	-80.458	-0.076	-0.025
-153.662	-36.651	0.251	-0.133
-152.647	-57.307	-0.264	0.114
-151.633	234.514	0.059	0.096
-150.618	-83.208	-0.101	-0.032
-149.604	71.156	-0.107	-0.110
-148.589	687.086	-0.176	-0.454
-147.574	-35.578	-0.088	-0.047
-146.560	800.000	-0.048	-0.191
-145.545	46.318	-0.083	0.076
-144.531	196.236	0.030	-0.045
-143.516	800.000	0.054	-0.185
-142.502	-142.738	0.284	0.027
-141.487	-200.000	-0.003	-0.124
-140.472	-35.228	-0.178	-0.095
-139.458	178.897	0.185	0.266
-138.443	-75.333	-0.260	0.091
-137.429	-200.000	0.050	-0.303
-136.414	97.926	0.036	0.041
-135.399	145.605	-0.131	-0.173
-134.385	44.807	0.251	-0.227
-133.370	-159.049	-0.204	-0.011
-132.356	223.934	0.122	0.195
-131.341	-34.742	-0.271	0.146
-130.326	51.036	0.051	0.047
-129.312	56.421	-0.098	-0.094
-128.297	-129.443	0.226	0.031
-127.283	13.696	-0.305	0.233
-126.268	73.583	0.193	-0.199
-125.253	63.029	-0.076	-0.075
-124.239	-200.000	-0.040	-0.174
-123.224	-118.088	0.141	-0.025
-122.210	11.300	0.152	-0.115
