DTS Sentinel unit serial number:	SN413079Multiplexer serial number:	ORYXHardware model number:	OX4-SRSoftware version number:	ORYX F/W v4.00 Oryx Data Collector v3.7.2.0data status	okinstallation	princeton_trtdifferential loss correction	single-endedforward channel	channel 2reverse channel	N/Adate	2019/09/13time	07:11:35forward acquisition time	60.00reverse acquisition time	0.00gamma	496.2192k internal	0.2337k external	0.2337temperature offset calibration	1.0196default loss term (dB/km)	0.3790temperature slope calibration	1.0000multiplexer offset coefficient	1.0000multiplexer slope coefficient	1.0000fibre end	0.00T internal ref (°C)	26.02T ext. ref 1 (°C)	4.14T ext. ref 2 (°C)	21.34length (m)	temperature (°C)	Stokes	anti-Stokes-747.200	252.764	-0.164	-0.280
-746.185	44.416	-0.142	0.131
-745.171	-50.881	-0.348	-0.164
-744.156	-147.717	-0.358	0.030
-743.142	800.000	-0.033	-0.092
-742.127	-200.000	-0.038	0.201
-741.112	-200.000	-0.047	0.241
-740.098	800.000	0.071	0.255
-739.083	-200.000	-0.064	-0.298
-738.069	-153.791	-0.255	0.018
-737.054	-142.581	0.317	0.031
-736.039	-78.100	-0.059	-0.020
-735.025	127.725	0.151	-0.193
-734.010	352.667	0.031	0.061
-732.996	-96.739	0.116	0.031
-731.981	-172.958	0.142	-0.004
-730.966	-200.000	-0.034	-0.163
-729.952	-200.000	-0.046	-0.274
-728.937	-87.278	-0.406	0.124
-727.923	-169.240	-0.089	0.003
-726.908	-200.000	0.051	0.254
-725.894	-200.000	-0.008	-0.386
-724.879	-6.957	0.284	-0.194
-723.864	287.103	-0.102	0.185
-722.850	-17.462	0.061	0.038
-721.835	46.927	-0.233	-0.217
-720.821	-200.000	-0.005	-0.099
-719.806	28.984	0.188	-0.160
-718.791	312.271	0.156	-0.294
-717.777	93.018	-0.228	-0.259
-716.762	16.870	-0.191	-0.152
-715.748	800.000	0.090	-0.291
-714.733	603.911	0.086	0.215
-713.718	-27.951	-0.157	-0.091
-712.704	800.000	-0.068	-0.242
-711.689	-44.218	0.275	0.138
-710.675	647.843	-0.075	0.192
-709.660	56.431	-0.100	-0.097
-708.645	-200.000	0.051	0.338
-707.631	-200.000	0.015	-0.134
-706.616	435.123	-0.114	-0.248
-705.602	-200.000	0.007	-0.103
-704.587	-200.000	-0.001	-0.066
-703.572	102.693	0.308	-0.361
-702.558	482.132	-0.036	0.083
-701.543	119.092	0.207	-0.256
-700.529	-7.006	-0.035	-0.024
-699.514	800.000	-0.133	-0.388
-698.499	-157.465	-0.089	-0.005
-697.485	-91.127	-0.288	-0.083
-696.470	765.248	-0.048	0.129
-695.456	800.000	-0.041	-0.126
-694.441	800.000	0.078	0.284
-693.426	-111.889	0.171	-0.035
-692.412	370.490	0.065	-0.132
-691.397	314.741	0.129	0.244
-690.383	201.084	0.141	-0.218
-689.368	-15.863	-0.154	-0.098
-688.354	10.602	-0.271	-0.207
-687.339	672.345	-0.083	-0.214
-686.324	800.000	-0.044	-0.175
-685.310	549.257	-0.171	-0.411
-684.295	130.666	0.089	-0.114
-683.281	-139.367	-0.238	-0.026
-682.266	-91.942	-0.251	-0.071
-681.251	115.904	0.092	0.113
-680.237	85.451	0.084	0.093
-679.222	-93.464	-0.122	0.034
-678.208	-5.021	0.129	0.089
-677.193	419.188	-0.035	0.075
-676.178	-47.886	0.186	0.090
-675.164	-200.000	-0.002	0.094
-674.149	-181.568	0.366	0.007
-673.135	-80.242	-0.106	-0.035
-672.120	147.137	0.112	0.151
-671.105	2.635	-0.235	-0.170
-670.091	125.907	-0.244	-0.308
-669.076	8.785	0.160	-0.121
-668.062	28.594	0.231	0.195
-667.047	-200.000	0.001	-0.361
-666.032	-85.449	0.253	-0.079
-665.018	-200.000	-0.022	0.378
-664.003	-200.000	0.028	-0.239
-662.989	93.331	-0.199	-0.225
-661.974	-200.000	-0.019	-0.341
-660.959	800.000	-0.109	-0.403
-659.945	-63.124	-0.386	-0.159
-658.930	-106.587	-0.446	0.099
-657.916	298.713	0.120	-0.220
-656.901	-75.256	0.116	0.041
-655.886	-200.000	0.001	0.093
-654.872	-5.185	-0.064	-0.044
-653.857	-115.689	-0.123	-0.023
-652.843	401.943	0.185	-0.388
-651.828	-200.000	0.007	0.035
-650.814	40.103	-0.012	-0.011
-649.799	-110.186	-0.316	-0.066
-648.784	-69.450	-0.211	-0.081
-647.770	-32.685	-0.073	-0.040
-646.755	428.755	-0.020	-0.044
-645.741	10.555	-0.200	-0.152
-644.726	-45.683	-0.315	0.156
-643.711	-46.156	0.194	-0.096
-642.697	36.184	-0.157	-0.138
-641.682	800.000	0.023	-0.077
-640.668	-200.000	0.019	0.171
-639.653	-98.097	-0.186	-0.048
-638.638	0.238	0.082	0.059
-637.624	51.019	-0.090	0.085
-636.609	532.392	0.116	0.273
-635.595	37.470	-0.086	0.076
-634.580	124.907	-0.168	-0.212
-633.565	404.519	0.125	-0.264
-632.551	-34.234	-0.181	0.099
-631.536	-16.922	0.040	0.026
-630.522	-41.400	-0.217	-0.112
-629.507	88.131	0.042	-0.046
-628.492	-32.143	-0.328	-0.183
-627.478	-38.715	-0.170	-0.089
-626.463	646.261	0.092	-0.234
-625.449	445.965	-0.046	0.101
-624.434	-115.461	0.236	0.044
-623.419	-157.370	-0.369	-0.022
-622.405	-107.547	0.113	0.025
-621.390	45.367	0.038	-0.035
-620.376	797.952	0.148	-0.409
-619.361	800.000	-0.043	-0.170
-618.346	-51.601	0.183	0.085
-617.332	116.081	0.143	-0.175
-616.317	-126.314	0.189	0.028
-615.303	-116.256	0.477	0.088
-614.288	67.119	-0.161	0.163
-613.273	358.029	-0.193	0.385
-612.259	-39.819	-0.153	0.080
-611.244	-103.657	-0.412	0.097
-610.230	31.150	0.105	0.090
-609.215	56.576	-0.045	0.044
-608.201	149.200	-0.165	0.223
-607.186	-41.311	0.023	0.012
-606.171	441.535	-0.069	0.150
-605.157	590.201	0.088	0.216
-604.142	-61.572	0.279	-0.117
-603.128	-43.545	0.184	0.093
-602.113	-8.429	-0.185	-0.124
-601.098	-97.528	-0.190	-0.049
-600.084	-99.851	0.213	0.053
-599.069	-66.724	-0.119	-0.047
-598.055	-180.007	0.326	-0.007
-597.040	-113.584	0.317	0.062
-596.025	-87.974	-0.014	-0.004
-595.011	25.656	-0.161	-0.134
-593.996	-38.178	-0.093	-0.049
-592.982	-159.187	0.122	-0.007
-591.967	-200.000	-0.000	-0.126
-590.952	487.210	0.029	0.066
-589.938	420.661	0.129	-0.276
-588.923	720.181	-0.082	-0.219
-587.909	800.000	-0.033	0.102
-586.894	-66.492	0.262	-0.104
-585.879	1.210	0.176	-0.126
-584.865	-183.401	0.230	0.004
-583.850	-200.000	0.057	-0.407
-582.836	800.000	0.033	-0.132
-581.821	-103.896	0.172	0.040
-580.806	119.399	0.197	0.243
-579.792	226.867	-0.070	0.113
-578.777	-200.000	-0.032	-0.151
-577.763	155.881	-0.099	0.136
-576.748	33.921	0.381	-0.331
-575.733	99.416	-0.063	0.073
-574.719	-200.000	0.021	0.336
-573.704	-200.000	0.036	0.346
-572.690	789.759	0.058	0.159
-571.675	457.979	-0.121	0.267
-570.661	33.715	-0.359	-0.311
-569.646	-81.360	0.199	-0.065
-568.631	-159.142	-0.417	0.023
-567.617	219.226	0.133	-0.213
-566.602	800.000	-0.043	-0.136
-565.588	16.297	0.284	-0.224
-564.573	126.281	-0.046	0.058
-563.558	-114.286	0.665	-0.128
-562.544	800.000	0.085	0.245
-561.529	-71.808	-0.269	0.100
-560.515	-70.864	-0.310	-0.116
-559.500	-69.747	0.147	0.056
-558.485	-18.449	0.167	0.104
-557.471	-139.139	0.389	0.042
-556.456	-200.000	0.007	0.258
-555.442	18.221	-0.077	-0.061
-554.427	-36.797	-0.173	-0.093
-553.412	-200.000	-0.027	-0.207
-552.398	-200.000	-0.053	-0.294
-551.383	149.386	-0.197	-0.265
-550.369	98.867	0.037	-0.043
-549.354	21.136	-0.053	0.043
-548.339	-165.124	0.205	0.009
-547.325	158.171	0.151	0.209
-546.310	-200.000	0.004	-0.057
-545.296	52.972	-0.055	0.053
-544.281	-4.968	-0.120	-0.082
-543.266	800.000	-0.047	-0.142
-542.252	-132.775	0.184	0.023
-541.237	-109.017	-0.190	0.040
-540.223	212.269	0.142	-0.223
-539.208	-200.000	0.104	-0.466
-538.193	57.823	0.243	-0.237
-537.179	-200.000	0.018	-0.460
-536.164	656.538	-0.026	0.067
-535.150	279.765	0.089	-0.158
-534.135	248.585	-0.052	0.088
-533.121	338.911	-0.091	0.176
-532.106	104.146	0.120	0.141
-531.091	59.336	-0.069	-0.068
-530.077	-129.914	-0.160	0.022
-529.062	-200.000	-0.016	0.294
-528.048	-33.743	0.419	-0.230
-527.033	505.498	0.135	-0.312
-526.018	30.883	0.327	-0.279
-525.004	388.474	-0.154	-0.317
-523.989	127.775	0.038	0.048
-522.975	800.000	-0.097	-0.359
-521.960	-200.000	0.051	-0.410
-520.945	250.700	-0.078	-0.132
-519.931	469.651	-0.005	0.012
-518.916	72.434	0.112	0.116
-517.902	-44.876	0.026	0.013
-516.887	179.082	0.089	-0.130
-515.872	-200.000	-0.005	0.277
-514.858	15.736	0.180	-0.141
-513.843	-119.019	0.146	-0.026
-512.829	-142.640	-0.165	0.016
-511.814	800.000	0.115	0.388
-510.799	488.307	0.078	0.177
-509.785	-143.415	0.496	0.047
-508.770	-200.000	-0.010	-0.150
-507.756	-145.466	-0.229	-0.020
-506.741	620.361	0.041	-0.102
-505.726	-185.940	-0.130	0.002
-504.712	-130.708	-0.223	-0.030
-503.697	663.844	-0.104	0.268
-502.683	-200.000	0.012	0.289
-501.668	-37.320	-0.233	-0.124
-500.653	176.819	0.104	-0.150
-499.639	-154.294	-0.458	0.031
-498.624	-60.249	-0.532	0.225
-497.610	280.848	0.222	0.394
-496.595	-116.314	0.141	-0.026
-495.581	410.888	0.060	0.127
-494.566	-141.839	-0.093	0.009
-493.551	800.000	-0.043	-0.167
-492.537	226.210	-0.015	-0.025
-491.522	-155.880	-0.331	-0.021
-490.508	217.072	0.140	-0.221
-489.493	16.681	-0.169	0.133
-488.478	-150.065	0.265	0.021
-487.464	132.362	0.133	-0.170
-486.449	-139.709	-0.031	0.003
-485.435	-200.000	-0.024	0.139
-484.420	-111.033	0.255	0.052
-483.405	-153.923	-0.221	0.015
-482.391	-89.407	0.378	0.111
-481.376	-88.798	-0.224	0.066
-480.362	51.740	-0.033	-0.031
-479.347	-52.617	-0.084	-0.038
-478.332	721.662	-0.117	0.310
-477.318	-17.402	-0.172	-0.108
-476.303	18.621	0.232	0.184
-475.289	-200.000	-0.048	0.336
-474.274	800.000	0.041	0.156
-473.259	-101.258	-0.108	-0.026
-472.245	215.818	0.131	-0.207
-471.230	183.005	-0.055	0.081
-470.216	-200.000	0.004	0.041
-469.201	-153.727	0.052	-0.004
-468.186	353.840	0.062	-0.122
-467.172	5.661	-0.198	-0.145
-466.157	124.219	0.286	0.357
-465.143	508.277	-0.163	0.376
-464.128	-83.257	-0.267	0.085
-463.113	510.736	-0.024	-0.056
-462.099	-165.453	0.119	-0.005
-461.084	-15.630	0.119	-0.076
-460.070	-54.122	-0.447	-0.202
-459.055	61.434	-0.123	0.121
-458.040	109.789	0.024	0.029
-457.026	383.835	0.086	0.176
-456.011	106.272	-0.008	-0.009
-454.997	-200.000	-0.025	0.116
-453.982	800.000	-0.074	0.303
-452.968	-90.754	0.205	-0.059
-451.953	-200.000	0.000	0.057
-450.938	-90.583	0.181	0.052
-449.924	347.824	0.097	0.190
-448.909	574.656	-0.063	-0.151
-447.895	116.587	-0.160	0.194
-446.880	800.000	0.032	0.122
-445.865	38.546	-0.079	0.070
-444.851	-159.147	-0.257	0.014
-443.836	-91.021	0.236	-0.067
-442.822	-1.851	-0.066	0.046
-441.807	-132.703	-0.150	-0.019
-440.792	23.013	0.265	0.215
-439.778	800.000	0.034	-0.142
-438.763	-200.000	0.041	-0.257
-437.749	-129.534	-0.241	-0.033
-436.734	800.000	-0.039	-0.112
-435.719	-26.128	0.300	0.175
-434.705	74.864	0.150	-0.157
-433.690	-63.120	-0.284	-0.116
-432.676	800.000	-0.069	-0.223
-431.661	-200.000	0.025	0.149
-430.646	-35.215	0.309	0.167
-429.632	147.225	-0.166	0.222
-428.617	539.782	0.067	0.158
-427.603	-44.327	-0.301	-0.150
-426.588	-104.065	-0.174	0.040
-425.573	159.698	-0.198	0.274
-424.559	140.978	-0.067	0.088
-423.544	800.000	0.102	0.374
-422.530	-87.550	0.427	0.128
-421.515	359.378	-0.159	0.315
-420.500	-138.483	0.283	-0.031
-419.486	-1.160	-0.059	0.041
-418.471	-85.498	-0.024	0.007
-417.457	165.607	-0.123	0.173
-416.442	74.891	0.060	-0.063
-415.428	-200.000	0.042	-0.366
-414.413	-200.000	-0.034	-0.301
-413.398	-71.825	0.224	0.083
-412.384	500.598	0.123	0.282
-411.369	110.305	-0.091	-0.109
-410.355	-125.366	-0.353	0.053
-409.340	187.983	0.011	0.017
-408.325	79.588	0.175	-0.186
-407.311	163.999	0.054	0.076
-406.296	-200.000	0.014	0.149
-405.282	-39.047	-0.192	0.100
-404.267	341.041	-0.017	-0.032
-403.252	-200.000	-0.023	0.507
-402.238	-200.000	-0.004	-0.133
-401.223	800.000	-0.085	-0.367
-400.209	-200.000	0.043	0.247
-399.194	-173.948	0.184	0.005
-398.179	64.525	0.112	0.112
-397.165	0.961	-0.068	0.048
-396.150	11.891	0.164	-0.125
-395.136	-175.792	0.287	0.008
-394.121	800.000	0.028	-0.097
-393.106	202.377	0.076	-0.117
-392.092	217.936	0.083	0.131
-391.077	-81.780	0.268	-0.087
-390.063	9.424	-0.008	0.006
-389.048	-147.723	-0.300	-0.025
-388.033	135.452	0.035	-0.045
-387.019	-200.000	0.028	-0.324
-386.004	-17.901	0.070	0.043
-384.990	-18.441	0.131	-0.081
-383.975	-46.245	-0.240	-0.117
-382.960	-72.444	-0.327	-0.119
-381.946	800.000	0.147	0.455
-380.931	-4.114	0.277	0.190
-379.917	-87.294	0.163	-0.049
-378.902	-57.575	-0.217	-0.094
-377.888	800.000	0.026	0.112
-376.873	-200.000	-0.018	0.133
-375.858	151.132	0.126	-0.170
-374.844	44.176	-0.204	-0.185
-373.829	284.456	0.147	0.262
-372.815	-120.785	0.390	0.065
-371.800	284.689	-0.016	0.028
-370.785	351.272	-0.107	0.210
-369.771	-52.912	-0.064	0.029
-368.756	800.000	-0.124	0.491
-367.742	-200.000	0.001	0.153
-366.727	57.126	-0.204	0.196
-365.712	800.000	-0.013	0.051
-364.698	-29.816	0.135	0.076
-363.683	-77.024	0.330	-0.114
-362.669	800.000	0.034	-0.098
-361.654	355.809	-0.133	-0.263
-360.639	692.090	0.106	0.275
-359.625	-40.441	0.085	-0.044
-358.610	60.325	-0.103	-0.101
-357.596	-67.255	-0.133	-0.052
-356.581	800.000	0.079	0.284
-355.566	-77.771	0.204	0.070
-354.552	-68.916	0.298	-0.114
-353.537	127.187	-0.277	-0.348
-352.523	-116.039	0.106	0.019
-351.508	-25.057	0.251	-0.147
-350.493	81.814	-0.062	0.067
-349.479	-87.503	0.241	0.072
-348.464	-133.299	0.167	-0.021
-347.450	-38.253	-0.176	0.092
-346.435	47.519	-0.120	0.111
-345.420	364.665	0.183	-0.365
-344.406	-64.883	0.180	-0.072
-343.391	417.698	0.027	0.057
-342.377	-37.833	0.314	0.165
-341.362	-85.142	-0.263	-0.081
-340.348	205.567	0.227	-0.349
-339.333	57.182	-0.097	-0.093
-338.318	76.111	-0.096	0.100
-337.304	-12.747	0.038	-0.024
-336.289	-10.035	-0.264	0.173
-335.275	-122.769	-0.149	0.024
-334.260	-149.039	-0.291	-0.023
-333.245	-154.670	0.156	-0.010
-332.231	-83.966	-0.147	0.046
-331.216	116.707	0.116	0.140
-330.202	70.253	-0.231	0.236
-329.187	77.358	0.219	0.230
-328.172	-200.000	-0.012	-0.091
-327.158	79.132	-0.175	0.185
-326.143	148.808	-0.176	0.234
-325.129	-148.710	0.283	0.023
-324.114	-137.245	0.222	0.025
-323.099	726.168	-0.096	-0.253
-322.085	-200.000	0.488	-0.001
-321.070	190.311	-0.199	-0.295
-320.056	-175.022	0.069	-0.002
-319.041	123.750	0.061	0.075
-318.026	53.707	0.249	-0.236
-317.012	800.000	0.027	-0.090
-315.997	-50.307	-0.081	-0.038
-314.983	-166.160	-0.173	0.007
-313.968	-105.148	0.160	-0.036
-312.953	-200.000	0.017	-0.162
-311.939	-157.480	0.159	-0.009
-310.924	117.894	-0.184	-0.223
-309.910	56.776	-0.150	0.144
-308.895	178.065	0.087	-0.126
-307.880	125.520	0.187	-0.233
-306.866	-200.000	0.048	-0.323
-305.851	-5.794	-0.210	-0.142
-304.837	-200.000	-0.013	-0.581
-303.822	-200.000	0.106	-0.497
-302.807	86.817	-0.027	-0.030
-301.793	61.748	0.100	0.099
-300.778	-159.367	-0.062	-0.003
-299.764	800.000	-0.090	0.347
-298.749	19.331	-0.052	-0.041
-297.735	-118.212	-0.354	-0.062
-296.720	-103.418	0.042	-0.010
-295.705	258.895	-0.166	0.282
-294.691	204.817	0.186	0.284
-293.676	-134.673	-0.047	0.006
-292.662	-36.089	-0.365	-0.195
-291.647	-200.000	-0.001	-0.031
-290.632	-50.405	-0.401	0.187
-289.618	-200.000	0.005	-0.245
-288.603	52.972	-0.361	0.341
-287.589	800.000	-0.103	0.297
-286.574	72.071	0.066	0.067
-285.559	-200.000	-0.021	0.216
-284.545	116.863	-0.218	-0.264
-283.530	-200.000	-0.027	-0.344
-282.516	668.814	0.028	-0.072
-281.501	-44.502	0.093	0.046
-280.486	800.000	-0.035	0.125
-279.472	-157.020	-0.086	-0.005
-278.457	-127.000	-0.148	-0.021
-277.443	267.981	0.080	0.139
-276.428	800.000	-0.118	0.415
-275.413	-17.400	0.199	-0.123
-274.399	-99.925	-0.053	-0.013
-273.384	77.415	-0.265	0.278
-272.370	-185.563	0.199	-0.003
-271.355	-22.784	0.283	-0.168
-270.340	724.730	0.012	0.031
-269.326	-200.000	-0.006	0.293
-268.311	-55.243	-0.233	0.103
-267.297	141.508	-0.062	-0.081
-266.282	800.000	0.095	0.389
-265.267	-31.479	-0.379	0.210
-264.253	-200.000	-0.078	0.430
-263.238	178.623	-0.141	-0.203
-262.224	-200.000	0.058	-0.440
-261.209	-140.007	-0.217	-0.023
-260.195	-110.135	0.350	0.072
-259.180	-5.072	0.103	0.070
-258.165	-20.110	0.283	-0.172
-257.151	127.536	0.051	0.064
-256.136	-29.421	-0.082	-0.046
-255.122	800.000	0.018	-0.073
-254.107	298.652	0.044	-0.079
-253.092	772.318	-0.073	-0.196
-252.078	170.442	0.094	0.132
-251.063	-74.917	-0.432	0.153
-250.049	-118.621	0.136	-0.024
-249.034	59.719	-0.193	-0.188
-248.019	800.000	-0.064	0.234
-247.005	-153.835	0.158	-0.011
-245.990	-114.870	-0.179	0.034
-244.976	-126.899	-0.334	-0.048
-243.961	-49.021	-0.296	0.140
-242.946	97.867	-0.245	0.278
-241.932	-172.532	-0.105	0.003
-240.917	-166.911	0.240	0.010
-239.903	800.000	0.060	-0.214
-238.888	800.000	0.075	-0.240
-237.873	-148.162	0.119	-0.010
-236.859	337.392	0.186	0.356
-235.844	418.651	0.032	0.067
-234.830	800.000	-0.133	0.426
-233.815	17.321	-0.258	-0.201
-232.800	-180.064	-0.208	0.004
-231.786	-17.568	-0.258	0.160
-230.771	399.567	0.068	-0.140
-229.757	503.996	-0.066	-0.151
-228.742	-35.318	0.104	-0.056
-227.727	-200.000	0.002	0.176
-226.713	56.975	-0.164	0.157
-225.698	-186.973	-0.164	-0.002
-224.684	62.882	-0.052	0.051
-223.669	-15.058	-0.328	0.207
-222.655	-43.820	0.239	-0.118
-221.640	-117.485	-0.118	0.021
-220.625	-8.827	-0.133	0.087
-219.611	45.623	0.112	-0.102
-218.596	-21.059	0.092	0.055
-217.582	-114.768	0.119	-0.022
-216.567	564.730	-0.048	-0.115
-215.552	-63.134	-0.057	-0.023
-214.538	800.000	0.048	-0.206
-213.523	-30.553	0.219	-0.122
-212.509	-34.406	-0.231	-0.125
-211.494	-124.817	-0.142	0.021
-210.479	7.407	0.079	-0.058
-209.465	800.000	0.037	0.148
-208.450	42.102	-0.070	-0.063
-207.436	-194.902	0.275	-0.002
-206.421	299.190	0.173	-0.313
-205.406	-139.123	0.093	0.010
-204.392	-113.993	-0.178	0.034
-203.377	-200.000	0.018	0.328
-202.363	-121.637	0.422	0.069
-201.348	93.033	-0.092	0.102
-200.333	18.218	-0.155	-0.121
-199.319	-100.638	0.265	-0.064
-198.304	-200.000	0.015	0.197
-197.290	800.000	0.103	-0.367
-196.275	89.631	0.051	0.056
-195.260	18.935	-0.209	-0.164
-194.246	90.807	0.108	-0.119
-193.231	-200.000	-0.062	0.274
-192.217	-200.000	-0.032	0.149
-191.202	176.773	-0.073	0.104
-190.187	-200.000	-0.005	-0.041
-189.173	104.061	0.158	-0.182
-188.158	3.473	-0.144	-0.103
-187.144	-113.556	0.139	-0.027
-186.129	-200.000	0.014	0.248
-185.114	-200.000	0.012	-0.162
-184.100	-107.825	0.081	0.017
-183.085	71.435	-0.140	0.143
-182.071	-8.102	0.231	-0.153
-181.056	-106.731	-0.133	0.029
-180.042	-112.134	-0.115	-0.023
-179.027	-71.298	0.099	0.036
-178.012	-82.609	-0.186	0.059
-176.998	-97.932	-0.194	-0.049
-175.983	-200.000	0.020	-0.142
-174.969	7.357	-0.187	-0.137
-173.954	-101.501	0.140	0.033
-172.939	266.882	0.167	0.287
-171.925	256.796	-0.061	-0.103
-170.910	-200.000	-0.007	-0.236
-169.896	132.260	0.187	-0.237
-168.881	244.729	-0.033	0.055
-167.866	18.077	0.090	-0.071
-166.852	800.000	0.085	-0.261
-165.837	210.391	-0.161	-0.249
-164.823	-83.430	0.425	0.134
-163.808	-138.132	-0.371	-0.040
-162.793	-200.000	-0.009	-0.232
-161.779	-154.642	0.233	-0.015
-160.764	800.000	0.101	0.329
-159.750	800.000	0.081	-0.265
-158.735	462.682	-0.087	-0.191
-157.720	73.029	-0.171	-0.175
-156.706	-141.344	0.185	-0.018
-155.691	156.521	-0.082	-0.112
-154.677	55.287	-0.138	-0.131
-153.662	574.776	0.035	0.083
-152.647	263.535	0.174	0.296
-151.633	-155.260	0.187	-0.012
-150.618	-200.000	0.002	-0.122
-149.604	177.694	-0.121	-0.173
-148.589	-113.259	-0.123	-0.024
-147.574	-200.000	0.000	-0.085
-146.560	-200.000	-0.006	0.144
-145.545	-153.349	0.196	0.013
-144.531	88.815	-0.193	-0.211
-143.516	-200.000	-0.027	-0.135
-142.502	216.105	-0.015	0.024
-141.487	154.524	-0.018	0.024
-140.472	22.412	0.350	0.280
-139.458	134.176	0.231	-0.293
-138.443	800.000	0.037	0.153
-137.429	-38.753	0.183	-0.095
-136.414	52.257	-0.161	0.150
-135.399	62.055	-0.160	0.157
-134.385	366.357	0.157	0.311
-133.370	-101.057	0.316	-0.076
-132.356	-7.719	-0.160	0.106
-131.341	-122.650	0.085	-0.013
-130.326	-67.307	-0.334	0.129
-129.312	800.000	-0.054	0.223
-128.297	215.197	-0.175	0.272
-127.283	-87.866	-0.270	0.080
-126.268	183.899	-0.164	0.237
-125.253	-153.285	-0.047	-0.003
-124.239	-200.000	0.019	0.089
-123.224	-97.368	-0.247	-0.063
-122.210	20.680	-0.231	-0.183
