DTS Sentinel unit serial number:	SN413079Multiplexer serial number:	ORYXHardware model number:	OX4-SRSoftware version number:	ORYX F/W v4.00 Oryx Data Collector v3.7.2.0data status	okinstallation	princeton_trtdifferential loss correction	single-endedforward channel	channel 2reverse channel	N/Adate	2019/09/19time	02:43:34forward acquisition time	60.00reverse acquisition time	0.00gamma	496.2192k internal	0.2353k external	0.2353temperature offset calibration	1.0013default loss term (dB/km)	0.3790temperature slope calibration	1.0000multiplexer offset coefficient	1.0000multiplexer slope coefficient	1.0000fibre end	0.00T internal ref (°C)	20.94T ext. ref 1 (°C)	0.67T ext. ref 2 (°C)	14.63length (m)	temperature (°C)	Stokes	anti-Stokes-747.200	-122.179	-0.164	-0.027
-746.185	-123.211	0.082	-0.013
-745.171	-39.312	-0.120	0.063
-744.156	800.000	0.128	0.382
-743.142	-200.000	-0.029	0.318
-742.127	-46.479	-0.166	0.081
-741.112	628.972	-0.088	0.221
-740.098	143.485	-0.067	0.089
-739.083	1.751	0.053	-0.038
-738.069	-127.796	-0.066	-0.009
-737.054	307.794	-0.073	0.135
-736.039	124.479	-0.216	-0.271
-735.025	141.684	-0.036	-0.048
-734.010	-63.683	-0.131	0.054
-732.996	-114.660	-0.310	0.059
-731.981	-200.000	-0.048	0.231
-730.966	75.011	-0.075	0.079
-729.952	497.219	-0.113	-0.260
-728.937	-200.000	0.017	-0.290
-727.923	89.908	-0.074	-0.082
-726.908	92.140	-0.240	0.270
-725.894	-108.390	0.186	-0.040
-724.879	218.166	0.075	0.119
-723.864	270.108	-0.095	-0.167
-722.850	514.849	0.071	0.165
-721.835	-90.372	0.331	-0.096
-720.821	3.517	-0.191	0.139
-719.806	406.222	0.135	-0.284
-718.791	-34.870	0.222	0.120
-717.777	228.726	0.018	0.029
-716.762	-21.970	-0.168	0.102
-715.748	-200.000	0.040	0.234
-714.733	-139.773	-0.323	-0.034
-713.718	800.000	-0.037	-0.144
-712.704	-123.372	0.247	-0.039
-711.689	65.790	-0.101	-0.102
-710.675	38.340	0.046	-0.041
-709.660	-96.489	-0.170	-0.045
-708.645	-200.000	0.034	-0.472
-707.631	112.564	-0.023	0.028
-706.616	-71.109	-0.152	0.057
-705.602	-200.000	0.014	-0.313
-704.587	108.922	0.188	0.224
-703.572	-166.581	0.360	-0.015
-702.558	-93.900	0.137	-0.038
-701.543	-61.322	0.336	0.141
-700.529	-140.931	0.301	-0.031
-699.514	11.494	-0.085	0.065
-698.499	68.078	-0.145	0.148
-697.485	145.820	-0.124	0.165
-696.470	79.198	-0.065	-0.070
-695.456	-177.898	-0.166	-0.004
-694.441	84.246	0.140	0.152
-693.426	157.326	-0.324	-0.446
-692.412	-188.718	-0.382	0.005
-691.397	197.101	0.148	-0.225
-690.383	-94.891	-0.112	0.030
-689.368	336.889	0.049	0.094
-688.354	-99.540	0.099	0.025
-687.339	-7.350	-0.206	-0.139
-686.324	-88.903	0.355	-0.105
-685.310	135.057	-0.193	-0.250
-684.295	800.000	-0.005	0.017
-683.281	141.748	0.038	0.050
-682.266	-200.000	-0.080	0.365
-681.251	-144.882	-0.154	0.014
-680.237	-171.064	-0.156	-0.005
-679.222	-200.000	-0.004	0.025
-678.208	225.067	-0.191	0.307
-677.193	-89.950	0.053	0.015
-676.178	-95.700	-0.295	-0.078
-675.164	-10.060	0.309	0.204
-674.149	-101.476	-0.369	0.089
-673.135	108.157	-0.088	0.104
-672.120	445.368	-0.015	-0.032
-671.105	-200.000	0.027	0.256
-670.091	164.959	-0.090	-0.127
-669.076	52.640	-0.305	0.289
-668.062	-130.325	-0.150	-0.020
-667.047	-27.910	0.020	0.012
-666.032	443.949	0.017	-0.037
-665.018	111.442	-0.124	-0.149
-664.003	-200.000	-0.039	0.354
-662.989	-76.297	-0.290	-0.102
-661.974	-44.001	-0.176	0.088
-660.959	338.307	-0.138	-0.267
-659.945	312.921	-0.135	0.253
-658.930	682.753	0.039	-0.100
-657.916	-43.417	-0.229	-0.115
-656.901	-200.000	0.024	0.256
-655.886	800.000	0.109	-0.359
-654.872	133.203	0.182	-0.234
-653.857	-128.475	-0.191	0.027
-652.843	-142.964	-0.322	-0.031
-651.828	-102.616	0.277	0.066
-650.814	503.970	0.071	0.163
-649.799	612.836	0.151	0.376
-648.784	-19.472	0.174	0.107
-647.770	-71.647	-0.283	0.105
-646.755	-200.000	-0.023	-0.141
-645.741	146.429	0.027	-0.035
-644.726	-153.775	-0.344	0.023
-643.711	-128.779	0.030	0.004
-642.697	-83.586	-0.325	0.103
-641.682	-180.410	0.248	-0.005
-640.668	126.329	-0.182	-0.229
-639.653	800.000	-0.079	-0.222
-638.638	-175.154	0.190	0.005
-637.624	118.845	0.097	-0.118
-636.609	800.000	-0.053	-0.177
-635.595	-55.208	-0.164	-0.073
-634.580	427.756	0.081	0.173
-633.565	140.714	-0.110	-0.144
-632.551	70.381	-0.099	-0.101
-631.536	-127.295	0.091	-0.013
-630.522	63.128	0.105	-0.104
-629.507	-36.229	-0.166	0.089
-628.492	-200.000	-0.158	-0.000
-627.478	800.000	0.042	0.121
-626.463	-200.000	-0.027	-0.268
-625.449	800.000	0.015	-0.057
-624.434	194.629	0.145	-0.218
-623.419	-16.535	-0.095	-0.060
-622.405	-32.382	-0.212	-0.117
-621.390	-98.052	0.128	0.033
-620.376	115.708	-0.246	0.298
-619.361	-26.036	0.246	-0.143
-618.346	31.656	0.230	0.197
-617.332	90.354	-0.214	0.238
-616.317	119.565	-0.157	0.193
-615.303	-141.697	-0.236	-0.024
-614.288	163.026	-0.166	0.232
-613.273	91.810	0.168	-0.188
-612.259	-37.580	0.128	0.068
-611.244	115.914	-0.161	-0.195
-610.230	208.974	-0.076	-0.118
-609.215	61.347	0.119	-0.117
-608.201	443.601	-0.099	-0.216
-607.186	-158.597	-0.123	-0.007
-606.171	555.764	0.096	0.229
-605.157	28.897	0.117	-0.098
-604.142	-139.403	-0.159	0.017
-603.128	362.538	0.065	-0.129
-602.113	92.775	0.108	-0.121
-601.098	108.316	-0.110	-0.131
-600.084	679.090	0.086	-0.221
-599.069	-200.000	0.038	0.418
-598.055	305.859	-0.086	0.158
-597.040	73.272	-0.193	-0.200
-596.025	-200.000	0.029	-0.260
-595.011	230.622	-0.236	-0.383
-593.996	-107.702	0.251	-0.054
-592.982	571.553	0.238	-0.575
-591.967	380.628	-0.054	-0.109
-590.952	88.640	-0.254	0.280
-589.938	-200.000	-0.044	0.325
-588.923	84.420	-0.149	-0.161
-587.909	-103.273	0.156	-0.037
-586.894	-45.609	0.348	0.171
-585.879	-97.595	0.148	0.038
-584.865	97.031	0.187	-0.212
-583.850	-166.165	-0.287	0.012
-582.836	-15.793	-0.119	-0.075
-581.821	-3.369	0.201	0.138
-580.806	-151.125	-0.250	0.019
-579.792	-15.910	-0.298	-0.188
-578.777	185.712	0.134	0.197
-577.763	-200.000	-0.004	0.192
-576.748	-41.671	0.464	-0.236
-575.733	800.000	0.049	0.204
-574.719	-28.692	-0.291	0.166
-573.704	190.314	-0.100	-0.149
-572.690	181.665	-0.069	-0.101
-571.675	369.670	0.163	0.327
-570.661	726.777	0.072	0.189
-569.646	64.790	0.208	-0.208
-568.631	-70.278	-0.107	0.040
-567.617	-143.066	-0.065	-0.006
-566.602	-94.887	-0.309	0.083
-565.588	-57.992	0.246	0.107
-564.573	-108.691	-0.181	-0.038
-563.558	80.683	0.271	-0.290
-562.544	-90.038	0.180	0.052
-561.529	-200.000	-0.077	0.389
-560.515	-32.641	-0.302	0.166
-559.500	-151.962	-0.289	-0.021
-558.485	178.650	0.067	0.096
-557.471	-95.503	-0.145	0.038
-556.456	333.137	-0.041	0.078
-555.442	78.026	-0.042	0.045
-554.427	-200.000	0.023	-0.145
-553.412	-134.676	0.325	0.039
-552.398	-200.000	0.020	-0.200
-551.383	43.659	-0.122	-0.110
-550.369	206.786	-0.101	-0.156
-549.354	800.000	0.050	0.144
-548.339	-55.668	0.199	0.088
-547.325	-200.000	0.067	0.000
-546.310	451.685	-0.084	-0.185
-545.296	800.000	0.062	0.257
-544.281	39.516	-0.061	-0.054
-543.266	-3.783	0.084	0.058
-542.252	68.947	0.070	0.072
-541.237	-18.392	-0.373	0.231
-540.223	261.757	0.170	-0.292
-539.208	-37.538	-0.296	-0.156
-538.193	-50.480	-0.108	-0.050
-537.179	-112.906	0.255	0.050
-536.164	-114.164	-0.086	0.016
-535.150	-23.091	0.235	-0.140
-534.135	212.582	-0.157	-0.245
-533.121	32.872	-0.165	-0.141
-532.106	329.389	0.088	-0.167
-531.091	-125.860	-0.035	0.005
-530.077	404.885	0.095	-0.198
-529.062	-48.800	0.238	-0.113
-528.048	-133.425	-0.213	-0.026
-527.033	-0.025	0.171	-0.121
-526.018	-200.000	-0.009	-0.204
-525.004	800.000	-0.024	-0.071
-523.989	-197.757	0.285	0.002
-522.975	38.498	-0.109	-0.097
-521.960	159.624	-0.081	0.111
-520.945	202.781	0.281	-0.429
-519.931	-41.666	-0.363	-0.184
-518.916	800.000	-0.107	0.296
-517.902	-43.036	0.075	0.038
-516.887	69.189	0.128	-0.130
-515.872	93.273	0.089	-0.099
-514.858	-186.842	0.126	-0.002
-513.843	800.000	-0.083	-0.263
-512.829	800.000	0.023	-0.072
-511.814	800.000	0.073	-0.200
-510.799	27.053	-0.191	-0.159
-509.785	15.083	-0.144	-0.112
-508.770	88.292	0.215	0.236
-507.756	308.339	0.026	-0.048
-506.741	35.223	0.357	0.309
-505.726	-33.015	-0.229	-0.126
-504.712	-17.290	-0.288	0.179
-503.697	168.186	0.078	0.110
-502.683	146.658	-0.436	0.579
-501.668	224.828	-0.123	-0.197
-500.653	-77.715	-0.196	-0.067
-499.639	-200.000	-0.017	0.153
-498.624	-200.000	0.042	0.236
-497.610	-200.000	-0.046	0.309
-496.595	377.076	0.073	-0.147
-495.581	-156.440	-0.319	-0.020
-494.566	-124.150	-0.196	0.030
-493.551	50.552	0.133	-0.125
-492.537	-200.000	-0.023	0.110
-491.522	16.406	0.104	0.081
-490.508	-25.508	0.359	0.209
-489.493	-200.000	-0.034	0.287
-488.478	381.651	-0.108	-0.220
-487.464	800.000	-0.123	-0.351
-486.449	58.022	0.080	-0.077
-485.435	6.046	-0.075	-0.055
-484.420	-142.748	0.170	0.016
-483.405	800.000	0.080	-0.251
-482.391	604.987	0.101	0.248
-481.376	-127.493	0.253	0.036
-480.362	-3.670	-0.386	-0.265
-479.347	-29.222	-0.129	0.073
-478.332	-200.000	-0.013	-0.123
-477.318	693.843	-0.096	0.248
-476.303	239.165	0.178	0.292
-475.289	163.785	-0.118	0.163
-474.274	132.450	0.103	-0.130
-473.259	-151.575	-0.147	-0.011
-472.245	239.594	-0.073	-0.119
-471.230	-45.883	-0.098	-0.048
-470.216	38.061	0.107	0.094
-469.201	85.286	-0.367	0.397
-468.186	-151.787	-0.262	-0.019
-467.172	449.441	-0.198	-0.430
-466.157	-36.727	-0.269	-0.142
-465.143	-65.142	-0.132	-0.053
-464.128	106.516	0.207	0.242
-463.113	130.885	0.034	0.043
-462.099	-200.000	0.004	0.136
-461.084	-108.132	0.302	0.065
-460.070	-95.680	-0.311	0.082
-459.055	-138.299	-0.602	-0.066
-458.040	434.605	0.072	-0.154
-457.026	-200.000	-0.047	0.216
-456.011	800.000	0.139	-0.382
-454.997	-65.746	0.128	-0.050
-453.982	800.000	-0.048	0.136
-452.968	-120.728	0.390	0.065
-451.953	374.856	0.158	0.317
-450.938	-141.904	0.144	0.014
-449.924	-16.605	-0.249	-0.155
-448.909	449.461	-0.181	0.392
-447.895	201.679	0.200	-0.303
-446.880	-86.879	0.282	0.085
-445.865	-35.652	-0.336	0.179
-444.851	115.102	-0.256	0.308
-443.836	-49.361	0.130	-0.061
-442.822	149.154	0.226	0.301
-441.807	314.229	-0.233	-0.433
-440.792	42.977	-0.128	0.115
-439.778	800.000	-0.047	0.157
-438.763	-34.044	0.259	-0.140
-437.749	-140.670	0.248	0.025
-436.734	800.000	0.075	0.220
-435.719	154.725	-0.226	-0.306
-434.705	-200.000	0.047	-0.324
-433.690	-60.135	0.204	-0.086
-432.676	800.000	-0.073	0.203
-431.661	-146.744	0.029	-0.002
-430.646	-10.918	0.120	-0.078
-429.632	-63.584	-0.117	-0.047
-428.617	23.268	-0.256	-0.207
-427.603	800.000	-0.043	-0.142
-426.588	21.277	-0.172	-0.137
-425.573	-105.232	0.040	0.009
-424.559	771.239	-0.054	-0.145
-423.544	-56.671	0.147	-0.064
-422.530	800.000	0.083	-0.249
-421.515	503.143	0.032	-0.074
-420.500	-200.000	-0.021	-0.248
-419.486	800.000	0.067	-0.238
-418.471	-116.323	-0.177	-0.032
-417.457	-134.681	-0.298	-0.036
-416.442	-186.360	0.173	0.002
-415.428	-200.000	0.005	0.116
-414.413	-69.907	0.140	0.052
-413.398	-200.000	0.003	0.077
-412.384	-95.132	0.198	-0.053
-411.369	-135.631	0.227	-0.027
-410.355	800.000	-0.035	-0.145
-409.340	16.173	0.143	-0.111
-408.325	75.374	0.231	0.240
-407.311	65.918	0.026	0.026
-406.296	-148.352	-0.193	-0.016
-405.282	49.321	0.205	-0.189
-404.267	-51.410	-0.106	0.049
-403.252	-132.945	-0.278	0.035
-402.238	800.000	0.017	0.054
-401.223	238.682	0.044	0.072
-400.209	-200.000	0.031	-0.243
-399.194	170.186	-0.108	-0.152
-398.179	-200.000	0.019	0.178
-397.165	190.888	-0.189	-0.280
-396.150	-200.000	-0.010	0.510
-395.136	-200.000	-0.032	0.440
-394.121	608.035	0.031	-0.075
-393.106	-142.375	0.311	0.030
-392.092	-113.646	0.331	0.064
-391.077	203.114	0.101	0.154
-390.063	-43.439	0.160	-0.080
-389.048	201.076	-0.063	-0.096
-388.033	-75.630	0.212	-0.074
-387.019	219.784	-0.077	-0.121
-386.004	-134.253	0.213	-0.026
-384.990	-37.288	0.064	0.033
-383.975	-31.477	-0.206	-0.114
-382.960	-127.197	0.241	-0.035
-381.946	-200.000	0.078	-0.370
-380.931	-136.889	0.241	-0.027
-379.917	344.068	0.129	0.250
-378.902	-111.023	0.060	0.012
-377.888	-4.169	-0.141	-0.096
-376.873	-200.000	-0.037	-0.177
-375.858	-125.578	0.150	0.022
-374.844	-134.885	0.387	0.046
-373.829	225.184	-0.125	-0.199
-372.815	-200.000	0.014	0.219
-371.800	800.000	0.066	0.246
-370.785	35.267	-0.266	-0.230
-369.771	-200.000	0.049	-0.274
-368.756	8.252	-0.180	-0.133
-367.742	-113.052	-0.388	-0.075
-366.727	327.266	0.070	0.132
-365.712	800.000	-0.094	-0.382
-364.698	800.000	-0.074	0.246
-363.683	-17.972	0.028	-0.017
-362.669	800.000	-0.082	0.249
-361.654	-48.849	0.169	-0.080
-360.639	-164.333	-0.141	-0.006
-359.625	-97.673	0.149	0.038
-358.610	-200.000	0.028	-0.216
-357.596	351.302	0.281	0.547
-356.581	-147.324	-0.415	0.035
-355.566	123.574	0.121	0.149
-354.552	800.000	0.090	-0.360
-353.537	-116.962	-0.293	-0.053
-352.523	-63.891	-0.245	-0.098
-351.508	175.229	-0.142	-0.201
-350.493	-40.438	0.029	0.015
-349.479	589.987	0.090	0.218
-348.464	-68.225	-0.305	0.117
-347.450	102.198	0.298	-0.341
-346.435	-117.172	-0.233	0.042
-345.420	-189.367	-0.238	-0.003
-344.406	-83.709	-0.212	0.066
-343.391	-200.000	-0.013	0.108
-342.377	-122.284	-0.584	-0.094
-341.362	-196.301	-0.165	0.001
-340.348	-53.751	0.177	-0.079
-339.333	-15.717	0.312	0.195
-338.318	-111.507	-0.095	0.019
-337.304	-177.448	0.188	-0.005
-336.289	96.902	-0.043	0.048
-335.275	-200.000	-0.031	-0.201
-334.260	-200.000	0.057	-0.266
-333.245	-200.000	0.012	-0.085
-332.231	800.000	-0.043	0.129
-331.216	-12.205	-0.204	-0.131
-330.202	535.043	0.103	-0.239
-329.187	-100.415	0.149	-0.036
-328.172	800.000	-0.056	0.182
-327.158	-200.000	0.002	-0.167
-326.143	30.553	-0.204	0.171
-325.129	-200.000	-0.009	0.212
-324.114	-200.000	-0.021	-0.227
-323.099	800.000	0.035	0.143
-322.085	-174.965	0.107	-0.003
-321.070	-56.126	0.263	0.115
-320.056	-182.920	-0.213	0.004
-319.041	-5.763	-0.195	-0.131
-318.026	15.738	-0.136	0.105
-317.012	458.027	-0.046	0.101
-315.997	-200.000	0.067	0.326
-314.983	194.084	-0.105	-0.157
-313.968	75.825	0.041	-0.043
-312.953	800.000	0.178	0.546
-311.939	-91.124	-0.098	-0.028
-310.924	23.461	0.195	-0.158
-309.910	800.000	-0.030	-0.109
-308.895	157.256	-0.140	0.190
-307.880	-99.105	0.256	0.064
-306.866	800.000	-0.032	0.135
-305.851	800.000	0.045	-0.170
-304.837	-90.894	0.369	0.104
-303.822	63.729	0.175	0.173
-302.807	-70.879	-0.127	0.047
-301.793	447.114	-0.059	0.128
-300.778	-121.017	-0.226	-0.037
-299.764	800.000	-0.013	0.036
-298.749	305.935	-0.099	-0.181
-297.735	800.000	0.055	-0.185
-296.720	623.634	-0.047	0.117
-295.705	800.000	0.071	0.240
-294.691	-118.081	-0.282	0.049
-293.676	-112.137	0.119	0.023
-292.662	197.546	0.078	-0.117
-291.647	-83.307	0.325	-0.102
-290.632	-200.000	-0.036	-0.301
-289.618	-99.290	-0.220	0.054
-288.603	302.586	-0.083	0.151
-287.589	-200.000	0.015	-0.125
-286.574	-94.206	0.238	0.064
-285.559	800.000	-0.085	-0.234
-284.545	-105.802	0.179	0.040
-283.530	-122.231	-0.194	0.031
-282.516	50.124	0.097	0.089
-281.501	800.000	-0.054	-0.149
-280.486	800.000	0.070	-0.230
-279.472	-65.194	-0.373	0.147
-278.457	-200.000	0.055	-0.383
-277.443	440.852	-0.070	0.150
-276.428	-70.416	0.182	-0.067
-275.413	38.189	-0.030	-0.026
-274.399	-138.444	-0.122	0.013
-273.384	-44.487	0.051	0.025
-272.370	-200.000	-0.004	0.217
-271.355	103.664	-0.086	-0.099
-270.340	248.820	-0.047	-0.077
-269.326	30.825	-0.210	-0.176
-268.311	-67.952	-0.142	0.054
-267.297	-138.604	0.364	0.039
-266.282	-55.349	-0.131	-0.058
-265.267	545.101	-0.067	-0.157
-264.253	492.499	-0.040	-0.091
-263.238	413.334	0.170	0.354
-262.224	-200.000	0.037	0.228
-261.209	159.844	-0.229	0.312
-260.195	160.271	0.099	0.135
-259.180	-200.000	-0.004	0.055
-258.165	800.000	-0.016	-0.054
-257.151	106.246	0.097	0.112
-256.136	479.146	0.071	0.156
-255.122	92.799	0.236	0.261
-254.107	155.122	0.140	0.189
-253.092	75.924	-0.047	0.049
-252.078	-57.186	0.193	0.083
-251.063	371.523	-0.049	-0.097
-250.049	119.615	-0.076	0.092
-249.034	-36.218	0.246	0.130
-248.019	800.000	-0.043	-0.151
-247.005	184.555	0.043	0.062
-245.990	635.291	-0.100	0.248
-244.976	-200.000	0.020	0.188
-243.961	-37.509	-0.274	0.143
-242.946	-165.395	-0.229	0.010
-241.932	-96.145	0.216	-0.056
-240.917	-42.430	-0.483	0.241
-239.903	155.573	-0.185	0.249
-238.888	444.065	-0.147	-0.315
-237.873	-28.887	0.248	0.139
-236.859	-170.759	0.365	-0.012
-235.844	49.572	0.140	0.129
-234.830	-36.672	0.339	-0.178
-233.815	-81.202	-0.055	0.018
-232.800	458.497	0.096	0.208
-231.786	142.206	0.070	-0.091
-230.771	-200.000	0.037	-0.600
-229.757	60.171	0.208	0.201
-228.742	96.452	0.099	0.110
-227.727	-200.000	-0.034	0.321
-226.713	-64.056	0.172	0.069
-225.698	23.019	0.084	0.067
-224.684	424.266	0.101	-0.213
-223.669	-98.555	-0.195	0.049
-222.655	-28.815	0.126	0.071
-221.640	-110.709	0.178	-0.036
-220.625	800.000	-0.060	0.167
-219.611	-110.688	0.143	0.029
-218.596	11.310	0.106	0.079
-217.582	800.000	0.038	-0.148
-216.567	-200.000	0.079	-0.566
-215.552	-103.400	-0.210	0.048
-214.538	465.056	0.170	0.371
-213.523	178.512	0.171	-0.243
-212.509	-97.308	0.190	0.048
-211.494	-77.335	0.200	0.068
-210.479	543.163	-0.090	-0.211
-209.465	-73.833	-0.088	0.031
-208.450	-152.577	0.008	-0.001
-207.436	327.945	0.121	-0.227
-206.421	-29.422	0.366	0.204
-205.406	234.288	0.064	0.103
-204.392	89.928	0.122	0.133
-203.377	800.000	0.060	-0.190
-202.363	-120.786	0.104	-0.017
-201.348	794.263	-0.073	0.195
-200.333	568.897	0.015	-0.035
-199.319	79.250	0.079	-0.083
-198.304	27.057	0.194	0.159
-197.290	800.000	0.021	0.067
-196.275	18.723	0.416	0.325
-195.260	-200.000	-0.031	0.173
-194.246	549.073	-0.068	0.158
-193.231	-86.180	0.163	0.049
-192.217	-200.000	0.014	0.111
-191.202	40.362	0.182	0.160
-190.187	-69.044	-0.194	0.073
-189.173	-113.459	0.129	-0.025
-188.158	153.653	0.190	-0.254
-187.144	-76.776	-0.420	-0.144
-186.129	-27.270	-0.421	0.239
-185.114	-103.767	0.059	0.014
-184.100	-101.116	0.262	0.063
-183.085	-10.607	-0.155	0.100
-182.071	16.279	-0.128	-0.099
-181.056	106.002	0.139	-0.160
-180.042	345.912	-0.067	0.129
-179.027	16.176	-0.045	-0.035
-178.012	-24.729	0.298	-0.173
-176.998	21.209	0.191	0.151
-175.983	-151.988	0.073	0.005
-174.969	123.828	0.121	-0.148
-173.954	-200.000	-0.015	-0.189
-172.939	14.999	-0.224	0.171
-171.925	-39.998	-0.122	0.062
-170.910	458.451	0.149	0.323
-169.896	103.206	0.195	0.222
-168.881	-59.733	-0.329	-0.137
-167.866	-32.090	0.188	-0.103
-166.852	281.742	-0.128	-0.224
-165.837	-24.196	-0.107	0.062
-164.823	-82.399	0.312	0.099
-163.808	-69.516	0.213	0.080
-162.793	-200.000	0.045	0.294
-161.779	-27.901	-0.291	-0.165
-160.764	-156.757	0.043	-0.003
-159.750	-200.000	-0.069	-0.341
-158.735	-129.363	-0.363	0.049
-157.720	-200.000	0.048	0.271
-156.706	-200.000	0.002	0.324
-155.691	-200.000	-0.053	-0.405
-154.677	-77.154	0.109	-0.037
-153.662	702.557	0.079	-0.202
-152.647	634.679	-0.120	0.295
-151.633	25.897	-0.175	-0.142
-150.618	-200.000	-0.008	0.203
-149.604	-108.207	-0.241	-0.051
-148.589	-162.524	-0.273	-0.013
-147.574	351.093	-0.123	-0.237
-146.560	91.104	0.199	0.217
-145.545	-200.000	-0.047	-0.337
-144.531	-43.309	0.312	0.154
-143.516	800.000	0.051	-0.216
-142.502	400.003	0.053	0.108
-141.487	334.656	0.057	0.108
-140.472	-133.651	-0.176	-0.021
-139.458	220.194	0.189	-0.295
-138.443	800.000	-0.015	0.056
-137.429	27.331	-0.184	-0.151
-136.414	800.000	0.045	-0.172
-135.399	-17.459	0.191	0.117
-134.385	800.000	-0.077	0.234
-133.370	-167.722	-0.141	-0.005
-132.356	412.132	-0.131	-0.271
-131.341	-64.468	0.268	-0.106
-130.326	-11.776	0.364	0.232
-129.312	140.366	0.151	-0.193
-128.297	-10.453	0.089	0.057
-127.283	-15.349	-0.161	0.100
-126.268	92.529	-0.173	-0.190
-125.253	-192.820	0.105	0.001
-124.239	-1.443	-0.082	0.056
-123.224	-61.399	0.214	-0.087
-122.210	-200.000	-0.023	0.610
-121.195	-32.912	0.229	0.124
