DTS Sentinel unit serial number:	SN413079Multiplexer serial number:	ORYXHardware model number:	OX4-SRSoftware version number:	ORYX F/W v4.00 Oryx Data Collector v3.7.2.0data status	okinstallation	princeton_trtdifferential loss correction	single-endedforward channel	channel 2reverse channel	N/Adate	2019/09/12time	06:09:11forward acquisition time	60.00reverse acquisition time	0.00gamma	496.2192k internal	0.2324k external	0.2324temperature offset calibration	1.0061default loss term (dB/km)	0.3790temperature slope calibration	1.0000multiplexer offset coefficient	1.0000multiplexer slope coefficient	1.0000fibre end	0.00T internal ref (°C)	32.12T ext. ref 1 (°C)	1.56T ext. ref 2 (°C)	27.37length (m)	temperature (°C)	Stokes	anti-Stokes-747.200	-52.530	0.271	-0.126
-746.185	-200.000	0.005	0.217
-745.171	207.423	-0.234	0.369
-744.156	-188.864	-0.559	0.007
-743.142	-3.068	0.245	-0.173
-742.127	74.930	-0.212	0.225
-741.112	-24.410	0.414	0.249
-740.098	370.412	-0.139	0.284
-739.083	-156.467	0.089	-0.006
-738.069	-113.118	-0.211	-0.042
-737.054	41.282	0.264	0.241
-736.039	-89.660	-0.220	0.065
-735.025	13.930	0.054	0.042
-734.010	586.069	0.119	0.295
-732.996	-2.943	-0.086	-0.061
-731.981	36.412	-0.187	0.167
-730.966	99.961	0.045	-0.053
-729.952	-200.000	-0.014	-0.130
-728.937	-132.190	-0.111	-0.015
-727.923	800.000	0.085	0.287
-726.908	-18.176	0.271	-0.171
-725.894	320.809	-0.118	-0.226
-724.879	-200.000	-0.020	-0.413
-723.864	507.721	-0.090	0.210
-722.850	-22.068	0.295	0.181
-721.835	54.698	0.083	0.080
-720.821	-35.188	0.228	-0.125
-719.806	-200.000	0.005	0.172
-718.791	-60.238	-0.061	0.026
-717.777	196.996	-0.124	-0.191
-716.762	25.617	-0.148	-0.125
-715.748	-127.179	0.116	-0.017
-714.733	20.121	-0.293	0.238
-713.718	-119.658	0.128	0.022
-712.704	-106.336	-0.128	0.029
-711.689	396.270	0.110	-0.232
-710.675	-114.836	0.204	-0.039
-709.660	-54.827	0.046	-0.021
-708.645	-200.000	-0.008	0.211
-707.631	-81.077	0.123	0.041
-706.616	420.311	-0.095	0.206
-705.602	362.875	0.170	0.343
-704.587	-200.000	-0.052	0.275
-703.572	182.328	-0.066	0.097
-702.558	-19.754	0.226	-0.141
-701.543	145.190	-0.125	0.168
-700.529	800.000	-0.040	-0.158
-699.514	-86.992	-0.464	-0.142
-698.499	-200.000	-0.005	-0.100
-697.485	324.620	-0.051	0.097
-696.470	-156.632	-0.318	-0.020
-695.456	-158.369	-0.235	-0.014
-694.441	-200.000	-0.021	-0.181
-693.426	161.898	0.166	-0.234
-692.412	372.826	0.049	-0.100
-691.397	-124.479	0.159	0.025
-690.383	73.370	-0.052	-0.055
-689.368	484.066	0.054	0.124
-688.354	-71.278	0.075	0.028
-687.339	471.922	-0.023	-0.051
-686.324	-123.407	0.240	0.039
-685.310	-17.968	0.178	-0.112
-684.295	-137.639	0.338	0.038
-683.281	319.173	-0.064	-0.122
-682.266	31.173	0.262	-0.226
-681.251	385.064	0.011	-0.023
-680.237	-200.000	0.039	-0.326
-679.222	114.613	-0.142	-0.174
-678.208	150.681	0.293	0.401
-677.193	6.367	0.121	-0.091
-676.178	266.744	-0.020	-0.034
-675.164	-200.000	-0.008	0.125
-674.149	-194.570	0.261	0.002
-673.135	-200.000	-0.018	0.108
-672.120	-116.039	-0.227	0.043
-671.105	-10.270	0.228	-0.152
-670.091	-101.246	-0.141	0.035
-669.076	800.000	0.097	0.328
-668.062	-81.778	-0.178	0.059
-667.047	-111.077	-0.130	0.027
-666.032	81.967	0.204	-0.222
-665.018	373.158	-0.054	-0.111
-664.003	-20.913	-0.145	0.090
-662.989	-96.349	0.112	-0.030
-661.974	-54.058	-0.094	0.043
-660.959	462.865	-0.075	-0.167
-659.945	681.910	-0.068	-0.178
-658.930	101.307	-0.100	0.117
-657.916	-200.000	0.044	0.218
-656.901	-70.332	-0.349	0.133
-655.886	126.313	-0.108	-0.137
-654.872	-82.963	-0.257	0.083
-653.857	-116.147	-0.122	-0.023
-652.843	-75.936	0.145	0.052
-651.828	402.277	0.113	0.239
-650.814	-86.956	0.051	-0.016
-649.799	800.000	0.006	-0.020
-648.784	296.113	-0.100	0.184
-647.770	-200.000	-0.055	-0.246
-646.755	31.535	-0.185	-0.160
-645.741	-200.000	0.007	-0.170
-644.726	-44.446	-0.190	0.096
-643.711	534.494	0.042	-0.101
-642.697	800.000	0.101	-0.326
-641.682	800.000	-0.022	-0.063
-640.668	223.236	0.178	0.288
-639.653	0.820	0.366	0.264
-638.638	594.112	-0.122	-0.302
-637.624	-97.216	0.131	-0.034
-636.609	-67.145	0.182	-0.072
-635.595	-99.574	-0.103	-0.026
-634.580	62.998	-0.256	0.258
-633.565	27.638	-0.174	-0.147
-632.551	180.576	-0.057	-0.083
-631.536	363.785	-0.047	0.095
-630.522	113.693	0.198	-0.241
-629.507	-123.394	0.083	0.013
-628.492	-115.862	0.230	-0.043
-627.478	532.568	0.181	-0.431
-626.463	142.539	0.099	0.132
-625.449	-168.860	-0.361	0.014
-624.434	159.798	-0.208	-0.291
-623.419	340.531	-0.192	-0.377
-622.405	-95.707	-0.051	-0.014
-621.390	800.000	0.007	-0.023
-620.376	-200.000	0.001	0.332
-619.361	251.058	0.133	0.226
-618.346	98.036	0.275	-0.318
-617.332	800.000	-0.029	-0.093
-616.317	616.395	0.097	-0.245
-615.303	-116.649	-0.028	0.005
-614.288	-200.000	0.121	0.000
-613.273	-200.000	0.013	-0.130
-612.259	-200.000	-0.029	-0.150
-611.244	193.460	-0.182	0.277
-610.230	-23.022	-0.439	-0.266
-609.215	25.479	0.207	0.173
-608.201	-56.666	0.138	-0.061
-607.186	-122.843	0.105	0.017
-606.171	37.113	0.315	0.280
-605.157	250.952	-0.160	0.273
-604.142	-67.524	-0.298	0.117
-603.128	-74.616	-0.034	-0.012
-602.113	800.000	-0.068	0.248
-601.098	-51.966	-0.166	-0.078
-600.084	-159.332	0.234	-0.013
-599.069	-200.000	-0.005	-0.128
-598.055	126.574	-0.261	0.331
-597.040	255.597	-0.144	0.248
-596.025	64.243	-0.200	0.202
-595.011	-200.000	-0.024	0.213
-593.996	-155.979	0.160	-0.010
-592.982	293.554	0.127	-0.233
-591.967	-110.701	0.074	-0.015
-590.952	39.566	-0.265	0.238
-589.938	176.421	-0.172	0.251
-588.923	-17.435	-0.439	0.277
-587.909	-97.806	0.080	-0.021
-586.894	129.971	-0.057	-0.073
-585.879	-4.520	0.116	0.080
-584.865	-15.305	0.073	0.047
-583.850	-187.736	-0.323	-0.004
-582.836	-200.000	0.007	0.253
-581.821	-103.499	0.043	0.010
-580.806	-77.252	0.196	0.068
-579.792	40.074	0.145	0.130
-578.777	-88.068	0.474	-0.143
-577.763	108.932	0.277	0.332
-576.748	800.000	0.096	0.302
-575.733	349.302	-0.180	0.356
-574.719	308.949	-0.059	0.111
-573.704	137.635	0.115	0.151
-572.690	-42.375	0.101	-0.051
-571.675	2.586	0.137	0.100
-570.661	-115.039	-0.262	0.050
-569.646	156.169	-0.098	0.135
-568.631	-200.000	-0.005	-0.042
-567.617	535.942	0.129	0.308
-566.602	208.140	0.072	0.113
-565.588	-105.173	-0.117	0.027
-564.573	147.111	-0.072	0.097
-563.558	-107.357	-0.293	0.064
-562.544	-89.771	-0.024	0.007
-561.529	194.470	-0.220	-0.335
-560.515	800.000	-0.033	-0.118
-559.500	-121.330	-0.099	-0.017
-558.485	-31.634	-0.041	0.023
-557.471	-200.000	0.029	0.431
-556.456	-86.695	0.356	0.109
-555.442	-103.662	0.104	0.025
-554.427	329.154	0.047	0.090
-553.412	-71.676	0.287	-0.107
-552.398	278.923	-0.058	-0.103
-551.383	-20.157	0.337	0.208
-550.369	527.652	-0.111	-0.262
-549.354	-129.060	0.529	0.074
-548.339	-93.755	0.248	-0.069
-547.325	-14.043	-0.341	-0.220
-546.310	38.472	0.031	0.027
-545.296	800.000	-0.049	-0.153
-544.281	739.739	0.161	0.432
-543.266	405.302	0.209	0.441
-542.252	-200.000	0.007	-0.245
-541.237	-119.223	0.100	0.017
-540.223	404.607	-0.041	-0.086
-539.208	664.307	-0.032	0.082
-538.193	-200.000	-0.003	-0.174
-537.179	-200.000	0.067	-0.402
-536.164	98.009	0.078	0.090
-535.150	-200.000	0.004	-0.299
-534.135	-24.569	0.102	0.061
-533.121	-27.671	-0.334	-0.194
-532.106	-107.482	0.220	0.048
-531.091	340.268	-0.091	0.177
-530.077	-49.272	-0.185	-0.089
-529.062	-118.605	0.513	0.091
-528.048	-107.841	-0.320	-0.070
-527.033	800.000	0.026	0.092
-526.018	300.722	0.219	-0.405
-525.004	-126.146	-0.005	-0.001
-523.989	18.471	-0.167	-0.134
-522.975	-144.255	0.294	-0.027
-521.960	88.382	0.274	-0.305
-520.945	-99.175	0.312	-0.079
-519.931	-5.680	-0.063	-0.043
-518.916	-71.882	0.134	0.050
-517.902	-200.000	-0.018	0.204
-516.887	-200.000	0.031	0.290
-515.872	57.458	-0.199	0.195
-514.858	-20.221	0.119	0.073
-513.843	238.461	-0.052	-0.086
-512.829	218.191	-0.149	-0.238
-511.814	206.726	-0.060	-0.094
-510.799	49.231	0.172	0.161
-509.785	-200.000	-0.013	0.210
-508.770	539.588	0.148	0.352
-507.756	-36.695	-0.314	0.169
-506.741	318.599	-0.092	-0.173
-505.726	-200.000	0.013	-0.155
-504.712	800.000	0.028	-0.106
-503.697	123.407	-0.184	-0.231
-502.683	7.019	0.306	0.228
-501.668	-200.000	0.019	-0.267
-500.653	-33.843	0.093	-0.051
-499.639	-200.000	0.022	-0.172
-498.624	-200.000	-0.011	-0.130
-497.610	-60.936	0.200	-0.084
-496.595	115.632	-0.099	0.121
-495.581	397.371	0.052	-0.109
-494.566	243.577	-0.177	-0.297
-493.551	73.309	0.198	0.207
-492.537	-8.229	0.385	-0.259
-491.522	148.682	-0.146	0.198
-490.508	-180.719	-0.133	0.003
-489.493	-119.232	-0.243	-0.042
-488.478	151.210	0.204	-0.277
-487.464	-97.751	-0.204	0.053
-486.449	800.000	0.092	0.336
-485.435	-200.000	0.052	-0.415
-484.420	165.573	0.007	0.010
-483.405	-200.000	-0.005	-0.168
-482.391	-200.000	0.005	-0.309
-481.376	-93.376	-0.248	0.069
-480.362	-179.645	-0.063	0.001
-479.347	800.000	-0.031	-0.122
-478.332	87.101	-0.194	0.214
-477.318	-200.000	-0.025	0.254
-476.303	-22.569	-0.125	-0.075
-475.289	4.475	-0.040	-0.029
-474.274	630.491	0.099	-0.250
-473.259	-120.288	-0.484	0.082
-472.245	-200.000	-0.027	-0.298
-471.230	59.061	-0.150	0.148
-470.216	800.000	-0.033	-0.141
-469.201	131.720	-0.182	0.234
-468.186	-200.000	-0.054	0.305
-467.172	422.419	-0.095	-0.204
-466.157	-200.000	0.052	-0.365
-465.143	47.479	0.249	-0.231
-464.128	-87.113	-0.310	0.094
-463.113	-200.000	0.003	-0.147
-462.099	800.000	0.034	0.123
-461.084	800.000	0.046	0.170
-460.070	154.277	-0.270	0.370
-459.055	159.245	0.032	0.044
-458.040	-116.244	-0.560	-0.104
-457.026	-150.447	-0.309	-0.024
-456.011	689.785	0.092	-0.240
-454.997	800.000	-0.089	-0.295
-453.982	123.819	0.144	0.181
-452.968	-200.000	0.042	0.281
-451.953	-37.193	-0.061	-0.033
-450.938	-200.000	0.154	0.001
-449.924	-123.481	-0.242	-0.038
-448.909	12.643	-0.302	-0.233
-447.895	38.125	-0.051	-0.045
-446.880	-48.882	0.243	-0.116
-445.865	-44.282	-0.365	0.183
-444.851	31.356	0.415	0.356
-443.836	151.927	-0.271	-0.369
-442.822	-200.000	0.033	-0.434
-441.807	-200.000	0.032	0.357
-440.792	94.612	0.121	0.137
-439.778	9.902	0.297	0.225
-438.763	-173.983	0.112	0.003
-437.749	-87.863	0.286	0.086
-436.734	-42.568	-0.056	-0.029
-435.719	-200.000	0.001	-0.285
-434.705	-200.000	0.005	-0.133
-433.690	-200.000	0.017	0.136
-432.676	-30.335	0.256	-0.145
-431.661	99.954	-0.213	0.247
-430.646	800.000	-0.024	0.067
-429.632	-64.183	-0.176	0.072
-428.617	-200.000	0.002	0.147
-427.603	-200.000	-0.010	0.141
-426.588	249.976	-0.106	-0.180
-425.573	-12.532	-0.216	-0.140
-424.559	3.150	0.067	-0.049
-423.544	-94.595	0.188	0.051
-422.530	-160.203	-0.489	-0.026
-421.515	761.831	0.063	-0.170
-420.500	507.492	-0.100	-0.232
-419.486	13.736	-0.039	0.030
-418.471	-87.149	-0.210	0.064
-417.457	-30.475	-0.169	-0.095
-416.442	800.000	0.076	0.220
-415.428	-44.900	-0.253	0.125
-414.413	118.218	0.182	-0.224
-413.398	552.310	0.076	0.183
-412.384	147.604	-0.152	-0.204
-411.369	42.760	-0.259	-0.235
-410.355	-74.318	0.296	0.107
-409.340	357.936	-0.131	-0.260
-408.325	800.000	-0.015	0.060
-407.311	-119.738	-0.285	-0.049
-406.296	-136.041	-0.207	0.024
-405.282	-24.512	-0.372	-0.220
-404.267	46.636	-0.167	-0.155
-403.252	174.262	0.208	-0.300
-402.238	800.000	0.035	0.105
-401.223	-200.000	-0.018	-0.096
-400.209	-200.000	-0.046	0.387
-399.194	800.000	0.043	-0.137
-398.179	19.161	-0.194	-0.155
-397.165	-36.520	-0.192	-0.103
-396.150	-137.281	0.206	0.023
-395.136	182.550	-0.124	-0.182
-394.121	-144.003	0.195	-0.018
-393.106	-52.966	0.276	-0.126
-392.092	263.577	0.229	-0.395
-391.077	-200.000	0.026	-0.265
-390.063	-11.754	-0.121	0.079
-389.048	-103.977	-0.117	0.027
-388.033	-2.722	-0.106	-0.074
-387.019	25.078	0.128	-0.106
-386.004	123.086	0.182	-0.226
-384.990	11.243	-0.134	-0.102
-383.975	23.016	0.133	0.109
-382.960	130.777	0.181	-0.232
-381.946	414.715	-0.125	0.264
-380.931	184.175	0.044	0.065
-379.917	-79.218	-0.203	-0.069
-378.902	-36.340	0.139	-0.074
-377.888	209.534	0.052	0.081
-376.873	54.487	0.222	-0.212
-375.858	-200.000	-0.032	-0.210
-374.844	114.271	0.299	0.362
-373.829	-58.168	-0.187	-0.081
-372.815	-38.892	0.413	0.216
-371.800	-200.000	-0.001	0.220
-370.785	-128.149	-0.056	0.008
-369.771	-200.000	0.035	-0.423
-368.756	11.129	-0.040	-0.030
-367.742	-16.344	0.130	-0.082
-366.727	-200.000	-0.008	0.187
-365.712	-115.686	-0.095	0.018
-364.698	102.886	0.080	-0.093
-363.683	-200.000	0.014	0.191
-362.669	800.000	-0.018	-0.066
-361.654	-171.927	0.202	0.007
-360.639	-21.989	0.037	-0.022
-359.625	-200.000	-0.006	-0.079
-358.610	1.790	-0.086	0.062
-357.596	-16.430	-0.257	0.162
-356.581	-87.026	0.309	0.094
-355.566	-175.457	0.246	0.007
-354.552	-130.977	0.265	0.035
-353.537	161.670	0.090	-0.125
-352.523	-200.000	0.028	-0.131
-351.508	-141.856	0.418	0.042
-350.493	800.000	0.071	0.221
-349.479	-23.425	0.177	-0.106
-348.464	-89.057	-0.193	-0.057
-347.450	800.000	0.048	-0.177
-346.435	-120.913	0.168	-0.028
-345.420	197.001	0.061	0.092
-344.406	95.560	0.047	-0.053
-343.391	800.000	0.037	-0.149
-342.377	99.597	-0.176	-0.203
-341.362	312.840	0.122	-0.227
-340.348	-200.000	0.003	-0.163
-339.333	-200.000	0.036	0.193
-338.318	-23.600	-0.088	0.053
-337.304	204.196	-0.067	0.104
-336.289	-84.696	0.154	-0.048
-335.275	483.115	-0.076	0.172
-334.260	-188.178	-0.167	0.002
-333.245	800.000	0.085	-0.326
-332.231	22.643	0.001	-0.001
-331.216	-119.899	-0.137	-0.023
-330.202	-200.000	0.000	-0.041
-329.187	-10.563	-0.322	0.211
-328.172	557.974	-0.116	0.277
-327.158	277.270	0.103	0.182
-326.143	-97.081	0.340	-0.088
-325.129	141.221	-0.046	-0.061
-324.114	-200.000	0.000	-0.315
-323.099	-200.000	0.030	0.322
-322.085	800.000	-0.059	0.239
-321.070	415.957	-0.128	0.272
-320.056	-81.770	-0.141	0.046
-319.041	746.631	-0.074	0.197
-318.026	209.997	-0.145	0.226
-317.012	189.685	0.055	0.081
-315.997	171.257	0.040	-0.057
-314.983	24.712	0.171	0.140
-313.968	-88.317	-0.125	-0.037
-312.953	-118.349	-0.109	0.019
-311.939	-70.395	-0.173	-0.065
-310.924	11.559	0.155	0.118
-309.910	4.431	0.150	0.109
-308.895	-180.812	0.302	0.006
-307.880	-56.247	0.168	-0.074
-306.866	-200.000	0.039	0.173
-305.851	566.223	0.147	-0.355
-304.837	286.870	-0.105	-0.189
-303.822	-120.025	0.163	-0.028
-302.807	55.977	0.162	0.156
-301.793	112.832	-0.006	0.008
-300.778	-120.416	-0.067	0.011
-299.764	-91.413	0.107	0.030
-298.749	-57.873	-0.337	-0.146
-297.735	-71.713	-0.249	-0.092
-296.720	800.000	0.133	-0.385
-295.705	404.927	-0.039	-0.081
-294.691	94.665	-0.067	0.075
-293.676	-59.044	-0.255	0.109
-292.662	800.000	0.053	-0.193
-291.647	-27.392	-0.031	0.018
-290.632	800.000	-0.020	-0.062
-289.618	-10.761	-0.071	-0.046
-288.603	-23.275	-0.194	0.116
-287.589	-173.138	-0.104	0.003
-286.574	-200.000	0.107	0.478
-285.559	-125.134	0.165	0.025
-284.545	158.269	-0.086	-0.118
-283.530	-72.900	0.130	-0.047
-282.516	-200.000	0.016	-0.131
-281.501	363.951	0.102	0.204
-280.486	-112.762	-0.071	0.014
-279.472	11.557	-0.131	-0.099
-278.457	-200.000	0.010	-0.209
-277.443	-142.537	-0.317	-0.031
-276.428	-103.807	0.092	0.021
-275.413	-98.553	-0.310	-0.078
-274.399	426.002	-0.044	-0.094
-273.384	76.042	-0.180	0.189
-272.370	-169.472	0.119	0.004
-271.355	-200.000	-0.033	-0.186
-270.340	-200.000	-0.017	-0.120
-269.326	-115.911	-0.091	0.017
-268.311	-57.261	0.171	0.075
-267.297	-51.435	0.192	-0.089
-266.282	-44.574	-0.484	0.240
-265.267	-49.582	0.240	-0.113
-264.253	131.144	-0.154	0.196
-263.238	-38.021	0.308	-0.162
-262.224	272.804	0.323	-0.565
-261.209	205.926	0.178	0.275
-260.195	81.269	-0.204	-0.218
-259.180	-50.372	0.237	-0.111
-258.165	199.601	-0.279	-0.424
-257.151	800.000	-0.052	-0.179
-256.136	355.307	-0.235	0.463
-255.122	-5.287	0.094	-0.064
-254.107	800.000	-0.012	0.038
-253.092	607.818	0.106	0.262
-252.078	-106.952	0.215	0.047
-251.063	156.139	0.034	0.046
-250.049	-200.000	-0.053	0.410
-249.034	115.567	0.127	-0.154
-248.019	1.727	-0.055	0.039
-247.005	-200.000	0.061	0.355
-245.990	-72.768	0.193	-0.070
-244.976	-200.000	0.045	0.442
-243.961	-60.834	0.306	0.128
-242.946	689.302	-0.126	0.326
-241.932	800.000	0.038	0.149
-240.917	-200.000	-0.002	0.139
-239.903	800.000	-0.039	0.140
-238.888	5.746	-0.096	0.070
-237.873	46.160	0.105	0.096
-236.859	70.714	-0.069	-0.071
-235.844	3.939	0.047	-0.034
-234.830	-44.276	-0.254	0.126
-233.815	-106.951	-0.202	-0.044
-232.800	123.052	-0.092	0.114
-231.786	366.642	0.116	0.231
-230.771	23.157	0.287	-0.233
-229.757	117.136	-0.097	-0.118
-228.742	-40.589	0.096	-0.049
-227.727	217.708	-0.092	-0.145
-226.713	-66.707	-0.034	-0.013
-225.698	-107.766	-0.227	-0.049
-224.684	-20.657	0.203	-0.123
-223.669	-80.318	-0.231	-0.076
-222.655	-5.808	-0.194	-0.131
-221.640	2.296	-0.206	-0.147
-220.625	-200.000	0.091	0.428
-219.611	-170.066	-0.186	0.007
-218.596	-200.000	-0.012	-0.065
-217.582	-54.760	0.098	-0.044
-216.567	-34.636	-0.147	0.079
-215.552	381.178	0.034	-0.068
-214.538	-17.589	0.082	-0.051
-213.523	-200.000	-0.035	0.272
-212.509	800.000	-0.069	0.262
-211.494	-54.079	0.081	-0.037
-210.479	-200.000	0.030	0.136
-209.465	373.894	0.087	0.175
-208.450	139.178	-0.159	-0.207
-207.436	-103.082	0.156	0.036
-206.421	-103.597	-0.358	-0.083
-205.406	147.185	0.183	-0.244
-204.392	-97.148	-0.322	0.083
-203.377	46.393	0.171	-0.156
-202.363	-53.016	-0.063	0.029
-201.348	67.756	-0.153	0.155
-200.333	26.096	-0.216	-0.178
-199.319	-200.000	-0.009	0.174
-198.304	-200.000	0.018	0.189
-197.290	124.192	0.087	0.108
-196.275	425.398	-0.106	0.226
-195.260	-35.581	0.246	-0.132
-194.246	97.429	-0.254	-0.288
-193.231	22.637	0.201	-0.162
-192.217	21.674	0.111	0.089
-191.202	32.153	0.079	0.067
-190.187	-88.294	0.186	-0.055
-189.173	96.881	-0.247	0.280
-188.158	-137.857	0.453	0.050
-187.144	-152.556	-0.179	0.013
-186.129	-181.269	-0.313	0.006
-185.114	-71.617	0.132	0.049
-184.100	383.700	-0.133	0.271
-183.085	-116.395	0.025	0.005
-182.071	607.596	0.142	-0.349
-181.056	-106.741	0.163	0.036
-180.042	166.488	-0.034	-0.047
-179.027	-101.993	0.187	-0.044
-178.012	-16.265	-0.406	-0.255
-176.998	-124.614	0.093	0.014
-175.983	423.900	0.163	0.345
-174.969	-6.022	-0.109	-0.074
-173.954	29.537	-0.367	-0.308
-172.939	337.359	0.141	0.270
-171.925	-200.000	0.059	-0.266
-170.910	-181.809	0.157	0.003
-169.896	47.065	0.211	0.193
-168.881	-1.311	0.054	0.038
-167.866	572.390	0.127	-0.306
-166.852	-4.724	0.219	-0.149
-165.837	88.466	-0.192	-0.210
-164.823	647.663	0.024	0.061
-163.808	-23.762	-0.160	0.095
-162.793	273.852	-0.064	0.112
-161.779	104.339	0.226	0.263
-160.764	-200.000	0.024	-0.139
-159.750	-61.594	-0.231	-0.096
-158.735	117.560	0.125	0.152
-157.720	-200.000	-0.007	0.242
-156.706	-200.000	0.095	0.431
-155.691	-14.573	0.304	-0.193
-154.677	-57.636	0.181	0.078
-153.662	-71.803	0.114	-0.042
-152.647	-78.558	-0.146	-0.049
-151.633	-189.133	0.142	0.002
-150.618	15.500	-0.144	0.111
-149.604	-200.000	-0.034	-0.246
-148.589	80.636	-0.199	0.212
-147.574	-69.752	-0.101	-0.038
-146.560	36.433	-0.171	0.148
-145.545	-69.113	0.174	0.066
-144.531	-200.000	-0.029	-0.140
-143.516	-55.040	-0.057	-0.025
-142.502	0.214	-0.256	-0.180
-141.487	-124.768	0.229	-0.035
-140.472	-200.000	0.035	0.194
-139.458	734.011	0.046	0.123
-138.443	-200.000	-0.007	0.228
-137.429	800.000	0.111	0.470
-136.414	117.496	0.237	-0.288
-135.399	130.979	-0.217	-0.275
-134.385	-200.000	0.008	0.198
-133.370	399.961	-0.115	0.238
-132.356	-200.000	0.086	0.401
-131.341	-200.000	0.039	-0.209
-130.326	680.602	-0.054	-0.137
-129.312	-170.043	0.124	0.004
-128.297	40.751	0.080	-0.071
-127.283	-126.150	0.069	0.010
-126.268	31.934	0.123	0.104
-125.253	83.630	-0.162	-0.174
-124.239	-32.802	0.182	-0.099
-123.224	-71.728	-0.273	0.100
-122.210	-200.000	-0.051	0.283
-121.195	322.893	0.023	0.042
