DTS Sentinel unit serial number:	SN413079Multiplexer serial number:	ORYXHardware model number:	OX4-SRSoftware version number:	ORYX F/W v4.00 Oryx Data Collector v3.7.2.0data status	okinstallation	princeton_trtdifferential loss correction	single-endedforward channel	channel 2reverse channel	N/Adate	2019/09/15time	20:47:35forward acquisition time	60.00reverse acquisition time	0.00gamma	496.2192k internal	0.2332k external	0.2332temperature offset calibration	0.9939default loss term (dB/km)	0.3790temperature slope calibration	1.0000multiplexer offset coefficient	1.0000multiplexer slope coefficient	1.0000fibre end	0.00T internal ref (°C)	32.44T ext. ref 1 (°C)	7.96T ext. ref 2 (°C)	24.51length (m)	temperature (°C)	Stokes	anti-Stokes-747.200	129.731	-0.097	-0.124
-746.185	-63.361	-0.267	0.111
-745.171	324.793	0.114	-0.218
-744.156	153.940	0.196	0.270
-743.142	139.195	-0.123	0.163
-742.127	800.000	-0.027	0.100
-741.112	227.930	0.099	0.161
-740.098	462.722	0.025	0.055
-739.083	56.047	-0.203	0.198
-738.069	331.443	-0.073	0.142
-737.054	7.057	0.038	-0.029
-736.039	76.059	-0.130	-0.138
-735.025	-72.104	0.255	-0.095
-734.010	402.318	-0.059	0.125
-732.996	100.115	-0.016	0.019
-731.981	51.292	0.263	0.251
-730.966	-48.017	-0.154	-0.075
-729.952	-200.000	-0.104	-0.470
-728.937	-31.042	0.279	-0.158
-727.923	800.000	-0.078	-0.223
-726.908	-36.126	0.201	0.109
-725.894	-155.116	-0.395	0.026
-724.879	68.874	0.130	0.134
-723.864	-110.519	0.195	0.041
-722.850	-46.730	0.113	0.055
-721.835	-200.000	-0.005	-0.185
-720.821	577.810	-0.074	0.182
-719.806	-200.000	-0.012	-0.070
-718.791	-37.501	0.202	-0.108
-717.777	-63.243	0.060	0.025
-716.762	-95.929	0.053	0.014
-715.748	-43.103	0.189	0.096
-714.733	53.297	0.166	0.160
-713.718	800.000	0.124	0.371
-712.704	89.487	0.103	-0.116
-711.689	1.350	0.177	0.127
-710.675	-77.388	-0.131	-0.046
-709.660	-44.890	-0.279	0.140
-708.645	547.509	0.063	0.152
-707.631	0.759	-0.161	0.116
-706.616	-200.000	0.046	0.297
-705.602	-138.033	-0.182	0.020
-704.587	-11.255	-0.148	0.098
-703.572	-60.828	-0.274	-0.116
-702.558	-200.000	-0.008	0.297
-701.543	162.850	0.057	-0.080
-700.529	-104.458	0.271	0.063
-699.514	-53.853	0.266	0.122
-698.499	800.000	-0.062	-0.201
-697.485	-200.000	0.034	-0.304
-696.470	406.418	0.076	-0.161
-695.456	107.852	-0.199	-0.238
-694.441	-43.618	0.224	-0.113
-693.426	-8.662	-0.191	-0.129
-692.412	109.096	0.090	0.108
-691.397	14.824	0.271	0.213
-690.383	-109.341	0.209	-0.044
-689.368	-66.646	0.170	-0.068
-688.354	-200.000	0.012	-0.159
-687.339	326.254	0.089	-0.171
-686.324	-200.000	-0.023	-0.279
-685.310	-39.443	-0.205	0.108
-684.295	-158.552	-0.172	-0.010
-683.281	122.791	0.105	-0.131
-682.266	186.078	-0.057	-0.086
-681.251	-78.925	-0.242	0.083
-680.237	-70.177	0.085	0.032
-679.222	123.828	0.113	0.143
-678.208	10.997	0.255	-0.195
-677.193	-200.000	-0.001	-0.171
-676.178	21.410	-0.267	0.218
-675.164	800.000	-0.052	-0.196
-674.149	-149.095	-0.489	0.039
-673.135	-41.764	0.214	0.110
-672.120	-144.429	-0.208	0.019
-671.105	-200.000	-0.058	-0.312
-670.091	800.000	-0.098	0.329
-669.076	-200.000	0.022	0.107
-668.062	-118.708	0.252	-0.045
-667.047	88.455	-0.385	0.428
-666.032	-34.292	0.187	-0.103
-665.018	-71.639	0.121	0.045
-664.003	-200.000	0.005	0.072
-662.989	-30.081	-0.158	-0.090
-661.974	-48.705	-0.177	0.085
-660.959	-126.423	0.463	0.069
-659.945	81.786	0.332	0.361
-658.930	302.403	0.241	-0.447
-657.916	-200.000	0.039	-0.263
-656.901	-48.184	0.288	0.139
-655.886	-34.085	-0.300	0.165
-654.872	61.781	0.060	-0.060
-653.857	172.316	-0.173	-0.249
-652.843	605.318	-0.065	-0.162
-651.828	454.453	-0.087	-0.193
-650.814	-52.696	0.175	0.081
-649.799	121.341	-0.080	0.099
-648.784	800.000	0.087	-0.345
-647.770	-136.221	-0.255	-0.030
-646.755	-34.456	-0.282	-0.155
-645.741	-56.063	-0.184	-0.082
-644.726	371.665	0.211	0.429
-643.711	-200.000	-0.059	0.343
-642.697	-28.511	-0.198	-0.114
-641.682	1.638	-0.063	0.046
-640.668	-127.949	0.049	0.007
-639.653	-200.000	-0.006	-0.166
-638.638	-137.267	-0.082	-0.009
-637.624	-81.470	0.139	0.046
-636.609	50.123	0.209	-0.198
-635.595	800.000	0.056	0.189
-634.580	232.006	0.127	0.209
-633.565	-11.749	-0.096	0.063
-632.551	800.000	-0.084	0.278
-631.536	-114.751	-0.174	0.033
-630.522	6.520	0.093	-0.069
-629.507	32.327	-0.214	-0.185
-628.492	205.987	-0.109	-0.169
-627.478	-91.758	-0.035	-0.010
-626.463	-131.163	-0.261	-0.035
-625.449	-0.512	0.294	-0.209
-624.434	-149.231	-0.195	0.016
-623.419	-132.095	-0.109	0.014
-622.405	8.243	0.210	0.158
-621.390	627.736	0.058	-0.146
-620.376	-112.964	0.170	0.034
-619.361	-183.861	-0.322	0.005
-618.346	-200.000	0.295	0.001
-617.332	195.430	0.071	0.108
-616.317	-159.852	-0.125	0.007
-615.303	800.000	0.016	-0.063
-614.288	-31.051	-0.332	-0.187
-613.273	-85.003	-0.077	-0.024
-612.259	-138.195	-0.032	-0.003
-611.244	-36.857	-0.173	-0.093
-610.230	98.024	-0.040	0.046
-609.215	58.960	-0.220	0.217
-608.201	-70.019	0.320	-0.122
-607.186	11.386	0.119	-0.092
-606.171	7.747	-0.131	-0.098
-605.157	390.254	0.086	-0.179
-604.142	-44.619	-0.308	0.154
-603.128	76.990	0.107	-0.113
-602.113	157.538	0.137	-0.190
-601.098	427.889	-0.140	-0.302
-600.084	89.746	-0.172	-0.192
-599.069	-33.086	-0.186	0.103
-598.055	-200.000	-0.036	0.264
-597.040	-129.808	-0.180	0.025
-596.025	800.000	0.025	0.094
-595.011	11.962	-0.188	0.145
-593.996	-83.764	-0.091	0.029
-592.982	-76.151	-0.335	0.118
-591.967	-200.000	0.039	-0.214
-590.952	-200.000	0.008	-0.089
-589.938	-16.073	-0.108	-0.069
-588.923	266.992	0.141	0.247
-587.909	-28.542	-0.114	0.066
-586.894	101.399	-0.141	0.164
-585.879	-200.000	-0.020	-0.088
-584.865	-9.942	0.187	-0.124
-583.850	-20.132	0.132	-0.081
-582.836	-200.000	-0.067	-0.602
-581.821	118.527	0.197	0.244
-580.806	-200.000	0.039	0.214
-579.792	191.034	-0.248	0.372
-578.777	167.494	0.073	-0.104
-577.763	-70.288	-0.065	0.025
-576.748	-104.547	0.188	0.043
-575.733	402.514	-0.127	-0.267
-574.719	-161.614	-0.128	-0.007
-573.704	-35.053	0.114	-0.062
-572.690	-200.000	-0.010	0.056
-571.675	-8.845	-0.187	-0.125
-570.661	-139.488	0.182	-0.019
-569.646	-200.000	-0.021	0.217
-568.631	-67.093	0.214	-0.084
-567.617	-161.764	-0.150	0.008
-566.602	256.979	0.177	0.305
-565.588	59.206	-0.081	-0.080
-564.573	-5.976	0.166	0.113
-563.558	273.093	-0.100	-0.176
-562.544	-42.650	-0.054	-0.027
-561.529	800.000	-0.113	0.437
-560.515	482.871	-0.066	-0.150
-559.500	-69.456	-0.373	0.143
-558.485	154.709	0.113	-0.155
-557.471	-70.032	-0.093	0.036
-556.456	-95.894	-0.285	0.076
-555.442	80.684	0.308	-0.331
-554.427	-76.738	0.258	0.090
-553.412	-86.960	-0.047	0.014
-552.398	-70.608	0.314	0.119
-551.383	513.931	-0.094	-0.218
-550.369	284.822	-0.061	0.110
-549.354	137.084	0.118	0.154
-548.339	800.000	-0.030	0.111
-547.325	47.644	-0.091	-0.084
-546.310	-200.000	0.017	-0.095
-545.296	-76.631	0.314	-0.110
-544.281	800.000	0.068	-0.226
-543.266	-200.000	-0.038	-0.598
-542.252	-200.000	0.018	0.159
-541.237	-56.485	0.358	0.158
-540.223	101.910	-0.166	-0.193
-539.208	-87.074	-0.509	0.155
-538.193	800.000	-0.032	0.104
-537.179	800.000	0.054	0.206
-536.164	160.121	0.076	0.106
-535.150	-11.559	-0.149	-0.098
-534.135	113.517	-0.019	0.023
-533.121	-200.000	-0.025	-0.213
-532.106	800.000	0.047	0.193
-531.091	-74.936	0.112	0.040
-530.077	80.622	0.144	-0.155
-529.062	-200.000	0.008	0.255
-528.048	-60.341	0.053	-0.022
-527.033	-127.040	-0.175	0.026
-526.018	-77.159	0.132	0.046
-525.004	113.845	0.197	0.239
-523.989	-200.000	-0.042	0.189
-522.975	-200.000	-0.049	-0.280
-521.960	800.000	-0.081	-0.303
-520.945	-111.815	-0.041	-0.008
-519.931	-200.000	0.014	0.193
-518.916	-200.000	0.005	0.137
-517.902	26.355	-0.200	0.167
-516.887	-164.802	-0.316	-0.014
-515.872	-200.000	0.022	0.174
-514.858	-47.892	-0.211	-0.102
-513.843	-200.000	-0.005	-0.065
-512.829	3.492	0.174	-0.127
-511.814	-140.167	0.219	0.023
-510.799	34.026	-0.101	-0.088
-509.785	-200.000	0.059	-0.372
-508.770	281.817	0.027	-0.048
-507.756	-200.000	-0.027	0.428
-506.741	60.382	0.084	-0.082
-505.726	800.000	0.079	-0.236
-504.712	-200.000	-0.011	0.071
-503.697	19.477	-0.217	0.174
-502.683	-64.407	0.287	-0.116
-501.668	800.000	-0.032	-0.104
-500.653	248.632	0.135	0.228
-499.639	-73.297	0.445	-0.162
-498.624	-110.106	-0.078	-0.016
-497.610	-200.000	-0.030	-0.169
-496.595	491.224	0.138	0.316
-495.581	37.223	-0.422	-0.373
-494.566	-173.349	0.208	0.006
-493.551	-200.000	0.060	0.305
-492.537	-41.944	-0.174	0.089
-491.522	35.343	0.102	-0.089
-490.508	-200.000	-0.011	0.306
-489.493	-67.102	-0.287	0.113
-488.478	10.988	-0.163	-0.124
-487.464	800.000	0.048	0.203
-486.449	-79.565	0.235	-0.079
-485.435	-200.000	-0.007	-0.254
-484.420	421.748	-0.032	-0.068
-483.405	46.796	0.049	0.045
-482.391	-112.774	-0.060	0.012
-481.376	277.164	-0.147	-0.261
-480.362	104.802	-0.136	0.159
-479.347	134.831	-0.177	0.229
-478.332	666.774	-0.106	-0.273
-477.318	-12.110	-0.163	-0.106
-476.303	440.822	0.238	-0.517
-475.289	22.724	0.029	0.023
-474.274	-38.427	-0.271	0.143
-473.259	-52.598	-0.147	0.068
-472.245	800.000	0.007	0.031
-471.230	-200.000	-0.136	0.000
-470.216	633.633	-0.137	-0.345
-469.201	-200.000	0.058	-0.000
-468.186	-70.912	0.168	-0.063
-467.172	-75.452	0.077	0.027
-466.157	35.678	-0.110	0.096
-465.143	-160.154	-0.325	-0.018
-464.128	40.591	0.187	-0.168
-463.113	-16.003	0.155	-0.098
-462.099	-67.667	0.249	0.097
-461.084	-140.664	0.282	0.029
-460.070	237.718	0.081	0.134
-459.055	800.000	-0.082	0.337
-458.040	-17.068	-0.262	-0.165
-457.026	62.902	-0.040	-0.040
-456.011	-128.583	0.282	0.040
-454.997	-167.742	0.427	-0.017
-453.982	-200.000	0.025	-0.194
-452.968	-78.358	0.143	-0.049
-451.953	-162.903	0.136	0.007
-450.938	-49.162	-0.166	0.079
-449.924	103.080	0.092	0.107
-448.909	-152.641	0.229	0.016
-447.895	-200.000	-0.035	-0.399
-446.880	-145.480	0.166	-0.015
-445.865	48.236	0.125	0.116
-444.851	-98.630	-0.220	-0.056
-443.836	607.187	0.031	0.077
-442.822	-200.000	0.018	0.170
-441.807	452.902	0.098	-0.216
-440.792	-35.683	-0.063	0.034
-439.778	102.955	-0.208	0.243
-438.763	-35.949	-0.333	0.179
-437.749	47.611	-0.228	-0.211
-436.734	225.647	-0.067	0.108
-435.719	-6.196	-0.086	0.058
-434.705	-35.874	-0.016	-0.008
-433.690	137.758	-0.183	-0.238
-432.676	597.747	-0.044	-0.108
-431.661	-12.857	-0.184	0.119
-430.646	96.312	-0.195	-0.222
-429.632	62.801	-0.197	-0.196
-428.617	356.990	-0.133	0.264
-427.603	52.951	0.275	0.262
-426.588	146.233	-0.027	0.036
-425.573	22.412	-0.250	-0.203
-424.559	130.969	0.074	-0.095
-423.544	15.042	0.273	0.212
-422.530	-143.303	-0.096	0.009
-421.515	608.248	-0.152	-0.377
-420.500	38.925	0.048	0.043
-419.486	96.454	0.163	0.185
-418.471	800.000	-0.030	-0.126
-417.457	-200.000	0.039	-0.220
-416.442	94.418	-0.154	0.174
-415.428	202.961	0.161	0.247
-414.413	-101.008	-0.176	-0.043
-413.398	-121.322	0.188	0.031
-412.384	-200.000	0.021	-0.173
-411.369	-154.660	-0.165	0.011
-410.355	800.000	-0.085	-0.275
-409.340	-200.000	0.015	0.328
-408.325	-69.634	0.275	0.105
-407.311	-200.000	0.002	-0.107
-406.296	-200.000	-0.083	0.443
-405.282	39.742	0.356	-0.317
-404.267	-200.000	-0.061	-0.284
-403.252	800.000	-0.033	0.141
-402.238	-51.559	0.220	-0.102
-401.223	-78.709	0.366	0.124
-400.209	-146.391	-0.298	-0.026
-399.194	-200.000	-0.008	-0.262
-398.179	-71.886	0.096	-0.036
-397.165	23.883	-0.324	0.265
-396.150	-200.000	0.103	0.000
-395.136	706.297	0.125	0.327
-394.121	-101.684	-0.241	0.058
-393.106	-160.312	0.099	-0.005
-392.092	-200.000	-0.006	-0.177
-391.077	683.390	-0.033	-0.085
-390.063	-200.000	0.011	0.122
-389.048	-200.000	0.016	-0.186
-388.033	29.656	-0.170	0.144
-387.019	160.302	-0.165	0.228
-386.004	420.128	0.128	0.273
-384.990	-2.023	0.309	0.216
-383.975	-47.036	-0.337	0.163
-382.960	158.158	-0.141	0.194
-381.946	24.090	-0.224	-0.183
-380.931	-82.393	-0.311	0.100
-379.917	-55.583	-0.127	0.057
-378.902	-92.637	0.283	-0.079
-377.888	-24.438	0.213	0.126
-376.873	513.770	0.029	-0.068
-375.858	46.858	0.102	0.094
-374.844	800.000	0.027	0.085
-373.829	-89.852	-0.112	0.032
-372.815	429.869	0.139	-0.297
-371.800	21.404	0.106	-0.086
-370.785	58.759	0.056	0.055
-369.771	-200.000	0.080	0.476
-368.756	-64.717	-0.243	-0.098
-367.742	-64.838	0.260	0.104
-366.727	4.614	-0.242	0.176
-365.712	-148.410	0.212	-0.017
-364.698	-64.047	0.091	0.037
-363.683	-125.668	0.319	0.048
-362.669	266.065	-0.126	0.217
-361.654	-200.000	-0.024	0.175
-360.639	-113.343	0.177	-0.034
-359.625	304.982	0.056	-0.104
-358.610	-60.570	0.282	0.118
-357.596	-56.801	-0.308	0.135
-356.581	-200.000	-0.007	-0.080
-355.566	-60.783	-0.114	0.048
-354.552	96.510	0.246	-0.279
-353.537	-168.784	0.283	-0.011
-352.523	-81.435	0.279	-0.091
-351.508	-200.000	0.003	-0.215
-350.493	-140.594	-0.273	0.028
-349.479	800.000	-0.035	-0.122
-348.464	-0.243	-0.289	0.203
-347.450	-7.860	0.168	0.112
-346.435	-77.106	0.319	0.110
-345.420	-170.469	-0.175	0.006
-344.406	396.089	-0.040	-0.083
-343.391	-200.000	0.040	-0.261
-342.377	-200.000	-0.006	-0.281
-341.362	2.568	0.103	-0.074
-340.348	-77.923	0.093	-0.032
-339.333	800.000	0.055	0.217
-338.318	293.956	0.115	0.209
-337.304	-200.000	0.033	0.202
-336.289	147.458	0.117	-0.156
-335.275	-200.000	-0.053	-0.478
-334.260	630.265	0.076	0.190
-333.245	109.130	-0.032	0.037
-332.231	166.134	-0.126	0.176
-331.216	39.602	0.058	0.051
-330.202	68.564	0.109	0.111
-329.187	134.938	-0.059	0.076
-328.172	60.010	-0.055	0.054
-327.158	1.443	-0.376	0.267
-326.143	-78.026	0.108	-0.037
-325.129	-83.398	0.108	0.034
-324.114	-22.602	-0.069	0.041
-323.099	196.960	0.120	0.180
-322.085	-43.149	-0.153	-0.077
-321.070	-99.803	0.212	0.053
-320.056	-200.000	-0.025	0.254
-319.041	-26.128	-0.234	-0.136
-318.026	-186.439	-0.454	0.006
-317.012	360.794	-0.078	-0.154
-315.997	123.725	0.125	-0.155
-314.983	-73.521	0.153	-0.055
-313.968	-140.785	0.290	0.030
-312.953	44.032	-0.197	0.178
-311.939	800.000	-0.100	-0.295
-310.924	800.000	0.045	0.141
-309.910	-38.762	-0.148	0.077
-308.895	-114.366	-0.267	-0.051
-307.880	209.395	0.031	0.049
-306.866	274.562	0.061	0.107
-305.851	-200.000	-0.059	-0.263
-304.837	-175.386	-0.272	0.007
-303.822	-86.473	0.336	-0.102
-302.807	-200.000	-0.023	0.192
-301.793	83.394	0.224	0.241
-300.778	64.451	-0.311	-0.310
-299.764	7.671	0.128	-0.094
-298.749	-107.743	-0.326	-0.070
-297.735	53.971	-0.218	0.207
-296.720	-56.931	0.224	0.098
-295.705	-200.000	0.026	-0.328
-294.691	51.186	0.169	0.158
-293.676	-104.696	-0.092	-0.021
-292.662	-200.000	0.047	-0.298
-291.647	181.237	0.181	0.263
-290.632	115.419	0.248	0.299
-289.618	-27.315	0.206	0.118
-288.603	-101.243	0.258	0.062
-287.589	142.904	-0.111	0.146
-286.574	-200.000	0.011	-0.061
-285.559	256.397	0.129	0.219
-284.545	-47.736	0.134	-0.064
-283.530	-200.000	-0.010	-0.420
-282.516	800.000	0.086	-0.238
-281.501	327.975	-0.118	-0.223
-280.486	545.840	0.037	0.087
-279.472	-61.102	-0.248	0.103
-278.457	44.185	-0.212	-0.192
-277.443	191.611	0.072	-0.106
-276.428	65.862	0.222	-0.222
-275.413	-62.640	0.417	0.171
-274.399	54.920	-0.079	0.075
-273.384	800.000	0.036	0.150
-272.370	121.287	-0.036	0.045
-271.355	-43.207	0.179	-0.089
-270.340	-27.263	0.119	0.068
-269.326	-66.588	0.111	0.044
-268.311	573.146	0.131	-0.315
-267.297	-200.000	-0.010	-0.084
-266.282	-200.000	-0.016	-0.140
-265.267	-200.000	0.043	-0.248
-264.253	-121.949	-0.403	-0.065
-263.238	-200.000	-0.024	-0.131
-262.224	-9.408	-0.040	-0.026
-261.209	800.000	0.046	-0.137
-260.195	-3.178	0.196	0.135
-259.180	-200.000	0.035	0.178
-258.165	-200.000	0.006	0.078
-257.151	85.366	-0.188	0.204
-256.136	517.710	0.160	-0.369
-255.122	14.283	0.081	-0.063
-254.107	19.304	-0.049	-0.039
-253.092	-74.233	0.102	-0.036
-252.078	-9.446	-0.298	0.196
-251.063	-38.747	-0.297	0.155
-250.049	22.648	-0.044	-0.036
-249.034	129.925	-0.193	0.244
-248.019	-89.303	-0.239	0.069
-247.005	-131.492	-0.103	0.013
-245.990	800.000	0.084	-0.347
-244.976	-80.560	-0.072	-0.024
-243.961	-50.592	-0.074	0.035
-242.946	-200.000	0.046	-0.213
-241.932	44.388	0.197	-0.178
-240.917	-29.446	0.164	-0.093
-239.903	-121.943	0.112	-0.018
-238.888	114.828	-0.101	-0.121
-237.873	417.413	-0.115	-0.242
-236.859	-200.000	-0.047	0.207
-235.844	-116.471	0.130	0.024
-234.830	-200.000	-0.036	0.268
-233.815	-9.918	0.210	-0.138
-232.800	-47.510	-0.274	-0.131
-231.786	57.775	-0.149	0.144
-230.771	-51.100	0.118	-0.055
-229.757	-89.915	0.068	-0.020
-228.742	-60.052	0.224	-0.094
-227.727	-200.000	-0.009	-0.341
-226.713	42.889	-0.104	0.093
-225.698	371.301	0.099	0.198
-224.684	-46.641	-0.078	0.038
-223.669	-200.000	0.016	0.088
-222.655	-109.211	0.158	-0.033
-221.640	-109.863	0.044	-0.009
-220.625	-91.765	-0.190	-0.053
-219.611	-200.000	0.013	0.066
-218.596	-97.661	-0.238	-0.061
-217.582	-114.652	-0.047	0.009
-216.567	76.089	-0.257	-0.268
-215.552	49.180	0.171	-0.158
-214.538	-126.964	0.082	-0.012
-213.523	8.559	0.234	-0.174
-212.509	-192.569	-0.139	-0.001
-211.494	-83.594	0.211	-0.066
-210.479	14.504	-0.190	-0.146
-209.465	-13.613	0.215	-0.137
-208.450	800.000	0.048	-0.133
-207.436	-200.000	-0.029	-0.282
-206.421	-31.093	-0.135	-0.075
-205.406	147.746	0.066	-0.088
-204.392	-200.000	-0.032	-0.182
-203.377	-45.233	0.136	-0.066
-202.363	-78.437	-0.285	0.096
-201.348	-48.702	0.147	-0.070
-200.333	-200.000	0.022	-0.229
-199.319	43.015	0.114	-0.102
-198.304	559.089	-0.166	-0.394
-197.290	-63.489	0.159	0.064
-196.275	-200.000	-0.026	0.236
-195.260	-200.000	0.099	0.479
-194.246	-200.000	0.029	0.331
-193.231	800.000	-0.102	-0.294
-192.217	578.426	0.100	0.241
-191.202	800.000	0.058	0.183
-190.187	99.355	-0.313	0.356
-189.173	-3.674	0.078	0.053
-188.158	-165.495	-0.133	-0.006
-187.144	-133.214	-0.114	0.014
-186.129	-157.517	-0.197	-0.012
-185.114	-20.378	-0.184	-0.111
-184.100	-109.489	0.333	0.069
-183.085	150.751	-0.095	-0.127
-182.071	-32.267	-0.244	0.134
-181.056	800.000	-0.059	0.205
-180.042	-200.000	-0.021	0.116
-179.027	800.000	-0.077	0.294
-178.012	589.660	0.089	0.216
-176.998	-87.263	-0.074	-0.022
-175.983	64.805	0.158	-0.157
-174.969	-200.000	-0.029	0.145
-173.954	-200.000	0.012	-0.072
-172.939	19.492	0.258	-0.204
-171.925	-114.729	0.319	0.060
-170.910	-127.649	-0.218	-0.031
-169.896	-64.153	0.224	0.090
-168.881	-32.534	0.059	0.032
-167.866	-81.881	0.155	0.050
-166.852	-200.000	-0.025	0.146
-165.837	213.641	-0.162	0.253
-164.823	61.869	0.093	0.091
-163.808	12.833	0.204	-0.155
-162.793	-200.000	-0.000	-0.051
-161.779	-145.930	0.244	0.021
-160.764	-173.224	0.076	-0.002
-159.750	-200.000	0.011	-0.054
-158.735	252.468	0.139	-0.233
-157.720	-5.903	0.264	-0.178
-156.706	101.176	0.223	0.255
-155.691	286.434	0.075	0.133
-154.677	-77.913	0.408	0.138
-153.662	800.000	0.066	0.255
-152.647	-4.544	-0.084	-0.057
-151.633	248.793	0.068	0.113
-150.618	166.573	-0.092	-0.128
-149.604	-200.000	0.060	0.341
-148.589	762.012	-0.015	0.039
-147.574	101.298	0.342	-0.391
-146.560	-3.019	0.193	-0.132
-145.545	298.205	-0.051	0.091
-144.531	-100.599	0.267	0.065
-143.516	6.996	0.064	-0.047
-142.502	112.446	0.113	-0.134
-141.487	39.795	-0.040	0.036
-140.472	-200.000	0.015	-0.321
-139.458	-200.000	-0.009	0.111
-138.443	800.000	-0.095	0.320
-137.429	-200.000	-0.044	-0.207
-136.414	-117.564	0.204	0.036
-135.399	7.663	-0.154	0.113
-134.385	-76.729	-0.210	0.072
-133.370	800.000	0.085	-0.305
-132.356	243.973	0.157	0.258
-131.341	251.578	-0.201	0.336
-130.326	-155.302	0.440	-0.028
-129.312	-200.000	0.018	0.220
-128.297	800.000	-0.038	-0.115
-127.283	-104.768	0.325	-0.073
-126.268	270.742	-0.267	-0.462
-125.253	456.596	0.106	-0.231
-124.239	476.806	-0.034	0.076
-123.224	-102.691	-0.147	-0.034
-122.210	-200.000	0.010	0.092
-121.195	-19.914	-0.203	0.123
-120.180	66.421	-0.170	0.170
