DTS Sentinel unit serial number:	SN413079Multiplexer serial number:	ORYXHardware model number:	OX4-SRSoftware version number:	ORYX F/W v4.00 Oryx Data Collector v3.7.2.0data status	okinstallation	princeton_trtdifferential loss correction	single-endedforward channel	channel 2reverse channel	N/Adate	2019/09/18time	13:47:35forward acquisition time	60.00reverse acquisition time	0.00gamma	496.2192k internal	0.2319k external	0.2319temperature offset calibration	0.9994default loss term (dB/km)	0.3790temperature slope calibration	1.0000multiplexer offset coefficient	1.0000multiplexer slope coefficient	1.0000fibre end	0.00T internal ref (°C)	34.50T ext. ref 1 (°C)	0.64T ext. ref 2 (°C)	30.05length (m)	temperature (°C)	Stokes	anti-Stokes-747.200	-47.107	0.218	-0.108
-746.185	141.134	-0.178	0.238
-745.171	-76.516	-0.282	0.100
-744.156	705.190	-0.173	0.462
-743.142	800.000	0.048	0.145
-742.127	196.449	0.036	0.056
-741.112	506.565	0.109	-0.255
-740.098	-48.860	-0.271	0.131
-739.083	-200.000	0.003	0.641
-738.069	-158.064	0.261	0.016
-737.054	800.000	-0.104	-0.338
-736.039	735.940	-0.149	-0.404
-735.025	-104.473	-0.346	0.081
-734.010	513.592	0.030	-0.071
-732.996	-81.093	-0.243	-0.081
-731.981	142.093	0.160	0.215
-730.966	-15.285	-0.401	-0.259
-729.952	-149.197	-0.116	-0.009
-728.937	410.102	-0.101	-0.217
-727.923	-200.000	0.060	-0.269
-726.908	132.023	-0.210	0.273
-725.894	-110.417	-0.452	0.095
-724.879	538.883	0.158	0.381
-723.864	-11.718	0.187	-0.124
-722.850	800.000	-0.017	-0.073
-721.835	-77.605	0.008	0.003
-720.821	184.207	-0.226	0.339
-719.806	72.759	0.053	0.055
-718.791	800.000	-0.058	-0.234
-717.777	280.083	-0.093	0.168
-716.762	79.615	-0.116	-0.125
-715.748	211.768	-0.178	0.283
-714.733	800.000	-0.128	-0.503
-713.718	28.903	0.401	-0.343
-712.704	-141.307	-0.275	-0.028
-711.689	-200.000	-0.019	-0.264
-710.675	-85.094	-0.167	0.053
-709.660	-127.747	0.195	-0.028
-708.645	-176.225	-0.282	-0.007
-707.631	333.212	0.043	0.084
-706.616	68.814	-0.084	-0.087
-705.602	-135.868	0.234	0.028
-704.587	-200.000	0.021	0.187
-703.572	-200.000	-0.008	-0.207
-702.558	-17.889	-0.220	-0.139
-701.543	-86.570	0.220	0.068
-700.529	800.000	0.144	0.434
-699.514	-77.730	-0.206	-0.072
-698.499	165.915	0.175	0.251
-697.485	122.345	0.252	0.318
-696.470	-200.000	0.012	0.079
-695.456	1.579	-0.540	-0.392
-694.441	-140.681	0.135	-0.014
-693.426	-169.785	0.141	0.005
-692.412	-146.699	-0.175	-0.015
-691.397	292.985	-0.197	-0.364
-690.383	469.118	0.103	-0.233
-689.368	-35.733	-0.327	0.179
-688.354	263.442	0.132	0.232
-687.339	290.315	0.114	-0.209
-686.324	182.365	0.038	-0.057
-685.310	421.085	-0.032	0.068
-684.295	105.481	-0.185	-0.221
-683.281	-35.634	-0.143	0.078
-682.266	376.302	0.043	0.089
-681.251	16.063	0.383	-0.305
-680.237	-6.057	-0.217	0.149
-679.222	-200.000	0.008	-0.122
-678.208	-80.646	-0.155	-0.052
-677.193	48.602	-0.302	-0.285
-676.178	34.386	0.323	0.284
-675.164	-72.305	-0.342	-0.128
-674.149	-200.000	-0.013	0.176
-673.135	800.000	-0.021	-0.063
-672.120	-45.161	0.299	0.150
-671.105	148.052	0.114	0.155
-670.091	249.754	-0.178	-0.305
-669.076	-200.000	-0.006	-0.105
-668.062	753.598	0.085	0.230
-667.047	-200.000	-0.013	-0.103
-666.032	299.488	-0.253	-0.470
-665.018	-81.366	0.464	-0.154
-664.003	-72.006	0.196	-0.073
-662.989	-72.575	-0.194	0.072
-661.974	0.622	-0.230	0.166
-660.959	82.758	0.134	-0.146
-659.945	800.000	0.129	-0.404
-658.930	-11.107	0.238	-0.158
-657.916	-200.000	0.019	-0.182
-656.901	80.841	-0.154	-0.167
-655.886	6.524	-0.115	0.086
-654.872	584.931	-0.112	0.277
-653.857	-77.072	-0.402	0.141
-652.843	640.709	0.082	0.211
-651.828	-89.854	-0.061	-0.018
-650.814	83.870	0.137	-0.150
-649.799	800.000	-0.091	-0.338
-648.784	-160.149	0.107	0.006
-647.770	-200.000	0.014	0.104
-646.755	175.854	-0.154	0.226
-645.741	31.905	-0.197	-0.171
-644.726	800.000	-0.103	-0.367
-643.711	-143.540	-0.107	-0.010
-642.697	128.456	-0.118	0.152
-641.682	800.000	0.078	-0.332
-640.668	-48.378	0.267	-0.129
-639.653	-154.089	-0.144	-0.010
-638.638	149.344	0.120	0.164
-637.624	630.924	-0.179	-0.457
-636.609	-200.000	-0.011	0.253
-635.595	10.399	0.366	-0.280
-634.580	173.320	0.194	0.282
-633.565	-50.220	-0.237	0.113
-632.551	-60.878	-0.167	0.071
-631.536	-200.000	-0.018	-0.143
-630.522	-163.311	-0.044	-0.002
-629.507	-147.648	0.240	0.020
-628.492	800.000	0.011	-0.036
-627.478	-200.000	0.019	0.265
-626.463	800.000	-0.033	-0.127
-625.449	-72.309	0.262	-0.098
-624.434	-89.414	-0.403	-0.119
-623.419	-129.257	0.214	-0.030
-622.405	-198.778	0.170	-0.001
-621.390	-56.034	-0.279	-0.125
-620.376	-66.580	-0.201	-0.080
-619.361	114.182	-0.198	-0.243
-618.346	304.587	-0.089	0.167
-617.332	-137.702	0.177	0.020
-616.317	192.059	0.055	-0.084
-615.303	-20.428	0.265	0.164
-614.288	20.527	0.103	0.083
-613.273	120.767	-0.111	0.139
-612.259	-18.981	0.042	0.026
-611.244	-200.000	0.018	-0.155
-610.230	732.779	-0.081	-0.218
-609.215	-200.000	-0.020	-0.132
-608.201	-200.000	0.052	-0.379
-607.186	459.040	-0.046	-0.102
-606.171	-182.376	0.355	0.007
-605.157	-102.844	-0.308	-0.074
-604.142	-93.003	-0.240	0.067
-603.128	65.030	0.274	0.278
-602.113	656.941	-0.121	-0.313
-601.098	39.231	-0.210	-0.189
-600.084	-183.093	-0.213	0.004
-599.069	-29.277	0.148	-0.085
-598.055	-9.562	-0.288	0.193
-597.040	-3.438	0.026	0.018
-596.025	800.000	-0.040	-0.147
-595.011	87.149	-0.116	0.129
-593.996	45.053	-0.271	0.251
-592.982	-63.714	0.324	-0.134
-591.967	-44.642	0.181	-0.091
-590.952	-200.000	0.058	-0.277
-589.938	-198.262	-0.340	-0.002
-588.923	179.788	0.083	-0.123
-587.909	800.000	-0.019	0.073
-586.894	291.875	0.071	0.131
-585.879	376.633	-0.024	-0.050
-584.865	800.000	0.060	-0.168
-583.850	276.369	0.058	-0.104
-582.836	16.265	-0.348	-0.276
-581.821	293.040	-0.189	0.347
-580.806	132.685	0.151	0.196
-579.792	173.076	-0.107	0.155
-578.777	44.050	-0.225	-0.207
-577.763	-65.458	0.476	-0.192
-576.748	56.605	0.042	-0.041
-575.733	308.097	0.131	-0.245
-574.719	800.000	-0.034	0.148
-573.704	509.987	0.043	0.100
-572.690	-8.005	-0.228	0.154
-571.675	-200.000	0.001	-0.056
-570.661	155.386	0.057	-0.079
-569.646	195.320	-0.116	-0.177
-568.631	63.813	-0.191	0.193
-567.617	800.000	0.118	-0.420
-566.602	800.000	0.067	0.226
-565.588	31.041	0.118	0.102
-564.573	-50.049	-0.126	-0.060
-563.558	545.451	0.146	-0.351
-562.544	42.945	-0.015	0.014
-561.529	-200.000	0.030	-0.171
-560.515	-27.203	0.149	-0.087
-559.500	-200.000	-0.024	0.242
-558.485	-200.000	-0.019	-0.195
-557.471	-86.324	-0.205	-0.063
-556.456	-174.235	-0.048	-0.001
-555.442	103.661	-0.107	-0.126
-554.427	-111.256	0.193	-0.040
-553.412	-200.000	-0.011	-0.183
-552.398	-200.000	-0.084	0.423
-551.383	-102.299	0.209	0.050
-550.369	-200.000	-0.012	-0.181
-549.354	332.472	0.007	-0.014
-548.339	-60.472	0.309	-0.132
-547.325	-200.000	-0.003	-0.072
-546.310	-96.232	-0.136	0.036
-545.296	231.970	-0.024	0.039
-544.281	45.591	-0.138	0.128
-543.266	-98.182	0.193	-0.050
-542.252	-55.937	-0.061	0.027
-541.237	95.350	0.082	0.094
-540.223	138.430	0.087	0.114
-539.208	-148.423	0.427	0.035
-538.193	-78.651	-0.081	0.028
-537.179	-200.000	-0.043	-0.218
-536.164	-138.648	0.209	0.023
-535.150	53.291	-0.182	0.175
-534.135	7.005	-0.138	-0.103
-533.121	13.462	-0.072	0.056
-532.106	751.401	0.024	0.064
-531.091	650.993	-0.122	0.313
-530.077	226.130	-0.088	0.144
-529.062	178.694	0.120	-0.177
-528.048	-5.802	-0.228	0.156
-527.033	103.408	-0.171	-0.201
-526.018	-15.505	-0.130	0.083
-525.004	-109.422	-0.086	-0.018
-523.989	800.000	0.032	0.099
-522.975	-98.810	-0.330	-0.084
-521.960	533.848	0.109	-0.258
-520.945	712.989	-0.089	0.236
-519.931	132.335	-0.157	-0.203
-518.916	578.681	-0.089	-0.219
-517.902	-191.278	-0.251	-0.003
-516.887	-200.000	0.012	0.083
-515.872	-144.244	-0.369	0.035
-514.858	-158.123	0.094	-0.006
-513.843	546.675	-0.211	0.506
-512.829	-200.000	-0.048	-0.241
-511.814	-21.269	0.138	0.085
-510.799	800.000	-0.026	0.108
-509.785	-200.000	0.071	0.357
-508.770	-200.000	-0.011	-0.129
-507.756	-200.000	-0.015	0.332
-506.741	41.236	0.424	-0.384
-505.726	642.080	-0.133	-0.339
-504.712	186.275	-0.062	0.092
-503.697	53.576	-0.173	0.166
-502.683	175.389	0.197	-0.287
-501.668	-140.371	-0.026	-0.003
-500.653	403.504	-0.020	0.043
-499.639	-21.519	0.107	-0.065
-498.624	10.788	-0.108	0.083
-497.610	6.273	0.042	-0.032
-496.595	-31.979	0.086	-0.048
-495.581	101.971	0.069	0.081
-494.566	256.885	-0.159	0.274
-493.551	773.085	0.019	0.052
-492.537	28.134	0.024	-0.020
-491.522	-200.000	-0.009	-0.249
-490.508	187.060	0.114	-0.169
-489.493	-29.281	0.173	0.099
-488.478	-103.617	-0.269	-0.063
-487.464	-114.075	0.359	-0.070
-486.449	-200.000	-0.029	-0.160
-485.435	-59.801	-0.248	0.106
-484.420	-133.514	-0.202	-0.025
-483.405	51.294	-0.183	-0.174
-482.391	422.233	0.058	-0.124
-481.376	-200.000	0.017	0.307
-480.362	-81.720	0.214	0.070
-479.347	800.000	0.095	-0.348
-478.332	404.343	-0.072	-0.151
-477.318	800.000	0.061	0.210
-476.303	443.813	-0.048	0.106
-475.289	-100.540	-0.457	0.113
-474.274	2.000	0.178	-0.129
-473.259	800.000	0.031	0.086
-472.245	640.973	0.161	0.411
-471.230	36.473	0.287	0.253
-470.216	-35.400	-0.098	-0.053
-469.201	-63.658	-0.133	-0.055
-468.186	47.983	-0.134	-0.125
-467.172	159.332	-0.167	-0.233
-466.157	150.058	-0.192	0.260
-465.143	323.069	0.192	-0.367
-464.128	800.000	0.031	0.113
-463.113	-81.577	0.489	0.161
-462.099	355.221	0.090	-0.178
-461.084	-84.868	0.294	-0.092
-460.070	73.643	0.059	-0.062
-459.055	44.506	0.044	0.040
-458.040	-47.306	-0.262	0.127
-457.026	-9.308	-0.127	0.085
-456.011	-112.512	-0.065	0.013
-454.997	662.608	0.090	-0.231
-453.982	624.525	-0.048	0.121
-452.968	-142.486	-0.239	-0.023
-451.953	-49.719	-0.255	-0.121
-450.938	-15.436	0.054	-0.034
-449.924	257.748	0.044	0.076
-448.909	103.835	-0.261	0.306
-447.895	-74.328	-0.179	0.065
-446.880	336.215	-0.048	0.093
-445.865	800.000	-0.051	-0.171
-444.851	537.346	0.029	0.069
-443.836	-58.036	-0.151	0.066
-442.822	15.906	0.147	0.116
-441.807	346.601	0.184	-0.361
-440.792	52.093	-0.221	0.211
-439.778	-149.246	-0.200	0.016
-438.763	-155.361	0.118	0.008
-437.749	800.000	0.050	0.204
-436.734	-68.676	-0.364	-0.141
-435.719	484.612	-0.048	-0.110
-434.705	365.434	0.037	0.075
-433.690	-200.000	-0.071	0.333
-432.676	44.934	0.074	0.068
-431.661	-53.056	-0.237	0.109
-430.646	-92.571	0.182	-0.051
-429.632	-200.000	0.003	-0.350
-428.617	-93.366	0.439	-0.122
-427.603	327.544	-0.153	0.293
-426.588	800.000	0.026	-0.082
-425.573	146.977	-0.252	-0.339
-424.559	-10.508	0.224	-0.148
-423.544	97.657	0.199	-0.229
-422.530	-0.673	-0.178	-0.126
-421.515	-55.511	0.187	0.084
-420.500	800.000	0.030	-0.113
-419.486	160.510	-0.163	-0.227
-418.471	800.000	0.101	-0.311
-417.457	-162.967	0.301	-0.015
-416.442	76.910	0.107	-0.114
-415.428	-200.000	-0.014	-0.290
-414.413	439.685	0.050	-0.109
-413.398	-144.024	-0.343	0.032
-412.384	-25.527	0.317	0.187
-411.369	-200.000	-0.007	0.032
-410.355	-78.897	0.714	-0.243
-409.340	28.973	0.123	-0.104
-408.325	-200.000	-0.051	-0.333
-407.311	-200.000	-0.032	-0.166
-406.296	800.000	0.050	-0.141
-405.282	139.363	0.172	-0.226
-404.267	12.552	-0.207	0.159
-403.252	680.078	0.023	-0.061
-402.238	63.263	-0.333	0.333
-401.223	-8.398	0.262	-0.176
-400.209	28.245	-0.302	-0.255
-399.194	-200.000	-0.038	0.207
-398.179	-13.715	-0.294	0.190
-397.165	-115.522	-0.261	0.049
-396.150	-70.054	0.226	0.086
-395.136	249.314	-0.051	0.086
-394.121	-200.000	0.008	-0.156
-393.106	74.852	-0.113	-0.119
-392.092	-49.029	0.249	-0.119
-391.077	-200.000	-0.022	-0.164
-390.063	-160.247	-0.037	-0.002
-389.048	-200.000	0.026	0.291
-388.033	128.271	-0.184	-0.234
-387.019	643.748	0.029	-0.073
-386.004	17.504	0.470	0.373
-384.990	-159.650	-0.173	-0.010
-383.975	-83.634	0.114	0.036
-382.960	800.000	0.066	-0.187
-381.946	343.624	-0.115	0.225
-380.931	662.943	0.102	0.261
-379.917	-139.810	0.278	-0.029
-378.902	-147.631	0.215	0.018
-377.888	116.827	-0.217	0.265
-376.873	406.817	-0.029	0.062
-375.858	800.000	0.096	-0.376
-374.844	-200.000	-0.089	-0.430
-373.829	-82.307	0.226	0.073
-372.815	-200.000	-0.007	0.141
-371.800	-200.000	0.027	-0.409
-370.785	41.293	-0.273	0.246
-369.771	800.000	0.125	0.371
-368.756	-57.259	0.243	0.106
-367.742	800.000	0.063	-0.243
-366.727	-46.080	-0.289	0.142
-365.712	702.092	0.097	0.254
-364.698	-26.272	0.069	0.040
-363.683	26.054	-0.113	-0.094
-362.669	83.391	0.169	0.183
-361.654	-200.000	0.044	0.276
-360.639	-200.000	0.002	0.186
-359.625	25.576	0.172	-0.143
-358.610	-200.000	0.015	-0.109
-357.596	98.051	-0.192	0.220
-356.581	-89.615	0.162	-0.047
-355.566	-200.000	0.008	0.190
-354.552	129.282	-0.030	0.039
-353.537	-63.063	0.227	0.093
-352.523	-142.305	-0.201	0.020
-351.508	-200.000	0.016	0.103
-350.493	-174.866	-0.178	0.005
-349.479	-51.864	-0.232	0.108
-348.464	-21.403	0.136	-0.083
-347.450	477.823	-0.038	-0.086
-346.435	99.359	0.169	0.194
-345.420	1.058	-0.220	-0.157
-344.406	-16.624	0.379	0.239
-343.391	27.054	0.197	-0.165
-342.377	-161.898	0.102	0.005
-341.362	-200.000	-0.010	-0.073
-340.348	800.000	0.087	0.330
-339.333	-200.000	-0.040	0.222
-338.318	-118.850	-0.201	0.035
-337.304	308.825	-0.047	-0.087
-336.289	154.883	0.237	0.324
-335.275	289.288	0.050	-0.091
-334.260	800.000	0.081	-0.322
-333.245	-151.219	-0.194	-0.014
-332.231	-79.076	0.228	0.077
-331.216	-129.318	0.188	0.026
-330.202	-117.619	0.153	0.028
-329.187	-200.000	-0.005	-0.068
-328.172	72.805	0.092	-0.096
-327.158	-6.161	-0.170	0.116
-326.143	-52.694	0.274	0.126
-325.129	101.477	0.192	-0.223
-324.114	-126.301	0.096	0.014
-323.099	800.000	0.008	0.032
-322.085	800.000	-0.065	-0.230
-321.070	-200.000	0.240	0.000
-320.056	800.000	0.093	-0.287
-319.041	-200.000	0.055	0.262
-318.026	-123.114	-0.278	0.044
-317.012	-200.000	0.002	-0.161
-315.997	-77.290	0.305	-0.105
-314.983	7.484	-0.289	0.215
-313.968	-200.000	-0.015	0.115
-312.953	766.949	-0.135	-0.365
-311.939	-46.285	0.183	0.090
-310.924	-200.000	-0.029	0.140
-309.910	23.306	-0.170	0.139
-308.895	-95.052	-0.219	0.059
-307.880	-200.000	-0.006	0.187
-306.866	-200.000	-0.039	-0.185
-305.851	283.964	0.197	-0.353
-304.837	800.000	0.073	-0.260
-303.822	-26.151	0.249	-0.146
-302.807	-63.205	-0.186	-0.076
-301.793	21.701	0.287	0.232
-300.778	-120.296	-0.101	-0.017
-299.764	499.858	0.124	0.284
-298.749	-141.553	-0.359	0.036
-297.735	-122.998	-0.086	-0.014
-296.720	-200.000	0.035	-0.204
-295.705	-200.000	-0.011	-0.155
-294.691	-200.000	-0.083	-0.000
-293.676	-173.670	0.453	0.013
-292.662	-56.035	-0.118	-0.052
-291.647	434.294	0.038	0.083
-290.632	75.854	-0.106	0.112
-289.618	-200.000	0.007	0.034
-288.603	-31.926	0.269	-0.150
-287.589	392.653	0.014	0.029
-286.574	48.052	-0.093	0.087
-285.559	94.630	0.251	0.284
-284.545	1.585	-0.218	-0.156
-283.530	-200.000	0.019	-0.132
-282.516	-200.000	-0.056	0.305
-281.501	361.141	0.177	-0.352
-280.486	800.000	-0.137	-0.468
-279.472	180.157	-0.068	-0.099
-278.457	44.126	-0.183	0.167
-277.443	325.109	-0.113	0.215
-276.428	800.000	0.063	0.243
-275.413	218.261	0.047	-0.075
-274.399	-140.537	0.116	-0.012
-273.384	-83.944	-0.427	-0.135
-272.370	35.525	-0.204	-0.178
-271.355	80.255	-0.168	0.180
-270.340	204.946	-0.217	0.334
-269.326	-200.000	0.045	-0.275
-268.311	-49.334	0.091	-0.043
-267.297	389.920	0.090	0.185
-266.282	122.622	-0.126	0.156
-265.267	-57.922	-0.253	0.110
-264.253	800.000	0.104	0.355
-263.238	-29.869	-0.279	0.158
-262.224	47.415	0.228	0.211
-261.209	43.846	0.172	0.157
-260.195	55.696	-0.080	0.077
-259.180	49.063	-0.032	-0.030
-258.165	85.274	0.203	0.221
-257.151	124.842	0.187	-0.233
-256.136	-14.165	-0.320	0.205
-255.122	541.165	0.115	-0.273
-254.107	-200.000	-0.060	-0.345
-253.092	-46.487	-0.269	-0.131
-252.078	-124.161	0.230	-0.036
-251.063	-109.403	-0.158	-0.033
-250.049	140.138	-0.017	0.022
-249.034	101.478	-0.279	0.323
-248.019	113.543	-0.130	0.156
-247.005	209.252	0.141	0.219
-245.990	-138.345	-0.245	0.027
-244.976	75.411	0.175	-0.183
-243.961	88.480	-0.150	-0.165
-242.946	19.741	-0.293	0.234
-241.932	223.780	-0.010	0.016
-240.917	-117.819	-0.085	-0.015
-239.903	-200.000	0.051	-0.336
-238.888	-200.000	0.026	0.131
-237.873	8.539	-0.277	0.207
-236.859	-200.000	0.007	0.130
-235.844	-27.420	0.107	0.062
-234.830	-75.051	-0.133	0.047
-233.815	338.927	0.047	0.090
-232.800	-200.000	-0.013	0.605
-231.786	-200.000	-0.013	0.200
-230.771	-176.137	0.196	-0.005
-229.757	304.954	0.123	0.227
-228.742	-200.000	-0.004	0.257
-227.727	-18.086	0.164	0.102
-226.713	64.871	0.256	-0.256
-225.698	-200.000	0.013	0.120
-224.684	91.430	-0.099	0.110
-223.669	-86.916	0.161	-0.049
-222.655	306.537	0.144	0.266
-221.640	-76.096	0.202	0.071
-220.625	-40.187	-0.066	0.034
-219.611	7.367	-0.126	0.093
-218.596	-128.039	-0.116	-0.017
-217.582	-200.000	0.042	-0.226
-216.567	-3.462	0.238	0.164
-215.552	-2.549	0.298	0.206
-214.538	211.007	0.116	-0.180
-213.523	-200.000	0.027	-0.561
-212.509	800.000	0.033	-0.119
-211.494	-200.000	-0.040	0.215
-210.479	21.726	0.199	-0.160
-209.465	413.444	-0.054	0.114
-208.450	-200.000	-0.035	-0.195
-207.436	-138.574	-0.431	0.047
-206.421	-48.323	0.280	0.134
-205.406	-29.683	-0.302	-0.171
-204.392	645.384	-0.104	0.263
-203.377	50.178	0.101	0.094
-202.363	-57.662	0.117	-0.051
-201.348	134.181	-0.080	0.102
-200.333	206.739	-0.058	0.090
-199.319	-101.765	0.579	-0.139
-198.304	-157.823	-0.201	0.012
-197.290	-191.653	0.296	0.003
-196.275	207.227	-0.108	-0.166
-195.260	20.071	0.118	0.094
-194.246	-200.000	0.000	0.189
-193.231	478.025	-0.111	0.250
-192.217	250.566	0.099	-0.167
-191.202	-128.742	-0.287	-0.040
-190.187	-68.063	-0.096	0.037
-189.173	-200.000	-0.016	-0.303
-188.158	-142.732	0.027	-0.003
-187.144	-80.179	-0.194	0.064
-186.129	570.750	0.102	-0.245
-185.114	-200.000	0.011	0.221
-184.100	233.152	-0.198	0.323
-183.085	-144.829	0.240	0.022
-182.071	-51.002	-0.199	-0.092
-181.056	-145.089	0.051	0.005
-180.042	-131.586	0.212	-0.028
-179.027	800.000	-0.014	0.044
-178.012	-97.612	-0.415	0.107
-176.998	-114.457	0.151	0.029
-175.983	81.260	0.061	0.066
-174.969	-32.362	0.567	0.313
-173.954	-38.048	-0.259	-0.136
-172.939	46.894	-0.153	-0.141
-171.925	-90.590	-0.242	-0.069
-170.910	51.539	0.201	0.189
-169.896	276.779	-0.128	-0.225
-168.881	-200.000	0.021	0.111
-167.866	-200.000	0.041	0.299
-166.852	85.284	0.128	-0.139
-165.837	11.142	-0.075	-0.056
-164.823	-200.000	0.060	0.431
-163.808	-41.481	0.236	0.120
-162.793	175.715	-0.116	-0.166
-161.779	-75.897	0.277	-0.097
-160.764	366.923	-0.112	-0.223
-159.750	-47.734	0.214	-0.102
-158.735	-200.000	0.026	-0.191
-157.720	800.000	-0.046	0.179
-156.706	-200.000	0.015	-0.090
-155.691	185.532	-0.097	0.142
-154.677	-200.000	0.018	-0.191
-153.662	-200.000	0.022	-0.121
-152.647	-124.752	-0.218	0.033
-151.633	564.805	0.132	0.316
-150.618	-200.000	0.010	-0.146
-149.604	625.529	0.097	-0.242
-148.589	-167.131	0.286	-0.011
-147.574	-200.000	-0.008	0.311
-146.560	34.064	-0.208	-0.179
-145.545	-153.559	0.223	0.015
-144.531	-200.000	-0.005	-0.044
-143.516	-200.000	0.035	-0.189
-142.502	-200.000	-0.015	0.250
-141.487	-16.949	-0.148	-0.092
-140.472	-50.611	0.410	0.191
-139.458	41.389	-0.100	0.089
-138.443	-162.987	-0.323	-0.015
-137.429	-172.287	-0.495	-0.016
-136.414	800.000	0.064	-0.234
-135.399	-156.288	0.262	-0.016
-134.385	-127.982	0.418	-0.059
-133.370	757.028	0.123	-0.328
-132.356	705.117	0.189	0.493
-131.341	329.299	0.070	0.133
-130.326	124.678	-0.136	0.169
-129.312	-18.684	-0.096	0.059
-128.297	46.392	0.066	-0.060
-127.283	-171.435	-0.151	0.005
-126.268	-200.000	-0.408	0.001
-125.253	-159.792	0.439	0.024
-124.239	46.380	-0.133	0.122
-123.224	67.256	-0.186	0.187
-122.210	-89.692	0.283	0.082
-121.195	-200.000	0.015	-0.271
