DTS Sentinel unit serial number:	SN413079Multiplexer serial number:	ORYXHardware model number:	OX4-SRSoftware version number:	ORYX F/W v4.00 Oryx Data Collector v3.7.2.0data status	okinstallation	princeton_trtdifferential loss correction	single-endedforward channel	channel 2reverse channel	N/Adate	2019/09/12time	09:29:11forward acquisition time	60.00reverse acquisition time	0.00gamma	496.2192k internal	0.2315k external	0.2315temperature offset calibration	1.0060default loss term (dB/km)	0.3790temperature slope calibration	1.0000multiplexer offset coefficient	1.0000multiplexer slope coefficient	1.0000fibre end	0.00T internal ref (°C)	35.44T ext. ref 1 (°C)	1.81T ext. ref 2 (°C)	33.07length (m)	temperature (°C)	Stokes	anti-Stokes-747.200	-4.023	0.126	0.088
-746.185	203.512	0.272	0.426
-745.171	-200.000	0.043	0.276
-744.156	-50.856	-0.340	0.162
-743.142	37.121	0.337	0.302
-742.127	-200.000	0.025	0.222
-741.112	-32.001	0.212	0.120
-740.098	-184.046	-0.238	-0.004
-739.083	52.266	0.205	0.198
-738.069	-9.096	0.218	0.148
-737.054	129.287	-0.176	-0.227
-736.039	-97.269	-0.379	0.100
-735.025	-200.000	-0.033	0.278
-734.010	-98.189	0.051	0.013
-732.996	800.000	-0.019	-0.075
-731.981	116.283	-0.189	-0.234
-730.966	-95.468	-0.050	-0.014
-729.952	464.717	-0.146	0.331
-728.937	347.298	-0.101	-0.202
-727.923	159.615	-0.155	-0.219
-726.908	32.360	-0.206	0.180
-725.894	120.923	0.027	0.034
-724.879	800.000	0.059	-0.230
-723.864	-121.295	0.083	0.014
-722.850	-127.254	0.049	-0.007
-721.835	-200.000	-0.002	-0.083
-720.821	56.654	0.042	-0.041
-719.806	-200.000	-0.021	0.230
-718.791	154.254	-0.062	0.086
-717.777	-200.000	0.038	0.319
-716.762	-163.115	0.258	0.013
-715.748	-55.524	-0.380	-0.172
-714.733	-17.482	0.141	-0.090
-713.718	-200.000	0.006	-0.339
-712.704	30.772	0.174	0.151
-711.689	50.586	-0.140	0.134
-710.675	194.843	-0.194	-0.299
-709.660	147.859	0.059	0.081
-708.645	9.812	-0.133	-0.102
-707.631	-27.224	-0.155	-0.092
-706.616	-200.000	-0.011	-0.172
-705.602	-14.955	-0.247	0.160
-704.587	-154.651	-0.180	0.012
-703.572	-51.400	0.247	-0.117
-702.558	-200.000	-0.038	-0.405
-701.543	165.697	-0.252	-0.360
-700.529	30.374	-0.356	-0.307
-699.514	-101.367	-0.137	-0.034
-698.499	800.000	-0.082	-0.238
-697.485	-19.410	-0.134	0.084
-696.470	-119.270	0.236	-0.042
-695.456	242.883	0.096	0.162
-694.441	260.316	-0.139	-0.243
-693.426	183.418	0.062	0.093
-692.412	164.136	0.067	0.095
-691.397	698.125	0.060	0.159
-690.383	-200.000	0.014	-0.260
-689.368	355.955	-0.144	0.289
-688.354	63.599	-0.119	0.121
-687.339	71.239	-0.195	-0.205
-686.324	-161.796	0.119	-0.006
-685.310	-200.000	0.238	-0.001
-684.295	158.295	-0.103	-0.144
-683.281	-200.000	0.007	0.154
-682.266	122.078	0.234	-0.295
-681.251	-49.163	-0.072	0.035
-680.237	-122.956	0.253	0.041
-679.222	132.663	-0.169	0.220
-678.208	440.935	-0.116	-0.257
-677.193	516.446	-0.100	-0.237
-676.178	484.606	0.052	-0.119
-675.164	197.832	-0.198	-0.306
-674.149	-32.775	0.144	-0.081
-673.135	422.095	0.040	-0.086
-672.120	-132.844	0.077	0.010
-671.105	-200.000	-0.397	0.001
-670.091	-200.000	-0.055	-0.353
-669.076	81.384	0.071	-0.078
-668.062	-96.799	-0.315	-0.084
-667.047	311.351	-0.058	-0.111
-666.032	-92.130	-0.180	-0.051
-665.018	800.000	0.054	0.212
-664.003	332.724	-0.154	0.301
-662.989	-47.645	0.141	-0.069
-661.974	-72.282	-0.174	0.065
-660.959	-166.076	-0.260	-0.011
-659.945	92.752	-0.112	0.128
-658.930	-138.445	-0.076	0.008
-657.916	-18.970	-0.462	-0.290
-656.901	-200.000	-0.007	-0.287
-655.886	93.583	-0.132	-0.151
-654.872	62.491	0.148	0.149
-653.857	-200.000	0.020	0.143
-652.843	364.531	0.205	-0.417
-651.828	16.119	0.345	-0.275
-650.814	-58.567	0.183	0.080
-649.799	-200.000	-0.003	0.187
-648.784	14.754	0.373	-0.295
-647.770	-200.000	-0.030	-0.141
-646.755	800.000	0.017	0.061
-645.741	-147.041	0.197	0.017
-644.726	-200.000	0.051	-0.245
-643.711	-108.386	-0.188	-0.041
-642.697	200.484	0.019	-0.030
-641.682	-105.080	-0.195	-0.045
-640.668	122.023	-0.064	-0.081
-639.653	13.053	0.142	-0.111
-638.638	141.227	-0.179	-0.240
-637.624	160.555	0.105	0.148
-636.609	-161.702	-0.135	0.007
-635.595	-27.881	-0.086	0.050
-634.580	244.945	-0.110	0.187
-633.565	-77.384	0.085	0.030
-632.551	181.100	-0.089	-0.131
-631.536	183.460	-0.152	-0.227
-630.522	-7.014	0.141	0.097
-629.507	-163.207	-0.119	0.006
-628.492	-91.325	-0.325	-0.094
-627.478	-200.000	-0.032	0.179
-626.463	4.988	0.118	-0.088
-625.449	-103.323	-0.093	-0.022
-624.434	-75.116	0.153	-0.055
-623.419	456.764	-0.064	0.142
-622.405	117.449	-0.022	0.027
-621.390	-200.000	-0.015	0.207
-620.376	-104.802	0.205	-0.048
-619.361	314.733	-0.070	0.134
-618.346	198.571	0.082	0.126
-617.332	800.000	0.068	-0.271
-616.317	573.962	-0.059	0.145
-615.303	67.759	-0.217	-0.224
-614.288	-92.413	-0.408	0.116
-613.273	-140.539	-0.419	-0.044
-612.259	800.000	-0.110	0.351
-611.244	800.000	-0.091	-0.256
-610.230	180.959	-0.065	-0.096
-609.215	94.834	-0.148	0.169
-608.201	-47.165	-0.378	-0.186
-607.186	176.281	0.204	0.299
-606.171	-22.928	-0.190	0.115
-605.157	-200.000	0.011	0.200
-604.142	-66.847	0.379	-0.151
-603.128	660.830	0.092	-0.238
-602.113	95.283	-0.047	0.054
-601.098	-200.000	-0.006	0.129
-600.084	-91.952	0.086	-0.025
-599.069	-120.096	-0.355	-0.061
-598.055	-200.000	0.004	-0.074
-597.040	-48.560	-0.136	0.066
-596.025	193.626	-0.061	-0.094
-595.011	-200.000	0.064	-0.376
-593.996	800.000	-0.100	0.293
-592.982	28.757	0.067	0.058
-591.967	336.867	-0.148	0.290
-590.952	162.039	-0.210	-0.296
-589.938	86.682	-0.215	-0.239
-588.923	-122.690	0.141	0.023
-587.909	226.838	-0.029	-0.048
-586.894	-142.051	0.119	-0.012
-585.879	-138.090	0.277	0.031
-584.865	-200.000	-0.007	-0.045
-583.850	-200.000	-0.026	0.151
-582.836	-83.772	0.253	0.081
-581.821	119.521	0.161	-0.201
-580.806	182.736	0.179	-0.266
-579.792	-47.944	-0.160	-0.078
-578.777	-200.000	0.005	-0.106
-577.763	800.000	0.023	0.068
-576.748	800.000	-0.088	0.333
-575.733	350.191	-0.045	0.090
-574.719	-3.655	0.120	0.084
-573.704	21.212	0.435	0.355
-572.690	-200.000	-0.029	0.135
-571.675	56.756	-0.095	-0.093
-570.661	800.000	0.046	-0.130
-569.646	-81.326	0.088	0.029
-568.631	-43.610	0.167	-0.085
-567.617	-42.771	0.068	0.035
-566.602	800.000	0.034	0.145
-565.588	-24.282	-0.311	-0.187
-564.573	800.000	0.070	-0.198
-563.558	399.126	0.126	-0.265
-562.544	-76.435	-0.361	-0.128
-561.529	-104.784	-0.597	0.138
-560.515	312.378	-0.071	0.135
-559.500	-200.000	-0.016	0.274
-558.485	-200.000	0.018	-0.441
-557.471	-200.000	0.042	-0.344
-556.456	-3.494	-0.257	-0.180
-555.442	-41.901	-0.073	-0.038
-554.427	800.000	-0.084	0.325
-553.412	83.103	-0.076	-0.083
-552.398	-132.205	0.184	-0.024
-551.383	-200.000	-0.015	-0.294
-550.369	21.620	-0.140	-0.115
-549.354	-97.583	0.104	-0.027
-548.339	-200.000	0.031	-0.177
-547.325	-77.000	0.252	0.089
-546.310	-176.469	-0.110	-0.003
-545.296	-200.000	0.040	-0.251
-544.281	800.000	0.075	0.259
-543.266	113.834	0.150	0.184
-542.252	38.417	-0.104	0.093
-541.237	-45.303	-0.100	0.050
-540.223	800.000	0.107	0.348
-539.208	126.664	0.089	-0.113
-538.193	44.629	0.094	-0.087
-537.179	-19.349	0.254	0.158
-536.164	-66.233	-0.244	0.098
-535.150	158.878	0.130	-0.181
-534.135	29.711	-0.118	0.101
-533.121	-200.000	-0.008	-0.151
-532.106	-62.131	-0.107	-0.045
-531.091	239.788	-0.099	-0.165
-530.077	22.839	-0.293	-0.241
-529.062	-29.024	0.309	0.178
-528.048	800.000	-0.055	0.241
-527.033	-200.000	-0.028	-0.184
-526.018	-157.989	0.122	0.007
-525.004	68.841	0.172	0.178
-523.989	150.392	0.116	-0.158
-522.975	215.586	-0.175	-0.279
-521.960	-17.155	0.211	-0.133
-520.945	238.747	0.088	0.146
-519.931	-134.098	-0.248	0.031
-518.916	25.096	-0.152	0.127
-517.902	-200.000	0.015	-0.073
-516.887	800.000	-0.024	-0.107
-515.872	318.463	-0.101	0.192
-514.858	-166.022	-0.170	-0.007
-513.843	-42.576	0.071	0.036
-512.829	-87.033	0.183	-0.056
-511.814	-73.879	-0.111	-0.040
-510.799	-70.912	-0.212	0.080
-509.785	-200.000	-0.042	0.201
-508.770	231.340	0.069	0.113
-507.756	223.418	0.041	0.066
-506.741	-132.066	0.387	0.051
-505.726	-200.000	-0.024	0.248
-504.712	29.730	0.170	0.145
-503.697	142.964	-0.194	0.259
-502.683	-200.000	-0.011	0.205
-501.668	176.211	-0.113	0.165
-500.653	46.141	0.118	-0.110
-499.639	124.864	0.139	-0.176
-498.624	800.000	-0.060	0.203
-497.610	-9.872	-0.161	-0.107
-496.595	-82.680	0.274	0.089
-495.581	-72.676	0.352	0.130
-494.566	-19.008	0.162	0.101
-493.551	44.458	-0.364	0.336
-492.537	-59.404	0.124	0.053
-491.522	33.876	-0.040	0.035
-490.508	-74.134	-0.222	-0.081
-489.493	-74.831	0.055	-0.020
-488.478	84.673	0.261	-0.287
-487.464	-200.000	0.001	0.008
-486.449	800.000	0.090	0.334
-485.435	-32.497	-0.083	-0.046
-484.420	261.911	0.143	-0.249
-483.405	-145.785	0.432	0.039
-482.391	-92.275	0.503	-0.142
-481.376	-165.967	0.082	0.004
-480.362	514.204	0.046	0.107
-479.347	669.070	0.045	0.116
-478.332	-137.701	0.417	-0.047
-477.318	765.332	-0.106	0.288
-476.303	-200.000	-0.007	0.053
-475.289	3.172	-0.103	-0.075
-474.274	185.753	0.086	0.128
-473.259	-56.791	0.309	0.137
-472.245	-31.587	-0.192	-0.108
-471.230	-200.000	-0.045	-0.258
-470.216	-6.874	-0.264	-0.180
-469.201	-200.000	0.010	0.050
-468.186	-104.955	0.096	-0.022
-467.172	-28.618	0.311	0.180
-466.157	-21.131	0.070	0.043
-465.143	-200.000	-0.028	0.130
-464.128	35.271	-0.395	-0.348
-463.113	-139.025	0.229	-0.025
-462.099	-125.720	0.244	-0.037
-461.084	159.063	0.105	-0.147
-460.070	800.000	-0.142	-0.431
-459.055	90.166	0.030	0.034
-458.040	239.157	0.109	-0.182
-457.026	-86.165	0.182	-0.056
-456.011	-200.000	-0.069	-0.378
-454.997	800.000	-0.122	-0.472
-453.982	247.538	-0.062	-0.105
-452.968	-53.897	0.256	-0.117
-451.953	-136.386	-0.390	-0.045
-450.938	-78.053	0.142	-0.049
-449.924	-200.000	0.017	0.384
-448.909	-55.364	-0.141	-0.064
-447.895	76.270	0.158	0.168
-446.880	264.635	0.099	0.173
-445.865	-9.152	-0.161	0.108
-444.851	51.718	-0.113	0.107
-443.836	175.544	0.133	0.193
-442.822	-18.843	0.301	-0.187
-441.807	-200.000	0.021	-0.091
-440.792	-21.227	0.254	-0.155
-439.778	209.096	-0.104	0.164
-438.763	-100.085	-0.293	-0.073
-437.749	-39.390	-0.114	0.060
-436.734	4.345	0.215	-0.158
-435.719	-200.000	-0.000	-0.136
-434.705	-200.000	0.071	-0.332
-433.690	-200.000	-0.026	-0.144
-432.676	-7.353	-0.176	-0.119
-431.661	-46.832	-0.088	0.043
-430.646	-200.000	0.010	-0.091
-429.632	-185.484	0.186	-0.003
-428.617	-99.239	-0.262	0.066
-427.603	215.713	0.211	-0.336
-426.588	-105.919	-0.218	-0.049
-425.573	11.275	-0.218	-0.167
-424.559	-68.566	0.003	-0.001
-423.544	67.678	0.113	-0.116
-422.530	-148.021	0.176	0.015
-421.515	197.686	0.161	0.246
-420.500	-117.045	0.197	0.036
-419.486	175.373	-0.102	-0.148
-418.471	3.473	-0.224	0.163
-417.457	204.134	-0.104	0.161
-416.442	800.000	0.146	-0.436
-415.428	-200.000	0.015	0.237
-414.413	433.368	0.048	0.105
-413.398	-128.954	-0.482	-0.068
-412.384	73.269	0.137	-0.144
-411.369	-99.817	0.086	-0.021
-410.355	389.752	0.096	-0.200
-409.340	75.015	-0.212	0.224
-408.325	-31.048	-0.214	0.121
-407.311	66.483	0.069	0.071
-406.296	15.028	-0.190	-0.149
-405.282	-200.000	0.023	-0.198
-404.267	-200.000	-0.015	-0.185
-403.252	20.318	0.180	0.145
-402.238	225.931	0.196	-0.318
-401.223	281.539	-0.197	-0.353
-400.209	345.661	-0.121	-0.238
-399.194	-29.466	-0.294	0.168
-398.179	-200.000	-0.026	0.361
-397.165	-59.767	-0.121	-0.052
-396.150	187.464	-0.090	0.135
-395.136	-8.734	0.144	0.096
-394.121	-34.657	0.158	0.087
-393.106	-142.483	-0.475	-0.047
-392.092	63.725	0.086	0.086
-391.077	-114.973	0.222	0.042
-390.063	-157.926	0.204	-0.012
-389.048	-21.123	0.099	-0.060
-388.033	-186.669	-0.144	0.002
-387.019	31.447	0.062	0.053
-386.004	193.132	-0.054	0.081
-384.990	46.191	-0.237	-0.220
-383.975	-193.064	-0.178	0.002
-382.960	-60.878	0.200	0.085
-381.946	-39.073	0.326	0.171
-380.931	125.907	-0.108	-0.136
-379.917	52.219	0.100	-0.096
-378.902	-129.848	-0.139	0.019
-377.888	-200.000	-0.050	-0.223
-376.873	-200.000	0.003	-0.019
-375.858	62.360	-0.158	0.158
-374.844	-55.448	0.270	0.121
-373.829	-145.907	0.286	0.025
-372.815	135.011	0.174	0.225
-371.800	97.622	-0.136	0.156
-370.785	158.792	0.131	-0.181
-369.771	-23.102	0.252	0.152
-368.756	181.990	-0.199	-0.293
-367.742	-200.000	0.018	0.297
-366.727	-55.987	-0.291	0.129
-365.712	-45.680	0.082	-0.040
-364.698	-10.148	0.214	0.142
-363.683	-144.034	-0.297	0.028
-362.669	72.265	0.116	-0.120
-361.654	282.464	0.094	-0.168
-360.639	-24.900	-0.314	-0.186
-359.625	757.527	-0.061	-0.165
-358.610	-155.994	0.222	0.014
-357.596	-7.312	0.262	0.177
-356.581	-200.000	-0.068	0.340
-355.566	54.303	0.076	-0.073
-354.552	-85.056	0.186	0.058
-353.537	800.000	0.070	0.277
-352.523	-66.498	-0.304	-0.121
-351.508	-81.428	-0.393	0.129
-350.493	620.470	0.033	-0.083
-349.479	-36.301	0.133	-0.072
-348.464	-160.952	0.179	-0.009
-347.450	-17.349	-0.187	0.118
-346.435	-47.917	-0.322	0.156
-345.420	-93.106	-0.131	-0.036
-344.406	367.266	-0.104	0.209
-343.391	374.323	-0.129	-0.262
-342.377	800.000	-0.103	-0.335
-341.362	557.495	0.115	-0.277
-340.348	800.000	0.022	-0.066
-339.333	-187.134	0.040	0.001
-338.318	-200.000	0.028	0.276
-337.304	300.523	0.171	0.315
-336.289	-49.763	0.162	-0.077
-335.275	427.139	0.106	-0.229
-334.260	39.575	0.062	0.055
-333.245	122.434	0.050	-0.062
-332.231	800.000	0.038	0.156
-331.216	-58.977	-0.121	0.052
-330.202	800.000	0.087	0.261
-329.187	-136.968	0.072	0.008
-328.172	44.442	-0.076	0.070
-327.158	37.021	-0.265	-0.234
-326.143	62.351	0.154	-0.154
-325.129	85.042	0.052	-0.057
-324.114	75.859	-0.129	0.136
-323.099	123.559	0.199	0.249
-322.085	100.061	-0.307	0.355
-321.070	369.923	-0.138	0.279
-320.056	-200.000	-0.003	0.164
-319.041	123.402	-0.046	-0.057
-318.026	-87.618	0.255	-0.077
-317.012	324.871	0.043	-0.082
-315.997	234.310	0.087	-0.142
-314.983	-200.000	0.010	-0.093
-313.968	-200.000	-0.033	-0.233
-312.953	158.587	0.075	-0.104
-311.939	-200.000	-0.010	0.330
-310.924	48.828	-0.016	0.015
-309.910	-200.000	0.003	-0.263
-308.895	323.632	-0.025	0.047
-307.880	55.105	-0.156	0.150
-306.866	11.899	-0.317	-0.243
-305.851	-196.022	0.293	0.002
-304.837	44.364	0.111	-0.102
-303.822	89.257	0.054	0.060
-302.807	-66.926	0.292	-0.115
-301.793	31.738	0.140	-0.120
-300.778	56.223	0.146	-0.141
-299.764	189.583	0.049	0.074
-298.749	152.300	-0.133	-0.181
-297.735	7.416	0.211	0.157
-296.720	800.000	0.095	0.381
-295.705	-200.000	0.134	0.001
-294.691	-145.802	0.140	0.012
-293.676	-50.348	-0.262	0.123
-292.662	177.874	-0.103	-0.150
-291.647	-151.521	-0.274	-0.020
-290.632	-200.000	0.038	-0.201
-289.618	-156.546	0.132	0.008
-288.603	107.388	-0.068	-0.081
-287.589	-200.000	-0.023	-0.187
-286.574	27.494	-0.135	-0.113
-285.559	579.092	0.121	-0.295
-284.545	-1.372	-0.106	0.075
-283.530	-200.000	-0.031	-0.204
-282.516	335.431	0.013	0.025
-281.501	-200.000	-0.048	-0.302
-280.486	-200.000	0.002	0.127
-279.472	-200.000	-0.037	-0.343
-278.457	229.545	-0.072	0.117
-277.443	-195.993	0.271	0.002
-276.428	124.009	0.066	0.082
-275.413	-111.303	0.252	0.051
-274.399	558.344	0.073	-0.176
-273.384	800.000	-0.068	0.211
-272.370	-195.416	-0.155	0.001
-271.355	-10.415	0.106	0.070
-270.340	-53.333	0.216	-0.098
-269.326	-200.000	-0.102	0.518
-268.311	3.237	0.108	-0.078
-267.297	-200.000	-0.007	0.144
-266.282	-200.000	-0.041	0.277
-265.267	-141.057	-0.232	0.024
-264.253	160.438	0.122	-0.169
-263.238	-15.394	-0.210	-0.134
-262.224	800.000	-0.110	-0.371
-261.209	258.039	-0.189	0.323
-260.195	124.792	0.038	-0.047
-259.180	137.960	0.081	0.106
-258.165	-172.980	0.151	-0.005
-257.151	311.096	0.065	-0.121
-256.136	-200.000	-0.069	0.343
-255.122	240.143	-0.175	-0.290
-254.107	-40.604	0.243	-0.125
-253.092	206.119	-0.128	0.199
-252.078	-139.691	-0.205	-0.022
-251.063	5.086	0.166	0.122
-250.049	-137.332	-0.134	0.015
-249.034	-33.460	0.324	0.178
-248.019	-200.000	-0.004	0.067
-247.005	-109.619	-0.135	0.028
-245.990	180.670	0.188	0.275
-244.976	-200.000	0.177	0.000
-243.961	180.468	0.189	-0.276
-242.946	207.183	0.140	0.217
-241.932	-130.149	-0.080	0.011
-240.917	800.000	-0.053	0.197
-239.903	249.219	-0.142	0.240
-238.888	113.346	-0.064	-0.077
-237.873	408.659	-0.085	0.178
-236.859	201.898	0.069	-0.105
-235.844	-200.000	-0.039	-0.216
-234.830	329.894	0.121	0.232
-233.815	66.959	-0.185	-0.188
-232.800	-200.000	-0.045	-0.221
-231.786	68.560	-0.197	-0.200
-230.771	-153.005	0.238	-0.017
-229.757	-200.000	0.006	0.246
-228.742	287.408	-0.137	0.245
-227.727	-121.863	-0.260	-0.043
-226.713	800.000	0.015	0.059
-225.698	275.705	-0.135	0.238
-224.684	-84.324	0.105	0.033
-223.669	-0.350	-0.113	0.080
-222.655	-200.000	0.107	-0.510
-221.640	28.024	0.197	0.165
-220.625	245.051	0.054	-0.091
-219.611	90.025	-0.253	-0.281
-218.596	2.753	-0.020	-0.014
-217.582	686.510	-0.092	0.238
-216.567	-54.205	0.344	0.155
-215.552	13.543	-0.224	0.172
-214.538	425.239	-0.109	0.233
-213.523	292.938	-0.128	0.231
-212.509	140.454	0.138	0.181
-211.494	-200.000	0.012	0.238
-210.479	-3.140	-0.133	0.092
-209.465	420.802	-0.081	0.173
-208.450	-200.000	-0.044	-0.193
-207.436	-112.209	0.180	0.036
-206.421	105.199	-0.103	-0.121
-205.406	-61.096	-0.064	-0.027
-204.392	-82.503	0.242	0.078
-203.377	706.409	-0.139	0.364
-202.363	163.568	-0.144	-0.201
-201.348	-200.000	-0.033	0.171
-200.333	36.903	0.095	0.083
-199.319	-19.803	0.234	0.144
-198.304	-66.864	-0.150	0.059
-197.290	60.622	0.092	0.091
-196.275	-51.860	-0.237	-0.109
-195.260	114.054	0.124	0.149
-194.246	-200.000	-0.035	-0.245
-193.231	-129.211	0.290	-0.040
-192.217	-6.449	-0.177	-0.120
-191.202	-22.263	0.226	-0.136
-190.187	-80.879	0.041	0.013
-189.173	800.000	0.064	-0.193
-188.158	-112.617	-0.166	-0.033
-187.144	-150.171	-0.334	0.026
-186.129	-150.676	-0.081	-0.006
-185.114	27.452	0.076	0.063
-184.100	800.000	-0.049	-0.191
-183.085	148.463	0.119	-0.159
-182.071	-91.563	0.155	0.044
-181.056	-184.386	0.281	0.005
-180.042	-51.308	0.204	0.095
-179.027	217.855	-0.101	-0.159
-178.012	-53.921	-0.119	0.054
-176.998	-113.265	0.328	0.064
-175.983	132.579	-0.108	-0.138
-174.969	-149.340	-0.141	0.011
-173.954	395.106	-0.103	0.212
-172.939	-200.000	0.009	-0.387
-171.925	-200.000	-0.016	0.121
-170.910	405.367	-0.057	-0.118
-169.896	91.433	-0.132	-0.146
-168.881	58.493	0.264	-0.256
-167.866	6.404	0.078	0.057
-166.852	340.161	-0.117	-0.226
-165.837	88.043	0.154	0.170
-164.823	-200.000	-0.022	0.195
-163.808	-94.442	-0.163	0.044
-162.793	155.377	0.176	-0.241
-161.779	-166.456	-0.282	0.012
-160.764	160.416	0.139	0.192
-159.750	405.446	0.045	0.093
-158.735	-200.000	0.043	0.399
-157.720	-93.171	-0.184	0.051
-156.706	-146.187	0.142	-0.012
-155.691	403.808	0.084	0.174
-154.677	800.000	-0.094	0.325
-153.662	-183.926	0.079	0.001
-152.647	-30.246	-0.243	-0.137
-151.633	-178.698	-0.287	0.007
-150.618	284.924	0.177	0.316
-149.604	-1.973	0.222	0.154
-148.589	-77.577	-0.369	0.127
-147.574	-91.505	-0.161	0.045
-146.560	423.680	-0.114	0.243
-145.545	248.734	-0.125	-0.209
-144.531	-97.725	0.043	0.011
-143.516	-61.959	0.259	0.107
-142.502	89.782	0.033	0.036
-141.487	-51.232	0.229	0.106
-140.472	-89.826	-0.043	0.013
-139.458	-125.981	0.161	0.024
-138.443	-200.000	0.045	-0.233
-137.429	-59.160	0.047	0.020
-136.414	-87.808	-0.084	0.025
-135.399	-200.000	0.055	0.288
-134.385	-22.075	-0.143	0.086
-133.370	-58.653	-0.317	-0.136
-132.356	118.819	-0.100	0.122
-131.341	181.700	0.140	-0.204
-130.326	-107.629	0.248	0.054
-129.312	-200.000	0.022	0.179
-128.297	15.590	0.156	0.121
-127.283	4.797	-0.175	-0.127
-126.268	-80.111	-0.100	-0.033
-125.253	13.009	0.092	-0.070
-124.239	82.391	0.146	0.157
-123.224	-9.029	-0.167	0.111
-122.210	-25.082	0.294	-0.172
-121.195	-200.000	-0.004	-0.050
-120.180	99.947	0.167	-0.191
