DTS Sentinel unit serial number:	SN413079Multiplexer serial number:	ORYXHardware model number:	OX4-SRSoftware version number:	ORYX F/W v4.00 Oryx Data Collector v3.7.2.0data status	okinstallation	princeton_trtdifferential loss correction	single-endedforward channel	channel 2reverse channel	N/Adate	2019/09/16time	11:27:35forward acquisition time	60.00reverse acquisition time	0.00gamma	496.2192k internal	0.2311k external	0.2311temperature offset calibration	0.9954default loss term (dB/km)	0.3790temperature slope calibration	1.0000multiplexer offset coefficient	1.0000multiplexer slope coefficient	1.0000fibre end	0.00T internal ref (°C)	37.50T ext. ref 1 (°C)	12.94T ext. ref 2 (°C)	35.44length (m)	temperature (°C)	Stokes	anti-Stokes-747.200	-125.783	0.210	-0.032
-746.185	32.249	0.032	-0.028
-745.171	-108.620	0.303	-0.066
-744.156	-200.000	-0.005	0.404
-743.142	-84.588	0.177	0.057
-742.127	418.802	0.112	0.244
-741.112	-22.546	0.182	-0.112
-740.098	-200.000	-0.035	0.284
-739.083	151.750	-0.059	-0.082
-738.069	-27.661	-0.129	0.076
-737.054	432.912	-0.058	-0.128
-736.039	-42.286	-0.291	-0.151
-735.025	800.000	-0.043	0.152
-734.010	-70.590	-0.172	-0.066
-732.996	-162.987	-0.105	0.005
-731.981	-200.000	-0.024	0.157
-730.966	800.000	0.046	-0.157
-729.952	-85.030	0.165	-0.052
-728.937	-149.497	-0.508	-0.041
-727.923	24.198	0.013	-0.010
-726.908	-114.354	-0.218	0.043
-725.894	-184.230	-0.056	0.001
-724.879	45.087	-0.175	0.163
-723.864	-59.430	0.182	-0.079
-722.850	462.094	0.095	0.214
-721.835	-87.607	-0.297	0.091
-720.821	-87.777	-0.214	-0.065
-719.806	-101.056	-0.132	-0.033
-718.791	-79.843	-0.346	-0.118
-717.777	-98.942	-0.185	-0.048
-716.762	0.105	0.183	-0.132
-715.748	66.177	-0.141	-0.146
-714.733	-88.714	-0.024	-0.007
-713.718	-131.457	0.184	0.025
-712.704	316.358	-0.052	0.099
-711.689	347.741	-0.126	0.252
-710.675	79.593	-0.016	-0.017
-709.660	-1.937	0.059	-0.042
-708.645	201.452	0.188	-0.294
-707.631	-138.147	-0.272	0.031
-706.616	481.556	0.085	0.197
-705.602	720.379	-0.119	-0.321
-704.587	513.627	0.088	0.207
-703.572	-119.815	0.030	0.005
-702.558	-129.468	-0.268	-0.038
-701.543	-200.000	0.012	0.187
-700.529	-200.000	0.012	-0.061
-699.514	154.523	0.169	0.235
-698.499	-85.047	-0.222	0.070
-697.485	74.307	0.143	-0.153
-696.470	800.000	-0.070	-0.246
-695.456	282.216	0.100	0.182
-694.441	800.000	-0.072	-0.222
-693.426	-67.659	-0.204	-0.081
-692.412	-200.000	-0.004	0.147
-691.397	800.000	0.046	-0.150
-690.383	-153.268	-0.109	0.008
-689.368	800.000	-0.067	-0.218
-688.354	-159.739	-0.136	-0.008
-687.339	-54.417	-0.156	0.072
-686.324	-121.357	-0.271	-0.046
-685.310	-138.611	-0.262	-0.029
-684.295	65.597	0.064	-0.065
-683.281	-200.000	-0.010	0.138
-682.266	327.869	0.108	-0.210
-681.251	-103.610	-0.322	-0.077
-680.237	-36.190	-0.147	0.080
-679.222	-176.780	-0.209	0.005
-678.208	269.788	0.042	-0.074
-677.193	800.000	-0.050	0.154
-676.178	-200.000	-0.015	-0.237
-675.164	-153.716	0.191	-0.013
-674.149	-200.000	0.008	-0.104
-673.135	-32.821	0.170	0.095
-672.120	-127.441	-0.199	-0.029
-671.105	87.684	-0.060	0.067
-670.091	-200.000	-0.082	-0.435
-669.076	-90.927	-0.138	0.040
-668.062	-119.191	-0.135	0.024
-667.047	271.950	-0.149	0.267
-666.032	113.911	0.225	-0.276
-665.018	8.163	-0.174	0.132
-664.003	117.489	0.199	-0.247
-662.989	800.000	-0.044	-0.194
-661.974	286.151	0.182	0.332
-660.959	-9.644	0.072	-0.049
-659.945	56.864	-0.111	-0.110
-658.930	800.000	-0.056	-0.222
-657.916	25.801	0.250	0.211
-656.901	-200.000	-0.011	-0.058
-655.886	132.132	-0.100	-0.130
-654.872	-200.000	-0.007	-0.053
-653.857	337.840	-0.186	-0.365
-652.843	-119.591	0.090	0.016
-651.828	242.155	-0.069	0.117
-650.814	800.000	-0.068	-0.277
-649.799	-53.458	-0.122	-0.056
-648.784	-35.384	-0.109	0.060
-647.770	30.886	0.118	0.102
-646.755	153.430	0.308	-0.427
-645.741	-25.538	0.216	-0.129
-644.726	-4.262	-0.236	0.165
-643.711	-194.915	0.150	0.001
-642.697	-66.401	0.315	0.127
-641.682	800.000	-0.034	-0.118
-640.668	299.121	0.084	0.156
-639.653	-127.633	0.336	-0.049
-638.638	227.916	0.132	-0.218
-637.624	89.306	-0.113	-0.127
-636.609	97.201	-0.198	-0.229
-635.595	-38.483	0.183	-0.098
-634.580	180.307	-0.153	-0.227
-633.565	-74.194	0.115	-0.042
-632.551	-78.026	-0.144	-0.050
-631.536	-108.968	-0.094	-0.020
-630.522	-200.000	-0.003	0.019
-629.507	-54.149	-0.353	0.162
-628.492	-9.294	0.348	0.235
-627.478	-62.468	-0.090	0.038
-626.463	-49.925	-0.094	0.045
-625.449	542.491	-0.140	-0.338
-624.434	28.338	-0.201	-0.171
-623.419	91.607	0.088	-0.100
-622.405	-46.542	-0.189	-0.094
-621.390	-125.492	-0.193	0.030
-620.376	309.255	-0.137	0.258
-619.361	-200.000	0.111	0.514
-618.346	-70.526	-0.166	0.063
-617.332	800.000	-0.063	-0.188
-616.317	-200.000	-0.014	0.117
-615.303	-115.787	0.312	0.059
-614.288	-113.814	-0.011	-0.002
-613.273	-98.627	0.185	0.048
-612.259	-94.133	-0.059	0.016
-611.244	-200.000	-0.035	-0.493
-610.230	-30.963	0.408	-0.232
-609.215	69.463	-0.086	0.090
-608.201	288.806	0.181	0.330
-607.186	249.669	0.078	0.133
-606.171	-33.176	-0.175	-0.098
-605.157	-56.702	0.105	-0.047
-604.142	-8.315	0.166	0.113
-603.128	421.177	0.117	0.253
-602.113	-30.204	0.141	-0.081
-601.098	-84.927	0.118	0.037
-600.084	292.931	-0.085	0.156
-599.069	-200.000	0.043	0.399
-598.055	-159.703	-0.020	-0.001
-597.040	752.776	0.022	-0.061
-596.025	-200.000	-0.001	0.129
-595.011	-200.000	-0.003	-0.229
-593.996	-200.000	-0.035	-0.208
-592.982	-64.888	-0.163	0.067
-591.967	800.000	-0.102	-0.355
-590.952	99.742	0.099	0.116
-589.938	247.431	-0.110	-0.187
-588.923	113.728	-0.054	-0.066
-587.909	-200.000	-0.021	-0.480
-586.894	123.458	-0.157	-0.199
-585.879	-30.488	0.349	-0.200
-584.865	-167.386	0.216	0.009
-583.850	25.491	-0.375	0.314
-582.836	-200.000	0.052	-0.410
-581.821	-104.230	-0.343	-0.080
-580.806	-13.987	0.229	0.149
-579.792	800.000	0.026	0.106
-578.777	22.996	-0.015	-0.013
-577.763	-200.000	0.008	0.359
-576.748	115.841	-0.157	-0.194
-575.733	184.422	-0.240	-0.358
-574.719	-200.000	-0.022	-0.135
-573.704	-18.864	-0.096	-0.060
-572.690	392.538	-0.062	-0.130
-571.675	326.621	-0.045	-0.086
-570.661	-108.008	-0.395	0.086
-569.646	-34.068	-0.089	0.049
-568.631	-122.657	0.147	-0.024
-567.617	-200.000	-0.039	-0.236
-566.602	636.110	0.085	0.218
-565.588	35.699	0.102	-0.091
-564.573	-101.231	-0.278	0.069
-563.558	1.912	0.048	-0.035
-562.544	-61.933	0.183	0.077
-561.529	-108.271	-0.439	0.096
-560.515	370.285	-0.144	0.295
-559.500	-26.498	0.194	0.115
-558.485	5.075	-0.089	0.066
-557.471	259.284	-0.079	-0.137
-556.456	415.636	0.036	0.077
-555.442	-178.672	-0.146	-0.003
-554.427	-185.859	-0.434	0.007
-553.412	-200.000	-0.020	-0.167
-552.398	-19.956	0.238	-0.148
-551.383	-78.031	0.121	0.042
-550.369	-83.687	-0.274	-0.088
-549.354	-200.000	-0.017	0.139
-548.339	-63.473	-0.297	-0.123
-547.325	-64.303	0.233	-0.096
-546.310	216.342	0.084	0.134
-545.296	-200.000	-0.031	0.206
-544.281	800.000	-0.030	0.123
-543.266	384.642	0.082	-0.171
-542.252	-200.000	0.031	0.190
-541.237	120.951	-0.085	-0.106
-540.223	-200.000	0.053	-0.416
-539.208	-48.520	-0.327	-0.159
-538.193	800.000	-0.102	-0.322
-537.179	23.834	-0.272	0.226
-536.164	800.000	-0.076	-0.227
-535.150	313.856	-0.186	0.352
-534.135	7.628	0.191	-0.144
-533.121	-200.000	0.004	0.296
-532.106	-181.197	-0.097	-0.002
-531.091	35.661	0.116	0.102
-530.077	800.000	-0.081	0.251
-529.062	-95.982	-0.212	0.057
-528.048	800.000	-0.044	-0.162
-527.033	119.750	0.251	-0.313
-526.018	800.000	0.064	-0.178
-525.004	-83.767	-0.195	0.063
-523.989	-118.254	-0.079	0.014
-522.975	-4.729	0.086	0.060
-521.960	-131.097	0.042	-0.006
-520.945	-69.740	0.169	0.065
-519.931	-6.071	-0.157	0.108
-518.916	-152.471	-0.286	0.021
-517.902	-43.385	-0.051	0.026
-516.887	-109.044	-0.132	0.028
-515.872	-47.264	-0.314	0.154
-514.858	-200.000	-0.020	0.161
-513.843	13.516	-0.038	-0.030
-512.829	104.754	0.157	0.186
-511.814	-8.063	-0.198	-0.134
-510.799	400.898	-0.171	0.361
-509.785	230.976	-0.159	-0.261
-508.770	-49.522	0.039	-0.019
-507.756	800.000	0.040	-0.128
-506.741	-118.167	0.265	0.048
-505.726	-200.000	0.054	-0.262
-504.712	-200.000	-0.056	0.313
-503.697	173.017	-0.111	-0.161
-502.683	-113.001	-0.032	-0.006
-501.668	342.822	-0.213	0.419
-500.653	-200.000	0.026	-0.137
-499.639	245.087	0.236	-0.399
-498.624	133.952	0.224	-0.291
-497.610	11.488	-0.327	-0.252
-496.595	-149.870	-0.416	-0.033
-495.581	157.250	0.040	0.055
-494.566	366.871	-0.069	-0.140
-493.551	-200.000	0.019	0.161
-492.537	800.000	-0.123	0.347
-491.522	-111.618	-0.210	0.043
-490.508	-40.001	-0.161	-0.085
-489.493	-121.448	-0.032	-0.005
-488.478	155.534	0.076	-0.105
-487.464	248.980	0.102	-0.173
-486.449	341.814	-0.241	0.474
-485.435	-114.691	0.063	0.012
-484.420	65.223	-0.155	0.158
-483.405	-184.368	-0.315	0.005
-482.391	-45.399	0.523	-0.261
-481.376	160.705	-0.027	0.038
-480.362	9.075	0.334	-0.253
-479.347	42.037	0.061	0.056
-478.332	-61.648	-0.147	0.062
-477.318	149.076	-0.114	0.155
-476.303	132.343	-0.118	-0.153
-475.289	476.130	0.044	0.099
-474.274	453.213	-0.066	-0.146
-473.259	-200.000	-0.062	0.494
-472.245	800.000	0.062	0.190
-471.230	707.712	0.122	0.323
-470.216	-122.755	0.222	0.036
-469.201	800.000	-0.039	-0.159
-468.186	-12.654	0.150	-0.098
-467.172	-47.976	0.343	-0.167
-466.157	-21.437	-0.115	-0.070
-465.143	-200.000	0.011	-0.128
-464.128	800.000	0.100	-0.370
-463.113	-49.972	0.359	0.171
-462.099	-200.000	-0.030	-0.322
-461.084	-200.000	-0.009	-0.195
-460.070	800.000	-0.106	-0.362
-459.055	444.160	0.037	-0.080
-458.040	800.000	0.067	-0.188
-457.026	800.000	0.139	-0.460
-456.011	-32.178	0.107	-0.060
-454.997	80.252	-0.289	0.312
-453.982	10.200	-0.174	0.133
-452.968	-92.835	0.197	-0.055
-451.953	-25.582	0.161	0.095
-450.938	105.937	-0.062	0.073
-449.924	-97.558	-0.085	-0.022
-448.909	800.000	-0.041	0.143
-447.895	317.002	0.125	-0.237
-446.880	-36.603	-0.249	0.134
-445.865	29.861	-0.214	-0.183
-444.851	-144.405	0.282	0.026
-443.836	11.073	0.287	0.220
-442.822	222.626	0.131	0.212
-441.807	-183.805	-0.134	0.002
-440.792	301.040	-0.098	0.182
-439.778	-130.923	-0.088	-0.012
-438.763	96.873	0.095	-0.109
-437.749	-108.508	-0.244	0.053
-436.734	-52.202	0.036	-0.017
-435.719	-116.316	-0.125	-0.023
-434.705	49.372	-0.049	-0.046
-433.690	107.090	-0.093	0.110
-432.676	99.034	-0.204	0.237
-431.661	800.000	-0.069	0.202
-430.646	286.911	-0.092	0.167
-429.632	47.678	0.125	0.117
-428.617	531.098	0.077	0.182
-427.603	-200.000	0.019	-0.159
-426.588	-70.679	0.349	-0.132
-425.573	553.598	-0.039	-0.094
-424.559	800.000	0.100	0.325
-423.544	401.369	-0.130	0.274
-422.530	130.891	0.081	0.104
-421.515	-44.240	-0.227	0.114
-420.500	297.351	0.097	0.179
-419.486	-7.605	-0.172	-0.117
-418.471	-149.630	0.295	-0.023
-417.457	800.000	0.041	0.167
-416.442	-94.847	-0.116	0.032
-415.428	-200.000	-0.022	0.130
-414.413	187.385	0.106	-0.158
-413.398	-38.150	-0.195	-0.104
-412.384	95.590	-0.199	0.228
-411.369	31.478	0.118	0.101
-410.355	-41.334	-0.212	-0.109
-409.340	43.199	-0.257	-0.235
-408.325	800.000	0.118	-0.385
-407.311	-200.000	-0.031	-0.377
-406.296	9.469	0.111	0.084
-405.282	-200.000	0.018	0.256
-404.267	671.064	0.062	0.162
-403.252	-32.511	-0.294	-0.164
-402.238	-38.873	-0.444	-0.234
-401.223	-146.068	-0.045	-0.004
-400.209	149.795	-0.239	0.324
-399.194	504.811	-0.163	-0.379
-398.179	800.000	0.027	0.095
-397.165	-120.993	0.340	-0.057
-396.150	-101.444	-0.207	0.051
-395.136	-200.000	-0.014	0.148
-394.121	223.461	0.078	0.126
-393.106	106.014	0.034	-0.040
-392.092	-40.786	-0.250	-0.130
-391.077	-200.000	0.070	-0.322
-390.063	-20.568	-0.104	-0.064
-389.048	25.915	0.057	0.048
-388.033	55.203	-0.253	-0.244
-387.019	-95.502	-0.172	-0.046
-386.004	-50.589	0.206	0.097
-384.990	-93.291	-0.061	-0.017
-383.975	151.235	0.218	0.297
-382.960	-200.000	0.012	-0.344
-381.946	101.296	-0.229	0.267
-380.931	-66.620	0.068	-0.027
-379.917	69.793	0.176	0.182
-378.902	41.555	-0.100	-0.090
-377.888	-200.000	-0.012	-0.080
-376.873	-102.423	0.169	0.041
-375.858	-54.008	0.171	0.078
-374.844	-30.822	0.025	-0.014
-373.829	-149.298	0.076	-0.006
-372.815	183.690	-0.183	-0.271
-371.800	163.807	0.144	-0.203
-370.785	-55.950	0.192	-0.086
-369.771	-35.058	0.359	0.196
-368.756	116.889	0.218	0.268
-367.742	159.657	0.087	0.121
-366.727	140.599	0.138	0.182
-365.712	219.049	0.131	-0.210
-364.698	-37.047	-0.085	0.046
-363.683	-23.432	0.156	-0.094
-362.669	-200.000	-0.009	0.107
-361.654	-58.626	0.484	0.210
-360.639	-16.593	-0.329	0.208
-359.625	178.073	-0.050	0.073
-358.610	-56.286	0.159	-0.071
-357.596	800.000	-0.084	0.363
-356.581	44.142	0.141	0.130
-355.566	-23.852	-0.085	-0.051
-354.552	800.000	0.033	-0.099
-353.537	115.230	-0.112	-0.136
-352.523	422.815	0.046	-0.100
-351.508	-200.000	-0.012	0.116
-350.493	228.555	-0.042	0.069
-349.479	-7.915	-0.105	-0.071
-348.464	-139.548	0.384	0.041
-347.450	-200.000	0.026	-0.256
-346.435	49.761	-0.125	-0.118
-345.420	-41.813	0.147	-0.075
-344.406	800.000	-0.084	-0.324
-343.391	26.519	0.026	-0.022
-342.377	165.106	-0.071	-0.100
-341.362	800.000	-0.071	0.236
-340.348	-5.359	0.282	0.194
-339.333	800.000	0.024	-0.080
-338.318	-200.000	0.027	0.239
-337.304	37.995	-0.190	-0.169
-336.289	-89.330	-0.162	0.048
-335.275	199.328	0.025	0.038
-334.260	-200.000	0.008	-0.303
-333.245	-200.000	-0.025	-0.331
-332.231	800.000	0.035	-0.102
-331.216	-73.295	0.402	-0.147
-330.202	-86.771	0.402	0.123
-329.187	262.864	-0.083	-0.144
-328.172	-82.918	-0.249	0.080
-327.158	31.131	0.075	0.064
-326.143	518.272	-0.111	0.259
-325.129	122.373	0.077	-0.096
-324.114	-3.913	-0.177	0.123
-323.099	387.178	-0.047	0.097
-322.085	-78.581	-0.135	-0.046
-321.070	-119.985	-0.297	0.051
-320.056	-200.000	0.033	-0.279
-319.041	433.137	-0.076	-0.165
-318.026	5.970	0.277	0.205
-317.012	800.000	0.032	0.112
-315.997	340.532	0.124	-0.242
-314.983	-98.757	-0.131	0.033
-313.968	202.904	0.079	-0.123
-312.953	-101.127	-0.087	0.021
-311.939	-200.000	0.025	0.230
-310.924	800.000	0.075	-0.221
-309.910	-200.000	0.040	0.207
-308.895	-131.397	0.274	0.036
-307.880	114.390	0.170	0.207
-306.866	-91.004	-0.206	0.059
-305.851	-200.000	0.059	0.296
-304.837	43.423	0.189	-0.172
-303.822	-200.000	0.013	0.145
-302.807	-17.880	0.161	-0.101
-301.793	-9.742	-0.122	0.081
-300.778	65.015	0.149	0.150
-299.764	50.938	-0.182	-0.172
-298.749	-114.476	-0.461	0.088
-297.735	-151.564	-0.240	0.018
-296.720	85.153	0.140	0.153
-295.705	-96.809	0.150	0.039
-294.691	128.957	0.126	0.161
-293.676	-5.069	0.395	-0.271
-292.662	365.778	-0.210	0.422
-291.647	521.154	-0.066	0.153
-290.632	-177.186	-0.358	0.009
-289.618	800.000	0.097	-0.287
-288.603	318.308	0.095	-0.179
-287.589	-200.000	-0.029	0.422
-286.574	192.652	-0.073	-0.110
-285.559	-90.552	0.288	-0.083
-284.545	-112.772	0.127	0.025
-283.530	-8.821	-0.303	-0.202
-282.516	-200.000	0.005	0.165
-281.501	-143.986	0.260	0.024
-280.486	-29.096	0.255	0.146
-279.472	113.487	-0.020	0.024
-278.457	-200.000	0.025	0.143
-277.443	0.872	0.067	0.048
-276.428	-146.276	0.190	-0.017
-275.413	-200.000	-0.026	-0.145
-274.399	-200.000	0.014	0.242
-273.384	-184.035	-0.225	0.004
-272.370	132.537	0.057	-0.073
-271.355	138.591	0.171	0.224
-270.340	18.306	-0.338	0.269
-269.326	-154.928	0.352	-0.023
-268.311	800.000	-0.078	-0.237
-267.297	-145.642	0.095	0.009
-266.282	-56.542	0.063	0.028
-265.267	223.687	-0.057	-0.091
-264.253	-48.077	0.195	-0.094
-263.238	748.466	0.110	0.295
-262.224	-52.735	0.031	-0.014
-261.209	188.792	-0.059	0.088
-260.195	-38.581	-0.262	0.138
-259.180	-200.000	-0.006	0.129
-258.165	-200.000	-0.013	-0.216
-257.151	-92.571	0.098	0.027
-256.136	151.778	0.222	0.301
-255.122	8.610	-0.092	-0.069
-254.107	-24.136	-0.375	-0.223
-253.092	14.561	-0.356	0.277
-252.078	463.511	0.115	-0.257
-251.063	-200.000	0.035	-0.216
-250.049	-45.699	0.281	-0.139
-249.034	-139.747	-0.402	-0.043
-248.019	-28.136	-0.211	-0.122
-247.005	800.000	-0.086	-0.313
-245.990	79.990	0.165	-0.176
-244.976	196.130	0.091	0.138
-243.961	-157.610	-0.177	0.011
-242.946	147.383	0.097	0.130
-241.932	136.782	-0.020	0.026
-240.917	-55.493	0.292	-0.130
-239.903	620.907	-0.032	0.080
-238.888	49.426	-0.059	0.055
-237.873	210.137	0.195	-0.305
-236.859	800.000	-0.092	0.302
-235.844	1.463	-0.091	-0.065
-234.830	2.241	0.110	0.079
-233.815	60.554	-0.185	0.182
-232.800	210.313	0.122	0.191
-231.786	-11.385	0.118	-0.077
-230.771	3.825	0.211	-0.153
-229.757	-200.000	0.007	-0.172
-228.742	-200.000	-0.088	0.438
-227.727	18.746	0.057	0.045
-226.713	-79.910	-0.219	0.073
-225.698	-83.202	0.556	-0.178
-224.684	-200.000	0.038	0.222
-223.669	-100.290	-0.189	-0.047
-222.655	-183.984	-0.068	-0.001
-221.640	-200.000	0.020	0.138
-220.625	-51.921	0.288	0.133
-219.611	-107.687	-0.454	-0.099
-218.596	39.765	0.234	0.209
-217.582	-73.394	-0.132	-0.048
-216.567	12.921	0.519	-0.399
-215.552	-200.000	-0.020	-0.309
-214.538	103.354	0.139	0.162
-213.523	528.156	0.030	-0.070
-212.509	199.425	0.280	-0.427
-211.494	221.612	0.203	0.325
-210.479	573.786	-0.028	-0.069
-209.465	65.046	-0.077	-0.078
-208.450	-200.000	-0.027	-0.284
-207.436	-117.948	-0.134	-0.024
-206.421	-30.423	-0.115	-0.065
-205.406	26.329	0.131	0.109
-204.392	-200.000	0.046	0.242
-203.377	-200.000	-0.001	0.398
-202.363	148.082	-0.109	-0.147
-201.348	75.395	-0.181	-0.189
-200.333	-200.000	0.077	-0.370
-199.319	-200.000	-0.025	0.211
-198.304	-200.000	-0.001	0.213
-197.290	-54.117	-0.066	0.030
-196.275	-17.707	-0.264	-0.164
-195.260	800.000	0.062	-0.269
-194.246	276.787	-0.103	0.181
-193.231	-200.000	-0.025	0.176
-192.217	-3.626	0.092	0.063
-191.202	-99.647	-0.166	0.041
-190.187	-114.814	-0.147	0.028
-189.173	29.416	0.119	0.101
-188.158	-76.494	0.238	-0.083
-187.144	-38.368	0.149	0.078
-186.129	-187.118	-0.258	-0.004
-185.114	110.044	0.161	0.191
-184.100	25.295	-0.113	0.093
-183.085	-66.002	-0.251	-0.099
-182.071	-200.000	-0.017	-0.101
-181.056	800.000	-0.036	0.103
-180.042	74.290	0.080	-0.084
-179.027	19.870	-0.175	0.140
-178.012	670.526	-0.068	-0.174
-176.998	-200.000	-0.027	0.125
-175.983	28.466	0.230	0.193
-174.969	40.038	0.217	-0.194
-173.954	85.678	-0.081	-0.089
-172.939	800.000	0.040	0.125
-171.925	396.240	0.042	0.087
-170.910	800.000	0.093	0.287
-169.896	-200.000	0.000	0.351
-168.881	-21.548	0.254	-0.154
-167.866	247.693	0.168	0.283
-166.852	-100.001	0.135	-0.033
-165.837	-78.812	0.486	-0.164
-164.823	-42.132	0.158	-0.080
-163.808	138.620	-0.076	-0.099
-162.793	-200.000	0.011	0.156
-161.779	-141.731	-0.329	-0.033
-160.764	356.341	-0.225	-0.445
-159.750	-39.759	0.395	0.205
-158.735	154.987	0.181	-0.247
-157.720	-200.000	-0.016	-0.099
-156.706	718.868	0.113	-0.297
-155.691	-200.000	-0.018	0.213
-154.677	720.381	-0.067	0.177
-153.662	800.000	0.038	-0.121
-152.647	-160.936	-0.065	0.003
-151.633	30.847	0.206	0.175
-150.618	800.000	-0.093	-0.259
-149.604	-11.860	0.064	-0.041
-148.589	-30.030	-0.198	0.112
-147.574	-141.536	-0.213	-0.021
-146.560	167.331	-0.019	0.027
-145.545	114.901	-0.148	0.179
-144.531	-200.000	0.003	-0.089
-143.516	463.382	0.166	-0.367
-142.502	-89.196	0.285	0.084
-141.487	61.194	0.114	-0.113
-140.472	-101.549	0.324	0.078
-139.458	-200.000	0.056	0.344
-138.443	-41.281	0.162	-0.083
-137.429	139.508	-0.134	-0.175
-136.414	56.614	-0.385	0.371
-135.399	-200.000	0.007	-0.074
-134.385	-152.324	0.226	-0.016
-133.370	-200.000	0.012	-0.083
-132.356	-136.185	0.196	-0.023
-131.341	508.845	0.058	0.134
-130.326	66.672	-0.220	-0.222
-129.312	-200.000	-0.002	0.011
-128.297	800.000	-0.045	0.135
-127.283	72.928	0.118	0.122
-126.268	-200.000	-0.014	-0.163
-125.253	-194.214	0.300	0.002
-124.239	-71.736	-0.248	-0.092
-123.224	800.000	-0.067	0.227
-122.210	-200.000	-0.042	0.352
