DTS Sentinel unit serial number:	SN413079Multiplexer serial number:	ORYXHardware model number:	OX4-SRSoftware version number:	ORYX F/W v4.00 Oryx Data Collector v3.7.2.0data status	okinstallation	princeton_trtdifferential loss correction	single-endedforward channel	channel 2reverse channel	N/Adate	2019/09/18time	10:31:34forward acquisition time	60.00reverse acquisition time	0.00gamma	496.2192k internal	0.2332k external	0.2332temperature offset calibration	0.9979default loss term (dB/km)	0.3790temperature slope calibration	1.0000multiplexer offset coefficient	1.0000multiplexer slope coefficient	1.0000fibre end	0.00T internal ref (°C)	28.42T ext. ref 1 (°C)	0.35T ext. ref 2 (°C)	25.09length (m)	temperature (°C)	Stokes	anti-Stokes-747.200	-175.522	-0.046	0.001
-746.185	800.000	-0.028	0.081
-745.171	-97.952	-0.349	-0.091
-744.156	800.000	0.094	0.302
-743.142	-94.563	0.087	-0.024
-742.127	-31.902	-0.319	0.180
-741.112	776.607	0.088	0.243
-740.098	18.096	0.180	0.144
-739.083	-59.319	0.264	0.114
-738.069	-145.647	0.285	0.026
-737.054	429.184	-0.117	-0.254
-736.039	-200.000	0.031	0.296
-735.025	-200.000	0.011	-0.213
-734.010	60.768	-0.127	-0.127
-732.996	800.000	0.066	0.232
-731.981	178.905	-0.080	0.118
-730.966	-45.318	-0.503	-0.251
-729.952	-165.365	-0.165	0.007
-728.937	-27.540	-0.269	-0.157
-727.923	-90.399	-0.246	0.072
-726.908	301.724	-0.090	-0.167
-725.894	-97.717	-0.096	0.025
-724.879	-153.861	-0.208	0.014
-723.864	195.141	0.166	0.254
-722.850	800.000	0.047	-0.175
-721.835	-14.034	-0.277	-0.180
-720.821	-133.533	0.157	0.020
-719.806	-200.000	-0.038	-0.256
-718.791	545.705	-0.092	-0.221
-717.777	-36.345	-0.209	-0.113
-716.762	0.937	-0.171	-0.123
-715.748	-45.763	0.286	-0.142
-714.733	411.628	0.050	0.106
-713.718	242.745	-0.057	-0.097
-712.704	603.277	0.130	-0.325
-711.689	-155.347	-0.334	0.022
-710.675	-7.847	-0.098	0.066
-709.660	-15.956	0.255	-0.163
-708.645	-116.653	0.138	-0.026
-707.631	-81.798	0.234	0.077
-706.616	-195.434	0.151	-0.001
-705.602	-196.737	0.088	-0.001
-704.587	-200.000	0.040	0.213
-703.572	-137.805	-0.174	-0.020
-702.558	-5.758	-0.370	-0.254
-701.543	239.851	0.162	0.271
-700.529	800.000	-0.046	0.156
-699.514	-101.442	-0.195	0.048
-698.499	-169.173	0.129	0.005
-697.485	-28.498	-0.362	-0.210
-696.470	-98.779	-0.311	-0.079
-695.456	-200.000	-0.017	0.209
-694.441	257.933	0.042	-0.072
-693.426	38.947	0.085	0.076
-692.412	-57.965	-0.266	-0.117
-691.397	407.645	-0.166	-0.352
-690.383	488.569	0.130	-0.298
-689.368	-58.525	-0.082	0.036
-688.354	465.907	0.105	-0.236
-687.339	173.819	0.156	-0.225
-686.324	133.383	-0.117	-0.151
-685.310	9.801	-0.161	0.122
-684.295	270.708	-0.038	-0.067
-683.281	-132.077	0.308	0.040
-682.266	-50.837	0.195	-0.092
-681.251	24.230	0.227	-0.188
-680.237	131.610	-0.073	0.094
-679.222	7.995	0.144	-0.108
-678.208	-68.594	-0.322	0.125
-677.193	-200.000	0.020	-0.237
-676.178	-43.104	0.172	0.087
-675.164	-200.000	-0.017	-0.413
-674.149	-30.129	-0.171	-0.098
-673.135	-35.274	-0.298	-0.163
-672.120	294.136	-0.148	-0.272
-671.105	-200.000	-0.054	-0.243
-670.091	-200.000	-0.028	-0.165
-669.076	97.706	-0.202	-0.233
-668.062	-200.000	-0.008	-0.189
-667.047	800.000	-0.103	-0.322
-666.032	23.054	-0.227	-0.187
-665.018	-40.550	0.135	0.070
-664.003	-90.038	-0.411	0.120
-662.989	800.000	-0.026	-0.089
-661.974	800.000	-0.028	0.116
-660.959	-200.000	0.087	-0.585
-659.945	-200.000	0.003	-0.313
-658.930	-2.232	-0.213	-0.150
-657.916	-200.000	-0.036	-0.282
-656.901	193.329	-0.084	-0.127
-655.886	800.000	-0.052	-0.218
-654.872	-200.000	-0.037	-0.249
-653.857	800.000	-0.128	-0.416
-652.843	287.182	0.182	-0.331
-651.828	28.778	-0.127	0.107
-650.814	-168.328	0.123	0.005
-649.799	800.000	0.074	0.313
-648.784	-109.929	-0.387	-0.081
-647.770	-119.884	0.045	-0.008
-646.755	-24.551	0.293	-0.175
-645.741	-200.000	-0.044	0.280
-644.726	-25.360	-0.369	-0.219
-643.711	800.000	-0.089	-0.278
-642.697	106.423	-0.117	0.139
-641.682	-84.640	0.241	0.076
-640.668	-105.743	0.072	0.016
-639.653	800.000	0.055	-0.207
-638.638	159.611	-0.152	-0.212
-637.624	-28.308	-0.237	-0.137
-636.609	800.000	-0.096	0.310
-635.595	800.000	-0.052	0.223
-634.580	-164.720	0.259	-0.012
-633.565	34.238	-0.190	0.166
-632.551	-8.197	-0.164	0.110
-631.536	-39.396	-0.330	-0.173
-630.522	208.782	-0.219	0.344
-629.507	-91.925	0.153	0.043
-628.492	101.766	0.082	-0.096
-627.478	-200.000	-0.006	-0.190
-626.463	-130.687	0.085	0.011
-625.449	-17.077	-0.240	-0.152
-624.434	-200.000	-0.007	-0.260
-623.419	143.957	-0.080	-0.107
-622.405	-89.872	-0.151	-0.044
-621.390	-124.228	0.351	0.055
-620.376	106.493	-0.145	0.173
-619.361	-200.000	0.066	-0.301
-618.346	11.755	0.226	-0.173
-617.332	48.306	0.029	-0.027
-616.317	-151.011	-0.116	0.009
-615.303	170.454	0.063	-0.090
-614.288	800.000	0.120	-0.445
-613.273	36.843	0.200	-0.177
-612.259	-200.000	0.027	0.173
-611.244	84.709	-0.386	0.423
-610.230	17.544	-0.079	-0.063
-609.215	5.246	0.337	0.249
-608.201	-200.000	-0.010	-0.150
-607.186	-59.687	0.067	0.029
-606.171	-200.000	-0.010	0.165
-605.157	205.267	-0.052	-0.080
-604.142	79.079	-0.080	0.086
-603.128	-52.749	-0.023	-0.011
-602.113	-200.000	-0.013	-0.129
-601.098	800.000	0.071	0.284
-600.084	-200.000	0.004	0.043
-599.069	800.000	-0.032	-0.110
-598.055	-162.961	0.058	-0.003
-597.040	96.220	-0.086	-0.098
-596.025	178.224	0.109	-0.160
-595.011	26.976	0.302	-0.254
-593.996	154.061	0.075	0.103
-592.982	42.863	-0.157	-0.143
-591.967	-200.000	0.003	0.020
-590.952	53.306	-0.117	0.112
-589.938	800.000	-0.088	-0.325
-588.923	-97.349	0.066	0.017
-587.909	-200.000	0.008	-0.279
-586.894	-53.027	-0.315	0.145
-585.879	800.000	-0.085	-0.372
-584.865	800.000	0.025	-0.087
-583.850	-200.000	-0.009	0.208
-582.836	615.964	-0.268	0.672
-581.821	-25.885	-0.319	0.188
-580.806	-90.994	-0.086	0.025
-579.792	23.380	0.133	0.109
-578.777	205.519	-0.057	-0.088
-577.763	-117.190	-0.322	0.059
-576.748	-159.901	0.153	-0.008
-575.733	-200.000	-0.028	0.207
-574.719	-200.000	0.003	0.196
-573.704	800.000	0.062	-0.188
-572.690	-200.000	-0.019	-0.168
-571.675	744.949	-0.064	-0.171
-570.661	139.375	-0.092	-0.120
-569.646	-55.182	0.244	0.110
-568.631	13.883	0.181	-0.140
-567.617	-112.650	0.252	0.050
-566.602	-36.996	0.359	0.192
-565.588	128.215	0.063	-0.080
-564.573	40.166	-0.188	0.169
-563.558	-120.291	0.114	-0.019
-562.544	-111.718	0.149	0.030
-561.529	157.147	0.102	0.141
-560.515	235.408	-0.099	-0.164
-559.500	245.914	-0.151	-0.254
-558.485	-155.114	0.239	-0.016
-557.471	34.175	0.308	-0.269
-556.456	-138.252	-0.187	0.021
-555.442	109.490	0.030	0.036
-554.427	151.909	0.009	-0.012
-553.412	-115.136	-0.284	0.054
-552.398	-20.572	-0.256	0.157
-551.383	-74.656	-0.116	0.042
-550.369	-200.000	-0.056	-0.271
-549.354	-127.219	0.107	0.016
-548.339	-17.190	-0.234	0.148
-547.325	-200.000	-0.010	0.113
-546.310	-120.504	-0.317	-0.054
-545.296	-24.900	-0.120	-0.071
-544.281	242.582	0.103	0.172
-543.266	-102.282	0.176	-0.042
-542.252	-1.839	-0.031	-0.022
-541.237	-123.544	-0.102	0.016
-540.223	104.568	0.150	-0.176
-539.208	-34.797	-0.143	-0.078
-538.193	12.426	-0.301	-0.231
-537.179	-189.470	0.280	-0.003
-536.164	-200.000	-0.000	-0.011
-535.150	220.181	-0.101	-0.161
-534.135	-39.817	-0.117	0.061
-533.121	-58.635	-0.065	-0.028
-532.106	288.070	0.147	0.266
-531.091	146.785	0.332	-0.445
-530.077	75.857	-0.139	0.146
-529.062	-182.378	-0.193	0.004
-528.048	254.437	0.144	0.245
-527.033	800.000	0.119	0.391
-526.018	-114.422	0.101	0.019
-525.004	-200.000	0.013	0.173
-523.989	2.668	0.339	0.245
-522.975	465.995	0.067	0.149
-521.960	-19.905	0.325	0.200
-520.945	-40.958	0.064	0.033
-519.931	348.575	-0.108	0.213
-518.916	-115.223	-0.244	-0.046
-517.902	-200.000	-0.030	0.139
-516.887	800.000	0.045	0.153
-515.872	-142.397	-0.124	0.012
-514.858	72.898	-0.109	-0.114
-513.843	148.515	-0.205	-0.277
-512.829	-93.019	-0.299	-0.083
-511.814	540.570	0.043	-0.101
-510.799	-118.869	0.264	-0.046
-509.785	-200.000	-0.014	-0.127
-508.770	-69.013	0.185	0.071
-507.756	-59.221	0.124	-0.053
-506.741	-98.656	0.211	-0.054
-505.726	-42.005	0.071	0.036
-504.712	206.486	0.282	0.437
-503.697	46.570	-0.231	-0.213
-502.683	-120.059	0.168	-0.029
-501.668	-32.308	0.347	0.193
-500.653	-54.490	-0.202	-0.091
-499.639	-134.718	-0.154	0.019
-498.624	9.362	0.404	-0.305
-497.610	177.768	0.040	-0.058
-496.595	624.055	-0.058	-0.147
-495.581	65.510	0.114	-0.115
-494.566	93.082	-0.163	-0.183
-493.551	-200.000	-0.058	0.274
-492.537	-200.000	-0.003	0.182
-491.522	539.919	0.053	-0.125
-490.508	-101.158	0.255	-0.062
-489.493	166.830	0.241	0.340
-488.478	200.872	0.173	0.264
-487.464	-149.413	-0.541	0.043
-486.449	-59.824	0.095	-0.041
-485.435	-43.070	0.078	-0.039
-484.420	-34.704	-0.267	-0.145
-483.405	462.080	0.171	0.381
-482.391	82.357	-0.168	-0.182
-481.376	-90.688	0.229	0.066
-480.362	-112.098	0.236	0.047
-479.347	281.520	0.128	0.229
-478.332	145.028	0.020	-0.027
-477.318	800.000	0.139	-0.464
-476.303	-102.127	0.197	-0.047
-475.289	800.000	0.118	-0.414
-474.274	-86.086	0.583	-0.179
-473.259	396.017	0.132	-0.275
-472.245	-200.000	-0.028	0.184
-471.230	22.737	0.066	-0.054
-470.216	-73.399	-0.341	0.124
-469.201	-59.493	-0.281	0.120
-468.186	-200.000	-0.039	-0.278
-467.172	-66.675	-0.205	0.081
-466.157	-47.967	0.122	0.059
-465.143	3.092	-0.173	0.125
-464.128	167.818	0.111	-0.157
-463.113	-169.284	-0.225	-0.008
-462.099	-200.000	0.001	-0.100
-461.084	800.000	0.069	-0.242
-460.070	487.289	-0.041	0.094
-459.055	-9.483	-0.082	-0.054
-458.040	335.507	0.173	-0.333
-457.026	-7.205	-0.145	-0.098
-456.011	2.111	-0.052	-0.038
-454.997	99.943	0.305	-0.352
-453.982	-98.722	-0.406	0.103
-452.968	272.072	-0.090	-0.158
-451.953	-200.000	0.019	-0.126
-450.938	-90.237	-0.134	-0.039
-449.924	-65.082	-0.326	0.131
-448.909	800.000	0.081	0.306
-447.895	-82.674	-0.181	-0.058
-446.880	-200.000	-0.021	0.230
-445.865	-200.000	-0.008	0.074
-444.851	22.952	-0.112	0.092
-443.836	69.520	0.144	0.148
-442.822	-175.027	-0.147	0.004
-441.807	800.000	0.040	-0.124
-440.792	-129.618	-0.165	-0.023
-439.778	-15.576	0.353	0.224
-438.763	84.737	-0.191	-0.208
-437.749	-131.473	-0.269	-0.035
-436.734	-200.000	0.032	0.376
-435.719	354.931	-0.011	0.022
-434.705	800.000	0.080	0.281
-433.690	103.894	0.101	0.118
-432.676	28.546	-0.053	0.044
-431.661	-200.000	0.009	-0.062
-430.646	-23.913	0.048	0.029
-429.632	-122.872	-0.364	-0.058
-428.617	348.400	0.053	0.104
-427.603	11.001	0.332	-0.252
-426.588	800.000	0.058	0.185
-425.573	206.042	-0.056	0.087
-424.559	4.273	-0.186	0.135
-423.544	275.135	0.055	0.098
-422.530	123.244	-0.069	-0.086
-421.515	800.000	0.050	-0.197
-420.500	-69.377	0.206	0.078
-419.486	-102.092	-0.185	0.044
-418.471	-68.120	-0.062	-0.024
-417.457	-154.624	0.155	0.010
-416.442	-31.721	0.317	-0.177
-415.428	85.465	0.012	0.013
-414.413	-92.057	-0.046	-0.013
-413.398	-200.000	0.024	0.133
-412.384	8.704	0.288	0.215
-411.369	-200.000	-0.018	-0.172
-410.355	309.075	0.026	0.048
-409.340	-1.538	0.175	0.123
-408.325	800.000	0.074	-0.296
-407.311	230.070	-0.111	-0.181
-406.296	24.961	0.124	-0.102
-405.282	561.580	0.128	-0.308
-404.267	-200.000	0.023	0.243
-403.252	-200.000	0.013	0.063
-402.238	-165.273	-0.144	0.006
-401.223	-35.881	-0.031	0.017
-400.209	-98.350	-0.088	0.022
-399.194	61.523	0.091	-0.090
-398.179	-112.053	0.407	-0.081
-397.165	-17.280	-0.159	-0.100
-396.150	157.625	0.084	-0.116
-395.136	-97.039	-0.353	0.092
-394.121	-38.777	-0.566	-0.296
-393.106	37.722	0.101	-0.089
-392.092	-200.000	0.045	0.219
-391.077	23.080	-0.124	-0.101
-390.063	738.999	-0.049	0.130
-389.048	537.232	-0.166	0.391
-388.033	-5.047	0.060	-0.041
-387.019	-39.256	0.107	0.056
-386.004	-13.029	0.347	-0.224
-384.990	269.660	-0.149	0.259
-383.975	-47.932	-0.127	-0.061
-382.960	16.462	-0.083	-0.065
-381.946	279.626	-0.086	-0.152
-380.931	-74.445	0.126	0.045
-379.917	392.437	0.030	-0.063
-378.902	301.810	-0.053	-0.098
-377.888	-68.093	-0.128	0.049
-376.873	427.416	-0.045	0.096
-375.858	455.791	-0.091	0.199
-374.844	-200.000	-0.007	0.061
-373.829	157.863	-0.165	-0.227
-372.815	-144.005	0.333	-0.031
-371.800	131.225	-0.111	-0.141
-370.785	-19.183	-0.072	0.044
-369.771	-200.000	-0.002	-0.023
-368.756	-200.000	-0.006	-0.048
-367.742	646.376	0.078	0.198
-366.727	-200.000	-0.064	0.353
-365.712	-123.673	-0.278	-0.044
-364.698	671.648	0.153	0.394
-363.683	-200.000	-0.008	-0.222
-362.669	-126.070	0.423	0.063
-361.654	-200.000	-0.016	0.153
-360.639	800.000	0.041	0.162
-359.625	217.719	-0.038	-0.060
-358.610	-49.942	0.141	0.066
-357.596	117.583	-0.069	-0.084
-356.581	88.063	0.180	-0.198
-355.566	-122.195	-0.276	0.045
-354.552	68.758	0.228	0.232
-353.537	-14.871	0.319	-0.203
-352.523	51.365	0.266	-0.250
-351.508	31.002	0.083	0.071
-350.493	226.368	-0.080	-0.128
-349.479	-107.815	0.224	-0.048
-348.464	-200.000	0.008	0.264
-347.450	685.911	0.059	-0.153
-346.435	34.827	0.110	-0.095
-345.420	-156.741	0.326	0.020
-344.406	8.915	0.125	-0.093
-343.391	-200.000	-0.021	-0.271
-342.377	-138.695	0.078	0.008
-341.362	800.000	-0.040	-0.120
-340.348	8.751	-0.322	0.241
-339.333	97.430	-0.197	-0.224
-338.318	-24.082	-0.121	-0.071
-337.304	-200.000	-0.025	0.166
-336.289	193.169	-0.207	0.310
-335.275	191.090	-0.237	-0.353
-334.260	-54.601	-0.310	-0.139
-333.245	-200.000	-0.020	0.210
-332.231	-160.614	0.186	0.010
-331.216	609.309	0.143	-0.353
-330.202	-175.372	-0.355	-0.010
-329.187	-113.410	0.192	0.037
-328.172	47.561	-0.262	-0.241
-327.158	-126.728	0.176	-0.026
-326.143	60.684	0.169	0.165
-325.129	56.217	-0.179	0.172
-324.114	343.141	0.056	-0.109
-323.099	800.000	-0.113	-0.372
-322.085	-153.185	-0.364	-0.025
-321.070	-111.035	0.219	0.045
-320.056	-79.547	-0.101	0.034
-319.041	-6.656	0.138	0.093
-318.026	49.380	0.390	0.363
-317.012	153.463	0.077	0.104
-315.997	-138.437	-0.046	0.005
-314.983	-200.000	-0.038	-0.215
-313.968	-94.202	-0.212	-0.058
-312.953	147.991	-0.042	0.056
-311.939	800.000	-0.008	0.028
-310.924	-106.634	0.458	0.101
-309.910	350.220	-0.076	-0.148
-308.895	800.000	-0.068	-0.228
-307.880	-80.606	-0.264	0.087
-306.866	-92.548	0.244	-0.068
-305.851	-18.083	-0.177	-0.109
-304.837	87.774	-0.106	-0.116
-303.822	406.264	-0.104	0.217
-302.807	-60.511	0.139	0.058
-301.793	-42.645	-0.324	0.163
-300.778	172.058	0.146	0.208
-299.764	152.602	0.094	-0.128
-298.749	-95.968	-0.450	0.119
-297.735	-200.000	-0.008	0.074
-296.720	5.443	0.079	0.057
-295.705	584.866	0.146	-0.354
-294.691	77.314	-0.018	0.019
-293.676	52.632	0.117	-0.110
-292.662	-169.370	-0.149	-0.005
-291.647	28.793	-0.036	-0.030
-290.632	-71.555	-0.319	-0.118
-289.618	322.057	0.146	0.274
-288.603	-46.357	0.040	-0.020
-287.589	57.847	0.378	-0.365
-286.574	93.899	-0.101	0.114
-285.559	198.546	0.067	0.102
-284.545	-200.000	0.017	-0.140
-283.530	66.264	-0.188	-0.189
-282.516	800.000	0.069	-0.263
-281.501	43.437	-0.243	-0.219
-280.486	28.496	0.214	-0.179
-279.472	8.181	0.102	-0.076
-278.457	11.118	0.333	-0.252
-277.443	18.968	-0.134	-0.106
-276.428	-46.976	0.075	-0.036
-275.413	-200.000	-0.035	0.260
-274.399	-200.000	-0.007	0.129
-273.384	490.208	0.138	-0.311
-272.370	-179.638	0.203	0.004
-271.355	-200.000	-0.017	0.108
-270.340	-134.946	0.321	-0.038
-269.326	-180.399	0.181	0.004
-268.311	59.711	-0.231	0.225
-267.297	-18.120	0.135	0.083
-266.282	40.414	0.194	-0.173
-265.267	-200.000	-0.003	-0.103
-264.253	565.042	0.220	-0.526
-263.238	-200.000	0.000	-0.405
-262.224	-31.683	-0.292	-0.162
-261.209	-99.770	0.389	-0.096
-260.195	769.000	0.068	-0.184
-259.180	370.750	-0.112	0.224
-258.165	-124.663	-0.229	-0.035
-257.151	-96.669	-0.382	0.099
-256.136	-91.967	-0.116	0.032
-255.122	-97.482	-0.183	-0.047
-254.107	-200.000	0.041	0.352
-253.092	53.147	-0.139	-0.132
-252.078	71.026	0.419	0.428
-251.063	304.738	0.138	-0.253
-250.049	-200.000	0.051	0.284
-249.034	77.773	0.174	0.183
-248.019	-149.495	0.522	0.041
-247.005	316.296	0.077	0.144
-245.990	800.000	0.013	0.040
-244.976	-200.000	0.003	0.269
-243.961	-29.492	-0.053	-0.030
-242.946	183.982	-0.101	-0.147
-241.932	-200.000	0.025	0.152
-240.917	-132.000	0.158	-0.020
-239.903	-49.129	-0.174	0.082
-238.888	-24.794	0.233	0.136
-237.873	51.096	0.091	0.085
-236.859	149.032	-0.290	0.386
-235.844	-24.058	-0.154	0.091
-234.830	-83.212	0.087	-0.028
-233.815	800.000	0.016	0.046
-232.800	175.794	0.050	-0.072
-231.786	3.673	-0.105	0.075
-230.771	476.478	0.102	-0.228
-229.757	71.699	-0.170	-0.174
-228.742	97.182	0.255	-0.289
-227.727	-61.750	-0.218	-0.090
-226.713	147.713	-0.093	0.123
-225.698	-75.253	0.015	-0.005
-224.684	-41.485	-0.270	-0.137
-223.669	800.000	0.060	0.179
-222.655	180.807	0.145	0.210
-221.640	459.831	-0.096	-0.211
-220.625	-112.221	0.066	-0.013
-219.611	88.170	-0.075	0.082
-218.596	-93.605	-0.366	-0.100
-217.582	-16.297	0.029	-0.018
-216.567	800.000	0.037	0.125
-215.552	-103.303	0.210	-0.049
-214.538	44.401	-0.091	-0.083
-213.523	240.893	-0.081	0.134
-212.509	17.160	0.161	0.126
-211.494	-200.000	0.034	0.169
-210.479	11.310	0.167	0.126
-209.465	244.407	-0.135	0.223
-208.450	13.299	0.150	0.115
-207.436	-37.227	0.052	0.027
-206.421	263.360	0.150	0.258
-205.406	-87.815	0.421	0.125
-204.392	-66.255	-0.319	0.125
-203.377	25.416	0.195	-0.159
-202.363	800.000	-0.030	-0.093
-201.348	-150.352	-0.226	0.017
-200.333	-35.076	-0.269	0.144
-199.319	-24.318	-0.079	0.046
-198.304	511.622	0.061	0.139
-197.290	248.145	-0.129	0.216
-196.275	-17.174	-0.269	0.167
-195.260	236.772	0.045	-0.073
-194.246	-124.742	-0.232	0.035
-193.231	43.879	-0.246	-0.222
-192.217	571.602	0.095	-0.227
-191.202	-35.375	-0.439	-0.235
-190.187	800.000	-0.051	0.158
-189.173	800.000	-0.129	0.504
-188.158	-86.080	0.266	-0.081
-187.144	-125.619	-0.259	0.039
-186.129	138.268	0.072	-0.094
-185.114	41.172	-0.158	0.141
-184.100	-18.285	-0.294	0.181
-183.085	69.334	0.191	0.193
-182.071	25.154	-0.182	0.149
-181.056	-130.395	0.405	0.054
-180.042	-122.744	0.289	0.046
-179.027	-200.000	0.043	0.290
-178.012	800.000	-0.023	0.086
-176.998	41.265	-0.096	0.086
-175.983	58.172	0.119	-0.115
-174.969	800.000	-0.112	-0.358
-173.954	105.944	-0.228	0.265
-172.939	-54.565	-0.135	0.060
-171.925	137.282	-0.245	-0.316
-170.910	-200.000	0.022	-0.102
-169.896	11.395	-0.160	0.121
-168.881	-109.962	-0.491	0.101
-167.866	80.183	0.192	0.203
-166.852	46.393	-0.256	-0.234
-165.837	-16.430	0.098	-0.061
-164.823	525.632	0.108	-0.251
-163.808	336.405	0.049	0.094
-162.793	800.000	-0.022	-0.069
-161.779	800.000	0.043	0.124
-160.764	-135.939	0.326	-0.038
-159.750	498.409	-0.058	0.132
-158.735	-200.000	-0.000	0.059
-157.720	-135.294	0.193	-0.023
-156.706	-5.238	0.269	-0.182
-155.691	230.089	0.044	-0.071
-154.677	-31.058	0.222	-0.123
-153.662	800.000	-0.031	-0.085
-152.647	374.618	-0.071	0.143
-151.633	196.319	0.093	0.139
-150.618	201.707	-0.151	0.229
-149.604	-74.308	0.232	0.082
-148.589	-161.307	0.286	0.015
-147.574	132.922	-0.183	-0.232
-146.560	66.873	-0.082	-0.082
-145.545	-131.364	0.142	-0.019
-144.531	3.830	0.206	-0.148
-143.516	-180.541	-0.198	0.004
-142.502	50.599	-0.014	-0.013
-141.487	-200.000	0.032	-0.262
-140.472	-56.269	-0.349	-0.153
-139.458	-60.629	-0.329	0.137
-138.443	310.732	0.122	-0.225
-137.429	-62.043	0.145	-0.059
-136.414	-109.948	-0.275	0.057
-135.399	-163.976	-0.276	0.013
-134.385	-106.948	-0.225	0.049
-133.370	-82.136	0.320	0.102
-132.356	205.744	-0.178	0.272
-131.341	449.041	0.074	-0.161
-130.326	74.248	0.078	-0.080
-129.312	-92.270	-0.379	-0.105
-128.297	113.838	0.228	-0.272
-127.283	-128.425	-0.174	0.024
-126.268	-92.110	-0.042	0.012
-125.253	-13.289	0.431	-0.275
-124.239	-200.000	-0.075	-0.339
-123.224	-144.457	-0.222	0.020
-122.210	466.794	0.014	0.030
-121.195	4.602	-0.272	0.196
