DTS Sentinel unit serial number:	SN413079Multiplexer serial number:	ORYXHardware model number:	OX4-SRSoftware version number:	ORYX F/W v4.00 Oryx Data Collector v3.7.2.0data status	okinstallation	princeton_trtdifferential loss correction	single-endedforward channel	channel 2reverse channel	N/Adate	2019/09/18time	23:39:34forward acquisition time	60.00reverse acquisition time	0.00gamma	496.2192k internal	0.2351k external	0.2351temperature offset calibration	1.0019default loss term (dB/km)	0.3790temperature slope calibration	1.0000multiplexer offset coefficient	1.0000multiplexer slope coefficient	1.0000fibre end	0.00T internal ref (°C)	23.50T ext. ref 1 (°C)	0.76T ext. ref 2 (°C)	16.33length (m)	temperature (°C)	Stokes	anti-Stokes-747.200	-200.000	-0.044	-0.278
-746.185	447.694	-0.181	0.397
-745.171	-200.000	0.019	0.238
-744.156	-123.531	-0.294	0.047
-743.142	-101.013	-0.212	0.052
-742.127	-52.021	0.178	0.083
-741.112	800.000	0.075	-0.241
-740.098	-200.000	-0.020	0.117
-739.083	-200.000	0.023	0.407
-738.069	-1.312	-0.245	0.173
-737.054	-200.000	0.028	0.219
-736.039	165.853	-0.148	0.210
-735.025	-200.000	0.009	-0.059
-734.010	71.908	-0.143	-0.148
-732.996	-200.000	0.042	-0.339
-731.981	-46.799	0.378	-0.185
-730.966	570.764	0.040	-0.097
-729.952	-200.000	-0.075	-0.333
-728.937	-105.071	-0.173	0.040
-727.923	-200.000	0.022	-0.245
-726.908	230.460	-0.199	0.325
-725.894	-200.000	0.060	-0.284
-724.879	-58.584	-0.173	0.075
-723.864	22.201	0.054	-0.044
-722.850	98.366	-0.088	0.101
-721.835	25.326	-0.234	-0.194
-720.821	116.825	0.163	-0.199
-719.806	800.000	-0.054	0.212
-718.791	153.634	-0.067	0.092
-717.777	29.205	-0.173	-0.147
-716.762	-88.179	0.095	-0.028
-715.748	330.176	-0.097	0.186
-714.733	-200.000	-0.061	0.278
-713.718	436.410	-0.047	0.102
-712.704	-133.152	-0.274	-0.035
-711.689	40.914	-0.168	0.151
-710.675	-200.000	0.043	-0.269
-709.660	572.218	0.055	-0.134
-708.645	667.088	0.116	-0.298
-707.631	-131.161	0.154	0.020
-706.616	160.812	0.087	-0.122
-705.602	800.000	-0.062	-0.262
-704.587	-140.453	-0.125	0.013
-703.572	-6.662	0.372	-0.252
-702.558	107.786	0.233	-0.277
-701.543	-4.918	-0.189	-0.130
-700.529	770.572	0.094	0.255
-699.514	87.663	-0.106	0.117
-698.499	26.090	-0.327	-0.272
-697.485	210.815	-0.034	0.053
-696.470	49.247	-0.160	0.150
-695.456	38.160	-0.325	0.288
-694.441	-200.000	0.001	-0.332
-693.426	800.000	-0.124	0.354
-692.412	165.262	0.102	-0.143
-691.397	800.000	0.035	0.146
-690.383	-169.353	-0.160	-0.006
-689.368	-200.000	-0.013	-0.210
-688.354	318.253	-0.080	-0.151
-687.339	2.936	-0.243	-0.176
-686.324	100.104	-0.046	0.054
-685.310	677.462	0.121	0.312
-684.295	15.765	0.239	0.188
-683.281	234.183	0.137	0.226
-682.266	245.461	-0.151	-0.253
-681.251	85.528	0.065	0.071
-680.237	-123.826	0.204	0.032
-679.222	177.030	0.115	0.167
-678.208	-80.280	0.173	-0.057
-677.193	-114.097	0.128	0.025
-676.178	7.381	0.364	-0.271
-675.164	-200.000	0.008	0.227
-674.149	90.432	0.256	0.285
-673.135	-89.486	-0.274	0.080
-672.120	109.371	0.138	0.165
-671.105	6.943	0.235	-0.174
-670.091	171.280	0.048	-0.068
-669.076	-44.387	-0.090	0.045
-668.062	-140.401	0.382	0.040
-667.047	47.822	-0.305	-0.283
-666.032	-14.434	-0.144	0.092
-665.018	-124.243	-0.394	0.061
-664.003	-99.442	-0.319	0.080
-662.989	78.562	0.173	-0.184
-661.974	-200.000	0.025	0.193
-660.959	-200.000	0.012	0.074
-659.945	-11.230	-0.146	-0.096
-658.930	243.615	0.027	0.045
-657.916	800.000	-0.026	0.075
-656.901	-179.005	-0.094	-0.002
-655.886	-64.029	-0.199	0.081
-654.872	-4.502	0.100	0.068
-653.857	-67.815	-0.294	-0.114
-652.843	-134.377	-0.048	0.006
-651.828	-200.000	-0.004	-0.156
-650.814	800.000	0.037	0.142
-649.799	77.669	-0.215	0.228
-648.784	-67.401	-0.224	-0.088
-647.770	-125.375	0.102	0.016
-646.755	-200.000	-0.022	-0.172
-645.741	148.292	0.296	0.397
-644.726	133.995	0.229	0.295
-643.711	77.325	0.085	-0.089
-642.697	-126.192	-0.475	-0.071
-641.682	-42.158	-0.339	-0.172
-640.668	800.000	-0.006	-0.023
-639.653	-5.648	-0.454	-0.309
-638.638	-158.794	-0.391	0.022
-637.624	-40.046	0.206	0.107
-636.609	-200.000	-0.025	0.342
-635.595	92.806	-0.035	-0.040
-634.580	-200.000	-0.013	-0.097
-633.565	-200.000	0.016	-0.516
-632.551	124.408	-0.087	-0.109
-631.536	-200.000	-0.015	-0.122
-630.522	-110.310	0.315	-0.065
-629.507	-200.000	0.003	0.086
-628.492	-124.225	0.182	-0.028
-627.478	-48.796	0.197	-0.094
-626.463	-200.000	0.035	-0.266
-625.449	469.718	-0.134	-0.300
-624.434	-90.404	0.169	-0.049
-623.419	-200.000	-0.249	-0.000
-622.405	-200.000	-0.013	0.154
-621.390	518.058	0.123	-0.287
-620.376	152.076	0.143	0.194
-619.361	-161.730	0.212	-0.011
-618.346	-38.797	0.202	0.106
-617.332	8.399	-0.091	-0.068
-616.317	-96.276	0.074	-0.020
-615.303	-3.610	0.253	0.175
-614.288	135.343	0.068	-0.088
-613.273	-40.956	0.083	-0.043
-612.259	90.096	-0.211	0.234
-611.244	54.665	-0.128	-0.123
-610.230	714.507	0.029	0.077
-609.215	-30.243	0.225	0.127
-608.201	-125.412	0.339	-0.051
-607.186	-200.000	0.025	-0.248
-606.171	337.968	0.080	-0.154
-605.157	37.329	-0.222	0.196
-604.142	-66.065	0.206	-0.082
-603.128	457.982	0.104	-0.230
-602.113	-21.594	-0.254	0.154
-601.098	81.592	-0.160	0.172
-600.084	800.000	0.032	0.096
-599.069	-94.640	0.305	-0.082
-598.055	229.242	-0.260	-0.420
-597.040	-200.000	0.002	-0.123
-596.025	-26.916	-0.336	0.195
-595.011	800.000	-0.090	0.263
-593.996	353.051	-0.116	0.228
-592.982	394.346	-0.060	0.125
-591.967	56.312	0.190	0.184
-590.952	-29.180	0.170	-0.096
-589.938	236.337	-0.171	-0.280
-588.923	-42.044	-0.380	-0.193
-587.909	66.225	0.160	0.161
-586.894	-89.921	-0.207	0.060
-585.879	-126.273	0.250	0.037
-584.865	269.227	-0.130	-0.227
-583.850	9.272	0.225	-0.169
-582.836	-22.203	-0.164	-0.099
-581.821	-191.932	0.213	0.002
-580.806	17.331	0.188	-0.148
-579.792	-200.000	0.029	0.258
-578.777	-2.257	-0.190	-0.132
-577.763	-68.367	-0.173	-0.067
-576.748	115.257	0.088	-0.107
-575.733	-109.533	-0.203	-0.043
-574.719	234.100	0.228	-0.373
-573.704	66.128	0.209	0.211
-572.690	134.939	-0.220	-0.283
-571.675	787.536	0.174	-0.472
-570.661	-200.000	-0.018	0.386
-569.646	-16.063	0.394	-0.248
-568.631	-64.417	-0.290	0.117
-567.617	55.140	-0.161	-0.154
-566.602	-200.000	0.006	-0.147
-565.588	-139.787	0.188	-0.020
-564.573	-115.041	-0.227	0.043
-563.558	-36.265	0.221	0.118
-562.544	-200.000	0.001	-0.150
-561.529	800.000	-0.101	-0.301
-560.515	411.973	-0.091	-0.192
-559.500	-131.088	0.145	0.019
-558.485	-102.733	0.259	0.061
-557.471	22.582	-0.423	0.343
-556.456	157.317	-0.163	-0.224
-555.442	-200.000	-0.007	0.235
-554.427	-200.000	0.015	-0.140
-553.412	759.264	0.090	0.241
-552.398	-101.615	-0.233	-0.056
-551.383	800.000	-0.017	-0.059
-550.369	73.842	0.160	-0.166
-549.354	800.000	-0.025	0.087
-548.339	-66.022	0.240	-0.095
-547.325	800.000	0.051	0.152
-546.310	-48.266	-0.197	-0.094
-545.296	128.258	-0.083	0.104
-544.281	-16.830	-0.032	0.020
-543.266	2.612	0.106	0.076
-542.252	-177.476	0.198	-0.005
-541.237	-21.318	0.325	0.197
-540.223	-30.409	-0.254	0.142
-539.208	11.313	0.148	0.112
-538.193	-200.000	-0.010	0.074
-537.179	-83.819	0.279	0.088
-536.164	-39.519	0.185	0.096
-535.150	-53.930	-0.181	-0.082
-534.135	-200.000	-0.019	0.176
-533.121	-200.000	-0.031	0.433
-532.106	-99.135	0.129	0.032
-531.091	-19.497	-0.231	-0.142
-530.077	-131.200	-0.197	-0.026
-529.062	-12.333	-0.038	0.024
-528.048	-200.000	-0.012	-0.104
-527.033	-94.292	0.194	-0.053
-526.018	-87.499	0.109	0.033
-525.004	-200.000	0.046	-0.261
-523.989	-29.138	0.156	0.088
-522.975	338.210	-0.093	-0.178
-521.960	11.801	-0.139	0.106
-520.945	167.179	-0.047	0.066
-519.931	-187.436	-0.040	0.001
-518.916	24.135	0.144	0.118
-517.902	254.590	-0.160	0.270
-516.887	67.230	-0.073	-0.073
-515.872	-73.810	-0.220	0.079
-514.858	-200.000	0.031	-0.264
-513.843	748.564	0.112	0.300
-512.829	-200.000	-0.000	-0.125
-511.814	-120.483	0.203	-0.034
-510.799	-200.000	-0.061	-0.284
-509.785	88.454	-0.282	-0.310
-508.770	90.560	0.184	-0.204
-507.756	77.977	0.277	-0.292
-506.741	-163.480	0.111	-0.005
-505.726	-200.000	0.017	-0.112
-504.712	-31.863	-0.212	0.118
-503.697	-200.000	0.043	0.358
-502.683	-200.000	-0.012	-0.340
-501.668	800.000	0.054	0.190
-500.653	-167.555	0.061	-0.002
-499.639	56.376	0.436	-0.419
-498.624	19.438	-0.110	-0.088
-497.610	-56.059	-0.080	0.035
-496.595	-86.512	0.248	0.075
-495.581	-61.898	-0.123	-0.051
-494.566	-102.161	0.369	0.088
-493.551	-50.010	-0.207	0.097
-492.537	-93.420	0.251	-0.069
-491.522	-143.487	0.111	0.010
-490.508	-49.722	-0.151	-0.071
-489.493	-200.000	-0.006	0.331
-488.478	-200.000	0.002	-0.275
-487.464	84.588	0.111	0.120
-486.449	294.503	-0.203	0.366
-485.435	777.348	0.078	0.211
-484.420	-155.278	-0.372	-0.024
-483.405	185.386	0.070	-0.103
-482.391	6.977	0.201	0.148
-481.376	408.456	-0.157	0.328
-480.362	-200.000	0.002	-0.302
-479.347	317.788	0.160	-0.298
-478.332	-98.131	-0.336	-0.085
-477.318	154.179	-0.112	0.152
-476.303	195.256	0.193	0.289
-475.289	348.201	-0.050	-0.098
-474.274	-140.585	0.191	0.020
-473.259	4.007	-0.055	0.040
-472.245	68.410	0.231	0.234
-471.230	-101.831	0.154	-0.037
-470.216	-156.641	-0.468	0.029
-469.201	-99.138	-0.125	-0.031
-468.186	19.950	-0.062	-0.050
-467.172	8.269	0.122	0.090
-466.157	207.463	-0.134	0.207
-465.143	76.552	-0.132	0.138
-464.128	748.266	-0.047	-0.124
-463.113	-108.520	-0.315	-0.067
-462.099	318.027	0.082	-0.154
-461.084	80.446	0.120	0.127
-460.070	-160.390	0.171	-0.009
-459.055	207.471	0.147	-0.227
-458.040	30.320	0.105	0.089
-457.026	13.037	0.376	0.287
-456.011	-104.210	-0.131	-0.030
-454.997	-200.000	-0.045	0.355
-453.982	-200.000	-0.032	-0.265
-452.968	-35.649	-0.166	-0.089
-451.953	-127.323	-0.356	-0.051
-450.938	800.000	0.043	0.167
-449.924	-189.079	0.526	0.006
-448.909	405.116	0.070	-0.146
-447.895	12.495	-0.223	0.169
-446.880	4.135	-0.102	-0.073
-445.865	-200.000	-0.036	-0.337
-444.851	191.203	-0.066	-0.098
-443.836	-200.000	0.025	-0.212
-442.822	192.499	-0.075	0.112
-441.807	-68.634	-0.101	-0.039
-440.792	47.260	0.277	-0.254
-439.778	-164.880	0.268	0.012
-438.763	-124.294	0.156	-0.024
-437.749	-60.768	-0.367	-0.153
-436.734	613.960	0.039	-0.097
-435.719	-58.752	-0.447	-0.191
-434.705	800.000	0.080	-0.247
-433.690	29.955	-0.038	0.032
-432.676	-45.020	0.255	-0.125
-431.661	-50.763	-0.159	-0.074
-430.646	-48.835	-0.230	-0.109
-429.632	325.496	0.095	0.179
-428.617	-200.000	0.010	-0.232
-427.603	-60.351	0.437	0.183
-426.588	-200.000	-0.039	-0.187
-425.573	59.053	-0.131	-0.127
-424.559	800.000	0.070	0.277
-423.544	-200.000	0.077	0.512
-422.530	-200.000	-0.001	0.560
-421.515	-32.308	-0.259	-0.143
-420.500	-47.840	0.093	0.045
-419.486	800.000	-0.018	-0.065
-418.471	126.510	-0.208	0.259
-417.457	33.205	-0.134	0.114
-416.442	-151.656	-0.213	0.016
-415.428	-150.998	0.184	-0.014
-414.413	-2.907	-0.098	-0.068
-413.398	-42.099	-0.416	-0.210
-412.384	-200.000	0.038	0.249
-411.369	-70.310	0.116	-0.043
-410.355	-156.384	0.288	-0.018
-409.340	-53.262	-0.345	0.156
-408.325	163.120	-0.069	0.095
-407.311	-200.000	-0.001	0.054
-406.296	18.184	-0.200	0.157
-405.282	-40.039	0.254	-0.130
-404.267	175.948	0.121	0.173
-403.252	-200.000	-0.029	0.194
-402.238	-143.034	-0.230	0.022
-401.223	-100.437	-0.250	0.061
-400.209	49.488	-0.216	-0.200
-399.194	-81.795	-0.158	0.051
-398.179	800.000	0.079	0.267
-397.165	68.523	-0.113	-0.114
-396.150	800.000	0.021	-0.085
-395.136	155.443	0.142	-0.192
-394.121	257.034	-0.148	-0.251
-393.106	-167.206	0.200	0.008
-392.092	235.555	-0.261	0.424
-391.077	-110.461	0.170	0.035
-390.063	110.102	0.168	0.199
-389.048	-200.000	0.024	-0.197
-388.033	-78.739	0.278	-0.093
-387.019	-95.756	0.185	-0.049
-386.004	-200.000	-0.016	0.122
-384.990	-200.000	-0.003	0.052
-383.975	800.000	-0.128	-0.536
-382.960	0.445	0.327	0.230
-381.946	800.000	-0.043	-0.138
-380.931	800.000	-0.090	-0.250
-379.917	39.999	0.128	0.113
-378.902	-70.181	0.076	-0.028
-377.888	-103.073	0.094	-0.022
-376.873	-23.863	-0.061	-0.036
-375.858	13.213	-0.043	0.033
-374.844	-170.516	-0.194	0.007
-373.829	800.000	-0.157	-0.428
-372.815	6.468	0.100	-0.073
-371.800	662.764	0.033	0.084
-370.785	-200.000	0.036	0.191
-369.771	73.239	0.133	-0.136
-368.756	499.830	0.013	0.030
-367.742	19.240	-0.115	0.090
-366.727	133.528	-0.158	0.201
-365.712	-200.000	0.001	0.034
-364.698	-25.749	-0.098	0.057
-363.683	-89.657	-0.291	-0.084
-362.669	-113.854	-0.274	0.052
-361.654	251.382	0.254	0.424
-360.639	34.623	-0.183	-0.157
-359.625	800.000	0.023	0.081
-358.610	-200.000	0.025	0.352
-357.596	800.000	0.054	0.170
-356.581	221.412	-0.062	-0.097
-355.566	142.043	-0.057	-0.075
-354.552	-200.000	0.003	-0.061
-353.537	-200.000	-0.054	-0.319
-352.523	-200.000	-0.032	-0.350
-351.508	268.132	-0.116	-0.200
-350.493	342.733	0.046	0.088
-349.479	114.363	-0.053	0.064
-348.464	118.906	-0.056	0.068
-347.450	18.421	0.153	0.120
-346.435	-108.042	-0.255	0.054
-345.420	-115.088	0.256	-0.048
-344.406	531.079	0.058	0.134
-343.391	24.809	0.406	-0.330
-342.377	-26.210	-0.171	-0.098
-341.362	800.000	-0.066	0.230
-340.348	-200.000	0.012	-0.263
-339.333	356.032	-0.060	0.117
-338.318	-200.000	-0.017	-0.125
-337.304	-116.543	0.123	-0.022
-336.289	654.489	-0.190	-0.479
-335.275	139.370	-0.130	-0.168
-334.260	-46.191	-0.392	0.190
-333.245	744.563	0.039	-0.104
-332.231	-200.000	0.020	-0.273
-331.216	559.962	-0.131	0.310
-330.202	800.000	-0.109	0.363
-329.187	-16.641	0.266	-0.166
-328.172	-200.000	0.036	0.217
-327.158	-154.211	0.084	-0.006
-326.143	-93.859	0.010	0.003
-325.129	-29.536	0.141	0.079
-324.114	582.895	-0.177	0.426
-323.099	96.403	-0.174	0.195
-322.085	-99.339	0.071	0.018
-321.070	-43.869	-0.134	0.066
-320.056	-32.163	0.121	0.067
-319.041	-55.577	0.311	0.137
-318.026	-200.000	0.010	-0.170
-317.012	123.046	0.077	-0.094
-315.997	-200.000	0.029	-0.183
-314.983	65.510	0.166	-0.165
-313.968	-200.000	0.004	-0.094
-312.953	-200.000	-0.097	0.476
-311.939	800.000	0.029	0.086
-310.924	-118.869	-0.276	-0.048
-309.910	-108.041	-0.033	0.007
-308.895	-63.094	-0.314	-0.127
-307.880	43.362	-0.253	-0.227
-306.866	-49.476	-0.094	0.044
-305.851	194.515	-0.299	0.445
-304.837	-200.000	0.006	0.153
-303.822	800.000	0.125	-0.376
-302.807	-200.000	0.003	-0.186
-301.793	26.621	0.044	-0.036
-300.778	94.449	-0.115	-0.128
-299.764	-122.483	-0.099	0.016
-298.749	-24.563	-0.203	0.118
-297.735	-48.277	-0.199	-0.094
-296.720	450.840	-0.101	-0.220
-295.705	-200.000	0.002	0.243
-294.691	-68.250	-0.262	0.100
-293.676	-81.674	-0.380	-0.122
-292.662	-200.000	0.013	0.267
-291.647	108.274	0.015	-0.017
-290.632	-67.754	-0.219	0.084
-289.618	-5.487	0.220	0.148
-288.603	-72.576	-0.095	-0.034
-287.589	-162.248	-0.158	-0.008
-286.574	427.124	-0.065	-0.137
-285.559	-72.239	0.053	-0.019
-284.545	-200.000	0.045	-0.252
-283.530	184.430	0.236	0.342
-282.516	123.493	0.166	0.204
-281.501	399.673	0.041	-0.084
-280.486	1.909	-0.142	-0.100
-279.472	410.885	0.131	0.272
-278.457	112.127	-0.120	-0.142
-277.443	-151.418	0.352	-0.026
-276.428	-200.000	0.001	0.009
-275.413	203.704	-0.059	0.089
-274.399	-96.319	0.069	0.018
-273.384	-28.059	0.119	-0.067
-272.370	-157.807	0.282	0.016
-271.355	57.515	0.107	-0.103
-270.340	-107.528	0.200	0.043
-269.326	48.666	-0.254	0.234
-268.311	-71.028	-0.234	0.086
-267.297	-200.000	0.056	0.289
-266.282	-166.287	0.178	0.007
-265.267	-68.101	0.091	-0.035
-264.253	-129.288	-0.167	-0.023
-263.238	-57.932	-0.270	-0.115
-262.224	591.032	0.053	-0.127
-261.209	-200.000	0.085	0.390
-260.195	-101.348	-0.215	-0.051
-259.180	527.489	0.027	0.062
-258.165	-200.000	0.007	0.252
-257.151	103.941	0.136	0.157
-256.136	-126.392	0.196	-0.029
-255.122	-76.143	0.219	-0.076
-254.107	-200.000	0.005	-0.139
-253.092	-200.000	0.025	0.228
-252.078	-126.632	0.359	0.052
-251.063	-200.000	0.028	0.199
-250.049	-153.774	0.246	-0.017
-249.034	139.366	-0.102	-0.131
-248.019	-35.634	0.288	-0.153
-247.005	-70.159	0.181	-0.067
-245.990	103.065	0.200	0.229
-244.976	-16.638	0.023	-0.014
-243.961	-155.947	0.230	-0.014
-242.946	-11.680	0.219	-0.141
-241.932	432.592	0.088	-0.187
-240.917	-154.032	-0.067	-0.004
-239.903	-24.888	-0.322	0.187
-238.888	-34.396	0.122	-0.066
-237.873	-67.934	0.057	0.022
-236.859	-200.000	-0.044	-0.214
-235.844	800.000	-0.053	-0.201
-234.830	494.811	0.131	-0.293
-233.815	185.678	0.092	-0.133
-232.800	-189.435	-0.076	0.001
-231.786	358.485	0.029	0.056
-230.771	588.548	0.090	-0.216
-229.757	579.622	-0.115	0.275
-228.742	107.970	0.120	-0.140
-227.727	114.824	0.198	-0.236
-226.713	-54.327	-0.100	-0.044
-225.698	17.844	0.230	0.179
-224.684	363.280	-0.063	0.123
-223.669	274.932	0.238	0.412
-222.655	-127.117	-0.214	0.031
-221.640	33.927	0.064	0.055
-220.625	-79.994	-0.323	-0.106
-219.611	-176.477	-0.231	-0.006
-218.596	-126.720	-0.175	0.025
-217.582	800.000	-0.028	-0.099
-216.567	-28.658	0.274	-0.154
-215.552	5.624	-0.224	-0.162
-214.538	-200.000	-0.042	-0.359
-213.523	406.987	0.102	-0.212
-212.509	-67.212	-0.054	0.021
-211.494	-126.480	0.037	0.005
-210.479	35.612	0.212	0.182
-209.465	79.396	0.199	-0.209
-208.450	166.770	0.041	-0.057
-207.436	517.786	0.117	0.267
-206.421	800.000	-0.063	0.179
-205.406	41.919	-0.197	0.174
-204.392	136.204	0.178	-0.227
-203.377	-64.570	-0.205	-0.081
-202.363	126.559	0.041	-0.050
-201.348	-200.000	-0.060	-0.264
-200.333	532.263	0.132	0.304
-199.319	-21.658	-0.155	0.092
-198.304	-32.810	-0.346	0.188
-197.290	-200.000	-0.044	0.201
-196.275	-200.000	-0.003	0.025
-195.260	-70.652	-0.121	-0.045
-194.246	800.000	0.023	-0.091
-193.231	-11.152	0.137	0.088
-192.217	304.929	-0.173	0.315
-191.202	71.753	-0.121	0.123
-190.187	-120.126	0.252	-0.042
-189.173	-200.000	0.010	0.189
-188.158	72.017	0.291	0.296
-187.144	-200.000	-0.024	0.282
-186.129	800.000	-0.028	0.083
-185.114	-2.155	-0.214	-0.147
-184.100	-118.979	-0.266	0.046
-183.085	-68.395	-0.312	-0.118
-182.071	468.770	0.052	-0.113
-181.056	-115.135	-0.311	0.057
-180.042	-113.149	0.136	0.026
-179.027	583.856	-0.128	-0.306
-178.012	800.000	0.124	0.373
-176.998	-24.661	0.201	-0.116
-175.983	51.012	0.120	0.111
-174.969	384.424	0.124	0.249
-173.954	-200.000	-0.010	0.090
-172.939	-56.761	0.278	-0.120
-171.925	104.645	-0.136	0.156
-170.910	54.572	0.283	0.266
-169.896	24.166	0.021	-0.017
-168.881	44.797	-0.154	-0.138
-167.866	800.000	0.098	-0.370
-166.852	107.839	0.152	0.176
-165.837	-200.000	0.001	-0.102
-164.823	142.889	-0.051	-0.066
-163.808	277.329	-0.106	-0.183
-162.793	343.809	0.076	0.146
-161.779	278.640	0.032	0.056
-160.764	228.287	0.160	0.254
-159.750	27.429	0.362	-0.297
-158.735	167.351	-0.088	0.122
-157.720	213.922	0.206	0.318
-156.706	783.757	0.101	0.269
-155.691	114.946	-0.173	-0.206
-154.677	-200.000	0.069	-0.465
-153.662	-200.000	-0.063	-0.311
-152.647	-58.841	0.060	0.025
-151.633	79.189	-0.087	-0.091
-150.618	800.000	0.097	0.276
-149.604	189.878	-0.024	0.035
-148.589	634.216	-0.100	-0.248
-147.574	513.336	0.121	-0.275
-146.560	21.966	0.440	0.350
-145.545	37.128	0.220	0.190
-144.531	-200.000	-0.097	-0.441
-143.516	-200.000	0.008	-0.053
-142.502	-98.621	0.071	0.018
-141.487	-15.280	0.057	0.035
-140.472	-70.639	0.207	0.076
-139.458	-38.183	0.217	-0.112
-138.443	-47.928	0.227	-0.107
-137.429	122.159	0.081	0.099
-136.414	800.000	0.085	-0.265
-135.399	114.981	-0.079	-0.094
-134.385	-81.188	-0.178	-0.057
-133.370	-200.000	0.049	-0.363
-132.356	-22.709	0.205	-0.121
-131.341	-200.000	-0.070	0.365
-130.326	-200.000	0.009	0.275
-129.312	546.886	-0.147	0.342
-128.297	-43.347	-0.265	-0.131
-127.283	45.867	0.199	-0.180
-126.268	-44.879	0.261	-0.127
-125.253	-135.211	-0.310	-0.036
-124.239	147.011	-0.166	0.218
-123.224	-9.138	-0.383	0.249
-122.210	394.425	-0.116	-0.235
-121.195	88.202	-0.141	0.153
