DTS Sentinel unit serial number:	SN413079Multiplexer serial number:	ORYXHardware model number:	OX4-SRSoftware version number:	ORYX F/W v4.00 Oryx Data Collector v3.7.2.0data status	okinstallation	princeton_trtdifferential loss correction	single-endedforward channel	channel 2reverse channel	N/Adate	2019/09/17time	00:03:35forward acquisition time	60.00reverse acquisition time	0.00gamma	496.2192k internal	0.2330k external	0.2330temperature offset calibration	0.9974default loss term (dB/km)	0.3790temperature slope calibration	1.0000multiplexer offset coefficient	1.0000multiplexer slope coefficient	1.0000fibre end	0.00T internal ref (°C)	29.58T ext. ref 1 (°C)	0.09T ext. ref 2 (°C)	23.95length (m)	temperature (°C)	Stokes	anti-Stokes-747.200	84.548	-0.154	-0.170
-746.185	90.437	-0.168	0.190
-745.171	24.140	0.136	-0.113
-744.156	800.000	-0.095	0.273
-743.142	11.518	-0.165	0.128
-742.127	141.884	-0.341	0.455
-741.112	268.881	0.096	0.170
-740.098	-200.000	-0.019	0.245
-739.083	-200.000	-0.032	0.212
-738.069	386.406	0.132	0.275
-737.054	42.866	0.119	0.109
-736.039	20.064	-0.159	-0.129
-735.025	-128.886	-0.208	-0.029
-734.010	-200.000	-0.009	0.091
-732.996	-200.000	0.012	-0.078
-731.981	34.263	-0.018	0.016
-730.966	-8.714	-0.323	-0.218
-729.952	-89.105	0.158	-0.047
-728.937	-124.456	0.191	0.030
-727.923	-67.894	-0.366	0.144
-726.908	-99.178	-0.326	-0.083
-725.894	81.340	-0.149	0.163
-724.879	563.004	-0.141	-0.344
-723.864	-200.000	0.034	-0.161
-722.850	33.878	0.146	0.128
-721.835	109.860	-0.079	-0.096
-720.821	-189.026	-0.249	0.003
-719.806	-118.450	-0.135	0.024
-718.791	-9.692	-0.236	-0.158
-717.777	-80.890	-0.158	-0.053
-716.762	-36.305	0.177	0.096
-715.748	562.542	-0.035	-0.084
-714.733	-63.911	-0.305	-0.125
-713.718	467.288	0.112	-0.253
-712.704	214.249	-0.093	-0.149
-711.689	690.484	0.039	-0.102
-710.675	104.053	-0.052	-0.062
-709.660	43.829	0.089	-0.082
-708.645	81.225	-0.266	0.289
-707.631	288.258	0.025	-0.045
-706.616	280.448	-0.098	-0.177
-705.602	-200.000	0.016	-0.174
-704.587	-200.000	-0.021	0.209
-703.572	-47.710	-0.110	0.054
-702.558	-55.403	0.162	0.073
-701.543	146.840	0.171	0.232
-700.529	-50.075	-0.266	-0.127
-699.514	610.621	-0.103	-0.259
-698.499	30.104	0.029	0.025
-697.485	35.691	-0.141	0.124
-696.470	-119.477	-0.062	0.011
-695.456	44.700	-0.148	-0.137
-694.441	127.141	-0.139	0.177
-693.426	104.696	0.142	0.168
-692.412	-139.598	0.218	0.023
-691.397	-75.309	-0.130	-0.047
-690.383	137.221	-0.117	0.154
-689.368	-185.493	-0.332	0.005
-688.354	800.000	-0.047	-0.134
-687.339	83.553	-0.317	-0.347
-686.324	-178.191	-0.190	0.004
-685.310	-142.180	0.112	0.011
-684.295	98.580	-0.331	-0.384
-683.281	-30.776	0.365	0.207
-682.266	86.761	-0.239	-0.265
-681.251	-200.000	-0.008	-0.060
-680.237	800.000	-0.034	-0.120
-679.222	-101.863	-0.105	-0.026
-678.208	800.000	0.061	-0.235
-677.193	-37.016	0.114	-0.061
-676.178	-134.898	0.430	0.052
-675.164	110.803	0.144	-0.174
-674.149	-77.021	-0.238	-0.083
-673.135	498.833	0.047	0.109
-672.120	240.634	0.048	-0.081
-671.105	-100.905	-0.220	-0.054
-670.091	414.393	0.152	-0.325
-669.076	39.147	-0.098	-0.088
-668.062	367.744	-0.113	0.229
-667.047	-41.120	-0.066	-0.034
-666.032	210.801	0.159	0.251
-665.018	-95.915	0.457	0.122
-664.003	-39.234	-0.207	0.109
-662.989	-51.204	-0.166	0.078
-661.974	679.631	-0.045	-0.118
-660.959	86.901	0.061	-0.068
-659.945	485.019	0.076	0.173
-658.930	342.031	-0.079	0.156
-657.916	-188.752	-0.310	-0.004
-656.901	114.400	-0.228	0.278
-655.886	-145.243	0.220	-0.020
-654.872	-145.182	0.123	-0.011
-653.857	-24.408	0.175	-0.105
-652.843	-200.000	0.006	-0.222
-651.828	-162.797	-0.138	-0.007
-650.814	-51.953	-0.475	-0.221
-649.799	-42.154	0.217	0.111
-648.784	366.260	0.025	-0.050
-647.770	-200.000	0.055	-0.260
-646.755	174.834	-0.143	-0.208
-645.741	301.535	0.033	0.062
-644.726	234.417	-0.178	0.294
-643.711	207.881	-0.185	0.290
-642.697	-200.000	0.026	-0.115
-641.682	-194.680	-0.307	0.002
-640.668	520.676	0.133	0.314
-639.653	337.042	0.082	-0.160
-638.638	11.590	-0.096	-0.074
-637.624	317.234	-0.136	-0.257
-636.609	-153.368	0.198	0.014
-635.595	-200.000	0.031	0.180
-634.580	-85.517	0.093	-0.029
-633.565	-53.398	0.199	0.091
-632.551	40.342	-0.157	0.142
-631.536	-117.242	0.082	0.015
-630.522	-86.072	-0.111	0.034
-629.507	800.000	0.057	0.197
-628.492	-149.035	-0.183	-0.015
-627.478	-103.105	-0.078	-0.018
-626.463	800.000	-0.087	-0.345
-625.449	536.878	-0.104	0.247
-624.434	-69.503	-0.160	0.061
-623.419	-200.000	0.007	-0.135
-622.405	-200.000	0.014	0.453
-621.390	66.643	0.069	-0.071
-620.376	800.000	0.022	-0.074
-619.361	620.884	0.113	-0.285
-618.346	800.000	0.058	-0.218
-617.332	-87.722	0.169	0.051
-616.317	-200.000	-0.010	-0.066
-615.303	-118.031	-0.173	0.031
-614.288	-16.075	0.072	0.046
-613.273	-41.599	0.208	-0.107
-612.259	800.000	0.068	0.204
-611.244	74.205	0.194	-0.204
-610.230	-200.000	-0.016	-0.267
-609.215	-170.354	0.178	0.006
-608.201	800.000	-0.061	0.184
-607.186	800.000	-0.086	0.306
-606.171	50.886	-0.261	0.248
-605.157	-200.000	0.019	0.151
-604.142	-200.000	0.018	-0.149
-603.128	667.868	-0.075	-0.193
-602.113	800.000	0.093	-0.269
-601.098	-101.440	-0.322	0.079
-600.084	-1.595	0.155	-0.109
-599.069	209.004	0.110	-0.173
-598.055	-135.439	0.259	-0.031
-597.040	-56.496	0.102	-0.045
-596.025	-200.000	-0.039	-0.229
-595.011	-200.000	0.040	-0.238
-593.996	-120.578	-0.297	-0.050
-592.982	-200.000	-0.062	0.317
-591.967	-59.045	0.177	0.077
-590.952	-200.000	0.002	-0.050
-589.938	89.473	0.158	-0.176
-588.923	-91.418	-0.373	-0.107
-587.909	-5.643	-0.104	-0.071
-586.894	-56.770	-0.026	0.011
-585.879	108.493	0.235	-0.281
-584.865	800.000	-0.118	0.330
-583.850	749.646	-0.122	0.329
-582.836	76.309	-0.139	-0.148
-581.821	-200.000	-0.043	0.387
-580.806	316.802	-0.115	0.217
-579.792	226.813	0.110	-0.178
-578.777	54.316	0.207	0.200
-577.763	-132.879	-0.131	-0.017
-576.748	168.296	-0.076	0.108
-575.733	-200.000	0.021	-0.175
-574.719	30.224	-0.161	0.137
-573.704	224.660	-0.113	-0.183
-572.690	-135.165	-0.251	-0.030
-571.675	800.000	-0.030	-0.127
-570.661	-67.508	0.077	-0.030
-569.646	-200.000	0.000	-0.264
-568.631	-154.259	0.137	0.009
-567.617	-86.872	0.046	-0.014
-566.602	-35.138	0.079	-0.043
-565.588	149.296	-0.070	-0.095
-564.573	241.042	-0.276	-0.460
-563.558	-199.309	0.317	0.002
-562.544	693.601	0.074	0.195
-561.529	-54.292	0.309	0.140
-560.515	6.376	0.188	-0.140
-559.500	-121.583	-0.100	0.017
-558.485	-200.000	0.014	0.090
-557.471	544.942	-0.038	-0.092
-556.456	-200.000	0.015	-0.155
-555.442	529.132	0.102	0.241
-554.427	-111.640	0.282	0.057
-553.412	25.923	-0.132	0.110
-552.398	800.000	-0.120	-0.363
-551.383	800.000	-0.045	0.171
-550.369	-67.543	0.135	0.053
-549.354	-40.547	0.416	-0.216
-548.339	-138.712	-0.465	-0.051
-547.325	-68.009	-0.072	0.028
-546.310	-200.000	-0.013	0.279
-545.296	39.089	0.225	0.201
-544.281	148.506	0.228	-0.308
-543.266	98.223	0.104	-0.120
-542.252	-157.301	0.245	-0.015
-541.237	800.000	0.082	-0.229
-540.223	-200.000	0.049	0.292
-539.208	800.000	0.096	-0.402
-538.193	72.281	0.165	-0.171
-537.179	45.613	-0.076	0.070
-536.164	800.000	-0.004	0.014
-535.150	-114.476	0.372	-0.071
-534.135	797.472	-0.035	0.096
-533.121	258.965	-0.046	0.079
-532.106	-18.886	0.035	-0.022
-531.091	198.507	0.052	-0.079
-530.077	-200.000	-0.008	0.092
-529.062	50.162	-0.097	-0.091
-528.048	800.000	0.083	0.275
-527.033	-90.490	-0.079	0.023
-526.018	203.383	0.111	-0.172
-525.004	476.289	-0.056	0.127
-523.989	800.000	-0.056	0.155
-522.975	-112.078	-0.050	-0.010
-521.960	4.511	0.183	-0.134
-520.945	-125.783	0.141	0.021
-519.931	-200.000	-0.031	0.155
-518.916	800.000	-0.054	-0.150
-517.902	-40.702	0.198	0.102
-516.887	-115.802	-0.343	-0.064
-515.872	-86.667	-0.042	-0.013
-514.858	-200.000	-0.005	-0.444
-513.843	26.649	-0.141	-0.118
-512.829	51.145	0.027	0.025
-511.814	-106.828	0.189	0.042
-510.799	506.819	-0.048	0.112
-509.785	9.376	-0.267	-0.202
-508.770	800.000	0.124	0.378
-507.756	-23.354	0.131	-0.079
-506.741	115.288	0.115	-0.140
-505.726	12.101	-0.243	0.186
-504.712	-42.963	-0.171	0.087
-503.697	-110.530	0.132	-0.027
-502.683	568.401	-0.137	0.332
-501.668	-200.000	-0.023	0.275
-500.653	353.574	0.120	-0.238
-499.639	800.000	0.035	0.136
-498.624	-60.669	0.146	0.062
-497.610	-130.557	0.300	0.040
-496.595	16.113	0.119	-0.094
-495.581	-8.837	-0.111	0.074
-494.566	312.367	-0.087	0.163
-493.551	22.580	0.241	0.197
-492.537	800.000	0.112	-0.313
-491.522	-200.000	0.039	-0.292
-490.508	120.131	0.105	0.130
-489.493	-136.987	0.263	0.030
-488.478	45.762	-0.093	-0.086
-487.464	-48.826	-0.065	-0.031
-486.449	19.125	-0.101	0.081
-485.435	727.431	-0.017	0.045
-484.420	-200.000	-0.010	0.094
-483.405	-52.941	-0.101	-0.046
-482.391	-200.000	-0.086	-0.507
-481.376	442.036	0.088	0.192
-480.362	314.042	-0.065	-0.122
-479.347	35.151	-0.014	-0.012
-478.332	49.161	0.073	-0.068
-477.318	373.090	0.029	0.059
-476.303	101.392	-0.137	0.159
-475.289	119.977	0.167	-0.206
-474.274	-200.000	-0.004	-0.030
-473.259	-200.000	0.009	0.263
-472.245	609.680	-0.018	0.045
-471.230	103.797	-0.283	-0.331
-470.216	-132.885	0.189	-0.024
-469.201	795.972	-0.053	0.145
-468.186	-28.892	0.203	-0.116
-467.172	-200.000	0.279	0.001
-466.157	160.550	0.141	0.196
-465.143	-62.883	-0.136	0.056
-464.128	-16.602	-0.193	-0.122
-463.113	63.509	-0.025	0.025
-462.099	147.058	0.103	-0.138
-461.084	-46.272	-0.073	-0.036
-460.070	-18.914	-0.034	-0.021
-459.055	-105.385	-0.222	0.050
-458.040	278.682	0.071	-0.126
-457.026	-107.362	0.024	-0.005
-456.011	-19.934	-0.186	-0.114
-454.997	33.284	-0.239	0.206
-453.982	-36.478	-0.195	0.104
-452.968	-167.462	0.334	-0.013
-451.953	800.000	-0.073	0.309
-450.938	-121.097	0.185	-0.031
-449.924	800.000	-0.052	0.177
-448.909	-51.403	-0.085	0.040
-447.895	-144.422	0.147	-0.014
-446.880	-70.591	-0.235	-0.088
-445.865	-200.000	0.026	0.208
-444.851	-4.614	-0.012	0.008
-443.836	-70.727	0.259	-0.097
-442.822	143.716	0.127	0.168
-441.807	95.497	-0.256	0.291
-440.792	-97.590	0.147	0.038
-439.778	86.411	-0.192	0.210
-438.763	-124.853	-0.231	0.035
-437.749	-171.101	0.060	-0.002
-436.734	22.820	0.070	0.057
-435.719	-200.000	-0.024	0.175
-434.705	-93.065	0.218	0.060
-433.690	-200.000	0.013	0.083
-432.676	-149.003	0.324	-0.026
-431.661	447.900	0.175	0.383
-430.646	44.033	-0.338	0.308
-429.632	-35.420	0.266	0.144
-428.617	-200.000	-0.004	-0.041
-427.603	-110.500	-0.107	0.022
-426.588	-38.623	0.111	-0.058
-425.573	-200.000	0.027	-0.172
-424.559	-200.000	0.006	0.106
-423.544	-166.673	0.211	-0.009
-422.530	-11.565	-0.224	0.146
-421.515	193.635	0.131	-0.197
-420.500	-22.214	0.413	-0.249
-419.486	7.353	-0.280	-0.208
-418.471	-200.000	-0.058	-0.338
-417.457	21.323	0.140	0.113
-416.442	-200.000	0.021	-0.334
-415.428	-25.468	0.122	0.072
-414.413	-63.732	0.054	0.022
-413.398	-33.362	-0.188	-0.103
-412.384	-200.000	-0.051	0.320
-411.369	146.133	0.074	-0.098
-410.355	-115.643	-0.022	0.004
-409.340	-29.606	-0.137	0.078
-408.325	-200.000	0.076	-0.480
-407.311	86.405	0.143	-0.156
-406.296	-122.954	-0.294	-0.047
-405.282	-166.847	-0.113	0.005
-404.267	46.021	-0.218	0.201
-403.252	492.678	0.091	0.207
-402.238	654.461	-0.069	0.176
-401.223	75.772	0.161	0.169
-400.209	51.627	-0.289	-0.273
-399.194	65.239	0.322	-0.324
-398.179	-168.335	0.327	0.013
-397.165	-200.000	0.009	0.138
-396.150	-154.223	0.227	-0.015
-395.136	-158.210	0.080	0.005
-394.121	64.705	-0.143	0.143
-393.106	-147.106	-0.295	-0.025
-392.092	-20.439	0.230	0.140
-391.077	-90.555	-0.242	-0.070
-390.063	110.706	-0.132	-0.158
-389.048	-200.000	-0.041	0.205
-388.033	-41.264	-0.360	0.184
-387.019	333.212	0.035	-0.068
-386.004	237.791	-0.136	-0.224
-384.990	357.943	-0.044	-0.088
-383.975	-103.494	-0.299	0.070
-382.960	-119.319	-0.295	0.051
-381.946	-14.193	-0.302	-0.193
-380.931	66.751	0.105	0.106
-379.917	85.601	0.196	-0.214
-378.902	-200.000	-0.034	-0.375
-377.888	-126.950	0.270	-0.039
-376.873	243.854	0.026	-0.043
-375.858	-200.000	-0.031	0.258
-374.844	-200.000	-0.052	-0.230
-373.829	-200.000	-0.019	0.262
-372.815	-93.472	-0.132	0.036
-371.800	103.455	-0.187	0.217
-370.785	-151.586	0.115	-0.008
-369.771	-200.000	0.066	-0.330
-368.756	-45.991	-0.170	0.083
-367.742	-200.000	0.008	-0.208
-366.727	-200.000	-0.011	0.144
-365.712	-104.268	0.443	0.102
-364.698	800.000	-0.079	0.216
-363.683	-177.392	-0.172	0.004
-362.669	77.467	0.175	-0.185
-361.654	282.589	0.096	0.170
-360.639	-200.000	-0.002	0.069
-359.625	117.464	-0.127	0.154
-358.610	125.990	-0.215	-0.270
-357.596	-51.881	-0.271	-0.125
-356.581	-200.000	0.008	0.038
-355.566	-4.763	0.207	-0.142
-354.552	-200.000	-0.407	0.001
-353.537	-200.000	-0.003	0.086
-352.523	-135.415	-0.035	-0.004
-351.508	206.952	-0.035	0.054
-350.493	800.000	-0.042	0.142
-349.479	426.019	-0.106	-0.227
-348.464	672.148	0.048	0.125
-347.450	114.223	0.057	-0.068
-346.435	-59.307	0.317	-0.135
-345.420	-200.000	-0.037	0.174
-344.406	-122.915	0.269	0.043
-343.391	-21.426	0.272	-0.164
-342.377	-35.637	0.088	-0.047
-341.362	240.819	0.051	0.084
-340.348	-79.158	-0.012	0.004
-339.333	122.514	-0.196	-0.242
-338.318	88.115	-0.115	0.126
-337.304	-33.129	-0.396	-0.218
-336.289	-61.741	0.073	-0.030
-335.275	800.000	0.068	-0.223
-334.260	216.254	0.125	-0.196
-333.245	-60.392	0.166	0.070
-332.231	688.450	0.118	0.306
-331.216	800.000	0.080	0.330
-330.202	-4.766	-0.268	0.183
-329.187	416.337	-0.106	0.225
-328.172	-73.134	0.210	0.076
-327.158	117.150	0.233	-0.284
-326.143	167.491	0.066	-0.093
-325.129	-20.254	-0.039	0.024
-324.114	10.177	0.236	0.178
-323.099	800.000	0.031	0.101
-322.085	-200.000	0.020	-0.215
-321.070	-174.384	0.412	0.012
-320.056	800.000	0.021	-0.072
-319.041	18.032	0.132	-0.105
-318.026	39.002	-0.143	0.127
-317.012	800.000	-0.014	0.051
-315.997	89.379	-0.099	-0.110
-314.983	30.993	-0.118	-0.100
-313.968	57.361	-0.256	-0.247
-312.953	-80.030	-0.193	-0.064
-311.939	70.381	0.228	-0.233
-310.924	-200.000	0.030	-0.319
-309.910	-146.801	-0.096	0.008
-308.895	800.000	-0.110	0.358
-307.880	-117.603	-0.163	-0.029
-306.866	-101.721	0.116	0.028
-305.851	800.000	-0.173	-0.479
-304.837	103.015	0.161	-0.187
-303.822	225.994	0.213	0.342
-302.807	46.561	-0.078	-0.071
-301.793	-50.096	0.227	-0.106
-300.778	237.318	-0.117	-0.192
-299.764	389.587	-0.095	-0.195
-298.749	-129.461	0.316	-0.043
-297.735	-121.529	-0.316	-0.052
-296.720	-67.662	0.175	0.068
-295.705	-200.000	-0.046	-0.366
-294.691	-91.576	-0.150	0.042
-293.676	787.537	-0.141	0.383
-292.662	297.335	0.135	0.245
-291.647	-2.537	0.220	-0.152
-290.632	-200.000	-0.017	-0.263
-289.618	0.274	0.258	-0.182
-288.603	800.000	0.069	0.194
-287.589	800.000	-0.106	0.380
-286.574	30.508	-0.451	0.381
-285.559	770.294	0.043	0.115
-284.545	-78.344	0.077	0.026
-283.530	295.769	0.118	0.215
-282.516	-69.762	-0.368	0.139
-281.501	-200.000	0.004	0.265
-280.486	800.000	0.038	-0.163
-279.472	-133.809	-0.114	0.014
-278.457	549.656	0.086	-0.204
-277.443	15.802	-0.275	-0.214
-276.428	-163.489	0.053	-0.002
-275.413	38.045	0.118	-0.104
-274.399	-137.826	-0.130	-0.014
-273.384	800.000	-0.053	0.170
-272.370	-73.634	-0.344	0.124
-271.355	-61.947	-0.110	0.045
-270.340	-53.948	0.143	-0.065
-269.326	-124.653	-0.296	-0.045
-268.311	-128.448	-0.141	-0.020
-267.297	-200.000	0.056	0.438
-266.282	-75.761	0.297	-0.104
-265.267	-200.000	-0.002	-0.234
-264.253	-200.000	-0.043	-0.429
-263.238	-58.108	-0.386	0.166
-262.224	-111.068	0.262	0.053
-261.209	-180.750	0.285	-0.006
-260.195	6.810	-0.247	-0.181
-259.180	41.739	0.063	-0.056
-258.165	800.000	-0.015	0.044
-257.151	-16.056	0.141	-0.089
-256.136	-200.000	0.073	0.343
-255.122	800.000	-0.067	-0.251
-254.107	-87.646	-0.259	0.077
-253.092	249.860	0.093	-0.155
-252.078	-173.556	0.403	-0.012
-251.063	-200.000	-0.080	0.348
-250.049	-200.000	0.003	-0.186
-249.034	98.972	0.154	-0.175
-248.019	-0.612	0.178	0.125
-247.005	800.000	-0.049	0.165
-245.990	-27.559	-0.241	-0.138
-244.976	-153.226	-0.067	0.005
-243.961	60.249	-0.100	-0.098
-242.946	17.361	0.134	0.105
-241.932	43.859	-0.132	0.119
-240.917	-85.123	0.077	0.024
-239.903	-200.000	0.029	-0.188
-238.888	-98.796	-0.448	-0.113
-237.873	-50.380	-0.200	0.093
-236.859	-153.844	-0.200	0.014
-235.844	-94.146	-0.194	-0.053
-234.830	120.768	0.125	-0.154
-233.815	-138.176	0.353	0.039
-232.800	-139.823	-0.288	0.030
-231.786	112.516	0.038	0.045
-230.771	60.304	-0.207	0.202
-229.757	800.000	0.154	0.509
-228.742	73.872	-0.162	0.168
-227.727	-105.197	-0.267	0.060
-226.713	800.000	0.033	-0.111
-225.698	141.257	-0.138	-0.181
-224.684	106.604	0.057	-0.067
-223.669	3.632	0.107	-0.077
-222.655	-78.161	-0.100	-0.034
-221.640	215.651	-0.057	-0.090
-220.625	471.799	-0.031	-0.070
-219.611	-200.000	-0.002	-0.088
-218.596	186.733	0.122	-0.179
-217.582	-200.000	0.024	-0.161
-216.567	138.958	-0.274	-0.355
-215.552	-149.082	0.459	0.036
-214.538	40.900	0.224	-0.200
-213.523	33.042	0.127	0.108
-212.509	-200.000	0.005	0.112
-211.494	-98.842	0.127	0.032
-210.479	800.000	-0.009	0.032
-209.465	110.050	-0.293	-0.346
-208.450	-42.147	-0.183	0.092
-207.436	-19.293	-0.199	0.122
-206.421	277.886	-0.011	0.019
-205.406	9.594	0.149	-0.111
-204.392	135.648	0.047	0.061
-203.377	73.729	-0.113	-0.117
-202.363	-74.615	0.129	-0.046
-201.348	-5.946	-0.160	0.108
-200.333	-76.065	0.281	-0.098
-199.319	-33.919	0.189	0.103
-198.304	-122.165	-0.296	0.048
-197.290	-200.000	-0.001	0.025
-196.275	800.000	-0.037	0.111
-195.260	0.137	-0.062	0.043
-194.246	-106.897	-0.205	0.045
-193.231	-200.000	-0.041	-0.227
-192.217	-110.189	0.422	0.087
-191.202	755.108	0.083	0.222
-190.187	5.980	0.513	0.374
-189.173	-98.188	0.277	-0.070
-188.158	482.474	0.042	-0.093
-187.144	155.088	-0.072	-0.097
-186.129	800.000	-0.055	-0.157
-185.114	-150.618	0.314	0.024
-184.100	-19.043	-0.292	-0.179
-183.085	37.646	-0.214	0.187
-182.071	-200.000	-0.050	-0.228
-181.056	-200.000	0.015	-0.075
-180.042	514.554	-0.094	0.216
-179.027	110.296	-0.153	0.181
-178.012	66.488	0.284	0.284
-176.998	326.214	-0.096	-0.181
-175.983	4.615	0.386	0.279
-174.969	-157.844	-0.213	-0.012
-173.954	-167.948	-0.147	0.006
-172.939	303.859	-0.188	0.343
-171.925	800.000	0.114	0.404
-170.910	-200.000	0.011	-0.235
-169.896	105.081	0.124	-0.144
-168.881	-10.090	-0.122	0.080
-167.866	-136.074	-0.233	0.027
-166.852	-104.014	-0.280	0.064
-165.837	223.219	-0.101	0.161
-164.823	-50.473	-0.131	0.061
-163.808	-200.000	-0.066	-0.584
-162.793	200.764	0.133	-0.201
-161.779	800.000	0.049	0.179
-160.764	-200.000	-0.011	-0.178
-159.750	403.501	0.115	0.239
-158.735	-200.000	0.024	0.200
-157.720	74.429	-0.221	0.228
-156.706	65.517	0.325	0.323
-155.691	103.258	0.119	0.137
-154.677	-200.000	0.006	-0.187
-153.662	40.385	0.119	0.105
-152.647	800.000	-0.070	-0.192
-151.633	-87.251	-0.173	0.052
-150.618	-50.073	-0.251	0.117
-149.604	-127.770	0.142	0.020
-148.589	-137.953	-0.231	0.025
-147.574	800.000	-0.051	-0.184
-146.560	800.000	0.070	-0.272
-145.545	12.835	0.168	0.128
-144.531	-200.000	-0.008	0.287
-143.516	56.295	-0.046	0.044
-142.502	123.150	0.122	0.150
-141.487	-59.158	-0.292	-0.124
-140.472	-111.523	-0.327	0.065
-139.458	-20.532	-0.205	0.124
-138.443	800.000	0.064	-0.222
-137.429	593.881	-0.065	0.159
-136.414	20.632	0.273	0.217
-135.399	-131.272	0.250	0.033
-134.385	-200.000	-0.003	0.323
-133.370	14.851	0.353	0.272
-132.356	-64.661	-0.097	-0.039
-131.341	-86.867	-0.053	0.016
-130.326	-163.313	-0.311	-0.015
-129.312	49.322	0.187	-0.173
-128.297	-200.000	-0.034	0.208
-127.283	1.747	-0.069	-0.049
-126.268	-116.359	0.217	-0.040
-125.253	149.355	-0.154	-0.204
-124.239	136.917	0.069	0.088
-123.224	245.317	0.059	-0.098
-122.210	-174.111	-0.244	0.007
-121.195	139.319	-0.117	0.151
