DTS Sentinel unit serial number:	SN413079Multiplexer serial number:	ORYXHardware model number:	OX4-SRSoftware version number:	ORYX F/W v4.00 Oryx Data Collector v3.7.2.0data status	okinstallation	princeton_trtdifferential loss correction	single-endedforward channel	channel 2reverse channel	N/Adate	2019/09/12time	14:37:11forward acquisition time	60.00reverse acquisition time	0.00gamma	496.2192k internal	0.2301k external	0.2301temperature offset calibration	1.0087default loss term (dB/km)	0.3790temperature slope calibration	1.0000multiplexer offset coefficient	1.0000multiplexer slope coefficient	1.0000fibre end	0.00T internal ref (°C)	40.06T ext. ref 1 (°C)	2.28T ext. ref 2 (°C)	36.22length (m)	temperature (°C)	Stokes	anti-Stokes-747.200	-65.708	-0.127	0.052
-746.185	99.144	0.244	0.288
-745.171	539.712	-0.008	-0.019
-744.156	107.264	-0.088	-0.107
-743.142	-18.857	0.087	-0.055
-742.127	-64.560	-0.431	0.178
-741.112	-200.000	-0.024	-0.130
-740.098	-151.198	0.446	-0.034
-739.083	-200.000	-0.070	-0.345
-738.069	800.000	-0.136	0.517
-737.054	226.685	0.039	-0.065
-736.039	-50.686	0.169	0.081
-735.025	-12.134	-0.051	0.034
-734.010	800.000	-0.110	0.333
-732.996	-4.880	-0.131	0.092
-731.981	759.660	0.170	0.470
-730.966	7.738	-0.102	0.078
-729.952	137.928	-0.162	-0.217
-728.937	164.068	-0.191	0.275
-727.923	-200.000	0.037	0.246
-726.908	-147.550	-0.348	0.030
-725.894	-14.469	0.294	-0.193
-724.879	-200.000	-0.057	-0.404
-723.864	69.433	0.153	0.160
-722.850	17.418	-0.361	-0.292
-721.835	-132.341	0.152	0.020
-720.821	800.000	0.062	-0.232
-719.806	800.000	0.069	0.302
-718.791	800.000	-0.054	0.203
-717.777	377.223	0.090	-0.187
-716.762	-200.000	0.013	-0.099
-715.748	494.970	-0.036	-0.084
-714.733	-200.000	-0.010	0.263
-713.718	-47.923	0.100	0.049
-712.704	189.554	-0.132	-0.201
-711.689	-21.004	-0.262	-0.163
-710.675	-200.000	0.035	0.325
-709.660	-200.000	-0.054	0.283
-708.645	-83.910	-0.242	0.079
-707.631	394.117	-0.038	-0.081
-706.616	-200.000	-0.010	0.325
-705.602	375.229	-0.109	-0.226
-704.587	27.646	-0.268	0.229
-703.572	109.043	-0.088	0.107
-702.558	97.365	-0.148	-0.173
-701.543	114.580	-0.282	0.350
-700.529	155.354	-0.222	-0.311
-699.514	-91.962	0.108	-0.031
-698.499	-200.000	0.021	-0.420
-697.485	-200.000	0.007	-0.222
-696.470	70.786	-0.165	-0.174
-695.456	-14.369	0.089	0.059
-694.441	344.104	0.079	-0.159
-693.426	-10.794	0.292	-0.196
-692.412	-65.736	-0.280	-0.114
-691.397	-158.020	-0.265	0.016
-690.383	10.155	-0.171	0.132
-689.368	-154.119	-0.174	-0.012
-688.354	800.000	-0.021	-0.063
-687.339	298.425	-0.130	0.244
-686.324	-37.861	0.136	-0.074
-685.310	20.726	0.180	0.148
-684.295	16.302	-0.187	-0.150
-683.281	543.013	0.105	-0.254
-682.266	-200.000	0.033	-0.243
-681.251	2.722	0.167	-0.123
-680.237	-20.050	-0.106	0.066
-679.222	-84.288	-0.103	0.033
-678.208	544.792	-0.083	-0.202
-677.193	-75.418	0.254	0.092
-676.178	-200.000	0.083	-0.470
-675.164	-200.000	-0.036	-0.350
-674.149	-111.521	-0.313	0.065
-673.135	-46.703	0.096	0.048
-672.120	-52.385	-0.310	0.146
-671.105	142.819	0.136	-0.183
-670.091	800.000	-0.014	0.049
-669.076	-200.000	0.014	0.326
-668.062	-9.640	-0.227	0.154
-667.047	164.302	-0.220	0.315
-666.032	-172.542	-0.367	0.012
-665.018	800.000	-0.051	-0.151
-664.003	-200.000	-0.016	-0.247
-662.989	-24.349	0.251	-0.152
-661.974	80.264	-0.361	-0.395
-660.959	28.341	0.217	0.186
-659.945	-136.765	0.136	0.016
-658.930	661.723	0.134	-0.352
-657.916	754.460	0.091	-0.250
-656.901	-120.416	0.140	0.024
-655.886	118.894	-0.198	0.248
-654.872	28.379	0.061	-0.052
-653.857	-139.093	-0.303	0.033
-652.843	-64.993	0.153	-0.063
-651.828	-77.685	-0.088	0.031
-650.814	11.150	0.180	-0.140
-649.799	-69.002	0.079	0.031
-648.784	-200.000	-0.012	-0.121
-647.770	-91.404	0.198	0.057
-646.755	-79.938	0.147	0.050
-645.741	536.535	-0.046	-0.112
-644.726	-17.832	-0.275	-0.175
-643.711	5.772	-0.364	0.273
-642.697	-200.000	0.009	0.182
-641.682	48.844	0.093	0.088
-640.668	154.744	0.141	0.197
-639.653	22.972	0.104	-0.087
-638.638	-53.550	-0.214	0.099
-637.624	-133.578	0.219	0.028
-636.609	800.000	0.076	0.292
-635.595	314.377	0.081	0.155
-634.580	39.902	0.129	-0.118
-633.565	800.000	0.104	0.310
-632.551	-89.782	-0.232	-0.069
-631.536	28.463	-0.204	-0.175
-630.522	-86.799	0.300	0.093
-629.507	-200.000	-0.026	0.295
-628.492	-28.254	0.214	-0.125
-627.478	-129.754	-0.255	-0.036
-626.463	20.049	-0.083	0.068
-625.449	-200.000	-0.026	-0.294
-624.434	80.471	0.181	0.198
-623.419	-176.827	0.176	-0.005
-622.405	-200.000	-0.135	0.000
-621.390	-177.311	-0.198	-0.005
-620.376	-200.000	-0.033	-0.153
-619.361	-200.000	-0.024	-0.147
-618.346	-97.179	0.284	-0.075
-617.332	-67.194	-0.142	0.057
-616.317	-83.157	0.214	0.070
-615.303	-200.000	-0.018	-0.106
-614.288	-200.000	-0.098	-0.550
-613.273	245.436	0.065	-0.110
-612.259	-99.159	0.184	-0.047
-611.244	-22.198	-0.293	-0.180
-610.230	134.730	-0.137	-0.181
-609.215	-94.819	0.342	0.094
-608.201	-92.412	-0.250	-0.071
-607.186	-200.000	0.069	-0.369
-606.171	16.601	0.067	-0.054
-605.157	665.990	0.062	0.163
-604.142	386.365	-0.094	-0.196
-603.128	-172.250	-0.336	-0.011
-602.113	162.886	-0.091	0.129
-601.098	-200.000	-0.031	-0.189
-600.084	-200.000	0.078	-0.474
-599.069	-200.000	-0.092	0.467
-598.055	63.660	-0.068	0.069
-597.040	-100.719	0.231	-0.058
-596.025	800.000	0.139	-0.441
-595.011	-200.000	-0.035	0.172
-593.996	-101.427	0.090	0.022
-592.982	-14.399	0.124	0.081
-591.967	-200.000	-0.132	0.000
-590.952	-55.652	0.368	-0.167
-589.938	23.588	-0.059	-0.049
-588.923	-200.000	-0.016	-0.429
-587.909	800.000	0.192	-0.547
-586.894	3.185	0.165	0.122
-585.879	364.226	-0.051	0.105
-584.865	50.286	0.078	-0.075
-583.850	-200.000	0.036	-0.242
-582.836	539.083	0.107	0.257
-581.821	89.090	0.097	0.110
-580.806	266.891	-0.232	-0.412
-579.792	800.000	0.067	-0.284
-578.777	7.041	-0.123	-0.093
-577.763	800.000	-0.014	-0.043
-576.748	388.931	0.092	-0.193
-575.733	304.564	-0.091	-0.172
-574.719	94.961	0.140	-0.162
-573.704	114.677	-0.058	0.071
-572.690	56.531	-0.182	0.179
-571.675	800.000	-0.059	-0.193
-570.661	-173.829	0.131	-0.004
-569.646	64.371	0.075	0.077
-568.631	-200.000	-0.003	-0.119
-567.617	-83.680	0.195	0.063
-566.602	-85.035	0.314	-0.100
-565.588	1.951	0.200	0.146
-564.573	76.024	0.137	0.147
-563.558	12.491	0.205	-0.160
-562.544	78.447	0.136	0.147
-561.529	-100.644	-0.093	-0.023
-560.515	-5.777	-0.154	-0.107
-559.500	800.000	-0.021	0.084
-558.485	26.749	0.080	0.068
-557.471	332.596	-0.095	-0.185
-556.456	72.868	0.155	-0.164
-555.442	-200.000	-0.014	-0.394
-554.427	-31.867	-0.393	0.223
-553.412	-125.975	0.236	-0.036
-552.398	12.592	-0.229	-0.179
-551.383	-200.000	-0.004	-0.026
-550.369	-13.255	0.189	-0.124
-549.354	-200.000	0.001	0.031
-548.339	296.160	0.107	-0.199
-547.325	285.176	0.079	-0.145
-546.310	-13.672	-0.172	-0.113
-545.296	-103.448	0.185	-0.044
-544.281	800.000	-0.127	-0.439
-543.266	-119.183	0.093	-0.016
-542.252	9.731	0.122	0.094
-541.237	-52.861	-0.271	0.126
-540.223	126.377	-0.050	-0.064
-539.208	-143.464	-0.444	-0.043
-538.193	-29.004	0.120	0.069
-537.179	800.000	0.154	0.516
-536.164	3.074	0.089	0.066
-535.150	-34.704	-0.173	-0.096
-534.135	285.907	0.097	-0.177
-533.121	-113.390	0.226	0.045
-532.106	-80.733	0.317	0.107
-531.091	-19.411	-0.199	-0.125
-530.077	-200.000	0.051	0.228
-529.062	35.177	-0.170	-0.151
-528.048	-54.984	-0.045	0.021
-527.033	800.000	-0.109	0.389
-526.018	-200.000	-0.015	0.195
-525.004	-149.745	-0.194	-0.015
-523.989	505.510	0.160	0.375
-522.975	-95.740	-0.182	0.049
-521.960	14.173	-0.025	0.019
-520.945	-67.323	-0.206	0.082
-519.931	-200.000	-0.008	0.167
-518.916	-12.629	0.055	-0.036
-517.902	800.000	-0.030	-0.120
-516.887	-134.033	0.458	0.057
-515.872	37.216	0.105	0.094
-514.858	420.866	0.104	0.225
-513.843	-194.225	0.315	0.003
-512.829	721.999	-0.056	0.149
-511.814	79.322	-0.167	-0.181
-510.799	7.221	-0.070	-0.053
-509.785	800.000	0.079	-0.257
-508.770	317.231	0.051	-0.098
-507.756	54.042	-0.255	-0.248
-506.741	800.000	-0.039	-0.125
-505.726	85.982	0.270	-0.300
-504.712	-117.397	0.197	0.036
-503.697	-140.449	-0.177	0.019
-502.683	-200.000	0.008	0.057
-501.668	-200.000	-0.004	0.094
-500.653	-200.000	-0.036	-0.183
-499.639	84.413	0.195	-0.216
-498.624	-92.431	-0.159	-0.045
-497.610	14.745	-0.218	0.172
-496.595	63.097	0.117	-0.118
-495.581	-7.265	0.069	-0.047
-494.566	423.923	-0.068	0.147
-493.551	409.685	0.050	0.106
-492.537	30.091	0.205	-0.177
-491.522	35.679	-0.197	0.175
-490.508	798.687	0.027	0.074
-489.493	-190.913	0.049	-0.001
-488.478	266.845	-0.082	-0.145
-487.464	264.642	0.103	-0.181
-486.449	203.117	-0.134	-0.210
-485.435	-43.637	0.209	-0.106
-484.420	48.595	0.041	-0.039
-483.405	318.710	0.066	-0.127
-482.391	111.471	0.224	0.273
-481.376	156.529	0.144	-0.200
-480.362	164.679	0.084	-0.120
-479.347	553.099	-0.072	-0.174
-478.332	200.481	0.047	-0.072
-477.318	-37.097	0.177	0.096
-476.303	-109.112	0.287	-0.062
-475.289	376.506	-0.132	0.271
-474.274	-92.357	-0.240	-0.068
-473.259	636.669	-0.040	0.102
-472.245	-44.778	0.333	0.167
-471.230	-124.952	-0.283	0.044
-470.216	-77.535	-0.168	0.059
-469.201	-165.115	0.191	0.009
-468.186	-200.000	0.002	0.373
-467.172	-70.525	-0.229	0.088
-466.157	-200.000	0.033	0.362
-465.143	50.679	0.063	-0.061
-464.128	-7.463	0.366	0.250
-463.113	115.728	0.347	0.428
-462.099	-200.000	-0.007	0.050
-461.084	457.422	-0.107	-0.240
-460.070	800.000	-0.024	0.102
-459.055	277.755	-0.156	0.279
-458.040	580.455	0.110	0.272
-457.026	-200.000	-0.004	0.194
-456.011	-200.000	-0.004	-0.378
-454.997	35.746	0.050	0.044
-453.982	774.488	0.087	-0.240
-452.968	-43.521	-0.042	0.021
-451.953	-200.000	-0.049	0.264
-450.938	800.000	-0.037	-0.157
-449.924	-32.994	-0.305	0.171
-448.909	-200.000	0.038	0.208
-447.895	22.790	-0.250	-0.206
-446.880	355.921	-0.085	0.170
-445.865	359.938	-0.112	0.225
-444.851	-21.100	-0.176	0.108
-443.836	47.961	-0.103	0.097
-442.822	-4.408	0.034	-0.024
-441.807	-72.116	-0.037	0.014
-440.792	22.565	-0.213	0.176
-439.778	94.225	-0.272	-0.311
-438.763	-22.960	-0.084	-0.051
-437.749	113.234	-0.238	0.291
-436.734	-126.475	0.234	-0.035
-435.719	-200.000	0.000	-0.140
-434.705	185.007	-0.025	0.037
-433.690	800.000	0.023	-0.091
-432.676	-108.491	-0.429	-0.093
-431.661	-200.000	-0.007	0.148
-430.646	-200.000	-0.019	-0.102
-429.632	-71.264	-0.238	0.090
-428.617	63.646	-0.356	0.360
-427.603	-134.398	-0.212	-0.026
-426.588	10.314	0.069	-0.053
-425.573	-200.000	-0.016	-0.164
-424.559	-85.468	0.364	0.114
-423.544	363.343	-0.196	0.396
-422.530	436.373	0.061	0.133
-421.515	12.380	-0.057	0.044
-420.500	28.405	0.197	0.168
-419.486	427.002	-0.028	0.061
-418.471	89.076	-0.220	-0.247
-417.457	800.000	0.051	-0.184
-416.442	-200.000	-0.001	0.154
-415.428	799.069	-0.104	0.288
-414.413	23.442	0.098	-0.081
-413.398	175.303	-0.205	0.299
-412.384	-25.296	-0.290	-0.173
-411.369	37.099	-0.261	-0.232
-410.355	411.760	-0.107	-0.229
-409.340	50.665	-0.323	0.308
-408.325	-110.817	-0.289	-0.060
-407.311	-17.696	0.086	-0.054
-406.296	-131.559	-0.381	-0.050
-405.282	-143.066	0.173	0.017
-404.267	-30.685	0.132	0.075
-403.252	-56.164	0.044	-0.020
-402.238	-200.000	-0.000	0.229
-401.223	166.456	0.096	0.137
-400.209	127.624	-0.088	0.113
-399.194	524.966	0.066	-0.157
-398.179	104.320	-0.078	-0.092
-397.165	-95.105	0.300	-0.081
-396.150	-12.446	-0.278	-0.183
-395.136	-95.527	0.067	-0.018
-394.121	22.887	0.090	-0.074
-393.106	800.000	0.036	-0.153
-392.092	11.247	0.066	0.051
-391.077	-0.816	0.180	-0.129
-390.063	-149.140	0.122	0.010
-389.048	361.520	-0.152	-0.305
-388.033	-66.232	0.198	0.079
-387.019	800.000	0.024	0.085
-386.004	68.310	-0.047	0.049
-384.990	-108.403	0.332	0.072
-383.975	800.000	0.035	0.112
-382.960	-105.773	0.134	0.030
-381.946	-193.173	-0.075	-0.001
-380.931	132.715	0.096	-0.125
-379.917	-134.137	0.188	-0.023
-378.902	-66.910	-0.337	0.134
-377.888	362.455	-0.275	-0.555
-376.873	-133.017	0.043	-0.005
-375.858	-77.602	-0.206	0.072
-374.844	506.134	0.043	0.101
-373.829	-92.726	0.125	0.035
-372.815	-162.915	0.328	0.016
-371.800	-87.720	0.273	0.083
-370.785	-130.433	-0.192	-0.026
-369.771	80.009	-0.088	0.095
-368.756	176.080	0.180	0.262
-367.742	-164.100	-0.225	-0.010
-366.727	14.458	0.139	0.109
-365.712	158.294	-0.028	-0.039
-364.698	-200.000	0.036	0.170
-363.683	-97.231	-0.667	-0.175
-362.669	-42.298	0.160	-0.082
-361.654	-3.361	-0.266	-0.186
-360.639	800.000	-0.065	0.210
-359.625	800.000	0.072	-0.212
-358.610	188.087	0.224	0.336
-357.596	437.866	0.053	0.116
-356.581	-37.094	-0.243	0.131
-355.566	800.000	-0.027	-0.090
-354.552	139.055	-0.168	0.222
-353.537	-22.671	0.104	-0.063
-352.523	-99.291	-0.246	0.062
-351.508	-121.077	0.218	0.037
-350.493	43.593	-0.170	0.156
-349.479	-88.877	-0.114	-0.034
-348.464	-154.927	-0.179	-0.012
-347.450	-2.783	-0.094	0.066
-346.435	108.247	0.181	-0.217
-345.420	-199.593	-0.130	-0.001
-344.406	-55.624	-0.320	0.144
-343.391	-200.000	0.013	0.148
-342.377	-147.911	-0.261	0.022
-341.362	400.587	0.050	0.105
-340.348	-25.549	0.250	0.148
-339.333	800.000	-0.098	0.334
-338.318	257.262	0.142	-0.245
-337.304	-161.858	-0.319	-0.016
-336.289	269.951	-0.104	0.184
-335.275	-26.888	0.260	-0.153
-334.260	-64.896	0.097	0.039
-333.245	-79.610	0.177	0.060
-332.231	-104.895	0.117	0.027
-331.216	-87.742	-0.254	0.077
-330.202	59.400	-0.065	-0.064
-329.187	800.000	-0.049	-0.182
-328.172	-66.436	0.396	0.158
-327.158	-49.212	0.111	-0.053
-326.143	241.606	-0.177	-0.296
-325.129	-121.590	0.206	-0.034
-324.114	-57.861	-0.138	0.061
-323.099	778.095	0.032	-0.087
-322.085	33.389	0.167	0.145
-321.070	226.194	0.013	-0.021
-320.056	538.383	-0.131	-0.311
-319.041	-108.461	0.423	0.091
-318.026	791.309	0.038	-0.106
-317.012	181.629	0.108	-0.159
-315.997	186.656	0.097	-0.145
-314.983	-101.473	-0.271	-0.066
-313.968	-184.312	0.271	0.004
-312.953	121.470	-0.145	0.181
-311.939	394.173	-0.236	0.494
-310.924	-200.000	-0.020	-0.190
-309.910	-200.000	0.013	0.258
-308.895	-14.603	-0.246	0.159
-307.880	-200.000	-0.027	-0.122
-306.866	129.570	0.266	-0.341
-305.851	6.895	0.058	0.044
-304.837	-133.556	0.256	-0.032
-303.822	51.972	0.023	-0.022
-302.807	553.977	0.099	0.239
-301.793	-121.359	0.167	-0.028
-300.778	-200.000	-0.010	0.123
-299.764	185.375	-0.066	-0.098
-298.749	38.887	0.122	-0.109
-297.735	17.696	0.222	-0.177
-296.720	-108.647	0.259	-0.056
-295.705	177.274	-0.046	0.067
-294.691	-200.000	-0.014	0.249
-293.676	800.000	-0.055	0.153
-292.662	-132.203	0.282	-0.037
-291.647	-49.150	-0.168	0.080
-290.632	83.930	-0.179	0.195
-289.618	185.532	0.058	0.086
-288.603	-75.438	-0.120	-0.043
-287.589	-200.000	-0.040	-0.221
-286.574	-200.000	-0.029	-0.129
-285.559	-200.000	-0.012	0.078
-284.545	-3.770	0.358	0.249
-283.530	398.402	-0.094	0.196
-282.516	-104.121	-0.321	0.075
-281.501	100.873	-0.180	-0.209
-280.486	192.411	-0.151	-0.229
-279.472	113.957	0.117	-0.143
-278.457	-95.620	0.393	-0.105
-277.443	-124.790	-0.155	0.024
-276.428	310.255	-0.169	0.317
-275.413	800.000	0.041	-0.163
-274.399	-30.827	-0.119	0.068
-273.384	38.382	0.167	-0.149
-272.370	54.055	0.140	0.135
-271.355	800.000	-0.098	-0.292
-270.340	151.461	-0.109	0.148
-269.326	-29.331	0.061	-0.035
-268.311	800.000	-0.106	-0.381
-267.297	210.476	0.192	0.302
-266.282	-99.443	0.192	0.048
-265.267	101.653	-0.066	-0.077
-264.253	-49.433	0.219	-0.105
-263.238	-68.364	0.188	-0.073
-262.224	299.189	0.028	0.051
-261.209	-200.000	0.021	0.128
-260.195	-200.000	0.001	-0.186
-259.180	222.767	-0.096	0.155
-258.165	119.210	-0.202	0.249
-257.151	-168.853	0.339	0.013
-256.136	-56.714	0.083	-0.037
-255.122	263.704	-0.031	0.054
-254.107	800.000	-0.066	-0.226
-253.092	107.876	-0.132	-0.158
-252.078	89.029	-0.133	0.148
-251.063	-49.191	0.246	-0.118
-250.049	24.628	-0.267	-0.221
-249.034	393.745	0.031	-0.064
-248.019	159.633	0.038	-0.053
-247.005	-20.882	-0.139	0.085
-245.990	54.320	0.129	-0.124
-244.976	-145.626	-0.376	0.034
-243.961	-200.000	0.019	-0.165
-242.946	85.337	0.093	0.102
-241.932	800.000	0.052	0.147
-240.917	82.290	-0.065	-0.070
-239.903	-50.627	0.097	-0.046
-238.888	-172.626	0.169	-0.005
-237.873	-137.733	0.232	0.026
-236.859	-78.833	-0.416	-0.142
-235.844	-74.361	-0.257	-0.093
-234.830	-200.000	0.016	0.119
-233.815	-60.567	-0.224	-0.095
-232.800	-114.690	0.225	0.043
-231.786	800.000	0.051	-0.161
-230.771	-200.000	-0.020	0.248
-229.757	-133.062	0.216	-0.027
-228.742	134.628	0.101	-0.131
-227.727	-200.000	0.003	-0.142
-226.713	-152.388	-0.194	-0.014
-225.698	-64.858	-0.110	0.044
-224.684	263.852	0.144	0.250
-223.669	84.903	0.109	0.119
-222.655	-35.176	0.193	0.105
-221.640	-32.134	-0.241	-0.135
-220.625	-200.000	-0.037	0.365
-219.611	-104.074	-0.248	0.058
-218.596	800.000	0.108	-0.316
-217.582	-68.866	-0.240	0.092
-216.567	-52.739	0.366	0.169
-215.552	-113.058	0.270	0.053
-214.538	25.258	-0.078	0.065
-213.523	432.960	0.100	0.217
-212.509	800.000	0.022	-0.077
-211.494	-78.032	0.081	0.028
-210.479	-98.645	-0.108	-0.027
-209.465	-83.114	-0.248	-0.080
-208.450	-75.032	-0.112	-0.040
-207.436	-50.638	0.259	-0.122
-206.421	-115.963	0.102	-0.019
-205.406	-200.000	0.026	0.407
-204.392	-95.501	-0.072	0.019
-203.377	-54.610	-0.295	-0.133
-202.363	213.330	0.253	-0.400
-201.348	-200.000	0.007	-0.088
-200.333	-104.424	-0.040	0.009
-199.319	114.019	0.122	0.148
-198.304	14.715	-0.264	0.206
-197.290	-73.104	-0.387	0.142
-196.275	-88.402	-0.214	-0.064
-195.260	31.132	-0.128	0.110
-194.246	-90.380	-0.108	0.031
-193.231	465.011	0.175	0.390
-192.217	-184.109	0.213	-0.004
-191.202	-200.000	-0.009	-0.124
-190.187	16.154	-0.333	0.262
-189.173	67.494	-0.214	0.217
-188.158	-200.000	0.007	-0.140
-187.144	-30.574	0.123	0.069
-186.129	-84.828	-0.059	0.018
-185.114	680.740	0.044	-0.114
-184.100	159.451	0.139	0.193
-183.085	260.209	-0.028	-0.048
-182.071	193.094	-0.119	-0.179
-181.056	-141.311	0.201	-0.020
-180.042	727.472	0.125	-0.332
-179.027	-19.519	-0.291	0.179
-178.012	38.781	-0.126	-0.112
-176.998	-200.000	0.011	0.076
-175.983	-200.000	0.022	0.203
-174.969	147.504	-0.086	0.116
-173.954	273.524	0.046	-0.082
-172.939	800.000	-0.047	0.183
-171.925	69.348	0.264	-0.271
-170.910	-61.414	-0.191	-0.080
-169.896	223.502	-0.108	-0.174
-168.881	578.257	0.052	0.127
-167.866	186.819	0.175	0.260
-166.852	800.000	0.097	0.269
-165.837	164.233	-0.089	0.125
-164.823	30.898	0.231	-0.197
-163.808	-16.021	-0.234	-0.148
-162.793	-138.393	0.223	0.025
-161.779	-46.975	-0.146	-0.071
-160.764	195.071	0.115	-0.174
-159.750	131.235	0.208	0.267
-158.735	-98.040	0.233	0.060
-157.720	-1.299	-0.163	-0.115
-156.706	591.432	0.078	-0.191
-155.691	28.908	-0.149	-0.126
-154.677	-86.823	0.257	-0.078
-153.662	487.420	-0.053	-0.120
-152.647	342.839	-0.079	-0.154
-151.633	55.587	0.042	0.040
-150.618	-119.996	-0.094	-0.016
-149.604	-165.161	0.067	-0.003
-148.589	40.510	0.176	0.158
-147.574	156.981	0.221	-0.304
-146.560	-16.508	0.389	0.245
-145.545	125.082	0.172	0.215
-144.531	79.150	-0.159	0.169
-143.516	76.925	-0.127	-0.134
-142.502	205.850	0.158	-0.245
-141.487	161.480	0.235	0.328
-140.472	-83.105	-0.282	-0.090
-139.458	-62.300	-0.093	0.038
-138.443	-200.000	0.109	-0.518
-137.429	-200.000	0.044	0.235
-136.414	-95.837	0.227	0.060
-135.399	5.523	0.239	0.176
-134.385	-200.000	-0.056	0.249
-133.370	-200.000	-0.025	-0.245
-132.356	800.000	0.072	0.258
-131.341	127.511	-0.274	0.347
-130.326	-26.085	0.103	0.061
-129.312	548.424	0.058	-0.137
-128.297	-89.084	0.255	-0.075
-127.283	11.986	0.458	-0.351
-126.268	-200.000	-0.026	-0.159
-125.253	-71.573	-0.241	-0.090
-124.239	-82.247	-0.205	0.066
-123.224	-171.369	-0.209	-0.007
-122.210	52.096	0.181	-0.172
-121.195	397.891	0.158	0.328
-120.180	-200.000	-0.029	0.209
