DTS Sentinel unit serial number:	SN413079Multiplexer serial number:	ORYXHardware model number:	OX4-SRSoftware version number:	ORYX F/W v4.00 Oryx Data Collector v3.7.2.0data status	okinstallation	princeton_trtdifferential loss correction	single-endedforward channel	channel 2reverse channel	N/Adate	2019/09/15time	14:27:35forward acquisition time	60.00reverse acquisition time	0.00gamma	496.2192k internal	0.2299k external	0.2299temperature offset calibration	0.9990default loss term (dB/km)	0.3790temperature slope calibration	1.0000multiplexer offset coefficient	1.0000multiplexer slope coefficient	1.0000fibre end	0.00T internal ref (°C)	39.25T ext. ref 1 (°C)	4.95T ext. ref 2 (°C)	36.33length (m)	temperature (°C)	Stokes	anti-Stokes-747.200	449.685	-0.124	0.279
-746.185	120.638	-0.233	0.296
-745.171	800.000	-0.071	0.275
-744.156	63.835	-0.256	0.262
-743.142	800.000	-0.090	0.315
-742.127	401.250	-0.074	0.159
-741.112	-10.393	-0.220	0.149
-740.098	-77.952	0.236	0.083
-739.083	-80.270	-0.269	-0.092
-738.069	-22.801	0.101	-0.062
-737.054	53.907	-0.163	-0.160
-736.039	800.000	-0.055	-0.163
-735.025	147.190	-0.167	-0.229
-734.010	-67.854	-0.148	0.059
-732.996	-142.948	-0.265	-0.026
-731.981	-47.080	0.046	0.023
-730.966	142.011	-0.223	0.302
-729.952	265.724	-0.152	-0.271
-728.937	800.000	-0.080	-0.288
-727.923	257.798	-0.019	0.034
-726.908	203.845	-0.074	-0.117
-725.894	-124.661	0.173	-0.027
-724.879	-89.810	-0.048	0.014
-723.864	-84.718	0.085	-0.027
-722.850	-200.000	-0.011	0.202
-721.835	-200.000	-0.001	0.114
-720.821	121.050	-0.069	-0.087
-719.806	-200.000	0.027	-0.343
-718.791	-56.290	-0.063	-0.028
-717.777	528.346	-0.075	-0.180
-716.762	-121.153	0.241	0.041
-715.748	-17.259	0.300	0.193
-714.733	-82.582	-0.238	-0.079
-713.718	7.249	0.037	0.028
-712.704	-40.601	-0.160	0.085
-711.689	-126.904	0.387	-0.058
-710.675	-62.855	-0.308	0.130
-709.660	94.667	0.084	-0.097
-708.645	-61.370	0.203	-0.087
-707.631	377.946	0.011	0.024
-706.616	-58.998	0.073	-0.032
-705.602	207.300	-0.174	-0.276
-704.587	357.743	-0.100	0.203
-703.572	-62.942	-0.379	0.160
-702.558	376.636	0.084	0.176
-701.543	-200.000	-0.054	-0.381
-700.529	2.287	-0.187	-0.138
-699.514	800.000	0.022	-0.062
-698.499	347.214	0.115	0.231
-697.485	-200.000	-0.006	0.120
-696.470	-72.293	-0.305	-0.115
-695.456	-200.000	-0.056	0.278
-694.441	-200.000	0.028	0.291
-693.426	-73.903	0.092	-0.034
-692.412	148.786	0.009	-0.012
-691.397	-45.140	0.253	0.128
-690.383	-200.000	0.005	-0.198
-689.368	800.000	0.074	-0.224
-688.354	9.066	0.176	0.136
-687.339	-110.394	0.300	-0.064
-686.324	-200.000	-0.014	0.423
-685.310	147.897	0.078	0.107
-684.295	800.000	0.059	0.196
-683.281	-200.000	0.025	-0.240
-682.266	227.922	-0.254	-0.421
-681.251	1.216	-0.193	0.141
-680.237	-83.989	-0.153	0.050
-679.222	-93.501	0.340	-0.096
-678.208	93.051	-0.049	-0.056
-677.193	-121.989	0.175	-0.029
-676.178	251.262	-0.029	-0.050
-675.164	259.163	0.037	0.066
-674.149	-112.448	-0.189	0.038
-673.135	800.000	0.143	0.429
-672.120	800.000	-0.085	0.271
-671.105	710.171	-0.184	0.496
-670.091	-3.635	0.063	-0.045
-669.076	140.827	-0.325	-0.436
-668.062	-38.052	0.059	-0.032
-667.047	-8.731	0.233	0.159
-666.032	36.005	-0.218	-0.195
-665.018	-200.000	-0.020	0.477
-664.003	-87.367	-0.137	0.042
-662.989	-107.362	-0.211	0.047
-661.974	710.644	0.031	-0.083
-660.959	442.410	-0.162	0.360
-659.945	416.617	-0.106	0.231
-658.930	36.511	0.057	0.051
-657.916	-18.098	-0.065	0.041
-656.901	-145.385	0.230	0.021
-655.886	505.546	-0.065	-0.154
-654.872	-200.000	-0.013	0.072
-653.857	800.000	0.037	-0.137
-652.843	94.913	0.091	-0.106
-651.828	-24.941	0.127	-0.077
-650.814	800.000	0.033	-0.112
-649.799	-200.000	0.020	0.203
-648.784	-84.698	0.274	-0.088
-647.770	65.752	0.294	-0.303
-646.755	-79.515	-0.353	-0.121
-645.741	658.522	-0.080	0.208
-644.726	-23.148	0.061	0.038
-643.711	-132.869	-0.170	0.022
-642.697	135.743	0.067	0.088
-641.682	-12.002	-0.184	0.122
-640.668	-45.065	-0.275	0.139
-639.653	-164.041	-0.302	-0.014
-638.638	-16.602	-0.331	0.213
-637.624	63.447	-0.195	0.199
-636.609	42.579	-0.306	-0.283
-635.595	-200.000	0.031	-0.173
-634.580	-20.275	0.119	-0.074
-633.565	-200.000	-0.001	0.314
-632.551	-32.652	-0.042	-0.024
-631.536	-146.193	0.143	-0.013
-630.522	-200.000	-0.001	-0.278
-629.507	359.645	0.052	-0.106
-628.492	213.965	0.156	-0.251
-627.478	-103.207	-0.321	0.077
-626.463	-54.843	-0.323	0.148
-625.449	176.801	-0.088	0.129
-624.434	-79.899	-0.192	-0.065
-623.419	-124.960	0.344	0.054
-622.405	-200.000	0.008	0.112
-621.390	130.794	0.189	0.247
-620.376	241.353	-0.321	-0.545
-619.361	172.357	-0.073	-0.106
-618.346	60.506	-0.060	-0.061
-617.332	34.268	0.336	-0.298
-616.317	-100.232	0.249	-0.063
-615.303	-200.000	0.058	-0.289
-614.288	-29.446	-0.124	0.072
-613.273	434.332	-0.059	0.131
-612.259	-91.137	0.089	0.026
-611.244	371.101	0.067	0.137
-610.230	-200.000	-0.021	0.173
-609.215	-63.940	0.184	0.076
-608.201	302.859	0.050	-0.094
-607.186	341.792	0.133	-0.264
-606.171	146.262	-0.087	-0.118
-605.157	-178.607	0.236	0.006
-604.142	-29.297	-0.196	0.114
-603.128	96.021	0.107	0.124
-602.113	14.096	0.186	0.147
-601.098	59.191	-0.075	-0.075
-600.084	84.188	0.216	-0.239
-599.069	-28.262	0.105	-0.062
-598.055	145.229	-0.088	-0.120
-597.040	413.053	-0.050	0.109
-596.025	-50.288	0.188	0.090
-595.011	52.683	0.068	-0.066
-593.996	-123.050	-0.379	0.062
-592.982	84.899	0.071	0.079
-591.967	130.735	0.125	0.163
-590.952	800.000	-0.171	-0.651
-589.938	291.235	-0.130	-0.239
-588.923	-200.000	-0.029	-0.143
-587.909	-129.596	0.139	0.019
-586.894	-150.538	-0.212	-0.016
-585.879	315.146	0.164	-0.314
-584.865	-30.134	-0.198	0.114
-583.850	-200.000	0.019	0.094
-582.836	-38.038	-0.280	-0.151
-581.821	-21.343	0.143	0.088
-580.806	425.662	0.123	-0.270
-579.792	-67.333	0.154	0.061
-578.777	-57.195	0.160	0.071
-577.763	-200.000	-0.007	0.150
-576.748	-200.000	-0.002	-0.141
-575.733	800.000	0.034	-0.125
-574.719	349.782	-0.130	0.260
-573.704	-121.617	-0.375	0.063
-572.690	293.470	-0.093	-0.172
-571.675	-86.405	0.137	-0.043
-570.661	166.369	0.181	-0.260
-569.646	117.913	0.178	-0.223
-568.631	-200.000	-0.018	0.108
-567.617	-108.200	-0.073	-0.016
-566.602	-25.903	0.198	-0.118
-565.588	-61.259	-0.065	-0.028
-564.573	112.599	0.321	-0.393
-563.558	800.000	0.040	0.133
-562.544	-168.395	-0.232	-0.009
-561.529	108.494	0.148	0.179
-560.515	-200.000	0.021	-0.254
-559.500	-200.000	-0.029	-0.313
-558.485	27.846	0.143	0.122
-557.471	-200.000	0.039	0.316
-556.456	-159.056	-0.381	0.022
-555.442	462.643	0.062	0.140
-554.427	189.402	0.168	-0.255
-553.412	-200.000	-0.130	0.000
-552.398	800.000	-0.092	-0.382
-551.383	-24.755	0.064	-0.038
-550.369	-200.000	-0.013	0.127
-549.354	24.770	0.085	-0.071
-548.339	30.449	-0.165	-0.143
-547.325	73.712	0.145	-0.153
-546.310	800.000	0.027	0.102
-545.296	-17.807	0.349	-0.222
-544.281	-89.126	0.291	0.087
-543.266	157.636	0.024	0.034
-542.252	-200.000	-0.004	0.074
-541.237	58.971	-0.237	-0.236
-540.223	4.449	0.069	-0.051
-539.208	279.052	-0.054	0.097
-538.193	-200.000	-0.005	-0.070
-537.179	800.000	-0.088	0.277
-536.164	-200.000	-0.023	-0.108
-535.150	-161.827	0.067	-0.003
-534.135	-200.000	-0.045	-0.290
-533.121	186.075	0.043	0.064
-532.106	800.000	-0.065	-0.235
-531.091	-97.477	-0.290	-0.076
-530.077	252.847	-0.027	0.047
-529.062	-99.169	-0.274	0.070
-528.048	104.851	0.247	0.295
-527.033	-124.242	-0.175	0.028
-526.018	-12.348	-0.142	0.094
-525.004	565.071	-0.133	-0.327
-523.989	30.620	0.214	-0.185
-522.975	36.229	-0.253	-0.225
-521.960	100.242	-0.077	0.090
-520.945	-200.000	-0.014	0.404
-519.931	-90.645	-0.264	-0.077
-518.916	-18.725	-0.033	-0.021
-517.902	24.834	0.090	0.075
-516.887	161.774	0.152	-0.215
-515.872	-135.430	-0.122	0.015
-514.858	86.989	0.225	0.251
-513.843	256.916	0.097	-0.169
-512.829	125.513	-0.084	0.108
-511.814	800.000	-0.036	0.153
-510.799	-200.000	0.003	-0.326
-509.785	511.742	0.045	-0.106
-508.770	218.019	-0.086	0.139
-507.756	-123.541	-0.284	0.046
-506.741	175.055	-0.092	-0.134
-505.726	285.603	0.083	-0.151
-504.712	-1.656	0.103	0.074
-503.697	25.532	-0.150	-0.126
-502.683	63.384	-0.067	-0.068
-501.668	105.047	-0.185	0.220
-500.653	-96.974	-0.134	0.036
-499.639	-40.786	0.188	0.099
-498.624	-200.000	-0.023	0.505
-497.610	-200.000	-0.041	-0.340
-496.595	-108.623	0.363	-0.079
-495.581	-81.282	0.233	0.078
-494.566	800.000	-0.020	-0.072
-493.551	-200.000	0.095	0.487
-492.537	41.464	-0.239	-0.219
-491.522	-98.016	0.116	-0.030
-490.508	800.000	-0.055	-0.163
-489.493	119.626	0.169	-0.211
-488.478	-200.000	0.011	0.111
-487.464	-16.352	-0.161	0.103
-486.449	12.682	0.068	0.053
-485.435	800.000	-0.088	0.248
-484.420	-125.961	-0.283	-0.043
-483.405	-200.000	0.100	0.467
-482.391	41.137	0.201	-0.184
-481.376	29.888	-0.137	0.118
-480.362	496.712	-0.124	0.287
-479.347	-31.587	0.266	0.151
-478.332	-112.151	0.284	0.058
-477.318	186.606	-0.009	0.013
-476.303	-85.269	0.170	0.054
-475.289	69.384	0.209	0.217
-474.274	-200.000	-0.001	0.047
-473.259	-18.262	-0.103	-0.065
-472.245	91.038	0.296	-0.335
-471.230	-200.000	-0.041	-0.295
-470.216	-200.000	0.023	-0.378
-469.201	-67.657	-0.267	0.106
-468.186	-154.267	0.094	-0.006
-467.172	415.625	0.063	-0.135
-466.157	355.500	0.040	0.080
-465.143	138.898	-0.034	-0.045
-464.128	258.557	-0.092	-0.160
-463.113	-108.068	-0.140	-0.031
-462.099	347.922	-0.062	-0.123
-461.084	67.891	0.240	-0.247
-460.070	692.182	0.032	-0.085
-459.055	1.364	-0.064	0.046
-458.040	-3.017	-0.223	-0.157
-457.026	-94.388	0.135	0.037
-456.011	-6.771	-0.239	0.164
-454.997	800.000	-0.085	0.349
-453.982	-76.494	-0.200	0.071
-452.968	800.000	0.029	0.085
-451.953	-126.669	0.228	0.034
-450.938	-49.276	-0.208	0.100
-449.924	23.179	-0.141	0.117
-448.909	183.113	-0.055	0.083
-447.895	-113.379	0.096	0.019
-446.880	145.649	-0.077	-0.104
-445.865	71.714	-0.053	-0.056
-444.851	800.000	0.043	0.145
-443.836	351.328	-0.018	-0.036
-442.822	79.004	0.167	-0.181
-441.807	-10.155	0.037	0.024
-440.792	-200.000	-0.068	-0.397
-439.778	476.584	-0.117	0.268
-438.763	-16.635	-0.200	-0.128
-437.749	-200.000	-0.004	0.112
-436.734	-75.018	-0.252	-0.091
-435.719	24.731	-0.179	-0.149
-434.705	800.000	-0.028	-0.090
-433.690	32.101	-0.302	-0.262
-432.676	78.388	0.034	0.036
-431.661	-200.000	0.057	0.364
-430.646	129.772	0.034	0.044
-429.632	81.255	0.113	0.123
-428.617	686.055	0.076	0.199
-427.603	-19.794	-0.133	0.083
-426.588	800.000	-0.038	0.120
-425.573	152.775	0.162	0.223
-424.559	-19.087	0.352	-0.221
-423.544	-25.706	0.105	-0.062
-422.530	39.911	0.071	0.064
-421.515	-200.000	0.009	-0.062
-420.500	68.633	0.189	-0.195
-419.486	78.145	0.155	-0.167
-418.471	-123.196	0.213	-0.034
-417.457	-200.000	0.033	-0.258
-416.442	0.733	-0.400	-0.289
-415.428	-200.000	0.057	0.376
-414.413	68.729	-0.108	0.112
-413.398	800.000	-0.020	0.057
-412.384	27.054	-0.146	0.123
-411.369	800.000	-0.037	0.125
-410.355	-160.433	-0.249	-0.013
-409.340	-200.000	-0.026	-0.140
-408.325	-145.271	-0.095	0.009
-407.311	286.879	0.029	0.053
-406.296	-109.557	-0.194	-0.041
-405.282	87.040	0.073	-0.082
-404.267	-155.269	0.240	-0.016
-403.252	38.677	0.314	0.282
-402.238	-200.000	0.031	-0.233
-401.223	58.445	0.252	0.249
-400.209	8.002	-0.192	0.145
-399.194	-200.000	-0.001	-0.164
-398.179	-200.000	0.031	-0.171
-397.165	-72.099	0.118	0.044
-396.150	-44.422	0.093	-0.047
-395.136	186.480	0.040	-0.060
-394.121	115.976	-0.126	0.155
-393.106	1.224	-0.113	0.082
-392.092	-12.150	0.184	-0.121
-391.077	800.000	0.044	-0.185
-390.063	262.681	0.142	0.248
-389.048	117.859	-0.255	0.316
-388.033	-100.867	-0.188	0.046
-387.019	-77.402	0.146	-0.051
-386.004	800.000	-0.035	0.124
-384.990	165.897	-0.079	0.113
-383.975	57.655	-0.047	0.046
-382.960	13.132	0.370	0.288
-381.946	176.894	0.086	0.126
-380.931	-200.000	-0.049	0.224
-379.917	89.999	-0.177	-0.199
-378.902	-91.574	-0.254	-0.073
-377.888	800.000	0.042	0.122
-376.873	-123.859	0.425	-0.068
-375.858	-200.000	0.036	0.176
-374.844	227.234	0.123	-0.200
-373.829	800.000	-0.038	-0.118
-372.815	-200.000	0.005	-0.076
-371.800	-53.014	-0.142	-0.066
-370.785	-200.000	-0.009	-0.172
-369.771	-183.899	-0.133	0.002
-368.756	307.499	-0.100	-0.188
-367.742	123.436	0.226	-0.285
-366.727	38.795	-0.209	-0.188
-365.712	45.854	-0.202	0.188
-364.698	-29.069	0.229	0.132
-363.683	-65.235	-0.042	0.017
-362.669	13.228	0.250	-0.195
-361.654	800.000	0.040	0.131
-360.639	183.195	0.064	0.095
-359.625	420.795	-0.081	-0.174
-358.610	800.000	0.088	-0.317
-357.596	-154.330	-0.081	0.006
-356.581	776.355	0.056	0.153
-355.566	76.412	0.185	-0.197
-354.552	-200.000	0.009	-0.100
-353.537	-32.326	0.255	-0.143
-352.523	508.067	-0.037	-0.086
-351.508	465.160	0.025	0.057
-350.493	238.184	-0.107	0.178
-349.479	800.000	-0.006	-0.023
-348.464	-135.595	-0.190	0.023
-347.450	-200.000	-0.071	0.353
-346.435	-200.000	0.045	0.393
-345.420	263.869	0.082	0.143
-344.406	117.516	-0.197	-0.243
-343.391	286.929	0.030	0.054
-342.377	46.435	0.181	-0.169
-341.362	-200.000	-0.042	-0.388
-340.348	800.000	-0.093	-0.346
-339.333	104.166	-0.083	-0.098
-338.318	-144.989	0.225	0.021
-337.304	370.361	0.023	-0.046
-336.289	-200.000	-0.046	0.276
-335.275	9.817	-0.305	0.232
-334.260	-4.876	0.201	-0.139
-333.245	-120.139	0.131	-0.023
-332.231	244.726	-0.123	0.208
-331.216	-26.183	0.216	0.127
-330.202	-200.000	-0.006	-0.055
-329.187	-45.811	-0.130	0.065
-328.172	-64.773	0.148	0.060
-327.158	58.306	-0.107	0.105
-326.143	-165.096	0.183	-0.008
-325.129	-162.378	-0.324	-0.016
-324.114	26.220	0.081	-0.068
-323.099	-82.863	-0.237	-0.077
-322.085	60.493	0.031	-0.030
-321.070	800.000	-0.075	0.274
-320.056	252.446	0.064	0.109
-319.041	125.953	-0.126	0.160
-318.026	-32.792	-0.152	0.085
-317.012	134.969	-0.177	-0.230
-315.997	-200.000	-0.042	0.354
-314.983	139.160	0.137	0.181
-313.968	-200.000	-0.022	-0.323
-312.953	7.935	0.263	0.198
-311.939	26.428	-0.115	-0.096
-310.924	171.991	-0.096	0.138
-309.910	-75.145	-0.404	0.145
-308.895	197.036	0.325	-0.497
-307.880	224.449	0.117	-0.190
-306.866	-130.216	0.346	-0.047
-305.851	-63.061	-0.422	-0.175
-304.837	-47.315	-0.192	0.094
-303.822	-58.399	-0.109	-0.047
-302.807	800.000	0.057	0.182
-301.793	86.035	0.144	0.158
-300.778	-192.141	-0.296	0.003
-299.764	27.739	0.296	0.250
-298.749	26.219	-0.010	-0.008
-297.735	800.000	-0.069	0.224
-296.720	663.304	0.140	-0.363
-295.705	-6.428	0.291	-0.199
-294.691	145.750	-0.131	-0.177
-293.676	320.340	0.133	-0.252
-292.662	-200.000	-0.014	0.070
-291.647	800.000	0.067	0.257
-290.632	170.233	0.010	0.014
-289.618	-106.967	-0.076	0.017
-288.603	198.384	-0.085	0.130
-287.589	800.000	0.056	-0.184
-286.574	261.188	0.060	-0.105
-285.559	800.000	0.064	0.179
-284.545	27.102	-0.235	0.197
-283.530	274.961	0.105	-0.187
-282.516	22.952	0.297	0.244
-281.501	-39.976	0.271	0.142
-280.486	-200.000	0.072	0.535
-279.472	211.588	0.096	-0.151
-278.457	570.223	-0.093	-0.227
-277.443	56.498	0.212	-0.206
-276.428	-127.113	-0.312	0.046
-275.413	-200.000	0.011	-0.109
-274.399	404.487	0.062	0.132
-273.384	800.000	-0.058	-0.196
-272.370	454.575	0.029	0.065
-271.355	-200.000	-0.006	0.329
-270.340	-88.111	-0.209	-0.063
-269.326	-82.639	0.259	-0.084
-268.311	800.000	0.017	-0.062
-267.297	800.000	-0.040	0.175
-266.282	-82.893	0.066	0.021
-265.267	-135.896	0.340	0.040
-264.253	78.105	0.225	-0.241
-263.238	-107.929	0.256	-0.056
-262.224	146.685	-0.199	-0.268
-261.209	-88.591	-0.523	-0.156
-260.195	-61.433	0.222	-0.093
-259.180	-200.000	0.005	0.220
-258.165	-26.265	-0.297	-0.175
-257.151	28.103	0.136	0.115
-256.136	-118.356	-0.113	-0.020
-255.122	-200.000	0.010	0.126
-254.107	-142.566	0.266	-0.026
-253.092	57.403	0.089	0.087
-252.078	-119.068	0.262	0.046
-251.063	69.166	-0.132	0.136
-250.049	-47.897	-0.046	-0.022
-249.034	-19.821	-0.067	-0.042
-248.019	-200.000	-0.079	0.419
-247.005	461.417	-0.043	0.095
-245.990	-93.212	0.233	0.065
-244.976	-200.000	0.010	-0.104
-243.961	-150.442	0.153	0.012
-242.946	-59.229	0.197	-0.085
-241.932	114.054	0.132	-0.161
-240.917	603.621	-0.013	0.031
-239.903	-200.000	-0.011	0.229
-238.888	52.304	-0.152	0.145
-237.873	294.115	-0.251	0.458
-236.859	800.000	0.013	-0.054
-235.844	-200.000	0.021	0.115
-234.830	-130.500	0.198	-0.027
-233.815	-95.626	0.091	-0.024
-232.800	12.420	-0.200	-0.154
-231.786	427.135	-0.145	0.313
-230.771	546.132	0.068	0.162
-229.757	699.650	-0.094	-0.248
-228.742	-194.669	0.075	0.001
-227.727	59.507	-0.182	0.180
-226.713	270.957	-0.091	0.160
-225.698	-71.335	-0.074	0.028
-224.684	284.886	0.043	0.077
-223.669	800.000	0.062	-0.219
-222.655	-79.190	-0.275	0.093
-221.640	-35.692	-0.220	0.119
-220.625	-66.584	0.150	-0.060
-219.611	251.265	0.045	0.076
-218.596	14.911	0.066	-0.051
-217.582	-200.000	0.011	-0.219
-216.567	349.062	-0.208	-0.409
-215.552	138.613	-0.100	0.131
-214.538	54.413	-0.051	0.049
-213.523	419.930	-0.051	-0.109
-212.509	-23.229	-0.190	-0.114
-211.494	8.096	0.382	0.286
-210.479	338.827	0.152	0.296
-209.465	-59.791	0.137	-0.059
-208.450	-172.098	-0.331	0.011
-207.436	-200.000	0.005	0.107
-206.421	129.735	-0.105	-0.134
-205.406	-200.000	-0.000	0.139
-204.392	-43.631	0.391	-0.197
-203.377	-71.627	0.091	0.034
-202.363	-200.000	-0.048	0.370
-201.348	-55.754	0.101	0.045
-200.333	-37.876	-0.222	-0.118
-199.319	800.000	0.031	-0.124
-198.304	-88.866	0.115	-0.034
-197.290	800.000	0.065	0.269
-196.275	4.851	-0.318	-0.234
-195.260	-16.617	0.129	0.082
-194.246	75.136	-0.222	-0.234
-193.231	-169.127	0.171	-0.006
-192.217	202.215	-0.172	0.265
-191.202	247.655	-0.101	-0.171
-190.187	242.071	-0.230	0.385
-189.173	-153.437	-0.355	-0.025
-188.158	-79.208	-0.275	0.093
-187.144	-39.093	0.233	-0.122
-186.129	-200.000	-0.046	0.339
-185.114	378.138	-0.089	-0.181
-184.100	376.472	0.068	-0.139
-183.085	-49.025	0.186	-0.089
-182.071	67.116	0.090	0.091
-181.056	215.177	0.155	0.245
-180.042	390.991	0.173	0.359
-179.027	800.000	0.078	0.323
-178.012	-134.894	0.097	-0.012
-176.998	-106.339	0.192	0.043
-175.983	-135.191	0.279	-0.033
-174.969	-53.524	0.209	-0.095
-173.954	127.871	-0.136	0.172
-172.939	-99.068	-0.227	0.057
-171.925	14.144	-0.169	-0.131
-170.910	162.500	-0.041	0.058
-169.896	800.000	-0.042	0.169
-168.881	-121.920	-0.109	0.018
-167.866	67.226	0.184	-0.187
-166.852	-118.762	0.056	-0.010
-165.837	594.627	0.068	-0.167
-164.823	220.035	0.150	0.240
-163.808	-1.678	-0.353	0.248
-162.793	-63.428	0.332	-0.136
-161.779	42.915	0.113	-0.103
-160.764	400.713	0.048	-0.101
-159.750	-49.785	0.069	0.033
-158.735	-103.617	-0.148	0.035
-157.720	61.138	-0.169	0.167
-156.706	-200.000	0.009	0.220
-155.691	421.730	-0.100	-0.215
-154.677	284.152	-0.253	-0.454
-153.662	-39.753	0.330	-0.172
-152.647	-200.000	-0.044	-0.252
-151.633	179.121	0.143	0.209
-150.618	52.643	0.199	0.190
-149.604	-17.894	0.106	-0.066
-148.589	88.491	0.189	-0.209
-147.574	800.000	-0.048	-0.158
-146.560	800.000	-0.100	0.309
-145.545	46.415	0.241	-0.222
-144.531	-200.000	0.041	0.247
-143.516	-70.794	-0.087	-0.033
-142.502	-154.528	-0.337	0.022
-141.487	46.551	0.042	-0.039
-140.472	33.052	-0.130	-0.112
-139.458	-200.000	0.013	-0.066
-138.443	-41.903	0.233	-0.119
-137.429	7.902	-0.117	-0.088
-136.414	176.901	0.155	0.225
-135.399	800.000	-0.124	0.340
-134.385	-97.846	0.212	0.054
-133.370	66.586	0.108	-0.109
-132.356	706.317	-0.038	-0.100
-131.341	-83.272	0.109	0.035
-130.326	134.293	0.087	-0.112
-129.312	-57.242	-0.265	0.116
-128.297	22.964	-0.124	-0.101
-127.283	-200.000	0.004	-0.078
-126.268	-200.000	0.012	0.124
-125.253	387.311	0.069	0.142
-124.239	572.397	0.035	-0.084
-123.224	-200.000	-0.013	0.099
-122.210	-94.372	0.165	0.045
-121.195	734.176	-0.028	0.075
-120.180	800.000	-0.038	0.144
