DTS Sentinel unit serial number:	SN413079Multiplexer serial number:	ORYXHardware model number:	OX4-SRSoftware version number:	ORYX F/W v4.00 Oryx Data Collector v3.7.2.0data status	okinstallation	princeton_trtdifferential loss correction	single-endedforward channel	channel 2reverse channel	N/Adate	2019/09/13time	17:47:35forward acquisition time	60.00reverse acquisition time	0.00gamma	496.2192k internal	0.2316k external	0.2316temperature offset calibration	1.0223default loss term (dB/km)	0.3790temperature slope calibration	1.0000multiplexer offset coefficient	1.0000multiplexer slope coefficient	1.0000fibre end	0.00T internal ref (°C)	35.58T ext. ref 1 (°C)	5.12T ext. ref 2 (°C)	29.14length (m)	temperature (°C)	Stokes	anti-Stokes-747.200	800.000	-0.043	0.139
-746.185	-91.190	0.099	0.029
-745.171	800.000	0.031	-0.111
-744.156	124.024	-0.183	-0.232
-743.142	-31.821	0.164	0.093
-742.127	27.767	0.060	0.051
-741.112	800.000	-0.090	-0.361
-740.098	-200.000	-0.043	0.324
-739.083	800.000	0.066	0.223
-738.069	-200.000	-0.063	0.327
-737.054	5.696	0.243	-0.182
-736.039	267.562	-0.125	-0.222
-735.025	110.847	-0.150	0.183
-734.010	800.000	-0.026	-0.099
-732.996	-104.553	-0.203	-0.047
-731.981	56.513	0.209	-0.206
-730.966	-46.049	-0.090	0.045
-729.952	188.080	-0.093	0.141
-728.937	46.926	-0.150	-0.141
-727.923	-146.838	0.121	-0.011
-726.908	178.331	-0.110	-0.162
-725.894	503.046	-0.106	-0.248
-724.879	111.566	0.143	-0.174
-723.864	161.721	0.084	0.119
-722.850	-139.643	-0.183	-0.020
-721.835	-59.853	-0.167	-0.072
-720.821	341.905	0.133	0.263
-719.806	-10.716	-0.098	-0.066
-718.791	447.857	-0.033	0.074
-717.777	-97.033	0.166	-0.044
-716.762	-32.049	-0.336	-0.190
-715.748	197.892	0.101	-0.156
-714.733	-200.000	-0.008	-0.149
-713.718	42.600	-0.269	-0.248
-712.704	800.000	-0.049	-0.154
-711.689	-99.999	0.122	-0.031
-710.675	178.546	0.077	0.114
-709.660	503.661	-0.082	-0.191
-708.645	-200.000	0.041	-0.182
-707.631	-2.689	-0.249	-0.176
-706.616	693.616	0.069	-0.182
-705.602	267.447	0.125	-0.221
-704.587	221.273	0.107	0.173
-703.572	-104.996	-0.261	0.061
-702.558	-1.534	-0.059	0.042
-701.543	62.527	-0.248	0.251
-700.529	-39.300	-0.105	0.056
-699.514	-175.508	-0.073	0.002
-698.499	-118.232	-0.207	0.037
-697.485	152.283	0.195	0.270
-696.470	-47.195	-0.065	-0.032
-695.456	-33.718	-0.282	0.157
-694.441	349.440	0.157	0.314
-693.426	79.918	0.138	-0.150
-692.412	-200.000	-0.002	-0.067
-691.397	-30.385	0.233	-0.133
-690.383	155.262	-0.079	-0.109
-689.368	33.093	-0.479	-0.419
-688.354	-70.179	-0.159	0.061
-687.339	-200.000	0.015	-0.164
-686.324	800.000	0.034	0.106
-685.310	-152.753	0.385	-0.028
-684.295	532.928	-0.226	-0.541
-683.281	125.456	-0.098	-0.125
-682.266	-166.814	-0.282	-0.012
-681.251	-200.000	0.004	0.252
-680.237	179.506	-0.064	0.094
-679.222	19.717	0.143	-0.116
-678.208	39.863	0.160	-0.145
-677.193	224.192	-0.187	-0.304
-676.178	-200.000	0.023	0.204
-675.164	4.114	-0.125	-0.093
-674.149	-125.905	-0.047	0.007
-673.135	-200.000	-0.059	-0.299
-672.120	-200.000	-0.030	0.234
-671.105	14.733	-0.179	-0.142
-670.091	-23.638	0.183	-0.111
-669.076	-200.000	0.009	0.090
-668.062	113.731	-0.171	-0.209
-667.047	13.925	0.084	-0.066
-666.032	800.000	0.060	0.172
-665.018	44.907	-0.145	-0.134
-664.003	33.542	0.109	0.096
-662.989	-47.281	-0.370	-0.182
-661.974	93.586	0.197	-0.226
-660.959	67.544	0.060	0.062
-659.945	348.540	-0.030	0.060
-658.930	-96.302	0.298	0.080
-657.916	-84.790	-0.193	-0.061
-656.901	91.559	-0.189	-0.214
-655.886	800.000	-0.116	-0.344
-654.872	180.540	-0.028	0.042
-653.857	191.670	-0.157	-0.239
-652.843	62.368	-0.216	-0.218
-651.828	45.964	-0.087	-0.081
-650.814	-200.000	-0.004	0.226
-649.799	395.873	0.062	0.130
-648.784	-135.782	-0.370	0.044
-647.770	-133.477	-0.114	0.014
-646.755	36.607	0.191	-0.170
-645.741	800.000	0.082	0.292
-644.726	-105.460	0.359	-0.082
-643.711	20.894	0.090	-0.074
-642.697	-138.746	-0.270	0.030
-641.682	-156.458	0.262	-0.016
-640.668	218.420	0.054	0.086
-639.653	-200.000	-0.016	-0.392
-638.638	-200.000	0.029	-0.286
-637.624	-28.629	0.186	0.108
-636.609	133.963	-0.232	0.303
-635.595	-145.908	0.299	-0.027
-634.580	737.539	-0.134	-0.364
-633.565	-110.069	-0.252	0.053
-632.551	190.119	-0.047	0.071
-631.536	-87.539	0.109	-0.033
-630.522	-72.451	-0.098	-0.037
-629.507	-200.000	-0.008	0.118
-628.492	-70.938	0.315	0.119
-627.478	13.213	-0.197	-0.154
-626.463	466.773	-0.137	0.311
-625.449	25.537	-0.220	0.185
-624.434	-200.000	0.042	0.240
-623.419	697.791	-0.066	-0.175
-622.405	397.713	-0.094	0.198
-621.390	800.000	-0.010	-0.032
-620.376	-200.000	0.006	-0.165
-619.361	18.125	-0.142	-0.114
-618.346	-69.530	0.406	-0.157
-617.332	-151.348	0.375	-0.028
-616.317	271.916	-0.082	0.146
-615.303	800.000	-0.055	0.208
-614.288	-32.602	0.570	0.320
-613.273	-107.891	0.142	-0.031
-612.259	-200.000	0.026	-0.201
-611.244	198.936	-0.103	-0.159
-610.230	21.897	0.259	-0.213
-609.215	-200.000	-0.017	0.221
-608.201	173.588	-0.032	0.047
-607.186	-200.000	0.008	0.102
-606.171	252.055	0.118	0.203
-605.157	19.608	-0.261	0.212
-604.142	-114.520	-0.413	-0.080
-603.128	-200.000	-0.006	-0.050
-602.113	-94.666	0.371	-0.101
-601.098	-32.847	0.199	-0.111
-600.084	-81.405	0.304	0.101
-599.069	-200.000	0.094	-0.527
-598.055	-121.421	0.204	0.034
-597.040	85.046	-0.314	0.347
-596.025	16.069	-0.082	-0.065
-595.011	89.493	0.167	-0.188
-593.996	-147.306	-0.249	-0.021
-592.982	-200.000	0.001	0.179
-591.967	-67.187	-0.197	-0.078
-590.952	-200.000	0.082	0.387
-589.938	20.007	0.194	0.157
-588.923	-200.000	-0.045	-0.268
-587.909	279.396	-0.087	0.157
-586.894	-20.233	0.158	0.098
-585.879	-17.586	-0.255	0.161
-584.865	-35.710	0.333	-0.182
-583.850	164.429	-0.035	0.049
-582.836	-35.635	-0.438	-0.239
-581.821	-66.267	-0.225	-0.090
-580.806	-41.821	0.083	-0.043
-579.792	295.902	0.075	0.139
-578.777	-144.545	0.040	-0.004
-577.763	74.710	0.104	0.111
-576.748	-34.984	-0.087	0.048
-575.733	-200.000	-0.003	0.102
-574.719	133.936	0.058	-0.075
-573.704	-31.479	-0.303	0.172
-572.690	164.208	0.263	-0.373
-571.675	-144.241	-0.328	-0.031
-570.661	-200.000	0.006	0.106
-569.646	-108.688	-0.281	-0.061
-568.631	-143.330	0.427	0.041
-567.617	-200.000	0.021	-0.215
-566.602	-200.000	-0.022	0.189
-565.588	-47.497	0.199	0.097
-564.573	-93.712	-0.365	0.101
-563.558	723.173	0.062	0.166
-562.544	35.505	-0.199	0.176
-561.529	-200.000	0.019	0.190
-560.515	-36.073	0.178	0.097
-559.500	333.641	-0.156	-0.303
-558.485	65.917	0.154	0.157
-557.471	-53.952	-0.125	0.057
-556.456	238.918	-0.024	0.040
-555.442	248.643	0.069	0.117
-554.427	-98.053	0.231	0.060
-553.412	-34.384	-0.368	-0.203
-552.398	306.797	0.141	-0.264
-551.383	164.865	0.081	-0.114
-550.369	132.652	-0.135	-0.175
-549.354	55.703	0.198	-0.193
-548.339	441.118	-0.084	-0.185
-547.325	-72.778	0.207	-0.077
-546.310	607.526	0.013	0.033
-545.296	-133.771	-0.307	-0.038
-544.281	-177.573	-0.141	-0.003
-543.266	-200.000	-0.002	-0.034
-542.252	-91.344	-0.205	-0.059
-541.237	-99.421	0.026	0.006
-540.223	-200.000	0.069	-0.417
-539.208	399.121	-0.078	-0.165
-538.193	-200.000	-0.039	-0.262
-537.179	456.008	-0.053	-0.117
-536.164	125.149	0.037	-0.047
-535.150	175.873	0.266	0.388
-534.135	8.078	-0.183	0.138
-533.121	800.000	0.049	-0.189
-532.106	800.000	-0.034	-0.118
-531.091	800.000	0.055	-0.206
-530.077	70.001	0.120	0.124
-529.062	-78.173	0.080	-0.028
-528.048	-107.203	0.268	-0.059
-527.033	-200.000	0.019	0.169
-526.018	27.368	0.165	-0.139
-525.004	-30.360	0.217	0.124
-523.989	-200.000	0.036	0.252
-522.975	101.961	0.261	-0.306
-521.960	-200.000	0.051	0.275
-520.945	104.408	-0.066	0.077
-519.931	231.856	-0.044	0.072
-518.916	-200.000	-0.034	0.176
-517.902	29.795	-0.161	0.137
-516.887	138.343	0.093	0.123
-515.872	-200.000	0.005	0.167
-514.858	145.877	0.189	-0.254
-513.843	148.529	-0.163	-0.221
-512.829	304.935	0.109	0.203
-511.814	800.000	0.096	0.312
-510.799	-86.165	-0.249	-0.077
-509.785	-1.133	0.070	-0.050
-508.770	378.527	0.065	-0.133
-507.756	-60.535	-0.090	0.038
-506.741	-63.980	-0.253	-0.104
-505.726	800.000	-0.010	-0.035
-504.712	800.000	-0.044	0.155
-503.697	557.972	0.019	-0.047
-502.683	111.812	-0.126	-0.153
-501.668	93.680	-0.087	-0.099
-500.653	37.277	-0.197	-0.175
-499.639	-85.463	0.258	-0.081
-498.624	-96.573	-0.362	-0.096
-497.610	-63.657	-0.198	-0.081
-496.595	202.871	0.217	-0.336
-495.581	-3.027	0.196	-0.137
-494.566	800.000	-0.069	0.214
-493.551	-103.879	-0.267	0.063
-492.537	-31.881	-0.053	0.030
-491.522	-101.522	-0.194	0.047
-490.508	-117.977	-0.282	-0.051
-489.493	-23.594	0.043	-0.026
-488.478	-200.000	-0.018	-0.083
-487.464	-200.000	0.016	-0.277
-486.449	46.467	-0.095	0.088
-485.435	-161.815	-0.127	0.006
-484.420	-53.011	0.193	-0.089
-483.405	-104.902	0.237	-0.055
-482.391	-121.154	-0.436	0.073
-481.376	-200.000	-0.035	-0.418
-480.362	3.481	-0.176	0.129
-479.347	513.297	-0.116	-0.271
-478.332	-200.000	-0.018	-0.138
-477.318	276.080	0.037	-0.065
-476.303	-40.717	-0.068	-0.036
-475.289	53.878	0.139	0.134
-474.274	-38.293	-0.038	-0.020
-473.259	-47.386	0.196	0.096
-472.245	41.468	-0.204	-0.185
-471.230	-82.054	0.300	0.098
-470.216	-200.000	0.079	0.471
-469.201	-200.000	0.029	-0.180
-468.186	-140.944	0.063	0.006
-467.172	-55.205	-0.318	0.143
-466.157	-123.663	-0.363	-0.058
-465.143	400.705	-0.068	-0.142
-464.128	36.534	0.081	-0.072
-463.113	-129.069	-0.144	-0.020
-462.099	177.560	0.024	-0.035
-461.084	66.391	-0.272	0.277
-460.070	7.495	0.195	0.146
-459.055	498.118	-0.087	0.201
-458.040	123.076	0.162	-0.204
-457.026	223.339	-0.027	-0.044
-456.011	176.545	-0.066	0.095
-454.997	-177.775	0.210	-0.005
-453.982	800.000	-0.022	-0.096
-452.968	33.215	0.162	-0.140
-451.953	31.518	-0.287	0.247
-450.938	401.755	0.131	0.275
-449.924	-37.920	0.034	-0.018
-448.909	391.727	-0.145	0.301
-447.895	53.090	0.059	-0.057
-446.880	326.765	-0.196	0.376
-445.865	800.000	0.099	-0.333
-444.851	575.015	0.047	0.115
-443.836	800.000	-0.093	0.265
-442.822	521.221	0.125	-0.293
-441.807	-200.000	-0.038	0.227
-440.792	10.848	0.091	-0.070
-439.778	136.478	0.148	-0.193
-438.763	136.504	-0.207	0.270
-437.749	164.753	0.099	0.139
-436.734	-200.000	-0.006	0.201
-435.719	-200.000	-0.011	-0.216
-434.705	800.000	-0.038	-0.139
-433.690	800.000	0.057	-0.175
-432.676	-78.189	0.173	-0.060
-431.661	-200.000	-0.050	-0.384
-430.646	129.062	-0.126	-0.161
-429.632	35.602	-0.263	-0.231
-428.617	-166.303	-0.261	-0.011
-427.603	164.787	-0.089	0.126
-426.588	454.475	0.055	-0.121
-425.573	311.125	-0.028	0.052
-424.559	100.779	-0.176	-0.205
-423.544	-200.000	0.011	-0.150
-422.530	95.084	0.085	-0.097
-421.515	21.744	0.106	-0.086
-420.500	88.692	0.239	0.265
-419.486	535.247	0.078	-0.186
-418.471	-200.000	0.012	0.070
-417.457	-172.041	0.021	0.001
-416.442	664.540	0.112	0.290
-415.428	131.596	-0.202	-0.260
-414.413	-200.000	0.007	-0.053
-413.398	261.959	-0.071	0.124
-412.384	800.000	-0.138	0.389
-411.369	47.665	-0.182	0.170
-410.355	-96.628	-0.069	-0.018
-409.340	-200.000	0.028	0.324
-408.325	800.000	0.077	0.216
-407.311	800.000	-0.032	0.111
-406.296	78.509	-0.151	-0.161
-405.282	800.000	-0.038	-0.115
-404.267	233.289	0.105	0.173
-403.252	328.181	-0.085	-0.164
-402.238	-200.000	-0.022	-0.155
-401.223	658.733	-0.034	-0.088
-400.209	-97.489	-0.199	0.052
-399.194	-93.438	-0.118	0.033
-398.179	-200.000	0.006	0.246
-397.165	-96.608	-0.238	0.063
-396.150	-53.812	0.355	0.162
-395.136	448.963	0.096	-0.212
-394.121	-97.884	0.220	0.057
-393.106	-200.000	0.001	-0.029
-392.092	497.707	0.137	-0.316
-391.077	277.941	-0.099	-0.176
-390.063	29.884	-0.104	-0.089
-389.048	-82.431	0.228	-0.074
-388.033	-46.969	-0.187	-0.091
-387.019	94.615	-0.238	0.270
-386.004	31.173	0.050	0.043
-384.990	139.668	0.090	-0.119
-383.975	136.018	-0.056	-0.073
-382.960	-154.978	-0.141	0.009
-381.946	-200.000	0.095	0.461
-380.931	-93.815	-0.233	0.064
-379.917	-126.754	0.306	0.045
-378.902	58.103	-0.065	0.063
-377.888	-200.000	-0.037	-0.366
-376.873	129.501	0.106	-0.135
-375.858	254.311	-0.063	-0.107
-374.844	32.948	-0.190	-0.165
-373.829	-200.000	-0.017	0.176
-372.815	252.643	0.107	0.183
-371.800	-150.806	0.374	-0.028
-370.785	-90.982	0.266	-0.076
-369.771	108.513	0.153	0.182
-368.756	290.706	-0.028	-0.050
-367.742	3.483	-0.103	-0.075
-366.727	800.000	0.087	-0.278
-365.712	71.800	0.037	0.039
-364.698	-200.000	0.018	0.202
-363.683	-74.444	-0.200	0.072
-362.669	-200.000	0.046	0.433
-361.654	800.000	-0.092	0.299
-360.639	-61.571	0.101	-0.042
-359.625	-112.204	-0.226	-0.045
-358.610	800.000	0.067	-0.190
-357.596	800.000	-0.050	0.156
-356.581	-200.000	0.012	-0.138
-355.566	-200.000	-0.002	-0.187
-354.552	-200.000	-0.038	-0.192
-353.537	-200.000	0.004	-0.025
-352.523	-200.000	-0.022	0.213
-351.508	-51.290	0.123	-0.057
-350.493	-18.391	-0.025	-0.015
-349.479	800.000	0.073	0.243
-348.464	-25.817	0.166	-0.098
-347.450	-93.339	-0.239	-0.066
-346.435	94.663	-0.028	-0.032
-345.420	-159.934	-0.244	0.013
-344.406	146.233	0.298	0.399
-343.391	-9.516	-0.063	-0.042
-342.377	800.000	0.065	-0.198
-341.362	3.512	0.112	-0.081
-340.348	-200.000	-0.044	-0.318
-339.333	-200.000	-0.026	-0.352
-338.318	-200.000	-0.033	-0.183
-337.304	45.881	-0.146	-0.135
-336.289	-20.044	0.205	0.126
-335.275	37.411	0.193	0.171
-334.260	-121.838	0.299	0.049
-333.245	-200.000	-0.022	-0.314
-332.231	-110.827	0.245	0.050
-331.216	-200.000	-0.031	0.193
-330.202	-200.000	0.004	-0.307
-329.187	155.070	0.210	-0.288
-328.172	-200.000	-0.009	0.074
-327.158	-38.305	-0.071	-0.038
-326.143	-80.142	-0.144	0.048
-325.129	-19.869	0.057	0.035
-324.114	-200.000	-0.017	0.097
-323.099	16.392	-0.092	0.072
-322.085	773.979	0.191	-0.518
-321.070	-175.421	-0.105	-0.003
-320.056	489.749	0.040	-0.091
-319.041	217.906	0.145	0.231
-318.026	-133.538	-0.290	-0.036
-317.012	-80.910	-0.232	-0.077
-315.997	216.849	-0.148	0.235
-314.983	1.694	0.132	-0.095
-313.968	127.921	0.114	-0.145
-312.953	100.068	0.100	0.116
-311.939	-20.307	0.200	0.123
-310.924	-31.702	0.126	0.071
-309.910	-141.068	-0.357	0.036
-308.895	800.000	0.188	0.547
-307.880	37.097	0.365	0.321
-306.866	-53.122	-0.293	-0.134
-305.851	-47.047	-0.069	0.033
-304.837	167.432	-0.134	-0.189
-303.822	800.000	0.083	-0.234
-302.807	-166.764	0.147	0.006
-301.793	135.129	-0.018	-0.024
-300.778	-169.917	0.186	0.007
-299.764	108.377	0.125	0.149
-298.749	-43.337	0.244	0.123
-297.735	-31.466	-0.290	0.163
-296.720	-107.714	0.145	0.032
-295.705	800.000	0.009	0.025
-294.691	-122.898	-0.187	0.030
-293.676	-26.125	0.221	-0.130
-292.662	800.000	0.128	-0.393
-291.647	616.259	0.167	0.417
-290.632	800.000	0.037	0.128
-289.618	23.076	0.170	-0.139
-288.603	90.980	-0.291	-0.324
-287.589	176.232	-0.097	0.141
-286.574	-58.098	-0.192	0.083
-285.559	220.723	-0.054	-0.086
-284.545	299.183	0.020	0.037
-283.530	33.134	0.184	-0.159
-282.516	-46.832	-0.151	0.073
-281.501	-200.000	0.004	0.295
-280.486	141.990	0.044	0.058
-279.472	-200.000	0.001	-0.116
-278.457	-76.857	-0.376	-0.131
-277.443	-188.284	0.324	-0.004
-276.428	-50.555	-0.211	-0.099
-275.413	-28.224	0.216	0.124
-274.399	-106.956	-0.247	-0.054
-273.384	-200.000	0.008	0.229
-272.370	72.699	0.141	-0.147
-271.355	-200.000	-0.017	-0.158
-270.340	4.329	0.073	-0.053
-269.326	163.428	-0.056	0.078
-268.311	-41.133	0.136	-0.070
-267.297	40.480	-0.235	0.210
-266.282	-4.197	0.314	-0.216
-265.267	212.791	0.163	-0.256
-264.253	5.756	-0.316	0.233
-263.238	43.834	-0.211	-0.192
-262.224	-200.000	0.040	-0.264
-261.209	350.890	-0.047	-0.092
-260.195	-4.733	0.187	-0.128
-259.180	-200.000	0.030	0.223
-258.165	-119.148	0.238	-0.041
-257.151	-26.105	-0.156	0.091
-256.136	17.303	0.039	-0.031
-255.122	171.870	0.073	-0.104
-254.107	-200.000	0.015	-0.162
-253.092	173.987	0.038	0.054
-252.078	239.812	-0.266	0.441
-251.063	28.882	0.165	0.139
-250.049	-65.209	-0.101	0.040
-249.034	-122.556	0.374	-0.060
-248.019	498.003	0.112	0.255
-247.005	-29.984	0.155	0.088
-245.990	-72.926	0.120	0.044
-244.976	61.051	-0.081	-0.080
-243.961	443.521	-0.186	-0.404
-242.946	227.365	0.096	-0.155
-241.932	0.078	0.341	-0.241
-240.917	-103.028	0.255	-0.060
-239.903	-105.178	0.120	-0.027
-238.888	130.957	0.096	-0.123
-237.873	-200.000	0.039	0.301
-236.859	184.206	0.150	-0.221
-235.844	78.231	0.266	0.282
-234.830	65.905	-0.140	0.141
-233.815	-200.000	-0.039	0.240
-232.800	330.411	0.078	0.150
-231.786	386.213	-0.095	-0.194
-230.771	164.488	0.058	0.081
-229.757	159.188	-0.029	-0.040
-228.742	3.842	-0.147	0.106
-227.727	-109.751	-0.171	-0.036
-226.713	583.753	-0.063	-0.154
-225.698	-171.342	0.108	-0.004
-224.684	61.234	-0.069	0.068
-223.669	225.939	0.135	0.217
-222.655	-200.000	0.001	0.051
-221.640	375.020	-0.077	-0.156
-220.625	222.419	0.096	-0.153
-219.611	-160.485	0.288	-0.015
-218.596	112.232	-0.252	0.302
-217.582	205.599	-0.036	0.055
-216.567	106.018	-0.153	-0.180
-215.552	-186.314	-0.297	0.004
-214.538	-38.231	0.138	0.072
-213.523	-200.000	0.047	0.321
-212.509	-11.820	0.172	-0.112
-211.494	-22.860	-0.199	-0.119
-210.479	-74.377	0.239	0.085
-209.465	800.000	0.155	-0.448
-208.450	6.254	-0.140	0.103
-207.436	-194.438	0.369	0.003
-206.421	309.402	0.107	-0.199
-205.406	-200.000	-0.019	0.087
-204.392	-33.302	-0.167	0.091
-203.377	286.031	-0.066	0.118
-202.363	-52.380	-0.344	0.158
-201.348	657.909	-0.108	0.274
-200.333	-200.000	-0.014	-0.089
-199.319	243.572	-0.351	-0.583
-198.304	-126.529	0.329	0.048
-197.290	-29.619	0.110	0.062
-196.275	-49.932	0.148	0.069
-195.260	-36.418	-0.104	-0.055
-194.246	800.000	-0.040	0.137
-193.231	383.058	-0.142	-0.291
-192.217	-175.575	0.323	-0.009
-191.202	37.604	-0.061	-0.054
-190.187	-200.000	0.024	0.228
-189.173	340.208	-0.138	-0.266
-188.158	205.604	0.119	0.184
-187.144	-9.217	0.181	-0.120
-186.129	554.014	-0.050	-0.120
-185.114	-22.565	-0.265	-0.159
-184.100	800.000	0.176	0.586
-183.085	-59.473	0.076	-0.032
-182.071	36.163	-0.235	-0.205
-181.056	170.355	-0.178	0.252
-180.042	-200.000	-0.002	-0.422
-179.027	113.993	0.135	-0.162
-178.012	-8.704	0.015	-0.010
-176.998	-200.000	0.043	0.246
-175.983	236.465	0.139	-0.228
-174.969	800.000	0.024	0.101
-173.954	226.687	0.210	0.338
-172.939	-200.000	-0.054	0.276
-171.925	-70.596	-0.329	0.123
-170.910	-98.039	-0.131	0.033
-169.896	-191.881	0.038	-0.000
-168.881	-94.586	-0.109	0.029
-167.866	465.327	-0.124	0.276
-166.852	44.274	0.062	-0.056
-165.837	-56.858	0.298	0.130
-164.823	126.944	0.219	-0.276
-163.808	-50.966	-0.320	-0.149
-162.793	-56.482	-0.092	-0.040
-161.779	800.000	0.042	-0.166
-160.764	-200.000	-0.013	0.167
-159.750	180.336	-0.067	0.097
-158.735	-200.000	-0.014	0.178
-157.720	76.761	-0.283	0.298
-156.706	-92.639	-0.106	-0.030
-155.691	-102.251	-0.159	-0.038
-154.677	-80.226	-0.179	0.059
-153.662	800.000	-0.034	0.105
-152.647	323.504	-0.189	0.357
-151.633	-53.000	-0.184	-0.084
-150.618	-200.000	0.008	-0.107
-149.604	301.522	0.109	0.200
-148.589	624.885	-0.119	-0.298
-147.574	57.051	0.023	0.022
-146.560	-200.000	-0.043	-0.352
-145.545	-200.000	0.004	0.144
-144.531	-72.298	0.124	-0.046
-143.516	-31.183	-0.305	0.170
-142.502	-146.948	0.280	-0.024
-141.487	-104.433	0.419	-0.096
-140.472	228.434	0.057	0.092
-139.458	-200.000	-0.022	-0.315
-138.443	149.997	0.202	0.271
-137.429	-182.359	0.311	-0.006
-136.414	70.935	0.210	-0.215
-135.399	45.886	-0.306	-0.280
-134.385	-200.000	-0.033	-0.177
-133.370	-11.303	0.322	0.210
-132.356	-200.000	-0.081	0.452
-131.341	-141.661	-0.375	-0.037
-130.326	697.586	0.107	0.279
-129.312	-200.000	-0.063	0.287
-128.297	-60.641	-0.324	-0.136
-127.283	-88.079	-0.125	0.037
-126.268	-37.081	0.094	-0.050
-125.253	181.985	0.266	-0.387
-124.239	-193.066	-0.306	-0.003
-123.224	125.966	-0.224	0.280
-122.210	-99.553	-0.164	-0.041
