DTS Sentinel unit serial number:	SN413079Multiplexer serial number:	ORYXHardware model number:	OX4-SRSoftware version number:	ORYX F/W v4.00 Oryx Data Collector v3.7.2.0data status	okinstallation	princeton_trtdifferential loss correction	single-endedforward channel	channel 2reverse channel	N/Adate	2019/09/18time	19:15:34forward acquisition time	60.00reverse acquisition time	0.00gamma	496.2192k internal	0.2324k external	0.2324temperature offset calibration	1.0036default loss term (dB/km)	0.3790temperature slope calibration	1.0000multiplexer offset coefficient	1.0000multiplexer slope coefficient	1.0000fibre end	0.00T internal ref (°C)	34.41T ext. ref 1 (°C)	1.11T ext. ref 2 (°C)	23.74length (m)	temperature (°C)	Stokes	anti-Stokes-747.200	56.447	-0.090	0.088
-746.185	-3.721	-0.091	-0.063
-745.171	43.007	-0.225	0.207
-744.156	-122.840	-0.289	0.047
-743.142	29.781	-0.233	0.200
-742.127	-144.973	-0.503	0.046
-741.112	-200.000	-0.048	0.218
-740.098	-200.000	0.009	0.218
-739.083	3.840	0.212	0.156
-738.069	-200.000	0.032	0.162
-737.054	-37.768	0.195	-0.105
-736.039	-137.559	-0.384	0.044
-735.025	-123.027	0.422	0.068
-734.010	220.885	-0.055	-0.089
-732.996	447.541	-0.130	0.288
-731.981	-130.046	-0.357	0.049
-730.966	-87.886	-0.242	0.073
-729.952	335.038	-0.044	-0.085
-728.937	106.404	0.130	-0.155
-727.923	800.000	0.048	-0.186
-726.908	93.079	-0.214	0.244
-725.894	-200.000	0.011	0.210
-724.879	-7.664	-0.271	-0.185
-723.864	-200.000	-0.021	-0.214
-722.850	-28.197	-0.265	0.154
-721.835	-52.379	-0.156	0.073
-720.821	-116.024	-0.249	0.047
-719.806	800.000	-0.098	-0.431
-718.791	-200.000	-0.010	-0.174
-717.777	-34.505	0.179	-0.099
-716.762	-161.306	-0.228	-0.012
-715.748	506.587	0.197	-0.460
-714.733	-6.934	-0.123	-0.084
-713.718	603.562	-0.120	-0.301
-712.704	-137.297	0.241	-0.028
-711.689	130.252	0.158	-0.205
-710.675	479.313	-0.082	-0.186
-709.660	-8.097	0.284	-0.193
-708.645	67.917	-0.220	0.226
-707.631	-162.429	-0.293	-0.015
-706.616	-154.619	-0.190	0.013
-705.602	-200.000	-0.009	0.054
-704.587	50.793	0.107	-0.102
-703.572	123.225	-0.137	-0.172
-702.558	209.155	0.189	-0.298
-701.543	12.242	0.093	0.072
-700.529	-200.000	0.033	0.165
-699.514	565.071	0.101	-0.247
-698.499	-120.720	0.303	-0.052
-697.485	-200.000	-0.006	0.425
-696.470	-70.493	-0.125	-0.048
-695.456	-134.169	0.228	0.028
-694.441	81.945	-0.188	0.205
-693.426	31.630	-0.287	0.248
-692.412	-200.000	0.043	0.206
-691.397	-104.774	0.054	-0.013
-690.383	-63.029	-0.089	-0.037
-689.368	-145.392	0.268	0.024
-688.354	18.202	0.159	0.128
-687.339	24.084	-0.231	0.192
-686.324	-126.646	0.049	0.007
-685.310	800.000	-0.035	0.131
-684.295	271.442	-0.028	-0.050
-683.281	64.962	0.151	0.153
-682.266	4.532	-0.183	-0.135
-681.251	-75.213	-0.206	0.074
-680.237	365.543	-0.082	0.167
-679.222	-127.155	-0.320	-0.047
-678.208	-200.000	0.012	0.159
-677.193	-95.809	0.259	-0.070
-676.178	-44.721	-0.163	-0.082
-675.164	25.885	-0.017	0.015
-674.149	234.394	0.079	0.132
-673.135	612.070	-0.104	0.263
-672.120	-107.970	-0.302	0.066
-671.105	-105.332	-0.404	-0.093
-670.091	82.063	0.062	-0.068
-669.076	-200.000	0.044	-0.219
-668.062	60.660	-0.315	-0.314
-667.047	-200.000	-0.010	-0.105
-666.032	-34.223	0.264	-0.146
-665.018	18.542	-0.136	-0.109
-664.003	-56.451	0.281	-0.126
-662.989	6.674	-0.218	-0.163
-661.974	-39.954	0.117	0.062
-660.959	155.053	0.090	0.125
-659.945	93.379	-0.164	-0.187
-658.930	-95.688	0.204	-0.055
-657.916	800.000	-0.072	0.307
-656.901	-200.000	0.046	-0.260
-655.886	-200.000	0.044	-0.442
-654.872	53.480	0.283	-0.273
-653.857	-200.000	-0.033	-0.200
-652.843	31.934	-0.293	-0.254
-651.828	-131.381	-0.176	0.023
-650.814	-124.220	-0.322	-0.051
-649.799	800.000	-0.049	-0.184
-648.784	-200.000	-0.056	0.329
-647.770	-131.328	-0.155	0.021
-646.755	121.594	-0.043	-0.054
-645.741	-200.000	-0.051	0.229
-644.726	800.000	0.041	-0.151
-643.711	8.332	-0.270	-0.204
-642.697	-165.117	0.206	-0.009
-641.682	-200.000	0.061	0.472
-640.668	24.893	0.074	0.061
-639.653	800.000	-0.039	-0.140
-638.638	-117.495	-0.187	-0.034
-637.624	384.586	-0.067	-0.139
-636.609	53.001	-0.192	-0.184
-635.595	-37.186	0.058	-0.031
-634.580	-129.220	-0.347	0.049
-633.565	129.514	0.070	-0.090
-632.551	-200.000	-0.116	-0.609
-631.536	-136.459	-0.033	0.004
-630.522	-200.000	0.013	-0.086
-629.507	101.122	0.144	-0.168
-628.492	-54.056	-0.245	-0.112
-627.478	-55.028	-0.073	-0.033
-626.463	-130.124	0.262	0.036
-625.449	-147.831	0.208	0.017
-624.434	240.400	-0.278	-0.465
-623.419	-125.688	-0.250	0.038
-622.405	-174.683	-0.379	-0.011
-621.390	800.000	-0.178	-0.524
-620.376	-95.957	0.285	0.076
-619.361	18.185	0.221	0.177
-618.346	-200.000	-0.029	-0.179
-617.332	800.000	-0.063	0.192
-616.317	-200.000	-0.027	-0.157
-615.303	800.000	0.032	-0.137
-614.288	149.827	0.068	-0.092
-613.273	-200.000	-0.009	0.173
-612.259	0.799	-0.317	-0.228
-611.244	-200.000	0.030	-0.272
-610.230	-102.350	0.108	-0.026
-609.215	-200.000	-0.046	0.270
-608.201	62.785	0.164	-0.165
-607.186	198.323	-0.043	0.066
-606.171	135.933	-0.018	0.024
-605.157	-157.446	-0.331	0.020
-604.142	800.000	-0.061	0.187
-603.128	-4.284	0.096	0.067
-602.113	-12.193	0.163	0.107
-601.098	-200.000	-0.033	-0.208
-600.084	197.766	0.148	0.227
-599.069	-29.040	0.219	-0.126
-598.055	44.594	-0.173	-0.159
-597.040	-43.832	0.192	-0.097
-596.025	800.000	0.099	0.382
-595.011	422.913	0.188	0.404
-593.996	800.000	-0.047	-0.160
-592.982	4.397	-0.220	-0.162
-591.967	243.051	0.094	0.158
-590.952	202.749	0.218	0.338
-589.938	0.328	0.253	0.181
-588.923	-200.000	0.052	0.244
-587.909	-92.555	0.097	0.027
-586.894	-19.785	-0.096	0.060
-585.879	-200.000	-0.041	-0.198
-584.865	-20.324	-0.097	0.060
-583.850	-200.000	-0.045	-0.315
-582.836	800.000	0.057	-0.245
-581.821	201.214	0.045	-0.069
-580.806	10.738	-0.127	0.097
-579.792	-84.423	-0.216	0.068
-578.777	-178.478	0.107	0.002
-577.763	-200.000	-0.010	0.193
-576.748	297.738	-0.120	-0.221
-575.733	52.954	-0.241	0.231
-574.719	-133.778	0.133	0.017
-573.704	-68.840	-0.198	-0.077
-572.690	-200.000	-0.016	-0.203
-571.675	220.393	-0.111	0.179
-570.661	-156.286	-0.192	-0.012
-569.646	-55.999	-0.257	-0.115
-568.631	-32.884	0.130	-0.072
-567.617	62.763	0.180	0.180
-566.602	800.000	0.161	0.476
-565.588	-92.773	-0.128	-0.036
-564.573	-52.430	-0.212	-0.098
-563.558	193.582	0.118	-0.179
-562.544	-200.000	-0.037	-0.202
-561.529	385.402	-0.159	-0.328
-560.515	379.530	-0.090	-0.185
-559.500	-195.398	-0.264	0.002
-558.485	9.998	0.234	0.178
-557.471	737.082	0.029	0.079
-556.456	-134.646	-0.128	-0.016
-555.442	47.024	-0.092	-0.086
-554.427	21.030	0.184	-0.150
-553.412	-94.408	-0.328	0.090
-552.398	-43.017	-0.205	0.104
-551.383	5.386	0.140	0.104
-550.369	800.000	0.049	-0.156
-549.354	-67.762	-0.533	0.209
-548.339	-200.000	-0.017	0.219
-547.325	-161.535	-0.377	-0.019
-546.310	-200.000	-0.003	-0.032
-545.296	42.442	0.116	0.106
-544.281	88.709	0.094	0.104
-543.266	488.202	0.034	0.078
-542.252	-200.000	-0.014	-0.306
-541.237	240.200	0.243	-0.406
-540.223	-118.493	0.487	-0.086
-539.208	-85.338	0.207	-0.065
-538.193	-85.707	0.148	-0.046
-537.179	-58.924	0.456	0.197
-536.164	-64.163	-0.172	0.070
-535.150	-113.838	-0.237	-0.046
-534.135	120.949	-0.085	0.106
-533.121	-189.175	-0.227	0.003
-532.106	161.535	0.162	0.228
-531.091	228.016	0.052	0.085
-530.077	800.000	-0.059	0.193
-529.062	-82.341	0.074	-0.024
-528.048	-139.742	-0.199	0.021
-527.033	-72.906	-0.107	0.039
-526.018	800.000	0.093	0.307
-525.004	-200.000	-0.058	-0.298
-523.989	46.521	0.274	-0.254
-522.975	-42.802	-0.410	-0.208
-521.960	-77.489	-0.070	0.024
-520.945	521.568	0.079	0.185
-519.931	-200.000	-0.011	-0.226
-518.916	94.211	-0.126	0.143
-517.902	800.000	0.038	-0.161
-516.887	140.140	0.098	-0.130
-515.872	400.517	-0.146	-0.307
-514.858	-38.525	0.223	-0.118
-513.843	-21.416	0.141	-0.086
-512.829	-68.846	0.126	0.049
-511.814	800.000	-0.077	0.240
-510.799	-27.103	0.285	0.167
-509.785	101.081	0.048	0.056
-508.770	-200.000	-0.082	-0.364
-507.756	-136.436	0.309	0.036
-506.741	-172.148	0.142	-0.005
-505.726	-17.430	-0.332	0.209
-504.712	-182.284	0.034	0.001
-503.697	87.277	-0.307	-0.340
-502.683	107.526	0.257	-0.306
-501.668	20.751	-0.123	-0.100
-500.653	5.629	-0.137	0.101
-499.639	631.181	-0.038	-0.096
-498.624	-200.000	-0.034	-0.171
-497.610	-200.000	0.005	0.032
-496.595	149.291	0.074	0.100
-495.581	800.000	0.027	0.103
-494.566	-129.496	-0.185	-0.026
-493.551	-84.700	0.060	-0.019
-492.537	-179.295	-0.115	0.003
-491.522	569.094	0.030	-0.074
-490.508	-200.000	0.038	0.418
-489.493	27.359	0.180	-0.151
-488.478	-66.217	-0.291	-0.116
-487.464	-200.000	-0.000	0.160
-486.449	800.000	0.087	0.244
-485.435	-23.402	-0.095	-0.057
-484.420	800.000	0.059	0.197
-483.405	-15.588	0.335	0.214
-482.391	38.411	-0.131	0.117
-481.376	-71.181	-0.056	0.021
-480.362	-200.000	-0.008	0.184
-479.347	800.000	-0.011	-0.035
-478.332	-200.000	0.013	0.099
-477.318	800.000	-0.027	0.097
-476.303	293.915	-0.108	0.197
-475.289	7.680	0.131	0.098
-474.274	113.356	0.081	-0.098
-473.259	308.242	0.093	0.173
-472.245	800.000	-0.049	-0.147
-471.230	-34.862	0.274	-0.149
-470.216	-93.060	0.080	-0.022
-469.201	-49.659	0.058	-0.028
-468.186	314.375	-0.072	0.135
-467.172	412.824	-0.099	-0.209
-466.157	-47.640	-0.098	-0.048
-465.143	-179.769	-0.435	-0.009
-464.128	215.286	-0.148	-0.235
-463.113	800.000	-0.066	0.270
-462.099	-57.971	0.137	0.060
-461.084	216.940	-0.111	-0.177
-460.070	-88.504	-0.275	0.082
-459.055	800.000	-0.042	0.129
-458.040	-90.639	0.376	0.108
-457.026	-58.789	0.249	0.108
-456.011	-40.139	-0.162	0.084
-454.997	-90.640	-0.155	0.045
-453.982	48.232	-0.197	0.184
-452.968	-47.503	0.175	0.085
-451.953	-109.110	-0.108	-0.023
-450.938	-104.921	0.098	0.023
-449.924	-104.591	-0.074	0.017
-448.909	338.672	0.179	-0.348
-447.895	-63.570	-0.064	-0.026
-446.880	-23.605	0.219	-0.131
-445.865	-200.000	0.020	0.154
-444.851	757.262	-0.071	0.192
-443.836	-76.228	0.200	0.071
-442.822	-121.939	-0.208	-0.034
-441.807	800.000	-0.071	0.298
-440.792	-55.651	0.075	0.034
-439.778	62.660	-0.097	0.096
-438.763	-11.986	0.044	-0.029
-437.749	-57.920	0.268	-0.117
-436.734	-200.000	-0.037	-0.312
-435.719	146.852	0.103	-0.138
-434.705	27.993	0.237	-0.199
-433.690	-200.000	-0.022	-0.187
-432.676	-148.518	0.421	-0.034
-431.661	-200.000	-0.026	-0.186
-430.646	-200.000	-0.034	0.159
-429.632	-91.893	0.146	-0.041
-428.617	702.186	0.042	-0.110
-427.603	-68.522	0.251	0.097
-426.588	23.095	-0.284	0.232
-425.573	405.150	-0.038	-0.079
-424.559	253.029	-0.029	-0.049
-423.544	-18.379	0.260	0.162
-422.530	-13.311	0.295	0.191
-421.515	53.054	0.114	-0.108
-420.500	800.000	-0.109	0.330
-419.486	9.622	-0.285	-0.215
-418.471	-58.469	0.111	0.048
-417.457	-200.000	-0.056	-0.289
-416.442	-38.158	0.235	-0.124
-415.428	66.185	0.239	-0.242
-414.413	-200.000	-0.007	-0.362
-413.398	199.433	-0.127	-0.194
-412.384	-126.062	-0.086	-0.013
-411.369	292.303	-0.189	0.342
-410.355	-200.000	-0.025	-0.156
-409.340	28.001	-0.145	-0.122
-408.325	120.043	-0.124	-0.153
-407.311	5.521	-0.237	-0.174
-406.296	-126.709	-0.078	0.012
-405.282	-36.607	0.172	0.092
-404.267	-200.000	0.023	-0.275
-403.252	696.557	-0.025	0.066
-402.238	-34.550	-0.304	0.166
-401.223	-20.883	-0.086	0.052
-400.209	-27.276	-0.338	0.196
-399.194	-200.000	0.016	0.133
-398.179	800.000	0.003	0.013
-397.165	-95.684	0.254	-0.068
-396.150	2.340	-0.129	-0.093
-395.136	-200.000	0.012	-0.235
-394.121	-155.855	-0.240	0.015
-393.106	-137.383	0.184	-0.021
-392.092	66.516	-0.229	0.232
-391.077	-65.963	0.063	0.025
-390.063	-81.640	0.205	0.067
-389.048	-200.000	-0.022	-0.249
-388.033	800.000	-0.119	0.379
-387.019	-19.905	-0.192	0.118
-386.004	32.970	-0.443	-0.382
-384.990	-200.000	0.015	-0.099
-383.975	152.864	-0.068	0.093
-382.960	-200.000	0.000	0.097
-381.946	190.331	-0.035	-0.052
-380.931	50.164	0.106	-0.100
-379.917	-131.777	0.033	-0.004
-378.902	-200.000	0.034	-0.150
-377.888	-181.964	-0.171	0.003
-376.873	-45.993	-0.092	0.045
-375.858	-142.836	-0.169	-0.016
-374.844	427.971	0.036	-0.077
-373.829	-26.521	0.296	-0.172
-372.815	-70.357	-0.037	0.014
-371.800	-200.000	0.046	0.243
-370.785	271.265	0.058	0.101
-369.771	-74.367	-0.374	-0.134
-368.756	-86.868	0.336	-0.102
-367.742	-95.735	-0.187	-0.050
-366.727	-118.632	-0.254	0.045
-365.712	-66.935	-0.170	0.067
-364.698	345.887	0.063	-0.123
-363.683	-64.241	0.314	-0.127
-362.669	-147.766	0.264	0.022
-361.654	251.086	0.152	-0.256
-360.639	-130.176	0.171	0.023
-359.625	-200.000	-0.015	-0.106
-358.610	-38.844	-0.220	-0.116
-357.596	-200.000	0.217	0.001
-356.581	93.425	0.078	0.088
-355.566	11.421	-0.076	-0.058
-354.552	-46.744	-0.197	-0.096
-353.537	313.855	0.193	0.361
-352.523	72.328	-0.049	-0.051
-351.508	-87.934	-0.729	0.218
-350.493	-104.809	0.429	0.098
-349.479	232.022	-0.074	0.120
-348.464	-105.403	-0.259	0.059
-347.450	-200.000	-0.045	-0.369
-346.435	-126.240	-0.042	0.006
-345.420	280.820	-0.118	0.209
-344.406	-39.959	0.127	-0.066
-343.391	242.443	0.120	-0.200
-342.377	40.599	-0.129	-0.116
-341.362	247.966	-0.092	-0.155
-340.348	-68.364	0.457	-0.177
-339.333	8.364	0.196	0.146
-338.318	486.719	0.154	0.348
-337.304	29.545	-0.161	-0.136
-336.289	356.188	0.185	0.366
-335.275	-200.000	-0.044	0.212
-334.260	-120.132	-0.346	0.059
-333.245	-56.460	0.049	0.022
-332.231	800.000	-0.202	-0.658
-331.216	-200.000	0.022	-0.236
-330.202	236.327	-0.090	-0.148
-329.187	-200.000	0.038	0.208
-328.172	800.000	-0.102	-0.307
-327.158	95.382	-0.092	0.104
-326.143	94.422	0.259	0.292
-325.129	279.989	0.143	0.253
-324.114	-200.000	0.044	0.228
-323.099	800.000	-0.071	-0.202
-322.085	-33.462	0.056	-0.031
-321.070	-20.357	-0.217	-0.133
-320.056	800.000	-0.036	-0.132
-319.041	-16.916	-0.190	-0.119
-318.026	-5.355	-0.082	-0.056
-317.012	221.189	0.182	0.290
-315.997	249.579	0.080	0.134
-314.983	-87.472	0.259	-0.078
-313.968	60.210	-0.071	0.070
-312.953	245.275	-0.044	-0.074
-311.939	91.173	-0.081	0.090
-310.924	-67.031	0.155	-0.061
-309.910	-87.922	0.419	0.125
-308.895	145.377	-0.025	0.034
-307.880	560.391	0.066	0.159
-306.866	-38.282	0.345	0.182
-305.851	459.519	-0.144	0.318
-304.837	11.205	-0.138	0.105
-303.822	-68.811	0.148	-0.057
-302.807	-173.724	0.322	-0.010
-301.793	41.325	0.202	0.181
-300.778	70.831	-0.163	0.167
-299.764	-200.000	0.006	0.152
-298.749	-85.521	-0.084	0.026
-297.735	-200.000	0.011	-0.142
-296.720	-17.951	-0.060	0.037
-295.705	800.000	-0.076	0.308
-294.691	186.217	0.089	0.132
-293.676	14.442	0.094	0.073
-292.662	28.894	0.058	-0.049
-291.647	56.343	-0.167	0.161
-290.632	-98.982	-0.257	-0.065
-289.618	-200.000	-0.053	-0.235
-288.603	800.000	-0.020	-0.061
-287.589	-62.812	-0.056	-0.023
-286.574	-29.074	0.390	0.222
-285.559	800.000	0.067	0.237
-284.545	-107.327	0.326	-0.071
-283.530	-1.244	0.055	0.039
-282.516	-200.000	-0.018	-0.404
-281.501	-200.000	0.001	-0.047
-280.486	-200.000	-0.013	0.247
-279.472	49.840	0.093	-0.087
-278.457	202.725	-0.230	0.352
-277.443	-127.671	-0.106	-0.015
-276.428	-24.776	0.202	-0.119
-275.413	-188.294	0.187	-0.002
-274.399	-32.881	-0.295	0.162
-273.384	-200.000	-0.009	0.091
-272.370	-63.806	0.149	-0.061
-271.355	395.099	0.117	0.242
-270.340	-0.439	0.279	-0.197
-269.326	800.000	-0.128	-0.428
-268.311	9.988	0.220	-0.166
-267.297	-200.000	0.039	0.203
-266.282	-96.478	0.315	0.082
-265.267	647.152	0.065	-0.165
-264.253	325.105	0.153	0.289
-263.238	-200.000	-0.013	0.114
-262.224	-80.041	-0.269	0.089
-261.209	66.248	0.097	-0.097
-260.195	-109.543	0.219	-0.046
-259.180	36.903	0.065	0.057
-258.165	800.000	-0.086	0.267
-257.151	141.292	0.424	-0.555
-256.136	-84.751	0.078	-0.024
-255.122	142.330	-0.191	0.251
-254.107	209.418	-0.146	-0.226
-253.092	287.907	-0.065	0.116
-252.078	-174.217	-0.068	-0.002
-251.063	73.298	-0.104	0.108
-250.049	74.731	0.119	0.124
-249.034	119.879	0.164	0.201
-248.019	-16.338	-0.057	-0.036
-247.005	-200.000	-0.060	-0.369
-245.990	-117.422	0.204	0.037
-244.976	-200.000	0.061	0.343
-243.961	225.832	0.037	0.060
-242.946	18.057	0.128	0.101
-241.932	17.499	-0.059	-0.046
-240.917	800.000	-0.070	-0.258
-239.903	273.225	0.174	0.304
-238.888	-111.260	-0.144	0.029
-237.873	800.000	-0.063	-0.242
-236.859	-126.633	-0.042	0.006
-235.844	90.722	-0.255	0.283
-234.830	-124.198	-0.078	0.012
-233.815	32.571	-0.235	-0.201
-232.800	89.199	0.122	0.135
-231.786	-91.765	-0.390	-0.110
-230.771	-200.000	-0.016	0.221
-229.757	-151.635	-0.232	-0.017
-228.742	-32.993	0.313	-0.172
-227.727	27.299	-0.315	-0.262
-226.713	-12.408	0.232	-0.150
-225.698	150.234	-0.130	-0.174
-224.684	451.120	-0.040	0.088
-223.669	-124.488	0.276	0.042
-222.655	-59.007	0.272	0.116
-221.640	23.457	0.285	0.232
-220.625	207.602	-0.149	0.229
-219.611	800.000	0.020	0.071
-218.596	-172.580	-0.047	-0.001
-217.582	28.328	0.174	-0.145
-216.567	605.781	-0.152	0.374
-215.552	344.982	0.081	-0.156
-214.538	-12.612	-0.164	-0.105
-213.523	132.530	0.150	0.192
-212.509	-165.778	0.065	-0.003
-211.494	800.000	-0.081	0.225
-210.479	188.949	-0.036	0.053
-209.465	83.006	-0.103	-0.111
-208.450	16.393	-0.044	-0.034
-207.436	-8.985	0.181	-0.120
-206.421	86.512	0.039	-0.043
-205.406	-114.431	-0.047	0.009
-204.392	590.841	-0.045	0.111
-203.377	38.817	-0.123	0.108
-202.363	-160.413	0.104	0.006
-201.348	-125.092	-0.138	-0.021
-200.333	-53.355	-0.205	-0.093
-199.319	-143.476	0.201	0.019
-198.304	-200.000	0.054	0.244
-197.290	477.867	-0.007	-0.016
-196.275	-90.849	0.432	-0.123
-195.260	52.032	0.376	0.354
-194.246	116.705	0.156	-0.189
-193.231	123.712	0.119	0.148
-192.217	-111.644	-0.132	-0.026
-191.202	71.121	0.183	0.188
-190.187	534.208	0.045	0.105
-189.173	-200.000	-0.006	-0.361
-188.158	34.242	-0.098	-0.084
-187.144	224.829	-0.019	-0.031
-186.129	-51.409	0.142	0.066
-185.114	64.624	-0.112	0.112
-184.100	-200.000	-0.024	0.160
-183.085	-200.000	0.178	-0.000
-182.071	98.787	0.131	-0.149
-181.056	800.000	-0.089	-0.328
-180.042	178.584	-0.212	0.305
-179.027	114.902	-0.187	-0.225
-178.012	-158.033	-0.206	-0.012
-176.998	-18.959	-0.221	0.136
-175.983	-124.564	0.244	-0.037
-174.969	800.000	0.018	0.058
-173.954	21.293	-0.141	0.113
-172.939	582.303	-0.046	0.112
-171.925	52.342	0.274	0.258
-170.910	800.000	-0.063	0.249
-169.896	-44.519	-0.157	0.078
-168.881	-129.434	0.105	-0.014
-167.866	-200.000	0.057	-0.320
-166.852	800.000	0.101	-0.434
-165.837	127.195	-0.071	0.089
-164.823	-200.000	0.025	-0.114
-163.808	159.004	0.109	0.149
-162.793	-32.669	0.124	-0.068
-161.779	-122.329	0.179	0.029
-160.764	96.139	0.039	0.044
-159.750	800.000	0.074	-0.265
-158.735	-3.177	-0.293	-0.202
-157.720	85.130	-0.112	0.122
-156.706	246.791	0.104	0.173
-155.691	-10.708	-0.249	-0.163
-154.677	-200.000	0.020	-0.432
-153.662	181.124	0.155	-0.225
-152.647	593.334	-0.141	0.345
-151.633	-179.682	-0.193	-0.004
-150.618	310.051	0.031	0.057
-149.604	-200.000	0.021	0.340
-148.589	-17.431	0.215	-0.134
-147.574	144.745	-0.181	0.238
-146.560	207.151	0.154	0.238
-145.545	-21.078	0.272	0.164
-144.531	-23.415	-0.220	-0.131
-143.516	313.732	0.100	-0.186
-142.502	-200.000	0.005	-0.134
-141.487	-38.440	-0.195	-0.102
-140.472	25.150	-0.222	-0.182
-139.458	115.292	-0.087	-0.105
-138.443	55.536	-0.100	-0.096
-137.429	-125.412	-0.073	0.011
-136.414	-86.544	0.327	0.099
-135.399	-30.994	0.210	-0.117
-134.385	377.022	-0.021	0.043
-133.370	199.291	0.101	0.152
-132.356	79.457	0.142	0.150
-131.341	-47.680	0.195	0.093
-130.326	75.615	0.108	0.113
-129.312	111.409	-0.063	-0.075
-128.297	-68.564	0.096	-0.037
-127.283	262.415	-0.162	-0.278
-126.268	-200.000	0.078	0.400
-125.253	6.042	-0.226	0.165
-124.239	-89.716	-0.296	0.085
-123.224	-123.451	0.131	0.021
-122.210	-195.688	-0.233	-0.002
-121.195	800.000	-0.070	0.265
