DTS Sentinel unit serial number:	SN413079Multiplexer serial number:	ORYXHardware model number:	OX4-SRSoftware version number:	ORYX F/W v4.00 Oryx Data Collector v3.7.2.0data status	okinstallation	princeton_trtdifferential loss correction	single-endedforward channel	channel 2reverse channel	N/Adate	2019/09/15time	13:07:35forward acquisition time	60.00reverse acquisition time	0.00gamma	496.2192k internal	0.2310k external	0.2310temperature offset calibration	1.0000default loss term (dB/km)	0.3790temperature slope calibration	1.0000multiplexer offset coefficient	1.0000multiplexer slope coefficient	1.0000fibre end	0.00T internal ref (°C)	36.78T ext. ref 1 (°C)	4.97T ext. ref 2 (°C)	34.88length (m)	temperature (°C)	Stokes	anti-Stokes-747.200	197.994	0.066	-0.103
-746.185	94.010	-0.313	0.361
-745.171	257.080	-0.122	0.213
-744.156	-200.000	-0.017	0.549
-743.142	100.409	-0.121	0.143
-742.127	-35.679	0.107	-0.059
-741.112	-200.000	0.011	-0.186
-740.098	-146.302	0.037	-0.003
-739.083	-200.000	-0.017	0.079
-738.069	800.000	0.057	-0.169
-737.054	483.734	0.074	0.171
-736.039	-80.089	-0.462	0.157
-735.025	124.486	0.061	0.078
-734.010	800.000	0.036	-0.138
-732.996	127.602	-0.057	-0.074
-731.981	-200.000	0.074	-0.363
-730.966	-91.261	-0.183	-0.053
-729.952	127.640	0.039	-0.051
-728.937	800.000	0.034	-0.120
-727.923	-200.000	0.012	0.213
-726.908	53.286	-0.184	-0.179
-725.894	-63.540	-0.201	-0.084
-724.879	-21.267	-0.114	0.071
-723.864	-145.903	-0.059	0.005
-722.850	-200.000	-0.027	0.143
-721.835	387.339	-0.056	-0.118
-720.821	-145.360	-0.046	-0.004
-719.806	800.000	0.084	-0.270
-718.791	-8.598	-0.140	-0.095
-717.777	-144.148	-0.238	-0.023
-716.762	204.179	0.079	-0.124
-715.748	-148.255	-0.231	-0.019
-714.733	131.050	-0.084	0.110
-713.718	154.569	-0.155	-0.216
-712.704	39.739	0.218	-0.198
-711.689	-17.985	-0.209	0.133
-710.675	458.830	0.030	0.067
-709.660	60.197	0.101	0.101
-708.645	31.242	0.133	-0.116
-707.631	-39.409	0.179	-0.095
-706.616	800.000	0.020	-0.081
-705.602	-115.159	0.356	0.068
-704.587	-194.771	-0.179	-0.001
-703.572	-200.000	0.018	-0.133
-702.558	800.000	0.055	-0.168
-701.543	-4.908	0.099	-0.069
-700.529	14.755	-0.203	0.161
-699.514	51.559	-0.123	-0.118
-698.499	-42.774	0.209	0.108
-697.485	147.299	0.081	-0.110
-696.470	-200.000	-0.039	0.204
-695.456	-200.000	0.008	0.214
-694.441	-200.000	0.020	-0.242
-693.426	-200.000	-0.026	0.215
-692.412	-200.000	-0.041	0.319
-691.397	-184.877	0.231	-0.004
-690.383	-200.000	0.001	0.058
-689.368	-58.402	0.158	-0.070
-688.354	-96.356	-0.394	-0.106
-687.339	203.583	0.216	-0.338
-686.324	-91.191	0.147	-0.043
-685.310	-200.000	0.001	0.234
-684.295	-116.247	0.034	0.006
-683.281	-75.089	-0.051	-0.018
-682.266	92.807	-0.070	-0.080
-681.251	-200.000	-0.032	0.411
-680.237	-88.644	0.335	-0.101
-679.222	-141.407	0.262	0.027
-678.208	104.829	-0.156	-0.186
-677.193	-200.000	-0.323	0.000
-676.178	800.000	-0.088	-0.282
-675.164	-184.920	0.148	0.002
-674.149	-200.000	-0.006	0.457
-673.135	800.000	-0.054	0.195
-672.120	-145.391	0.142	0.013
-671.105	487.150	0.036	-0.084
-670.091	-200.000	0.019	-0.091
-669.076	189.238	-0.120	0.183
-668.062	-96.489	-0.135	-0.036
-667.047	238.912	-0.032	0.054
-666.032	223.082	-0.123	-0.200
-665.018	-154.117	-0.227	0.016
-664.003	-200.000	0.007	0.424
-662.989	800.000	0.049	-0.150
-661.974	-200.000	0.016	0.149
-660.959	-39.021	-0.252	0.134
-659.945	-119.163	0.106	0.019
-658.930	-113.365	0.273	0.054
-657.916	-113.461	0.160	0.032
-656.901	305.857	-0.146	-0.276
-655.886	302.065	0.024	-0.044
-654.872	-29.247	-0.055	-0.032
-653.857	-127.242	-0.140	-0.021
-652.843	800.000	-0.033	-0.141
-651.828	-23.057	0.065	0.039
-650.814	-59.700	0.242	0.105
-649.799	383.663	-0.117	0.243
-648.784	385.491	-0.088	-0.184
-647.770	28.222	0.069	-0.059
-646.755	-200.000	0.022	0.243
-645.741	800.000	0.073	-0.309
-644.726	191.406	0.178	-0.271
-643.711	26.977	0.240	0.204
-642.697	475.121	-0.172	0.393
-641.682	12.549	0.368	0.287
-640.668	-75.925	0.104	-0.037
-639.653	278.629	-0.271	-0.489
-638.638	-200.000	-0.004	0.140
-637.624	46.718	-0.201	0.189
-636.609	103.057	0.205	0.243
-635.595	370.209	-0.089	0.181
-634.580	-200.000	0.063	-0.347
-633.565	680.066	0.060	-0.157
-632.551	-147.297	0.304	-0.026
-631.536	-0.647	-0.098	0.070
-630.522	-72.928	-0.260	0.096
-629.507	181.222	-0.086	0.128
-628.492	38.957	-0.103	-0.093
-627.478	176.105	0.130	0.191
-626.463	-163.663	-0.118	-0.006
-625.449	-188.515	0.100	0.001
-624.434	-112.648	-0.197	0.040
-623.419	43.228	0.108	-0.099
-622.405	132.690	-0.245	0.320
-621.390	-6.870	-0.142	-0.097
-620.376	-77.511	-0.238	-0.084
-619.361	-151.523	-0.397	-0.030
-618.346	362.033	-0.086	0.174
-617.332	42.216	0.310	-0.284
-616.317	-103.193	0.277	0.066
-615.303	297.002	0.054	-0.101
-614.288	-200.000	0.007	-0.326
-613.273	-200.000	-0.010	-0.207
-612.259	-10.756	0.035	-0.023
-611.244	19.671	0.133	0.108
-610.230	-200.000	-0.026	-0.163
-609.215	-82.823	0.043	0.014
-608.201	-200.000	-0.018	0.092
-607.186	-200.000	0.001	0.277
-606.171	205.558	0.091	-0.143
-605.157	800.000	-0.029	0.085
-604.142	-200.000	0.042	-0.284
-603.128	406.628	-0.060	-0.127
-602.113	-100.617	-0.133	-0.033
-601.098	-200.000	-0.023	0.405
-600.084	-31.311	0.066	0.038
-599.069	-47.972	-0.436	-0.213
-598.055	42.223	-0.153	-0.140
-597.040	-66.956	0.151	-0.060
-596.025	-111.239	0.280	0.058
-595.011	-36.369	0.115	0.063
-593.996	-105.699	0.271	-0.062
-592.982	11.783	0.318	-0.246
-591.967	723.708	0.102	-0.273
-590.952	133.490	-0.155	-0.202
-589.938	237.126	-0.152	-0.254
-588.923	-200.000	-0.007	-0.091
-587.909	-200.000	-0.003	-0.327
-586.894	150.337	-0.109	-0.149
-585.879	-62.955	0.187	0.078
-584.865	800.000	0.104	-0.334
-583.850	147.329	0.263	0.357
-582.836	800.000	-0.043	0.174
-581.821	-46.331	-0.207	-0.103
-580.806	-90.758	-0.028	0.008
-579.792	-126.076	-0.256	-0.039
-578.777	1.125	0.130	-0.094
-577.763	-118.891	-0.157	-0.028
-576.748	-120.009	-0.074	0.013
-575.733	103.548	0.175	-0.207
-574.719	-13.148	-0.164	-0.107
-573.704	529.809	0.129	0.308
-572.690	-92.420	-0.234	0.066
-571.675	211.232	-0.035	-0.055
-570.661	-155.410	0.290	0.019
-569.646	-169.883	-0.152	0.005
-568.631	119.121	-0.187	-0.233
-567.617	8.539	0.013	0.010
-566.602	-200.000	-0.035	-0.265
-565.588	800.000	-0.069	0.261
-564.573	800.000	0.063	-0.184
-563.558	-159.679	0.019	0.001
-562.544	700.209	0.054	0.144
-561.529	341.675	-0.068	0.133
-560.515	-91.974	-0.176	0.050
-559.500	-134.925	-0.175	0.021
-558.485	41.751	0.177	-0.162
-557.471	-31.953	-0.257	0.145
-556.456	95.850	-0.119	-0.137
-555.442	115.624	0.223	0.274
-554.427	27.397	0.162	0.138
-553.412	-111.605	0.138	-0.028
-552.398	-137.383	0.044	-0.005
-551.383	-44.516	0.145	0.073
-550.369	-89.909	-0.282	-0.083
-549.354	-105.383	0.318	-0.073
-548.339	150.936	0.190	-0.260
-547.325	155.197	-0.086	0.120
-546.310	-61.038	0.365	-0.155
-545.296	167.752	0.134	0.192
-544.281	-145.827	-0.176	-0.016
-543.266	-33.147	-0.419	-0.234
-542.252	772.605	0.100	0.275
-541.237	-44.495	0.112	0.057
-540.223	165.109	-0.186	-0.264
-539.208	52.322	0.195	-0.187
-538.193	-91.043	-0.151	0.044
-537.179	118.216	0.230	-0.286
-536.164	800.000	0.090	0.260
-535.150	-8.356	-0.067	-0.046
-534.135	310.466	0.073	-0.138
-533.121	17.062	-0.209	-0.167
-532.106	166.814	0.125	0.179
-531.091	33.447	-0.166	-0.145
-530.077	206.156	0.176	-0.276
-529.062	-56.883	-0.356	-0.158
-528.048	488.637	-0.088	-0.203
-527.033	16.226	0.045	0.036
-526.018	800.000	0.009	0.033
-525.004	-200.000	-0.013	-0.063
-523.989	123.358	0.179	-0.226
-522.975	-200.000	-0.054	-0.269
-521.960	-33.191	-0.042	-0.023
-520.945	-2.042	-0.291	0.206
-519.931	-127.840	-0.133	0.019
-518.916	-46.976	-0.476	-0.234
-517.902	-200.000	-0.009	-0.097
-516.887	158.585	-0.209	-0.293
-515.872	142.054	0.056	-0.075
-514.858	-200.000	-0.307	0.001
-513.843	-83.103	0.205	-0.067
-512.829	486.386	0.032	-0.073
-511.814	-90.014	-0.326	-0.096
-510.799	208.037	0.028	-0.044
-509.785	201.139	0.025	-0.039
-508.770	-172.228	0.768	0.025
-507.756	-158.595	0.296	0.017
-506.741	-81.717	0.046	-0.015
-505.726	-13.005	0.119	-0.078
-504.712	-82.406	-0.273	-0.089
-503.697	-112.042	-0.194	-0.039
-502.683	800.000	0.079	0.248
-501.668	-135.421	0.270	-0.032
-500.653	-21.592	-0.271	0.166
-499.639	-117.207	0.302	-0.055
-498.624	425.103	-0.061	-0.132
-497.610	-200.000	0.033	-0.289
-496.595	427.574	-0.049	-0.107
-495.581	120.576	0.140	-0.175
-494.566	800.000	-0.029	-0.113
-493.551	109.578	-0.194	0.234
-492.537	179.195	-0.158	0.232
-491.522	89.350	-0.029	0.033
-490.508	800.000	0.100	0.378
-489.493	26.486	0.089	0.075
-488.478	453.233	0.059	-0.132
-487.464	213.119	-0.082	0.130
-486.449	-200.000	0.006	-0.311
-485.435	266.259	-0.044	0.078
-484.420	135.373	-0.094	0.123
-483.405	285.635	0.087	0.157
-482.391	-141.978	0.269	0.027
-481.376	163.519	0.164	0.232
-480.362	467.996	0.033	0.075
-479.347	139.242	0.032	-0.042
-478.332	214.578	0.134	-0.213
-477.318	-91.231	-0.063	-0.018
-476.303	-200.000	0.016	0.453
-475.289	-87.923	0.046	-0.014
-474.274	-109.064	0.199	-0.043
-473.259	-78.170	0.239	-0.083
-472.245	226.960	-0.055	-0.090
-471.230	-100.432	0.455	0.113
-470.216	237.933	-0.110	0.184
-469.201	-200.000	-0.003	0.064
-468.186	800.000	0.083	0.315
-467.172	-75.815	-0.147	0.052
-466.157	247.767	0.281	0.476
-465.143	-158.000	-0.089	0.005
-464.128	-200.000	0.005	-0.215
-463.113	-43.995	-0.418	0.211
-462.099	800.000	0.032	0.100
-461.084	191.329	-0.038	0.057
-460.070	0.897	0.066	-0.048
-459.055	404.142	0.131	-0.277
-458.040	-147.590	0.295	0.025
-457.026	-77.460	-0.176	-0.061
-456.011	-130.236	-0.034	0.005
-454.997	528.065	-0.032	-0.075
-453.982	800.000	-0.051	-0.211
-452.968	-200.000	-0.008	-0.244
-451.953	-103.959	0.264	0.062
-450.938	-89.115	0.115	-0.034
-449.924	751.659	-0.048	-0.130
-448.909	-130.587	-0.234	-0.032
-447.895	135.781	-0.186	0.243
-446.880	800.000	-0.021	0.065
-445.865	41.740	-0.135	0.123
-444.851	143.839	0.082	-0.109
-443.836	800.000	-0.030	-0.109
-442.822	800.000	0.034	0.131
-441.807	-163.923	0.203	0.009
-440.792	26.215	-0.214	-0.179
-439.778	-58.635	-0.120	0.052
-438.763	-19.300	0.095	-0.059
-437.749	-28.011	-0.361	-0.210
-436.734	-200.000	-0.034	0.180
-435.719	-168.153	-0.209	-0.008
-434.705	68.864	0.327	-0.337
-433.690	-73.057	-0.200	-0.074
-432.676	-145.595	-0.508	0.046
-431.661	206.702	-0.076	0.119
-430.646	557.715	-0.069	-0.166
-429.632	-5.046	-0.111	-0.077
-428.617	61.820	0.183	0.183
-427.603	-200.000	0.054	-0.320
-426.588	-22.495	-0.239	0.145
-425.573	-80.546	-0.157	-0.052
-424.559	-142.679	0.039	-0.004
-423.544	251.710	-0.103	0.176
-422.530	145.002	-0.156	-0.209
-421.515	-200.000	-0.039	0.243
-420.500	-34.920	0.231	0.126
-419.486	778.987	0.140	-0.383
-418.471	27.755	0.267	-0.226
-417.457	11.865	0.118	-0.091
-416.442	-82.087	-0.408	0.134
-415.428	-200.000	0.006	0.096
-414.413	-75.362	-0.191	-0.068
-413.398	240.542	0.122	0.204
-412.384	-200.000	-0.082	0.362
-411.369	-101.250	-0.102	0.025
-410.355	315.728	0.107	-0.202
-409.340	462.326	-0.107	0.239
-408.325	114.797	-0.071	-0.086
-407.311	51.631	0.158	-0.151
-406.296	81.743	0.133	0.144
-405.282	800.000	0.075	-0.221
-404.267	-31.692	-0.376	0.211
-403.252	-117.774	0.226	-0.041
-402.238	-68.106	-0.390	0.152
-401.223	-2.992	-0.094	-0.066
-400.209	261.820	-0.114	-0.197
-399.194	-99.991	0.223	0.056
-398.179	-200.000	0.047	0.326
-397.165	800.000	-0.158	-0.460
-396.150	-78.282	0.209	0.072
-395.136	-15.723	0.161	-0.103
-394.121	131.010	0.051	0.066
-393.106	-16.280	-0.148	0.094
-392.092	-110.350	-0.325	0.068
-391.077	21.897	-0.177	-0.145
-390.063	-200.000	-0.001	0.077
-389.048	800.000	0.051	-0.218
-388.033	237.904	0.210	-0.349
-387.019	800.000	0.074	0.296
-386.004	202.013	0.063	0.097
-384.990	311.701	0.077	-0.144
-383.975	110.417	0.174	-0.209
-382.960	-94.592	-0.208	0.057
-381.946	800.000	0.064	-0.219
-380.931	-146.153	0.094	-0.008
-379.917	398.147	-0.121	0.253
-378.902	43.329	0.167	-0.153
-377.888	800.000	-0.110	-0.386
-376.873	800.000	-0.035	-0.120
-375.858	800.000	0.076	0.217
-374.844	-61.929	-0.244	-0.102
-373.829	384.112	-0.047	0.096
-372.815	-139.039	-0.038	-0.004
-371.800	-8.630	0.286	-0.192
-370.785	158.790	-0.170	-0.236
-369.771	-171.852	-0.315	0.010
-368.756	227.093	0.206	0.334
-367.742	-123.089	-0.392	-0.063
-366.727	-85.454	-0.193	-0.060
-365.712	-189.078	-0.105	0.001
-364.698	-10.501	0.326	-0.216
-363.683	-91.714	0.076	-0.022
-362.669	-128.462	0.214	-0.030
-361.654	-29.076	0.187	-0.107
-360.639	800.000	-0.095	0.348
-359.625	-121.575	-0.309	-0.051
-358.610	451.581	-0.090	0.199
-357.596	-21.937	-0.282	0.171
-356.581	-154.772	0.267	0.018
-355.566	-15.361	-0.132	0.085
-354.552	-81.427	0.239	-0.079
-353.537	231.794	-0.142	0.233
-352.523	263.299	-0.192	0.334
-351.508	-50.376	0.049	-0.023
-350.493	-200.000	0.054	0.456
-349.479	-200.000	-0.018	0.112
-348.464	-104.138	0.336	0.078
-347.450	68.561	-0.150	0.154
-346.435	205.448	-0.122	0.189
-345.420	781.510	-0.044	-0.119
-344.406	-68.155	-0.340	-0.132
-343.391	169.337	0.155	-0.221
-342.377	-99.565	0.301	-0.076
-341.362	578.090	-0.045	-0.109
-340.348	17.717	0.207	0.165
-339.333	127.057	0.073	-0.093
-338.318	93.412	-0.204	-0.231
-337.304	440.968	-0.159	-0.347
-336.289	-89.272	0.218	-0.064
-335.275	-200.000	0.015	0.200
-334.260	-153.016	-0.198	-0.014
-333.245	800.000	0.146	-0.436
-332.231	-200.000	0.031	0.146
-331.216	-200.000	0.006	0.148
-330.202	800.000	0.062	-0.182
-329.187	-139.720	0.051	0.005
-328.172	42.691	-0.239	-0.217
-327.158	-14.787	0.370	0.237
-326.143	800.000	-0.097	-0.283
-325.129	-200.000	0.003	-0.139
-324.114	40.974	0.091	-0.082
-323.099	179.625	0.221	-0.324
-322.085	-108.400	0.238	-0.051
-321.070	-200.000	-0.019	0.370
-320.056	-193.446	0.120	0.001
-319.041	-24.107	0.331	-0.197
-318.026	-163.135	-0.148	0.007
-317.012	-87.860	-0.469	-0.141
-315.997	83.670	0.188	0.205
-314.983	25.520	-0.200	-0.166
-313.968	-76.669	-0.117	-0.041
-312.953	-73.550	-0.192	-0.070
-311.939	-182.922	0.349	0.006
-310.924	-9.291	0.138	0.092
-309.910	-148.677	0.168	0.014
-308.895	74.737	0.079	-0.083
-307.880	-10.083	0.149	0.099
-306.866	-100.580	0.095	0.024
-305.851	-151.263	-0.235	-0.018
-304.837	39.003	-0.514	-0.459
-303.822	800.000	0.076	0.288
-302.807	-200.000	0.047	0.369
-301.793	708.476	0.125	0.330
-300.778	-7.061	0.130	0.088
-299.764	260.136	-0.115	0.198
-298.749	800.000	0.116	0.412
-297.735	800.000	0.057	0.177
-296.720	248.800	-0.050	-0.085
-295.705	-103.727	-0.526	-0.123
-294.691	101.225	-0.086	0.100
-293.676	147.382	-0.062	0.084
-292.662	-60.630	0.137	0.058
-291.647	800.000	0.042	0.164
-290.632	-8.021	0.420	0.283
-289.618	143.318	0.054	0.072
-288.603	-200.000	0.001	0.127
-287.589	177.977	0.058	0.084
-286.574	-14.737	-0.262	0.168
-285.559	-200.000	0.011	0.176
-284.545	-113.672	0.205	0.040
-283.530	-52.179	-0.089	0.041
-282.516	-58.144	-0.092	0.040
-281.501	283.649	0.134	0.241
-280.486	-70.651	-0.243	-0.091
-279.472	800.000	0.081	0.247
-278.457	8.912	0.104	0.078
-277.443	166.146	0.142	-0.200
-276.428	-109.747	-0.208	0.044
-275.413	-125.730	0.022	0.003
-274.399	472.695	0.009	0.020
-273.384	800.000	0.064	-0.256
-272.370	-200.000	0.019	0.290
-271.355	-200.000	0.021	-0.281
-270.340	-101.477	0.366	-0.089
-269.326	-134.911	-0.198	0.024
-268.311	158.121	0.125	0.173
-267.297	-191.327	0.336	-0.003
-266.282	-4.908	0.149	-0.102
-265.267	-200.000	0.015	0.248
-264.253	-33.889	0.146	0.080
-263.238	-200.000	-0.018	0.150
-262.224	281.225	0.134	-0.240
-261.209	66.962	-0.049	0.049
-260.195	-200.000	0.091	-0.496
-259.180	232.692	0.075	0.123
-258.165	800.000	-0.120	0.354
-257.151	-200.000	0.029	0.202
-256.136	615.775	-0.089	0.221
-255.122	199.283	-0.119	-0.182
-254.107	450.361	0.059	0.129
-253.092	800.000	0.056	-0.204
-252.078	543.538	-0.107	-0.254
-251.063	-112.215	-0.086	-0.017
-250.049	-91.223	0.202	-0.058
-249.034	-55.397	-0.127	-0.057
-248.019	-112.645	-0.017	-0.003
-247.005	800.000	-0.051	-0.216
-245.990	-126.188	-0.202	0.030
-244.976	31.451	-0.056	-0.048
-243.961	800.000	-0.041	0.133
-242.946	-75.343	-0.068	0.024
-241.932	313.295	0.045	0.083
-240.917	-56.483	-0.396	-0.175
-239.903	-200.000	-0.014	-0.199
-238.888	800.000	0.088	-0.249
-237.873	22.416	0.154	-0.125
-236.859	77.751	0.195	-0.207
-235.844	-17.041	-0.338	-0.212
-234.830	800.000	0.035	-0.107
-233.815	800.000	0.034	0.139
-232.800	-5.302	0.196	-0.134
-231.786	800.000	0.143	0.477
-230.771	141.308	-0.170	0.224
-229.757	-200.000	0.005	0.393
-228.742	-63.391	0.345	0.141
-227.727	245.645	0.067	0.112
-226.713	371.310	-0.069	-0.138
-225.698	-78.352	-0.220	0.075
-224.684	-153.608	-0.171	-0.012
-223.669	-8.303	-0.223	-0.149
-222.655	-175.953	-0.067	-0.002
-221.640	221.280	0.134	0.214
-220.625	45.595	0.268	0.246
-219.611	-37.333	0.229	-0.122
-218.596	13.748	-0.304	0.235
-217.582	-63.557	-0.252	-0.103
-216.567	-96.752	-0.175	0.046
-215.552	-200.000	-0.059	0.290
-214.538	-200.000	0.003	-0.218
-213.523	-200.000	-0.036	0.339
-212.509	-200.000	-0.006	-0.203
-211.494	368.044	0.126	0.253
-210.479	150.349	-0.197	0.267
-209.465	-200.000	0.093	-0.632
-208.450	-200.000	0.045	-0.294
-207.436	-18.088	0.270	-0.168
-206.421	128.441	-0.186	0.235
-205.406	-200.000	-0.132	0.586
-204.392	-200.000	0.007	0.045
-203.377	-26.425	-0.064	0.037
-202.363	-62.427	-0.197	-0.082
-201.348	15.554	-0.023	-0.018
-200.333	-200.000	-0.020	0.244
-199.319	800.000	-0.120	0.473
-198.304	-101.201	-0.199	0.048
-197.290	-113.869	0.167	0.032
-196.275	-149.909	0.143	-0.011
-195.260	-200.000	-0.038	-0.220
-194.246	-76.312	0.401	-0.140
-193.231	97.003	-0.178	-0.203
-192.217	-155.832	0.276	-0.018
-191.202	-136.598	0.299	0.034
-190.187	-200.000	-0.001	-0.024
-189.173	800.000	-0.057	0.191
-188.158	-122.459	0.210	0.034
-187.144	-200.000	0.031	0.363
-186.129	-140.115	-0.243	0.025
-185.114	-200.000	-0.018	0.108
-184.100	244.050	0.122	0.203
-183.085	0.943	0.079	0.056
-182.071	-109.687	0.360	0.075
-181.056	773.324	-0.099	0.269
-180.042	-116.032	-0.322	0.060
-179.027	800.000	0.014	-0.045
-178.012	-54.123	-0.513	-0.232
-176.998	91.591	0.229	-0.256
-175.983	337.923	0.158	-0.304
-174.969	301.038	0.097	-0.178
-173.954	-45.308	-0.128	-0.063
-172.939	-64.769	-0.109	0.044
-171.925	-34.007	0.179	0.098
-170.910	248.781	-0.094	-0.159
-169.896	-138.969	-0.326	0.035
-168.881	-61.680	0.142	-0.059
-167.866	206.069	0.083	-0.128
-166.852	38.508	-0.043	0.038
-165.837	0.739	0.281	0.199
-164.823	324.328	0.022	-0.041
-163.808	88.185	0.296	-0.326
-162.793	-172.419	-0.449	0.014
-161.779	1.414	-0.184	0.131
-160.764	-23.647	0.313	-0.187
-159.750	-155.782	0.356	-0.023
-158.735	-79.904	0.350	0.117
-157.720	-110.700	0.036	0.007
-156.706	-200.000	0.040	0.182
-155.691	-200.000	0.013	-0.242
-154.677	-136.143	-0.084	-0.010
-153.662	-200.000	0.069	0.348
-152.647	-200.000	-0.063	0.403
-151.633	67.727	-0.262	0.265
-150.618	693.048	-0.069	0.179
-149.604	97.510	-0.318	0.363
-148.589	-200.000	-0.027	0.234
-147.574	195.808	0.075	0.113
-146.560	-200.000	-0.049	-0.273
-145.545	517.989	0.033	0.076
-144.531	800.000	0.125	-0.416
-143.516	-29.586	0.017	0.009
-142.502	86.362	0.124	-0.136
-141.487	274.490	0.175	0.308
-140.472	-4.214	0.029	-0.020
-139.458	353.800	-0.142	0.279
-138.443	346.209	0.154	0.300
-137.429	-200.000	-0.018	0.297
-136.414	111.859	-0.185	-0.221
-135.399	-200.000	-0.003	-0.157
-134.385	800.000	0.036	0.146
-133.370	60.675	0.163	0.160
-132.356	21.966	-0.094	-0.076
-131.341	-132.329	-0.135	-0.017
-130.326	128.237	0.126	0.159
-129.312	-163.496	0.095	0.004
-128.297	-200.000	-0.040	0.180
-127.283	-200.000	-0.052	0.327
-126.268	494.748	0.093	-0.212
-125.253	-59.056	0.252	0.108
-124.239	-132.909	-0.274	0.035
-123.224	232.031	0.029	-0.048
-122.210	-21.424	0.164	-0.099
