DTS Sentinel unit serial number:	SN413079Multiplexer serial number:	ORYXHardware model number:	OX4-SRSoftware version number:	ORYX F/W v4.00 Oryx Data Collector v3.7.2.0data status	okinstallation	princeton_trtdifferential loss correction	single-endedforward channel	channel 2reverse channel	N/Adate	2019/09/16time	14:47:35forward acquisition time	60.00reverse acquisition time	0.00gamma	496.2192k internal	0.2299k external	0.2299temperature offset calibration	0.9940default loss term (dB/km)	0.3790temperature slope calibration	1.0000multiplexer offset coefficient	1.0000multiplexer slope coefficient	1.0000fibre end	0.00T internal ref (°C)	41.50T ext. ref 1 (°C)	14.36T ext. ref 2 (°C)	35.65length (m)	temperature (°C)	Stokes	anti-Stokes-747.200	97.660	-0.146	0.171
-746.185	-200.000	-0.102	0.558
-745.171	800.000	-0.059	-0.245
-744.156	326.018	-0.101	0.198
-743.142	-42.556	0.100	0.052
-742.127	-200.000	-0.111	0.507
-741.112	-33.084	0.134	0.076
-740.098	-66.083	-0.224	0.091
-739.083	-185.120	-0.109	-0.002
-738.069	-200.000	-0.016	0.355
-737.054	-5.348	0.201	-0.141
-736.039	-32.521	-0.252	-0.143
-735.025	211.799	0.050	0.080
-734.010	174.665	-0.192	0.284
-732.996	10.905	0.124	-0.097
-731.981	-81.042	0.090	-0.030
-730.966	-200.000	0.002	0.137
-729.952	-114.414	-0.444	0.087
-728.937	426.861	0.047	-0.104
-727.923	-200.000	0.010	-0.090
-726.908	-179.810	-0.145	0.003
-725.894	-44.115	-0.306	0.157
-724.879	-39.591	-0.100	0.054
-723.864	167.574	-0.096	-0.138
-722.850	119.297	0.092	0.115
-721.835	800.000	0.050	0.166
-720.821	-101.880	-0.558	0.137
-719.806	-92.055	0.148	-0.043
-718.791	-200.000	0.020	0.362
-717.777	150.811	0.178	-0.246
-716.762	-120.528	0.336	-0.058
-715.748	-121.230	0.065	0.011
-714.733	-105.663	-0.334	0.077
-713.718	-173.582	-0.222	0.007
-712.704	-50.852	-0.127	-0.061
-711.689	11.972	-0.190	0.149
-710.675	-36.634	-0.115	-0.063
-709.660	-20.520	0.148	0.093
-708.645	-7.619	-0.207	-0.143
-707.631	-142.456	-0.417	-0.042
-706.616	-144.049	-0.083	0.008
-705.602	-200.000	-0.026	0.122
-704.587	800.000	-0.087	0.387
-703.572	-200.000	-0.005	0.267
-702.558	232.334	-0.019	0.032
-701.543	-200.000	0.025	0.143
-700.529	-90.326	-0.132	0.039
-699.514	116.982	0.034	0.043
-698.499	158.763	-0.208	0.294
-697.485	-133.862	-0.217	0.027
-696.470	2.290	0.100	0.073
-695.456	-2.760	-0.163	-0.116
-694.441	-134.750	-0.278	-0.034
-693.426	800.000	-0.081	0.356
-692.412	-34.720	-0.130	0.073
-691.397	-195.277	-0.355	-0.003
-690.383	40.986	0.158	-0.145
-689.368	35.395	0.159	0.142
-688.354	267.796	-0.065	-0.116
-687.339	-200.000	-0.008	-0.109
-686.324	-61.305	-0.276	0.118
-685.310	-200.000	0.007	-0.289
-684.295	-29.391	0.114	-0.067
-683.281	-3.729	-0.041	-0.029
-682.266	-126.249	-0.212	-0.032
-681.251	33.923	-0.117	0.104
-680.237	-138.571	-0.173	0.019
-679.222	-113.434	-0.368	0.073
-678.208	-200.000	-0.042	-0.273
-677.193	-200.000	0.046	0.266
-676.178	-200.000	-0.066	0.462
-675.164	472.002	-0.152	0.347
-674.149	133.543	-0.044	-0.057
-673.135	-136.221	0.301	0.036
-672.120	66.696	-0.141	-0.146
-671.105	-27.269	-0.290	0.172
-670.091	-200.000	-0.000	0.224
-669.076	-200.000	-0.011	-0.129
-668.062	-87.677	-0.119	0.036
-667.047	394.127	0.092	-0.194
-666.032	-128.458	0.415	0.060
-665.018	202.935	0.176	0.277
-664.003	-121.918	-0.146	0.024
-662.989	104.086	0.127	0.152
-661.974	448.918	-0.024	0.053
-660.959	-104.225	-0.281	-0.066
-659.945	-144.834	0.115	0.011
-658.930	-200.000	0.019	0.190
-657.916	-99.584	-0.266	0.068
-656.901	190.384	0.134	0.204
-655.886	-200.000	-0.036	0.316
-654.872	-81.444	0.116	0.039
-653.857	68.561	0.175	-0.182
-652.843	273.461	-0.119	-0.214
-651.828	-200.000	0.009	-0.239
-650.814	-200.000	0.022	0.165
-649.799	525.875	0.023	-0.055
-648.784	37.851	0.107	-0.097
-647.770	2.303	0.167	0.122
-646.755	29.477	-0.392	-0.339
-645.741	-107.419	-0.308	0.069
-644.726	800.000	-0.054	0.167
-643.711	277.693	0.134	-0.242
-642.697	800.000	-0.104	0.310
-641.682	-9.512	0.124	-0.084
-640.668	72.304	-0.102	0.108
-639.653	-76.065	0.330	-0.118
-638.638	79.983	0.034	0.037
-637.624	243.237	0.221	-0.377
-636.609	94.532	-0.160	-0.185
-635.595	287.580	-0.097	0.178
-634.580	61.738	0.156	-0.158
-633.565	-200.000	-0.015	-0.101
-632.551	74.699	0.176	0.188
-631.536	-93.547	-0.141	0.040
-630.522	-6.486	-0.273	-0.189
-629.507	374.211	0.116	-0.240
-628.492	197.449	0.092	-0.143
-627.478	301.454	-0.216	-0.406
-626.463	-81.345	0.060	-0.020
-625.449	-32.120	-0.070	-0.040
-624.434	-2.697	0.107	0.076
-623.419	33.032	-0.161	0.141
-622.405	-46.542	-0.156	-0.078
-621.390	-137.879	0.296	0.034
-620.376	800.000	0.088	0.329
-619.361	-105.734	0.153	0.035
-618.346	-1.549	0.234	0.167
-617.332	626.902	-0.100	0.256
-616.317	-129.884	0.249	-0.035
-615.303	22.540	0.062	-0.051
-614.288	-174.941	0.184	-0.005
-613.273	-53.508	0.163	-0.076
-612.259	20.813	-0.139	-0.114
-611.244	-80.066	0.408	0.139
-610.230	371.035	0.112	-0.231
-609.215	-16.933	-0.221	-0.142
-608.201	-21.270	0.113	0.070
-607.186	-200.000	-0.039	-0.530
-606.171	318.202	0.126	-0.242
-605.157	79.594	-0.094	0.102
-604.142	-10.809	0.138	0.093
-603.128	800.000	0.041	-0.171
-602.113	-200.000	-0.057	-0.270
-601.098	-83.143	-0.115	0.037
-600.084	159.883	-0.122	0.172
-599.069	-200.000	0.007	-0.090
-598.055	-142.924	0.200	0.020
-597.040	94.818	-0.150	-0.173
-596.025	97.027	-0.260	-0.302
-595.011	-46.547	-0.496	-0.247
-593.996	17.815	-0.203	0.164
-592.982	-200.000	0.023	-0.493
-591.967	188.711	0.046	0.070
-590.952	-72.851	0.108	0.040
-589.938	-115.288	0.223	0.043
-588.923	-200.000	-0.019	0.204
-587.909	-152.257	0.272	-0.020
-586.894	368.770	0.117	-0.239
-585.879	28.920	-0.106	0.091
-584.865	-200.000	-0.018	0.218
-583.850	-100.715	0.193	-0.048
-582.836	-19.496	0.224	0.141
-581.821	-166.500	-0.232	-0.010
-580.806	59.942	-0.150	-0.150
-579.792	9.499	-0.161	0.124
-578.777	172.010	0.049	-0.071
-577.763	-200.000	0.049	0.266
-576.748	-65.510	-0.107	0.044
-575.733	800.000	0.137	-0.485
-574.719	-111.604	-0.186	0.038
-573.704	-88.748	0.087	0.026
-572.690	-41.468	0.278	-0.145
-571.675	800.000	0.061	0.213
-570.661	181.146	-0.171	0.254
-569.646	-126.972	-0.376	0.056
-568.631	-163.530	-0.231	-0.011
-567.617	-26.576	0.168	-0.100
-566.602	-200.000	0.020	-0.277
-565.588	195.573	-0.122	-0.188
-564.573	12.647	-0.164	-0.128
-563.558	294.754	0.125	-0.231
-562.544	-200.000	0.019	-0.144
-561.529	-200.000	-0.008	0.249
-560.515	45.712	-0.036	-0.034
-559.500	103.584	-0.264	0.314
-558.485	388.881	-0.048	-0.101
-557.471	-52.214	-0.454	0.213
-556.456	800.000	-0.013	-0.042
-555.442	-200.000	0.015	-0.178
-554.427	-9.344	-0.060	0.041
-553.412	81.615	0.180	0.197
-552.398	800.000	0.039	0.169
-551.383	-71.322	-0.179	0.068
-550.369	240.098	-0.076	0.128
-549.354	-111.888	-0.304	0.062
-548.339	226.280	-0.016	-0.027
-547.325	16.491	0.023	-0.018
-546.310	11.471	0.095	0.074
-545.296	332.633	-0.144	0.282
-544.281	-99.706	0.130	-0.033
-543.266	-184.627	-0.262	0.004
-542.252	-104.506	0.068	-0.016
-541.237	361.642	0.026	0.052
-540.223	-111.196	-0.098	0.020
-539.208	-200.000	0.056	0.401
-538.193	110.799	0.288	-0.350
-537.179	56.924	0.373	0.368
-536.164	-200.000	0.043	0.268
-535.150	-95.187	-0.068	0.019
-534.135	800.000	-0.062	0.191
-533.121	136.511	0.164	-0.217
-532.106	8.862	0.171	-0.131
-531.091	259.517	0.081	-0.142
-530.077	-121.017	0.242	0.041
-529.062	-55.778	-0.015	-0.007
-528.048	402.573	0.094	-0.199
-527.033	286.161	0.038	-0.069
-526.018	800.000	0.038	-0.122
-525.004	800.000	0.050	0.200
-523.989	370.869	-0.146	-0.299
-522.975	423.363	0.053	0.115
-521.960	79.783	-0.174	0.189
-520.945	-76.383	0.180	0.064
-519.931	-200.000	0.158	0.001
-518.916	410.594	0.052	-0.111
-517.902	-7.183	-0.090	0.062
-516.887	75.598	0.171	-0.182
-515.872	-185.480	-0.234	0.004
-514.858	-200.000	0.067	-0.423
-513.843	138.146	-0.158	0.209
-512.829	51.219	0.142	-0.137
-511.814	-200.000	-0.043	-0.462
-510.799	1.059	-0.172	-0.125
-509.785	-123.861	-0.181	0.029
-508.770	487.182	-0.236	0.544
-507.756	49.319	-0.286	-0.272
-506.741	462.914	-0.029	-0.065
-505.726	-122.687	0.076	0.012
-504.712	-200.000	-0.004	-0.287
-503.697	69.455	-0.158	0.164
-502.683	781.506	0.083	0.229
-501.668	-200.000	-0.071	0.378
-500.653	-10.060	-0.135	0.090
-499.639	800.000	0.065	-0.252
-498.624	-174.652	-0.226	0.007
-497.610	-200.000	0.036	-0.218
-496.595	35.562	0.143	0.127
-495.581	800.000	-0.023	-0.071
-494.566	44.975	0.265	-0.247
-493.551	592.908	0.095	-0.237
-492.537	800.000	0.155	0.433
-491.522	397.440	-0.077	0.163
-490.508	252.944	-0.107	-0.184
-489.493	-128.987	0.225	-0.032
-488.478	800.000	0.108	0.317
-487.464	-200.000	-0.040	0.182
-486.449	172.817	0.079	-0.115
-485.435	-54.823	0.204	-0.093
-484.420	-109.276	-0.178	0.038
-483.405	-200.000	-0.030	0.187
-482.391	-113.585	-0.074	0.015
-481.376	-66.164	0.345	-0.139
-480.362	-200.000	0.022	0.214
-479.347	-162.316	0.098	0.005
-478.332	685.353	0.096	0.252
-477.318	268.640	0.242	-0.429
-476.303	581.511	0.048	-0.119
-475.289	114.030	-0.059	0.072
-474.274	215.980	-0.055	0.088
-473.259	289.325	0.081	-0.147
-472.245	-79.892	-0.252	0.086
-471.230	135.381	-0.147	-0.193
-470.216	42.282	0.205	0.188
-469.201	-26.768	0.229	-0.135
-468.186	673.056	-0.141	-0.368
-467.172	-27.321	-0.116	0.068
-466.157	-136.937	-0.120	-0.014
-465.143	800.000	0.145	0.480
-464.128	217.583	-0.284	0.458
-463.113	-93.977	-0.074	0.021
-462.099	-127.804	-0.135	0.020
-461.084	35.436	0.077	-0.068
-460.070	-125.207	-0.179	-0.028
-459.055	-200.000	0.140	0.001
-458.040	-88.794	-0.093	0.028
-457.026	-40.714	0.261	0.137
-456.011	-200.000	0.024	-0.273
-454.997	38.029	-0.326	-0.293
-453.982	296.058	0.075	-0.139
-452.968	429.784	-0.065	-0.142
-451.953	380.563	0.046	-0.096
-450.938	-190.839	-0.260	-0.003
-449.924	-113.038	-0.231	0.046
-448.909	-43.920	0.123	-0.062
-447.895	563.648	0.070	-0.170
-446.880	-200.000	0.013	0.195
-445.865	-200.000	0.007	-0.123
-444.851	435.909	-0.032	-0.070
-443.836	399.686	-0.157	-0.333
-442.822	-103.773	0.145	-0.034
-441.807	-200.000	0.040	0.274
-440.792	352.359	-0.035	-0.069
-439.778	-63.264	-0.373	0.155
-438.763	-42.659	-0.419	0.215
-437.749	75.817	-0.149	-0.159
-436.734	-5.648	-0.119	0.082
-435.719	-72.026	0.313	0.117
-434.705	-200.000	-0.061	-0.365
-433.690	800.000	0.148	0.421
-432.676	-95.664	-0.360	0.097
-431.661	226.874	0.096	0.158
-430.646	-160.214	-0.172	0.009
-429.632	-200.000	0.029	0.136
-428.617	-153.997	0.239	0.016
-427.603	800.000	-0.067	-0.286
-426.588	88.842	-0.151	-0.170
-425.573	63.015	-0.096	-0.097
-424.559	800.000	-0.036	-0.134
-423.544	63.829	0.133	-0.135
-422.530	93.654	-0.232	0.265
-421.515	-35.736	0.423	-0.231
-420.500	-110.851	0.224	-0.047
-419.486	-200.000	0.053	0.298
-418.471	-37.403	0.164	-0.088
-417.457	525.322	-0.105	-0.249
-416.442	800.000	0.066	-0.208
-415.428	419.068	0.083	-0.178
-414.413	-73.136	-0.296	0.109
-413.398	800.000	0.055	0.207
-412.384	211.274	0.076	0.120
-411.369	16.488	-0.133	0.106
-410.355	23.302	0.141	0.117
-409.340	318.979	0.138	-0.263
-408.325	-70.659	0.020	-0.008
-407.311	112.553	-0.144	0.176
-406.296	66.877	0.137	-0.141
-405.282	800.000	-0.126	0.435
-404.267	211.276	-0.066	0.104
-403.252	128.347	0.129	0.166
-402.238	-96.988	0.256	0.067
-401.223	170.172	-0.107	-0.153
-400.209	777.725	-0.025	0.070
-399.194	-152.090	-0.295	-0.022
-398.179	-188.160	-0.281	0.004
-397.165	-164.061	-0.181	0.008
-396.150	-48.258	0.317	0.154
-395.136	800.000	-0.014	-0.053
-394.121	53.456	-0.187	0.181
-393.106	800.000	-0.132	-0.388
-392.092	209.512	0.146	0.230
-391.077	800.000	-0.078	-0.341
-390.063	81.346	0.286	0.312
-389.048	-149.325	0.208	-0.017
-388.033	-50.025	0.048	-0.023
-387.019	-109.688	-0.087	0.018
-386.004	-38.150	0.243	0.130
-384.990	-20.357	-0.153	-0.095
-383.975	-55.257	-0.154	0.070
-382.960	0.875	0.100	0.072
-381.946	-1.947	-0.262	-0.185
-380.931	247.254	-0.146	-0.248
-379.917	209.990	-0.192	0.303
-378.902	-200.000	-0.061	0.285
-377.888	-200.000	0.015	0.149
-376.873	409.762	0.179	-0.382
-375.858	6.673	-0.362	0.271
-374.844	404.129	-0.088	-0.185
-373.829	52.981	0.144	-0.139
-372.815	-141.879	0.297	-0.030
-371.800	142.840	-0.030	-0.040
-370.785	-119.623	-0.340	-0.059
-369.771	-106.766	0.117	-0.026
-368.756	800.000	0.012	-0.041
-367.742	-130.334	-0.048	0.007
-366.727	48.772	0.139	0.131
-365.712	-200.000	0.025	0.114
-364.698	-5.012	0.210	-0.146
-363.683	775.972	0.090	-0.246
-362.669	-54.357	-0.314	-0.143
-361.654	272.039	-0.106	0.189
-360.639	-97.923	-0.242	-0.063
-359.625	800.000	-0.086	0.304
-358.610	-4.776	-0.215	0.149
-357.596	415.972	0.034	0.074
-356.581	55.741	-0.294	-0.286
-355.566	-14.501	0.245	0.159
-354.552	-200.000	0.022	-0.297
-353.537	637.961	-0.026	0.066
-352.523	-82.268	0.325	-0.106
-351.508	91.129	-0.091	-0.103
-350.493	15.113	0.239	0.188
-349.479	53.140	0.317	-0.305
-348.464	-80.631	0.083	-0.028
-347.450	704.777	0.164	-0.435
-346.435	800.000	-0.022	0.094
-345.420	-57.252	0.043	0.019
-344.406	800.000	0.041	-0.146
-343.391	222.520	-0.067	-0.108
-342.377	-200.000	-0.039	0.223
-341.362	-200.000	0.020	0.089
-340.348	-171.470	-0.285	-0.010
-339.333	-200.000	-0.031	-0.274
-338.318	-127.836	0.086	0.012
-337.304	50.225	-0.178	-0.169
-336.289	800.000	-0.043	-0.129
-335.275	800.000	0.055	-0.197
-334.260	-200.000	-0.001	-0.078
-333.245	12.823	-0.191	0.149
-332.231	800.000	0.002	0.006
-331.216	790.798	0.080	0.222
-330.202	-93.343	-0.254	-0.071
-329.187	-102.799	0.272	0.065
-328.172	44.308	0.190	0.175
-327.158	19.776	0.228	0.184
-326.143	-119.592	0.173	-0.030
-325.129	-154.589	0.168	-0.011
-324.114	6.485	0.220	0.164
-323.099	270.728	0.133	0.236
-322.085	29.360	0.098	0.084
-321.070	-11.957	-0.119	0.078
-320.056	-170.721	0.205	0.007
-319.041	-145.371	-0.165	-0.015
-318.026	44.575	0.231	-0.213
-317.012	-0.927	-0.244	-0.173
-315.997	-1.009	0.216	0.154
-314.983	381.469	0.090	-0.185
-313.968	37.463	0.041	0.036
-312.953	38.627	0.087	0.078
-311.939	800.000	-0.066	-0.186
-310.924	-61.027	0.271	-0.115
-309.910	-117.830	0.316	0.057
-308.895	-83.059	-0.208	0.067
-307.880	53.984	-0.040	0.038
-306.866	48.679	-0.389	0.366
-305.851	-200.000	-0.014	0.116
-304.837	304.720	-0.176	0.327
-303.822	800.000	-0.090	0.394
-302.807	-49.475	0.371	0.177
-301.793	78.358	0.108	0.116
-300.778	-113.680	-0.222	0.043
-299.764	-51.308	-0.147	-0.069
-298.749	-66.028	-0.157	0.063
-297.735	226.987	-0.060	-0.098
-296.720	-184.156	0.217	0.004
-295.705	46.379	0.307	0.286
-294.691	-200.000	-0.039	0.185
-293.676	-60.541	0.082	-0.035
-292.662	67.954	0.188	-0.193
-291.647	326.335	0.052	0.099
-290.632	28.209	-0.270	0.228
-289.618	43.960	-0.234	-0.215
-288.603	-29.414	0.073	-0.042
-287.589	-154.070	0.111	0.008
-286.574	-130.931	0.224	0.030
-285.559	-91.769	0.334	0.095
-284.545	-43.252	0.504	0.256
-283.530	133.679	-0.095	0.123
-282.516	190.799	0.210	-0.317
-281.501	800.000	-0.027	-0.101
-280.486	-200.000	0.001	-0.105
-279.472	-200.000	0.022	-0.432
-278.457	388.801	-0.029	0.059
-277.443	45.216	0.139	0.128
-276.428	22.112	-0.213	0.174
-275.413	-149.731	-0.134	-0.011
-274.399	800.000	0.064	0.207
-273.384	-200.000	0.024	0.189
-272.370	-189.295	-0.033	-0.000
-271.355	-107.040	0.241	0.053
-270.340	-9.719	-0.285	-0.190
-269.326	-200.000	-0.024	0.492
-268.311	-183.802	-0.554	0.009
-267.297	-49.669	-0.065	0.031
-266.282	-149.762	-0.186	-0.015
-265.267	-23.500	0.188	0.113
-264.253	-8.342	-0.369	-0.249
-263.238	-177.225	0.118	0.003
-262.224	-178.050	0.110	-0.003
-261.209	-93.115	-0.318	0.089
-260.195	428.924	-0.053	0.114
-259.180	-89.873	0.127	0.037
-258.165	-59.358	0.131	-0.056
-257.151	88.784	-0.112	-0.125
-256.136	-106.214	-0.211	0.047
-255.122	101.755	-0.292	-0.341
-254.107	142.180	-0.075	0.100
-253.092	141.215	0.064	-0.085
-252.078	40.593	-0.043	0.039
-251.063	800.000	0.074	0.297
-250.049	-169.435	-0.331	-0.012
-249.034	26.074	-0.130	0.109
-248.019	-11.171	-0.123	-0.081
-247.005	-165.620	-0.095	0.004
-245.990	35.759	0.326	0.287
-244.976	-200.000	-0.068	0.315
-243.961	-19.480	0.158	-0.098
-242.946	219.421	0.108	0.173
-241.932	152.381	-0.193	0.264
-240.917	-113.735	-0.299	-0.058
-239.903	800.000	0.071	0.296
-238.888	-200.000	0.010	0.051
-237.873	182.856	0.331	-0.489
-236.859	168.793	-0.209	-0.298
-235.844	-200.000	-0.046	0.321
-234.830	775.909	-0.200	-0.546
-233.815	27.286	0.107	-0.090
-232.800	-123.842	0.366	0.058
-231.786	-200.000	0.012	-0.161
-230.771	-146.354	0.137	0.012
-229.757	319.349	0.198	0.376
-228.742	682.890	0.077	-0.202
-227.727	81.434	0.185	0.200
-226.713	-184.666	-0.307	-0.005
-225.698	84.294	-0.130	-0.142
-224.684	800.000	0.071	-0.263
-223.669	-1.713	-0.148	0.104
-222.655	-200.000	-0.003	-0.440
-221.640	-111.608	-0.218	-0.044
-220.625	-200.000	0.027	-0.226
-219.611	729.748	0.050	-0.133
-218.596	-200.000	0.047	-0.223
-217.582	800.000	-0.036	0.146
-216.567	-200.000	0.015	-0.342
-215.552	195.003	0.173	-0.262
-214.538	145.532	-0.057	0.076
-213.523	-200.000	0.011	-0.070
-212.509	169.972	0.134	0.192
-211.494	74.879	0.199	0.209
-210.479	-94.238	-0.128	-0.035
-209.465	-200.000	-0.000	-0.130
-208.450	-200.000	-0.002	-0.093
-207.436	-200.000	-0.009	0.352
-206.421	30.542	0.148	-0.126
-205.406	800.000	-0.029	0.083
-204.392	89.733	-0.270	0.301
-203.377	-111.964	-0.115	0.023
-202.363	340.324	-0.085	0.165
-201.348	-66.410	0.070	-0.028
-200.333	62.927	-0.103	-0.103
-199.319	37.779	-0.060	0.053
-198.304	120.621	0.121	-0.151
-197.290	-28.746	0.209	0.120
-196.275	235.237	0.110	0.181
-195.260	800.000	0.010	-0.029
-194.246	-10.675	0.194	-0.128
-193.231	-69.015	-0.156	0.060
-192.217	149.307	0.143	0.194
-191.202	-165.573	0.135	0.006
-190.187	-23.524	0.176	-0.105
-189.173	27.434	-0.209	0.175
-188.158	-200.000	-0.103	-0.514
-187.144	249.505	0.138	-0.233
-186.129	699.628	0.039	-0.104
-185.114	-149.164	0.168	0.013
-184.100	800.000	-0.043	0.122
-183.085	-200.000	0.026	0.230
-182.071	189.455	0.167	0.250
-181.056	800.000	0.057	0.158
-180.042	-150.444	0.081	0.006
-179.027	194.730	-0.150	-0.228
-178.012	-200.000	-0.027	0.207
-176.998	-124.489	0.306	-0.047
-175.983	-200.000	-0.015	0.329
-174.969	67.523	0.067	-0.068
-173.954	109.657	-0.108	0.129
-172.939	-14.757	-0.151	0.097
-171.925	-19.870	-0.205	-0.126
-170.910	24.982	-0.234	-0.194
-169.896	573.460	0.052	-0.126
-168.881	-200.000	-0.041	-0.198
-167.866	-110.771	0.058	-0.012
-166.852	800.000	0.008	-0.031
-165.837	800.000	0.088	-0.357
-164.823	143.117	-0.112	-0.148
-163.808	800.000	-0.152	0.437
-162.793	800.000	-0.065	0.234
-161.779	330.652	0.118	-0.227
-160.764	-46.725	0.246	0.120
-159.750	800.000	0.099	0.326
-158.735	-200.000	0.071	0.618
-157.720	-4.975	-0.185	0.127
-156.706	188.269	-0.157	0.233
-155.691	-200.000	0.011	-0.056
-154.677	393.204	0.127	-0.264
-153.662	800.000	0.076	0.280
-152.647	223.498	-0.079	-0.128
-151.633	-200.000	0.052	-0.258
-150.618	222.598	-0.042	0.067
-149.604	-119.084	0.236	0.041
-148.589	319.038	-0.027	-0.052
-147.574	800.000	-0.057	-0.174
-146.560	-200.000	0.016	-0.105
-145.545	333.213	0.117	-0.225
-144.531	800.000	-0.037	0.142
-143.516	756.352	0.133	-0.358
-142.502	153.245	-0.055	-0.075
-141.487	31.517	0.093	0.080
-140.472	800.000	-0.057	-0.226
-139.458	242.266	0.094	-0.156
-138.443	-38.487	-0.174	-0.092
-137.429	-200.000	0.040	0.240
-136.414	-137.504	0.047	0.005
-135.399	583.903	-0.162	-0.396
-134.385	137.275	0.116	0.151
-133.370	-101.991	-0.114	-0.027
-132.356	-200.000	-0.003	0.411
-131.341	396.856	0.116	-0.241
-130.326	-177.628	0.291	0.007
-129.312	-200.000	0.004	0.141
-128.297	-200.000	0.015	0.218
-127.283	35.822	-0.152	-0.133
-126.268	398.176	-0.080	0.167
-125.253	-117.865	0.348	-0.062
-124.239	-81.625	0.336	0.110
-123.224	-94.329	0.113	0.031
-122.210	235.751	-0.127	-0.209
-121.195	-24.746	-0.129	-0.076
