DTS Sentinel unit serial number:	SN413079Multiplexer serial number:	ORYXHardware model number:	OX4-SRSoftware version number:	ORYX F/W v4.00 Oryx Data Collector v3.7.2.0data status	okinstallation	princeton_trtdifferential loss correction	single-endedforward channel	channel 2reverse channel	N/Adate	2019/09/15time	06:43:35forward acquisition time	60.00reverse acquisition time	0.00gamma	496.2192k internal	0.2326k external	0.2326temperature offset calibration	1.0030default loss term (dB/km)	0.3790temperature slope calibration	1.0000multiplexer offset coefficient	1.0000multiplexer slope coefficient	1.0000fibre end	0.00T internal ref (°C)	30.50T ext. ref 1 (°C)	4.81T ext. ref 2 (°C)	25.45length (m)	temperature (°C)	Stokes	anti-Stokes-747.200	-25.672	0.323	-0.192
-746.185	126.209	0.179	0.228
-745.171	71.195	-0.216	-0.226
-744.156	800.000	-0.053	0.219
-743.142	-112.866	0.463	-0.093
-742.127	800.000	0.095	0.345
-741.112	-118.399	0.222	-0.040
-740.098	261.620	0.091	0.159
-739.083	118.692	-0.071	-0.088
-738.069	200.202	0.149	0.231
-737.054	590.683	0.075	0.187
-736.039	142.059	0.134	-0.180
-735.025	392.273	0.096	0.201
-734.010	350.041	-0.144	-0.287
-732.996	325.020	-0.142	-0.274
-731.981	-81.948	0.384	0.127
-730.966	800.000	-0.037	-0.146
-729.952	742.364	0.084	0.227
-728.937	800.000	0.064	-0.188
-727.923	-105.990	0.289	0.066
-726.908	335.834	-0.036	-0.070
-725.894	425.067	0.120	-0.261
-724.879	-162.410	-0.148	-0.007
-723.864	800.000	0.124	-0.369
-722.850	-117.517	-0.163	0.030
-721.835	27.448	-0.168	-0.142
-720.821	-98.573	0.246	-0.063
-719.806	5.023	-0.433	-0.321
-718.791	359.683	-0.050	-0.100
-717.777	421.619	0.042	0.090
-716.762	800.000	0.099	0.407
-715.748	800.000	-0.043	0.188
-714.733	800.000	0.046	0.199
-713.718	-41.933	-0.064	0.033
-712.704	-142.143	-0.145	-0.015
-711.689	-103.658	-0.090	0.021
-710.675	-83.680	-0.131	0.042
-709.660	800.000	-0.059	-0.259
-708.645	507.710	0.146	-0.341
-707.631	599.613	0.152	0.380
-706.616	-97.282	-0.277	0.073
-705.602	-166.627	-0.125	-0.005
-704.587	-127.063	-0.378	0.056
-703.572	294.825	-0.025	-0.046
-702.558	-104.398	-0.200	-0.047
-701.543	503.648	0.039	-0.091
-700.529	22.337	-0.231	0.190
-699.514	800.000	0.034	0.098
-698.499	-200.000	-0.021	0.330
-697.485	-63.643	0.241	-0.099
-696.470	53.353	0.165	0.159
-695.456	65.624	-0.087	-0.088
-694.441	-200.000	-0.063	-0.295
-693.426	800.000	0.035	-0.132
-692.412	-129.238	-0.145	-0.020
-691.397	186.660	-0.107	0.161
-690.383	167.885	0.070	-0.100
-689.368	-142.103	-0.148	0.015
-688.354	83.868	-0.145	-0.159
-687.339	36.349	-0.126	-0.112
-686.324	-200.000	0.031	-0.280
-685.310	800.000	0.096	-0.414
-684.295	16.093	-0.108	-0.085
-683.281	-152.875	-0.181	0.013
-682.266	-87.913	0.253	-0.077
-681.251	600.225	-0.067	0.167
-680.237	800.000	0.102	-0.342
-679.222	-35.200	0.201	-0.110
-678.208	-200.000	0.031	-0.214
-677.193	-79.514	-0.113	0.038
-676.178	800.000	-0.058	-0.233
-675.164	101.784	0.151	0.178
-674.149	-200.000	-0.025	0.138
-673.135	-61.409	-0.097	-0.041
-672.120	166.949	0.124	0.178
-671.105	-159.242	0.396	0.022
-670.091	-52.195	0.444	0.207
-669.076	559.538	0.208	-0.504
-668.062	-63.099	0.146	0.060
-667.047	-200.000	0.023	-0.140
-666.032	641.824	-0.158	-0.404
-665.018	78.268	0.060	-0.065
-664.003	-91.470	0.125	0.036
-662.989	-20.220	0.468	-0.290
-661.974	-10.120	0.296	-0.197
-660.959	424.733	0.115	0.248
-659.945	106.968	-0.070	0.084
-658.930	367.640	-0.042	-0.085
-657.916	-130.990	0.156	-0.021
-656.901	119.062	-0.266	-0.330
-655.886	301.814	0.003	-0.005
-654.872	-7.847	0.151	0.103
-653.857	-200.000	-0.020	-0.221
-652.843	-72.725	0.149	-0.055
-651.828	-120.661	-0.306	-0.052
-650.814	16.359	0.068	0.054
-649.799	300.598	-0.100	0.185
-648.784	59.202	-0.161	-0.159
-647.770	-33.604	0.090	-0.050
-646.755	-200.000	0.001	-0.159
-645.741	-44.938	0.203	-0.102
-644.726	108.653	0.059	-0.070
-643.711	800.000	0.117	0.383
-642.697	189.275	0.100	0.150
-641.682	-200.000	-0.086	-0.440
-640.668	-64.229	-0.328	-0.134
-639.653	-200.000	-0.003	0.088
-638.638	-33.280	-0.419	-0.233
-637.624	263.992	0.048	0.083
-636.609	131.494	-0.040	0.052
-635.595	157.022	0.173	-0.240
-634.580	-131.644	0.174	0.023
-633.565	-200.000	0.002	0.217
-632.551	-200.000	0.007	0.172
-631.536	-174.315	0.224	-0.006
-630.522	-43.888	0.194	0.098
-629.507	53.428	0.116	0.111
-628.492	28.547	0.167	0.142
-627.478	-200.000	0.054	-0.245
-626.463	-200.000	0.022	0.192
-625.449	-145.736	-0.202	-0.018
-624.434	538.756	-0.040	-0.097
-623.419	343.107	-0.069	-0.136
-622.405	119.402	-0.066	-0.082
-621.390	20.828	0.066	0.054
-620.376	124.534	-0.198	-0.251
-619.361	-120.862	0.268	-0.045
-618.346	520.032	0.072	0.170
-617.332	84.479	0.166	-0.182
-616.317	-176.800	-0.222	-0.006
-615.303	800.000	0.035	0.103
-614.288	514.184	-0.191	0.447
-613.273	-12.095	-0.177	-0.116
-612.259	-129.600	-0.189	0.026
-611.244	30.250	-0.186	-0.160
-610.230	-171.766	0.240	-0.008
-609.215	-169.536	-0.151	0.006
-608.201	-161.129	0.312	-0.016
-607.186	-73.660	-0.076	0.028
-606.171	68.088	-0.250	0.257
-605.157	-87.736	-0.313	0.095
-604.142	-62.652	-0.354	0.147
-603.128	110.664	-0.050	0.060
-602.113	-88.675	-0.117	-0.035
-601.098	-103.875	-0.376	0.088
-600.084	784.416	-0.116	0.319
-599.069	42.865	-0.067	-0.062
-598.055	356.545	0.110	-0.221
-597.040	-4.439	0.245	0.170
-596.025	-6.078	-0.201	-0.138
-595.011	25.537	0.085	-0.071
-593.996	133.741	0.150	0.195
-592.982	-200.000	-0.042	-0.415
-591.967	-200.000	-0.021	-0.152
-590.952	437.312	-0.136	0.296
-589.938	-97.472	0.154	0.040
-588.923	-144.162	-0.124	0.012
-587.909	-200.000	0.001	0.139
-586.894	-46.451	-0.285	0.140
-585.879	-59.830	-0.308	0.132
-584.865	-70.309	0.277	0.105
-583.850	273.766	0.161	0.285
-582.836	381.458	-0.147	-0.302
-581.821	234.288	0.117	0.193
-580.806	-136.874	0.236	-0.027
-579.792	-98.703	0.340	-0.087
-578.777	-95.609	0.206	-0.055
-577.763	-140.626	0.082	-0.008
-576.748	132.398	-0.135	-0.174
-575.733	-89.963	0.193	0.057
-574.719	27.345	0.275	-0.231
-573.704	34.325	0.161	-0.140
-572.690	-200.000	0.008	0.039
-571.675	-200.000	-0.004	0.187
-570.661	372.798	-0.114	0.233
-569.646	245.815	0.178	-0.300
-568.631	-14.280	0.135	0.087
-567.617	-200.000	-0.027	-0.172
-566.602	-168.626	0.334	-0.013
-565.588	800.000	-0.064	-0.266
-564.573	800.000	-0.057	0.170
-563.558	-181.623	0.292	-0.006
-562.544	800.000	-0.134	-0.543
-561.529	-200.000	0.004	0.075
-560.515	-25.644	-0.166	-0.098
-559.500	-86.869	-0.228	-0.070
-558.485	98.047	-0.099	-0.114
-557.471	-200.000	0.077	-0.396
-556.456	800.000	-0.094	-0.265
-555.442	321.244	-0.066	0.125
-554.427	-200.000	-0.005	0.180
-553.412	-200.000	0.004	-0.303
-552.398	61.201	-0.080	-0.079
-551.383	241.007	-0.080	0.134
-550.369	800.000	-0.152	0.446
-549.354	-183.638	-0.304	-0.005
-548.339	-42.177	-0.164	0.084
-547.325	-76.818	-0.222	0.078
-546.310	227.572	0.171	0.279
-545.296	-110.761	0.179	0.037
-544.281	-129.866	0.356	-0.049
-543.266	45.070	-0.087	-0.080
-542.252	173.784	0.074	-0.107
-541.237	37.449	0.121	-0.108
-540.223	26.956	0.174	0.146
-539.208	113.164	-0.179	-0.217
-538.193	512.444	0.060	0.140
-537.179	-75.562	-0.136	0.049
-536.164	-141.340	-0.297	0.030
-535.150	-200.000	0.045	-0.240
-534.135	541.115	-0.159	0.379
-533.121	13.225	-0.146	0.113
-532.106	48.827	-0.136	0.128
-531.091	-90.241	-0.183	-0.053
-530.077	308.608	-0.029	-0.054
-529.062	-6.586	-0.136	-0.093
-528.048	-130.921	-0.279	0.037
-527.033	146.789	-0.079	-0.106
-526.018	-200.000	-0.035	-0.329
-525.004	41.066	0.075	-0.068
-523.989	408.949	0.070	0.147
-522.975	-59.415	0.104	-0.045
-521.960	143.779	-0.121	-0.161
-520.945	-200.000	-0.006	-0.103
-519.931	20.910	-0.271	-0.220
-518.916	800.000	0.045	0.125
-517.902	-15.591	-0.252	-0.161
-516.887	-161.847	-0.223	-0.011
-515.872	-200.000	-0.048	-0.306
-514.858	446.116	0.080	-0.177
-513.843	3.697	0.110	0.080
-512.829	-200.000	-0.025	0.206
-511.814	159.786	-0.321	-0.447
-510.799	52.793	-0.073	0.070
-509.785	56.824	0.242	-0.236
-508.770	-7.531	0.241	0.163
-507.756	-32.333	0.026	-0.015
-506.741	800.000	0.077	0.220
-505.726	800.000	0.124	-0.347
-504.712	-200.000	0.007	0.064
-503.697	-71.155	-0.107	0.040
-502.683	-51.023	-0.212	0.100
-501.668	-151.235	-0.111	-0.008
-500.653	-21.488	-0.372	-0.226
-499.639	101.223	0.068	-0.079
-498.624	131.704	0.114	-0.147
-497.610	93.830	0.283	0.320
-496.595	-200.000	0.014	-0.206
-495.581	-149.553	0.256	0.020
-494.566	-143.513	0.170	0.016
-493.551	-179.467	-0.022	0.000
-492.537	800.000	-0.109	-0.336
-491.522	-200.000	-0.086	-0.604
-490.508	-79.311	0.164	0.055
-489.493	800.000	0.044	-0.134
-488.478	288.802	0.081	-0.147
-487.464	-137.990	0.171	0.019
-486.449	211.575	0.152	-0.238
-485.435	6.602	0.052	0.038
-484.420	-50.087	-0.196	-0.093
-483.405	-34.909	-0.313	0.171
-482.391	143.034	0.163	-0.216
-481.376	730.673	-0.124	0.331
-480.362	26.562	-0.330	-0.276
-479.347	-49.806	0.074	0.035
-478.332	-94.684	-0.211	0.057
-477.318	29.657	0.320	-0.272
-476.303	-200.000	0.086	-0.405
-475.289	671.544	-0.039	-0.102
-474.274	33.071	0.350	-0.303
-473.259	350.830	-0.220	0.434
-472.245	-5.261	0.062	-0.042
-471.230	-24.531	-0.087	0.051
-470.216	185.938	-0.101	0.150
-469.201	38.528	-0.311	-0.277
-468.186	-200.000	-0.018	-0.080
-467.172	27.767	0.169	-0.142
-466.157	50.515	0.179	-0.169
-465.143	34.977	-0.200	0.175
-464.128	-148.316	0.026	-0.002
-463.113	-72.684	-0.311	0.114
-462.099	-200.000	-0.011	0.483
-461.084	-38.099	-0.506	0.268
-460.070	222.506	-0.043	-0.069
-459.055	70.538	0.170	0.175
-458.040	-200.000	-0.060	-0.406
-457.026	41.258	-0.327	0.295
-456.011	-200.000	0.025	0.351
-454.997	-124.877	-0.478	0.074
-453.982	370.303	0.024	0.049
-452.968	-38.354	-0.207	-0.109
-451.953	-127.198	0.184	0.027
-450.938	-96.983	-0.090	-0.023
-449.924	-181.064	0.232	-0.005
-448.909	325.397	0.047	0.089
-447.895	392.859	-0.042	-0.086
-446.880	44.499	-0.158	0.145
-445.865	-200.000	-0.012	0.249
-444.851	316.568	0.092	-0.174
-443.836	583.504	0.089	0.219
-442.822	40.282	0.116	0.104
-441.807	67.397	0.336	-0.342
-440.792	-12.376	0.156	-0.101
-439.778	157.562	-0.143	0.197
-438.763	800.000	-0.178	-0.634
-437.749	533.417	-0.037	0.088
-436.734	800.000	-0.048	-0.145
-435.719	-200.000	-0.040	0.200
-434.705	-171.151	-0.021	-0.001
-433.690	800.000	0.019	0.075
-432.676	-104.268	0.129	-0.030
-431.661	-59.164	-0.178	-0.077
-430.646	608.091	-0.112	0.279
-429.632	-33.220	-0.220	-0.121
-428.617	-113.496	0.208	-0.040
-427.603	30.432	0.126	-0.107
-426.588	384.461	0.172	0.354
-425.573	-22.781	0.259	0.156
-424.559	-109.556	-0.046	-0.010
-423.544	-200.000	0.005	-0.114
-422.530	-199.288	0.345	0.002
-421.515	-160.620	0.184	0.010
-420.500	103.070	0.177	-0.207
-419.486	665.891	0.119	-0.306
-418.471	-104.186	0.178	-0.041
-417.457	-126.865	0.346	-0.051
-416.442	-76.254	0.302	0.106
-415.428	-200.000	0.021	-0.277
-414.413	-102.477	0.251	-0.060
-413.398	131.687	-0.103	0.132
-412.384	349.820	0.037	0.072
-411.369	-80.904	0.137	-0.045
-410.355	800.000	0.077	0.281
-409.340	182.971	0.046	0.068
-408.325	156.875	-0.107	0.148
-407.311	77.162	-0.234	-0.248
-406.296	-130.912	0.180	-0.024
-405.282	-86.601	-0.512	-0.156
-404.267	99.018	0.109	-0.125
-403.252	84.236	-0.147	0.160
-402.238	-185.052	0.121	-0.002
-401.223	-200.000	-0.018	0.233
-400.209	44.879	0.282	-0.258
-399.194	548.354	-0.044	0.105
-398.179	89.748	-0.102	-0.113
-397.165	58.089	0.155	0.151
-396.150	11.581	0.095	0.072
-395.136	-84.008	-0.302	-0.096
-394.121	86.776	0.312	0.342
-393.106	24.902	0.099	0.081
-392.092	31.454	-0.215	-0.184
-391.077	210.310	-0.138	-0.216
-390.063	-92.663	-0.094	0.026
-389.048	20.795	-0.199	0.161
-388.033	-139.345	0.326	-0.035
-387.019	-96.997	-0.210	-0.055
-386.004	-190.534	0.204	-0.002
-384.990	-18.040	0.085	-0.053
-383.975	319.092	-0.216	-0.407
-382.960	800.000	0.149	-0.509
-381.946	-77.215	-0.269	0.093
-380.931	800.000	-0.057	-0.216
-379.917	48.945	-0.099	0.093
-378.902	-104.117	0.174	0.040
-377.888	271.717	0.133	-0.233
-376.873	-200.000	0.058	0.321
-375.858	-81.728	0.299	-0.098
-374.844	-177.753	-0.067	0.002
-373.829	622.937	0.130	0.326
-372.815	187.869	-0.070	0.104
-371.800	-119.633	0.404	0.070
-370.785	170.231	0.108	0.153
-369.771	-92.826	0.270	-0.075
-368.756	340.854	0.145	0.281
-367.742	-25.561	-0.258	0.151
-366.727	697.134	0.144	0.376
-365.712	25.393	0.199	0.164
-364.698	566.855	-0.089	-0.214
-363.683	24.663	0.086	-0.071
-362.669	399.657	0.071	-0.149
-361.654	-59.152	0.293	0.126
-360.639	96.311	0.303	0.345
-359.625	-200.000	0.038	-0.191
-358.610	54.369	0.275	-0.263
-357.596	-113.444	0.011	0.002
-356.581	-186.062	0.131	0.002
-355.566	-200.000	0.052	-0.271
-354.552	800.000	0.091	0.286
-353.537	-200.000	0.003	0.199
-352.523	-200.000	0.002	-0.221
-351.508	-3.040	-0.102	-0.071
-350.493	-200.000	0.057	0.483
-349.479	-3.119	0.275	-0.190
-348.464	800.000	-0.148	-0.437
-347.450	-77.342	0.111	0.038
-346.435	315.905	0.093	-0.175
-345.420	313.749	0.090	-0.168
-344.406	239.856	-0.028	0.046
-343.391	-41.816	0.330	0.168
-342.377	-8.845	0.219	-0.146
-341.362	-200.000	-0.053	0.409
-340.348	-200.000	0.000	0.209
-339.333	-111.333	-0.124	-0.025
-338.318	23.370	0.317	0.258
-337.304	76.589	0.107	0.113
-336.289	296.716	0.066	0.120
-335.275	-200.000	-0.024	-0.236
-334.260	205.061	-0.146	-0.224
-333.245	-50.985	0.106	-0.050
-332.231	800.000	-0.107	0.321
-331.216	0.467	-0.163	-0.115
-330.202	-105.868	-0.475	0.106
-329.187	565.300	-0.093	-0.225
-328.172	263.358	0.077	0.132
-327.158	-200.000	0.015	0.140
-326.143	94.878	-0.080	0.090
-325.129	118.491	-0.023	-0.028
-324.114	33.464	-0.187	-0.162
-323.099	800.000	-0.083	0.238
-322.085	-142.979	-0.190	0.018
-321.070	-93.321	0.355	0.098
-320.056	800.000	-0.054	0.207
-319.041	-106.773	0.130	-0.029
-318.026	-200.000	-0.005	0.108
-317.012	-31.905	-0.304	0.169
-315.997	53.008	-0.251	0.238
-314.983	800.000	0.032	0.128
-313.968	-200.000	-0.009	0.072
-312.953	-47.604	-0.273	0.131
-311.939	-74.582	-0.089	-0.032
-310.924	-162.392	0.146	0.007
-309.910	-133.626	0.224	-0.028
-308.895	29.110	-0.024	0.020
-307.880	800.000	-0.017	0.048
-306.866	-200.000	0.026	0.153
-305.851	800.000	-0.039	-0.139
-304.837	800.000	0.078	0.231
-303.822	-40.343	0.231	-0.119
-302.807	228.703	-0.140	0.226
-301.793	29.526	0.032	-0.027
-300.778	-104.840	-0.498	-0.113
-299.764	69.148	-0.195	0.199
-298.749	-131.469	-0.125	-0.016
-297.735	800.000	0.032	-0.089
-296.720	80.619	0.103	0.110
-295.705	-200.000	-0.015	-0.072
-294.691	-61.878	-0.288	-0.119
-293.676	-23.717	0.112	-0.067
-292.662	-82.833	-0.193	-0.062
-291.647	-163.677	0.347	-0.016
-290.632	-125.827	0.302	0.045
-289.618	800.000	0.072	0.309
-288.603	-90.547	-0.744	-0.213
-287.589	-82.414	-0.135	0.043
-286.574	-200.000	0.016	0.179
-285.559	-55.144	0.216	-0.096
-284.545	-93.049	-0.538	-0.148
-283.530	-123.085	-0.149	-0.024
-282.516	175.590	-0.170	-0.244
-281.501	171.124	0.288	-0.409
-280.486	-200.000	0.007	0.093
-279.472	110.455	-0.209	-0.248
-278.457	16.133	-0.177	-0.138
-277.443	178.778	0.092	-0.134
-276.428	-91.765	0.145	0.041
-275.413	-113.974	0.096	-0.018
-274.399	-200.000	-0.092	0.561
-273.384	21.548	-0.170	-0.137
-272.370	17.610	-0.093	0.073
-271.355	800.000	0.058	0.181
-270.340	-82.803	-0.284	-0.091
-269.326	800.000	-0.092	-0.254
-268.311	222.458	-0.113	-0.179
-267.297	183.557	-0.105	0.153
-266.282	-200.000	-0.018	-0.129
-265.267	-181.217	-0.334	-0.007
-264.253	99.399	-0.173	-0.198
-263.238	47.850	0.090	-0.084
-262.224	-200.000	-0.001	0.209
-261.209	-200.000	0.011	-0.111
-260.195	-200.000	0.010	0.207
-259.180	-109.613	-0.154	0.032
-258.165	800.000	-0.031	-0.093
-257.151	-53.338	-0.233	-0.106
-256.136	-54.942	-0.184	-0.082
-255.122	1.193	0.325	-0.231
-254.107	-43.426	-0.330	0.165
-253.092	109.683	0.111	0.131
-252.078	-200.000	0.041	0.237
-251.063	334.964	0.068	-0.131
-250.049	41.942	0.307	0.275
-249.034	0.600	-0.174	0.123
-248.019	-200.000	-0.015	-0.198
-247.005	20.342	-0.047	-0.038
-245.990	-200.000	-0.021	-0.195
-244.976	48.801	-0.076	0.071
-243.961	-131.760	0.132	0.017
-242.946	-175.385	0.346	-0.009
-241.932	-200.000	0.011	-0.229
-240.917	65.746	0.259	0.260
-239.903	110.123	-0.010	0.012
-238.888	81.252	0.086	0.092
-237.873	13.492	0.192	-0.148
-236.859	-133.826	0.244	-0.030
-235.844	-77.187	0.063	-0.022
-234.830	-59.345	0.163	-0.069
-233.815	83.401	-0.052	-0.056
-232.800	-86.491	-0.253	-0.077
-231.786	-200.000	0.011	0.143
-230.771	-149.791	-0.161	-0.012
-229.757	-200.000	-0.008	0.135
-228.742	800.000	-0.028	-0.075
-227.727	-116.227	0.251	0.046
-226.713	-138.406	0.217	0.024
-225.698	57.967	-0.144	0.140
-224.684	131.510	0.144	0.182
-223.669	80.717	0.137	-0.146
-222.655	634.365	-0.201	0.503
-221.640	456.770	-0.068	-0.148
-220.625	-200.000	-0.001	-0.014
-219.611	42.911	-0.035	0.032
-218.596	-35.751	0.162	-0.087
-217.582	164.255	0.188	-0.261
-216.567	-136.493	0.033	-0.004
-215.552	66.481	0.105	0.106
-214.538	-128.399	-0.228	-0.032
-213.523	-200.000	-0.009	0.068
-212.509	53.598	-0.080	0.075
-211.494	58.948	0.215	-0.209
-210.479	-129.066	-0.292	0.040
-209.465	-72.060	0.512	0.188
-208.450	800.000	-0.070	-0.277
-207.436	-43.914	-0.234	0.116
-206.421	444.432	-0.253	0.547
-205.406	292.550	-0.050	-0.091
-204.392	65.107	0.097	0.096
-203.377	-45.055	0.075	-0.037
-202.363	800.000	0.170	0.512
-201.348	-171.260	-0.231	-0.008
-200.333	10.199	0.076	0.057
-199.319	-32.138	0.187	-0.103
-198.304	73.116	-0.182	-0.188
-197.290	402.081	-0.075	0.156
-196.275	11.721	-0.096	0.073
-195.260	90.363	-0.167	0.184
-194.246	-200.000	0.530	0.002
-193.231	44.156	0.272	-0.246
-192.217	64.057	0.106	-0.105
-191.202	-200.000	-0.015	-0.082
-190.187	-83.650	-0.286	0.090
-189.173	-123.387	0.194	0.030
-188.158	-200.000	-0.029	0.241
-187.144	800.000	0.028	0.104
-186.129	-200.000	-0.020	-0.171
-185.114	44.560	-0.053	0.048
-184.100	741.543	0.091	0.241
-183.085	-200.000	0.026	0.262
-182.071	-82.348	-0.200	-0.064
-181.056	-100.524	-0.135	-0.033
-180.042	621.080	-0.104	-0.259
-179.027	-200.000	-0.004	0.092
-178.012	-94.163	0.399	0.108
-176.998	164.009	-0.205	0.285
-175.983	155.740	0.138	0.188
-174.969	-46.559	0.337	-0.163
-173.954	-200.000	0.008	0.243
-172.939	800.000	0.092	0.301
-171.925	-13.613	-0.211	-0.135
-170.910	-48.623	0.139	-0.066
-169.896	-77.101	0.095	-0.033
-168.881	-126.446	-0.242	-0.035
-167.866	800.000	-0.005	-0.020
-166.852	-74.620	0.280	0.099
-165.837	-128.510	0.435	0.061
-164.823	305.024	-0.137	0.250
-163.808	-200.000	0.007	0.117
-162.793	-42.140	-0.456	-0.230
-161.779	102.526	-0.174	-0.201
-160.764	-200.000	-0.026	-0.377
-159.750	-200.000	0.063	0.292
-158.735	-17.007	0.206	0.128
-157.720	-90.192	-0.483	-0.138
-156.706	437.517	-0.047	0.100
-155.691	-28.407	0.241	0.137
-154.677	262.053	0.152	-0.259
-153.662	800.000	0.089	-0.270
-152.647	-117.018	0.349	0.063
-151.633	-24.046	-0.197	-0.116
-150.618	-200.000	-0.032	0.356
-149.604	-4.930	0.329	0.223
-148.589	800.000	0.106	0.325
-147.574	-100.641	0.032	0.008
-146.560	-95.127	0.271	0.072
-145.545	-200.000	0.007	-0.099
-144.531	-200.000	-0.020	0.235
-143.516	149.124	0.164	0.218
-142.502	3.395	0.325	-0.233
-141.487	34.611	0.085	-0.074
-140.472	800.000	-0.074	-0.201
-139.458	46.938	0.106	0.098
-138.443	455.326	-0.068	0.149
-137.429	-81.649	-0.071	-0.023
-136.414	-200.000	0.025	-0.195
-135.399	60.168	-0.209	0.204
-134.385	11.563	-0.012	0.009
-133.370	-25.944	0.213	0.123
-132.356	-76.120	0.323	0.112
-131.341	556.654	-0.107	0.255
-130.326	21.051	-0.090	0.072
-129.312	-58.911	0.133	0.057
-128.297	304.543	-0.223	-0.407
-127.283	-93.641	0.253	0.069
-126.268	-87.107	-0.333	0.100
-125.253	-42.925	0.171	0.085
-124.239	16.447	-0.129	-0.101
-123.224	471.786	-0.026	0.058
-122.210	-200.000	0.004	-0.439
-121.195	5.831	-0.046	0.033
