DTS Sentinel unit serial number:	SN413079Multiplexer serial number:	ORYXHardware model number:	OX4-SRSoftware version number:	ORYX F/W v4.00 Oryx Data Collector v3.7.2.0data status	okinstallation	princeton_trtdifferential loss correction	single-endedforward channel	channel 2reverse channel	N/Adate	2019/09/14time	06:55:34forward acquisition time	60.00reverse acquisition time	0.00gamma	496.2192k internal	0.2339k external	0.2339temperature offset calibration	1.0134default loss term (dB/km)	0.3790temperature slope calibration	1.0000multiplexer offset coefficient	1.0000multiplexer slope coefficient	1.0000fibre end	0.00T internal ref (°C)	26.25T ext. ref 1 (°C)	3.44T ext. ref 2 (°C)	20.92length (m)	temperature (°C)	Stokes	anti-Stokes-747.200	353.435	-0.279	-0.556
-746.185	-92.720	0.284	0.080
-745.171	-12.317	-0.115	-0.076
-744.156	800.000	0.041	0.135
-743.142	-200.000	-0.052	0.260
-742.127	362.359	0.078	0.156
-741.112	166.870	-0.060	0.086
-740.098	-70.876	0.061	-0.023
-739.083	130.261	0.197	-0.252
-738.069	512.943	-0.048	0.112
-737.054	-108.249	0.137	-0.030
-736.039	-94.136	-0.185	-0.051
-735.025	-97.971	0.083	0.021
-734.010	-65.627	-0.452	0.182
-732.996	23.696	0.225	-0.186
-731.981	800.000	-0.019	-0.071
-730.966	-12.959	-0.267	0.174
-729.952	34.314	0.103	0.090
-728.937	278.902	-0.114	0.204
-727.923	-103.488	0.161	-0.038
-726.908	87.057	-0.103	0.114
-725.894	273.612	-0.198	-0.351
-724.879	800.000	-0.051	-0.159
-723.864	-200.000	0.042	-0.261
-722.850	41.166	-0.193	-0.175
-721.835	-164.465	-0.115	0.005
-720.821	-39.950	-0.193	0.101
-719.806	-116.497	-0.149	0.027
-718.791	800.000	0.075	0.245
-717.777	-29.792	-0.106	-0.061
-716.762	-88.520	-0.175	0.052
-715.748	174.086	0.169	-0.245
-714.733	-200.000	-0.004	-0.233
-713.718	-63.117	0.455	-0.188
-712.704	49.799	0.233	0.220
-711.689	273.331	0.061	0.108
-710.675	-200.000	0.017	0.180
-709.660	168.460	0.066	0.094
-708.645	-67.727	0.126	-0.049
-707.631	-76.681	-0.140	0.049
-706.616	800.000	-0.045	0.151
-705.602	276.818	0.111	-0.197
-704.587	-162.955	-0.214	-0.010
-703.572	-66.151	-0.248	-0.099
-702.558	-148.196	0.075	0.006
-701.543	-98.928	0.314	0.080
-700.529	308.123	-0.119	0.223
-699.514	17.048	-0.154	-0.122
-698.499	-9.757	-0.184	-0.123
-697.485	800.000	0.110	-0.388
-696.470	-200.000	-0.027	-0.158
-695.456	637.171	0.094	0.240
-694.441	411.228	0.224	0.477
-693.426	-127.292	-0.137	0.020
-692.412	800.000	-0.076	0.248
-691.397	-46.020	-0.143	-0.071
-690.383	527.612	-0.164	-0.388
-689.368	341.069	-0.149	-0.291
-688.354	-200.000	0.022	-0.136
-687.339	84.466	0.164	0.180
-686.324	72.216	-0.218	-0.227
-685.310	-38.248	0.207	-0.110
-684.295	-78.036	-0.142	0.049
-683.281	-200.000	-0.010	0.214
-682.266	25.920	0.217	0.181
-681.251	-3.141	-0.255	-0.178
-680.237	-200.000	-0.040	-0.214
-679.222	-172.846	-0.236	-0.007
-678.208	-70.296	0.184	-0.070
-677.193	-200.000	0.055	0.293
-676.178	180.566	0.037	0.055
-675.164	594.809	-0.014	0.036
-674.149	-69.211	-0.101	-0.039
-673.135	-31.421	-0.119	0.067
-672.120	193.379	0.138	0.208
-671.105	-200.000	-0.013	0.086
-670.091	-200.000	-0.009	0.229
-669.076	-92.571	-0.214	-0.060
-668.062	-30.770	0.165	0.094
-667.047	-200.000	-0.002	0.262
-666.032	-200.000	-0.015	0.358
-665.018	142.716	0.097	0.128
-664.003	-134.272	-0.118	-0.015
-662.989	310.888	0.061	-0.114
-661.974	335.333	-0.093	-0.180
-660.959	-44.899	-0.358	-0.178
-659.945	225.338	-0.163	0.265
-658.930	-200.000	0.000	-0.096
-657.916	-136.034	-0.120	0.014
-656.901	49.666	0.162	-0.153
-655.886	-200.000	-0.064	-0.392
-654.872	-77.769	-0.081	-0.028
-653.857	-200.000	-0.030	0.516
-652.843	-69.478	-0.105	0.040
-651.828	800.000	0.062	0.216
-650.814	777.659	0.058	0.157
-649.799	-39.589	-0.121	0.063
-648.784	-130.234	0.096	-0.013
-647.770	-149.436	-0.349	0.028
-646.755	85.691	-0.021	0.023
-645.741	800.000	0.023	-0.080
-644.726	-200.000	0.010	-0.295
-643.711	800.000	-0.036	-0.155
-642.697	-23.062	0.093	0.056
-641.682	-185.915	-0.261	-0.004
-640.668	-200.000	0.021	-0.208
-639.653	-137.560	0.420	-0.047
-638.638	-200.000	-0.004	-0.107
-637.624	800.000	0.020	0.069
-636.609	-51.442	-0.112	0.052
-635.595	-200.000	0.032	-0.164
-634.580	800.000	0.026	-0.077
-633.565	-59.400	-0.131	-0.056
-632.551	46.503	-0.290	0.269
-631.536	212.943	-0.117	0.185
-630.522	13.748	-0.094	0.073
-629.507	-79.272	0.021	-0.007
-628.492	-33.911	-0.107	0.059
-627.478	-150.644	-0.142	-0.011
-626.463	-74.965	-0.149	0.053
-625.449	-123.585	0.047	-0.007
-624.434	220.768	0.073	0.116
-623.419	-17.831	-0.203	-0.127
-622.405	136.961	0.165	-0.216
-621.390	800.000	-0.034	-0.108
-620.376	174.548	-0.156	-0.225
-619.361	96.384	0.074	-0.085
-618.346	-84.652	-0.113	-0.035
-617.332	283.154	0.107	-0.193
-616.317	-105.918	0.130	-0.029
-615.303	493.356	-0.037	-0.085
-614.288	800.000	0.050	0.154
-613.273	-61.874	-0.270	-0.113
-612.259	-200.000	-0.028	0.145
-611.244	25.876	0.148	0.123
-610.230	121.154	-0.167	-0.208
-609.215	-2.070	0.058	-0.040
-608.201	-22.592	-0.104	-0.063
-607.186	-23.577	-0.201	0.121
-606.171	-6.699	0.214	-0.145
-605.157	-170.296	-0.168	0.006
-604.142	622.347	0.138	-0.347
-603.128	-79.846	-0.063	0.021
-602.113	-185.791	0.233	0.003
-601.098	-200.000	-0.059	0.280
-600.084	-101.010	-0.219	-0.054
-599.069	-84.596	0.112	-0.035
-598.055	-37.439	-0.115	-0.061
-597.040	-146.362	-0.072	-0.006
-596.025	90.329	0.059	0.066
-595.011	-72.931	0.374	-0.137
-593.996	-200.000	0.021	0.118
-592.982	-200.000	0.065	0.298
-591.967	-200.000	0.025	0.289
-590.952	101.618	0.097	-0.112
-589.938	-98.149	-0.207	0.053
-588.923	-200.000	-0.068	-0.483
-587.909	118.907	-0.133	0.164
-586.894	-44.400	0.082	-0.041
-585.879	-20.164	0.274	0.168
-584.865	221.385	0.056	0.090
-583.850	150.364	0.204	-0.276
-582.836	280.115	-0.135	-0.240
-581.821	-81.509	-0.217	-0.071
-580.806	-63.635	-0.140	-0.057
-579.792	-37.668	-0.301	-0.160
-578.777	-166.519	-0.182	-0.008
-577.763	-152.266	-0.320	0.023
-576.748	800.000	0.052	-0.203
-575.733	152.757	0.076	0.104
-574.719	-200.000	-0.022	-0.202
-573.704	643.184	0.077	-0.195
-572.690	-45.445	0.097	-0.048
-571.675	332.129	-0.114	-0.219
-570.661	-183.734	-0.307	-0.005
-569.646	50.619	0.103	0.097
-568.631	-6.809	0.102	0.069
-567.617	-112.025	-0.100	-0.020
-566.602	44.357	0.308	-0.281
-565.588	-60.660	-0.376	0.159
-564.573	-200.000	-0.007	-0.176
-563.558	-112.900	0.355	0.070
-562.544	153.385	0.084	-0.115
-561.529	-200.000	-0.032	0.227
-560.515	487.728	0.020	0.046
-559.500	-140.222	-0.187	-0.020
-558.485	-102.520	-0.170	0.040
-557.471	-73.422	0.244	-0.089
-556.456	78.803	-0.023	-0.025
-555.442	-200.000	-0.031	-0.197
-554.427	-64.931	-0.291	0.117
-553.412	-46.235	0.350	-0.172
-552.398	-200.000	-0.057	0.279
-551.383	48.229	-0.117	-0.109
-550.369	800.000	0.072	0.217
-549.354	-200.000	0.042	0.190
-548.339	42.442	0.096	-0.087
-547.325	800.000	-0.112	-0.480
-546.310	-200.000	-0.004	-0.310
-545.296	85.150	0.151	-0.165
-544.281	277.214	0.112	-0.198
-543.266	623.479	0.123	0.308
-542.252	160.045	0.158	0.219
-541.237	52.366	-0.213	0.202
-540.223	129.813	-0.087	-0.111
-539.208	-53.071	-0.151	-0.069
-538.193	-106.305	0.143	-0.032
-537.179	-73.998	0.249	0.090
-536.164	-49.823	-0.171	0.081
-535.150	79.893	-0.150	-0.160
-534.135	800.000	0.122	-0.355
-533.121	263.870	-0.257	-0.445
-532.106	26.814	0.070	-0.059
-531.091	9.653	0.155	-0.117
-530.077	113.350	-0.069	-0.083
-529.062	228.313	-0.145	-0.235
-528.048	-200.000	0.034	0.193
-527.033	42.936	0.329	0.299
-526.018	696.177	-0.098	0.257
-525.004	-200.000	0.035	0.233
-523.989	124.331	-0.179	-0.224
-522.975	-93.086	-0.129	-0.036
-521.960	467.014	-0.064	0.143
-520.945	130.227	0.284	-0.361
-519.931	-17.733	0.151	0.094
-518.916	-200.000	-0.051	0.236
-517.902	-200.000	-0.011	-0.201
-516.887	55.026	0.284	-0.272
-515.872	-87.616	-0.153	0.046
-514.858	139.561	-0.187	-0.245
-513.843	110.999	-0.131	-0.157
-512.829	187.419	0.127	0.189
-511.814	-51.403	0.391	-0.182
-510.799	-200.000	0.044	-0.421
-509.785	697.261	0.020	0.052
-508.770	86.935	-0.168	-0.185
-507.756	-200.000	0.034	-0.211
-506.741	-136.046	0.124	-0.014
-505.726	-112.311	-0.080	0.016
-504.712	-74.844	-0.206	-0.073
-503.697	15.530	0.237	-0.185
-502.683	86.466	0.163	-0.179
-501.668	800.000	0.050	0.190
-500.653	-200.000	0.051	-0.238
-499.639	-106.384	-0.403	-0.090
-498.624	-114.982	0.312	0.059
-497.610	70.064	0.109	0.112
-496.595	-3.281	0.202	-0.140
-495.581	-58.513	-0.209	-0.090
-494.566	3.518	0.190	0.137
-493.551	-75.612	0.210	0.074
-492.537	-119.255	-0.289	0.050
-491.522	286.454	0.127	0.227
-490.508	-42.398	-0.171	-0.087
-489.493	0.474	-0.194	0.138
-488.478	-50.169	-0.170	-0.080
-487.464	6.866	0.108	-0.080
-486.449	-18.642	0.140	-0.087
-485.435	229.396	0.039	0.064
-484.420	800.000	0.086	-0.241
-483.405	-54.093	0.049	-0.022
-482.391	482.686	0.125	-0.283
-481.376	-89.300	0.329	0.096
-480.362	800.000	-0.065	-0.177
-479.347	-16.542	-0.050	-0.032
-478.332	800.000	-0.107	-0.298
-477.318	-200.000	0.095	-0.538
-476.303	116.559	0.099	-0.121
-475.289	800.000	-0.014	-0.055
-474.274	112.223	0.147	0.176
-473.259	800.000	-0.111	0.315
-472.245	-43.150	-0.081	0.041
-471.230	-146.830	-0.175	0.015
-470.216	800.000	0.129	0.410
-469.201	800.000	-0.103	0.307
-468.186	-6.747	-0.209	0.141
-467.172	-19.913	-0.223	0.137
-466.157	563.915	0.059	-0.142
-465.143	-24.730	-0.155	-0.091
-464.128	800.000	0.074	0.266
-463.113	-200.000	0.052	0.239
-462.099	112.616	-0.156	-0.187
-461.084	-122.301	0.138	0.022
-460.070	137.679	0.160	0.208
-459.055	146.770	-0.143	-0.191
-458.040	-200.000	-0.063	-0.457
-457.026	-42.795	-0.194	0.098
-456.011	-131.049	0.320	0.042
-454.997	-80.252	-0.274	-0.091
-453.982	-166.784	-0.336	-0.014
-452.968	70.308	0.138	-0.141
-451.953	-55.899	-0.133	0.059
-450.938	800.000	0.063	0.202
-449.924	57.139	0.167	0.161
-448.909	542.935	-0.071	0.167
-447.895	-200.000	-0.008	0.093
-446.880	63.725	0.076	-0.075
-445.865	-21.258	0.213	0.129
-444.851	-83.748	-0.222	-0.070
-443.836	-183.442	-0.376	-0.006
-442.822	800.000	-0.081	0.251
-441.807	800.000	0.028	-0.095
-440.792	-113.688	0.338	-0.065
-439.778	-172.901	0.151	0.005
-438.763	125.353	0.060	-0.075
-437.749	-200.000	0.018	0.142
-436.734	18.395	-0.164	-0.130
-435.719	0.043	0.058	-0.041
-434.705	169.871	0.027	0.038
-433.690	183.731	0.121	0.177
-432.676	-155.226	0.436	-0.028
-431.661	-93.870	0.105	0.029
-430.646	-150.443	-0.170	-0.013
-429.632	800.000	-0.045	-0.130
-428.617	-33.606	0.056	0.031
-427.603	115.832	-0.105	-0.128
-426.588	-75.915	-0.291	-0.102
-425.573	137.139	0.091	-0.118
-424.559	-84.413	0.244	-0.077
-423.544	-76.069	0.059	0.021
-422.530	-200.000	0.006	-0.127
-421.515	155.599	-0.016	-0.022
-420.500	-58.416	-0.076	0.033
-419.486	58.053	0.187	-0.181
-418.471	-200.000	0.038	-0.305
-417.457	18.181	-0.072	-0.057
-416.442	-89.578	0.291	0.085
-415.428	238.965	-0.149	0.246
-414.413	-125.349	0.297	0.045
-413.398	-108.161	0.068	-0.014
-412.384	-162.747	0.205	-0.010
-411.369	354.675	-0.047	0.093
-410.355	800.000	0.052	0.183
-409.340	-128.976	-0.103	-0.014
-408.325	198.205	0.102	0.155
-407.311	246.957	0.081	0.136
-406.296	-59.865	0.290	0.123
-405.282	106.792	-0.143	0.168
-404.267	-200.000	-0.016	0.220
-403.252	-200.000	-0.024	0.106
-402.238	-58.645	0.234	0.100
-401.223	-125.851	-0.410	0.061
-400.209	-76.162	-0.284	-0.099
-399.194	-137.224	-0.365	0.041
-398.179	-200.000	-0.008	-0.340
-397.165	134.111	0.142	0.182
-396.150	288.237	0.039	-0.069
-395.136	712.977	0.049	0.129
-394.121	-200.000	-0.009	-0.184
-393.106	-157.147	-0.115	-0.007
-392.092	551.144	0.025	-0.060
-391.077	118.558	-0.197	0.240
-390.063	176.837	0.130	0.187
-389.048	-200.000	0.010	0.063
-388.033	-29.455	-0.150	0.085
-387.019	-91.801	-0.244	-0.069
-386.004	-200.000	-0.001	0.103
-384.990	-147.843	-0.251	-0.021
-383.975	800.000	0.111	0.454
-382.960	-99.561	0.272	0.068
-381.946	800.000	-0.033	-0.129
-380.931	-54.330	0.352	0.158
-379.917	-200.000	0.004	0.360
-378.902	390.665	-0.135	-0.277
-377.888	-115.781	0.423	0.078
-376.873	-80.090	0.175	-0.058
-375.858	800.000	0.047	0.183
-374.844	-200.000	-0.008	0.074
-373.829	34.818	-0.179	-0.154
-372.815	-31.794	0.068	-0.038
-371.800	316.441	0.068	0.126
-370.785	25.197	0.106	0.087
-369.771	-64.863	0.340	-0.136
-368.756	132.634	0.123	0.157
-367.742	-15.096	-0.196	0.124
-366.727	123.744	0.093	0.116
-365.712	340.810	0.145	0.280
-364.698	-71.933	-0.262	-0.096
-363.683	87.238	-0.237	0.258
-362.669	-22.132	0.115	0.069
-361.654	-90.525	0.226	0.065
-360.639	-30.339	0.080	0.045
-359.625	-200.000	0.002	-0.049
-358.610	800.000	0.087	-0.292
-357.596	-122.171	-0.169	-0.027
-356.581	-140.716	-0.189	0.019
-355.566	-87.318	0.314	0.094
-354.552	-112.367	-0.153	0.030
-353.537	800.000	-0.072	0.258
-352.523	224.226	0.062	0.100
-351.508	244.608	-0.107	0.177
-350.493	-31.646	-0.105	-0.058
-349.479	11.378	0.151	-0.114
-348.464	88.558	-0.251	0.276
-347.450	-116.594	0.088	0.016
-346.435	-92.404	-0.120	-0.033
-345.420	-130.769	-0.081	-0.011
-344.406	-200.000	-0.032	-0.166
-343.391	733.420	0.092	0.242
-342.377	-29.630	0.032	0.018
-341.362	-31.020	-0.185	-0.103
-340.348	367.900	0.065	0.130
-339.333	-85.451	0.134	-0.041
-338.318	-200.000	-0.004	0.044
-337.304	359.994	0.081	-0.160
-336.289	-135.416	0.198	0.023
-335.275	800.000	-0.080	-0.246
-334.260	-28.672	-0.145	-0.082
-333.245	47.532	-0.257	-0.236
-332.231	60.855	-0.171	-0.167
-331.216	-2.554	0.182	0.126
-330.202	190.624	-0.216	-0.320
-329.187	-68.945	0.218	-0.083
-328.172	-6.361	-0.224	0.151
-327.158	-180.424	-0.064	0.001
-326.143	132.910	-0.063	0.080
-325.129	22.813	-0.077	-0.062
-324.114	800.000	-0.045	0.151
-323.099	11.740	-0.281	-0.213
-322.085	-121.529	0.352	0.058
-321.070	457.069	-0.160	-0.351
-320.056	50.744	-0.235	0.220
-319.041	18.213	0.230	0.181
-318.026	-125.167	0.216	-0.033
-317.012	-46.320	-0.076	-0.037
-315.997	68.125	-0.085	0.086
-314.983	136.858	-0.186	0.240
-313.968	800.000	0.113	0.376
-312.953	-125.200	-0.244	0.037
-311.939	-200.000	-0.020	0.195
-310.924	-200.000	0.126	0.672
-309.910	800.000	0.086	0.344
-308.895	-87.614	0.116	-0.034
-307.880	-158.914	0.200	-0.011
-306.866	407.487	-0.030	0.063
-305.851	-200.000	0.045	0.216
-304.837	147.774	-0.115	-0.153
-303.822	52.124	-0.303	-0.285
-302.807	530.019	-0.201	-0.469
-301.793	-71.004	-0.118	-0.044
-300.778	-86.966	0.042	-0.013
-299.764	-200.000	-0.020	0.270
-298.749	110.195	-0.110	-0.130
-297.735	-136.228	0.133	-0.015
-296.720	-122.500	0.091	-0.015
-295.705	200.803	-0.142	0.216
-294.691	800.000	-0.017	0.057
-293.676	800.000	-0.096	0.302
-292.662	-103.857	-0.397	0.091
-291.647	62.989	-0.281	-0.277
-290.632	-48.762	0.135	-0.064
-289.618	-128.778	0.294	0.041
-288.603	-29.852	-0.163	0.092
-287.589	-50.053	0.076	-0.036
-286.574	-4.524	-0.133	-0.090
-285.559	-200.000	-0.033	0.213
-284.545	6.455	0.029	-0.021
-283.530	-200.000	-0.008	-0.112
-282.516	-200.000	0.050	0.220
-281.501	-200.000	-0.058	0.315
-280.486	483.932	0.018	-0.040
-279.472	-200.000	-0.020	0.165
-278.457	723.522	0.070	-0.183
-277.443	417.429	-0.080	0.168
-276.428	595.504	0.124	0.302
-275.413	-92.843	-0.162	0.045
-274.399	-42.117	-0.530	0.267
-273.384	229.771	0.148	-0.238
-272.370	800.000	-0.041	0.146
-271.355	-170.869	-0.245	-0.008
-270.340	546.810	0.042	-0.099
-269.326	-115.669	-0.172	0.032
-268.311	152.529	0.159	0.214
-267.297	-18.614	-0.151	-0.093
-266.282	-94.785	-0.297	-0.079
-265.267	-102.402	-0.395	0.093
-264.253	-24.680	-0.474	0.278
-263.238	-86.016	-0.066	0.020
-262.224	-200.000	-0.022	0.196
-261.209	-85.547	-0.211	0.065
-260.195	51.601	0.194	-0.182
-259.180	-75.621	0.023	-0.008
-258.165	-90.782	-0.019	-0.006
-257.151	118.722	-0.049	-0.059
-256.136	-82.803	0.342	0.109
-255.122	89.928	-0.140	-0.154
-254.107	-170.019	-0.144	-0.005
-253.092	-87.100	0.131	-0.039
-252.078	731.097	-0.060	0.158
-251.063	401.732	0.040	0.082
-250.049	172.711	-0.165	0.234
-249.034	-94.609	0.171	0.046
-248.019	-73.416	0.203	-0.073
-247.005	-87.047	-0.044	-0.013
-245.990	800.000	-0.116	0.403
-244.976	34.387	-0.095	0.081
-243.961	255.247	0.143	0.241
-242.946	599.246	-0.068	-0.165
-241.932	-30.151	-0.044	0.024
-240.917	-42.836	-0.447	-0.223
-239.903	332.274	0.041	-0.079
-238.888	800.000	-0.020	-0.069
-237.873	-73.836	0.091	0.033
-236.859	-127.242	0.348	0.050
-235.844	605.193	-0.035	0.087
-234.830	11.751	0.512	-0.387
-233.815	-200.000	0.032	-0.300
-232.800	-10.426	0.148	-0.096
-231.786	-200.000	0.033	-0.156
-230.771	524.853	-0.088	0.205
-229.757	471.173	0.069	0.153
-228.742	182.986	0.064	0.093
-227.727	4.841	-0.324	-0.234
-226.713	383.720	0.106	0.214
-225.698	-12.739	0.342	0.219
-224.684	358.946	0.147	0.288
-223.669	63.760	0.107	-0.106
-222.655	-98.672	0.374	-0.094
-221.640	-200.000	-0.020	-0.244
-220.625	-41.084	-0.133	-0.067
-219.611	37.393	0.340	0.296
-218.596	-115.966	0.218	-0.040
-217.582	-200.000	0.038	-0.278
-216.567	350.304	-0.051	-0.100
-215.552	-122.704	-0.312	-0.050
-214.538	-52.917	-0.241	0.109
-213.523	13.859	0.124	-0.095
-212.509	-29.144	-0.177	-0.100
-211.494	-31.771	-0.259	-0.143
-210.479	-200.000	0.018	0.131
-209.465	-18.680	0.122	-0.075
-208.450	-200.000	0.137	-0.000
-207.436	-6.818	0.039	-0.026
-206.421	-74.547	0.301	-0.106
-205.406	-200.000	-0.023	0.252
-204.392	-200.000	0.016	0.181
-203.377	-74.006	0.132	-0.047
-202.363	196.251	0.200	0.299
-201.348	-111.969	0.148	0.029
-200.333	75.204	0.073	-0.075
-199.319	-152.209	0.109	-0.008
-198.304	-140.057	0.243	-0.025
-197.290	-142.922	-0.347	0.033
-196.275	90.882	0.098	-0.107
-195.260	349.284	0.042	-0.081
-194.246	-200.000	-0.027	-0.144
-193.231	-31.933	0.118	0.065
-192.217	-119.253	-0.325	0.056
-191.202	-200.000	-0.014	-0.178
-190.187	-200.000	-0.023	0.205
-189.173	-61.316	0.049	0.020
-188.158	-153.659	0.257	0.017
-187.144	800.000	-0.045	0.164
-186.129	-62.839	0.154	-0.062
-185.114	107.061	0.133	-0.155
-184.100	-145.155	0.123	-0.011
-183.085	-76.695	-0.162	0.056
-182.071	-132.328	-0.138	0.018
-181.056	-100.611	0.177	0.043
-180.042	-200.000	-0.002	-0.222
-179.027	19.876	0.159	0.126
-178.012	436.953	-0.075	0.161
-176.998	-30.194	-0.246	-0.137
-175.983	-11.694	0.291	-0.188
-174.969	-101.401	-0.059	0.014
-173.954	92.637	-0.124	0.138
-172.939	773.803	0.098	0.262
-171.925	5.173	0.234	0.169
-170.910	-184.359	-0.073	0.001
-169.896	-58.099	-0.192	-0.082
-168.881	330.529	0.068	0.128
-167.866	-200.000	-0.013	0.207
-166.852	-200.000	0.024	-0.171
-165.837	107.852	0.302	-0.352
-164.823	-200.000	0.052	-0.276
-163.808	-76.389	0.209	-0.072
-162.793	-65.279	0.063	0.025
-161.779	-200.000	0.009	0.369
-160.764	33.374	-0.303	-0.258
-159.750	599.611	0.029	0.072
-158.735	42.735	-0.014	0.012
-157.720	-15.889	0.326	-0.203
-156.706	417.779	0.108	-0.226
-155.691	-185.652	-0.204	0.003
-154.677	716.693	0.019	-0.050
-153.662	-144.281	0.105	-0.010
-152.647	-199.187	0.400	-0.002
-151.633	-86.925	0.043	0.013
-150.618	-112.031	-0.268	0.053
-149.604	191.612	0.165	-0.244
-148.589	-200.000	0.005	-0.224
-147.574	-140.541	-0.282	0.029
-146.560	-119.237	0.141	0.024
-145.545	201.684	0.122	-0.184
-144.531	-107.754	-0.257	-0.055
-143.516	-32.002	0.224	0.123
-142.502	-200.000	-0.008	0.117
-141.487	800.000	0.027	0.114
-140.472	87.567	0.145	-0.158
-139.458	-4.499	0.059	-0.040
-138.443	44.324	0.113	-0.102
-137.429	-87.991	0.250	0.073
-136.414	71.725	-0.248	-0.253
-135.399	-184.615	0.034	-0.001
-134.385	-107.896	-0.108	0.023
-133.370	-92.113	0.477	0.132
-132.356	-74.565	0.215	-0.076
-131.341	-35.700	-0.210	-0.111
-130.326	-9.585	-0.224	0.146
-129.312	29.174	0.059	0.049
-128.297	76.591	-0.160	-0.166
-127.283	-148.851	0.289	0.023
-126.268	23.083	-0.078	-0.063
-125.253	-52.497	-0.149	0.067
-124.239	69.734	0.226	-0.228
-123.224	19.897	-0.191	-0.150
-122.210	630.069	0.109	-0.271
