DTS Sentinel unit serial number:	SN413079Multiplexer serial number:	ORYXHardware model number:	OX4-SRSoftware version number:	ORYX F/W v4.00 Oryx Data Collector v3.7.2.0data status	okinstallation	princeton_trtdifferential loss correction	single-endedforward channel	channel 2reverse channel	N/Adate	2019/09/14time	05:03:35forward acquisition time	60.00reverse acquisition time	0.00gamma	496.2192k internal	0.2335k external	0.2335temperature offset calibration	1.0133default loss term (dB/km)	0.3790temperature slope calibration	1.0000multiplexer offset coefficient	1.0000multiplexer slope coefficient	1.0000fibre end	0.00T internal ref (°C)	26.87T ext. ref 1 (°C)	3.37T ext. ref 2 (°C)	22.00length (m)	temperature (°C)	Stokes	anti-Stokes-747.200	-200.000	-0.014	-0.116
-746.185	-54.754	-0.219	0.099
-745.171	349.174	-0.096	0.191
-744.156	-114.142	-0.015	-0.003
-743.142	-200.000	0.000	0.036
-742.127	-200.000	0.043	0.319
-741.112	800.000	0.029	-0.099
-740.098	210.940	-0.249	0.394
-739.083	800.000	0.058	0.230
-738.069	-200.000	0.004	0.174
-737.054	-200.000	-0.006	-0.301
-736.039	32.455	-0.151	0.131
-735.025	-56.771	0.175	0.078
-734.010	800.000	0.033	-0.135
-732.996	-65.970	-0.111	-0.044
-731.981	89.280	0.107	-0.119
-730.966	151.780	-0.015	-0.021
-729.952	-115.704	-0.270	0.051
-728.937	-112.394	-0.495	-0.099
-727.923	620.420	0.067	0.169
-726.908	-65.399	-0.403	0.163
-725.894	268.120	-0.032	-0.056
-724.879	-43.342	0.181	-0.092
-723.864	-102.073	-0.383	0.093
-722.850	-200.000	0.033	-0.170
-721.835	-73.759	-0.014	-0.005
-720.821	631.087	-0.073	-0.184
-719.806	-200.000	0.057	0.337
-718.791	84.172	-0.204	-0.223
-717.777	345.157	0.068	0.135
-716.762	-200.000	-0.052	0.238
-715.748	54.336	0.245	-0.236
-714.733	-32.888	0.050	0.028
-713.718	223.075	0.080	0.129
-712.704	-200.000	-0.469	-0.001
-711.689	145.979	0.059	0.080
-710.675	-113.346	0.168	-0.033
-709.660	-111.607	0.550	0.112
-708.645	-57.474	0.485	-0.213
-707.631	12.713	-0.089	-0.069
-706.616	-32.602	0.137	0.077
-705.602	44.770	0.120	-0.111
-704.587	-150.572	-0.055	-0.004
-703.572	-75.530	0.271	0.097
-702.558	-161.654	0.068	-0.003
-701.543	217.864	-0.214	-0.343
-700.529	800.000	-0.062	-0.221
-699.514	769.431	0.042	0.115
-698.499	-200.000	-0.063	0.432
-697.485	-98.723	-0.262	-0.067
-696.470	-200.000	-0.017	-0.144
-695.456	104.723	-0.130	-0.154
-694.441	-39.258	0.033	0.017
-693.426	-200.000	-0.037	-0.357
-692.412	-200.000	-0.038	-0.239
-691.397	-200.000	0.033	0.164
-690.383	-88.754	0.162	0.048
-689.368	34.912	0.139	-0.122
-688.354	-200.000	-0.008	-0.359
-687.339	134.175	-0.203	-0.264
-686.324	800.000	-0.069	0.244
-685.310	-200.000	-0.024	0.173
-684.295	40.631	-0.120	0.108
-683.281	-18.748	0.194	-0.121
-682.266	76.909	-0.199	0.211
-681.251	22.693	-0.292	0.239
-680.237	16.480	-0.227	-0.179
-679.222	329.601	-0.010	-0.018
-678.208	109.693	-0.152	0.183
-677.193	11.385	0.105	-0.081
-676.178	-200.000	-0.001	0.269
-675.164	472.220	-0.079	0.177
-674.149	800.000	0.157	-0.506
-673.135	-53.972	-0.315	0.144
-672.120	800.000	0.054	0.211
-671.105	-200.000	-0.011	0.332
-670.091	-200.000	0.004	0.166
-669.076	-169.714	0.252	0.009
-668.062	-0.634	-0.167	-0.119
-667.047	-73.677	0.140	0.051
-666.032	-51.179	-0.093	-0.044
-665.018	-200.000	0.058	0.361
-664.003	-166.992	-0.103	0.004
-662.989	168.433	0.216	-0.308
-661.974	-85.459	-0.285	-0.089
-660.959	-200.000	-0.043	-0.451
-659.945	-200.000	-0.057	-0.372
-658.930	265.291	0.065	0.113
-657.916	-148.597	-0.197	0.016
-656.901	-140.789	0.345	-0.036
-655.886	-35.173	0.234	0.128
-654.872	-13.378	0.192	-0.124
-653.857	-114.995	-0.525	-0.100
-652.843	-78.770	0.219	-0.075
-651.828	-123.794	0.328	-0.052
-650.814	-103.752	-0.243	-0.057
-649.799	-79.281	0.094	0.032
-648.784	16.067	0.243	-0.192
-647.770	18.271	0.337	-0.269
-646.755	324.915	0.151	-0.288
-645.741	-200.000	-0.035	-0.272
-644.726	-103.959	-0.424	0.099
-643.711	650.579	0.100	-0.257
-642.697	-59.643	0.158	-0.068
-641.682	24.870	0.234	-0.194
-640.668	-110.121	-0.216	-0.045
-639.653	192.991	-0.117	0.177
-638.638	-86.269	-0.173	0.053
-637.624	-200.000	-0.100	0.538
-636.609	-200.000	0.024	0.205
-635.595	-97.519	-0.159	-0.041
-634.580	67.931	0.010	0.010
-633.565	-124.016	-0.155	0.024
-632.551	362.638	0.063	-0.127
-631.536	-200.000	-0.038	-0.299
-630.522	-200.000	0.004	0.037
-629.507	-118.951	-0.066	0.011
-628.492	-148.177	0.143	-0.012
-627.478	-200.000	-0.013	0.228
-626.463	144.808	0.215	0.288
-625.449	800.000	-0.030	-0.087
-624.434	285.403	0.074	-0.133
-623.419	-200.000	0.009	0.153
-622.405	-200.000	0.019	-0.230
-621.390	800.000	-0.029	-0.123
-620.376	-82.554	-0.111	0.036
-619.361	-124.942	-0.194	-0.030
-618.346	-7.601	-0.046	0.031
-617.332	58.324	-0.235	0.230
-616.317	356.358	-0.148	-0.296
-615.303	-200.000	0.009	0.145
-614.288	239.325	0.008	-0.013
-613.273	800.000	0.026	-0.072
-612.259	800.000	0.040	0.162
-611.244	800.000	0.036	-0.115
-610.230	-200.000	-0.028	0.290
-609.215	83.167	0.228	-0.248
-608.201	-200.000	0.003	0.140
-607.186	-200.000	-0.003	-0.080
-606.171	-8.312	-0.202	-0.136
-605.157	79.583	0.294	0.315
-604.142	381.724	-0.115	0.237
-603.128	-97.661	-0.184	-0.048
-602.113	-10.489	0.137	0.090
-601.098	-51.160	-0.109	-0.051
-600.084	122.149	-0.051	-0.064
-599.069	-54.252	0.381	-0.173
-598.055	56.458	0.029	-0.028
-597.040	6.795	-0.366	-0.272
-596.025	-200.000	-0.042	0.357
-595.011	-200.000	-0.006	0.233
-593.996	-138.318	0.215	0.024
-592.982	118.668	-0.199	0.245
-591.967	-21.353	-0.277	0.169
-590.952	-200.000	-0.010	0.216
-589.938	-200.000	-0.033	-0.359
-588.923	140.149	-0.092	0.121
-587.909	-12.718	0.099	-0.065
-586.894	137.980	-0.078	-0.102
-585.879	-200.000	-0.010	-0.222
-584.865	16.473	-0.199	0.157
-583.850	39.694	0.359	0.321
-582.836	800.000	-0.062	0.177
-581.821	-100.469	-0.171	-0.042
-580.806	15.243	-0.079	-0.062
-579.792	2.571	-0.342	0.247
-578.777	800.000	0.057	-0.236
-577.763	800.000	0.082	0.246
-576.748	-53.058	0.062	0.028
-575.733	92.851	-0.138	-0.156
-574.719	-144.284	-0.077	-0.007
-573.704	-115.933	0.303	-0.056
-572.690	-123.468	-0.258	-0.041
-571.675	504.635	0.105	0.243
-570.661	166.192	-0.250	0.353
-569.646	-94.830	0.092	-0.025
-568.631	6.622	-0.088	0.065
-567.617	33.765	0.130	-0.113
-566.602	-200.000	-0.018	0.101
-565.588	-200.000	0.018	0.315
-564.573	-200.000	-0.084	-0.466
-563.558	800.000	0.016	0.056
-562.544	196.400	0.066	-0.100
-561.529	-146.954	0.216	0.018
-560.515	-40.248	-0.180	-0.094
-559.500	-131.925	0.077	-0.010
-558.485	-200.000	0.048	-0.442
-557.471	-113.829	0.138	-0.027
-556.456	-200.000	0.439	-0.002
-555.442	117.541	-0.122	-0.149
-554.427	108.888	-0.143	0.170
-553.412	-53.353	0.168	-0.077
-552.398	-200.000	-0.012	-0.320
-551.383	-61.356	-0.209	-0.088
-550.369	220.866	-0.102	-0.163
-549.354	-59.522	0.135	-0.058
-548.339	658.137	0.128	-0.328
-547.325	-200.000	0.028	0.139
-546.310	800.000	-0.042	-0.167
-545.296	-200.000	0.005	0.108
-544.281	-143.675	-0.286	-0.027
-543.266	-200.000	-0.249	0.001
-542.252	-34.384	0.089	0.048
-541.237	-200.000	0.000	0.039
-540.223	583.725	0.074	0.182
-539.208	-94.766	-0.351	-0.095
-538.193	61.078	-0.129	0.127
-537.179	207.500	-0.248	-0.386
-536.164	-134.206	-0.140	0.017
-535.150	-200.000	0.004	0.464
-534.135	800.000	0.033	-0.102
-533.121	-4.937	0.316	-0.217
-532.106	628.396	-0.049	-0.123
-531.091	68.798	-0.119	-0.122
-530.077	-200.000	-0.029	-0.280
-529.062	-13.550	0.022	0.014
-528.048	-200.000	0.008	0.219
-527.033	70.239	-0.069	-0.071
-526.018	-170.878	-0.289	0.010
-525.004	-155.349	-0.384	-0.025
-523.989	-74.944	-0.228	0.081
-522.975	-200.000	-0.001	-0.037
-521.960	-88.016	-0.052	0.016
-520.945	-115.262	-0.119	-0.022
-519.931	800.000	0.091	0.311
-518.916	800.000	0.073	-0.285
-517.902	800.000	0.045	-0.189
-516.887	33.905	0.240	-0.208
-515.872	368.030	-0.148	-0.298
-514.858	429.122	-0.033	0.070
-513.843	121.479	-0.347	0.431
-512.829	-15.278	0.188	0.120
-511.814	1.656	-0.120	-0.086
-510.799	-162.478	0.125	0.006
-509.785	769.384	-0.065	0.177
-508.770	-71.404	0.130	-0.048
-507.756	-65.883	0.360	-0.143
-506.741	79.275	-0.263	-0.280
-505.726	-200.000	-0.476	0.001
-504.712	-115.988	-0.229	-0.043
-503.697	800.000	-0.095	-0.337
-502.683	-49.290	0.191	0.091
-501.668	-200.000	-0.010	-0.144
-500.653	173.867	0.301	-0.433
-499.639	-94.519	-0.363	0.098
-498.624	800.000	-0.054	-0.154
-497.610	22.297	0.063	-0.051
-496.595	-64.877	0.300	0.121
-495.581	756.870	-0.063	0.168
-494.566	139.376	0.281	0.369
-493.551	-63.183	0.171	0.070
-492.537	31.721	-0.083	-0.071
-491.522	-200.000	-0.047	-0.229
-490.508	-114.857	0.200	-0.038
-489.493	-200.000	-0.039	-0.256
-488.478	86.658	0.249	-0.273
-487.464	-8.972	0.194	0.129
-486.449	-136.995	-0.397	-0.045
-485.435	-11.928	-0.284	0.185
-484.420	-90.432	0.125	-0.036
-483.405	632.638	0.066	0.166
-482.391	-70.135	0.284	-0.107
-481.376	136.022	0.071	0.092
-480.362	-154.997	-0.199	0.013
-479.347	-172.813	0.290	0.009
-478.332	-200.000	0.020	-0.160
-477.318	-194.639	0.274	0.002
-476.303	-99.268	0.063	-0.016
-475.289	553.715	0.103	0.247
-474.274	-200.000	-0.026	0.113
-473.259	800.000	0.072	0.253
-472.245	-55.220	-0.205	0.092
-471.230	258.860	-0.062	0.106
-470.216	-81.385	-0.244	-0.080
-469.201	5.602	-0.121	0.089
-468.186	-139.023	-0.121	0.013
-467.172	3.524	-0.351	0.254
-466.157	800.000	-0.029	-0.086
-465.143	-200.000	0.019	0.226
-464.128	418.494	-0.190	0.403
-463.113	-200.000	0.019	-0.097
-462.099	128.952	0.236	-0.299
-461.084	420.714	-0.154	-0.328
-460.070	131.780	0.248	-0.317
-459.055	343.671	-0.059	0.114
-458.040	-200.000	0.001	-0.301
-457.026	-58.370	0.105	-0.045
-456.011	-77.172	0.240	0.083
-454.997	-200.000	0.057	-0.300
-453.982	-122.256	-0.327	0.053
-452.968	-200.000	0.010	-0.333
-451.953	-200.000	0.066	-0.292
-450.938	-126.502	0.281	0.041
-449.924	-117.500	0.588	-0.106
-448.909	52.384	0.008	0.008
-447.895	8.750	0.122	-0.092
-446.880	112.339	-0.128	-0.153
-445.865	-180.437	-0.089	-0.002
-444.851	376.399	0.071	-0.144
-443.836	-46.382	-0.461	0.225
-442.822	-82.924	0.018	-0.006
-441.807	233.378	0.062	0.102
-440.792	51.592	0.150	-0.142
-439.778	-200.000	-0.004	0.112
-438.763	-55.308	0.164	0.073
-437.749	-10.329	-0.154	-0.101
-436.734	59.419	-0.110	-0.108
-435.719	-200.000	-0.012	0.312
-434.705	103.578	-0.121	0.141
-433.690	-74.436	0.089	-0.032
-432.676	-162.065	0.221	-0.011
-431.661	-200.000	-0.020	0.088
-430.646	357.145	-0.168	0.332
-429.632	64.745	0.179	-0.179
-428.617	151.921	-0.113	-0.152
-427.603	-200.000	0.015	-0.119
-426.588	298.050	-0.113	0.206
-425.573	186.655	-0.069	0.103
-424.559	1.859	0.084	0.060
-423.544	-200.000	0.007	-0.118
-422.530	800.000	-0.045	0.180
-421.515	21.384	-0.164	0.132
-420.500	-81.268	0.074	0.024
-419.486	57.455	0.265	0.256
-418.471	10.520	0.191	-0.145
-417.457	-200.000	0.008	-0.066
-416.442	800.000	-0.177	0.493
-415.428	307.917	0.110	0.204
-414.413	152.332	-0.033	-0.045
-413.398	139.105	0.063	0.082
-412.384	84.461	0.255	-0.277
-411.369	-133.628	-0.196	-0.024
-410.355	111.970	0.271	-0.324
-409.340	-76.534	0.215	0.075
-408.325	-82.631	0.240	0.077
-407.311	74.468	-0.118	0.123
-406.296	-200.000	0.052	0.239
-405.282	108.236	0.147	0.174
-404.267	-94.372	-0.318	-0.086
-403.252	800.000	0.044	0.174
-402.238	79.564	0.072	0.077
-401.223	-128.570	-0.026	0.004
-400.209	800.000	-0.019	-0.067
-399.194	-21.886	0.185	0.112
-398.179	-63.999	0.316	0.128
-397.165	34.291	0.283	-0.245
-396.150	224.267	-0.196	-0.314
-395.136	-109.775	-0.097	-0.020
-394.121	-6.366	0.206	0.140
-393.106	-14.315	-0.208	-0.133
-392.092	-30.987	-0.145	-0.081
-391.077	399.344	-0.105	0.217
-390.063	11.875	0.128	0.097
-389.048	86.110	-0.171	-0.186
-388.033	244.967	0.081	-0.136
-387.019	206.662	-0.189	0.291
-386.004	155.441	-0.191	0.261
-384.990	783.196	-0.083	0.224
-383.975	-118.872	0.136	0.024
-382.960	-104.780	0.071	-0.016
-381.946	-200.000	0.028	0.224
-380.931	-89.036	-0.282	0.083
-379.917	-42.355	0.306	-0.155
-378.902	71.405	-0.300	0.308
-377.888	-107.490	-0.095	0.021
-376.873	-134.277	0.315	-0.038
-375.858	-32.775	-0.063	0.035
-374.844	-87.930	-0.142	0.042
-373.829	462.511	-0.105	0.233
-372.815	-7.527	0.127	-0.085
-371.800	-76.843	0.198	-0.069
-370.785	164.078	0.128	-0.179
-369.771	108.137	-0.134	0.158
-368.756	-4.938	-0.278	-0.190
-367.742	800.000	0.039	-0.121
-366.727	-73.775	-0.249	-0.090
-365.712	-126.340	0.014	0.002
-364.698	787.920	0.034	0.093
-363.683	800.000	0.093	-0.255
-362.669	-200.000	-0.018	0.105
-361.654	21.745	-0.234	0.188
-360.639	-200.000	0.017	0.121
-359.625	-90.601	-0.061	-0.017
-358.610	-107.940	0.116	-0.025
-357.596	-200.000	0.007	-0.220
-356.581	800.000	-0.057	-0.170
-355.566	-76.610	-0.303	0.105
-354.552	800.000	-0.047	-0.178
-353.537	-32.232	-0.151	0.083
-352.523	35.962	0.132	0.115
-351.508	800.000	0.059	0.188
-350.493	21.762	0.312	0.251
-349.479	-200.000	-0.018	0.308
-348.464	-2.552	-0.225	-0.156
-347.450	-200.000	0.011	0.118
-346.435	-200.000	-0.241	-0.001
-345.420	558.879	0.056	-0.134
-344.406	70.695	0.142	0.146
-343.391	-136.393	-0.224	-0.026
-342.377	-17.166	0.257	0.160
-341.362	-200.000	0.024	0.339
-340.348	648.313	0.100	-0.254
-339.333	-200.000	-0.009	0.138
-338.318	-200.000	-0.004	0.113
-337.304	-62.657	-0.220	-0.090
-336.289	-200.000	0.032	-0.153
-335.275	-145.561	-0.145	0.013
-334.260	-60.856	0.104	-0.043
-333.245	-166.468	0.163	-0.007
-332.231	257.179	0.121	0.205
-331.216	-162.711	0.029	-0.001
-330.202	167.109	0.037	0.052
-329.187	446.030	0.071	-0.155
-328.172	314.944	0.226	-0.422
-327.158	-18.271	0.493	-0.305
-326.143	49.810	-0.120	0.112
-325.129	-200.000	0.015	0.168
-324.114	16.274	0.089	0.070
-323.099	800.000	-0.042	0.172
-322.085	-178.307	0.182	-0.004
-321.070	393.791	-0.122	0.250
-320.056	-17.685	-0.192	-0.119
-319.041	63.101	0.142	-0.141
-318.026	-138.418	0.286	0.031
-317.012	-200.000	0.051	-0.270
-315.997	-144.908	-0.080	-0.007
-314.983	96.280	0.149	0.168
-313.968	407.358	0.076	0.158
-312.953	-116.854	0.187	0.034
-311.939	28.218	0.151	-0.126
-310.924	-138.756	-0.112	0.012
-309.910	-44.798	-0.325	-0.160
-308.895	76.438	0.220	-0.230
-307.880	94.456	-0.268	-0.301
-306.866	-138.745	-0.274	0.030
-305.851	-91.056	0.181	0.051
-304.837	-200.000	-0.015	0.142
-303.822	-200.000	0.009	0.200
-302.807	53.957	0.049	0.047
-301.793	-65.477	-0.249	-0.099
-300.778	-89.189	0.161	-0.047
-299.764	-114.017	0.176	0.034
-298.749	-122.204	0.138	0.022
-297.735	-173.323	0.274	-0.008
-296.720	-27.657	0.143	0.082
-295.705	90.677	-0.257	-0.284
-294.691	-74.392	0.389	-0.139
-293.676	162.754	-0.257	0.357
-292.662	235.326	-0.077	0.125
-291.647	-90.317	-0.263	-0.075
-290.632	-200.000	-0.013	-0.197
-289.618	-138.227	-0.192	0.021
-288.603	91.791	0.160	0.178
-287.589	-98.991	-0.260	0.065
-286.574	297.706	-0.059	0.106
-285.559	34.299	-0.159	0.137
-284.545	685.976	0.070	0.181
-283.530	-200.000	0.039	-0.214
-282.516	55.167	0.285	-0.272
-281.501	-27.993	-0.159	-0.091
-280.486	-200.000	0.014	-0.062
-279.472	488.601	0.027	0.062
-278.457	-200.000	-0.001	-0.026
-277.443	-200.000	0.046	0.246
-276.428	-119.008	0.224	-0.039
-275.413	800.000	-0.055	-0.204
-274.399	800.000	-0.146	-0.432
-273.384	103.734	0.222	-0.257
-272.370	597.100	0.084	0.204
-271.355	217.981	-0.073	-0.114
-270.340	800.000	0.053	-0.159
-269.326	54.357	0.045	0.043
-268.311	590.758	0.127	0.308
-267.297	-93.076	-0.200	-0.055
-266.282	-200.000	0.052	-0.248
-265.267	800.000	0.022	-0.064
-264.253	28.270	-0.196	-0.163
-263.238	617.980	0.012	-0.030
-262.224	-187.273	-0.106	-0.001
-261.209	138.053	-0.092	0.119
-260.195	232.058	0.136	0.220
-259.180	-29.165	-0.239	0.135
-258.165	-200.000	0.031	0.134
-257.151	168.672	0.193	-0.272
-256.136	-200.000	0.025	-0.128
-255.122	208.938	0.242	-0.374
-254.107	-200.000	0.028	0.270
-253.092	800.000	-0.009	0.034
-252.078	184.205	0.232	-0.339
-251.063	99.751	-0.119	0.136
-250.049	-63.564	0.173	0.070
-249.034	70.594	0.196	-0.199
-248.019	323.428	0.074	-0.139
-247.005	793.548	0.024	0.066
-245.990	18.533	0.065	0.051
-244.976	-200.000	0.130	0.000
-243.961	-174.320	-0.180	-0.005
-242.946	547.747	0.126	0.297
-241.932	-80.629	-0.247	-0.081
-240.917	747.851	0.059	0.156
-239.903	800.000	-0.005	-0.020
-238.888	-76.395	0.212	0.074
-237.873	27.811	0.054	-0.045
-236.859	253.271	0.329	0.554
-235.844	33.267	0.125	0.107
-234.830	-44.870	-0.300	0.147
-233.815	204.108	-0.012	0.018
-232.800	79.383	0.062	-0.066
-231.786	-156.941	-0.387	0.023
-230.771	800.000	-0.069	-0.289
-229.757	-37.393	0.137	0.072
-228.742	-200.000	-0.001	0.129
-227.727	-116.855	-0.033	-0.006
-226.713	-128.908	-0.186	0.026
-225.698	28.016	-0.153	-0.127
-224.684	-155.140	0.278	-0.018
-223.669	395.544	-0.144	-0.296
-222.655	-143.084	-0.184	0.017
-221.640	105.725	-0.026	0.030
-220.625	-181.108	0.072	0.001
-219.611	50.104	-0.048	-0.045
-218.596	104.666	0.110	-0.128
-217.582	55.340	0.185	0.176
-216.567	-89.608	0.493	0.142
-215.552	-56.272	0.460	0.201
-214.538	-133.895	-0.282	0.035
-213.523	55.340	-0.142	-0.136
-212.509	-165.306	-0.530	0.023
-211.494	-76.113	0.166	-0.058
-210.479	800.000	-0.030	0.085
-209.465	427.642	0.145	-0.308
-208.450	-83.955	-0.135	-0.042
-207.436	800.000	-0.035	0.106
-206.421	300.613	-0.128	0.232
-205.406	-200.000	0.020	0.191
-204.392	-12.540	-0.184	-0.118
-203.377	-15.273	0.073	-0.046
-202.363	-76.987	-0.091	0.031
-201.348	-56.322	-0.051	-0.022
-200.333	800.000	-0.046	-0.169
-199.319	29.503	-0.217	-0.181
-198.304	-161.881	0.261	0.013
-197.290	-82.920	0.141	-0.045
-196.275	531.592	0.049	-0.113
-195.260	55.210	-0.103	0.098
-194.246	-17.713	0.283	0.175
-193.231	-55.338	-0.365	-0.161
-192.217	-87.461	0.275	-0.082
-191.202	-49.336	0.092	0.043
-190.187	109.106	-0.120	0.141
-189.173	-102.669	-0.076	-0.018
-188.158	60.427	0.163	-0.159
-187.144	47.189	-0.210	-0.192
-186.129	-118.439	-0.122	-0.021
-185.114	122.109	-0.102	0.125
-184.100	-200.000	-0.003	-0.072
-183.085	800.000	0.080	-0.225
-182.071	-200.000	-0.005	-0.166
-181.056	-31.473	-0.198	0.109
-180.042	24.966	-0.370	0.302
-179.027	-66.981	0.325	-0.126
-178.012	800.000	-0.009	-0.036
-176.998	-22.124	0.226	0.135
-175.983	-200.000	0.014	-0.151
-174.969	3.569	0.143	0.102
-173.954	38.042	-0.080	-0.070
-172.939	-110.311	-0.233	0.048
-171.925	-200.000	0.024	0.136
-170.910	167.887	-0.034	-0.047
-169.896	-200.000	-0.020	0.224
-168.881	38.341	0.291	-0.254
-167.866	-40.309	-0.287	0.147
-166.852	-200.000	-0.012	0.139
-165.837	33.338	-0.137	-0.117
-164.823	-154.830	0.330	0.021
-163.808	800.000	0.141	-0.407
-162.793	-86.475	-0.252	-0.076
-161.779	-59.652	-0.277	-0.117
-160.764	582.342	-0.127	0.305
-159.750	-79.014	0.277	-0.092
-158.735	456.432	-0.080	0.175
-157.720	46.451	0.428	0.390
-156.706	55.307	0.138	0.131
-155.691	4.608	0.066	-0.048
-154.677	92.027	0.189	0.209
-153.662	124.863	-0.191	0.236
-152.647	-112.808	-0.080	-0.016
-151.633	-184.874	-0.244	0.004
-150.618	73.402	0.180	0.185
-149.604	565.958	-0.095	-0.226
-148.589	-86.930	-0.257	0.077
-147.574	-44.967	0.133	-0.065
-146.560	232.145	0.086	-0.138
-145.545	800.000	-0.062	-0.248
-144.531	-200.000	0.014	-0.286
-143.516	158.014	-0.106	0.144
-142.502	-78.851	-0.313	-0.105
-141.487	306.699	0.194	-0.355
-140.472	24.596	0.152	0.124
-139.458	-7.549	0.257	0.171
-138.443	-137.673	0.415	0.046
-137.429	380.736	0.019	0.039
-136.414	-24.254	0.179	0.105
-135.399	-200.000	-0.003	-0.018
-134.385	247.018	-0.094	-0.156
-133.370	-200.000	0.009	-0.129
-132.356	81.385	-0.386	0.409
-131.341	149.463	0.150	0.200
-130.326	-25.559	0.246	0.143
-129.312	77.042	0.175	-0.183
-128.297	-200.000	-0.005	0.224
-127.283	702.504	-0.107	0.276
-126.268	-119.189	0.080	0.014
-125.253	-42.704	-0.318	0.159
-124.239	-2.959	0.095	-0.065
-123.224	-69.786	0.255	-0.096
-122.210	-200.000	-0.003	0.142
-121.195	109.505	-0.076	-0.089
