DTS Sentinel unit serial number:	SN413079Multiplexer serial number:	ORYXHardware model number:	OX4-SRSoftware version number:	ORYX F/W v4.00 Oryx Data Collector v3.7.2.0data status	okinstallation	princeton_trtdifferential loss correction	single-endedforward channel	channel 2reverse channel	N/Adate	2019/09/18time	20:51:34forward acquisition time	60.00reverse acquisition time	0.00gamma	496.2192k internal	0.2341k external	0.2341temperature offset calibration	1.0036default loss term (dB/km)	0.3790temperature slope calibration	1.0000multiplexer offset coefficient	1.0000multiplexer slope coefficient	1.0000fibre end	0.00T internal ref (°C)	27.02T ext. ref 1 (°C)	1.02T ext. ref 2 (°C)	18.28length (m)	temperature (°C)	Stokes	anti-Stokes-747.200	-200.000	0.060	-0.268
-746.185	370.127	0.122	0.248
-745.171	-141.967	-0.262	0.026
-744.156	115.210	-0.305	0.373
-743.142	256.640	-0.147	0.252
-742.127	-125.855	-0.232	-0.035
-741.112	187.447	-0.100	0.149
-740.098	-200.000	-0.028	0.266
-739.083	43.767	-0.179	-0.164
-738.069	-200.000	0.020	0.192
-737.054	-51.843	0.167	0.078
-736.039	446.554	0.176	-0.388
-735.025	101.952	0.285	-0.334
-734.010	-200.000	-0.042	-0.280
-732.996	800.000	0.073	-0.255
-731.981	10.726	-0.138	0.106
-730.966	14.540	-0.303	0.237
-729.952	800.000	-0.015	-0.055
-728.937	800.000	-0.096	-0.334
-727.923	229.504	0.127	-0.208
-726.908	-200.000	0.008	-0.194
-725.894	53.435	-0.099	-0.095
-724.879	-100.432	-0.397	-0.098
-723.864	-85.776	-0.127	-0.039
-722.850	-94.058	-0.321	-0.088
-721.835	95.484	0.122	-0.139
-720.821	79.305	-0.043	-0.046
-719.806	-5.857	-0.213	0.146
-718.791	228.825	-0.214	-0.350
-717.777	-26.449	-0.045	0.027
-716.762	-200.000	0.023	-0.104
-715.748	297.002	-0.048	0.089
-714.733	-129.865	-0.247	-0.034
-713.718	182.946	-0.112	0.166
-712.704	231.325	-0.194	0.319
-711.689	-200.000	0.052	0.261
-710.675	-200.000	0.025	-0.139
-709.660	-61.920	0.076	-0.032
-708.645	181.056	-0.078	0.114
-707.631	-141.557	0.373	0.038
-706.616	-11.306	-0.167	-0.110
-705.602	-127.546	-0.119	0.017
-704.587	-154.583	-0.221	0.015
-703.572	61.884	0.258	-0.257
-702.558	-200.000	-0.002	-0.127
-701.543	-70.499	0.293	0.111
-700.529	-200.000	0.045	0.492
-699.514	-200.000	0.011	0.250
-698.499	189.282	-0.310	-0.464
-697.485	-73.767	0.123	-0.045
-696.470	145.714	-0.155	0.208
-695.456	-200.000	-0.009	0.201
-694.441	-112.208	0.152	-0.030
-693.426	129.874	-0.286	0.366
-692.412	19.607	0.087	-0.070
-691.397	187.668	0.168	-0.251
-690.383	641.829	-0.084	-0.215
-689.368	-81.511	-0.222	0.073
-688.354	321.013	0.099	0.188
-687.339	-85.361	-0.138	0.043
-686.324	-20.097	0.274	0.169
-685.310	-27.346	0.234	-0.136
-684.295	-200.000	0.014	-0.143
-683.281	-14.656	0.127	0.081
-682.266	232.204	-0.111	0.182
-681.251	-71.128	0.210	0.079
-680.237	-100.027	0.156	0.039
-679.222	-154.304	-0.126	-0.008
-678.208	373.536	0.177	0.360
-677.193	115.744	-0.247	0.302
-676.178	231.199	0.009	-0.015
-675.164	46.148	0.328	-0.304
-674.149	-200.000	-0.021	0.288
-673.135	-15.059	-0.248	0.159
-672.120	-200.000	0.019	-0.109
-671.105	177.603	-0.074	-0.108
-670.091	687.708	-0.114	0.298
-669.076	85.887	0.079	0.086
-668.062	-117.461	-0.142	-0.026
-667.047	-200.000	-0.036	0.249
-666.032	2.022	0.107	0.077
-665.018	-200.000	0.026	-0.137
-664.003	-102.317	0.213	0.051
-662.989	73.869	0.089	0.093
-661.974	-153.953	-0.289	-0.020
-660.959	-200.000	0.099	-0.484
-659.945	18.536	0.114	-0.091
-658.930	-200.000	-0.008	0.038
-657.916	504.638	-0.049	0.114
-656.901	800.000	0.042	-0.168
-655.886	590.492	-0.053	-0.129
-654.872	-12.446	-0.115	0.075
-653.857	-88.947	0.255	0.076
-652.843	-80.490	0.188	-0.063
-651.828	507.776	-0.016	0.037
-650.814	-19.104	-0.160	-0.100
-649.799	37.673	0.063	-0.056
-648.784	-12.370	-0.321	-0.209
-647.770	411.470	-0.072	0.153
-646.755	75.237	-0.209	-0.220
-645.741	-200.000	-0.023	-0.292
-644.726	-200.000	-0.002	-0.273
-643.711	37.181	-0.213	-0.188
-642.697	-200.000	0.030	-0.299
-641.682	26.697	-0.171	-0.143
-640.668	-149.929	0.228	0.018
-639.653	-183.671	0.161	-0.003
-638.638	-76.260	-0.151	0.053
-637.624	-27.482	0.177	0.103
-636.609	116.416	0.140	0.171
-635.595	-200.000	0.083	0.000
-634.580	-200.000	-0.008	0.127
-633.565	-77.967	-0.233	-0.080
-632.551	413.110	0.069	-0.145
-631.536	-127.117	-0.207	-0.030
-630.522	513.775	0.079	0.184
-629.507	48.930	-0.212	0.199
-628.492	-200.000	-0.024	-0.125
-627.478	14.556	-0.167	-0.130
-626.463	-200.000	0.039	0.206
-625.449	8.120	-0.357	-0.267
-624.434	374.872	-0.178	0.362
-623.419	138.497	0.098	0.128
-622.405	-110.642	-0.108	-0.022
-621.390	-200.000	0.084	-0.372
-620.376	-60.388	0.281	-0.119
-619.361	-47.847	0.161	0.078
-618.346	254.148	0.068	-0.116
-617.332	-96.094	-0.116	-0.031
-616.317	349.390	0.200	0.394
-615.303	-200.000	0.002	0.065
-614.288	-43.384	-0.209	0.105
-613.273	800.000	-0.054	-0.164
-612.259	171.794	-0.093	0.133
-611.244	-200.000	-0.015	-0.195
-610.230	-49.152	-0.117	0.056
-609.215	93.402	-0.076	0.085
-608.201	743.770	0.103	0.275
-607.186	333.390	-0.147	-0.282
-606.171	800.000	-0.047	-0.153
-605.157	332.886	0.130	0.251
-604.142	800.000	-0.138	0.405
-603.128	-96.769	-0.213	-0.056
-602.113	205.836	0.058	0.089
-601.098	-200.000	0.052	0.339
-600.084	49.804	-0.209	0.197
-599.069	280.354	0.050	-0.090
-598.055	-109.352	-0.286	-0.060
-597.040	-12.068	0.106	0.069
-596.025	73.640	0.181	-0.189
-595.011	-200.000	-0.011	-0.147
-593.996	126.365	-0.129	-0.163
-592.982	14.793	0.157	-0.122
-591.967	-107.819	0.081	0.017
-590.952	370.164	0.235	-0.473
-589.938	186.809	-0.183	-0.272
-588.923	158.847	-0.202	0.280
-587.909	-200.000	0.031	-0.167
-586.894	276.537	-0.142	-0.251
-585.879	800.000	0.171	0.502
-584.865	-102.011	-0.074	0.018
-583.850	-200.000	0.032	-0.206
-582.836	145.121	-0.252	-0.336
-581.821	2.000	0.223	-0.160
-580.806	-110.044	-0.161	-0.033
-579.792	18.241	-0.082	0.065
-578.777	-19.854	0.121	0.075
-577.763	38.229	0.046	-0.041
-576.748	332.512	-0.236	0.454
-575.733	-16.362	-0.113	-0.071
-574.719	-33.867	0.099	-0.054
-573.704	198.666	-0.135	-0.206
-572.690	392.053	-0.031	-0.063
-571.675	158.926	-0.082	0.113
-570.661	-200.000	-0.042	0.297
-569.646	36.468	-0.079	-0.069
-568.631	321.479	0.099	-0.187
-567.617	-78.745	0.045	-0.015
-566.602	-62.772	0.439	0.181
-565.588	-138.248	-0.158	-0.017
-564.573	18.975	-0.058	0.046
-563.558	-200.000	-0.004	-0.311
-562.544	195.329	-0.059	0.089
-561.529	-200.000	-0.008	0.102
-560.515	-161.003	0.118	-0.006
-559.500	-85.173	0.300	0.093
-558.485	282.867	-0.127	0.226
-557.471	33.548	-0.191	-0.165
-556.456	-200.000	0.036	-0.267
-555.442	66.954	0.342	-0.347
-554.427	-49.376	-0.295	-0.140
-553.412	144.899	0.145	0.192
-552.398	-149.331	0.293	0.023
-551.383	800.000	0.015	-0.055
-550.369	800.000	-0.087	-0.257
-549.354	-132.093	0.396	-0.051
-548.339	36.174	-0.255	0.223
-547.325	-62.382	-0.265	-0.110
-546.310	800.000	-0.047	0.172
-545.296	-100.126	-0.058	0.014
-544.281	-125.094	-0.444	0.068
-543.266	-186.826	-0.117	0.002
-542.252	-100.802	-0.198	-0.048
-541.237	-113.922	0.161	0.031
-540.223	800.000	0.091	-0.267
-539.208	-200.000	0.009	0.094
-538.193	101.127	-0.146	0.169
-537.179	170.986	0.151	-0.215
-536.164	800.000	0.089	-0.345
-535.150	-112.394	0.119	0.024
-534.135	28.121	0.302	0.254
-533.121	-101.905	0.099	-0.024
-532.106	-139.342	0.249	-0.027
-531.091	58.670	0.245	0.239
-530.077	800.000	0.055	0.160
-529.062	-42.132	-0.041	-0.021
-528.048	7.015	-0.193	0.143
-527.033	-84.533	-0.209	-0.065
-526.018	-200.000	-0.004	0.118
-525.004	-200.000	0.050	0.323
-523.989	-116.037	0.246	0.046
-522.975	307.671	0.037	0.069
-521.960	386.466	-0.159	-0.325
-520.945	-65.678	-0.105	0.042
-519.931	398.599	0.153	-0.318
-518.916	-200.000	0.009	0.148
-517.902	0.261	0.104	0.074
-516.887	40.130	0.147	-0.132
-515.872	800.000	-0.101	-0.279
-514.858	185.944	-0.088	-0.129
-513.843	-150.745	0.241	-0.018
-512.829	24.574	0.089	0.074
-511.814	394.323	0.049	0.101
-510.799	800.000	0.066	0.184
-509.785	-131.226	0.069	-0.009
-508.770	-200.000	-0.014	-0.372
-507.756	800.000	-0.054	-0.211
-506.741	749.026	0.103	0.276
-505.726	289.288	0.149	0.269
-504.712	-13.938	0.203	-0.130
-503.697	263.123	-0.041	0.071
-502.683	0.179	-0.116	-0.082
-501.668	28.417	-0.099	-0.083
-500.653	474.205	0.065	0.146
-499.639	800.000	-0.059	0.200
-498.624	-4.273	-0.103	-0.070
-497.610	-106.501	0.199	0.044
-496.595	800.000	-0.052	-0.226
-495.581	-200.000	-0.005	-0.036
-494.566	800.000	0.041	-0.162
-493.551	166.862	0.057	-0.081
-492.537	-13.898	-0.108	0.069
-491.522	128.254	-0.117	-0.148
-490.508	-89.100	0.113	0.033
-489.493	83.896	0.237	0.256
-488.478	-153.931	-0.206	0.014
-487.464	-100.650	0.209	0.051
-486.449	99.089	-0.089	0.102
-485.435	-134.698	0.178	-0.021
-484.420	-24.321	0.374	-0.221
-483.405	-124.278	-0.253	0.039
-482.391	-4.079	0.516	-0.355
-481.376	-200.000	-0.025	-0.184
-480.362	154.684	-0.096	-0.131
-479.347	598.750	-0.093	0.228
-478.332	-200.000	0.002	0.066
-477.318	-100.714	0.327	-0.080
-476.303	800.000	-0.041	-0.166
-475.289	-99.824	0.217	0.054
-474.274	75.985	-0.102	-0.106
-473.259	68.105	-0.191	-0.194
-472.245	-21.289	-0.133	0.081
-471.230	140.145	0.062	0.080
-470.216	-39.733	-0.200	-0.104
-469.201	-136.484	0.133	-0.015
-468.186	761.796	-0.068	0.182
-467.172	-74.929	-0.160	0.057
-466.157	-54.579	-0.151	-0.068
-465.143	-200.000	0.005	-0.055
-464.128	-200.000	0.036	-0.188
-463.113	470.234	0.023	0.050
-462.099	-9.072	-0.315	0.209
-461.084	-53.861	0.212	-0.096
-460.070	64.994	0.225	0.225
-459.055	-117.687	0.374	-0.067
-458.040	-200.000	-0.000	0.124
-457.026	-130.737	0.131	0.017
-456.011	800.000	0.070	0.283
-454.997	-31.805	-0.088	-0.049
-453.982	-27.355	0.089	0.052
-452.968	800.000	0.045	0.136
-451.953	-22.851	0.056	-0.033
-450.938	-3.118	0.245	0.169
-449.924	-53.642	-0.126	-0.057
-448.909	23.560	-0.165	0.135
-447.895	105.749	-0.137	-0.160
-446.880	51.330	-0.224	0.210
-445.865	-112.667	-0.009	0.002
-444.851	701.767	0.097	0.252
-443.836	-200.000	-0.003	0.311
-442.822	126.876	0.065	-0.081
-441.807	-3.000	0.099	-0.068
-440.792	137.022	-0.129	-0.167
-439.778	35.879	0.091	0.080
-438.763	-200.000	0.009	0.164
-437.749	-94.519	0.197	-0.053
-436.734	-200.000	0.073	0.000
-435.719	509.067	0.077	-0.176
-434.705	-45.645	-0.081	-0.040
-433.690	91.626	0.112	0.125
-432.676	-95.601	0.037	0.010
-431.661	24.090	-0.142	0.116
-430.646	-34.562	0.257	-0.139
-429.632	460.334	-0.111	-0.244
-428.617	800.000	-0.059	0.176
-427.603	-29.774	0.090	-0.051
-426.588	251.186	-0.144	-0.243
-425.573	25.287	-0.243	0.200
-424.559	797.457	-0.122	-0.332
-423.544	-138.767	-0.085	-0.009
-422.530	-200.000	-0.028	-0.126
-421.515	83.088	-0.115	0.123
-420.500	-1.944	0.112	-0.078
-419.486	800.000	-0.043	0.121
-418.471	-5.875	0.186	0.126
-417.457	53.108	0.063	-0.060
-416.442	-200.000	-0.060	0.295
-415.428	-200.000	-0.044	-0.307
-414.413	-80.144	0.195	0.065
-413.398	5.267	0.251	-0.183
-412.384	78.194	-0.051	-0.054
-411.369	-85.666	-0.260	-0.080
-410.355	42.394	0.040	-0.036
-409.340	107.742	-0.226	0.266
-408.325	-200.000	-0.036	-0.273
-407.311	156.964	0.227	0.310
-406.296	155.391	-0.132	-0.180
-405.282	-105.196	0.234	0.053
-404.267	-180.799	0.174	-0.003
-403.252	-200.000	-0.057	-0.323
-402.238	94.837	-0.099	0.111
-401.223	6.487	0.270	0.198
-400.209	-101.134	-0.291	0.071
-399.194	66.633	-0.191	0.192
-398.179	-7.436	0.380	0.255
-397.165	166.037	-0.185	-0.259
-396.150	15.730	-0.208	-0.161
-395.136	-200.000	-0.014	0.335
-394.121	253.302	-0.057	0.097
-393.106	33.499	0.137	0.118
-392.092	-41.236	-0.256	0.131
-391.077	-18.044	-0.211	-0.131
-390.063	-37.354	0.078	-0.041
-389.048	428.553	-0.041	0.089
-388.033	172.110	0.188	0.267
-387.019	-200.000	0.071	-0.326
-386.004	108.488	-0.125	0.147
-384.990	4.527	-0.106	0.077
-383.975	-130.163	0.390	0.053
-382.960	190.846	0.216	-0.321
-381.946	-200.000	0.007	-0.151
-380.931	-80.422	0.087	-0.029
-379.917	70.369	-0.157	0.160
-378.902	-139.606	0.357	0.038
-377.888	-175.202	-0.209	0.006
-376.873	284.074	-0.066	-0.117
-375.858	800.000	0.028	-0.092
-374.844	63.598	0.254	-0.252
-373.829	-200.000	0.015	0.172
-372.815	-190.650	0.350	0.004
-371.800	-114.154	0.105	-0.020
-370.785	-200.000	0.040	-0.226
-369.771	800.000	-0.079	0.299
-368.756	-149.375	-0.202	0.016
-367.742	84.815	0.115	0.125
-366.727	-12.325	-0.260	0.168
-365.712	-38.829	-0.104	-0.054
-364.698	-200.000	0.023	-0.149
-363.683	351.593	-0.201	-0.393
-362.669	63.935	-0.113	0.112
-361.654	395.848	0.069	-0.141
-360.639	-70.123	-0.104	-0.039
-359.625	-72.336	0.316	0.115
-358.610	-58.867	0.264	-0.113
-357.596	622.739	-0.037	0.092
-356.581	103.443	-0.135	-0.156
-355.566	539.815	0.046	0.109
-354.552	-15.112	0.411	0.260
-353.537	-53.677	0.185	-0.083
-352.523	22.658	0.140	-0.113
-351.508	-192.328	-0.103	0.001
-350.493	165.116	-0.083	-0.116
-349.479	173.040	0.173	-0.246
-348.464	-51.120	-0.086	-0.040
-347.450	-200.000	-0.028	-0.185
-346.435	-200.000	0.044	0.369
-345.420	-15.775	-0.140	-0.088
-344.406	-200.000	0.021	-0.298
-343.391	-200.000	-0.011	0.208
-342.377	56.244	0.044	0.043
-341.362	18.387	-0.226	0.178
-340.348	-28.898	-0.091	-0.051
-339.333	169.955	0.057	-0.081
-338.318	800.000	-0.092	-0.263
-337.304	135.228	-0.064	0.082
-336.289	470.985	0.099	-0.220
-335.275	-103.832	-0.119	0.028
-334.260	-200.000	0.026	-0.159
-333.245	-78.747	-0.130	-0.044
-332.231	-83.415	0.276	0.087
-331.216	38.703	-0.231	-0.203
-330.202	355.740	0.079	-0.155
-329.187	19.422	-0.031	-0.025
-328.172	-119.944	0.066	0.011
-327.158	-200.000	-0.036	0.192
-326.143	110.877	-0.206	-0.245
-325.129	-144.311	0.154	0.014
-324.114	-83.968	0.416	0.130
-323.099	-107.945	-0.185	0.040
-322.085	396.272	0.103	-0.211
-321.070	-160.937	0.339	-0.018
-320.056	-67.162	-0.338	0.131
-319.041	-120.417	-0.310	-0.052
-318.026	800.000	0.061	0.177
-317.012	86.655	0.083	0.090
-315.997	-37.214	-0.428	-0.226
-314.983	52.125	0.186	0.175
-313.968	800.000	0.074	0.275
-312.953	-21.389	-0.012	0.007
-311.939	800.000	-0.083	0.283
-310.924	-74.891	-0.149	-0.053
-309.910	800.000	-0.069	-0.290
-308.895	50.565	0.031	-0.029
-307.880	-77.274	-0.224	-0.077
-306.866	-74.558	0.073	-0.026
-305.851	0.710	-0.155	-0.109
-304.837	-95.975	0.220	0.058
-303.822	-137.362	0.117	-0.013
-302.807	-32.301	0.106	0.058
-301.793	800.000	-0.130	0.375
-300.778	-0.856	0.050	-0.035
-299.764	588.704	0.098	0.238
-298.749	12.659	0.050	-0.038
-297.735	-7.143	-0.207	-0.138
-296.720	-29.481	0.504	0.284
-295.705	-140.458	0.123	0.013
-294.691	-68.992	-0.240	-0.091
-293.676	800.000	0.047	0.138
-292.662	-200.000	0.048	0.290
-291.647	-136.158	0.162	0.019
-290.632	-146.330	-0.135	-0.012
-289.618	-100.604	-0.175	-0.043
-288.603	259.865	0.095	-0.162
-287.589	-85.380	0.143	-0.044
-286.574	-200.000	-0.155	0.001
-285.559	-175.756	-0.247	0.007
-284.545	-95.066	0.007	0.002
-283.530	800.000	-0.048	0.183
-282.516	152.277	0.131	-0.176
-281.501	800.000	-0.085	-0.266
-280.486	-83.095	0.276	-0.087
-279.472	800.000	-0.075	-0.253
-278.457	-46.161	-0.158	-0.076
-277.443	652.391	-0.169	0.427
-276.428	-62.185	0.174	0.072
-275.413	-114.781	-0.264	0.050
-274.399	-137.042	-0.114	0.013
-273.384	-79.284	-0.189	0.063
-272.370	-95.833	0.248	0.065
-271.355	41.259	0.427	-0.380
-270.340	-127.951	-0.242	0.034
-269.326	-200.000	0.005	0.130
-268.311	297.539	-0.074	0.133
-267.297	-80.664	0.181	-0.059
-266.282	800.000	0.072	-0.245
-265.267	800.000	0.033	-0.138
-264.253	800.000	-0.034	-0.094
-263.238	-60.894	-0.236	0.098
-262.224	-200.000	0.006	-0.110
-261.209	45.016	-0.029	-0.026
-260.195	-162.830	-0.113	-0.005
-259.180	17.741	-0.054	0.042
-258.165	-140.665	-0.442	0.045
-257.151	102.531	0.244	0.280
-256.136	362.075	0.087	-0.171
-255.122	-50.183	-0.072	0.034
-254.107	621.628	-0.097	0.241
-253.092	800.000	0.028	0.075
-252.078	-137.710	-0.077	0.009
-251.063	121.017	0.108	0.132
-250.049	-61.609	-0.198	-0.081
-249.034	687.973	0.032	0.081
-248.019	800.000	-0.114	0.388
-247.005	-157.497	0.349	0.021
-245.990	10.573	0.195	0.146
-244.976	-200.000	0.028	0.173
-243.961	-69.399	-0.171	-0.065
-242.946	800.000	-0.031	0.093
-241.932	800.000	-0.054	-0.225
-240.917	-200.000	-0.072	-0.315
-239.903	357.540	-0.082	0.161
-238.888	499.546	-0.120	-0.272
-237.873	-50.066	-0.076	0.035
-236.859	-144.475	-0.129	-0.012
-235.844	-104.655	0.291	0.066
-234.830	800.000	-0.043	0.160
-233.815	-161.170	0.167	-0.009
-232.800	315.588	0.039	0.073
-231.786	218.799	0.084	-0.131
-230.771	602.069	0.115	0.281
-229.757	-200.000	-0.063	-0.364
-228.742	-122.816	0.098	-0.016
-227.727	-92.464	-0.164	0.045
-226.713	-177.656	-0.218	-0.005
-225.698	103.602	-0.235	0.271
-224.684	391.422	-0.097	0.199
-223.669	-78.701	-0.087	-0.029
-222.655	-200.000	-0.006	-0.184
-221.640	11.423	0.181	0.136
-220.625	61.048	0.149	0.145
-219.611	49.319	-0.181	0.167
-218.596	53.038	0.269	0.253
-217.582	131.655	0.107	-0.135
-216.567	-19.534	-0.166	-0.101
-215.552	-200.000	-0.025	-0.155
-214.538	-72.416	0.152	0.055
-213.523	-32.395	-0.285	0.156
-212.509	-102.132	0.145	0.034
-211.494	286.280	-0.141	0.250
-210.479	-3.786	-0.150	-0.102
-209.465	-44.850	-0.277	-0.135
-208.450	42.218	0.013	0.012
-207.436	-115.380	0.270	-0.050
-206.421	-200.000	0.005	0.080
-205.406	7.070	-0.074	-0.054
-204.392	-136.353	0.052	0.006
-203.377	-84.676	0.165	-0.051
-202.363	-4.965	-0.592	-0.400
-201.348	187.922	-0.170	-0.250
-200.333	-77.241	-0.331	0.113
-199.319	30.881	-0.215	0.181
-198.304	-48.194	0.164	0.078
-197.290	-200.000	0.029	0.260
-196.275	429.070	-0.144	-0.306
-195.260	-200.000	0.036	-0.164
-194.246	-200.000	-0.014	0.468
-193.231	-65.918	0.128	0.050
-192.217	-56.163	-0.098	-0.043
-191.202	-200.000	-0.037	0.240
-190.187	68.017	0.071	-0.071
-189.173	-200.000	0.019	-0.288
-188.158	-140.399	0.406	-0.042
-187.144	60.345	-0.179	0.173
-186.129	155.732	0.020	0.027
-185.114	-200.000	-0.009	-0.097
-184.100	-40.824	0.241	0.122
-183.085	18.798	0.153	-0.120
-182.071	529.805	0.010	-0.024
-181.056	800.000	0.090	-0.276
-180.042	-21.726	-0.150	0.090
-179.027	187.442	-0.092	-0.134
-178.012	-86.768	-0.261	-0.078
-176.998	-97.635	0.303	0.077
-175.983	465.494	-0.096	0.211
-174.969	131.552	0.004	-0.006
-173.954	89.857	-0.107	-0.118
-172.939	-101.493	0.232	0.055
-171.925	800.000	0.100	0.333
-170.910	-27.180	0.198	-0.113
-169.896	-27.772	-0.200	0.114
-168.881	7.094	-0.082	-0.060
-167.866	-119.912	-0.084	0.014
-166.852	-112.171	-0.018	0.004
-165.837	20.614	-0.292	-0.231
-164.823	800.000	0.034	0.135
-163.808	-200.000	-0.057	-0.275
-162.793	-129.896	0.424	0.057
-161.779	-200.000	-0.007	0.033
-160.764	-46.974	-0.362	0.173
-159.750	-200.000	-0.051	0.348
-158.735	308.828	0.059	0.108
-157.720	-21.936	0.235	-0.140
-156.706	-71.222	-0.138	-0.051
-155.691	53.566	0.102	-0.096
-154.677	288.080	-0.105	-0.187
-153.662	-38.880	0.470	0.243
-152.647	88.771	0.407	0.443
-151.633	-81.244	-0.210	0.068
-150.618	-200.000	-0.007	-0.188
-149.604	-131.931	0.261	-0.033
-148.589	367.833	0.076	0.150
-147.574	55.512	0.169	0.160
-146.560	-164.225	0.206	-0.009
-145.545	185.853	0.154	0.225
-144.531	800.000	-0.020	-0.079
-143.516	-177.009	-0.320	-0.008
-142.502	-198.050	-0.191	0.001
-141.487	71.433	0.125	0.127
-140.472	-129.475	-0.211	0.029
-139.458	113.310	0.223	-0.264
-138.443	26.039	-0.072	-0.059
-137.429	165.056	0.107	0.148
-136.414	30.298	-0.149	-0.124
-135.399	744.216	0.093	0.244
-134.385	-68.915	0.051	0.019
-133.370	166.651	-0.176	-0.244
-132.356	-28.122	0.299	-0.169
-131.341	-169.035	-0.163	-0.006
-130.326	-107.411	0.067	0.014
-129.312	371.851	-0.205	-0.406
-128.297	-141.275	-0.276	0.028
-127.283	49.319	0.232	-0.214
-126.268	-148.116	-0.164	0.013
-125.253	282.810	0.078	0.136
-124.239	114.066	-0.127	-0.151
-123.224	-200.000	0.007	0.313
-122.210	800.000	0.067	-0.248
-121.195	-27.273	-0.332	0.189
