DTS Sentinel unit serial number:	SN413079Multiplexer serial number:	ORYXHardware model number:	OX4-SRSoftware version number:	ORYX F/W v4.00 Oryx Data Collector v3.7.2.0data status	okinstallation	princeton_trtdifferential loss correction	single-endedforward channel	channel 2reverse channel	N/Adate	2019/09/18time	00:07:34forward acquisition time	60.00reverse acquisition time	0.00gamma	496.2192k internal	0.2349k external	0.2349temperature offset calibration	0.9984default loss term (dB/km)	0.3790temperature slope calibration	1.0000multiplexer offset coefficient	1.0000multiplexer slope coefficient	1.0000fibre end	0.00T internal ref (°C)	23.75T ext. ref 1 (°C)	0.17T ext. ref 2 (°C)	17.25length (m)	temperature (°C)	Stokes	anti-Stokes-747.200	43.644	0.201	-0.184
-746.185	-36.613	0.205	-0.110
-745.171	600.226	0.117	0.289
-744.156	-162.182	0.154	0.008
-743.142	-140.842	0.054	-0.006
-742.127	800.000	-0.071	0.224
-741.112	-200.000	0.046	-0.249
-740.098	90.691	-0.177	0.198
-739.083	136.779	0.082	-0.108
-738.069	800.000	-0.043	0.174
-737.054	229.699	-0.079	0.128
-736.039	14.977	-0.232	-0.182
-735.025	-81.637	0.260	0.085
-734.010	8.733	-0.038	-0.029
-732.996	85.350	-0.200	-0.219
-731.981	-169.216	-0.249	0.009
-730.966	198.647	-0.188	-0.288
-729.952	69.861	-0.342	-0.352
-728.937	28.938	-0.199	0.168
-727.923	102.173	-0.106	-0.124
-726.908	-123.086	-0.343	-0.055
-725.894	391.224	-0.061	-0.126
-724.879	-164.540	-0.343	0.016
-723.864	223.310	0.031	0.050
-722.850	-200.000	0.004	-0.020
-721.835	-200.000	0.023	-0.447
-720.821	-75.807	0.153	0.054
-719.806	-86.988	-0.153	0.047
-718.791	-10.527	-0.135	-0.089
-717.777	-20.002	0.110	-0.068
-716.762	-43.481	-0.358	-0.181
-715.748	107.274	-0.191	-0.227
-714.733	-94.195	-0.398	0.109
-713.718	48.848	-0.170	-0.159
-712.704	-27.742	-0.227	-0.131
-711.689	-200.000	0.007	0.069
-710.675	-185.209	0.055	0.001
-709.660	161.539	-0.047	0.066
-708.645	-1.251	0.296	-0.208
-707.631	-132.188	-0.139	0.018
-706.616	534.694	-0.094	-0.222
-705.602	-45.845	-0.100	-0.049
-704.587	-57.307	0.118	-0.052
-703.572	-37.546	0.405	-0.215
-702.558	-200.000	0.070	-0.316
-701.543	356.029	-0.188	-0.374
-700.529	-81.030	-0.116	0.038
-699.514	-112.642	0.175	0.035
-698.499	-120.179	0.180	0.031
-697.485	94.634	0.292	0.331
-696.470	-200.000	0.024	-0.229
-695.456	-116.679	-0.190	0.035
-694.441	-200.000	0.007	-0.042
-693.426	197.711	-0.089	0.136
-692.412	534.416	-0.156	-0.368
-691.397	154.941	0.115	-0.158
-690.383	-57.567	0.193	-0.084
-689.368	476.761	0.018	-0.042
-688.354	683.630	-0.034	0.089
-687.339	-200.000	0.005	0.275
-686.324	361.354	-0.085	-0.170
-685.310	-54.417	-0.241	-0.109
-684.295	-200.000	-0.008	-0.391
-683.281	-70.885	0.126	0.047
-682.266	9.443	-0.058	-0.043
-681.251	-200.000	0.034	-0.232
-680.237	68.464	-0.235	0.241
-679.222	-31.066	0.182	0.102
-678.208	257.925	-0.123	-0.211
-677.193	186.191	-0.134	-0.198
-676.178	800.000	-0.077	-0.230
-675.164	99.245	0.153	0.176
-674.149	517.631	-0.177	-0.412
-673.135	-200.000	-0.035	0.201
-672.120	50.962	-0.293	-0.276
-671.105	-83.759	0.268	0.085
-670.091	327.259	0.028	-0.053
-669.076	-150.447	-0.302	0.023
-668.062	-200.000	-0.042	0.251
-667.047	-143.736	0.217	0.020
-666.032	-84.870	-0.423	-0.132
-665.018	-114.967	0.263	0.050
-664.003	334.071	0.103	-0.199
-662.989	-79.001	-0.270	-0.091
-661.974	800.000	0.094	-0.368
-660.959	54.872	0.079	-0.075
-659.945	137.354	0.275	-0.358
-658.930	-75.321	0.076	-0.027
-657.916	-200.000	0.016	0.209
-656.901	214.745	-0.128	-0.202
-655.886	100.842	0.270	-0.312
-654.872	14.356	-0.246	-0.191
-653.857	-91.019	-0.205	0.059
-652.843	7.915	-0.124	0.093
-651.828	4.942	0.271	-0.198
-650.814	-72.423	-0.139	-0.051
-649.799	-200.000	-0.016	0.409
-648.784	-138.652	-0.188	0.020
-647.770	-126.160	-0.208	-0.031
-646.755	-200.000	-0.004	0.085
-645.741	-82.235	-0.131	0.043
-644.726	-3.605	-0.280	-0.194
-643.711	-64.783	0.062	-0.025
-642.697	186.713	-0.093	0.137
-641.682	-10.059	-0.202	-0.134
-640.668	-200.000	-0.004	0.303
-639.653	-200.000	-0.005	-0.181
-638.638	-21.125	0.357	0.217
-637.624	23.912	-0.163	0.134
-636.609	195.395	0.039	-0.059
-635.595	16.937	0.208	-0.164
-634.580	-100.767	0.492	0.121
-633.565	-60.015	0.295	-0.125
-632.551	-200.000	-0.007	0.108
-631.536	-98.624	-0.140	0.036
-630.522	800.000	-0.104	-0.398
-629.507	-22.586	-0.179	-0.108
-628.492	60.148	-0.256	0.251
-627.478	-62.529	0.220	0.091
-626.463	-200.000	0.002	0.228
-625.449	800.000	-0.024	-0.083
-624.434	-200.000	0.035	0.226
-623.419	264.738	0.046	-0.079
-622.405	-200.000	-0.018	0.108
-621.390	-30.801	0.342	0.192
-620.376	63.344	0.031	-0.030
-619.361	-200.000	0.037	-0.653
-618.346	-85.600	-0.334	0.103
-617.332	-200.000	-0.002	-0.076
-616.317	76.888	0.127	-0.135
-615.303	-94.985	-0.309	0.083
-614.288	-200.000	-0.033	-0.243
-613.273	-13.685	-0.182	0.117
-612.259	-85.760	-0.142	0.044
-611.244	673.437	0.051	-0.130
-610.230	692.877	0.053	0.137
-609.215	-49.910	0.124	0.058
-608.201	-80.583	0.139	0.046
-607.186	294.376	0.118	0.214
-606.171	146.333	0.045	-0.059
-605.157	-12.844	0.355	0.230
-604.142	800.000	0.013	-0.054
-603.128	770.941	0.144	0.390
-602.113	-139.174	0.379	0.041
-601.098	-200.000	-0.020	-0.326
-600.084	800.000	0.057	0.212
-599.069	-39.124	0.366	-0.191
-598.055	800.000	-0.076	0.239
-597.040	-78.631	-0.223	0.076
-596.025	-200.000	0.009	-0.117
-595.011	-188.448	0.122	-0.002
-593.996	223.604	0.251	0.403
-592.982	-200.000	-0.020	-0.208
-591.967	-200.000	-0.098	-0.557
-590.952	3.155	0.133	0.096
-589.938	-159.681	0.127	-0.007
-588.923	236.234	0.133	-0.218
-587.909	-98.469	0.249	-0.063
-586.894	800.000	-0.060	-0.164
-585.879	-9.322	0.101	-0.067
-584.865	-17.953	-0.094	-0.059
-583.850	51.301	-0.121	0.114
-582.836	-140.976	0.294	0.030
-581.821	-128.741	-0.129	0.018
-580.806	-74.453	-0.321	0.115
-579.792	303.598	-0.132	0.242
-578.777	-200.000	-0.070	-0.319
-577.763	800.000	-0.067	-0.184
-576.748	367.428	0.039	-0.078
-575.733	-200.000	0.026	0.150
-574.719	-55.096	0.205	-0.092
-573.704	14.976	0.147	-0.114
-572.690	-200.000	0.010	-0.198
-571.675	62.939	-0.153	-0.152
-570.661	-153.931	-0.400	0.027
-569.646	376.460	-0.104	0.211
-568.631	-68.412	0.154	0.059
-567.617	-117.002	0.349	0.063
-566.602	-76.663	0.269	-0.094
-565.588	-200.000	0.194	-0.000
-564.573	42.848	-0.070	0.063
-563.558	783.524	0.121	-0.329
-562.544	-127.248	0.201	0.029
-561.529	-200.000	-0.015	-0.297
-560.515	-200.000	0.019	-0.336
-559.500	-105.002	0.434	-0.099
-558.485	177.144	-0.079	0.113
-557.471	23.271	-0.118	0.096
-556.456	-97.343	0.120	-0.031
-555.442	-200.000	0.001	-0.067
-554.427	-186.169	-0.018	0.000
-553.412	800.000	-0.095	0.266
-552.398	27.498	0.162	0.135
-551.383	40.759	0.306	-0.273
-550.369	800.000	0.068	-0.203
-549.354	-57.965	-0.247	-0.107
-548.339	-121.328	-0.281	0.047
-547.325	4.735	0.098	0.071
-546.310	-200.000	-0.013	0.183
-545.296	-104.292	-0.127	-0.029
-544.281	-200.000	-0.107	-0.509
-543.266	-28.690	-0.208	-0.118
-542.252	-200.000	-0.028	-0.214
-541.237	-21.684	-0.175	-0.105
-540.223	206.578	-0.117	-0.180
-539.208	77.956	0.214	-0.226
-538.193	-200.000	0.021	0.364
-537.179	-139.026	-0.394	0.042
-536.164	373.724	0.203	0.410
-535.150	641.877	-0.055	0.139
-534.135	-111.717	0.274	0.055
-533.121	-85.073	0.137	0.042
-532.106	-58.611	-0.291	-0.125
-531.091	-69.719	0.105	-0.040
-530.077	324.117	0.094	-0.177
-529.062	13.201	0.143	-0.110
-528.048	272.144	-0.124	-0.216
-527.033	77.978	-0.150	-0.159
-526.018	0.423	0.152	0.107
-525.004	688.376	-0.133	-0.344
-523.989	-88.302	0.308	-0.091
-522.975	4.832	-0.108	0.078
-521.960	273.420	0.104	-0.183
-520.945	310.310	0.051	-0.094
-519.931	9.541	-0.117	-0.087
-518.916	80.078	-0.066	0.070
-517.902	-75.574	-0.364	0.128
-516.887	258.519	-0.177	-0.302
-515.872	-157.338	0.355	-0.021
-514.858	-49.087	0.443	0.210
-513.843	585.800	-0.057	-0.139
-512.829	346.891	-0.036	0.070
-511.814	-144.104	-0.286	0.027
-510.799	89.607	-0.072	0.080
-509.785	-124.435	-0.106	0.016
-508.770	-119.849	0.179	-0.030
-507.756	-70.315	-0.161	0.060
-506.741	-50.684	0.183	0.085
-505.726	-200.000	0.007	0.325
-504.712	-75.208	0.155	0.055
-503.697	-47.221	0.202	0.097
-502.683	-200.000	0.007	-0.297
-501.668	800.000	0.082	-0.302
-500.653	221.871	0.170	-0.270
-499.639	37.352	-0.021	0.018
-498.624	-13.831	0.233	0.149
-497.610	800.000	0.072	-0.223
-496.595	800.000	0.073	-0.218
-495.581	24.644	0.099	0.081
-494.566	-42.997	0.342	0.171
-493.551	-112.874	0.225	0.044
-492.537	88.893	-0.302	0.332
-491.522	72.119	0.091	-0.094
-490.508	800.000	0.090	0.354
-489.493	800.000	0.007	-0.020
-488.478	-200.000	0.001	-0.170
-487.464	396.030	-0.082	-0.170
-486.449	77.778	0.134	0.141
-485.435	119.500	0.122	-0.149
-484.420	402.795	0.031	-0.065
-483.405	127.106	0.032	-0.040
-482.391	800.000	-0.109	0.448
-481.376	800.000	0.033	-0.090
-480.362	-103.810	0.211	0.049
-479.347	800.000	0.046	-0.168
-478.332	800.000	0.050	0.189
-477.318	-156.074	0.234	0.015
-476.303	19.859	0.077	-0.061
-475.289	188.145	0.138	0.204
-474.274	-200.000	0.006	0.108
-473.259	-84.725	0.310	0.096
-472.245	-65.874	-0.229	-0.090
-471.230	578.575	-0.090	0.218
-470.216	-138.496	-0.306	0.033
-469.201	-63.556	0.321	-0.130
-468.186	-200.000	0.036	0.216
-467.172	-74.652	0.523	-0.186
-466.157	196.744	0.138	0.208
-465.143	-200.000	0.024	0.205
-464.128	-46.356	-0.067	-0.032
-463.113	-122.012	-0.185	0.030
-462.099	68.688	-0.215	-0.218
-461.084	-200.000	0.006	-0.052
-460.070	-135.444	-0.150	-0.018
-459.055	-200.000	0.006	-0.046
-458.040	-71.625	0.226	-0.083
-457.026	-112.345	-0.177	-0.035
-456.011	-55.805	0.136	-0.060
-454.997	-72.598	-0.140	-0.051
-453.982	46.293	-0.186	-0.170
-452.968	-57.996	0.221	0.095
-451.953	800.000	0.080	0.322
-450.938	-17.925	0.199	0.123
-449.924	-200.000	0.026	-0.241
-448.909	-41.864	-0.379	-0.192
-447.895	71.719	-0.226	0.232
-446.880	397.525	-0.022	-0.046
-445.865	251.936	-0.094	0.158
-444.851	-53.075	-0.146	0.066
-443.836	37.578	-0.138	-0.121
-442.822	-160.891	0.226	-0.012
-441.807	800.000	0.044	0.178
-440.792	203.947	-0.133	-0.203
-439.778	-101.434	0.200	0.048
-438.763	-30.483	-0.163	0.091
-437.749	142.909	-0.095	0.125
-436.734	28.196	-0.119	-0.099
-435.719	-172.679	-0.345	0.011
-434.705	0.702	-0.172	0.122
-433.690	-154.034	-0.212	0.014
-432.676	-0.221	-0.328	-0.230
-431.661	-200.000	-0.012	0.091
-430.646	-150.562	-0.182	0.014
-429.632	-37.193	-0.165	0.087
-428.617	-31.561	0.132	-0.073
-427.603	364.578	-0.036	0.071
-426.588	71.620	0.051	0.053
-425.573	58.051	-0.185	0.179
-424.559	73.346	-0.205	-0.212
-423.544	189.584	-0.045	-0.066
-422.530	3.701	-0.036	-0.026
-421.515	28.600	-0.175	0.146
-420.500	-200.000	0.042	-0.438
-419.486	-200.000	-0.066	0.610
-418.471	-112.304	-0.142	-0.028
-417.457	-200.000	0.006	-0.175
-416.442	-109.439	0.206	-0.043
-415.428	769.203	-0.111	0.298
-414.413	27.977	0.121	0.101
-413.398	24.587	-0.176	0.144
-412.384	33.892	-0.073	-0.062
-411.369	-111.515	0.171	0.034
-410.355	800.000	0.035	0.099
-409.340	-15.332	-0.180	0.114
-408.325	190.982	-0.138	-0.205
-407.311	-65.868	0.121	0.048
-406.296	-64.241	-0.336	0.135
-405.282	-81.219	-0.045	-0.015
-404.267	-200.000	0.036	0.555
-403.252	194.163	0.189	-0.283
-402.238	-163.113	-0.339	0.016
-401.223	800.000	0.028	-0.098
-400.209	-174.830	-0.383	0.011
-399.194	-200.000	-0.025	-0.297
-398.179	127.816	-0.285	-0.356
-397.165	-130.197	0.191	-0.026
-396.150	13.480	-0.325	-0.249
-395.136	-29.707	-0.158	0.089
-394.121	-18.939	-0.086	-0.053
-393.106	-35.782	-0.339	0.181
-392.092	-138.783	-0.107	-0.011
-391.077	12.494	-0.149	0.113
-390.063	-200.000	-0.044	0.367
-389.048	-6.473	-0.228	-0.153
-388.033	33.020	0.089	0.076
-387.019	-200.000	0.027	0.149
-386.004	-63.001	0.075	0.030
-384.990	68.995	-0.083	0.084
-383.975	800.000	-0.083	0.294
-382.960	81.169	0.071	0.075
-381.946	-200.000	0.014	0.107
-380.931	99.292	0.192	0.219
-379.917	49.913	0.122	-0.114
-378.902	-131.548	0.129	0.017
-377.888	50.971	-0.201	-0.188
-376.873	-200.000	0.001	-0.130
-375.858	-19.208	0.278	0.170
-374.844	-200.000	0.075	-0.349
-373.829	-63.733	0.179	0.072
-372.815	268.426	-0.114	0.197
-371.800	-8.576	-0.097	-0.064
-370.785	-45.656	0.351	0.171
-369.771	-53.950	0.391	0.175
-368.756	235.880	-0.088	-0.144
-367.742	-200.000	-0.019	-0.109
-366.727	43.703	0.353	-0.318
-365.712	-67.608	-0.269	0.104
-364.698	-173.005	-0.517	0.016
-363.683	-64.189	0.191	0.077
-362.669	264.306	-0.288	0.494
-361.654	-200.000	-0.020	0.113
-360.639	-110.964	-0.360	-0.073
-359.625	-30.377	-0.137	-0.076
-358.610	-35.601	0.264	0.141
-357.596	-200.000	-0.008	0.322
-356.581	-36.480	-0.122	-0.065
-355.566	164.788	0.119	-0.164
-354.552	164.605	-0.253	0.351
-353.537	297.318	-0.028	-0.050
-352.523	-200.000	0.000	0.021
-351.508	800.000	-0.174	0.539
-350.493	-57.816	0.406	-0.175
-349.479	-105.358	-0.243	-0.054
-348.464	-200.000	-0.013	-0.190
-347.450	-200.000	-0.028	0.153
-346.435	243.676	0.167	0.275
-345.420	-200.000	-0.022	-0.117
-344.406	-101.988	0.288	0.068
-343.391	10.936	0.255	0.191
-342.377	-11.036	-0.087	-0.056
-341.362	88.644	0.080	-0.087
-340.348	-137.931	-0.034	0.004
-339.333	-200.000	0.004	0.214
-338.318	-147.819	0.330	-0.027
-337.304	-107.510	0.320	0.069
-336.289	-200.000	-0.029	-0.230
-335.275	-200.000	-0.032	0.358
-334.260	-76.624	-0.175	0.060
-333.245	-104.409	-0.034	0.008
-332.231	-200.000	-0.030	-0.192
-331.216	1.801	-0.186	-0.132
-330.202	-102.057	-0.162	0.038
-329.187	-200.000	-0.034	-0.231
-328.172	-200.000	-0.039	-0.336
-327.158	198.714	-0.069	0.104
-326.143	42.247	-0.234	-0.209
-325.129	646.382	-0.117	0.293
-324.114	-97.343	-0.296	0.076
-323.099	800.000	-0.063	-0.231
-322.085	-4.122	0.081	-0.055
-321.070	-200.000	-0.030	0.194
-320.056	800.000	0.031	-0.110
-319.041	-113.844	0.180	0.034
-318.026	800.000	-0.121	-0.353
-317.012	-170.420	-0.273	-0.009
-315.997	800.000	0.125	-0.365
-314.983	84.671	-0.059	0.063
-313.968	-153.273	-0.201	-0.014
-312.953	-15.008	0.190	0.119
-311.939	800.000	0.060	-0.196
-310.924	-105.077	0.091	0.020
-309.910	-7.010	0.174	0.116
-308.895	-0.023	-0.011	0.008
-307.880	452.597	-0.103	-0.225
-306.866	-80.269	-0.260	-0.085
-305.851	81.822	0.080	0.086
-304.837	36.534	-0.017	-0.015
-303.822	-200.000	0.036	-0.211
-302.807	-200.000	-0.024	-0.135
-301.793	-40.004	0.021	-0.011
-300.778	800.000	-0.091	-0.351
-299.764	-70.791	0.462	0.171
-298.749	66.576	0.228	-0.227
-297.735	-200.000	-0.029	0.158
-296.720	800.000	-0.133	0.420
-295.705	-47.041	0.113	0.054
-294.691	-141.435	-0.200	-0.020
-293.676	13.884	0.126	-0.096
-292.662	800.000	-0.060	0.202
-291.647	-40.671	0.269	-0.137
-290.632	-200.000	-0.043	-0.196
-289.618	-184.602	-0.057	-0.001
-288.603	195.482	0.074	0.111
-287.589	-140.903	0.166	-0.017
-286.574	543.470	0.097	0.226
-285.559	-82.910	-0.072	0.023
-284.545	-48.724	-0.160	0.075
-283.530	560.449	-0.139	0.329
-282.516	-61.446	0.273	-0.113
-281.501	-200.000	0.049	-0.271
-280.486	71.765	-0.227	0.231
-279.472	-14.352	0.286	0.181
-278.457	-40.733	-0.125	0.063
-277.443	6.257	0.261	-0.190
-276.428	374.815	-0.136	0.272
-275.413	1.914	0.215	0.152
-274.399	-200.000	0.036	0.232
-273.384	427.124	-0.170	0.361
-272.370	152.486	0.138	0.184
-271.355	345.651	0.039	-0.076
-270.340	-88.213	-0.118	-0.035
-269.326	-107.706	-0.060	0.013
-268.311	624.392	0.119	-0.294
-267.297	-200.000	-0.051	0.416
-266.282	16.754	0.224	0.174
-265.267	-166.817	-0.404	0.016
-264.253	-200.000	-0.021	0.139
-263.238	122.532	0.053	-0.066
-262.224	-200.000	-0.002	0.249
-261.209	-88.482	-0.080	0.023
-260.195	-122.588	0.333	-0.053
-259.180	217.896	0.175	-0.273
-258.165	-69.721	-0.138	-0.052
-257.151	-132.968	-0.405	-0.050
-256.136	-200.000	-0.018	-0.130
-255.122	4.902	-0.124	0.089
-254.107	-200.000	0.025	0.515
-253.092	-200.000	-0.051	0.234
-252.078	-95.650	-0.146	0.038
-251.063	361.648	0.081	-0.159
-250.049	-200.000	0.031	0.193
-249.034	89.084	-0.253	0.276
-248.019	526.418	0.032	0.074
-247.005	404.716	0.089	-0.184
-245.990	-33.677	0.371	-0.201
-244.976	-37.473	0.092	0.048
-243.961	800.000	0.071	-0.212
-242.946	53.237	-0.092	0.086
-241.932	669.379	0.036	0.091
-240.917	315.447	0.092	-0.171
-239.903	-200.000	0.004	0.021
-238.888	-10.934	0.164	-0.106
-237.873	-200.000	-0.030	-0.229
-236.859	445.959	0.224	-0.483
-235.844	174.416	-0.032	0.045
-234.830	-179.934	0.029	-0.001
-233.815	-32.346	0.132	-0.072
-232.800	0.127	0.069	-0.048
-231.786	-110.626	-0.296	0.060
-230.771	-42.304	-0.073	-0.036
-229.757	392.143	-0.048	0.097
-228.742	-88.080	-0.454	0.133
-227.727	-200.000	0.024	0.126
-226.713	-145.312	0.109	-0.010
-225.698	-100.669	-0.143	-0.034
-224.684	-115.338	-0.194	0.036
-223.669	700.646	0.077	0.198
-222.655	370.613	0.132	0.262
-221.640	-70.769	-0.252	0.093
-220.625	-67.420	-0.139	-0.053
-219.611	-200.000	-0.028	0.250
-218.596	-117.258	-0.189	0.034
-217.582	800.000	0.053	0.168
-216.567	-45.663	-0.098	-0.047
-215.552	57.326	0.021	0.020
-214.538	70.803	-0.135	0.137
-213.523	-114.618	-0.253	-0.047
-212.509	-107.499	-0.182	-0.039
-211.494	82.667	0.180	-0.191
-210.479	104.420	0.154	0.177
-209.465	-82.589	-0.310	-0.098
-208.450	205.572	-0.187	-0.284
-207.436	-200.000	0.070	-0.334
-206.421	-17.811	0.193	-0.118
-205.406	323.882	0.143	-0.267
-204.392	-141.198	0.013	0.001
-203.377	-7.485	-0.152	-0.100
-202.363	800.000	0.058	-0.207
-201.348	-33.754	-0.102	0.055
-200.333	800.000	-0.053	0.152
-199.319	790.374	0.055	0.147
-198.304	-200.000	-0.002	0.214
-197.290	121.074	0.096	0.117
-196.275	60.365	-0.165	-0.160
-195.260	449.728	-0.120	0.258
-194.246	-107.235	0.402	0.086
-193.231	-200.000	-0.021	-0.101
-192.217	-155.281	0.165	0.011
-191.202	-11.136	-0.142	-0.092
-190.187	88.281	-0.268	-0.291
-189.173	800.000	0.039	-0.143
-188.158	170.738	0.037	-0.052
-187.144	-154.929	-0.169	-0.011
-186.129	-124.880	-0.138	-0.021
-185.114	800.000	0.042	0.144
-184.100	-162.154	-0.264	-0.013
-183.085	-200.000	0.006	-0.296
-182.071	335.392	0.125	-0.237
-181.056	2.366	-0.290	-0.205
-180.042	-108.392	-0.077	0.016
-179.027	-54.223	0.253	0.112
-178.012	-145.648	-0.404	-0.035
-176.998	-121.826	-0.069	-0.011
-175.983	-143.202	0.368	-0.035
-174.969	800.000	0.168	-0.569
-173.954	-19.767	-0.062	0.037
-172.939	230.316	0.119	0.190
-171.925	800.000	0.101	-0.302
-170.910	-200.000	-0.021	-0.234
-169.896	-200.000	-0.001	-0.117
-168.881	-124.242	-0.188	-0.029
-167.866	800.000	-0.098	-0.329
-166.852	77.148	0.368	0.382
-165.837	-82.895	-0.147	-0.046
-164.823	-200.000	0.024	-0.279
-163.808	478.926	-0.078	-0.173
-162.793	63.174	-0.124	0.121
-161.779	-44.110	0.162	-0.079
-160.764	800.000	0.070	-0.287
-159.750	-3.407	0.292	0.199
-158.735	135.198	0.131	0.166
-157.720	-164.676	0.306	-0.014
-156.706	27.914	0.163	0.134
-155.691	556.840	0.033	0.079
-154.677	-53.664	0.105	0.047
-153.662	20.520	0.198	-0.156
-152.647	576.293	0.105	0.251
-151.633	216.767	0.049	-0.076
-150.618	8.906	0.298	0.219
-149.604	420.803	0.165	-0.345
-148.589	8.342	-0.082	-0.060
-147.574	-200.000	-0.011	-0.318
-146.560	-54.692	0.105	0.046
-145.545	-62.218	0.139	0.056
-144.531	-22.339	-0.263	0.156
-143.516	-200.000	-0.008	0.278
-142.502	187.845	0.096	0.140
-141.487	-200.000	-0.014	0.337
-140.472	325.571	-0.030	-0.057
-139.458	130.785	-0.112	0.140
-138.443	216.984	-0.104	0.161
-137.429	116.962	-0.170	0.204
-136.414	800.000	-0.009	0.035
-135.399	-200.000	-0.046	0.427
-134.385	-39.549	0.134	-0.068
-133.370	690.730	-0.134	-0.342
-132.356	-22.654	-0.121	-0.071
-131.341	-17.715	-0.067	0.041
-130.326	-200.000	-0.049	0.256
-129.312	226.835	-0.162	-0.256
-128.297	-50.685	0.139	-0.064
-127.283	322.371	-0.143	-0.266
-126.268	250.885	0.155	-0.257
-125.253	111.171	0.316	0.371
-124.239	-79.116	0.172	0.057
-123.224	-178.606	-0.330	0.007
-122.210	-35.181	-0.351	-0.186
