DTS Sentinel unit serial number:	SN413079Multiplexer serial number:	ORYXHardware model number:	OX4-SRSoftware version number:	ORYX F/W v4.00 Oryx Data Collector v3.7.2.0data status	okinstallation	princeton_trtdifferential loss correction	single-endedforward channel	channel 2reverse channel	N/Adate	2019/09/13time	16:03:34forward acquisition time	60.00reverse acquisition time	0.00gamma	496.2192k internal	0.2315k external	0.2315temperature offset calibration	1.0212default loss term (dB/km)	0.3790temperature slope calibration	1.0000multiplexer offset coefficient	1.0000multiplexer slope coefficient	1.0000fibre end	0.00T internal ref (°C)	34.67T ext. ref 1 (°C)	4.83T ext. ref 2 (°C)	31.51length (m)	temperature (°C)	Stokes	anti-Stokes-747.200	199.837	-0.040	-0.062
-746.185	260.855	0.107	0.187
-745.171	-200.000	0.039	-0.215
-744.156	-108.774	-0.221	0.048
-743.142	800.000	0.063	0.239
-742.127	800.000	0.038	0.162
-741.112	-102.829	0.235	-0.057
-740.098	-4.069	0.053	-0.037
-739.083	-199.197	0.291	-0.002
-738.069	447.264	-0.127	0.283
-737.054	191.451	0.212	0.324
-736.039	-19.561	-0.306	0.192
-735.025	800.000	-0.025	0.107
-734.010	276.958	-0.093	-0.168
-732.996	577.597	-0.126	-0.312
-731.981	-200.000	-0.024	0.255
-730.966	-91.214	-0.281	-0.082
-729.952	138.620	0.088	-0.117
-728.937	251.837	-0.003	0.005
-727.923	88.228	0.075	0.084
-726.908	4.431	-0.065	-0.048
-725.894	-93.349	-0.125	-0.035
-724.879	146.184	-0.142	0.193
-723.864	-26.105	0.074	0.044
-722.850	158.999	0.223	0.314
-721.835	-133.109	0.228	0.029
-720.821	246.168	0.062	-0.105
-719.806	244.997	-0.090	-0.154
-718.791	117.752	0.135	-0.169
-717.777	126.628	-0.155	-0.199
-716.762	-51.036	0.151	0.072
-715.748	101.828	-0.181	-0.214
-714.733	-1.904	-0.344	0.245
-713.718	-89.663	0.302	-0.090
-712.704	800.000	-0.037	-0.138
-711.689	-200.000	-0.076	-0.339
-710.675	-101.752	-0.092	-0.023
-709.660	-200.000	0.037	0.174
-708.645	72.741	-0.093	-0.098
-707.631	-179.263	0.182	-0.004
-706.616	30.634	0.164	-0.142
-705.602	-200.000	-0.022	-0.234
-704.587	530.507	-0.102	-0.244
-703.572	335.786	0.093	-0.182
-702.558	-200.000	-0.007	-0.209
-701.543	-200.000	-0.032	-0.261
-700.529	-200.000	-0.014	-0.079
-699.514	-97.595	0.223	-0.059
-698.499	-200.000	0.034	-0.222
-697.485	-200.000	0.013	0.123
-696.470	-200.000	-0.004	-0.329
-695.456	-117.349	0.240	-0.044
-694.441	800.000	-0.045	-0.139
-693.426	800.000	0.144	-0.453
-692.412	-144.765	0.031	0.003
-691.397	-200.000	0.001	-0.479
-690.383	-200.000	0.015	0.071
-689.368	-200.000	-0.050	0.333
-688.354	94.071	-0.116	-0.133
-687.339	-131.605	0.211	0.028
-686.324	46.121	0.149	0.140
-685.310	-51.109	0.229	-0.109
-684.295	-37.589	-0.209	-0.113
-683.281	-127.577	-0.367	-0.054
-682.266	-36.120	-0.155	0.085
-681.251	303.571	-0.109	0.204
-680.237	800.000	0.070	-0.263
-679.222	137.144	-0.267	-0.353
-678.208	800.000	0.015	0.057
-677.193	800.000	0.053	0.210
-676.178	800.000	0.054	-0.163
-675.164	-56.648	-0.126	-0.056
-674.149	48.042	0.168	-0.159
-673.135	-139.762	-0.435	-0.047
-672.120	178.120	0.242	-0.356
-671.105	-100.899	0.114	0.028
-670.091	-112.478	-0.255	0.052
-669.076	-141.726	0.112	0.011
-668.062	-196.481	-0.181	0.001
-667.047	800.000	-0.060	0.200
-666.032	776.871	0.012	0.033
-665.018	800.000	0.040	-0.154
-664.003	-14.628	-0.402	-0.261
-662.989	240.215	0.074	0.125
-661.974	800.000	0.027	-0.095
-660.959	-12.205	-0.179	0.118
-659.945	-85.692	-0.139	0.044
-658.930	-200.000	-0.015	0.127
-657.916	102.025	-0.350	-0.412
-656.901	11.864	-0.186	0.144
-655.886	-200.000	-0.038	-0.256
-654.872	-108.127	-0.051	0.011
-653.857	12.299	0.144	0.112
-652.843	177.647	-0.063	-0.093
-651.828	-123.953	0.172	0.027
-650.814	136.873	-0.120	0.158
-649.799	321.414	-0.159	0.306
-648.784	205.183	-0.124	-0.194
-647.770	-52.317	0.298	-0.139
-646.755	270.720	-0.061	0.108
-645.741	11.155	-0.098	0.076
-644.726	-100.460	0.465	0.116
-643.711	800.000	-0.037	-0.144
-642.697	-54.354	-0.202	0.092
-641.682	-140.485	-0.435	0.046
-640.668	-64.568	-0.140	0.057
-639.653	29.719	0.110	0.094
-638.638	-86.760	-0.295	0.091
-637.624	38.040	0.389	-0.349
-636.609	-200.000	-0.036	-0.241
-635.595	48.929	-0.067	-0.064
-634.580	33.984	-0.219	-0.192
-633.565	-71.976	-0.115	0.043
-632.551	583.261	-0.016	-0.041
-631.536	357.200	-0.116	0.233
-630.522	285.985	-0.095	-0.173
-629.507	-200.000	-0.012	-0.087
-628.492	147.273	-0.129	-0.175
-627.478	800.000	-0.029	-0.096
-626.463	-200.000	0.055	-0.316
-625.449	45.562	-0.381	-0.355
-624.434	183.848	0.036	0.054
-623.419	-29.290	0.242	-0.139
-622.405	785.144	-0.094	-0.260
-621.390	-21.974	-0.158	0.097
-620.376	217.919	0.052	-0.083
-619.361	-77.471	0.359	-0.126
-618.346	-200.000	0.016	-0.140
-617.332	-150.197	-0.185	-0.014
-616.317	166.177	0.053	0.076
-615.303	-36.089	0.106	-0.058
-614.288	-200.000	-0.012	0.098
-613.273	-200.000	0.012	0.196
-612.259	-107.190	-0.259	-0.058
-611.244	6.395	0.312	-0.234
-610.230	-164.564	-0.498	-0.023
-609.215	-200.000	-0.002	0.105
-608.201	-200.000	-0.012	0.121
-607.186	-28.373	-0.142	0.083
-606.171	180.732	-0.075	-0.111
-605.157	-87.289	0.386	0.118
-604.142	733.807	0.052	-0.140
-603.128	44.712	0.117	-0.109
-602.113	56.013	0.086	-0.084
-601.098	-134.459	-0.107	0.013
-600.084	150.199	0.110	0.151
-599.069	-142.774	-0.212	-0.021
-598.055	800.000	-0.058	-0.256
-597.040	51.353	0.124	0.119
-596.025	-200.000	0.061	0.391
-595.011	102.937	0.124	0.147
-593.996	32.205	-0.304	0.264
-592.982	-26.370	0.344	0.203
-591.967	-1.553	0.262	0.186
-590.952	85.934	0.220	0.244
-589.938	800.000	-0.061	0.177
-588.923	39.620	-0.355	0.321
-587.909	166.183	-0.109	-0.155
-586.894	67.071	-0.068	-0.070
-585.879	-56.698	-0.419	0.187
-584.865	-200.000	-0.024	0.197
-583.850	-15.089	0.402	0.260
-582.836	-81.824	0.274	0.090
-581.821	-81.192	0.175	0.058
-580.806	-192.352	-0.322	-0.003
-579.792	180.701	0.131	-0.194
-578.777	-94.054	0.480	0.133
-577.763	108.794	-0.094	-0.113
-576.748	509.994	0.049	-0.114
-575.733	800.000	0.095	-0.339
-574.719	196.818	0.018	0.027
-573.704	-200.000	0.006	-0.061
-572.690	18.070	-0.116	-0.093
-571.675	175.085	0.065	-0.095
-570.661	-200.000	0.005	-0.034
-569.646	800.000	-0.109	0.317
-568.631	-188.167	-0.385	0.005
-567.617	116.957	0.132	0.163
-566.602	-65.509	0.267	-0.108
-565.588	192.275	0.009	0.013
-564.573	-136.440	0.110	0.013
-563.558	373.686	-0.146	0.298
-562.544	-164.787	-0.277	-0.013
-561.529	10.960	0.208	-0.160
-560.515	181.966	-0.058	-0.086
-559.500	-200.000	-0.065	-0.409
-558.485	-138.548	-0.071	-0.008
-557.471	-162.711	0.227	0.011
-556.456	800.000	-0.097	0.352
-555.442	-200.000	0.027	-0.224
-554.427	800.000	0.025	-0.106
-553.412	-8.785	0.057	0.038
-552.398	800.000	0.083	0.233
-551.383	800.000	-0.087	0.251
-550.369	-4.694	-0.163	0.113
-549.354	-200.000	-0.009	0.060
-548.339	152.427	0.101	-0.138
-547.325	800.000	-0.007	0.024
-546.310	-90.709	-0.258	0.075
-545.296	77.765	-0.185	-0.199
-544.281	800.000	0.097	0.287
-543.266	-200.000	-0.013	-0.092
-542.252	-200.000	0.034	0.182
-541.237	-200.000	-0.099	-0.480
-540.223	-138.559	0.284	0.031
-539.208	800.000	0.077	0.323
-538.193	-48.166	-0.128	-0.062
-537.179	-200.000	-0.003	0.227
-536.164	-79.595	-0.114	0.039
-535.150	-119.021	0.246	-0.043
-534.135	-65.027	0.055	0.022
-533.121	-107.114	-0.151	-0.033
-532.106	46.809	-0.107	-0.100
-531.091	94.670	0.129	0.147
-530.077	-122.733	0.413	0.067
-529.062	800.000	-0.095	-0.402
-528.048	-8.550	-0.041	-0.028
-527.033	197.245	0.135	0.206
-526.018	5.608	0.150	-0.111
-525.004	-200.000	0.032	-0.164
-523.989	121.373	-0.050	-0.062
-522.975	-200.000	0.013	-0.449
-521.960	386.800	-0.046	-0.096
-520.945	353.209	0.102	0.204
-519.931	-200.000	0.007	0.101
-518.916	-138.907	0.232	-0.025
-517.902	152.674	0.343	-0.471
-516.887	-67.324	0.200	0.079
-515.872	-200.000	0.018	-0.234
-514.858	30.605	-0.277	0.238
-513.843	67.818	-0.189	-0.194
-512.829	22.624	-0.066	0.054
-511.814	-64.918	-0.132	0.054
-510.799	-120.338	-0.537	0.092
-509.785	-113.151	0.191	-0.038
-508.770	2.283	-0.135	-0.098
-507.756	800.000	-0.015	-0.062
-506.741	-185.332	0.224	0.003
-505.726	-36.481	0.092	0.050
-504.712	110.487	-0.063	-0.076
-503.697	773.954	-0.059	0.160
-502.683	-106.017	0.138	-0.031
-501.668	-56.487	-0.123	0.055
-500.653	-138.182	0.140	0.016
-499.639	67.547	-0.035	0.036
-498.624	258.722	0.337	0.582
-497.610	-78.730	0.222	0.076
-496.595	104.816	-0.233	-0.276
-495.581	-200.000	0.037	-0.211
-494.566	-200.000	0.028	-0.163
-493.551	-149.558	0.034	0.003
-492.537	105.668	-0.258	0.307
-491.522	-13.574	0.370	0.240
-490.508	-12.702	0.119	-0.078
-489.493	469.970	0.024	0.054
-488.478	17.493	-0.287	-0.229
-487.464	-194.233	-0.279	0.002
-486.449	393.515	0.054	0.114
-485.435	162.612	-0.056	0.079
-484.420	-70.252	-0.285	0.109
-483.405	-64.311	-0.212	0.087
-482.391	220.884	0.103	0.166
-481.376	-83.259	-0.281	-0.091
-480.362	-101.461	-0.077	0.019
-479.347	-55.391	-0.017	-0.008
-478.332	-65.967	0.346	-0.139
-477.318	84.953	-0.268	-0.294
-476.303	-67.239	-0.105	-0.041
-475.289	38.123	-0.177	-0.158
-474.274	133.637	-0.020	0.026
-473.259	-200.000	-0.007	0.142
-472.245	-40.077	-0.185	0.096
-471.230	800.000	0.086	-0.244
-470.216	150.899	-0.093	0.127
-469.201	279.753	0.126	0.226
-468.186	-57.484	-0.254	-0.112
-467.172	-76.200	0.194	0.069
-466.157	-200.000	0.003	-0.319
-465.143	800.000	0.080	0.325
-464.128	13.688	-0.330	-0.257
-463.113	194.471	-0.113	0.172
-462.099	85.380	0.281	0.309
-461.084	226.437	0.137	0.222
-460.070	187.006	0.080	0.119
-459.055	396.125	0.092	0.193
-458.040	-172.322	-0.276	-0.009
-457.026	-100.645	0.111	0.027
-456.011	-19.324	0.036	0.022
-454.997	-32.313	-0.283	-0.158
-453.982	81.711	0.019	0.021
-452.968	109.854	0.191	0.230
-451.953	-187.835	0.189	-0.002
-450.938	145.500	-0.188	-0.252
-449.924	-200.000	0.069	-0.396
-448.909	145.252	0.107	-0.144
-447.895	-200.000	0.075	-0.338
-446.880	125.841	-0.207	-0.262
-445.865	25.552	-0.185	0.154
-444.851	-6.900	-0.095	-0.065
-443.836	67.631	0.168	-0.172
-442.822	220.091	-0.116	-0.186
-441.807	207.480	0.152	-0.238
-440.792	-138.243	0.192	-0.021
-439.778	-61.202	0.158	-0.067
-438.763	-27.992	0.084	-0.048
-437.749	-82.879	-0.263	0.085
-436.734	341.537	0.032	-0.063
-435.719	573.079	0.152	0.372
-434.705	219.684	0.258	-0.414
-433.690	140.834	0.106	0.140
-432.676	-4.293	0.148	0.103
-431.661	388.703	-0.070	0.146
-430.646	800.000	-0.074	0.308
-429.632	-133.321	-0.201	0.025
-428.617	-125.195	-0.268	0.041
-427.603	-156.474	-0.122	0.008
-426.588	-200.000	-0.039	0.207
-425.573	-164.183	-0.281	0.013
-424.559	-136.630	0.051	-0.006
-423.544	158.879	-0.209	0.290
-422.530	-200.000	-0.010	0.052
-421.515	295.188	-0.088	-0.161
-420.500	405.334	0.173	-0.366
-419.486	-33.939	0.441	0.243
-418.471	34.351	-0.091	-0.079
-417.457	-79.791	-0.179	-0.060
-416.442	262.459	0.101	-0.176
-415.428	-4.960	-0.091	0.062
-414.413	-31.859	0.189	-0.106
-413.398	141.292	-0.062	-0.082
-412.384	-135.890	0.275	-0.032
-411.369	-62.144	-0.383	-0.160
-410.355	180.716	-0.141	0.208
-409.340	-17.374	0.274	0.173
-408.325	270.208	0.081	0.142
-407.311	-116.350	0.396	0.073
-406.296	-127.825	-0.399	-0.057
-405.282	105.248	0.067	-0.080
-404.267	-83.001	-0.227	-0.073
-403.252	26.999	0.074	-0.062
-402.238	-190.716	-0.270	0.003
-401.223	-64.044	-0.437	-0.178
-400.209	-117.412	0.210	-0.038
-399.194	-151.964	-0.208	0.015
-398.179	35.257	-0.067	-0.059
-397.165	-122.365	0.166	0.027
-396.150	-32.233	0.159	0.089
-395.136	778.183	-0.018	-0.050
-394.121	-4.079	0.426	0.295
-393.106	-158.874	-0.158	-0.009
-392.092	-75.216	-0.321	-0.114
-391.077	-189.668	-0.241	-0.003
-390.063	-138.969	-0.049	-0.005
-389.048	800.000	-0.077	0.303
-388.033	-54.960	0.157	0.071
-387.019	-152.914	-0.444	0.031
-386.004	-1.456	-0.066	-0.046
-384.990	800.000	0.024	-0.069
-383.975	-20.100	-0.066	-0.040
-382.960	-147.447	0.262	0.022
-381.946	-24.231	0.197	-0.117
-380.931	-106.176	-0.197	0.044
-379.917	-108.821	-0.187	0.040
-378.902	-50.105	0.349	-0.165
-377.888	-200.000	0.067	0.317
-376.873	195.874	0.109	-0.166
-375.858	378.999	-0.061	-0.125
-374.844	-51.746	-0.383	0.178
-373.829	-82.657	0.057	0.018
-372.815	-67.313	0.102	-0.040
-371.800	-161.093	0.146	0.008
-370.785	-115.530	-0.125	-0.024
-369.771	800.000	0.125	-0.347
-368.756	-200.000	0.044	0.247
-367.742	-99.474	0.403	0.101
-366.727	282.835	0.036	-0.064
-365.712	800.000	-0.070	0.242
-364.698	283.845	0.073	-0.132
-363.683	-43.890	0.188	-0.095
-362.669	-41.450	-0.144	-0.074
-361.654	29.324	0.162	0.138
-360.639	84.691	0.061	-0.066
-359.625	-51.204	0.280	-0.131
-358.610	800.000	0.032	-0.102
-357.596	-142.883	0.321	-0.031
-356.581	129.754	0.029	0.038
-355.566	23.460	0.269	0.221
-354.552	800.000	0.012	0.052
-353.537	5.865	0.253	-0.187
-352.523	192.474	0.114	-0.171
-351.508	33.293	0.232	-0.201
-350.493	47.219	-0.276	-0.256
-349.479	650.430	-0.094	-0.241
-348.464	-87.495	-0.146	-0.044
-347.450	356.158	0.019	0.037
-346.435	-52.202	0.151	-0.070
-345.420	37.863	-0.292	0.259
-344.406	-101.417	-0.224	-0.055
-343.391	454.758	0.049	-0.108
-342.377	336.193	0.024	-0.047
-341.362	134.336	-0.187	-0.241
-340.348	-112.097	-0.259	-0.052
-339.333	16.807	-0.188	0.148
-338.318	-146.613	-0.176	-0.015
-337.304	377.329	-0.083	0.170
-336.289	475.112	0.119	0.267
-335.275	800.000	-0.041	-0.141
-334.260	174.765	-0.110	-0.158
-333.245	207.302	0.199	-0.309
-332.231	-40.692	0.124	0.064
-331.216	165.386	-0.136	0.192
-330.202	-200.000	-0.014	-0.176
-329.187	800.000	0.025	-0.078
-328.172	442.949	0.081	0.178
-327.158	-143.631	-0.118	-0.011
-326.143	-90.792	0.080	0.023
-325.129	-56.059	-0.340	0.151
-324.114	499.613	0.053	0.122
-323.099	-0.687	-0.170	0.120
-322.085	800.000	-0.044	-0.179
-321.070	800.000	0.084	-0.237
-320.056	178.553	-0.056	-0.081
-319.041	-80.212	-0.263	-0.088
-318.026	61.269	-0.291	0.288
-317.012	41.953	-0.172	-0.155
-315.997	-103.012	0.190	0.045
-314.983	-115.786	-0.479	-0.089
-313.968	124.164	0.277	0.347
-312.953	-49.419	-0.102	-0.049
-311.939	-98.379	0.134	-0.034
-310.924	800.000	-0.104	-0.290
-309.910	298.559	-0.092	-0.168
-308.895	0.639	-0.276	0.197
-307.880	46.394	0.335	0.310
-306.866	-101.683	0.146	0.035
-305.851	308.324	0.127	-0.236
-304.837	-119.545	0.170	0.029
-303.822	-122.607	-0.232	-0.037
-302.807	800.000	0.055	0.204
-301.793	-187.537	0.183	0.002
-300.778	800.000	0.046	-0.131
-299.764	800.000	-0.053	0.212
-298.749	37.917	-0.199	-0.176
-297.735	514.527	0.077	0.178
-296.720	-94.121	0.487	-0.133
-295.705	234.391	0.087	-0.143
-294.691	-200.000	-0.028	-0.203
-293.676	350.736	0.108	-0.214
-292.662	-23.840	0.239	-0.142
-291.647	800.000	-0.035	-0.106
-290.632	421.832	-0.091	-0.195
-289.618	-63.889	0.188	0.076
-288.603	-200.000	-0.020	0.182
-287.589	-104.576	0.181	-0.042
-286.574	-159.803	-0.072	-0.004
-285.559	-200.000	-0.012	-0.102
-284.545	-200.000	-0.014	0.079
-283.530	259.289	0.332	-0.570
-282.516	-200.000	-0.009	-0.195
-281.501	-200.000	0.052	0.345
-280.486	268.218	-0.099	-0.173
-279.472	-200.000	0.018	-0.087
-278.457	-200.000	-0.044	-0.307
-277.443	-110.811	0.213	-0.044
-276.428	800.000	0.049	0.192
-275.413	88.989	0.135	-0.150
-274.399	239.640	0.123	-0.204
-273.384	-200.000	0.064	-0.336
-272.370	-61.464	-0.106	0.044
-271.355	159.632	-0.175	-0.243
-270.340	318.328	-0.039	0.074
-269.326	221.490	0.058	0.093
-268.311	156.300	0.135	-0.185
-267.297	361.546	0.094	0.187
-266.282	-119.323	0.270	-0.047
-265.267	-31.164	-0.046	-0.026
-264.253	191.601	-0.152	0.227
-263.238	150.364	0.214	-0.289
-262.224	291.404	0.202	-0.365
-261.209	154.315	-0.021	0.028
-260.195	-200.000	-0.000	0.023
-259.180	-165.146	-0.221	-0.010
-258.165	-141.154	-0.274	-0.028
-257.151	-101.721	0.219	0.053
-256.136	-22.534	-0.154	-0.093
-255.122	-172.665	0.174	-0.005
-254.107	133.411	0.047	0.061
-253.092	187.853	-0.239	0.354
-252.078	-111.648	-0.235	0.047
-251.063	9.839	0.166	0.125
-250.049	17.954	0.130	0.103
-249.034	248.784	-0.050	-0.084
-248.019	-31.328	-0.132	0.074
-247.005	-0.185	0.041	-0.029
-245.990	112.138	0.223	0.267
-244.976	-200.000	0.007	0.200
-243.961	-52.156	-0.181	-0.084
-242.946	225.892	-0.080	-0.129
-241.932	33.527	0.088	0.076
-240.917	800.000	-0.017	-0.066
-239.903	-200.000	-0.002	0.093
-238.888	514.987	-0.133	0.308
-237.873	-200.000	-0.034	0.228
-236.859	-200.000	-0.026	0.266
-235.844	37.224	-0.172	0.151
-234.830	-200.000	-0.007	0.345
-233.815	-107.328	0.130	0.028
-232.800	-200.000	0.001	-0.133
-231.786	726.429	0.050	0.133
-230.771	-23.976	0.076	-0.045
-229.757	-200.000	0.005	-0.024
-228.742	278.236	-0.067	0.119
-227.727	-200.000	-0.059	0.278
-226.713	-94.373	0.586	0.159
-225.698	-29.924	0.253	-0.143
-224.684	-61.013	-0.356	0.149
-223.669	-200.000	0.034	0.284
-222.655	-47.576	0.124	0.060
-221.640	-30.183	0.256	0.144
-220.625	-20.146	0.268	0.164
-219.611	-165.415	-0.059	0.003
-218.596	-104.331	-0.220	0.051
-217.582	-122.351	-0.342	0.055
-216.567	-1.782	-0.162	-0.113
-215.552	-200.000	-0.001	0.142
-214.538	-72.705	0.240	0.088
-213.523	198.274	-0.131	-0.199
-212.509	136.612	0.120	-0.156
-211.494	140.967	0.144	0.189
-210.479	-200.000	-0.028	0.136
-209.465	22.350	-0.193	0.157
-208.450	800.000	-0.041	0.163
-207.436	795.009	-0.063	-0.172
-206.421	-106.401	-0.043	-0.010
-205.406	-200.000	-0.007	-0.148
-204.392	800.000	0.055	0.187
-203.377	32.368	-0.184	-0.158
-202.363	278.124	-0.044	-0.077
-201.348	-200.000	-0.015	0.103
-200.333	-1.817	0.368	0.257
-199.319	-165.555	-0.214	0.009
-198.304	234.461	-0.070	0.114
-197.290	364.132	0.130	-0.260
-196.275	-64.218	0.166	0.067
-195.260	137.999	-0.323	0.420
-194.246	-200.000	0.017	0.172
-193.231	-200.000	0.019	-0.100
-192.217	114.248	0.063	-0.076
-191.202	-200.000	-0.030	0.239
-190.187	-127.112	-0.216	0.031
-189.173	-163.247	0.176	0.008
-188.158	-56.843	0.075	-0.033
-187.144	-167.124	-0.065	-0.003
-186.129	-136.127	-0.071	0.008
-185.114	-95.023	-0.310	-0.083
-184.100	222.373	0.185	-0.295
-183.085	-200.000	-0.024	-0.315
-182.071	-131.343	-0.165	-0.022
-181.056	800.000	-0.077	0.288
-180.042	49.065	-0.032	-0.030
-179.027	725.771	-0.213	0.564
-178.012	800.000	0.046	-0.138
-176.998	115.562	0.077	-0.094
-175.983	-200.000	0.048	0.242
-174.969	106.085	0.128	-0.151
-173.954	-62.401	-0.173	-0.071
-172.939	-41.671	0.130	-0.066
-171.925	556.701	0.042	0.101
-170.910	-200.000	-0.034	-0.182
-169.896	-37.668	-0.193	0.102
-168.881	-69.762	0.300	-0.114
-167.866	146.438	0.207	0.275
-166.852	800.000	0.016	0.063
-165.837	-160.138	0.158	0.009
-164.823	-200.000	-0.258	0.000
-163.808	8.380	0.036	-0.027
-162.793	-98.976	0.029	-0.007
-161.779	113.301	0.122	0.146
-160.764	-95.103	-0.260	-0.070
-159.750	169.115	-0.251	-0.355
-158.735	-82.515	0.143	-0.046
-157.720	19.255	0.255	-0.203
-156.706	276.971	0.208	0.366
-155.691	-69.236	0.285	-0.109
-154.677	-163.172	-0.151	0.007
-153.662	-200.000	0.009	0.105
-152.647	-200.000	0.014	-0.209
-151.633	259.512	0.044	-0.074
-150.618	69.733	0.081	-0.082
-149.604	361.653	-0.175	-0.347
-148.589	-66.931	-0.083	-0.032
-147.574	36.937	0.082	-0.072
-146.560	-200.000	-0.035	-0.157
-145.545	-59.334	-0.248	-0.106
-144.531	800.000	0.033	-0.112
-143.516	-195.492	0.170	0.001
-142.502	280.047	-0.094	-0.166
-141.487	-200.000	-0.076	0.345
-140.472	800.000	0.089	0.313
-139.458	79.800	-0.017	-0.018
-138.443	-123.119	-0.215	-0.034
-137.429	-27.931	-0.228	-0.131
-136.414	-1.925	-0.269	-0.187
-135.399	408.170	0.186	0.388
-134.385	48.170	0.338	0.313
-133.370	-39.316	-0.212	0.110
-132.356	192.769	-0.070	-0.104
-131.341	182.805	0.141	0.205
-130.326	565.667	0.039	0.093
-129.312	-200.000	0.046	0.305
-128.297	-200.000	-0.012	-0.360
-127.283	507.343	0.093	0.213
-126.268	-200.000	0.001	0.115
-125.253	-33.056	0.336	0.184
-124.239	152.398	-0.070	0.094
-123.224	-25.530	-0.047	-0.028
-122.210	372.741	-0.124	0.250
