DTS Sentinel unit serial number:	SN413079Multiplexer serial number:	ORYXHardware model number:	OX4-SRSoftware version number:	ORYX F/W v4.00 Oryx Data Collector v3.7.2.0data status	okinstallation	princeton_trtdifferential loss correction	single-endedforward channel	channel 2reverse channel	N/Adate	2019/09/14time	04:23:34forward acquisition time	60.00reverse acquisition time	0.00gamma	496.2192k internal	0.2336k external	0.2336temperature offset calibration	1.0129default loss term (dB/km)	0.3790temperature slope calibration	1.0000multiplexer offset coefficient	1.0000multiplexer slope coefficient	1.0000fibre end	0.00T internal ref (°C)	26.75T ext. ref 1 (°C)	3.34T ext. ref 2 (°C)	21.91length (m)	temperature (°C)	Stokes	anti-Stokes-747.200	-143.500	0.264	-0.025
-746.185	-200.000	0.049	0.262
-745.171	-174.230	0.489	-0.014
-744.156	-33.635	-0.279	0.155
-743.142	-200.000	-0.016	0.288
-742.127	-27.203	-0.071	-0.041
-741.112	-61.330	0.092	-0.039
-740.098	-42.357	-0.089	-0.046
-739.083	42.981	-0.236	0.216
-738.069	122.775	-0.179	-0.225
-737.054	-200.000	0.015	0.093
-736.039	-200.000	0.022	-0.254
-735.025	546.354	-0.119	-0.286
-734.010	-101.265	-0.186	-0.046
-732.996	583.539	-0.092	-0.227
-731.981	-73.543	0.195	-0.071
-730.966	-200.000	-0.021	0.222
-729.952	111.721	-0.073	-0.089
-728.937	307.261	-0.052	-0.096
-727.923	147.729	0.292	0.395
-726.908	800.000	-0.052	-0.160
-725.894	800.000	-0.062	-0.229
-724.879	800.000	0.064	0.231
-723.864	800.000	0.035	0.140
-722.850	800.000	-0.130	-0.415
-721.835	-69.641	0.130	-0.050
-720.821	-84.672	-0.254	-0.080
-719.806	434.593	0.086	-0.189
-718.791	-126.234	-0.228	-0.034
-717.777	490.094	-0.114	0.261
-716.762	57.499	-0.258	-0.253
-715.748	-58.784	-0.118	-0.051
-714.733	-169.142	0.154	0.006
-713.718	-200.000	0.030	-0.143
-712.704	-108.999	-0.023	0.005
-711.689	-87.967	0.234	0.071
-710.675	54.511	0.085	-0.082
-709.660	-72.126	0.598	-0.223
-708.645	-39.102	0.230	-0.121
-707.631	390.888	-0.068	0.142
-706.616	231.313	-0.278	-0.457
-705.602	-200.000	-0.035	-0.321
-704.587	410.574	0.246	0.523
-703.572	-3.345	-0.299	0.209
-702.558	19.255	0.034	-0.028
-701.543	-200.000	0.066	0.407
-700.529	-6.336	-0.115	-0.079
-699.514	-101.743	0.133	0.032
-698.499	-20.492	-0.255	-0.157
-697.485	29.064	0.225	-0.191
-696.470	303.926	-0.064	-0.119
-695.456	94.082	0.085	0.096
-694.441	-43.898	0.139	0.070
-693.426	67.044	-0.183	-0.187
-692.412	-200.000	-0.040	-0.386
-691.397	-200.000	-0.005	-0.101
-690.383	-83.579	-0.119	-0.038
-689.368	35.676	-0.120	0.106
-688.354	-162.661	0.149	-0.007
-687.339	800.000	-0.058	-0.199
-686.324	20.265	0.143	-0.116
-685.310	636.484	-0.093	-0.237
-684.295	800.000	-0.085	-0.247
-683.281	478.912	-0.044	-0.099
-682.266	153.738	0.256	-0.351
-681.251	-68.772	-0.233	0.090
-680.237	117.261	0.113	-0.139
-679.222	762.750	0.100	-0.271
-678.208	44.207	-0.123	-0.113
-677.193	-105.305	0.019	0.004
-676.178	398.943	0.136	-0.285
-675.164	-82.248	0.072	-0.024
-674.149	268.788	-0.058	0.101
-673.135	-86.299	0.056	-0.017
-672.120	-115.153	-0.059	-0.011
-671.105	105.794	-0.130	0.154
-670.091	-51.912	0.082	0.038
-669.076	64.314	0.042	0.043
-668.062	-149.089	0.247	0.020
-667.047	-86.268	-0.151	-0.047
-666.032	8.754	-0.300	0.226
-665.018	377.686	0.030	-0.062
-664.003	87.885	-0.316	0.351
-662.989	-90.030	0.125	-0.036
-661.974	-128.156	0.173	0.025
-660.959	-46.545	0.134	0.066
-659.945	515.964	0.088	-0.206
-658.930	-23.983	-0.189	-0.113
-657.916	-17.068	-0.177	0.112
-656.901	-107.302	-0.377	-0.083
-655.886	-200.000	-0.011	0.256
-654.872	163.032	0.083	-0.116
-653.857	-200.000	0.001	0.031
-652.843	-200.000	-0.047	0.323
-651.828	-131.953	0.145	0.019
-650.814	-200.000	0.010	-0.099
-649.799	-138.448	0.279	-0.031
-648.784	-176.104	0.126	0.003
-647.770	105.075	-0.076	0.089
-646.755	-164.068	0.292	0.014
-645.741	-122.529	0.110	0.018
-644.726	269.643	-0.167	0.294
-643.711	-114.154	-0.180	-0.035
-642.697	7.116	0.198	-0.148
-641.682	800.000	-0.059	-0.194
-640.668	141.837	-0.148	-0.196
-639.653	21.549	0.088	0.072
-638.638	-200.000	0.016	0.105
-637.624	-200.000	0.015	-0.215
-636.609	-109.036	0.156	-0.033
-635.595	291.480	0.175	0.318
-634.580	57.666	-0.044	0.043
-633.565	12.131	-0.274	0.211
-632.551	-200.000	-0.027	-0.289
-631.536	800.000	-0.105	-0.453
-630.522	800.000	0.020	0.059
-629.507	-171.557	-0.332	-0.011
-628.492	-46.806	-0.171	-0.084
-627.478	-75.930	0.228	0.081
-626.463	800.000	-0.145	-0.436
-625.449	-76.471	-0.520	-0.183
-624.434	-148.074	-0.101	0.008
-623.419	392.413	-0.049	-0.103
-622.405	-157.104	-0.250	0.015
-621.390	84.811	-0.222	0.243
-620.376	208.659	0.126	-0.196
-619.361	-62.420	-0.201	-0.083
-618.346	-200.000	0.032	0.172
-617.332	-69.822	0.357	0.136
-616.317	129.188	0.062	-0.079
-615.303	-7.717	0.127	-0.086
-614.288	-102.224	0.039	0.009
-613.273	-200.000	0.007	0.337
-612.259	381.426	-0.053	0.109
-611.244	-127.286	0.239	-0.035
-610.230	-18.899	0.044	0.027
-609.215	249.394	0.118	-0.201
-608.201	800.000	0.061	-0.256
-607.186	87.699	-0.092	0.102
-606.171	-13.296	0.102	0.066
-605.157	-78.160	0.326	-0.112
-604.142	170.016	-0.094	-0.135
-603.128	-200.000	-0.002	-0.375
-602.113	-11.669	0.058	-0.038
-601.098	-77.071	-0.248	0.086
-600.084	-131.090	-0.164	0.022
-599.069	-200.000	0.038	-0.249
-598.055	15.251	-0.264	-0.207
-597.040	-29.253	-0.049	-0.028
-596.025	800.000	0.035	-0.137
-595.011	-130.345	0.387	0.052
-593.996	62.891	-0.096	-0.096
-592.982	439.273	0.060	-0.130
-591.967	54.994	-0.264	-0.255
-590.952	15.701	0.034	-0.027
-589.938	-99.470	0.300	-0.075
-588.923	-93.814	-0.146	0.040
-587.909	251.069	-0.180	0.306
-586.894	147.263	0.116	-0.156
-585.879	-97.145	-0.211	0.055
-584.865	-124.116	-0.259	0.041
-583.850	-95.953	0.316	-0.084
-582.836	-7.177	0.150	0.102
-581.821	126.227	0.092	0.116
-580.806	336.705	-0.161	-0.312
-579.792	-134.177	0.222	0.027
-578.777	-200.000	-0.074	0.355
-577.763	434.785	-0.116	-0.252
-576.748	313.218	-0.180	-0.338
-575.733	-30.310	0.163	-0.092
-574.719	-89.108	0.226	0.067
-573.704	-104.900	0.161	0.037
-572.690	487.441	0.076	-0.173
-571.675	-37.518	-0.150	-0.080
-570.661	-146.224	0.304	0.027
-569.646	111.393	0.109	0.131
-568.631	106.338	0.128	0.151
-567.617	27.522	0.330	-0.277
-566.602	-88.261	0.110	0.033
-565.588	73.078	-0.159	-0.166
-564.573	115.289	0.134	0.163
-563.558	-169.766	0.109	-0.004
-562.544	471.118	0.042	-0.094
-561.529	-57.156	-0.362	-0.159
-560.515	-56.034	0.395	-0.176
-559.500	800.000	0.057	0.236
-558.485	-44.711	-0.167	-0.083
-557.471	-75.482	-0.287	0.102
-556.456	618.051	-0.173	0.434
-555.442	336.625	0.166	0.322
-554.427	580.016	0.121	-0.295
-553.412	183.717	0.075	-0.111
-552.398	321.310	0.012	-0.023
-551.383	186.372	-0.040	-0.059
-550.369	-200.000	0.001	-0.113
-549.354	40.857	0.184	0.165
-548.339	510.710	0.078	0.181
-547.325	-101.993	-0.028	0.007
-546.310	-200.000	0.035	-0.264
-545.296	-65.891	-0.354	-0.141
-544.281	-52.209	-0.268	-0.124
-543.266	-1.497	0.192	0.135
-542.252	-200.000	-0.057	0.435
-541.237	-200.000	-0.004	0.045
-540.223	800.000	-0.061	0.175
-539.208	800.000	-0.124	0.401
-538.193	40.126	0.270	-0.242
-537.179	273.887	-0.075	0.131
-536.164	800.000	0.058	-0.198
-535.150	-35.121	0.452	0.245
-534.135	43.162	0.232	0.211
-533.121	124.938	0.013	0.016
-532.106	-200.000	-0.028	0.123
-531.091	1.762	-0.094	-0.068
-530.077	89.453	0.091	-0.101
-529.062	-104.403	-0.227	-0.052
-528.048	-14.483	0.281	-0.180
-527.033	-21.026	0.251	0.153
-526.018	135.655	-0.079	0.103
-525.004	-179.787	-0.667	0.014
-523.989	-160.821	0.157	0.008
-522.975	84.569	0.153	-0.166
-521.960	800.000	-0.068	-0.285
-520.945	-100.746	-0.200	0.049
-519.931	134.503	0.275	-0.355
-518.916	428.206	-0.026	-0.056
-517.902	422.954	0.094	-0.200
-516.887	-70.116	0.444	-0.168
-515.872	83.594	-0.318	0.345
-514.858	59.624	-0.241	-0.237
-513.843	-200.000	-0.004	0.371
-512.829	-27.735	0.144	-0.083
-511.814	32.735	0.125	0.107
-510.799	566.596	-0.038	0.091
-509.785	554.402	0.088	0.211
-508.770	307.996	-0.182	-0.337
-507.756	733.459	0.046	0.124
-506.741	43.698	0.066	0.060
-505.726	-66.926	0.083	-0.033
-504.712	-29.433	0.134	-0.076
-503.697	232.169	-0.107	0.175
-502.683	154.735	0.247	-0.337
-501.668	-67.634	-0.287	0.112
-500.653	-11.670	-0.178	-0.116
-499.639	-99.986	-0.313	0.078
-498.624	139.815	-0.124	0.163
-497.610	229.165	-0.052	0.085
-496.595	-162.036	0.146	0.007
-495.581	-200.000	-0.003	-0.050
-494.566	43.401	-0.245	0.223
-493.551	-75.432	0.155	0.055
-492.537	76.770	0.221	0.233
-491.522	28.389	0.117	0.098
-490.508	174.490	-0.235	0.338
-489.493	-200.000	-0.079	0.383
-488.478	0.179	-0.230	-0.163
-487.464	84.587	-0.277	0.301
-486.449	65.839	0.194	0.195
-485.435	-200.000	-0.012	-0.067
-484.420	-19.350	-0.183	-0.113
-483.405	66.781	-0.076	0.076
-482.391	-200.000	0.001	-0.419
-481.376	-70.731	-0.178	-0.067
-480.362	195.968	0.219	0.331
-479.347	-149.877	0.224	0.017
-478.332	-200.000	-0.003	0.152
-477.318	41.609	-0.154	0.139
-476.303	693.692	-0.086	-0.225
-475.289	-66.653	0.040	-0.016
-474.274	-137.854	-0.013	0.001
-473.259	-10.353	0.283	0.187
-472.245	203.292	-0.131	0.201
-471.230	-64.097	0.195	-0.079
-470.216	-24.308	-0.234	-0.139
-469.201	-91.056	-0.139	0.040
-468.186	194.629	-0.197	-0.296
-467.172	17.543	-0.185	0.146
-466.157	-200.000	-0.012	-0.059
-465.143	42.583	-0.161	0.145
-464.128	59.677	-0.019	0.019
-463.113	-134.291	0.388	-0.047
-462.099	-11.887	0.093	0.061
-461.084	-77.162	-0.222	-0.077
-460.070	-87.331	-0.110	-0.033
-459.055	-24.104	-0.260	0.154
-458.040	106.123	0.184	-0.216
-457.026	217.751	-0.114	-0.181
-456.011	-178.163	-0.104	0.002
-454.997	-88.291	-0.238	-0.071
-453.982	115.169	-0.104	-0.127
-452.968	418.339	0.113	0.240
-451.953	-168.730	-0.294	0.011
-450.938	-200.000	-0.017	-0.259
-449.924	8.978	0.172	-0.129
-448.909	-84.893	-0.095	0.030
-447.895	-200.000	0.035	0.168
-446.880	-72.916	0.156	0.057
-445.865	-86.184	0.279	0.085
-444.851	-142.878	0.405	-0.039
-443.836	371.281	0.196	0.395
-442.822	92.313	0.100	-0.112
-441.807	428.263	0.175	-0.375
-440.792	-200.000	-0.027	-0.169
-439.778	-200.000	0.001	0.359
-438.763	39.658	-0.102	0.091
-437.749	-200.000	-0.014	-0.329
-436.734	211.442	-0.079	0.123
-435.719	-200.000	-0.072	0.328
-434.705	-52.128	-0.096	0.044
-433.690	-97.533	-0.323	-0.083
-432.676	107.330	0.100	-0.119
-431.661	141.532	0.144	0.190
-430.646	800.000	0.076	-0.245
-429.632	-87.824	-0.289	0.086
-428.617	-186.275	-0.302	-0.004
-427.603	-200.000	0.002	0.054
-426.588	-16.188	0.193	-0.121
-425.573	-66.805	0.181	-0.071
-424.559	202.963	-0.157	-0.241
-423.544	-200.000	0.009	0.196
-422.530	-91.663	0.416	0.118
-421.515	-135.256	-0.300	0.036
-420.500	-163.151	-0.304	0.014
-419.486	-171.164	-0.325	0.011
-418.471	37.050	0.147	-0.129
-417.457	-200.000	0.034	0.236
-416.442	-56.678	-0.263	-0.115
-415.428	-125.691	0.099	0.015
-414.413	90.629	-0.086	0.095
-413.398	-50.054	0.081	-0.038
-412.384	-200.000	-0.023	0.114
-411.369	-79.013	0.228	-0.077
-410.355	91.007	0.202	-0.225
-409.340	-80.990	-0.083	-0.027
-408.325	-154.541	-0.287	-0.019
-407.311	69.191	0.172	-0.176
-406.296	-200.000	-0.008	-0.422
-405.282	-144.375	-0.191	0.018
-404.267	755.314	-0.057	0.153
-403.252	36.756	-0.159	-0.139
-402.238	-104.888	0.190	-0.043
-401.223	-72.623	-0.135	0.049
-400.209	557.455	-0.099	0.236
-399.194	-60.831	-0.051	0.021
-398.179	-27.571	0.174	-0.100
-397.165	160.824	-0.201	0.278
-396.150	-200.000	0.021	0.117
-395.136	-200.000	0.068	-0.471
-394.121	-61.542	-0.012	0.005
-393.106	800.000	-0.143	0.441
-392.092	-61.016	0.112	-0.047
-391.077	43.439	-0.103	0.093
-390.063	-144.240	0.353	-0.033
-389.048	800.000	-0.080	0.234
-388.033	800.000	0.122	-0.472
-387.019	371.199	-0.201	-0.404
-386.004	242.255	0.031	-0.052
-384.990	-200.000	0.031	0.158
-383.975	-114.068	0.266	0.051
-382.960	236.210	-0.245	0.401
-381.946	155.937	-0.088	0.120
-380.931	2.287	-0.072	0.052
-379.917	-200.000	-0.013	-0.143
-378.902	800.000	-0.055	0.156
-377.888	-200.000	0.013	-0.269
-376.873	-91.114	-0.521	0.148
-375.858	-106.170	0.494	0.110
-374.844	-133.488	-0.305	-0.038
-373.829	2.957	0.138	0.099
-372.815	77.499	-0.198	0.208
-371.800	800.000	0.045	-0.128
-370.785	-200.000	0.060	0.399
-369.771	-200.000	0.034	0.199
-368.756	-74.648	0.308	-0.110
-367.742	-161.746	-0.242	-0.012
-366.727	-200.000	0.012	-0.060
-365.712	133.272	-0.214	0.274
-364.698	-103.126	-0.245	0.057
-363.683	-200.000	0.094	0.000
-362.669	-200.000	-0.007	0.179
-361.654	325.717	0.060	0.113
-360.639	800.000	-0.093	-0.299
-359.625	24.262	-0.090	-0.074
-358.610	6.776	0.293	0.216
-357.596	-23.100	-0.010	-0.006
-356.581	-66.419	-0.048	-0.019
-355.566	70.422	-0.152	0.155
-354.552	252.639	0.057	0.096
-353.537	5.913	0.140	-0.103
-352.523	479.723	0.094	-0.211
-351.508	39.384	-0.152	-0.135
-350.493	77.719	-0.342	-0.360
-349.479	-200.000	-0.003	-0.165
-348.464	29.759	0.048	-0.041
-347.450	404.467	0.169	0.351
-346.435	692.184	-0.102	-0.265
-345.420	44.063	-0.032	-0.029
-344.406	152.878	-0.058	-0.078
-343.391	800.000	-0.040	0.167
-342.377	800.000	0.059	0.229
-341.362	800.000	0.176	-0.518
-340.348	108.625	0.300	-0.355
-339.333	43.003	0.132	0.119
-338.318	-200.000	0.046	-0.407
-337.304	124.866	-0.070	0.087
-336.289	800.000	-0.109	-0.384
-335.275	-200.000	0.053	0.299
-334.260	-14.750	-0.150	0.095
-333.245	-200.000	0.028	-0.124
-332.231	279.092	0.091	0.161
-331.216	185.742	-0.157	-0.230
-330.202	31.378	-0.134	-0.114
-329.187	346.430	-0.112	0.219
-328.172	-148.778	0.356	0.029
-327.158	-7.977	-0.276	0.184
-326.143	38.374	0.138	-0.122
-325.129	208.355	-0.203	0.313
-324.114	-77.807	-0.287	-0.098
-323.099	195.473	-0.124	0.186
-322.085	-151.986	0.203	0.015
-321.070	-94.760	0.307	-0.082
-320.056	-117.769	-0.303	0.054
-319.041	62.279	-0.062	0.062
-318.026	664.161	0.024	0.061
-317.012	-49.798	-0.234	-0.110
-315.997	-32.071	-0.027	0.015
-314.983	406.421	0.078	0.163
-313.968	0.743	0.166	0.117
-312.953	196.510	-0.112	-0.168
-311.939	-126.041	-0.390	0.058
-310.924	800.000	-0.161	-0.492
-309.910	-50.855	0.131	0.061
-308.895	-18.909	-0.138	0.085
-307.880	-4.075	0.147	0.100
-306.866	-200.000	-0.006	0.098
-305.851	60.570	0.092	0.089
-304.837	88.762	-0.129	0.141
-303.822	18.847	-0.321	-0.254
-302.807	-200.000	-0.074	-0.423
-301.793	-121.170	-0.210	0.035
-300.778	347.376	0.129	-0.250
-299.764	-94.060	-0.219	0.059
-298.749	-97.164	-0.405	0.105
-297.735	-200.000	0.020	0.203
-296.720	800.000	-0.088	-0.266
-295.705	4.357	0.156	0.113
-294.691	170.288	0.209	-0.295
-293.676	-200.000	-0.034	0.157
-292.662	270.810	-0.111	-0.194
-291.647	-144.062	-0.115	-0.011
-290.632	197.087	-0.258	-0.388
-289.618	-200.000	-0.016	-0.422
-288.603	-114.343	0.285	-0.054
-287.589	218.093	0.113	-0.177
-286.574	-84.007	-0.203	-0.064
-285.559	49.326	-0.063	-0.058
-284.545	442.600	0.148	0.320
-283.530	-200.000	0.055	-0.304
-282.516	71.309	-0.080	-0.082
-281.501	328.711	0.105	0.200
-280.486	196.727	0.209	0.314
-279.472	-200.000	0.048	0.369
-278.457	234.731	0.087	-0.141
-277.443	343.939	0.033	0.063
-276.428	-103.190	0.271	-0.063
-275.413	800.000	0.119	0.341
-274.399	-68.406	0.197	0.076
-273.384	-200.000	0.029	-0.166
-272.370	81.629	-0.042	0.045
-271.355	-105.221	-0.242	0.054
-270.340	-178.579	0.100	-0.002
-269.326	-116.020	-0.088	0.016
-268.311	-32.111	-0.095	-0.053
-267.297	772.177	0.039	0.105
-266.282	-80.335	-0.136	-0.045
-265.267	-40.922	-0.272	-0.139
-264.253	15.584	0.057	0.044
-263.238	800.000	0.026	0.080
-262.224	-49.434	0.017	-0.008
-261.209	23.251	0.169	-0.137
-260.195	691.331	-0.048	0.123
-259.180	-200.000	-0.012	0.438
-258.165	-40.741	0.274	0.140
-257.151	239.074	0.093	-0.153
-256.136	83.085	-0.047	-0.050
-255.122	14.749	0.069	-0.053
-254.107	-42.934	0.407	0.203
-253.092	-126.871	-0.071	-0.010
-252.078	-115.272	-0.279	0.052
-251.063	-92.844	-0.066	-0.018
-250.049	-77.168	-0.093	0.032
-249.034	40.484	0.178	-0.158
-248.019	163.584	0.109	-0.151
-247.005	538.611	-0.048	-0.113
-245.990	43.586	-0.040	0.036
-244.976	-101.368	0.197	0.047
-243.961	-56.707	0.072	0.031
-242.946	-27.799	-0.302	-0.172
-241.932	-104.820	-0.405	-0.092
-240.917	-76.775	0.036	0.012
-239.903	-56.339	-0.078	-0.034
-238.888	48.940	0.024	-0.023
-237.873	222.961	0.106	0.168
-236.859	-113.632	-0.084	0.016
-235.844	159.969	-0.214	-0.294
-234.830	-200.000	-0.022	-0.320
-233.815	-4.561	-0.143	-0.097
-232.800	-94.656	0.261	-0.070
-231.786	-200.000	-0.115	-0.513
-230.771	-126.843	0.612	-0.089
-229.757	-190.626	-0.046	-0.000
-228.742	-29.617	0.382	-0.215
-227.727	175.624	-0.102	-0.145
-226.713	163.509	-0.113	0.156
-225.698	54.002	0.133	-0.126
-224.684	-14.122	0.331	-0.210
-223.669	-200.000	0.068	-0.303
-222.655	20.697	-0.224	0.178
-221.640	-10.890	-0.397	-0.258
-220.625	-88.172	0.239	0.070
-219.611	-17.300	0.282	0.175
-218.596	244.418	-0.148	-0.245
-217.582	-200.000	-0.049	0.377
-216.567	800.000	-0.016	-0.053
-215.552	4.021	-0.136	0.098
-214.538	-120.519	0.190	-0.032
-213.523	800.000	-0.029	0.114
-212.509	175.797	0.178	0.253
-211.494	800.000	0.007	0.022
-210.479	800.000	0.043	0.167
-209.465	800.000	-0.023	-0.067
-208.450	-200.000	-0.003	0.245
-207.436	800.000	0.084	-0.264
-206.421	-38.771	0.324	0.168
-205.406	53.969	0.230	0.217
-204.392	-121.437	0.199	0.033
-203.377	-200.000	-0.013	-0.117
-202.363	450.987	0.106	0.230
-201.348	-200.000	0.038	-0.346
-200.333	-66.484	0.063	-0.025
-199.319	-200.000	0.007	0.177
-198.304	-200.000	0.048	-0.253
-197.290	-131.873	-0.117	0.015
-196.275	58.929	0.145	-0.140
-195.260	-170.166	0.159	-0.006
-194.246	-20.079	0.153	0.093
-193.231	800.000	0.049	0.205
-192.217	96.145	0.183	0.205
-191.202	-112.707	-0.358	-0.070
-190.187	68.094	0.111	-0.112
-189.173	-29.830	-0.136	-0.076
-188.158	54.006	-0.125	-0.118
-187.144	800.000	0.025	-0.072
-186.129	85.403	0.068	0.074
-185.114	46.332	-0.175	0.159
-184.100	-46.966	0.182	-0.087
-183.085	98.548	-0.220	0.249
-182.071	287.048	-0.077	0.137
-181.056	-134.061	-0.217	0.026
-180.042	-77.673	0.418	-0.142
-179.027	94.076	-0.187	0.208
-178.012	-129.131	0.185	0.025
-176.998	358.829	-0.028	-0.055
-175.983	213.379	0.160	0.249
-174.969	54.232	0.074	-0.070
-173.954	49.668	0.231	0.214
-172.939	14.744	-0.041	0.032
-171.925	-71.441	-0.188	-0.069
-170.910	293.093	0.154	0.277
-169.896	-7.114	-0.121	0.081
-168.881	-109.688	0.309	-0.064
-167.866	800.000	-0.035	0.113
-166.852	529.722	-0.186	0.430
-165.837	-200.000	-0.039	-0.210
-164.823	499.038	0.112	0.253
-163.808	-33.359	0.302	-0.164
-162.793	-23.562	-0.318	0.188
-161.779	-68.157	0.093	-0.035
-160.764	-119.206	0.597	0.102
-159.750	-58.510	-0.347	-0.148
-158.735	213.963	0.134	0.209
-157.720	234.406	0.125	0.202
-156.706	-7.731	0.112	-0.074
-155.691	-121.634	0.176	-0.029
-154.677	3.109	-0.222	0.158
-153.662	347.394	0.090	0.174
-152.647	-200.000	-0.005	0.214
-151.633	402.297	-0.209	0.432
-150.618	378.569	-0.110	-0.221
-149.604	-85.318	0.178	-0.055
-148.589	-163.041	-0.405	0.019
-147.574	26.596	-0.063	-0.051
-146.560	422.555	0.039	0.082
-145.545	-50.757	0.196	0.090
-144.531	145.219	0.140	-0.184
-143.516	-3.874	-0.383	-0.260
-142.502	-32.293	-0.196	-0.107
-141.487	786.285	-0.115	0.309
-140.472	-171.062	0.202	-0.007
-139.458	272.675	0.092	0.158
-138.443	65.557	0.067	-0.066
-137.429	82.478	0.164	-0.174
-136.414	57.393	0.108	0.103
-135.399	-51.350	-0.243	-0.111
-134.385	-51.912	-0.098	0.045
-133.370	800.000	-0.112	-0.324
-132.356	150.756	-0.243	0.324
-131.341	129.131	-0.225	-0.282
-130.326	-99.100	0.243	-0.060
-129.312	-200.000	-0.022	0.192
-128.297	11.320	-0.092	0.069
-127.283	-200.000	-0.004	0.123
-126.268	-52.095	-0.214	0.097
-125.253	-104.156	-0.242	0.055
-124.239	-47.714	-0.423	0.201
-123.224	96.348	0.236	0.265
-122.210	561.012	-0.038	-0.089
-121.195	-200.000	-0.034	-0.373
