DTS Sentinel unit serial number:	SN413079Multiplexer serial number:	ORYXHardware model number:	OX4-SRSoftware version number:	ORYX F/W v4.00 Oryx Data Collector v3.7.2.0data status	okinstallation	princeton_trtdifferential loss correction	single-endedforward channel	channel 2reverse channel	N/Adate	2019/09/11time	14:13:11forward acquisition time	60.00reverse acquisition time	0.00gamma	496.2192k internal	0.2292k external	0.2292temperature offset calibration	1.0007default loss term (dB/km)	0.3790temperature slope calibration	1.0000multiplexer offset coefficient	1.0000multiplexer slope coefficient	1.0000fibre end	0.00T internal ref (°C)	41.91T ext. ref 1 (°C)	0.88T ext. ref 2 (°C)	37.56length (m)	temperature (°C)	Stokes	anti-Stokes-747.200	-89.430	-0.112	0.034
-746.185	800.000	0.068	0.250
-745.171	33.741	0.180	0.161
-744.156	-200.000	-0.072	0.470
-743.142	632.866	-0.102	-0.265
-742.127	217.725	-0.065	0.107
-741.112	-141.104	-0.252	0.026
-740.098	-200.000	0.015	0.265
-739.083	651.854	0.108	-0.283
-738.069	800.000	0.066	0.215
-737.054	43.591	0.140	-0.131
-736.039	-113.152	0.050	-0.010
-735.025	-200.000	0.012	0.177
-734.010	4.371	-0.292	0.219
-732.996	800.000	0.092	-0.307
-731.981	-57.758	-0.249	0.112
-730.966	256.780	0.056	0.098
-729.952	-54.828	-0.330	-0.153
-728.937	-131.396	0.168	0.023
-727.923	-200.000	-0.003	-0.145
-726.908	21.395	-0.107	-0.089
-725.894	298.827	-0.291	0.547
-724.879	72.615	-0.186	0.198
-723.864	511.595	0.125	-0.297
-722.850	7.536	0.227	-0.174
-721.835	88.300	-0.122	0.139
-720.821	-48.152	0.069	-0.034
-719.806	128.626	0.160	0.208
-718.791	146.821	0.156	-0.214
-717.777	11.167	0.061	-0.048
-716.762	-156.439	0.245	0.016
-715.748	-200.000	0.052	-0.311
-714.733	205.898	-0.086	-0.137
-713.718	-51.001	-0.129	-0.062
-712.704	-120.634	-0.099	0.017
-711.689	341.003	-0.102	0.203
-710.675	-74.008	-0.250	-0.093
-709.660	505.730	-0.056	0.132
-708.645	800.000	0.018	0.066
-707.631	31.285	-0.224	0.196
-706.616	-200.000	0.000	-0.037
-705.602	172.836	-0.068	0.100
-704.587	-62.537	-0.061	-0.026
-703.572	-12.651	0.243	0.162
-702.558	-200.000	-0.011	0.062
-701.543	282.188	0.183	-0.336
-700.529	91.575	-0.108	0.124
-699.514	63.228	-0.069	-0.071
-698.499	650.439	0.099	0.260
-697.485	-6.483	0.265	0.185
-696.470	-19.453	0.223	0.141
-695.456	-200.000	-0.017	0.169
-694.441	294.589	0.045	0.084
-693.426	-140.337	-0.022	-0.002
-692.412	349.223	-0.174	-0.351
-691.397	-36.742	0.071	-0.039
-690.383	314.570	-0.018	-0.035
-689.368	236.259	-0.157	-0.265
-688.354	563.464	0.084	-0.209
-687.339	-36.631	-0.217	-0.119
-686.324	28.370	-0.326	-0.282
-685.310	133.472	-0.051	-0.067
-684.295	-200.000	-0.013	-0.086
-683.281	-95.782	-0.344	-0.094
-682.266	-55.528	-0.174	-0.080
-681.251	800.000	0.104	0.305
-680.237	-32.378	0.041	-0.023
-679.222	-200.000	0.009	-0.302
-678.208	-139.294	-0.125	0.014
-677.193	-200.000	0.091	-0.518
-676.178	-149.276	0.052	-0.004
-675.164	20.209	0.089	-0.073
-674.149	800.000	0.020	0.081
-673.135	-200.000	-0.014	-0.197
-672.120	141.322	-0.300	0.406
-671.105	-119.054	-0.140	0.025
-670.091	267.916	-0.200	0.357
-669.076	503.049	0.070	-0.165
-668.062	-200.000	0.020	-0.232
-667.047	29.022	0.144	0.125
-666.032	31.929	0.159	-0.140
-665.018	-123.495	-0.303	0.049
-664.003	-151.004	-0.286	0.022
-662.989	74.548	-0.051	-0.055
-661.974	-97.197	0.266	-0.071
-660.959	-109.648	0.297	-0.064
-659.945	-105.611	0.172	-0.040
-658.930	575.468	0.139	-0.347
-657.916	-61.325	-0.364	-0.156
-656.901	267.065	0.144	-0.257
-655.886	-44.509	-0.048	0.025
-654.872	-47.735	-0.205	-0.101
-653.857	91.989	0.261	-0.300
-652.843	460.422	-0.025	-0.057
-651.828	112.620	0.081	0.101
-650.814	-102.019	-0.233	-0.057
-649.799	-200.000	0.008	-0.113
-648.784	-89.245	0.361	0.109
-647.770	-126.710	0.350	0.053
-646.755	-51.848	0.196	0.093
-645.741	-179.139	0.257	0.006
-644.726	57.850	0.244	-0.243
-643.711	54.341	0.133	-0.130
-642.697	273.502	0.096	0.173
-641.682	755.961	0.069	0.191
-640.668	315.690	-0.113	0.217
-639.653	108.103	-0.111	-0.135
-638.638	800.000	0.050	-0.206
-637.624	137.812	0.114	-0.152
-636.609	800.000	-0.168	-0.528
-635.595	31.788	-0.333	-0.292
-634.580	41.855	-0.127	-0.117
-633.565	-29.918	0.027	-0.016
-632.551	-36.850	-0.082	0.045
-631.536	-23.117	-0.025	-0.015
-630.522	-81.524	0.081	0.027
-629.507	62.061	-0.093	0.095
-628.492	-61.176	-0.278	-0.119
-627.478	406.692	0.158	-0.341
-626.463	-60.214	-0.339	0.147
-625.449	800.000	0.058	0.169
-624.434	800.000	-0.073	0.218
-623.419	252.406	-0.166	-0.288
-622.405	309.524	0.080	-0.152
-621.390	8.125	-0.325	-0.248
-620.376	67.760	-0.128	0.133
-619.361	-32.016	-0.029	0.017
-618.346	-200.000	0.028	-0.394
-617.332	-57.513	0.104	0.047
-616.317	800.000	0.050	0.187
-615.303	12.796	-0.077	0.061
-614.288	27.323	-0.058	-0.050
-613.273	-124.246	0.285	0.045
-612.259	766.926	-0.021	0.058
-611.244	210.952	-0.104	-0.167
-610.230	-130.886	-0.165	-0.023
-609.215	-110.219	0.251	-0.053
-608.201	800.000	0.019	0.085
-607.186	-158.098	-0.205	-0.012
-606.171	-101.934	0.135	0.033
-605.157	800.000	-0.066	0.185
-604.142	595.623	0.087	0.218
-603.128	-119.565	-0.202	-0.036
-602.113	-15.358	0.107	0.070
-601.098	-54.361	0.186	-0.086
-600.084	133.408	-0.074	-0.098
-599.069	-86.182	-0.380	0.119
-598.055	364.419	0.068	-0.140
-597.040	-130.014	0.392	0.055
-596.025	-184.584	0.197	-0.003
-595.011	-61.988	0.082	-0.035
-593.996	-179.452	0.165	-0.004
-592.982	151.873	-0.184	0.255
-591.967	52.019	-0.163	-0.158
-590.952	-35.040	0.512	0.284
-589.938	75.981	-0.106	0.114
-588.923	95.496	-0.140	-0.162
-587.909	-200.000	0.028	-0.128
-586.894	-200.000	-0.010	-0.178
-585.879	57.807	-0.151	-0.151
-584.865	137.574	-0.029	-0.039
-583.850	387.069	0.209	0.440
-582.836	228.856	0.049	0.081
-581.821	-200.000	-0.083	-0.452
-580.806	317.376	-0.148	-0.285
-579.792	-13.486	-0.382	0.252
-578.777	35.792	-0.224	0.201
-577.763	-200.000	-0.064	-0.413
-576.748	-3.080	0.244	-0.173
-575.733	60.380	0.153	0.154
-574.719	-97.087	0.144	-0.038
-573.704	78.927	0.109	0.118
-572.690	6.545	-0.172	-0.130
-571.675	461.519	0.069	-0.157
-570.661	33.473	0.219	-0.193
-569.646	-200.000	-0.068	0.322
-568.631	95.817	-0.138	-0.160
-567.617	-7.019	-0.084	0.058
-566.602	-74.697	-0.319	-0.116
-565.588	300.412	0.078	0.146
-564.573	-200.000	-0.019	0.219
-563.558	-17.149	-0.222	-0.142
-562.544	800.000	0.040	-0.169
-561.529	344.201	-0.124	-0.247
-560.515	-200.000	-0.054	0.276
-559.500	-48.511	0.126	-0.062
-558.485	-43.833	0.143	-0.073
-557.471	444.527	-0.138	-0.307
-556.456	297.738	0.159	0.297
-555.442	78.874	0.120	0.130
-554.427	-133.777	0.097	-0.012
-553.412	627.655	0.005	-0.013
-552.398	-21.508	0.085	-0.053
-551.383	121.228	-0.179	0.226
-550.369	673.030	-0.041	0.108
-549.354	56.057	0.141	0.139
-548.339	-200.000	-0.034	-0.155
-547.325	800.000	-0.052	-0.179
-546.310	-156.825	-0.184	0.012
-545.296	435.931	-0.028	0.062
-544.281	596.163	-0.116	0.291
-543.266	39.596	-0.146	-0.133
-542.252	-200.000	0.010	0.201
-541.237	-200.000	-0.037	-0.254
-540.223	151.930	-0.262	-0.362
-539.208	-83.067	-0.269	0.088
-538.193	-200.000	0.032	0.218
-537.179	-200.000	0.075	0.544
-536.164	-86.842	-0.269	-0.083
-535.150	-188.790	0.250	-0.003
-534.135	47.454	0.056	0.053
-533.121	118.371	-0.078	-0.098
-532.106	-93.986	-0.298	-0.083
-531.091	257.343	0.209	0.365
-530.077	-200.000	0.002	-0.111
-529.062	-200.000	-0.018	-0.304
-528.048	4.077	-0.197	0.146
-527.033	-141.281	-0.151	-0.016
-526.018	78.649	-0.098	-0.106
-525.004	800.000	-0.039	-0.122
-523.989	255.075	-0.042	0.073
-522.975	262.754	-0.077	0.136
-521.960	-200.000	0.023	0.251
-520.945	-69.668	-0.143	0.056
-519.931	93.051	-0.166	-0.190
-518.916	-27.768	-0.309	-0.182
-517.902	10.552	0.142	-0.109
-516.887	-200.000	0.070	-0.371
-515.872	-89.674	0.306	-0.091
-514.858	149.124	-0.118	0.162
-513.843	-126.752	-0.129	-0.019
-512.829	-94.922	0.307	-0.084
-511.814	-130.959	-0.549	0.074
-510.799	-111.377	-0.171	-0.035
-509.785	-97.586	-0.150	-0.040
-508.770	284.276	-0.197	0.359
-507.756	-57.615	-0.120	-0.053
-506.741	70.313	0.026	-0.027
-505.726	-77.510	-0.347	0.122
-504.712	-113.494	0.065	-0.013
-503.697	546.806	-0.160	-0.389
-502.683	352.030	-0.059	-0.119
-501.668	283.576	-0.075	0.137
-500.653	-200.000	0.019	0.104
-499.639	-82.446	0.101	-0.033
-498.624	800.000	-0.016	0.051
-497.610	632.872	-0.195	0.500
-496.595	584.094	0.066	0.164
-495.581	-2.600	-0.360	-0.255
-494.566	116.409	-0.115	0.142
-493.551	-140.010	-0.156	-0.017
-492.537	-79.767	-0.074	-0.025
-491.522	14.428	-0.121	-0.096
-490.508	135.482	-0.107	-0.141
-489.493	91.127	-0.094	-0.107
-488.478	-153.548	-0.187	0.013
-487.464	-95.796	0.193	0.052
-486.449	-200.000	0.002	0.310
-485.435	-200.000	0.044	-0.265
-484.420	-68.517	-0.204	-0.080
-483.405	479.111	0.138	0.317
-482.391	-191.546	0.367	0.004
-481.376	76.497	0.268	0.288
-480.362	-15.190	-0.430	0.279
-479.347	47.455	-0.018	-0.017
-478.332	-86.377	-0.415	-0.129
-477.318	-200.000	-0.023	-0.301
-476.303	456.319	0.065	0.147
-475.289	-200.000	0.037	0.244
-474.274	-92.204	-0.282	0.081
-473.259	346.436	-0.083	0.165
-472.245	-81.268	0.434	-0.145
-471.230	6.797	-0.156	-0.118
-470.216	-76.724	0.180	-0.064
-469.201	-39.946	0.199	-0.105
-468.186	307.664	0.191	0.361
-467.172	60.102	0.269	0.270
-466.157	-200.000	-0.049	0.449
-465.143	-146.917	0.212	-0.018
-464.128	255.120	0.067	-0.116
-463.113	309.759	-0.028	-0.053
-462.099	800.000	-0.089	-0.297
-461.084	-2.660	0.086	0.061
-460.070	265.609	-0.050	0.087
-459.055	30.842	0.076	0.066
-458.040	22.841	0.372	-0.309
-457.026	-89.937	0.196	-0.058
-456.011	82.191	0.032	0.035
-454.997	-200.000	0.004	0.284
-453.982	800.000	-0.063	0.184
-452.968	18.734	-0.200	0.162
-451.953	59.747	0.162	0.162
-450.938	800.000	0.064	0.195
-449.924	25.291	-0.200	0.168
-448.909	-27.912	0.083	-0.049
-447.895	-143.126	0.202	0.020
-446.880	7.484	0.113	0.086
-445.865	300.312	-0.036	0.066
-444.851	-179.635	-0.159	0.003
-443.836	-161.121	0.256	0.014
-442.822	-120.293	0.035	-0.006
-441.807	-91.166	-0.257	0.075
-440.792	800.000	-0.134	-0.415
-439.778	-72.158	-0.173	0.065
-438.763	72.526	-0.138	0.146
-437.749	-102.191	0.176	-0.043
-436.734	163.701	-0.024	-0.034
-435.719	16.777	-0.168	-0.134
-434.705	-20.648	0.357	0.222
-433.690	124.689	-0.006	0.007
-432.676	-77.045	0.189	-0.067
-431.661	-21.793	0.203	-0.125
-430.646	-89.020	-0.215	-0.064
-429.632	-200.000	0.054	-0.250
-428.617	-200.000	-0.016	0.268
-427.603	186.458	0.133	0.200
-426.588	3.927	-0.051	0.037
-425.573	-200.000	0.015	-0.158
-424.559	-26.401	0.305	-0.181
-423.544	18.796	0.140	-0.113
-422.530	348.294	-0.094	-0.186
-421.515	-200.000	0.008	-0.276
-420.500	-83.028	0.409	-0.133
-419.486	45.076	-0.105	-0.098
-418.471	-179.809	0.270	0.006
-417.457	800.000	-0.116	-0.343
-416.442	-69.614	-0.191	0.074
-415.428	-24.414	0.179	-0.108
-414.413	-127.765	0.451	-0.066
-413.398	-88.595	0.328	0.099
-412.384	-24.519	-0.294	-0.177
-411.369	267.732	-0.090	-0.160
-410.355	-21.047	0.251	-0.155
-409.340	-100.118	0.307	-0.077
-408.325	-12.314	0.153	-0.101
-407.311	127.499	-0.256	0.329
-406.296	8.186	0.094	-0.071
-405.282	17.411	0.233	-0.187
-404.267	-15.192	0.280	0.181
-403.252	-200.000	0.027	-0.152
-402.238	-89.219	-0.092	0.028
-401.223	-142.315	-0.179	0.018
-400.209	235.978	-0.026	-0.044
-399.194	313.520	-0.073	-0.138
-398.179	217.007	0.153	-0.246
-397.165	-200.000	-0.035	-0.169
-396.150	229.682	0.237	-0.392
-395.136	-138.205	-0.187	-0.021
-394.121	5.467	0.073	-0.054
-393.106	-200.000	0.013	-0.281
-392.092	-112.872	0.245	0.049
-391.077	-200.000	0.005	-0.154
-390.063	212.572	0.259	-0.412
-389.048	225.677	-0.009	-0.014
-388.033	-200.000	0.028	0.295
-387.019	85.936	-0.116	0.129
-386.004	413.439	-0.071	0.153
-384.990	800.000	0.113	0.384
-383.975	-200.000	0.009	0.076
-382.960	-200.000	-0.013	0.126
-381.946	52.518	0.099	-0.095
-380.931	133.894	-0.233	-0.304
-379.917	-99.478	-0.241	0.061
-378.902	370.795	0.078	0.160
-377.888	15.962	-0.178	0.141
-376.873	-43.238	-0.410	0.210
-375.858	-200.000	0.094	-0.431
-374.844	-109.791	0.089	-0.019
-373.829	729.154	-0.024	-0.065
-372.815	673.736	-0.116	0.302
-371.800	-90.398	-0.311	0.091
-370.785	800.000	-0.063	-0.177
-369.771	124.865	0.099	0.125
-368.756	800.000	0.034	0.142
-367.742	-17.462	-0.121	0.077
-366.727	198.247	0.152	0.234
-365.712	-26.013	-0.080	-0.047
-364.698	-67.259	0.301	-0.120
-363.683	56.994	0.186	0.182
-362.669	800.000	0.083	0.280
-361.654	418.890	0.057	0.123
-360.639	662.214	-0.084	0.219
-359.625	-200.000	0.231	0.000
-358.610	68.376	0.217	0.224
-357.596	-113.106	-0.189	0.038
-356.581	-88.202	-0.270	0.082
-355.566	-200.000	0.095	-0.437
-354.552	-200.000	-0.006	-0.363
-353.537	66.854	-0.158	0.162
-352.523	-25.215	0.226	-0.135
-351.508	-110.298	-0.133	-0.028
-350.493	133.874	-0.142	0.186
-349.479	-72.113	0.167	0.062
-348.464	798.612	-0.050	0.138
-347.450	-106.556	-0.313	0.070
-346.435	-200.000	-0.004	-0.216
-345.420	-155.040	-0.104	0.007
-344.406	800.000	0.220	0.868
-343.391	-200.000	0.032	0.279
-342.377	301.327	-0.084	0.156
-341.362	-200.000	-0.006	0.064
-340.348	-81.816	-0.138	-0.045
-339.333	-30.982	0.221	-0.126
-338.318	-157.348	0.217	-0.013
-337.304	-79.994	0.220	-0.075
-336.289	-21.499	0.105	-0.064
-335.275	-129.546	-0.006	-0.001
-334.260	-90.470	0.353	-0.103
-333.245	260.716	0.235	0.409
-332.231	168.507	-0.088	-0.126
-331.216	542.421	-0.064	-0.154
-330.202	61.346	0.057	-0.057
-329.187	164.181	-0.225	0.319
-328.172	-127.527	0.285	-0.042
-327.158	-72.865	-0.208	0.077
-326.143	38.333	-0.210	-0.189
-325.129	-53.791	-0.369	0.169
-324.114	-35.554	0.131	-0.072
-323.099	800.000	0.055	0.156
-322.085	-74.757	0.221	-0.080
-321.070	-102.255	0.076	0.018
-320.056	-200.000	-0.025	0.154
-319.041	-48.474	0.201	-0.098
-318.026	-89.153	0.260	-0.077
-317.012	-22.187	0.186	-0.114
-315.997	800.000	-0.057	-0.230
-314.983	279.537	0.036	0.064
-313.968	-200.000	-0.029	-0.196
-312.953	-194.097	-0.385	0.003
-311.939	800.000	0.045	0.127
-310.924	-49.978	0.182	0.087
-309.910	-76.811	0.136	0.048
-308.895	800.000	0.060	-0.206
-307.880	-148.379	0.121	0.010
-306.866	-89.952	0.082	-0.024
-305.851	-99.092	-0.198	-0.051
-304.837	671.526	-0.016	0.042
-303.822	128.094	0.135	0.173
-302.807	-119.848	0.315	-0.055
-301.793	-98.475	0.141	-0.036
-300.778	-200.000	0.011	0.114
-299.764	-200.000	-0.030	-0.153
-298.749	-82.939	-0.162	0.053
-297.735	17.719	-0.192	-0.153
-296.720	-63.006	0.120	0.050
-295.705	152.943	0.066	-0.091
-294.691	-10.640	0.037	0.025
-293.676	800.000	-0.013	0.044
-292.662	284.570	-0.186	-0.336
-291.647	800.000	-0.169	-0.526
-290.632	-154.941	-0.216	0.014
-289.618	-200.000	0.080	0.407
-288.603	17.861	0.242	-0.194
-287.589	-96.519	-0.238	0.063
-286.574	9.888	0.166	-0.126
-285.559	284.216	0.004	0.007
-284.545	103.118	-0.158	0.186
-283.530	-35.926	-0.214	0.116
-282.516	-89.111	-0.059	-0.017
-281.501	74.973	0.205	0.218
-280.486	-200.000	0.008	0.098
-279.472	-114.864	0.597	0.114
-278.457	49.280	0.247	0.233
-277.443	-200.000	0.027	0.203
-276.428	750.308	-0.107	0.292
-275.413	-200.000	0.005	0.230
-274.399	4.674	0.022	0.016
-273.384	-155.341	0.170	-0.011
-272.370	483.102	-0.070	-0.160
-271.355	-145.982	0.199	0.018
-270.340	244.751	-0.094	-0.159
-269.326	663.750	0.080	-0.207
-268.311	-1.934	-0.091	-0.065
-267.297	11.592	-0.218	0.168
-266.282	-168.465	-0.079	0.003
-265.267	-200.000	-0.038	-0.268
-264.253	800.000	-0.029	0.095
-263.238	74.180	-0.126	0.133
-262.224	88.821	0.062	0.069
-261.209	-137.946	-0.369	0.041
-260.195	-163.594	-0.536	0.025
-259.180	20.860	0.115	0.094
-258.165	-20.888	-0.312	0.192
-257.151	-200.000	0.041	-0.205
-256.136	-112.793	-0.218	0.043
-255.122	-83.954	0.032	0.010
-254.107	201.720	-0.017	0.026
-253.092	5.983	-0.191	0.142
-252.078	477.363	0.147	-0.333
-251.063	399.063	0.116	0.243
-250.049	244.394	-0.128	-0.216
-249.034	-200.000	-0.018	-0.149
-248.019	-17.422	-0.129	-0.081
-247.005	721.891	-0.115	-0.307
-245.990	-139.303	0.599	-0.065
-244.976	3.474	0.286	-0.209
-243.961	-145.415	0.385	-0.035
-242.946	-200.000	-0.018	0.308
-241.932	-39.269	-0.194	0.102
-240.917	58.658	0.253	0.250
-239.903	-200.000	-0.013	0.118
-238.888	-39.731	-0.141	-0.074
-237.873	-200.000	0.010	0.298
-236.859	195.835	0.149	0.227
-235.844	-34.086	-0.235	-0.129
-234.830	-48.368	-0.335	0.162
-233.815	52.409	0.057	-0.054
-232.800	352.757	-0.059	0.118
-231.786	111.245	-0.018	0.022
-230.771	-90.877	0.061	-0.018
-229.757	800.000	-0.035	-0.128
-228.742	-86.765	-0.133	0.041
-227.727	30.394	-0.188	0.161
-226.713	-62.445	-0.242	0.101
-225.698	-200.000	-0.017	-0.178
-224.684	-7.483	-0.150	0.102
-223.669	-19.251	-0.281	0.175
-222.655	456.620	0.075	0.167
-221.640	113.157	0.068	-0.082
-220.625	-126.431	0.248	-0.037
-219.611	36.141	-0.329	-0.291
-218.596	-93.524	0.153	0.042
-217.582	-200.000	0.063	0.313
-216.567	10.660	-0.132	-0.101
-215.552	-2.018	0.174	-0.123
-214.538	800.000	0.025	-0.089
-213.523	-47.749	-0.242	-0.118
-212.509	800.000	0.082	-0.351
-211.494	800.000	0.159	-0.492
-210.479	-121.972	0.163	0.027
-209.465	-200.000	-0.017	-0.228
-208.450	800.000	0.030	0.088
-207.436	800.000	-0.111	-0.347
-206.421	210.215	-0.133	-0.210
-205.406	198.762	0.097	0.148
-204.392	127.506	0.120	0.152
-203.377	-145.941	0.241	-0.021
-202.363	-53.707	-0.097	0.044
-201.348	62.991	0.079	-0.080
-200.333	162.700	-0.071	0.100
-199.319	299.775	0.163	0.302
-198.304	233.852	-0.177	-0.291
-197.290	-200.000	-0.042	0.196
-196.275	94.844	-0.013	0.015
-195.260	147.387	0.216	0.292
-194.246	42.087	-0.279	-0.253
-193.231	-74.312	0.334	0.121
-192.217	515.063	0.155	-0.361
-191.202	77.429	0.022	0.024
-190.187	-51.604	-0.355	-0.166
-189.173	164.206	-0.117	-0.166
-188.158	37.553	-0.266	0.236
-187.144	20.747	0.069	0.056
-186.129	800.000	-0.080	-0.260
-185.114	-117.290	0.151	-0.027
-184.100	-44.066	-0.077	-0.039
-183.085	168.546	-0.138	-0.197
-182.071	-66.560	0.269	-0.107
-181.056	-110.084	-0.132	0.028
-180.042	-105.780	-0.189	-0.043
-179.027	189.046	0.148	0.223
-178.012	-105.578	0.133	-0.030
-176.998	-116.158	0.383	0.071
-175.983	33.882	0.174	0.151
-174.969	-200.000	-0.030	0.258
-173.954	-200.000	0.039	-0.314
-172.939	-163.967	-0.174	-0.008
-171.925	6.563	-0.293	-0.218
-170.910	198.234	-0.079	-0.122
-169.896	341.540	0.160	-0.313
-168.881	40.613	0.165	0.149
-167.866	765.581	-0.010	-0.027
-166.852	-38.542	-0.148	0.078
-165.837	247.001	0.111	0.187
-164.823	172.285	0.163	-0.234
-163.808	-124.838	0.254	-0.039
-162.793	222.076	0.143	-0.229
-161.779	-200.000	-0.009	-0.129
-160.764	117.990	-0.143	0.176
-159.750	268.676	-0.184	0.324
-158.735	196.588	-0.058	0.088
-157.720	49.637	0.124	0.117
-156.706	800.000	-0.154	0.466
-155.691	-108.407	0.205	-0.044
-154.677	-21.337	-0.113	0.069
-153.662	90.807	-0.059	0.067
-152.647	800.000	-0.040	0.124
-151.633	421.825	0.057	0.123
-150.618	-147.847	0.255	-0.021
-149.604	-200.000	-0.051	-0.280
-148.589	-200.000	0.007	-0.598
-147.574	218.719	0.112	-0.179
-146.560	191.955	0.116	0.175
-145.545	303.304	-0.042	-0.077
-144.531	-2.660	-0.160	0.112
-143.516	429.423	-0.059	0.129
-142.502	-106.300	0.071	-0.016
-141.487	27.340	0.125	0.105
-140.472	171.781	0.034	0.048
-139.458	-200.000	-0.061	-0.315
-138.443	499.185	0.120	0.277
-137.429	-89.855	0.040	-0.012
-136.414	-151.754	-0.302	0.022
-135.399	442.937	-0.096	0.210
-134.385	64.966	-0.191	0.193
-133.370	-3.410	0.166	0.115
-132.356	24.901	0.134	-0.111
-131.341	249.360	0.150	0.254
-130.326	-200.000	-0.018	0.252
-129.312	-173.949	-0.303	0.009
-128.297	140.611	-0.175	0.231
-127.283	-0.108	-0.286	0.203
-126.268	55.551	0.088	-0.085
-125.253	-200.000	0.025	0.269
-124.239	-43.894	0.150	0.076
-123.224	800.000	-0.067	-0.287
-122.210	-177.734	-0.519	-0.013
-121.195	800.000	-0.079	0.284
-120.180	-200.000	0.006	0.271
