DTS Sentinel unit serial number:	SN413079Multiplexer serial number:	ORYXHardware model number:	OX4-SRSoftware version number:	ORYX F/W v4.00 Oryx Data Collector v3.7.2.0data status	okinstallation	princeton_trtdifferential loss correction	single-endedforward channel	channel 2reverse channel	N/Adate	2019/09/15time	23:59:35forward acquisition time	60.00reverse acquisition time	0.00gamma	496.2192k internal	0.2337k external	0.2337temperature offset calibration	0.9954default loss term (dB/km)	0.3790temperature slope calibration	1.0000multiplexer offset coefficient	1.0000multiplexer slope coefficient	1.0000fibre end	0.00T internal ref (°C)	27.87T ext. ref 1 (°C)	9.37T ext. ref 2 (°C)	21.81length (m)	temperature (°C)	Stokes	anti-Stokes-747.200	193.531	0.033	-0.049
-746.185	629.102	-0.046	-0.118
-745.171	-104.263	0.275	-0.064
-744.156	264.741	0.111	0.194
-743.142	-4.566	0.093	0.064
-742.127	0.517	-0.255	0.183
-741.112	-110.853	-0.187	0.039
-740.098	79.244	-0.085	0.091
-739.083	536.844	-0.120	0.287
-738.069	-200.000	0.003	0.133
-737.054	-41.895	-0.190	-0.098
-736.039	-200.000	-0.009	-0.224
-735.025	435.290	-0.030	0.066
-734.010	96.926	-0.169	-0.195
-732.996	800.000	0.106	-0.392
-731.981	34.920	0.110	-0.097
-730.966	-4.451	0.202	-0.140
-729.952	107.360	-0.136	0.162
-728.937	-200.000	-0.009	0.089
-727.923	387.672	-0.094	-0.194
-726.908	800.000	-0.067	-0.206
-725.894	-12.610	-0.255	-0.167
-724.879	74.486	-0.216	-0.228
-723.864	-30.186	-0.036	-0.020
-722.850	684.746	-0.068	0.177
-721.835	14.669	0.046	0.036
-720.821	440.139	0.072	0.157
-719.806	-127.521	-0.238	0.035
-718.791	-88.356	0.155	0.047
-717.777	-75.507	0.260	-0.093
-716.762	137.683	-0.261	0.343
-715.748	-67.155	0.255	0.101
-714.733	-45.575	-0.127	-0.063
-713.718	-131.591	-0.163	-0.022
-712.704	231.810	-0.106	-0.174
-711.689	-200.000	-0.026	-0.356
-710.675	367.287	-0.027	0.054
-709.660	-200.000	0.007	0.149
-708.645	-164.537	0.198	0.009
-707.631	-129.119	0.162	-0.023
-706.616	-113.781	-0.180	-0.035
-705.602	3.058	0.179	0.131
-704.587	800.000	0.033	-0.129
-703.572	314.004	0.106	-0.200
-702.558	800.000	0.024	0.105
-701.543	-200.000	-0.032	0.212
-700.529	130.606	-0.086	0.111
-699.514	-200.000	-0.540	0.002
-698.499	800.000	0.053	-0.148
-697.485	-54.043	0.087	0.040
-696.470	-164.202	0.140	0.006
-695.456	50.145	-0.299	-0.283
-694.441	-136.521	-0.127	0.015
-693.426	64.959	-0.093	0.094
-692.412	232.203	0.099	-0.162
-691.397	130.210	-0.146	0.187
-690.383	800.000	-0.009	0.036
-689.368	-196.005	-0.082	0.001
-688.354	455.410	-0.154	-0.342
-687.339	800.000	0.015	-0.054
-686.324	-72.717	-0.224	0.083
-685.310	-200.000	0.032	0.213
-684.295	-200.000	0.024	0.208
-683.281	131.295	-0.206	-0.265
-682.266	800.000	0.032	-0.091
-681.251	-37.711	-0.014	0.008
-680.237	-84.985	0.265	0.083
-679.222	-200.000	0.008	-0.102
-678.208	4.838	-0.202	-0.148
-677.193	382.124	-0.127	-0.261
-676.178	-13.004	-0.062	-0.041
-675.164	170.039	-0.099	-0.142
-674.149	800.000	-0.056	-0.211
-673.135	800.000	0.075	-0.280
-672.120	148.608	0.126	-0.171
-671.105	-140.002	-0.147	0.016
-670.091	-146.600	-0.670	0.058
-669.076	75.193	-0.291	-0.307
-668.062	91.568	-0.014	-0.016
-667.047	54.177	-0.220	0.212
-666.032	-200.000	-0.047	-0.341
-665.018	-96.885	-0.135	0.035
-664.003	54.555	-0.202	0.195
-662.989	-160.485	0.180	0.010
-661.974	800.000	-0.060	-0.239
-660.959	800.000	-0.039	-0.137
-659.945	-114.708	-0.135	0.026
-658.930	-168.262	0.369	-0.014
-657.916	-143.626	0.265	0.025
-656.901	34.857	-0.073	-0.064
-655.886	124.813	-0.216	-0.272
-654.872	800.000	-0.074	0.224
-653.857	-200.000	-0.019	0.088
-652.843	-200.000	-0.005	-0.095
-651.828	251.943	0.191	-0.325
-650.814	270.836	-0.027	0.047
-649.799	-13.185	0.194	0.126
-648.784	-14.440	-0.222	-0.143
-647.770	-200.000	-0.013	-0.294
-646.755	152.255	-0.154	0.211
-645.741	430.826	-0.130	-0.281
-644.726	19.026	0.035	-0.028
-643.711	-200.000	-0.002	0.413
-642.697	-200.000	0.021	-0.161
-641.682	330.099	-0.190	-0.365
-640.668	-55.697	0.374	-0.167
-639.653	800.000	0.048	0.154
-638.638	-200.000	0.002	-0.391
-637.624	-52.468	0.282	-0.130
-636.609	-171.040	-0.162	-0.006
-635.595	-140.583	-0.151	0.016
-634.580	800.000	0.066	0.209
-633.565	-34.955	0.190	-0.103
-632.551	800.000	0.043	0.147
-631.536	-64.983	-0.272	-0.110
-630.522	255.481	-0.055	0.094
-629.507	-200.000	-0.029	-0.158
-628.492	-42.322	-0.193	-0.099
-627.478	32.581	0.068	-0.059
-626.463	-65.953	0.156	0.062
-625.449	-200.000	0.009	0.185
-624.434	124.684	0.054	-0.068
-623.419	414.657	-0.189	-0.402
-622.405	260.603	-0.064	-0.110
-621.390	800.000	0.076	-0.292
-620.376	-200.000	-0.010	0.200
-619.361	-165.553	0.168	-0.007
-618.346	-102.600	0.306	0.073
-617.332	-200.000	-0.054	-0.478
-616.317	515.728	-0.042	-0.099
-615.303	-38.019	0.018	-0.009
-614.288	800.000	0.057	0.213
-613.273	-200.000	0.013	0.298
-612.259	29.675	-0.036	-0.031
-611.244	-200.000	0.030	-0.181
-610.230	281.303	-0.138	-0.247
-609.215	-48.683	-0.102	-0.049
-608.201	86.079	-0.075	0.083
-607.186	25.392	0.185	-0.153
-606.171	-40.230	-0.114	0.059
-605.157	-200.000	0.010	0.169
-604.142	84.997	-0.235	-0.257
-603.128	328.078	0.022	-0.042
-602.113	-15.093	-0.191	-0.122
-601.098	-87.620	0.161	-0.049
-600.084	-42.756	-0.598	-0.304
-599.069	142.359	0.210	0.278
-598.055	208.157	0.129	-0.201
-597.040	-91.569	-0.010	0.003
-596.025	2.323	0.222	0.160
-595.011	-124.043	0.180	0.028
-593.996	394.824	-0.050	-0.104
-592.982	-200.000	0.019	-0.246
-591.967	-50.557	-0.428	0.202
-590.952	86.102	0.425	-0.467
-589.938	-177.578	0.189	0.005
-588.923	800.000	0.090	0.281
-587.909	220.837	-0.067	0.107
-586.894	-123.926	-0.156	0.025
-585.879	-101.365	0.484	0.118
-584.865	-79.929	0.068	0.023
-583.850	-33.886	-0.115	-0.063
-582.836	-200.000	-0.041	-0.291
-581.821	50.082	-0.200	0.188
-580.806	800.000	0.048	0.167
-579.792	217.925	-0.027	0.043
-578.777	-138.082	0.128	0.014
-577.763	155.639	-0.198	-0.272
-576.748	-4.921	-0.153	0.105
-575.733	123.890	0.208	0.261
-574.719	587.163	-0.094	-0.232
-573.704	-200.000	0.001	-0.082
-572.690	69.693	-0.175	-0.180
-571.675	-102.976	0.461	0.109
-570.661	232.279	0.139	0.227
-569.646	-200.000	-0.046	-0.271
-568.631	-200.000	0.013	-0.252
-567.617	475.150	0.045	0.102
-566.602	-1.909	-0.048	-0.034
-565.588	-200.000	0.026	0.219
-564.573	-95.869	0.282	-0.075
-563.558	-83.163	-0.186	0.060
-562.544	-200.000	0.021	0.152
-561.529	103.565	0.090	-0.106
-560.515	-25.586	-0.092	0.054
-559.500	-106.509	0.371	-0.082
-558.485	467.914	0.016	-0.036
-557.471	-120.135	0.281	-0.048
-556.456	800.000	0.082	-0.241
-555.442	-21.954	-0.188	0.114
-554.427	-105.526	0.240	-0.054
-553.412	-200.000	0.011	0.174
-552.398	-66.740	-0.276	0.109
-551.383	-89.458	0.217	0.064
-550.369	-93.621	-0.293	0.081
-549.354	538.006	0.149	0.352
-548.339	-28.836	-0.391	-0.224
-547.325	4.477	0.327	0.239
-546.310	-200.000	0.011	0.201
-545.296	-200.000	-0.004	-0.071
-544.281	-146.462	0.187	-0.016
-543.266	-75.772	-0.137	0.048
-542.252	-200.000	0.081	-0.383
-541.237	29.274	-0.150	-0.127
-540.223	36.810	-0.253	-0.223
-539.208	-49.518	0.083	-0.039
-538.193	547.717	0.131	0.313
-537.179	800.000	-0.017	-0.057
-536.164	800.000	0.152	-0.435
-535.150	168.178	-0.155	-0.220
-534.135	-73.920	-0.159	-0.057
-533.121	7.948	-0.078	-0.058
-532.106	631.101	-0.024	-0.060
-531.091	-200.000	0.038	-0.294
-530.077	-23.151	0.147	0.088
-529.062	-94.846	0.194	-0.052
-528.048	657.982	0.046	0.118
-527.033	19.773	-0.260	0.209
-526.018	36.980	0.373	0.328
-525.004	-73.028	-0.086	-0.031
-523.989	-200.000	0.004	-0.076
-522.975	800.000	0.045	-0.167
-521.960	318.165	-0.046	0.086
-520.945	358.500	-0.059	-0.117
-519.931	342.653	0.096	-0.187
-518.916	800.000	-0.031	0.098
-517.902	-165.404	-0.113	-0.005
-516.887	-200.000	0.020	0.278
-515.872	333.267	-0.213	0.410
-514.858	156.911	-0.130	-0.179
-513.843	-37.276	-0.069	0.037
-512.829	800.000	-0.054	0.171
-511.814	800.000	0.030	0.095
-510.799	800.000	-0.010	0.041
-509.785	47.011	-0.172	-0.159
-508.770	-99.560	-0.133	-0.033
-507.756	-200.000	-0.081	-0.377
-506.741	800.000	-0.056	-0.214
-505.726	87.412	-0.043	0.047
-504.712	462.296	0.176	0.391
-503.697	135.203	-0.074	0.096
-502.683	-112.506	-0.199	0.039
-501.668	-1.991	0.086	-0.060
-500.653	-143.133	0.088	-0.008
-499.639	30.857	-0.113	-0.097
-498.624	-140.420	0.181	-0.019
-497.610	-93.391	0.324	0.089
-496.595	-159.957	-0.156	-0.008
-495.581	-22.150	0.110	-0.066
-494.566	800.000	0.050	0.203
-493.551	-200.000	-0.181	-0.000
-492.537	-147.522	0.395	-0.033
-491.522	-200.000	-0.006	-0.067
-490.508	470.451	-0.087	0.195
-489.493	-112.216	0.311	0.062
-488.478	-64.999	0.239	-0.096
-487.464	399.857	0.131	0.273
-486.449	0.716	0.038	-0.027
-485.435	77.250	-0.126	0.133
-484.420	-58.922	0.108	-0.046
-483.405	-190.542	-0.175	0.002
-482.391	-61.526	-0.300	-0.125
-481.376	-8.540	-0.149	-0.099
-480.362	-178.678	0.216	-0.005
-479.347	-39.164	0.101	-0.053
-478.332	230.535	-0.162	0.264
-477.318	-200.000	0.009	0.117
-476.303	-33.419	0.247	0.135
-475.289	-200.000	-0.034	-0.195
-474.274	206.441	0.057	0.088
-473.259	800.000	0.091	0.369
-472.245	-129.447	-0.292	0.040
-471.230	800.000	-0.070	0.254
-470.216	-200.000	-0.118	0.531
-469.201	23.699	0.156	0.128
-468.186	-87.755	-0.243	0.073
-467.172	800.000	-0.063	0.189
-466.157	379.380	0.047	-0.096
-465.143	-125.867	0.419	-0.063
-464.128	-33.199	-0.241	-0.132
-463.113	46.636	0.251	-0.232
-462.099	800.000	-0.068	-0.189
-461.084	394.929	-0.126	0.260
-460.070	534.707	-0.087	-0.205
-459.055	-18.003	0.301	0.187
-458.040	-43.180	-0.360	-0.181
-457.026	76.204	0.136	-0.143
-456.011	-200.000	0.031	0.220
-454.997	-128.826	-0.083	-0.012
-453.982	43.453	-0.256	0.232
-452.968	-159.251	-0.209	0.012
-451.953	564.149	0.074	0.178
-450.938	-83.756	0.087	0.028
-449.924	-136.341	-0.020	0.002
-448.909	-166.011	0.104	0.004
-447.895	148.767	-0.113	-0.151
-446.880	-95.796	-0.150	-0.040
-445.865	99.477	-0.086	-0.099
-444.851	209.300	0.025	0.038
-443.836	-200.000	0.001	-0.149
-442.822	-200.000	0.024	-0.166
-441.807	182.924	0.120	0.175
-440.792	-55.129	-0.242	0.108
-439.778	-200.000	-0.002	-0.206
-438.763	-200.000	-0.052	-0.323
-437.749	695.656	-0.083	-0.216
-436.734	-114.712	-0.152	-0.029
-435.719	-78.353	-0.092	-0.031
-434.705	-83.030	-0.110	0.035
-433.690	-131.032	-0.215	-0.029
-432.676	-22.697	-0.347	-0.208
-431.661	18.999	-0.305	-0.243
-430.646	-200.000	0.037	0.262
-429.632	9.935	0.283	-0.213
-428.617	-122.054	-0.314	0.051
-427.603	429.150	0.029	-0.062
-426.588	35.950	-0.030	0.026
-425.573	98.012	0.030	0.034
-424.559	-57.603	0.544	0.237
-423.544	-53.576	-0.435	-0.197
-422.530	-200.000	0.006	-0.057
-421.515	39.502	0.058	0.052
-420.500	200.370	0.158	-0.240
-419.486	-108.846	-0.209	0.044
-418.471	-58.421	-0.168	-0.072
-417.457	-200.000	0.018	-0.212
-416.442	800.000	-0.066	-0.237
-415.428	260.618	-0.149	-0.255
-414.413	-36.935	-0.153	0.081
-413.398	-73.871	0.214	-0.077
-412.384	800.000	0.016	0.047
-411.369	264.732	0.133	-0.230
-410.355	69.118	0.086	-0.088
-409.340	-162.599	0.544	0.027
-408.325	135.315	-0.097	-0.124
-407.311	-200.000	-0.026	-0.175
-406.296	-140.714	0.348	-0.036
-405.282	-200.000	-0.022	-0.124
-404.267	-101.358	-0.183	-0.044
-403.252	-103.697	0.281	0.065
-402.238	-6.651	0.186	0.126
-401.223	-135.619	-0.327	0.038
-400.209	61.465	0.047	0.047
-399.194	189.008	-0.225	0.333
-398.179	-122.673	0.297	0.048
-397.165	142.092	0.201	0.264
-396.150	-52.010	-0.168	-0.077
-395.136	800.000	-0.078	-0.324
-394.121	30.284	-0.189	0.160
-393.106	624.390	0.086	0.214
-392.092	116.740	0.074	-0.090
-391.077	306.244	0.205	-0.377
-390.063	-45.417	-0.156	-0.077
-389.048	-90.514	0.157	0.045
-388.033	-38.952	0.074	-0.038
-387.019	-111.871	-0.089	-0.018
-386.004	-200.000	0.000	-0.169
-384.990	6.645	0.272	0.200
-383.975	-91.167	-0.277	0.079
-382.960	-200.000	0.049	-0.212
-381.946	60.150	-0.048	0.047
-380.931	389.862	-0.009	0.018
-379.917	-200.000	0.012	0.060
-378.902	800.000	0.044	-0.179
-377.888	-16.760	-0.112	-0.070
-376.873	187.145	-0.041	0.061
-375.858	-33.558	0.212	0.116
-374.844	-143.321	0.260	-0.025
-373.829	-0.331	-0.044	-0.031
-372.815	389.716	0.165	0.338
-371.800	-200.000	0.049	0.290
-370.785	-125.768	-0.105	-0.016
-369.771	-136.119	-0.354	0.041
-368.756	-23.898	0.272	-0.161
-367.742	-59.495	0.263	-0.112
-366.727	-128.709	-0.238	0.033
-365.712	77.326	-0.185	0.195
-364.698	-66.210	0.233	0.092
-363.683	-44.574	-0.231	0.114
-362.669	170.263	0.212	-0.300
-361.654	12.877	0.087	0.067
-360.639	-200.000	-0.232	0.000
-359.625	-200.000	-0.007	0.113
-358.610	-100.288	-0.191	0.047
-357.596	-200.000	-0.064	-0.374
-356.581	712.428	0.082	-0.216
-355.566	800.000	-0.116	0.327
-354.552	800.000	0.034	-0.109
-353.537	-135.131	-0.205	-0.024
-352.523	-200.000	-0.041	0.270
-351.508	-200.000	-0.053	0.285
-350.493	-200.000	-0.115	0.519
-349.479	-200.000	0.004	0.216
-348.464	-103.819	-0.142	0.033
-347.450	-43.232	-0.125	0.062
-346.435	438.823	0.192	0.414
-345.420	229.949	0.144	0.232
-344.406	-81.050	-0.145	-0.048
-343.391	209.499	-0.145	-0.224
-342.377	-200.000	-0.001	-0.427
-341.362	-200.000	-0.018	-0.218
-340.348	-14.898	-0.302	-0.191
-339.333	1.192	0.068	0.048
-338.318	-200.000	0.016	0.072
-337.304	-174.493	-0.224	0.006
-336.289	800.000	0.061	0.223
-335.275	-200.000	-0.023	-0.177
-334.260	3.580	-0.237	0.171
-333.245	-86.449	-0.187	0.057
-332.231	84.718	0.046	-0.050
-331.216	-72.785	-0.093	0.034
-330.202	-200.000	-0.065	0.562
-329.187	-75.082	-0.053	-0.019
-328.172	-62.637	0.137	-0.056
-327.158	-59.073	-0.282	0.120
-326.143	346.053	-0.102	0.199
-325.129	105.076	0.056	-0.065
-324.114	-200.000	-0.016	-0.199
-323.099	800.000	0.107	-0.308
-322.085	-32.291	0.195	0.108
-321.070	-200.000	-0.006	0.117
-320.056	416.741	0.092	0.194
-319.041	-200.000	0.003	-0.202
-318.026	383.742	0.104	-0.211
-317.012	-47.900	0.124	-0.059
-315.997	-87.027	-0.034	-0.010
-314.983	-107.025	0.147	0.032
-313.968	-200.000	0.066	-0.356
-312.953	-89.872	-0.209	-0.060
-311.939	208.872	-0.103	0.159
-310.924	-90.950	-0.247	0.070
-309.910	-200.000	-0.039	0.245
-308.895	-200.000	0.043	-0.449
-307.880	42.753	-0.205	-0.184
-306.866	-164.605	0.248	0.011
-305.851	-40.726	-0.165	0.085
-304.837	-50.533	-0.215	-0.100
-303.822	89.214	0.186	-0.204
-302.807	-49.031	0.236	-0.112
-301.793	-200.000	0.025	-0.173
-300.778	251.344	0.173	-0.290
-299.764	-200.000	0.008	0.143
-298.749	800.000	0.008	0.031
-297.735	-79.116	0.276	-0.092
-296.720	-200.000	0.025	-0.211
-295.705	-41.940	-0.208	0.105
-294.691	124.834	-0.165	-0.205
-293.676	159.379	0.273	-0.375
-292.662	-200.000	0.007	0.035
-291.647	-200.000	-0.046	-0.245
-290.632	-67.295	0.334	-0.129
-289.618	-200.000	0.005	0.141
-288.603	800.000	-0.081	-0.338
-287.589	-164.830	-0.221	0.010
-286.574	-74.685	-0.161	-0.057
-285.559	-118.361	-0.435	0.076
-284.545	-44.565	-0.150	0.074
-283.530	0.582	0.319	0.225
-282.516	-114.222	0.088	-0.017
-281.501	608.602	-0.007	-0.018
-280.486	-200.000	0.041	0.460
-279.472	-200.000	0.026	-0.442
-278.457	301.267	0.143	-0.260
-277.443	656.776	-0.068	0.172
-276.428	-200.000	0.039	0.321
-275.413	-12.870	-0.036	0.023
-274.399	-200.000	-0.026	0.302
-273.384	91.400	0.118	0.131
-272.370	-10.065	0.139	0.091
-271.355	339.672	0.017	-0.033
-270.340	30.853	-0.268	-0.226
-269.326	-145.261	-0.261	0.023
-268.311	-145.876	-0.164	0.014
-267.297	800.000	0.128	-0.353
-266.282	190.735	-0.050	0.074
-265.267	-156.333	-0.300	0.019
-264.253	-74.065	0.097	0.035
-263.238	-200.000	0.072	0.312
-262.224	-87.640	0.170	0.051
-261.209	400.022	-0.057	0.117
-260.195	-200.000	-0.006	0.199
-259.180	800.000	0.007	0.023
-258.165	-65.688	0.132	-0.052
-257.151	371.832	0.038	-0.076
-256.136	-76.288	-0.156	0.054
-255.122	-47.426	-0.192	-0.092
-254.107	137.500	-0.093	-0.120
-253.092	-174.391	-0.231	-0.007
-252.078	-200.000	-0.042	0.223
-251.063	-187.528	0.677	0.009
-250.049	67.507	0.142	0.143
-249.034	-24.459	-0.232	-0.136
-248.019	-146.617	0.218	-0.019
-247.005	41.106	-0.228	-0.202
-245.990	2.335	-0.270	0.192
-244.976	-89.425	0.171	0.050
-243.961	-91.820	-0.197	0.055
-242.946	-200.000	-0.038	-0.187
-241.932	-200.000	0.064	0.417
-240.917	-119.648	0.176	-0.030
-239.903	-200.000	0.001	0.071
-238.888	-36.222	0.284	0.151
-237.873	-200.000	-0.028	-0.137
-236.859	-53.137	0.289	-0.131
-235.844	162.904	-0.202	0.280
-234.830	-200.000	0.004	0.246
-233.815	-25.278	-0.140	0.082
-232.800	23.005	0.245	-0.198
-231.786	-200.000	-0.008	0.255
-230.771	-98.463	0.185	-0.047
-229.757	29.038	-0.242	0.202
-228.742	16.160	-0.108	-0.084
-227.727	-123.293	0.289	0.046
-226.713	800.000	0.069	-0.194
-225.698	152.644	0.102	0.138
-224.684	88.565	0.156	0.171
-223.669	-29.728	0.347	0.195
-222.655	800.000	0.043	-0.157
-221.640	-159.056	-0.366	-0.020
-220.625	56.246	0.148	-0.142
-219.611	-121.138	0.377	0.062
-218.596	-200.000	-0.002	-0.159
-217.582	435.042	-0.084	0.180
-216.567	25.376	0.372	0.304
-215.552	-40.920	0.105	-0.053
-214.538	-159.331	-0.200	-0.011
-213.523	800.000	-0.068	-0.239
-212.509	89.065	0.086	0.095
-211.494	-142.616	-0.138	0.013
-210.479	-178.634	-0.170	0.004
-209.465	-76.483	0.201	-0.069
-208.450	-36.129	-0.193	0.102
-207.436	79.326	-0.310	0.327
-206.421	113.105	-0.177	-0.211
-205.406	257.596	0.065	-0.109
-204.392	-200.000	-0.043	-0.215
-203.377	391.770	0.114	-0.234
-202.363	800.000	0.052	0.195
-201.348	-88.378	0.144	0.042
-200.333	-200.000	0.009	-0.045
-199.319	-200.000	-0.003	0.106
-198.304	-66.011	0.155	0.061
-197.290	-94.641	0.410	0.110
-196.275	-57.354	-0.141	-0.061
-195.260	-27.872	0.184	-0.105
-194.246	-200.000	-0.030	-0.130
-193.231	504.158	0.050	0.113
-192.217	800.000	0.056	-0.178
-191.202	800.000	-0.043	-0.119
-190.187	-42.559	-0.201	0.100
-189.173	270.589	-0.111	0.191
-188.158	70.900	0.307	0.312
-187.144	319.088	0.154	-0.286
-186.129	800.000	0.050	-0.207
-185.114	-124.206	-0.384	-0.059
-184.100	-116.661	-0.168	0.030
-183.085	800.000	0.054	-0.221
-182.071	-40.771	-0.225	0.114
-181.056	264.125	0.055	0.094
-180.042	5.635	0.183	-0.133
-179.027	-85.084	-0.411	0.127
-178.012	-18.079	0.134	-0.082
-176.998	175.714	0.239	-0.341
-175.983	-200.000	-0.061	-0.287
-174.969	-122.618	0.135	0.021
-173.954	-200.000	-0.042	0.456
-172.939	-200.000	-0.059	0.295
-171.925	-200.000	0.036	0.217
-170.910	129.813	0.223	0.280
-169.896	207.880	-0.100	-0.153
-168.881	-83.824	0.269	-0.084
-167.866	491.099	0.135	0.303
-166.852	800.000	-0.032	-0.116
-165.837	98.282	-0.191	0.216
-164.823	-35.099	-0.262	-0.140
-163.808	-129.820	0.142	0.019
-162.793	-147.676	-0.182	-0.015
-161.779	58.300	0.089	0.086
-160.764	-200.000	0.011	-0.146
-159.750	-200.000	0.002	-0.036
-158.735	116.148	0.294	0.354
-157.720	555.080	0.121	0.287
-156.706	166.668	-0.263	0.366
-155.691	-22.035	-0.064	-0.038
-154.677	69.889	-0.038	0.038
-153.662	-200.000	-0.004	0.271
-152.647	144.891	0.074	0.098
-151.633	-200.000	-0.017	0.244
-150.618	150.109	0.175	0.234
-149.604	7.655	0.012	0.009
-148.589	4.940	0.376	0.272
-147.574	526.236	0.053	-0.123
-146.560	-67.753	0.254	-0.097
-145.545	800.000	-0.032	-0.092
-144.531	-200.000	-0.022	0.264
-143.516	27.789	-0.273	0.225
-142.502	89.022	-0.143	-0.157
-141.487	-50.528	0.187	-0.086
-140.472	281.012	-0.068	-0.120
-139.458	36.562	-0.071	-0.061
-138.443	-200.000	-0.005	-0.172
-137.429	24.192	0.267	0.216
-136.414	20.050	0.101	0.079
-135.399	224.331	0.164	0.259
-134.385	-66.810	0.227	-0.088
-133.370	-131.359	-0.208	-0.027
-132.356	-128.860	-0.373	0.051
-131.341	155.620	-0.170	-0.229
-130.326	-191.896	0.088	0.001
-129.312	507.139	0.058	-0.132
-128.297	341.530	-0.159	0.306
-127.283	169.108	0.083	-0.116
-126.268	-163.834	-0.192	-0.009
-125.253	-51.547	-0.076	0.035
-124.239	800.000	-0.108	-0.338
-123.224	-91.993	0.332	0.092
-122.210	101.373	0.076	0.087
