DTS Sentinel unit serial number:	SN413079Multiplexer serial number:	ORYXHardware model number:	OX4-SRSoftware version number:	ORYX F/W v4.00 Oryx Data Collector v3.7.2.0data status	okinstallation	princeton_trtdifferential loss correction	single-endedforward channel	channel 2reverse channel	N/Adate	2019/09/15time	21:59:35forward acquisition time	60.00reverse acquisition time	0.00gamma	496.2192k internal	0.2334k external	0.2334temperature offset calibration	0.9942default loss term (dB/km)	0.3790temperature slope calibration	1.0000multiplexer offset coefficient	1.0000multiplexer slope coefficient	1.0000fibre end	0.00T internal ref (°C)	29.87T ext. ref 1 (°C)	8.53T ext. ref 2 (°C)	23.02length (m)	temperature (°C)	Stokes	anti-Stokes-747.200	-142.065	0.216	0.022
-746.185	-128.932	-0.231	0.033
-745.171	610.091	-0.051	0.128
-744.156	368.895	-0.128	0.260
-743.142	-36.515	0.138	-0.075
-742.127	390.823	-0.164	0.342
-741.112	-63.043	0.116	0.048
-740.098	463.100	0.081	0.181
-739.083	-75.478	0.208	0.075
-738.069	358.194	0.138	0.278
-737.054	-36.401	0.040	0.021
-736.039	-200.000	-0.025	0.126
-735.025	-109.090	0.285	0.061
-734.010	-36.533	-0.329	0.178
-732.996	671.250	-0.088	0.228
-731.981	-152.072	-0.518	0.038
-730.966	36.399	0.123	0.109
-729.952	-122.848	-0.168	0.027
-728.937	-2.214	0.246	0.174
-727.923	-54.805	0.224	-0.102
-726.908	-200.000	-0.062	-0.386
-725.894	124.295	0.058	0.073
-724.879	-6.284	-0.261	0.179
-723.864	-57.896	-0.178	0.078
-722.850	180.481	-0.154	-0.226
-721.835	-103.829	-0.337	-0.079
-720.821	-69.617	-0.378	0.145
-719.806	-84.679	0.215	-0.068
-718.791	382.185	-0.086	0.178
-717.777	-69.893	-0.064	-0.024
-716.762	-200.000	0.019	-0.160
-715.748	-200.000	-0.033	-0.248
-714.733	-59.069	-0.557	0.241
-713.718	625.924	-0.088	-0.222
-712.704	498.248	-0.021	-0.048
-711.689	-156.424	-0.033	-0.002
-710.675	91.842	-0.173	-0.195
-709.660	800.000	-0.028	-0.122
-708.645	-112.989	-0.183	-0.036
-707.631	800.000	-0.096	-0.270
-706.616	55.306	0.099	-0.096
-705.602	-136.252	-0.053	-0.006
-704.587	-20.398	0.101	0.062
-703.572	-107.929	-0.160	0.035
-702.558	42.068	0.214	0.194
-701.543	-200.000	-0.018	-0.303
-700.529	-89.252	0.126	0.037
-699.514	-200.000	0.003	-0.186
-698.499	-82.828	-0.237	0.077
-697.485	19.647	0.092	0.074
-696.470	-200.000	0.004	-0.220
-695.456	-100.369	-0.179	0.044
-694.441	116.477	0.184	0.226
-693.426	578.599	-0.209	0.514
-692.412	26.638	0.101	-0.085
-691.397	-200.000	0.001	-0.069
-690.383	-41.617	-0.242	0.125
-689.368	-24.957	-0.059	0.035
-688.354	-136.114	0.120	-0.014
-687.339	-160.288	-0.192	-0.010
-686.324	334.101	-0.041	-0.079
-685.310	-38.207	-0.046	-0.025
-684.295	30.512	-0.286	-0.245
-683.281	-130.251	-0.493	-0.067
-682.266	-100.231	-0.352	-0.088
-681.251	-47.312	-0.219	-0.107
-680.237	38.045	-0.074	0.066
-679.222	691.378	-0.096	-0.252
-678.208	199.064	-0.040	-0.061
-677.193	210.718	-0.119	-0.187
-676.178	333.873	0.128	-0.249
-675.164	-200.000	-0.034	0.356
-674.149	800.000	-0.027	0.084
-673.135	535.950	0.095	-0.226
-672.120	435.876	0.045	0.097
-671.105	144.420	-0.168	-0.225
-670.091	-200.000	0.007	-0.234
-669.076	-13.106	-0.156	0.102
-668.062	-52.624	0.088	-0.041
-667.047	115.485	0.272	-0.334
-666.032	118.443	0.004	-0.005
-665.018	343.675	-0.121	0.237
-664.003	-146.992	0.518	-0.045
-662.989	105.655	0.110	0.131
-661.974	-60.900	-0.098	-0.042
-660.959	-200.000	0.015	-0.531
-659.945	-23.384	-0.039	-0.023
-658.930	-118.283	0.141	0.025
-657.916	-77.829	0.115	-0.040
-656.901	19.717	0.283	0.228
-655.886	-45.449	0.271	-0.135
-654.872	-200.000	-0.053	-0.299
-653.857	117.314	-0.111	0.137
-652.843	115.505	-0.087	0.107
-651.828	135.409	-0.165	-0.215
-650.814	557.103	-0.105	-0.253
-649.799	30.983	0.170	0.146
-648.784	-100.722	0.251	-0.062
-647.770	256.649	-0.058	-0.099
-646.755	-110.158	-0.226	0.047
-645.741	81.011	-0.206	0.222
-644.726	-111.344	-0.192	0.039
-643.711	-2.990	-0.051	-0.036
-642.697	149.352	0.139	0.188
-641.682	-200.000	0.009	-0.125
-640.668	-71.773	-0.039	-0.015
-639.653	252.521	-0.025	0.042
-638.638	-200.000	-0.008	-0.168
-637.624	-36.662	-0.113	-0.061
-636.609	-118.073	0.493	-0.088
-635.595	-70.671	0.326	-0.123
-634.580	-154.834	0.204	-0.013
-633.565	254.504	-0.072	-0.123
-632.551	-158.806	0.047	-0.003
-631.536	-88.910	0.343	-0.102
-630.522	-55.283	-0.298	-0.134
-629.507	-117.100	0.347	-0.063
-628.492	113.253	-0.070	-0.085
-627.478	-43.574	-0.186	-0.094
-626.463	-128.966	-0.178	0.025
-625.449	1.484	0.221	-0.159
-624.434	-30.372	-0.147	0.083
-623.419	-169.592	-0.051	0.002
-622.405	800.000	0.035	-0.121
-621.390	738.570	0.122	0.326
-620.376	97.908	0.128	-0.148
-619.361	177.303	-0.086	-0.126
-618.346	800.000	0.056	0.171
-617.332	310.754	-0.080	-0.150
-616.317	62.968	-0.102	0.102
-615.303	800.000	0.038	0.141
-614.288	-78.440	-0.415	0.142
-613.273	155.098	-0.227	0.312
-612.259	631.634	0.048	-0.123
-611.244	-173.081	-0.287	0.009
-610.230	12.475	-0.197	-0.152
-609.215	-2.733	-0.202	-0.141
-608.201	-98.732	-0.182	0.046
-607.186	34.965	-0.055	-0.048
-606.171	-19.172	-0.246	0.153
-605.157	-200.000	0.027	0.223
-604.142	-84.659	0.400	0.126
-603.128	35.091	0.238	0.208
-602.113	800.000	-0.091	-0.266
-601.098	327.048	-0.044	0.085
-600.084	247.327	0.216	-0.364
-599.069	-138.341	-0.128	0.014
-598.055	-142.096	-0.091	-0.009
-597.040	34.706	0.194	-0.170
-596.025	99.152	0.218	0.252
-595.011	10.802	0.149	-0.114
-593.996	7.133	0.239	-0.178
-592.982	-200.000	0.010	-0.340
-591.967	-68.662	-0.126	-0.049
-590.952	-135.880	-0.091	-0.011
-589.938	67.635	-0.128	-0.131
-588.923	800.000	0.056	-0.163
-587.909	-85.040	0.269	-0.084
-586.894	615.814	-0.076	0.190
-585.879	265.301	0.055	-0.095
-584.865	148.198	0.031	-0.042
-583.850	-118.971	0.197	0.035
-582.836	386.802	-0.147	-0.304
-581.821	-137.057	0.136	-0.016
-580.806	-200.000	-0.026	-0.191
-579.792	800.000	-0.113	-0.313
-578.777	-166.011	0.190	0.008
-577.763	-25.862	0.160	0.094
-576.748	-200.000	0.057	-0.372
-575.733	56.808	0.020	-0.019
-574.719	121.210	-0.034	0.042
-573.704	-200.000	0.031	-0.184
-572.690	-4.934	-0.199	-0.137
-571.675	-200.000	0.016	-0.111
-570.661	-87.114	0.194	0.059
-569.646	66.134	-0.337	0.342
-568.631	800.000	-0.113	-0.356
-567.617	800.000	-0.066	-0.278
-566.602	-112.187	-0.276	0.055
-565.588	77.452	-0.280	0.297
-564.573	-200.000	0.050	-0.259
-563.558	-200.000	-0.073	0.398
-562.544	-123.540	0.299	0.047
-561.529	-128.488	0.144	-0.020
-560.515	-200.000	0.006	-0.058
-559.500	-83.004	-0.384	-0.123
-558.485	800.000	-0.043	0.126
-557.471	-121.647	-0.144	0.024
-556.456	-103.750	0.231	-0.054
-555.442	-34.695	0.165	0.090
-554.427	-57.440	0.155	-0.068
-553.412	-119.184	0.220	-0.038
-552.398	-42.681	-0.158	-0.080
-551.383	84.526	-0.175	0.191
-550.369	254.186	0.051	-0.087
-549.354	800.000	-0.056	0.198
-548.339	-200.000	0.041	-0.192
-547.325	48.388	-0.081	0.076
-546.310	-200.000	-0.023	0.286
-545.296	407.456	-0.081	-0.170
-544.281	-137.365	-0.315	-0.036
-543.266	22.768	0.407	-0.332
-542.252	-200.000	0.033	0.294
-541.237	-95.963	0.084	-0.022
-540.223	-27.377	0.259	0.150
-539.208	-200.000	-0.034	-0.166
-538.193	-98.420	0.228	0.058
-537.179	-150.783	-0.088	-0.007
-536.164	65.835	-0.249	-0.252
-535.150	-67.293	-0.298	-0.117
-534.135	-200.000	-0.034	-0.418
-533.121	-30.127	-0.005	0.003
-532.106	-101.376	-0.131	0.032
-531.091	19.819	0.143	-0.115
-530.077	-200.000	-0.048	0.420
-529.062	132.137	0.249	0.319
-528.048	264.340	-0.219	-0.379
-527.033	-200.000	-0.041	-0.275
-526.018	480.664	0.159	0.360
-525.004	765.416	0.081	0.218
-523.989	-192.454	0.375	0.003
-522.975	-57.699	-0.253	-0.110
-521.960	-196.295	-0.334	-0.002
-520.945	800.000	0.034	0.140
-519.931	-34.240	-0.177	-0.097
-518.916	-18.505	0.102	-0.063
-517.902	800.000	0.105	0.376
-516.887	-147.184	0.119	0.010
-515.872	64.967	0.063	0.063
-514.858	-74.725	-0.327	-0.117
-513.843	136.901	-0.086	-0.112
-512.829	-200.000	-0.021	-0.136
-511.814	10.891	0.106	0.080
-510.799	-167.450	-0.030	-0.001
-509.785	-200.000	-0.020	-0.279
-508.770	606.044	-0.037	0.093
-507.756	61.566	-0.166	-0.165
-506.741	93.685	0.082	0.092
-505.726	24.218	-0.170	-0.140
-504.712	-83.339	0.371	0.119
-503.697	331.967	0.136	0.262
-502.683	68.728	-0.046	0.047
-501.668	31.635	-0.079	-0.068
-500.653	-200.000	-0.043	0.212
-499.639	158.261	-0.092	0.127
-498.624	323.030	-0.194	-0.369
-497.610	-200.000	0.001	-0.231
-496.595	-62.441	0.180	0.074
-495.581	-120.578	0.167	-0.028
-494.566	190.465	-0.169	-0.252
-493.551	42.342	-0.195	-0.176
-492.537	-98.152	-0.288	-0.074
-491.522	-200.000	0.088	-0.470
-490.508	385.377	-0.186	-0.381
-489.493	274.650	0.057	0.101
-488.478	-31.834	-0.142	-0.079
-487.464	67.627	-0.141	-0.143
-486.449	231.118	-0.013	-0.021
-485.435	512.500	0.058	-0.133
-484.420	-60.696	0.318	-0.134
-483.405	13.457	0.095	-0.073
-482.391	-72.948	0.125	0.046
-481.376	-200.000	-0.047	0.430
-480.362	286.230	-0.253	0.455
-479.347	-101.198	0.100	-0.024
-478.332	-179.150	0.147	0.003
-477.318	506.429	0.086	-0.198
-476.303	30.760	-0.179	0.152
-475.289	-26.749	0.125	-0.073
-474.274	-200.000	0.042	0.214
-473.259	-80.023	0.046	-0.015
-472.245	-200.000	0.020	-0.332
-471.230	-62.451	-0.072	-0.030
-470.216	53.239	-0.063	-0.060
-469.201	44.488	0.146	0.134
-468.186	607.260	0.023	0.057
-467.172	-200.000	-0.014	-0.169
-466.157	-123.857	0.229	0.036
-465.143	-37.559	-0.312	0.165
-464.128	-127.066	0.245	-0.036
-463.113	-1.683	0.004	0.003
-462.099	82.647	0.135	0.145
-461.084	41.188	-0.232	-0.209
-460.070	328.713	0.063	-0.120
-459.055	139.940	-0.129	0.169
-458.040	481.575	0.070	0.159
-457.026	800.000	0.062	0.248
-456.011	-69.823	0.293	0.111
-454.997	445.034	0.162	0.353
-453.982	-123.868	-0.365	-0.057
-452.968	289.760	0.117	-0.211
-451.953	141.411	0.124	0.164
-450.938	-105.706	0.320	0.072
-449.924	800.000	-0.124	0.374
-448.909	203.899	-0.208	0.320
-447.895	478.240	-0.077	0.174
-446.880	-200.000	-0.047	-0.217
-445.865	-15.287	0.251	-0.160
-444.851	800.000	-0.083	-0.313
-443.836	359.967	-0.148	-0.295
-442.822	-48.250	-0.192	-0.092
-441.807	400.965	-0.061	0.126
-440.792	-36.406	0.152	-0.081
-439.778	167.295	0.084	-0.118
-438.763	87.820	0.091	0.100
-437.749	348.409	-0.080	0.157
-436.734	-46.134	-0.228	-0.112
-435.719	16.026	-0.240	-0.188
-434.705	178.325	-0.112	0.163
-433.690	-200.000	0.002	0.151
-432.676	-127.089	0.476	0.069
-431.661	-79.644	0.077	-0.026
-430.646	-200.000	0.014	0.088
-429.632	403.687	0.076	-0.158
-428.617	-70.517	0.236	-0.089
-427.603	140.342	-0.101	0.133
-426.588	-200.000	-0.017	-0.109
-425.573	150.209	0.132	0.178
-424.559	20.386	-0.251	0.201
-423.544	-60.160	0.377	0.160
-422.530	360.655	0.066	0.131
-421.515	242.447	-0.064	-0.106
-420.500	-115.983	0.115	0.021
-419.486	-76.035	0.257	-0.090
-418.471	6.973	-0.162	-0.120
-417.457	-120.832	0.177	-0.030
-416.442	-20.738	-0.068	0.041
-415.428	-200.000	-0.053	-0.232
-414.413	567.656	0.073	-0.176
-413.398	-140.465	-0.089	-0.009
-412.384	507.752	0.076	0.176
-411.369	-39.690	-0.243	0.126
-410.355	-200.000	0.007	0.274
-409.340	109.618	0.090	-0.107
-408.325	627.424	0.043	0.108
-407.311	-16.481	-0.279	-0.176
-406.296	-88.732	-0.204	-0.060
-405.282	276.600	0.074	0.131
-404.267	-89.550	0.060	0.018
-403.252	106.165	0.039	0.045
-402.238	-53.638	0.231	-0.105
-401.223	-136.685	-0.087	0.010
-400.209	-91.232	-0.107	-0.030
-399.194	43.728	-0.198	0.179
-398.179	-103.131	0.258	0.060
-397.165	800.000	0.122	-0.480
-396.150	-138.106	-0.189	-0.021
-395.136	-11.772	-0.048	0.031
-394.121	53.773	0.144	0.137
-393.106	-200.000	0.003	0.338
-392.092	-138.211	-0.088	-0.010
-391.077	-200.000	-0.023	0.343
-390.063	259.556	-0.148	-0.254
-389.048	-25.243	0.139	0.081
-388.033	-74.399	-0.064	0.023
-387.019	-200.000	-0.065	-0.287
-386.004	80.045	0.071	0.076
-384.990	-200.000	-0.008	0.166
-383.975	136.302	0.060	0.077
-382.960	-200.000	0.018	0.150
-381.946	46.207	-0.070	-0.064
-380.931	-154.459	0.051	0.003
-379.917	-123.491	-0.033	-0.005
-378.902	800.000	-0.056	-0.180
-377.888	28.898	-0.121	0.101
-376.873	350.207	0.114	0.224
-375.858	390.263	0.096	-0.198
-374.844	282.180	-0.235	-0.418
-373.829	-59.410	-0.131	0.056
-372.815	84.040	-0.063	-0.068
-371.800	-113.514	0.091	-0.018
-370.785	-54.174	-0.146	0.066
-369.771	-128.760	-0.148	-0.021
-368.756	-200.000	0.014	-0.092
-367.742	-109.907	-0.233	0.048
-366.727	7.549	-0.123	0.091
-365.712	300.842	0.102	0.186
-364.698	36.898	-0.178	-0.156
-363.683	-82.951	0.264	-0.084
-362.669	-65.918	-0.150	-0.059
-361.654	391.092	-0.115	0.236
-360.639	800.000	0.104	-0.313
-359.625	800.000	0.035	0.103
-358.610	-200.000	-0.049	-0.269
-357.596	-200.000	-0.084	-0.467
-356.581	-92.414	-0.234	-0.065
-355.566	-136.528	-0.556	-0.064
-354.552	-58.251	0.222	0.096
-353.537	-54.894	-0.220	-0.098
-352.523	-5.729	0.324	-0.220
-351.508	-103.400	-0.152	-0.035
-350.493	306.196	-0.074	0.137
-349.479	34.977	-0.117	-0.101
-348.464	-137.210	0.216	-0.024
-347.450	-200.000	-0.031	0.237
-346.435	800.000	0.100	0.280
-345.420	-200.000	-0.013	0.122
-344.406	800.000	-0.078	0.256
-343.391	215.933	-0.123	-0.194
-342.377	-154.209	-0.100	0.007
-341.362	-141.893	-0.217	0.021
-340.348	-81.841	-0.138	-0.045
-339.333	32.328	0.120	-0.103
-338.318	-107.126	0.014	0.003
-337.304	-200.000	-0.009	0.212
-336.289	-200.000	0.203	0.001
-335.275	-43.043	-0.056	0.028
-334.260	-127.276	-0.221	0.032
-333.245	-17.266	0.240	0.150
-332.231	725.406	0.067	-0.177
-331.216	261.478	-0.091	-0.156
-330.202	-2.322	0.038	0.026
-329.187	-52.641	0.229	-0.104
-328.172	800.000	0.094	-0.354
-327.158	-64.495	0.092	-0.037
-326.143	176.322	0.148	0.212
-325.129	-16.499	-0.207	0.130
-324.114	156.153	0.051	-0.070
-323.099	54.748	0.146	0.139
-322.085	-200.000	-0.010	-0.094
-321.070	-90.749	0.266	-0.076
-320.056	67.865	-0.051	-0.052
-319.041	209.477	0.128	-0.199
-318.026	90.374	0.114	-0.126
-317.012	74.082	0.185	0.192
-315.997	800.000	0.060	0.256
-314.983	-24.644	-0.278	-0.163
-313.968	-133.396	0.173	0.022
-312.953	75.081	-0.178	0.185
-311.939	-70.371	0.182	0.068
-310.924	-200.000	0.032	0.160
-309.910	249.864	-0.115	-0.193
-308.895	-141.006	0.155	0.016
-307.880	-11.975	-0.156	-0.101
-306.866	-161.352	0.190	-0.010
-305.851	-46.540	0.229	-0.111
-304.837	-118.785	0.117	0.020
-303.822	221.721	-0.079	-0.126
-302.807	-132.744	0.165	-0.021
-301.793	599.773	-0.086	-0.211
-300.778	-23.288	-0.159	-0.095
-299.764	-164.297	-0.236	0.011
-298.749	137.244	-0.104	0.134
-297.735	136.728	-0.108	-0.140
-296.720	13.829	-0.113	-0.087
-295.705	68.758	0.069	-0.070
-294.691	800.000	0.092	-0.295
-293.676	-85.663	-0.431	-0.132
-292.662	800.000	-0.098	-0.308
-291.647	-32.986	0.164	-0.090
-290.632	-177.938	0.141	-0.003
-289.618	27.844	-0.163	0.136
-288.603	-61.628	-0.301	0.125
-287.589	15.808	-0.248	-0.192
-286.574	800.000	0.039	0.168
-285.559	52.133	-0.033	0.031
-284.545	270.812	-0.092	0.160
-283.530	54.808	0.142	0.136
-282.516	-200.000	0.004	0.093
-281.501	-45.026	0.048	0.023
-280.486	43.359	-0.195	-0.176
-279.472	-62.863	-0.157	0.064
-278.457	-200.000	-0.047	-0.298
-277.443	-26.749	0.140	0.081
-276.428	-108.713	0.436	0.092
-275.413	-200.000	-0.049	0.292
-274.399	-200.000	-0.021	-0.158
-273.384	102.685	-0.198	-0.229
-272.370	113.521	0.179	0.215
-271.355	81.304	0.120	-0.128
-270.340	-129.442	0.299	0.041
-269.326	508.948	0.102	0.234
-268.311	243.997	-0.096	-0.159
-267.297	644.940	-0.015	0.038
-266.282	122.149	0.014	0.018
-265.267	800.000	0.027	-0.072
-264.253	-159.012	0.280	-0.016
-263.238	368.984	-0.174	0.348
-262.224	-178.620	-0.356	0.008
-261.209	51.753	-0.260	0.244
-260.195	182.242	-0.100	-0.145
-259.180	800.000	0.062	0.212
-258.165	-52.819	0.275	0.125
-257.151	-91.735	-0.229	-0.064
-256.136	-189.213	-0.031	-0.000
-255.122	-146.897	0.219	0.019
-254.107	-117.379	0.310	0.055
-253.092	52.962	0.198	-0.186
-252.078	-99.590	-0.233	-0.058
-251.063	149.226	-0.121	-0.161
-250.049	-74.117	-0.252	-0.090
-249.034	15.506	0.120	-0.093
-248.019	-12.048	0.103	-0.066
-247.005	-40.567	0.099	-0.051
-245.990	21.151	0.204	0.163
-244.976	-123.201	-0.087	-0.014
-243.961	-116.369	0.116	0.021
-242.946	38.962	0.037	0.032
-241.932	-101.379	0.159	0.038
-240.917	371.913	-0.118	0.237
-239.903	-22.498	-0.151	0.090
-238.888	465.998	0.040	-0.088
-237.873	70.113	-0.187	-0.190
-236.859	424.983	-0.030	0.064
-235.844	-200.000	-0.013	0.248
-234.830	-140.831	0.260	-0.026
-233.815	-200.000	-0.071	0.342
-232.800	-98.935	0.123	-0.031
-231.786	304.012	0.114	0.209
-230.771	-108.294	-0.195	0.042
-229.757	-12.899	-0.232	-0.149
-228.742	800.000	-0.030	-0.096
-227.727	-133.091	0.188	0.024
-226.713	-4.279	-0.015	-0.010
-225.698	800.000	0.113	-0.388
-224.684	612.721	-0.121	0.299
-223.669	-59.837	-0.123	0.052
-222.655	800.000	0.088	0.250
-221.640	-200.000	0.030	-0.176
-220.625	-53.916	-0.322	0.145
-219.611	-61.932	-0.147	0.060
-218.596	800.000	-0.052	0.152
-217.582	82.666	0.104	0.111
-216.567	-119.407	0.290	0.050
-215.552	-115.301	0.096	0.018
-214.538	-200.000	0.010	0.099
-213.523	-26.998	0.118	-0.068
-212.509	-108.094	0.296	-0.063
-211.494	112.407	0.089	-0.106
-210.479	-200.000	-0.041	0.226
-209.465	-200.000	0.050	0.232
-208.450	800.000	0.098	-0.314
-207.436	544.076	-0.024	-0.056
-206.421	-162.517	-0.082	-0.004
-205.406	-200.000	-0.003	0.037
-204.392	-29.979	-0.298	0.167
-203.377	107.788	0.174	-0.204
-202.363	601.784	-0.011	-0.028
-201.348	419.175	0.091	-0.191
-200.333	603.483	-0.092	0.226
-199.319	-200.000	0.020	0.183
-198.304	800.000	-0.157	0.489
-197.290	55.879	-0.169	0.161
-196.275	-175.605	0.451	-0.012
-195.260	-121.416	-0.239	-0.039
-194.246	-200.000	-0.035	0.182
-193.231	240.704	0.062	0.102
-192.217	329.000	-0.089	0.167
-191.202	-123.358	-0.371	-0.058
-190.187	71.919	0.216	-0.221
-189.173	800.000	-0.110	0.316
-188.158	800.000	0.064	-0.209
-187.144	-200.000	0.006	0.066
-186.129	-200.000	-0.019	-0.097
-185.114	341.408	-0.116	0.222
-184.100	172.500	0.161	0.228
-183.085	-29.478	-0.043	0.024
-182.071	-200.000	0.020	0.318
-181.056	569.667	0.253	0.605
-180.042	265.951	0.070	0.120
-179.027	-200.000	-0.034	0.198
-178.012	-142.591	0.162	0.016
-176.998	-163.327	0.040	0.002
-175.983	355.432	-0.092	0.180
-174.969	762.919	0.114	-0.305
-173.954	-34.311	-0.073	0.039
-172.939	-200.000	-0.069	0.337
-171.925	37.209	0.230	-0.200
-170.910	-5.525	-0.056	-0.038
-169.896	-160.826	0.143	-0.007
-168.881	-200.000	-0.015	-0.204
-167.866	99.046	-0.122	-0.138
-166.852	572.172	0.036	0.087
-165.837	-200.000	-0.031	-0.146
-164.823	800.000	-0.021	0.060
-163.808	31.461	-0.060	-0.051
-162.793	-200.000	-0.001	0.336
-161.779	-67.133	-0.277	-0.107
-160.764	210.575	0.086	0.133
-159.750	61.680	0.231	0.226
-158.735	30.760	0.128	0.108
-157.720	-200.000	-0.022	0.201
-156.706	47.212	-0.110	0.100
-155.691	-174.139	0.254	-0.007
-154.677	29.909	0.129	-0.108
-153.662	389.784	0.086	-0.175
-152.647	-200.000	-0.002	0.026
-151.633	-200.000	-0.017	-0.267
-150.618	-200.000	-0.033	-0.453
-149.604	-18.406	0.278	-0.170
-148.589	-200.000	0.003	-0.061
-147.574	251.774	0.201	-0.337
-146.560	-200.000	-0.066	0.395
-145.545	800.000	0.045	-0.143
-144.531	-36.941	-0.031	0.017
-143.516	214.641	0.068	0.106
-142.502	26.436	0.397	0.326
-141.487	800.000	-0.052	0.203
-140.472	289.151	-0.020	0.035
-139.458	7.917	-0.075	0.055
-138.443	91.785	-0.102	-0.113
-137.429	-104.971	-0.258	0.058
-136.414	193.860	0.132	0.196
-135.399	300.286	-0.251	0.454
-134.385	202.661	-0.039	-0.060
-133.370	-35.108	0.161	0.086
-132.356	126.149	0.046	-0.057
-131.341	-130.222	0.190	0.025
-130.326	-64.812	-0.338	-0.134
-129.312	800.000	0.064	0.175
-128.297	10.159	-0.228	0.170
-127.283	-22.435	0.186	0.110
-126.268	-112.976	0.306	-0.059
-125.253	-62.920	-0.096	-0.039
-124.239	-0.854	-0.236	0.164
-123.224	800.000	0.016	0.059
-122.210	147.065	0.151	0.199
