DTS Sentinel unit serial number:	SN413079Multiplexer serial number:	ORYXHardware model number:	OX4-SRSoftware version number:	ORYX F/W v4.00 Oryx Data Collector v3.7.2.0data status	okinstallation	princeton_trtdifferential loss correction	single-endedforward channel	channel 2reverse channel	N/Adate	2019/09/18time	05:55:35forward acquisition time	60.00reverse acquisition time	0.00gamma	496.2192k internal	0.2349k external	0.2349temperature offset calibration	0.9983default loss term (dB/km)	0.3790temperature slope calibration	1.0000multiplexer offset coefficient	1.0000multiplexer slope coefficient	1.0000fibre end	0.00T internal ref (°C)	23.22T ext. ref 1 (°C)	0.19T ext. ref 2 (°C)	17.45length (m)	temperature (°C)	Stokes	anti-Stokes-747.200	159.203	-0.150	-0.208
-746.185	387.836	-0.195	0.403
-745.171	-200.000	0.025	0.154
-744.156	-200.000	-0.064	0.581
-743.142	254.829	0.031	-0.052
-742.127	-11.668	-0.282	0.185
-741.112	800.000	-0.098	0.412
-740.098	-31.839	-0.340	0.190
-739.083	119.323	-0.030	0.037
-738.069	-190.763	-0.235	-0.002
-737.054	38.120	-0.261	0.232
-736.039	71.683	-0.128	0.133
-735.025	-163.921	-0.197	-0.009
-734.010	800.000	-0.035	-0.106
-732.996	-109.067	-0.299	0.063
-731.981	-153.016	-0.365	0.026
-730.966	39.998	0.155	-0.139
-729.952	-105.235	-0.228	-0.052
-728.937	173.996	-0.271	-0.390
-727.923	-200.000	0.028	-0.242
-726.908	636.492	0.070	-0.179
-725.894	-67.743	-0.217	0.085
-724.879	-200.000	0.050	-0.374
-723.864	-200.000	0.005	-0.131
-722.850	520.011	0.143	0.335
-721.835	68.745	0.229	-0.234
-720.821	80.603	-0.169	-0.182
-719.806	259.431	0.113	-0.195
-718.791	110.528	-0.094	0.113
-717.777	318.990	0.081	0.153
-716.762	34.019	0.110	-0.096
-715.748	-76.334	-0.178	-0.062
-714.733	-121.640	0.107	-0.018
-713.718	-122.624	0.116	0.019
-712.704	-200.000	-0.024	0.232
-711.689	-200.000	-0.001	-0.227
-710.675	800.000	0.069	0.193
-709.660	61.981	0.194	-0.193
-708.645	-200.000	0.001	-0.041
-707.631	-70.377	0.267	0.101
-706.616	262.544	-0.260	-0.450
-705.602	-200.000	0.009	0.169
-704.587	-10.292	0.277	0.183
-703.572	-112.665	-0.224	-0.044
-702.558	800.000	0.075	-0.268
-701.543	160.187	0.213	-0.296
-700.529	102.362	-0.148	0.172
-699.514	695.560	-0.123	0.322
-698.499	73.570	-0.214	-0.223
-697.485	717.888	-0.121	-0.321
-696.470	132.275	-0.049	-0.063
-695.456	-200.000	-0.002	-0.143
-694.441	-119.359	-0.294	0.051
-693.426	-89.301	-0.133	-0.039
-692.412	-108.433	0.230	-0.049
-691.397	-30.566	0.170	0.096
-690.383	189.254	0.225	-0.335
-689.368	8.660	-0.305	-0.229
-688.354	-148.830	0.301	-0.024
-687.339	-19.807	0.408	-0.251
-686.324	-77.779	-0.180	-0.062
-685.310	-126.517	-0.093	0.014
-684.295	800.000	-0.048	-0.180
-683.281	-58.432	-0.166	-0.072
-682.266	367.370	0.140	0.281
-681.251	-96.782	-0.144	-0.038
-680.237	-101.542	-0.166	-0.040
-679.222	175.107	-0.039	-0.056
-678.208	800.000	-0.044	-0.178
-677.193	-200.000	0.030	-0.177
-676.178	-101.804	0.302	0.073
-675.164	-109.280	0.430	-0.091
-674.149	-121.958	-0.286	-0.047
-673.135	-200.000	0.026	0.179
-672.120	18.241	-0.199	-0.158
-671.105	1.672	-0.026	-0.019
-670.091	-40.013	-0.181	0.094
-669.076	674.103	-0.059	0.152
-668.062	-71.002	-0.065	0.024
-667.047	76.858	0.169	0.178
-666.032	-4.171	-0.391	-0.270
-665.018	-148.136	-0.038	0.003
-664.003	-200.000	-0.034	0.193
-662.989	85.896	0.065	-0.071
-661.974	799.536	-0.069	0.188
-660.959	800.000	-0.077	0.231
-659.945	606.040	0.150	-0.373
-658.930	30.875	0.088	0.075
-657.916	274.685	-0.159	0.280
-656.901	-200.000	0.053	-0.295
-655.886	-16.976	-0.180	0.113
-654.872	455.955	-0.088	0.195
-653.857	-74.025	-0.107	-0.039
-652.843	800.000	0.021	-0.077
-651.828	-117.142	0.238	-0.043
-650.814	-109.221	-0.187	-0.039
-649.799	193.136	0.048	-0.072
-648.784	-200.000	-0.048	0.224
-647.770	-80.663	0.031	0.010
-646.755	-12.903	-0.237	0.153
-645.741	-200.000	-0.000	-0.226
-644.726	-116.445	-0.233	0.043
-643.711	800.000	-0.032	-0.091
-642.697	8.267	0.175	-0.131
-641.682	43.580	0.099	-0.090
-640.668	27.311	-0.415	-0.347
-639.653	164.743	-0.200	0.280
-638.638	91.356	0.058	0.065
-637.624	303.141	0.101	-0.185
-636.609	800.000	0.063	0.184
-635.595	23.866	-0.342	0.281
-634.580	45.009	-0.296	0.271
-633.565	-200.000	0.021	-0.389
-632.551	-46.242	-0.194	0.095
-631.536	44.421	-0.295	-0.269
-630.522	-4.956	0.287	0.197
-629.507	-76.591	-0.087	0.030
-628.492	-135.066	-0.216	-0.026
-627.478	-54.734	0.240	-0.108
-626.463	266.563	-0.026	-0.045
-625.449	112.553	-0.085	0.103
-624.434	250.274	0.154	0.259
-623.419	132.180	-0.056	-0.072
-622.405	39.311	-0.209	-0.186
-621.390	0.025	-0.167	0.118
-620.376	-32.736	0.094	0.052
-619.361	303.703	-0.143	-0.264
-618.346	462.413	-0.138	-0.306
-617.332	327.786	-0.073	0.140
-616.317	-200.000	-0.040	0.210
-615.303	800.000	0.046	-0.161
-614.288	-200.000	-0.018	0.154
-613.273	186.010	0.071	0.105
-612.259	-150.577	0.233	0.018
-611.244	-30.380	-0.171	0.096
-610.230	522.525	0.102	-0.238
-609.215	-99.720	-0.203	0.050
-608.201	-200.000	-0.023	0.118
-607.186	-14.251	0.436	-0.279
-606.171	-176.153	-0.458	-0.012
-605.157	-200.000	-0.041	0.359
-604.142	134.746	-0.090	-0.116
-603.128	29.093	-0.259	-0.218
-602.113	-112.934	-0.075	0.015
-601.098	800.000	-0.019	-0.069
-600.084	107.489	-0.228	-0.269
-599.069	0.739	0.302	-0.215
-598.055	24.838	-0.039	0.032
-597.040	-127.500	-0.417	-0.060
-596.025	476.954	-0.094	0.211
-595.011	43.788	0.098	0.089
-593.996	11.563	0.123	0.094
-592.982	-135.465	0.080	0.010
-591.967	-102.131	-0.134	0.032
-590.952	100.651	0.201	0.232
-589.938	24.810	0.177	0.145
-588.923	-200.000	0.012	-0.075
-587.909	-146.356	0.146	0.013
-586.894	-71.203	-0.448	-0.167
-585.879	154.685	0.053	0.072
-584.865	140.498	0.269	-0.352
-583.850	-200.000	0.012	-0.128
-582.836	-200.000	-0.003	0.034
-581.821	7.308	-0.196	0.145
-580.806	-41.299	0.256	-0.131
-579.792	-200.000	0.043	-0.279
-578.777	800.000	0.132	0.393
-577.763	800.000	-0.039	-0.133
-576.748	629.568	0.055	-0.139
-575.733	219.734	0.152	0.241
-574.719	91.836	-0.195	0.218
-573.704	-67.044	-0.318	0.125
-572.690	-39.914	-0.226	-0.117
-571.675	-200.000	0.070	-0.402
-570.661	462.317	0.084	0.186
-569.646	160.238	0.153	-0.211
-568.631	-128.682	0.062	-0.009
-567.617	726.333	0.061	-0.161
-566.602	71.471	0.160	0.165
-565.588	-75.622	0.081	0.029
-564.573	45.964	0.104	0.096
-563.558	-66.558	0.134	0.053
-562.544	-29.446	0.161	-0.091
-561.529	-146.024	-0.329	0.029
-560.515	800.000	0.114	-0.336
-559.500	-95.149	0.235	-0.063
-558.485	335.368	-0.037	-0.071
-557.471	50.247	0.178	0.167
-556.456	100.823	-0.227	-0.262
-555.442	46.362	-0.076	0.070
-554.427	-200.000	0.004	-0.129
-553.412	800.000	0.038	-0.159
-552.398	42.373	-0.359	-0.324
-551.383	-200.000	-0.002	-0.121
-550.369	-4.666	0.231	-0.158
-549.354	-200.000	-0.004	-0.116
-548.339	-31.231	-0.201	0.112
-547.325	-44.898	-0.208	-0.103
-546.310	40.302	-0.179	0.160
-545.296	-127.888	0.264	-0.038
-544.281	-66.604	-0.153	0.060
-543.266	-93.127	0.208	-0.057
-542.252	322.489	0.150	-0.284
-541.237	436.341	-0.045	0.097
-540.223	74.849	0.102	-0.107
-539.208	-17.614	0.279	-0.174
-538.193	800.000	0.051	-0.151
-537.179	-97.153	0.161	0.042
-536.164	46.754	-0.245	0.226
-535.150	-46.802	-0.239	0.116
-534.135	-200.000	0.002	0.278
-533.121	-12.957	0.096	0.062
-532.106	-24.518	-0.098	0.058
-531.091	-125.198	0.292	0.044
-530.077	800.000	-0.095	-0.355
-529.062	800.000	-0.025	-0.108
-528.048	354.120	-0.033	-0.065
-527.033	-92.614	-0.200	0.056
-526.018	-113.155	-0.316	0.062
-525.004	800.000	-0.055	-0.187
-523.989	71.797	-0.140	-0.144
-522.975	-200.000	0.005	-0.119
-521.960	49.711	0.100	-0.093
-520.945	57.312	0.120	0.116
-519.931	13.416	-0.011	0.009
-518.916	111.785	0.208	0.249
-517.902	-73.409	-0.126	-0.046
-516.887	-90.588	0.149	0.043
-515.872	-38.081	-0.288	-0.151
-514.858	-65.435	0.171	0.068
-513.843	-36.598	0.159	0.085
-512.829	210.928	-0.071	-0.110
-511.814	102.181	-0.057	0.066
-510.799	-34.847	-0.219	-0.118
-509.785	75.966	-0.332	-0.348
-508.770	-111.542	0.187	-0.038
-507.756	404.069	0.087	0.181
-506.741	259.596	0.053	0.090
-505.726	-200.000	0.004	0.030
-504.712	-11.097	-0.321	-0.210
-503.697	-87.834	-0.374	-0.111
-502.683	800.000	-0.039	0.160
-501.668	-135.262	0.294	-0.035
-500.653	483.642	0.083	-0.187
-499.639	-44.773	0.329	0.162
-498.624	800.000	0.048	-0.137
-497.610	237.043	0.148	-0.242
-496.595	-200.000	-0.006	-0.095
-495.581	94.820	0.174	-0.196
-494.566	-32.179	0.170	-0.094
-493.551	800.000	0.082	0.304
-492.537	27.530	-0.133	0.111
-491.522	800.000	-0.039	0.115
-490.508	800.000	-0.040	0.175
-489.493	260.334	-0.064	-0.109
-488.478	-115.545	-0.170	0.032
-487.464	314.330	-0.051	-0.094
-486.449	2.352	-0.161	0.115
-485.435	115.267	-0.043	-0.052
-484.420	800.000	0.041	-0.119
-483.405	16.184	0.044	-0.035
-482.391	-126.914	-0.157	0.023
-481.376	-152.621	0.140	-0.010
-480.362	161.385	0.097	-0.135
-479.347	388.325	0.062	-0.126
-478.332	41.814	0.217	0.195
-477.318	-117.980	0.099	0.018
-476.303	-200.000	-0.027	-0.145
-475.289	-30.998	0.122	0.068
-474.274	241.038	0.113	0.187
-473.259	-166.912	-0.216	0.009
-472.245	28.989	-0.360	0.302
-471.230	-12.337	0.116	0.075
-470.216	-200.000	0.036	0.320
-469.201	-189.618	0.171	0.002
-468.186	-108.292	0.261	0.056
-467.172	-200.000	-0.001	0.105
-466.157	-91.830	0.310	0.087
-465.143	49.762	-0.242	-0.225
-464.128	-200.000	0.017	0.166
-463.113	-138.797	-0.095	0.010
-462.099	-137.880	0.380	0.042
-461.084	-200.000	0.001	-0.120
-460.070	75.844	0.059	-0.061
-459.055	-85.106	0.386	-0.119
-458.040	-131.556	-0.260	-0.034
-457.026	-5.745	-0.116	0.079
-456.011	800.000	0.027	-0.076
-454.997	-200.000	-0.004	-0.176
-453.982	-61.685	0.384	-0.159
-452.968	-80.265	0.137	0.045
-451.953	214.955	0.158	0.248
-450.938	-62.121	-0.179	0.074
-449.924	-34.493	0.298	0.161
-448.909	-90.654	0.140	-0.040
-447.895	-63.151	0.279	-0.114
-446.880	800.000	-0.043	0.124
-445.865	423.610	0.049	-0.104
-444.851	74.377	-0.155	0.161
-443.836	194.086	0.171	0.256
-442.822	-17.509	-0.135	0.084
-441.807	800.000	0.059	0.207
-440.792	-154.874	-0.134	-0.009
-439.778	-167.771	-0.132	-0.005
-438.763	-24.643	0.203	0.119
-437.749	-22.860	-0.141	-0.084
-436.734	-200.000	-0.007	0.171
-435.719	-115.104	-0.218	-0.041
-434.705	-48.521	-0.228	0.108
-433.690	-37.437	0.148	0.078
-432.676	91.657	-0.223	-0.248
-431.661	-68.570	-0.121	0.046
-430.646	-49.675	-0.079	0.037
-429.632	18.209	-0.391	0.308
-428.617	40.069	0.209	-0.186
-427.603	800.000	-0.064	-0.241
-426.588	-132.306	0.449	0.057
-425.573	800.000	-0.083	0.306
-424.559	-37.973	-0.421	0.221
-423.544	-82.148	-0.188	-0.060
-422.530	130.780	0.152	0.192
-421.515	-50.402	0.103	-0.048
-420.500	800.000	0.034	-0.141
-419.486	800.000	0.055	0.193
-418.471	-123.800	0.365	0.057
-417.457	-200.000	0.010	0.166
-416.442	-137.308	0.202	0.023
-415.428	-24.671	-0.321	-0.188
-414.413	216.490	-0.055	0.086
-413.398	-200.000	0.010	-0.114
-412.384	800.000	-0.044	-0.148
-411.369	-48.543	0.169	0.080
-410.355	-200.000	0.017	0.228
-409.340	272.864	0.113	0.197
-408.325	-170.009	-0.130	-0.005
-407.311	-159.127	-0.448	0.025
-406.296	-174.151	-0.200	-0.006
-405.282	-70.710	0.128	0.047
-404.267	800.000	-0.099	-0.313
-403.252	-54.441	0.109	-0.049
-402.238	-129.807	-0.374	-0.051
-401.223	673.762	0.145	0.370
-400.209	17.222	0.183	0.143
-399.194	-139.348	-0.274	0.029
-398.179	-200.000	-0.018	0.307
-397.165	-200.000	0.037	-0.410
-396.150	190.441	0.062	0.092
-395.136	342.265	-0.129	0.249
-394.121	9.398	-0.045	0.034
-393.106	231.705	0.198	0.319
-392.092	89.802	-0.194	-0.213
-391.077	144.276	-0.119	-0.156
-390.063	-200.000	0.018	0.192
-389.048	265.437	0.079	-0.136
-388.033	166.757	0.073	-0.102
-387.019	-200.000	0.061	0.294
-386.004	-119.830	-0.201	0.034
-384.990	-8.427	0.025	-0.016
-383.975	800.000	-0.037	-0.147
-382.960	258.441	0.186	-0.316
-381.946	-200.000	-0.016	0.204
-380.931	-93.252	-0.207	0.057
-379.917	-200.000	-0.034	0.171
-378.902	142.362	0.076	0.099
-377.888	-23.117	-0.130	-0.077
-376.873	129.728	-0.061	-0.076
-375.858	-117.394	0.383	-0.068
-374.844	245.602	0.043	-0.072
-373.829	115.708	0.119	0.144
-372.815	11.581	0.186	0.141
-371.800	-200.000	0.028	0.198
-370.785	183.576	-0.177	-0.257
-369.771	-200.000	-0.015	0.102
-368.756	89.791	-0.294	-0.323
-367.742	276.069	0.083	-0.146
-366.727	330.913	-0.043	0.082
-365.712	104.781	-0.128	0.148
-364.698	-113.013	-0.264	-0.051
-363.683	800.000	-0.034	0.114
-362.669	-83.097	-0.213	-0.067
-361.654	143.955	0.196	0.257
-360.639	-61.594	0.328	0.135
-359.625	12.033	0.213	-0.161
-358.610	-44.762	0.193	-0.095
-357.596	-200.000	-0.051	0.301
-356.581	-200.000	0.003	0.222
-355.566	-85.535	-0.079	0.024
-354.552	-57.754	-0.067	-0.029
-353.537	155.928	-0.228	-0.309
-352.523	-150.635	0.297	0.022
-351.508	39.863	0.039	-0.035
-350.493	82.593	-0.157	-0.167
-349.479	-22.692	-0.098	-0.058
-348.464	790.135	0.127	-0.342
-347.450	540.600	-0.059	0.138
-346.435	259.455	0.206	0.349
-345.420	2.255	0.125	0.089
-344.406	-47.275	-0.127	0.061
-343.391	-200.000	0.061	0.297
-342.377	-200.000	-0.044	0.453
-341.362	-200.000	-0.045	-0.361
-340.348	297.814	0.047	-0.086
-339.333	-13.158	0.304	-0.194
-338.318	172.885	0.070	-0.099
-337.304	145.839	0.042	-0.056
-336.289	-136.776	-0.352	-0.040
-335.275	-93.247	0.274	0.075
-334.260	800.000	0.048	-0.166
-333.245	-140.886	0.259	-0.026
-332.231	83.570	0.059	-0.063
-331.216	34.377	0.194	-0.166
-330.202	300.232	-0.057	0.103
-329.187	94.046	0.154	0.172
-328.172	463.320	0.029	0.065
-327.158	153.829	0.021	-0.028
-326.143	-200.000	0.051	-0.346
-325.129	-37.994	0.365	-0.191
-324.114	-113.935	-0.221	-0.042
-323.099	79.473	0.236	-0.249
-322.085	-200.000	0.004	-0.385
-321.070	272.797	-0.079	-0.138
-320.056	-35.050	0.205	0.110
-319.041	-200.000	-0.005	-0.094
-318.026	-98.250	0.064	-0.016
-317.012	59.617	0.238	-0.231
-315.997	52.621	-0.208	0.195
-314.983	-3.780	-0.198	0.135
-313.968	473.545	-0.094	-0.209
-312.953	29.407	-0.069	0.058
-311.939	156.639	-0.188	-0.255
-310.924	-200.000	-0.023	-0.265
-309.910	-105.449	-0.177	-0.039
-308.895	-94.023	0.143	-0.039
-307.880	-48.349	-0.419	0.198
-306.866	7.731	-0.097	0.071
-305.851	-121.372	-0.220	0.036
-304.837	-125.234	0.260	0.039
-303.822	-51.061	-0.108	0.050
-302.807	-73.701	0.028	0.010
-301.793	344.043	0.076	0.146
-300.778	289.225	-0.101	-0.179
-299.764	-148.749	0.358	0.029
-298.749	17.132	-0.343	-0.267
-297.735	237.746	-0.090	-0.147
-296.720	154.117	0.090	0.122
-295.705	-182.536	-0.039	-0.001
-294.691	660.066	-0.050	0.127
-293.676	-136.834	0.140	0.016
-292.662	800.000	0.101	-0.301
-291.647	-120.565	0.142	-0.024
-290.632	-200.000	0.057	0.476
-289.618	-95.798	0.305	0.080
-288.603	-55.514	-0.163	-0.072
-287.589	240.822	0.046	0.076
-286.574	800.000	-0.045	0.134
-285.559	112.627	0.163	0.193
-284.545	472.161	-0.099	-0.219
-283.530	448.283	0.152	-0.328
-282.516	-10.150	0.176	0.115
-281.501	-200.000	-0.041	-0.360
-280.486	-113.331	0.041	0.008
-279.472	-200.000	0.052	-0.257
-278.457	-66.108	0.067	0.026
-277.443	-200.000	0.000	-0.118
-276.428	254.828	-0.103	-0.172
-275.413	-200.000	-0.035	-0.314
-274.399	-93.825	-0.228	-0.062
-273.384	686.263	-0.131	0.336
-272.370	280.375	0.213	0.373
-271.355	-200.000	-0.000	-0.194
-270.340	221.684	-0.186	-0.293
-269.326	-43.439	0.061	0.030
-268.311	-119.505	0.052	0.009
-267.297	69.111	0.238	-0.240
-266.282	75.809	-0.058	0.060
-265.267	-200.000	-0.061	-0.321
-264.253	-200.000	0.007	-0.158
-263.238	328.421	0.144	0.271
-262.224	-147.591	0.151	0.012
-261.209	-200.000	0.060	-0.438
-260.195	-200.000	-0.100	-0.567
-259.180	-35.871	0.037	-0.020
-258.165	19.730	-0.059	-0.047
-257.151	-136.527	-0.270	-0.031
-256.136	-168.014	-0.209	-0.008
-255.122	-74.650	-0.333	0.117
-254.107	-134.772	0.211	0.025
-253.092	135.770	-0.207	-0.263
-252.078	800.000	0.014	-0.043
-251.063	-200.000	0.028	0.282
-250.049	371.616	0.149	0.296
-249.034	800.000	0.080	0.281
-248.019	222.064	-0.127	0.201
-247.005	207.124	-0.201	-0.307
-245.990	-200.000	-0.010	0.125
-244.976	156.037	-0.123	0.166
-243.961	800.000	0.063	0.197
-242.946	-121.569	0.337	-0.055
-241.932	-57.052	-0.069	-0.030
-240.917	200.586	0.050	-0.075
-239.903	-200.000	0.013	0.098
-238.888	-71.013	-0.250	-0.092
-237.873	800.000	0.065	0.277
-236.859	-43.114	0.231	0.115
-235.844	-200.000	0.000	-0.093
-234.830	-73.096	0.211	-0.076
-233.815	546.829	0.138	0.323
-232.800	8.896	-0.213	-0.157
-231.786	-200.000	0.199	-0.001
-230.771	141.517	0.198	-0.257
-229.757	374.260	0.100	0.200
-228.742	161.066	0.089	-0.122
-227.727	-15.162	0.210	0.132
-226.713	327.816	0.181	-0.340
-225.698	-147.441	0.204	0.017
-224.684	130.432	-0.078	-0.097
-223.669	800.000	0.073	-0.222
-222.655	199.793	-0.059	-0.089
-221.640	32.943	-0.112	-0.095
-220.625	-77.160	-0.163	0.055
-219.611	-200.000	0.021	0.283
-218.596	630.905	-0.072	-0.179
-217.582	115.294	-0.067	-0.080
-216.567	-200.000	-0.024	0.192
-215.552	9.962	-0.112	0.084
-214.538	421.567	-0.055	-0.115
-213.523	-200.000	-0.051	0.287
-212.509	-96.904	-0.409	-0.105
-211.494	41.807	0.247	0.219
-210.479	-50.595	0.220	-0.102
-209.465	126.558	0.213	-0.264
-208.450	-200.000	-0.044	0.202
-207.436	-134.001	-0.157	0.019
-206.421	-182.912	0.366	0.006
-205.406	-109.524	-0.256	-0.053
-204.392	-72.989	0.146	0.053
-203.377	800.000	0.130	0.368
-202.363	571.581	-0.138	0.329
-201.348	-80.112	0.330	-0.108
-200.333	208.382	0.100	0.152
-199.319	52.848	-0.221	0.207
-198.304	304.255	-0.138	0.250
-197.290	138.038	-0.145	-0.185
-196.275	-200.000	0.005	0.182
-195.260	168.074	0.082	-0.114
-194.246	-200.000	0.018	0.117
-193.231	103.772	-0.142	0.163
-192.217	-94.187	0.317	-0.085
-191.202	326.339	-0.023	-0.044
-190.187	-39.922	-0.254	-0.130
-189.173	102.221	0.229	-0.261
-188.158	24.101	-0.071	-0.058
-187.144	5.071	-0.164	0.118
-186.129	137.578	-0.039	0.049
-185.114	-200.000	0.024	0.479
-184.100	-70.320	0.061	0.023
-183.085	390.111	-0.078	-0.158
-182.071	-200.000	0.026	-0.131
-181.056	800.000	-0.083	0.225
-180.042	-200.000	0.068	-0.340
-179.027	374.954	-0.110	0.220
-178.012	384.303	-0.189	0.380
-176.998	800.000	0.089	0.378
-175.983	273.371	-0.050	-0.087
-174.969	-62.011	-0.306	0.125
-173.954	-200.000	0.015	-0.075
-172.939	-167.570	-0.057	-0.002
-171.925	34.181	0.158	0.134
-170.910	126.822	0.174	0.215
-169.896	-104.072	-0.091	0.021
-168.881	-20.780	-0.215	0.129
-167.866	-110.862	0.213	0.043
-166.852	182.913	0.149	-0.215
-165.837	280.739	0.147	0.256
-164.823	176.800	-0.144	0.204
-163.808	800.000	-0.004	-0.012
-162.793	-200.000	-0.054	0.242
-161.779	420.333	-0.150	0.314
-160.764	159.134	0.162	-0.220
-159.750	-30.957	0.330	0.182
-158.735	247.439	-0.150	-0.247
-157.720	328.885	0.146	0.274
-156.706	800.000	-0.036	-0.129
-155.691	-155.669	-0.230	0.014
-154.677	-200.000	-0.001	0.033
-153.662	-14.140	-0.309	-0.195
-152.647	-127.022	0.132	-0.019
-151.633	60.017	0.202	-0.194
-150.618	-200.000	-0.064	-0.278
-149.604	483.839	-0.072	0.160
-148.589	-153.115	0.441	-0.030
-147.574	68.127	-0.064	0.064
-146.560	-97.541	-0.452	-0.115
-145.545	-163.361	-0.359	-0.017
-144.531	-30.672	-0.075	-0.041
-143.516	53.230	0.198	-0.185
-142.502	93.728	0.131	0.145
-141.487	800.000	0.122	-0.356
-140.472	94.555	-0.165	0.183
-139.458	800.000	0.071	0.264
-138.443	800.000	-0.116	0.397
-137.429	800.000	0.080	0.334
-136.414	-53.624	-0.203	-0.090
-135.399	283.098	-0.145	0.254
-134.385	245.739	0.148	0.244
-133.370	134.465	-0.088	0.112
-132.356	478.537	0.114	0.252
-131.341	-187.721	-0.298	-0.004
-130.326	-54.448	0.118	-0.052
-129.312	394.394	-0.102	0.208
-128.297	-200.000	0.005	-0.158
-127.283	-30.703	0.224	0.123
-126.268	-22.356	0.146	0.086
-125.253	146.779	-0.133	-0.174
-124.239	800.000	-0.157	0.537
-123.224	47.351	0.121	0.110
-122.210	481.110	0.110	0.243
-121.195	-154.749	0.178	-0.012
