DTS Sentinel unit serial number:	SN413079Multiplexer serial number:	ORYXHardware model number:	OX4-SRSoftware version number:	ORYX F/W v4.00 Oryx Data Collector v3.7.2.0data status	okinstallation	princeton_trtdifferential loss correction	single-endedforward channel	channel 2reverse channel	N/Adate	2019/09/12time	13:25:11forward acquisition time	60.00reverse acquisition time	0.00gamma	496.2192k internal	0.2297k external	0.2297temperature offset calibration	1.0080default loss term (dB/km)	0.3790temperature slope calibration	1.0000multiplexer offset coefficient	1.0000multiplexer slope coefficient	1.0000fibre end	0.00T internal ref (°C)	41.06T ext. ref 1 (°C)	2.12T ext. ref 2 (°C)	37.87length (m)	temperature (°C)	Stokes	anti-Stokes-747.200	10.218	0.160	0.124
-746.185	359.618	-0.083	0.170
-745.171	-24.673	0.305	0.185
-744.156	326.616	-0.061	0.119
-743.142	268.437	0.083	0.149
-742.127	33.470	0.045	0.040
-741.112	-200.000	-0.003	-0.080
-740.098	591.479	0.148	0.372
-739.083	800.000	0.051	-0.174
-738.069	412.612	-0.102	0.222
-737.054	-99.665	0.098	-0.025
-736.039	322.545	-0.063	-0.123
-735.025	-80.015	0.301	0.103
-734.010	-0.369	-0.375	0.272
-732.996	800.000	0.066	-0.201
-731.981	-123.830	-0.381	-0.061
-730.966	-200.000	0.004	-0.631
-729.952	55.010	0.197	0.194
-728.937	527.515	0.025	-0.060
-727.923	-74.732	0.316	0.116
-726.908	-200.000	-0.012	-0.161
-725.894	-36.514	0.131	-0.072
-724.879	24.836	-0.173	0.146
-723.864	-100.141	-0.263	-0.067
-722.850	307.848	-0.045	-0.085
-721.835	-200.000	-0.060	0.305
-720.821	394.412	-0.072	0.152
-719.806	404.836	0.129	0.276
-718.791	-200.000	-0.038	-0.266
-717.777	63.235	-0.148	-0.151
-716.762	-151.893	-0.431	-0.032
-715.748	-64.901	-0.326	-0.134
-714.733	457.074	0.005	-0.010
-713.718	565.095	-0.161	0.399
-712.704	124.148	0.210	0.269
-711.689	72.921	-0.188	0.201
-710.675	-135.420	-0.173	-0.021
-709.660	711.390	0.056	-0.151
-708.645	165.100	0.176	0.253
-707.631	800.000	0.071	0.287
-706.616	-149.180	0.265	0.022
-705.602	-121.555	-0.083	-0.014
-704.587	-200.000	-0.007	-0.165
-703.572	-43.339	0.037	0.019
-702.558	-48.171	-0.373	-0.184
-701.543	23.481	0.234	0.196
-700.529	800.000	0.016	0.067
-699.514	-154.385	0.491	-0.034
-698.499	-200.000	0.046	-0.214
-697.485	-200.000	0.026	0.131
-696.470	386.255	-0.048	-0.101
-695.456	324.503	-0.081	0.158
-694.441	800.000	0.026	-0.075
-693.426	-200.000	-0.004	0.150
-692.412	-83.673	0.390	-0.127
-691.397	-54.355	-0.053	-0.024
-690.383	-156.475	0.051	-0.003
-689.368	-68.098	-0.072	-0.029
-688.354	-32.521	-0.193	0.109
-687.339	-200.000	0.057	-0.327
-686.324	-34.091	0.336	0.188
-685.310	-200.000	0.000	0.135
-684.295	30.458	-0.264	-0.230
-683.281	39.122	0.096	-0.087
-682.266	285.423	0.161	-0.296
-681.251	-125.170	0.487	0.076
-680.237	194.765	0.064	-0.099
-679.222	800.000	-0.079	0.311
-678.208	800.000	-0.034	0.137
-677.193	236.887	-0.155	-0.262
-676.178	-200.000	-0.048	0.313
-675.164	412.093	0.116	0.250
-674.149	43.348	0.240	-0.223
-673.135	-113.776	0.389	-0.077
-672.120	800.000	0.030	-0.107
-671.105	-9.081	-0.402	0.274
-670.091	-138.592	-0.111	-0.012
-669.076	-89.260	-0.340	-0.102
-668.062	-123.994	-0.143	0.023
-667.047	602.001	-0.060	-0.151
-666.032	69.419	0.156	-0.163
-665.018	-200.000	0.019	0.114
-664.003	800.000	0.060	-0.176
-662.989	263.650	0.087	-0.154
-661.974	472.610	0.050	-0.114
-660.959	-7.852	-0.199	-0.137
-659.945	324.788	0.089	0.173
-658.930	-22.847	0.315	-0.194
-657.916	17.586	-0.256	-0.207
-656.901	-25.445	0.128	0.077
-655.886	800.000	-0.077	-0.286
-654.872	-90.601	0.165	-0.048
-653.857	366.496	0.051	-0.104
-652.843	-6.421	-0.321	0.222
-651.828	55.375	-0.082	0.081
-650.814	43.665	-0.266	0.248
-649.799	197.537	-0.185	-0.288
-648.784	165.613	-0.142	-0.204
-647.770	-200.000	-0.009	-0.082
-646.755	800.000	-0.092	-0.334
-645.741	-87.150	-0.526	-0.163
-644.726	-161.039	0.215	0.011
-643.711	165.350	-0.192	0.276
-642.697	137.020	0.190	0.252
-641.682	-109.044	0.100	-0.022
-640.668	261.972	-0.152	-0.268
-639.653	-200.000	-0.028	0.332
-638.638	-17.359	-0.098	0.063
-637.624	-158.238	0.402	-0.024
-636.609	-200.000	0.006	-0.131
-635.595	-200.000	-0.015	-0.092
-634.580	-47.760	-0.167	-0.082
-633.565	800.000	-0.054	-0.212
-632.551	-17.721	0.130	0.083
-631.536	-200.000	-0.011	-0.075
-630.522	-200.000	-0.046	0.296
-629.507	-72.052	0.028	-0.011
-628.492	56.694	-0.324	-0.320
-627.478	-65.851	-0.058	0.024
-626.463	102.363	-0.136	0.162
-625.449	-30.497	-0.091	0.052
-624.434	-111.538	-0.076	-0.016
-623.419	-135.915	-0.036	-0.004
-622.405	800.000	0.093	0.378
-621.390	-149.980	-0.208	-0.016
-620.376	88.313	-0.064	-0.072
-619.361	571.590	-0.089	0.219
-618.346	-43.730	0.168	-0.086
-617.332	47.929	0.154	0.146
-616.317	49.412	-0.151	-0.144
-615.303	800.000	0.046	-0.188
-614.288	55.839	-0.149	0.146
-613.273	-75.128	0.294	-0.107
-612.259	-8.474	-0.313	-0.213
-611.244	800.000	-0.094	-0.273
-610.230	3.188	0.157	0.116
-609.215	-15.967	0.211	-0.137
-608.201	214.751	0.145	-0.234
-607.186	-132.726	0.108	0.014
-606.171	32.917	-0.051	0.045
-605.157	-120.816	0.129	-0.022
-604.142	314.986	-0.056	-0.108
-603.128	-36.585	-0.213	-0.117
-602.113	13.129	-0.220	-0.173
-601.098	-93.629	0.169	0.047
-600.084	-89.506	0.580	0.173
-599.069	-0.213	0.364	-0.263
-598.055	-33.868	-0.197	0.110
-597.040	4.207	-0.011	-0.008
-596.025	61.854	0.197	0.199
-595.011	800.000	-0.115	0.343
-593.996	-161.547	-0.183	0.010
-592.982	800.000	0.024	-0.073
-591.967	-200.000	0.011	-0.099
-590.952	96.634	0.124	-0.145
-589.938	800.000	0.076	-0.236
-588.923	10.528	-0.171	-0.133
-587.909	800.000	0.051	-0.170
-586.894	-194.647	0.483	0.004
-585.879	105.285	0.154	-0.185
-584.865	-74.962	0.331	-0.120
-583.850	197.546	0.089	0.139
-582.836	68.418	-0.189	0.197
-581.821	-130.166	0.398	0.055
-580.806	-200.000	-0.003	0.091
-579.792	800.000	0.105	-0.349
-578.777	614.764	-0.009	-0.022
-577.763	-200.000	0.044	0.292
-576.748	136.722	-0.065	0.087
-575.733	-84.858	0.044	-0.014
-574.719	-16.278	-0.130	-0.084
-573.704	-169.849	0.129	-0.005
-572.690	800.000	0.017	-0.054
-571.675	76.392	-0.173	-0.186
-570.661	17.875	-0.173	-0.140
-569.646	-43.486	-0.191	0.098
-568.631	-17.883	-0.166	-0.106
-567.617	-64.062	0.084	0.035
-566.602	13.932	0.156	0.123
-565.588	265.630	0.090	0.160
-564.573	430.597	-0.175	0.384
-563.558	23.441	-0.105	0.088
-562.544	93.740	-0.153	-0.175
-561.529	-164.405	-0.076	-0.004
-560.515	-38.846	0.098	0.053
-559.500	467.694	0.084	0.190
-558.485	40.799	0.232	-0.212
-557.471	-71.237	0.132	0.050
-556.456	-70.103	0.263	0.101
-555.442	-122.964	-0.101	-0.017
-554.427	643.490	0.113	0.292
-553.412	-27.422	-0.275	-0.162
-552.398	-200.000	0.003	0.160
-551.383	-15.201	-0.263	-0.171
-550.369	-61.538	0.223	0.095
-549.354	-126.764	-0.407	0.061
-548.339	800.000	-0.033	0.120
-547.325	-200.000	-0.001	0.010
-546.310	244.211	-0.110	-0.186
-545.296	111.459	0.195	0.238
-544.281	246.422	0.165	0.282
-543.266	18.632	-0.327	0.265
-542.252	-75.750	-0.330	0.119
-541.237	98.292	0.276	-0.322
-540.223	249.294	0.145	0.249
-539.208	800.000	0.046	0.139
-538.193	-29.740	-0.141	0.082
-537.179	499.837	-0.124	-0.290
-536.164	18.205	0.348	0.281
-535.150	-72.709	-0.331	0.124
-534.135	692.576	0.081	-0.214
-533.121	-110.992	-0.338	-0.070
-532.106	-106.808	0.004	-0.001
-531.091	800.000	-0.068	-0.277
-530.077	-33.082	0.138	0.077
-529.062	9.502	-0.442	-0.339
-528.048	-200.000	-0.012	0.117
-527.033	1.689	0.180	0.131
-526.018	800.000	0.042	-0.177
-525.004	25.665	0.094	-0.079
-523.989	269.451	0.063	-0.113
-522.975	74.897	-0.053	-0.056
-521.960	-38.669	-0.119	-0.063
-520.945	800.000	-0.040	-0.167
-519.931	36.860	0.285	-0.255
-518.916	418.522	-0.087	-0.188
-517.902	121.667	0.038	-0.048
-516.887	415.318	0.120	0.259
-515.872	552.888	0.050	-0.121
-514.858	104.478	0.313	-0.374
-513.843	73.827	-0.103	-0.109
-512.829	616.961	0.074	-0.188
-511.814	-200.000	0.017	-0.300
-510.799	800.000	-0.032	0.130
-509.785	800.000	-0.125	-0.436
-508.770	407.410	0.053	-0.114
-507.756	-72.403	-0.416	0.156
-506.741	-169.247	0.109	0.004
-505.726	47.765	-0.066	-0.062
-504.712	4.615	0.266	0.198
-503.697	-200.000	-0.022	-0.216
-502.683	-83.370	-0.173	0.056
-501.668	28.235	-0.224	0.191
-500.653	16.633	0.175	0.140
-499.639	-36.350	0.151	-0.083
-498.624	146.510	-0.182	0.248
-497.610	315.825	0.023	-0.043
-496.595	300.965	0.049	0.091
-495.581	-200.000	0.007	-0.236
-494.566	181.217	0.014	-0.021
-493.551	-32.529	-0.207	-0.117
-492.537	319.620	-0.213	0.409
-491.522	101.040	0.163	0.192
-490.508	-120.824	0.239	0.041
-489.493	-52.981	0.468	0.218
-488.478	-161.920	-0.112	-0.006
-487.464	-200.000	-0.001	-0.259
-486.449	-110.393	-0.179	0.038
-485.435	238.795	-0.104	0.174
-484.420	-110.363	0.192	0.040
-483.405	-152.386	-0.273	0.020
-482.391	-200.000	0.034	-0.324
-481.376	16.657	0.189	-0.151
-480.362	-200.000	0.011	-0.140
-479.347	-69.888	0.025	-0.010
-478.332	174.722	-0.146	0.213
-477.318	307.892	0.056	-0.105
-476.303	-86.770	0.311	-0.096
-475.289	-12.847	-0.128	0.084
-474.274	125.719	-0.131	0.167
-473.259	-9.329	-0.076	0.052
-472.245	67.582	-0.141	-0.146
-471.230	-138.644	-0.334	-0.037
-470.216	-53.189	-0.018	-0.008
-469.201	-42.382	0.060	0.031
-468.186	-200.000	-0.057	0.431
-467.172	55.095	-0.060	-0.059
-466.157	468.184	-0.163	-0.370
-465.143	-16.207	-0.240	0.154
-464.128	-17.370	0.386	-0.246
-463.113	8.868	0.269	-0.205
-462.099	800.000	0.112	-0.347
-461.084	41.943	-0.068	0.063
-460.070	-109.262	0.469	-0.100
-459.055	-200.000	0.030	-0.139
-458.040	-76.012	0.187	-0.067
-457.026	-200.000	-0.001	-0.125
-456.011	488.261	0.085	-0.195
-454.997	-85.530	0.273	0.086
-453.982	-117.237	-0.284	-0.052
-452.968	-200.000	-0.002	0.262
-451.953	-200.000	-0.053	0.424
-450.938	28.069	0.191	-0.163
-449.924	-200.000	0.030	0.329
-448.909	78.104	0.155	-0.167
-447.895	203.157	0.041	-0.064
-446.880	-36.886	0.217	0.118
-445.865	9.834	-0.144	0.111
-444.851	539.466	-0.201	0.482
-443.836	800.000	0.077	0.342
-442.822	-167.146	0.054	-0.002
-441.807	507.367	0.094	-0.221
-440.792	136.569	-0.111	0.147
-439.778	-5.583	0.157	0.109
-438.763	116.334	0.148	-0.183
-437.749	-47.830	-0.025	-0.012
-436.734	435.614	0.074	-0.162
-435.719	-200.000	-0.007	-0.201
-434.705	-200.000	-0.039	0.358
-433.690	-62.279	0.121	0.051
-432.676	800.000	0.049	-0.154
-431.661	-200.000	-0.011	0.097
-430.646	397.504	-0.073	-0.154
-429.632	-118.255	-0.209	0.038
-428.617	-51.773	0.227	0.107
-427.603	313.508	0.120	-0.228
-426.588	80.039	0.076	-0.083
-425.573	53.317	0.068	-0.066
-424.559	-5.697	-0.277	-0.191
-423.544	-118.280	0.066	0.012
-422.530	-72.528	0.142	-0.053
-421.515	584.515	0.073	0.181
-420.500	513.221	0.092	0.217
-419.486	-48.935	-0.446	-0.215
-418.471	-99.591	-0.526	0.133
-417.457	800.000	-0.040	0.127
-416.442	79.867	0.116	-0.126
-415.428	800.000	-0.097	-0.327
-414.413	-172.917	0.100	0.003
-413.398	296.226	0.089	0.165
-412.384	-25.245	-0.143	-0.085
-411.369	79.533	0.228	-0.247
-410.355	-75.665	-0.329	-0.118
-409.340	287.168	-0.059	-0.107
-408.325	278.724	-0.138	-0.247
-407.311	38.469	-0.116	-0.104
-406.296	33.263	0.291	0.255
-405.282	-106.597	-0.107	-0.024
-404.267	-200.000	-0.011	0.219
-403.252	490.644	0.217	0.500
-402.238	4.515	0.331	-0.245
-401.223	-200.000	0.020	0.234
-400.209	-13.281	-0.150	0.098
-399.194	115.507	0.289	-0.355
-398.179	55.540	-0.107	0.104
-397.165	-200.000	0.035	0.446
-396.150	800.000	-0.118	-0.375
-395.136	800.000	-0.120	0.400
-394.121	-79.496	-0.115	0.039
-393.106	-161.616	0.036	-0.002
-392.092	-94.536	0.070	0.019
-391.077	199.947	-0.098	-0.151
-390.063	160.799	0.136	-0.192
-389.048	75.949	-0.137	-0.146
-388.033	-176.224	-0.281	-0.007
-387.019	672.701	-0.094	-0.246
-386.004	26.143	0.048	-0.040
-384.990	-27.512	-0.296	0.173
-383.975	22.817	-0.113	-0.094
-382.960	271.152	0.131	0.232
-381.946	-5.274	-0.369	0.256
-380.931	800.000	0.128	-0.383
-379.917	229.795	-0.074	0.122
-378.902	-200.000	0.031	-0.177
-377.888	-192.341	0.063	0.001
-376.873	-57.435	0.153	0.068
-375.858	68.600	0.079	-0.082
-374.844	-181.335	-0.160	0.003
-373.829	800.000	-0.055	-0.208
-372.815	409.454	0.109	-0.232
-371.800	173.124	0.065	0.094
-370.785	1.672	-0.250	-0.181
-369.771	-14.006	-0.066	-0.043
-368.756	-55.198	0.058	0.026
-367.742	800.000	-0.063	-0.249
-366.727	800.000	0.070	0.274
-365.712	-108.009	0.244	0.053
-364.698	-72.345	-0.101	0.038
-363.683	30.014	-0.121	-0.104
-362.669	213.739	-0.128	0.204
-361.654	503.202	0.024	-0.055
-360.639	69.042	0.212	-0.220
-359.625	143.473	0.255	-0.341
-358.610	-29.643	0.173	0.099
-357.596	-46.075	0.091	0.045
-356.581	656.849	0.034	-0.087
-355.566	-24.383	-0.138	0.083
-354.552	-97.359	0.070	-0.018
-353.537	-32.867	0.196	0.110
-352.523	-25.713	-0.072	0.043
-351.508	-68.621	-0.317	-0.124
-350.493	-151.207	0.352	-0.026
-349.479	-83.438	-0.242	0.078
-348.464	86.315	-0.282	-0.312
-347.450	126.846	-0.247	-0.315
-346.435	-78.471	-0.093	-0.032
-345.420	-89.433	0.343	-0.102
-344.406	215.760	0.041	0.066
-343.391	26.866	-0.091	-0.077
-342.377	108.803	0.292	0.351
-341.362	-117.419	0.238	0.043
-340.348	-200.000	0.005	-0.368
-339.333	-200.000	0.044	0.200
-338.318	800.000	-0.038	-0.142
-337.304	-24.417	0.086	-0.051
-336.289	544.111	0.101	0.242
-335.275	19.612	-0.226	0.183
-334.260	320.481	-0.065	-0.123
-333.245	-43.345	0.078	0.040
-332.231	-26.034	-0.172	-0.102
-331.216	800.000	0.081	-0.335
-330.202	800.000	-0.032	0.090
-329.187	-120.192	0.225	-0.039
-328.172	89.087	0.216	-0.242
-327.158	800.000	-0.104	0.297
-326.143	800.000	0.051	-0.184
-325.129	133.686	-0.200	0.260
-324.114	-80.788	-0.106	-0.035
-323.099	-200.000	0.108	0.620
-322.085	297.375	0.121	-0.224
-321.070	-200.000	-0.007	-0.152
-320.056	-145.909	-0.219	0.019
-319.041	573.123	-0.125	-0.305
-318.026	-200.000	0.066	0.411
-317.012	-200.000	-0.435	-0.001
-315.997	280.343	0.142	0.256
-314.983	-112.276	-0.157	-0.032
-313.968	313.217	-0.137	-0.259
-312.953	100.697	0.059	-0.069
-311.939	800.000	0.137	0.427
-310.924	62.004	-0.207	0.207
-309.910	-55.771	0.291	-0.130
-308.895	100.294	-0.224	-0.261
-307.880	-12.606	0.170	-0.111
-306.866	-200.000	-0.005	-0.029
-305.851	-91.938	-0.048	0.014
-304.837	-84.354	0.243	0.077
-303.822	800.000	-0.051	-0.220
-302.807	-200.000	0.007	0.115
-301.793	-200.000	-0.024	0.110
-300.778	800.000	-0.143	0.471
-299.764	321.269	-0.277	0.529
-298.749	254.119	-0.067	-0.115
-297.735	-200.000	0.028	-0.212
-296.720	-115.582	0.278	-0.052
-295.705	-25.667	0.117	0.069
-294.691	-123.390	0.209	0.033
-293.676	-60.698	0.350	-0.149
-292.662	-200.000	0.031	0.191
-291.647	211.921	0.008	-0.012
-290.632	-200.000	-0.000	0.042
-289.618	-17.444	-0.255	0.161
-288.603	107.652	0.196	-0.235
-287.589	170.484	0.132	-0.190
-286.574	432.672	0.051	0.110
-285.559	800.000	0.036	0.146
-284.545	-95.036	-0.147	0.040
-283.530	-41.486	-0.159	0.082
-282.516	23.598	0.124	0.102
-281.501	-200.000	-0.021	0.134
-280.486	373.675	0.059	-0.120
-279.472	-200.000	0.039	0.264
-278.457	-6.686	-0.131	0.089
-277.443	-49.982	0.102	-0.049
-276.428	-154.536	0.173	-0.012
-275.413	30.617	0.120	0.103
-274.399	-118.232	-0.270	0.048
-273.384	-14.620	0.257	-0.165
-272.370	-18.324	0.296	0.185
-271.355	-200.000	-0.012	-0.181
-270.340	-107.943	-0.486	-0.106
-269.326	49.327	0.038	0.036
-268.311	-71.922	0.267	-0.099
-267.297	10.067	-0.086	-0.066
-266.282	-114.820	-0.105	-0.020
-265.267	-162.535	0.367	0.018
-264.253	-155.016	0.336	-0.022
-263.238	128.932	0.019	0.025
-262.224	52.159	-0.165	0.157
-261.209	73.866	-0.236	0.248
-260.195	-81.664	0.109	-0.036
-259.180	-200.000	-0.004	0.177
-258.165	-136.082	-0.145	-0.017
-257.151	800.000	0.106	-0.367
-256.136	-200.000	0.052	0.337
-255.122	-200.000	-0.015	-0.212
-254.107	135.984	0.130	0.170
-253.092	-200.000	0.004	0.419
-252.078	-200.000	-0.056	-0.368
-251.063	327.053	0.193	0.370
-250.049	-100.066	0.560	0.140
-249.034	-200.000	0.002	0.333
-248.019	-200.000	0.017	0.104
-247.005	15.529	-0.199	0.156
-245.990	-200.000	0.017	0.202
-244.976	108.974	0.183	0.219
-243.961	-11.196	-0.078	-0.052
-242.946	513.298	-0.157	-0.366
-241.932	800.000	0.043	0.181
-240.917	-66.876	-0.202	0.080
-239.903	-30.982	-0.207	0.117
-238.888	800.000	-0.027	0.104
-237.873	-98.277	0.422	-0.109
-236.859	140.062	0.181	-0.239
-235.844	499.878	-0.065	-0.151
-234.830	-116.188	-0.246	0.046
-233.815	800.000	-0.139	0.547
-232.800	-180.557	-0.055	-0.001
-231.786	14.945	0.172	-0.134
-230.771	-85.519	-0.180	-0.056
-229.757	110.788	-0.053	0.063
-228.742	340.323	0.131	-0.256
-227.727	-77.929	-0.254	-0.088
-226.713	-200.000	-0.026	0.394
-225.698	800.000	0.041	-0.179
-224.684	174.250	-0.021	-0.030
-223.669	-121.228	-0.082	-0.014
-222.655	-123.441	-0.161	-0.026
-221.640	-114.186	0.196	0.038
-220.625	-8.541	0.117	-0.079
-219.611	110.075	0.076	0.092
-218.596	-118.444	0.251	-0.045
-217.582	-109.213	-0.062	-0.013
-216.567	-5.614	0.100	-0.068
-215.552	800.000	0.011	-0.036
-214.538	-99.414	0.345	-0.087
-213.523	-72.547	0.342	-0.126
-212.509	23.729	-0.209	-0.172
-211.494	800.000	-0.033	0.108
-210.479	-175.715	0.019	0.000
-209.465	-94.020	-0.113	-0.031
-208.450	449.662	0.072	-0.159
-207.436	800.000	-0.017	0.066
-206.421	-16.786	-0.334	0.212
-205.406	271.137	-0.069	0.121
-204.392	10.702	0.135	0.103
-203.377	-200.000	0.027	0.277
-202.363	-65.806	0.223	-0.089
-201.348	-72.754	0.210	-0.077
-200.333	25.246	-0.136	0.113
-199.319	-76.227	0.143	-0.050
-198.304	-43.083	-0.133	-0.067
-197.290	38.391	0.086	0.077
-196.275	800.000	0.063	0.220
-195.260	-135.113	-0.308	0.037
-194.246	800.000	-0.071	-0.223
-193.231	-200.000	-0.030	-0.213
-192.217	800.000	-0.065	-0.212
-191.202	-127.926	0.078	-0.011
-190.187	-110.686	0.469	0.097
-189.173	63.655	-0.187	0.187
-188.158	-64.916	0.160	0.065
-187.144	288.841	-0.131	0.237
-186.129	-154.482	-0.205	-0.014
-185.114	-146.652	-0.356	0.031
-184.100	437.934	0.093	-0.202
-183.085	52.990	-0.069	0.066
-182.071	100.615	0.146	-0.169
-181.056	-200.000	-0.000	0.021
-180.042	-99.649	-0.185	-0.046
-179.027	-158.495	0.357	-0.021
-178.012	-105.022	0.043	-0.010
-176.998	566.360	-0.123	-0.299
-175.983	-50.175	-0.198	-0.094
-174.969	6.956	-0.177	-0.132
-173.954	238.045	-0.132	0.219
-172.939	-81.175	-0.320	0.106
-171.925	27.546	0.134	0.113
-170.910	-200.000	0.037	0.537
-169.896	-138.705	-0.434	0.047
-168.881	-97.783	0.244	0.063
-167.866	-139.279	-0.195	-0.021
-166.852	94.744	-0.217	-0.246
-165.837	-113.020	-0.265	-0.052
-164.823	-139.182	0.332	-0.036
-163.808	800.000	-0.107	-0.422
-162.793	-55.615	-0.392	-0.175
-161.779	-200.000	-0.035	0.196
-160.764	-67.194	-0.132	-0.052
-159.750	-129.188	-0.188	0.026
-158.735	74.564	0.145	-0.152
-157.720	-200.000	-0.071	0.388
-156.706	-147.129	-0.231	0.020
-155.691	-200.000	0.009	0.064
-154.677	-200.000	0.039	0.261
-153.662	204.183	-0.109	0.169
-152.647	-200.000	0.018	-0.261
-151.633	347.855	0.233	0.459
-150.618	-105.958	0.126	-0.028
-149.604	-46.971	-0.185	0.090
-148.589	-107.949	0.269	0.058
-147.574	-129.736	0.001	0.000
-146.560	-9.608	-0.212	-0.141
-145.545	112.561	0.242	0.293
-144.531	13.770	-0.200	-0.155
-143.516	800.000	-0.143	0.514
-142.502	-200.000	0.005	-0.374
-141.487	800.000	-0.055	-0.218
-140.472	9.641	-0.062	-0.047
-139.458	-166.979	0.213	-0.009
-138.443	-136.825	0.264	-0.030
-137.429	-152.331	-0.240	0.017
-136.414	-200.000	0.015	0.270
-135.399	310.489	0.241	0.450
-134.385	237.432	0.052	0.086
-133.370	57.318	0.093	0.090
-132.356	-200.000	0.021	0.233
-131.341	95.550	0.360	0.409
-130.326	-200.000	-0.037	0.204
-129.312	-200.000	0.084	-0.403
-128.297	800.000	-0.011	0.034
-127.283	146.848	-0.187	0.251
-126.268	-105.674	0.183	-0.041
-125.253	-200.000	0.000	0.020
-124.239	134.088	0.170	-0.220
-123.224	-200.000	0.031	0.379
-122.210	179.246	-0.219	0.319
-121.195	-149.183	-0.057	-0.005
