DTS Sentinel unit serial number:	SN413079Multiplexer serial number:	ORYXHardware model number:	OX4-SRSoftware version number:	ORYX F/W v4.00 Oryx Data Collector v3.7.2.0data status	okinstallation	princeton_trtdifferential loss correction	single-endedforward channel	channel 2reverse channel	N/Adate	2019/09/11time	02:09:11forward acquisition time	60.00reverse acquisition time	0.00gamma	496.2192k internal	0.2332k external	0.2332temperature offset calibration	0.9945default loss term (dB/km)	0.3790temperature slope calibration	1.0000multiplexer offset coefficient	1.0000multiplexer slope coefficient	1.0000fibre end	0.00T internal ref (°C)	29.19T ext. ref 1 (°C)	-0.29T ext. ref 2 (°C)	23.16length (m)	temperature (°C)	Stokes	anti-Stokes-747.200	-155.059	0.079	0.005
-746.185	-14.093	-0.400	0.260
-745.171	-141.324	-0.305	0.031
-744.156	47.533	0.199	0.187
-743.142	87.978	0.257	0.286
-742.127	316.722	-0.187	0.356
-741.112	184.481	-0.107	-0.159
-740.098	-200.000	-0.001	-0.039
-739.083	-111.615	0.039	0.008
-738.069	140.600	-0.086	-0.115
-737.054	-72.340	-0.365	0.136
-736.039	800.000	-0.057	-0.195
-735.025	800.000	0.069	0.216
-734.010	46.880	-0.276	0.258
-732.996	-149.411	-0.097	0.008
-731.981	-60.500	-0.360	-0.154
-730.966	-200.000	0.013	0.169
-729.952	304.966	0.222	0.415
-728.937	-200.000	0.015	0.202
-727.923	-89.123	0.344	-0.102
-726.908	-58.694	-0.205	0.089
-725.894	362.024	-0.115	-0.232
-724.879	112.147	0.076	-0.092
-723.864	800.000	-0.040	0.133
-722.850	52.111	0.070	-0.067
-721.835	-84.551	-0.161	-0.051
-720.821	-49.467	-0.145	-0.070
-719.806	444.606	0.123	-0.272
-718.791	-72.733	-0.265	-0.098
-717.777	348.180	-0.119	-0.237
-716.762	471.921	0.079	-0.179
-715.748	86.053	-0.091	-0.101
-714.733	37.454	0.065	-0.058
-713.718	-200.000	0.011	-0.207
-712.704	-60.003	-0.231	0.099
-711.689	800.000	0.044	-0.167
-710.675	-171.723	0.239	0.008
-709.660	-5.181	0.207	-0.143
-708.645	625.458	-0.154	0.390
-707.631	-200.000	-0.001	-0.051
-706.616	218.923	-0.223	-0.358
-705.602	-200.000	-0.011	-0.178
-704.587	312.151	-0.039	0.073
-703.572	800.000	-0.160	0.473
-702.558	-200.000	-0.001	-0.317
-701.543	-20.391	-0.299	-0.185
-700.529	187.037	0.100	-0.150
-699.514	800.000	-0.069	0.281
-698.499	-134.807	-0.058	0.007
-697.485	89.738	0.181	-0.202
-696.470	113.611	-0.217	-0.265
-695.456	-47.070	0.191	-0.094
-694.441	-56.331	0.135	-0.060
-693.426	246.722	-0.119	-0.201
-692.412	-97.607	0.109	-0.028
-691.397	164.924	0.128	0.182
-690.383	-80.214	-0.443	0.149
-689.368	800.000	0.083	0.249
-688.354	585.481	-0.044	0.108
-687.339	800.000	0.032	0.123
-686.324	-99.901	-0.326	0.082
-685.310	-60.737	0.208	0.088
-684.295	800.000	-0.123	-0.414
-683.281	278.975	-0.093	-0.167
-682.266	800.000	0.063	-0.227
-681.251	278.480	-0.154	-0.275
-680.237	248.084	-0.096	-0.162
-679.222	449.490	0.118	-0.261
-678.208	-119.321	0.141	0.025
-677.193	-14.660	0.171	0.110
-676.178	59.681	-0.203	-0.201
-675.164	14.735	-0.176	0.138
-674.149	-126.940	-0.107	-0.016
-673.135	404.892	-0.121	-0.255
-672.120	-78.444	0.142	-0.049
-671.105	-60.594	0.187	0.080
-670.091	109.620	-0.095	0.114
-669.076	-200.000	0.010	-0.210
-668.062	46.765	-0.171	-0.160
-667.047	-96.981	-0.140	0.037
-666.032	101.099	-0.250	-0.292
-665.018	-198.682	-0.155	0.001
-664.003	53.088	-0.241	-0.231
-662.989	98.374	-0.177	-0.204
-661.974	30.695	-0.186	-0.160
-660.959	-37.241	-0.016	0.008
-659.945	-36.060	0.170	-0.092
-658.930	73.966	0.138	-0.145
-657.916	-88.629	-0.197	0.059
-656.901	-173.288	-0.210	-0.006
-655.886	-200.000	-0.057	-0.252
-654.872	-26.596	-0.252	0.148
-653.857	641.181	0.032	-0.082
-652.843	-200.000	0.057	-0.255
-651.828	345.653	-0.020	-0.040
-650.814	239.499	-0.119	-0.198
-649.799	-50.946	-0.125	0.059
-648.784	-200.000	0.060	0.351
-647.770	80.293	0.191	-0.206
-646.755	333.851	-0.068	-0.132
-645.741	-200.000	0.019	0.248
-644.726	800.000	0.008	-0.027
-643.711	299.189	-0.029	0.054
-642.697	40.611	-0.158	0.143
-641.682	-179.268	0.079	-0.002
-640.668	67.596	-0.140	-0.143
-639.653	210.556	-0.159	0.250
-638.638	98.468	-0.068	0.078
-637.624	619.698	0.089	-0.225
-636.609	-169.119	0.402	0.015
-635.595	800.000	0.044	-0.136
-634.580	7.832	0.143	0.107
-633.565	-200.000	0.010	-0.130
-632.551	-97.617	0.153	0.040
-631.536	2.915	-0.272	-0.198
-630.522	-200.000	-0.003	-0.101
-629.507	351.241	-0.186	-0.369
-628.492	-200.000	0.023	-0.237
-627.478	-96.294	0.030	0.008
-626.463	-74.840	0.138	-0.049
-625.449	-132.762	-0.130	-0.017
-624.434	-13.042	-0.188	-0.122
-623.419	-200.000	0.032	-0.258
-622.405	-200.000	0.029	-0.221
-621.390	800.000	-0.076	-0.251
-620.376	178.387	-0.159	-0.233
-619.361	-200.000	0.043	-0.193
-618.346	50.136	-0.195	-0.184
-617.332	379.475	-0.030	0.062
-616.317	221.884	-0.096	-0.154
-615.303	44.868	0.112	0.103
-614.288	2.080	-0.126	0.091
-613.273	-83.155	-0.252	0.081
-612.259	726.228	-0.006	0.016
-611.244	-200.000	0.011	0.071
-610.230	-20.434	-0.161	0.099
-609.215	-200.000	-0.041	-0.190
-608.201	-189.341	0.352	0.004
-607.186	-200.000	-0.066	0.354
-606.171	8.271	-0.344	-0.258
-605.157	800.000	-0.059	-0.198
-604.142	-200.000	-0.008	-0.081
-603.128	131.158	0.079	-0.102
-602.113	210.167	-0.261	-0.410
-601.098	-11.056	-0.155	-0.102
-600.084	147.749	0.061	-0.082
-599.069	34.131	-0.361	-0.315
-598.055	33.871	-0.040	0.035
-597.040	6.577	0.049	-0.037
-596.025	-200.000	-0.061	0.384
-595.011	800.000	-0.048	-0.181
-593.996	-84.512	-0.091	0.029
-592.982	50.824	0.208	-0.197
-591.967	800.000	-0.021	-0.070
-590.952	-87.720	0.304	0.092
-589.938	-84.656	0.218	-0.069
-588.923	-37.492	-0.332	0.177
-587.909	-51.595	-0.122	-0.057
-586.894	52.479	-0.151	0.144
-585.879	-200.000	-0.067	0.480
-584.865	-78.894	-0.179	0.061
-583.850	-200.000	-0.073	-0.322
-582.836	-6.823	-0.176	-0.119
-581.821	335.354	0.218	-0.422
-580.806	345.353	-0.068	0.134
-579.792	-108.180	-0.324	0.070
-578.777	-200.000	0.038	-0.187
-577.763	-151.716	0.236	-0.017
-576.748	-200.000	0.002	0.176
-575.733	-148.433	-0.201	0.016
-574.719	-46.293	-0.327	-0.161
-573.704	103.766	-0.081	-0.095
-572.690	53.616	0.190	0.182
-571.675	-48.946	-0.171	-0.082
-570.661	-125.671	-0.154	0.023
-569.646	-134.553	-0.175	0.021
-568.631	800.000	-0.161	0.469
-567.617	800.000	0.071	0.294
-566.602	-200.000	-0.031	0.432
-565.588	-86.911	0.121	-0.037
-564.573	-200.000	-0.001	-0.380
-563.558	116.104	0.275	-0.337
-562.544	243.120	-0.042	0.071
-561.529	-134.096	0.291	-0.036
-560.515	-26.124	0.129	0.075
-559.500	-200.000	-0.040	0.245
-558.485	-102.238	0.151	0.036
-557.471	-54.973	-0.189	-0.085
-556.456	-78.274	0.071	-0.024
-555.442	59.124	-0.105	0.104
-554.427	125.408	0.201	-0.253
-553.412	800.000	-0.064	0.201
-552.398	-66.588	-0.276	0.109
-551.383	-200.000	0.026	0.122
-550.369	-77.304	0.293	0.102
-549.354	800.000	0.041	-0.133
-548.339	52.627	-0.147	-0.140
-547.325	-36.741	-0.108	0.058
-546.310	-10.235	0.165	-0.110
-545.296	800.000	-0.033	-0.095
-544.281	-103.059	0.137	0.032
-543.266	-133.109	-0.405	-0.051
-542.252	-200.000	0.005	-0.076
-541.237	-200.000	0.012	0.376
-540.223	-200.000	-0.004	0.132
-539.208	-61.343	-0.278	-0.117
-538.193	62.784	-0.234	-0.233
-537.179	-126.778	0.417	-0.062
-536.164	-146.083	-0.126	-0.011
-535.150	-200.000	-0.060	0.295
-534.135	538.485	0.053	0.126
-533.121	-15.733	-0.036	0.023
-532.106	-98.378	-0.236	-0.060
-531.091	57.731	-0.244	-0.239
-530.077	-86.105	0.277	-0.085
-529.062	-200.000	-0.041	-0.252
-528.048	159.120	-0.055	0.077
-527.033	-75.154	-0.152	0.054
-526.018	-80.244	0.130	0.043
-525.004	455.297	-0.119	-0.262
-523.989	800.000	-0.050	-0.190
-522.975	16.034	-0.295	-0.232
-521.960	96.711	-0.066	0.076
-520.945	800.000	-0.118	0.367
-519.931	-65.937	0.301	-0.120
-518.916	-70.377	0.236	0.089
-517.902	78.192	-0.072	-0.077
-516.887	-95.922	-0.105	-0.028
-515.872	438.037	-0.073	0.158
-514.858	681.484	-0.112	-0.290
-513.843	-39.077	0.246	0.129
-512.829	-153.287	0.416	0.029
-511.814	-200.000	-0.022	0.120
-510.799	-200.000	0.002	0.248
-509.785	-72.466	-0.189	-0.069
-508.770	-140.445	0.203	-0.021
-507.756	421.792	-0.059	0.127
-506.741	398.350	0.057	0.119
-505.726	54.347	0.210	-0.201
-504.712	-178.986	0.206	-0.005
-503.697	371.144	-0.061	-0.123
-502.683	-167.465	0.033	0.001
-501.668	-163.129	-0.121	0.006
-500.653	-79.850	-0.150	0.050
-499.639	311.124	0.089	-0.166
-498.624	-151.912	-0.125	-0.009
-497.610	800.000	0.021	-0.089
-496.595	-65.646	-0.104	0.041
-495.581	80.265	0.026	0.028
-494.566	-2.286	-0.170	0.119
-493.551	82.160	0.103	0.111
-492.537	-7.437	-0.110	-0.074
-491.522	124.883	-0.132	-0.166
-490.508	-200.000	0.070	0.000
-489.493	-77.997	0.174	0.060
-488.478	189.409	-0.082	-0.122
-487.464	434.009	-0.062	0.134
-486.449	-200.000	0.012	-0.213
-485.435	-23.258	0.310	-0.185
-484.420	-74.918	0.089	0.032
-483.405	154.519	-0.148	-0.203
-482.391	-200.000	0.045	-0.204
-481.376	20.519	0.066	-0.053
-480.362	-200.000	-0.017	0.181
-479.347	-99.422	0.108	0.027
-478.332	165.338	0.156	0.219
-477.318	-18.251	0.089	0.056
-476.303	677.526	-0.054	0.140
-475.289	86.375	0.169	0.186
-474.274	38.943	0.074	0.066
-473.259	-56.067	0.061	0.027
-472.245	212.197	0.323	-0.507
-471.230	-48.532	0.168	-0.081
-470.216	234.974	0.062	0.102
-469.201	87.865	-0.147	-0.162
-468.186	375.593	-0.101	-0.205
-467.172	-59.355	0.283	-0.121
-466.157	-150.960	-0.223	0.017
-465.143	44.323	0.084	-0.076
-464.128	-141.084	0.046	0.005
-463.113	-200.000	-0.036	0.270
-462.099	-47.725	0.215	-0.104
-461.084	68.183	-0.029	0.030
-460.070	15.979	0.148	0.116
-459.055	68.767	0.162	-0.166
-458.040	800.000	0.071	-0.204
-457.026	-156.596	-0.157	0.010
-456.011	800.000	-0.050	0.176
-454.997	-200.000	-0.042	0.198
-453.982	800.000	-0.030	-0.107
-452.968	235.612	-0.172	-0.283
-451.953	56.680	0.148	-0.143
-450.938	-2.689	0.126	-0.088
-449.924	-30.199	0.030	0.017
-448.909	622.628	-0.074	-0.187
-447.895	117.103	0.196	-0.239
-446.880	-200.000	0.017	-0.208
-445.865	4.588	-0.317	0.232
-444.851	60.715	-0.168	0.165
-443.836	-200.000	-0.040	0.188
-442.822	800.000	0.029	0.083
-441.807	-132.632	0.141	0.018
-440.792	-113.242	-0.357	-0.070
-439.778	-104.397	-0.216	-0.050
-438.763	323.769	-0.121	0.229
-437.749	161.784	0.109	-0.152
-436.734	-81.020	-0.436	0.143
-435.719	-91.688	0.388	-0.110
-434.705	94.177	-0.135	-0.152
-433.690	354.044	0.081	0.160
-432.676	-69.384	0.195	0.074
-431.661	54.659	-0.132	-0.126
-430.646	800.000	0.076	0.304
-429.632	-91.344	0.218	0.062
-428.617	243.437	-0.204	0.339
-427.603	697.997	0.104	-0.271
-426.588	144.356	-0.241	0.319
-425.573	44.623	0.173	-0.158
-424.559	-62.859	0.263	-0.108
-423.544	-200.000	0.010	0.284
-422.530	64.177	0.386	0.386
-421.515	402.768	-0.076	0.159
-420.500	-16.494	0.083	-0.052
-419.486	286.629	-0.204	-0.366
-418.471	203.465	0.091	-0.140
-417.457	-108.397	0.193	-0.041
-416.442	-80.261	0.178	0.059
-415.428	-49.615	0.179	-0.085
-414.413	241.238	0.164	0.272
-413.398	800.000	0.058	0.212
-412.384	-200.000	-0.057	0.324
-411.369	-143.014	0.195	0.019
-410.355	800.000	0.016	-0.050
-409.340	255.673	0.044	0.075
-408.325	-198.595	0.138	0.001
-407.311	-24.522	-0.529	0.313
-406.296	32.584	-0.137	0.117
-405.282	99.142	-0.120	0.138
-404.267	320.278	0.133	0.251
-403.252	-97.238	0.166	-0.043
-402.238	-200.000	0.011	0.209
-401.223	102.078	0.023	-0.026
-400.209	144.909	-0.115	0.153
-399.194	3.033	0.303	0.219
-398.179	16.204	-0.206	-0.161
-397.165	-173.586	0.074	0.002
-396.150	-200.000	-0.027	-0.235
-395.136	-200.000	-0.072	-0.326
-394.121	-200.000	-0.013	-0.151
-393.106	-200.000	-0.001	-0.093
-392.092	-180.511	0.248	0.005
-391.077	-167.638	0.513	-0.020
-390.063	255.947	0.091	0.155
-389.048	51.081	-0.038	0.036
-388.033	361.179	0.092	-0.184
-387.019	-160.554	-0.208	-0.011
-386.004	366.349	0.027	0.054
-384.990	800.000	0.100	0.318
-383.975	49.530	0.444	-0.415
-382.960	-194.017	-0.088	0.001
-381.946	-100.264	0.126	-0.031
-380.931	-200.000	0.046	-0.279
-379.917	-117.751	-0.292	0.052
-378.902	42.970	-0.154	0.139
-377.888	-200.000	-0.004	-0.091
-376.873	800.000	-0.039	0.165
-375.858	800.000	0.113	-0.326
-374.844	-3.774	0.017	0.012
-373.829	-10.380	-0.180	-0.118
-372.815	-110.423	0.221	-0.045
-371.800	-18.043	0.169	-0.105
-370.785	-28.929	0.087	0.050
-369.771	-72.116	-0.141	0.052
-368.756	103.601	0.259	-0.302
-367.742	587.944	-0.031	-0.076
-366.727	275.032	-0.131	0.231
-365.712	-76.950	-0.207	0.072
-364.698	209.565	0.044	0.068
-363.683	800.000	0.078	-0.223
-362.669	-200.000	0.028	0.232
-361.654	28.411	0.111	-0.093
-360.639	79.410	-0.062	-0.066
-359.625	-151.619	0.110	0.008
-358.610	-72.361	0.041	0.015
-357.596	-152.488	-0.186	-0.013
-356.581	-15.365	-0.247	-0.156
-355.566	-5.881	-0.110	0.075
-354.552	-200.000	-0.008	-0.140
-353.537	746.799	-0.100	-0.267
-352.523	-106.459	0.277	0.061
-351.508	40.955	0.338	-0.303
-350.493	-92.284	-0.149	-0.042
-349.479	-200.000	0.022	-0.110
-348.464	-74.438	-0.257	0.092
-347.450	20.044	-0.080	-0.064
-346.435	800.000	-0.095	-0.331
-345.420	-5.619	-0.208	-0.141
-344.406	-193.958	-0.322	0.003
-343.391	94.174	0.154	0.173
-342.377	-200.000	0.004	-0.197
-341.362	3.079	-0.119	-0.085
-340.348	-18.369	-0.359	0.222
-339.333	97.399	-0.086	0.098
-338.318	141.832	-0.247	0.324
-337.304	221.758	-0.028	0.045
-336.289	-106.292	0.104	0.023
-335.275	53.655	0.160	0.152
-334.260	-62.008	-0.394	0.163
-333.245	30.089	0.079	0.066
-332.231	-200.000	-0.018	0.185
-331.216	221.371	-0.249	0.396
-330.202	528.268	-0.031	-0.073
-329.187	102.087	0.061	0.070
-328.172	-81.477	0.192	-0.063
-327.158	286.842	0.186	-0.333
-326.143	-200.000	-0.003	-0.171
-325.129	55.975	0.059	-0.056
-324.114	-200.000	-0.040	0.232
-323.099	-200.000	0.023	0.116
-322.085	-46.780	0.282	-0.137
-321.070	-200.000	0.073	-0.354
-320.056	-124.398	0.234	-0.036
-319.041	-124.180	-0.239	0.037
-318.026	112.603	-0.139	-0.167
-317.012	695.274	0.040	-0.103
-315.997	213.046	-0.075	0.117
-314.983	16.676	-0.232	0.182
-313.968	221.282	-0.020	-0.032
-312.953	-113.907	-0.285	0.055
-311.939	44.749	0.310	-0.282
-310.924	-132.714	0.154	0.019
-309.910	96.159	-0.109	0.123
-308.895	-200.000	0.070	0.370
-307.880	-200.000	0.050	0.322
-306.866	205.278	0.136	0.208
-305.851	8.030	-0.096	0.071
-304.837	19.892	0.116	0.092
-303.822	144.592	0.061	0.081
-302.807	-155.835	0.430	-0.027
-301.793	-152.594	-0.097	-0.007
-300.778	709.105	-0.044	-0.114
-299.764	-34.835	0.363	0.196
-298.749	-72.417	-0.279	0.102
-297.735	-27.290	0.177	-0.102
-296.720	-200.000	0.022	0.136
-295.705	192.486	0.126	0.188
-294.691	659.135	-0.031	0.078
-293.676	-200.000	0.008	0.164
-292.662	800.000	-0.072	-0.218
-291.647	360.429	0.069	-0.137
-290.632	-117.271	0.133	0.024
-289.618	800.000	0.070	0.263
-288.603	559.527	-0.042	0.101
-287.589	-106.891	-0.260	-0.057
-286.574	313.190	-0.023	-0.043
-285.559	-72.133	0.226	0.083
-284.545	172.303	-0.058	-0.083
-283.530	-94.147	0.103	-0.028
-282.516	732.358	0.070	0.186
-281.501	-88.622	-0.224	-0.066
-280.486	-26.325	0.219	0.127
-279.472	119.168	-0.072	-0.088
-278.457	800.000	0.086	-0.251
-277.443	-193.087	-0.031	0.000
-276.428	800.000	0.046	-0.127
-275.413	-200.000	0.090	0.454
-274.399	296.623	-0.094	0.171
-273.384	-20.210	0.045	-0.027
-272.370	-200.000	-0.506	0.002
-271.355	436.040	0.067	0.145
-270.340	8.987	0.197	-0.147
-269.326	9.592	-0.215	-0.161
-268.311	9.873	-0.311	0.233
-267.297	-143.091	0.173	-0.017
-266.282	800.000	-0.154	-0.637
-265.267	39.663	0.263	-0.233
-264.253	-171.317	-0.158	0.005
-263.238	-108.944	-0.193	-0.041
-262.224	-73.900	0.019	-0.007
-261.209	-200.000	0.018	-0.154
-260.195	-2.235	-0.166	0.115
-259.180	-200.000	0.038	-0.470
-258.165	95.512	0.062	-0.069
-257.151	21.578	-0.147	-0.118
-256.136	-200.000	-0.138	-0.000
-255.122	-104.780	0.169	0.038
-254.107	-134.462	0.129	-0.016
-253.092	-68.051	0.261	0.100
-252.078	-85.868	-0.075	-0.023
-251.063	-200.000	0.055	0.407
-250.049	57.475	-0.182	0.176
-249.034	-52.729	-0.031	-0.014
-248.019	-200.000	-0.049	0.260
-247.005	496.907	0.115	0.260
-245.990	551.973	0.061	-0.146
-244.976	-200.000	-0.053	-0.336
-243.961	75.516	-0.219	-0.228
-242.946	673.542	0.027	-0.069
-241.932	-94.045	0.103	0.028
-240.917	800.000	-0.014	0.037
-239.903	14.534	-0.214	0.165
-238.888	-43.378	0.176	0.088
-237.873	-99.711	-0.179	-0.044
-236.859	115.633	0.102	0.123
-235.844	800.000	0.021	-0.087
-234.830	682.301	-0.083	-0.213
-233.815	-200.000	-0.072	0.382
-232.800	165.544	-0.121	-0.169
-231.786	-200.000	0.029	0.210
-230.771	264.854	-0.195	-0.334
-229.757	-85.274	0.193	-0.060
-228.742	180.568	0.125	0.182
-227.727	800.000	-0.022	0.077
-226.713	-25.490	-0.176	-0.102
-225.698	-155.301	0.482	0.031
-224.684	-148.425	0.076	-0.006
-223.669	-43.803	0.344	-0.171
-222.655	483.450	-0.133	-0.298
-221.640	112.028	0.175	0.208
-220.625	318.664	0.113	-0.211
-219.611	-1.167	0.171	0.119
-218.596	519.080	0.142	0.327
-217.582	-93.359	-0.302	-0.083
-216.567	653.113	-0.044	-0.111
-215.552	-13.155	-0.168	-0.108
-214.538	-13.307	0.103	0.066
-213.523	504.957	-0.194	0.443
-212.509	-154.929	-0.272	0.018
-211.494	-112.790	0.313	0.061
-210.479	-144.555	-0.046	-0.004
-209.465	162.217	0.067	-0.092
-208.450	-60.942	-0.236	0.098
-207.436	43.140	0.012	0.011
-206.421	68.270	0.145	0.147
-205.406	-200.000	0.049	0.336
-204.392	214.791	0.057	0.089
-203.377	-118.802	-0.050	-0.009
-202.363	800.000	0.130	0.380
-201.348	-93.868	0.129	0.035
-200.333	-97.659	-0.312	0.080
-199.319	800.000	-0.089	-0.278
-198.304	-200.000	-0.016	0.231
-197.290	-34.049	-0.143	-0.077
-196.275	231.092	-0.121	0.195
-195.260	800.000	0.043	0.178
-194.246	-200.000	-0.023	-0.207
-193.231	-23.652	0.209	0.124
-192.217	561.518	-0.165	0.392
-191.202	800.000	-0.062	-0.231
-190.187	-200.000	-0.035	0.318
-189.173	-127.821	-0.283	-0.040
-188.158	-72.303	-0.143	-0.052
-187.144	-83.405	0.184	-0.058
-186.129	367.186	0.056	-0.110
-185.114	523.451	0.072	0.167
-184.100	-200.000	0.002	0.051
-183.085	26.708	-0.188	0.155
-182.071	-200.000	-0.019	0.219
-181.056	-181.856	-0.152	0.003
-180.042	31.452	0.123	0.104
-179.027	181.088	0.058	-0.084
-178.012	363.987	0.076	-0.150
-176.998	-148.400	0.086	-0.007
-175.983	103.167	0.307	0.354
-174.969	199.803	-0.105	0.159
-173.954	-200.000	-0.022	-0.353
-172.939	-135.314	0.285	0.034
-171.925	-111.719	-0.014	-0.003
-170.910	800.000	-0.130	0.390
-169.896	800.000	0.067	-0.223
-168.881	-200.000	0.041	0.216
-167.866	106.409	-0.264	0.308
-166.852	800.000	-0.030	-0.100
-165.837	-95.339	0.413	-0.109
-164.823	-81.072	0.120	-0.039
-163.808	140.230	-0.155	0.201
-162.793	-200.000	0.018	-0.323
-161.779	-84.747	0.047	-0.014
-160.764	446.959	0.072	-0.155
-159.750	-200.000	-0.213	0.001
-158.735	-118.820	-0.111	-0.019
-157.720	-68.438	-0.054	-0.021
-156.706	456.213	0.046	-0.099
-155.691	18.796	0.324	-0.255
-154.677	-133.160	0.337	0.042
-153.662	-178.768	0.100	-0.002
-152.647	-115.474	0.360	0.067
-151.633	-56.582	-0.247	-0.107
-150.618	41.717	-0.286	0.255
-149.604	-139.221	0.401	-0.042
-148.589	-81.751	0.357	0.115
-147.574	172.749	0.079	0.112
-146.560	-200.000	-0.001	0.283
-145.545	200.276	-0.119	0.180
-144.531	355.464	-0.096	0.187
-143.516	93.097	-0.062	-0.069
-142.502	-31.333	0.172	0.095
-141.487	-200.000	-0.009	-0.163
-140.472	-95.418	-0.079	-0.021
-139.458	-157.940	0.089	0.005
-138.443	789.580	0.145	0.391
-137.429	193.790	-0.215	0.319
-136.414	800.000	-0.122	-0.384
-135.399	83.657	0.115	-0.123
-134.385	-191.561	-0.269	-0.003
-133.370	207.189	0.213	-0.326
-132.356	54.693	0.083	0.078
-131.341	13.524	-0.198	-0.151
-130.326	152.420	0.125	0.167
-129.312	-26.572	0.124	-0.071
-128.297	-34.769	0.295	-0.158
-127.283	111.569	-0.065	-0.077
-126.268	-26.024	0.261	-0.151
-125.253	181.524	0.112	-0.162
-124.239	-103.918	-0.329	0.075
-123.224	-200.000	0.005	-0.139
-122.210	800.000	0.041	-0.151
-121.195	-147.454	0.249	-0.021
