DTS Sentinel unit serial number:	SN413079Multiplexer serial number:	ORYXHardware model number:	OX4-SRSoftware version number:	ORYX F/W v4.00 Oryx Data Collector v3.7.2.0data status	okinstallation	princeton_trtdifferential loss correction	single-endedforward channel	channel 2reverse channel	N/Adate	2019/09/13time	07:59:35forward acquisition time	60.00reverse acquisition time	0.00gamma	496.2192k internal	0.2334k external	0.2334temperature offset calibration	1.0196default loss term (dB/km)	0.3790temperature slope calibration	1.0000multiplexer offset coefficient	1.0000multiplexer slope coefficient	1.0000fibre end	0.00T internal ref (°C)	26.81T ext. ref 1 (°C)	4.24T ext. ref 2 (°C)	23.12length (m)	temperature (°C)	Stokes	anti-Stokes-747.200	214.470	-0.212	-0.337
-746.185	6.073	-0.062	0.046
-745.171	235.138	-0.048	-0.079
-744.156	292.108	-0.123	0.226
-743.142	-18.279	-0.183	-0.115
-742.127	76.269	0.251	0.268
-741.112	-200.000	-0.008	0.087
-740.098	-200.000	0.021	0.181
-739.083	38.317	0.202	0.181
-738.069	17.659	0.155	0.124
-737.054	70.737	0.142	-0.147
-736.039	-121.386	-0.362	0.061
-735.025	680.383	0.088	-0.230
-734.010	-158.510	-0.391	0.023
-732.996	-40.408	-0.135	-0.071
-731.981	317.313	0.223	-0.425
-730.966	-200.000	0.047	-0.502
-729.952	-79.846	0.322	-0.109
-728.937	243.862	0.092	-0.155
-727.923	-125.411	-0.239	-0.037
-726.908	-146.420	-0.151	-0.013
-725.894	14.572	-0.214	-0.168
-724.879	-128.127	0.049	0.007
-723.864	702.138	-0.120	0.317
-722.850	-24.335	-0.073	-0.044
-721.835	253.980	0.142	0.243
-720.821	-92.170	-0.213	0.060
-719.806	249.607	0.202	0.343
-718.791	-110.662	-0.168	-0.035
-717.777	-118.136	0.061	0.011
-716.762	800.000	-0.037	-0.113
-715.748	-200.000	0.048	0.412
-714.733	-151.401	-0.132	-0.010
-713.718	-200.000	-0.023	-0.367
-712.704	-21.663	-0.239	0.146
-711.689	724.702	-0.044	0.117
-710.675	-200.000	0.102	0.512
-709.660	-58.758	-0.020	0.009
-708.645	-120.584	0.265	-0.045
-707.631	-102.198	-0.198	-0.048
-706.616	-200.000	0.000	0.317
-705.602	800.000	-0.073	0.247
-704.587	-104.144	0.333	0.078
-703.572	-34.172	0.285	0.157
-702.558	800.000	-0.053	-0.223
-701.543	29.023	-0.151	-0.129
-700.529	-200.000	0.037	0.245
-699.514	800.000	-0.031	-0.110
-698.499	472.960	-0.084	-0.189
-697.485	74.400	-0.215	-0.227
-696.470	221.285	-0.108	-0.175
-695.456	33.828	0.148	-0.130
-694.441	-200.000	0.008	-0.124
-693.426	147.610	-0.221	0.299
-692.412	-64.862	-0.118	-0.048
-691.397	800.000	0.048	-0.151
-690.383	-200.000	0.004	-0.096
-689.368	-200.000	0.001	-0.161
-688.354	348.568	-0.062	0.123
-687.339	-98.804	-0.270	-0.069
-686.324	-200.000	0.020	-0.160
-685.310	-93.806	0.333	0.092
-684.295	-129.437	-0.174	-0.024
-683.281	-93.351	-0.552	-0.153
-682.266	-2.468	0.112	0.078
-681.251	-4.912	-0.228	-0.158
-680.237	-80.163	-0.052	0.018
-679.222	-146.100	-0.292	0.026
-678.208	-172.758	-0.376	-0.012
-677.193	-200.000	-0.028	0.139
-676.178	-200.000	-0.010	-0.181
-675.164	18.611	-0.276	-0.221
-674.149	-35.861	0.144	-0.078
-673.135	-104.706	-0.069	0.016
-672.120	-200.000	-0.027	0.188
-671.105	-155.872	0.239	-0.015
-670.091	800.000	-0.116	-0.362
-669.076	434.511	-0.083	0.180
-668.062	-23.975	-0.125	-0.075
-667.047	-200.000	-0.025	0.177
-666.032	-84.543	-0.458	-0.145
-665.018	-18.299	0.213	-0.134
-664.003	-24.305	-0.214	-0.128
-662.989	800.000	-0.070	-0.217
-661.974	-78.842	-0.405	-0.138
-660.959	493.728	0.151	-0.347
-659.945	-118.871	-0.141	-0.025
-658.930	-96.874	0.225	-0.059
-657.916	116.593	0.016	-0.019
-656.901	0.304	-0.294	0.210
-655.886	800.000	0.085	0.248
-654.872	-200.000	0.007	-0.325
-653.857	800.000	0.051	0.148
-652.843	-200.000	-0.021	0.165
-651.828	350.392	0.060	0.118
-650.814	41.645	-0.153	-0.139
-649.799	75.441	0.232	0.246
-648.784	55.402	-0.129	0.125
-647.770	-165.976	-0.099	-0.004
-646.755	-200.000	0.026	-0.121
-645.741	-27.299	-0.120	0.070
-644.726	-87.251	0.102	0.031
-643.711	-118.083	0.257	0.046
-642.697	-64.132	-0.308	0.126
-641.682	-200.000	-0.020	-0.235
-640.668	-37.253	-0.092	-0.049
-639.653	-4.273	0.167	-0.116
-638.638	-35.546	-0.178	0.097
-637.624	-85.760	-0.225	-0.070
-636.609	479.853	-0.060	-0.136
-635.595	52.870	0.124	-0.118
-634.580	242.545	-0.050	-0.084
-633.565	-39.218	0.201	-0.106
-632.551	-200.000	-0.002	-0.287
-631.536	-99.144	0.092	-0.023
-630.522	-174.555	-0.332	0.010
-629.507	230.307	-0.234	0.382
-628.492	-200.000	-0.001	0.010
-627.478	153.787	0.143	0.196
-626.463	-97.062	0.249	0.065
-625.449	108.352	-0.239	0.286
-624.434	-200.000	-0.025	0.160
-623.419	-6.610	-0.217	0.148
-622.405	-169.490	-0.162	-0.006
-621.390	488.082	-0.065	-0.148
-620.376	-52.302	0.114	-0.053
-619.361	800.000	-0.101	0.310
-618.346	800.000	-0.082	0.358
-617.332	257.265	0.064	-0.110
-616.317	420.591	0.065	-0.140
-615.303	-200.000	-0.008	-0.275
-614.288	-72.583	-0.241	0.089
-613.273	-33.780	0.150	-0.083
-612.259	-200.000	0.009	0.178
-611.244	-44.962	-0.243	-0.121
-610.230	-21.024	-0.273	-0.167
-609.215	-169.429	-0.152	-0.006
-608.201	95.134	-0.046	0.053
-607.186	68.367	0.268	-0.275
-606.171	-63.359	0.346	0.143
-605.157	43.897	0.204	0.187
-604.142	800.000	0.032	-0.102
-603.128	-4.247	-0.169	-0.117
-602.113	94.096	-0.133	0.151
-601.098	191.126	0.153	-0.230
-600.084	-200.000	0.018	-0.266
-599.069	262.078	0.124	-0.215
-598.055	63.634	-0.255	-0.256
-597.040	135.787	-0.107	-0.139
-596.025	-72.537	-0.345	0.127
-595.011	-153.105	-0.128	-0.009
-593.996	102.610	-0.073	0.085
-592.982	800.000	-0.022	0.089
-591.967	19.705	-0.212	0.171
-590.952	87.141	-0.392	-0.433
-589.938	14.195	-0.190	-0.148
-588.923	-29.923	0.034	0.019
-587.909	329.152	0.024	0.046
-586.894	-83.445	-0.246	-0.079
-585.879	-4.478	0.291	0.201
-584.865	800.000	-0.034	0.128
-583.850	800.000	-0.034	0.135
-582.836	20.663	-0.061	0.049
-581.821	-75.584	-0.281	-0.100
-580.806	-200.000	0.007	0.078
-579.792	-81.370	0.079	0.026
-578.777	-36.081	-0.209	-0.113
-577.763	-59.848	0.274	-0.117
-576.748	800.000	0.030	-0.124
-575.733	84.786	-0.176	0.192
-574.719	133.355	0.118	0.152
-573.704	-200.000	0.003	0.084
-572.690	-123.568	-0.189	0.030
-571.675	-200.000	0.008	-0.338
-570.661	-122.630	-0.292	-0.047
-569.646	144.261	-0.107	-0.143
-568.631	397.491	0.015	0.032
-567.617	-12.923	0.374	-0.243
-566.602	-200.000	-0.037	-0.270
-565.588	800.000	-0.069	0.210
-564.573	5.734	-0.283	0.209
-563.558	41.639	-0.165	-0.150
-562.544	86.484	0.067	-0.074
-561.529	190.288	-0.172	0.258
-560.515	300.882	-0.089	-0.164
-559.500	-125.807	0.061	0.009
-558.485	-116.074	-0.327	-0.061
-557.471	-126.014	0.307	-0.046
-556.456	800.000	-0.065	0.239
-555.442	238.619	0.135	0.223
-554.427	-85.124	-0.228	-0.071
-553.412	275.821	-0.074	-0.132
-552.398	-18.658	0.105	-0.065
-551.383	-95.084	-0.288	0.078
-550.369	26.090	0.245	-0.204
-549.354	800.000	0.092	-0.266
-548.339	-200.000	-0.015	0.182
-547.325	-119.659	0.417	0.072
-546.310	-34.580	-0.239	0.130
-545.296	201.464	0.121	-0.185
-544.281	140.017	-0.183	-0.241
-543.266	-185.863	-0.341	0.005
-542.252	225.927	0.139	0.225
-541.237	409.580	0.149	0.315
-540.223	800.000	-0.073	0.288
-539.208	-18.312	0.274	0.171
-538.193	112.698	0.077	-0.094
-537.179	-200.000	0.002	-0.135
-536.164	-200.000	0.033	-0.177
-535.150	272.596	0.073	0.129
-534.135	-5.702	0.039	0.026
-533.121	83.068	0.154	0.167
-532.106	-97.465	0.084	-0.022
-531.091	-72.348	0.176	-0.065
-530.077	113.064	0.092	-0.111
-529.062	-103.105	-0.019	-0.005
-528.048	5.566	-0.245	-0.180
-527.033	53.579	0.282	-0.270
-526.018	212.848	-0.111	-0.175
-525.004	-13.542	-0.148	0.095
-523.989	431.993	-0.074	0.160
-522.975	-150.254	-0.291	0.022
-521.960	63.891	0.121	-0.122
-520.945	242.427	0.194	-0.324
-519.931	446.904	-0.190	-0.417
-518.916	254.546	0.055	-0.094
-517.902	-200.000	0.032	-0.143
-516.887	4.757	0.061	0.045
-515.872	202.021	0.019	0.029
-514.858	-122.192	-0.258	-0.042
-513.843	-121.237	-0.069	-0.011
-512.829	132.673	0.147	-0.188
-511.814	-27.151	-0.122	-0.071
-510.799	800.000	-0.042	-0.166
-509.785	138.538	-0.171	0.224
-508.770	-68.597	0.110	0.042
-507.756	380.590	-0.180	0.369
-506.741	-200.000	0.028	-0.357
-505.726	-138.034	0.005	0.001
-504.712	165.755	0.111	0.156
-503.697	284.508	0.077	0.138
-502.683	48.605	-0.188	0.176
-501.668	-200.000	0.014	0.486
-500.653	229.969	-0.043	-0.069
-499.639	-193.128	0.192	0.002
-498.624	567.874	0.078	0.188
-497.610	-29.128	-0.107	0.061
-496.595	228.958	-0.118	-0.192
-495.581	114.255	-0.216	0.262
-494.566	4.155	-0.094	-0.068
-493.551	36.408	-0.192	-0.169
-492.537	22.787	0.118	0.096
-491.522	-58.236	0.214	-0.093
-490.508	800.000	0.040	0.150
-489.493	43.777	0.195	0.177
-488.478	-200.000	0.001	0.273
-487.464	174.601	0.109	0.157
-486.449	206.447	0.096	-0.148
-485.435	-105.132	-0.328	0.075
-484.420	34.505	-0.114	-0.099
-483.405	-200.000	-0.016	-0.229
-482.391	49.210	-0.160	-0.150
-481.376	258.662	0.114	-0.195
-480.362	800.000	0.072	-0.217
-479.347	-200.000	-0.009	0.199
-478.332	309.023	-0.030	0.056
-477.318	124.947	0.174	0.218
-476.303	637.498	0.041	0.103
-475.289	217.615	-0.028	-0.044
-474.274	-63.547	0.065	-0.027
-473.259	-53.717	0.196	-0.089
-472.245	-104.053	0.213	0.049
-471.230	170.913	-0.161	0.230
-470.216	73.023	0.072	0.075
-469.201	141.193	0.101	0.133
-468.186	-200.000	-0.100	-0.553
-467.172	800.000	-0.010	0.036
-466.157	-147.141	-0.206	0.018
-465.143	-55.300	0.154	-0.069
-464.128	-200.000	0.002	-0.121
-463.113	174.936	-0.265	-0.382
-462.099	-20.289	0.276	0.169
-461.084	-38.772	-0.215	-0.112
-460.070	-200.000	0.003	-0.143
-459.055	-67.891	-0.098	-0.038
-458.040	-21.223	0.214	0.130
-457.026	-73.795	0.342	-0.124
-456.011	37.675	-0.203	-0.179
-454.997	222.804	-0.067	-0.108
-453.982	144.761	0.139	-0.184
-452.968	146.798	-0.249	-0.333
-451.953	730.148	0.007	-0.017
-450.938	-35.693	0.385	0.207
-449.924	745.332	0.087	0.232
-448.909	15.761	0.005	-0.004
-447.895	79.792	-0.254	-0.271
-446.880	179.683	0.090	-0.131
-445.865	147.360	0.077	-0.103
-444.851	800.000	-0.047	-0.145
-443.836	800.000	-0.045	0.129
-442.822	129.329	0.294	-0.373
-441.807	43.696	-0.311	-0.283
-440.792	785.968	-0.022	-0.060
-439.778	-55.170	-0.247	-0.110
-438.763	-200.000	0.086	-0.471
-437.749	800.000	-0.040	-0.156
-436.734	43.569	0.168	0.152
-435.719	-200.000	-0.094	-0.486
-434.705	-24.311	-0.101	0.060
-433.690	55.521	0.346	0.332
-432.676	-43.227	0.297	0.149
-431.661	-57.950	0.194	0.084
-430.646	69.608	0.281	-0.288
-429.632	-200.000	-0.009	0.128
-428.617	-200.000	0.023	0.290
-427.603	70.515	-0.033	-0.034
-426.588	96.397	-0.016	-0.018
-425.573	-0.303	0.218	0.154
-424.559	-143.623	0.196	-0.018
-423.544	59.188	0.196	-0.191
-422.530	46.802	-0.235	0.217
-421.515	-133.439	-0.170	-0.021
-420.500	-200.000	-0.055	-0.312
-419.486	631.754	-0.131	-0.328
-418.471	-100.213	-0.574	0.142
-417.457	-119.436	-0.221	0.038
-416.442	170.630	0.185	-0.263
-415.428	800.000	0.116	0.419
-414.413	274.382	0.052	0.091
-413.398	-55.251	0.466	-0.208
-412.384	-200.000	-0.029	0.341
-411.369	418.547	-0.042	0.088
-410.355	14.504	-0.253	-0.196
-409.340	24.674	0.243	-0.199
-408.325	-135.809	0.112	-0.013
-407.311	223.790	-0.083	0.133
-406.296	171.061	0.063	-0.089
-405.282	800.000	0.066	0.288
-404.267	-200.000	-0.074	-0.485
-403.252	-200.000	-0.066	0.429
-402.238	-141.477	0.283	-0.028
-401.223	-74.329	-0.235	0.084
-400.209	-151.653	-0.090	0.007
-399.194	-200.000	-0.326	0.001
-398.179	80.169	-0.226	-0.241
-397.165	-131.822	-0.208	-0.027
-396.150	68.461	0.092	0.093
-395.136	-200.000	0.067	0.293
-394.121	-67.479	-0.109	-0.042
-393.106	800.000	0.016	0.062
-392.092	-187.192	0.356	0.005
-391.077	-45.448	-0.171	0.084
-390.063	-159.653	0.228	0.013
-389.048	-186.428	-0.230	0.003
-388.033	-200.000	-0.022	-0.243
-387.019	32.597	0.190	-0.163
-386.004	-200.000	0.017	0.119
-384.990	800.000	0.137	-0.430
-383.975	-20.335	0.154	-0.094
-382.960	-200.000	-0.068	-0.393
-381.946	196.108	0.056	0.085
-380.931	142.062	-0.135	-0.177
-379.917	5.293	0.172	-0.125
-378.902	35.652	-0.179	0.155
-377.888	-200.000	-0.004	-0.204
-376.873	269.062	-0.037	0.064
-375.858	35.981	-0.305	0.266
-374.844	321.615	0.049	-0.093
-373.829	70.826	-0.229	-0.235
-372.815	13.953	-0.259	0.200
-371.800	149.145	-0.016	0.022
-370.785	74.107	-0.086	-0.089
-369.771	-200.000	-0.000	-0.294
-368.756	-156.202	0.200	0.012
-367.742	193.916	-0.201	-0.301
-366.727	-96.715	0.320	-0.083
-365.712	229.641	0.057	0.092
-364.698	508.410	-0.085	0.195
-363.683	-200.000	-0.055	0.437
-362.669	404.526	-0.074	0.155
-361.654	-200.000	0.034	-0.155
-360.639	800.000	-0.129	-0.382
-359.625	-140.429	0.212	0.022
-358.610	-183.281	-0.360	0.006
-357.596	800.000	0.056	0.177
-356.581	243.180	0.023	-0.038
-355.566	-33.289	-0.180	-0.098
-354.552	-200.000	-0.049	0.216
-353.537	-200.000	0.066	0.306
-352.523	144.890	0.044	0.058
-351.508	-90.542	0.313	0.090
-350.493	72.617	0.132	0.137
-349.479	130.458	0.046	0.058
-348.464	56.858	0.235	0.227
-347.450	99.094	-0.209	0.239
-346.435	-54.014	0.133	0.060
-345.420	16.162	0.229	0.178
-344.406	-153.897	0.353	0.024
-343.391	209.258	0.024	0.037
-342.377	-106.622	0.027	0.006
-341.362	-155.433	-0.175	0.011
-340.348	-101.044	-0.156	-0.038
-339.333	38.825	0.321	0.283
-338.318	73.712	-0.013	0.013
-337.304	29.520	-0.085	-0.072
-336.289	-170.040	-0.235	-0.008
-335.275	-65.389	0.176	0.070
-334.260	-200.000	-0.036	0.305
-333.245	612.575	-0.101	0.249
-332.231	-1.459	-0.263	0.184
-331.216	-12.351	-0.049	0.032
-330.202	-85.994	-0.194	-0.059
-329.187	-200.000	-0.003	-0.125
-328.172	57.205	0.076	0.073
-327.158	800.000	-0.013	0.042
-326.143	800.000	-0.075	-0.246
-325.129	-200.000	0.023	0.180
-324.114	74.577	-0.234	-0.243
-323.099	-200.000	-0.012	-0.141
-322.085	10.282	0.071	0.054
-321.070	146.833	0.006	0.009
-320.056	684.487	0.227	-0.585
-319.041	131.879	-0.072	0.091
-318.026	-90.013	0.132	-0.038
-317.012	-78.429	0.056	0.019
-315.997	-200.000	-0.009	-0.228
-314.983	140.291	0.055	-0.071
-313.968	73.032	-0.348	0.360
-312.953	-15.898	-0.207	-0.130
-311.939	-78.945	0.214	0.072
-310.924	-78.405	0.074	0.025
-309.910	92.867	-0.163	-0.182
-308.895	6.950	-0.077	0.057
-307.880	80.893	0.188	-0.201
-306.866	366.127	-0.019	-0.037
-305.851	-95.778	0.102	0.027
-304.837	394.458	-0.169	0.348
-303.822	11.822	-0.124	0.094
-302.807	-200.000	0.000	0.302
-301.793	279.320	0.125	0.221
-300.778	-175.239	0.085	-0.002
-299.764	-166.411	-0.189	-0.008
-298.749	-123.448	-0.305	-0.048
-297.735	800.000	0.059	-0.180
-296.720	-78.260	-0.534	0.181
-295.705	-118.333	0.077	-0.013
-294.691	-50.451	0.127	-0.059
-293.676	-200.000	-0.018	-0.244
-292.662	-117.427	-0.219	0.039
-291.647	22.086	0.283	0.228
-290.632	-200.000	-0.006	0.034
-289.618	-104.710	0.132	-0.030
-288.603	-79.192	-0.204	-0.068
-287.589	-7.298	0.136	-0.091
-286.574	181.857	-0.261	-0.380
-285.559	-200.000	0.388	-0.001
-284.545	676.713	-0.111	-0.285
-283.530	245.475	0.023	-0.039
-282.516	19.957	-0.110	0.087
-281.501	63.438	-0.077	-0.076
-280.486	-93.269	0.207	0.057
-279.472	-200.000	0.035	0.203
-278.457	-200.000	0.014	0.159
-277.443	248.465	-0.129	0.216
-276.428	366.773	0.138	0.274
-275.413	800.000	0.079	0.237
-274.399	-200.000	0.075	0.395
-273.384	-112.314	0.185	-0.037
-272.370	-129.997	0.126	-0.017
-271.355	224.734	0.048	-0.076
-270.340	57.262	-0.213	-0.205
-269.326	69.219	-0.171	-0.173
-268.311	633.310	-0.148	0.370
-267.297	47.000	0.164	-0.150
-266.282	-2.622	0.056	-0.039
-265.267	495.860	-0.025	0.057
-264.253	-76.715	0.113	0.039
-263.238	525.896	0.083	0.193
-262.224	341.387	-0.061	-0.118
-261.209	161.595	-0.280	0.386
-260.195	27.972	0.158	0.131
-259.180	-91.786	0.185	-0.052
-258.165	253.967	0.131	0.220
-257.151	-200.000	0.030	0.405
-256.136	237.775	-0.094	0.154
-255.122	-157.083	0.272	0.016
-254.107	-46.806	0.482	0.233
-253.092	-200.000	0.026	0.223
-252.078	-200.000	0.015	0.342
-251.063	-132.743	0.306	0.039
-250.049	-200.000	-0.087	0.379
-249.034	334.136	0.123	-0.234
-248.019	-81.815	0.288	-0.093
-247.005	216.650	-0.023	-0.036
-245.990	-200.000	0.020	0.242
-244.976	-30.655	0.162	0.091
-243.961	138.007	-0.034	-0.044
-242.946	-42.607	0.086	0.043
-241.932	249.612	-0.089	0.149
-240.917	18.511	0.191	0.151
-239.903	-61.314	0.254	0.105
-238.888	4.254	0.072	0.052
-237.873	-108.225	-0.167	-0.036
-236.859	-200.000	0.052	0.278
-235.844	12.141	0.105	-0.079
-234.830	800.000	-0.052	-0.177
-233.815	-200.000	0.011	-0.093
-232.800	64.759	0.078	-0.078
-231.786	-200.000	0.027	-0.199
-230.771	-200.000	-0.016	0.192
-229.757	-40.960	0.133	0.068
-228.742	104.351	-0.144	-0.167
-227.727	800.000	-0.100	0.330
-226.713	265.467	-0.030	0.052
-225.698	-89.545	0.341	-0.099
-224.684	800.000	-0.004	-0.014
-223.669	-164.109	-0.243	-0.011
-222.655	-60.606	-0.193	0.081
-221.640	-40.379	0.223	0.114
-220.625	60.785	-0.150	0.146
-219.611	800.000	-0.039	-0.146
-218.596	318.872	-0.118	-0.221
-217.582	263.933	-0.083	-0.141
-216.567	-134.605	0.146	-0.017
-215.552	-200.000	-0.035	0.165
-214.538	-9.688	0.355	0.233
-213.523	370.776	-0.078	0.155
-212.509	-145.107	0.237	0.021
-211.494	-107.402	0.300	-0.065
-210.479	-27.286	0.174	-0.100
-209.465	163.916	0.168	0.233
-208.450	-143.509	-0.142	0.013
-207.436	-38.019	-0.482	-0.252
-206.421	114.296	0.186	-0.222
-205.406	-200.000	-0.085	-0.429
-204.392	32.858	-0.108	0.092
-203.377	-96.386	0.243	0.063
-202.363	203.854	-0.136	0.207
-201.348	-67.775	0.304	0.117
-200.333	70.436	-0.129	-0.131
-199.319	-34.458	0.268	-0.145
-198.304	185.398	0.076	0.110
-197.290	270.646	0.058	0.100
-196.275	-200.000	-0.044	-0.327
-195.260	474.373	0.205	0.456
-194.246	130.001	0.148	0.186
-193.231	161.936	0.190	-0.261
-192.217	274.348	-0.039	-0.068
-191.202	43.693	0.141	-0.127
-190.187	-200.000	0.037	-0.190
-189.173	-200.000	0.010	-0.148
-188.158	448.300	-0.062	0.134
-187.144	-65.957	0.409	-0.161
-186.129	-157.456	-0.226	-0.013
-185.114	-52.263	0.097	-0.044
-184.100	-50.738	-0.165	0.076
-183.085	800.000	0.091	-0.341
-182.071	-117.096	0.464	0.083
-181.056	-62.632	0.090	-0.037
-180.042	138.182	-0.123	0.159
-179.027	503.313	-0.120	-0.272
-178.012	-200.000	0.037	0.308
-176.998	800.000	-0.098	-0.287
-175.983	113.452	-0.212	-0.253
-174.969	-200.000	-0.018	-0.345
-173.954	800.000	0.078	-0.329
-172.939	362.425	-0.104	-0.204
-171.925	-137.353	-0.235	-0.026
-170.910	-107.088	-0.278	-0.060
-169.896	800.000	-0.043	0.141
-168.881	-20.862	-0.173	0.104
-167.866	-26.403	0.050	0.029
-166.852	-138.521	0.181	-0.020
-165.837	800.000	-0.061	0.209
-164.823	-37.783	0.129	0.067
-163.808	-49.798	-0.056	-0.026
-162.793	-200.000	-0.292	-0.001
-161.779	-200.000	0.005	-0.116
-160.764	-124.236	0.153	-0.024
-159.750	-30.510	-0.210	0.117
-158.735	187.328	0.219	0.321
-157.720	120.271	-0.118	-0.143
-156.706	-3.396	0.203	0.139
-155.691	-200.000	0.031	0.147
-154.677	-200.000	0.046	0.370
-153.662	147.218	0.126	-0.167
-152.647	-110.706	-0.162	0.033
-151.633	800.000	-0.026	0.074
-150.618	-130.299	-0.070	-0.009
-149.604	-51.808	0.140	0.064
-148.589	-200.000	0.047	0.248
-147.574	800.000	-0.065	0.264
-146.560	689.865	0.051	-0.130
-145.545	800.000	-0.059	0.237
-144.531	68.424	0.217	-0.218
-143.516	290.401	0.101	-0.181
-142.502	-61.249	-0.198	-0.082
-141.487	799.253	-0.027	0.073
-140.472	362.171	-0.073	-0.145
-139.458	-97.299	0.198	-0.051
-138.443	-88.115	-0.036	0.011
-137.429	-136.235	-0.087	0.010
-136.414	160.326	0.138	-0.189
-135.399	126.002	0.139	-0.173
-134.385	-121.736	0.070	0.011
-133.370	-200.000	0.013	0.170
-132.356	-43.489	0.304	-0.151
-131.341	99.732	0.182	-0.206
-130.326	-13.121	-0.063	-0.040
-129.312	407.226	-0.105	0.219
-128.297	800.000	0.064	0.209
-127.283	-132.581	-0.062	-0.008
-126.268	-37.632	0.223	0.117
-125.253	223.682	-0.083	-0.131
-124.239	420.977	-0.016	-0.033
-123.224	164.955	-0.057	-0.079
-122.210	33.216	0.239	-0.204
-121.195	800.000	-0.032	-0.117
