DTS Sentinel unit serial number:	SN413079Multiplexer serial number:	ORYXHardware model number:	OX4-SRSoftware version number:	ORYX F/W v4.00 Oryx Data Collector v3.7.2.0data status	okinstallation	princeton_trtdifferential loss correction	single-endedforward channel	channel 2reverse channel	N/Adate	2019/09/12time	19:50:48forward acquisition time	15.00reverse acquisition time	0.00gamma	496.2192k internal	0.2328k external	0.2328temperature offset calibration	1.0161default loss term (dB/km)	0.3790temperature slope calibration	1.0000multiplexer offset coefficient	1.0000multiplexer slope coefficient	1.0000fibre end	0.00T internal ref (°C)	31.94T ext. ref 1 (°C)	3.52T ext. ref 2 (°C)	26.53length (m)	temperature (°C)	Stokes	anti-Stokes-747.200	573.229	-0.434	-1.066
-746.185	144.883	-0.286	-0.385
-745.171	-200.000	-0.012	-0.059
-744.156	342.097	-0.204	0.401
-743.142	510.468	-0.347	0.813
-742.127	296.913	0.343	-0.634
-741.112	-151.209	0.671	-0.051
-740.098	-120.201	0.358	0.062
-739.083	173.714	0.309	-0.449
-738.069	-68.754	-0.765	-0.298
-737.054	-53.740	0.803	0.369
-736.039	-200.000	0.019	-0.205
-735.025	-13.167	0.478	0.313
-734.010	42.552	0.693	0.635
-732.996	52.467	-0.135	-0.129
-731.981	116.275	0.213	0.263
-730.966	-185.623	0.233	-0.004
-729.952	578.761	0.051	-0.125
-728.937	-185.257	-0.664	0.010
-727.923	-116.414	-0.262	-0.049
-726.908	-72.280	-0.741	-0.276
-725.894	-54.423	0.663	0.303
-724.879	-33.546	-0.088	0.049
-723.864	145.819	0.259	0.350
-722.850	-114.578	0.536	0.103
-721.835	-131.444	0.494	-0.066
-720.821	53.003	0.171	-0.165
-719.806	228.222	0.067	0.110
-718.791	-106.854	0.702	0.157
-717.777	-1.220	0.489	-0.348
-716.762	115.622	-0.476	-0.586
-715.748	230.133	-0.065	-0.107
-714.733	-77.115	0.900	0.316
-713.718	-158.161	0.188	-0.011
-712.704	396.703	0.223	-0.470
-711.689	800.000	-0.155	-0.612
-710.675	461.987	-0.218	0.489
-709.660	800.000	-0.231	0.652
-708.645	-118.715	0.258	-0.046
-707.631	-29.661	-0.527	-0.303
-706.616	-57.394	0.068	-0.030
-705.602	-139.897	-0.378	0.040
-704.587	-99.805	0.187	0.047
-703.572	-35.541	0.233	0.127
-702.558	-200.000	0.151	-1.066
-701.543	-120.127	0.638	-0.110
-700.529	-92.473	0.255	-0.072
-699.514	531.452	0.272	0.648
-698.499	800.000	0.165	-0.587
-697.485	224.213	-0.099	-0.162
-696.470	-84.732	-0.175	0.055
-695.456	-113.093	0.896	-0.178
-694.441	800.000	0.161	0.664
-693.426	739.258	0.122	0.329
-692.412	548.542	-0.121	0.292
-691.397	-103.412	1.105	-0.262
-690.383	15.416	-0.299	0.236
-689.368	-41.371	-0.429	-0.222
-688.354	429.002	-0.274	-0.595
-687.339	800.000	0.271	0.859
-686.324	205.633	-0.126	0.196
-685.310	249.925	0.254	0.433
-684.295	-200.000	0.017	0.556
-683.281	-200.000	-0.079	-0.666
-682.266	-87.924	-0.634	0.192
-681.251	-72.414	-0.805	0.300
-680.237	-88.719	0.226	-0.068
-679.222	150.226	0.113	-0.154
-678.208	-110.883	0.579	0.120
-677.193	-141.927	-0.226	-0.023
-676.178	243.432	-0.150	0.252
-675.164	-90.366	0.258	0.075
-674.149	128.764	0.461	0.591
-673.135	-200.000	0.063	-0.552
-672.120	239.311	0.361	0.604
-671.105	-200.000	0.029	-0.311
-670.091	-122.151	0.826	-0.136
-669.076	-75.887	0.105	0.037
-668.062	-98.150	0.799	0.207
-667.047	-200.000	0.017	-0.355
-666.032	-32.756	-0.726	-0.406
-665.018	-22.930	0.977	-0.592
-664.003	562.813	-0.021	0.050
-662.989	800.000	0.055	0.202
-661.974	-6.483	0.475	-0.325
-660.959	-200.000	0.017	0.304
-659.945	20.099	0.507	-0.411
-658.930	279.453	-0.342	0.613
-657.916	800.000	0.067	-0.207
-656.901	274.016	-0.184	0.328
-655.886	-167.267	0.574	0.023
-654.872	-21.135	0.316	-0.194
-653.857	800.000	0.363	-1.020
-652.843	768.853	0.348	-0.951
-651.828	46.443	0.914	-0.852
-650.814	-153.602	1.012	0.070
-649.799	29.300	0.409	-0.349
-648.784	-41.161	-0.528	0.274
-647.770	2.041	0.173	-0.125
-646.755	-200.000	-0.097	0.609
-645.741	800.000	0.094	-0.410
-644.726	271.526	-0.135	-0.238
-643.711	800.000	0.265	0.792
-642.697	-105.350	-0.936	-0.214
-641.682	99.795	-0.382	0.444
-640.668	501.571	0.274	-0.635
-639.653	19.653	-0.576	0.465
-638.638	-200.000	0.017	-0.320
-637.624	118.676	0.258	0.320
-636.609	-53.738	-0.215	0.098
-635.595	-200.000	0.018	0.383
-634.580	-117.717	0.077	-0.014
-633.565	297.980	-0.136	-0.250
-632.551	202.147	0.077	-0.120
-631.536	-200.000	0.018	0.355
-630.522	-93.546	-0.808	-0.224
-629.507	39.248	0.327	-0.294
-628.492	-4.508	0.501	0.348
-627.478	-200.000	0.035	-0.350
-626.463	33.746	-0.753	-0.658
-625.449	-175.089	-0.838	0.023
-624.434	-10.199	0.393	-0.262
-623.419	708.827	0.035	-0.093
-622.405	612.773	0.141	0.355
-621.390	-108.951	-0.631	0.135
-620.376	253.020	-0.160	-0.274
-619.361	-91.023	-0.290	-0.083
-618.346	278.481	-0.350	-0.625
-617.332	2.563	-0.500	-0.363
-616.317	-154.681	0.162	0.011
-615.303	-136.321	-0.194	-0.023
-614.288	-200.000	0.072	0.365
-613.273	377.497	0.152	-0.312
-612.259	-200.000	0.063	-0.746
-611.244	126.413	0.253	-0.320
-610.230	-83.821	0.519	-0.166
-609.215	800.000	-0.153	-0.632
-608.201	800.000	0.075	-0.315
-607.186	-200.000	-0.001	-0.266
-606.171	30.807	0.605	-0.519
-605.157	456.461	-0.109	0.243
-604.142	248.204	0.146	0.247
-603.128	-200.000	-0.186	0.972
-602.113	26.852	-0.332	0.279
-601.098	-113.631	0.471	0.092
-600.084	-7.910	0.387	0.262
-599.069	800.000	0.139	0.478
-598.055	-200.000	-0.045	-0.244
-597.040	121.905	0.072	-0.090
-596.025	221.464	-0.281	-0.452
-595.011	-77.978	-0.797	-0.275
-593.996	-200.000	-0.069	0.989
-592.982	-174.957	-0.203	0.006
-591.967	-200.000	-0.008	0.135
-590.952	146.800	0.401	-0.540
-589.938	-200.000	-0.043	-0.530
-588.923	800.000	0.170	0.676
-587.909	-102.527	0.508	-0.122
-586.894	271.379	0.444	0.783
-585.879	-200.000	-0.142	-0.935
-584.865	-200.000	-0.055	-0.334
-583.850	-106.508	-0.344	-0.077
-582.836	328.699	-0.105	-0.202
-581.821	16.834	0.222	-0.176
-580.806	800.000	0.176	0.492
-579.792	-200.000	-0.018	-0.304
-578.777	43.457	0.335	0.306
-577.763	152.081	-0.340	-0.465
-576.748	174.257	-0.257	-0.372
-575.733	75.485	0.224	-0.236
-574.719	800.000	-0.121	0.465
-573.704	173.875	-0.148	-0.214
-572.690	42.632	0.037	0.034
-571.675	-27.906	0.459	0.266
-570.661	-200.000	0.026	0.449
-569.646	83.850	-0.577	0.630
-568.631	-58.251	0.266	-0.116
-567.617	2.509	0.380	0.275
-566.602	-92.076	0.876	0.248
-565.588	-200.000	0.123	0.820
-564.573	2.348	-0.416	0.301
-563.558	800.000	0.165	-0.600
-562.544	-7.672	-0.283	-0.191
-561.529	-56.435	0.243	0.108
-560.515	-200.000	0.021	-0.627
-559.500	128.532	0.119	0.152
-558.485	318.848	-0.053	0.101
-557.471	-200.000	-0.056	0.296
-556.456	-187.496	-0.509	0.007
-555.442	61.390	-0.571	0.568
-554.427	91.149	-0.348	-0.391
-553.412	-200.000	-0.035	0.560
-552.398	-128.126	0.525	0.075
-551.383	-56.853	0.696	-0.308
-550.369	-13.021	-0.476	0.310
-549.354	427.756	0.196	0.424
-548.339	-200.000	-0.081	0.418
-547.325	111.979	-0.342	-0.413
-546.310	-95.742	0.627	-0.168
-545.296	78.099	0.244	0.261
-544.281	-200.000	0.041	-0.220
-543.266	54.619	-0.398	-0.383
-542.252	-111.919	0.407	0.082
-541.237	-43.668	0.465	0.235
-540.223	-55.288	-0.588	0.264
-539.208	-4.887	-0.485	0.334
-538.193	-200.000	0.125	-0.693
-537.179	-41.763	0.797	-0.409
-536.164	-110.291	-0.790	0.164
-535.150	-29.733	0.504	-0.287
-534.135	510.855	-0.365	-0.849
-533.121	36.777	0.071	0.062
-532.106	136.278	-0.292	-0.381
-531.091	-200.000	0.135	0.713
-530.077	421.766	-0.047	-0.102
-529.062	39.850	-0.534	-0.479
-528.048	-151.630	-0.333	-0.025
-527.033	-130.812	0.630	0.085
-526.018	-200.000	0.033	0.208
-525.004	138.526	-0.322	0.422
-523.989	-200.000	-0.064	-0.312
-522.975	335.706	-0.218	0.422
-521.960	40.387	0.315	-0.283
-520.945	765.986	-0.287	-0.780
-519.931	-15.411	-0.098	0.062
-518.916	151.604	0.475	0.647
-517.902	463.619	-0.221	0.493
-516.887	-58.056	0.427	0.186
-515.872	-123.448	0.509	0.081
-514.858	-200.000	-0.230	1.146
-513.843	-69.873	0.191	-0.073
-512.829	-61.178	0.710	-0.299
-511.814	-200.000	-0.081	-0.649
-510.799	-18.540	-0.199	0.124
-509.785	24.517	-0.242	-0.200
-508.770	81.245	-0.225	0.243
-507.756	-67.426	0.120	0.047
-506.741	365.774	0.225	-0.453
-505.726	-69.687	0.378	0.144
-504.712	-68.934	0.473	-0.182
-503.697	-131.523	0.332	0.044
-502.683	44.649	0.493	-0.453
-501.668	36.606	-0.551	0.486
-500.653	-140.093	0.397	-0.042
-499.639	133.308	-0.218	-0.281
-498.624	12.341	0.520	0.400
-497.610	-55.005	0.813	-0.366
-496.595	-146.008	-1.199	0.106
-495.581	-109.786	-0.396	0.083
-494.566	800.000	-0.157	0.649
-493.551	-152.672	0.047	0.003
-492.537	-200.000	0.177	0.776
-491.522	-138.997	0.534	-0.058
-490.508	-96.199	-0.830	0.220
-489.493	800.000	0.136	0.535
-488.478	-200.000	-0.178	0.798
-487.464	-49.745	0.300	0.142
-486.449	-35.386	-0.513	-0.278
-485.435	386.223	-0.245	0.504
-484.420	58.735	-0.430	0.421
-483.405	577.205	-0.117	0.285
-482.391	198.149	-0.471	-0.719
-481.376	-90.193	-0.213	-0.062
-480.362	-165.856	-0.629	0.027
-479.347	-72.946	-0.729	0.267
-478.332	-73.301	-0.526	0.192
-477.318	178.857	0.456	-0.665
-476.303	-113.348	-0.440	-0.086
-475.289	267.833	-0.081	0.141
-474.274	-142.880	0.820	0.079
-473.259	-126.533	-0.763	0.113
-472.245	8.522	0.301	0.226
-471.230	312.586	-0.278	0.520
-470.216	-200.000	0.208	0.972
-469.201	-193.465	-0.336	0.003
-468.186	-107.314	-0.307	-0.067
-467.172	48.129	0.395	-0.368
-466.157	-200.000	-0.024	-0.155
-465.143	10.046	0.416	0.315
-464.128	155.578	-0.260	-0.357
-463.113	136.295	-0.316	0.411
-462.099	-84.913	-0.715	-0.224
-461.084	-200.000	0.130	-0.609
-460.070	-200.000	0.116	0.538
-459.055	-200.000	-0.035	-0.514
-458.040	-57.818	-0.412	-0.180
-457.026	800.000	0.133	0.441
-456.011	-78.545	0.285	-0.097
-454.997	-72.675	0.288	0.106
-453.982	800.000	-0.083	-0.287
-452.968	-159.937	0.263	-0.014
-451.953	779.346	-0.092	-0.251
-450.938	-164.344	-0.239	-0.011
-449.924	-115.544	-0.381	-0.071
-448.909	800.000	0.022	-0.078
-447.895	117.154	0.465	-0.570
-446.880	105.895	0.310	0.365
-445.865	800.000	-0.119	-0.364
-444.851	800.000	0.127	-0.393
-443.836	12.351	-0.284	-0.218
-442.822	-25.536	0.066	0.039
-441.807	-35.379	-0.742	-0.402
-440.792	14.693	0.028	0.022
-439.778	-48.671	0.516	0.247
-438.763	22.222	-0.609	0.495
-437.749	-200.000	0.071	-0.629
-436.734	-200.000	-0.076	-0.807
-435.719	36.143	-0.462	-0.405
-434.705	-53.683	0.776	0.353
-433.690	-82.983	-0.163	0.052
-432.676	80.227	0.651	0.698
-431.661	-200.000	0.165	-0.816
-430.646	-200.000	0.080	-0.420
-429.632	746.562	-0.375	1.006
-428.617	-33.953	-0.319	-0.175
-427.603	-40.804	-0.338	-0.174
-426.588	-21.800	0.328	0.198
-425.573	58.425	-0.095	-0.093
-424.559	-200.000	-0.169	0.822
-423.544	65.493	0.254	0.255
-422.530	-200.000	-0.065	-0.378
-421.515	-200.000	0.085	-0.627
-420.500	51.341	0.764	0.722
-419.486	602.419	0.102	-0.253
-418.471	107.136	0.069	0.082
-417.457	-11.819	-0.399	0.260
-416.442	-63.985	-0.629	0.256
-415.428	800.000	-0.142	0.396
-414.413	800.000	0.086	-0.370
-413.398	114.221	0.784	-0.950
-412.384	174.614	0.630	-0.907
-411.369	-119.015	0.824	-0.144
-410.355	-200.000	0.058	0.422
-409.340	-93.378	0.416	-0.115
-408.325	123.937	-0.689	-0.861
-407.311	-200.000	0.107	0.514
-406.296	319.005	-0.101	-0.190
-405.282	36.620	-0.461	0.405
-404.267	-200.000	-0.116	0.693
-403.252	197.014	0.269	0.408
-402.238	-92.294	0.744	0.208
-401.223	175.433	-0.418	0.603
-400.209	800.000	0.151	0.476
-399.194	-110.260	-0.695	0.144
-398.179	59.226	-0.400	-0.392
-397.165	-24.870	0.284	-0.168
-396.150	75.181	0.755	-0.791
-395.136	709.409	0.203	0.534
-394.121	-127.995	0.240	-0.034
-393.106	-105.260	-0.454	0.103
-392.092	-200.000	0.047	-0.519
-391.077	-137.618	-0.321	0.036
-390.063	97.450	0.324	0.370
-389.048	7.731	0.324	-0.241
-388.033	106.279	-0.026	0.031
-387.019	-200.000	0.139	-1.393
-386.004	-17.574	0.644	-0.403
-384.990	-20.818	0.383	0.233
-383.975	431.391	0.225	0.485
-382.960	800.000	-0.216	0.889
-381.946	96.037	0.336	0.382
-380.931	-151.577	0.414	0.030
-379.917	-200.000	-0.020	-0.552
-378.902	-162.203	-0.679	0.034
-377.888	800.000	-0.135	-0.516
-376.873	-29.784	-1.279	0.724
-375.858	489.623	0.238	-0.541
-374.844	17.762	-0.907	0.717
-373.829	592.155	-0.266	0.652
-372.815	144.853	-0.317	-0.420
-371.800	387.258	0.395	-0.811
-370.785	-200.000	-0.026	0.841
-369.771	165.867	0.166	-0.233
-368.756	-98.500	-0.431	0.110
-367.742	93.283	0.513	0.577
-366.727	155.520	-0.338	0.462
-365.712	-87.416	0.431	0.130
-364.698	-88.878	0.987	0.291
-363.683	38.132	0.722	0.638
-362.669	-85.441	-0.479	-0.148
-361.654	-121.672	-0.209	-0.034
-360.639	-166.991	-0.459	0.019
-359.625	-200.000	0.029	0.269
-358.610	3.123	-0.178	0.129
-357.596	-58.125	-0.814	-0.352
-356.581	-51.743	0.760	0.351
-355.566	-23.133	0.511	-0.305
-354.552	-133.443	-0.558	-0.070
-353.537	-73.208	-0.685	-0.249
-352.523	25.516	0.231	0.191
-351.508	67.575	0.329	0.333
-350.493	-20.829	-0.565	0.344
-349.479	-41.083	-0.199	0.102
-348.464	-169.530	0.370	0.013
-347.450	-200.000	0.147	-0.817
-346.435	-119.513	0.578	-0.099
-345.420	-200.000	0.041	-0.549
-344.406	-200.000	0.004	-0.209
-343.391	-42.504	0.268	0.135
-342.377	-200.000	-0.059	-0.298
-341.362	-70.900	0.556	-0.208
-340.348	800.000	-0.202	-0.664
-339.333	-23.130	-0.873	-0.521
-338.318	-101.979	1.107	0.265
-337.304	-200.000	-0.082	-0.445
-336.289	0.289	0.141	0.100
-335.275	-200.000	0.168	-0.766
-334.260	-200.000	-0.053	-0.284
-333.245	800.000	-0.155	-0.449
-332.231	800.000	0.201	-0.596
-331.216	-200.000	-0.017	-0.779
-330.202	442.669	-0.257	0.558
-329.187	-200.000	-0.092	0.680
-328.172	-40.781	0.688	-0.353
-327.158	40.310	0.315	-0.281
-326.143	111.193	-0.195	-0.233
-325.129	-70.485	0.601	0.226
-324.114	224.797	-0.380	-0.609
-323.099	-200.000	-0.009	-0.723
-322.085	99.315	0.474	-0.544
-321.070	800.000	-0.140	-0.497
-320.056	-83.246	0.277	-0.088
-319.041	800.000	-0.176	0.574
-318.026	-32.848	0.453	-0.249
-317.012	800.000	0.348	1.038
-315.997	-133.453	0.713	-0.089
-314.983	-150.403	0.498	0.038
-313.968	282.445	0.369	0.655
-312.953	-118.031	-0.237	-0.042
-311.939	-15.587	0.399	-0.252
-310.924	314.783	0.243	-0.454
-309.910	-110.947	-1.363	0.278
-308.895	140.064	0.258	-0.337
-307.880	-200.000	0.039	0.373
-306.866	-100.037	-0.772	-0.191
-305.851	-27.195	-0.578	0.334
-304.837	7.013	-0.157	0.116
-303.822	617.532	-0.185	0.459
-302.807	190.711	0.150	0.224
-301.793	-44.003	0.683	-0.340
-300.778	-46.257	-0.314	0.153
-299.764	48.854	0.394	-0.366
-298.749	-200.000	-0.046	-0.626
-297.735	32.670	-0.256	-0.219
-296.720	-81.047	-0.528	-0.173
-295.705	121.739	-0.395	-0.488
-294.691	101.181	-0.332	0.383
-293.676	71.879	0.060	0.061
-292.662	800.000	0.097	-0.276
-291.647	-98.912	0.311	-0.078
-290.632	210.479	-0.078	0.122
-289.618	88.981	-0.158	-0.174
-288.603	-200.000	0.174	-1.275
-287.589	146.432	0.136	0.181
-286.574	577.172	0.100	0.242
-285.559	520.700	-0.195	0.453
-284.545	154.468	0.183	0.248
-283.530	-47.431	-0.401	0.193
-282.516	-87.303	-0.269	-0.081
-281.501	-164.857	0.520	0.023
-280.486	523.845	0.289	0.671
-279.472	624.652	-0.264	0.658
-278.457	573.352	0.140	-0.338
-277.443	44.983	0.445	0.405
-276.428	-137.684	-0.297	-0.033
-275.413	-200.000	0.128	-0.709
-274.399	-200.000	0.029	-0.697
-273.384	800.000	-0.140	-0.417
-272.370	-99.686	-0.535	0.133
-271.355	369.068	-0.126	-0.253
-270.340	-200.000	0.033	0.181
-269.326	-43.790	-1.359	0.677
-268.311	-83.563	0.533	-0.169
-267.297	206.048	-0.424	-0.653
-266.282	-33.229	0.113	0.062
-265.267	97.192	0.470	0.533
-264.253	-41.475	0.511	0.260
-263.238	195.146	0.448	0.674
-262.224	375.380	0.228	-0.459
-261.209	293.960	-0.353	0.638
-260.195	13.547	0.600	0.461
-259.180	-120.623	-0.413	-0.069
-258.165	-11.137	-0.841	-0.548
-257.151	2.024	-0.419	0.299
-256.136	-112.559	-0.892	0.176
-255.122	-100.726	0.413	0.101
-254.107	800.000	-0.073	0.227
-253.092	-137.025	0.371	-0.042
-252.078	318.953	0.218	0.409
-251.063	-6.636	-0.426	-0.287
-250.049	-176.367	-0.806	0.021
-249.034	-125.065	-0.838	0.127
-248.019	-8.394	-0.283	-0.188
-247.005	24.238	-0.488	0.398
-245.990	694.517	0.521	1.350
-244.976	-42.785	0.120	-0.060
-243.961	-70.112	-0.714	0.269
-242.946	-117.017	0.278	0.050
-241.932	-69.984	-0.766	-0.288
-240.917	2.503	-0.603	0.432
-239.903	800.000	0.136	0.484
-238.888	186.172	0.531	-0.781
-237.873	-72.052	0.554	0.203
-236.859	201.083	0.329	0.501
-235.844	-200.000	0.068	-1.152
-234.830	318.967	0.392	-0.734
-233.815	-9.577	0.279	0.184
-232.800	225.618	0.272	-0.435
-231.786	-83.865	0.354	0.112
-230.771	35.621	0.764	-0.663
-229.757	-94.801	0.743	-0.199
-228.742	171.474	0.341	-0.483
-227.727	-31.229	0.453	0.252
-226.713	800.000	0.118	-0.423
-225.698	-43.561	-0.670	0.334
-224.684	-104.132	-0.289	-0.066
-223.669	61.960	-0.271	0.266
-222.655	576.994	0.101	0.243
-221.640	93.593	-0.143	0.160
-220.625	-146.942	0.546	0.046
-219.611	-20.102	-0.319	-0.194
-218.596	800.000	-0.043	-0.180
-217.582	-14.575	-0.212	-0.135
-216.567	-164.137	-0.397	-0.018
-215.552	61.715	0.813	-0.799
-214.538	-50.963	0.548	0.254
-213.523	604.892	-0.201	0.494
-212.509	-200.000	0.005	-0.122
-211.494	-200.000	-0.147	1.143
-210.479	800.000	-0.303	0.843
-209.465	-30.090	0.388	-0.218
-208.450	-72.723	0.652	0.237
-207.436	-58.474	1.041	0.446
-206.421	4.375	-0.566	0.409
-205.406	800.000	-0.173	0.498
-204.392	-200.000	-0.037	-0.473
-203.377	-200.000	-0.323	-0.001
-202.363	-200.000	-0.095	-0.412
-201.348	372.333	0.299	0.600
-200.333	-125.355	1.044	-0.157
-199.319	609.394	-0.238	-0.586
-198.304	-39.525	-0.505	-0.261
-197.290	-99.013	0.549	-0.137
-196.275	-20.670	0.816	0.494
-195.260	-7.520	-0.336	-0.224
-194.246	-200.000	-0.043	0.572
-193.231	-1.888	-0.904	0.628
-192.217	-200.000	0.041	-0.215
-191.202	123.700	0.369	-0.457
-190.187	-32.126	0.452	-0.249
-189.173	188.544	-0.042	0.062
-188.158	-26.942	0.357	-0.205
-187.144	86.850	0.110	-0.120
-186.129	101.358	-0.287	-0.330
-185.114	-127.858	-0.386	0.055
-184.100	-155.320	-0.216	0.014
-183.085	-89.016	-0.472	0.138
-182.071	179.885	-0.430	-0.622
-181.056	-54.935	-1.013	-0.450
-180.042	153.335	0.268	0.362
-179.027	-200.000	-0.001	0.581
-178.012	86.504	-0.395	0.429
-176.998	800.000	-0.131	-0.409
-175.983	-200.000	0.081	0.386
-174.969	-200.000	0.001	-0.243
-173.954	541.094	-0.185	-0.433
-172.939	68.484	-0.527	0.533
-171.925	-200.000	0.064	-0.295
-170.910	328.287	0.629	1.190
-169.896	-200.000	-0.032	0.486
-168.881	38.025	-1.024	0.898
-167.866	691.137	0.292	-0.755
-166.852	-54.935	-0.766	-0.340
-165.837	32.833	0.661	-0.564
-164.823	-200.000	0.019	-0.233
-163.808	213.911	0.577	0.900
-162.793	-23.854	0.028	0.017
-161.779	-63.113	0.676	-0.275
-160.764	310.141	0.593	-1.093
-159.750	800.000	0.052	0.144
-158.735	431.564	0.127	0.271
-157.720	800.000	0.086	0.350
-156.706	800.000	-0.060	0.211
-155.691	357.695	-0.301	-0.592
-154.677	-200.000	-0.009	0.182
-153.662	-4.617	0.724	-0.492
-152.647	707.949	0.021	-0.054
-151.633	800.000	-0.055	-0.184
-150.618	-200.000	-0.017	-0.620
-149.604	-105.027	0.834	-0.188
-148.589	333.689	-0.073	-0.139
-147.574	-200.000	-0.108	-0.486
-146.560	-200.000	-0.060	-0.649
-145.545	-79.633	0.808	-0.268
-144.531	53.641	0.723	0.683
-143.516	-200.000	0.118	-0.645
-142.502	-21.856	1.029	-0.616
-141.487	162.492	-0.561	-0.774
-140.472	429.434	-0.145	0.309
-139.458	92.581	-0.473	-0.526
-138.443	160.271	-0.182	-0.250
-137.429	28.718	-0.768	-0.640
-136.414	-200.000	0.084	-0.414
-135.399	-111.661	0.297	0.059
-134.385	96.576	0.258	-0.290
-133.370	-94.526	0.151	0.040
-132.356	-58.576	-0.703	-0.300
-131.341	420.420	-0.327	-0.690
-130.326	-200.000	0.036	-0.251
-129.312	-44.419	0.296	-0.146
-128.297	-132.524	0.191	-0.024
-127.283	79.904	-0.046	0.048
-126.268	800.000	-0.116	-0.358
-125.253	188.235	-0.555	0.817
-124.239	-97.879	-0.662	0.168
-123.224	196.217	-0.062	-0.092
-122.210	38.738	-0.729	0.640
-121.195	620.703	-0.137	-0.338
