DTS Sentinel unit serial number:	SN413079Multiplexer serial number:	ORYXHardware model number:	OX4-SRSoftware version number:	ORYX F/W v4.00 Oryx Data Collector v3.7.2.0data status	okinstallation	princeton_trtdifferential loss correction	single-endedforward channel	channel 2reverse channel	N/Adate	2019/09/16time	02:55:34forward acquisition time	60.00reverse acquisition time	0.00gamma	496.2192k internal	0.2334k external	0.2334temperature offset calibration	0.9971default loss term (dB/km)	0.3790temperature slope calibration	1.0000multiplexer offset coefficient	1.0000multiplexer slope coefficient	1.0000fibre end	0.00T internal ref (°C)	27.75T ext. ref 1 (°C)	10.40T ext. ref 2 (°C)	22.19length (m)	temperature (°C)	Stokes	anti-Stokes-747.200	-100.488	-0.204	0.051
-746.185	-80.867	-0.168	0.056
-745.171	-200.000	0.031	-0.140
-744.156	1.524	0.090	-0.065
-743.142	800.000	-0.017	-0.057
-742.127	-200.000	0.020	0.383
-741.112	464.700	0.077	0.172
-740.098	-105.414	0.131	-0.030
-739.083	-51.942	0.289	-0.135
-738.069	213.963	-0.146	0.231
-737.054	245.028	0.058	-0.097
-736.039	50.904	0.062	-0.059
-735.025	217.208	0.225	0.360
-734.010	800.000	-0.067	-0.276
-732.996	-78.084	-0.432	-0.149
-731.981	11.497	0.226	-0.174
-730.966	83.596	0.125	-0.137
-729.952	800.000	0.111	0.329
-728.937	-106.506	0.105	-0.023
-727.923	12.061	0.013	-0.010
-726.908	31.460	-0.280	-0.241
-725.894	358.590	-0.017	-0.034
-724.879	136.430	0.183	-0.239
-723.864	28.855	0.076	0.065
-722.850	152.570	-0.197	-0.270
-721.835	417.168	0.047	-0.101
-720.821	333.221	-0.087	0.168
-719.806	-83.441	-0.145	-0.047
-718.791	172.085	-0.050	-0.072
-717.777	494.139	-0.071	0.164
-716.762	-200.000	-0.042	0.218
-715.748	-39.587	-0.054	-0.028
-714.733	-23.585	-0.234	-0.141
-713.718	-30.649	-0.313	0.178
-712.704	-5.749	0.063	0.043
-711.689	-129.252	-0.107	0.015
-710.675	-200.000	-0.020	-0.276
-709.660	-82.232	0.215	-0.070
-708.645	-32.098	0.023	0.013
-707.631	800.000	0.046	0.185
-706.616	58.447	0.078	0.077
-705.602	591.592	0.065	-0.162
-704.587	606.123	0.153	-0.382
-703.572	-81.390	-0.076	-0.025
-702.558	-160.713	0.339	0.018
-701.543	477.548	0.111	-0.251
-700.529	492.219	0.076	-0.175
-699.514	-73.799	-0.113	0.041
-698.499	225.423	0.137	-0.223
-697.485	-200.000	-0.036	-0.254
-696.470	301.746	0.079	-0.147
-695.456	-105.283	0.370	-0.085
-694.441	-143.299	-0.290	-0.028
-693.426	54.440	0.159	-0.154
-692.412	-14.458	0.253	-0.164
-691.397	111.574	0.254	-0.307
-690.383	219.565	-0.149	-0.240
-689.368	800.000	0.023	-0.074
-688.354	-45.601	0.191	0.095
-687.339	-101.168	-0.737	-0.181
-686.324	800.000	-0.039	-0.142
-685.310	226.176	-0.094	-0.153
-684.295	17.055	-0.283	-0.225
-683.281	143.796	0.180	-0.241
-682.266	0.867	-0.359	0.258
-681.251	800.000	0.127	0.447
-680.237	-200.000	0.001	-0.022
-679.222	-92.430	-0.167	-0.047
-678.208	-200.000	-0.018	-0.285
-677.193	-200.000	-0.001	0.188
-676.178	11.599	-0.206	0.158
-675.164	78.726	-0.266	-0.285
-674.149	-200.000	-0.016	0.080
-673.135	800.000	-0.073	0.235
-672.120	-14.209	-0.415	-0.268
-671.105	301.514	-0.073	-0.136
-670.091	-23.909	-0.253	0.152
-669.076	457.076	0.084	0.188
-668.062	-74.717	0.170	0.061
-667.047	-137.591	-0.019	-0.002
-666.032	-149.400	0.120	-0.010
-665.018	-200.000	-0.068	-0.381
-664.003	-16.170	-0.288	-0.183
-662.989	-200.000	0.015	-0.071
-661.974	-67.884	0.302	-0.118
-660.959	629.445	-0.066	-0.167
-659.945	-99.928	-0.352	0.088
-658.930	-63.526	-0.089	-0.037
-657.916	607.252	-0.171	-0.428
-656.901	-33.128	-0.386	-0.214
-655.886	800.000	-0.088	-0.323
-654.872	800.000	0.062	-0.268
-653.857	-200.000	-0.056	-0.309
-652.843	-174.005	0.392	0.012
-651.828	800.000	-0.047	-0.186
-650.814	-39.457	-0.205	0.107
-649.799	-200.000	-0.058	-0.331
-648.784	800.000	0.041	-0.150
-647.770	800.000	0.058	0.202
-646.755	800.000	-0.041	0.136
-645.741	-200.000	-0.048	0.268
-644.726	99.661	-0.049	-0.057
-643.711	-63.552	0.387	-0.159
-642.697	27.524	0.058	-0.049
-641.682	65.077	0.094	-0.095
-640.668	-94.099	0.177	0.049
-639.653	13.851	0.141	-0.110
-638.638	339.410	-0.052	-0.102
-637.624	177.576	-0.107	-0.157
-636.609	84.148	0.227	0.249
-635.595	-119.711	-0.319	-0.055
-634.580	800.000	0.063	-0.185
-633.565	-144.726	0.111	0.010
-632.551	-200.000	0.019	-0.128
-631.536	-120.977	-0.097	-0.016
-630.522	93.553	-0.055	0.062
-629.507	-82.806	0.385	-0.124
-628.492	-99.222	0.325	0.082
-627.478	16.815	0.164	-0.130
-626.463	800.000	-0.016	-0.069
-625.449	43.621	0.145	0.133
-624.434	-28.591	-0.168	-0.097
-623.419	-12.429	-0.089	0.058
-622.405	319.098	0.037	0.070
-621.390	-35.924	-0.144	-0.078
-620.376	53.483	-0.082	-0.079
-619.361	39.569	0.056	0.050
-618.346	54.828	0.186	0.179
-617.332	-200.000	-0.041	-0.281
-616.317	8.841	0.133	-0.101
-615.303	390.489	-0.069	-0.144
-614.288	129.761	0.136	0.175
-613.273	-152.390	0.375	0.027
-612.259	800.000	0.034	-0.120
-611.244	-104.301	0.132	0.031
-610.230	171.861	-0.165	-0.236
-609.215	-10.743	-0.222	0.147
-608.201	-115.008	-0.145	0.028
-607.186	252.760	0.093	0.158
-606.171	-78.420	0.236	-0.081
-605.157	346.421	0.031	0.060
-604.142	-33.945	0.262	0.144
-603.128	665.787	-0.131	-0.338
-602.113	-157.934	0.281	0.017
-601.098	345.375	-0.110	-0.216
-600.084	5.584	0.181	-0.134
-599.069	25.162	-0.060	-0.050
-598.055	152.646	-0.146	-0.199
-597.040	-87.767	-0.193	0.058
-596.025	800.000	0.024	-0.100
-595.011	173.438	-0.032	-0.046
-593.996	-9.421	0.008	-0.006
-592.982	-27.451	0.305	0.177
-591.967	-102.633	-0.212	-0.051
-590.952	800.000	-0.019	0.079
-589.938	170.177	-0.083	-0.118
-588.923	-200.000	0.039	0.298
-587.909	800.000	-0.131	0.391
-586.894	-19.370	-0.254	0.157
-585.879	-10.621	-0.160	-0.106
-584.865	448.956	0.100	-0.221
-583.850	117.123	0.048	-0.059
-582.836	-200.000	-0.291	0.000
-581.821	-74.144	-0.156	-0.056
-580.806	-200.000	0.017	-0.332
-579.792	-124.328	-0.330	0.051
-578.777	-94.384	0.085	-0.023
-577.763	-128.101	0.021	-0.003
-576.748	-15.626	0.166	-0.106
-575.733	168.947	-0.104	-0.149
-574.719	33.575	0.165	0.143
-573.704	91.886	0.206	-0.232
-572.690	-140.274	0.188	-0.020
-571.675	177.338	-0.093	0.135
-570.661	800.000	-0.103	0.320
-569.646	420.868	0.068	-0.144
-568.631	-75.076	0.348	-0.124
-567.617	-200.000	0.002	-0.261
-566.602	11.007	0.268	-0.205
-565.588	-85.650	-0.228	-0.071
-564.573	-74.292	0.328	0.118
-563.558	22.595	-0.095	0.078
-562.544	-129.987	0.210	0.029
-561.529	294.386	-0.108	0.196
-560.515	375.724	-0.129	0.262
-559.500	800.000	-0.066	-0.205
-558.485	13.524	-0.353	-0.273
-557.471	336.160	-0.157	-0.304
-556.456	-48.391	-0.205	0.099
-555.442	-100.978	0.163	-0.040
-554.427	-104.126	-0.260	-0.060
-553.412	152.344	-0.332	-0.452
-552.398	800.000	-0.074	-0.270
-551.383	-124.486	0.180	0.028
-550.369	17.250	-0.071	0.056
-549.354	197.592	0.155	-0.237
-548.339	-89.374	-0.276	-0.081
-547.325	-150.265	-0.057	0.004
-546.310	-94.126	-0.102	0.028
-545.296	-30.201	-0.264	0.150
-544.281	-200.000	-0.007	0.261
-543.266	212.360	-0.211	-0.332
-542.252	148.235	-0.035	0.048
-541.237	-0.520	0.155	-0.110
-540.223	72.307	0.084	0.087
-539.208	-124.251	-0.124	-0.019
-538.193	124.818	-0.045	0.056
-537.179	102.683	0.113	0.132
-536.164	-200.000	0.047	-0.206
-535.150	25.808	0.020	-0.017
-534.135	800.000	0.055	-0.240
-533.121	737.980	-0.133	0.356
-532.106	180.994	-0.108	0.159
-531.091	-200.000	-0.008	0.042
-530.077	-97.248	-0.407	-0.106
-529.062	-103.454	0.101	0.024
-528.048	28.825	0.048	-0.041
-527.033	217.538	0.145	0.230
-526.018	-148.775	0.254	-0.020
-525.004	301.129	0.040	-0.074
-523.989	321.871	-0.142	0.270
-522.975	285.223	-0.043	0.076
-521.960	88.342	0.083	-0.091
-520.945	800.000	0.054	-0.216
-519.931	144.047	-0.101	0.134
-518.916	-79.094	0.167	-0.057
-517.902	-64.184	-0.167	0.068
-516.887	-54.132	-0.197	-0.089
-515.872	-71.945	0.275	-0.102
-514.858	428.267	0.127	-0.273
-513.843	-68.473	0.294	0.114
-512.829	-7.291	-0.230	0.155
-511.814	29.111	-0.237	0.200
-510.799	-37.682	0.042	0.022
-509.785	-144.433	0.109	-0.010
-508.770	-103.215	-0.427	-0.101
-507.756	8.526	-0.077	0.057
-506.741	-189.134	-0.235	0.003
-505.726	-143.619	-0.267	-0.025
-504.712	-139.670	-0.302	-0.032
-503.697	-46.107	-0.192	-0.094
-502.683	-200.000	-0.078	-0.457
-501.668	503.003	-0.040	-0.092
-500.653	-200.000	-0.053	0.357
-499.639	-71.232	0.137	-0.051
-498.624	-21.877	0.040	0.024
-497.610	-22.570	0.246	-0.148
-496.595	-143.589	-0.301	-0.029
-495.581	160.833	-0.117	-0.163
-494.566	345.826	0.083	-0.162
-493.551	-200.000	0.042	0.350
-492.537	-23.612	-0.259	0.155
-491.522	-110.980	-0.119	0.024
-490.508	278.120	-0.055	-0.097
-489.493	460.563	0.071	-0.156
-488.478	-114.233	0.165	-0.032
-487.464	320.926	-0.165	-0.312
-486.449	-200.000	0.059	-0.342
-485.435	76.420	0.123	0.129
-484.420	-14.776	-0.199	-0.127
-483.405	-47.034	-0.170	-0.082
-482.391	-200.000	0.015	0.067
-481.376	768.693	0.036	-0.097
-480.362	-42.397	0.198	-0.101
-479.347	237.544	-0.044	-0.072
-478.332	-64.540	-0.110	-0.044
-477.318	-200.000	0.050	0.410
-476.303	-171.698	-0.182	-0.006
-475.289	800.000	0.044	0.152
-474.274	-40.693	-0.153	0.079
-473.259	-200.000	-0.022	-0.277
-472.245	-107.065	0.087	-0.019
-471.230	-33.035	0.219	-0.121
-470.216	180.101	-0.167	-0.244
-469.201	-95.872	0.322	-0.085
-468.186	126.223	-0.172	0.216
-467.172	88.948	0.255	-0.282
-466.157	-97.352	0.144	0.037
-465.143	-16.856	-0.123	-0.077
-464.128	107.402	-0.080	0.095
-463.113	-200.000	-0.010	0.299
-462.099	-151.919	-0.291	0.021
-461.084	-96.764	0.021	0.005
-460.070	-66.953	0.181	0.071
-459.055	-200.000	0.002	0.132
-458.040	-104.472	-0.285	-0.065
-457.026	-200.000	0.045	-0.266
-456.011	163.781	0.189	-0.265
-454.997	-122.980	0.343	-0.055
-453.982	24.795	-0.086	-0.071
-452.968	-61.729	-0.374	-0.156
-451.953	229.043	-0.078	-0.126
-450.938	-41.469	0.082	-0.042
-449.924	-27.718	-0.161	-0.093
-448.909	800.000	-0.095	-0.354
-447.895	425.516	-0.159	-0.340
-446.880	347.957	-0.086	0.169
-445.865	-83.471	-0.199	-0.063
-444.851	-141.725	-0.190	0.019
-443.836	-200.000	0.007	-0.158
-442.822	-131.099	0.230	0.030
-441.807	270.209	0.120	-0.210
-440.792	398.041	-0.025	-0.051
-439.778	164.358	-0.178	0.250
-438.763	424.351	-0.110	0.236
-437.749	800.000	0.036	0.147
-436.734	-6.785	0.094	-0.064
-435.719	230.634	0.171	0.277
-434.705	330.225	0.057	0.109
-433.690	-200.000	0.022	-0.231
-432.676	-158.713	-0.167	-0.010
-431.661	341.556	0.067	0.130
-430.646	663.511	-0.042	0.109
-429.632	-78.709	0.263	0.089
-428.617	-200.000	-0.018	-0.153
-427.603	800.000	-0.046	-0.184
-426.588	227.460	-0.102	0.165
-425.573	-50.879	-0.175	0.082
-424.559	130.831	-0.102	0.130
-423.544	671.075	-0.057	-0.146
-422.530	638.731	-0.136	-0.343
-421.515	-200.000	0.002	0.064
-420.500	-124.284	0.008	0.001
-419.486	-64.391	-0.230	0.093
-418.471	-200.000	-0.026	0.306
-417.457	-99.996	0.315	-0.078
-416.442	800.000	-0.062	-0.176
-415.428	-61.964	0.169	0.070
-414.413	-24.962	0.279	0.164
-413.398	226.108	-0.146	0.235
-412.384	-127.850	0.141	-0.020
-411.369	205.427	0.189	-0.292
-410.355	-200.000	-0.020	-0.156
-409.340	-152.933	0.313	0.022
-408.325	-200.000	-0.007	0.243
-407.311	48.622	-0.133	0.124
-406.296	616.892	0.087	-0.216
-405.282	-86.751	0.160	0.048
-404.267	-200.000	-0.017	0.127
-403.252	-84.959	0.084	0.026
-402.238	-200.000	0.019	-0.089
-401.223	-95.040	0.167	0.045
-400.209	-200.000	0.047	0.269
-399.194	-42.163	-0.144	-0.073
-398.179	-16.547	0.317	-0.199
-397.165	85.806	0.155	0.169
-396.150	-177.078	-0.495	0.012
-395.136	800.000	-0.035	-0.127
-394.121	0.661	-0.231	0.164
-393.106	-84.559	0.146	-0.046
-392.092	-200.000	0.018	-0.105
-391.077	171.216	-0.070	0.099
-390.063	305.603	-0.067	-0.124
-389.048	119.053	0.237	-0.290
-388.033	-75.769	-0.237	0.083
-387.019	-200.000	-0.024	0.151
-386.004	-27.735	0.073	0.042
-384.990	-187.128	-0.129	0.002
-383.975	-63.479	0.167	-0.068
-382.960	133.466	0.041	-0.052
-381.946	-200.000	-0.002	-0.123
-380.931	-30.299	-0.213	0.120
-379.917	112.597	-0.174	-0.209
-378.902	566.176	0.030	0.072
-377.888	-110.082	-0.180	-0.037
-376.873	-131.886	-0.115	0.015
-375.858	-95.220	0.347	0.093
-374.844	-158.112	-0.160	0.009
-373.829	-30.957	0.249	0.139
-372.815	-200.000	0.043	0.284
-371.800	-16.220	-0.110	-0.069
-370.785	96.204	0.145	0.164
-369.771	246.087	0.170	-0.283
-368.756	-3.424	-0.284	-0.196
-367.742	-118.951	0.277	-0.048
-366.727	-200.000	-0.029	-0.224
-365.712	5.466	-0.185	-0.135
-364.698	-21.242	0.103	0.062
-363.683	191.413	-0.142	-0.212
-362.669	-112.459	0.248	-0.049
-361.654	-165.090	0.176	-0.008
-360.639	773.618	0.085	0.229
-359.625	-130.111	0.232	-0.031
-358.610	100.907	0.212	0.244
-357.596	-200.000	0.020	0.270
-356.581	-34.140	-0.166	0.091
-355.566	-147.005	0.390	-0.033
-354.552	49.921	-0.109	-0.101
-353.537	-105.373	0.239	0.054
-352.523	76.048	0.108	0.113
-351.508	-2.427	-0.222	0.154
-350.493	-196.132	-0.211	0.001
-349.479	370.573	-0.070	-0.141
-348.464	43.729	-0.150	-0.136
-347.450	-50.994	-0.154	0.071
-346.435	-123.781	0.225	-0.035
-345.420	-200.000	0.028	-0.288
-344.406	800.000	-0.055	-0.162
-343.391	800.000	-0.066	0.279
-342.377	800.000	0.106	0.445
-341.362	-22.788	-0.130	-0.077
-340.348	256.514	0.042	-0.071
-339.333	510.199	-0.095	-0.218
-338.318	-160.156	0.409	-0.022
-337.304	323.845	0.042	0.080
-336.289	800.000	-0.117	0.459
-335.275	135.386	-0.192	-0.247
-334.260	15.768	0.451	-0.351
-333.245	286.341	-0.151	-0.270
-332.231	575.908	-0.132	-0.319
-331.216	-200.000	0.005	-0.132
-330.202	-101.178	0.232	-0.056
-329.187	49.641	-0.325	0.303
-328.172	329.693	-0.066	0.126
-327.158	-200.000	-0.043	-0.224
-326.143	800.000	0.020	0.078
-325.129	-30.318	0.206	-0.116
-324.114	-92.766	0.169	0.047
-323.099	-75.234	0.134	0.047
-322.085	-98.019	-0.148	-0.038
-321.070	-200.000	-0.058	0.273
-320.056	7.273	0.053	-0.039
-319.041	-0.880	-0.135	0.095
-318.026	-78.409	0.163	0.055
-317.012	171.683	0.099	0.140
-315.997	408.675	0.026	0.055
-314.983	-12.257	-0.268	-0.174
-313.968	74.804	-0.085	0.088
-312.953	88.769	-0.163	-0.179
-311.939	454.577	0.086	0.189
-310.924	511.821	0.175	0.403
-309.910	-200.000	0.023	0.156
-308.895	-66.048	0.173	-0.068
-307.880	-37.631	-0.225	-0.119
-306.866	-94.067	-0.324	0.088
-305.851	-200.000	-0.020	-0.181
-304.837	-46.214	0.030	-0.014
-303.822	711.085	0.094	-0.245
-302.807	-98.343	0.112	-0.028
-301.793	800.000	0.128	-0.380
-300.778	-28.832	0.086	-0.049
-299.764	2.685	-0.119	-0.085
-298.749	-39.278	0.127	0.066
-297.735	1.888	0.110	0.078
-296.720	41.570	-0.170	0.152
-295.705	-200.000	-0.023	-0.135
-294.691	54.085	0.133	0.127
-293.676	-177.696	0.076	-0.002
-292.662	27.285	-0.231	0.192
-291.647	-36.087	-0.217	0.116
-290.632	-165.394	-0.130	0.006
-289.618	-200.000	-0.061	0.268
-288.603	22.503	-0.170	0.137
-287.589	716.681	0.103	-0.271
-286.574	5.501	-0.128	-0.093
-285.559	-96.465	-0.337	0.088
-284.545	19.738	0.392	-0.312
-283.530	-42.721	-0.311	0.156
-282.516	-127.014	0.148	0.021
-281.501	-90.281	0.337	-0.097
-280.486	800.000	-0.081	-0.318
-279.472	-64.583	0.174	-0.070
-278.457	740.319	0.066	0.174
-277.443	44.803	0.081	0.074
-276.428	800.000	0.056	-0.235
-275.413	-98.305	0.101	-0.026
-274.399	-45.870	-0.176	0.086
-273.384	-200.000	0.068	0.301
-272.370	-106.025	0.101	0.023
-271.355	116.024	0.094	0.113
-270.340	-200.000	-0.009	-0.090
-269.326	-200.000	0.025	-0.135
-268.311	426.167	-0.081	-0.172
-267.297	300.939	-0.074	0.136
-266.282	-65.636	0.125	0.050
-265.267	-24.099	0.050	-0.029
-264.253	72.641	-0.197	0.203
-263.238	-32.724	0.270	0.148
-262.224	245.630	-0.074	-0.123
-261.209	47.068	0.112	0.103
-260.195	-137.524	-0.233	0.026
-259.180	34.126	0.260	-0.223
-258.165	-165.302	0.206	-0.009
-257.151	79.675	-0.092	-0.097
-256.136	379.878	0.092	0.186
-255.122	-91.475	0.379	0.107
-254.107	481.997	-0.075	-0.169
-253.092	-200.000	0.030	-0.142
-252.078	66.914	-0.134	0.134
-251.063	-16.900	0.324	0.202
-250.049	-198.195	-0.253	0.001
-249.034	-200.000	-0.007	0.219
-248.019	21.588	0.238	-0.191
-247.005	146.039	-0.136	-0.179
-245.990	-72.196	-0.253	0.093
-244.976	-23.966	-0.254	-0.150
-243.961	100.480	-0.163	0.187
-242.946	-200.000	-0.028	0.275
-241.932	199.754	0.169	0.256
-240.917	11.556	-0.294	-0.222
-239.903	-90.698	0.233	0.066
-238.888	-115.642	0.182	0.034
-237.873	182.862	-0.216	0.314
-236.859	123.999	-0.141	-0.175
-235.844	-200.000	0.006	-0.046
-234.830	-3.972	0.044	0.030
-233.815	-41.753	0.163	-0.082
-232.800	378.839	-0.069	-0.138
-231.786	-26.714	-0.369	0.212
-230.771	-127.179	0.068	-0.010
-229.757	21.013	-0.094	0.075
-228.742	71.135	-0.126	0.128
-227.727	800.000	-0.050	-0.191
-226.713	-53.598	-0.133	0.060
-225.698	203.929	0.046	-0.070
-224.684	31.419	0.197	0.167
-223.669	-200.000	0.004	0.036
-222.655	-32.141	0.242	0.133
-221.640	-200.000	0.015	-0.119
-220.625	57.032	0.146	0.141
-219.611	630.099	-0.002	-0.004
-218.596	-128.632	-0.259	-0.036
-217.582	-32.371	-0.193	-0.106
-216.567	-130.563	0.350	0.047
-215.552	174.157	0.072	0.102
-214.538	52.033	-0.176	-0.165
-213.523	-58.382	0.370	-0.158
-212.509	-200.000	0.005	-0.309
-211.494	-22.420	0.165	-0.098
-210.479	-200.000	-0.016	0.092
-209.465	-139.714	-0.083	0.009
-208.450	511.218	0.087	0.199
-207.436	255.133	0.109	0.183
-206.421	-200.000	0.077	0.426
-205.406	-46.159	-0.219	-0.106
-204.392	91.420	0.180	-0.199
-203.377	-200.000	-0.004	-0.233
-202.363	-43.361	-0.130	-0.065
-201.348	107.672	-0.271	0.318
-200.333	-85.633	-0.185	0.057
-199.319	183.576	-0.013	-0.019
-198.304	69.218	-0.462	0.468
-197.290	372.393	0.104	0.208
-196.275	212.691	-0.052	0.080
-195.260	-77.351	-0.187	0.064
-194.246	3.411	-0.244	0.175
-193.231	7.994	0.132	0.098
-192.217	-200.000	-0.014	0.178
-191.202	344.317	0.105	0.203
-190.187	-200.000	-0.022	0.238
-189.173	-200.000	-0.041	-0.242
-188.158	-125.626	-0.296	-0.044
-187.144	444.030	-0.170	0.367
-186.129	314.306	0.220	0.406
-185.114	180.135	0.136	-0.196
-184.100	16.349	0.208	0.161
-183.085	92.503	0.254	0.282
-182.071	43.610	0.089	0.080
-181.056	-28.533	0.143	-0.081
-180.042	-200.000	-0.007	-0.205
-179.027	-159.841	0.211	0.011
-178.012	-200.000	-0.078	0.650
-176.998	-51.670	0.285	0.131
-175.983	70.558	-0.172	-0.175
-174.969	1.782	0.167	0.119
-173.954	199.742	-0.248	0.374
-172.939	-7.093	-0.287	0.191
-171.925	53.658	0.074	-0.069
-170.910	-20.621	0.192	-0.116
-169.896	800.000	0.031	0.103
-168.881	-86.419	-0.104	0.031
-167.866	107.484	0.009	0.011
-166.852	-200.000	0.046	-0.294
-165.837	260.060	0.062	-0.106
-164.823	61.780	0.067	-0.066
-163.808	-30.084	0.264	0.148
-162.793	-83.737	0.273	-0.085
-161.779	-32.348	0.323	0.177
-160.764	-200.000	0.014	0.570
-159.750	-23.513	0.248	-0.146
-158.735	-200.000	-0.007	0.124
-157.720	-200.000	0.011	-0.079
-156.706	-172.128	0.116	0.004
-155.691	-12.228	0.022	-0.014
-154.677	-19.488	-0.557	0.339
-153.662	172.186	0.054	-0.076
-152.647	-200.000	-0.008	0.113
-151.633	8.835	-0.145	0.107
-150.618	-59.485	0.263	-0.111
-149.604	-59.101	-0.062	0.026
-148.589	199.822	0.124	-0.187
-147.574	-115.996	0.238	-0.043
-146.560	36.869	-0.205	0.178
-145.545	-145.928	-0.419	0.036
-144.531	-87.232	0.186	0.056
-143.516	-49.706	0.058	-0.027
-142.502	-24.861	0.167	0.097
-141.487	248.310	-0.140	0.233
-140.472	-125.736	-0.206	0.031
-139.458	-200.000	0.033	0.238
-138.443	335.871	0.132	0.250
-137.429	-55.162	-0.462	-0.204
-136.414	800.000	0.132	-0.384
-135.399	-159.989	0.288	-0.015
-134.385	800.000	0.053	-0.168
-133.370	800.000	-0.024	0.092
-132.356	-5.010	0.337	0.228
-131.341	140.253	0.073	-0.095
-130.326	-88.552	0.115	-0.034
-129.312	-95.837	0.174	-0.046
-128.297	-98.707	0.399	0.100
-127.283	-168.370	0.306	0.012
-126.268	-98.824	0.177	-0.044
-125.253	-200.000	-0.037	0.163
-124.239	-101.899	-0.182	-0.043
-123.224	16.489	-0.106	-0.082
-122.210	31.838	0.167	-0.141
-121.195	7.306	0.094	-0.069
