DTS Sentinel unit serial number:	SN413079Multiplexer serial number:	ORYXHardware model number:	OX4-SRSoftware version number:	ORYX F/W v4.00 Oryx Data Collector v3.7.2.0data status	okinstallation	princeton_trtdifferential loss correction	single-endedforward channel	channel 2reverse channel	N/Adate	2019/09/18time	05:15:34forward acquisition time	60.00reverse acquisition time	0.00gamma	496.2192k internal	0.2348k external	0.2348temperature offset calibration	0.9985default loss term (dB/km)	0.3790temperature slope calibration	1.0000multiplexer offset coefficient	1.0000multiplexer slope coefficient	1.0000fibre end	0.00T internal ref (°C)	23.50T ext. ref 1 (°C)	0.19T ext. ref 2 (°C)	17.37length (m)	temperature (°C)	Stokes	anti-Stokes-747.200	800.000	-0.069	0.274
-746.185	430.779	-0.217	0.469
-745.171	-190.393	0.134	0.001
-744.156	205.544	0.029	0.045
-743.142	-200.000	-0.213	-0.001
-742.127	407.854	-0.123	0.259
-741.112	123.819	-0.129	-0.162
-740.098	513.705	0.040	0.094
-739.083	93.214	0.092	-0.104
-738.069	-46.609	-0.107	-0.052
-737.054	800.000	-0.073	-0.283
-736.039	181.286	-0.074	0.108
-735.025	-200.000	-0.010	0.094
-734.010	34.744	-0.135	-0.118
-732.996	-200.000	-0.052	0.262
-731.981	-90.593	0.147	-0.042
-730.966	-200.000	0.018	0.109
-729.952	-106.766	-0.081	0.018
-728.937	167.195	0.130	-0.184
-727.923	-200.000	0.034	-0.151
-726.908	191.700	-0.074	0.112
-725.894	98.152	0.116	-0.133
-724.879	18.526	-0.072	0.057
-723.864	161.787	0.089	-0.124
-722.850	5.810	-0.257	0.190
-721.835	-15.298	-0.192	-0.123
-720.821	-129.943	-0.182	-0.025
-719.806	366.987	-0.053	0.106
-718.791	-149.519	0.220	-0.017
-717.777	329.343	0.159	-0.306
-716.762	800.000	-0.123	-0.487
-715.748	158.309	0.156	-0.216
-714.733	-10.159	-0.182	-0.120
-713.718	97.114	0.125	0.144
-712.704	22.497	-0.190	0.155
-711.689	-200.000	-0.057	-0.277
-710.675	-103.347	0.260	-0.061
-709.660	-59.440	-0.421	-0.181
-708.645	-104.062	-0.118	0.027
-707.631	-200.000	-0.019	-0.265
-706.616	99.699	-0.081	-0.094
-705.602	-185.816	0.078	-0.001
-704.587	79.270	-0.174	0.186
-703.572	800.000	0.038	-0.116
-702.558	-200.000	0.054	0.247
-701.543	-200.000	0.004	0.071
-700.529	-161.605	0.052	0.003
-699.514	249.159	-0.172	0.290
-698.499	131.688	0.111	-0.143
-697.485	-153.122	0.202	0.014
-696.470	31.649	0.124	-0.106
-695.456	-75.210	-0.188	-0.067
-694.441	-146.436	0.111	-0.010
-693.426	-117.105	-0.280	-0.051
-692.412	518.070	-0.028	-0.066
-691.397	-104.281	-0.340	-0.079
-690.383	-134.496	0.359	0.044
-689.368	114.508	0.144	-0.175
-688.354	-12.236	-0.334	-0.218
-687.339	149.005	0.049	-0.066
-686.324	-142.349	-0.135	0.013
-685.310	-75.738	-0.201	-0.071
-684.295	-83.720	0.085	-0.027
-683.281	120.631	-0.083	-0.103
-682.266	116.303	-0.194	0.237
-681.251	-117.820	0.716	0.128
-680.237	87.387	0.117	0.129
-679.222	-0.837	-0.047	-0.033
-678.208	-77.046	0.171	-0.059
-677.193	-41.703	-0.077	-0.039
-676.178	29.357	0.071	0.060
-675.164	-11.803	-0.122	0.080
-674.149	800.000	-0.033	-0.136
-673.135	59.930	0.215	-0.212
-672.120	-150.092	-0.318	-0.025
-671.105	-200.000	0.027	0.133
-670.091	800.000	-0.085	-0.242
-669.076	-200.000	-0.030	0.222
-668.062	-157.410	-0.192	0.012
-667.047	800.000	-0.020	0.063
-666.032	800.000	-0.110	-0.322
-665.018	277.966	-0.076	-0.135
-664.003	261.897	-0.190	0.329
-662.989	17.204	-0.166	0.131
-661.974	-112.305	-0.296	0.059
-660.959	-200.000	0.013	0.196
-659.945	-200.000	-0.023	0.218
-658.930	-191.054	-0.045	0.000
-657.916	751.261	0.079	0.213
-656.901	-181.414	0.290	0.006
-655.886	78.592	-0.183	-0.195
-654.872	97.291	-0.045	-0.051
-653.857	-25.308	0.071	0.042
-652.843	668.866	-0.237	-0.611
-651.828	-113.401	-0.134	0.026
-650.814	-200.000	-0.002	-0.267
-649.799	-34.853	-0.218	0.118
-648.784	800.000	-0.055	-0.190
-647.770	-98.517	-0.243	-0.062
-646.755	800.000	0.043	-0.183
-645.741	-88.421	-0.089	0.026
-644.726	68.857	0.062	-0.063
-643.711	194.338	0.144	-0.218
-642.697	800.000	-0.063	0.256
-641.682	132.308	-0.120	-0.153
-640.668	171.803	0.099	0.141
-639.653	671.640	0.118	-0.304
-638.638	-200.000	0.012	0.087
-637.624	146.842	0.128	-0.171
-636.609	-200.000	0.043	-0.280
-635.595	-117.788	0.280	-0.050
-634.580	-109.062	-0.248	0.053
-633.565	-50.411	0.374	0.176
-632.551	-68.026	-0.214	-0.083
-631.536	779.998	-0.035	0.096
-630.522	101.979	-0.059	-0.069
-629.507	-54.895	-0.438	0.196
-628.492	50.031	-0.165	0.155
-627.478	263.561	-0.043	-0.075
-626.463	800.000	-0.114	0.372
-625.449	30.285	-0.070	-0.059
-624.434	197.395	0.240	-0.365
-623.419	800.000	-0.062	-0.252
-622.405	-50.277	-0.059	-0.028
-621.390	-88.296	0.295	-0.088
-620.376	-86.138	-0.266	0.082
-619.361	-31.090	0.278	-0.156
-618.346	-97.982	0.105	0.027
-617.332	-200.000	0.043	-0.264
-616.317	-200.000	-0.012	-0.210
-615.303	-152.341	0.173	0.012
-614.288	-200.000	-0.029	-0.251
-613.273	88.419	-0.089	0.098
-612.259	800.000	0.078	-0.259
-611.244	800.000	-0.020	-0.072
-610.230	800.000	-0.011	0.043
-609.215	-69.243	0.234	0.089
-608.201	-68.456	-0.115	-0.044
-607.186	-200.000	0.060	0.359
-606.171	-166.782	-0.098	0.004
-605.157	800.000	0.055	0.172
-604.142	127.884	-0.075	-0.094
-603.128	163.025	-0.104	-0.146
-602.113	-70.492	0.084	-0.032
-601.098	546.308	0.032	0.075
-600.084	199.437	0.182	-0.277
-599.069	-108.864	0.103	-0.022
-598.055	166.615	0.122	0.172
-597.040	-114.524	-0.205	-0.039
-596.025	-200.000	0.017	-0.133
-595.011	-200.000	-0.076	-0.333
-593.996	-5.167	-0.231	-0.158
-592.982	-75.421	0.238	0.084
-591.967	182.975	-0.113	0.165
-590.952	-164.013	0.102	0.005
-589.938	-200.000	0.016	-0.071
-588.923	20.204	-0.189	-0.151
-587.909	-200.000	0.026	-0.136
-586.894	-178.316	0.250	-0.006
-585.879	46.369	-0.247	-0.227
-584.865	47.773	0.125	-0.116
-583.850	106.202	-0.161	0.190
-582.836	-108.422	-0.218	-0.047
-581.821	-128.256	-0.199	0.028
-580.806	-179.170	0.126	0.003
-579.792	469.838	-0.205	0.457
-578.777	144.336	-0.098	0.130
-577.763	277.285	0.122	0.215
-576.748	800.000	0.045	0.128
-575.733	194.762	-0.119	0.179
-574.719	309.887	-0.188	0.348
-573.704	800.000	0.040	-0.130
-572.690	133.559	0.121	-0.156
-571.675	84.932	0.156	0.170
-570.661	-67.516	-0.158	0.062
-569.646	-13.129	-0.364	0.235
-568.631	800.000	0.082	-0.252
-567.617	-74.726	-0.193	0.069
-566.602	-200.000	0.025	-0.373
-565.588	338.056	-0.089	0.172
-564.573	800.000	-0.040	-0.119
-563.558	-121.341	-0.131	0.022
-562.544	-61.544	0.189	-0.079
-561.529	346.328	0.131	0.256
-560.515	-97.339	-0.224	-0.058
-559.500	-57.918	-0.295	0.128
-558.485	30.089	0.158	-0.133
-557.471	800.000	0.063	0.236
-556.456	-116.814	-0.350	0.064
-555.442	-93.810	0.488	0.133
-554.427	27.798	-0.227	0.190
-553.412	-74.850	-0.099	-0.035
-552.398	-61.210	-0.014	-0.006
-551.383	84.308	0.275	0.298
-550.369	-200.000	0.009	-0.080
-549.354	192.782	0.199	0.298
-548.339	-80.064	-0.055	0.018
-547.325	800.000	0.051	-0.209
-546.310	-152.214	-0.188	0.013
-545.296	315.442	0.019	-0.035
-544.281	800.000	0.089	0.322
-543.266	102.976	0.108	-0.125
-542.252	-0.622	-0.128	-0.090
-541.237	189.844	-0.062	-0.093
-540.223	-162.995	-0.345	0.017
-539.208	24.953	-0.335	0.276
-538.193	-106.289	-0.218	0.048
-537.179	121.258	0.145	0.179
-536.164	-95.437	-0.249	-0.066
-535.150	-94.977	0.330	0.089
-534.135	-200.000	-0.018	-0.140
-533.121	394.105	-0.092	-0.190
-532.106	-137.874	0.007	-0.001
-531.091	-200.000	-0.001	-0.089
-530.077	-179.785	0.223	-0.005
-529.062	-32.569	-0.251	0.139
-528.048	-118.605	-0.555	0.097
-527.033	-92.684	0.061	-0.017
-526.018	-128.233	-0.090	-0.013
-525.004	-200.000	-0.017	0.230
-523.989	-22.506	-0.306	-0.184
-522.975	-110.445	0.371	0.076
-521.960	-200.000	0.041	0.224
-520.945	18.425	0.175	-0.138
-519.931	-200.000	0.003	0.153
-518.916	69.232	0.091	0.093
-517.902	-200.000	0.060	0.314
-516.887	800.000	0.082	-0.312
-515.872	328.448	-0.048	-0.091
-514.858	146.937	0.125	0.166
-513.843	-113.380	0.151	-0.029
-512.829	3.184	-0.072	-0.052
-511.814	296.612	-0.081	0.148
-510.799	800.000	0.044	0.185
-509.785	-10.796	0.289	-0.189
-508.770	304.815	-0.092	-0.169
-507.756	338.644	0.122	-0.235
-506.741	-145.667	0.232	0.020
-505.726	-153.729	0.106	0.007
-504.712	-200.000	0.026	-0.202
-503.697	-153.472	0.069	0.005
-502.683	-200.000	0.041	-0.232
-501.668	-112.572	-0.049	-0.010
-500.653	28.705	0.032	-0.027
-499.639	43.910	0.069	-0.063
-498.624	234.806	0.053	-0.087
-497.610	-23.376	-0.396	0.236
-496.595	-200.000	0.030	0.302
-495.581	19.680	-0.172	-0.137
-494.566	-200.000	0.017	0.185
-493.551	-200.000	0.033	0.318
-492.537	-147.281	-0.166	0.014
-491.522	-150.645	0.075	-0.006
-490.508	-129.118	-0.145	0.020
-489.493	-2.187	0.240	0.167
-488.478	-63.304	0.032	-0.013
-487.464	-200.000	0.040	-0.243
-486.449	-200.000	0.021	-0.149
-485.435	-90.900	-0.186	-0.053
-484.420	-102.203	-0.235	-0.056
-483.405	459.142	-0.050	0.111
-482.391	240.967	0.111	-0.183
-481.376	281.029	-0.161	0.284
-480.362	162.308	-0.164	-0.227
-479.347	800.000	0.030	0.090
-478.332	-200.000	0.048	-0.219
-477.318	-69.269	-0.261	-0.099
-476.303	-118.123	0.417	0.074
-475.289	-6.700	-0.054	-0.037
-474.274	-200.000	-0.003	0.090
-473.259	-200.000	-0.433	-0.001
-472.245	501.159	0.127	-0.290
-471.230	-117.858	-0.206	0.037
-470.216	-143.825	0.132	0.012
-469.201	33.174	-0.324	0.278
-468.186	-71.011	0.451	0.168
-467.172	6.462	-0.087	0.064
-466.157	90.629	-0.061	-0.068
-465.143	36.803	0.284	0.248
-464.128	114.388	-0.144	-0.173
-463.113	-200.000	0.049	-0.298
-462.099	-103.914	-0.026	0.006
-461.084	-150.571	-0.210	0.016
-460.070	-85.516	-0.284	0.087
-459.055	-23.687	0.113	0.067
-458.040	-100.691	0.379	-0.092
-457.026	-24.578	0.095	0.056
-456.011	186.206	0.114	-0.167
-454.997	-42.910	-0.223	-0.112
-453.982	-140.071	0.299	-0.031
-452.968	95.364	-0.154	-0.173
-451.953	112.729	-0.112	-0.134
-450.938	636.599	-0.026	0.065
-449.924	-180.501	0.137	-0.003
-448.909	2.255	0.178	0.127
-447.895	88.085	-0.151	0.166
-446.880	800.000	0.076	-0.216
-445.865	-200.000	0.048	-0.291
-444.851	-102.657	-0.173	0.041
-443.836	342.459	0.071	0.136
-442.822	162.979	0.117	-0.162
-441.807	96.551	-0.187	-0.211
-440.792	5.148	0.093	-0.068
-439.778	-200.000	-0.037	-0.282
-438.763	105.157	0.159	-0.185
-437.749	321.661	-0.054	-0.101
-436.734	-94.212	-0.412	0.111
-435.719	-200.000	0.067	0.320
-434.705	-16.273	0.346	-0.217
-433.690	-183.292	-0.345	0.006
-432.676	-200.000	0.015	-0.115
-431.661	-200.000	0.024	0.284
-430.646	394.306	0.085	0.175
-429.632	-122.837	-0.237	-0.038
-428.617	343.621	0.103	0.200
-427.603	425.635	-0.084	-0.178
-426.588	-57.944	0.162	-0.070
-425.573	-11.757	0.270	-0.175
-424.559	-13.196	-0.126	-0.081
-423.544	43.041	-0.044	-0.040
-422.530	800.000	-0.155	0.468
-421.515	10.088	-0.196	0.147
-420.500	24.626	0.043	-0.035
-419.486	133.334	-0.030	0.038
-418.471	-6.958	0.098	0.066
-417.457	652.893	0.106	0.268
-416.442	-41.139	0.289	0.147
-415.428	613.209	0.071	-0.176
-414.413	-49.008	-0.338	-0.160
-413.398	161.669	-0.074	0.102
-412.384	800.000	0.046	-0.136
-411.369	-174.229	0.294	-0.008
-410.355	57.376	-0.169	-0.163
-409.340	96.917	0.179	0.202
-408.325	-18.102	-0.262	-0.162
-407.311	-200.000	0.112	-0.000
-406.296	78.257	0.205	0.216
-405.282	-200.000	-0.024	0.228
-404.267	203.098	0.086	-0.132
-403.252	487.354	-0.132	0.298
-402.238	-200.000	0.019	0.205
-401.223	-114.193	-0.057	-0.011
-400.209	2.115	-0.433	0.308
-399.194	158.052	-0.145	-0.198
-398.179	167.159	0.258	-0.362
-397.165	-200.000	0.048	0.218
-396.150	-78.558	0.275	-0.093
-395.136	144.488	0.163	0.215
-394.121	54.954	-0.102	-0.097
-393.106	89.413	0.359	-0.394
-392.092	195.001	-0.173	-0.259
-391.077	50.002	0.445	0.414
-390.063	46.453	0.127	-0.116
-389.048	-200.000	0.001	-0.080
-388.033	318.326	0.086	-0.160
-387.019	-59.421	-0.192	0.081
-386.004	411.116	0.102	0.213
-384.990	-36.357	0.174	-0.093
-383.975	-200.000	-0.028	0.224
-382.960	21.669	0.138	-0.111
-381.946	-147.540	0.129	-0.011
-380.931	-31.114	0.138	0.077
-379.917	-200.000	0.015	-0.073
-378.902	-81.222	-0.190	-0.062
-377.888	-24.575	-0.167	0.098
-376.873	10.831	-0.240	-0.180
-375.858	-200.000	-0.007	-0.245
-374.844	53.016	0.136	-0.129
-373.829	41.992	0.142	0.127
-372.815	152.873	-0.169	0.228
-371.800	-91.201	-0.357	0.101
-370.785	-77.244	-0.169	0.058
-369.771	-200.000	-0.078	0.388
-368.756	-200.000	-0.010	0.134
-367.742	155.973	-0.072	-0.098
-366.727	-200.000	0.041	0.202
-365.712	-200.000	0.076	0.368
-364.698	119.829	-0.201	-0.246
-363.683	-186.234	0.458	-0.007
-362.669	800.000	-0.029	0.088
-361.654	-200.000	0.026	-0.132
-360.639	-29.572	-0.077	-0.044
-359.625	-109.055	0.157	-0.033
-358.610	-181.067	0.227	0.004
-357.596	800.000	-0.055	0.210
-356.581	307.397	-0.142	-0.260
-355.566	-200.000	0.007	-0.123
-354.552	-200.000	-0.019	0.102
-353.537	-177.576	0.366	-0.009
-352.523	-139.680	-0.248	-0.026
-351.508	60.900	-0.163	-0.159
-350.493	165.819	-0.153	0.214
-349.479	-140.467	0.492	0.050
-348.464	57.386	0.055	0.052
-347.450	27.230	0.150	0.124
-346.435	800.000	0.086	-0.257
-345.420	-165.003	-0.352	-0.015
-344.406	99.489	-0.126	-0.143
-343.391	197.830	-0.060	-0.089
-342.377	26.386	0.171	0.140
-341.362	800.000	0.090	-0.252
-340.348	36.232	0.164	0.142
-339.333	-20.422	0.149	0.090
-338.318	191.038	-0.039	-0.057
-337.304	115.509	0.151	-0.181
-336.289	-200.000	0.041	0.186
-335.275	-172.515	-0.266	0.008
-334.260	-58.566	0.110	-0.047
-333.245	-65.631	0.087	-0.034
-332.231	684.760	-0.059	0.152
-331.216	-111.822	0.328	-0.065
-330.202	-55.352	-0.087	0.039
-329.187	-117.845	0.134	0.024
-328.172	-3.970	-0.348	0.237
-327.158	-84.295	0.209	-0.065
-326.143	145.455	-0.124	-0.163
-325.129	109.487	-0.058	-0.069
-324.114	194.786	-0.200	-0.298
-323.099	195.468	-0.116	-0.173
-322.085	132.329	0.191	-0.242
-321.070	10.285	-0.253	0.189
-320.056	-200.000	-0.007	-0.079
-319.041	-60.040	-0.256	-0.107
-318.026	-71.669	-0.325	-0.119
-317.012	125.831	0.186	-0.231
-315.997	-200.000	0.010	-0.104
-314.983	-71.564	-0.188	0.069
-313.968	62.195	0.210	-0.206
-312.953	800.000	0.028	0.105
-311.939	-151.554	-0.173	-0.013
-310.924	800.000	0.031	-0.116
-309.910	800.000	-0.096	-0.303
-308.895	-101.703	0.228	0.054
-307.880	-200.000	-0.022	-0.129
-306.866	-59.203	0.302	0.128
-305.851	10.734	0.363	0.272
-304.837	20.386	0.223	0.177
-303.822	-142.046	-0.145	-0.014
-302.807	-61.139	0.248	0.103
-301.793	491.910	-0.077	-0.174
-300.778	-116.455	0.041	-0.007
-299.764	-77.663	0.307	-0.104
-298.749	304.696	0.060	-0.109
-297.735	-41.272	0.211	0.107
-296.720	403.203	-0.064	-0.133
-295.705	-27.892	-0.066	-0.037
-294.691	683.777	-0.103	-0.265
-293.676	170.815	-0.192	0.270
-292.662	-29.654	0.399	-0.224
-291.647	-18.087	0.248	0.153
-290.632	-64.258	-0.283	-0.113
-289.618	-200.000	-0.009	0.337
-288.603	-135.594	0.136	0.016
-287.589	-200.000	0.007	-0.053
-286.574	-26.429	0.287	0.165
-285.559	-12.775	0.266	0.170
-284.545	429.685	-0.123	0.262
-283.530	-62.580	0.239	-0.097
-282.516	-200.000	-0.016	0.248
-281.501	385.040	0.070	0.142
-280.486	155.197	0.100	-0.135
-279.472	-34.378	-0.093	0.050
-278.457	-34.471	0.153	-0.082
-277.443	29.028	0.087	-0.073
-276.428	-56.362	-0.204	0.089
-275.413	-200.000	0.020	0.353
-274.399	163.166	0.077	0.106
-273.384	629.415	0.101	-0.250
-272.370	-62.709	0.314	0.128
-271.355	-35.397	-0.199	-0.106
-270.340	-92.998	-0.312	0.085
-269.326	20.393	0.100	0.079
-268.311	-106.507	0.182	-0.040
-267.297	146.336	0.149	-0.196
-266.282	-121.218	0.199	-0.033
-265.267	-53.096	0.164	0.074
-264.253	498.768	-0.120	0.270
-263.238	-169.114	0.281	0.010
-262.224	-200.000	0.017	0.300
-261.209	-173.511	-0.321	-0.009
-260.195	-30.467	0.033	0.018
-259.180	800.000	0.046	-0.193
-258.165	204.896	-0.175	0.266
-257.151	76.533	-0.235	-0.244
-256.136	-200.000	0.002	-0.157
-255.122	800.000	-0.051	0.187
-254.107	-8.254	-0.190	-0.125
-253.092	-200.000	0.002	0.053
-252.078	21.291	0.206	-0.164
-251.063	-200.000	0.002	-0.036
-250.049	158.782	0.072	-0.097
-249.034	-200.000	0.035	0.228
-248.019	-57.270	-0.378	-0.163
-247.005	630.260	-0.131	-0.325
-245.990	-200.000	-0.010	0.173
-244.976	-25.252	-0.162	0.094
-243.961	-87.491	-0.290	0.086
-242.946	87.472	0.385	-0.417
-241.932	800.000	-0.064	-0.195
-240.917	92.580	-0.057	0.063
-239.903	-36.082	0.141	-0.074
-238.888	-200.000	0.041	-0.419
-237.873	-49.244	-0.069	-0.033
-236.859	-155.764	-0.287	0.018
-235.844	116.692	0.253	0.304
-234.830	-29.131	-0.153	-0.086
-233.815	119.082	0.137	0.166
-232.800	800.000	-0.031	0.100
-231.786	-157.387	-0.204	-0.012
-230.771	-92.905	-0.180	0.049
-229.757	-200.000	-0.050	0.284
-228.742	118.721	-0.067	-0.081
-227.727	-89.448	0.049	0.014
-226.713	46.782	-0.143	0.131
-225.698	-185.056	0.176	-0.003
-224.684	-28.470	0.454	0.256
-223.669	200.715	-0.049	0.074
-222.655	800.000	-0.071	0.249
-221.640	-129.385	-0.186	0.025
-220.625	588.746	-0.020	-0.048
-219.611	13.951	0.235	0.179
-218.596	106.095	-0.229	-0.265
-217.582	-31.683	0.261	-0.143
-216.567	288.355	-0.090	0.160
-215.552	-200.000	-0.024	-0.330
-214.538	657.074	-0.026	-0.066
-213.523	528.428	-0.116	-0.269
-212.509	774.493	-0.091	0.243
-211.494	800.000	-0.027	-0.107
-210.479	-200.000	0.002	0.069
-209.465	-18.772	0.133	0.081
-208.450	512.924	0.069	0.158
-207.436	-160.487	0.070	0.004
-206.421	-113.283	0.193	-0.037
-205.406	-59.122	-0.118	-0.050
-204.392	800.000	-0.045	0.131
-203.377	-158.098	0.135	-0.008
-202.363	800.000	0.075	-0.235
-201.348	-200.000	0.035	-0.234
-200.333	-118.866	0.200	0.034
-199.319	800.000	-0.036	0.143
-198.304	-200.000	0.012	0.090
-197.290	262.243	0.196	0.333
-196.275	-126.383	-0.296	0.043
-195.260	800.000	-0.092	0.293
-194.246	123.782	0.140	-0.172
-193.231	-122.562	-0.108	0.017
-192.217	-112.552	-0.079	-0.015
-191.202	5.560	0.306	-0.221
-190.187	185.445	0.058	0.084
-189.173	-200.000	0.018	0.235
-188.158	-120.097	-0.179	-0.030
-187.144	22.846	-0.351	-0.281
-186.129	800.000	0.025	-0.107
-185.114	188.478	-0.138	0.202
-184.100	105.489	0.045	0.053
-183.085	-200.000	-0.042	-0.220
-182.071	-18.499	-0.170	-0.104
-181.056	88.191	0.187	0.203
-180.042	146.878	-0.039	-0.052
-179.027	68.245	0.064	-0.064
-178.012	-18.895	-0.064	-0.039
-176.998	246.723	-0.147	0.242
-175.983	54.113	-0.021	-0.020
-174.969	-200.000	-0.101	-0.501
-173.954	-200.000	0.006	-0.048
-172.939	800.000	-0.139	0.413
-171.925	-86.789	-0.307	-0.092
-170.910	800.000	0.060	0.209
-169.896	-101.267	0.043	-0.010
-168.881	-5.247	0.081	-0.054
-167.866	-123.303	0.188	0.029
-166.852	-57.224	0.090	-0.039
-165.837	-101.762	0.075	0.018
-164.823	-90.160	-0.286	0.081
-163.808	179.076	0.072	0.103
-162.793	319.418	-0.134	-0.249
-161.779	-200.000	-0.004	-0.150
-160.764	480.724	0.132	-0.293
-159.750	78.249	0.099	0.104
-158.735	444.142	-0.085	0.183
-157.720	270.161	-0.035	0.060
-156.706	-178.915	0.267	0.006
-155.691	790.857	0.068	-0.181
-154.677	110.602	-0.160	0.187
-153.662	129.319	-0.078	0.097
-152.647	-53.549	-0.056	-0.025
-151.633	29.305	-0.025	0.021
-150.618	76.407	0.121	0.125
-149.604	800.000	0.054	-0.149
-148.589	85.461	0.181	0.194
-147.574	207.726	-0.133	-0.202
-146.560	-131.251	0.015	-0.002
-145.545	-200.000	-0.007	-0.070
-144.531	-146.712	0.349	0.029
-143.516	-200.000	-0.064	0.444
-142.502	800.000	0.028	0.097
-141.487	235.721	-0.153	0.247
-140.472	144.579	0.049	0.064
-139.458	520.902	-0.094	-0.216
-138.443	-200.000	-0.027	-0.128
-137.429	135.030	-0.182	0.231
-136.414	-55.766	-0.190	-0.083
-135.399	748.606	0.059	-0.156
-134.385	-200.000	0.013	-0.076
-133.370	-132.968	0.103	0.013
-132.356	-106.416	0.093	-0.020
-131.341	-153.933	-0.193	-0.013
-130.326	-200.000	-0.006	0.216
-129.312	59.402	-0.120	0.115
-128.297	182.291	-0.257	0.369
-127.283	-200.000	0.005	0.215
-126.268	-144.791	0.289	-0.026
-125.253	-10.073	0.311	-0.202
-124.239	351.577	-0.035	-0.069
-123.224	-78.205	0.313	-0.105
