DTS Sentinel unit serial number:	SN413079Multiplexer serial number:	ORYXHardware model number:	OX4-SRSoftware version number:	ORYX F/W v4.00 Oryx Data Collector v3.7.2.0data status	okinstallation	princeton_trtdifferential loss correction	single-endedforward channel	channel 2reverse channel	N/Adate	2019/09/12time	01:37:11forward acquisition time	60.00reverse acquisition time	0.00gamma	496.2192k internal	0.2326k external	0.2326temperature offset calibration	1.0089default loss term (dB/km)	0.3790temperature slope calibration	1.0000multiplexer offset coefficient	1.0000multiplexer slope coefficient	1.0000fibre end	0.00T internal ref (°C)	32.87T ext. ref 1 (°C)	2.07T ext. ref 2 (°C)	27.49length (m)	temperature (°C)	Stokes	anti-Stokes-747.200	-200.000	0.023	0.297
-746.185	184.249	-0.173	0.258
-745.171	-110.233	0.118	0.025
-744.156	562.168	-0.112	0.275
-743.142	-200.000	-0.046	0.522
-742.127	157.185	-0.239	0.334
-741.112	-115.147	0.194	0.037
-740.098	72.246	-0.106	0.111
-739.083	-200.000	0.023	0.178
-738.069	-74.154	0.271	0.099
-737.054	35.995	-0.098	0.087
-736.039	-101.881	0.152	0.037
-735.025	-200.000	-0.053	0.275
-734.010	-194.097	-0.309	-0.003
-732.996	-200.000	0.028	-0.230
-731.981	33.016	-0.083	-0.072
-730.966	67.430	-0.208	0.214
-729.952	97.672	0.111	-0.129
-728.937	107.673	-0.204	0.244
-727.923	-149.671	0.120	-0.010
-726.908	142.034	-0.216	-0.289
-725.894	-29.850	-0.259	-0.149
-724.879	-76.470	-0.263	-0.093
-723.864	-200.000	0.003	-0.142
-722.850	115.399	-0.169	-0.208
-721.835	-200.000	-0.038	-0.215
-720.821	800.000	0.055	-0.238
-719.806	-81.432	-0.292	-0.097
-718.791	800.000	-0.085	0.336
-717.777	247.030	0.049	-0.083
-716.762	800.000	0.078	0.331
-715.748	-141.178	0.244	0.025
-714.733	439.784	0.044	0.096
-713.718	251.682	0.194	0.333
-712.704	-112.667	0.027	0.005
-711.689	121.532	-0.159	0.199
-710.675	-200.000	-0.025	0.235
-709.660	408.100	0.088	-0.188
-708.645	109.799	0.068	-0.082
-707.631	800.000	-0.033	-0.116
-706.616	800.000	-0.102	0.323
-705.602	-22.791	-0.167	-0.101
-704.587	307.068	0.125	0.234
-703.572	254.459	0.077	0.132
-702.558	-111.820	0.125	0.025
-701.543	-16.675	-0.123	-0.078
-700.529	-200.000	0.013	-0.143
-699.514	-200.000	0.023	-0.193
-698.499	1.686	0.180	-0.130
-697.485	127.971	-0.269	-0.345
-696.470	-200.000	-0.005	0.190
-695.456	71.259	0.194	-0.202
-694.441	107.378	-0.075	-0.090
-693.426	-184.337	0.137	-0.002
-692.412	-75.584	0.321	0.115
-691.397	-47.898	0.163	-0.079
-690.383	-60.241	-0.087	0.037
-689.368	-173.483	0.141	0.004
-688.354	-200.000	0.028	0.171
-687.339	475.936	-0.069	-0.158
-686.324	443.578	0.016	0.035
-685.310	72.591	-0.120	0.126
-684.295	28.450	-0.185	-0.157
-683.281	-98.654	-0.454	-0.116
-682.266	46.697	-0.361	-0.338
-681.251	800.000	0.037	0.147
-680.237	-53.212	-0.202	-0.093
-679.222	51.716	-0.057	-0.054
-678.208	-119.078	-0.051	0.009
-677.193	-200.000	-0.006	0.098
-676.178	-125.551	0.326	-0.050
-675.164	389.554	0.064	-0.133
-674.149	14.632	0.336	-0.264
-673.135	-112.574	0.231	-0.046
-672.120	-32.401	-0.072	-0.040
-671.105	-200.000	-0.022	-0.223
-670.091	-44.820	0.179	-0.090
-669.076	-134.512	-0.274	-0.034
-668.062	-200.000	-0.005	-0.059
-667.047	122.015	-0.035	-0.044
-666.032	315.146	0.134	-0.253
-665.018	800.000	0.045	-0.147
-664.003	172.012	-0.059	0.085
-662.989	109.426	0.103	-0.124
-661.974	65.497	0.070	0.071
-660.959	216.561	-0.157	-0.251
-659.945	-149.754	-0.138	0.011
-658.930	800.000	0.044	-0.128
-657.916	-200.000	0.011	-0.258
-656.901	800.000	0.058	-0.176
-655.886	102.614	0.183	0.215
-654.872	6.791	-0.195	0.146
-653.857	800.000	0.043	0.158
-652.843	382.003	-0.096	-0.198
-651.828	22.496	-0.315	0.259
-650.814	-163.981	0.196	0.009
-649.799	-62.639	-0.070	-0.029
-648.784	-74.850	-0.345	-0.124
-647.770	148.727	-0.052	-0.071
-646.755	-3.692	-0.263	-0.184
-645.741	-59.549	-0.230	0.099
-644.726	-200.000	-0.035	-0.166
-643.711	800.000	-0.102	-0.283
-642.697	-74.878	-0.231	-0.083
-641.682	573.921	0.034	0.084
-640.668	146.311	-0.147	-0.198
-639.653	-121.369	0.097	0.016
-638.638	151.946	-0.200	-0.274
-637.624	-200.000	0.006	0.103
-636.609	102.656	-0.124	0.145
-635.595	-70.952	-0.220	-0.083
-634.580	127.154	0.113	-0.143
-633.565	233.979	0.029	0.048
-632.551	-47.065	0.104	-0.051
-631.536	91.275	0.312	0.352
-630.522	-191.424	-0.449	0.005
-629.507	-200.000	-0.007	-0.060
-628.492	647.611	0.084	0.215
-627.478	-200.000	0.008	0.274
-626.463	800.000	-0.033	0.126
-625.449	11.933	-0.206	-0.159
-624.434	76.812	0.158	-0.169
-623.419	-91.395	-0.479	0.137
-622.405	-87.201	-0.383	-0.117
-621.390	599.562	0.049	0.122
-620.376	800.000	-0.132	-0.467
-619.361	6.538	-0.166	-0.124
-618.346	54.869	0.104	0.100
-617.332	405.348	0.122	-0.259
-616.317	800.000	-0.080	0.318
-615.303	19.214	0.153	0.123
-614.288	-115.061	0.271	-0.052
-613.273	-43.174	0.186	-0.095
-612.259	53.912	0.234	-0.226
-611.244	143.412	0.178	-0.237
-610.230	-159.232	-0.243	-0.014
-609.215	335.912	-0.190	0.369
-608.201	482.493	0.100	-0.228
-607.186	207.698	0.287	0.449
-606.171	-56.117	0.056	0.025
-605.157	82.646	0.118	0.129
-604.142	74.544	0.021	-0.022
-603.128	-200.000	0.037	-0.290
-602.113	85.472	0.212	0.234
-601.098	800.000	0.117	0.386
-600.084	-12.371	0.114	0.074
-599.069	-96.714	0.247	0.065
-598.055	4.833	-0.126	-0.093
-597.040	-131.717	-0.172	-0.023
-596.025	223.829	-0.098	0.158
-595.011	-200.000	-0.052	0.231
-593.996	-72.326	-0.375	0.139
-592.982	-124.216	0.047	-0.007
-591.967	-200.000	0.003	-0.025
-590.952	-200.000	0.059	0.312
-589.938	-50.499	-0.124	-0.059
-588.923	312.299	0.086	0.161
-587.909	354.950	0.213	0.426
-586.894	-29.492	-0.210	0.120
-585.879	-18.993	0.046	-0.029
-584.865	800.000	-0.096	-0.265
-583.850	-83.247	-0.209	-0.067
-582.836	-200.000	-0.023	0.283
-581.821	-200.000	0.022	-0.233
-580.806	262.300	0.130	-0.226
-579.792	-200.000	0.010	-0.375
-578.777	800.000	-0.076	0.287
-577.763	-200.000	-0.021	0.159
-576.748	190.786	-0.212	-0.320
-575.733	97.462	-0.026	-0.030
-574.719	38.735	-0.089	0.080
-573.704	-140.160	-0.300	-0.032
-572.690	800.000	0.019	-0.074
-571.675	-145.673	-0.289	-0.026
-570.661	-69.067	-0.114	-0.044
-569.646	-19.999	-0.214	-0.132
-568.631	-12.816	-0.341	0.223
-567.617	-56.978	0.413	0.182
-566.602	56.587	0.115	-0.112
-565.588	146.829	0.199	0.268
-564.573	-42.643	0.149	-0.076
-563.558	800.000	0.107	-0.319
-562.544	-117.041	0.187	-0.034
-561.529	-80.990	-0.214	-0.071
-560.515	223.456	-0.091	-0.147
-559.500	-200.000	-0.017	-0.294
-558.485	-167.041	0.082	0.003
-557.471	-90.570	0.268	-0.078
-556.456	-75.821	-0.258	-0.092
-555.442	459.798	0.091	-0.203
-554.427	800.000	-0.069	0.300
-553.412	340.315	-0.104	0.204
-552.398	-200.000	-0.013	-0.240
-551.383	-64.090	0.093	0.038
-550.369	61.969	0.182	0.181
-549.354	-25.439	-0.026	0.015
-548.339	-112.762	0.094	-0.019
-547.325	-200.000	-0.005	0.136
-546.310	-62.065	-0.273	0.114
-545.296	-92.718	-0.146	0.041
-544.281	-134.344	-0.061	-0.007
-543.266	-94.242	-0.127	-0.035
-542.252	356.477	0.070	0.139
-541.237	-200.000	0.007	0.169
-540.223	-6.647	-0.118	-0.080
-539.208	-79.698	-0.172	0.058
-538.193	-65.405	0.106	0.043
-537.179	129.942	-0.079	-0.101
-536.164	-43.626	-0.116	0.059
-535.150	-115.463	-0.203	0.038
-534.135	800.000	0.088	-0.310
-533.121	71.126	0.103	-0.107
-532.106	78.878	-0.060	-0.065
-531.091	90.724	-0.167	-0.187
-530.077	113.883	0.045	-0.055
-529.062	800.000	-0.094	-0.306
-528.048	296.344	0.123	-0.226
-527.033	-63.307	0.179	-0.074
-526.018	-200.000	-0.009	-0.491
-525.004	62.141	-0.116	0.116
-523.989	113.886	0.202	0.245
-522.975	-58.600	0.180	-0.078
-521.960	-184.474	-0.279	0.005
-520.945	277.996	0.110	-0.196
-519.931	-12.525	-0.476	-0.311
-518.916	439.444	0.027	-0.059
-517.902	367.146	0.050	0.100
-516.887	559.764	0.063	-0.152
-515.872	-200.000	0.074	-0.348
-514.858	670.642	-0.049	-0.126
-513.843	-67.779	-0.089	0.035
-512.829	654.377	-0.104	0.266
-511.814	800.000	-0.015	0.057
-510.799	24.879	0.297	0.246
-509.785	337.384	-0.154	-0.299
-508.770	126.104	-0.143	0.181
-507.756	78.116	0.267	0.285
-506.741	211.558	-0.076	-0.119
-505.726	-124.035	-0.170	0.027
-504.712	203.960	0.052	0.080
-503.697	90.524	-0.070	0.078
-502.683	-28.873	0.049	0.028
-501.668	367.925	-0.077	0.156
-500.653	83.617	0.220	0.239
-499.639	-176.332	-0.283	0.007
-498.624	-103.903	0.119	-0.028
-497.610	800.000	0.063	0.178
-496.595	14.703	0.145	0.114
-495.581	39.552	-0.186	-0.167
-494.566	8.233	-0.205	-0.154
-493.551	-200.000	0.014	-0.134
-492.537	-117.096	0.131	-0.024
-491.522	-64.111	0.216	-0.088
-490.508	450.033	0.036	0.080
-489.493	-123.442	0.190	-0.030
-488.478	-101.457	-0.068	-0.017
-487.464	-82.609	-0.215	0.070
-486.449	-200.000	-0.007	-0.144
-485.435	-97.282	-0.054	0.014
-484.420	-22.252	0.237	0.144
-483.405	136.464	-0.423	-0.551
-482.391	-200.000	-0.023	0.230
-481.376	406.246	-0.055	-0.116
-480.362	-200.000	0.022	-0.158
-479.347	-200.000	-0.008	-0.335
-478.332	-4.480	0.152	0.105
-477.318	-150.363	-0.351	-0.027
-476.303	407.825	-0.061	0.129
-475.289	-41.322	-0.570	-0.293
-474.274	800.000	-0.059	-0.203
-473.259	16.540	0.114	-0.090
-472.245	195.512	-0.178	0.270
-471.230	173.980	0.042	0.061
-470.216	-69.226	-0.105	0.040
-469.201	81.165	-0.156	0.168
-468.186	577.631	-0.109	-0.265
-467.172	-130.638	0.147	0.020
-466.157	124.551	-0.215	0.270
-465.143	-29.150	0.215	-0.123
-464.128	-38.323	0.136	0.072
-463.113	79.169	-0.232	-0.248
-462.099	113.910	0.275	-0.333
-461.084	800.000	0.085	0.301
-460.070	-200.000	-0.018	-0.111
-459.055	-200.000	0.010	-0.204
-458.040	-68.153	-0.041	-0.016
-457.026	42.521	-0.204	-0.186
-456.011	-33.465	-0.033	0.018
-454.997	-123.600	0.300	-0.047
-453.982	-4.228	-0.170	-0.117
-452.968	528.758	0.023	0.054
-451.953	-15.447	-0.089	0.057
-450.938	-113.075	-0.231	-0.046
-449.924	-200.000	0.014	0.151
-448.909	130.322	-0.035	-0.045
-447.895	-79.924	-0.211	-0.071
-446.880	-200.000	0.005	-0.077
-445.865	-111.649	0.429	-0.087
-444.851	-200.000	0.023	-0.342
-443.836	363.719	-0.109	-0.219
-442.822	217.533	0.067	-0.107
-441.807	-200.000	0.018	0.310
-440.792	-134.982	0.294	-0.035
-439.778	800.000	0.130	0.361
-438.763	550.261	0.220	0.525
-437.749	118.709	0.113	-0.139
-436.734	-47.746	-0.260	-0.126
-435.719	45.462	0.127	0.117
-434.705	72.200	0.099	-0.103
-433.690	593.069	0.039	0.095
-432.676	-113.954	-0.194	0.037
-431.661	-104.565	0.134	-0.031
-430.646	77.857	0.147	0.156
-429.632	-83.533	0.171	0.055
-428.617	-48.371	0.355	-0.170
-427.603	252.749	-0.040	0.068
-426.588	-200.000	0.023	-0.249
-425.573	800.000	-0.070	-0.292
-424.559	-54.665	0.256	0.115
-423.544	-108.107	0.219	0.047
-422.530	-186.088	-0.391	-0.006
-421.515	37.814	-0.210	0.186
-420.500	-44.520	-0.270	-0.134
-419.486	123.336	-0.145	0.181
-418.471	-166.697	0.070	-0.003
-417.457	-43.886	0.293	-0.147
-416.442	-83.158	0.379	0.121
-415.428	-27.580	-0.059	0.034
-414.413	-145.466	0.034	0.003
-413.398	-78.613	0.047	0.016
-412.384	-87.626	0.054	0.016
-411.369	16.726	0.284	-0.224
-410.355	-7.086	0.061	0.041
-409.340	-127.751	-0.108	0.016
-408.325	-200.000	-0.059	0.383
-407.311	-200.000	0.007	-0.167
-406.296	113.966	0.244	0.295
-405.282	17.411	0.036	-0.028
-404.267	23.576	0.029	0.024
-403.252	62.518	-0.063	-0.063
-402.238	800.000	0.055	-0.179
-401.223	158.024	0.152	0.210
-400.209	163.717	-0.225	-0.315
-399.194	163.370	0.120	-0.169
-398.179	-67.993	-0.205	-0.080
-397.165	-8.511	0.051	-0.034
-396.150	98.379	0.106	0.121
-395.136	138.896	-0.106	0.139
-394.121	-49.108	0.053	-0.025
-393.106	45.560	-0.328	-0.302
-392.092	117.332	-0.244	-0.298
-391.077	-44.242	0.184	-0.092
-390.063	248.634	-0.078	0.131
-389.048	-84.617	0.432	-0.135
-388.033	-103.038	0.285	0.067
-387.019	-37.577	-0.127	-0.067
-386.004	-200.000	-0.051	0.424
-384.990	-11.381	-0.327	0.214
-383.975	166.814	-0.070	-0.099
-382.960	-140.413	0.297	0.031
-381.946	71.662	-0.150	0.155
-380.931	800.000	-0.057	0.166
-379.917	-23.047	0.108	0.065
-378.902	-105.501	0.389	0.088
-377.888	16.997	0.216	-0.170
-376.873	76.878	-0.121	0.127
-375.858	-57.361	0.164	0.072
-374.844	-200.000	0.024	0.151
-373.829	-136.962	0.088	-0.010
-372.815	-200.000	-0.035	0.258
-371.800	20.225	-0.125	-0.100
-370.785	418.133	-0.014	-0.030
-369.771	800.000	-0.061	0.207
-368.756	97.296	-0.113	0.129
-367.742	34.858	-0.110	0.095
-366.727	800.000	-0.035	0.147
-365.712	31.251	0.268	0.228
-364.698	-200.000	0.024	0.143
-363.683	337.023	-0.052	-0.100
-362.669	43.299	0.085	0.077
-361.654	-200.000	0.002	0.085
-360.639	39.058	-0.089	0.079
-359.625	800.000	0.120	0.386
-358.610	-200.000	0.028	0.280
-357.596	529.572	-0.140	-0.329
-356.581	-200.000	-0.048	-0.237
-355.566	-11.411	-0.301	-0.197
-354.552	-200.000	-0.020	0.121
-353.537	-148.815	-0.230	0.018
-352.523	-200.000	-0.029	0.146
-351.508	-85.485	0.092	0.028
-350.493	-163.037	-0.338	-0.016
-349.479	800.000	0.070	-0.292
-348.464	-28.084	0.193	-0.111
-347.450	77.508	-0.267	-0.282
-346.435	-200.000	-0.055	0.335
-345.420	-73.655	-0.047	0.017
-344.406	-2.662	-0.224	-0.156
-343.391	-200.000	-0.021	-0.140
-342.377	60.436	0.080	-0.078
-341.362	650.220	-0.007	-0.017
-340.348	752.702	0.077	0.206
-339.333	-86.902	0.117	0.035
-338.318	800.000	0.099	-0.364
-337.304	-88.639	0.244	0.072
-336.289	800.000	0.034	0.114
-335.275	-102.533	0.009	0.002
-334.260	800.000	-0.062	-0.184
-333.245	138.760	-0.085	0.111
-332.231	39.277	-0.283	0.252
-331.216	-25.384	0.278	-0.163
-330.202	800.000	0.031	-0.121
-329.187	25.287	-0.003	0.002
-328.172	392.833	0.169	0.348
-327.158	-200.000	0.016	0.349
-326.143	16.140	-0.034	-0.026
-325.129	-89.904	-0.120	-0.035
-324.114	-98.659	-0.066	-0.017
-323.099	25.889	0.133	-0.110
-322.085	-51.855	-0.264	-0.122
-321.070	-200.000	-0.016	0.376
-320.056	-62.642	-0.203	0.084
-319.041	-43.915	0.156	0.078
-318.026	-185.481	-0.223	0.003
-317.012	69.088	-0.178	-0.182
-315.997	262.611	0.148	-0.255
-314.983	800.000	0.030	-0.095
-313.968	40.987	-0.277	0.248
-312.953	-200.000	-0.030	0.361
-311.939	38.355	0.242	0.214
-310.924	12.091	0.198	-0.151
-309.910	800.000	-0.029	0.110
-308.895	-21.918	0.331	0.200
-307.880	-111.386	-0.388	-0.078
-306.866	87.140	0.133	-0.146
-305.851	-200.000	0.001	-0.021
-304.837	114.090	0.154	-0.185
-303.822	-43.403	0.145	-0.073
-302.807	313.431	-0.026	0.049
-301.793	-28.711	-0.147	0.084
-300.778	800.000	0.056	-0.164
-299.764	-77.229	0.130	0.045
-298.749	532.788	-0.103	-0.241
-297.735	72.212	-0.131	-0.136
-296.720	-1.749	-0.239	0.167
-295.705	-101.103	-0.285	-0.069
-294.691	-124.508	-0.281	-0.043
-293.676	-200.000	-0.041	-0.274
-292.662	21.202	0.108	0.087
-291.647	66.722	0.129	0.130
-290.632	33.841	0.282	-0.244
-289.618	-82.930	0.177	-0.056
-288.603	58.616	-0.205	0.199
-287.589	-17.552	-0.249	0.155
-286.574	-200.000	-0.032	-0.501
-285.559	-20.520	0.070	-0.043
-284.545	158.383	-0.144	-0.198
-283.530	75.050	0.238	0.248
-282.516	628.351	0.092	0.230
-281.501	-200.000	-0.003	0.152
-280.486	-110.848	-0.158	-0.032
-279.472	-46.324	-0.346	0.169
-278.457	184.007	0.130	0.190
-277.443	498.319	-0.045	-0.102
-276.428	-59.476	0.105	-0.045
-275.413	800.000	0.039	0.129
-274.399	-118.109	-0.287	0.051
-273.384	41.503	0.184	0.165
-272.370	24.186	-0.294	0.240
-271.355	539.291	-0.054	-0.128
-270.340	-81.615	0.347	0.113
-269.326	115.665	-0.047	0.056
-268.311	-148.871	-0.057	-0.005
-267.297	103.713	0.071	0.083
-266.282	23.678	-0.153	0.125
-265.267	-63.788	0.107	-0.043
-264.253	21.440	0.121	0.098
-263.238	66.684	-0.118	-0.118
-262.224	-200.000	0.435	0.001
-261.209	-80.590	0.303	-0.100
-260.195	-200.000	0.003	-0.044
-259.180	131.412	0.253	0.322
-258.165	-97.293	0.092	0.024
-257.151	-200.000	-0.000	0.082
-256.136	-41.307	-0.349	-0.178
-255.122	-133.234	0.308	-0.038
-254.107	-200.000	-0.025	-0.111
-253.092	73.704	-0.107	-0.111
-252.078	748.943	0.172	0.458
-251.063	12.989	0.103	0.079
-250.049	-94.392	0.299	-0.081
-249.034	-200.000	-0.008	-0.361
-248.019	193.330	0.170	-0.254
-247.005	-200.000	-0.002	-0.029
-245.990	-20.401	-0.173	-0.105
-244.976	157.194	0.088	-0.121
-243.961	105.533	-0.307	0.359
-242.946	800.000	0.126	0.349
-241.932	124.541	-0.170	-0.211
-240.917	191.265	-0.101	-0.150
-239.903	247.619	-0.071	0.118
-238.888	-144.683	-0.309	0.028
-237.873	278.695	0.123	0.218
-236.859	274.915	-0.081	-0.143
-235.844	11.010	-0.106	-0.080
-234.830	-200.000	-0.043	0.449
-233.815	800.000	0.047	0.192
-232.800	800.000	-0.085	-0.354
-231.786	65.460	0.311	-0.311
-230.771	-69.110	0.274	-0.104
-229.757	228.599	0.126	-0.204
-228.742	-45.937	0.368	-0.180
-227.727	-5.092	0.309	-0.210
-226.713	-80.377	0.205	0.068
-225.698	171.439	0.166	-0.235
-224.684	41.668	-0.179	-0.161
-223.669	-115.180	-0.226	-0.042
-222.655	290.768	0.065	0.117
-221.640	-200.000	-0.035	-0.308
-220.625	5.813	-0.161	0.118
-219.611	695.150	-0.073	0.189
-218.596	-41.074	-0.214	-0.109
-217.582	383.911	0.086	0.176
-216.567	16.695	0.026	0.020
-215.552	374.035	-0.118	-0.236
-214.538	-10.658	-0.372	0.243
-213.523	800.000	0.077	0.299
-212.509	-46.172	0.102	-0.050
-211.494	216.603	0.053	-0.084
-210.479	-91.964	0.064	0.018
-209.465	-69.828	-0.094	-0.035
-208.450	760.833	0.153	-0.411
-207.436	200.358	-0.208	-0.316
-206.421	800.000	0.038	-0.153
-205.406	800.000	-0.056	0.159
-204.392	-79.602	-0.347	0.116
-203.377	-151.613	0.337	-0.025
-202.363	64.120	-0.185	0.184
-201.348	53.659	-0.289	-0.274
-200.333	126.788	0.121	0.151
-199.319	-182.812	-0.146	0.003
-198.304	40.309	0.179	-0.159
-197.290	800.000	0.069	0.192
-196.275	128.285	0.229	-0.288
-195.260	16.614	0.086	-0.067
-194.246	-200.000	0.331	0.000
-193.231	800.000	-0.064	0.217
-192.217	3.909	-0.276	0.199
-191.202	291.152	0.200	0.359
-190.187	11.693	0.116	0.088
-189.173	800.000	-0.049	0.157
-188.158	-7.541	0.018	0.012
-187.144	3.364	0.146	0.105
-186.129	-85.176	0.165	0.051
-185.114	447.405	-0.083	0.180
-184.100	-200.000	0.039	0.350
-183.085	-23.470	0.497	0.295
-182.071	-200.000	0.059	0.287
-181.056	-31.611	0.101	-0.056
-180.042	-109.057	0.214	-0.045
-179.027	-191.681	0.174	-0.002
-178.012	65.300	0.213	-0.213
-176.998	800.000	0.055	-0.239
-175.983	83.026	0.206	-0.222
-174.969	-131.099	0.207	-0.027
-173.954	1.388	-0.436	-0.309
-172.939	800.000	0.025	-0.091
-171.925	800.000	0.008	-0.023
-170.910	800.000	0.052	0.143
-169.896	-28.230	-0.300	0.171
-168.881	-200.000	-0.003	0.092
-167.866	800.000	-0.047	-0.148
-166.852	-19.476	0.194	0.118
-165.837	-140.750	0.188	-0.019
-164.823	-89.274	0.151	-0.044
-163.808	-167.327	0.165	-0.007
-162.793	-200.000	0.054	-0.276
-161.779	110.148	0.121	-0.143
-160.764	-200.000	0.023	0.340
-159.750	317.196	0.099	0.185
-158.735	239.379	0.194	0.318
-157.720	-50.955	0.271	0.125
-156.706	320.726	0.063	0.118
-155.691	-116.683	0.205	-0.037
-154.677	232.008	-0.182	0.294
-153.662	75.882	-0.171	-0.179
-152.647	-7.230	-0.395	-0.264
-151.633	-106.466	0.257	-0.056
-150.618	83.140	-0.304	0.326
-149.604	18.299	-0.090	0.071
-148.589	-200.000	0.208	0.001
-147.574	-135.734	0.430	0.050
-146.560	31.430	0.206	-0.174
-145.545	39.176	-0.221	-0.195
-144.531	154.425	0.163	-0.220
-143.516	655.562	0.077	0.196
-142.502	-167.473	0.213	0.008
-141.487	-30.621	0.272	0.152
-140.472	-200.000	-0.001	-0.055
-139.458	-200.000	-0.066	0.431
-138.443	8.765	0.225	0.167
-137.429	-57.729	0.373	0.161
-136.414	-200.000	0.041	-0.277
-135.399	-200.000	-0.032	-0.233
-134.385	-200.000	0.017	-0.123
-133.370	27.680	-0.105	-0.087
-132.356	118.957	0.140	0.170
-131.341	-30.575	-0.106	-0.059
-130.326	259.950	-0.200	0.341
-129.312	-139.213	-0.284	0.030
-128.297	-142.808	-0.306	0.029
-127.283	627.665	-0.014	-0.036
-126.268	153.462	0.252	-0.339
-125.253	-23.572	-0.145	0.086
-124.239	-28.352	-0.105	0.059
-123.224	-58.740	-0.151	-0.064
-122.210	47.625	0.118	0.108
-121.195	-76.128	-0.260	0.090
-120.180	262.254	-0.113	0.192
