DTS Sentinel unit serial number:	SN413079Multiplexer serial number:	ORYXHardware model number:	OX4-SRSoftware version number:	ORYX F/W v4.00 Oryx Data Collector v3.7.2.0data status	okinstallation	princeton_trtdifferential loss correction	single-endedforward channel	channel 2reverse channel	N/Adate	2019/09/14time	06:03:35forward acquisition time	60.00reverse acquisition time	0.00gamma	496.2192k internal	0.2336k external	0.2336temperature offset calibration	1.0132default loss term (dB/km)	0.3790temperature slope calibration	1.0000multiplexer offset coefficient	1.0000multiplexer slope coefficient	1.0000fibre end	0.00T internal ref (°C)	26.80T ext. ref 1 (°C)	3.41T ext. ref 2 (°C)	21.00length (m)	temperature (°C)	Stokes	anti-Stokes-747.200	73.951	-0.082	-0.086
-746.185	-56.834	-0.209	0.093
-745.171	447.803	-0.034	0.075
-744.156	8.687	-0.208	0.158
-743.142	722.541	-0.065	0.173
-742.127	800.000	-0.077	0.277
-741.112	571.278	0.112	-0.273
-740.098	-59.484	-0.159	0.068
-739.083	161.756	0.149	-0.210
-738.069	-200.000	-0.051	0.234
-737.054	-129.221	-0.147	0.021
-736.039	-99.692	-0.067	0.017
-735.025	146.988	0.136	-0.184
-734.010	-90.493	-0.137	0.040
-732.996	-87.170	-0.157	-0.048
-731.981	-200.000	-0.031	0.200
-730.966	-71.648	-0.180	-0.067
-729.952	-107.843	-0.517	-0.113
-728.937	-137.651	-0.219	0.025
-727.923	257.613	-0.229	-0.395
-726.908	38.120	-0.189	0.169
-725.894	-58.378	0.390	-0.170
-724.879	14.575	-0.012	-0.009
-723.864	13.769	-0.106	0.083
-722.850	-190.974	-0.368	0.004
-721.835	-30.101	-0.535	0.305
-720.821	72.000	-0.258	-0.270
-719.806	-17.751	0.138	0.087
-718.791	-200.000	-0.043	0.492
-717.777	-70.011	-0.077	0.030
-716.762	35.733	0.292	-0.257
-715.748	71.820	-0.201	-0.210
-714.733	200.728	-0.072	-0.110
-713.718	-200.000	-0.232	-0.000
-712.704	28.859	-0.103	-0.088
-711.689	116.920	-0.074	0.091
-710.675	-200.000	-0.028	-0.155
-709.660	-150.735	-0.399	0.030
-708.645	574.678	-0.101	-0.247
-707.631	800.000	-0.030	0.122
-706.616	-11.075	0.310	-0.205
-705.602	626.589	-0.085	-0.215
-704.587	178.337	0.102	0.150
-703.572	466.060	-0.097	0.218
-702.558	-29.724	-0.063	0.036
-701.543	-200.000	0.015	0.295
-700.529	157.054	-0.081	0.113
-699.514	-49.014	0.034	-0.016
-698.499	67.871	-0.105	0.107
-697.485	59.721	-0.091	-0.090
-696.470	-101.871	0.164	-0.040
-695.456	-175.249	-0.037	0.001
-694.441	142.429	-0.118	-0.157
-693.426	48.876	0.180	-0.170
-692.412	-18.722	-0.334	-0.209
-691.397	800.000	-0.044	-0.145
-690.383	-37.783	-0.151	0.081
-689.368	-118.719	-0.418	-0.074
-688.354	-117.501	-0.332	0.060
-687.339	800.000	0.033	0.139
-686.324	-200.000	0.041	0.280
-685.310	-76.276	-0.202	-0.071
-684.295	262.421	-0.160	-0.278
-683.281	-171.065	0.240	-0.008
-682.266	102.971	-0.229	-0.269
-681.251	-200.000	-0.013	0.134
-680.237	756.668	0.112	-0.305
-679.222	-200.000	0.030	-0.130
-678.208	-10.329	0.199	-0.132
-677.193	-200.000	-0.009	0.116
-676.178	32.654	-0.344	0.298
-675.164	-121.217	-0.222	0.037
-674.149	-200.000	-0.004	-0.514
-673.135	606.329	-0.082	-0.204
-672.120	-200.000	-0.003	0.205
-671.105	-6.822	0.406	-0.277
-670.091	-200.000	-0.035	0.156
-669.076	119.820	-0.313	-0.388
-668.062	122.281	0.071	-0.089
-667.047	800.000	-0.106	0.348
-666.032	-42.998	-0.279	0.142
-665.018	-18.119	-0.220	0.138
-664.003	-200.000	-0.010	-0.057
-662.989	-36.655	-0.192	-0.103
-661.974	-200.000	0.004	0.217
-660.959	45.239	-0.154	0.142
-659.945	-61.332	0.096	0.040
-658.930	-200.000	-0.017	0.283
-657.916	209.727	-0.060	-0.094
-656.901	-75.027	0.222	-0.079
-655.886	-77.253	0.153	-0.053
-654.872	-24.028	-0.007	0.004
-653.857	5.232	-0.245	-0.181
-652.843	399.835	0.077	0.161
-651.828	-67.804	-0.155	-0.061
-650.814	-141.383	0.213	0.022
-649.799	-36.361	0.214	-0.116
-648.784	-66.514	0.364	-0.145
-647.770	-75.079	0.242	-0.086
-646.755	-117.377	0.304	0.055
-645.741	301.090	-0.038	0.071
-644.726	-71.613	0.227	-0.085
-643.711	28.002	0.326	0.275
-642.697	-67.258	0.145	-0.057
-641.682	193.535	-0.217	0.328
-640.668	-96.312	-0.147	0.039
-639.653	16.884	-0.287	-0.227
-638.638	263.337	-0.064	0.112
-637.624	178.977	0.100	-0.147
-636.609	800.000	0.129	-0.438
-635.595	170.523	0.111	-0.159
-634.580	73.848	-0.194	-0.203
-633.565	44.602	0.082	-0.075
-632.551	-200.000	-0.019	-0.427
-631.536	-43.495	-0.299	-0.151
-630.522	-82.486	0.261	0.085
-629.507	-95.018	-0.368	0.100
-628.492	-200.000	0.005	-0.283
-627.478	167.127	-0.152	0.216
-626.463	-191.969	0.183	0.002
-625.449	34.671	-0.164	-0.143
-624.434	146.418	-0.198	-0.266
-623.419	-4.838	0.043	-0.030
-622.405	-93.232	0.337	-0.094
-621.390	-20.565	0.074	-0.045
-620.376	-107.444	0.152	0.033
-619.361	106.971	-0.282	0.335
-618.346	-86.446	-0.144	-0.044
-617.332	-119.324	0.449	0.078
-616.317	-90.757	-0.195	0.056
-615.303	-113.027	0.033	-0.007
-614.288	-72.292	-0.097	0.036
-613.273	-99.215	0.241	-0.061
-612.259	-40.310	0.010	0.005
-611.244	-21.604	-0.172	0.105
-610.230	-132.996	0.231	-0.029
-609.215	-85.752	-0.090	-0.028
-608.201	-200.000	-0.085	0.380
-607.186	800.000	0.023	0.070
-606.171	-89.135	-0.145	0.043
-605.157	-200.000	0.014	0.222
-604.142	304.771	0.085	-0.158
-603.128	800.000	0.080	-0.228
-602.113	-200.000	-0.024	0.208
-601.098	12.720	0.234	0.181
-600.084	-200.000	0.003	-0.370
-599.069	226.197	0.060	0.097
-598.055	615.426	-0.061	-0.153
-597.040	-200.000	-0.002	0.341
-596.025	-32.640	0.141	-0.078
-595.011	32.166	-0.140	-0.121
-593.996	-200.000	0.012	0.238
-592.982	-153.294	-0.183	-0.013
-591.967	-13.796	0.390	-0.252
-590.952	184.016	0.017	-0.024
-589.938	372.642	-0.055	-0.112
-588.923	147.887	0.171	-0.231
-587.909	-103.968	-0.349	-0.081
-586.894	800.000	0.040	-0.142
-585.879	-80.846	0.238	-0.079
-584.865	121.280	-0.285	0.354
-583.850	-102.503	0.191	-0.046
-582.836	-127.846	-0.309	0.044
-581.821	-200.000	-0.019	0.133
-580.806	-3.206	-0.293	0.204
-579.792	-35.922	-0.155	0.084
-578.777	-90.394	0.112	-0.032
-577.763	800.000	-0.055	0.188
-576.748	-114.641	0.181	-0.035
-575.733	49.957	-0.080	-0.075
-574.719	431.205	-0.081	0.176
-573.704	104.188	0.289	0.339
-572.690	665.551	0.079	-0.205
-571.675	-200.000	0.020	0.180
-570.661	190.886	0.166	0.249
-569.646	800.000	0.022	-0.091
-568.631	77.213	-0.199	0.211
-567.617	-85.535	-0.172	0.053
-566.602	96.104	-0.076	-0.087
-565.588	800.000	0.061	0.254
-564.573	136.501	0.170	0.221
-563.558	-195.491	0.080	0.001
-562.544	492.899	-0.093	0.213
-561.529	-75.977	-0.292	-0.103
-560.515	-107.767	0.226	0.049
-559.500	-200.000	0.025	0.335
-558.485	-70.661	0.250	0.094
-557.471	341.812	-0.171	0.333
-556.456	-119.490	-0.263	-0.046
-555.442	-200.000	-0.006	0.035
-554.427	800.000	0.035	-0.100
-553.412	346.634	-0.128	0.251
-552.398	132.247	-0.086	-0.110
-551.383	-200.000	-0.017	0.212
-550.369	-138.791	0.515	0.056
-549.354	478.340	0.062	0.139
-548.339	198.870	0.378	-0.577
-547.325	-68.354	-0.302	-0.117
-546.310	-26.485	-0.235	0.138
-545.296	-200.000	-0.051	-0.353
-544.281	47.359	-0.145	0.135
-543.266	800.000	-0.033	0.099
-542.252	-60.237	-0.204	-0.086
-541.237	800.000	0.051	-0.157
-540.223	-200.000	-0.035	0.290
-539.208	-167.654	0.259	0.010
-538.193	-62.978	0.217	-0.089
-537.179	59.800	0.163	0.160
-536.164	42.149	0.060	0.054
-535.150	-51.859	-0.077	-0.035
-534.135	71.920	0.145	-0.151
-533.121	-68.362	0.057	-0.022
-532.106	-200.000	-0.052	-0.399
-531.091	-139.780	-0.286	-0.030
-530.077	-22.208	0.102	-0.062
-529.062	202.768	-0.140	0.215
-528.048	-89.388	0.281	-0.082
-527.033	-200.000	0.013	0.251
-526.018	214.234	0.131	0.206
-525.004	-164.715	0.053	-0.002
-523.989	800.000	-0.056	-0.194
-522.975	337.112	-0.105	-0.203
-521.960	-66.023	0.132	-0.053
-520.945	-129.865	-0.291	0.040
-519.931	-200.000	0.033	-0.148
-518.916	-6.421	-0.171	-0.116
-517.902	800.000	0.038	-0.127
-516.887	-200.000	-0.023	0.122
-515.872	-168.798	0.324	-0.012
-514.858	800.000	-0.079	-0.285
-513.843	-200.000	0.018	-0.188
-512.829	-138.504	-0.292	-0.032
-511.814	-39.154	-0.202	0.106
-510.799	-69.677	0.180	-0.069
-509.785	-53.827	-0.134	-0.061
-508.770	761.785	0.073	-0.197
-507.756	-63.266	0.187	-0.077
-506.741	800.000	-0.113	0.375
-505.726	375.659	-0.058	0.118
-504.712	800.000	-0.117	-0.366
-503.697	33.503	-0.044	-0.038
-502.683	225.749	0.131	0.211
-501.668	-200.000	-0.003	0.264
-500.653	137.734	0.116	0.152
-499.639	-119.886	0.093	0.016
-498.624	-51.153	-0.067	-0.031
-497.610	800.000	0.048	-0.173
-496.595	25.387	-0.301	0.249
-495.581	-33.503	0.114	0.063
-494.566	800.000	-0.111	-0.424
-493.551	132.043	-0.133	-0.170
-492.537	-115.425	-0.130	0.024
-491.522	81.187	0.290	0.311
-490.508	99.484	0.149	0.171
-489.493	-25.252	-0.184	0.108
-488.478	7.927	0.216	-0.161
-487.464	-14.971	0.186	-0.119
-486.449	45.037	-0.133	-0.122
-485.435	-136.809	0.174	0.020
-484.420	-139.196	0.257	-0.028
-483.405	163.420	-0.078	0.109
-482.391	85.316	-0.230	0.251
-481.376	-2.737	0.161	0.112
-480.362	-92.716	-0.297	-0.083
-479.347	-132.146	0.162	-0.021
-478.332	800.000	-0.079	0.245
-477.318	-200.000	0.005	0.302
-476.303	-7.791	-0.060	0.040
-475.289	-200.000	0.082	-0.411
-474.274	-200.000	-0.031	0.255
-473.259	59.469	-0.111	-0.108
-472.245	-112.175	0.072	-0.014
-471.230	-200.000	0.001	-0.179
-470.216	342.034	0.080	-0.155
-469.201	-119.663	0.156	0.027
-468.186	182.485	0.073	-0.107
-467.172	-3.797	-0.108	0.075
-466.157	134.526	0.189	-0.244
-465.143	-55.204	0.168	-0.075
-464.128	-200.000	-0.015	0.078
-463.113	124.115	0.195	-0.244
-462.099	-117.443	0.350	-0.063
-461.084	-104.822	-0.281	0.064
-460.070	34.436	-0.170	-0.148
-459.055	-146.465	0.257	-0.022
-458.040	289.443	-0.148	-0.267
-457.026	113.366	-0.082	0.099
-456.011	-200.000	0.034	-0.301
-454.997	268.638	0.126	-0.220
-453.982	800.000	0.106	0.342
-452.968	-10.109	-0.234	-0.154
-451.953	-165.725	-0.228	-0.010
-450.938	59.266	0.104	-0.102
-449.924	-124.635	0.301	0.046
-448.909	800.000	0.033	0.100
-447.895	87.234	-0.108	-0.119
-446.880	-162.586	0.379	-0.019
-445.865	-4.679	0.106	0.073
-444.851	122.731	-0.185	0.230
-443.836	-128.096	-0.331	-0.047
-442.822	-91.687	0.310	-0.088
-441.807	313.253	-0.092	-0.172
-440.792	-116.927	-0.126	-0.023
-439.778	202.192	-0.154	-0.235
-438.763	-39.030	-0.240	0.126
-437.749	94.782	-0.133	-0.150
-436.734	-108.760	-0.068	-0.014
-435.719	-15.328	0.283	0.179
-434.705	-103.441	0.303	0.071
-433.690	-199.265	-0.280	0.001
-432.676	-166.343	-0.348	-0.015
-431.661	-31.737	0.035	-0.020
-430.646	-93.315	0.108	0.030
-429.632	92.630	-0.127	0.142
-428.617	-113.380	-0.339	0.066
-427.603	-160.885	-0.037	0.002
-426.588	3.779	0.198	0.144
-425.573	-6.681	-0.129	-0.087
-424.559	-200.000	0.021	-0.134
-423.544	116.612	0.053	-0.065
-422.530	-200.000	-0.094	-0.449
-421.515	-200.000	0.026	0.330
-420.500	-141.042	-0.165	-0.017
-419.486	-200.000	-0.436	-0.001
-418.471	722.432	0.049	0.129
-417.457	-66.392	0.250	0.099
-416.442	212.003	0.234	-0.366
-415.428	284.445	-0.090	0.161
-414.413	-73.226	-0.301	-0.109
-413.398	-200.000	-0.043	-0.383
-412.384	-52.199	-0.046	0.021
-411.369	101.689	-0.056	-0.065
-410.355	-171.605	0.344	-0.011
-409.340	-39.682	0.325	-0.168
-408.325	-19.895	-0.198	-0.121
-407.311	800.000	-0.038	-0.111
-406.296	41.083	0.087	-0.078
-405.282	94.645	-0.091	-0.102
-404.267	470.933	0.084	-0.187
-403.252	94.369	0.162	0.182
-402.238	-200.000	0.201	-0.000
-401.223	153.746	-0.154	-0.210
-400.209	-153.552	0.171	-0.012
-399.194	-97.877	0.169	-0.043
-398.179	30.408	-0.249	-0.211
-397.165	-83.747	-0.291	0.092
-396.150	31.656	-0.312	-0.266
-395.136	800.000	0.042	-0.160
-394.121	-49.218	0.099	-0.047
-393.106	331.621	0.091	0.173
-392.092	218.450	0.059	-0.093
-391.077	800.000	0.094	0.259
-390.063	59.586	-0.078	0.077
-389.048	-111.628	0.175	-0.035
-388.033	95.420	0.268	0.303
-387.019	-200.000	0.018	0.163
-386.004	-12.745	-0.226	0.146
-384.990	0.618	0.368	-0.261
-383.975	-92.006	-0.196	-0.055
-382.960	-200.000	-0.048	0.278
-381.946	13.121	0.030	0.023
-380.931	306.189	-0.196	-0.361
-379.917	-49.032	0.093	0.044
-378.902	-121.356	0.255	-0.042
-377.888	-173.318	0.355	-0.011
-376.873	-200.000	-0.041	-0.366
-375.858	-200.000	-0.012	0.107
-374.844	375.312	-0.046	0.093
-373.829	-120.232	0.748	0.126
-372.815	53.679	-0.297	0.282
-371.800	-93.720	0.088	0.024
-370.785	193.697	-0.076	-0.114
-369.771	116.852	0.170	0.207
-368.756	51.585	0.168	0.158
-367.742	-200.000	-0.010	0.459
-366.727	-18.895	0.111	0.068
-365.712	-162.952	0.114	-0.005
-364.698	467.656	0.034	-0.074
-363.683	800.000	-0.046	-0.128
-362.669	800.000	0.109	0.308
-361.654	-188.467	0.276	0.003
-360.639	167.483	-0.054	-0.075
-359.625	-52.280	0.114	-0.052
-358.610	-200.000	-0.043	0.257
-357.596	-132.204	-0.422	0.054
-356.581	-109.925	-0.082	0.017
-355.566	12.754	0.297	0.227
-354.552	-27.950	-0.088	-0.050
-353.537	-8.559	0.216	-0.143
-352.523	800.000	0.102	0.296
-351.508	-104.699	-0.373	-0.085
-350.493	31.962	0.104	0.088
-349.479	226.765	0.173	-0.278
-348.464	-32.839	0.310	-0.170
-347.450	-200.000	-0.062	-0.301
-346.435	635.293	0.165	-0.413
-345.420	-200.000	-0.005	0.264
-344.406	-27.915	-0.322	0.184
-343.391	-6.357	-0.207	-0.140
-342.377	-200.000	0.381	0.001
-341.362	-94.692	0.156	-0.042
-340.348	-158.275	0.185	-0.011
-339.333	382.077	-0.083	0.169
-338.318	11.528	0.014	0.011
-337.304	714.684	0.115	0.301
-336.289	-11.613	-0.243	0.158
-335.275	90.547	0.131	0.145
-334.260	-15.239	-0.168	0.106
-333.245	118.194	0.046	-0.057
-332.231	96.138	0.135	-0.152
-331.216	-44.174	-0.183	-0.090
-330.202	-200.000	0.005	0.177
-329.187	138.987	-0.232	0.301
-328.172	241.130	0.061	-0.101
-327.158	-125.107	-0.447	-0.068
-326.143	-106.135	-0.375	0.083
-325.129	313.325	-0.163	-0.303
-324.114	0.708	-0.160	-0.113
-323.099	-172.202	0.318	-0.010
-322.085	-200.000	0.001	-0.233
-321.070	428.859	-0.074	-0.158
-320.056	139.145	-0.181	0.235
-319.041	1.538	0.095	0.068
-318.026	-104.699	-0.127	0.029
-317.012	-153.414	0.192	-0.013
-315.997	-18.516	-0.222	0.137
-314.983	52.555	-0.206	0.195
-313.968	-32.443	0.261	-0.143
-312.953	72.114	0.108	0.111
-311.939	284.323	0.108	-0.193
-310.924	184.959	0.175	0.257
-309.910	-70.300	0.287	-0.107
-308.895	-131.155	0.280	0.037
-307.880	519.339	0.060	0.139
-306.866	800.000	0.044	0.123
-305.851	-130.658	0.249	0.033
-304.837	-94.363	-0.159	0.043
-303.822	-53.001	-0.158	-0.072
-302.807	139.460	0.108	-0.141
-301.793	800.000	-0.053	-0.223
-300.778	-200.000	-0.008	-0.111
-299.764	-54.642	-0.284	-0.127
-298.749	13.427	-0.236	0.181
-297.735	800.000	0.059	-0.195
-296.720	81.449	-0.090	-0.096
-295.705	-200.000	-0.008	0.087
-294.691	800.000	0.063	0.220
-293.676	-4.763	0.272	0.185
-292.662	170.279	0.033	-0.046
-291.647	278.421	-0.173	-0.304
-290.632	-8.289	-0.350	0.232
-289.618	215.130	0.045	-0.071
-288.603	-200.000	0.000	-0.049
-287.589	-38.777	-0.016	-0.008
-286.574	-127.527	0.402	0.058
-285.559	-200.000	-0.020	-0.251
-284.545	-87.824	-0.217	-0.065
-283.530	-20.425	0.074	-0.045
-282.516	-177.530	0.339	0.008
-281.501	143.540	0.274	0.360
-280.486	401.953	-0.083	-0.172
-279.472	659.492	-0.016	0.041
-278.457	-200.000	0.019	0.162
-277.443	-65.568	0.419	0.166
-276.428	-146.646	0.068	-0.006
-275.413	269.835	-0.024	0.041
-274.399	-5.467	-0.155	0.105
-273.384	800.000	-0.071	-0.270
-272.370	-127.876	-0.237	-0.034
-271.355	800.000	-0.022	0.071
-270.340	-11.249	0.246	-0.160
-269.326	542.839	-0.138	-0.325
-268.311	-66.966	-0.411	0.160
-267.297	-200.000	0.057	0.246
-266.282	-10.510	0.223	-0.146
-265.267	800.000	-0.104	0.283
-264.253	49.172	0.046	-0.042
-263.238	800.000	0.111	-0.380
-262.224	8.146	-0.322	0.238
-261.209	-50.341	-0.321	0.150
-260.195	-155.314	0.144	-0.009
-259.180	-120.245	0.508	0.085
-258.165	104.939	-0.131	-0.153
-257.151	-83.370	-0.249	-0.079
-256.136	800.000	-0.046	0.131
-255.122	345.552	-0.068	0.132
-254.107	-21.403	-0.222	-0.133
-253.092	-88.874	0.338	0.099
-252.078	195.451	-0.121	0.180
-251.063	800.000	-0.088	-0.263
-250.049	-161.943	-0.223	-0.011
-249.034	-200.000	0.058	0.344
-248.019	65.295	0.139	-0.139
-247.005	-71.769	-0.276	0.101
-245.990	0.999	0.052	0.037
-244.976	-82.655	0.028	-0.009
-243.961	-200.000	0.032	-0.361
-242.946	0.685	-0.309	0.218
-241.932	-1.340	-0.287	0.200
-240.917	624.661	0.015	0.036
-239.903	316.742	-0.061	0.114
-238.888	-200.000	0.014	-0.084
-237.873	-114.275	-0.025	-0.005
-236.859	-200.000	0.012	0.115
-235.844	-124.174	-0.133	-0.020
-234.830	514.279	-0.122	0.281
-233.815	800.000	-0.069	-0.265
-232.800	-200.000	0.033	-0.217
-231.786	-133.448	-0.341	0.042
-230.771	31.607	-0.137	-0.116
-229.757	-200.000	-0.004	0.069
-228.742	155.784	0.115	-0.156
-227.727	-44.428	0.156	0.077
-226.713	78.810	-0.259	0.273
-225.698	-27.449	0.155	0.088
-224.684	-114.280	-0.019	-0.004
-223.669	-144.261	0.173	0.016
-222.655	133.835	-0.135	-0.172
-221.640	23.122	0.059	-0.048
-220.625	-151.329	0.144	-0.011
-219.611	111.747	0.271	0.322
-218.596	-158.579	-0.379	0.022
-217.582	0.468	-0.220	-0.155
-216.567	-128.884	-0.028	0.004
-215.552	-200.000	-0.027	0.190
-214.538	-44.736	-0.127	-0.062
-213.523	-164.644	-0.200	0.009
-212.509	-26.315	0.141	0.081
-211.494	-117.509	-0.163	0.029
-210.479	-200.000	-0.007	0.052
-209.465	148.181	-0.256	-0.340
-208.450	324.286	0.064	0.120
-207.436	109.026	-0.087	-0.103
-206.421	-200.000	0.003	-0.176
-205.406	-200.000	0.005	-0.084
-204.392	367.881	-0.049	-0.097
-203.377	-129.263	-0.106	-0.015
-202.363	-4.825	0.069	-0.047
-201.348	-200.000	0.029	-0.207
-200.333	-200.000	0.009	-0.173
-199.319	-65.196	-0.175	0.069
-198.304	163.025	0.280	0.387
-197.290	-47.070	-0.166	-0.080
-196.275	71.684	0.095	-0.097
-195.260	800.000	-0.035	-0.100
-194.246	800.000	-0.073	0.268
-193.231	-70.039	-0.188	-0.070
-192.217	281.060	-0.053	0.094
-191.202	2.429	0.033	-0.023
-190.187	-68.746	0.265	0.101
-189.173	285.509	-0.078	-0.138
-188.158	68.807	-0.156	0.157
-187.144	-200.000	-0.025	0.111
-186.129	708.038	-0.104	-0.271
-185.114	92.467	0.090	-0.099
-184.100	125.466	0.146	0.181
-183.085	-39.132	-0.250	-0.129
-182.071	-40.659	-0.249	0.127
-181.056	800.000	0.154	0.447
-180.042	800.000	0.111	0.398
-179.027	10.697	-0.208	-0.156
-178.012	-125.851	-0.139	0.021
-176.998	-123.530	0.171	-0.027
-175.983	514.693	0.107	0.246
-174.969	73.441	-0.114	-0.118
-173.954	30.083	-0.273	0.229
-172.939	-200.000	-0.043	0.196
-171.925	-141.620	0.204	-0.020
-170.910	-95.678	-0.426	-0.112
-169.896	526.788	-0.101	-0.233
-168.881	-49.162	-0.447	0.210
-167.866	-104.475	0.310	-0.070
-166.852	107.092	0.340	-0.396
-165.837	204.694	0.039	0.060
-164.823	9.287	0.241	0.179
-163.808	-118.780	0.141	-0.024
-162.793	-122.209	-0.109	-0.017
-161.779	306.763	0.131	-0.239
-160.764	38.438	-0.169	-0.148
-159.750	-11.863	0.112	0.072
-158.735	-178.164	-0.199	0.005
-157.720	10.482	0.120	-0.090
-156.706	173.030	-0.049	-0.070
-155.691	-200.000	-0.003	-0.058
-154.677	-54.194	0.023	-0.010
-153.662	-185.235	0.068	0.001
-152.647	800.000	0.076	0.273
-151.633	261.210	-0.053	-0.091
-150.618	98.773	-0.058	-0.066
-149.604	-93.988	0.287	0.077
-148.589	-24.195	-0.371	-0.217
-147.574	-21.744	-0.217	0.130
-146.560	-200.000	0.011	-0.072
-145.545	-56.529	-0.327	0.142
-144.531	-105.929	-0.344	-0.076
-143.516	-29.141	0.164	0.092
-142.502	428.741	-0.082	-0.175
-141.487	29.665	0.147	0.123
-140.472	-144.678	0.118	0.011
-139.458	-141.913	-0.279	0.027
-138.443	-49.502	0.144	0.067
-137.429	-41.974	0.119	0.060
-136.414	539.420	-0.040	0.094
-135.399	156.927	0.020	-0.028
-134.385	-114.677	0.036	-0.007
-133.370	-58.061	-0.267	-0.114
-132.356	540.813	-0.098	-0.229
-131.341	800.000	0.095	0.294
-130.326	24.991	0.167	-0.135
-129.312	15.441	-0.132	-0.102
-128.297	-101.958	-0.148	0.035
-127.283	-78.963	0.173	-0.058
-126.268	-43.676	-0.054	0.027
-125.253	-200.000	-0.014	0.064
-124.239	-32.610	-0.197	-0.108
-123.224	111.318	0.208	0.246
-122.210	330.230	-0.177	-0.333
