DTS Sentinel unit serial number:	SN413079Multiplexer serial number:	ORYXHardware model number:	OX4-SRSoftware version number:	ORYX F/W v4.00 Oryx Data Collector v3.7.2.0data status	okinstallation	princeton_trtdifferential loss correction	single-endedforward channel	channel 2reverse channel	N/Adate	2019/09/19time	13:07:34forward acquisition time	60.00reverse acquisition time	0.00gamma	496.2192k internal	0.2331k external	0.2331temperature offset calibration	1.0014default loss term (dB/km)	0.3790temperature slope calibration	1.0000multiplexer offset coefficient	1.0000multiplexer slope coefficient	1.0000fibre end	0.00T internal ref (°C)	29.00T ext. ref 1 (°C)	0.94T ext. ref 2 (°C)	26.99length (m)	temperature (°C)	Stokes	anti-Stokes-747.200	-200.000	-0.001	0.145
-746.185	800.000	0.048	0.206
-745.171	202.655	0.181	0.282
-744.156	190.298	-0.157	0.238
-743.142	-49.174	-0.116	0.056
-742.127	-200.000	0.039	0.286
-741.112	-47.308	0.120	0.059
-740.098	2.671	-0.191	-0.140
-739.083	-64.348	-0.163	-0.067
-738.069	122.322	0.055	0.069
-737.054	-159.299	0.285	0.016
-736.039	-118.111	-0.142	0.026
-735.025	800.000	0.112	-0.350
-734.010	-200.000	-0.021	0.256
-732.996	-140.833	-0.277	-0.029
-731.981	-0.017	-0.198	-0.142
-730.966	3.228	0.180	-0.132
-729.952	-25.370	0.085	-0.051
-728.937	-122.139	-0.017	-0.003
-727.923	-31.690	-0.296	-0.167
-726.908	-19.087	0.087	-0.055
-725.894	-89.857	-0.366	-0.108
-724.879	-41.537	-0.174	0.090
-723.864	-148.304	0.223	-0.018
-722.850	-200.000	-0.017	-0.110
-721.835	-186.703	0.171	0.002
-720.821	-20.999	0.180	-0.111
-719.806	-200.000	-0.029	0.200
-718.791	800.000	-0.041	-0.143
-717.777	-200.000	-0.008	-0.147
-716.762	-200.000	0.060	0.300
-715.748	-136.225	0.291	-0.034
-714.733	800.000	-0.030	-0.085
-713.718	-141.643	0.207	0.021
-712.704	150.644	-0.073	0.099
-711.689	-142.868	0.192	0.019
-710.675	-181.845	-0.490	-0.009
-709.660	550.704	0.082	0.198
-708.645	76.997	0.378	0.403
-707.631	543.999	0.018	0.042
-706.616	-1.413	0.086	0.061
-705.602	-200.000	0.018	0.116
-704.587	-43.681	0.218	-0.110
-703.572	-127.755	-0.048	-0.007
-702.558	-92.413	0.220	0.062
-701.543	-54.369	-0.319	-0.145
-700.529	-200.000	0.036	0.288
-699.514	161.831	0.058	-0.081
-698.499	274.842	0.079	-0.141
-697.485	236.451	-0.020	-0.034
-696.470	-122.303	0.219	-0.036
-695.456	147.779	0.113	0.154
-694.441	-12.573	0.290	0.190
-693.426	-200.000	-0.012	0.207
-692.412	-94.606	-0.248	-0.068
-691.397	-149.804	0.099	0.008
-690.383	258.892	-0.211	-0.365
-689.368	-122.680	-0.407	0.066
-688.354	47.701	-0.124	-0.116
-687.339	-29.667	-0.252	-0.145
-686.324	94.871	-0.102	0.116
-685.310	800.000	0.089	-0.305
-684.295	101.652	-0.150	0.176
-683.281	-200.000	0.024	0.127
-682.266	342.149	-0.191	-0.376
-681.251	-200.000	-0.021	0.284
-680.237	800.000	-0.016	0.060
-679.222	747.298	0.081	0.218
-678.208	-200.000	0.038	-0.190
-677.193	-200.000	0.062	-0.327
-676.178	56.633	0.127	0.124
-675.164	800.000	-0.006	0.023
-674.149	484.130	0.104	-0.237
-673.135	-48.137	-0.145	0.071
-672.120	-162.661	0.110	0.005
-671.105	800.000	0.140	0.490
-670.091	31.352	-0.272	0.235
-669.076	202.416	-0.236	0.365
-668.062	257.316	0.010	0.018
-667.047	800.000	0.009	0.028
-666.032	-104.629	0.209	0.048
-665.018	-112.030	-0.163	-0.033
-664.003	800.000	-0.030	-0.128
-662.989	-133.544	0.384	0.048
-661.974	-200.000	0.032	-0.169
-660.959	13.264	0.224	0.174
-659.945	87.950	-0.187	0.208
-658.930	-54.244	-0.057	-0.026
-657.916	-11.743	-0.100	-0.066
-656.901	-124.623	-0.207	-0.032
-655.886	800.000	0.104	-0.359
-654.872	-64.760	-0.231	-0.094
-653.857	57.420	0.180	0.176
-652.843	506.969	-0.085	-0.198
-651.828	43.628	-0.110	-0.101
-650.814	461.778	0.067	0.149
-649.799	-107.538	-0.536	0.118
-648.784	-200.000	-0.033	0.159
-647.770	69.323	0.108	-0.111
-646.755	110.529	0.144	0.173
-645.741	3.488	-0.282	-0.206
-644.726	-163.734	-0.298	-0.014
-643.711	-88.832	0.178	0.053
-642.697	-200.000	-0.013	0.089
-641.682	-74.554	0.137	-0.049
-640.668	778.843	0.049	0.135
-639.653	437.613	-0.099	-0.217
-638.638	204.708	0.088	0.137
-637.624	800.000	0.012	0.045
-636.609	505.390	-0.037	0.087
-635.595	-36.683	-0.214	0.115
-634.580	-148.535	0.140	0.011
-633.565	36.051	0.078	-0.069
-632.551	-101.832	-0.276	-0.067
-631.536	-129.242	-0.225	-0.031
-630.522	-89.271	-0.046	0.014
-629.507	436.039	0.016	-0.035
-628.492	323.946	-0.050	0.096
-627.478	208.995	0.140	-0.220
-626.463	162.133	-0.193	0.271
-625.449	-112.389	-0.291	0.058
-624.434	215.954	0.126	0.201
-623.419	175.436	-0.076	0.110
-622.405	4.045	-0.114	-0.084
-621.390	160.148	-0.051	-0.071
-620.376	-115.321	0.053	-0.010
-619.361	529.395	0.031	-0.074
-618.346	-72.126	0.308	0.114
-617.332	800.000	0.038	-0.165
-616.317	68.672	-0.070	-0.072
-615.303	56.079	0.025	0.024
-614.288	32.691	0.174	0.151
-613.273	-200.000	-0.023	0.108
-612.259	17.211	-0.407	-0.323
-611.244	99.339	-0.072	0.084
-610.230	34.581	0.302	-0.264
-609.215	304.587	-0.014	0.027
-608.201	-78.660	-0.234	0.080
-607.186	-135.794	-0.200	-0.024
-606.171	-200.000	-0.001	-0.182
-605.157	-6.340	0.135	-0.092
-604.142	130.460	0.143	0.184
-603.128	-104.943	-0.276	-0.063
-602.113	469.491	0.104	-0.233
-601.098	-57.179	-0.120	0.053
-600.084	132.475	0.188	0.243
-599.069	-123.636	0.105	0.017
-598.055	-60.835	-0.517	-0.219
-597.040	-34.029	-0.115	0.063
-596.025	685.752	-0.238	0.623
-595.011	-29.919	0.087	-0.050
-593.996	284.296	-0.157	0.282
-592.982	29.725	0.110	-0.094
-591.967	-200.000	0.032	0.484
-590.952	-121.584	0.207	0.034
-589.938	-200.000	0.053	-0.269
-588.923	586.504	0.048	-0.117
-587.909	244.700	0.085	0.143
-586.894	-179.877	0.066	0.001
-585.879	638.154	-0.112	0.286
-584.865	-59.991	-0.181	-0.077
-583.850	76.832	-0.076	0.081
-582.836	200.571	0.298	0.458
-581.821	22.916	-0.214	0.175
-580.806	800.000	0.132	0.435
-579.792	-105.265	-0.132	-0.030
-578.777	31.545	0.151	0.130
-577.763	32.472	-0.130	-0.112
-576.748	-200.000	-0.004	-0.040
-575.733	-42.359	-0.356	-0.182
-574.719	-42.146	-0.329	0.168
-573.704	-51.886	0.148	-0.069
-572.690	73.207	-0.174	-0.182
-571.675	-200.000	0.007	-0.181
-570.661	-200.000	-0.013	-0.091
-569.646	800.000	0.034	0.138
-568.631	51.996	-0.156	-0.149
-567.617	0.439	0.232	-0.166
-566.602	-105.545	-0.269	-0.061
-565.588	36.481	-0.250	-0.221
-564.573	-200.000	0.140	0.000
-563.558	-25.816	-0.153	0.090
-562.544	-200.000	0.000	0.106
-561.529	-119.424	-0.226	-0.039
-560.515	-200.000	-0.006	-0.237
-559.500	140.226	-0.163	-0.214
-558.485	37.741	0.121	0.107
-557.471	-200.000	0.001	-0.008
-556.456	-113.736	-0.292	0.057
-555.442	339.547	0.153	0.298
-554.427	134.993	-0.209	-0.272
-553.412	-29.858	0.278	-0.159
-552.398	-107.339	0.125	0.028
-551.383	54.559	0.196	-0.189
-550.369	210.729	-0.087	0.137
-549.354	-47.135	0.169	-0.082
-548.339	573.388	-0.055	0.133
-547.325	277.111	-0.221	0.392
-546.310	-115.196	-0.188	-0.036
-545.296	800.000	-0.042	-0.128
-544.281	316.545	0.126	0.237
-543.266	-200.000	-0.001	-0.069
-542.252	13.057	-0.129	-0.100
-541.237	-200.000	-0.030	0.242
-540.223	23.807	-0.064	0.052
-539.208	35.682	0.352	-0.309
-538.193	-200.000	0.010	-0.046
-537.179	-200.000	0.013	0.296
-536.164	-121.618	-0.194	0.032
-535.150	-111.667	0.419	0.085
-534.135	-200.000	-0.009	0.104
-533.121	64.903	-0.208	-0.209
-532.106	-200.000	0.007	-0.139
-531.091	-200.000	-0.028	-0.314
-530.077	800.000	-0.019	-0.054
-529.062	800.000	0.102	-0.359
-528.048	-47.817	0.240	0.116
-527.033	800.000	-0.032	-0.132
-526.018	-29.218	0.081	0.047
-525.004	25.214	-0.237	0.196
-523.989	-200.000	-0.004	0.475
-522.975	207.684	0.096	0.150
-521.960	-134.331	-0.284	-0.035
-520.945	-64.302	-0.288	-0.117
-519.931	-95.634	-0.336	-0.090
-518.916	-48.119	-0.213	0.103
-517.902	-200.000	-0.016	-0.171
-516.887	54.262	-0.183	-0.176
-515.872	-112.141	0.604	-0.121
-514.858	13.920	0.277	0.215
-513.843	-200.000	-0.048	0.319
-512.829	-200.000	-0.038	0.183
-511.814	800.000	-0.014	0.045
-510.799	44.468	-0.227	0.208
-509.785	-200.000	0.019	0.354
-508.770	37.439	-0.111	-0.099
-507.756	800.000	-0.065	-0.209
-506.741	109.270	-0.064	0.077
-505.726	-125.159	0.347	-0.053
-504.712	-200.000	0.027	-0.128
-503.697	37.216	0.125	0.111
-502.683	-113.372	-0.148	-0.029
-501.668	-168.138	-0.358	0.014
-500.653	-75.297	0.127	0.045
-499.639	-200.000	0.001	0.095
-498.624	800.000	0.072	0.257
-497.610	-109.599	0.298	0.063
-496.595	-125.413	-0.091	0.014
-495.581	-15.119	-0.372	0.238
-494.566	-200.000	0.020	0.090
-493.551	-200.000	-0.016	0.381
-492.537	-34.068	-0.142	0.078
-491.522	-89.449	0.522	-0.153
-490.508	210.732	-0.093	0.146
-489.493	-112.808	0.111	0.022
-488.478	-37.068	-0.233	-0.124
-487.464	800.000	-0.029	-0.091
-486.449	-33.400	0.102	0.056
-485.435	294.749	-0.206	-0.376
-484.420	65.658	-0.252	0.254
-483.405	222.244	-0.020	0.032
-482.391	-58.240	-0.174	-0.075
-481.376	-30.682	0.132	-0.074
-480.362	-200.000	0.012	0.160
-479.347	800.000	-0.036	-0.109
-478.332	329.477	-0.134	0.256
-477.318	11.565	-0.025	-0.019
-476.303	26.186	0.236	-0.197
-475.289	-200.000	0.001	0.051
-474.274	124.414	0.123	-0.154
-473.259	-200.000	0.065	-0.511
-472.245	462.750	0.126	0.281
-471.230	25.638	-0.199	0.165
-470.216	16.092	-0.157	0.123
-469.201	-139.653	0.440	0.047
-468.186	-200.000	0.002	0.174
-467.172	-102.865	-0.129	0.031
-466.157	30.726	0.363	-0.309
-465.143	-60.646	-0.093	-0.039
-464.128	-25.879	-0.176	-0.103
-463.113	-194.141	-0.480	-0.004
-462.099	-200.000	-0.059	0.555
-461.084	-200.000	0.034	0.223
-460.070	-200.000	0.009	-0.058
-459.055	638.980	-0.004	0.010
-458.040	190.470	0.071	-0.106
-457.026	110.704	-0.025	0.030
-456.011	-130.436	-0.039	-0.005
-454.997	-96.394	0.140	0.037
-453.982	800.000	-0.050	0.150
-452.968	708.263	-0.200	-0.525
-451.953	-40.643	0.330	0.170
-450.938	800.000	-0.046	-0.141
-449.924	386.906	0.140	-0.287
-448.909	-4.480	0.170	0.117
-447.895	315.523	-0.212	-0.398
-446.880	118.466	-0.148	-0.181
-445.865	-155.130	0.323	-0.021
-444.851	133.533	-0.073	0.094
-443.836	-200.000	0.033	-0.146
-442.822	-117.364	-0.242	0.044
-441.807	800.000	-0.062	0.248
-440.792	749.440	-0.028	0.075
-439.778	213.216	-0.149	-0.233
-438.763	-166.162	-0.110	-0.005
-437.749	345.383	0.120	-0.235
-436.734	-28.598	-0.117	-0.067
-435.719	237.053	0.108	0.178
-434.705	-200.000	0.031	0.271
-433.690	183.220	-0.032	-0.047
-432.676	257.571	0.086	-0.148
-431.661	368.021	-0.103	-0.207
-430.646	-200.000	0.020	0.398
-429.632	-90.783	0.369	-0.106
-428.617	-87.219	-0.467	-0.141
-427.603	-200.000	0.007	-0.058
-426.588	176.684	-0.037	-0.054
-425.573	-146.163	0.260	0.023
-424.559	-200.000	0.010	-0.387
-423.544	800.000	0.033	-0.113
-422.530	-153.502	0.148	0.010
-421.515	-11.275	-0.134	-0.087
-420.500	34.937	-0.097	0.085
-419.486	-22.791	0.256	-0.154
-418.471	800.000	0.099	-0.301
-417.457	-200.000	0.027	-0.188
-416.442	-38.134	-0.217	0.114
-415.428	73.362	0.134	-0.140
-414.413	-150.411	0.277	0.021
-413.398	786.851	0.072	-0.196
-412.384	325.605	-0.046	-0.088
-411.369	-200.000	-0.029	0.270
-410.355	-78.729	-0.132	-0.045
-409.340	-49.162	-0.188	-0.089
-408.325	-157.778	-0.210	0.012
-407.311	-70.399	0.490	0.184
-406.296	25.510	-0.136	-0.113
-405.282	-35.295	0.058	-0.032
-404.267	73.783	-0.100	0.104
-403.252	272.200	-0.232	-0.406
-402.238	204.052	0.221	-0.340
-401.223	-14.074	-0.158	-0.101
-400.209	95.224	-0.075	0.085
-399.194	-200.000	0.003	-0.107
-398.179	-52.860	0.310	-0.142
-397.165	-46.075	-0.161	-0.079
-396.150	-13.498	0.280	-0.180
-395.136	258.451	-0.052	-0.089
-394.121	-46.591	0.070	-0.034
-393.106	161.709	0.094	-0.131
-392.092	109.567	-0.110	-0.131
-391.077	-200.000	-0.039	0.185
-390.063	247.384	0.142	0.239
-389.048	-131.061	-0.517	-0.068
-388.033	800.000	0.025	0.105
-387.019	-111.236	0.147	-0.030
-386.004	-37.591	0.267	0.141
-384.990	93.371	0.126	0.142
-383.975	-70.985	0.141	-0.053
-382.960	-59.838	0.137	-0.058
-381.946	-119.622	-0.073	-0.013
-380.931	-200.000	0.015	-0.423
-379.917	39.832	0.460	0.410
-378.902	-200.000	0.014	-0.121
-377.888	287.715	0.169	0.304
-376.873	697.843	0.090	-0.236
-375.858	-96.779	0.295	-0.077
-374.844	-103.614	0.262	-0.061
-373.829	-200.000	-0.009	-0.179
-372.815	319.041	0.167	0.315
-371.800	-200.000	-0.009	0.187
-370.785	-143.500	0.232	-0.022
-369.771	-200.000	-0.014	0.157
-368.756	-200.000	-0.051	-0.263
-367.742	-39.115	0.043	-0.022
-366.727	-165.836	0.013	-0.001
-365.712	575.373	-0.101	-0.245
-364.698	-200.000	0.029	-0.305
-363.683	78.186	0.097	0.103
-362.669	-95.290	-0.379	-0.101
-361.654	27.833	-0.130	0.109
-360.639	-47.639	0.187	-0.090
-359.625	22.363	-0.265	-0.215
-358.610	-48.004	-0.117	-0.056
-357.596	-20.610	-0.271	-0.165
-356.581	800.000	-0.039	0.149
-355.566	-86.182	-0.263	0.080
-354.552	-200.000	-0.012	-0.203
-353.537	708.646	-0.075	-0.197
-352.523	-200.000	0.003	-0.139
-351.508	-81.858	-0.179	0.058
-350.493	133.615	-0.020	-0.025
-349.479	89.696	0.185	0.204
-348.464	800.000	0.041	0.170
-347.450	115.480	-0.073	0.088
-346.435	45.068	0.280	0.256
-345.420	55.164	-0.110	0.105
-344.406	17.432	-0.024	0.019
-343.391	800.000	-0.076	0.212
-342.377	141.642	0.102	0.134
-341.362	-122.161	-0.371	-0.060
-340.348	319.619	-0.108	-0.203
-339.333	-130.323	0.263	-0.035
-338.318	-148.082	-0.147	0.012
-337.304	-200.000	-0.033	0.214
-336.289	-19.949	-0.065	0.040
-335.275	-75.197	0.144	-0.051
-334.260	800.000	0.021	0.076
-333.245	20.341	-0.117	0.093
-332.231	6.761	0.145	-0.107
-331.216	-145.215	0.148	0.013
-330.202	800.000	0.073	-0.247
-329.187	214.025	0.126	-0.197
-328.172	800.000	-0.027	-0.077
-327.158	-110.982	0.330	-0.067
-326.143	-88.651	-0.193	0.057
-325.129	-7.819	-0.021	-0.014
-324.114	-100.942	0.288	-0.070
-323.099	771.565	-0.033	0.090
-322.085	-80.049	0.147	-0.049
-321.070	24.780	-0.146	0.120
-320.056	-25.327	0.221	-0.130
-319.041	65.310	0.146	0.146
-318.026	69.567	-0.114	-0.116
-317.012	298.074	-0.051	0.093
-315.997	48.600	-0.050	0.046
-314.983	800.000	0.050	-0.207
-313.968	-200.000	0.014	0.189
-312.953	-200.000	-0.028	0.169
-311.939	-121.387	-0.271	-0.045
-310.924	-88.333	0.176	-0.052
-309.910	68.119	-0.157	0.159
-308.895	48.485	0.042	-0.039
-307.880	-25.171	-0.078	-0.046
-306.866	-73.006	0.322	0.117
-305.851	-38.544	-0.052	0.027
-304.837	147.270	0.148	0.197
-303.822	126.172	-0.175	-0.219
-302.807	13.231	-0.215	-0.165
-301.793	233.885	0.088	-0.143
-300.778	-200.000	-0.014	0.102
-299.764	-5.093	0.119	-0.081
-298.749	-200.000	0.151	-0.000
-297.735	235.705	0.130	-0.213
-296.720	-73.059	0.116	0.042
-295.705	-66.021	-0.366	0.145
-294.691	72.919	0.207	0.214
-293.676	-32.937	0.076	0.042
-292.662	800.000	-0.045	-0.140
-291.647	-200.000	0.014	-0.122
-290.632	-22.849	0.332	-0.198
-289.618	86.704	0.127	-0.139
-288.603	150.355	0.130	-0.174
-287.589	-200.000	-0.008	0.094
-286.574	-60.473	-0.026	-0.011
-285.559	-200.000	-0.002	0.095
-284.545	-162.831	-0.291	0.014
-283.530	102.854	-0.080	0.092
-282.516	800.000	-0.038	0.129
-281.501	-200.000	-0.041	-0.186
-280.486	16.952	0.184	-0.144
-279.472	175.122	0.037	-0.053
-278.457	-60.168	0.303	0.128
-277.443	95.212	0.050	-0.056
-276.428	-120.163	0.309	0.052
-275.413	179.603	-0.107	0.154
-274.399	-200.000	0.003	0.018
-273.384	800.000	0.076	-0.322
-272.370	-200.000	-0.002	-0.102
-271.355	615.059	-0.093	-0.229
-270.340	800.000	0.013	0.036
-269.326	-200.000	-0.017	0.085
-268.311	-148.136	-0.273	0.022
-267.297	396.330	-0.107	-0.221
-266.282	800.000	-0.062	-0.232
-265.267	-52.902	-0.130	0.059
-264.253	101.393	0.222	-0.255
-263.238	224.963	-0.035	-0.056
-262.224	-99.624	-0.129	-0.032
-261.209	342.619	0.093	0.179
-260.195	-200.000	-0.015	-0.234
-259.180	14.356	-0.033	-0.025
-258.165	-200.000	0.020	-0.123
-257.151	-166.277	0.026	0.001
-256.136	-200.000	0.011	-0.466
-255.122	493.242	-0.131	0.296
-254.107	-170.408	0.152	-0.005
-253.092	16.105	0.143	-0.111
-252.078	800.000	-0.052	0.174
-251.063	-200.000	0.017	-0.090
-250.049	-86.390	0.093	-0.028
-249.034	133.430	0.219	0.279
-248.019	-95.439	-0.164	0.043
-247.005	-22.396	-0.345	-0.206
-245.990	-84.891	0.246	-0.076
-244.976	-126.066	-0.155	-0.023
-243.961	-200.000	0.051	-0.358
-242.946	-80.120	0.186	-0.062
-241.932	-26.253	-0.115	0.067
-240.917	103.138	0.141	0.163
-239.903	-7.851	-0.257	-0.171
-238.888	252.012	-0.109	0.183
-237.873	-200.000	0.000	-0.018
-236.859	226.204	0.188	0.301
-235.844	-127.747	-0.311	0.044
-234.830	-52.700	-0.006	0.003
-233.815	-82.467	0.178	0.057
-232.800	691.438	-0.018	-0.047
-231.786	56.740	-0.171	-0.164
-230.771	-44.836	-0.448	0.220
-229.757	111.023	0.351	0.417
-228.742	-52.356	-0.279	0.128
-227.727	262.595	-0.122	-0.209
-226.713	24.410	-0.133	-0.109
-225.698	-134.976	0.343	0.041
-224.684	-200.000	0.015	0.196
-223.669	-63.694	0.327	0.132
-222.655	800.000	0.171	0.474
-221.640	427.188	-0.077	-0.163
-220.625	404.451	0.062	-0.130
-219.611	-117.333	0.266	-0.048
-218.596	-146.096	-0.033	0.003
-217.582	547.517	-0.092	-0.218
-216.567	800.000	0.019	0.076
-215.552	55.278	-0.062	-0.059
-214.538	154.103	-0.047	0.063
-213.523	469.024	-0.059	-0.131
-212.509	797.558	-0.067	-0.181
-211.494	-56.756	-0.081	-0.035
-210.479	26.283	0.254	-0.209
-209.465	-54.226	0.195	0.087
-208.450	51.635	0.223	0.209
-207.436	208.365	-0.076	0.117
-206.421	53.140	-0.084	-0.079
-205.406	800.000	0.040	0.126
-204.392	284.509	-0.045	0.080
-203.377	-87.637	0.211	0.063
-202.363	-64.180	-0.085	-0.034
-201.348	-90.458	0.224	-0.064
-200.333	625.504	0.043	-0.106
-199.319	165.900	0.038	-0.053
-198.304	160.845	-0.040	-0.055
-197.290	267.584	-0.129	-0.222
-196.275	-50.088	0.102	0.048
-195.260	334.707	0.104	0.198
-194.246	-82.163	0.112	0.036
-193.231	489.618	-0.054	-0.122
-192.217	-90.808	-0.140	0.040
-191.202	-200.000	0.000	-0.008
-190.187	-131.618	0.158	-0.020
-189.173	191.358	0.018	-0.026
-188.158	-200.000	-0.041	0.444
-187.144	-200.000	0.052	0.283
-186.129	800.000	-0.053	-0.152
-185.114	800.000	0.062	0.183
-184.100	-164.024	-0.142	-0.006
-183.085	800.000	0.039	0.161
-182.071	635.718	-0.120	0.299
-181.056	-27.629	0.131	0.075
-180.042	-130.588	0.207	0.027
-179.027	800.000	-0.112	-0.317
-178.012	496.988	0.121	0.274
-176.998	-44.702	-0.043	-0.021
-175.983	475.426	0.103	-0.230
-174.969	-87.620	0.179	-0.053
-173.954	92.863	0.146	0.162
-172.939	658.908	0.026	0.067
-171.925	258.280	-0.068	0.115
-170.910	94.093	-0.177	0.197
-169.896	-52.117	0.256	-0.117
-168.881	-2.272	0.233	0.161
-167.866	-200.000	-0.020	0.129
-166.852	127.170	-0.363	0.453
-165.837	-44.180	0.140	0.069
-164.823	-132.847	-0.203	-0.025
-163.808	-57.472	0.312	0.135
-162.793	-18.105	0.044	-0.027
-161.779	-200.000	0.030	-0.132
-160.764	-42.527	-0.278	-0.140
-159.750	183.357	-0.130	-0.190
-158.735	-38.580	-0.283	0.147
-157.720	-140.871	0.369	-0.037
-156.706	-118.606	0.305	-0.053
-155.691	-200.000	0.010	0.286
-154.677	659.373	0.107	0.271
-153.662	353.295	-0.004	-0.008
-152.647	800.000	-0.084	-0.276
-151.633	714.389	0.126	-0.329
-150.618	75.756	0.393	0.409
-149.604	86.300	-0.259	0.280
-148.589	-200.000	-0.040	-0.181
-147.574	-200.000	-0.228	-0.001
-146.560	-148.043	-0.177	0.014
-145.545	800.000	-0.021	0.075
-144.531	-200.000	0.009	-0.144
-143.516	660.582	-0.074	0.187
-142.502	-120.359	-0.251	-0.042
-141.487	800.000	-0.090	-0.287
-140.472	40.553	-0.213	0.189
-139.458	42.477	-0.077	0.069
-138.443	232.761	0.065	0.105
-137.429	-200.000	-0.033	-0.321
-136.414	97.796	-0.198	0.224
-135.399	28.511	-0.181	-0.151
-134.385	51.461	-0.146	-0.137
-133.370	-28.968	0.113	-0.064
-132.356	252.891	-0.068	-0.114
-131.341	-200.000	-0.013	0.132
-130.326	-200.000	-0.078	-0.469
-129.312	-182.056	0.331	0.006
-128.297	-67.074	-0.184	-0.071
-127.283	-200.000	0.016	0.091
-126.268	-106.425	0.327	-0.072
-125.253	161.374	-0.107	0.146
-124.239	-89.593	-0.151	0.043
-123.224	-94.723	0.062	-0.017
-122.210	118.869	-0.150	-0.182
