DTS Sentinel unit serial number:	SN413079Multiplexer serial number:	ORYXHardware model number:	OX4-SRSoftware version number:	ORYX F/W v4.00 Oryx Data Collector v3.7.2.0data status	okinstallation	princeton_trtdifferential loss correction	single-endedforward channel	channel 2reverse channel	N/Adate	2019/09/14time	18:19:34forward acquisition time	60.00reverse acquisition time	0.00gamma	496.2192k internal	0.2316k external	0.2316temperature offset calibration	1.0107default loss term (dB/km)	0.3790temperature slope calibration	1.0000multiplexer offset coefficient	1.0000multiplexer slope coefficient	1.0000fibre end	0.00T internal ref (°C)	36.91T ext. ref 1 (°C)	4.97T ext. ref 2 (°C)	30.93length (m)	temperature (°C)	Stokes	anti-Stokes-747.200	548.280	0.082	0.199
-746.185	-200.000	-0.004	-0.036
-745.171	-200.000	0.031	0.201
-744.156	32.709	-0.208	0.182
-743.142	623.817	-0.102	0.261
-742.127	-72.843	0.306	-0.114
-741.112	-200.000	0.018	-0.094
-740.098	800.000	0.049	0.213
-739.083	-56.205	0.197	-0.089
-738.069	-92.937	-0.170	0.048
-737.054	-200.000	-0.036	-0.616
-736.039	-51.004	-0.321	-0.153
-735.025	-183.913	0.378	-0.006
-734.010	149.918	-0.154	0.211
-732.996	-23.387	0.137	-0.083
-731.981	229.601	-0.044	-0.073
-730.966	13.543	-0.230	0.181
-729.952	-200.000	-0.018	-0.280
-728.937	39.617	0.011	-0.010
-727.923	-14.725	0.217	0.141
-726.908	-66.550	0.180	-0.072
-725.894	800.000	-0.089	-0.308
-724.879	-200.000	-0.012	0.299
-723.864	-200.000	-0.010	0.353
-722.850	-33.376	-0.320	-0.179
-721.835	83.596	-0.232	-0.256
-720.821	98.800	-0.229	0.268
-719.806	47.221	0.283	-0.266
-718.791	674.137	-0.121	-0.318
-717.777	-51.209	-0.225	-0.107
-716.762	-200.000	0.010	-0.149
-715.748	267.668	0.145	0.257
-714.733	-58.052	-0.157	-0.069
-713.718	800.000	-0.073	-0.223
-712.704	50.584	-0.330	-0.316
-711.689	146.668	0.220	-0.299
-710.675	-83.956	-0.270	0.087
-709.660	37.172	0.150	-0.134
-708.645	-159.398	-0.114	0.006
-707.631	-75.593	-0.211	0.076
-706.616	254.807	0.073	-0.126
-705.602	640.220	0.170	0.439
-704.587	-200.000	0.044	0.222
-703.572	800.000	0.042	-0.122
-702.558	647.947	0.017	-0.045
-701.543	10.263	0.065	0.050
-700.529	-41.814	-0.204	0.106
-699.514	-155.175	-0.115	-0.008
-698.499	-104.478	-0.346	0.081
-697.485	71.757	-0.108	0.114
-696.470	-61.418	0.192	0.082
-695.456	-200.000	0.044	0.335
-694.441	800.000	-0.059	0.168
-693.426	-40.403	-0.314	0.165
-692.412	-108.286	0.095	-0.021
-691.397	2.133	-0.222	0.162
-690.383	-200.000	-0.030	-0.399
-689.368	-126.979	0.396	-0.059
-688.354	14.428	0.351	-0.277
-687.339	312.703	-0.165	-0.313
-686.324	59.634	-0.254	-0.253
-685.310	800.000	0.124	-0.388
-684.295	-66.477	-0.269	-0.108
-683.281	-59.949	0.231	0.100
-682.266	-141.463	-0.189	-0.019
-681.251	469.284	-0.137	0.310
-680.237	361.220	0.161	-0.326
-679.222	-26.037	-0.075	-0.045
-678.208	75.286	-0.268	-0.286
-677.193	800.000	0.050	0.180
-676.178	122.366	0.112	0.141
-675.164	-200.000	-0.012	-0.122
-674.149	120.518	-0.228	-0.287
-673.135	156.747	0.249	-0.347
-672.120	-51.477	0.295	0.139
-671.105	-200.000	-0.002	-0.488
-670.091	-45.842	-0.040	0.020
-669.076	800.000	-0.061	-0.210
-668.062	-200.000	0.012	0.202
-667.047	800.000	0.080	0.292
-666.032	-200.000	0.032	0.144
-665.018	-200.000	0.031	-0.202
-664.003	800.000	-0.050	-0.189
-662.989	-200.000	-0.034	-0.354
-661.974	800.000	0.075	-0.256
-660.959	24.500	-0.152	0.127
-659.945	800.000	0.035	-0.143
-658.930	-200.000	-0.049	-0.319
-657.916	-200.000	-0.052	0.272
-656.901	429.997	-0.027	-0.058
-655.886	-64.271	0.139	0.057
-654.872	-200.000	0.486	0.002
-653.857	-152.630	0.106	-0.008
-652.843	33.840	0.234	-0.206
-651.828	15.786	-0.073	-0.058
-650.814	432.534	-0.036	-0.079
-649.799	129.115	0.235	0.303
-648.784	-42.183	-0.290	0.150
-647.770	-176.508	-0.322	0.008
-646.755	96.138	0.045	-0.052
-645.741	-200.000	0.028	-0.212
-644.726	-97.433	-0.142	0.037
-643.711	-36.373	-0.195	-0.106
-642.697	-139.334	-0.314	-0.034
-641.682	374.940	-0.085	0.175
-640.668	-200.000	0.011	-0.168
-639.653	95.377	0.049	0.056
-638.638	800.000	-0.073	0.278
-637.624	-100.518	-0.403	0.100
-636.609	-45.447	0.257	-0.128
-635.595	151.575	-0.040	0.054
-634.580	-114.860	-0.220	0.042
-633.565	254.267	0.048	-0.083
-632.551	-74.781	0.173	-0.063
-631.536	17.078	0.364	-0.291
-630.522	-142.742	-0.156	-0.015
-629.507	-89.181	-0.334	-0.099
-628.492	-200.000	0.068	0.399
-627.478	-117.665	0.334	-0.061
-626.463	346.919	0.113	-0.224
-625.449	-189.706	-0.071	0.001
-624.434	-200.000	-0.065	0.396
-623.419	-21.513	-0.170	-0.104
-622.405	435.552	0.062	0.136
-621.390	-70.619	-0.304	-0.116
-620.376	158.842	-0.206	-0.289
-619.361	800.000	-0.061	-0.239
-618.346	260.454	0.167	0.291
-617.332	485.933	-0.110	-0.253
-616.317	392.402	-0.126	-0.265
-615.303	-14.367	-0.137	0.089
-614.288	-106.169	0.181	0.041
-613.273	451.751	-0.082	-0.183
-612.259	345.947	-0.068	-0.136
-611.244	-68.701	-0.241	0.094
-610.230	250.783	0.074	-0.126
-609.215	97.002	-0.207	-0.239
-608.201	87.172	-0.238	-0.265
-607.186	717.685	-0.085	-0.228
-606.171	-181.970	0.382	-0.007
-605.157	603.997	-0.118	0.295
-604.142	-1.755	0.162	-0.115
-603.128	-127.820	0.187	0.027
-602.113	-150.971	-0.015	0.001
-601.098	10.023	-0.209	-0.160
-600.084	-149.725	-0.176	-0.014
-599.069	-19.848	-0.118	0.073
-598.055	215.031	0.019	0.031
-597.040	768.874	0.096	-0.262
-596.025	121.668	0.249	0.313
-595.011	176.643	-0.170	0.248
-593.996	180.239	0.119	-0.175
-592.982	800.000	0.065	-0.257
-591.967	-2.458	0.236	0.167
-590.952	227.472	0.092	0.150
-589.938	-200.000	0.013	-0.065
-588.923	-87.357	-0.130	0.040
-587.909	-85.780	0.248	0.077
-586.894	-200.000	-0.041	0.212
-585.879	-96.326	0.299	-0.080
-584.865	-200.000	-0.041	0.205
-583.850	-182.986	-0.048	0.001
-582.836	-200.000	0.003	-0.345
-581.821	24.537	-0.182	-0.152
-580.806	20.337	0.180	-0.146
-579.792	800.000	0.064	-0.224
-578.777	3.414	-0.246	0.181
-577.763	-200.000	-0.018	0.242
-576.748	75.531	-0.049	-0.052
-575.733	-82.901	-0.173	-0.056
-574.719	-27.464	-0.028	-0.016
-573.704	800.000	0.059	-0.202
-572.690	-71.465	0.343	0.129
-571.675	-107.496	-0.367	-0.081
-570.661	-23.101	0.403	0.244
-569.646	146.362	0.068	-0.091
-568.631	-200.000	0.004	-0.110
-567.617	379.344	0.096	-0.199
-566.602	193.239	0.107	-0.163
-565.588	168.516	-0.166	-0.238
-564.573	-20.509	-0.032	0.020
-563.558	295.783	-0.068	-0.126
-562.544	-200.000	-0.039	0.218
-561.529	-200.000	-0.010	0.104
-560.515	-72.812	-0.099	0.037
-559.500	21.701	0.205	0.168
-558.485	-64.813	-0.209	-0.085
-557.471	-200.000	-0.085	0.386
-556.456	-57.425	0.371	0.164
-555.442	504.172	-0.120	-0.280
-554.427	-70.247	-0.161	-0.061
-553.412	-101.900	0.225	-0.055
-552.398	-200.000	0.008	0.047
-551.383	-200.000	-0.004	-0.240
-550.369	800.000	0.083	0.245
-549.354	159.548	0.147	0.206
-548.339	-36.841	-0.209	-0.113
-547.325	-59.943	-0.122	0.052
-546.310	-178.573	0.266	0.006
-545.296	62.659	0.084	-0.084
-544.281	-41.121	0.303	0.157
-543.266	-200.000	0.020	0.113
-542.252	-158.491	-0.078	0.005
-541.237	-200.000	0.030	-0.269
-540.223	473.599	0.074	-0.168
-539.208	800.000	0.020	-0.060
-538.193	108.411	-0.099	-0.118
-537.179	63.756	-0.170	-0.172
-536.164	800.000	0.026	0.071
-535.150	-200.000	-0.051	0.444
-534.135	-200.000	-0.070	0.435
-533.121	-91.678	-0.096	-0.027
-532.106	800.000	-0.053	-0.181
-531.091	21.934	-0.116	-0.095
-530.077	165.685	0.152	-0.216
-529.062	-117.520	-0.227	-0.041
-528.048	-12.844	-0.314	0.206
-527.033	280.387	0.123	0.220
-526.018	131.175	-0.094	0.121
-525.004	800.000	0.019	0.055
-523.989	403.638	-0.038	0.080
-522.975	46.888	0.272	-0.254
-521.960	-165.581	0.114	-0.005
-520.945	99.109	0.225	0.261
-519.931	800.000	0.103	-0.360
-518.916	370.104	0.036	-0.073
-517.902	351.112	-0.135	0.268
-516.887	800.000	0.048	0.190
-515.872	-83.012	0.181	-0.058
-514.858	-200.000	0.011	-0.061
-513.843	-200.000	-0.029	0.282
-512.829	375.250	0.025	0.051
-511.814	66.266	-0.190	0.193
-510.799	204.199	-0.222	-0.345
-509.785	800.000	-0.086	-0.330
-508.770	800.000	-0.047	0.144
-507.756	-16.935	-0.178	0.113
-506.741	-4.650	-0.139	0.097
-505.726	172.306	0.100	0.145
-504.712	126.441	-0.019	-0.024
-503.697	-148.332	-0.265	-0.022
-502.683	31.181	-0.225	-0.194
-501.668	-57.866	-0.141	-0.062
-500.653	-87.942	-0.258	0.078
-499.639	135.940	-0.097	0.126
-498.624	-200.000	-0.008	0.061
-497.610	-18.632	0.136	0.085
-496.595	719.274	0.174	0.464
-495.581	27.653	0.055	-0.046
-494.566	-200.000	-0.063	0.307
-493.551	-75.288	0.415	-0.148
-492.537	-86.629	0.241	0.074
-491.522	-200.000	0.035	-0.229
-490.508	-145.381	0.021	0.002
-489.493	-148.721	-0.311	0.025
-488.478	-40.149	-0.159	-0.083
-487.464	800.000	-0.044	-0.187
-486.449	-179.406	0.133	0.003
-485.435	17.737	-0.063	0.050
-484.420	10.372	-0.099	0.076
-483.405	11.543	-0.069	0.053
-482.391	-78.246	-0.344	0.118
-481.376	52.398	0.283	-0.271
-480.362	319.098	-0.201	-0.381
-479.347	160.130	0.140	-0.196
-478.332	-111.892	0.444	0.090
-477.318	-63.958	0.205	0.084
-476.303	-200.000	0.023	-0.124
-475.289	-37.828	-0.358	-0.191
-474.274	-200.000	-0.026	-0.220
-473.259	-200.000	-0.019	0.196
-472.245	-168.917	0.228	0.009
-471.230	-48.254	-0.053	-0.026
-470.216	-133.893	-0.074	0.009
-469.201	62.950	0.059	-0.060
-468.186	405.961	-0.260	0.550
-467.172	800.000	-0.063	0.274
-466.157	-200.000	0.055	-0.340
-465.143	-150.002	-0.229	-0.018
-464.128	-33.106	0.084	0.047
-463.113	467.992	0.077	0.173
-462.099	124.226	0.022	-0.027
-461.084	-37.869	0.349	-0.186
-460.070	-180.534	0.049	0.001
-459.055	19.824	-0.168	0.135
-458.040	493.249	0.133	-0.305
-457.026	83.650	0.044	-0.048
-456.011	-102.040	-0.262	0.063
-454.997	-137.895	0.336	0.038
-453.982	800.000	-0.127	-0.502
-452.968	-89.190	-0.139	0.041
-451.953	89.366	-0.121	-0.135
-450.938	-200.000	0.024	-0.262
-449.924	-78.223	0.107	-0.037
-448.909	32.753	0.032	-0.028
-447.895	360.314	-0.095	0.191
-446.880	-160.533	0.467	0.025
-445.865	79.030	0.125	-0.134
-444.851	401.520	-0.141	0.295
-443.836	-23.871	0.135	0.081
-442.822	21.302	0.186	0.151
-441.807	-80.070	0.319	-0.107
-440.792	-137.230	0.111	-0.013
-439.778	-200.000	0.056	-0.269
-438.763	21.019	-0.189	-0.154
-437.749	32.997	-0.103	-0.089
-436.734	306.486	-0.069	-0.129
-435.719	333.287	-0.124	-0.241
-434.705	-200.000	0.016	-0.168
-433.690	61.985	-0.215	0.215
-432.676	-200.000	0.009	0.299
-431.661	-39.985	0.229	-0.120
-430.646	-158.630	-0.125	-0.007
-429.632	637.320	0.133	-0.337
-428.617	800.000	0.074	-0.223
-427.603	195.179	-0.145	-0.220
-426.588	-71.437	0.073	-0.028
-425.573	113.801	-0.165	0.201
-424.559	-67.063	-0.107	0.042
-423.544	399.817	-0.051	-0.107
-422.530	321.589	0.195	-0.371
-421.515	209.452	0.052	0.081
-420.500	-70.874	-0.246	0.093
-419.486	-95.957	-0.199	0.053
-418.471	36.731	-0.195	0.172
-417.457	-40.273	-0.329	0.171
-416.442	800.000	0.090	0.327
-415.428	140.900	0.071	0.093
-414.413	800.000	0.034	-0.135
-413.398	800.000	-0.094	0.341
-412.384	-41.747	-0.176	0.090
-411.369	-51.810	-0.249	0.116
-410.355	-145.241	0.348	-0.032
-409.340	-200.000	0.009	0.226
-408.325	-94.082	-0.110	0.030
-407.311	-31.893	0.317	-0.178
-406.296	-200.000	-0.037	-0.225
-405.282	-200.000	-0.012	0.127
-404.267	800.000	-0.063	0.196
-403.252	-51.394	-0.161	0.075
-402.238	96.081	-0.195	-0.222
-401.223	162.638	0.270	0.379
-400.209	168.772	-0.146	0.208
-399.194	131.120	0.181	-0.232
-398.179	11.340	0.089	0.068
-397.165	-43.350	0.213	0.107
-396.150	800.000	-0.037	0.144
-395.136	113.993	0.161	0.195
-394.121	-138.237	-0.165	-0.018
-393.106	-47.818	-0.426	0.206
-392.092	21.656	-0.137	-0.111
-391.077	-44.420	0.104	0.052
-390.063	438.276	0.053	0.116
-389.048	90.096	-0.207	-0.231
-388.033	349.726	0.171	0.337
-387.019	800.000	0.055	-0.225
-386.004	800.000	-0.070	-0.194
-384.990	258.955	0.094	-0.163
-383.975	-200.000	0.058	0.400
-382.960	-93.185	0.366	0.102
-381.946	800.000	-0.069	0.215
-380.931	35.804	-0.276	0.242
-379.917	-104.009	-0.188	0.044
-378.902	-129.046	-0.167	-0.023
-377.888	-6.952	-0.217	0.147
-376.873	-24.511	-0.250	0.149
-375.858	-200.000	-0.033	-0.207
-374.844	135.600	0.069	-0.089
-373.829	-200.000	-0.031	0.315
-372.815	-16.418	0.103	0.065
-371.800	14.166	0.105	0.082
-370.785	-200.000	-0.026	0.194
-369.771	-200.000	-0.015	0.082
-368.756	-142.678	0.302	0.029
-367.742	95.898	-0.089	0.101
-366.727	332.184	-0.135	-0.260
-365.712	800.000	-0.075	0.268
-364.698	92.451	-0.293	-0.330
-363.683	724.232	0.039	-0.104
-362.669	-121.271	-0.341	-0.057
-361.654	309.076	0.044	0.081
-360.639	-200.000	0.024	-0.407
-359.625	42.262	0.125	0.113
-358.610	394.974	-0.020	0.041
-357.596	-136.844	-0.175	-0.020
-356.581	-30.853	0.139	-0.078
-355.566	-5.835	-0.242	0.166
-354.552	-142.873	0.521	0.051
-353.537	-200.000	-0.035	-0.317
-352.523	271.100	-0.111	0.195
-351.508	-200.000	-0.081	-0.412
-350.493	113.030	-0.081	0.098
-349.479	275.524	-0.157	-0.277
-348.464	42.596	0.091	0.083
-347.450	105.214	0.065	0.076
-346.435	-87.691	0.284	0.085
-345.420	-126.793	-0.132	0.019
-344.406	-120.111	0.256	-0.044
-343.391	-88.270	-0.153	0.046
-342.377	-151.239	-0.189	-0.014
-341.362	41.301	-0.132	-0.119
-340.348	-18.711	0.170	0.106
-339.333	-2.721	-0.132	0.092
-338.318	-200.000	0.022	0.127
-337.304	-36.666	0.023	0.012
-336.289	-123.778	-0.221	-0.035
-335.275	800.000	-0.075	0.243
-334.260	418.880	0.149	0.318
-333.245	171.230	-0.252	-0.360
-332.231	800.000	-0.017	0.064
-331.216	800.000	0.062	0.185
-330.202	56.023	-0.114	-0.110
-329.187	8.726	-0.110	0.082
-328.172	-115.779	-0.263	0.049
-327.158	495.319	0.058	0.133
-326.143	-146.229	0.127	0.011
-325.129	29.381	0.078	0.066
-324.114	-140.809	0.264	0.027
-323.099	417.319	-0.052	0.111
-322.085	24.228	0.118	0.097
-321.070	224.111	-0.171	0.275
-320.056	371.013	0.136	0.276
-319.041	149.712	0.070	-0.094
-318.026	108.014	0.065	-0.078
-317.012	607.455	-0.109	0.270
-315.997	-39.655	-0.059	-0.031
-314.983	-52.637	-0.183	-0.084
-313.968	58.466	-0.139	-0.136
-312.953	-38.632	0.228	-0.120
-311.939	-44.852	0.208	0.103
-310.924	-200.000	0.031	-0.231
-309.910	-63.001	0.385	0.158
-308.895	-200.000	-0.025	0.251
-307.880	-200.000	-0.013	-0.123
-306.866	-19.130	-0.270	-0.167
-305.851	-10.298	0.334	0.221
-304.837	-200.000	0.033	-0.177
-303.822	800.000	0.106	0.317
-302.807	-147.359	0.261	-0.022
-301.793	59.995	0.075	-0.074
-300.778	678.250	-0.055	-0.142
-299.764	24.503	0.162	0.133
-298.749	57.467	-0.092	0.090
-297.735	-122.498	0.312	0.051
-296.720	-38.134	0.222	0.117
-295.705	-60.993	-0.364	-0.153
-294.691	141.125	0.047	0.062
-293.676	-47.335	-0.361	0.175
-292.662	299.779	-0.105	0.193
-291.647	-200.000	-0.033	-0.280
-290.632	356.906	0.108	-0.215
-289.618	511.186	0.017	0.040
-288.603	371.126	0.139	-0.280
-287.589	-153.846	-0.164	-0.011
-286.574	-86.294	0.061	0.019
-285.559	-84.122	0.175	0.055
-284.545	-75.867	-0.082	-0.029
-283.530	233.873	0.147	0.241
-282.516	-100.619	0.097	-0.024
-281.501	-80.870	-0.316	0.104
-280.486	-138.588	0.214	0.023
-279.472	-180.260	-0.172	-0.004
-278.457	350.431	-0.045	-0.088
-277.443	-105.837	-0.318	0.071
-276.428	77.218	0.073	0.078
-275.413	467.122	0.065	-0.145
-274.399	104.562	-0.027	-0.032
-273.384	-93.387	0.203	0.056
-272.370	-3.238	0.238	0.165
-271.355	171.651	-0.353	-0.505
-270.340	225.869	0.105	-0.169
-269.326	28.511	0.225	-0.189
-268.311	692.466	0.093	0.241
-267.297	800.000	-0.031	-0.092
-266.282	163.450	-0.068	0.096
-265.267	-64.669	0.155	-0.063
-264.253	-72.755	-0.031	-0.011
-263.238	-200.000	-0.013	-0.153
-262.224	-200.000	-0.025	-0.182
-261.209	800.000	0.136	-0.481
-260.195	-162.383	0.260	-0.013
-259.180	250.101	-0.102	0.172
-258.165	140.329	0.048	0.063
-257.151	800.000	-0.071	0.264
-256.136	-74.785	0.049	0.018
-255.122	-60.415	-0.334	-0.141
-254.107	-200.000	-0.050	0.231
-253.092	-66.646	0.334	-0.132
-252.078	-50.448	-0.136	0.064
-251.063	-146.521	0.196	-0.017
-250.049	-200.000	0.050	-0.344
-249.034	44.376	-0.044	-0.041
-248.019	-36.162	-0.199	0.107
-247.005	-26.668	0.168	-0.097
-245.990	305.485	0.224	-0.413
-244.976	-71.296	-0.302	0.112
-243.961	160.463	-0.209	0.289
-242.946	-200.000	0.005	0.081
-241.932	25.304	-0.212	-0.175
-240.917	351.293	-0.174	0.343
-239.903	-64.149	0.281	-0.114
-238.888	-200.000	0.037	0.239
-237.873	79.555	0.324	0.345
-236.859	-200.000	-0.014	0.165
-235.844	-10.026	0.191	0.126
-234.830	51.731	0.132	-0.124
-233.815	-200.000	0.049	0.325
-232.800	316.551	0.060	0.112
-231.786	-200.000	0.025	-0.517
-230.771	-49.073	-0.095	0.045
-229.757	-135.335	-0.114	0.014
-228.742	9.823	0.257	0.193
-227.727	-51.185	0.330	-0.153
-226.713	-142.710	0.379	0.037
-225.698	-48.956	0.231	-0.110
-224.684	-85.236	-0.085	0.027
-223.669	520.135	-0.114	0.266
-222.655	490.443	-0.026	-0.059
-221.640	502.633	-0.169	-0.387
-220.625	-129.292	-0.264	-0.037
-219.611	57.894	0.184	-0.179
-218.596	-118.630	-0.365	0.064
-217.582	-134.374	-0.103	-0.013
-216.567	360.939	-0.076	0.150
-215.552	800.000	0.033	0.144
-214.538	-200.000	-0.058	-0.274
-213.523	447.450	0.151	0.329
-212.509	362.899	-0.023	0.047
-211.494	-2.544	-0.306	0.212
-210.479	-200.000	-0.002	0.036
-209.465	319.699	-0.039	-0.074
-208.450	-43.538	0.217	-0.109
-207.436	1.157	-0.125	-0.089
-206.421	231.581	0.141	0.229
-205.406	-200.000	-0.010	-0.283
-204.392	-200.000	-0.018	0.262
-203.377	301.790	-0.105	-0.192
-202.363	740.031	-0.104	0.276
-201.348	-100.513	0.255	-0.062
-200.333	-200.000	-0.024	0.222
-199.319	-136.983	0.132	-0.015
-198.304	-70.383	-0.176	0.066
-197.290	-41.919	0.576	-0.293
-196.275	407.308	0.111	-0.233
-195.260	-200.000	-0.316	-0.001
-194.246	-116.425	-0.337	-0.062
-193.231	-125.710	-0.119	-0.018
-192.217	49.672	-0.146	-0.137
-191.202	-170.399	0.489	-0.017
-190.187	107.075	-0.223	-0.262
-189.173	-173.830	0.234	-0.007
-188.158	330.896	0.036	-0.068
-187.144	-128.235	0.560	-0.079
-186.129	-65.279	-0.120	-0.048
-185.114	-156.395	0.169	0.010
-184.100	-157.813	-0.194	0.011
-183.085	800.000	0.144	-0.457
-182.071	93.544	0.095	-0.106
-181.056	800.000	0.107	0.313
-180.042	53.020	-0.333	-0.316
-179.027	-63.930	-0.056	-0.023
-178.012	80.045	-0.113	-0.120
-176.998	-83.362	-0.115	-0.037
-175.983	270.818	0.037	-0.064
-174.969	-190.339	0.021	0.000
-173.954	-122.474	0.107	0.017
-172.939	220.695	0.203	-0.322
-171.925	-155.999	-0.193	0.012
-170.910	474.295	0.091	0.204
-169.896	800.000	0.045	0.157
-168.881	-200.000	0.021	0.199
-167.866	83.894	0.196	0.212
-166.852	800.000	-0.025	-0.090
-165.837	-200.000	0.046	-0.339
-164.823	434.898	0.146	-0.314
-163.808	6.177	-0.051	-0.037
-162.793	178.779	0.163	0.236
-161.779	-143.217	0.120	0.011
-160.764	-59.357	-0.224	0.095
-159.750	-147.351	0.305	0.026
-158.735	-104.982	-0.101	-0.023
-157.720	459.577	0.079	0.175
-156.706	39.715	0.141	0.125
-155.691	150.517	0.324	-0.435
-154.677	-200.000	0.006	-0.063
-153.662	-53.068	0.026	-0.012
-152.647	349.473	-0.075	0.147
-151.633	-200.000	-0.004	0.045
-150.618	-47.301	0.300	-0.144
-149.604	-97.856	-0.285	0.073
-148.589	215.398	0.255	-0.400
-147.574	76.466	0.114	0.119
-146.560	108.012	-0.118	0.139
-145.545	-20.636	-0.170	0.103
-144.531	158.567	-0.141	0.193
-143.516	761.471	0.080	0.216
-142.502	800.000	0.098	0.334
-141.487	112.187	0.079	-0.095
-140.472	-92.008	-0.290	-0.081
-139.458	253.480	-0.118	0.199
-138.443	276.928	-0.090	0.159
-137.429	241.026	-0.225	-0.371
-136.414	9.855	0.209	-0.157
-135.399	-122.305	0.152	0.025
-134.385	-75.987	0.373	-0.130
-133.370	-189.864	-0.143	0.002
-132.356	-1.773	0.379	-0.264
-131.341	-143.268	0.214	0.020
-130.326	800.000	0.059	-0.168
-129.312	57.515	-0.077	0.075
-128.297	-78.120	-0.222	0.075
-127.283	-65.328	0.055	-0.022
-126.268	-28.577	-0.378	-0.216
-125.253	88.720	-0.138	0.151
-124.239	177.915	-0.169	-0.243
-123.224	-50.077	-0.331	-0.155
-122.210	42.421	0.242	0.217
-121.195	-43.619	-0.306	0.153
