DTS Sentinel unit serial number:	SN413079Multiplexer serial number:	ORYXHardware model number:	OX4-SRSoftware version number:	ORYX F/W v4.00 Oryx Data Collector v3.7.2.0data status	okinstallation	princeton_trtdifferential loss correction	single-endedforward channel	channel 2reverse channel	N/Adate	2019/09/12time	15:21:11forward acquisition time	60.00reverse acquisition time	0.00gamma	496.2192k internal	0.2299k external	0.2299temperature offset calibration	1.0096default loss term (dB/km)	0.3790temperature slope calibration	1.0000multiplexer offset coefficient	1.0000multiplexer slope coefficient	1.0000fibre end	0.00T internal ref (°C)	40.77T ext. ref 1 (°C)	2.41T ext. ref 2 (°C)	36.19length (m)	temperature (°C)	Stokes	anti-Stokes-747.200	76.326	0.142	-0.153
-746.185	800.000	0.152	0.546
-745.171	-200.000	-0.017	0.380
-744.156	800.000	-0.014	-0.046
-743.142	-29.383	0.131	0.077
-742.127	-200.000	0.011	0.274
-741.112	800.000	-0.057	-0.163
-740.098	-69.266	0.054	-0.021
-739.083	53.091	-0.127	-0.124
-738.069	-200.000	-0.090	0.471
-737.054	-200.000	-0.034	0.216
-736.039	-142.529	-0.425	0.043
-735.025	800.000	0.071	0.216
-734.010	-49.667	0.022	0.011
-732.996	-200.000	0.020	0.196
-731.981	428.192	0.022	0.049
-730.966	-53.341	-0.173	-0.081
-729.952	-200.000	0.065	-0.318
-728.937	216.179	-0.220	-0.357
-727.923	87.563	-0.095	-0.108
-726.908	-54.149	0.194	0.090
-725.894	118.166	-0.030	-0.038
-724.879	105.753	0.139	-0.168
-723.864	-200.000	0.002	-0.226
-722.850	-77.294	-0.306	-0.109
-721.835	108.539	-0.190	-0.232
-720.821	-32.195	-0.234	0.133
-719.806	-200.000	-0.022	-0.291
-718.791	-4.983	-0.369	-0.259
-717.777	-48.080	-0.104	0.051
-716.762	171.342	-0.186	-0.272
-715.748	329.951	0.051	-0.100
-714.733	-70.065	-0.180	-0.070
-713.718	304.104	0.050	-0.095
-712.704	-8.874	0.151	0.103
-711.689	-200.000	-0.047	-0.235
-710.675	15.479	-0.239	0.191
-709.660	-135.684	0.327	0.040
-708.645	216.319	0.050	0.081
-707.631	-37.139	-0.128	-0.070
-706.616	-195.048	-0.078	0.001
-705.602	26.139	-0.124	-0.105
-704.587	-200.000	-0.052	-0.456
-703.572	386.277	-0.073	0.153
-702.558	88.262	-0.254	0.287
-701.543	5.680	-0.182	0.137
-700.529	-165.565	-0.207	-0.009
-699.514	100.270	-0.118	0.140
-698.499	-200.000	0.013	0.092
-697.485	-200.000	0.002	-0.136
-696.470	-86.302	-0.160	-0.050
-695.456	800.000	-0.013	-0.037
-694.441	-141.975	0.166	-0.017
-693.426	-16.620	-0.362	-0.233
-692.412	-126.344	0.263	-0.040
-691.397	-200.000	0.008	0.144
-690.383	31.780	-0.139	-0.122
-689.368	67.449	-0.101	0.105
-688.354	-129.788	-0.273	0.038
-687.339	-90.838	0.076	0.022
-686.324	-200.000	-0.041	-0.330
-685.310	67.228	0.189	-0.197
-684.295	-1.039	0.237	-0.171
-683.281	-143.709	0.096	-0.009
-682.266	105.147	0.090	0.108
-681.251	153.474	-0.206	-0.287
-680.237	-76.687	0.162	-0.058
-679.222	142.265	-0.123	0.166
-678.208	-200.000	0.016	-0.164
-677.193	-41.709	-0.222	0.116
-676.178	122.317	0.139	-0.177
-675.164	-109.976	-0.214	-0.046
-674.149	65.633	-0.266	0.275
-673.135	580.923	-0.026	0.065
-672.120	41.161	-0.107	-0.098
-671.105	-200.000	-0.069	0.329
-670.091	514.446	-0.091	0.215
-669.076	800.000	0.054	-0.182
-668.062	71.517	-0.127	0.134
-667.047	800.000	-0.045	-0.141
-666.032	-200.000	-0.013	0.408
-665.018	79.150	-0.135	-0.148
-664.003	13.416	-0.100	-0.079
-662.989	38.659	-0.147	0.133
-661.974	514.260	0.089	-0.212
-660.959	2.524	0.064	0.047
-659.945	800.000	-0.029	0.100
-658.930	92.977	0.135	-0.155
-657.916	4.704	-0.072	0.054
-656.901	-3.288	-0.147	0.104
-655.886	-200.000	0.012	0.177
-654.872	-200.000	0.007	0.131
-653.857	146.121	0.155	0.211
-652.843	-45.426	0.204	0.103
-651.828	-200.000	-0.021	0.164
-650.814	-129.695	0.073	0.010
-649.799	72.022	0.175	0.185
-648.784	11.478	-0.124	0.097
-647.770	97.802	-0.059	0.069
-646.755	800.000	-0.085	-0.263
-645.741	-200.000	-0.004	0.088
-644.726	-200.000	0.007	0.282
-643.711	-200.000	-0.062	0.280
-642.697	-200.000	-0.013	0.252
-641.682	23.261	0.092	-0.077
-640.668	-182.795	-0.273	0.005
-639.653	40.389	0.184	0.168
-638.638	192.498	0.037	-0.057
-637.624	-25.874	-0.252	-0.151
-636.609	-200.000	0.035	-0.319
-635.595	-200.000	0.000	0.280
-634.580	154.972	-0.202	-0.283
-633.565	-162.125	0.151	0.008
-632.551	-29.793	-0.189	0.110
-631.536	140.766	-0.172	-0.231
-630.522	-19.488	0.238	-0.150
-629.507	-200.000	-0.035	-0.237
-628.492	-200.000	0.032	0.194
-627.478	-99.279	0.314	0.081
-626.463	-70.908	0.120	0.046
-625.449	-83.274	0.175	0.057
-624.434	56.074	0.034	0.034
-623.419	-48.402	0.025	-0.012
-622.405	-1.105	-0.056	-0.040
-621.390	-74.550	-0.076	-0.028
-620.376	90.866	0.143	-0.163
-619.361	-106.429	0.167	0.038
-618.346	-66.398	-0.121	-0.049
-617.332	-73.798	-0.289	-0.107
-616.317	54.933	-0.357	-0.350
-615.303	-200.000	0.008	-0.190
-614.288	791.609	-0.023	-0.063
-613.273	101.293	0.193	0.229
-612.259	85.546	-0.095	0.106
-611.244	-200.000	-0.037	-0.630
-610.230	800.000	0.018	0.071
-609.215	144.913	0.193	-0.262
-608.201	104.999	0.020	-0.024
-607.186	461.761	0.080	-0.182
-606.171	-54.037	0.167	-0.077
-605.157	-103.640	-0.210	0.050
-604.142	800.000	-0.063	-0.191
-603.128	-88.464	0.269	-0.081
-602.113	95.732	0.032	-0.037
-601.098	-107.042	-0.360	-0.081
-600.084	-52.704	0.018	-0.008
-599.069	-138.711	0.142	0.016
-598.055	60.563	-0.140	0.141
-597.040	-74.678	0.131	0.048
-596.025	54.878	-0.080	0.079
-595.011	-200.000	-0.006	-0.052
-593.996	-200.000	0.008	-0.249
-592.982	148.418	-0.171	-0.235
-591.967	291.843	-0.172	0.317
-590.952	75.421	-0.175	-0.187
-589.938	-141.844	0.130	-0.013
-588.923	110.793	-0.067	-0.082
-587.909	-200.000	-0.024	-0.273
-586.894	-109.421	-0.169	-0.036
-585.879	800.000	0.079	0.235
-584.865	52.623	-0.141	0.136
-583.850	800.000	0.053	-0.233
-582.836	408.064	-0.174	-0.372
-581.821	133.532	-0.154	-0.202
-580.806	-200.000	-0.009	-0.164
-579.792	-200.000	-0.005	-0.107
-578.777	800.000	0.015	0.053
-577.763	-161.867	-0.354	0.018
-576.748	275.262	0.089	0.160
-575.733	800.000	0.059	0.176
-574.719	-157.764	0.337	-0.020
-573.704	-78.572	0.108	0.037
-572.690	-200.000	-0.008	0.153
-571.675	368.271	0.144	-0.296
-570.661	-168.801	0.283	-0.011
-569.646	248.783	0.021	-0.036
-568.631	26.025	0.223	-0.189
-567.617	663.846	-0.029	-0.075
-566.602	4.042	-0.402	0.298
-565.588	800.000	0.115	0.449
-564.573	238.592	-0.048	-0.080
-563.558	384.126	0.073	-0.153
-562.544	536.266	-0.073	0.175
-561.529	331.451	-0.119	-0.232
-560.515	104.018	-0.059	0.070
-559.500	19.698	-0.278	0.227
-558.485	44.603	-0.124	0.116
-557.471	-7.919	-0.066	-0.045
-556.456	-200.000	0.000	0.093
-555.442	-200.000	0.003	-0.184
-554.427	-14.918	0.088	-0.057
-553.412	-200.000	-0.021	-0.151
-552.398	-200.000	-0.002	0.049
-551.383	-11.788	-0.274	0.182
-550.369	183.382	-0.071	-0.106
-549.354	68.285	0.375	-0.389
-548.339	-114.007	0.162	0.032
-547.325	111.509	0.134	0.164
-546.310	-200.000	0.006	-0.068
-545.296	-52.682	-0.115	-0.054
-544.281	758.479	0.093	-0.255
-543.266	-47.739	-0.112	-0.055
-542.252	-171.942	-0.086	0.003
-541.237	58.662	0.212	-0.211
-540.223	87.336	0.279	0.312
-539.208	24.202	0.058	-0.048
-538.193	-9.194	-0.391	-0.265
-537.179	55.164	-0.151	-0.147
-536.164	275.807	0.025	-0.044
-535.150	800.000	0.061	-0.238
-534.135	-200.000	0.015	-0.077
-533.121	800.000	0.034	0.136
-532.106	83.112	-0.156	0.171
-531.091	800.000	-0.078	0.234
-530.077	79.279	0.204	-0.221
-529.062	-70.320	-0.204	-0.078
-528.048	8.541	0.253	0.193
-527.033	58.821	-0.333	0.331
-526.018	-0.695	-0.233	0.167
-525.004	-102.159	0.141	0.034
-523.989	9.770	-0.180	0.138
-522.975	89.892	-0.154	-0.174
-521.960	-17.599	0.200	-0.127
-520.945	-31.825	-0.336	-0.191
-519.931	-200.000	0.047	-0.269
-518.916	-2.871	-0.156	-0.110
-517.902	106.472	0.209	-0.251
-516.887	-200.000	0.009	-0.280
-515.872	-200.000	0.077	-0.360
-514.858	33.627	-0.096	0.084
-513.843	-166.292	-0.112	0.005
-512.829	-76.775	-0.137	0.048
-511.814	800.000	-0.073	0.272
-510.799	-46.993	0.046	-0.023
-509.785	-153.872	0.347	-0.024
-508.770	-127.830	-0.194	-0.028
-507.756	39.156	-0.063	-0.057
-506.741	143.573	-0.072	0.097
-505.726	4.977	0.141	-0.105
-504.712	-140.586	-0.381	-0.040
-503.697	623.983	0.072	-0.184
-502.683	-42.509	0.124	0.064
-501.668	-200.000	-0.005	-0.054
-500.653	-200.000	0.055	-0.282
-499.639	456.137	-0.087	0.195
-498.624	-18.096	0.209	0.133
-497.610	-200.000	-0.030	-0.388
-496.595	-46.585	0.214	-0.106
-495.581	-200.000	0.015	-0.107
-494.566	-200.000	-0.043	-0.232
-493.551	344.206	0.081	0.161
-492.537	-185.913	-0.265	0.004
-491.522	394.651	-0.050	0.105
-490.508	119.472	-0.255	-0.319
-489.493	-200.000	-0.033	-0.172
-488.478	800.000	-0.031	-0.115
-487.464	-200.000	0.001	0.007
-486.449	-158.186	0.288	0.017
-485.435	800.000	0.033	0.100
-484.420	-200.000	0.553	0.002
-483.405	389.222	-0.078	-0.163
-482.391	-67.176	0.076	-0.030
-481.376	-120.713	0.220	0.038
-480.362	-76.035	0.257	-0.092
-479.347	-200.000	0.005	-0.031
-478.332	36.970	-0.097	-0.087
-477.318	-142.048	-0.220	-0.022
-476.303	81.183	0.227	-0.248
-475.289	-21.468	0.061	0.038
-474.274	161.362	0.137	-0.194
-473.259	-200.000	-0.028	-0.201
-472.245	-16.212	0.178	0.114
-471.230	34.097	-0.233	0.205
-470.216	481.975	-0.031	0.071
-469.201	-48.589	0.034	-0.016
-468.186	-88.220	-0.316	-0.096
-467.172	87.920	-0.082	-0.092
-466.157	-200.000	0.031	0.469
-465.143	-19.304	0.094	0.059
-464.128	-64.604	0.138	-0.056
-463.113	-179.577	-0.060	-0.001
-462.099	194.223	-0.184	0.282
-461.084	-107.188	0.193	-0.043
-460.070	-169.108	-0.285	-0.011
-459.055	-200.000	-0.043	-0.323
-458.040	27.732	0.353	-0.300
-457.026	-34.057	0.200	-0.111
-456.011	-54.557	0.504	0.230
-454.997	47.788	0.103	0.097
-453.982	-110.158	-0.247	-0.052
-452.968	-100.828	-0.201	0.050
-451.953	800.000	-0.010	-0.030
-450.938	800.000	-0.063	0.221
-449.924	-41.671	0.221	-0.114
-448.909	89.111	-0.292	-0.328
-447.895	646.269	0.025	0.065
-446.880	-40.843	0.323	-0.169
-445.865	-108.021	-0.320	-0.070
-444.851	-200.000	0.021	-0.228
-443.836	20.078	-0.287	0.233
-442.822	189.135	-0.173	0.262
-441.807	43.691	-0.161	-0.149
-440.792	-143.270	-0.384	0.037
-439.778	-90.599	0.222	-0.065
-438.763	488.327	0.015	-0.034
-437.749	271.104	-0.107	0.190
-436.734	-11.462	0.083	0.055
-435.719	66.483	0.214	-0.219
-434.705	-30.850	-0.169	0.096
-433.690	-27.591	-0.111	0.065
-432.676	205.560	0.061	-0.095
-431.661	-200.000	0.015	-0.140
-430.646	-200.000	0.079	-0.387
-429.632	-200.000	0.005	0.042
-428.617	-200.000	0.024	0.201
-427.603	-39.619	-0.095	-0.050
-426.588	800.000	0.017	0.061
-425.573	467.663	0.035	-0.080
-424.559	113.721	-0.093	0.114
-423.544	-200.000	-0.021	0.524
-422.530	7.346	0.079	0.059
-421.515	-42.990	0.089	0.046
-420.500	-156.338	0.183	-0.012
-419.486	185.857	0.236	0.353
-418.471	800.000	0.036	0.124
-417.457	318.974	-0.048	0.091
-416.442	540.117	-0.166	0.398
-415.428	-132.234	0.201	0.026
-414.413	-200.000	0.013	-0.097
-413.398	270.028	0.141	0.250
-412.384	-200.000	-0.013	0.168
-411.369	-81.420	-0.141	-0.047
-410.355	326.267	-0.126	-0.243
-409.340	15.507	0.221	0.175
-408.325	523.377	0.081	0.191
-407.311	-85.453	-0.337	0.106
-406.296	-160.929	-0.246	0.013
-405.282	-200.000	0.035	-0.186
-404.267	103.487	-0.067	-0.079
-403.252	800.000	-0.068	-0.267
-402.238	-66.829	-0.134	0.053
-401.223	-188.798	0.388	-0.005
-400.209	800.000	0.082	0.270
-399.194	256.214	0.176	0.304
-398.179	800.000	0.042	0.141
-397.165	-200.000	-0.008	0.336
-396.150	-200.000	-0.039	-0.273
-395.136	100.920	0.274	-0.320
-394.121	200.794	-0.140	-0.216
-393.106	-102.110	0.038	0.009
-392.092	-200.000	0.011	0.199
-391.077	-22.165	-0.267	-0.163
-390.063	6.869	-0.177	0.133
-389.048	800.000	-0.100	0.399
-388.033	-200.000	-0.024	0.363
-387.019	-39.945	-0.102	0.054
-386.004	-200.000	0.008	0.215
-384.990	800.000	0.072	0.288
-383.975	26.459	-0.184	0.155
-382.960	234.675	-0.127	0.210
-381.946	629.625	0.017	0.043
-380.931	26.991	0.120	0.101
-379.917	-192.173	-0.248	0.002
-378.902	54.949	-0.115	0.112
-377.888	800.000	0.089	0.369
-376.873	66.930	0.173	0.177
-375.858	81.182	-0.066	0.072
-374.844	800.000	-0.091	-0.269
-373.829	-116.518	0.026	-0.005
-372.815	60.801	-0.178	0.177
-371.800	-200.000	-0.027	-0.277
-370.785	-52.370	0.029	0.013
-369.771	-14.208	0.093	-0.060
-368.756	-25.080	-0.342	0.204
-367.742	-39.829	-0.082	-0.043
-366.727	-74.321	-0.384	0.140
-365.712	14.795	-0.179	-0.141
-364.698	424.671	0.098	0.213
-363.683	800.000	-0.044	0.152
-362.669	-144.125	0.222	0.021
-361.654	147.923	-0.134	0.181
-360.639	-200.000	0.034	0.339
-359.625	-145.472	0.062	-0.006
-358.610	-74.418	-0.100	-0.036
-357.596	-200.000	0.014	-0.180
-356.581	92.916	-0.100	-0.113
-355.566	-190.571	0.412	0.004
-354.552	-200.000	-0.035	-0.185
-353.537	-200.000	0.014	-0.153
-352.523	-92.024	0.325	-0.093
-351.508	-51.697	-0.109	0.051
-350.493	-5.887	0.272	-0.187
-349.479	-31.726	-0.103	0.058
-348.464	-200.000	0.011	0.053
-347.450	5.565	-0.098	0.073
-346.435	-200.000	-0.044	0.236
-345.420	316.224	-0.069	0.132
-344.406	171.973	-0.097	-0.140
-343.391	102.578	0.111	-0.131
-342.377	73.705	0.112	0.117
-341.362	-42.443	0.041	0.021
-340.348	102.142	-0.073	0.085
-339.333	48.452	0.202	-0.190
-338.318	-21.060	0.209	-0.129
-337.304	16.589	-0.113	-0.090
-336.289	-74.822	0.088	0.032
-335.275	29.603	-0.066	0.056
-334.260	667.889	0.055	0.143
-333.245	-79.378	0.153	-0.052
-332.231	-200.000	0.009	0.090
-331.216	96.755	-0.206	0.237
-330.202	249.456	-0.158	0.269
-329.187	800.000	0.015	-0.067
-328.172	96.156	0.196	-0.225
-327.158	-12.821	-0.092	-0.060
-326.143	195.123	0.190	0.290
-325.129	-46.738	-0.223	0.110
-324.114	28.714	-0.145	-0.123
-323.099	18.654	0.101	-0.081
-322.085	284.175	0.016	-0.029
-321.070	86.705	0.144	0.160
-320.056	-200.000	-0.035	-0.279
-319.041	361.338	-0.119	-0.240
-318.026	254.371	-0.089	-0.154
-317.012	-56.850	-0.156	0.069
-315.997	378.805	-0.151	-0.310
-314.983	26.748	0.187	0.158
-313.968	800.000	0.072	0.254
-312.953	253.404	0.094	0.161
-311.939	247.853	-0.146	0.248
-310.924	-14.512	0.142	0.091
-309.910	-27.867	0.296	0.172
-308.895	800.000	0.038	-0.129
-307.880	-200.000	-0.028	0.265
-306.866	-200.000	-0.019	0.182
-305.851	-200.000	-0.011	-0.199
-304.837	-94.568	0.183	-0.050
-303.822	231.282	-0.204	-0.336
-302.807	-94.840	0.232	-0.063
-301.793	65.939	0.306	0.312
-300.778	668.259	-0.149	0.387
-299.764	-93.921	-0.040	-0.011
-298.749	-200.000	0.042	-0.249
-297.735	341.276	-0.151	0.296
-296.720	800.000	0.017	0.061
-295.705	-42.183	0.376	-0.193
-294.691	256.831	-0.111	-0.192
-293.676	-25.969	0.130	0.077
-292.662	800.000	0.063	0.175
-291.647	-200.000	-0.010	-0.086
-290.632	800.000	-0.024	0.103
-289.618	54.222	-0.232	-0.224
-288.603	113.840	-0.233	0.284
-287.589	-186.010	-0.149	0.002
-286.574	200.413	0.103	0.158
-285.559	458.731	-0.081	0.180
-284.545	-81.638	-0.058	-0.019
-283.530	-161.603	0.193	0.010
-282.516	79.312	0.133	0.143
-281.501	-200.000	0.030	0.375
-280.486	-200.000	-0.007	-0.250
-279.472	800.000	-0.059	-0.175
-278.457	40.179	-0.058	-0.052
-277.443	110.663	0.066	0.079
-276.428	-200.000	-0.026	0.372
-275.413	156.519	-0.068	-0.094
-274.399	-23.519	0.184	0.111
-273.384	549.179	-0.071	0.171
-272.370	-94.012	0.192	-0.053
-271.355	274.318	-0.055	-0.098
-270.340	393.905	0.053	-0.112
-269.326	20.994	-0.089	0.073
-268.311	-200.000	-0.072	-0.333
-267.297	800.000	0.023	-0.066
-266.282	349.066	0.108	0.214
-265.267	50.359	-0.055	-0.052
-264.253	-200.000	-0.036	-0.190
-263.238	70.962	-0.013	-0.013
-262.224	-175.667	0.330	0.009
-261.209	231.530	0.014	-0.022
-260.195	99.438	-0.105	-0.122
-259.180	800.000	-0.117	0.367
-258.165	-23.402	-0.153	0.092
-257.151	-40.918	0.080	-0.041
-256.136	308.382	-0.179	-0.335
-255.122	46.223	0.098	-0.091
-254.107	-36.759	-0.335	-0.180
-253.092	800.000	-0.049	-0.180
-252.078	-125.844	-0.312	0.047
-251.063	-193.397	0.304	0.003
-250.049	-106.971	-0.109	-0.024
-249.034	20.190	0.330	-0.267
-248.019	452.464	-0.050	0.110
-247.005	-200.000	0.023	-0.394
-245.990	49.798	0.208	0.196
-244.976	800.000	-0.081	-0.257
-243.961	-200.000	0.025	0.176
-242.946	-200.000	0.082	0.390
-241.932	-200.000	0.025	0.169
-240.917	25.619	0.028	0.023
-239.903	-145.741	0.259	0.023
-238.888	344.986	0.073	0.143
-237.873	800.000	-0.048	0.189
-236.859	-107.531	0.147	-0.032
-235.844	-200.000	-0.070	0.341
-234.830	-82.648	0.158	-0.051
-233.815	326.005	-0.028	0.054
-232.800	246.943	0.112	0.189
-231.786	800.000	0.034	-0.095
-230.771	208.522	-0.095	-0.148
-229.757	-18.717	-0.235	0.147
-228.742	99.715	-0.351	0.407
-227.727	-146.574	0.143	0.012
-226.713	-200.000	-0.052	-0.329
-225.698	-39.057	-0.267	-0.141
-224.684	-86.928	0.062	-0.019
-223.669	146.739	0.088	-0.118
-222.655	163.236	0.151	0.212
-221.640	53.515	0.089	-0.085
-220.625	-173.848	-0.345	0.010
-219.611	796.806	0.104	0.286
-218.596	16.354	-0.084	0.066
-217.582	472.443	-0.081	0.183
-216.567	-120.230	-0.183	-0.031
-215.552	-200.000	0.021	-0.178
-214.538	-200.000	-0.008	0.179
-213.523	800.000	0.067	0.217
-212.509	-163.583	-0.210	0.010
-211.494	95.211	0.044	0.050
-210.479	-25.400	-0.098	0.058
-209.465	15.156	-0.371	-0.291
-208.450	-85.990	-0.082	-0.025
-207.436	333.264	0.089	-0.172
-206.421	800.000	0.019	0.076
-205.406	-200.000	0.026	-0.334
-204.392	601.691	0.145	-0.361
-203.377	109.021	0.171	0.204
-202.363	-112.168	0.273	-0.055
-201.348	-28.170	-0.331	-0.191
-200.333	-105.359	0.256	0.058
-199.319	-73.516	-0.052	-0.019
-198.304	-79.855	-0.029	0.010
-197.290	-75.882	0.384	0.136
-196.275	-75.680	-0.152	0.054
-195.260	-48.978	0.116	-0.055
-194.246	-200.000	0.015	0.126
-193.231	736.186	-0.153	-0.410
-192.217	-15.777	-0.392	-0.250
-191.202	-90.487	0.241	-0.070
-190.187	-200.000	0.039	0.269
-189.173	-95.658	0.222	-0.059
-188.158	303.868	0.133	-0.246
-187.144	-81.849	0.110	0.036
-186.129	-200.000	-0.037	-0.280
-185.114	-200.000	-0.008	0.209
-184.100	-200.000	0.002	-0.072
-183.085	-167.404	0.085	-0.003
-182.071	-20.939	0.187	-0.115
-181.056	-26.439	-0.212	0.124
-180.042	78.161	-0.054	0.058
-179.027	-130.334	0.423	-0.057
-178.012	-164.564	0.176	0.008
-176.998	428.828	-0.094	0.203
-175.983	245.640	0.132	0.222
-174.969	800.000	0.033	0.119
-173.954	-72.873	-0.376	0.138
-172.939	251.598	-0.144	0.244
-171.925	-170.098	0.386	-0.014
-170.910	-85.792	0.130	0.040
-169.896	225.208	0.083	0.134
-168.881	800.000	0.034	0.120
-167.866	32.926	0.229	0.198
-166.852	32.357	-0.275	-0.237
-165.837	-129.820	0.259	-0.035
-164.823	6.371	-0.203	0.150
-163.808	800.000	-0.087	-0.277
-162.793	-49.217	-0.159	-0.076
-161.779	-200.000	-0.006	-0.210
-160.764	-46.139	0.182	-0.090
-159.750	-120.288	0.157	0.027
-158.735	-112.568	0.309	0.061
-157.720	-103.258	-0.091	0.021
-156.706	113.259	-0.173	-0.210
-155.691	-50.332	0.136	0.064
-154.677	-20.081	0.160	-0.098
-153.662	-35.940	-0.097	-0.052
-152.647	-87.760	0.186	0.056
-151.633	-152.425	-0.078	0.006
-150.618	570.622	0.083	-0.202
-149.604	30.305	0.113	0.096
-148.589	-200.000	0.014	-0.194
-147.574	-200.000	0.000	0.091
-146.560	353.272	-0.042	0.084
-145.545	-200.000	-0.029	0.211
-144.531	-9.310	-0.243	0.162
-143.516	-35.120	0.098	-0.053
-142.502	404.751	-0.131	0.275
-141.487	106.828	0.112	-0.132
-140.472	800.000	-0.069	-0.214
-139.458	9.404	-0.352	0.265
-138.443	-104.976	-0.346	0.079
-137.429	266.589	-0.086	-0.151
-136.414	-43.140	0.192	0.097
-135.399	377.433	-0.146	0.297
-134.385	270.867	-0.095	0.167
-133.370	7.920	-0.157	-0.117
-132.356	-200.000	-0.003	0.116
-131.341	93.491	0.197	0.222
-130.326	-55.829	-0.192	0.086
-129.312	-200.000	0.057	0.377
-128.297	5.620	0.098	-0.072
-127.283	-56.620	-0.398	-0.175
-126.268	-113.271	0.021	0.004
-125.253	-90.704	-0.104	-0.030
-124.239	647.529	-0.032	0.082
-123.224	669.815	-0.007	-0.019
-122.210	39.336	0.382	0.340
-121.195	112.673	0.165	0.199
