DTS Sentinel unit serial number:	SN413079Multiplexer serial number:	ORYXHardware model number:	OX4-SRSoftware version number:	ORYX F/W v4.00 Oryx Data Collector v3.7.2.0data status	okinstallation	princeton_trtdifferential loss correction	single-endedforward channel	channel 2reverse channel	N/Adate	2019/09/15time	08:23:35forward acquisition time	60.00reverse acquisition time	0.00gamma	496.2192k internal	0.2324k external	0.2324temperature offset calibration	1.0024default loss term (dB/km)	0.3790temperature slope calibration	1.0000multiplexer offset coefficient	1.0000multiplexer slope coefficient	1.0000fibre end	0.00T internal ref (°C)	31.37T ext. ref 1 (°C)	4.99T ext. ref 2 (°C)	28.50length (m)	temperature (°C)	Stokes	anti-Stokes-747.200	15.077	-0.274	-0.217
-746.185	-91.588	0.266	0.077
-745.171	67.802	0.113	-0.117
-744.156	-36.107	-0.161	-0.088
-743.142	-200.000	-0.017	0.396
-742.127	-43.618	-0.407	0.207
-741.112	-129.008	0.327	0.046
-740.098	240.907	0.200	0.336
-739.083	76.805	0.199	-0.213
-738.069	75.045	0.014	0.015
-737.054	64.871	0.195	0.199
-736.039	-120.910	0.277	-0.047
-735.025	223.399	0.174	0.283
-734.010	-200.000	-0.042	-0.244
-732.996	-4.306	0.354	-0.247
-731.981	800.000	-0.128	-0.418
-730.966	30.750	-0.162	-0.140
-729.952	125.803	-0.120	-0.153
-728.937	650.416	-0.048	-0.124
-727.923	12.613	0.083	0.065
-726.908	93.860	-0.216	0.247
-725.894	-43.323	-0.204	-0.104
-724.879	94.852	-0.191	0.219
-723.864	-122.438	-0.098	-0.016
-722.850	-134.453	-0.361	-0.045
-721.835	665.510	-0.143	-0.372
-720.821	-76.403	-0.245	-0.087
-719.806	-200.000	0.034	0.202
-718.791	800.000	-0.072	0.218
-717.777	105.481	-0.198	0.236
-716.762	800.000	0.088	-0.263
-715.748	-119.143	0.275	0.048
-714.733	-48.724	-0.125	0.061
-713.718	-110.846	0.393	0.082
-712.704	63.342	-0.114	-0.115
-711.689	37.591	-0.218	-0.195
-710.675	-200.000	0.007	-0.189
-709.660	-200.000	0.034	-0.172
-708.645	-23.869	0.166	-0.100
-707.631	-200.000	0.008	0.038
-706.616	-200.000	-0.007	-0.053
-705.602	-98.400	-0.186	0.048
-704.587	489.034	0.037	-0.086
-703.572	298.571	-0.139	0.258
-702.558	94.027	-0.122	0.139
-701.543	197.250	0.206	-0.316
-700.529	800.000	-0.042	0.138
-699.514	-200.000	0.000	0.068
-698.499	-64.249	0.488	-0.200
-697.485	-200.000	-0.046	-0.367
-696.470	53.574	-0.118	-0.115
-695.456	-200.000	-0.051	-0.309
-694.441	104.687	-0.108	-0.128
-693.426	-200.000	-0.021	0.397
-692.412	691.972	-0.071	-0.186
-691.397	-183.585	0.232	-0.004
-690.383	61.704	0.020	-0.020
-689.368	-200.000	-0.065	0.299
-688.354	-83.338	0.086	-0.028
-687.339	109.629	0.012	-0.014
-686.324	26.115	0.079	-0.066
-685.310	-90.472	-0.068	-0.020
-684.295	318.423	0.131	-0.249
-683.281	-55.144	0.090	-0.041
-682.266	339.371	-0.112	0.221
-681.251	131.689	-0.231	-0.299
-680.237	-53.992	0.432	-0.198
-679.222	-103.411	-0.165	0.039
-678.208	62.547	-0.088	0.089
-677.193	-200.000	0.001	-0.235
-676.178	41.622	0.354	-0.323
-675.164	800.000	0.026	0.095
-674.149	39.983	0.114	0.103
-673.135	-4.088	0.203	0.142
-672.120	84.260	-0.100	-0.110
-671.105	44.949	-0.116	-0.107
-670.091	7.393	-0.170	-0.128
-669.076	65.725	0.120	0.123
-668.062	-200.000	0.032	-0.284
-667.047	38.359	-0.331	0.297
-666.032	-17.400	-0.283	0.180
-665.018	-200.000	-0.008	-0.278
-664.003	-0.780	-0.082	0.058
-662.989	-94.401	-0.291	-0.080
-661.974	118.392	0.102	0.127
-660.959	-106.377	-0.401	-0.090
-659.945	800.000	-0.127	-0.425
-658.930	-200.000	0.025	-0.112
-657.916	-1.254	-0.225	0.160
-656.901	138.390	0.070	0.092
-655.886	35.146	-0.129	0.114
-654.872	500.605	0.129	-0.300
-653.857	367.057	0.080	-0.163
-652.843	-200.000	0.037	0.178
-651.828	-31.473	-0.168	-0.095
-650.814	800.000	0.129	-0.426
-649.799	196.674	-0.145	-0.223
-648.784	153.001	-0.111	0.153
-647.770	-21.969	0.184	0.113
-646.755	4.837	-0.114	-0.085
-645.741	-101.850	0.281	-0.068
-644.726	-200.000	0.001	-0.050
-643.711	85.635	-0.060	0.067
-642.697	46.991	-0.069	-0.064
-641.682	-28.988	0.255	-0.147
-640.668	140.810	-0.185	-0.246
-639.653	800.000	0.053	0.206
-638.638	-170.401	0.181	0.006
-637.624	27.613	0.229	-0.194
-636.609	87.653	-0.152	0.169
-635.595	265.354	-0.109	0.191
-634.580	800.000	0.042	-0.128
-633.565	23.160	-0.200	0.165
-632.551	-139.490	0.149	0.016
-631.536	691.281	-0.074	0.194
-630.522	-136.727	0.205	0.024
-629.507	289.756	-0.132	-0.241
-628.492	218.186	-0.037	-0.059
-627.478	800.000	0.021	0.061
-626.463	-40.557	-0.205	-0.107
-625.449	-200.000	0.010	-0.102
-624.434	-23.561	-0.206	-0.124
-623.419	109.598	0.074	0.089
-622.405	203.909	-0.309	0.480
-621.390	800.000	0.026	-0.088
-620.376	-90.822	-0.148	0.043
-619.361	-121.962	-0.133	-0.022
-618.346	81.371	0.089	-0.096
-617.332	-44.409	-0.215	0.108
-616.317	24.236	-0.158	0.131
-615.303	-100.052	0.148	0.037
-614.288	8.445	-0.194	0.147
-613.273	16.334	0.212	-0.168
-612.259	43.387	0.095	0.087
-611.244	800.000	-0.066	0.263
-610.230	-51.040	-0.232	0.109
-609.215	-131.087	-0.320	0.043
-608.201	800.000	-0.089	0.374
-607.186	-200.000	-0.037	-0.202
-606.171	-200.000	-0.025	-0.301
-605.157	-67.832	-0.246	0.096
-604.142	178.000	0.166	-0.243
-603.128	-136.801	-0.329	-0.038
-602.113	-103.956	0.260	-0.061
-601.098	-133.991	-0.206	0.026
-600.084	800.000	-0.030	-0.097
-599.069	-55.965	0.052	0.023
-598.055	-17.473	0.261	-0.165
-597.040	-22.569	0.097	0.059
-596.025	800.000	-0.014	-0.040
-595.011	-51.316	-0.130	-0.061
-593.996	800.000	-0.069	-0.246
-592.982	-200.000	0.008	-0.072
-591.967	150.674	0.213	0.291
-590.952	800.000	-0.048	-0.148
-589.938	-45.495	-0.082	0.041
-588.923	784.814	0.052	-0.143
-587.909	780.148	0.073	-0.200
-586.894	234.986	-0.056	-0.093
-585.879	-200.000	-0.034	0.205
-584.865	506.945	-0.091	0.211
-583.850	-54.806	-0.274	-0.124
-582.836	-42.604	-0.178	-0.091
-581.821	800.000	0.006	0.025
-580.806	-159.836	0.058	0.003
-579.792	-200.000	0.039	-0.199
-578.777	800.000	-0.065	0.233
-577.763	177.020	0.025	-0.036
-576.748	-13.888	-0.112	0.073
-575.733	-104.179	-0.235	0.055
-574.719	493.185	0.087	-0.201
-573.704	-53.842	0.238	0.109
-572.690	651.715	-0.105	0.271
-571.675	-53.711	0.058	-0.026
-570.661	32.158	0.195	0.168
-569.646	800.000	-0.084	-0.233
-568.631	156.732	0.057	0.079
-567.617	-200.000	0.005	-0.030
-566.602	-146.050	0.282	-0.025
-565.588	152.166	0.075	0.103
-564.573	135.491	-0.148	-0.193
-563.558	-200.000	0.001	-0.040
-562.544	-200.000	0.018	0.115
-561.529	83.975	-0.122	0.134
-560.515	310.324	-0.045	-0.084
-559.500	-200.000	-0.019	0.163
-558.485	-37.961	0.141	-0.075
-557.471	457.655	-0.156	-0.348
-556.456	800.000	-0.056	-0.234
-555.442	-200.000	0.033	0.166
-554.427	-27.104	-0.211	-0.123
-553.412	2.847	0.113	-0.082
-552.398	86.289	-0.199	0.220
-551.383	-200.000	-0.003	0.278
-550.369	229.991	-0.078	-0.128
-549.354	-19.881	0.350	0.216
-548.339	28.852	0.087	-0.074
-547.325	-143.666	-0.200	-0.019
-546.310	-138.577	-0.153	-0.017
-545.296	-94.837	-0.250	0.068
-544.281	295.300	0.102	0.186
-543.266	-79.938	-0.107	0.036
-542.252	800.000	0.075	0.314
-541.237	85.987	0.098	-0.108
-540.223	-200.000	0.011	0.098
-539.208	-200.000	-0.012	0.110
-538.193	-200.000	-0.015	-0.076
-537.179	392.619	0.123	-0.257
-536.164	-75.459	0.041	-0.015
-535.150	800.000	-0.026	-0.086
-534.135	62.784	-0.348	-0.349
-533.121	-200.000	-0.046	-0.301
-532.106	-174.610	-0.164	0.005
-531.091	-15.749	-0.121	-0.077
-530.077	-200.000	-0.046	-0.356
-529.062	800.000	0.025	0.079
-528.048	-200.000	-0.004	0.120
-527.033	-27.958	-0.157	-0.091
-526.018	311.762	-0.199	0.373
-525.004	800.000	0.083	0.292
-523.989	11.072	0.112	-0.085
-522.975	522.293	-0.064	0.150
-521.960	-133.706	-0.325	0.041
-520.945	504.265	0.149	0.345
-519.931	-122.257	0.164	-0.027
-518.916	-70.715	-0.373	0.141
-517.902	-32.720	0.136	-0.076
-516.887	-76.201	0.088	0.031
-515.872	-30.112	-0.077	0.044
-514.858	202.238	0.196	0.303
-513.843	490.358	0.105	-0.239
-512.829	-200.000	0.010	0.467
-511.814	800.000	-0.032	0.089
-510.799	195.239	-0.314	-0.478
-509.785	-70.683	0.102	0.038
-508.770	-57.379	-0.198	-0.087
-507.756	800.000	-0.098	0.320
-506.741	-200.000	0.003	0.232
-505.726	44.415	-0.036	-0.033
-504.712	449.838	0.175	-0.385
-503.697	155.073	0.085	-0.117
-502.683	425.667	-0.189	-0.407
-501.668	-104.149	-0.200	-0.046
-500.653	366.206	0.076	-0.153
-499.639	-59.289	0.462	-0.199
-498.624	789.655	0.056	0.154
-497.610	-200.000	0.033	-0.166
-496.595	111.596	-0.201	0.242
-495.581	69.025	-0.069	0.071
-494.566	-66.114	0.313	-0.125
-493.551	-65.333	0.335	-0.135
-492.537	-18.613	-0.046	-0.028
-491.522	-0.724	-0.179	0.127
-490.508	-19.012	-0.089	-0.055
-489.493	262.321	-0.086	0.150
-488.478	-72.035	-0.152	-0.057
-487.464	-138.021	0.278	0.031
-486.449	14.482	-0.096	0.075
-485.435	-51.974	-0.461	-0.214
-484.420	-200.000	-0.034	-0.275
-483.405	-35.775	-0.130	0.070
-482.391	241.985	0.236	-0.394
-481.376	-19.633	-0.213	0.131
-480.362	-141.223	0.370	-0.038
-479.347	18.689	0.308	-0.246
-478.332	176.678	-0.026	0.037
-477.318	-46.540	-0.149	-0.073
-476.303	-63.859	-0.312	-0.128
-475.289	800.000	0.014	-0.051
-474.274	-112.871	-0.165	0.033
-473.259	-43.084	0.073	0.037
-472.245	-133.034	-0.537	0.068
-471.230	800.000	-0.067	-0.222
-470.216	13.107	0.311	-0.240
-469.201	131.849	-0.131	-0.168
-468.186	94.103	0.184	-0.209
-467.172	-62.064	0.172	-0.072
-466.157	-58.379	-0.251	-0.109
-465.143	-200.000	-0.031	-0.353
-464.128	-136.957	-0.041	0.005
-463.113	-166.124	0.250	-0.011
-462.099	800.000	-0.013	-0.037
-461.084	-173.710	-0.181	-0.005
-460.070	91.289	-0.099	0.111
-459.055	-103.808	0.188	0.044
-458.040	-102.848	0.144	0.034
-457.026	51.273	0.179	0.170
-456.011	-75.559	-0.051	-0.018
-454.997	-89.624	0.329	-0.096
-453.982	-200.000	0.032	-0.220
-452.968	660.509	0.096	0.248
-451.953	-60.721	-0.161	-0.068
-450.938	29.553	0.220	0.187
-449.924	-7.899	-0.197	0.132
-448.909	593.906	0.063	-0.156
-447.895	65.227	0.135	0.137
-446.880	-98.007	0.152	0.039
-445.865	-87.058	-0.258	0.078
-444.851	-200.000	0.016	0.128
-443.836	-200.000	0.005	0.116
-442.822	-99.048	0.272	-0.069
-441.807	-142.391	0.220	0.022
-440.792	-64.194	-0.228	0.093
-439.778	153.406	-0.209	0.286
-438.763	-68.855	0.230	-0.089
-437.749	78.267	-0.153	-0.163
-436.734	132.842	0.175	0.226
-435.719	-200.000	-0.027	0.225
-434.705	800.000	0.073	-0.245
-433.690	62.397	0.248	0.247
-432.676	26.969	0.197	0.165
-431.661	-200.000	0.075	-0.333
-430.646	21.905	0.092	-0.075
-429.632	536.547	0.164	-0.388
-428.617	4.774	-0.158	0.116
-427.603	170.726	0.218	0.312
-426.588	-10.346	-0.320	-0.211
-425.573	-122.849	0.054	-0.009
-424.559	240.650	-0.086	-0.143
-423.544	-24.311	0.057	-0.034
-422.530	-83.568	-0.288	-0.092
-421.515	386.155	0.059	0.122
-420.500	421.714	-0.107	-0.228
-419.486	112.521	0.090	-0.109
-418.471	285.914	0.077	-0.139
-417.457	-31.152	0.034	0.019
-416.442	-51.072	-0.103	-0.048
-415.428	-200.000	-0.014	-0.111
-414.413	183.378	-0.172	0.253
-413.398	8.962	0.228	0.171
-412.384	-200.000	0.021	-0.156
-411.369	-77.127	0.312	0.108
-410.355	-72.557	0.307	-0.113
-409.340	89.084	-0.137	-0.152
-408.325	-66.277	-0.385	0.153
-407.311	123.625	0.362	0.453
-406.296	128.017	-0.074	-0.093
-405.282	-88.712	-0.110	-0.033
-404.267	180.981	-0.123	0.181
-403.252	-36.720	0.072	0.038
-402.238	-195.402	-0.350	-0.003
-401.223	-52.382	0.258	-0.119
-400.209	94.278	-0.212	0.239
-399.194	333.881	-0.132	-0.254
-398.179	256.249	0.081	0.139
-397.165	698.353	0.045	0.119
-396.150	-44.205	-0.245	0.122
-395.136	-154.121	0.191	-0.013
-394.121	-124.259	0.135	-0.021
-393.106	-29.799	-0.143	0.081
-392.092	-102.813	0.304	-0.072
-391.077	-139.827	0.157	0.017
-390.063	90.779	-0.129	0.144
-389.048	-54.040	0.243	0.110
-388.033	-189.833	-0.202	-0.002
-387.019	-35.329	-0.127	-0.069
-386.004	-14.562	-0.021	0.013
-384.990	103.618	-0.229	-0.267
-383.975	15.915	-0.276	0.216
-382.960	-200.000	0.018	0.120
-381.946	378.206	-0.136	0.277
-380.931	-73.473	-0.188	-0.068
-379.917	529.218	-0.022	0.051
-378.902	250.942	-0.134	-0.227
-377.888	-55.446	0.312	0.139
-376.873	-200.000	-0.001	0.216
-375.858	-114.929	0.182	0.034
-374.844	208.344	0.237	-0.369
-373.829	-200.000	-0.071	-0.348
-372.815	63.861	-0.147	0.147
-371.800	-100.947	0.139	-0.034
-370.785	-200.000	-0.013	0.098
-369.771	-34.591	0.230	0.125
-368.756	29.816	-0.388	0.328
-367.742	-200.000	0.019	-0.085
-366.727	-187.483	0.224	-0.003
-365.712	126.492	-0.151	-0.190
-364.698	82.026	-0.088	0.094
-363.683	-40.807	0.250	0.129
-362.669	800.000	0.085	0.341
-361.654	60.347	-0.173	-0.170
-360.639	152.567	-0.081	-0.110
-359.625	800.000	0.118	0.417
-358.610	-44.103	-0.205	0.102
-357.596	-22.476	0.166	0.100
-356.581	800.000	0.032	-0.127
-355.566	205.838	-0.197	0.305
-354.552	-10.782	-0.146	-0.096
-353.537	-138.543	-0.350	-0.038
-352.523	-82.518	0.344	0.111
-351.508	316.659	-0.066	0.124
-350.493	-200.000	-0.012	-0.090
-349.479	218.211	-0.159	0.252
-348.464	800.000	-0.045	-0.147
-347.450	-144.911	0.210	0.019
-346.435	2.303	-0.124	0.089
-345.420	581.220	-0.085	-0.207
-344.406	-116.096	-0.191	-0.035
-343.391	-88.851	-0.244	-0.072
-342.377	-41.896	-0.054	0.028
-341.362	-98.608	-0.089	-0.022
-340.348	-200.000	-0.032	0.154
-339.333	24.096	-0.305	-0.250
-338.318	87.163	0.066	0.073
-337.304	-22.547	0.244	-0.146
-336.289	-107.928	0.319	0.069
-335.275	316.160	0.117	-0.220
-334.260	526.587	-0.158	0.369
-333.245	-38.427	-0.065	0.034
-332.231	800.000	-0.037	-0.108
-331.216	72.204	-0.136	-0.140
-330.202	-200.000	0.038	0.183
-329.187	-55.503	-0.158	-0.071
-328.172	-112.652	-0.098	-0.019
-327.158	-200.000	-0.006	0.033
-326.143	225.282	0.155	-0.249
-325.129	239.389	0.062	-0.103
-324.114	11.736	0.258	-0.197
-323.099	-74.157	-0.157	0.056
-322.085	-43.742	-0.017	-0.008
-321.070	-132.416	0.110	0.014
-320.056	511.623	0.048	-0.111
-319.041	116.147	-0.103	-0.125
-318.026	788.369	-0.021	-0.056
-317.012	679.826	0.071	0.185
-315.997	543.668	-0.045	0.105
-314.983	-2.370	-0.079	0.055
-313.968	-121.464	0.102	-0.017
-312.953	-200.000	-0.004	0.119
-311.939	64.802	0.190	0.190
-310.924	175.826	0.161	-0.232
-309.910	-200.000	0.047	-0.217
-308.895	175.343	0.371	-0.533
-307.880	-200.000	-0.001	-0.278
-306.866	363.033	-0.051	0.101
-305.851	-39.905	0.119	0.062
-304.837	187.119	0.222	-0.328
-303.822	-200.000	-0.010	0.044
-302.807	164.004	-0.164	-0.229
-301.793	33.639	0.068	0.059
-300.778	-121.489	0.215	0.036
-299.764	-200.000	-0.017	-0.149
-298.749	-86.260	0.263	0.080
-297.735	55.665	0.103	0.099
-296.720	-79.634	-0.194	0.065
-295.705	22.488	-0.072	0.059
-294.691	-27.906	0.197	0.113
-293.676	-200.000	0.013	0.094
-292.662	-2.259	0.234	-0.163
-291.647	800.000	-0.106	-0.331
-290.632	96.835	0.057	-0.065
-289.618	456.735	-0.009	-0.019
-288.603	-109.587	0.192	-0.040
-287.589	-32.386	-0.213	-0.118
-286.574	-62.527	0.265	0.109
-285.559	59.825	0.258	-0.253
-284.545	15.754	-0.315	-0.245
-283.530	-71.458	0.094	0.035
-282.516	441.388	-0.154	-0.334
-281.501	232.640	0.078	-0.127
-280.486	-81.481	0.421	-0.137
-279.472	-134.443	0.360	-0.044
-278.457	664.919	-0.067	0.172
-277.443	800.000	0.083	0.282
-276.428	303.665	0.080	0.146
-275.413	-122.329	-0.230	-0.037
-274.399	-188.414	-0.031	0.000
-273.384	60.812	0.230	-0.226
-272.370	163.346	0.116	0.162
-271.355	247.350	-0.128	-0.214
-270.340	433.952	-0.040	0.085
-269.326	-72.251	0.120	-0.044
-268.311	-71.247	-0.224	0.083
-267.297	77.379	0.138	-0.145
-266.282	-200.000	-0.040	-0.255
-265.267	98.246	-0.109	-0.125
-264.253	-143.853	-0.242	-0.023
-263.238	-58.423	-0.196	0.085
-262.224	-106.945	0.251	0.055
-261.209	104.402	-0.112	0.130
-260.195	119.219	0.156	0.191
-259.180	-127.969	0.473	0.067
-258.165	-200.000	-0.021	0.264
-257.151	-109.890	-0.076	0.016
-256.136	-200.000	0.008	0.063
-255.122	-62.364	0.367	0.151
-254.107	-27.590	-0.353	-0.203
-253.092	20.187	-0.082	-0.066
-252.078	214.251	-0.062	0.097
-251.063	-200.000	-0.021	0.140
-250.049	-29.358	0.202	-0.115
-249.034	-18.113	0.083	0.052
-248.019	-111.727	0.264	-0.053
-247.005	-51.631	-0.178	-0.082
-245.990	127.358	0.093	0.117
-244.976	-200.000	-0.003	-0.021
-243.961	15.975	-0.091	-0.071
-242.946	800.000	-0.016	0.049
-241.932	222.005	-0.174	-0.277
-240.917	-136.769	0.360	-0.041
-239.903	-132.944	0.259	0.033
-238.888	164.682	0.051	0.072
-237.873	6.884	-0.102	0.075
-236.859	82.217	0.014	0.015
-235.844	133.514	0.126	-0.162
-234.830	365.311	-0.087	-0.174
-233.815	-120.557	-0.209	-0.035
-232.800	-32.706	-0.308	0.170
-231.786	-200.000	-0.071	0.327
-230.771	-83.222	-0.237	-0.075
-229.757	-70.009	0.322	-0.121
-228.742	-3.603	-0.180	0.124
-227.727	43.499	0.186	-0.168
-226.713	800.000	0.050	0.175
-225.698	-48.095	0.362	0.173
-224.684	132.752	-0.284	0.362
-223.669	140.844	0.268	0.351
-222.655	12.215	-0.157	0.119
-221.640	-179.100	-0.137	-0.003
-220.625	196.214	-0.053	-0.079
-219.611	122.403	-0.108	-0.134
-218.596	604.759	-0.099	0.243
-217.582	226.330	0.176	0.282
-216.567	-200.000	-0.022	-0.133
-215.552	-61.025	-0.145	0.060
-214.538	-43.961	-0.157	0.078
-213.523	800.000	0.050	0.188
-212.509	800.000	0.060	-0.206
-211.494	-107.829	0.186	0.040
-210.479	476.099	0.169	0.377
-209.465	11.099	0.059	0.044
-208.450	648.185	0.144	-0.364
-207.436	99.341	-0.172	-0.196
-206.421	42.123	-0.077	-0.069
-205.406	8.281	-0.241	0.179
-204.392	800.000	0.027	-0.105
-203.377	800.000	0.004	-0.012
-202.363	607.703	0.093	0.230
-201.348	-200.000	-0.032	0.254
-200.333	-200.000	0.016	-0.116
-199.319	800.000	-0.110	-0.353
-198.304	-86.060	0.349	-0.106
-197.290	-200.000	-0.006	0.239
-196.275	-56.849	0.240	0.105
-195.260	0.083	-0.133	0.094
-194.246	242.564	0.049	0.081
-193.231	800.000	-0.070	0.257
-192.217	-200.000	-0.010	0.142
-191.202	-141.934	0.214	0.021
-190.187	800.000	-0.055	0.193
-189.173	-86.448	-0.359	0.109
-188.158	800.000	-0.058	-0.168
-187.144	-200.000	0.012	0.134
-186.129	150.576	0.084	0.113
-185.114	281.755	0.014	0.024
-184.100	36.333	0.077	0.067
-183.085	800.000	-0.024	-0.070
-182.071	-200.000	-0.063	-0.298
-181.056	-69.983	-0.020	-0.007
-180.042	676.550	-0.066	-0.170
-179.027	-200.000	0.008	-0.050
-178.012	-141.186	0.078	-0.008
-176.998	282.242	-0.146	-0.258
-175.983	164.234	-0.168	0.234
-174.969	15.913	-0.191	-0.148
-173.954	-135.956	0.193	0.022
-172.939	-68.707	0.348	0.133
-171.925	-200.000	-0.020	-0.160
-170.910	-200.000	-0.030	-0.163
-169.896	57.144	-0.127	-0.123
-168.881	58.525	-0.182	0.176
-167.866	-27.257	0.176	0.101
-166.852	800.000	0.094	0.343
-165.837	-200.000	-0.012	-0.095
-164.823	26.018	0.343	0.283
-163.808	396.532	-0.014	-0.030
-162.793	189.954	0.074	-0.110
-161.779	-155.085	-0.381	0.025
-160.764	283.354	0.069	-0.122
-159.750	280.976	-0.106	0.187
-158.735	536.659	-0.123	-0.289
-157.720	-100.335	0.100	0.024
-156.706	459.976	0.056	0.123
-155.691	-68.984	-0.188	-0.072
-154.677	-59.581	0.208	0.088
-153.662	141.560	0.184	0.240
-152.647	34.436	0.123	-0.106
-151.633	-166.427	0.309	-0.013
-150.618	800.000	0.058	0.201
-149.604	-39.807	-0.324	0.167
-148.589	93.185	-0.159	0.178
-147.574	-200.000	-0.041	0.359
-146.560	-200.000	0.005	0.153
-145.545	67.736	-0.323	0.326
-144.531	124.438	0.105	0.130
-143.516	468.908	0.180	-0.398
-142.502	-88.469	0.239	0.070
-141.487	-1.030	-0.122	-0.085
-140.472	-200.000	-0.081	-0.479
-139.458	-173.818	0.168	-0.005
-138.443	800.000	0.027	0.104
-137.429	-200.000	-0.010	0.389
-136.414	28.829	0.074	-0.062
-135.399	-35.049	-0.411	-0.221
-134.385	-107.716	0.308	0.066
-133.370	408.279	-0.117	0.243
-132.356	60.831	-0.140	0.137
-131.341	-103.288	-0.069	0.016
-130.326	69.654	-0.072	-0.073
-129.312	112.915	0.072	-0.086
-128.297	-58.421	0.211	0.091
-127.283	-84.961	-0.418	0.129
-126.268	-18.183	-0.283	-0.174
-125.253	383.039	-0.099	0.201
-124.239	192.296	0.230	0.342
-123.224	-64.458	0.061	0.024
-122.210	252.317	-0.143	-0.240
-121.195	-41.207	0.147	-0.075
