DTS Sentinel unit serial number:	SN413079Multiplexer serial number:	ORYXHardware model number:	OX4-SRSoftware version number:	ORYX F/W v4.00 Oryx Data Collector v3.7.2.0data status	okinstallation	princeton_trtdifferential loss correction	single-endedforward channel	channel 2reverse channel	N/Adate	2019/09/17time	07:59:35forward acquisition time	60.00reverse acquisition time	0.00gamma	496.2192k internal	0.2334k external	0.2334temperature offset calibration	0.9974default loss term (dB/km)	0.3790temperature slope calibration	1.0000multiplexer offset coefficient	1.0000multiplexer slope coefficient	1.0000fibre end	0.00T internal ref (°C)	27.25T ext. ref 1 (°C)	0.12T ext. ref 2 (°C)	22.34length (m)	temperature (°C)	Stokes	anti-Stokes-747.200	337.163	0.074	0.145
-746.185	209.208	0.082	0.129
-745.171	800.000	-0.076	0.220
-744.156	-33.890	-0.445	-0.246
-743.142	-200.000	-0.001	0.106
-742.127	246.253	0.032	0.054
-741.112	515.719	0.115	0.270
-740.098	800.000	-0.033	0.096
-739.083	65.384	-0.126	-0.128
-738.069	248.279	-0.122	0.207
-737.054	800.000	-0.041	0.153
-736.039	-91.784	-0.467	0.133
-735.025	-158.808	0.106	0.006
-734.010	-79.107	-0.148	-0.050
-732.996	256.326	-0.148	-0.256
-731.981	187.685	0.143	0.215
-730.966	-58.695	-0.154	-0.067
-729.952	-89.636	-0.462	0.136
-728.937	514.846	0.113	0.264
-727.923	-13.996	-0.102	-0.066
-726.908	-118.412	0.111	0.020
-725.894	11.796	-0.112	0.086
-724.879	356.951	-0.081	-0.161
-723.864	679.843	-0.036	-0.095
-722.850	-200.000	-0.010	-0.118
-721.835	500.692	-0.088	-0.203
-720.821	-200.000	0.038	-0.304
-719.806	12.892	-0.229	-0.178
-718.791	-49.456	-0.052	0.025
-717.777	-64.547	0.201	0.082
-716.762	800.000	0.098	0.296
-715.748	175.702	0.143	0.209
-714.733	-200.000	0.012	-0.382
-713.718	10.908	0.205	-0.157
-712.704	-50.089	-0.121	-0.057
-711.689	417.090	-0.173	-0.370
-710.675	-55.277	-0.189	-0.085
-709.660	-83.740	0.426	-0.136
-708.645	-22.259	0.118	-0.072
-707.631	-121.617	-0.082	0.014
-706.616	800.000	0.050	-0.192
-705.602	-5.133	-0.076	0.053
-704.587	-200.000	-0.011	-0.234
-703.572	-65.994	-0.107	0.043
-702.558	-97.242	0.099	0.026
-701.543	-89.167	0.271	0.080
-700.529	146.223	-0.183	0.246
-699.514	233.912	-0.161	0.267
-698.499	-41.032	0.245	0.127
-697.485	-200.000	-0.062	-0.290
-696.470	-126.338	0.219	0.033
-695.456	-11.529	-0.184	-0.121
-694.441	-200.000	0.004	0.111
-693.426	-62.842	-0.128	-0.053
-692.412	219.717	-0.091	0.146
-691.397	-112.447	0.173	-0.035
-690.383	-200.000	-0.020	0.123
-689.368	508.068	-0.036	0.083
-688.354	14.524	-0.223	-0.174
-687.339	421.130	0.075	-0.162
-686.324	64.437	0.154	0.156
-685.310	8.589	0.137	0.103
-684.295	53.559	-0.262	-0.252
-683.281	103.057	0.180	0.212
-682.266	-88.221	-0.284	0.085
-681.251	-133.215	0.318	-0.040
-680.237	-88.412	0.046	0.014
-679.222	-200.000	-0.028	-0.359
-678.208	-89.705	0.270	0.079
-677.193	-200.000	0.035	-0.232
-676.178	-116.458	-0.462	-0.086
-675.164	180.129	0.063	0.092
-674.149	-128.185	0.191	0.027
-673.135	-30.469	-0.153	0.087
-672.120	-200.000	-0.043	-0.237
-671.105	-33.910	-0.276	0.152
-670.091	-132.027	0.198	-0.026
-669.076	-200.000	-0.007	-0.076
-668.062	-200.000	0.014	-0.119
-667.047	88.853	-0.366	-0.408
-666.032	44.758	-0.248	-0.229
-665.018	-116.012	0.057	-0.011
-664.003	-54.335	-0.185	0.084
-662.989	-63.660	-0.355	-0.146
-661.974	109.124	-0.098	-0.117
-660.959	-62.480	-0.085	-0.035
-659.945	-163.169	-0.129	-0.006
-658.930	-49.419	-0.186	0.089
-657.916	140.565	-0.115	-0.152
-656.901	-57.674	-0.112	-0.049
-655.886	375.474	0.091	-0.186
-654.872	318.258	-0.189	-0.359
-653.857	65.789	-0.108	0.110
-652.843	-200.000	0.001	0.033
-651.828	-160.458	-0.351	0.019
-650.814	-57.113	0.257	-0.113
-649.799	81.272	0.047	-0.051
-648.784	14.973	-0.107	-0.084
-647.770	-200.000	-0.050	-0.275
-646.755	131.194	-0.309	0.397
-645.741	-25.679	-0.134	0.079
-644.726	-200.000	-0.006	0.041
-643.711	-60.615	-0.181	-0.077
-642.697	-89.412	0.183	0.054
-641.682	66.179	-0.127	0.129
-640.668	-149.991	-0.229	0.018
-639.653	55.371	0.137	0.133
-638.638	11.002	-0.155	-0.118
-637.624	-200.000	-0.004	0.030
-636.609	-200.000	0.042	0.260
-635.595	-50.497	-0.144	0.068
-634.580	-200.000	-0.022	0.153
-633.565	-200.000	-0.034	0.188
-632.551	599.984	0.017	-0.043
-631.536	111.172	-0.080	0.097
-630.522	-200.000	-0.025	0.375
-629.507	290.920	0.054	0.099
-628.492	-158.468	0.117	-0.007
-627.478	-69.794	-0.033	0.013
-626.463	478.153	-0.116	0.264
-625.449	-61.157	0.095	0.040
-624.434	142.926	0.155	0.206
-623.419	-143.702	-0.349	-0.033
-622.405	-52.950	-0.140	-0.064
-621.390	118.180	-0.076	-0.094
-620.376	237.705	0.115	0.191
-619.361	-33.818	-0.204	0.113
-618.346	-43.306	0.211	-0.107
-617.332	800.000	-0.069	-0.216
-616.317	580.872	-0.109	0.268
-615.303	-200.000	0.071	0.449
-614.288	-200.000	0.036	-0.214
-613.273	-74.305	0.290	-0.105
-612.259	-93.801	0.036	-0.010
-611.244	-200.000	0.033	0.344
-610.230	-66.247	0.172	0.068
-609.215	-97.103	0.404	-0.106
-608.201	-200.000	0.008	0.042
-607.186	-16.954	0.415	0.262
-606.171	713.804	0.097	0.258
-605.157	707.738	-0.070	-0.185
-604.142	-177.062	0.323	-0.008
-603.128	-63.301	-0.358	-0.147
-602.113	260.879	0.108	0.188
-601.098	-130.057	0.042	0.006
-600.084	405.650	-0.075	0.158
-599.069	-129.129	0.109	0.015
-598.055	-103.494	0.085	0.020
-597.040	-200.000	0.050	-0.255
-596.025	-91.705	0.569	-0.162
-595.011	-36.569	0.166	0.089
-593.996	266.339	-0.078	0.135
-592.982	800.000	0.029	-0.085
-591.967	472.810	-0.091	-0.205
-590.952	-200.000	0.000	0.300
-589.938	-93.191	-0.174	-0.048
-588.923	800.000	0.094	-0.305
-587.909	508.912	0.121	-0.280
-586.894	27.189	0.065	0.054
-585.879	-200.000	-0.056	-0.288
-584.865	26.898	0.086	-0.072
-583.850	-158.417	0.116	0.007
-582.836	203.492	-0.077	0.119
-581.821	-200.000	0.033	-0.169
-580.806	-16.487	0.260	-0.165
-579.792	-200.000	0.006	-0.298
-578.777	-56.586	-0.097	0.043
-577.763	512.384	0.105	0.244
-576.748	-138.038	-0.128	0.014
-575.733	234.866	0.165	0.271
-574.719	800.000	0.092	0.303
-573.704	-41.470	-0.157	0.080
-572.690	-68.309	0.121	-0.047
-571.675	680.379	-0.036	-0.092
-570.661	-51.684	-0.238	0.111
-569.646	800.000	-0.067	0.200
-568.631	107.843	0.222	-0.264
-567.617	-124.871	-0.450	0.069
-566.602	-200.000	-0.019	0.203
-565.588	87.606	-0.197	0.217
-564.573	-85.911	-0.113	-0.035
-563.558	-14.631	0.413	-0.265
-562.544	-139.955	-0.206	-0.022
-561.529	-79.873	-0.083	-0.028
-560.515	-118.768	-0.278	0.049
-559.500	-149.261	-0.152	0.012
-558.485	-200.000	-0.023	0.282
-557.471	800.000	0.036	-0.153
-556.456	-118.717	0.388	0.068
-555.442	-200.000	0.076	-0.332
-554.427	56.954	0.038	-0.036
-553.412	119.572	-0.095	-0.118
-552.398	-88.443	-0.133	-0.040
-551.383	112.114	0.055	0.066
-550.369	-26.439	-0.257	0.150
-549.354	400.282	0.200	0.419
-548.339	24.502	0.033	-0.027
-547.325	-200.000	0.054	-0.412
-546.310	332.672	-0.066	0.128
-545.296	278.456	0.107	0.189
-544.281	-200.000	-0.031	0.157
-543.266	43.206	0.176	-0.161
-542.252	442.144	-0.054	-0.117
-541.237	-200.000	-0.025	-0.403
-540.223	153.318	0.082	0.113
-539.208	-120.056	-0.359	-0.061
-538.193	-200.000	0.047	-0.212
-537.179	-49.927	-0.058	0.027
-536.164	-157.244	-0.194	0.012
-535.150	-17.753	-0.268	-0.168
-534.135	-130.951	-0.167	-0.022
-533.121	-145.725	-0.168	0.015
-532.106	-140.492	0.099	-0.010
-531.091	17.458	0.249	-0.197
-530.077	-5.528	0.114	0.078
-529.062	48.994	-0.339	0.317
-528.048	-154.244	-0.282	-0.019
-527.033	-134.721	0.287	0.035
-526.018	-89.251	0.181	-0.053
-525.004	-151.793	0.323	-0.024
-523.989	-96.622	0.262	-0.069
-522.975	-9.484	-0.120	0.080
-521.960	72.025	-0.233	0.242
-520.945	230.864	-0.108	0.177
-519.931	-103.425	-0.085	0.020
-518.916	-15.437	-0.159	-0.101
-517.902	296.597	0.113	-0.207
-516.887	59.880	0.116	0.114
-515.872	-200.000	-0.013	-0.336
-514.858	440.260	0.029	-0.062
-513.843	-121.756	0.090	0.015
-512.829	-22.536	-0.184	-0.111
-511.814	156.030	-0.198	0.272
-510.799	-200.000	-0.032	0.219
-509.785	146.364	0.058	0.078
-508.770	28.865	-0.307	0.259
-507.756	-6.648	-0.374	-0.253
-506.741	-107.676	0.178	0.039
-505.726	-128.907	-0.231	-0.032
-504.712	94.685	-0.159	-0.180
-503.697	-28.101	-0.403	-0.232
-502.683	77.143	-0.027	0.029
-501.668	-84.430	-0.127	0.040
-500.653	-163.713	-0.204	0.010
-499.639	-200.000	0.020	-0.116
-498.624	516.204	-0.081	0.189
-497.610	-110.885	0.420	0.086
-496.595	353.827	0.151	-0.299
-495.581	-109.793	0.056	-0.012
-494.566	800.000	-0.084	-0.297
-493.551	-36.823	0.412	-0.220
-492.537	-87.716	-0.266	-0.080
-491.522	-109.040	0.179	0.038
-490.508	101.639	0.192	-0.223
-489.493	79.914	-0.242	-0.258
-488.478	-110.494	-0.251	-0.052
-487.464	800.000	0.083	0.281
-486.449	-101.901	0.233	-0.056
-485.435	101.674	0.087	0.101
-484.420	498.788	0.086	0.198
-483.405	800.000	0.049	0.201
-482.391	307.952	0.080	0.149
-481.376	-200.000	0.027	0.208
-480.362	-126.917	0.275	-0.040
-479.347	-200.000	0.035	0.296
-478.332	-125.360	0.072	0.011
-477.318	-200.000	-0.065	0.285
-476.303	-200.000	-0.028	0.128
-475.289	-198.294	0.156	-0.001
-474.274	28.896	0.281	0.237
-473.259	-200.000	-0.017	-0.148
-472.245	800.000	-0.094	-0.407
-471.230	-104.161	0.381	0.088
-470.216	800.000	-0.068	-0.193
-469.201	17.721	-0.420	-0.332
-468.186	-112.610	-0.278	-0.055
-467.172	732.329	-0.135	-0.359
-466.157	783.089	-0.043	-0.118
-465.143	-19.422	0.303	-0.187
-464.128	-139.526	0.242	-0.026
-463.113	75.718	0.129	0.136
-462.099	-162.806	-0.164	-0.008
-461.084	194.698	-0.123	-0.185
-460.070	204.991	0.143	-0.221
-459.055	-200.000	0.013	-0.406
-458.040	-113.650	0.450	-0.087
-457.026	52.705	-0.044	-0.042
-456.011	800.000	-0.080	-0.258
-454.997	97.028	0.060	0.069
-453.982	341.943	0.096	-0.187
-452.968	35.983	-0.040	0.035
-451.953	311.524	0.077	-0.143
-450.938	118.102	0.081	-0.099
-449.924	-69.840	-0.307	-0.116
-448.909	-200.000	-0.044	-0.438
-447.895	-63.293	-0.219	0.089
-446.880	-200.000	0.014	0.115
-445.865	-200.000	-0.047	-0.244
-444.851	800.000	0.085	-0.300
-443.836	-182.401	-0.424	-0.008
-442.822	61.760	0.207	0.205
-441.807	-29.519	-0.203	0.115
-440.792	72.097	-0.140	0.145
-439.778	8.841	-0.087	-0.065
-438.763	-102.231	-0.192	-0.046
-437.749	-176.791	0.649	0.016
-436.734	-18.085	0.066	0.041
-435.719	37.940	0.121	-0.107
-434.705	-46.169	-0.311	-0.152
-433.690	-200.000	-0.006	0.065
-432.676	48.807	-0.071	0.067
-431.661	-200.000	0.012	0.163
-430.646	800.000	0.050	0.215
-429.632	147.557	-0.085	0.114
-428.617	-65.225	-0.326	0.130
-427.603	800.000	0.023	0.077
-426.588	800.000	0.107	0.336
-425.573	-75.024	-0.176	-0.063
-424.559	-200.000	0.036	-0.175
-423.544	303.699	-0.092	-0.169
-422.530	427.505	-0.130	0.278
-421.515	291.158	-0.212	-0.383
-420.500	-80.983	0.166	0.055
-419.486	467.444	-0.087	0.195
-418.471	-36.268	0.109	-0.059
-417.457	-200.000	-0.045	0.411
-416.442	101.011	-0.082	0.094
-415.428	95.289	-0.154	-0.174
-414.413	491.900	0.095	-0.216
-413.398	127.050	0.028	0.035
-412.384	-64.765	-0.169	-0.068
-411.369	53.393	0.160	0.152
-410.355	703.710	0.115	0.301
-409.340	207.654	-0.124	-0.192
-408.325	-200.000	-0.043	0.864
-407.311	538.430	-0.219	0.516
-406.296	-200.000	-0.006	0.040
-405.282	-15.037	0.240	0.153
-404.267	-30.784	-0.227	-0.127
-403.252	-71.468	-0.176	0.065
-402.238	-120.002	0.258	0.044
-401.223	-65.871	-0.255	0.101
-400.209	-102.803	-0.618	0.146
-399.194	-200.000	-0.068	-0.425
-398.179	-124.988	-0.202	0.031
-397.165	-49.821	-0.166	0.078
-396.150	-98.118	-0.231	0.059
-395.136	111.205	-0.119	-0.142
-394.121	-200.000	0.043	-0.426
-393.106	-6.837	-0.193	0.130
-392.092	-45.981	0.073	-0.036
-391.077	-84.710	0.339	0.106
-390.063	18.211	0.068	0.054
-389.048	800.000	-0.063	0.181
-388.033	-96.871	-0.076	0.020
-387.019	567.197	-0.044	0.105
-386.004	287.064	0.258	-0.461
-384.990	118.676	0.078	-0.095
-383.975	-20.340	-0.131	0.080
-382.960	-95.325	0.087	-0.023
-381.946	491.596	0.115	0.261
-380.931	800.000	-0.036	0.112
-379.917	13.071	0.307	-0.236
-378.902	-62.842	-0.177	0.073
-377.888	639.864	-0.044	-0.111
-376.873	-8.956	-0.163	-0.108
-375.858	-15.220	0.380	-0.241
-374.844	553.895	0.051	-0.121
-373.829	800.000	0.041	-0.151
-372.815	70.589	0.188	0.193
-371.800	96.415	-0.121	0.137
-370.785	-47.102	0.098	-0.047
-369.771	-200.000	0.002	0.177
-368.756	-137.506	0.089	0.010
-367.742	17.152	0.305	0.239
-366.727	-139.810	-0.083	0.009
-365.712	-18.425	-0.021	0.013
-364.698	-100.502	0.269	0.066
-363.683	-4.124	-0.133	0.091
-362.669	348.355	0.137	0.268
-361.654	113.746	-0.200	-0.241
-360.639	57.482	-0.364	0.352
-359.625	-200.000	0.011	0.193
-358.610	331.329	-0.049	0.094
-357.596	-41.700	-0.203	0.103
-356.581	10.589	0.132	-0.100
-355.566	-199.863	0.088	0.000
-354.552	-6.403	0.349	0.235
-353.537	800.000	-0.050	-0.167
-352.523	415.399	-0.125	0.265
-351.508	-80.904	0.080	0.026
-350.493	-200.000	-0.025	0.232
-349.479	-200.000	-0.020	0.116
-348.464	-61.672	-0.250	-0.104
-347.450	800.000	0.112	-0.309
-346.435	800.000	-0.049	-0.202
-345.420	96.470	-0.067	0.076
-344.406	290.966	0.055	-0.099
-343.391	-30.199	-0.293	-0.165
-342.377	-146.181	-0.326	0.028
-341.362	420.971	-0.098	-0.209
-340.348	162.347	0.399	0.553
-339.333	109.781	0.130	0.154
-338.318	-86.592	-0.181	-0.055
-337.304	56.713	-0.228	-0.219
-336.289	-30.007	-0.150	0.085
-335.275	-149.069	-0.121	-0.010
-334.260	222.619	-0.187	0.298
-333.245	47.263	-0.068	0.062
-332.231	20.348	0.268	0.214
-331.216	-200.000	-0.001	0.049
-330.202	738.856	-0.051	0.137
-329.187	-124.539	-0.470	-0.072
-328.172	89.641	-0.131	-0.145
-327.158	800.000	-0.018	-0.052
-326.143	-200.000	0.062	-0.271
-325.129	347.628	-0.122	0.238
-324.114	-200.000	-0.003	-0.283
-323.099	-186.166	0.052	-0.001
-322.085	670.330	-0.056	0.144
-321.070	461.859	-0.068	-0.150
-320.056	335.055	0.111	0.212
-319.041	800.000	0.069	-0.269
-318.026	13.677	-0.269	-0.207
-317.012	-142.743	-0.060	0.006
-315.997	-200.000	-0.001	0.175
-314.983	-96.294	0.353	0.092
-313.968	-200.000	0.006	-0.167
-312.953	183.549	-0.125	-0.182
-311.939	-19.518	0.252	0.154
-310.924	-140.383	0.230	0.024
-309.910	-172.830	-0.070	-0.002
-308.895	199.302	-0.199	-0.301
-307.880	-200.000	-0.002	-0.388
-306.866	800.000	0.040	0.165
-305.851	-85.882	0.048	0.015
-304.837	-64.055	-0.257	-0.104
-303.822	139.596	0.020	-0.026
-302.807	23.115	-0.256	0.208
-301.793	-200.000	0.001	-0.053
-300.778	291.790	0.145	-0.261
-299.764	-123.921	0.016	-0.002
-298.749	160.059	0.085	0.117
-297.735	290.499	-0.016	-0.029
-296.720	800.000	0.028	-0.097
-295.705	184.290	0.195	0.286
-294.691	572.804	0.172	-0.413
-293.676	57.673	-0.260	-0.251
-292.662	-176.568	0.169	0.004
-291.647	157.312	0.152	-0.207
-290.632	115.081	0.222	-0.267
-289.618	23.958	-0.151	0.123
-288.603	-200.000	0.058	-0.282
-287.589	-200.000	-0.029	0.194
-286.574	-50.638	0.074	-0.035
-285.559	-75.573	0.127	-0.045
-284.545	-89.604	-0.100	0.029
-283.530	-111.242	-0.219	0.044
-282.516	-173.445	-0.214	-0.006
-281.501	346.895	-0.143	-0.278
-280.486	-14.349	0.176	0.112
-279.472	253.038	0.030	0.050
-278.457	-115.721	0.197	-0.036
-277.443	120.229	-0.083	-0.102
-276.428	-115.554	-0.237	0.044
-275.413	431.083	0.062	0.132
-274.399	129.329	0.183	0.231
-273.384	-151.759	0.120	0.009
-272.370	-25.587	0.132	0.077
-271.355	-49.163	-0.162	-0.076
-270.340	541.500	0.095	0.224
-269.326	62.262	0.161	-0.158
-268.311	-200.000	0.028	-0.447
-267.297	185.841	0.100	0.147
-266.282	123.748	0.152	0.188
-265.267	-200.000	0.026	0.184
-264.253	96.432	0.132	0.149
-263.238	199.543	-0.154	-0.233
-262.224	-27.730	-0.235	-0.135
-261.209	-200.000	-0.014	0.206
-260.195	-200.000	-0.051	0.414
-259.180	-151.874	0.182	0.013
-258.165	-200.000	0.003	0.209
-257.151	309.669	-0.114	0.211
-256.136	553.393	0.098	-0.232
-255.122	107.299	0.098	-0.115
-254.107	-200.000	0.008	-0.168
-253.092	-126.469	0.555	-0.081
-252.078	-79.551	0.396	0.132
-251.063	-200.000	-0.026	-0.262
-250.049	131.131	-0.217	0.275
-249.034	189.799	-0.244	-0.361
-248.019	577.142	0.128	-0.310
-247.005	-115.983	0.331	-0.061
-245.990	-145.155	-0.053	0.005
-244.976	321.236	0.114	-0.214
-243.961	108.800	0.101	0.119
-242.946	25.804	-0.336	0.276
-241.932	27.659	0.216	-0.179
-240.917	-200.000	0.028	0.243
-239.903	-35.828	0.159	-0.085
-238.888	-44.069	0.339	0.168
-237.873	-120.066	0.230	-0.039
-236.859	-54.867	0.074	0.033
-235.844	-200.000	-0.053	-0.338
-234.830	6.250	0.116	-0.084
-233.815	28.553	-0.138	-0.115
-232.800	-200.000	0.018	0.264
-231.786	-200.000	0.049	0.321
-230.771	-200.000	0.029	0.242
-229.757	13.207	0.239	-0.182
-228.742	-200.000	0.023	0.151
-227.727	-105.929	-0.175	0.039
-226.713	107.431	0.151	0.177
-225.698	81.021	-0.176	0.187
-224.684	161.133	-0.046	-0.063
-223.669	-43.935	0.316	0.156
-222.655	390.866	-0.023	-0.047
-221.640	800.000	-0.087	-0.336
-220.625	645.145	0.023	-0.059
-219.611	246.261	0.037	-0.062
-218.596	-120.380	0.151	0.025
-217.582	183.422	0.103	-0.149
-216.567	-73.929	-0.129	-0.046
-215.552	410.068	0.046	0.096
-214.538	32.036	0.259	-0.220
-213.523	124.819	-0.162	0.201
-212.509	-24.670	0.098	-0.057
-211.494	-129.447	0.342	-0.047
-210.479	-80.029	0.060	0.020
-209.465	-107.684	-0.316	-0.068
-208.450	-23.441	0.320	0.189
-207.436	89.559	-0.112	-0.123
-206.421	233.145	0.141	-0.229
-205.406	-194.885	0.274	-0.002
-204.392	-105.405	-0.228	0.051
-203.377	80.935	-0.048	-0.051
-202.363	121.189	-0.113	-0.139
-201.348	61.980	0.031	-0.030
-200.333	800.000	-0.131	-0.384
-199.319	-144.803	-0.370	0.033
-198.304	35.129	0.233	-0.201
-197.290	800.000	0.049	0.143
-196.275	276.225	-0.203	-0.354
-195.260	341.704	0.066	-0.127
-194.246	386.723	0.080	0.162
-193.231	-200.000	0.024	-0.123
-192.217	68.433	-0.065	0.066
-191.202	377.715	0.054	-0.109
-190.187	-79.520	0.027	-0.009
-189.173	116.844	0.262	0.317
-188.158	87.178	0.070	-0.076
-187.144	800.000	-0.078	-0.218
-186.129	-142.283	-0.330	-0.032
-185.114	800.000	0.069	0.258
-184.100	800.000	0.029	-0.103
-183.085	-114.262	-0.454	0.086
-182.071	68.319	-0.274	0.276
-181.056	-106.027	0.447	0.099
-180.042	800.000	0.060	-0.202
-179.027	-141.456	-0.137	0.014
-178.012	-34.543	-0.163	0.088
-176.998	-200.000	0.004	0.349
-175.983	-14.049	0.113	-0.072
-174.969	63.145	0.147	-0.145
-173.954	146.539	0.183	-0.241
-172.939	-90.074	-0.433	-0.124
-171.925	-200.000	-0.003	0.045
-170.910	-82.085	0.161	-0.052
-169.896	-159.417	-0.147	-0.008
-168.881	-71.713	0.368	0.135
-167.866	597.510	-0.185	-0.450
-166.852	-107.392	0.101	0.022
-165.837	-82.620	0.220	-0.070
-164.823	-52.386	-0.386	0.175
-163.808	93.855	0.184	0.205
-162.793	800.000	0.087	-0.242
-161.779	-137.497	0.062	-0.007
-160.764	-61.053	-0.215	-0.089
-159.750	308.933	-0.268	-0.493
-158.735	-200.000	-0.036	0.218
-157.720	9.495	0.158	0.117
-156.706	-166.178	0.206	0.009
-155.691	156.955	0.089	0.121
-154.677	12.121	-0.109	0.082
-153.662	-135.593	0.191	0.022
-152.647	800.000	0.045	0.143
-151.633	-192.337	-0.104	-0.001
-150.618	800.000	0.057	0.216
-149.604	-14.734	0.155	-0.098
-148.589	44.807	0.228	0.206
-147.574	-87.653	0.462	0.137
-146.560	-5.098	0.333	0.225
-145.545	-68.621	-0.102	-0.039
-144.531	350.955	-0.056	-0.109
-143.516	-80.792	-0.138	-0.045
-142.502	-200.000	-0.042	0.284
-141.487	800.000	-0.140	-0.426
-140.472	-200.000	0.018	-0.337
-139.458	5.513	0.192	0.139
-138.443	-157.016	0.128	0.008
-137.429	-155.090	-0.266	-0.017
-136.414	-200.000	-0.009	-0.051
-135.399	51.011	-0.310	0.289
-134.385	-200.000	0.036	-0.327
-133.370	82.358	-0.134	-0.143
-132.356	244.422	0.128	-0.211
-131.341	-71.085	0.376	-0.139
-130.326	308.156	-0.052	-0.094
-129.312	-200.000	-0.002	0.154
-128.297	32.274	0.267	-0.226
-127.283	100.761	0.121	-0.138
-126.268	-200.000	-0.006	0.160
-125.253	35.615	0.252	-0.217
-124.239	286.826	0.054	0.096
-123.224	319.830	0.185	-0.345
-122.210	-149.515	0.063	0.005
