DTS Sentinel unit serial number:	SN413079Multiplexer serial number:	ORYXHardware model number:	OX4-SRSoftware version number:	ORYX F/W v4.00 Oryx Data Collector v3.7.2.0data status	okinstallation	princeton_trtdifferential loss correction	single-endedforward channel	channel 2reverse channel	N/Adate	2019/09/13time	16:19:35forward acquisition time	60.00reverse acquisition time	0.00gamma	496.2192k internal	0.2314k external	0.2314temperature offset calibration	1.0214default loss term (dB/km)	0.3790temperature slope calibration	1.0000multiplexer offset coefficient	1.0000multiplexer slope coefficient	1.0000fibre end	0.00T internal ref (°C)	34.94T ext. ref 1 (°C)	4.87T ext. ref 2 (°C)	31.32length (m)	temperature (°C)	Stokes	anti-Stokes-747.200	-101.046	-0.186	-0.046
-746.185	-200.000	0.019	0.470
-745.171	-200.000	0.039	0.201
-744.156	800.000	-0.020	0.058
-743.142	102.448	0.142	0.168
-742.127	372.539	-0.062	0.127
-741.112	-6.329	-0.316	-0.218
-740.098	164.016	-0.245	0.349
-739.083	-34.648	0.233	0.129
-738.069	28.806	0.072	-0.062
-737.054	-60.838	-0.271	-0.116
-736.039	-110.421	-0.357	-0.075
-735.025	14.219	0.060	0.047
-734.010	31.572	0.025	0.021
-732.996	-200.000	0.013	0.436
-731.981	527.241	0.062	0.149
-730.966	91.105	-0.083	-0.094
-729.952	213.142	0.140	-0.224
-728.937	-46.659	-0.261	0.130
-727.923	-200.000	-0.049	-0.319
-726.908	-117.283	-0.305	-0.056
-725.894	-11.476	-0.148	0.098
-724.879	89.629	0.237	-0.268
-723.864	42.413	0.203	-0.187
-722.850	-101.176	-0.317	0.079
-721.835	-200.000	0.025	-0.260
-720.821	-28.446	-0.133	-0.078
-719.806	108.384	-0.213	-0.257
-718.791	-19.169	-0.164	-0.103
-717.777	103.719	-0.093	0.111
-716.762	161.929	-0.184	-0.261
-715.748	-19.926	0.231	-0.144
-714.733	-200.000	-0.019	-0.380
-713.718	-130.875	-0.248	-0.034
-712.704	-11.075	-0.468	-0.313
-711.689	-114.970	0.122	-0.023
-710.675	-88.003	-0.242	-0.074
-709.660	-106.357	0.237	-0.054
-708.645	-136.641	-0.120	-0.014
-707.631	-159.851	0.103	0.006
-706.616	-26.589	0.231	-0.137
-705.602	-112.818	0.235	-0.047
-704.587	-61.105	0.109	0.046
-703.572	-10.636	0.233	0.156
-702.558	257.124	0.265	-0.461
-701.543	400.165	-0.224	-0.475
-700.529	-200.000	0.049	-0.321
-699.514	-61.309	-0.053	0.022
-698.499	38.942	0.177	-0.160
-697.485	129.895	0.098	-0.127
-696.470	197.636	0.006	-0.009
-695.456	-154.010	-0.141	0.010
-694.441	144.533	0.085	-0.115
-693.426	-200.000	0.089	-0.544
-692.412	-200.000	0.030	-0.143
-691.397	58.335	-0.194	0.193
-690.383	-121.207	-0.030	-0.005
-689.368	-51.923	0.345	-0.162
-688.354	407.186	-0.119	0.254
-687.339	23.926	0.129	0.108
-686.324	528.406	0.129	-0.308
-685.310	57.528	0.161	-0.159
-684.295	800.000	-0.187	0.582
-683.281	379.872	-0.150	0.312
-682.266	188.023	-0.148	-0.223
-681.251	50.215	-0.097	0.092
-680.237	-102.271	0.151	-0.037
-679.222	336.683	-0.117	-0.230
-678.208	420.428	-0.093	0.201
-677.193	-81.412	0.184	-0.061
-676.178	800.000	-0.010	-0.033
-675.164	-30.485	0.117	-0.067
-674.149	-99.445	-0.309	-0.079
-673.135	3.430	0.183	0.135
-672.120	-105.625	0.211	-0.048
-671.105	-82.199	-0.113	0.037
-670.091	-120.615	-0.354	-0.061
-669.076	-200.000	-0.028	-0.182
-668.062	569.423	-0.146	0.360
-667.047	800.000	-0.047	-0.175
-666.032	-20.736	0.148	-0.092
-665.018	166.368	-0.120	0.172
-664.003	248.280	0.097	-0.166
-662.989	-162.756	0.401	0.020
-661.974	-21.613	-0.173	-0.106
-660.959	-111.781	0.116	-0.024
-659.945	46.602	0.307	-0.288
-658.930	-200.000	-0.028	0.128
-657.916	800.000	-0.043	0.154
-656.901	800.000	0.005	0.020
-655.886	-200.000	0.027	0.121
-654.872	-69.529	0.382	-0.148
-653.857	102.950	-0.165	0.195
-652.843	-200.000	0.012	-0.382
-651.828	-13.910	-0.153	0.100
-650.814	489.979	-0.050	0.116
-649.799	601.408	-0.046	-0.115
-648.784	800.000	-0.016	0.057
-647.770	777.397	-0.132	0.363
-646.755	16.246	0.236	0.188
-645.741	65.624	0.178	0.182
-644.726	267.212	0.084	-0.148
-643.711	-200.000	-0.043	-0.217
-642.697	-123.646	0.165	0.026
-641.682	-134.738	-0.260	0.032
-640.668	-200.000	-0.017	0.165
-639.653	371.732	-0.138	0.282
-638.638	194.404	0.086	-0.131
-637.624	800.000	0.096	-0.296
-636.609	167.229	0.102	-0.146
-635.595	585.809	0.111	-0.275
-634.580	-5.553	0.113	0.078
-633.565	144.985	0.224	-0.302
-632.551	-9.134	-0.243	-0.164
-631.536	-95.753	0.131	-0.035
-630.522	8.903	0.108	-0.082
-629.507	-88.059	-0.299	0.090
-628.492	74.448	-0.454	-0.482
-627.478	-200.000	0.037	-0.174
-626.463	192.834	-0.220	0.335
-625.449	354.887	0.092	-0.185
-624.434	-160.419	0.050	-0.003
-623.419	3.026	0.229	0.168
-622.405	-40.752	-0.189	-0.099
-621.390	-50.904	-0.168	0.079
-620.376	452.824	-0.061	0.135
-619.361	-89.327	0.052	-0.016
-618.346	192.666	-0.123	-0.187
-617.332	-88.629	-0.308	0.092
-616.317	-200.000	0.018	0.192
-615.303	90.119	-0.095	-0.107
-614.288	58.656	0.185	-0.183
-613.273	254.657	0.092	0.158
-612.259	359.655	0.099	0.199
-611.244	-85.866	-0.253	-0.079
-610.230	629.001	0.083	-0.212
-609.215	17.137	-0.301	0.241
-608.201	176.080	0.231	0.338
-607.186	-200.000	0.003	0.152
-606.171	-200.000	0.043	0.236
-605.157	5.285	0.097	-0.072
-604.142	-108.302	0.192	-0.042
-603.128	-200.000	0.029	0.149
-602.113	228.081	0.079	-0.129
-601.098	800.000	0.025	0.089
-600.084	196.800	-0.151	-0.232
-599.069	615.495	0.199	-0.502
-598.055	130.920	-0.095	0.123
-597.040	-124.471	-0.433	0.068
-596.025	-85.183	0.172	-0.054
-595.011	42.900	-0.089	0.081
-593.996	205.854	0.090	0.140
-592.982	307.617	-0.231	0.433
-591.967	-194.786	0.195	-0.002
-590.952	-126.901	0.069	-0.010
-589.938	-107.332	0.071	-0.016
-588.923	-200.000	-0.097	0.538
-587.909	40.385	0.057	-0.052
-586.894	52.525	0.033	-0.032
-585.879	-109.932	0.217	0.046
-584.865	-66.830	-0.257	-0.102
-583.850	-152.384	-0.016	0.001
-582.836	-200.000	0.009	-0.330
-581.821	252.447	0.218	-0.374
-580.806	-114.667	0.217	0.042
-579.792	-146.028	0.506	0.045
-578.777	-200.000	-0.000	0.140
-577.763	43.049	0.113	-0.104
-576.748	238.825	-0.025	-0.043
-575.733	-33.119	0.200	0.112
-574.719	-61.006	-0.123	0.052
-573.704	212.334	-0.134	-0.213
-572.690	-200.000	0.053	0.243
-571.675	-101.709	-0.264	-0.064
-570.661	48.060	-0.143	0.134
-569.646	-62.226	-0.269	0.113
-568.631	-200.000	-0.012	-0.479
-567.617	35.409	-0.059	0.052
-566.602	82.395	-0.158	0.172
-565.588	296.109	-0.154	0.284
-564.573	-78.752	-0.135	-0.046
-563.558	-200.000	-0.045	-0.203
-562.544	699.644	0.113	-0.300
-561.529	-200.000	-0.028	-0.234
-560.515	49.729	-0.079	-0.075
-559.500	-98.600	-0.277	0.071
-558.485	800.000	0.044	0.178
-557.471	181.637	0.084	-0.124
-556.456	-130.308	-0.357	0.049
-555.442	478.671	0.066	0.150
-554.427	-51.999	0.093	0.044
-553.412	-200.000	0.002	0.145
-552.398	14.636	0.102	0.080
-551.383	-200.000	-0.002	-0.335
-550.369	-101.985	0.190	0.046
-549.354	-21.462	0.089	-0.055
-548.339	-67.467	0.505	0.199
-547.325	-200.000	0.053	0.314
-546.310	-52.059	-0.075	-0.035
-545.296	200.660	0.045	0.069
-544.281	-200.000	0.014	-0.136
-543.266	-138.356	-0.333	0.037
-542.252	-91.363	-0.066	-0.019
-541.237	363.664	-0.196	0.396
-540.223	18.933	-0.257	-0.207
-539.208	-106.730	0.014	0.003
-538.193	215.780	0.130	-0.207
-537.179	-200.000	-0.310	0.000
-536.164	-12.067	0.109	-0.072
-535.150	800.000	0.023	-0.088
-534.135	99.755	-0.208	-0.242
-533.121	86.560	0.167	0.185
-532.106	-75.751	0.263	0.094
-531.091	736.525	-0.025	-0.068
-530.077	283.714	0.062	-0.112
-529.062	-200.000	-0.013	-0.081
-528.048	-200.000	0.014	-0.075
-527.033	800.000	-0.084	0.300
-526.018	800.000	-0.083	0.263
-525.004	800.000	-0.050	0.154
-523.989	4.867	0.360	0.266
-522.975	-0.212	-0.166	0.119
-521.960	68.985	0.256	0.265
-520.945	-42.809	0.285	0.146
-519.931	-133.760	-0.017	-0.002
-518.916	204.465	-0.198	0.308
-517.902	-23.439	-0.441	0.266
-516.887	152.599	0.195	0.267
-515.872	-51.599	-0.046	-0.022
-514.858	256.556	0.136	-0.235
-513.843	-103.709	-0.287	0.067
-512.829	184.290	0.149	-0.222
-511.814	800.000	-0.036	0.139
-510.799	187.137	-0.082	0.122
-509.785	291.875	0.069	-0.127
-508.770	416.755	0.078	0.167
-507.756	-38.033	-0.045	0.024
-506.741	-200.000	-0.027	-0.172
-505.726	-200.000	-0.031	-0.310
-504.712	800.000	0.025	-0.089
-503.697	-170.363	-0.350	-0.012
-502.683	-198.077	-0.292	0.002
-501.668	-200.000	0.189	-0.001
-500.653	-6.221	-0.338	-0.232
-499.639	-155.615	-0.099	-0.006
-498.624	-200.000	-0.006	0.156
-497.610	-200.000	-0.013	0.115
-496.595	-200.000	0.001	-0.071
-495.581	261.055	-0.141	-0.244
-494.566	-200.000	-0.030	-0.362
-493.551	800.000	-0.088	-0.346
-492.537	-62.681	0.174	-0.072
-491.522	-45.669	-0.014	0.007
-490.508	103.264	-0.202	-0.238
-489.493	-32.143	0.092	-0.051
-488.478	11.548	-0.232	0.178
-487.464	-200.000	0.042	-0.250
-486.449	-200.000	-0.053	0.237
-485.435	15.433	0.040	0.032
-484.420	-85.236	-0.070	0.022
-483.405	612.362	0.098	0.247
-482.391	800.000	0.063	0.231
-481.376	-191.873	0.047	-0.000
-480.362	-82.252	-0.044	0.014
-479.347	-85.190	0.365	0.114
-478.332	47.795	0.160	0.150
-477.318	212.964	-0.146	0.231
-476.303	13.469	0.181	0.141
-475.289	59.913	-0.183	-0.182
-474.274	53.773	-0.177	-0.170
-473.259	-9.507	0.312	-0.209
-472.245	3.300	-0.139	0.101
-471.230	169.647	0.166	0.238
-470.216	94.394	0.240	0.274
-469.201	256.024	0.064	0.111
-468.186	-118.378	-0.183	0.033
-467.172	143.657	-0.122	0.162
-466.157	-77.127	0.369	0.129
-465.143	172.952	-0.201	-0.291
-464.128	800.000	-0.066	-0.220
-463.113	46.346	-0.180	0.168
-462.099	-16.574	0.439	-0.279
-461.084	-200.000	-0.042	-0.198
-460.070	-175.261	0.200	-0.006
-459.055	-200.000	0.003	0.516
-458.040	-200.000	0.013	0.072
-457.026	155.095	-0.067	-0.092
-456.011	-28.055	-0.339	0.196
-454.997	395.297	-0.041	0.085
-453.982	-14.746	-0.127	0.082
-452.968	87.728	0.263	-0.292
-451.953	100.865	-0.172	0.200
-450.938	173.127	-0.040	0.057
-449.924	-200.000	-0.030	-0.151
-448.909	-7.263	0.077	0.052
-447.895	800.000	-0.033	-0.097
-446.880	-128.343	0.211	-0.030
-445.865	-91.802	0.134	0.038
-444.851	72.139	0.043	-0.045
-443.836	61.548	0.173	-0.172
-442.822	402.772	-0.129	-0.272
-441.807	394.878	-0.044	-0.092
-440.792	-185.728	-0.413	0.006
-439.778	227.050	-0.129	0.210
-438.763	-200.000	0.027	-0.222
-437.749	213.205	0.112	0.177
-436.734	-119.502	0.352	0.061
-435.719	31.545	-0.151	-0.130
-434.705	-119.766	0.200	-0.035
-433.690	57.924	-0.186	-0.182
-432.676	71.095	-0.041	0.042
-431.661	108.306	0.185	0.221
-430.646	-200.000	-0.005	0.445
-429.632	55.416	-0.171	-0.166
-428.617	-62.128	-0.211	0.088
-427.603	124.075	-0.331	-0.416
-426.588	-113.525	0.227	-0.044
-425.573	-200.000	0.047	0.216
-424.559	-200.000	0.008	0.214
-423.544	640.903	-0.040	0.102
-422.530	-15.519	0.210	-0.134
-421.515	146.268	-0.073	0.098
-420.500	126.113	-0.230	0.291
-419.486	-41.316	-0.219	-0.113
-418.471	-145.770	-0.073	0.007
-417.457	149.404	0.110	0.149
-416.442	-126.683	-0.353	-0.052
-415.428	-200.000	0.014	0.189
-414.413	-200.000	-0.038	0.178
-413.398	750.799	-0.038	-0.103
-412.384	800.000	-0.061	0.181
-411.369	98.754	-0.086	0.099
-410.355	-6.261	-0.072	0.049
-409.340	-129.062	0.220	0.031
-408.325	-90.046	-0.143	0.042
-407.311	164.833	0.100	-0.141
-406.296	428.568	0.035	0.075
-405.282	800.000	0.126	0.359
-404.267	-179.459	0.256	0.006
-403.252	-159.837	-0.071	-0.004
-402.238	800.000	0.153	-0.426
-401.223	14.284	-0.139	0.108
-400.209	-72.769	0.040	0.015
-399.194	800.000	-0.111	0.390
-398.179	361.869	0.094	0.189
-397.165	800.000	-0.029	0.114
-396.150	-200.000	0.054	0.389
-395.136	-83.162	0.127	0.041
-394.121	460.489	-0.225	-0.500
-393.106	-94.434	-0.294	-0.080
-392.092	800.000	-0.046	0.185
-391.077	-95.982	0.146	0.039
-390.063	-28.452	0.084	-0.048
-389.048	800.000	0.033	0.111
-388.033	-200.000	0.102	0.478
-387.019	-108.056	0.071	-0.015
-386.004	-160.677	-0.170	-0.009
-384.990	-38.601	0.245	-0.129
-383.975	-200.000	-0.018	-0.180
-382.960	19.309	0.121	0.097
-381.946	57.583	0.067	-0.065
-380.931	-138.976	-0.396	0.043
-379.917	324.200	-0.108	0.207
-378.902	-71.381	0.316	0.118
-377.888	-160.407	-0.031	-0.002
-376.873	-42.244	-0.080	0.041
-375.858	85.055	0.163	-0.179
-374.844	3.253	0.251	-0.183
-373.829	416.045	-0.084	-0.179
-372.815	261.598	0.202	-0.350
-371.800	-3.036	-0.102	-0.071
-370.785	360.574	-0.083	-0.166
-369.771	44.091	-0.183	-0.167
-368.756	-157.198	0.360	-0.022
-367.742	-23.942	-0.100	-0.060
-366.727	-110.368	0.227	0.047
-365.712	-82.556	0.228	-0.074
-364.698	649.902	-0.061	0.156
-363.683	363.625	0.136	-0.273
-362.669	-200.000	-0.033	-0.148
-361.654	-124.498	0.120	-0.019
-360.639	60.023	0.105	0.104
-359.625	138.621	0.013	-0.017
-358.610	800.000	0.049	-0.199
-357.596	-48.307	-0.309	-0.149
-356.581	-154.327	0.349	-0.023
-355.566	-72.304	0.243	-0.090
-354.552	-86.418	0.287	-0.088
-353.537	86.387	-0.095	-0.105
-352.523	111.754	-0.039	-0.047
-351.508	-92.009	0.046	0.013
-350.493	-162.698	-0.378	0.018
-349.479	-15.218	0.166	-0.106
-348.464	-92.824	-0.219	0.061
-347.450	-58.483	-0.052	0.023
-346.435	123.316	-0.161	-0.202
-345.420	-109.575	-0.287	-0.060
-344.406	-112.617	-0.227	-0.045
-343.391	-200.000	0.003	-0.196
-342.377	-200.000	0.022	-0.291
-341.362	37.355	-0.201	0.178
-340.348	-157.184	-0.344	0.021
-339.333	36.613	-0.145	-0.128
-338.318	-27.474	-0.301	-0.175
-337.304	-79.584	-0.335	0.113
-336.289	245.996	0.138	-0.232
-335.275	-38.430	-0.121	0.064
-334.260	101.826	-0.245	0.285
-333.245	8.289	0.029	-0.022
-332.231	-4.058	-0.082	-0.057
-331.216	231.891	-0.108	0.177
-330.202	41.533	0.128	0.115
-329.187	-155.823	0.145	-0.009
-328.172	-22.662	-0.132	0.080
-327.158	480.823	-0.069	-0.156
-326.143	502.649	0.095	-0.220
-325.129	-24.531	0.332	-0.197
-324.114	32.764	0.157	-0.135
-323.099	-71.021	0.102	-0.038
-322.085	800.000	-0.054	0.233
-321.070	-116.101	0.082	-0.015
-320.056	644.636	-0.185	0.470
-319.041	108.226	0.202	-0.240
-318.026	-177.547	0.191	-0.005
-317.012	-200.000	0.025	0.340
-315.997	126.516	-0.136	-0.172
-314.983	-182.522	-0.113	0.002
-313.968	-200.000	0.004	-0.165
-312.953	527.736	-0.080	-0.188
-311.939	-6.092	0.332	-0.226
-310.924	-87.034	0.252	-0.076
-309.910	272.566	0.149	-0.263
-308.895	123.620	0.161	-0.201
-307.880	-114.989	-0.298	-0.056
-306.866	203.480	0.102	-0.158
-305.851	472.575	0.154	-0.346
-304.837	-200.000	-0.024	-0.130
-303.822	501.947	-0.098	-0.227
-302.807	10.023	-0.117	-0.089
-301.793	-118.276	-0.143	0.025
-300.778	-114.165	-0.207	-0.040
-299.764	-52.894	-0.546	0.251
-298.749	-82.604	-0.287	0.093
-297.735	32.753	-0.122	0.105
-296.720	150.921	0.204	0.276
-295.705	534.635	0.110	-0.260
-294.691	293.023	-0.298	-0.541
-293.676	-200.000	0.037	0.413
-292.662	612.363	-0.172	0.429
-291.647	5.269	-0.234	0.172
-290.632	84.414	0.223	0.243
-289.618	326.390	0.115	-0.219
-288.603	-17.836	-0.080	-0.050
-287.589	121.689	0.215	-0.267
-286.574	77.626	0.075	0.079
-285.559	800.000	-0.049	-0.145
-284.545	-51.792	0.180	-0.084
-283.530	0.967	-0.115	-0.082
-282.516	555.205	0.153	0.365
-281.501	-77.463	-0.118	-0.041
-280.486	-40.039	0.246	0.128
-279.472	407.782	-0.089	0.187
-278.457	-200.000	-0.040	0.233
-277.443	-177.531	-0.431	0.010
-276.428	-88.267	-0.156	-0.047
-275.413	42.603	0.099	-0.090
-274.399	-112.906	-0.185	0.036
-273.384	399.610	0.019	-0.041
-272.370	-63.663	-0.104	0.042
-271.355	194.631	-0.037	-0.056
-270.340	800.000	0.055	-0.194
-269.326	-164.077	-0.104	-0.005
-268.311	-200.000	-0.010	0.256
-267.297	-101.975	0.137	0.033
-266.282	64.368	0.169	-0.170
-265.267	800.000	0.064	-0.186
-264.253	-160.169	0.338	-0.018
-263.238	-200.000	0.024	0.199
-262.224	-41.331	0.422	-0.216
-261.209	5.488	0.171	-0.126
-260.195	-138.440	-0.234	0.026
-259.180	-99.050	0.183	-0.046
-258.165	-156.732	-0.480	0.029
-257.151	122.149	0.102	-0.127
-256.136	-68.371	0.207	-0.080
-255.122	-93.390	-0.139	-0.038
-254.107	-200.000	0.017	0.258
-253.092	800.000	-0.125	0.397
-252.078	-200.000	0.024	0.144
-251.063	-100.810	0.359	-0.088
-250.049	66.438	-0.062	0.063
-249.034	369.775	-0.215	0.433
-248.019	-149.491	0.229	0.018
-247.005	-121.468	0.203	0.034
-245.990	633.812	-0.068	-0.170
-244.976	308.852	0.075	-0.140
-243.961	-200.000	0.018	0.195
-242.946	-200.000	-0.029	-0.219
-241.932	-132.234	0.159	-0.020
-240.917	30.861	0.090	-0.076
-239.903	-86.159	-0.234	0.072
-238.888	-29.978	0.230	0.130
-237.873	89.128	-0.053	0.059
-236.859	-3.465	-0.264	0.182
-235.844	800.000	-0.099	-0.311
-234.830	15.795	0.048	0.038
-233.815	-10.893	-0.117	0.077
-232.800	-200.000	-0.058	0.458
-231.786	133.713	-0.018	0.023
-230.771	-123.944	0.202	-0.032
-229.757	800.000	-0.100	0.363
-228.742	439.043	0.082	-0.178
-227.727	800.000	-0.026	0.098
-226.713	-162.557	0.116	-0.006
-225.698	48.148	0.135	-0.125
-224.684	63.663	0.262	0.261
-223.669	800.000	0.055	0.187
-222.655	-44.812	0.087	-0.043
-221.640	-118.432	-0.350	0.062
-220.625	11.075	-0.053	-0.040
-219.611	500.385	0.034	0.078
-218.596	66.025	-0.124	-0.125
-217.582	-31.641	0.102	0.057
-216.567	-181.202	-0.085	-0.002
-215.552	105.184	-0.118	-0.138
-214.538	-200.000	0.077	-0.410
-213.523	-167.217	0.107	-0.004
-212.509	-200.000	-0.014	-0.098
-211.494	151.048	0.082	0.111
-210.479	58.141	-0.094	0.092
-209.465	-51.141	0.213	0.099
-208.450	-172.460	0.112	0.004
-207.436	24.689	-0.204	-0.167
-206.421	710.564	-0.054	-0.141
-205.406	10.198	-0.167	-0.126
-204.392	-157.737	-0.136	-0.008
-203.377	-32.508	-0.446	-0.247
-202.363	-162.294	-0.262	-0.013
-201.348	-122.298	0.438	-0.071
-200.333	-80.094	0.165	-0.055
-199.319	-22.081	-0.283	0.170
-198.304	800.000	-0.136	0.376
-197.290	13.568	0.135	-0.104
-196.275	62.472	0.232	-0.230
-195.260	-200.000	0.038	-0.190
-194.246	-124.938	0.090	-0.014
-193.231	-52.272	0.210	0.096
-192.217	80.693	-0.075	-0.081
-191.202	-79.830	0.372	0.124
-190.187	-31.056	0.167	-0.093
-189.173	-200.000	-0.038	-0.241
-188.158	157.843	0.159	-0.218
-187.144	800.000	0.120	-0.357
-186.129	-105.508	0.109	-0.025
-185.114	-38.075	-0.186	0.098
-184.100	-75.097	-0.279	-0.099
-183.085	800.000	0.103	-0.314
-182.071	-119.257	0.192	0.033
-181.056	-150.528	-0.183	0.014
-180.042	131.260	-0.085	0.109
-179.027	-94.352	0.267	-0.072
-178.012	-105.531	-0.291	-0.065
-176.998	184.658	-0.031	0.045
-175.983	-103.226	0.114	0.027
-174.969	-82.083	0.365	0.118
-173.954	-114.053	-0.150	-0.029
-172.939	-121.920	0.275	-0.045
-171.925	-67.830	-0.020	0.008
-170.910	-71.035	0.144	0.054
-169.896	165.334	0.128	0.179
-168.881	-138.286	0.162	-0.018
-167.866	183.574	-0.193	-0.283
-166.852	-147.023	-0.135	-0.011
-165.837	13.811	-0.200	0.154
-164.823	-2.651	0.185	-0.128
-163.808	-79.218	0.089	0.030
-162.793	-122.852	0.263	0.042
-161.779	-13.383	-0.043	-0.028
-160.764	-102.984	0.115	-0.027
-159.750	800.000	0.044	0.150
-158.735	90.113	-0.184	-0.204
-157.720	-78.865	-0.139	-0.047
-156.706	482.335	0.164	0.368
-155.691	182.711	0.104	0.152
-154.677	-125.758	0.177	0.027
-153.662	-62.661	0.298	-0.123
-152.647	91.149	-0.015	0.017
-151.633	46.410	0.194	0.178
-150.618	30.256	-0.228	-0.193
-149.604	-88.423	0.290	-0.086
-148.589	604.929	-0.080	-0.196
-147.574	-21.667	0.176	-0.106
-146.560	-200.000	0.019	-0.123
-145.545	-125.248	0.182	-0.028
-144.531	594.537	-0.205	0.503
-143.516	-25.059	0.593	0.348
-142.502	57.340	-0.184	-0.178
-141.487	9.522	0.301	0.225
-140.472	-16.228	0.232	-0.146
-139.458	-154.298	-0.439	0.029
-138.443	202.525	-0.140	-0.214
-137.429	166.827	-0.032	0.045
-136.414	-20.831	-0.230	-0.140
-135.399	-155.095	0.230	0.015
-134.385	3.156	-0.283	-0.204
-133.370	197.163	0.201	0.303
-132.356	-103.255	0.351	0.082
-131.341	-200.000	0.025	0.197
-130.326	-70.142	0.220	-0.083
-129.312	-103.767	-0.257	0.060
-128.297	-43.573	0.042	-0.021
-127.283	-200.000	-0.006	0.347
-126.268	-200.000	-0.057	0.288
-125.253	-76.343	-0.167	-0.058
-124.239	146.163	0.100	0.133
-123.224	-91.099	0.144	-0.041
-122.210	-149.890	-0.190	-0.015
