DTS Sentinel unit serial number:	SN413079Multiplexer serial number:	ORYXHardware model number:	OX4-SRSoftware version number:	ORYX F/W v4.00 Oryx Data Collector v3.7.2.0data status	okinstallation	princeton_trtdifferential loss correction	single-endedforward channel	channel 2reverse channel	N/Adate	2019/09/15time	10:31:34forward acquisition time	60.00reverse acquisition time	0.00gamma	496.2192k internal	0.2315k external	0.2315temperature offset calibration	1.0016default loss term (dB/km)	0.3790temperature slope calibration	1.0000multiplexer offset coefficient	1.0000multiplexer slope coefficient	1.0000fibre end	0.00T internal ref (°C)	34.23T ext. ref 1 (°C)	5.04T ext. ref 2 (°C)	29.49length (m)	temperature (°C)	Stokes	anti-Stokes-747.200	-200.000	0.009	0.235
-746.185	67.814	0.036	0.038
-745.171	-119.411	-0.132	0.023
-744.156	163.430	-0.187	0.267
-743.142	78.699	0.049	0.053
-742.127	-200.000	-0.004	0.240
-741.112	41.316	-0.153	0.141
-740.098	800.000	-0.025	-0.089
-739.083	-200.000	0.039	-0.288
-738.069	-31.995	0.032	0.018
-737.054	-21.041	-0.103	0.064
-736.039	-200.000	-0.007	-0.079
-735.025	-200.000	0.084	0.416
-734.010	161.058	0.157	-0.223
-732.996	304.303	-0.259	0.487
-731.981	-0.815	-0.298	-0.214
-730.966	149.214	-0.137	-0.188
-729.952	84.756	0.089	0.099
-728.937	-74.596	0.470	0.171
-727.923	800.000	-0.042	-0.121
-726.908	800.000	-0.059	0.175
-725.894	-200.000	0.006	-0.251
-724.879	-200.000	-0.059	-0.367
-723.864	-200.000	0.009	0.066
-722.850	-158.699	-0.283	-0.016
-721.835	800.000	-0.036	0.112
-720.821	-127.461	-0.255	-0.038
-719.806	-200.000	0.033	0.208
-718.791	78.960	-0.205	-0.222
-717.777	234.616	-0.109	0.182
-716.762	-190.513	0.108	0.001
-715.748	-106.728	-0.237	-0.053
-714.733	-200.000	-0.054	-0.325
-713.718	292.734	-0.154	0.285
-712.704	77.423	-0.095	0.103
-711.689	57.082	-0.221	-0.218
-710.675	57.401	-0.296	-0.292
-709.660	800.000	-0.089	-0.347
-708.645	-200.000	0.015	0.229
-707.631	302.225	-0.077	-0.144
-706.616	20.045	0.092	0.075
-705.602	-155.336	-0.285	0.019
-704.587	800.000	0.015	0.051
-703.572	800.000	0.027	-0.091
-702.558	-200.000	0.037	-0.312
-701.543	-200.000	-0.013	-0.200
-700.529	14.550	0.412	0.326
-699.514	157.629	0.109	-0.153
-698.499	-148.491	-0.045	0.004
-697.485	-200.000	0.019	0.210
-696.470	-89.922	-0.188	-0.056
-695.456	-37.886	0.100	-0.054
-694.441	189.112	0.188	0.285
-693.426	-24.333	-0.053	-0.032
-692.412	12.624	-0.171	0.134
-691.397	31.848	-0.136	-0.119
-690.383	-200.000	-0.016	-0.223
-689.368	-38.730	-0.271	-0.144
-688.354	-200.000	0.014	-0.383
-687.339	-154.467	-0.188	-0.013
-686.324	-200.000	0.007	-0.066
-685.310	-89.233	-0.193	-0.058
-684.295	-106.452	-0.260	-0.059
-683.281	-200.000	-0.006	-0.228
-682.266	-83.740	-0.154	0.050
-681.251	81.322	0.101	-0.110
-680.237	260.958	0.068	-0.118
-679.222	-200.000	0.031	-0.200
-678.208	62.109	-0.251	-0.253
-677.193	800.000	0.134	-0.453
-676.178	80.788	0.170	-0.185
-675.164	-200.000	0.049	-0.238
-674.149	800.000	-0.058	0.246
-673.135	-200.000	-0.034	-0.203
-672.120	-200.000	-0.020	0.147
-671.105	-45.240	0.159	0.080
-670.091	-37.179	0.052	0.028
-669.076	159.762	0.102	0.143
-668.062	-119.018	-0.260	0.046
-667.047	19.707	-0.065	-0.053
-666.032	-134.848	0.090	0.011
-665.018	-200.000	-0.064	0.285
-664.003	-102.775	0.196	-0.047
-662.989	-32.390	-0.102	-0.057
-661.974	91.906	-0.038	-0.044
-660.959	-130.551	-0.197	0.027
-659.945	-200.000	-0.026	-0.232
-658.930	-85.243	-0.221	0.070
-657.916	-39.314	-0.186	-0.099
-656.901	-182.803	-0.033	0.001
-655.886	-200.000	-0.044	0.407
-654.872	-3.322	0.283	-0.199
-653.857	-200.000	-0.020	-0.143
-652.843	-200.000	0.081	0.441
-651.828	524.207	0.161	0.382
-650.814	-104.803	0.164	-0.038
-649.799	-105.748	0.142	-0.032
-648.784	214.700	0.112	-0.179
-647.770	-64.290	-0.196	-0.080
-646.755	-200.000	0.016	-0.078
-645.741	124.186	0.150	-0.190
-644.726	-21.216	-0.281	-0.173
-643.711	-166.969	0.036	0.001
-642.697	100.420	-0.100	-0.117
-641.682	800.000	-0.124	-0.396
-640.668	64.482	0.085	-0.087
-639.653	233.048	-0.028	-0.046
-638.638	137.751	-0.150	0.199
-637.624	58.368	-0.110	-0.108
-636.609	57.827	0.106	0.105
-635.595	-68.082	-0.214	-0.084
-634.580	800.000	-0.035	-0.122
-633.565	-200.000	-0.017	-0.174
-632.551	-200.000	-0.001	-0.097
-631.536	127.173	0.098	0.125
-630.522	-104.925	0.252	-0.058
-629.507	162.636	0.330	-0.467
-628.492	-200.000	0.077	-0.344
-627.478	-129.200	-0.293	0.041
-626.463	280.047	0.073	0.132
-625.449	142.512	-0.168	0.226
-624.434	212.885	-0.168	0.267
-623.419	-60.713	0.013	-0.005
-622.405	-34.745	0.489	0.270
-621.390	60.342	-0.184	0.183
-620.376	-84.100	-0.156	0.050
-619.361	800.000	-0.047	0.138
-618.346	1.889	0.255	-0.186
-617.332	-36.223	-0.193	-0.105
-616.317	-74.810	0.169	0.061
-615.303	-152.411	-0.198	0.014
-614.288	800.000	0.073	0.290
-613.273	-80.063	0.069	0.023
-612.259	-16.512	-0.376	-0.240
-611.244	-200.000	-0.003	-0.167
-610.230	-40.064	-0.021	-0.011
-609.215	-35.033	-0.104	0.057
-608.201	-200.000	0.042	0.329
-607.186	239.395	0.065	-0.108
-606.171	128.742	0.101	-0.130
-605.157	-90.141	0.233	0.068
-604.142	612.787	0.101	-0.256
-603.128	164.528	0.074	-0.105
-602.113	-99.306	-0.239	0.061
-601.098	-200.000	-0.011	-0.214
-600.084	-11.473	-0.193	0.128
-599.069	-51.706	-0.392	0.184
-598.055	492.553	-0.154	0.356
-597.040	86.424	0.095	-0.105
-596.025	-127.495	-0.239	-0.035
-595.011	800.000	-0.067	-0.203
-593.996	-200.000	0.022	0.255
-592.982	-74.025	0.257	0.094
-591.967	-200.000	-0.031	0.234
-590.952	-10.275	0.261	0.174
-589.938	75.408	0.127	0.135
-588.923	-70.320	0.192	0.073
-587.909	-200.000	-0.020	-0.141
-586.894	-60.207	-0.236	0.101
-585.879	591.583	-0.091	0.227
-584.865	-200.000	-0.100	-0.496
-583.850	-200.000	-0.040	-0.249
-582.836	-147.777	0.370	-0.031
-581.821	-200.000	-0.222	0.001
-580.806	-52.270	0.134	0.062
-579.792	-4.410	0.322	-0.224
-578.777	-77.498	0.080	0.028
-577.763	28.291	-0.126	0.107
-576.748	-116.617	0.311	0.058
-575.733	138.529	-0.206	-0.272
-574.719	800.000	-0.108	-0.330
-573.704	-200.000	-0.006	-0.048
-572.690	150.648	0.059	-0.081
-571.675	261.730	0.063	0.109
-570.661	800.000	-0.052	0.183
-569.646	451.050	-0.123	-0.273
-568.631	-177.598	-0.218	0.005
-567.617	-91.097	0.040	0.012
-566.602	-83.391	-0.247	0.080
-565.588	-99.943	-0.329	-0.083
-564.573	137.270	-0.041	-0.055
-563.558	192.485	-0.022	-0.034
-562.544	800.000	-0.056	0.230
-561.529	-19.006	-0.160	-0.100
-560.515	-31.024	0.271	-0.154
-559.500	-200.000	0.043	-0.226
-558.485	82.333	0.323	-0.352
-557.471	-118.347	-0.073	0.013
-556.456	-36.761	0.395	0.213
-555.442	800.000	-0.018	0.051
-554.427	-195.883	-0.104	-0.001
-553.412	5.404	-0.332	0.246
-552.398	-75.791	0.202	-0.072
-551.383	-156.049	0.312	0.020
-550.369	800.000	0.081	0.262
-549.354	-200.000	-0.023	-0.148
-548.339	-83.367	-0.348	-0.112
-547.325	106.569	0.089	-0.106
-546.310	-200.000	0.007	-0.244
-545.296	800.000	-0.075	-0.262
-544.281	63.215	0.112	0.113
-543.266	-59.941	0.076	-0.033
-542.252	-45.340	-0.100	-0.050
-541.237	-62.935	0.250	0.104
-540.223	115.332	0.068	-0.083
-539.208	-5.081	0.092	-0.063
-538.193	603.022	0.091	-0.227
-537.179	186.808	-0.117	-0.176
-536.164	-108.812	0.068	0.015
-535.150	-39.536	-0.186	-0.098
-534.135	148.290	-0.140	-0.189
-533.121	-26.428	-0.103	-0.061
-532.106	-200.000	0.052	0.385
-531.091	-86.695	-0.048	-0.015
-530.077	-200.000	0.004	0.046
-529.062	93.954	0.168	-0.191
-528.048	-121.327	0.150	0.025
-527.033	-53.850	0.165	-0.076
-526.018	90.672	0.179	-0.202
-525.004	290.683	-0.015	-0.027
-523.989	-200.000	0.006	-0.163
-522.975	183.631	-0.096	0.143
-521.960	-26.928	0.112	-0.066
-520.945	-162.638	0.225	-0.011
-519.931	32.922	0.030	0.026
-518.916	-69.517	-0.190	-0.073
-517.902	-200.000	0.022	-0.206
-516.887	21.488	0.212	0.173
-515.872	-200.000	-0.012	0.171
-514.858	-140.142	-0.059	-0.006
-513.843	-188.302	0.175	0.002
-512.829	-95.894	0.073	-0.019
-511.814	349.746	0.185	0.366
-510.799	2.056	0.273	-0.198
-509.785	463.895	-0.130	-0.292
-508.770	636.046	-0.106	0.269
-507.756	429.693	-0.130	0.281
-506.741	253.043	0.120	0.205
-505.726	-200.000	-0.012	0.275
-504.712	-200.000	0.018	-0.491
-503.697	438.175	0.097	-0.212
-502.683	-190.103	0.132	-0.001
-501.668	50.959	0.123	-0.117
-500.653	9.644	0.244	0.185
-499.639	91.859	-0.336	-0.379
-498.624	-171.032	-0.305	0.010
-497.610	-114.244	0.070	-0.014
-496.595	267.126	0.070	-0.123
-495.581	294.776	-0.122	-0.223
-494.566	662.277	0.025	-0.064
-493.551	-102.683	-0.096	0.023
-492.537	800.000	0.070	0.264
-491.522	58.799	-0.113	0.111
-490.508	-98.305	0.222	0.057
-489.493	-146.991	0.222	-0.019
-488.478	-19.222	-0.190	-0.118
-487.464	-25.309	-0.151	-0.090
-486.449	-200.000	0.057	-0.300
-485.435	-14.996	0.159	-0.102
-484.420	-79.345	-0.208	0.071
-483.405	-144.273	-0.314	0.029
-482.391	63.927	0.158	-0.159
-481.376	-106.011	-0.263	0.059
-480.362	-200.000	0.024	0.114
-479.347	-130.862	-0.194	0.026
-478.332	-44.707	0.092	-0.046
-477.318	489.965	-0.151	0.345
-476.303	-200.000	-0.004	0.076
-475.289	-200.000	-0.028	0.182
-474.274	4.451	-0.196	0.144
-473.259	-144.795	-0.282	-0.026
-472.245	-59.548	-0.257	-0.111
-471.230	413.171	0.108	-0.229
-470.216	-0.255	0.252	-0.180
-469.201	-200.000	0.036	-0.294
-468.186	-200.000	-0.001	0.191
-467.172	-83.282	0.044	-0.014
-466.157	-109.108	-0.132	-0.028
-465.143	79.436	0.354	0.380
-464.128	-9.938	0.230	-0.153
-463.113	800.000	-0.056	0.246
-462.099	-200.000	0.003	0.069
-461.084	800.000	-0.106	0.340
-460.070	216.757	-0.134	0.214
-459.055	268.062	-0.126	-0.220
-458.040	-127.879	-0.218	-0.031
-457.026	-82.155	-0.346	-0.113
-456.011	-117.137	-0.237	0.043
-454.997	87.466	0.167	0.186
-453.982	-200.000	0.007	0.390
-452.968	79.141	0.245	-0.263
-451.953	721.154	-0.024	0.065
-450.938	-1.081	-0.205	-0.145
-449.924	185.330	-0.082	-0.121
-448.909	800.000	0.004	0.017
-447.895	-141.721	-0.119	-0.012
-446.880	70.165	0.099	-0.102
-445.865	-200.000	0.020	-0.483
-444.851	-154.262	0.092	-0.006
-443.836	-104.780	-0.163	0.038
-442.822	177.260	-0.088	0.129
-441.807	421.840	0.015	0.031
-440.792	-134.327	0.201	-0.025
-439.778	-69.659	0.235	0.090
-438.763	-200.000	0.056	-0.347
-437.749	-81.860	0.143	0.047
-436.734	531.594	-0.078	-0.185
-435.719	-106.128	0.165	0.037
-434.705	-145.348	0.179	0.016
-433.690	3.617	-0.288	0.210
-432.676	87.660	0.151	0.168
-431.661	-200.000	0.054	-0.271
-430.646	316.762	0.106	0.200
-429.632	-200.000	0.018	0.085
-428.617	236.767	0.043	-0.072
-427.603	62.772	0.262	-0.263
-426.588	-56.500	0.377	-0.167
-425.573	126.482	-0.107	0.136
-424.559	661.000	0.087	0.225
-423.544	-17.292	-0.306	-0.193
-422.530	-166.659	0.204	0.008
-421.515	348.469	0.047	-0.093
-420.500	-200.000	0.062	-0.357
-419.486	-112.183	-0.196	-0.039
-418.471	-200.000	-0.034	-0.213
-417.457	-119.788	0.129	0.022
-416.442	-63.618	-0.169	0.069
-415.428	-200.000	0.006	-0.146
-414.413	598.524	0.006	0.015
-413.398	-131.751	-0.275	0.036
-412.384	800.000	0.046	0.139
-411.369	798.150	-0.101	-0.277
-410.355	-8.766	-0.094	-0.063
-409.340	-136.290	-0.153	0.018
-408.325	638.704	-0.096	0.245
-407.311	800.000	0.079	0.256
-406.296	-200.000	-0.004	0.122
-405.282	800.000	0.026	0.091
-404.267	109.069	0.052	0.062
-403.252	-10.128	0.087	-0.058
-402.238	619.052	-0.073	-0.183
-401.223	-79.302	-0.047	-0.016
-400.209	-89.321	-0.297	-0.087
-399.194	-200.000	-0.020	-0.174
-398.179	800.000	-0.005	-0.019
-397.165	-108.204	0.163	0.035
-396.150	39.191	-0.113	-0.101
-395.136	-102.552	0.097	0.023
-394.121	-200.000	0.036	0.375
-393.106	-45.163	0.117	0.058
-392.092	-200.000	0.049	-0.239
-391.077	-32.362	-0.238	-0.133
-390.063	-200.000	0.001	0.065
-389.048	-112.883	-0.354	-0.070
-388.033	800.000	0.118	-0.381
-387.019	341.718	0.027	-0.053
-386.004	-77.994	-0.186	-0.064
-384.990	-30.805	-0.105	-0.059
-383.975	12.756	-0.126	-0.098
-382.960	-99.305	0.294	-0.074
-381.946	800.000	-0.007	-0.028
-380.931	-39.102	0.166	-0.087
-379.917	268.663	0.172	0.302
-378.902	800.000	-0.109	0.393
-377.888	-29.663	0.035	-0.020
-376.873	-200.000	-0.050	0.228
-375.858	800.000	0.040	0.122
-374.844	-150.226	-0.129	-0.010
-373.829	-58.585	0.059	0.026
-372.815	198.632	0.092	-0.141
-371.800	386.156	-0.135	-0.277
-370.785	-138.262	-0.357	0.039
-369.771	-27.535	0.292	0.169
-368.756	18.709	0.281	-0.225
-367.742	-200.000	0.023	-0.260
-366.727	382.071	0.111	-0.229
-365.712	-64.051	0.037	-0.015
-364.698	179.068	-0.108	-0.158
-363.683	-200.000	-0.012	0.082
-362.669	-170.389	-0.063	-0.002
-361.654	-111.533	0.179	-0.036
-360.639	25.652	0.245	-0.204
-359.625	-101.247	0.418	-0.102
-358.610	84.693	0.209	0.228
-357.596	-200.000	0.003	-0.018
-356.581	-79.549	0.334	-0.113
-355.566	97.023	0.111	-0.127
-354.552	369.702	0.047	-0.094
-353.537	800.000	0.060	0.189
-352.523	140.091	0.008	0.010
-351.508	-200.000	-0.044	-0.199
-350.493	795.315	-0.117	-0.320
-349.479	10.528	0.178	-0.136
-348.464	60.912	-0.156	-0.154
-347.450	-69.420	0.312	0.120
-346.435	0.377	0.175	0.125
-345.420	-200.000	0.017	0.163
-344.406	-16.708	0.514	0.324
-343.391	800.000	-0.047	0.172
-342.377	169.866	-0.114	-0.163
-341.362	-200.000	0.051	-0.225
-340.348	14.438	-0.174	0.136
-339.333	91.241	0.182	-0.204
-338.318	157.903	-0.099	-0.137
-337.304	151.591	0.185	-0.251
-336.289	-200.000	0.004	0.300
-335.275	-200.000	0.048	0.241
-334.260	-140.239	-0.139	-0.015
-333.245	135.625	0.165	0.214
-332.231	43.185	0.206	0.188
-331.216	270.066	-0.152	-0.267
-330.202	-200.000	0.015	0.146
-329.187	-151.931	-0.147	-0.011
-328.172	-40.661	0.255	0.132
-327.158	51.244	-0.214	-0.202
-326.143	412.767	-0.074	0.158
-325.129	-11.264	-0.042	0.027
-324.114	-165.785	-0.169	0.007
-323.099	532.841	-0.012	-0.028
-322.085	-127.311	0.211	0.031
-321.070	-56.311	0.391	-0.173
-320.056	-94.730	0.070	0.019
-319.041	86.599	-0.222	-0.244
-318.026	-170.515	0.184	0.006
-317.012	800.000	-0.012	-0.038
-315.997	-200.000	0.036	-0.174
-314.983	-0.282	-0.141	-0.100
-313.968	-23.782	-0.208	-0.124
-312.953	451.050	-0.138	0.304
-311.939	-64.871	0.146	0.059
-310.924	-133.136	0.320	0.040
-309.910	800.000	-0.124	0.388
-308.895	57.854	0.178	0.173
-307.880	-200.000	-0.021	0.192
-306.866	-76.019	-0.232	0.082
-305.851	107.368	-0.063	-0.074
-304.837	552.549	0.007	0.017
-303.822	-69.432	-0.193	-0.074
-302.807	111.154	0.283	0.339
-301.793	-42.185	-0.206	-0.105
-300.778	-69.041	0.072	0.028
-299.764	-109.334	0.049	0.010
-298.749	347.442	0.178	0.349
-297.735	-200.000	-0.004	-0.173
-296.720	800.000	0.039	-0.133
-295.705	-75.050	-0.110	-0.039
-294.691	-200.000	-0.014	0.089
-293.676	-84.495	-0.173	0.054
-292.662	-200.000	0.037	-0.187
-291.647	185.524	0.195	-0.289
-290.632	770.620	0.093	-0.252
-289.618	-40.307	0.376	-0.195
-288.603	168.824	-0.212	0.300
-287.589	-186.962	-0.108	0.001
-286.574	-117.506	0.230	-0.041
-285.559	-30.103	-0.169	0.096
-284.545	-200.000	-0.028	-0.269
-283.530	-200.000	0.021	0.164
-282.516	-7.208	0.142	0.096
-281.501	-94.325	-0.263	0.072
-280.486	-108.289	0.230	0.049
-279.472	-62.439	-0.272	0.113
-278.457	24.484	0.287	0.236
-277.443	-200.000	0.015	0.108
-276.428	-200.000	0.024	0.172
-275.413	298.749	-0.128	0.234
-274.399	-56.456	0.124	-0.055
-273.384	800.000	-0.076	0.232
-272.370	668.859	-0.157	0.403
-271.355	800.000	0.126	-0.420
-270.340	800.000	0.077	-0.218
-269.326	-143.926	-0.033	-0.003
-268.311	372.619	0.110	-0.222
-267.297	-102.996	-0.201	0.047
-266.282	-22.054	-0.250	0.151
-265.267	-200.000	0.011	0.283
-264.253	24.289	-0.419	-0.344
-263.238	468.575	0.134	-0.298
-262.224	-200.000	0.033	0.346
-261.209	800.000	-0.049	0.160
-260.195	-159.485	-0.254	0.014
-259.180	391.739	0.101	0.209
-258.165	185.170	-0.192	0.284
-257.151	-85.725	-0.308	0.095
-256.136	20.602	-0.125	0.100
-255.122	-51.515	-0.281	0.130
-254.107	40.082	0.076	0.067
-253.092	-200.000	-0.002	-0.035
-252.078	8.345	0.065	0.049
-251.063	-78.052	0.136	-0.047
-250.049	-31.072	-0.242	0.136
-249.034	800.000	-0.075	-0.240
-248.019	-200.000	0.005	-0.235
-247.005	73.424	-0.068	0.070
-245.990	278.864	-0.043	-0.075
-244.976	-200.000	0.069	-0.339
-243.961	9.874	-0.374	0.282
-242.946	-200.000	-0.017	-0.142
-241.932	-200.000	0.007	0.098
-240.917	-126.746	-0.045	0.007
-239.903	-32.258	0.131	0.073
-238.888	-200.000	0.034	-0.195
-237.873	-85.454	0.094	0.029
-236.859	-140.880	-0.161	-0.016
-235.844	-21.575	-0.071	-0.043
-234.830	-140.632	0.373	0.038
-233.815	-200.000	0.005	0.239
-232.800	800.000	-0.066	0.260
-231.786	74.735	-0.267	-0.280
-230.771	420.166	0.224	-0.475
-229.757	-96.624	-0.048	0.013
-228.742	-37.907	-0.209	0.110
-227.727	-132.203	-0.256	0.033
-226.713	-114.120	-0.107	0.020
-225.698	-51.848	-0.050	0.023
-224.684	478.868	0.144	0.324
-223.669	-116.704	-0.530	0.097
-222.655	-110.854	-0.089	0.018
-221.640	-173.131	-0.370	-0.011
-220.625	31.731	0.118	0.101
-219.611	-200.000	-0.004	-0.178
-218.596	100.010	0.051	0.059
-217.582	800.000	-0.090	-0.372
-216.567	119.064	-0.050	-0.062
-215.552	598.996	0.028	-0.069
-214.538	-85.707	0.081	-0.025
-213.523	417.658	0.002	0.004
-212.509	450.751	-0.086	-0.188
-211.494	-8.457	-0.081	0.054
-210.479	50.758	0.050	0.047
-209.465	242.615	0.158	0.263
-208.450	800.000	0.038	-0.160
-207.436	800.000	-0.087	-0.342
-206.421	-200.000	0.025	-0.187
-205.406	-150.455	-0.275	-0.021
-204.392	-29.735	-0.179	0.101
-203.377	679.005	-0.023	-0.060
-202.363	-166.426	0.153	-0.006
-201.348	256.500	-0.160	0.272
-200.333	-108.605	-0.188	0.040
-199.319	65.195	-0.019	-0.019
-198.304	-17.329	0.084	-0.053
-197.290	186.296	-0.256	0.378
-196.275	-200.000	0.042	0.409
-195.260	-150.585	-0.246	0.019
-194.246	-200.000	-0.012	-0.084
-193.231	-21.291	-0.348	0.211
-192.217	-200.000	0.023	-0.207
-191.202	-200.000	-0.008	0.299
-190.187	381.892	0.059	0.120
-189.173	-39.301	0.206	0.107
-188.158	237.997	0.084	0.138
-187.144	-87.219	0.251	0.076
-186.129	-200.000	0.030	-0.169
-185.114	-47.971	-0.187	-0.090
-184.100	6.917	-0.059	-0.044
-183.085	800.000	-0.089	0.251
-182.071	12.833	-0.025	0.019
-181.056	82.580	0.493	0.530
-180.042	103.289	0.243	0.283
-179.027	361.902	0.093	0.185
-178.012	-50.415	-0.191	0.089
-176.998	-130.732	0.312	-0.042
-175.983	228.319	0.333	0.537
-174.969	-111.769	-0.127	-0.026
-173.954	-200.000	0.012	0.133
-172.939	133.674	0.190	0.244
-171.925	-148.608	0.206	-0.017
-170.910	91.143	0.138	0.153
-169.896	238.871	0.166	0.273
-168.881	70.724	-0.125	-0.128
-167.866	-200.000	0.074	0.361
-166.852	407.035	0.076	0.159
-165.837	161.318	0.122	0.170
-164.823	-149.900	-0.370	-0.029
-163.808	69.600	0.108	-0.110
-162.793	373.524	-0.057	-0.115
-161.779	800.000	-0.083	-0.348
-160.764	330.994	0.124	0.237
-159.750	-200.000	-0.011	0.280
-158.735	-200.000	-0.067	-0.375
-157.720	62.510	0.115	-0.114
-156.706	238.307	-0.187	0.308
-155.691	271.489	-0.108	0.188
-154.677	-200.000	-0.010	-0.143
-153.662	-50.910	0.158	0.073
-152.647	253.046	-0.057	0.097
-151.633	-28.143	0.175	-0.100
-150.618	-66.909	0.133	0.052
-149.604	150.138	0.116	-0.156
-148.589	11.833	0.087	-0.066
-147.574	320.438	0.155	-0.291
-146.560	-200.000	0.051	0.261
-145.545	-145.322	0.342	-0.031
-144.531	114.432	0.156	-0.189
-143.516	-200.000	-0.000	0.067
-142.502	-200.000	0.012	0.087
-141.487	-200.000	-0.015	-0.101
-140.472	-200.000	0.011	0.180
-139.458	142.176	-0.128	-0.168
-138.443	-200.000	-0.014	-0.322
-137.429	800.000	0.083	-0.270
-136.414	197.059	0.091	0.137
-135.399	-200.000	0.031	-0.134
-134.385	298.720	0.069	0.126
-133.370	215.593	0.111	0.174
-132.356	760.150	-0.048	-0.130
-131.341	-200.000	0.008	-0.046
-130.326	-49.020	0.147	-0.069
-129.312	747.181	-0.090	-0.239
-128.297	-68.761	0.041	-0.016
-127.283	-200.000	0.005	0.162
-126.268	187.555	-0.108	0.160
-125.253	-200.000	0.020	-0.260
-124.239	-200.000	-0.001	0.050
-123.224	159.973	0.166	-0.229
