DTS Sentinel unit serial number:	SN413079Multiplexer serial number:	ORYXHardware model number:	OX4-SRSoftware version number:	ORYX F/W v4.00 Oryx Data Collector v3.7.2.0data status	okinstallation	princeton_trtdifferential loss correction	single-endedforward channel	channel 2reverse channel	N/Adate	2019/09/19time	05:59:35forward acquisition time	60.00reverse acquisition time	0.00gamma	496.2192k internal	0.2351k external	0.2351temperature offset calibration	1.0015default loss term (dB/km)	0.3790temperature slope calibration	1.0000multiplexer offset coefficient	1.0000multiplexer slope coefficient	1.0000fibre end	0.00T internal ref (°C)	19.17T ext. ref 1 (°C)	0.59T ext. ref 2 (°C)	12.84length (m)	temperature (°C)	Stokes	anti-Stokes-747.200	37.393	-0.304	0.269
-746.185	-200.000	0.013	0.196
-745.171	-147.753	-0.201	-0.017
-744.156	47.634	-0.195	-0.182
-743.142	-63.200	0.435	-0.179
-742.127	146.523	-0.053	0.071
-741.112	-25.508	0.264	-0.156
-740.098	-200.000	0.002	0.240
-739.083	215.827	0.226	0.358
-738.069	-200.000	0.008	-0.164
-737.054	800.000	-0.046	-0.182
-736.039	-101.826	-0.547	-0.132
-735.025	29.787	-0.274	0.233
-734.010	-101.904	0.198	0.048
-732.996	-37.759	-0.223	-0.118
-731.981	74.647	0.272	0.286
-730.966	73.119	-0.265	-0.276
-729.952	-118.677	0.093	-0.016
-728.937	118.302	-0.259	-0.318
-727.923	173.540	0.206	0.296
-726.908	112.885	-0.209	-0.253
-725.894	23.531	0.164	0.134
-724.879	-200.000	0.010	0.225
-723.864	76.701	-0.172	-0.182
-722.850	-37.931	0.171	-0.091
-721.835	-38.211	-0.222	0.118
-720.821	19.434	-0.169	0.135
-719.806	-74.338	-0.294	0.106
-718.791	-13.641	-0.292	0.189
-717.777	-200.000	-0.020	0.544
-716.762	-200.000	0.023	-0.539
-715.748	219.975	-0.061	0.098
-714.733	-73.320	-0.198	0.072
-713.718	-6.086	0.374	-0.255
-712.704	-116.139	-0.315	0.058
-711.689	-200.000	0.036	0.240
-710.675	47.113	-0.138	-0.128
-709.660	-200.000	0.001	-0.554
-708.645	-35.783	0.132	0.071
-707.631	-158.013	0.226	0.013
-706.616	-14.907	0.228	0.146
-705.602	94.517	0.107	-0.121
-704.587	231.375	0.119	-0.194
-703.572	-8.276	0.222	-0.149
-702.558	27.985	-0.367	-0.308
-701.543	-141.694	0.364	-0.036
-700.529	-129.027	-0.471	-0.066
-699.514	-122.427	0.105	0.017
-698.499	800.000	-0.096	-0.382
-697.485	261.527	0.107	0.185
-696.470	-31.252	-0.284	0.159
-695.456	-200.000	-0.023	0.126
-694.441	800.000	-0.115	-0.386
-693.426	-200.000	0.027	-0.220
-692.412	146.135	0.059	0.079
-691.397	-141.353	-0.249	-0.025
-690.383	-200.000	0.035	-0.274
-689.368	23.125	0.182	0.149
-688.354	-155.805	0.311	0.020
-687.339	352.680	-0.076	0.149
-686.324	35.460	0.169	-0.148
-685.310	-200.000	-0.031	0.159
-684.295	-60.918	-0.300	0.126
-683.281	-96.521	-0.308	-0.081
-682.266	-200.000	0.018	-0.215
-681.251	596.730	0.019	-0.048
-680.237	-200.000	0.053	-0.434
-679.222	-95.074	0.348	-0.094
-678.208	716.303	-0.068	0.179
-677.193	58.896	0.155	0.152
-676.178	-200.000	-0.012	-0.231
-675.164	800.000	0.050	-0.199
-674.149	332.503	0.113	-0.217
-673.135	-106.128	-0.168	0.038
-672.120	-132.146	0.037	-0.005
-671.105	-81.267	-0.330	0.108
-670.091	404.107	-0.042	0.089
-669.076	-136.313	-0.405	-0.047
-668.062	-24.559	0.119	0.070
-667.047	-104.100	0.366	-0.085
-666.032	340.823	-0.101	0.196
-665.018	64.304	-0.176	0.176
-664.003	-15.146	0.293	0.187
-662.989	43.197	0.241	-0.219
-661.974	-50.604	-0.138	-0.065
-660.959	-140.160	-0.265	-0.028
-659.945	166.225	0.027	-0.039
-658.930	302.796	0.025	-0.047
-657.916	101.589	-0.298	0.346
-656.901	-82.999	0.086	0.028
-655.886	-41.786	-0.093	-0.048
-654.872	-46.276	0.338	0.165
-653.857	418.058	0.086	0.182
-652.843	60.835	-0.267	0.263
-651.828	-109.123	0.228	-0.048
-650.814	-99.822	-0.224	0.056
-649.799	31.165	-0.119	0.101
-648.784	-20.666	-0.246	-0.150
-647.770	280.124	-0.112	0.199
-646.755	46.347	0.143	-0.132
-645.741	131.870	0.014	0.018
-644.726	-147.184	-0.274	0.023
-643.711	257.037	-0.141	-0.241
-642.697	321.767	-0.089	0.168
-641.682	-132.422	-0.168	0.022
-640.668	-173.376	0.111	-0.003
-639.653	539.415	0.107	-0.253
-638.638	-200.000	-0.028	0.179
-637.624	-125.401	-0.084	0.013
-636.609	239.913	-0.079	-0.130
-635.595	-7.555	0.306	-0.206
-634.580	800.000	0.053	0.214
-633.565	61.729	-0.065	0.064
-632.551	-118.739	0.423	-0.074
-631.536	-200.000	0.029	-0.129
-630.522	249.254	-0.138	-0.232
-629.507	-60.936	0.317	-0.133
-628.492	595.295	-0.110	-0.270
-627.478	-109.556	-0.419	0.088
-626.463	-200.000	0.001	0.116
-625.449	-29.727	0.250	-0.142
-624.434	105.694	0.129	0.151
-623.419	800.000	0.035	-0.140
-622.405	-200.000	-0.012	0.096
-621.390	800.000	0.034	-0.102
-620.376	-23.697	0.178	0.106
-619.361	132.468	-0.130	-0.166
-618.346	-138.144	0.387	0.043
-617.332	800.000	-0.113	-0.313
-616.317	-133.320	0.127	-0.016
-615.303	-98.899	0.391	0.099
-614.288	-200.000	0.017	-0.100
-613.273	-200.000	0.020	0.230
-612.259	-21.166	0.158	0.096
-611.244	-55.917	0.279	-0.124
-610.230	-179.688	-0.134	-0.003
-609.215	-187.846	0.189	0.002
-608.201	-200.000	0.008	-0.120
-607.186	6.875	0.182	0.134
-606.171	51.319	0.282	-0.266
-605.157	449.470	-0.259	0.568
-604.142	-44.445	0.316	-0.157
-603.128	117.651	0.133	-0.162
-602.113	33.721	-0.310	-0.268
-601.098	-163.323	0.377	-0.018
-600.084	117.895	0.268	-0.328
-599.069	227.743	-0.164	-0.264
-598.055	-43.079	-0.309	0.156
-597.040	-37.102	-0.244	-0.130
-596.025	-112.264	0.185	-0.037
-595.011	800.000	-0.030	0.094
-593.996	800.000	0.047	-0.133
-592.982	800.000	-0.125	0.350
-591.967	-0.104	-0.149	0.105
-590.952	304.660	-0.075	-0.137
-589.938	800.000	-0.065	-0.234
-588.923	-191.770	0.251	-0.002
-587.909	-152.432	-0.388	-0.028
-586.894	-98.528	0.294	0.075
-585.879	-29.936	-0.117	-0.066
-584.865	-157.015	-0.067	0.004
-583.850	-171.967	-0.150	0.005
-582.836	-59.947	0.130	0.055
-581.821	-200.000	0.083	-0.397
-580.806	-64.441	0.249	0.100
-579.792	245.779	-0.050	0.084
-578.777	-36.782	0.165	-0.088
-577.763	70.133	0.148	-0.152
-576.748	-199.622	0.191	-0.001
-575.733	186.312	0.173	-0.255
-574.719	612.757	0.137	0.340
-573.704	165.065	-0.014	0.019
-572.690	-140.956	0.039	0.004
-571.675	-132.866	0.202	-0.026
-570.661	-200.000	0.008	0.039
-569.646	168.154	-0.120	0.169
-568.631	-141.809	-0.208	-0.021
-567.617	733.918	-0.110	-0.292
-566.602	-200.000	-0.000	-0.093
-565.588	13.820	-0.085	-0.066
-564.573	349.753	-0.087	-0.170
-563.558	174.584	-0.065	0.094
-562.544	266.400	0.085	-0.146
-561.529	-200.000	0.001	-0.164
-560.515	323.721	-0.069	-0.130
-559.500	-89.075	-0.162	-0.047
-558.485	-47.941	-0.173	-0.083
-557.471	-118.254	0.274	-0.048
-556.456	-39.151	-0.143	-0.074
-555.442	-39.687	0.306	0.159
-554.427	213.029	0.102	-0.159
-553.412	11.043	-0.114	0.086
-552.398	0.162	-0.192	-0.136
-551.383	589.179	-0.041	-0.099
-550.369	-200.000	-0.027	0.296
-549.354	286.123	-0.124	-0.222
-548.339	800.000	0.053	-0.150
-547.325	-58.366	0.262	0.113
-546.310	29.417	0.224	0.188
-545.296	-62.127	0.063	0.026
-544.281	-200.000	0.042	-0.382
-543.266	31.229	-0.208	-0.177
-542.252	17.388	-0.286	-0.225
-541.237	-200.000	-0.017	0.302
-540.223	-76.897	-0.137	-0.048
-539.208	160.771	0.191	0.265
-538.193	625.754	0.058	0.145
-537.179	761.768	0.053	-0.142
-536.164	644.815	-0.050	-0.126
-535.150	-200.000	0.041	0.248
-534.135	339.044	-0.049	-0.094
-533.121	54.745	-0.062	0.059
-532.106	-200.000	-0.032	-0.333
-531.091	-155.289	0.162	-0.010
-530.077	-73.629	0.182	0.066
-529.062	-14.882	0.165	0.105
-528.048	800.000	0.079	0.323
-527.033	-62.626	0.164	-0.067
-526.018	-135.770	0.321	-0.038
-525.004	-29.879	-0.336	0.190
-523.989	-16.567	0.219	-0.137
-522.975	-22.499	-0.080	-0.048
-521.960	-144.625	-0.113	-0.010
-520.945	-28.148	-0.100	0.057
-519.931	-44.138	-0.172	-0.086
-518.916	800.000	0.004	0.011
-517.902	-14.700	0.196	0.125
-516.887	45.698	0.229	0.209
-515.872	-200.000	-0.037	-0.269
-514.858	425.745	0.110	-0.234
-513.843	-168.220	-0.130	-0.005
-512.829	800.000	-0.019	-0.066
-511.814	-43.851	0.297	0.148
-510.799	19.621	-0.204	-0.162
-509.785	-65.994	0.091	0.036
-508.770	-149.589	-0.309	-0.024
-507.756	-33.519	0.266	0.145
-506.741	168.871	-0.192	-0.271
-505.726	-200.000	0.035	-0.326
-504.712	-48.491	-0.286	0.136
-503.697	-138.002	0.479	0.053
-502.683	-200.000	0.000	-0.067
-501.668	-193.832	-0.436	0.004
-500.653	127.326	-0.212	0.266
-499.639	179.404	0.113	0.164
-498.624	-54.264	0.375	0.168
-497.610	374.911	0.050	-0.100
-496.595	137.281	-0.008	0.010
-495.581	-63.766	-0.231	0.094
-494.566	-200.000	-0.057	-0.360
-493.551	800.000	0.032	-0.105
-492.537	281.700	0.136	-0.241
-491.522	800.000	-0.116	-0.373
-490.508	78.168	-0.183	0.193
-489.493	-166.784	-0.188	-0.008
-488.478	678.253	0.081	0.207
-487.464	52.560	-0.199	0.188
-486.449	800.000	-0.134	0.367
-485.435	-58.616	-0.304	0.130
-484.420	49.167	0.081	0.076
-483.405	-200.000	0.010	-0.192
-482.391	204.584	-0.193	-0.296
-481.376	800.000	0.117	0.349
-480.362	-200.000	-0.063	0.342
-479.347	77.963	-0.040	0.042
-478.332	-118.154	-0.239	-0.042
-477.318	239.237	0.086	-0.142
-476.303	375.597	0.127	0.255
-475.289	-116.622	-0.375	0.068
-474.274	-200.000	0.014	-0.182
-473.259	178.700	-0.190	0.275
-472.245	-149.758	0.238	-0.018
-471.230	154.894	0.038	0.052
-470.216	-140.483	-0.122	-0.013
-469.201	800.000	0.064	-0.273
-468.186	-46.554	0.159	-0.077
-467.172	-122.930	-0.226	-0.036
-466.157	-109.158	-0.407	0.085
-465.143	-200.000	-0.015	-0.233
-464.128	-174.450	-0.207	-0.006
-463.113	800.000	0.030	-0.116
-462.099	471.317	-0.132	-0.292
-461.084	-200.000	0.027	0.197
-460.070	329.218	0.109	0.206
-459.055	713.392	-0.046	-0.121
-458.040	61.639	-0.073	-0.072
-457.026	-18.102	-0.121	0.075
-456.011	-160.282	0.027	0.001
-454.997	-38.797	0.248	-0.129
-453.982	-200.000	-0.003	0.129
-452.968	172.387	-0.099	-0.140
-451.953	268.649	0.062	0.107
-450.938	-67.221	-0.205	0.080
-449.924	-7.342	-0.116	0.078
-448.909	310.940	-0.121	-0.224
-447.895	236.808	0.074	-0.121
-446.880	-93.859	0.250	0.068
-445.865	-176.949	0.379	0.009
-444.851	-126.582	-0.329	0.048
-443.836	95.339	0.102	-0.115
-442.822	-15.394	-0.177	0.111
-441.807	49.734	-0.140	-0.130
-440.792	11.257	-0.172	-0.130
-439.778	-183.117	0.081	-0.001
-438.763	-200.000	-0.018	-0.096
-437.749	-136.935	0.197	0.022
-436.734	-200.000	-0.058	0.287
-435.719	-161.381	-0.062	-0.003
-434.705	-18.791	-0.147	-0.091
-433.690	-58.906	-0.045	0.019
-432.676	-41.744	0.061	0.031
-431.661	124.035	0.206	0.256
-430.646	-54.432	0.147	0.065
-429.632	-100.281	0.128	-0.031
-428.617	-166.822	-0.382	0.015
-427.603	80.893	-0.169	-0.180
-426.588	-170.543	0.279	0.010
-425.573	447.845	0.049	-0.106
-424.559	192.470	0.113	-0.169
-423.544	-0.784	0.185	-0.129
-422.530	591.849	-0.074	-0.179
-421.515	19.221	0.171	0.136
-420.500	-11.372	0.235	-0.152
-419.486	196.013	-0.095	0.143
-418.471	80.175	-0.265	-0.281
-417.457	8.704	-0.405	-0.301
-416.442	-200.000	0.021	-0.140
-415.428	-200.000	0.002	0.244
-414.413	-126.931	0.072	0.010
-413.398	800.000	-0.069	0.200
-412.384	-100.431	0.061	-0.015
-411.369	-19.831	-0.159	-0.097
-410.355	-2.228	-0.159	0.110
-409.340	-200.000	-0.053	0.331
-408.325	95.457	-0.255	0.286
-407.311	-71.769	0.199	-0.073
-406.296	14.847	-0.046	0.036
-405.282	246.421	0.126	-0.209
-404.267	59.759	0.039	-0.038
-403.252	800.000	0.108	-0.364
-402.238	60.684	-0.232	0.227
-401.223	-200.000	0.009	-0.147
-400.209	463.267	0.135	-0.297
-399.194	-78.964	-0.038	0.013
-398.179	-29.826	0.310	-0.174
-397.165	800.000	0.070	-0.229
-396.150	123.668	-0.232	-0.286
-395.136	418.740	-0.031	-0.065
-394.121	409.619	0.164	0.342
-393.106	-200.000	0.005	-0.057
-392.092	2.943	0.137	-0.098
-391.077	121.798	0.170	0.209
-390.063	-91.291	0.393	0.111
-389.048	40.302	0.148	0.131
-388.033	167.308	-0.054	-0.075
-387.019	-169.087	-0.342	-0.013
-386.004	29.969	-0.224	0.188
-384.990	-93.875	-0.144	0.039
-383.975	-42.688	-0.107	-0.053
-382.960	10.453	-0.277	0.208
-381.946	23.425	0.186	-0.151
-380.931	800.000	0.119	-0.328
-379.917	-200.000	0.006	-0.049
-378.902	-150.483	0.235	0.018
-377.888	54.718	-0.275	-0.261
-376.873	-111.299	-0.107	0.022
-375.858	20.352	0.104	-0.082
-374.844	293.261	0.038	-0.069
-373.829	164.808	-0.070	-0.097
-372.815	800.000	-0.043	0.148
-371.800	26.085	-0.379	0.311
-370.785	365.158	-0.193	0.382
-369.771	276.423	-0.135	0.236
-368.756	-88.105	-0.059	-0.017
-367.742	596.610	-0.204	0.496
-366.727	-77.913	-0.076	-0.026
-365.712	-200.000	0.017	-0.153
-364.698	-135.192	0.453	0.053
-363.683	510.008	-0.045	-0.103
-362.669	-102.075	-0.531	-0.126
-361.654	800.000	0.009	-0.033
-360.639	284.604	0.082	-0.145
-359.625	305.157	0.137	-0.250
-358.610	488.789	0.037	-0.084
-357.596	-0.800	-0.202	0.141
-356.581	349.067	0.159	-0.309
-355.566	-134.833	-0.262	0.031
-354.552	66.357	-0.307	-0.307
-353.537	-143.973	-0.307	0.028
-352.523	-101.174	0.150	0.036
-351.508	133.460	-0.099	-0.126
-350.493	-43.111	0.259	0.129
-349.479	71.249	-0.049	-0.050
-348.464	-200.000	-0.072	-0.441
-347.450	-200.000	-0.053	-0.232
-346.435	-18.818	0.301	-0.184
-345.420	-10.110	-0.095	0.062
-344.406	8.286	0.119	0.088
-343.391	25.185	0.161	-0.131
-342.377	278.074	0.125	0.219
-341.362	-60.478	0.546	0.228
-340.348	-117.144	0.166	-0.030
-339.333	-159.429	0.313	-0.017
-338.318	-45.083	-0.061	-0.030
-337.304	-63.640	-0.235	-0.095
-336.289	-1.072	-0.175	0.121
-335.275	-200.000	-0.024	-0.216
-334.260	752.916	0.062	-0.166
-333.245	42.304	0.092	0.082
-332.231	72.714	0.159	-0.163
-331.216	800.000	-0.163	-0.483
-330.202	21.805	-0.288	0.230
-329.187	-74.684	-0.183	0.065
-328.172	15.589	0.089	0.069
-327.158	261.512	0.167	-0.284
-326.143	17.488	-0.229	-0.178
-325.129	800.000	0.044	-0.130
-324.114	-113.741	0.325	0.062
-323.099	-200.000	-0.025	-0.126
-322.085	-3.570	-0.179	-0.122
-321.070	-38.156	-0.387	0.202
-320.056	-10.365	-0.285	0.186
-319.041	332.616	0.095	0.179
-318.026	312.821	0.109	0.202
-317.012	800.000	-0.052	0.168
-315.997	236.904	-0.162	0.263
-314.983	-37.981	-0.056	-0.029
-313.968	171.831	0.106	0.149
-312.953	-167.679	-0.108	0.004
-311.939	417.528	0.166	-0.349
-310.924	708.308	-0.106	0.275
-309.910	-200.000	0.008	-0.108
-308.895	800.000	-0.054	-0.173
-307.880	54.146	0.207	-0.196
-306.866	-200.000	0.008	-0.237
-305.851	336.842	0.126	0.240
-304.837	387.288	-0.178	-0.361
-303.822	791.013	-0.099	0.267
-302.807	-88.591	-0.490	0.143
-301.793	46.469	-0.075	-0.069
-300.778	7.263	0.062	-0.046
-299.764	-73.721	-0.179	0.064
-298.749	-105.299	-0.047	-0.011
-297.735	37.270	0.124	-0.107
-296.720	800.000	0.178	0.546
-295.705	-64.293	-0.220	0.088
-294.691	-69.543	-0.189	-0.071
-293.676	-200.000	-0.045	0.326
-292.662	-115.231	0.210	-0.039
-291.647	82.217	0.177	-0.188
-290.632	-163.160	-0.218	0.010
-289.618	-114.574	-0.357	-0.067
-288.603	-102.434	0.335	0.079
-287.589	-38.920	-0.266	-0.137
-286.574	-200.000	0.044	0.272
-285.559	-200.000	-0.017	-0.201
-284.545	-58.670	0.062	-0.026
-283.530	31.917	0.080	-0.068
-282.516	-33.637	-0.277	0.150
-281.501	69.102	0.368	0.371
-280.486	-200.000	0.007	-0.153
-279.472	-91.912	0.056	0.016
-278.457	136.702	-0.298	-0.381
-277.443	644.020	-0.073	-0.182
-276.428	150.574	0.261	-0.347
-275.413	-61.951	-0.220	-0.090
-274.399	-44.542	0.190	-0.093
-273.384	-10.340	0.150	-0.098
-272.370	594.034	-0.051	-0.124
-271.355	-15.242	-0.129	0.081
-270.340	222.386	-0.091	0.144
-269.326	800.000	-0.074	0.240
-268.311	23.133	0.156	-0.126
-267.297	-200.000	-0.004	0.239
-266.282	800.000	0.014	-0.059
-265.267	800.000	0.087	-0.340
-264.253	435.406	0.055	-0.118
-263.238	139.833	0.253	0.327
-262.224	-106.864	-0.142	-0.031
-261.209	9.776	-0.273	-0.203
-260.195	-200.000	-0.005	0.059
-259.180	-131.729	0.124	-0.016
-258.165	-200.000	-0.022	0.424
-257.151	-45.181	0.215	-0.105
-256.136	-38.902	0.015	-0.008
-255.122	13.377	-0.183	0.139
-254.107	390.720	0.148	0.301
-253.092	-200.000	0.028	-0.244
-252.078	779.436	0.136	-0.363
-251.063	328.203	-0.117	0.220
-250.049	-109.451	-0.139	-0.029
-249.034	-61.387	0.095	-0.039
-248.019	164.646	-0.179	0.248
-247.005	19.899	-0.062	-0.049
-245.990	-20.693	-0.118	0.071
-244.976	34.574	-0.119	0.102
-243.961	800.000	-0.110	0.413
-242.946	-42.053	0.105	0.053
-241.932	-200.000	-0.004	0.145
-240.917	295.154	-0.156	0.279
-239.903	-85.612	0.420	0.128
-238.888	-29.872	-0.285	0.159
-237.873	800.000	0.036	0.134
-236.859	-83.381	-0.370	0.116
-235.844	-19.663	0.428	-0.259
-234.830	-44.678	0.109	-0.053
-233.815	-81.353	-0.153	-0.049
-232.800	481.386	-0.133	0.296
-231.786	-62.550	0.320	0.130
-230.771	-136.730	0.232	0.026
-229.757	800.000	-0.138	0.528
-228.742	-56.479	0.369	0.160
-227.727	366.085	-0.062	0.122
-226.713	-200.000	-0.070	-0.411
-225.698	616.140	-0.092	0.225
-224.684	-42.201	-0.142	-0.071
-223.669	199.994	0.183	-0.274
-222.655	-200.000	0.031	0.290
-221.640	76.187	-0.056	0.058
-220.625	239.375	0.252	0.410
-219.611	76.833	-0.218	-0.226
-218.596	23.565	0.190	-0.153
-217.582	320.121	-0.066	-0.122
-216.567	-26.120	-0.392	0.225
-215.552	800.000	0.073	0.224
-214.538	162.424	-0.108	0.149
-213.523	-160.322	0.182	-0.010
-212.509	800.000	0.099	0.402
-211.494	-200.000	0.074	0.372
-210.479	-15.134	-0.085	0.053
-209.465	102.737	0.178	0.203
-208.450	-200.000	0.024	0.140
-207.436	800.000	-0.072	0.255
-206.421	-53.240	-0.059	-0.027
-205.406	-116.608	0.089	0.016
-204.392	-120.995	-0.179	0.029
-203.377	-111.597	0.108	0.021
-202.363	145.219	-0.149	-0.195
-201.348	-200.000	0.039	-0.279
-200.333	-102.456	-0.257	-0.060
-199.319	-142.704	-0.211	0.020
-198.304	800.000	0.035	-0.145
-197.290	-91.494	0.442	0.123
-196.275	150.755	0.057	0.076
-195.260	-64.944	-0.361	0.143
-194.246	41.326	0.198	0.175
-193.231	-200.000	0.028	0.340
-192.217	650.662	0.070	-0.175
-191.202	-98.158	-0.189	0.048
-190.187	-200.000	-0.063	0.280
-189.173	800.000	0.052	0.198
-188.158	-132.479	0.351	0.044
-187.144	-112.849	0.166	0.032
-186.129	52.351	-0.119	0.111
-185.114	86.596	0.146	-0.157
-184.100	-200.000	0.030	0.134
-183.085	-41.194	-0.017	0.008
-182.071	319.648	0.178	-0.329
-181.056	3.573	0.062	-0.044
-180.042	-200.000	0.017	0.214
-179.027	-200.000	-0.064	-0.281
-178.012	-44.544	0.217	-0.106
-176.998	-20.081	0.408	0.246
-175.983	-82.815	-0.184	0.058
-174.969	-200.000	-0.074	0.422
-173.954	214.908	-0.082	0.127
-172.939	420.571	0.202	0.423
-171.925	305.232	-0.119	0.216
-170.910	-56.129	-0.147	-0.064
-169.896	-51.738	0.217	-0.099
-168.881	800.000	0.002	0.008
-167.866	-46.481	-0.180	-0.086
-166.852	-86.501	0.270	0.081
-165.837	-31.954	0.127	-0.069
-164.823	140.406	-0.092	-0.118
-163.808	357.259	-0.071	0.138
-162.793	800.000	0.062	0.174
-161.779	163.135	-0.129	-0.177
-160.764	178.848	-0.085	0.122
-159.750	-12.727	0.351	0.223
-158.735	157.369	-0.148	-0.199
-157.720	800.000	-0.020	-0.056
-156.706	-81.480	0.093	-0.030
-155.691	800.000	-0.088	-0.302
-154.677	-103.457	0.308	0.071
-153.662	0.683	0.227	-0.158
-152.647	139.430	0.227	0.291
-151.633	144.825	0.067	0.088
-150.618	-200.000	-0.062	-0.274
-149.604	12.222	-0.102	-0.077
-148.589	800.000	0.024	0.079
-147.574	-200.000	0.005	0.142
-146.560	169.336	0.201	-0.280
-145.545	122.705	-0.100	0.122
-144.531	-200.000	-0.009	0.406
-143.516	-184.360	-0.199	-0.003
-142.502	259.125	0.183	-0.308
-141.487	-132.514	-0.048	0.006
-140.472	48.024	-0.261	0.238
-139.458	800.000	-0.056	0.188
-138.443	137.052	0.046	-0.058
-137.429	-67.650	-0.269	-0.103
-136.414	-109.817	0.158	-0.032
-135.399	57.666	0.224	-0.214
-134.385	-21.472	0.133	0.079
-133.370	100.844	0.355	0.402
-132.356	800.000	-0.041	-0.121
-131.341	276.446	-0.098	0.170
-130.326	800.000	0.046	0.141
-129.312	259.300	-0.165	0.278
-128.297	-200.000	-0.042	0.212
-127.283	-28.293	0.179	-0.101
-126.268	-85.904	0.273	0.082
-125.253	-158.442	-0.330	0.019
-124.239	-33.856	-0.122	-0.065
-123.224	-200.000	-0.036	0.411
-122.210	46.619	-0.153	0.138
-121.195	-86.024	0.253	0.076
