DTS Sentinel unit serial number:	SN413079Multiplexer serial number:	ORYXHardware model number:	OX4-SRSoftware version number:	ORYX F/W v4.00 Oryx Data Collector v3.7.2.0data status	okinstallation	princeton_trtdifferential loss correction	single-endedforward channel	channel 2reverse channel	N/Adate	2019/09/14time	18:07:35forward acquisition time	60.00reverse acquisition time	0.00gamma	496.2192k internal	0.2314k external	0.2314temperature offset calibration	1.0110default loss term (dB/km)	0.3790temperature slope calibration	1.0000multiplexer offset coefficient	1.0000multiplexer slope coefficient	1.0000fibre end	0.00T internal ref (°C)	37.19T ext. ref 1 (°C)	4.95T ext. ref 2 (°C)	31.56length (m)	temperature (°C)	Stokes	anti-Stokes-747.200	-48.988	0.059	-0.029
-746.185	-200.000	0.038	0.172
-745.171	7.488	0.237	0.179
-744.156	-200.000	-0.049	0.289
-743.142	48.574	-0.132	-0.126
-742.127	-200.000	0.022	0.398
-741.112	465.802	0.164	-0.372
-740.098	800.000	-0.112	-0.378
-739.083	5.511	-0.130	0.098
-738.069	24.158	-0.122	-0.102
-737.054	334.641	-0.112	0.220
-736.039	614.569	-0.056	-0.142
-735.025	34.989	0.170	0.151
-734.010	-1.068	-0.133	-0.096
-732.996	2.468	-0.294	-0.216
-731.981	-124.295	0.142	0.023
-730.966	800.000	0.055	0.155
-729.952	-67.478	0.276	-0.110
-728.937	-47.763	-0.319	-0.157
-727.923	16.394	-0.241	0.193
-726.908	-200.000	0.027	-0.231
-725.894	27.634	0.266	-0.227
-724.879	-69.017	-0.586	-0.229
-723.864	-36.788	0.141	-0.076
-722.850	-188.103	0.272	0.004
-721.835	-127.324	0.046	-0.007
-720.821	-145.319	-0.298	0.027
-719.806	-200.000	0.035	-0.288
-718.791	-96.781	0.251	-0.067
-717.777	-200.000	-0.027	0.122
-716.762	-200.000	-0.004	0.060
-715.748	-200.000	-0.003	-0.080
-714.733	-17.452	-0.133	0.085
-713.718	-99.846	-0.019	-0.005
-712.704	139.711	-0.246	0.328
-711.689	133.494	-0.089	0.117
-710.675	-111.353	-0.321	0.066
-709.660	-25.725	-0.126	-0.075
-708.645	-170.588	0.132	-0.005
-707.631	800.000	-0.055	-0.221
-706.616	-100.274	0.297	0.075
-705.602	15.629	0.089	0.071
-704.587	229.727	-0.258	-0.426
-703.572	-200.000	0.019	-0.316
-702.558	15.074	-0.250	0.198
-701.543	24.257	0.352	0.294
-700.529	234.922	0.098	0.164
-699.514	-63.376	-0.290	0.121
-698.499	-200.000	0.041	-0.342
-697.485	169.950	0.134	-0.194
-696.470	-37.252	0.120	0.065
-695.456	800.000	0.091	-0.307
-694.441	-16.251	-0.099	0.064
-693.426	-72.561	-0.408	-0.152
-692.412	-161.795	-0.135	0.007
-691.397	1.247	-0.064	0.047
-690.383	-200.000	-0.031	-0.217
-689.368	-49.538	0.135	-0.065
-688.354	672.983	-0.083	-0.217
-687.339	261.576	-0.211	-0.371
-686.324	-43.616	0.237	-0.121
-685.310	65.993	-0.168	-0.172
-684.295	15.524	-0.301	-0.239
-683.281	176.198	0.279	0.410
-682.266	-58.076	0.133	0.059
-681.251	145.922	-0.261	-0.354
-680.237	-97.836	-0.406	0.106
-679.222	-28.148	-0.082	0.048
-678.208	-66.754	0.100	0.040
-677.193	-139.402	0.149	0.016
-676.178	-76.002	-0.308	-0.110
-675.164	-200.000	-0.036	0.238
-674.149	-135.443	-0.174	-0.021
-673.135	308.035	-0.085	0.161
-672.120	-200.000	0.030	0.184
-671.105	114.225	-0.100	0.123
-670.091	800.000	-0.050	0.183
-669.076	161.625	-0.072	-0.102
-668.062	800.000	-0.011	0.038
-667.047	-200.000	-0.024	-0.260
-666.032	24.830	0.101	-0.085
-665.018	-48.805	-0.024	0.012
-664.003	-67.657	0.246	-0.097
-662.989	-140.519	0.123	0.013
-661.974	800.000	-0.104	0.401
-660.959	-200.000	0.005	-0.032
-659.945	488.295	-0.126	0.291
-658.930	106.384	0.192	0.230
-657.916	-200.000	0.007	-0.039
-656.901	-200.000	0.010	-0.332
-655.886	-200.000	-0.036	0.358
-654.872	130.407	-0.275	-0.356
-653.857	274.235	0.139	-0.249
-652.843	800.000	-0.066	-0.290
-651.828	-89.668	-0.294	0.087
-650.814	16.402	0.283	0.226
-649.799	-46.745	-0.112	0.055
-648.784	-200.000	-0.017	-0.219
-647.770	-108.211	-0.109	0.024
-646.755	-95.961	-0.221	-0.059
-645.741	220.163	0.214	-0.346
-644.726	-200.000	-0.024	-0.182
-643.711	800.000	-0.116	-0.398
-642.697	-110.330	0.194	-0.041
-641.682	73.365	0.183	0.193
-640.668	-76.697	-0.177	-0.063
-639.653	-112.668	-0.132	0.027
-638.638	15.122	0.124	0.098
-637.624	-111.788	0.242	0.049
-636.609	-25.105	-0.341	-0.204
-635.595	92.214	-0.068	-0.078
-634.580	-36.593	-0.299	0.163
-633.565	156.521	-0.140	-0.195
-632.551	-200.000	-0.027	0.221
-631.536	104.924	0.143	-0.170
-630.522	800.000	-0.094	-0.379
-629.507	-58.045	0.211	-0.093
-628.492	-200.000	0.030	-0.232
-627.478	-42.851	-0.268	0.137
-626.463	-43.998	-0.042	0.021
-625.449	-200.000	0.052	-0.259
-624.434	-75.980	-0.178	0.064
-623.419	-143.555	0.186	0.018
-622.405	-93.671	-0.393	-0.109
-621.390	-136.884	0.103	0.012
-620.376	530.555	-0.077	0.185
-619.361	78.574	-0.333	0.359
-618.346	19.133	-0.292	0.237
-617.332	147.055	-0.093	0.127
-616.317	-200.000	-0.012	0.132
-615.303	-130.011	0.210	-0.029
-614.288	-200.000	-0.058	0.378
-613.273	-50.701	0.075	-0.036
-612.259	-200.000	-0.009	0.000
-611.244	127.727	-0.006	0.008
-610.230	-200.000	0.040	-0.237
-609.215	273.563	0.153	-0.272
-608.201	-50.988	-0.093	-0.044
-607.186	237.483	0.030	0.049
-606.171	-177.646	0.280	-0.007
-605.157	800.000	0.052	-0.162
-604.142	-135.139	0.387	-0.047
-603.128	-200.000	-0.009	-0.137
-602.113	548.045	0.111	-0.268
-601.098	338.081	-0.060	-0.118
-600.084	-22.410	-0.146	-0.089
-599.069	-200.000	0.010	0.047
-598.055	-200.000	0.132	-0.000
-597.040	62.866	-0.136	0.137
-596.025	-135.293	0.226	0.027
-595.011	572.476	-0.034	-0.083
-593.996	800.000	0.055	0.158
-592.982	-88.003	-0.180	0.055
-591.967	81.837	-0.090	0.098
-590.952	278.429	0.039	0.070
-589.938	580.776	-0.103	-0.253
-588.923	-21.093	-0.087	-0.054
-587.909	-76.041	-0.103	-0.037
-586.894	-40.551	-0.287	-0.150
-585.879	474.985	-0.032	-0.072
-584.865	94.219	0.114	-0.130
-583.850	-200.000	-0.017	-0.182
-582.836	-140.339	0.163	0.017
-581.821	342.023	0.092	0.181
-580.806	800.000	0.070	-0.214
-579.792	-108.885	0.010	-0.002
-578.777	800.000	0.011	0.040
-577.763	-200.000	0.049	0.309
-576.748	88.943	0.099	0.111
-575.733	-200.000	-0.006	0.149
-574.719	-92.913	-0.287	-0.081
-573.704	-82.964	0.365	0.119
-572.690	-41.288	-0.154	-0.080
-571.675	-103.744	0.492	0.116
-570.661	75.669	0.124	-0.132
-569.646	-120.263	-0.269	-0.046
-568.631	-200.000	-0.007	0.160
-567.617	73.221	-0.206	-0.217
-566.602	-151.682	-0.263	0.020
-565.588	-200.000	-0.020	0.160
-564.573	26.616	-0.244	0.206
-563.558	-119.875	0.116	-0.020
-562.544	-94.046	-0.084	0.023
-561.529	522.572	0.044	0.104
-560.515	-86.437	-0.214	0.066
-559.500	-6.604	0.326	0.224
-558.485	-90.460	-0.082	-0.024
-557.471	800.000	0.129	-0.450
-556.456	-37.404	-0.114	-0.061
-555.442	44.619	-0.118	0.110
-554.427	-11.681	0.348	0.230
-553.412	-200.000	0.022	-0.279
-552.398	-200.000	-0.043	0.413
-551.383	-39.450	0.142	0.075
-550.369	-124.398	0.170	0.027
-549.354	-85.561	-0.405	-0.127
-548.339	-102.361	-0.168	0.041
-547.325	-29.011	0.155	-0.090
-546.310	-200.000	-0.015	0.228
-545.296	-58.909	-0.032	-0.014
-544.281	-138.617	0.240	-0.026
-543.266	-200.000	0.006	0.037
-542.252	-6.698	-0.079	0.054
-541.237	-200.000	-0.033	0.184
-540.223	800.000	0.043	-0.119
-539.208	172.473	0.273	0.395
-538.193	-119.659	0.134	0.023
-537.179	-107.949	-0.087	0.019
-536.164	-103.069	0.117	-0.028
-535.150	245.653	-0.130	-0.219
-534.135	-172.939	-0.070	0.002
-533.121	169.392	-0.106	0.153
-532.106	406.865	0.126	-0.268
-531.091	-124.659	-0.294	-0.046
-530.077	-200.000	-0.044	-0.223
-529.062	-47.812	0.337	-0.164
-528.048	365.891	-0.127	-0.258
-527.033	-160.930	-0.204	0.011
-526.018	66.624	-0.102	-0.104
-525.004	753.749	0.080	-0.218
-523.989	-20.947	-0.108	0.067
-522.975	-167.731	0.086	-0.003
-521.960	343.829	0.160	0.316
-520.945	-31.135	-0.178	-0.101
-519.931	-57.692	0.317	0.140
-518.916	-200.000	-0.039	-0.240
-517.902	-54.724	0.196	-0.089
-516.887	-74.680	0.280	-0.101
-515.872	136.071	0.219	-0.287
-514.858	-29.990	-0.219	-0.125
-513.843	800.000	0.098	-0.319
-512.829	289.004	-0.124	-0.225
-511.814	-200.000	0.050	-0.413
-510.799	-47.444	0.246	0.120
-509.785	-45.959	0.156	-0.077
-508.770	-31.227	-0.199	0.113
-507.756	800.000	0.050	-0.218
-506.741	-37.847	-0.266	-0.142
-505.726	-34.850	0.171	0.094
-504.712	-68.599	-0.064	-0.025
-503.697	-200.000	0.016	-0.142
-502.683	104.719	-0.222	0.262
-501.668	-200.000	0.046	0.237
-500.653	173.365	0.258	0.374
-499.639	46.873	-0.079	-0.074
-498.624	-200.000	-0.026	0.141
-497.610	-54.087	-0.151	-0.069
-496.595	301.125	0.115	0.214
-495.581	64.506	-0.249	0.252
-494.566	800.000	-0.057	0.222
-493.551	-53.285	0.181	0.083
-492.537	-200.000	0.065	-0.297
-491.522	3.788	0.190	0.139
-490.508	-200.000	-0.002	-0.089
-489.493	185.871	0.088	0.131
-488.478	-141.287	0.265	-0.027
-487.464	800.000	-0.063	0.211
-486.449	-4.985	0.147	-0.102
-485.435	204.111	0.041	-0.064
-484.420	669.539	-0.072	0.188
-483.405	-124.307	-0.286	-0.045
-482.391	-147.155	0.156	-0.013
-481.376	-200.000	-0.033	0.208
-480.362	-200.000	-0.067	0.394
-479.347	15.450	-0.181	-0.143
-478.332	-200.000	0.013	-0.116
-477.318	-155.477	0.168	-0.011
-476.303	-169.344	-0.181	-0.007
-475.289	639.208	-0.098	-0.249
-474.274	22.957	0.309	-0.254
-473.259	189.757	0.039	0.059
-472.245	139.481	0.237	-0.312
-471.230	-200.000	0.024	-0.198
-470.216	-200.000	0.046	-0.481
-469.201	800.000	-0.033	-0.095
-468.186	-90.988	-0.233	-0.067
-467.172	-200.000	-0.032	-0.148
-466.157	-130.889	-0.231	0.031
-465.143	24.334	-0.308	0.256
-464.128	-187.178	0.172	0.002
-463.113	-200.000	-0.014	0.089
-462.099	-70.100	0.214	-0.082
-461.084	-61.677	-0.219	0.092
-460.070	-125.746	0.178	-0.027
-459.055	-100.118	-0.082	0.021
-458.040	-18.575	0.277	0.173
-457.026	-85.634	-0.094	0.029
-456.011	225.715	0.025	0.041
-454.997	-200.000	0.003	0.140
-453.982	-200.000	-0.067	0.308
-452.968	-44.172	0.143	0.072
-451.953	-200.000	-0.016	-0.540
-450.938	800.000	-0.058	0.168
-449.924	-31.657	0.127	-0.071
-448.909	-77.566	-0.200	0.069
-447.895	119.419	-0.278	0.345
-446.880	-116.575	0.278	-0.051
-445.865	-200.000	-0.004	0.070
-444.851	4.321	-0.386	0.283
-443.836	235.853	0.215	0.357
-442.822	47.324	0.147	0.137
-441.807	74.467	0.055	0.058
-440.792	-119.888	0.213	0.037
-439.778	-51.551	0.330	-0.154
-438.763	-11.087	0.386	-0.255
-437.749	77.698	-0.141	-0.150
-436.734	-8.084	-0.147	-0.099
-435.719	365.604	-0.087	-0.176
-434.705	-179.825	-0.184	0.004
-433.690	-13.688	-0.185	-0.120
-432.676	8.963	-0.183	0.138
-431.661	-200.000	-0.033	0.481
-430.646	150.056	-0.083	-0.113
-429.632	-99.807	-0.048	0.012
-428.617	800.000	-0.077	0.299
-427.603	7.214	0.237	0.177
-426.588	-16.347	-0.253	0.161
-425.573	-57.650	-0.250	0.110
-424.559	1.927	0.083	0.060
-423.544	-200.000	0.035	0.172
-422.530	-188.512	-0.324	-0.004
-421.515	-110.895	-0.019	-0.004
-420.500	32.548	0.085	0.074
-419.486	-37.689	-0.215	0.115
-418.471	-21.319	-0.114	-0.069
-417.457	-155.184	0.111	0.007
-416.442	-200.000	0.008	0.517
-415.428	275.612	-0.162	0.288
-414.413	-15.929	-0.104	0.066
-413.398	500.158	0.260	0.601
-412.384	438.886	0.133	0.290
-411.369	-100.267	0.145	-0.036
-410.355	-200.000	0.001	-0.325
-409.340	67.394	-0.172	-0.176
-408.325	127.889	-0.260	-0.331
-407.311	30.497	0.424	-0.363
-406.296	-200.000	-0.162	-0.001
-405.282	-200.000	-0.034	-0.157
-404.267	-200.000	0.001	-0.189
-403.252	78.330	-0.195	-0.208
-402.238	-79.247	0.211	-0.072
-401.223	87.905	0.109	0.120
-400.209	-78.938	-0.245	0.083
-399.194	326.537	-0.103	-0.197
-398.179	130.989	-0.221	0.284
-397.165	668.707	0.022	-0.057
-396.150	31.645	-0.158	0.136
-395.136	-83.357	0.383	0.123
-394.121	-86.933	0.061	0.019
-393.106	-200.000	-0.010	-0.095
-392.092	-100.540	0.253	-0.063
-391.077	317.413	0.151	-0.286
-390.063	800.000	-0.045	-0.154
-389.048	-85.167	0.150	0.047
-388.033	-200.000	-0.033	-0.159
-387.019	-15.160	0.156	-0.100
-386.004	729.402	-0.025	0.066
-384.990	-200.000	0.015	-0.135
-383.975	-44.942	-0.188	-0.094
-382.960	315.808	-0.258	0.487
-381.946	800.000	-0.074	0.206
-380.931	222.775	0.079	-0.128
-379.917	-70.296	0.568	0.216
-378.902	-89.963	-0.247	0.072
-377.888	-200.000	-0.035	-0.206
-376.873	152.973	-0.137	-0.187
-375.858	800.000	0.132	0.430
-374.844	393.014	-0.067	-0.140
-373.829	180.859	-0.099	-0.145
-372.815	-1.686	0.114	0.080
-371.800	16.051	-0.226	0.178
-370.785	81.941	-0.175	0.190
-369.771	-149.654	0.201	0.016
-368.756	110.420	-0.062	0.075
-367.742	800.000	-0.073	-0.284
-366.727	-200.000	-0.008	0.136
-365.712	-200.000	-0.029	-0.218
-364.698	800.000	0.019	-0.072
-363.683	800.000	0.109	0.304
-362.669	25.131	0.120	0.100
-361.654	-142.716	0.092	-0.009
-360.639	-2.305	-0.163	0.114
-359.625	-200.000	-0.065	-0.358
-358.610	-158.051	-0.409	0.024
-357.596	523.566	0.133	-0.312
-356.581	-200.000	-0.021	0.256
-355.566	5.502	0.072	0.053
-354.552	-109.320	-0.227	-0.048
-353.537	-200.000	-0.036	0.217
-352.523	17.805	-0.053	-0.042
-351.508	-135.623	-0.040	0.005
-350.493	18.811	-0.072	0.058
-349.479	-66.992	-0.124	0.049
-348.464	-1.288	-0.090	-0.064
-347.450	-123.193	-0.339	-0.054
-346.435	-91.860	0.081	-0.023
-345.420	178.431	-0.084	0.122
-344.406	-2.509	-0.141	0.098
-343.391	317.287	0.097	0.184
-342.377	-49.705	0.207	-0.098
-341.362	-82.515	0.152	-0.049
-340.348	-200.000	-0.101	0.444
-339.333	-69.481	0.190	0.073
-338.318	271.769	0.189	0.332
-337.304	-121.155	0.037	0.006
-336.289	-88.617	0.123	0.037
-335.275	-200.000	-0.001	0.318
-334.260	-160.431	0.128	-0.007
-333.245	165.463	0.188	0.265
-332.231	-200.000	0.088	-0.401
-331.216	800.000	0.033	-0.107
-330.202	90.657	0.120	0.134
-329.187	-13.822	0.219	-0.141
-328.172	-29.697	0.174	-0.099
-327.158	-109.556	-0.127	0.027
-326.143	-19.995	-0.151	-0.093
-325.129	503.258	-0.085	-0.196
-324.114	-84.590	0.076	-0.024
-323.099	-200.000	-0.011	0.184
-322.085	-41.504	-0.121	0.062
-321.070	400.073	0.046	-0.096
-320.056	-138.142	-0.300	-0.033
-319.041	7.370	-0.057	-0.043
-318.026	-26.236	0.223	-0.131
-317.012	-113.418	-0.205	0.040
-315.997	-150.624	0.331	0.025
-314.983	466.147	-0.173	-0.387
-313.968	800.000	0.062	-0.232
-312.953	-105.531	0.173	-0.039
-311.939	322.428	0.109	0.206
-310.924	-99.452	0.125	0.031
-309.910	-200.000	-0.020	-0.224
-308.895	88.468	-0.031	-0.034
-307.880	-45.620	-0.108	0.053
-306.866	-38.460	0.158	0.083
-305.851	96.844	-0.100	-0.114
-304.837	-200.000	-0.011	-0.185
-303.822	-56.110	0.164	-0.073
-302.807	800.000	-0.039	-0.116
-301.793	-200.000	0.013	-0.071
-300.778	74.071	0.100	0.105
-299.764	323.670	0.104	-0.197
-298.749	-119.694	-0.104	0.018
-297.735	-185.837	-0.451	-0.007
-296.720	-188.134	0.038	-0.000
-295.705	-21.218	-0.067	0.041
-294.691	-135.930	0.193	0.023
-293.676	296.968	-0.164	-0.300
-292.662	-184.886	-0.218	-0.003
-291.647	800.000	0.036	0.128
-290.632	100.348	0.198	-0.229
-289.618	-179.446	0.211	-0.005
-288.603	509.481	-0.038	0.087
-287.589	-200.000	-0.043	0.317
-286.574	724.724	0.081	-0.215
-285.559	800.000	0.046	-0.148
-284.545	668.386	0.110	-0.284
-283.530	800.000	-0.042	-0.181
-282.516	-49.987	-0.230	0.108
-281.501	800.000	0.069	0.263
-280.486	437.977	0.018	0.039
-279.472	269.190	-0.183	-0.320
-278.457	800.000	0.092	-0.287
-277.443	3.279	-0.107	0.078
-276.428	142.860	-0.271	0.359
-275.413	-200.000	-0.053	-0.275
-274.399	217.402	-0.093	-0.147
-273.384	-61.634	-0.051	-0.021
-272.370	265.198	0.185	0.320
-271.355	-120.520	-0.212	-0.036
-270.340	178.256	-0.105	-0.153
-269.326	-200.000	-0.038	0.198
-268.311	800.000	0.022	0.068
-267.297	-142.111	0.193	0.019
-266.282	-200.000	-0.032	-0.159
-265.267	-87.944	-0.414	-0.124
-264.253	-79.803	0.210	0.070
-263.238	-200.000	-0.028	0.142
-262.224	633.434	-0.079	0.199
-261.209	-144.979	-0.299	0.027
-260.195	581.978	-0.198	-0.483
-259.180	-101.933	0.087	-0.021
-258.165	-200.000	0.014	-0.368
-257.151	-95.907	-0.105	0.028
-256.136	119.285	-0.246	0.302
-255.122	774.131	-0.127	0.346
-254.107	10.611	-0.123	-0.093
-253.092	-17.175	-0.228	0.143
-252.078	11.324	0.129	-0.098
-251.063	183.163	-0.156	-0.229
-250.049	-99.135	0.205	-0.052
-249.034	-28.277	0.083	-0.048
-248.019	36.670	0.197	0.173
-247.005	-115.614	-0.143	-0.027
-245.990	800.000	-0.035	0.139
-244.976	-56.536	-0.174	0.077
-243.961	-151.873	0.204	-0.015
-242.946	113.668	-0.067	-0.081
-241.932	-114.348	0.296	-0.057
-240.917	35.740	-0.206	-0.180
-239.903	-62.829	-0.106	0.044
-238.888	800.000	0.092	-0.262
-237.873	-169.920	0.572	-0.020
-236.859	-129.502	0.352	0.048
-235.844	-47.468	0.177	0.086
-234.830	139.163	0.178	0.232
-233.815	-108.797	0.108	-0.023
-232.800	800.000	-0.018	-0.076
-231.786	-200.000	0.021	-0.258
-230.771	66.411	0.091	-0.091
-229.757	-200.000	0.008	-0.107
-228.742	68.246	0.109	-0.111
-227.727	-123.110	0.080	-0.013
-226.713	-200.000	-0.020	-0.379
-225.698	33.877	-0.280	-0.242
-224.684	-131.786	0.251	0.033
-223.669	-51.972	-0.165	0.076
-222.655	253.359	-0.025	0.043
-221.640	766.325	0.115	-0.311
-220.625	165.650	-0.146	-0.205
-219.611	315.656	-0.164	0.308
-218.596	40.763	0.259	0.232
-217.582	-115.743	0.363	0.067
-216.567	226.413	0.203	-0.327
-215.552	800.000	-0.012	0.037
-214.538	-65.626	-0.329	0.131
-213.523	492.014	-0.111	0.253
-212.509	-79.331	0.144	0.048
-211.494	567.601	0.132	0.318
-210.479	-200.000	0.021	0.321
-209.465	800.000	0.060	-0.224
-208.450	328.097	0.093	-0.178
-207.436	800.000	0.081	0.319
-206.421	-142.086	-0.405	-0.040
-205.406	-67.541	-0.245	-0.096
-204.392	172.590	0.192	0.274
-203.377	378.576	-0.074	-0.149
-202.363	138.519	0.097	0.127
-201.348	-1.808	-0.160	-0.112
-200.333	527.683	0.088	-0.205
-199.319	9.896	0.231	0.174
-198.304	703.409	-0.116	-0.304
-197.290	-101.393	-0.277	0.067
-196.275	-200.000	0.023	-0.163
-195.260	-200.000	0.083	0.384
-194.246	208.947	-0.182	0.283
-193.231	700.538	0.030	0.077
-192.217	199.302	-0.020	0.030
-191.202	-36.597	-0.238	0.127
-190.187	165.100	0.132	0.184
-189.173	-73.567	0.177	-0.064
-188.158	-188.911	-0.073	0.001
-187.144	-93.769	-0.321	0.088
-186.129	29.651	0.167	0.141
-185.114	-18.479	0.288	0.179
-184.100	157.155	-0.125	0.171
-183.085	-200.000	0.015	0.272
-182.071	800.000	0.012	0.036
-181.056	-200.000	0.024	0.190
-180.042	-62.494	0.076	0.031
-179.027	-200.000	-0.022	-0.316
-178.012	-200.000	0.026	0.294
-176.998	-200.000	-0.006	-0.268
-175.983	-103.037	0.232	-0.054
-174.969	800.000	0.130	0.364
-173.954	-200.000	-0.005	-0.167
-172.939	-114.228	-0.298	0.057
-171.925	365.799	0.039	0.077
-170.910	155.652	-0.186	0.254
-169.896	230.759	-0.027	-0.044
-168.881	-200.000	-0.028	-0.177
-167.866	800.000	-0.059	0.177
-166.852	-98.107	0.324	-0.083
-165.837	800.000	0.023	-0.074
-164.823	-39.552	0.295	0.153
-163.808	800.000	0.040	-0.168
-162.793	-200.000	0.017	0.085
-161.779	63.440	0.028	-0.028
-160.764	614.332	0.106	-0.264
-159.750	240.614	0.149	0.246
-158.735	201.207	-0.076	0.116
-157.720	-65.094	-0.126	0.050
-156.706	-121.901	-0.289	-0.047
-155.691	-141.224	0.110	-0.011
-154.677	-2.128	0.244	-0.169
-153.662	-59.925	0.079	-0.033
-152.647	-200.000	-0.029	-0.149
-151.633	-54.725	0.244	0.109
-150.618	-2.695	-0.138	-0.095
-149.604	176.339	-0.131	-0.188
-148.589	800.000	-0.053	-0.173
-147.574	-10.518	0.146	0.096
-146.560	-129.615	0.263	0.036
-145.545	211.088	-0.085	0.132
-144.531	46.005	0.148	0.136
-143.516	714.885	-0.092	-0.243
-142.502	-183.688	-0.252	0.004
-141.487	-114.341	0.095	0.018
-140.472	103.620	-0.322	-0.374
-139.458	151.076	0.212	-0.286
-138.443	-200.000	0.026	0.296
-137.429	100.062	-0.071	0.082
-136.414	-83.233	0.171	0.054
-135.399	-7.372	-0.168	-0.113
-134.385	204.447	-0.040	-0.061
-133.370	215.705	-0.130	0.204
-132.356	270.797	-0.167	0.291
-131.341	-81.884	0.343	0.111
-130.326	-90.635	-0.182	0.052
-129.312	117.869	-0.066	-0.080
-128.297	-67.829	0.146	-0.056
-127.283	-75.608	-0.113	0.040
-126.268	-106.970	-0.124	0.027
-125.253	800.000	0.062	-0.238
-124.239	146.244	-0.110	-0.146
-123.224	-200.000	0.004	-0.241
