DTS Sentinel unit serial number:	SN413079Multiplexer serial number:	ORYXHardware model number:	OX4-SRSoftware version number:	ORYX F/W v4.00 Oryx Data Collector v3.7.2.0data status	okinstallation	princeton_trtdifferential loss correction	single-endedforward channel	channel 2reverse channel	N/Adate	2019/09/13time	11:31:35forward acquisition time	60.00reverse acquisition time	0.00gamma	496.2192k internal	0.2319k external	0.2319temperature offset calibration	1.0190default loss term (dB/km)	0.3790temperature slope calibration	1.0000multiplexer offset coefficient	1.0000multiplexer slope coefficient	1.0000fibre end	0.00T internal ref (°C)	32.78T ext. ref 1 (°C)	4.37T ext. ref 2 (°C)	30.25length (m)	temperature (°C)	Stokes	anti-Stokes-747.200	-199.263	0.298	-0.002
-746.185	800.000	-0.032	0.102
-745.171	-98.061	-0.232	-0.060
-744.156	-200.000	-0.047	0.398
-743.142	60.620	0.256	0.257
-742.127	800.000	0.127	0.495
-741.112	76.467	-0.067	0.072
-740.098	-145.101	-0.256	0.024
-739.083	-200.000	0.005	-0.239
-738.069	433.964	-0.130	0.286
-737.054	-61.576	0.126	0.053
-736.039	46.014	-0.155	-0.145
-735.025	59.065	0.166	-0.165
-734.010	-29.367	-0.496	-0.287
-732.996	-200.000	-0.053	-0.245
-731.981	3.137	-0.209	0.154
-730.966	-143.218	-0.154	-0.015
-729.952	97.887	-0.202	-0.235
-728.937	-63.442	-0.318	-0.132
-727.923	800.000	-0.031	-0.127
-726.908	-160.432	-0.301	0.016
-725.894	-111.956	-0.115	0.023
-724.879	84.763	0.261	0.289
-723.864	-65.333	-0.140	-0.057
-722.850	-6.301	0.064	0.044
-721.835	118.120	0.136	0.169
-720.821	-14.427	-0.188	0.122
-719.806	800.000	-0.091	-0.361
-718.791	800.000	0.020	-0.079
-717.777	-12.445	0.129	-0.085
-716.762	55.572	-0.161	0.158
-715.748	-132.525	0.179	0.023
-714.733	-93.119	0.282	-0.079
-713.718	598.179	0.090	0.225
-712.704	-200.000	-0.016	-0.171
-711.689	-60.885	-0.232	-0.099
-710.675	104.087	0.188	0.224
-709.660	-10.801	0.219	-0.146
-708.645	-113.044	0.351	-0.070
-707.631	-43.353	-0.084	0.043
-706.616	-83.047	0.503	-0.164
-705.602	-137.792	0.426	-0.048
-704.587	-200.000	-0.029	0.128
-703.572	800.000	0.036	-0.145
-702.558	-200.000	-0.017	0.169
-701.543	-131.803	0.499	-0.066
-700.529	-93.441	0.277	-0.077
-699.514	-68.859	0.057	-0.022
-698.499	-69.495	0.373	0.144
-697.485	-135.809	0.423	0.050
-696.470	-200.000	0.024	0.185
-695.456	-82.426	0.344	-0.113
-694.441	447.745	0.145	0.322
-693.426	130.860	-0.189	-0.245
-692.412	301.266	-0.102	-0.190
-691.397	-100.368	0.113	-0.028
-690.383	-108.211	-0.132	0.029
-689.368	-27.488	-0.214	0.125
-688.354	72.832	-0.213	-0.224
-687.339	287.658	0.232	0.424
-686.324	-31.604	-0.053	0.030
-685.310	399.851	-0.108	0.229
-684.295	-62.180	0.323	-0.136
-683.281	169.291	0.098	-0.141
-682.266	800.000	-0.091	0.269
-681.251	151.980	0.067	-0.093
-680.237	-80.534	-0.086	0.029
-679.222	-98.028	0.327	-0.085
-678.208	253.169	0.144	-0.247
-677.193	-200.000	-0.031	-0.317
-676.178	363.664	-0.043	0.088
-675.164	-200.000	0.038	0.204
-674.149	-200.000	0.055	-0.370
-673.135	232.571	0.127	0.210
-672.120	270.728	0.128	-0.227
-671.105	-75.760	0.109	0.039
-670.091	800.000	-0.019	-0.058
-669.076	49.234	-0.263	0.249
-668.062	800.000	-0.036	0.138
-667.047	-200.000	-0.004	0.232
-666.032	244.335	0.091	-0.154
-665.018	309.256	-0.176	-0.331
-664.003	-13.662	0.236	0.154
-662.989	258.043	-0.105	0.182
-661.974	284.063	-0.152	-0.276
-660.959	759.219	-0.067	-0.182
-659.945	252.165	-0.057	0.098
-658.930	-16.581	0.115	0.074
-657.916	800.000	-0.046	-0.165
-656.901	-75.268	-0.366	-0.132
-655.886	-200.000	0.070	0.366
-654.872	-144.079	0.642	-0.061
-653.857	312.517	-0.227	0.429
-652.843	292.405	0.123	0.226
-651.828	-127.525	0.297	-0.043
-650.814	-200.000	-0.017	-0.147
-649.799	-200.000	0.023	-0.192
-648.784	237.036	-0.137	0.228
-647.770	-59.941	-0.292	0.126
-646.755	74.894	-0.469	-0.497
-645.741	-200.000	0.007	-0.152
-644.726	-11.127	0.348	0.231
-643.711	-86.631	-0.297	0.092
-642.697	104.532	-0.250	0.296
-641.682	-116.100	0.261	0.049
-640.668	-101.390	-0.072	-0.018
-639.653	7.741	-0.171	-0.129
-638.638	-200.000	-0.023	-0.248
-637.624	-200.000	-0.032	0.173
-636.609	166.401	0.049	-0.069
-635.595	669.698	0.071	-0.184
-634.580	-42.720	-0.326	0.167
-633.565	-78.196	0.111	-0.038
-632.551	-200.000	-0.019	-0.248
-631.536	379.404	0.047	-0.097
-630.522	-196.347	-0.279	0.002
-629.507	19.280	-0.093	0.075
-628.492	68.057	-0.103	-0.106
-627.478	112.860	-0.138	-0.168
-626.463	-77.637	0.423	-0.147
-625.449	800.000	-0.025	0.096
-624.434	12.576	-0.187	-0.145
-623.419	-200.000	0.009	0.054
-622.405	-184.577	0.228	-0.004
-621.390	-67.833	0.228	-0.090
-620.376	398.162	0.124	-0.261
-619.361	-29.422	0.089	-0.051
-618.346	-23.724	-0.182	-0.110
-617.332	800.000	0.054	-0.190
-616.317	800.000	-0.059	-0.198
-615.303	800.000	0.112	-0.345
-614.288	-200.000	0.054	0.261
-613.273	31.682	-0.132	-0.115
-612.259	800.000	0.055	0.235
-611.244	-200.000	0.015	-0.288
-610.230	-200.000	-0.074	0.344
-609.215	66.171	-0.136	0.139
-608.201	161.489	0.212	-0.299
-607.186	42.390	-0.188	-0.172
-606.171	-175.287	-0.294	0.008
-605.157	20.793	-0.084	0.068
-604.142	-200.000	-0.037	0.202
-603.128	800.000	-0.048	-0.179
-602.113	-15.841	-0.108	-0.069
-601.098	-0.855	0.102	0.073
-600.084	22.885	0.022	-0.018
-599.069	54.832	-0.204	0.198
-598.055	-200.000	-0.023	-0.439
-597.040	181.782	0.221	0.327
-596.025	153.601	0.150	-0.207
-595.011	71.303	0.336	-0.351
-593.996	-200.000	0.008	0.228
-592.982	-143.022	0.231	-0.023
-591.967	-7.424	0.159	-0.109
-590.952	-90.607	-0.516	0.150
-589.938	-60.144	-0.250	-0.107
-588.923	301.677	0.109	-0.202
-587.909	-29.183	-0.103	0.059
-586.894	169.169	-0.166	-0.238
-585.879	800.000	-0.039	0.132
-584.865	-74.677	-0.130	0.047
-583.850	800.000	0.086	0.372
-582.836	9.889	0.308	0.235
-581.821	-200.000	-0.051	0.243
-580.806	3.457	-0.301	0.220
-579.792	-88.871	0.112	-0.034
-578.777	-60.308	-0.242	-0.103
-577.763	-200.000	0.038	0.201
-576.748	-93.317	-0.271	0.076
-575.733	-10.964	-0.207	-0.137
-574.719	-44.183	-0.394	0.199
-573.704	295.902	-0.125	0.231
-572.690	-102.558	-0.257	-0.062
-571.675	435.212	-0.053	0.116
-570.661	800.000	-0.091	-0.293
-569.646	84.203	0.175	0.192
-568.631	93.947	0.134	0.153
-567.617	98.802	-0.209	-0.242
-566.602	-12.747	0.203	0.133
-565.588	800.000	-0.073	0.253
-564.573	153.024	0.051	0.070
-563.558	311.123	-0.076	-0.144
-562.544	-200.000	0.042	-0.208
-561.529	-17.399	-0.163	0.103
-560.515	-200.000	-0.003	0.081
-559.500	-200.000	-0.331	0.001
-558.485	340.982	0.095	0.186
-557.471	281.883	0.008	0.014
-556.456	-200.000	0.003	-0.274
-555.442	-200.000	-0.039	-0.239
-554.427	105.763	-0.096	-0.114
-553.412	-113.091	0.213	0.042
-552.398	-67.558	0.089	0.035
-551.383	81.205	-0.188	-0.204
-550.369	527.849	-0.143	0.339
-549.354	185.874	0.092	0.138
-548.339	139.609	0.097	-0.129
-547.325	335.656	-0.146	-0.285
-546.310	-87.918	-0.271	-0.082
-545.296	-94.923	0.096	-0.026
-544.281	-108.634	0.172	-0.037
-543.266	494.353	0.031	0.071
-542.252	-128.386	0.161	0.023
-541.237	287.520	-0.129	-0.235
-540.223	162.679	-0.091	-0.128
-539.208	-200.000	0.009	-0.208
-538.193	-200.000	-0.014	-0.164
-537.179	-63.394	0.236	-0.098
-536.164	-200.000	-0.042	0.188
-535.150	0.766	0.374	-0.269
-534.135	800.000	-0.082	0.249
-533.121	26.683	0.228	0.192
-532.106	-172.688	0.286	-0.009
-531.091	370.792	0.177	0.360
-530.077	72.647	0.088	0.092
-529.062	800.000	-0.021	0.066
-528.048	-138.644	-0.162	-0.018
-527.033	-182.141	0.165	0.003
-526.018	276.189	0.143	0.254
-525.004	-200.000	-0.032	-0.168
-523.989	-79.550	0.092	-0.031
-522.975	-63.212	-0.178	0.074
-521.960	138.219	0.096	0.126
-520.945	-117.609	0.223	-0.040
-519.931	-144.474	0.265	-0.025
-518.916	-188.385	-0.106	-0.001
-517.902	328.162	0.113	-0.217
-516.887	45.873	-0.189	-0.176
-515.872	-200.000	0.003	0.096
-514.858	572.727	-0.039	-0.095
-513.843	-49.505	0.023	0.011
-512.829	-20.474	-0.188	0.116
-511.814	-91.020	-0.086	-0.025
-510.799	192.507	-0.163	-0.246
-509.785	197.607	-0.157	0.241
-508.770	-200.000	-0.016	0.400
-507.756	134.095	0.097	0.126
-506.741	800.000	0.084	0.307
-505.726	-200.000	0.013	-0.121
-504.712	169.934	-0.213	-0.305
-503.697	171.175	0.083	-0.119
-502.683	-170.910	0.139	-0.005
-501.668	54.232	0.097	0.093
-500.653	-200.000	0.046	-0.338
-499.639	176.771	0.137	0.199
-498.624	-135.538	-0.192	-0.023
-497.610	-142.420	-0.061	-0.006
-496.595	800.000	0.112	-0.424
-495.581	-35.906	0.116	0.063
-494.566	-107.159	-0.034	0.008
-493.551	13.842	-0.220	-0.172
-492.537	51.356	-0.094	0.089
-491.522	-200.000	-0.018	0.320
-490.508	55.410	0.035	0.034
-489.493	77.849	0.056	-0.059
-488.478	105.950	0.069	-0.081
-487.464	-73.087	-0.354	-0.130
-486.449	185.988	0.071	-0.106
-485.435	-200.000	0.024	0.209
-484.420	621.011	0.118	0.296
-483.405	800.000	0.095	-0.286
-482.391	280.036	0.059	-0.105
-481.376	2.691	0.193	-0.140
-480.362	120.718	0.101	-0.125
-479.347	-27.895	-0.320	-0.185
-478.332	89.429	0.070	0.078
-477.318	-123.364	-0.543	-0.087
-476.303	-133.553	0.232	-0.029
-475.289	-78.963	0.223	-0.076
-474.274	137.663	-0.196	0.257
-473.259	800.000	0.080	0.244
-472.245	150.430	-0.121	0.164
-471.230	195.201	0.285	0.433
-470.216	188.464	-0.227	-0.340
-469.201	24.051	-0.266	-0.220
-468.186	-113.167	0.117	-0.023
-467.172	89.173	-0.149	-0.166
-466.157	478.988	-0.034	-0.076
-465.143	-61.028	0.152	0.064
-464.128	-30.786	-0.458	-0.259
-463.113	-164.087	0.087	0.004
-462.099	-32.581	0.092	-0.051
-461.084	354.483	0.110	0.218
-460.070	-174.494	0.072	0.002
-459.055	-49.850	-0.051	0.024
-458.040	244.681	0.082	0.137
-457.026	-200.000	0.018	-0.173
-456.011	-161.468	0.239	-0.012
-454.997	5.981	0.154	0.114
-453.982	263.385	0.023	0.041
-452.968	191.397	0.127	0.192
-451.953	79.701	0.229	-0.246
-450.938	-200.000	0.035	-0.286
-449.924	246.725	-0.120	-0.203
-448.909	-124.050	0.083	0.013
-447.895	-200.000	-0.061	-0.284
-446.880	-35.731	0.053	-0.029
-445.865	-128.250	0.312	-0.044
-444.851	-200.000	-0.015	-0.080
-443.836	-200.000	0.052	0.492
-442.822	417.522	-0.146	0.311
-441.807	-130.316	0.058	0.008
-440.792	49.051	-0.098	0.092
-439.778	-44.466	-0.087	0.044
-438.763	-84.057	-0.218	0.069
-437.749	-60.379	-0.072	0.031
-436.734	-200.000	-0.008	-0.055
-435.719	-112.860	0.226	0.045
-434.705	21.177	-0.063	-0.051
-433.690	300.916	-0.061	0.112
-432.676	800.000	-0.087	0.265
-431.661	106.307	-0.175	0.207
-430.646	-200.000	-0.063	0.381
-429.632	-62.173	0.258	0.108
-428.617	750.976	0.154	-0.415
-427.603	10.434	-0.204	-0.155
-426.588	459.357	0.059	0.132
-425.573	-79.417	-0.229	-0.077
-424.559	-200.000	-0.002	-0.065
-423.544	-67.390	-0.232	0.091
-422.530	-200.000	-0.007	-0.061
-421.515	35.183	0.244	0.214
-420.500	800.000	-0.047	-0.136
-419.486	-200.000	-0.016	0.131
-418.471	-66.021	-0.273	0.109
-417.457	94.132	0.285	-0.323
-416.442	-18.866	-0.085	-0.053
-415.428	170.211	-0.139	-0.198
-414.413	759.368	0.185	-0.500
-413.398	159.668	0.117	-0.162
-412.384	-30.558	-0.328	0.186
-411.369	-51.476	0.131	0.061
-410.355	-131.822	0.505	-0.066
-409.340	677.142	0.119	-0.310
-408.325	-102.248	0.206	-0.049
-407.311	-70.910	-0.242	0.091
-406.296	-67.631	0.106	0.042
-405.282	-140.168	-0.297	0.031
-404.267	21.612	0.096	-0.078
-403.252	103.998	-0.212	0.249
-402.238	40.699	0.133	-0.119
-401.223	191.788	-0.082	0.124
-400.209	-200.000	0.016	0.351
-399.194	-61.552	-0.142	0.059
-398.179	800.000	0.083	-0.241
-397.165	140.311	0.083	-0.109
-396.150	-105.137	-0.217	0.050
-395.136	800.000	-0.138	0.479
-394.121	-83.246	0.165	0.053
-393.106	417.584	-0.136	-0.290
-392.092	-48.194	-0.157	-0.075
-391.077	64.238	-0.077	-0.077
-390.063	22.212	-0.123	0.101
-389.048	6.649	0.013	0.009
-388.033	240.675	0.089	0.147
-387.019	-26.034	-0.122	0.072
-386.004	-200.000	-0.018	0.128
-384.990	61.365	0.109	0.108
-383.975	634.896	0.064	-0.162
-382.960	-123.289	0.161	0.026
-381.946	-170.182	-0.249	0.009
-380.931	-137.472	0.172	-0.019
-379.917	800.000	-0.036	-0.117
-378.902	-99.991	-0.308	0.077
-377.888	209.711	-0.062	0.097
-376.873	-200.000	0.002	-0.204
-375.858	-200.000	0.000	0.181
-374.844	-200.000	0.070	-0.359
-373.829	-67.987	0.167	-0.065
-372.815	276.729	-0.143	-0.253
-371.800	800.000	-0.081	0.257
-370.785	236.611	-0.075	0.124
-369.771	92.879	0.072	0.081
-368.756	215.787	0.251	-0.397
-367.742	-124.023	0.422	-0.066
-366.727	-103.530	-0.216	0.051
-365.712	193.062	0.150	0.226
-364.698	-102.422	-0.232	-0.055
-363.683	-127.460	0.063	-0.009
-362.669	-200.000	-0.011	0.168
-361.654	131.499	0.089	-0.114
-360.639	-21.116	0.245	0.149
-359.625	-106.076	0.319	0.071
-358.610	116.665	0.066	-0.081
-357.596	660.918	-0.098	-0.252
-356.581	437.458	0.027	-0.059
-355.566	279.925	-0.095	0.169
-354.552	228.865	-0.169	0.274
-353.537	-2.004	0.043	-0.030
-352.523	-200.000	0.062	-0.351
-351.508	81.286	0.069	0.075
-350.493	794.100	-0.073	-0.200
-349.479	-200.000	-0.034	0.185
-348.464	57.139	0.074	0.072
-347.450	242.958	-0.047	-0.079
-346.435	83.276	0.019	0.020
-345.420	-181.057	0.128	0.003
-344.406	-99.354	0.403	-0.101
-343.391	138.082	0.067	-0.087
-342.377	-3.695	-0.113	0.078
-341.362	-200.000	0.008	0.165
-340.348	-103.035	0.128	0.030
-339.333	-180.015	0.163	0.003
-338.318	-35.834	0.210	-0.113
-337.304	28.378	-0.356	-0.300
-336.289	-27.661	0.274	-0.158
-335.275	-88.493	-0.243	-0.072
-334.260	-126.827	0.202	-0.030
-333.245	344.107	-0.053	-0.104
-332.231	-19.231	0.323	-0.199
-331.216	-6.867	-0.088	0.060
-330.202	144.486	0.189	0.251
-329.187	110.318	-0.128	0.153
-328.172	-108.420	0.119	-0.026
-327.158	34.519	-0.205	0.179
-326.143	-60.203	-0.039	-0.016
-325.129	800.000	-0.030	0.099
-324.114	-33.498	0.184	-0.101
-323.099	-200.000	0.025	0.140
-322.085	648.331	0.093	0.237
-321.070	-200.000	-0.065	-0.000
-320.056	20.525	0.192	0.155
-319.041	-200.000	-0.004	0.215
-318.026	443.689	0.099	0.215
-317.012	800.000	0.067	0.262
-315.997	800.000	-0.051	-0.205
-314.983	-200.000	0.002	0.040
-313.968	-49.905	0.197	-0.093
-312.953	14.073	-0.122	0.094
-311.939	-200.000	0.051	0.288
-310.924	-200.000	0.014	-0.199
-309.910	-200.000	-0.034	0.382
-308.895	-175.240	-0.334	-0.009
-307.880	-183.115	0.168	0.003
-306.866	-116.932	0.365	0.066
-305.851	-166.028	0.210	0.009
-304.837	56.683	0.178	-0.172
-303.822	-190.701	0.307	0.003
-302.807	333.901	-0.038	0.074
-301.793	-48.760	-0.227	0.108
-300.778	55.304	0.365	-0.351
-299.764	-36.636	0.105	-0.056
-298.749	-37.822	-0.085	0.045
-297.735	-67.111	-0.230	-0.090
-296.720	-66.590	0.200	-0.079
-295.705	-200.000	-0.033	-0.245
-294.691	-39.495	-0.118	-0.061
-293.676	-200.000	0.013	0.239
-292.662	-200.000	-0.005	0.227
-291.647	299.270	0.143	-0.261
-290.632	71.499	-0.243	-0.251
-289.618	181.762	0.061	0.089
-288.603	-200.000	-0.028	0.486
-287.589	-107.201	-0.393	-0.086
-286.574	-64.107	0.093	0.038
-285.559	-194.327	0.222	-0.002
-284.545	800.000	-0.057	-0.224
-283.530	-56.707	-0.124	-0.054
-282.516	133.978	0.240	0.309
-281.501	-173.528	0.209	-0.006
-280.486	-200.000	0.004	0.154
-279.472	389.641	-0.047	0.096
-278.457	800.000	0.085	0.369
-277.443	48.070	-0.199	-0.184
-276.428	-96.489	-0.095	0.025
-275.413	-47.285	0.173	-0.084
-274.399	142.725	-0.219	-0.289
-273.384	-6.528	0.057	0.039
-272.370	122.932	-0.170	-0.211
-271.355	19.845	-0.617	-0.494
-270.340	199.204	-0.054	0.082
-269.326	-21.607	-0.179	-0.109
-268.311	-200.000	0.023	-0.166
-267.297	-200.000	0.399	0.001
-266.282	389.962	-0.205	-0.423
-265.267	294.695	-0.063	0.115
-264.253	-165.487	0.420	-0.018
-263.238	77.053	0.141	0.148
-262.224	-127.404	0.366	-0.053
-261.209	-20.289	0.044	-0.027
-260.195	-200.000	0.008	0.385
-259.180	-200.000	0.031	0.408
-258.165	-60.059	0.247	-0.105
-257.151	800.000	0.068	0.194
-256.136	136.761	-0.136	-0.176
-255.122	800.000	-0.080	-0.220
-254.107	-96.671	-0.569	-0.149
-253.092	66.220	-0.064	-0.064
-252.078	-91.130	0.344	0.098
-251.063	-51.456	-0.208	0.096
-250.049	-6.831	0.284	-0.191
-249.034	205.438	-0.193	-0.297
-248.019	-104.209	-0.120	-0.028
-247.005	633.874	0.106	0.268
-245.990	20.595	0.115	0.092
-244.976	269.623	-0.087	-0.152
-243.961	323.260	0.071	0.134
-242.946	-200.000	0.009	-0.193
-241.932	38.393	-0.162	0.144
-240.917	-160.969	0.239	-0.012
-239.903	-137.041	-0.167	-0.019
-238.888	-35.471	-0.311	-0.168
-237.873	379.241	-0.063	0.128
-236.859	-74.795	-0.152	0.054
-235.844	323.941	-0.120	-0.228
-234.830	-65.462	0.048	0.019
-233.815	-179.944	0.335	-0.007
-232.800	275.684	0.063	0.111
-231.786	-73.107	-0.166	-0.060
-230.771	-46.546	-0.226	0.110
-229.757	67.141	-0.233	0.236
-228.742	-133.087	-0.248	0.031
-227.727	-129.640	-0.517	-0.071
-226.713	-126.509	0.124	-0.018
-225.698	-200.000	-0.030	0.155
-224.684	469.886	-0.139	0.309
-223.669	-49.654	-0.086	0.041
-222.655	650.435	-0.166	0.420
-221.640	93.062	-0.164	0.183
-220.625	-99.692	-0.097	0.024
-219.611	-200.000	0.039	-0.195
-218.596	-33.275	0.218	0.119
-217.582	84.926	0.122	0.132
-216.567	107.103	-0.132	0.156
-215.552	-73.972	0.167	0.060
-214.538	120.928	-0.225	-0.278
-213.523	-163.697	0.279	-0.013
-212.509	-98.818	-0.149	0.038
-211.494	22.834	0.223	-0.181
-210.479	96.909	0.237	0.269
-209.465	71.743	0.087	-0.089
-208.450	-28.722	-0.237	0.135
-207.436	63.523	-0.256	0.254
-206.421	-118.287	0.116	0.020
-205.406	33.851	0.143	-0.123
-204.392	368.388	-0.222	-0.445
-203.377	223.565	-0.119	0.190
-202.363	-200.000	-0.004	0.114
-201.348	-200.000	0.242	-0.000
-200.333	-17.778	-0.190	0.118
-199.319	28.217	0.047	-0.039
-198.304	-1.848	0.204	-0.142
-197.290	-22.769	-0.091	0.054
-196.275	-200.000	0.016	-0.297
-195.260	2.401	0.145	-0.104
-194.246	148.841	0.031	-0.042
-193.231	290.638	-0.050	-0.089
-192.217	-191.185	0.088	-0.001
-191.202	32.738	0.166	-0.142
-190.187	132.969	0.094	-0.120
-189.173	357.369	-0.085	0.168
-188.158	89.971	0.092	0.102
-187.144	-200.000	-0.037	-0.538
-186.129	800.000	-0.081	0.338
-185.114	-146.961	0.082	-0.007
-184.100	-200.000	-0.052	-0.280
-183.085	185.391	0.072	-0.106
-182.071	193.362	-0.120	0.180
-181.056	-159.283	-0.364	0.020
-180.042	-46.131	0.216	-0.105
-179.027	545.412	-0.073	0.172
-178.012	50.031	-0.279	0.260
-176.998	-89.913	0.346	-0.100
-175.983	153.253	-0.024	0.032
-174.969	-100.107	-0.197	-0.049
-173.954	6.013	0.415	0.304
-172.939	-90.290	-0.229	0.066
-171.925	-84.445	0.193	0.060
-170.910	-67.862	0.219	0.085
-169.896	52.023	0.062	0.059
-168.881	378.435	-0.188	-0.379
-167.866	-200.000	-0.017	0.201
-166.852	88.548	0.155	-0.170
-165.837	-200.000	0.007	0.421
-164.823	-200.000	0.002	0.168
-163.808	-81.469	0.202	0.066
-162.793	70.934	0.130	-0.133
-161.779	-200.000	0.242	0.001
-160.764	66.737	-0.272	-0.274
-159.750	-68.319	0.106	-0.041
-158.735	-54.227	0.129	-0.058
-157.720	800.000	0.043	0.186
-156.706	800.000	0.019	0.074
-155.691	-143.645	0.197	0.019
-154.677	-144.960	0.080	-0.007
-153.662	763.925	0.026	0.070
-152.647	-43.790	0.260	0.130
-151.633	-186.649	-0.201	0.003
-150.618	621.233	-0.149	0.370
-149.604	800.000	-0.109	0.362
-148.589	-51.525	0.121	0.056
-147.574	78.980	0.130	0.137
-146.560	184.372	-0.188	0.275
-145.545	-200.000	-0.026	0.204
-144.531	152.510	0.187	0.252
-143.516	-200.000	0.024	-0.195
-142.502	-200.000	0.009	-0.311
-141.487	93.625	-0.137	-0.154
-140.472	-34.303	-0.269	0.146
-139.458	-200.000	0.007	0.152
-138.443	-200.000	0.073	0.349
-137.429	111.395	0.116	0.139
-136.414	-200.000	-0.022	0.303
-135.399	1.686	0.292	-0.208
-134.385	-200.000	-0.102	-0.708
-133.370	-122.850	0.194	0.031
-132.356	524.463	-0.116	-0.269
-131.341	-115.045	-0.161	-0.030
-130.326	248.771	-0.153	0.256
-129.312	61.760	0.225	0.221
-128.297	-115.414	0.209	-0.039
-127.283	-138.550	0.152	-0.016
-126.268	-200.000	0.155	-0.000
-125.253	98.364	-0.115	-0.131
-124.239	-46.853	0.065	0.031
-123.224	-18.773	-0.209	-0.129
-122.210	-200.000	0.033	-0.289
-121.195	764.097	-0.068	0.184
