DTS Sentinel unit serial number:	SN413079Multiplexer serial number:	ORYXHardware model number:	OX4-SRSoftware version number:	ORYX F/W v4.00 Oryx Data Collector v3.7.2.0data status	okinstallation	princeton_trtdifferential loss correction	single-endedforward channel	channel 2reverse channel	N/Adate	2019/09/13time	18:51:35forward acquisition time	60.00reverse acquisition time	0.00gamma	496.2192k internal	0.2325k external	0.2325temperature offset calibration	1.0180default loss term (dB/km)	0.3790temperature slope calibration	1.0000multiplexer offset coefficient	1.0000multiplexer slope coefficient	1.0000fibre end	0.00T internal ref (°C)	32.34T ext. ref 1 (°C)	4.03T ext. ref 2 (°C)	25.60length (m)	temperature (°C)	Stokes	anti-Stokes-747.200	-200.000	-0.031	0.374
-746.185	-181.681	0.164	-0.003
-745.171	-74.063	-0.102	-0.037
-744.156	109.461	-0.071	0.086
-743.142	-78.107	0.292	-0.102
-742.127	-153.347	-0.157	0.011
-741.112	-200.000	-0.012	0.468
-740.098	-200.000	0.033	0.203
-739.083	693.535	0.043	-0.114
-738.069	-108.536	-0.232	-0.050
-737.054	225.241	0.152	-0.249
-736.039	-180.732	-0.133	0.003
-735.025	-153.639	0.400	-0.028
-734.010	-100.123	-0.414	0.104
-732.996	-71.999	0.162	-0.061
-731.981	278.328	-0.149	-0.267
-730.966	-140.460	-0.297	-0.031
-729.952	-30.132	0.318	-0.182
-728.937	235.728	0.116	-0.194
-727.923	73.287	-0.195	-0.206
-726.908	-126.714	0.194	0.029
-725.894	-200.000	-0.020	-0.111
-724.879	31.377	-0.130	0.112
-723.864	13.576	-0.207	0.162
-722.850	800.000	-0.057	-0.207
-721.835	39.942	-0.346	-0.313
-720.821	800.000	0.040	0.162
-719.806	594.229	0.018	0.046
-718.791	-9.063	-0.146	0.099
-717.777	58.902	-0.004	0.003
-716.762	-139.857	-0.458	0.049
-715.748	-200.000	0.008	-0.082
-714.733	-106.607	-0.191	0.043
-713.718	45.515	0.173	0.161
-712.704	217.474	0.244	-0.392
-711.689	-48.870	-0.270	-0.131
-710.675	392.456	0.069	-0.144
-709.660	223.618	0.128	-0.209
-708.645	-158.550	-0.157	-0.009
-707.631	-176.100	0.332	0.009
-706.616	-200.000	0.070	-0.414
-705.602	456.346	-0.214	-0.479
-704.587	-113.930	-0.160	-0.031
-703.572	-89.023	-0.350	0.104
-702.558	14.807	0.155	-0.122
-701.543	-200.000	-0.004	-0.148
-700.529	-36.514	-0.062	-0.033
-699.514	247.486	-0.060	-0.103
-698.499	-133.496	0.190	0.024
-697.485	800.000	0.071	-0.229
-696.470	720.556	-0.092	-0.245
-695.456	-200.000	0.012	-0.175
-694.441	79.461	0.109	-0.118
-693.426	-66.789	-0.193	-0.077
-692.412	31.591	-0.100	-0.087
-691.397	297.451	0.096	-0.178
-690.383	-128.575	-0.356	-0.051
-689.368	-57.495	-0.582	0.257
-688.354	-14.313	0.203	-0.132
-687.339	-3.311	0.061	-0.043
-686.324	-69.748	0.155	-0.060
-685.310	-200.000	0.019	-0.232
-684.295	-56.514	0.247	0.110
-683.281	-51.756	0.230	0.108
-682.266	276.026	-0.086	-0.154
-681.251	-48.558	-0.318	-0.154
-680.237	-87.048	-0.263	0.081
-679.222	-61.703	0.288	0.122
-678.208	-96.949	0.081	0.021
-677.193	-153.592	0.198	-0.014
-676.178	800.000	-0.071	-0.299
-675.164	6.438	-0.163	-0.122
-674.149	95.200	0.082	-0.094
-673.135	-200.000	-0.017	-0.267
-672.120	-200.000	0.058	-0.255
-671.105	387.662	-0.065	0.135
-670.091	13.864	0.139	0.109
-669.076	-200.000	0.031	-0.293
-668.062	-13.176	0.166	-0.109
-667.047	57.666	-0.190	0.187
-666.032	257.788	-0.182	-0.315
-665.018	800.000	-0.088	-0.359
-664.003	-119.801	0.151	0.026
-662.989	240.197	0.199	-0.333
-661.974	-61.506	-0.223	-0.094
-660.959	11.926	-0.066	0.051
-659.945	-26.924	0.111	0.065
-658.930	800.000	0.061	-0.204
-657.916	-20.047	-0.199	-0.123
-656.901	-137.172	0.089	-0.010
-655.886	800.000	0.063	-0.193
-654.872	-200.000	0.004	-0.078
-653.857	94.772	0.064	-0.073
-652.843	313.269	-0.112	0.211
-651.828	-93.284	0.417	0.116
-650.814	-63.884	0.209	-0.086
-649.799	-200.000	0.059	-0.382
-648.784	800.000	-0.014	-0.051
-647.770	-98.296	-0.188	0.048
-646.755	-16.232	0.023	0.015
-645.741	-96.426	-0.198	0.053
-644.726	-32.057	-0.103	-0.058
-643.711	188.818	0.253	-0.380
-642.697	171.036	0.083	-0.119
-641.682	-170.667	0.185	-0.006
-640.668	-173.879	-0.053	-0.002
-639.653	117.303	-0.104	-0.129
-638.638	-91.117	0.441	0.127
-637.624	172.087	-0.036	0.052
-636.609	-75.356	-0.088	-0.031
-635.595	-41.107	0.282	0.146
-634.580	-100.236	-0.297	0.074
-633.565	60.842	-0.174	-0.173
-632.551	-168.015	0.145	0.006
-631.536	-103.901	0.331	-0.078
-630.522	170.313	-0.195	0.280
-629.507	-128.510	0.040	0.006
-628.492	32.162	-0.185	0.161
-627.478	179.407	0.020	-0.029
-626.463	242.789	0.084	-0.142
-625.449	174.467	-0.109	-0.159
-624.434	423.268	0.114	0.245
-623.419	45.757	-0.145	0.135
-622.405	-200.000	0.033	0.209
-621.390	327.881	-0.148	-0.286
-620.376	26.966	-0.284	0.239
-619.361	95.537	0.045	-0.052
-618.346	66.703	0.277	0.283
-617.332	-37.782	-0.316	-0.169
-616.317	-200.000	-0.025	-0.115
-615.303	800.000	-0.076	0.264
-614.288	131.693	0.133	-0.172
-613.273	800.000	0.098	-0.327
-612.259	-200.000	-0.040	-0.197
-611.244	-200.000	0.016	-0.093
-610.230	596.952	0.078	-0.195
-609.215	-71.652	0.284	-0.107
-608.201	149.584	-0.074	-0.100
-607.186	-114.636	-0.147	-0.028
-606.171	-81.592	-0.354	-0.117
-605.157	800.000	-0.033	0.096
-604.142	-200.000	-0.000	0.154
-603.128	-78.299	-0.349	-0.120
-602.113	-44.624	0.210	0.105
-601.098	130.201	-0.045	-0.057
-600.084	57.355	-0.196	-0.192
-599.069	-26.090	-0.133	-0.078
-598.055	-157.581	0.132	0.008
-597.040	-99.167	0.293	0.074
-596.025	-134.856	-0.448	0.054
-595.011	-12.299	0.097	-0.064
-593.996	-80.417	0.147	-0.049
-592.982	-98.627	0.090	0.023
-591.967	-112.034	0.326	0.066
-590.952	-17.033	0.259	-0.164
-589.938	-200.000	-0.073	0.452
-588.923	214.834	0.105	0.167
-587.909	-145.018	-0.280	0.026
-586.894	686.547	-0.018	0.048
-585.879	14.879	-0.063	-0.049
-584.865	58.444	0.108	-0.106
-583.850	-54.433	0.093	0.042
-582.836	-55.823	0.191	-0.086
-581.821	740.161	-0.085	-0.230
-580.806	-200.000	0.068	0.478
-579.792	97.377	0.151	-0.174
-578.777	-118.724	-0.179	-0.032
-577.763	121.832	0.048	-0.059
-576.748	-116.335	-0.221	-0.041
-575.733	97.721	-0.221	0.255
-574.719	-38.895	-0.029	-0.015
-573.704	800.000	-0.030	-0.104
-572.690	307.041	-0.068	-0.127
-571.675	312.030	0.252	-0.474
-570.661	115.942	0.116	0.142
-569.646	-99.758	0.166	0.042
-568.631	-200.000	-0.008	0.127
-567.617	-92.794	0.416	-0.117
-566.602	800.000	0.026	0.102
-565.588	-79.959	0.116	-0.039
-564.573	800.000	-0.073	-0.231
-563.558	199.010	0.154	0.236
-562.544	800.000	-0.171	0.624
-561.529	-144.858	-0.251	-0.023
-560.515	-10.367	-0.191	0.127
-559.500	154.802	0.121	-0.166
-558.485	-134.000	-0.075	-0.009
-557.471	257.082	0.143	-0.246
-556.456	800.000	-0.045	-0.180
-555.442	-8.533	-0.375	-0.253
-554.427	568.772	-0.135	-0.328
-553.412	-95.822	-0.064	-0.017
-552.398	674.714	-0.088	0.228
-551.383	-87.811	-0.025	-0.007
-550.369	-24.883	0.350	-0.208
-549.354	97.796	-0.157	0.180
-548.339	157.198	-0.118	-0.164
-547.325	274.851	0.165	0.292
-546.310	-86.424	0.364	0.112
-545.296	101.176	-0.168	-0.196
-544.281	-38.102	-0.181	-0.096
-543.266	800.000	0.083	-0.310
-542.252	-200.000	0.000	-0.337
-541.237	92.344	-0.101	-0.113
-540.223	800.000	0.143	-0.593
-539.208	800.000	0.045	0.143
-538.193	-200.000	-0.055	0.430
-537.179	219.660	-0.176	0.282
-536.164	-114.563	-0.219	-0.042
-535.150	160.067	0.177	-0.246
-534.135	55.917	-0.117	0.113
-533.121	5.175	0.017	-0.012
-532.106	-200.000	-0.013	0.424
-531.091	-200.000	-0.006	0.147
-530.077	-200.000	-0.012	0.254
-529.062	-9.951	0.015	0.010
-528.048	-200.000	0.016	-0.205
-527.033	-1.120	-0.293	0.208
-526.018	35.621	0.103	-0.090
-525.004	-200.000	0.008	-0.124
-523.989	-37.941	-0.226	-0.120
-522.975	-136.721	-0.141	-0.016
-521.960	-150.833	0.167	0.013
-520.945	89.505	-0.276	-0.308
-519.931	292.094	0.080	0.146
-518.916	-178.202	-0.261	0.006
-517.902	-200.000	0.004	0.203
-516.887	-200.000	-0.032	0.265
-515.872	-91.770	-0.080	0.023
-514.858	54.873	0.136	0.131
-513.843	-116.407	-0.261	0.048
-512.829	-64.664	0.195	0.079
-511.814	48.169	0.201	-0.188
-510.799	50.692	0.212	-0.201
-509.785	343.083	-0.126	0.248
-508.770	800.000	-0.061	-0.186
-507.756	-76.628	0.342	-0.120
-506.741	-77.371	-0.254	0.088
-505.726	-134.010	0.274	-0.034
-504.712	800.000	0.134	-0.381
-503.697	591.474	0.138	-0.339
-502.683	-200.000	-0.025	-0.237
-501.668	-200.000	0.029	0.254
-500.653	-200.000	-0.038	0.000
-499.639	-6.329	-0.165	0.112
-498.624	-22.492	0.061	-0.037
-497.610	51.414	0.072	0.068
-496.595	40.522	-0.243	-0.219
-495.581	-200.000	-0.027	0.199
-494.566	-127.023	-0.282	0.041
-493.551	-200.000	0.038	-0.269
-492.537	126.829	0.113	-0.143
-491.522	-200.000	-0.010	0.104
-490.508	-92.942	0.177	0.049
-489.493	-6.998	-0.395	0.268
-488.478	-200.000	-0.009	-0.131
-487.464	348.916	-0.081	0.160
-486.449	547.997	-0.058	0.138
-485.435	800.000	0.102	0.366
-484.420	-153.165	-0.077	0.005
-483.405	-177.502	-0.209	-0.005
-482.391	169.467	-0.158	-0.226
-481.376	86.019	-0.186	0.204
-480.362	-101.582	-0.203	-0.049
-479.347	-89.891	-0.032	-0.009
-478.332	65.803	0.250	-0.253
-477.318	800.000	0.096	-0.297
-476.303	656.292	-0.064	-0.164
-475.289	146.474	-0.027	-0.036
-474.274	-159.476	-0.455	-0.025
-473.259	-28.637	0.356	-0.205
-472.245	155.556	-0.031	0.042
-471.230	378.616	-0.070	0.143
-470.216	231.470	0.108	0.177
-469.201	-127.834	0.163	-0.023
-468.186	-148.913	-0.321	-0.026
-467.172	77.200	-0.308	-0.327
-466.157	9.913	0.221	-0.168
-465.143	-184.329	-0.404	0.007
-464.128	-73.367	0.193	0.071
-463.113	-4.410	-0.209	0.144
-462.099	303.311	0.034	0.062
-461.084	-15.329	0.188	-0.120
-460.070	-104.118	0.120	-0.028
-459.055	800.000	-0.071	-0.304
-458.040	-29.176	-0.160	0.092
-457.026	800.000	0.082	0.326
-456.011	171.977	0.231	-0.332
-454.997	-200.000	-0.055	0.414
-453.982	345.046	-0.132	-0.258
-452.968	-200.000	-0.010	-0.426
-451.953	126.092	0.141	0.178
-450.938	-200.000	0.000	0.044
-449.924	236.099	-0.211	0.347
-448.909	-200.000	0.018	-0.094
-447.895	-200.000	-0.012	-0.150
-446.880	-131.895	0.041	-0.005
-445.865	-183.505	0.494	0.009
-444.851	351.205	-0.130	-0.256
-443.836	43.240	-0.186	0.169
-442.822	-90.969	0.105	0.030
-441.807	-200.000	-0.059	0.311
-440.792	4.141	0.079	-0.058
-439.778	218.719	0.174	-0.277
-438.763	-26.936	-0.266	-0.155
-437.749	800.000	0.056	-0.216
-436.734	-73.742	-0.071	-0.026
-435.719	-125.062	0.047	0.007
-434.705	531.259	0.039	-0.092
-433.690	-95.101	0.216	-0.058
-432.676	375.587	-0.101	0.206
-431.661	-128.189	-0.127	-0.018
-430.646	800.000	0.068	-0.188
-429.632	23.275	-0.192	-0.157
-428.617	-131.007	0.101	-0.013
-427.603	800.000	-0.032	0.100
-426.588	304.158	-0.042	-0.078
-425.573	800.000	0.038	-0.108
-424.559	67.942	-0.067	-0.068
-423.544	28.845	-0.204	0.172
-422.530	78.868	0.176	0.187
-421.515	-200.000	-0.086	-0.549
-420.500	-95.279	0.333	0.089
-419.486	-87.275	-0.202	0.061
-418.471	-91.692	0.197	0.056
-417.457	647.032	0.071	0.180
-416.442	303.012	0.046	-0.085
-415.428	800.000	-0.071	0.287
-414.413	800.000	-0.070	-0.267
-413.398	298.498	-0.072	0.132
-412.384	-155.695	-0.204	0.013
-411.369	-38.594	-0.186	-0.098
-410.355	696.116	-0.032	0.083
-409.340	34.894	0.204	-0.178
-408.325	-67.546	-0.292	0.114
-407.311	-82.821	0.156	-0.050
-406.296	51.422	-0.375	0.355
-405.282	30.345	0.089	-0.076
-404.267	-69.558	-0.201	0.077
-403.252	-60.945	-0.038	0.016
-402.238	-200.000	0.052	-0.349
-401.223	-80.833	-0.442	-0.146
-400.209	-93.292	-0.152	0.042
-399.194	-63.798	0.071	-0.029
-398.179	800.000	-0.045	-0.129
-397.165	50.157	-0.030	-0.028
-396.150	261.417	-0.039	0.067
-395.136	241.531	-0.096	-0.160
-394.121	406.459	0.085	-0.179
-393.106	48.307	0.237	-0.221
-392.092	-99.738	0.259	0.064
-391.077	26.096	0.148	0.123
-390.063	-26.120	-0.166	-0.097
-389.048	-10.253	-0.185	0.122
-388.033	-71.990	-0.246	-0.091
-387.019	-57.001	0.231	-0.101
-386.004	44.165	-0.257	-0.234
-384.990	-7.858	-0.174	0.117
-383.975	447.877	-0.083	-0.182
-382.960	196.320	-0.258	0.391
-381.946	800.000	0.007	-0.024
-380.931	-200.000	0.015	0.273
-379.917	444.092	-0.135	-0.295
-378.902	-11.594	0.241	0.157
-377.888	-200.000	-0.016	-0.255
-376.873	62.902	-0.161	-0.160
-375.858	-200.000	0.003	0.128
-374.844	-77.051	0.236	0.082
-373.829	-119.027	-0.177	-0.031
-372.815	-56.161	-0.228	-0.101
-371.800	614.169	0.116	0.289
-370.785	-73.042	-0.065	0.024
-369.771	-152.427	0.313	0.022
-368.756	-200.000	0.005	0.235
-367.742	-61.403	-0.114	0.048
-366.727	-26.966	-0.163	0.094
-365.712	470.184	-0.065	0.144
-364.698	87.875	0.056	-0.061
-363.683	800.000	0.072	-0.217
-362.669	474.219	0.044	0.099
-361.654	49.545	0.170	0.159
-360.639	-49.079	0.332	0.158
-359.625	-200.000	-0.019	0.193
-358.610	-90.971	0.164	0.047
-357.596	800.000	-0.021	0.074
-356.581	-200.000	0.070	0.467
-355.566	-26.000	0.413	0.242
-354.552	-200.000	-0.136	0.646
-353.537	252.015	0.065	0.110
-352.523	-200.000	0.036	-0.159
-351.508	-154.263	0.242	-0.016
-350.493	160.665	-0.082	0.114
-349.479	625.767	0.084	0.209
-348.464	-150.439	-0.209	-0.016
-347.450	665.684	0.016	-0.042
-346.435	90.539	0.134	-0.149
-345.420	-143.072	-0.221	0.021
-344.406	-200.000	-0.013	0.099
-343.391	132.514	-0.169	-0.216
-342.377	61.666	-0.208	-0.206
-341.362	-200.000	0.019	-0.279
-340.348	-51.968	-0.247	0.114
-339.333	-200.000	0.036	0.186
-338.318	353.692	0.204	0.402
-337.304	14.757	0.139	-0.108
-336.289	-200.000	0.033	-0.297
-335.275	800.000	0.043	0.120
-334.260	800.000	0.089	0.248
-333.245	-200.000	-0.053	0.285
-332.231	538.045	-0.111	0.262
-331.216	-200.000	0.002	-0.035
-330.202	-18.286	0.070	-0.043
-329.187	-17.619	-0.172	0.107
-328.172	134.058	0.135	-0.174
-327.158	-5.525	-0.105	0.071
-326.143	-103.798	0.106	-0.025
-325.129	-200.000	-0.036	0.203
-324.114	218.678	0.048	0.077
-323.099	25.243	0.284	0.234
-322.085	-200.000	-0.030	-0.192
-321.070	337.351	-0.079	0.152
-320.056	199.130	0.135	-0.205
-319.041	-189.986	0.058	-0.001
-318.026	-200.000	-0.070	0.432
-317.012	-200.000	0.043	-0.214
-315.997	163.751	-0.206	0.287
-314.983	122.552	-0.106	0.132
-313.968	169.258	0.179	-0.254
-312.953	-200.000	0.047	-0.313
-311.939	-162.173	-0.142	0.007
-310.924	-86.542	-0.170	0.052
-309.910	11.610	0.112	0.085
-308.895	-110.892	0.301	0.061
-307.880	12.870	0.290	-0.222
-306.866	-191.606	-0.365	-0.004
-305.851	800.000	0.070	0.194
-304.837	-128.670	0.091	0.013
-303.822	-109.280	0.203	0.043
-302.807	-200.000	0.002	-0.393
-301.793	800.000	-0.027	0.077
-300.778	800.000	0.028	-0.113
-299.764	563.855	-0.066	-0.157
-298.749	800.000	-0.010	-0.037
-297.735	-200.000	0.005	0.561
-296.720	-21.329	-0.118	0.072
-295.705	-9.745	0.139	-0.092
-294.691	57.816	0.431	0.418
-293.676	-98.702	0.098	-0.025
-292.662	800.000	-0.086	0.264
-291.647	-18.265	0.188	0.117
-290.632	-135.684	-0.118	0.014
-289.618	629.223	-0.085	0.214
-288.603	-87.164	-0.185	-0.056
-287.589	76.004	-0.221	-0.231
-286.574	-113.027	0.123	-0.024
-285.559	-200.000	0.041	0.180
-284.545	-132.272	0.408	-0.052
-283.530	50.616	-0.153	0.143
-282.516	-200.000	0.023	-0.145
-281.501	-172.660	-0.384	-0.012
-280.486	-122.000	-0.303	-0.049
-279.472	-100.504	0.171	0.042
-278.457	55.551	-0.311	-0.298
-277.443	-188.720	-0.115	0.001
-276.428	344.953	0.120	0.234
-275.413	-200.000	-0.040	0.398
-274.399	-200.000	-0.034	-0.171
-273.384	-67.926	-0.177	0.068
-272.370	-64.749	0.157	-0.063
-271.355	-200.000	0.018	0.225
-270.340	32.749	0.262	0.224
-269.326	-99.461	-0.096	0.024
-268.311	-39.851	0.319	0.165
-267.297	-200.000	-0.030	-0.134
-266.282	239.421	0.226	-0.373
-265.267	-33.483	-0.247	-0.135
-264.253	74.876	-0.284	-0.296
-263.238	25.285	-0.167	0.138
-262.224	-82.426	0.225	0.072
-261.209	538.272	0.035	-0.083
-260.195	-100.869	0.229	0.056
-259.180	2.969	-0.216	-0.156
-258.165	239.951	-0.148	-0.243
-257.151	-2.561	-0.238	0.165
-256.136	-200.000	-0.023	0.179
-255.122	-153.584	-0.140	0.010
-254.107	400.534	0.142	-0.295
-253.092	-45.640	0.353	-0.173
-252.078	-174.058	0.447	-0.013
-251.063	213.785	-0.053	0.084
-250.049	-48.555	-0.200	-0.095
-249.034	800.000	0.054	-0.159
-248.019	-18.328	0.217	0.134
-247.005	201.527	-0.185	-0.282
-245.990	800.000	0.032	-0.128
-244.976	-58.276	-0.032	-0.014
-243.961	-138.976	0.099	0.011
-242.946	-127.916	0.119	0.017
-241.932	-103.026	-0.255	0.060
-240.917	320.075	0.094	0.176
-239.903	-98.174	0.211	-0.054
-238.888	-165.629	0.358	-0.015
-237.873	194.725	0.124	-0.186
-236.859	97.940	0.185	-0.211
-235.844	-200.000	0.046	0.381
-234.830	106.110	0.116	-0.136
-233.815	-28.778	-0.181	0.103
-232.800	-200.000	0.039	-0.171
-231.786	-184.926	-0.222	-0.003
-230.771	-200.000	-0.009	0.071
-229.757	-73.763	0.210	-0.076
-228.742	102.667	0.065	0.076
-227.727	-200.000	0.010	-0.062
-226.713	-200.000	0.047	-0.242
-225.698	-129.439	-0.156	0.021
-224.684	334.248	-0.061	-0.117
-223.669	-43.029	0.274	0.138
-222.655	337.747	0.042	-0.081
-221.640	286.491	-0.207	-0.370
-220.625	-137.983	0.224	-0.025
-219.611	23.205	-0.035	-0.028
-218.596	-5.789	0.111	-0.075
-217.582	128.256	0.301	0.379
-216.567	-164.452	0.330	0.015
-215.552	458.327	-0.072	-0.158
-214.538	-18.353	0.243	-0.150
-213.523	4.794	-0.305	0.221
-212.509	-140.079	0.470	-0.049
-211.494	53.448	0.106	0.101
-210.479	40.736	-0.168	0.149
-209.465	-13.901	-0.313	0.200
-208.450	-38.100	0.366	0.192
-207.436	105.513	0.100	0.117
-206.421	-21.260	-0.091	0.055
-205.406	245.852	0.210	0.349
-204.392	558.880	0.124	0.295
-203.377	-200.000	-0.064	0.291
-202.363	-200.000	-0.022	0.286
-201.348	-23.988	0.272	0.160
-200.333	35.850	-0.237	0.206
-199.319	-156.379	-0.321	0.020
-198.304	-200.000	0.001	-0.099
-197.290	-100.493	-0.140	-0.034
-196.275	18.648	-0.177	-0.140
-195.260	549.188	0.040	-0.094
-194.246	800.000	0.052	0.160
-193.231	-200.000	-0.006	-0.090
-192.217	3.132	0.147	-0.105
-191.202	-11.862	0.110	-0.071
-190.187	-105.507	-0.303	-0.068
-189.173	800.000	0.111	0.452
-188.158	359.504	0.053	-0.104
-187.144	-17.827	0.120	-0.074
-186.129	-74.329	0.164	0.059
-185.114	-200.000	-0.002	-0.197
-184.100	-135.397	-0.071	0.008
-183.085	-24.866	0.214	0.126
-182.071	55.052	0.099	0.094
-181.056	429.101	-0.106	0.226
-180.042	-60.063	0.191	-0.081
-179.027	-126.428	0.080	-0.012
-178.012	-173.495	0.157	-0.005
-176.998	-130.463	0.226	0.030
-175.983	164.008	0.150	0.209
-174.969	-200.000	-0.038	-0.202
-173.954	-136.030	-0.170	-0.020
-172.939	-200.000	0.056	-0.254
-171.925	-157.066	-0.117	-0.007
-170.910	67.242	0.077	-0.077
-169.896	294.285	-0.068	0.123
-168.881	57.335	-0.281	0.271
-167.866	-200.000	-0.010	0.060
-166.852	30.260	-0.095	0.080
-165.837	88.941	0.343	-0.377
-164.823	10.149	0.202	0.151
-163.808	800.000	-0.103	-0.325
-162.793	9.519	-0.091	-0.068
-161.779	-200.000	0.042	-0.411
-160.764	-164.476	0.095	0.004
-159.750	-58.930	0.471	-0.201
-158.735	-34.129	-0.290	-0.157
-157.720	-200.000	0.044	0.192
-156.706	-67.173	-0.348	0.135
-155.691	-131.032	-0.277	-0.036
-154.677	-44.343	0.193	0.095
-153.662	25.842	-0.158	-0.130
-152.647	2.835	0.060	0.043
-151.633	-127.386	-0.260	-0.037
-150.618	36.620	0.266	-0.232
-149.604	-200.000	0.005	-0.177
-148.589	171.438	-0.052	-0.073
-147.574	1.747	-0.205	-0.145
-146.560	800.000	0.048	0.181
-145.545	-200.000	-0.002	0.095
-144.531	188.558	-0.131	-0.193
-143.516	302.505	0.132	-0.241
-142.502	-54.781	0.187	-0.083
-141.487	-200.000	-0.021	0.185
-140.472	-58.054	0.359	0.154
-139.458	31.039	-0.338	0.285
-138.443	-200.000	0.020	-0.345
-137.429	-55.342	0.229	0.102
-136.414	-33.749	0.081	0.044
-135.399	532.248	-0.085	-0.199
-134.385	84.419	0.116	0.125
-133.370	241.577	0.204	0.336
-132.356	800.000	-0.074	-0.253
-131.341	281.243	-0.053	0.094
-130.326	-151.610	-0.661	-0.048
-129.312	-0.999	0.162	-0.113
-128.297	-200.000	0.061	-0.266
-127.283	272.448	-0.175	-0.304
-126.268	-168.170	0.266	0.010
-125.253	-145.710	0.099	-0.009
-124.239	-86.886	0.154	-0.046
-123.224	800.000	-0.075	-0.269
-122.210	-42.845	-0.307	-0.154
