DTS Sentinel unit serial number:	SN413079Multiplexer serial number:	ORYXHardware model number:	OX4-SRSoftware version number:	ORYX F/W v4.00 Oryx Data Collector v3.7.2.0data status	okinstallation	princeton_trtdifferential loss correction	single-endedforward channel	channel 2reverse channel	N/Adate	2019/09/11time	16:01:10forward acquisition time	60.00reverse acquisition time	0.00gamma	496.2192k internal	0.2288k external	0.2288temperature offset calibration	1.0015default loss term (dB/km)	0.3790temperature slope calibration	1.0000multiplexer offset coefficient	1.0000multiplexer slope coefficient	1.0000fibre end	0.00T internal ref (°C)	43.06T ext. ref 1 (°C)	1.03T ext. ref 2 (°C)	38.28length (m)	temperature (°C)	Stokes	anti-Stokes-747.200	18.042	-0.272	0.222
-746.185	-200.000	-0.076	0.341
-745.171	58.785	0.083	-0.083
-744.156	216.957	-0.179	0.293
-743.142	-123.287	0.111	0.018
-742.127	-50.198	-0.361	0.175
-741.112	12.409	-0.231	-0.183
-740.098	-200.000	0.052	-0.293
-739.083	-30.847	-0.113	-0.065
-738.069	800.000	-0.044	0.166
-737.054	-144.233	0.276	0.026
-736.039	-108.830	-0.226	0.050
-735.025	-28.222	0.229	0.136
-734.010	-70.276	0.128	-0.050
-732.996	-115.276	-0.163	-0.032
-731.981	800.000	-0.042	-0.127
-730.966	-149.272	0.222	-0.018
-729.952	181.844	0.016	0.025
-728.937	-21.270	0.066	-0.041
-727.923	16.531	-0.031	-0.025
-726.908	800.000	-0.115	0.462
-725.894	-75.277	0.268	0.098
-724.879	-200.000	-0.017	0.228
-723.864	659.695	-0.022	0.059
-722.850	434.214	0.104	0.232
-721.835	800.000	-0.034	0.098
-720.821	176.990	0.062	0.092
-719.806	-69.465	-0.224	-0.088
-718.791	800.000	0.027	-0.115
-717.777	800.000	-0.016	-0.056
-716.762	695.346	0.018	-0.049
-715.748	-57.941	-0.139	-0.062
-714.733	118.256	0.083	0.105
-713.718	-12.539	0.334	0.223
-712.704	72.923	-0.160	-0.172
-711.689	39.443	0.064	0.059
-710.675	-54.195	0.152	-0.071
-709.660	319.659	-0.176	-0.342
-708.645	191.239	0.172	0.265
-707.631	111.871	0.175	-0.216
-706.616	-73.403	-0.041	0.015
-705.602	431.316	-0.085	-0.189
-704.587	-153.208	-0.280	-0.020
-703.572	-200.000	0.020	-0.128
-702.558	647.008	-0.119	0.311
-701.543	-200.000	-0.055	0.475
-700.529	309.009	-0.092	0.176
-699.514	-8.925	0.121	0.083
-698.499	469.737	-0.129	-0.297
-697.485	-134.301	0.338	0.043
-696.470	91.290	0.096	-0.110
-695.456	92.185	0.060	-0.069
-694.441	-200.000	0.020	0.163
-693.426	131.476	0.161	0.211
-692.412	244.691	-0.124	0.213
-691.397	-36.905	0.349	0.192
-690.383	74.968	-0.087	-0.094
-689.368	-200.000	0.026	0.221
-688.354	-98.968	0.195	-0.051
-687.339	-200.000	-0.040	-0.321
-686.324	465.393	0.126	-0.288
-685.310	-200.000	0.034	-0.316
-684.295	-200.000	0.032	0.162
-683.281	-119.625	0.128	0.023
-682.266	-200.000	-0.012	-0.126
-681.251	-81.891	-0.048	0.016
-680.237	-200.000	0.015	-0.091
-679.222	800.000	0.091	0.364
-678.208	-200.000	0.041	0.445
-677.193	-135.853	-0.203	-0.025
-676.178	55.351	-0.147	0.145
-675.164	-176.984	-0.157	0.004
-674.149	-101.819	0.228	0.056
-673.135	752.440	0.133	0.367
-672.120	-176.739	-0.179	0.005
-671.105	-200.000	0.067	0.388
-670.091	800.000	0.044	0.126
-669.076	800.000	-0.036	-0.127
-668.062	-192.931	0.218	-0.002
-667.047	22.317	-0.142	0.119
-666.032	-146.487	-0.111	-0.010
-665.018	670.531	-0.071	0.188
-664.003	-162.377	-0.197	-0.010
-662.989	-74.909	0.157	0.058
-661.974	-171.024	0.040	0.001
-660.959	-15.172	-0.100	-0.066
-659.945	800.000	0.178	-0.551
-658.930	-65.337	-0.485	-0.199
-657.916	11.306	0.180	-0.141
-656.901	800.000	0.024	-0.100
-655.886	-81.802	0.275	-0.092
-654.872	-77.885	0.208	-0.073
-653.857	741.839	-0.109	-0.300
-652.843	74.024	-0.249	-0.267
-651.828	41.507	0.041	0.038
-650.814	58.674	0.165	-0.165
-649.799	93.012	0.150	-0.173
-648.784	0.086	0.104	-0.076
-647.770	-4.749	-0.102	0.072
-646.755	540.035	-0.052	0.126
-645.741	354.843	0.138	-0.281
-644.726	-65.533	0.314	-0.129
-643.711	19.553	0.094	-0.077
-642.697	77.294	-0.058	0.063
-641.682	-200.000	0.005	0.080
-640.668	206.514	-0.185	-0.294
-639.653	86.874	-0.264	0.298
-638.638	-15.452	-0.405	0.265
-637.624	57.046	-0.116	0.116
-636.609	-200.000	0.000	0.173
-635.595	404.049	-0.188	-0.404
-634.580	219.709	-0.198	-0.324
-633.565	800.000	0.096	-0.327
-632.551	126.768	0.123	-0.159
-631.536	-86.247	-0.245	-0.077
-630.522	393.297	0.085	-0.180
-629.507	-53.829	-0.103	-0.048
-628.492	-200.000	0.014	0.122
-627.478	-200.000	0.040	0.281
-626.463	145.899	0.322	-0.441
-625.449	357.651	0.178	-0.362
-624.434	-40.868	-0.182	0.096
-623.419	-111.967	0.079	-0.016
-622.405	-138.095	-0.133	-0.015
-621.390	-104.405	0.260	0.061
-620.376	-119.252	0.275	-0.049
-619.361	800.000	-0.152	-0.509
-618.346	17.833	-0.182	-0.148
-617.332	-14.591	0.036	-0.024
-616.317	-167.347	0.051	0.002
-615.303	67.615	-0.080	-0.083
-614.288	-50.816	-0.142	-0.068
-613.273	-39.202	-0.042	-0.022
-612.259	-2.931	-0.095	0.068
-611.244	289.031	0.138	0.254
-610.230	313.419	-0.146	0.279
-609.215	-200.000	-0.015	-0.253
-608.201	-200.000	0.035	-0.296
-607.186	500.320	0.091	-0.213
-606.171	-200.000	0.022	0.109
-605.157	-11.733	-0.131	-0.087
-604.142	62.359	0.113	-0.115
-603.128	-60.025	-0.153	-0.066
-602.113	-79.868	0.409	-0.140
-601.098	527.868	0.054	0.129
-600.084	-200.000	0.031	-0.241
-599.069	-40.178	0.329	-0.175
-598.055	-33.689	0.202	0.114
-597.040	-40.301	-0.223	-0.118
-596.025	98.767	0.135	0.159
-595.011	-72.999	0.385	-0.144
-593.996	800.000	0.057	-0.228
-592.982	183.985	0.039	-0.059
-591.967	-64.728	0.146	-0.060
-590.952	-131.132	0.146	-0.020
-589.938	43.781	0.166	0.155
-588.923	93.953	0.213	-0.246
-587.909	210.490	0.123	-0.197
-586.894	606.298	-0.047	0.120
-585.879	221.842	0.040	-0.066
-584.865	-64.273	-0.259	-0.107
-583.850	800.000	0.032	-0.100
-582.836	-97.313	-0.380	-0.101
-581.821	118.620	-0.190	-0.239
-580.806	-108.882	-0.179	-0.039
-579.792	800.000	-0.103	0.347
-578.777	-95.525	-0.200	-0.055
-577.763	-182.251	-0.290	0.006
-576.748	800.000	-0.091	-0.353
-575.733	-7.779	-0.263	0.181
-574.719	-131.379	-0.138	0.019
-573.704	-157.436	-0.129	0.008
-572.690	-200.000	0.037	0.306
-571.675	-83.897	-0.212	-0.069
-570.661	800.000	0.025	-0.093
-569.646	-38.447	-0.207	0.111
-568.631	173.771	-0.104	0.153
-567.617	-163.439	-0.264	0.013
-566.602	-93.241	-0.284	-0.080
-565.588	655.481	0.181	0.473
-564.573	195.364	0.118	0.183
-563.558	105.851	0.186	0.224
-562.544	-200.000	0.024	-0.322
-561.529	-200.000	-0.043	0.252
-560.515	346.585	0.050	0.101
-559.500	-200.000	0.006	0.177
-558.485	-200.000	-0.059	0.303
-557.471	800.000	-0.020	0.065
-556.456	-200.000	-0.014	-0.071
-555.442	36.932	0.175	0.157
-554.427	-123.531	0.313	0.051
-553.412	560.095	-0.087	0.215
-552.398	3.844	-0.061	0.046
-551.383	248.970	0.021	0.036
-550.369	27.120	-0.261	-0.223
-549.354	-200.000	0.041	0.258
-548.339	-124.925	0.195	-0.031
-547.325	-200.000	0.012	0.196
-546.310	3.972	-0.202	0.150
-545.296	-126.231	0.360	-0.055
-544.281	176.476	0.082	0.122
-543.266	648.475	-0.031	0.080
-542.252	-92.386	0.106	-0.030
-541.237	800.000	-0.052	0.219
-540.223	118.418	-0.221	-0.277
-539.208	90.479	0.216	-0.245
-538.193	-3.835	-0.120	0.085
-537.179	49.072	-0.168	-0.161
-536.164	42.435	-0.208	-0.193
-535.150	300.770	0.114	0.214
-534.135	62.755	-0.330	0.336
-533.121	275.980	0.093	-0.167
-532.106	-61.057	-0.346	-0.149
-531.091	420.024	-0.074	-0.160
-530.077	376.407	0.162	0.337
-529.062	800.000	0.097	0.335
-528.048	95.351	0.158	0.183
-527.033	800.000	0.015	0.052
-526.018	-200.000	0.030	-0.328
-525.004	147.911	-0.132	-0.180
-523.989	62.611	-0.151	0.154
-522.975	112.700	0.155	-0.191
-521.960	-154.857	0.328	-0.022
-520.945	660.573	0.099	0.258
-519.931	499.843	-0.084	0.198
-518.916	-78.025	0.189	-0.066
-517.902	26.792	0.304	0.259
-516.887	-200.000	-0.027	-0.342
-515.872	-158.771	-0.261	0.015
-514.858	800.000	-0.023	-0.087
-513.843	664.324	-0.049	-0.128
-512.829	-3.068	0.159	0.113
-511.814	800.000	-0.105	0.399
-510.799	33.672	-0.261	0.231
-509.785	433.422	0.063	-0.138
-508.770	-99.734	-0.321	-0.082
-507.756	180.640	0.165	-0.246
-506.741	-117.453	-0.096	-0.018
-505.726	724.120	-0.068	-0.183
-504.712	-72.987	0.070	-0.026
-503.697	-113.373	-0.275	0.055
-502.683	-56.553	-0.068	-0.031
-501.668	-20.375	-0.163	0.102
-500.653	-111.030	-0.215	0.045
-499.639	-16.593	0.290	0.187
-498.624	310.914	-0.068	-0.130
-497.610	-200.000	-0.045	0.477
-496.595	78.885	0.082	-0.089
-495.581	26.080	0.161	0.137
-494.566	124.662	-0.089	-0.114
-493.551	-200.000	-0.037	-0.548
-492.537	107.826	0.093	0.112
-491.522	-200.000	0.056	0.329
-490.508	69.810	0.055	0.058
-489.493	-169.749	0.168	0.006
-488.478	-134.593	-0.267	0.033
-487.464	-187.479	0.060	0.001
-486.449	800.000	-0.040	0.172
-485.435	-117.568	0.101	0.018
-484.420	113.724	0.173	-0.213
-483.405	-130.786	0.339	-0.046
-482.391	-61.858	-0.137	0.058
-481.376	188.065	-0.269	0.408
-480.362	-55.756	-0.147	0.067
-479.347	86.378	0.123	-0.137
-478.332	-200.000	-0.003	-0.090
-477.318	58.290	0.082	0.081
-476.303	190.817	-0.134	-0.204
-475.289	18.071	0.060	0.049
-474.274	-77.352	0.134	-0.047
-473.259	5.530	-0.193	-0.145
-472.245	769.178	0.032	-0.089
-471.230	188.214	0.136	0.206
-470.216	-200.000	-0.004	0.203
-469.201	-48.438	-0.283	-0.138
-468.186	-106.822	0.417	0.094
-467.172	-200.000	0.060	0.289
-466.157	462.005	-0.087	0.196
-465.143	-34.443	0.206	0.115
-464.128	-2.483	-0.009	0.007
-463.113	800.000	-0.061	-0.178
-462.099	-79.052	-0.244	0.084
-461.084	-7.548	0.293	-0.201
-460.070	-143.229	0.319	0.031
-459.055	-161.827	-0.073	-0.004
-458.040	-33.247	-0.163	0.091
-457.026	-200.000	-0.035	0.189
-456.011	-63.650	-0.231	-0.096
-454.997	-200.000	-0.010	-0.235
-453.982	175.867	-0.072	-0.107
-452.968	-200.000	-0.026	0.211
-451.953	47.321	-0.092	-0.087
-450.938	69.997	0.136	-0.142
-449.924	580.742	0.140	-0.347
-448.909	50.516	-0.081	0.077
-447.895	800.000	0.042	0.173
-446.880	-42.487	0.092	0.047
-445.865	-105.164	0.076	0.018
-444.851	429.509	0.114	-0.249
-443.836	35.063	-0.093	-0.082
-442.822	-59.549	0.106	0.046
-441.807	-200.000	0.041	-0.289
-440.792	-104.074	0.230	-0.054
-439.778	87.535	0.123	-0.138
-438.763	-200.000	-0.001	0.058
-437.749	77.134	0.173	-0.187
-436.734	37.980	-0.165	0.149
-435.719	235.619	0.244	0.408
-434.705	57.429	-0.090	0.089
-433.690	800.000	0.074	0.254
-432.676	-35.017	0.149	0.082
-431.661	-200.000	-0.000	0.031
-430.646	-200.000	0.013	-0.194
-429.632	-120.678	-0.151	-0.026
-428.617	-200.000	0.004	-0.020
-427.603	285.343	0.089	0.162
-426.588	-119.504	-0.241	-0.042
-425.573	800.000	0.086	-0.312
-424.559	220.850	0.217	-0.353
-423.544	-114.133	-0.158	0.031
-422.530	-65.521	0.223	0.091
-421.515	-82.939	0.248	-0.081
-420.500	-75.738	-0.243	-0.087
-419.486	87.072	-0.069	-0.077
-418.471	-53.084	0.167	-0.078
-417.457	240.900	0.191	-0.323
-416.442	-200.000	-0.000	0.075
-415.428	-200.000	-0.003	-0.119
-414.413	800.000	0.028	0.107
-413.398	-19.280	0.143	0.090
-412.384	800.000	-0.072	-0.235
-411.369	163.521	-0.124	-0.177
-410.355	-55.556	0.097	-0.044
-409.340	-48.846	0.057	-0.028
-408.325	494.012	0.040	-0.092
-407.311	-73.251	-0.169	0.063
-406.296	9.562	-0.032	0.025
-405.282	-121.221	0.235	-0.040
-404.267	-112.347	0.370	-0.075
-403.252	-200.000	0.062	0.313
-402.238	215.761	0.129	-0.208
-401.223	141.704	-0.153	-0.206
-400.209	20.723	0.203	-0.166
-399.194	302.786	0.121	-0.227
-398.179	-200.000	0.014	0.110
-397.165	-84.100	0.335	-0.108
-396.150	87.788	-0.169	-0.189
-395.136	-10.044	0.164	-0.110
-394.121	236.553	-0.177	-0.296
-393.106	60.658	-0.160	-0.161
-392.092	-101.786	0.394	-0.097
-391.077	-200.000	0.025	-0.356
-390.063	-63.204	0.229	-0.096
-389.048	800.000	0.131	0.470
-388.033	-59.553	0.012	-0.005
-387.019	-153.784	0.302	0.021
-386.004	800.000	0.048	0.157
-384.990	-105.401	0.106	0.024
-383.975	-139.866	0.154	0.017
-382.960	9.268	0.236	0.180
-381.946	-112.879	0.208	-0.042
-380.931	174.534	-0.307	0.449
-379.917	56.140	0.530	-0.520
-378.902	-17.904	0.102	-0.064
-377.888	548.955	-0.096	-0.234
-376.873	-200.000	-0.017	0.223
-375.858	541.825	0.108	0.260
-374.844	800.000	0.015	0.063
-373.829	523.899	-0.046	-0.108
-372.815	285.148	0.093	-0.170
-371.800	-200.000	0.025	-0.144
-370.785	228.452	0.125	-0.206
-369.771	-200.000	-0.001	-0.079
-368.756	67.262	0.171	0.176
-367.742	-102.095	0.249	0.061
-366.727	156.457	0.050	0.070
-365.712	78.812	0.132	0.143
-364.698	267.927	0.190	0.336
-363.683	382.612	-0.193	0.401
-362.669	-44.101	0.139	0.070
-361.654	-119.733	0.089	0.015
-360.639	282.802	-0.050	-0.090
-359.625	-34.786	-0.207	-0.114
-358.610	800.000	-0.042	-0.168
-357.596	-200.000	0.010	-0.178
-356.581	258.397	-0.046	-0.080
-355.566	-158.881	0.153	0.009
-354.552	486.888	-0.144	-0.331
-353.537	601.960	-0.035	0.087
-352.523	373.824	-0.047	-0.096
-351.508	225.970	0.013	0.021
-350.493	-200.000	0.015	0.365
-349.479	800.000	-0.025	0.108
-348.464	-200.000	-0.031	0.241
-347.450	-200.000	-0.008	0.073
-346.435	-146.145	0.092	0.008
-345.420	-184.289	-0.120	0.002
-344.406	39.342	-0.226	-0.204
-343.391	-29.124	-0.134	0.078
-342.377	-82.398	-0.364	0.119
-341.362	310.929	0.034	0.064
-340.348	227.007	0.116	0.190
-339.333	-65.002	0.266	-0.108
-338.318	428.174	-0.065	0.142
-337.304	-46.992	0.034	0.017
-336.289	-125.646	-0.170	0.026
-335.275	800.000	0.040	0.119
-334.260	58.627	-0.083	0.082
-333.245	-89.060	-0.348	0.104
-332.231	-178.186	-0.088	0.002
-331.216	255.435	-0.125	-0.216
-330.202	-99.524	0.283	-0.072
-329.187	793.229	0.026	-0.072
-328.172	-94.823	0.298	-0.081
-327.158	800.000	-0.132	-0.407
-326.143	-102.489	-0.492	0.119
-325.129	-7.218	-0.085	-0.058
-324.114	-200.000	-0.028	-0.143
-323.099	-166.636	0.263	0.011
-322.085	116.161	0.381	0.470
-321.070	126.472	0.156	0.199
-320.056	200.489	-0.158	0.244
-319.041	144.876	-0.154	-0.208
-318.026	437.058	-0.015	-0.032
-317.012	-125.487	-0.234	-0.036
-315.997	675.154	-0.031	0.081
-314.983	-23.103	0.265	0.161
-313.968	-200.000	-0.014	0.333
-312.953	-200.000	-0.042	0.211
-311.939	-96.279	0.033	-0.009
-310.924	566.879	0.143	-0.350
-309.910	-200.000	0.006	0.053
-308.895	144.270	-0.021	-0.029
-307.880	-200.000	-0.002	0.142
-306.866	-200.000	-0.150	0.742
-305.851	128.336	-0.164	0.210
-304.837	-200.000	0.012	-0.157
-303.822	-200.000	0.054	-0.245
-302.807	486.746	-0.068	0.156
-301.793	-31.967	0.178	-0.101
-300.778	-200.000	0.063	0.000
-299.764	-116.870	-0.470	0.087
-298.749	-122.493	0.151	-0.025
-297.735	800.000	-0.039	-0.142
-296.720	-113.824	0.052	0.010
-295.705	305.438	0.152	0.285
-294.691	800.000	0.035	-0.127
-293.676	-140.950	0.193	-0.020
-292.662	38.773	-0.276	-0.249
-291.647	-59.009	0.186	0.081
-290.632	-200.000	-0.011	0.373
-289.618	685.301	-0.034	-0.090
-288.603	800.000	-0.071	-0.295
-287.589	44.295	-0.176	-0.163
-286.574	800.000	-0.095	0.277
-285.559	327.039	-0.083	-0.160
-284.545	-56.385	-0.216	-0.097
-283.530	-42.036	0.108	-0.056
-282.516	-107.083	-0.266	-0.059
-281.501	163.812	0.176	-0.249
-280.486	351.777	0.080	0.160
-279.472	400.990	0.096	0.203
-278.457	-200.000	0.010	0.176
-277.443	-163.267	-0.254	-0.012
-276.428	-68.276	0.317	-0.124
-275.413	-192.636	-0.386	0.004
-274.399	-200.000	0.011	-0.222
-273.384	-58.605	-0.126	-0.055
-272.370	226.362	0.128	0.209
-271.355	-55.298	-0.151	-0.068
-270.340	704.800	-0.087	0.231
-269.326	-129.869	-0.103	0.014
-268.311	92.187	0.178	0.202
-267.297	-57.062	0.181	-0.080
-266.282	-121.117	-0.385	0.065
-265.267	-51.870	0.251	-0.117
-264.253	-7.181	-0.071	-0.049
-263.238	-63.200	-0.174	0.072
-262.224	144.412	-0.119	0.160
-261.209	265.324	0.021	-0.037
-260.195	-12.289	-0.225	0.148
-259.180	-34.251	0.375	0.207
-258.165	-70.311	-0.063	0.024
-257.151	800.000	-0.024	-0.100
-256.136	-200.000	-0.017	-0.198
-255.122	-164.278	-0.187	0.009
-254.107	227.321	-0.134	-0.220
-253.092	64.364	0.060	0.061
-252.078	800.000	-0.053	0.210
-251.063	464.704	0.079	0.177
-250.049	75.915	0.112	-0.120
-249.034	-22.648	0.303	0.184
-248.019	-200.000	-0.018	0.265
-247.005	-200.000	-0.016	-0.191
-245.990	335.594	-0.096	0.187
-244.976	193.364	0.081	-0.124
-243.961	-35.801	-0.325	-0.177
-242.946	399.448	0.135	0.285
-241.932	448.855	0.055	-0.122
-240.917	800.000	0.068	-0.288
-239.903	-128.597	-0.377	-0.054
-238.888	321.123	0.201	-0.383
-237.873	441.502	0.117	0.258
-236.859	-200.000	0.011	-0.116
-235.844	-200.000	0.032	0.241
-234.830	800.000	0.034	0.132
-233.815	45.361	-0.074	0.069
-232.800	-118.446	-0.201	0.036
-231.786	130.607	-0.103	-0.132
-230.771	-170.480	0.020	-0.001
-229.757	682.987	-0.061	-0.159
-228.742	257.947	0.063	0.109
-227.727	-200.000	0.015	0.107
-226.713	-78.434	-0.207	0.071
-225.698	800.000	0.069	0.229
-224.684	-131.218	0.231	-0.031
-223.669	13.961	-0.141	0.110
-222.655	-200.000	0.002	0.190
-221.640	-137.976	0.169	-0.019
-220.625	17.086	0.391	-0.311
-219.611	76.949	0.094	-0.100
-218.596	-20.224	-0.233	-0.144
-217.582	168.836	0.196	0.280
-216.567	800.000	-0.092	-0.272
-215.552	-66.674	0.247	-0.098
-214.538	196.660	-0.055	0.084
-213.523	-127.432	0.567	0.083
-212.509	-78.013	-0.427	-0.148
-211.494	266.878	-0.091	-0.160
-210.479	235.931	0.068	-0.112
-209.465	-17.759	0.104	0.065
-208.450	489.784	-0.095	-0.217
-207.436	800.000	0.034	-0.112
-206.421	-108.231	-0.209	0.045
-205.406	90.300	0.112	-0.126
-204.392	-109.038	-0.346	0.074
-203.377	-200.000	-0.059	-0.260
-202.363	-52.986	-0.472	-0.218
-201.348	-34.962	-0.227	0.124
-200.333	-200.000	-0.030	0.423
-199.319	543.943	-0.084	0.201
-198.304	-74.674	-0.206	-0.074
-197.290	683.826	-0.186	0.488
-196.275	-112.266	-0.252	-0.051
-195.260	-35.677	-0.032	0.017
-194.246	800.000	0.064	-0.190
-193.231	-22.541	-0.381	-0.231
-192.217	278.462	0.040	-0.071
-191.202	-200.000	-0.013	0.155
-190.187	-110.275	0.368	-0.077
-189.173	-200.000	0.011	-0.135
-188.158	184.024	0.004	-0.006
-187.144	800.000	0.025	0.078
-186.129	12.308	0.156	-0.121
-185.114	-142.928	0.368	0.036
-184.100	27.280	0.157	-0.133
-183.085	-8.151	-0.113	-0.076
-182.071	-58.451	-0.260	-0.113
-181.056	-200.000	0.026	-0.170
-180.042	-200.000	0.046	-0.276
-179.027	-45.971	0.342	0.169
-178.012	100.197	-0.156	0.181
-176.998	377.628	-0.170	0.349
-175.983	61.507	-0.254	0.253
-174.969	-200.000	-0.026	0.247
-173.954	155.182	0.134	0.184
-172.939	-200.000	-0.004	-0.136
-171.925	334.820	-0.056	-0.109
-170.910	-200.000	0.009	-0.313
-169.896	744.407	0.081	0.217
-168.881	0.069	-0.073	0.052
-167.866	53.146	-0.186	0.179
-166.852	7.945	0.094	-0.070
-165.837	14.896	-0.191	0.150
-164.823	-106.438	-0.336	0.075
-163.808	220.062	0.128	0.205
-162.793	53.592	-0.239	0.230
-161.779	-10.880	-0.145	-0.096
-160.764	-38.702	-0.144	-0.076
-159.750	9.133	0.337	-0.255
-158.735	-67.133	-0.209	0.083
-157.720	23.653	0.055	-0.045
-156.706	800.000	0.133	0.422
-155.691	24.157	-0.184	0.152
-154.677	45.354	0.058	0.054
-153.662	106.038	-0.131	0.156
-152.647	800.000	-0.032	0.117
-151.633	-200.000	-0.021	-0.450
-150.618	-71.688	0.155	0.058
-149.604	-27.681	0.137	0.080
-148.589	-200.000	-0.023	0.130
-147.574	-2.927	-0.092	-0.065
-146.560	-26.006	0.067	-0.039
-145.545	-200.000	0.007	0.357
-144.531	-178.148	-0.059	0.001
-143.516	661.356	-0.088	0.228
-142.502	-118.364	0.195	0.035
-141.487	-104.665	-0.355	-0.082
-140.472	-136.162	0.195	0.023
-139.458	72.424	0.158	-0.165
-138.443	-200.000	0.030	0.399
-137.429	-110.231	-0.275	-0.057
-136.414	-200.000	0.070	0.391
-135.399	191.900	-0.085	-0.128
-134.385	-52.076	0.206	0.096
-133.370	491.879	0.047	0.108
-132.356	800.000	-0.030	0.126
-131.341	-129.228	-0.379	0.053
-130.326	287.614	-0.045	-0.081
-129.312	52.723	0.227	-0.217
-128.297	-1.809	-0.194	-0.137
-127.283	57.803	-0.223	0.218
-126.268	-62.095	0.153	-0.064
-125.253	-38.452	-0.302	-0.160
-124.239	-200.000	-0.055	0.282
-123.224	-169.226	0.073	0.003
-122.210	800.000	0.053	-0.163
-121.195	12.942	0.085	-0.065
