DTS Sentinel unit serial number:	SN413079Multiplexer serial number:	ORYXHardware model number:	OX4-SRSoftware version number:	ORYX F/W v4.00 Oryx Data Collector v3.7.2.0data status	okinstallation	princeton_trtdifferential loss correction	single-endedforward channel	channel 2reverse channel	N/Adate	2019/09/19time	05:23:35forward acquisition time	60.00reverse acquisition time	0.00gamma	496.2192k internal	0.2351k external	0.2351temperature offset calibration	1.0015default loss term (dB/km)	0.3790temperature slope calibration	1.0000multiplexer offset coefficient	1.0000multiplexer slope coefficient	1.0000fibre end	0.00T internal ref (°C)	19.42T ext. ref 1 (°C)	0.60T ext. ref 2 (°C)	13.02length (m)	temperature (°C)	Stokes	anti-Stokes-747.200	173.192	0.363	0.523
-746.185	-68.239	-0.141	-0.055
-745.171	-31.915	-0.069	-0.038
-744.156	-200.000	0.039	0.368
-743.142	377.409	0.140	0.285
-742.127	141.179	-0.107	0.141
-741.112	768.771	0.053	0.145
-740.098	-92.437	-0.283	-0.079
-739.083	-159.988	-0.115	-0.006
-738.069	-179.537	-0.195	-0.004
-737.054	197.353	-0.054	0.082
-736.039	-0.776	-0.235	0.166
-735.025	4.727	0.186	0.136
-734.010	800.000	-0.058	-0.192
-732.996	-82.572	0.113	0.037
-731.981	-119.188	-0.112	-0.020
-730.966	-29.021	-0.279	-0.160
-729.952	-27.062	-0.157	-0.091
-728.937	22.035	-0.329	-0.268
-727.923	-200.000	0.067	0.375
-726.908	-71.697	-0.072	0.027
-725.894	-1.611	0.111	0.078
-724.879	158.097	0.119	-0.164
-723.864	58.944	-0.083	0.081
-722.850	-200.000	-0.067	-0.295
-721.835	-17.032	0.269	-0.169
-720.821	-69.128	-0.372	-0.143
-719.806	-200.000	0.042	-0.311
-718.791	-90.313	0.137	0.040
-717.777	-103.731	-0.231	0.054
-716.762	800.000	-0.013	-0.046
-715.748	273.904	0.070	0.124
-714.733	-138.462	-0.160	-0.018
-713.718	-88.636	0.415	-0.123
-712.704	-17.919	0.232	-0.145
-711.689	800.000	0.025	-0.081
-710.675	352.913	-0.064	0.127
-709.660	-78.722	0.146	-0.050
-708.645	-15.724	-0.117	0.074
-707.631	42.479	-0.161	-0.146
-706.616	412.949	-0.080	0.170
-705.602	47.776	-0.222	-0.207
-704.587	-95.928	-0.031	-0.008
-703.572	250.829	0.249	0.421
-702.558	-200.000	0.428	-0.000
-701.543	-200.000	-0.108	-0.567
-700.529	-200.000	0.015	0.316
-699.514	400.302	0.108	-0.227
-698.499	800.000	0.057	-0.191
-697.485	-95.512	-0.169	0.045
-696.470	64.818	0.073	-0.074
-695.456	-59.440	0.111	-0.047
-694.441	-138.178	-0.209	0.023
-693.426	626.108	0.150	-0.377
-692.412	-200.000	0.021	0.234
-691.397	-88.815	0.192	0.057
-690.383	90.348	0.020	-0.023
-689.368	-200.000	-0.072	-0.462
-688.354	-126.492	-0.468	-0.069
-687.339	-27.937	0.132	0.076
-686.324	183.508	0.140	-0.206
-685.310	800.000	-0.040	-0.139
-684.295	-200.000	-0.024	0.393
-683.281	-142.732	-0.312	0.030
-682.266	34.546	-0.167	0.145
-681.251	740.811	-0.072	0.191
-680.237	40.668	0.193	-0.173
-679.222	-29.992	0.360	0.204
-678.208	800.000	-0.026	-0.103
-677.193	-96.097	0.192	-0.051
-676.178	-163.137	-0.118	-0.006
-675.164	-200.000	-0.009	-0.149
-674.149	-99.365	-0.176	0.044
-673.135	-42.889	-0.084	-0.043
-672.120	-155.344	-0.106	-0.007
-671.105	-75.527	0.044	0.015
-670.091	-101.363	0.016	-0.004
-669.076	-85.762	0.181	0.056
-668.062	338.056	-0.081	0.157
-667.047	99.458	-0.136	0.156
-666.032	-126.736	0.409	-0.060
-665.018	481.990	-0.092	0.208
-664.003	-200.000	0.004	0.389
-662.989	243.518	0.171	-0.285
-661.974	800.000	0.091	-0.289
-660.959	-40.993	-0.295	-0.152
-659.945	32.915	-0.118	0.102
-658.930	376.549	0.010	-0.021
-657.916	800.000	0.065	-0.255
-656.901	70.331	-0.162	0.166
-655.886	164.820	-0.090	0.126
-654.872	-82.093	0.257	0.083
-653.857	-0.595	-0.058	-0.041
-652.843	-200.000	-0.025	0.178
-651.828	-200.000	-0.033	0.257
-650.814	82.997	-0.135	0.146
-649.799	-28.542	0.048	0.028
-648.784	-200.000	0.018	0.267
-647.770	-122.777	0.149	0.024
-646.755	-119.618	0.076	0.013
-645.741	10.266	-0.102	0.077
-644.726	-200.000	0.013	0.140
-643.711	-146.401	0.181	-0.016
-642.697	28.676	-0.141	0.119
-641.682	43.134	0.272	0.247
-640.668	-49.461	-0.164	-0.078
-639.653	-167.416	-0.067	-0.003
-638.638	90.986	-0.080	0.090
-637.624	-200.000	-0.038	0.211
-636.609	34.518	-0.190	-0.165
-635.595	675.002	-0.040	-0.102
-634.580	-33.760	-0.262	-0.144
-633.565	378.677	0.048	0.099
-632.551	-24.603	-0.171	-0.101
-631.536	-15.639	0.101	0.064
-630.522	-200.000	0.053	-0.344
-629.507	8.055	-0.137	0.102
-628.492	213.128	-0.092	0.144
-627.478	-48.611	0.258	-0.123
-626.463	-200.000	0.018	-0.090
-625.449	66.676	-0.206	-0.208
-624.434	-200.000	-0.003	-0.040
-623.419	-139.046	-0.301	-0.032
-622.405	-63.003	0.211	-0.087
-621.390	451.018	-0.068	0.148
-620.376	132.979	-0.047	0.061
-619.361	250.955	0.223	-0.376
-618.346	-166.521	-0.185	-0.008
-617.332	-10.444	-0.362	0.238
-616.317	-155.047	0.379	0.025
-615.303	264.577	-0.073	0.127
-614.288	-65.810	-0.157	-0.062
-613.273	-70.083	-0.332	0.125
-612.259	800.000	-0.059	-0.226
-611.244	-136.802	0.190	-0.022
-610.230	-42.450	-0.241	-0.122
-609.215	93.147	-0.150	0.168
-608.201	39.365	0.014	0.012
-607.186	-200.000	0.012	-0.062
-606.171	-46.498	-0.100	0.049
-605.157	-123.069	-0.068	0.011
-604.142	43.550	-0.066	0.060
-603.128	-200.000	0.043	-0.759
-602.113	-200.000	0.005	0.065
-601.098	130.872	-0.242	0.308
-600.084	-200.000	0.061	-0.315
-599.069	-100.886	0.159	-0.039
-598.055	-42.935	0.173	-0.087
-597.040	399.340	0.045	-0.095
-596.025	-200.000	0.002	0.213
-595.011	-133.239	-0.210	-0.026
-593.996	208.019	0.094	0.146
-592.982	-75.565	-0.105	0.037
-591.967	32.264	0.121	-0.103
-590.952	-200.000	0.028	-0.341
-589.938	-200.000	-0.002	0.081
-588.923	-200.000	-0.003	0.127
-587.909	-109.644	0.280	-0.059
-586.894	50.470	-0.116	0.109
-585.879	478.499	0.069	-0.155
-584.865	114.058	-0.328	-0.395
-583.850	263.968	-0.041	-0.071
-582.836	-102.587	-0.192	-0.046
-581.821	800.000	0.036	0.111
-580.806	-135.250	-0.241	0.029
-579.792	-6.345	-0.323	0.219
-578.777	76.022	-0.177	0.186
-577.763	-148.962	0.198	-0.016
-576.748	-1.175	0.218	0.153
-575.733	54.187	0.252	0.241
-574.719	-180.432	-0.166	-0.003
-573.704	-136.881	0.061	-0.007
-572.690	800.000	0.035	-0.138
-571.675	73.999	0.188	0.195
-570.661	6.886	0.322	0.238
-569.646	-54.162	-0.145	-0.065
-568.631	800.000	-0.057	0.176
-567.617	-15.008	0.266	0.169
-566.602	198.567	0.105	0.159
-565.588	800.000	-0.020	-0.064
-564.573	60.953	0.331	-0.325
-563.558	800.000	0.072	-0.217
-562.544	-129.812	0.096	0.013
-561.529	58.180	-0.362	0.351
-560.515	-154.731	0.314	0.021
-559.500	75.471	0.094	-0.098
-558.485	189.433	0.077	0.114
-557.471	395.633	0.117	0.242
-556.456	800.000	0.091	0.306
-555.442	0.339	-0.115	0.082
-554.427	43.767	-0.150	-0.136
-553.412	-200.000	0.057	-0.340
-552.398	-200.000	-0.037	-0.162
-551.383	-95.527	0.116	0.031
-550.369	-102.660	0.194	0.046
-549.354	800.000	0.093	0.272
-548.339	39.280	-0.176	0.156
-547.325	-96.204	-0.044	0.012
-546.310	215.639	-0.146	-0.229
-545.296	-200.000	-0.020	-0.302
-544.281	-53.254	0.244	0.111
-543.266	43.559	0.346	0.313
-542.252	-36.328	-0.313	0.167
-541.237	-200.000	-0.004	0.128
-540.223	-200.000	-0.009	0.285
-539.208	-200.000	-0.012	-0.279
-538.193	-131.956	-0.330	0.043
-537.179	65.696	-0.183	-0.183
-536.164	-200.000	-0.047	-0.241
-535.150	274.935	-0.108	-0.190
-534.135	-33.418	-0.370	-0.202
-533.121	-200.000	-0.039	-0.237
-532.106	279.174	0.141	0.250
-531.091	-123.587	0.098	-0.015
-530.077	-118.164	-0.319	-0.056
-529.062	-65.795	0.096	0.038
-528.048	-200.000	0.001	0.045
-527.033	-68.827	0.262	-0.100
-526.018	91.889	0.085	-0.094
-525.004	59.805	0.179	-0.175
-523.989	-200.000	0.052	-0.552
-522.975	227.747	0.074	-0.120
-521.960	800.000	0.025	-0.096
-520.945	-200.000	-0.027	0.171
-519.931	620.444	0.128	0.317
-518.916	800.000	0.016	-0.062
-517.902	-200.000	-0.020	0.203
-516.887	-61.233	-0.377	0.157
-515.872	-108.870	0.389	-0.082
-514.858	-115.659	-0.205	-0.038
-513.843	-180.928	0.237	0.005
-512.829	-39.705	-0.110	0.057
-511.814	678.282	-0.145	-0.373
-510.799	266.247	0.143	0.248
-509.785	22.376	-0.125	-0.101
-508.770	-200.000	-0.011	-0.146
-507.756	-171.458	-0.217	-0.007
-506.741	-200.000	0.034	0.455
-505.726	62.683	-0.316	0.313
-504.712	128.735	-0.155	0.195
-503.697	-10.464	-0.300	-0.196
-502.683	213.802	-0.084	0.132
-501.668	21.857	-0.190	0.153
-500.653	-89.067	0.151	-0.044
-499.639	71.357	-0.135	0.139
-498.624	-62.980	-0.278	0.113
-497.610	1.281	0.144	0.102
-496.595	109.399	0.121	-0.143
-495.581	43.368	0.105	-0.094
-494.566	-69.015	0.211	-0.081
-493.551	-200.000	-0.134	-0.000
-492.537	-200.000	-0.036	-0.220
-491.522	800.000	-0.098	0.273
-490.508	-133.179	-0.213	0.027
-489.493	-78.393	0.405	0.137
-488.478	-105.226	-0.315	-0.071
-487.464	471.424	-0.031	0.069
-486.449	-200.000	0.062	0.287
-485.435	132.363	0.120	-0.153
-484.420	1.075	0.185	-0.131
-483.405	28.840	0.104	-0.087
-482.391	-102.150	0.106	-0.025
-481.376	-185.131	0.163	0.003
-480.362	-104.950	0.328	-0.074
-479.347	-188.148	0.458	0.006
-478.332	-85.157	-0.274	0.085
-477.318	142.337	-0.226	0.296
-476.303	87.282	-0.160	0.174
-475.289	-34.664	0.376	-0.203
-474.274	305.656	0.078	-0.142
-473.259	-71.809	0.082	0.030
-472.245	520.716	0.032	-0.073
-471.230	157.670	0.102	0.139
-470.216	60.666	-0.177	0.173
-469.201	-200.000	-0.008	-0.244
-468.186	800.000	0.082	0.280
-467.172	-2.298	-0.309	0.214
-466.157	-93.172	-0.157	0.043
-465.143	-28.156	-0.192	-0.110
-464.128	-116.274	-0.071	-0.013
-463.113	97.660	0.084	0.096
-462.099	211.440	0.128	-0.200
-461.084	-68.444	0.196	-0.075
-460.070	800.000	0.068	-0.196
-459.055	800.000	-0.015	0.042
-458.040	648.574	0.090	0.227
-457.026	523.326	0.047	0.109
-456.011	167.783	0.116	-0.162
-454.997	452.066	0.109	0.238
-453.982	-2.152	-0.149	-0.103
-452.968	-0.792	-0.294	-0.205
-451.953	193.987	0.180	-0.270
-450.938	800.000	0.036	-0.117
-449.924	118.524	-0.081	-0.098
-448.909	-176.448	0.139	0.004
-447.895	240.906	-0.123	-0.203
-446.880	23.695	-0.132	0.108
-445.865	-200.000	-0.047	0.276
-444.851	37.332	0.075	-0.065
-443.836	800.000	0.014	-0.041
-442.822	509.322	0.084	0.193
-441.807	57.770	-0.188	0.182
-440.792	648.891	-0.058	-0.147
-439.778	87.766	-0.020	-0.022
-438.763	800.000	0.059	-0.201
-437.749	800.000	-0.038	-0.112
-436.734	-155.514	-0.266	-0.017
-435.719	-47.638	-0.360	0.172
-434.705	-109.048	0.288	-0.060
-433.690	264.205	0.075	-0.129
-432.676	-66.086	0.341	-0.134
-431.661	48.712	-0.164	-0.152
-430.646	-121.214	-0.320	0.053
-429.632	-3.029	0.303	0.209
-428.617	-177.598	-0.180	-0.004
-427.603	-26.569	0.060	-0.035
-426.588	-103.310	0.193	-0.045
-425.573	141.329	0.138	-0.180
-424.559	524.612	0.073	-0.169
-423.544	-144.805	-0.265	-0.024
-422.530	-200.000	-0.042	-0.188
-421.515	345.852	0.071	0.137
-420.500	-77.244	-0.092	-0.031
-419.486	184.524	0.220	-0.322
-418.471	441.184	0.065	-0.140
-417.457	800.000	0.050	-0.142
-416.442	605.473	-0.082	0.200
-415.428	-200.000	0.087	-0.000
-414.413	-127.491	0.285	-0.041
-413.398	700.075	-0.103	0.268
-412.384	-57.393	-0.076	-0.033
-411.369	172.821	0.118	-0.168
-410.355	-69.397	0.480	0.181
-409.340	156.988	0.074	0.100
-408.325	-41.788	-0.229	0.116
-407.311	-53.686	0.193	-0.087
-406.296	93.034	-0.140	0.156
-405.282	-16.504	-0.154	0.096
-404.267	-68.602	-0.084	0.032
-403.252	241.717	0.042	-0.070
-402.238	-59.613	0.075	-0.032
-401.223	170.953	0.089	-0.125
-400.209	205.412	0.114	0.174
-399.194	442.408	0.005	-0.010
-398.179	800.000	-0.060	0.252
-397.165	172.757	0.144	-0.204
-396.150	50.793	0.102	-0.095
-395.136	-200.000	-0.086	0.483
-394.121	31.763	-0.166	0.140
-393.106	-98.563	0.148	0.037
-392.092	-28.814	-0.102	0.058
-391.077	16.312	0.191	0.148
-390.063	-200.000	0.001	0.030
-389.048	-139.869	0.280	0.029
-388.033	106.823	0.082	-0.095
-387.019	216.263	-0.154	-0.241
-386.004	800.000	0.017	-0.067
-384.990	11.265	-0.186	-0.140
-383.975	95.700	-0.103	-0.116
-382.960	800.000	-0.034	-0.098
-381.946	-109.771	0.022	0.005
-380.931	-64.309	0.066	0.027
-379.917	242.250	0.093	-0.154
-378.902	-200.000	0.102	0.000
-377.888	117.880	-0.267	0.323
-376.873	48.564	-0.286	-0.263
-375.858	62.877	0.278	-0.274
-374.844	206.839	-0.116	0.177
-373.829	-69.412	0.253	-0.095
-372.815	43.783	-0.165	-0.148
-371.800	74.111	-0.090	-0.093
-370.785	-66.567	-0.130	-0.051
-369.771	-100.753	-0.063	-0.015
-368.756	91.328	-0.042	-0.046
-367.742	800.000	0.027	0.107
-366.727	55.967	-0.193	0.184
-365.712	800.000	0.086	-0.337
-364.698	-15.420	0.150	0.094
-363.683	-40.245	0.272	-0.139
-362.669	-28.681	-0.291	-0.165
-361.654	641.758	-0.118	-0.296
-360.639	-200.000	0.001	0.124
-359.625	-91.988	-0.042	0.012
-358.610	-7.623	0.059	0.040
-357.596	365.283	0.030	0.059
-356.581	432.224	-0.060	0.128
-355.566	-31.113	0.199	0.110
-354.552	56.503	0.132	0.126
-353.537	-138.619	0.107	0.012
-352.523	-200.000	0.074	-0.486
-351.508	5.174	-0.212	-0.153
-350.493	108.146	0.188	0.220
-349.479	-200.000	0.029	0.207
-348.464	399.284	-0.100	-0.205
-347.450	-200.000	-0.021	0.119
-346.435	-200.000	0.001	-0.036
-345.420	-200.000	0.022	-0.142
-344.406	800.000	-0.083	0.249
-343.391	-18.889	0.135	0.083
-342.377	80.350	-0.146	-0.154
-341.362	106.234	-0.058	-0.067
-340.348	-140.857	-0.123	-0.012
-339.333	460.242	-0.085	-0.185
-338.318	-113.400	0.130	0.025
-337.304	60.356	0.203	-0.197
-336.289	-200.000	0.024	-0.324
-335.275	-85.125	-0.294	0.091
-334.260	26.810	-0.214	0.176
-333.245	487.066	-0.049	-0.110
-332.231	-51.463	-0.107	0.049
-331.216	-200.000	-0.028	-0.366
-330.202	414.562	-0.086	0.181
-329.187	-200.000	0.024	0.215
-328.172	490.614	0.096	-0.215
-327.158	800.000	0.080	0.322
-326.143	382.287	0.083	0.168
-325.129	-200.000	0.001	-0.100
-324.114	800.000	-0.024	-0.082
-323.099	-117.075	-0.318	-0.057
-322.085	66.578	0.170	-0.170
-321.070	73.245	0.009	-0.009
-320.056	194.236	-0.038	-0.056
-319.041	154.572	-0.088	0.118
-318.026	-142.481	0.164	0.016
-317.012	-82.924	-0.253	-0.080
-315.997	-158.451	0.547	0.031
-314.983	-72.759	0.255	-0.092
-313.968	800.000	0.069	-0.260
-312.953	509.888	-0.064	0.147
-311.939	-91.342	-0.082	-0.023
-310.924	420.326	-0.071	0.150
-309.910	79.930	-0.164	0.173
-308.895	-121.198	0.202	0.033
-307.880	321.713	-0.155	-0.290
-306.866	-20.723	0.047	0.028
-305.851	9.366	-0.128	0.095
-304.837	-200.000	0.021	0.194
-303.822	-200.000	0.005	-0.070
-302.807	782.848	-0.029	-0.077
-301.793	-200.000	-0.007	0.132
-300.778	800.000	-0.030	-0.104
-299.764	1.624	0.229	0.162
-298.749	172.363	0.117	-0.164
-297.735	116.500	0.222	0.267
-296.720	3.389	-0.226	-0.161
-295.705	680.056	0.117	-0.300
-294.691	567.432	-0.138	-0.328
-293.676	174.759	0.081	0.115
-292.662	149.030	0.022	0.030
-291.647	-100.000	0.151	-0.037
-290.632	-132.916	-0.018	0.002
-289.618	800.000	0.026	-0.080
-288.603	800.000	0.066	0.212
-287.589	119.914	-0.157	-0.190
-286.574	239.759	0.130	0.213
-285.559	-92.844	-0.352	-0.096
-284.545	63.736	0.101	0.100
-283.530	225.218	0.073	-0.116
-282.516	209.355	-0.098	-0.150
-281.501	-200.000	-0.025	-0.122
-280.486	114.601	0.145	-0.173
-279.472	-5.822	-0.088	0.059
-278.457	-53.085	0.050	-0.022
-277.443	94.925	-0.183	0.204
-276.428	16.231	-0.171	-0.132
-275.413	206.337	0.161	0.245
-274.399	44.120	0.316	0.284
-273.384	212.281	-0.055	0.085
-272.370	758.931	0.124	-0.328
-271.355	-9.658	-0.299	-0.195
-270.340	26.547	-0.151	0.124
-269.326	-200.000	-0.011	0.120
-268.311	109.526	0.130	0.153
-267.297	71.513	0.257	0.262
-266.282	-49.942	0.062	0.029
-265.267	-183.769	-0.449	0.007
-264.253	-200.000	-0.039	0.456
-263.238	629.528	0.076	0.187
-262.224	-8.347	-0.148	-0.097
-261.209	61.642	0.242	0.236
-260.195	-38.963	0.488	0.252
-259.180	-90.447	0.293	0.083
-258.165	-131.607	0.069	-0.009
-257.151	-200.000	-0.026	0.159
-256.136	-200.000	-0.099	0.479
-255.122	67.982	0.151	0.152
-254.107	133.511	0.101	-0.128
-253.092	44.324	-0.091	0.081
-252.078	-200.000	-0.033	0.345
-251.063	181.757	-0.059	-0.086
-250.049	-115.409	0.173	0.032
-249.034	800.000	-0.056	-0.206
-248.019	-20.816	0.015	0.009
-247.005	9.252	-0.279	0.207
-245.990	-59.889	-0.202	-0.085
-244.976	-134.632	0.280	0.033
-243.961	61.452	0.125	0.121
-242.946	251.728	0.105	-0.175
-241.932	-200.000	-0.004	0.027
-240.917	-200.000	-0.016	0.244
-239.903	800.000	0.048	-0.162
-238.888	-114.136	0.056	-0.011
-237.873	425.788	0.083	-0.175
-236.859	762.057	-0.063	-0.166
-235.844	-97.848	-0.229	0.058
-234.830	-200.000	0.015	-0.219
-233.815	-200.000	0.033	0.154
-232.800	-108.562	-0.163	-0.034
-231.786	-77.198	-0.384	0.131
-230.771	-121.444	0.130	0.021
-229.757	-192.134	-0.175	-0.002
-228.742	411.414	-0.096	0.199
-227.727	-200.000	-0.022	-0.185
-226.713	165.012	0.214	0.296
-225.698	57.698	0.056	0.054
-224.684	584.735	0.142	0.341
-223.669	-134.081	-0.249	-0.030
-222.655	738.169	0.058	-0.151
-221.640	-96.719	0.316	-0.081
-220.625	-64.524	0.063	-0.025
-219.611	-15.741	-0.138	-0.086
-218.596	-200.000	0.023	-0.196
-217.582	21.608	-0.122	0.097
-216.567	41.277	-0.074	0.065
-215.552	-200.000	-0.009	-0.066
-214.538	-200.000	-0.020	0.130
-213.523	55.092	0.191	-0.180
-212.509	-40.712	0.064	-0.032
-211.494	388.791	0.177	-0.359
-210.479	800.000	0.027	-0.107
-209.465	652.772	-0.059	0.149
-208.450	375.769	-0.088	0.175
-207.436	-55.578	0.066	-0.029
-206.421	235.806	0.141	-0.228
-205.406	-200.000	0.057	-0.364
-204.392	-194.361	0.182	-0.001
-203.377	-200.000	-0.043	-0.243
-202.363	113.344	-0.299	0.355
-201.348	-187.105	-0.256	-0.003
-200.333	-81.030	0.063	0.021
-199.319	800.000	0.065	-0.274
-198.304	-200.000	-0.081	-0.360
-197.290	-101.458	-0.296	-0.070
-196.275	194.658	0.144	0.213
-195.260	-200.000	0.055	-0.278
-194.246	-200.000	-0.009	-0.053
-193.231	225.087	-0.083	0.131
-192.217	-162.656	0.091	0.004
-191.202	-69.334	-0.268	-0.101
-190.187	-22.405	0.101	0.060
-189.173	254.546	0.199	0.333
-188.158	-126.615	0.088	-0.013
-187.144	323.715	-0.103	0.192
-186.129	-10.019	0.167	-0.108
-185.114	663.512	0.098	0.246
-184.100	800.000	-0.144	0.498
-183.085	136.392	0.095	-0.121
-182.071	203.392	-0.072	-0.109
-181.056	116.043	0.181	0.216
-180.042	-55.389	-0.141	-0.062
-179.027	111.170	0.177	-0.208
-178.012	-200.000	0.016	0.337
-176.998	800.000	0.032	-0.103
-175.983	361.659	-0.172	-0.336
-174.969	-200.000	-0.353	0.000
-173.954	-23.404	-0.246	-0.144
-172.939	59.347	-0.202	0.194
-171.925	-10.768	-0.247	-0.159
-170.910	-200.000	0.035	-0.155
-169.896	-49.331	0.291	-0.135
-168.881	-110.280	-0.143	0.029
-167.866	-200.000	-0.078	-0.336
-166.852	-90.399	0.285	-0.081
-165.837	326.892	0.122	0.228
-164.823	96.825	0.123	0.137
-163.808	800.000	-0.073	0.211
-162.793	-41.737	0.386	-0.194
-161.779	99.758	-0.234	0.264
-160.764	-200.000	0.063	-0.352
-159.750	-200.000	0.024	-0.177
-158.735	800.000	-0.075	0.286
-157.720	84.034	-0.146	0.156
-156.706	448.217	0.008	0.017
-155.691	34.973	0.086	-0.074
-154.677	-200.000	-0.023	0.440
-153.662	800.000	-0.072	-0.217
-152.647	-200.000	0.000	0.043
-151.633	169.911	0.118	-0.165
-150.618	-20.531	0.323	-0.194
-149.604	-169.343	0.179	0.006
-148.589	-104.095	0.170	0.039
-147.574	395.338	0.079	0.161
-146.560	-47.426	-0.291	0.138
-145.545	-9.881	-0.053	0.034
-144.531	548.803	-0.057	0.134
-143.516	-200.000	-0.030	0.179
-142.502	-119.229	0.134	0.023
-141.487	195.898	-0.030	0.044
-140.472	-119.417	0.282	0.048
-139.458	-200.000	0.048	-0.374
-138.443	800.000	-0.105	-0.309
-137.429	-200.000	0.006	-0.325
-136.414	-82.256	0.163	0.052
-135.399	-134.578	0.275	-0.033
-134.385	148.777	0.345	-0.454
-133.370	-55.341	0.278	0.121
-132.356	89.348	-0.181	-0.196
-131.341	-38.330	0.241	-0.124
-130.326	800.000	-0.089	0.275
-129.312	163.326	0.140	-0.191
-128.297	-10.037	-0.213	-0.138
-127.283	800.000	-0.034	-0.143
-126.268	68.747	-0.250	-0.250
-125.253	587.454	0.044	0.106
-124.239	-200.000	-0.077	0.525
-123.224	-200.000	-0.004	0.059
-122.210	198.644	-0.145	-0.216
-121.195	560.021	0.101	-0.238
