DTS Sentinel unit serial number:	SN413079Multiplexer serial number:	ORYXHardware model number:	OX4-SRSoftware version number:	ORYX F/W v4.00 Oryx Data Collector v3.7.2.0data status	okinstallation	princeton_trtdifferential loss correction	single-endedforward channel	channel 2reverse channel	N/Adate	2019/09/19time	15:27:34forward acquisition time	60.00reverse acquisition time	0.00gamma	496.2192k internal	0.2318k external	0.2318temperature offset calibration	1.0026default loss term (dB/km)	0.3790temperature slope calibration	1.0000multiplexer offset coefficient	1.0000multiplexer slope coefficient	1.0000fibre end	0.00T internal ref (°C)	33.97T ext. ref 1 (°C)	1.14T ext. ref 2 (°C)	31.04length (m)	temperature (°C)	Stokes	anti-Stokes-747.200	800.000	-0.111	0.404
-746.185	-65.445	-0.458	0.186
-745.171	-200.000	0.036	0.174
-744.156	-28.774	-0.124	-0.072
-743.142	-50.752	0.031	0.015
-742.127	196.870	0.212	0.328
-741.112	29.329	-0.122	0.105
-740.098	332.349	-0.117	0.228
-739.083	-200.000	-0.064	0.487
-738.069	425.211	-0.154	0.336
-737.054	-27.777	0.260	0.153
-736.039	-174.100	0.046	-0.001
-735.025	800.000	-0.034	0.113
-734.010	-95.588	-0.214	-0.058
-732.996	70.622	-0.223	-0.233
-731.981	-200.000	-0.034	0.234
-730.966	-136.984	-0.434	0.050
-729.952	800.000	-0.056	0.172
-728.937	-99.636	-0.028	-0.007
-727.923	33.347	0.128	0.112
-726.908	475.565	-0.089	-0.203
-725.894	67.158	0.175	-0.180
-724.879	800.000	-0.108	-0.447
-723.864	184.883	-0.154	-0.232
-722.850	-158.641	-0.259	0.015
-721.835	-188.386	0.289	0.004
-720.821	-200.000	-0.279	0.000
-719.806	78.487	-0.192	-0.208
-718.791	25.201	0.167	-0.140
-717.777	-200.000	-0.003	-0.207
-716.762	-159.959	-0.353	-0.019
-715.748	-107.998	0.214	-0.047
-714.733	-122.258	-0.105	0.017
-713.718	-82.100	-0.210	0.069
-712.704	-200.000	0.047	-0.295
-711.689	148.523	-0.146	-0.200
-710.675	-109.901	0.139	0.029
-709.660	-88.536	0.404	-0.122
-708.645	164.382	0.115	0.164
-707.631	-200.000	-0.042	-0.213
-706.616	-125.006	0.186	0.029
-705.602	371.242	-0.246	0.503
-704.587	-200.000	-0.015	0.149
-703.572	240.231	0.061	0.102
-702.558	-69.505	-0.234	0.090
-701.543	-79.477	0.188	-0.064
-700.529	-200.000	0.012	-0.365
-699.514	285.599	-0.222	0.404
-698.499	-200.000	-0.030	-0.252
-697.485	477.864	0.168	0.385
-696.470	-200.000	-0.036	-0.196
-695.456	178.437	0.186	-0.274
-694.441	205.351	-0.258	0.404
-693.426	-144.642	-0.240	0.022
-692.412	75.426	0.161	0.171
-691.397	-171.162	0.138	0.005
-690.383	-104.188	0.207	-0.049
-689.368	-200.000	-0.044	-0.433
-688.354	139.179	-0.164	-0.217
-687.339	-50.709	-0.029	-0.014
-686.324	-14.853	0.047	0.030
-685.310	81.964	0.312	0.341
-684.295	-200.000	0.015	0.099
-683.281	57.752	-0.199	-0.197
-682.266	-49.655	-0.246	0.118
-681.251	-73.280	-0.151	0.056
-680.237	-200.000	0.028	-0.207
-679.222	784.161	0.058	0.159
-678.208	-59.519	0.168	0.073
-677.193	-163.812	-0.308	-0.015
-676.178	-75.526	-0.121	0.044
-675.164	-200.000	0.060	-0.434
-674.149	68.194	-0.247	-0.256
-673.135	276.139	0.075	-0.134
-672.120	-126.965	0.461	0.068
-671.105	5.699	0.114	-0.085
-670.091	272.039	-0.054	-0.096
-669.076	69.399	0.167	-0.174
-668.062	-164.510	-0.315	-0.014
-667.047	107.928	-0.159	0.191
-666.032	-200.000	0.028	-0.250
-665.018	16.205	-0.297	-0.236
-664.003	237.323	-0.084	0.140
-662.989	-131.958	0.321	-0.042
-661.974	79.729	0.061	-0.066
-660.959	-19.556	0.090	0.056
-659.945	800.000	0.005	-0.016
-658.930	316.131	0.088	0.167
-657.916	-71.405	0.450	0.170
-656.901	178.349	0.161	-0.237
-655.886	-22.591	-0.299	0.182
-654.872	-75.254	0.087	-0.031
-653.857	298.610	-0.244	-0.452
-652.843	-180.031	-0.296	0.006
-651.828	-126.150	-0.089	0.013
-650.814	71.451	-0.013	-0.014
-649.799	95.908	-0.066	-0.076
-648.784	324.224	-0.057	0.109
-647.770	133.771	-0.122	0.159
-646.755	-95.470	-0.126	0.034
-645.741	-27.924	-0.372	0.217
-644.726	-200.000	0.052	0.355
-643.711	-76.511	-0.137	-0.048
-642.697	-142.138	0.310	0.031
-641.682	305.582	-0.080	0.149
-640.668	149.161	-0.130	-0.177
-639.653	-200.000	-0.050	-0.274
-638.638	-116.225	-0.257	-0.048
-637.624	-200.000	0.025	-0.123
-636.609	41.829	0.168	-0.153
-635.595	265.482	-0.194	0.341
-634.580	-52.641	-0.276	-0.129
-633.565	-64.307	-0.269	0.110
-632.551	-95.860	-0.221	0.059
-631.536	-59.444	-0.154	0.067
-630.522	-106.024	0.051	-0.011
-629.507	-200.000	-0.020	-0.111
-628.492	-200.000	0.016	-0.206
-627.478	-53.979	-0.159	0.073
-626.463	-40.433	-0.046	0.024
-625.449	-200.000	0.001	-0.179
-624.434	-102.080	-0.208	0.051
-623.419	40.685	0.119	0.108
-622.405	-200.000	0.008	-0.141
-621.390	-200.000	0.036	0.199
-620.376	136.977	-0.160	0.211
-619.361	116.947	-0.133	0.165
-618.346	315.436	-0.070	0.133
-617.332	-20.015	0.048	0.030
-616.317	103.890	-0.029	0.034
-615.303	69.199	0.194	0.201
-614.288	-150.591	0.188	-0.014
-613.273	34.166	-0.267	-0.234
-612.259	-90.716	-0.065	0.019
-611.244	800.000	-0.025	-0.098
-610.230	-200.000	-0.032	-0.155
-609.215	800.000	0.036	0.105
-608.201	33.610	-0.054	0.047
-607.186	28.103	-0.089	-0.076
-606.171	800.000	0.135	-0.424
-605.157	-200.000	-0.021	-0.239
-604.142	-5.957	0.080	-0.055
-603.128	-200.000	0.000	0.045
-602.113	-53.186	-0.392	-0.181
-601.098	557.708	-0.016	-0.039
-600.084	-83.976	0.169	0.054
-599.069	447.748	0.039	0.087
-598.055	565.771	0.075	0.183
-597.040	752.412	-0.030	0.082
-596.025	-200.000	-0.037	0.170
-595.011	108.022	0.097	-0.116
-593.996	-19.215	0.388	0.242
-592.982	-22.002	-0.298	-0.182
-591.967	-71.431	0.123	-0.046
-590.952	0.429	0.074	0.053
-589.938	51.023	-0.369	0.352
-588.923	123.728	0.151	0.191
-587.909	87.425	-0.131	-0.146
-586.894	800.000	-0.080	-0.281
-585.879	116.073	0.100	-0.123
-584.865	-150.875	-0.260	0.020
-583.850	110.713	-0.131	0.159
-582.836	6.006	0.239	-0.178
-581.821	191.744	0.102	0.155
-580.806	41.725	-0.214	-0.195
-579.792	-120.246	-0.166	-0.029
-578.777	110.634	-0.071	0.086
-577.763	66.190	0.046	-0.047
-576.748	-200.000	-0.017	0.195
-575.733	58.277	0.119	-0.117
-574.719	185.732	-0.076	-0.113
-573.704	-50.963	0.168	-0.079
-572.690	800.000	-0.049	0.210
-571.675	511.039	0.039	0.090
-570.661	800.000	-0.084	-0.276
-569.646	-200.000	-0.026	0.161
-568.631	-115.142	0.035	-0.007
-567.617	-99.350	-0.085	-0.022
-566.602	566.554	-0.057	0.140
-565.588	-200.000	-0.007	0.630
-564.573	-2.976	-0.121	0.085
-563.558	800.000	-0.032	0.125
-562.544	249.366	-0.179	0.305
-561.529	32.843	-0.068	-0.059
-560.515	-200.000	0.017	0.196
-559.500	800.000	-0.050	0.152
-558.485	-151.933	-0.132	-0.010
-557.471	-187.175	-0.279	0.004
-556.456	19.454	0.124	0.100
-555.442	701.797	0.082	-0.217
-554.427	145.804	0.099	-0.133
-553.412	-99.018	0.057	-0.015
-552.398	577.778	0.017	0.042
-551.383	16.081	-0.230	-0.182
-550.369	-200.000	-0.027	0.242
-549.354	784.777	0.092	0.252
-548.339	156.800	0.142	0.197
-547.325	-66.077	0.344	0.138
-546.310	97.012	-0.027	-0.031
-545.296	18.571	-0.340	-0.273
-544.281	24.531	0.139	0.116
-543.266	300.777	0.160	-0.296
-542.252	58.506	0.057	0.056
-541.237	-200.000	-0.026	-0.202
-540.223	2.451	0.218	0.158
-539.208	800.000	0.006	0.021
-538.193	-17.327	-0.297	0.188
-537.179	800.000	0.049	-0.179
-536.164	588.355	0.055	-0.137
-535.150	388.264	-0.055	0.114
-534.135	-147.760	0.077	-0.006
-533.121	47.484	0.137	-0.128
-532.106	-200.000	0.005	-0.390
-531.091	39.643	-0.185	-0.167
-530.077	22.859	-0.114	0.094
-529.062	-4.198	0.272	0.189
-528.048	-200.000	-0.012	0.066
-527.033	-79.206	-0.215	-0.073
-526.018	800.000	0.032	-0.102
-525.004	-200.000	0.010	0.097
-523.989	-167.620	-0.106	-0.004
-522.975	-146.586	0.343	0.030
-521.960	83.279	-0.133	0.145
-520.945	-73.360	0.207	-0.076
-519.931	-200.000	-0.004	-0.240
-518.916	25.935	-0.061	0.051
-517.902	800.000	-0.029	-0.100
-516.887	-200.000	-0.011	0.070
-515.872	-200.000	-0.080	0.414
-514.858	-140.885	0.270	0.028
-513.843	-45.758	0.103	0.051
-512.829	-99.849	0.240	-0.060
-511.814	-113.035	-0.106	-0.021
-510.799	130.217	-0.152	0.195
-509.785	57.635	0.162	0.159
-508.770	-200.000	0.017	-0.122
-507.756	-51.627	0.157	-0.074
-506.741	-147.840	-0.202	0.017
-505.726	-15.119	-0.013	-0.008
-504.712	-131.202	-0.122	-0.016
-503.697	123.098	0.028	-0.035
-502.683	-81.168	-0.272	-0.090
-501.668	187.879	0.264	0.396
-500.653	-35.449	-0.240	-0.131
-499.639	-34.067	-0.172	0.095
-498.624	-200.000	-0.005	-0.160
-497.610	-174.750	0.217	-0.006
-496.595	-51.646	-0.049	-0.023
-495.581	-133.059	0.423	0.054
-494.566	416.621	0.077	-0.164
-493.551	-39.741	-0.289	-0.151
-492.537	-179.006	-0.314	0.007
-491.522	-200.000	0.040	-0.415
-490.508	-90.517	0.176	-0.051
-489.493	-30.816	-0.159	-0.090
-488.478	-25.734	0.265	-0.156
-487.464	-0.040	0.053	0.038
-486.449	247.039	0.166	-0.281
-485.435	-78.078	-0.161	-0.055
-484.420	207.716	0.094	-0.147
-483.405	163.011	0.134	0.188
-482.391	38.764	-0.113	0.101
-481.376	515.256	-0.092	-0.216
-480.362	-20.769	0.232	0.143
-479.347	-153.210	0.255	-0.018
-478.332	69.509	-0.188	0.194
-477.318	-2.888	0.316	-0.221
-476.303	-112.564	-0.283	0.056
-475.289	-114.267	-0.262	-0.051
-474.274	-95.532	0.167	-0.045
-473.259	220.212	0.018	0.029
-472.245	208.005	0.126	-0.197
-471.230	-104.370	0.231	0.054
-470.216	40.002	0.197	-0.177
-469.201	-39.634	-0.060	0.032
-468.186	19.171	-0.153	0.123
-467.172	39.313	-0.253	-0.227
-466.157	279.857	-0.235	0.420
-465.143	327.806	0.116	-0.223
-464.128	715.774	0.156	-0.414
-463.113	800.000	0.114	0.393
-462.099	-14.217	0.250	0.161
-461.084	-97.231	0.266	0.069
-460.070	83.757	0.050	0.055
-459.055	84.000	-0.033	-0.036
-458.040	-76.739	-0.153	0.054
-457.026	165.099	-0.199	-0.282
-456.011	-84.595	-0.106	-0.034
-454.997	-7.298	0.272	-0.185
-453.982	109.254	-0.170	-0.203
-452.968	-170.534	-0.151	-0.005
-451.953	293.862	-0.077	0.140
-450.938	74.471	0.354	0.373
-449.924	-50.801	0.096	0.045
-448.909	53.066	-0.186	0.178
-447.895	155.375	-0.211	0.291
-446.880	-70.208	-0.164	0.062
-445.865	-132.515	-0.249	-0.032
-444.851	1.545	-0.167	-0.121
-443.836	-200.000	-0.015	-0.393
-442.822	318.242	-0.176	-0.333
-441.807	69.601	-0.114	-0.117
-440.792	118.104	0.017	-0.021
-439.778	-200.000	-0.036	-0.322
-438.763	800.000	-0.008	-0.027
-437.749	-200.000	-0.015	-0.208
-436.734	-200.000	0.027	0.143
-435.719	-200.000	-0.012	0.150
-434.705	-43.968	-0.117	-0.059
-433.690	-200.000	-0.015	-0.134
-432.676	-97.945	-0.163	0.042
-431.661	-112.358	0.161	-0.032
-430.646	800.000	-0.049	0.210
-429.632	114.343	0.064	0.078
-428.617	-179.714	-0.160	-0.003
-427.603	-186.611	0.348	-0.005
-426.588	-200.000	0.016	-0.420
-425.573	-61.193	-0.074	0.031
-424.559	-155.304	-0.202	-0.013
-423.544	109.713	0.093	0.111
-422.530	-26.407	0.189	0.111
-421.515	-125.759	-0.537	0.081
-420.500	102.582	0.008	0.010
-419.486	554.421	-0.083	-0.199
-418.471	-100.952	0.173	-0.042
-417.457	-200.000	0.024	-0.141
-416.442	136.933	-0.050	0.065
-415.428	800.000	-0.049	0.186
-414.413	800.000	-0.087	-0.250
-413.398	-128.698	0.243	-0.034
-412.384	221.788	-0.105	-0.169
-411.369	-65.904	-0.109	0.043
-410.355	-81.517	0.230	0.076
-409.340	-25.105	-0.246	0.146
-408.325	-200.000	0.010	0.072
-407.311	800.000	-0.098	-0.273
-406.296	35.420	-0.173	-0.152
-405.282	123.166	0.179	-0.224
-404.267	155.294	-0.079	-0.109
-403.252	49.963	0.251	0.236
-402.238	-52.983	-0.160	0.073
-401.223	388.293	0.146	0.302
-400.209	-200.000	0.037	0.191
-399.194	-94.995	-0.089	0.024
-398.179	135.647	-0.207	0.269
-397.165	-25.499	-0.258	0.152
-396.150	124.971	-0.164	-0.206
-395.136	40.698	-0.219	0.197
-394.121	-152.840	0.073	0.005
-393.106	-121.254	0.203	0.034
-392.092	-117.224	-0.097	0.018
-391.077	-75.807	0.272	0.096
-390.063	-110.845	0.328	0.067
-389.048	-123.313	-0.183	-0.029
-388.033	17.236	-0.093	0.074
-387.019	93.998	-0.061	0.070
-386.004	-121.320	0.355	-0.059
-384.990	800.000	0.050	0.188
-383.975	-49.213	0.416	0.198
-382.960	-200.000	-0.095	0.000
-381.946	-92.218	0.284	-0.080
-380.931	-52.076	0.110	-0.051
-379.917	-108.486	0.068	-0.015
-378.902	-200.000	0.004	0.078
-377.888	215.743	-0.035	-0.055
-376.873	-20.839	0.259	-0.158
-375.858	17.958	0.114	-0.091
-374.844	22.201	0.193	-0.157
-373.829	-52.927	0.398	-0.183
-372.815	2.212	-0.206	-0.148
-371.800	-10.221	-0.185	0.123
-370.785	-20.483	0.218	0.134
-369.771	800.000	-0.014	-0.045
-368.756	-62.447	0.191	0.079
-367.742	-200.000	-0.010	0.113
-366.727	290.285	0.080	0.145
-365.712	800.000	0.097	-0.325
-364.698	-89.288	-0.166	-0.049
-363.683	-134.632	-0.359	0.044
-362.669	42.475	0.237	0.215
-361.654	299.840	0.219	-0.402
-360.639	-11.928	-0.012	0.008
-359.625	-200.000	0.006	0.236
-358.610	-89.540	-0.133	-0.039
-357.596	526.077	0.054	-0.126
-356.581	264.132	-0.130	0.225
-355.566	-200.000	0.005	-0.220
-354.552	93.334	0.048	-0.054
-353.537	5.208	-0.090	-0.066
-352.523	-200.000	-0.010	-0.049
-351.508	-200.000	-0.075	-0.530
-350.493	434.107	-0.060	-0.130
-349.479	-144.030	-0.301	0.028
-348.464	-39.322	0.132	-0.069
-347.450	-10.811	0.099	-0.065
-346.435	-115.055	0.135	0.025
-345.420	338.337	0.073	0.141
-344.406	314.764	0.056	-0.105
-343.391	-125.183	-0.268	-0.041
-342.377	-38.182	-0.222	0.117
-341.362	-151.502	-0.300	-0.022
-340.348	-22.003	0.181	0.110
-339.333	-155.053	0.326	0.021
-338.318	-6.339	0.031	-0.021
-337.304	800.000	-0.063	0.178
-336.289	81.173	0.189	-0.204
-335.275	364.729	0.168	0.337
-334.260	-153.804	-0.362	0.025
-333.245	98.595	-0.105	0.120
-332.231	-69.571	0.304	-0.116
-331.216	-139.642	0.202	-0.021
-330.202	800.000	0.061	0.173
-329.187	-200.000	-0.017	0.166
-328.172	800.000	0.086	-0.261
-327.158	140.999	-0.086	-0.113
-326.143	2.516	0.154	-0.111
-325.129	2.212	0.163	-0.118
-324.114	-200.000	0.011	0.150
-323.099	123.158	-0.247	0.308
-322.085	-46.322	-0.302	-0.148
-321.070	-200.000	0.030	0.174
-320.056	-146.721	0.112	-0.010
-319.041	-62.157	-0.187	0.078
-318.026	-153.531	0.092	0.006
-317.012	-20.957	-0.143	0.087
-315.997	84.345	0.244	0.265
-314.983	-1.850	0.182	0.128
-313.968	182.986	-0.067	-0.099
-312.953	-50.164	-0.357	0.168
-311.939	82.404	0.149	0.160
-310.924	-135.343	-0.241	0.029
-309.910	370.427	-0.017	-0.035
-308.895	481.308	-0.091	-0.206
-307.880	800.000	0.066	-0.200
-306.866	783.674	-0.093	-0.253
-305.851	-149.578	0.341	0.027
-304.837	-20.398	0.245	0.150
-303.822	20.323	-0.136	0.109
-302.807	110.610	-0.203	-0.242
-301.793	7.629	-0.199	0.148
-300.778	-138.716	0.196	-0.021
-299.764	-174.039	-0.205	-0.006
-298.749	-50.183	-0.159	-0.075
-297.735	-200.000	0.012	0.188
-296.720	-51.823	0.378	0.175
-295.705	-58.234	-0.350	-0.152
-294.691	53.963	0.143	0.137
-293.676	-200.000	0.042	0.394
-292.662	-200.000	0.020	-0.275
-291.647	363.403	0.127	0.255
-290.632	41.143	-0.089	0.080
-289.618	214.970	-0.070	0.111
-288.603	-71.724	0.208	0.077
-287.589	237.182	-0.042	0.070
-286.574	-200.000	-0.024	-0.182
-285.559	-13.542	0.207	-0.133
-284.545	-200.000	0.038	0.213
-283.530	-80.553	0.137	-0.045
-282.516	-120.502	0.302	-0.051
-281.501	341.638	0.152	0.296
-280.486	68.419	0.187	0.190
-279.472	-200.000	-0.047	0.249
-278.457	408.601	0.095	-0.200
-277.443	-4.552	-0.227	-0.156
-276.428	120.800	0.129	0.160
-275.413	-153.508	-0.112	0.008
-274.399	367.427	-0.070	-0.140
-273.384	-35.931	-0.211	-0.113
-272.370	-18.878	0.084	-0.052
-271.355	800.000	0.108	0.426
-270.340	-9.787	-0.265	-0.175
-269.326	769.404	-0.061	-0.166
-268.311	211.918	-0.134	0.210
-267.297	-50.412	0.154	-0.072
-266.282	-200.000	-0.070	0.312
-265.267	42.168	-0.111	0.100
-264.253	17.208	0.098	-0.077
-263.238	-131.661	-0.054	-0.007
-262.224	-69.244	-0.100	-0.038
-261.209	-121.529	-0.122	0.020
-260.195	374.521	-0.073	-0.148
-259.180	-153.122	-0.337	-0.023
-258.165	-103.295	-0.251	0.059
-257.151	800.000	-0.022	-0.083
-256.136	800.000	-0.013	-0.055
-255.122	10.529	0.049	0.037
-254.107	-43.476	0.082	-0.041
-253.092	211.701	-0.216	0.338
-252.078	-67.097	0.101	-0.040
-251.063	-40.324	0.090	0.047
-250.049	800.000	0.072	0.309
-249.034	800.000	0.043	0.138
-248.019	597.273	-0.015	0.037
-247.005	24.598	-0.040	0.033
-245.990	-200.000	0.007	0.074
-244.976	-78.706	-0.329	-0.111
-243.961	-144.775	0.473	-0.043
-242.946	-162.505	0.223	0.011
-241.932	99.133	-0.078	0.089
-240.917	41.449	0.076	-0.069
-239.903	21.719	-0.281	0.227
-238.888	750.809	-0.072	0.192
-237.873	800.000	0.022	0.076
-236.859	-42.000	0.164	-0.083
-235.844	121.809	-0.186	0.230
-234.830	109.843	-0.102	0.121
-233.815	-149.268	0.274	-0.022
-232.800	-62.622	-0.430	-0.177
-231.786	-12.124	0.288	0.187
-230.771	-1.169	0.086	0.060
-229.757	274.424	0.086	0.150
-228.742	800.000	0.021	-0.084
-227.727	-150.637	0.267	-0.020
-226.713	-95.790	0.141	-0.037
-225.698	800.000	-0.031	-0.110
-224.684	10.688	0.068	0.051
-223.669	800.000	0.049	0.162
-222.655	78.975	0.046	0.048
-221.640	-70.140	-0.193	-0.073
-220.625	17.247	0.117	0.092
-219.611	197.668	-0.069	0.104
-218.596	-200.000	-0.053	-0.239
-217.582	3.609	0.123	0.089
-216.567	-12.890	0.159	0.102
-215.552	-19.131	0.106	0.065
-214.538	129.885	-0.212	-0.268
-213.523	256.040	0.097	-0.164
-212.509	-32.483	0.367	-0.203
-211.494	800.000	-0.102	-0.315
-210.479	-57.215	-0.293	0.128
-209.465	-48.980	-0.116	0.055
-208.450	-200.000	0.005	0.176
-207.436	-85.580	0.312	-0.096
-206.421	30.451	-0.083	-0.071
-205.406	-64.295	-0.151	-0.061
-204.392	129.482	0.283	-0.358
-203.377	-94.893	0.191	-0.051
-202.363	-106.440	-0.205	-0.045
-201.348	193.994	-0.089	-0.133
-200.333	7.098	0.128	-0.095
-199.319	4.006	0.237	0.171
-198.304	-200.000	0.023	-0.231
-197.290	800.000	0.016	-0.067
-196.275	-200.000	-0.014	0.171
-195.260	290.800	0.063	-0.114
-194.246	-126.731	-0.277	-0.041
-193.231	-200.000	-0.002	-0.122
-192.217	-200.000	0.011	0.252
-191.202	-200.000	0.003	0.342
-190.187	656.940	0.030	-0.077
-189.173	800.000	0.110	-0.319
-188.158	800.000	0.028	-0.116
-187.144	121.674	0.069	-0.085
-186.129	-55.414	-0.059	0.026
-185.114	-200.000	-0.002	-0.127
-184.100	-91.811	-0.115	0.032
-183.085	-93.860	0.194	0.053
-182.071	792.245	-0.097	-0.264
-181.056	359.775	-0.036	0.072
-180.042	-13.251	0.357	-0.229
-179.027	-200.000	0.031	-0.389
-178.012	573.816	-0.078	0.188
-176.998	-108.307	0.080	0.017
-175.983	-200.000	0.042	-0.212
-174.969	-200.000	0.028	-0.158
-173.954	800.000	0.148	-0.477
-172.939	-200.000	0.009	-0.056
-171.925	133.349	-0.124	0.158
-170.910	414.329	-0.063	0.132
-169.896	-94.810	0.126	0.034
-168.881	47.789	-0.059	0.054
-167.866	-162.738	-0.053	-0.003
-166.852	-151.898	-0.230	-0.017
-165.837	800.000	0.072	0.254
-164.823	109.880	0.095	-0.112
-163.808	-200.000	0.226	-0.000
-162.793	-48.252	-0.184	0.088
-161.779	-200.000	-0.028	0.225
-160.764	201.195	-0.083	0.126
-159.750	-85.586	-0.071	0.022
-158.735	638.832	0.086	-0.217
-157.720	-195.121	0.292	0.002
-156.706	604.347	0.057	-0.141
-155.691	452.290	0.128	-0.280
-154.677	-99.167	0.108	-0.027
-153.662	20.895	0.042	-0.033
-152.647	775.059	0.093	-0.250
-151.633	15.472	0.246	-0.191
-150.618	-200.000	-0.001	0.187
-149.604	525.070	-0.134	-0.312
-148.589	18.506	0.003	-0.003
-147.574	719.401	0.113	-0.297
-146.560	-179.543	0.169	0.004
-145.545	173.607	-0.185	-0.265
-144.531	329.200	-0.103	-0.195
-143.516	12.608	-0.189	0.144
-142.502	-177.329	0.332	0.008
-141.487	-200.000	0.079	0.414
-140.472	-200.000	0.007	0.241
-139.458	-200.000	0.013	-0.298
-138.443	238.228	0.112	-0.183
-137.429	-13.355	0.080	0.051
-136.414	-64.886	0.395	0.158
-135.399	271.379	0.046	-0.080
-134.385	-147.266	0.025	-0.002
-133.370	-78.046	0.252	0.086
-132.356	-200.000	0.027	0.215
-131.341	-92.160	0.133	-0.037
-130.326	-122.737	0.101	-0.016
-129.312	-27.596	0.261	-0.150
-128.297	21.789	0.232	-0.186
-127.283	800.000	-0.082	-0.226
-126.268	-105.412	0.121	0.027
-125.253	800.000	-0.033	0.091
-124.239	-200.000	0.091	0.591
-123.224	-28.288	-0.308	-0.176
-122.210	-200.000	-0.004	0.049
-121.195	272.819	-0.197	0.344
