DTS Sentinel unit serial number:	SN413079Multiplexer serial number:	ORYXHardware model number:	OX4-SRSoftware version number:	ORYX F/W v4.00 Oryx Data Collector v3.7.2.0data status	okinstallation	princeton_trtdifferential loss correction	single-endedforward channel	channel 2reverse channel	N/Adate	2019/09/19time	01:19:35forward acquisition time	60.00reverse acquisition time	0.00gamma	496.2192k internal	0.2353k external	0.2353temperature offset calibration	1.0018default loss term (dB/km)	0.3790temperature slope calibration	1.0000multiplexer offset coefficient	1.0000multiplexer slope coefficient	1.0000fibre end	0.00T internal ref (°C)	21.69T ext. ref 1 (°C)	0.70T ext. ref 2 (°C)	15.13length (m)	temperature (°C)	Stokes	anti-Stokes-747.200	-13.106	-0.198	0.128
-746.185	498.350	0.048	-0.110
-745.171	132.946	-0.122	-0.157
-744.156	655.747	-0.045	-0.115
-743.142	-130.384	-0.126	0.017
-742.127	111.564	-0.073	0.088
-741.112	-16.188	0.077	0.049
-740.098	-200.000	0.011	-0.201
-739.083	364.048	0.209	0.420
-738.069	245.736	0.147	0.247
-737.054	-25.063	0.083	-0.049
-736.039	-115.815	-0.357	-0.067
-735.025	-200.000	-0.006	-0.061
-734.010	-112.734	-0.126	-0.025
-732.996	-71.512	0.194	-0.072
-731.981	-65.104	-0.074	-0.030
-730.966	684.800	-0.095	-0.246
-729.952	701.992	-0.103	0.271
-728.937	-200.000	0.400	0.001
-727.923	312.334	-0.078	0.145
-726.908	-200.000	0.003	0.153
-725.894	-27.945	-0.139	-0.080
-724.879	-200.000	-0.027	0.222
-723.864	496.934	0.064	0.146
-722.850	800.000	0.134	0.554
-721.835	12.926	-0.117	-0.090
-720.821	-10.228	0.128	0.084
-719.806	-162.112	0.215	0.011
-718.791	242.529	-0.042	0.070
-717.777	530.594	-0.008	-0.019
-716.762	71.451	0.103	0.107
-715.748	67.626	0.240	-0.244
-714.733	115.638	0.073	0.089
-713.718	25.618	0.464	0.384
-712.704	480.588	-0.120	0.272
-711.689	229.133	-0.213	-0.346
-710.675	128.964	0.200	-0.254
-709.660	466.347	0.078	0.173
-708.645	720.459	-0.102	0.270
-707.631	76.976	-0.131	0.139
-706.616	-27.315	-0.361	-0.209
-705.602	152.743	0.098	-0.133
-704.587	-95.314	-0.039	-0.010
-703.572	226.310	-0.141	0.227
-702.558	13.471	-0.304	0.235
-701.543	129.879	0.115	-0.146
-700.529	89.083	-0.063	-0.070
-699.514	800.000	0.041	-0.118
-698.499	-200.000	-0.021	-0.099
-697.485	-61.252	0.126	-0.053
-696.470	86.397	-0.175	0.192
-695.456	148.522	-0.055	0.074
-694.441	800.000	0.117	-0.452
-693.426	133.777	0.073	0.094
-692.412	-19.252	0.221	0.137
-691.397	-131.780	-0.319	-0.042
-690.383	-200.000	0.030	-0.180
-689.368	344.723	0.159	0.311
-688.354	452.374	0.111	0.245
-687.339	154.091	0.105	0.143
-686.324	660.903	0.027	-0.070
-685.310	547.933	0.091	-0.217
-684.295	-47.289	0.218	0.106
-683.281	-200.000	-0.022	0.117
-682.266	-200.000	0.008	0.046
-681.251	147.410	-0.123	-0.165
-680.237	-11.625	0.091	-0.059
-679.222	-58.867	-0.305	0.131
-678.208	48.246	-0.031	0.029
-677.193	96.443	0.143	0.163
-676.178	-200.000	0.004	0.123
-675.164	-184.569	0.336	0.005
-674.149	-145.665	-0.270	-0.024
-673.135	-200.000	0.008	-0.184
-672.120	-79.605	0.221	-0.074
-671.105	-200.000	0.017	0.171
-670.091	429.031	-0.010	0.022
-669.076	673.079	-0.032	-0.082
-668.062	-177.471	-0.521	-0.013
-667.047	-117.502	-0.045	0.008
-666.032	-147.271	-0.071	0.006
-665.018	-200.000	0.026	0.222
-664.003	43.719	0.241	-0.219
-662.989	302.307	0.077	0.142
-661.974	-200.000	0.002	0.022
-660.959	800.000	-0.037	-0.116
-659.945	306.021	-0.157	0.290
-658.930	-200.000	0.007	0.179
-657.916	-62.660	0.229	0.094
-656.901	-200.000	-0.045	0.273
-655.886	-57.881	-0.085	-0.037
-654.872	-200.000	-0.005	-0.222
-653.857	76.287	0.016	0.017
-652.843	-176.696	-0.365	0.009
-651.828	800.000	0.137	-0.406
-650.814	352.175	0.181	-0.357
-649.799	2.558	0.037	0.027
-648.784	-41.596	-0.198	0.101
-647.770	-200.000	0.016	0.112
-646.755	-200.000	0.092	-0.625
-645.741	-200.000	0.004	-0.064
-644.726	198.698	-0.026	0.040
-643.711	38.984	0.134	0.119
-642.697	-200.000	-0.014	0.138
-641.682	-200.000	0.025	0.107
-640.668	-200.000	0.039	-0.206
-639.653	6.861	-0.187	-0.138
-638.638	800.000	-0.122	-0.342
-637.624	13.404	0.131	-0.101
-636.609	-200.000	0.015	-0.145
-635.595	-200.000	-0.041	-0.297
-634.580	324.813	0.209	-0.396
-633.565	-94.448	-0.422	-0.114
-632.551	800.000	0.037	0.115
-631.536	-110.237	0.116	0.024
-630.522	320.900	0.126	-0.238
-629.507	-65.468	0.276	0.110
-628.492	273.558	0.046	0.080
-627.478	-38.746	0.321	0.168
-626.463	-32.053	-0.366	-0.203
-625.449	-107.691	0.090	0.020
-624.434	-200.000	0.013	-0.115
-623.419	800.000	-0.038	0.151
-622.405	156.328	0.140	-0.192
-621.390	59.115	-0.099	-0.097
-620.376	-61.237	-0.140	0.059
-619.361	-35.071	0.200	0.108
-618.346	-124.013	0.331	0.052
-617.332	137.335	-0.112	0.145
-616.317	66.276	-0.217	-0.219
-615.303	-76.891	-0.122	0.042
-614.288	-200.000	0.003	0.090
-613.273	115.533	-0.143	-0.173
-612.259	109.594	0.097	-0.115
-611.244	93.797	-0.103	-0.116
-610.230	-200.000	0.013	0.210
-609.215	-89.328	-0.547	0.160
-608.201	9.497	-0.275	-0.207
-607.186	-184.407	-0.298	-0.005
-606.171	5.714	-0.109	0.080
-605.157	-200.000	0.033	-0.225
-604.142	-200.000	0.022	0.146
-603.128	249.546	-0.233	0.392
-602.113	-149.437	-0.065	0.005
-601.098	-96.548	0.033	0.009
-600.084	194.629	0.079	0.119
-599.069	-6.916	0.112	0.075
-598.055	800.000	-0.124	0.343
-597.040	-146.687	-0.303	0.026
-596.025	800.000	-0.009	0.033
-595.011	180.050	0.197	-0.287
-593.996	4.047	0.234	0.170
-592.982	-200.000	-0.040	-0.215
-591.967	-185.803	-0.284	0.004
-590.952	-121.010	-0.485	-0.081
-589.938	234.580	-0.107	0.176
-588.923	800.000	-0.051	-0.150
-587.909	-200.000	-0.004	0.078
-586.894	6.802	-0.093	-0.068
-585.879	230.767	0.026	-0.042
-584.865	605.694	-0.035	0.087
-583.850	-154.424	-0.037	-0.002
-582.836	-17.790	-0.118	0.073
-581.821	163.444	-0.313	0.437
-580.806	-103.438	0.135	-0.031
-579.792	-52.141	-0.247	0.113
-578.777	353.062	-0.089	-0.175
-577.763	696.000	-0.076	0.199
-576.748	245.807	-0.081	0.135
-575.733	2.961	0.278	-0.200
-574.719	51.065	0.165	0.155
-573.704	209.260	-0.139	-0.216
-572.690	-130.932	-0.101	0.013
-571.675	-200.000	0.006	0.195
-570.661	-153.124	-0.232	-0.016
-569.646	14.401	0.194	-0.150
-568.631	328.225	0.123	0.235
-567.617	54.872	-0.222	0.213
-566.602	184.916	0.247	-0.362
-565.588	-200.000	0.029	0.173
-564.573	17.034	-0.378	0.296
-563.558	141.934	0.019	0.025
-562.544	-35.977	0.023	-0.013
-561.529	-200.000	0.050	-0.261
-560.515	54.280	-0.185	-0.177
-559.500	85.779	0.107	0.117
-558.485	-152.929	-0.071	0.005
-557.471	-137.340	-0.106	0.012
-556.456	-174.166	-0.409	-0.012
-555.442	-65.263	-0.100	-0.040
-554.427	-200.000	0.009	0.237
-553.412	-17.746	0.121	0.075
-552.398	-109.005	0.094	0.020
-551.383	-87.784	0.140	0.042
-550.369	-59.915	-0.248	-0.105
-549.354	-17.347	-0.498	-0.311
-548.339	-200.000	0.023	-0.313
-547.325	30.542	-0.160	0.136
-546.310	800.000	0.161	0.588
-545.296	-200.000	-0.053	0.310
-544.281	445.170	-0.078	-0.170
-543.266	63.638	0.070	0.069
-542.252	-58.495	0.292	0.125
-541.237	28.190	0.103	0.086
-540.223	-200.000	0.018	0.106
-539.208	-200.000	0.011	-0.053
-538.193	122.175	-0.045	-0.056
-537.179	-200.000	0.001	-0.267
-536.164	-200.000	0.039	-0.307
-535.150	547.757	0.119	0.282
-534.135	74.863	0.247	-0.257
-533.121	55.585	0.148	0.142
-532.106	-14.642	0.180	-0.114
-531.091	800.000	-0.080	0.239
-530.077	77.273	-0.067	0.071
-529.062	106.254	0.055	0.065
-528.048	185.980	-0.081	-0.119
-527.033	-200.000	-0.013	-0.064
-526.018	250.351	-0.145	-0.243
-525.004	-27.369	0.372	-0.214
-523.989	-114.699	0.136	0.026
-522.975	-200.000	0.033	0.217
-521.960	153.050	-0.101	0.136
-520.945	59.819	0.289	0.282
-519.931	-102.175	0.172	0.041
-518.916	-42.150	0.066	-0.033
-517.902	9.920	-0.466	-0.350
-516.887	99.776	0.218	0.249
-515.872	-135.644	-0.359	0.042
-514.858	-200.000	0.024	-0.143
-513.843	-200.000	0.056	-0.273
-512.829	120.113	-0.055	-0.068
-511.814	158.964	0.060	-0.082
-510.799	-200.000	0.101	0.454
-509.785	-65.864	-0.304	0.120
-508.770	-1.238	0.225	-0.157
-507.756	150.416	-0.182	0.244
-506.741	86.629	0.271	0.295
-505.726	84.668	0.151	0.163
-504.712	-182.231	0.341	0.006
-503.697	800.000	-0.027	-0.092
-502.683	-69.989	-0.140	-0.053
-501.668	672.802	0.054	-0.139
-500.653	-200.000	-0.035	0.169
-499.639	-175.970	-0.076	0.002
-498.624	-200.000	-0.003	-0.266
-497.610	531.437	0.095	0.222
-496.595	-200.000	-0.002	0.044
-495.581	390.509	0.033	-0.068
-494.566	713.037	-0.084	-0.219
-493.551	-200.000	0.001	-0.197
-492.537	-63.802	-0.182	-0.073
-491.522	-99.372	0.222	0.055
-490.508	-108.762	0.234	-0.049
-489.493	-108.436	0.133	0.028
-488.478	26.066	0.077	-0.063
-487.464	800.000	-0.062	-0.229
-486.449	-74.880	0.393	0.139
-485.435	-93.792	0.051	-0.014
-484.420	32.348	-0.126	-0.108
-483.405	800.000	0.045	-0.159
-482.391	-127.622	-0.009	-0.001
-481.376	800.000	0.002	-0.007
-480.362	625.696	-0.145	-0.361
-479.347	235.698	0.100	0.163
-478.332	-128.662	0.136	-0.019
-477.318	147.366	-0.074	-0.099
-476.303	-43.962	-0.154	-0.077
-475.289	328.618	0.091	0.172
-474.274	800.000	0.026	-0.098
-473.259	-15.856	-0.067	-0.042
-472.245	-16.574	-0.083	-0.052
-471.230	53.333	-0.116	-0.110
-470.216	-200.000	-0.002	-0.357
-469.201	800.000	-0.077	-0.292
-468.186	-76.287	0.256	0.089
-467.172	-173.781	-0.322	0.009
-466.157	-29.043	0.284	0.161
-465.143	70.057	-0.077	0.079
-464.128	602.844	0.055	-0.135
-463.113	-75.835	0.106	0.037
-462.099	-70.663	-0.328	0.122
-461.084	-79.656	-0.221	0.074
-460.070	-121.057	-0.173	-0.029
-459.055	800.000	-0.028	0.077
-458.040	800.000	-0.053	-0.198
-457.026	800.000	0.052	0.174
-456.011	-200.000	-0.046	-0.322
-454.997	674.977	-0.030	-0.077
-453.982	57.414	0.223	-0.214
-452.968	41.208	0.348	0.310
-451.953	-132.366	-0.121	-0.015
-450.938	-72.883	0.091	0.033
-449.924	465.850	-0.104	-0.229
-448.909	-200.000	0.015	-0.204
-447.895	-84.327	0.251	0.078
-446.880	-181.868	0.249	0.005
-445.865	-87.937	-0.463	0.137
-444.851	-76.930	0.376	0.129
-443.836	800.000	-0.027	-0.096
-442.822	-151.220	0.243	0.018
-441.807	-200.000	-0.003	0.149
-440.792	-200.000	0.009	0.230
-439.778	-14.394	-0.160	-0.101
-438.763	104.001	0.116	0.134
-437.749	-5.870	-0.122	-0.082
-436.734	-200.000	-0.035	-0.211
-435.719	275.193	-0.132	0.231
-434.705	61.907	0.107	-0.105
-433.690	209.096	0.180	-0.277
-432.676	162.606	-0.102	-0.141
-431.661	-20.882	-0.108	0.065
-430.646	-200.000	-0.062	-0.297
-429.632	-200.000	-0.027	-0.162
-428.617	334.818	-0.158	-0.301
-427.603	-54.261	0.090	-0.040
-426.588	150.252	-0.072	-0.097
-425.573	800.000	0.074	-0.212
-424.559	598.323	0.234	-0.570
-423.544	-62.458	0.074	-0.030
-422.530	3.880	0.145	-0.104
-421.515	800.000	-0.133	-0.417
-420.500	-200.000	-0.011	-0.193
-419.486	242.841	-0.166	-0.274
-418.471	-146.888	0.162	0.014
-417.457	800.000	-0.042	-0.150
-416.442	-200.000	-0.032	0.164
-415.428	-200.000	-0.043	0.267
-414.413	30.931	-0.137	0.116
-413.398	800.000	0.101	-0.406
-412.384	800.000	-0.167	-0.504
-411.369	3.387	0.191	-0.137
-410.355	-132.683	0.255	0.032
-409.340	-200.000	-0.629	-0.001
-408.325	-29.870	-0.211	-0.118
-407.311	106.005	0.104	-0.121
-406.296	272.971	0.150	-0.260
-405.282	172.430	0.142	0.202
-404.267	11.442	-0.125	-0.094
-403.252	219.140	-0.111	0.174
-402.238	171.229	-0.064	0.090
-401.223	25.984	-0.071	-0.058
-400.209	-50.065	0.342	-0.159
-399.194	-37.272	0.192	-0.101
-398.179	-30.766	-0.266	0.148
-397.165	-200.000	0.019	-0.120
-396.150	-169.616	0.463	-0.017
-395.136	529.256	-0.173	0.402
-394.121	14.435	-0.256	0.196
-393.106	-70.807	-0.057	-0.021
-392.092	215.168	0.074	0.115
-391.077	43.405	0.110	0.099
-390.063	16.718	-0.067	0.052
-389.048	475.825	0.123	0.273
-388.033	-107.063	0.134	-0.029
-387.019	146.817	-0.129	-0.170
-386.004	-129.980	-0.148	-0.020
-384.990	-116.620	0.077	0.014
-383.975	44.702	0.348	0.314
-382.960	-40.842	-0.229	0.116
-381.946	12.901	-0.297	0.226
-380.931	204.092	0.156	-0.237
-379.917	-143.695	0.162	-0.015
-378.902	22.425	0.185	0.149
-377.888	219.915	-0.086	0.136
-376.873	28.126	0.093	0.077
-375.858	-200.000	-0.016	0.332
-374.844	719.849	-0.043	0.112
-373.829	283.739	0.088	-0.156
-372.815	-111.590	-0.130	0.026
-371.800	-126.749	-0.119	-0.017
-370.785	-43.216	-0.272	-0.135
-369.771	50.628	-0.037	-0.035
-368.756	170.204	0.150	0.211
-367.742	6.366	-0.176	0.128
-366.727	-200.000	0.021	-0.102
-365.712	473.554	0.069	-0.153
-364.698	-126.049	-0.394	-0.058
-363.683	190.118	-0.105	0.154
-362.669	-131.068	-0.082	0.011
-361.654	-116.429	0.122	-0.022
-360.639	-163.255	0.080	0.004
-359.625	21.422	0.190	-0.151
-358.610	-101.312	-0.239	0.057
-357.596	-200.000	0.050	0.315
-356.581	394.555	0.063	-0.128
-355.566	-111.116	0.368	0.074
-354.552	-57.206	-0.097	-0.042
-353.537	800.000	-0.072	0.275
-352.523	-200.000	-0.003	-0.063
-351.508	-5.987	-0.297	-0.199
-350.493	59.037	0.105	0.102
-349.479	-26.409	0.181	0.104
-348.464	268.506	-0.200	-0.344
-347.450	376.811	0.088	-0.177
-346.435	-200.000	-0.016	0.422
-345.420	60.022	0.110	0.107
-344.406	45.635	0.062	0.057
-343.391	134.855	-0.143	-0.183
-342.377	-133.644	0.317	0.039
-341.362	198.797	-0.225	0.338
-340.348	3.750	-0.377	0.270
-339.333	5.223	-0.086	-0.062
-338.318	285.679	0.246	0.435
-337.304	-13.228	-0.033	0.021
-336.289	-200.000	-0.062	-0.442
-335.275	-200.000	-0.001	-0.540
-334.260	85.711	0.206	-0.222
-333.245	800.000	0.149	-0.510
-332.231	-125.017	0.300	0.045
-331.216	170.485	-0.090	0.126
-330.202	-150.289	-0.366	-0.028
-329.187	189.154	0.106	-0.156
-328.172	-62.588	0.207	-0.084
-327.158	-200.000	0.024	0.245
-326.143	-133.300	0.258	-0.032
-325.129	48.463	0.061	0.056
-324.114	-182.756	-0.081	-0.001
-323.099	99.723	0.048	-0.054
-322.085	-200.000	-0.015	0.260
-321.070	158.028	0.195	0.265
-320.056	156.630	0.113	-0.153
-319.041	-6.281	-0.191	0.128
-318.026	-30.223	0.236	0.132
-317.012	143.042	-0.046	0.060
-315.997	14.931	0.463	-0.355
-314.983	-98.523	-0.474	-0.119
-313.968	298.698	0.082	-0.148
-312.953	-200.000	-0.002	0.170
-311.939	71.236	-0.192	0.196
-310.924	-101.901	-0.275	0.065
-309.910	656.286	0.100	-0.251
-308.895	764.515	-0.023	0.061
-307.880	-200.000	0.023	-0.139
-306.866	-154.306	-0.102	-0.007
-305.851	-71.134	0.155	-0.057
-304.837	-111.983	0.263	-0.052
-303.822	-200.000	-0.001	0.107
-302.807	-36.388	0.101	-0.053
-301.793	-163.617	-0.158	0.007
-300.778	-139.315	0.098	0.010
-299.764	-39.920	0.105	0.054
-298.749	-41.365	-0.139	-0.070
-297.735	800.000	-0.031	0.097
-296.720	104.472	0.194	-0.224
-295.705	-125.932	-0.131	-0.019
-294.691	112.000	0.174	0.206
-293.676	133.207	-0.138	0.174
-292.662	168.890	-0.143	0.200
-291.647	-121.021	0.365	0.060
-290.632	-113.708	-0.454	0.087
-289.618	-22.677	0.109	0.065
-288.603	-97.697	0.191	-0.048
-287.589	-105.896	-0.107	0.024
-286.574	-200.000	0.024	0.135
-285.559	-77.210	0.049	0.017
-284.545	-152.973	0.487	-0.034
-283.530	-200.000	-0.042	0.251
-282.516	-200.000	-0.016	0.187
-281.501	219.659	-0.272	0.426
-280.486	218.290	-0.237	0.371
-279.472	-37.201	0.224	-0.118
-278.457	-117.572	-0.110	0.020
-277.443	-61.501	0.076	-0.031
-276.428	178.241	-0.105	-0.150
-275.413	-200.000	0.009	-0.374
-274.399	327.763	-0.035	-0.066
-273.384	800.000	-0.052	-0.185
-272.370	800.000	0.046	-0.179
-271.355	-19.120	0.116	-0.070
-270.340	319.508	0.110	-0.204
-269.326	800.000	-0.030	-0.089
-268.311	-200.000	0.010	-0.068
-267.297	177.458	0.187	0.266
-266.282	-200.000	0.006	0.046
-265.267	322.431	-0.268	0.499
-264.253	-95.644	0.291	0.076
-263.238	-13.144	0.201	0.128
-262.224	800.000	0.070	-0.247
-261.209	55.025	-0.046	0.044
-260.195	0.666	0.147	-0.103
-259.180	-174.738	0.270	0.007
-258.165	149.567	0.042	-0.055
-257.151	-156.448	0.384	-0.023
-256.136	-74.549	-0.050	0.018
-255.122	98.225	-0.215	-0.242
-254.107	179.956	0.178	0.256
-253.092	140.445	-0.156	0.201
-252.078	-111.775	-0.127	-0.025
-251.063	411.370	-0.058	-0.121
-250.049	-108.814	0.443	-0.093
-249.034	78.777	0.209	0.218
-248.019	54.591	0.234	-0.221
-247.005	-9.585	0.173	-0.113
-245.990	-41.678	0.139	-0.070
-244.976	320.324	0.130	0.242
-243.961	-7.298	-0.315	0.209
-242.946	800.000	-0.054	0.158
-241.932	264.217	0.096	-0.163
-240.917	-20.373	-0.445	0.268
-239.903	-200.000	-0.005	-0.118
-238.888	214.949	0.319	0.495
-237.873	84.781	-0.106	-0.113
-236.859	108.605	0.081	0.095
-235.844	24.902	0.175	-0.142
-234.830	800.000	-0.041	-0.134
-233.815	-22.996	0.257	0.151
-232.800	-35.311	0.050	0.026
-231.786	800.000	0.067	0.181
-230.771	-200.000	0.092	0.511
-229.757	184.852	0.130	0.189
-228.742	-127.003	0.420	0.060
-227.727	-200.000	-0.003	0.324
-226.713	-200.000	-0.011	0.073
-225.698	410.562	-0.085	-0.176
-224.684	-98.341	0.248	-0.062
-223.669	331.436	-0.042	0.079
-222.655	-200.000	0.043	0.209
-221.640	-18.798	-0.137	-0.083
-220.625	-5.569	-0.175	-0.118
-219.611	-200.000	0.002	0.318
-218.596	-175.160	-0.069	-0.002
-217.582	-92.317	0.340	-0.094
-216.567	188.633	-0.089	-0.129
-215.552	-35.374	0.408	-0.217
-214.538	101.296	-0.250	-0.284
-213.523	684.628	-0.029	-0.074
-212.509	-200.000	0.007	-0.091
-211.494	82.482	-0.058	0.061
-210.479	546.792	0.066	0.153
-209.465	26.230	-0.103	0.084
-208.450	-57.002	-0.270	0.116
-207.436	-94.704	0.162	-0.043
-206.421	397.863	-0.267	-0.545
-205.406	-200.000	-0.000	-0.248
-204.392	230.769	-0.200	0.319
-203.377	108.983	-0.087	-0.102
-202.363	401.831	0.084	-0.172
-201.348	-200.000	0.003	0.364
-200.333	-88.993	-0.319	-0.092
-199.319	-200.000	-0.041	-0.231
-198.304	117.245	-0.241	0.289
-197.290	225.389	-0.157	0.248
-196.275	-4.903	-0.111	0.075
-195.260	-96.531	0.188	0.048
-194.246	161.244	-0.182	-0.248
-193.231	-200.000	0.004	-0.023
-192.217	151.439	0.171	0.227
-191.202	-102.802	-0.117	-0.027
-190.187	-200.000	0.038	-0.191
-189.173	-73.671	0.243	0.086
-188.158	-200.000	-0.005	-0.112
-187.144	-200.000	-0.027	0.271
-186.129	350.758	-0.035	-0.067
-185.114	169.380	0.133	-0.186
-184.100	-61.476	-0.051	-0.021
-183.085	-29.704	-0.446	0.248
-182.071	-124.337	0.362	0.055
-181.056	99.602	-0.120	-0.136
-180.042	-52.379	0.072	-0.033
-179.027	-83.985	-0.244	0.076
-178.012	-178.046	-0.062	-0.001
-176.998	-129.074	0.273	-0.037
-175.983	-200.000	0.037	-0.444
-174.969	454.534	-0.025	0.054
-173.954	17.943	-0.282	0.219
-172.939	-165.725	-0.108	0.005
-171.925	233.119	-0.180	-0.289
-170.910	101.742	0.139	0.158
-169.896	-200.000	-0.009	0.411
-168.881	193.309	-0.080	0.117
-167.866	517.425	-0.076	-0.174
-166.852	333.252	-0.050	0.094
-165.837	242.887	-0.056	-0.092
-164.823	-200.000	0.025	0.164
-163.808	-200.000	0.013	0.092
-162.793	79.279	0.188	0.196
-161.779	133.744	0.098	0.123
-160.764	47.938	0.059	-0.053
-159.750	-52.083	-0.148	0.067
-158.735	-36.978	0.054	0.028
-157.720	0.510	-0.139	0.097
-156.706	-92.822	-0.102	0.028
-155.691	-133.055	-0.126	-0.016
-154.677	-48.021	-0.085	-0.040
-153.662	337.137	-0.151	-0.285
-152.647	-200.000	-0.035	0.390
-151.633	-76.121	0.342	0.118
-150.618	-144.375	0.363	0.033
-149.604	213.960	-0.065	-0.099
-148.589	55.325	0.155	0.146
-147.574	-116.684	-0.477	-0.085
-146.560	-36.612	0.122	-0.064
-145.545	24.035	-0.100	-0.081
-144.531	800.000	0.063	-0.196
-143.516	687.829	0.045	0.115
-142.502	-20.375	0.192	-0.115
-141.487	736.912	-0.079	-0.206
-140.472	213.819	0.068	0.104
-139.458	-6.327	-0.176	-0.117
-138.443	101.583	0.092	-0.104
-137.429	144.779	-0.189	-0.246
-136.414	-23.396	-0.123	0.072
-135.399	-101.357	0.032	-0.008
-134.385	155.379	0.193	-0.259
-133.370	-200.000	-0.040	0.234
-132.356	-15.555	0.197	-0.122
-131.341	-106.907	-0.231	0.050
-130.326	800.000	-0.170	0.571
-129.312	103.129	-0.218	-0.249
-128.297	99.558	0.246	0.277
-127.283	-103.562	0.096	0.022
-126.268	800.000	0.030	-0.125
-125.253	-200.000	-0.038	-0.206
-124.239	-117.145	-0.390	0.069
-123.224	42.179	0.437	0.387
-122.210	35.887	-0.082	0.070
-121.195	-3.265	-0.286	0.194
