DTS Sentinel unit serial number:	SN413079Multiplexer serial number:	ORYXHardware model number:	OX4-SRSoftware version number:	ORYX F/W v4.00 Oryx Data Collector v3.7.2.0data status	okinstallation	princeton_trtdifferential loss correction	single-endedforward channel	channel 2reverse channel	N/Adate	2019/09/17time	23:47:34forward acquisition time	60.00reverse acquisition time	0.00gamma	496.2192k internal	0.2349k external	0.2349temperature offset calibration	0.9984default loss term (dB/km)	0.3790temperature slope calibration	1.0000multiplexer offset coefficient	1.0000multiplexer slope coefficient	1.0000fibre end	0.00T internal ref (°C)	24.02T ext. ref 1 (°C)	0.17T ext. ref 2 (°C)	17.40length (m)	temperature (°C)	Stokes	anti-Stokes-747.200	725.788	0.021	-0.057
-746.185	800.000	-0.034	0.144
-745.171	717.577	-0.101	-0.267
-744.156	-200.000	0.088	0.467
-743.142	-118.699	-0.169	-0.030
-742.127	-141.130	-0.184	-0.019
-741.112	800.000	0.020	-0.070
-740.098	-48.994	-0.244	0.117
-739.083	-200.000	-0.009	-0.137
-738.069	-33.926	-0.203	-0.112
-737.054	43.707	0.183	0.167
-736.039	349.180	0.055	-0.108
-735.025	654.771	0.074	0.189
-734.010	-200.000	-0.005	0.142
-732.996	113.919	-0.194	-0.235
-731.981	16.093	-0.331	0.260
-730.966	-68.445	-0.168	0.065
-729.952	-11.951	-0.089	-0.059
-728.937	-117.434	-0.251	-0.045
-727.923	-89.467	-0.204	-0.060
-726.908	-200.000	0.015	-0.183
-725.894	-129.019	0.018	-0.002
-724.879	264.100	-0.110	0.190
-723.864	-43.882	0.062	0.031
-722.850	108.505	-0.127	-0.152
-721.835	114.531	-0.037	0.045
-720.821	316.127	0.108	0.203
-719.806	-134.383	-0.171	0.021
-718.791	-140.991	-0.154	-0.016
-717.777	121.428	-0.034	0.042
-716.762	-101.415	-0.064	-0.016
-715.748	468.238	0.131	0.293
-714.733	-200.000	0.014	-0.177
-713.718	-85.519	-0.520	0.162
-712.704	341.288	-0.142	0.277
-711.689	109.434	0.125	0.150
-710.675	8.934	0.128	-0.097
-709.660	-57.374	-0.275	-0.121
-708.645	396.420	0.094	0.195
-707.631	152.344	0.096	0.131
-706.616	-42.969	-0.312	-0.158
-705.602	-97.397	-0.243	-0.063
-704.587	390.384	-0.105	-0.218
-703.572	92.245	0.122	-0.137
-702.558	-29.448	-0.140	0.080
-701.543	-62.244	-0.358	-0.149
-700.529	800.000	0.080	0.283
-699.514	800.000	-0.088	-0.249
-698.499	797.683	-0.132	-0.361
-697.485	-200.000	0.037	-0.288
-696.470	523.968	0.059	0.138
-695.456	61.592	0.064	0.064
-694.441	-108.760	-0.148	-0.032
-693.426	-137.500	-0.397	0.045
-692.412	4.098	0.196	-0.143
-691.397	424.397	0.108	-0.232
-690.383	412.304	0.099	-0.210
-689.368	-200.000	0.035	-0.175
-688.354	-79.087	0.133	0.045
-687.339	-33.137	-0.152	0.084
-686.324	-64.014	-0.145	0.059
-685.310	110.869	0.180	0.216
-684.295	228.955	-0.100	-0.163
-683.281	10.980	-0.147	0.112
-682.266	-154.074	-0.114	0.008
-681.251	-200.000	0.017	-0.107
-680.237	-96.356	0.476	-0.125
-679.222	-96.434	-0.433	-0.114
-678.208	800.000	0.051	-0.146
-677.193	-200.000	0.002	-0.050
-676.178	-50.133	0.101	0.048
-675.164	800.000	0.032	-0.110
-674.149	-200.000	-0.007	-0.172
-673.135	-123.417	0.225	-0.036
-672.120	800.000	-0.095	0.404
-671.105	280.956	0.054	0.096
-670.091	-107.332	-0.120	0.026
-669.076	-196.770	-0.265	-0.002
-668.062	-200.000	0.027	0.144
-667.047	40.113	-0.190	-0.170
-666.032	800.000	0.053	-0.165
-665.018	-200.000	0.015	-0.145
-664.003	-117.415	-0.428	0.077
-662.989	800.000	-0.114	-0.413
-661.974	41.959	-0.160	-0.145
-660.959	-67.326	-0.322	-0.126
-659.945	31.586	0.138	-0.118
-658.930	-200.000	-0.007	-0.250
-657.916	-200.000	0.023	0.109
-656.901	-200.000	0.019	0.162
-655.886	-200.000	0.007	-0.185
-654.872	275.171	-0.050	0.088
-653.857	800.000	-0.069	0.274
-652.843	-122.608	-0.264	-0.043
-651.828	-200.000	0.054	0.379
-650.814	13.285	0.194	-0.149
-649.799	-7.366	-0.147	0.099
-648.784	-131.785	0.307	-0.040
-647.770	800.000	0.047	-0.147
-646.755	-103.018	-0.009	-0.002
-645.741	-91.280	-0.359	0.102
-644.726	-159.761	-0.095	0.005
-643.711	263.114	0.099	-0.172
-642.697	101.766	-0.021	-0.024
-641.682	-177.403	0.259	0.006
-640.668	800.000	-0.026	-0.075
-639.653	-148.779	0.317	-0.026
-638.638	-87.530	0.290	-0.087
-637.624	-6.042	0.093	-0.063
-636.609	-138.007	-0.228	0.025
-635.595	800.000	-0.065	0.256
-634.580	25.973	-0.235	0.195
-633.565	-21.598	0.065	0.039
-632.551	515.118	-0.047	0.110
-631.536	800.000	-0.011	0.035
-630.522	-52.996	0.227	0.104
-629.507	-200.000	-0.081	-0.397
-628.492	-147.600	-0.163	-0.014
-627.478	127.935	0.056	-0.071
-626.463	183.930	0.127	-0.188
-625.449	-188.663	-0.257	-0.003
-624.434	-147.806	-0.134	0.011
-623.419	-82.492	-0.085	0.027
-622.405	-100.144	-0.245	0.061
-621.390	780.048	0.013	0.034
-620.376	206.655	-0.089	-0.137
-619.361	-200.000	-0.048	0.262
-618.346	349.042	-0.117	0.229
-617.332	-200.000	-0.005	-0.063
-616.317	800.000	-0.046	-0.172
-615.303	800.000	-0.034	-0.143
-614.288	800.000	-0.121	-0.344
-613.273	304.397	0.159	-0.293
-612.259	-200.000	-0.017	-0.150
-611.244	245.620	-0.134	0.225
-610.230	-200.000	-0.026	0.115
-609.215	80.721	-0.225	0.241
-608.201	-32.282	0.050	0.028
-607.186	78.670	-0.246	-0.262
-606.171	-43.277	0.133	0.067
-605.157	63.833	-0.165	0.165
-604.142	800.000	0.036	0.146
-603.128	12.904	-0.181	-0.139
-602.113	44.337	-0.082	-0.074
-601.098	587.575	0.051	-0.125
-600.084	-91.272	-0.041	0.012
-599.069	-200.000	-0.028	-0.247
-598.055	-122.516	-0.126	0.020
-597.040	0.926	-0.217	0.154
-596.025	133.467	0.112	-0.144
-595.011	86.257	0.067	0.074
-593.996	-100.056	0.085	-0.021
-592.982	-62.674	-0.268	-0.111
-591.967	800.000	0.016	-0.056
-590.952	-21.767	-0.082	-0.049
-589.938	-48.259	-0.104	0.050
-588.923	-200.000	0.054	0.242
-587.909	243.447	-0.188	-0.313
-586.894	-200.000	0.001	-0.023
-585.879	624.658	0.022	-0.055
-584.865	-23.831	0.062	0.037
-583.850	-128.305	-0.209	-0.030
-582.836	-200.000	0.018	0.220
-581.821	-200.000	0.050	0.269
-580.806	-200.000	0.006	-0.092
-579.792	-39.375	0.367	0.191
-578.777	118.766	-0.373	-0.457
-577.763	800.000	-0.113	0.361
-576.748	-1.988	-0.335	0.234
-575.733	800.000	0.020	0.063
-574.719	-56.484	0.298	0.131
-573.704	-200.000	0.015	-0.078
-572.690	669.431	0.053	0.136
-571.675	-138.595	-0.252	-0.027
-570.661	-3.392	0.119	0.082
-569.646	323.644	0.089	0.168
-568.631	167.942	-0.074	-0.105
-567.617	-58.334	-0.245	0.106
-566.602	-200.000	-0.022	0.257
-565.588	-116.085	0.232	0.043
-564.573	-139.005	0.159	-0.017
-563.558	-200.000	-0.016	-0.117
-562.544	-101.582	0.152	0.037
-561.529	-44.341	0.097	0.048
-560.515	136.802	-0.121	-0.156
-559.500	458.366	0.052	-0.115
-558.485	-28.514	-0.127	0.073
-557.471	-121.736	-0.152	-0.025
-556.456	-6.380	-0.036	0.024
-555.442	552.612	-0.203	0.484
-554.427	-127.047	0.339	0.049
-553.412	800.000	-0.059	0.201
-552.398	791.052	-0.067	0.181
-551.383	-60.388	-0.208	0.088
-550.369	-94.692	-0.233	0.063
-549.354	-200.000	-0.005	0.173
-548.339	-200.000	0.015	-0.204
-547.325	101.491	0.312	-0.360
-546.310	63.604	-0.075	-0.075
-545.296	201.460	-0.159	-0.243
-544.281	800.000	-0.159	-0.479
-543.266	82.576	0.017	0.018
-542.252	69.225	-0.375	-0.382
-541.237	75.056	-0.190	-0.198
-540.223	-46.303	0.086	-0.042
-539.208	-128.374	0.062	-0.009
-538.193	-200.000	-0.063	-0.432
-537.179	-83.175	0.248	0.079
-536.164	-200.000	0.054	-0.345
-535.150	48.817	0.047	0.044
-534.135	23.887	0.118	0.096
-533.121	272.998	0.109	0.191
-532.106	120.807	0.425	-0.524
-531.091	194.166	-0.064	0.096
-530.077	-200.000	0.042	-0.211
-529.062	-158.363	0.057	0.003
-528.048	-83.227	0.359	-0.114
-527.033	292.518	0.127	-0.230
-526.018	-6.334	-0.132	0.089
-525.004	-200.000	-0.055	0.289
-523.989	-1.881	-0.253	0.176
-522.975	800.000	-0.055	0.174
-521.960	65.227	0.132	-0.132
-520.945	-16.871	-0.113	0.071
-519.931	43.304	0.162	0.146
-518.916	-200.000	0.005	0.238
-517.902	-60.320	-0.094	0.039
-516.887	117.844	0.058	-0.070
-515.872	-130.724	-0.020	-0.003
-514.858	63.843	-0.043	-0.043
-513.843	222.993	0.177	0.282
-512.829	-62.797	0.131	0.054
-511.814	574.943	0.024	0.059
-510.799	-85.519	0.058	-0.018
-509.785	283.711	-0.107	-0.191
-508.770	273.154	-0.224	0.392
-507.756	287.060	-0.185	-0.331
-506.741	620.952	-0.060	-0.150
-505.726	800.000	-0.041	-0.156
-504.712	-78.443	-0.065	0.022
-503.697	-103.866	0.203	0.047
-502.683	-81.736	-0.624	-0.202
-501.668	-153.237	-0.156	0.011
-500.653	77.989	-0.076	0.080
-499.639	276.892	0.084	0.148
-498.624	-44.923	0.085	0.042
-497.610	-66.105	0.143	-0.057
-496.595	800.000	0.075	0.211
-495.581	191.679	0.171	-0.254
-494.566	-200.000	-0.015	-0.155
-493.551	-125.822	0.322	-0.048
-492.537	-200.000	-0.051	-0.289
-491.522	-158.959	0.055	0.003
-490.508	-200.000	-0.015	0.346
-489.493	-200.000	-0.014	0.168
-488.478	214.730	-0.137	0.215
-487.464	213.580	0.113	0.176
-486.449	-92.163	-0.285	0.080
-485.435	-147.640	-0.248	-0.021
-484.420	800.000	0.059	-0.221
-483.405	-200.000	-0.019	-0.106
-482.391	49.861	-0.257	-0.239
-481.376	40.745	-0.246	0.219
-480.362	-64.569	-0.275	0.110
-479.347	-119.736	-0.218	-0.037
-478.332	153.364	0.208	-0.282
-477.318	-147.240	0.263	-0.022
-476.303	81.117	-0.177	0.188
-475.289	74.133	0.071	-0.074
-474.274	-91.940	-0.148	-0.041
-473.259	-120.914	-0.382	-0.064
-472.245	81.523	-0.180	-0.192
-471.230	-166.814	-0.265	0.011
-470.216	95.547	0.253	0.285
-469.201	147.970	0.230	-0.306
-468.186	-200.000	0.011	-0.051
-467.172	800.000	0.101	0.311
-466.157	-118.189	-0.308	-0.054
-465.143	291.366	0.179	0.322
-464.128	-101.496	0.253	-0.061
-463.113	52.367	-0.062	0.058
-462.099	-200.000	-0.014	-0.074
-461.084	-114.569	0.202	0.038
-460.070	-113.006	0.387	-0.076
-459.055	232.812	0.037	0.060
-458.040	-1.397	0.315	0.220
-457.026	-62.373	0.307	0.126
-456.011	-108.004	-0.062	0.013
-454.997	-24.619	0.164	0.097
-453.982	-46.464	0.341	0.165
-452.968	266.796	0.134	-0.232
-451.953	736.298	0.068	-0.179
-450.938	119.582	-0.188	0.230
-449.924	184.360	0.096	-0.141
-448.909	-122.831	0.212	0.034
-447.895	747.781	-0.077	0.204
-446.880	-52.755	0.132	-0.060
-445.865	33.603	0.055	0.047
-444.851	216.509	-0.137	-0.215
-443.836	-102.394	0.259	-0.061
-442.822	800.000	0.051	0.196
-441.807	-54.818	0.389	-0.173
-440.792	-200.000	-0.101	-0.000
-439.778	326.616	-0.138	-0.261
-438.763	-102.063	0.117	-0.028
-437.749	115.878	-0.109	-0.132
-436.734	-25.801	-0.078	-0.045
-435.719	238.736	0.180	-0.294
-434.705	-200.000	0.022	0.246
-433.690	244.174	0.105	0.173
-432.676	-65.322	0.158	0.063
-431.661	-78.282	-0.245	-0.083
-430.646	-60.453	-0.560	0.235
-429.632	-200.000	0.026	-0.210
-428.617	-47.531	-0.187	0.089
-427.603	-156.414	-0.108	-0.007
-426.588	-200.000	0.020	-0.156
-425.573	800.000	-0.067	0.218
-424.559	27.151	0.147	0.122
-423.544	453.373	0.156	0.341
-422.530	593.627	-0.022	-0.053
-421.515	-87.504	0.100	-0.030
-420.500	-17.326	-0.278	0.173
-419.486	-99.238	0.245	0.061
-418.471	378.900	0.105	0.213
-417.457	-200.000	0.020	0.236
-416.442	148.102	-0.205	-0.273
-415.428	459.299	-0.076	0.167
-414.413	-14.828	0.217	-0.138
-413.398	-200.000	-0.028	-0.189
-412.384	144.063	0.163	-0.215
-411.369	511.339	-0.154	-0.352
-410.355	-159.370	-0.275	-0.015
-409.340	177.212	0.230	-0.330
-408.325	-70.735	-0.162	0.060
-407.311	-102.995	-0.175	0.041
-406.296	-108.995	-0.112	-0.023
-405.282	109.916	0.187	-0.221
-404.267	312.844	0.093	0.172
-403.252	165.573	0.178	0.248
-402.238	124.872	0.081	0.100
-401.223	-43.336	-0.080	-0.040
-400.209	-91.578	-0.125	-0.035
-399.194	127.256	-0.071	-0.089
-398.179	183.055	0.071	-0.104
-397.165	397.260	0.042	0.086
-396.150	407.007	-0.077	0.160
-395.136	91.254	-0.080	0.088
-394.121	-57.821	-0.315	-0.136
-393.106	-95.007	0.180	0.048
-392.092	397.322	-0.107	-0.220
-391.077	-200.000	0.008	-0.137
-390.063	-200.000	-0.017	0.214
-389.048	-68.941	-0.172	0.065
-388.033	-200.000	-0.044	-0.299
-387.019	-78.595	-0.143	-0.048
-386.004	-168.081	0.182	-0.007
-384.990	-200.000	-0.029	0.132
-383.975	279.137	-0.115	0.202
-382.960	23.638	-0.069	-0.056
-381.946	-66.475	0.403	-0.158
-380.931	-200.000	0.032	-0.166
-379.917	-23.657	0.080	-0.047
-378.902	-49.637	-0.146	-0.068
-377.888	-200.000	-0.025	0.371
-376.873	352.105	-0.088	0.172
-375.858	-60.781	0.263	-0.110
-374.844	32.493	0.028	0.024
-373.829	-178.111	0.190	0.004
-372.815	-126.625	-0.321	-0.047
-371.800	-200.000	0.034	0.195
-370.785	-142.985	0.086	0.008
-369.771	72.487	-0.195	-0.200
-368.756	800.000	0.068	-0.238
-367.742	-58.515	-0.172	-0.073
-366.727	346.863	-0.031	0.060
-365.712	700.966	-0.117	0.302
-364.698	-120.501	0.417	0.070
-363.683	-200.000	0.267	0.001
-362.669	233.556	0.067	-0.109
-361.654	-104.659	-0.310	0.070
-360.639	-16.528	0.204	-0.127
-359.625	381.631	0.077	-0.156
-358.610	-200.000	-0.006	0.035
-357.596	-53.540	0.204	0.092
-356.581	263.847	-0.168	0.288
-355.566	389.464	-0.222	0.452
-354.552	-45.368	-0.294	0.144
-353.537	-200.000	0.003	-0.096
-352.523	-133.513	0.054	-0.007
-351.508	99.317	-0.051	-0.058
-350.493	4.186	-0.174	0.125
-349.479	-91.510	-0.077	0.022
-348.464	-200.000	-0.095	-0.501
-347.450	251.787	-0.250	0.418
-346.435	609.610	-0.101	0.247
-345.420	3.250	-0.113	0.081
-344.406	237.779	-0.182	-0.296
-343.391	-58.799	-0.339	-0.144
-342.377	64.152	-0.070	0.069
-341.362	-200.000	-0.079	-0.395
-340.348	77.051	-0.087	0.091
-339.333	-105.088	0.126	-0.028
-338.318	562.555	0.148	-0.352
-337.304	-92.121	-0.191	-0.053
-336.289	-200.000	-0.044	0.199
-335.275	25.249	0.291	-0.238
-334.260	239.582	0.204	-0.333
-333.245	-200.000	-0.030	0.278
-332.231	-200.000	-0.021	0.097
-331.216	73.697	0.223	-0.230
-330.202	-31.198	0.144	-0.080
-329.187	-200.000	-0.013	0.445
-328.172	-200.000	-0.038	0.193
-327.158	-32.288	0.363	0.199
-326.143	67.578	-0.273	-0.274
-325.129	31.951	-0.068	-0.058
-324.114	29.331	0.216	-0.180
-323.099	120.697	0.183	0.223
-322.085	-98.741	0.224	0.056
-321.070	8.948	0.093	-0.069
-320.056	141.622	0.213	-0.277
-319.041	-200.000	0.061	-0.384
-318.026	100.322	0.204	0.233
-317.012	-115.446	0.330	-0.061
-315.997	-200.000	0.028	-0.136
-314.983	800.000	0.067	0.273
-313.968	-160.376	0.294	-0.016
-312.953	-200.000	0.013	-0.083
-311.939	-46.039	-0.096	-0.047
-310.924	-106.298	0.327	-0.072
-309.910	-91.592	0.226	0.063
-308.895	800.000	0.085	0.247
-307.880	-45.839	-0.170	0.083
-306.866	660.083	0.176	-0.444
-305.851	-59.012	-0.496	0.210
-304.837	-120.966	-0.256	0.042
-303.822	2.442	0.126	-0.089
-302.807	3.095	0.063	-0.045
-301.793	0.933	-0.334	0.235
-300.778	-46.846	0.182	-0.087
-299.764	-35.162	0.064	-0.034
-298.749	-129.292	-0.435	0.059
-297.735	-103.944	0.247	-0.057
-296.720	10.409	-0.380	-0.284
-295.705	12.046	0.174	-0.132
-294.691	-95.188	-0.341	-0.090
-293.676	-165.501	-0.081	0.003
-292.662	42.324	-0.126	0.113
-291.647	500.461	-0.055	-0.125
-290.632	69.862	0.224	-0.226
-289.618	387.831	0.153	-0.310
-288.603	301.681	0.091	-0.165
-287.589	-120.425	-0.177	-0.029
-286.574	526.701	-0.045	-0.103
-285.559	-45.394	0.101	-0.049
-284.545	-22.062	0.246	0.146
-283.530	-46.614	0.194	-0.093
-282.516	-200.000	0.004	0.329
-281.501	149.904	-0.078	0.103
-280.486	242.635	-0.037	-0.060
-279.472	392.982	0.098	0.201
-278.457	11.550	0.055	-0.041
-277.443	-60.053	-0.109	0.046
-276.428	254.088	-0.158	0.265
-275.413	-200.000	-0.040	-0.277
-274.399	-121.272	-0.166	-0.027
-273.384	-111.505	0.142	0.028
-272.370	-108.568	0.033	-0.007
-271.355	76.436	-0.152	0.158
-270.340	-135.314	0.252	0.030
-269.326	82.053	0.190	-0.202
-268.311	800.000	0.047	-0.135
-267.297	5.646	0.252	0.182
-266.282	-200.000	-0.011	-0.155
-265.267	-200.000	-0.025	0.229
-264.253	-103.563	0.354	-0.081
-263.238	81.908	-0.178	0.189
-262.224	-200.000	0.076	0.446
-261.209	168.663	0.125	-0.174
-260.195	-45.127	0.050	0.025
-259.180	280.655	0.274	0.480
-258.165	247.101	0.075	-0.124
-257.151	800.000	0.034	0.140
-256.136	-200.000	0.023	0.240
-255.122	219.504	-0.061	-0.095
-254.107	800.000	0.087	-0.340
-253.092	-199.827	0.128	0.001
-252.078	-91.971	-0.294	0.082
-251.063	-200.000	0.016	-0.410
-250.049	-120.265	-0.173	-0.029
-249.034	28.174	-0.050	0.041
-248.019	-4.611	-0.052	-0.035
-247.005	-68.221	-0.186	0.071
-245.990	573.709	-0.037	-0.088
-244.976	800.000	0.093	0.308
-243.961	-84.303	0.244	-0.076
-242.946	209.410	0.118	0.182
-241.932	-200.000	-0.032	0.300
-240.917	-62.155	0.287	-0.117
-239.903	-100.696	-0.225	0.054
-238.888	-24.528	-0.140	-0.082
-237.873	-200.000	0.001	-0.069
-236.859	-103.680	0.273	-0.063
-235.844	-73.773	0.220	-0.078
-234.830	175.705	0.157	-0.223
-233.815	-200.000	0.006	-0.109
-232.800	342.825	-0.169	-0.324
-231.786	-101.291	-0.161	0.038
-230.771	147.799	-0.044	0.058
-229.757	-200.000	-0.012	0.374
-228.742	190.194	0.105	-0.154
-227.727	-140.249	0.099	-0.010
-226.713	-200.000	0.006	-0.261
-225.698	110.505	0.167	-0.197
-224.684	57.893	0.280	0.268
-223.669	467.113	0.017	-0.038
-222.655	-1.651	0.148	0.102
-221.640	324.776	0.074	0.138
-220.625	506.575	-0.040	-0.092
-219.611	60.173	0.084	0.082
-218.596	800.000	0.044	-0.140
-217.582	800.000	0.032	-0.098
-216.567	800.000	0.039	-0.124
-215.552	573.353	-0.180	0.429
-214.538	-9.158	-0.091	0.060
-213.523	605.588	-0.060	0.147
-212.509	240.573	0.235	-0.384
-211.494	-200.000	-0.013	0.183
-210.479	800.000	-0.065	0.236
-209.465	164.026	0.223	0.308
-208.450	800.000	-0.068	0.224
-207.436	578.036	0.104	0.248
-206.421	-22.108	0.358	-0.212
-205.406	-167.465	0.086	0.003
-204.392	-200.000	0.039	0.243
-203.377	-200.000	-0.009	-0.339
-202.363	77.309	0.037	-0.039
-201.348	228.789	-0.118	0.187
-200.333	-40.009	-0.382	0.195
-199.319	-31.055	-0.087	0.048
-198.304	-37.897	0.247	-0.128
-197.290	-61.787	-0.330	-0.135
-196.275	-200.000	0.023	0.129
-195.260	300.440	-0.092	0.165
-194.246	280.309	0.160	-0.279
-193.231	-159.659	-0.084	0.005
-192.217	-119.991	-0.120	0.020
-191.202	-25.551	0.144	-0.083
-190.187	-158.721	-0.283	-0.016
-189.173	16.376	-0.325	-0.251
-188.158	21.566	-0.197	-0.156
-187.144	187.526	-0.066	-0.096
-186.129	21.628	-0.202	0.161
-185.114	800.000	-0.028	0.102
-184.100	-39.273	0.072	-0.037
-183.085	108.641	0.321	0.374
-182.071	569.181	-0.137	0.325
-181.056	-99.306	0.209	-0.051
-180.042	800.000	-0.126	-0.406
-179.027	-200.000	0.001	0.074
-178.012	-52.579	-0.187	-0.084
-176.998	800.000	-0.048	-0.178
-175.983	638.982	0.048	0.119
-174.969	-200.000	0.010	-0.060
-173.954	270.038	-0.118	-0.202
-172.939	-87.068	0.218	-0.065
-171.925	344.045	-0.076	0.145
-170.910	-67.373	0.244	-0.094
-169.896	-12.938	-0.101	0.064
-168.881	102.964	0.013	0.015
-167.866	150.457	0.255	0.338
-166.852	-128.583	0.013	-0.002
-165.837	125.451	-0.032	-0.039
-164.823	-200.000	0.030	0.169
-163.808	-99.727	0.075	-0.018
-162.793	-89.093	0.295	-0.085
-161.779	-109.651	-0.123	-0.025
-160.764	-141.777	-0.161	-0.016
-159.750	636.341	0.074	0.183
-158.735	136.446	0.132	0.168
-157.720	320.159	-0.078	0.145
-156.706	-43.938	-0.203	0.100
-155.691	43.633	0.038	0.034
-154.677	-42.086	-0.161	-0.080
-153.662	88.806	-0.105	-0.114
-152.647	-200.000	0.064	-0.326
-151.633	-200.000	-0.055	0.364
-150.618	-200.000	-0.099	0.475
-149.604	331.116	0.106	0.200
-148.589	-52.946	0.035	-0.016
-147.574	363.999	-0.125	-0.245
-146.560	-200.000	-0.047	-0.323
-145.545	37.181	0.160	-0.138
-144.531	800.000	-0.018	0.067
-143.516	-86.181	0.115	-0.035
-142.502	5.285	0.171	0.123
-141.487	142.860	-0.162	-0.210
-140.472	-17.616	-0.140	0.086
-139.458	-0.564	0.045	0.031
-138.443	-185.347	-0.041	-0.001
-137.429	-200.000	0.032	0.168
-136.414	-200.000	0.011	-0.335
-135.399	57.335	0.031	-0.029
-134.385	126.699	0.068	0.084
-133.370	-129.994	0.505	0.067
-132.356	-69.151	-0.164	0.061
-131.341	-2.803	0.252	0.172
-130.326	221.553	-0.083	0.131
-129.312	43.164	0.214	-0.191
-128.297	-200.000	-0.007	-0.065
-127.283	-21.414	-0.069	0.041
-126.268	-188.698	-0.559	-0.007
-125.253	-22.106	0.161	-0.095
-124.239	800.000	-0.085	-0.283
-123.224	-184.987	0.239	-0.004
-122.210	353.980	0.025	0.048
