DTS Sentinel unit serial number:	SN413079Multiplexer serial number:	ORYXHardware model number:	OX4-SRSoftware version number:	ORYX F/W v4.00 Oryx Data Collector v3.7.2.0data status	okinstallation	princeton_trtdifferential loss correction	single-endedforward channel	channel 2reverse channel	N/Adate	2019/09/17time	06:55:35forward acquisition time	60.00reverse acquisition time	0.00gamma	496.2192k internal	0.2333k external	0.2333temperature offset calibration	0.9978default loss term (dB/km)	0.3790temperature slope calibration	1.0000multiplexer offset coefficient	1.0000multiplexer slope coefficient	1.0000fibre end	0.00T internal ref (°C)	27.62T ext. ref 1 (°C)	0.12T ext. ref 2 (°C)	21.02length (m)	temperature (°C)	Stokes	anti-Stokes-747.200	-200.000	0.001	-0.157
-746.185	-94.016	-0.030	0.008
-745.171	-101.679	0.117	-0.029
-744.156	90.692	-0.418	0.471
-743.142	-92.216	-0.250	0.071
-742.127	47.734	-0.123	-0.115
-741.112	100.583	0.124	-0.144
-740.098	-200.000	-0.042	-0.252
-739.083	-101.301	-0.246	0.060
-738.069	387.668	-0.107	0.223
-737.054	-145.644	-0.176	-0.016
-736.039	18.422	-0.179	-0.144
-735.025	-94.812	0.053	0.014
-734.010	-50.975	-0.375	0.177
-732.996	-79.411	-0.374	-0.127
-731.981	-80.082	0.270	-0.091
-730.966	46.974	-0.202	-0.189
-729.952	800.000	0.008	0.029
-728.937	178.985	-0.089	0.131
-727.923	-54.763	-0.216	0.098
-726.908	195.736	0.152	-0.233
-725.894	471.520	-0.142	-0.322
-724.879	800.000	-0.087	0.287
-723.864	800.000	-0.020	0.081
-722.850	660.900	-0.106	-0.274
-721.835	-200.000	-0.061	0.287
-720.821	-57.843	-0.294	0.129
-719.806	-59.270	0.088	-0.038
-718.791	29.892	-0.071	0.060
-717.777	-50.711	-0.273	0.129
-716.762	-0.374	-0.210	-0.150
-715.748	-177.452	0.154	0.004
-714.733	-43.031	0.202	-0.103
-713.718	-127.692	-0.145	0.021
-712.704	6.091	0.474	-0.353
-711.689	499.664	-0.109	0.252
-710.675	-60.962	0.279	0.118
-709.660	-170.413	-0.323	0.011
-708.645	74.311	-0.186	-0.197
-707.631	-200.000	-0.017	-0.297
-706.616	61.337	-0.150	-0.150
-705.602	-96.436	0.218	-0.058
-704.587	-26.326	0.111	-0.065
-703.572	-200.000	-0.030	0.215
-702.558	101.818	-0.124	0.146
-701.543	547.402	-0.141	-0.340
-700.529	-200.000	0.033	0.200
-699.514	-116.526	0.501	0.093
-698.499	-200.000	-0.019	0.153
-697.485	-14.796	0.100	0.064
-696.470	-151.610	-0.061	-0.005
-695.456	-1.355	0.132	-0.093
-694.441	-200.000	0.017	-0.188
-693.426	-117.390	0.248	-0.045
-692.412	-200.000	0.029	-0.385
-691.397	530.882	-0.123	-0.291
-690.383	800.000	0.100	-0.335
-689.368	-86.050	0.196	0.061
-688.354	713.307	-0.173	-0.459
-687.339	630.695	-0.090	-0.228
-686.324	-93.769	-0.148	0.041
-685.310	17.164	-0.508	-0.404
-684.295	-157.440	0.166	-0.010
-683.281	286.483	-0.052	-0.094
-682.266	800.000	0.047	0.150
-681.251	-9.313	0.306	0.205
-680.237	-60.097	-0.162	-0.069
-679.222	158.990	0.131	-0.183
-678.208	430.253	-0.125	-0.272
-677.193	653.143	-0.115	0.296
-676.178	139.816	0.103	-0.136
-675.164	218.270	-0.139	0.222
-674.149	-141.299	-0.377	0.038
-673.135	-44.103	-0.228	-0.115
-672.120	-200.000	0.064	0.453
-671.105	-128.781	-0.200	0.028
-670.091	-148.750	-0.132	0.011
-669.076	800.000	-0.078	-0.230
-668.062	446.422	-0.072	-0.158
-667.047	-200.000	0.026	-0.196
-666.032	-200.000	-0.037	-0.216
-665.018	-200.000	0.027	0.220
-664.003	-200.000	-0.009	-0.043
-662.989	-166.615	0.176	-0.007
-661.974	-39.969	0.215	-0.113
-660.959	-200.000	0.021	-0.135
-659.945	376.708	-0.054	-0.111
-658.930	-10.219	0.092	-0.061
-657.916	800.000	-0.064	-0.199
-656.901	79.683	0.167	0.179
-655.886	193.916	-0.111	0.169
-654.872	-200.000	0.010	0.094
-653.857	-200.000	0.081	-0.361
-652.843	603.708	-0.075	-0.186
-651.828	-200.000	0.020	0.174
-650.814	193.844	-0.035	0.053
-649.799	139.926	-0.086	0.113
-648.784	4.356	-0.203	0.149
-647.770	800.000	-0.084	0.321
-646.755	800.000	0.029	-0.121
-645.741	-175.196	-0.052	-0.001
-644.726	800.000	0.139	0.422
-643.711	113.828	0.181	0.220
-642.697	23.056	-0.218	-0.179
-641.682	45.572	0.013	-0.012
-640.668	413.182	-0.054	0.114
-639.653	-48.804	-0.164	0.079
-638.638	81.106	-0.168	-0.182
-637.624	-10.105	-0.122	0.081
-636.609	-200.000	-0.025	-0.182
-635.595	-88.784	-0.066	-0.020
-634.580	-33.378	-0.044	0.024
-633.565	258.908	0.021	-0.037
-632.551	-31.335	-0.394	-0.222
-631.536	-188.733	-0.209	0.003
-630.522	238.728	-0.033	-0.055
-629.507	244.883	0.082	0.138
-628.492	-16.352	0.269	-0.171
-627.478	-12.848	-0.165	-0.107
-626.463	-200.000	-0.046	-0.213
-625.449	623.943	-0.026	-0.067
-624.434	-119.705	-0.254	-0.044
-623.419	-91.328	-0.175	-0.050
-622.405	-145.354	0.167	0.015
-621.390	-16.927	-0.146	0.092
-620.376	-48.155	-0.466	0.225
-619.361	-200.000	0.001	-0.117
-618.346	-120.011	0.200	0.034
-617.332	271.922	0.029	0.051
-616.317	-182.656	0.176	0.003
-615.303	609.630	-0.089	0.222
-614.288	-75.161	0.310	-0.111
-613.273	469.328	0.103	-0.232
-612.259	-149.368	-0.132	0.010
-611.244	-90.962	-0.055	-0.016
-610.230	408.769	-0.067	0.142
-609.215	800.000	-0.032	-0.102
-608.201	-145.717	0.042	-0.004
-607.186	800.000	0.063	0.228
-606.171	-200.000	0.001	0.013
-605.157	165.935	-0.100	-0.141
-604.142	45.735	-0.364	-0.337
-603.128	800.000	-0.072	0.228
-602.113	-105.108	0.290	0.066
-601.098	800.000	-0.028	-0.111
-600.084	-1.647	-0.196	0.138
-599.069	-115.069	-0.245	-0.047
-598.055	-123.471	-0.290	0.046
-597.040	18.105	0.218	-0.174
-596.025	-41.192	-0.174	0.090
-595.011	24.320	-0.137	0.113
-593.996	112.228	0.098	0.119
-592.982	230.689	0.101	-0.165
-591.967	214.990	0.098	-0.156
-590.952	367.351	-0.264	-0.533
-589.938	57.755	0.013	0.012
-588.923	32.630	-0.188	0.163
-587.909	315.636	-0.030	-0.057
-586.894	131.244	0.169	-0.217
-585.879	-44.768	-0.257	0.128
-584.865	103.105	-0.026	0.031
-583.850	577.308	-0.109	-0.266
-582.836	124.450	-0.037	0.047
-581.821	-200.000	0.038	-0.197
-580.806	-200.000	-0.025	0.201
-579.792	-86.833	0.171	-0.052
-578.777	39.319	0.108	0.096
-577.763	-48.646	0.064	0.031
-576.748	-126.399	0.338	-0.050
-575.733	-0.510	-0.192	-0.136
-574.719	800.000	-0.008	0.035
-573.704	-200.000	0.099	-0.516
-572.690	-158.592	0.298	-0.017
-571.675	-16.393	0.253	0.160
-570.661	4.292	-0.308	-0.225
-569.646	-59.474	-0.149	0.064
-568.631	146.066	-0.278	0.373
-567.617	350.231	0.020	0.038
-566.602	-81.104	0.145	0.048
-565.588	696.376	-0.114	0.299
-564.573	-94.542	-0.295	-0.080
-563.558	671.726	0.106	0.274
-562.544	535.416	0.101	-0.239
-561.529	-123.360	0.056	0.009
-560.515	-57.654	0.029	0.013
-559.500	-95.065	0.117	-0.032
-558.485	171.952	0.118	-0.170
-557.471	-24.189	-0.112	-0.066
-556.456	122.946	0.071	0.089
-555.442	-200.000	-0.007	-0.292
-554.427	-63.870	-0.330	-0.135
-553.412	169.254	0.224	0.319
-552.398	272.946	0.172	-0.304
-551.383	800.000	0.051	-0.148
-550.369	-8.258	0.159	-0.107
-549.354	135.763	-0.210	-0.273
-548.339	57.278	0.083	0.081
-547.325	800.000	0.040	-0.116
-546.310	3.985	0.049	0.035
-545.296	-200.000	0.030	-0.142
-544.281	33.068	-0.096	0.083
-543.266	-150.881	-0.037	0.003
-542.252	800.000	-0.080	0.221
-541.237	64.474	0.147	0.148
-540.223	800.000	0.084	0.262
-539.208	-40.788	-0.385	-0.199
-538.193	-100.050	0.114	-0.028
-537.179	-94.215	-0.120	-0.033
-536.164	-62.672	0.134	0.056
-535.150	-200.000	0.050	0.331
-534.135	413.845	0.051	0.109
-533.121	41.040	0.070	0.063
-532.106	-196.695	0.231	0.002
-531.091	-200.000	0.026	0.166
-530.077	49.721	-0.030	-0.028
-529.062	0.501	-0.400	-0.285
-528.048	-90.508	0.258	-0.074
-527.033	-200.000	0.028	0.134
-526.018	-30.485	0.390	0.220
-525.004	-200.000	-0.033	0.204
-523.989	-55.432	0.128	0.057
-522.975	60.581	-0.185	0.183
-521.960	-10.853	0.165	-0.109
-520.945	90.706	0.130	0.145
-519.931	119.435	0.212	0.262
-518.916	800.000	0.103	-0.357
-517.902	222.991	-0.231	-0.371
-516.887	328.673	-0.065	0.124
-515.872	688.368	-0.119	0.310
-514.858	-200.000	0.020	0.299
-513.843	-152.960	-0.088	-0.006
-512.829	121.735	-0.147	-0.182
-511.814	269.659	-0.157	-0.275
-510.799	-200.000	0.008	-0.075
-509.785	800.000	0.096	-0.269
-508.770	7.436	-0.177	-0.131
-507.756	800.000	-0.032	-0.106
-506.741	-67.698	-0.123	0.048
-505.726	-200.000	0.029	-0.510
-504.712	-200.000	0.026	-0.119
-503.697	-200.000	-0.002	-0.027
-502.683	-200.000	0.515	0.002
-501.668	33.216	0.164	0.142
-500.653	226.987	-0.034	0.055
-499.639	735.844	0.107	-0.286
-498.624	233.632	0.117	0.192
-497.610	215.012	0.175	0.276
-496.595	100.576	-0.248	0.286
-495.581	259.282	0.136	-0.233
-494.566	5.053	0.162	0.118
-493.551	23.881	0.128	0.105
-492.537	-200.000	-0.067	0.377
-491.522	-200.000	0.036	0.228
-490.508	308.093	0.145	0.269
-489.493	-166.226	0.213	0.009
-488.478	250.118	-0.125	-0.211
-487.464	47.615	0.136	0.127
-486.449	800.000	0.056	0.203
-485.435	-119.420	0.406	-0.070
-484.420	391.470	-0.070	0.145
-483.405	-21.711	-0.138	0.084
-482.391	54.825	-0.100	0.096
-481.376	-52.336	-0.023	0.011
-480.362	-125.003	0.439	-0.067
-479.347	-200.000	-0.030	-0.335
-478.332	24.235	0.221	0.182
-477.318	-200.000	0.001	-0.007
-476.303	269.402	0.069	-0.120
-475.289	113.602	0.197	0.238
-474.274	-117.952	0.211	0.038
-473.259	-20.035	-0.062	0.038
-472.245	297.843	0.139	0.254
-471.230	194.127	-0.195	-0.294
-470.216	90.318	-0.180	0.201
-469.201	639.999	-0.165	0.418
-468.186	-134.863	0.153	-0.018
-467.172	800.000	0.035	-0.139
-466.157	26.615	0.027	0.023
-465.143	-35.360	0.223	-0.121
-464.128	84.037	-0.190	0.206
-463.113	64.200	0.105	-0.106
-462.099	46.607	-0.266	0.245
-461.084	-149.282	0.285	-0.023
-460.070	727.598	0.072	0.192
-459.055	-117.640	-0.249	0.045
-458.040	400.865	0.138	0.289
-457.026	24.402	0.010	0.008
-456.011	-112.200	0.104	0.021
-454.997	800.000	-0.042	-0.149
-453.982	374.966	0.258	-0.523
-452.968	-59.787	-0.070	-0.030
-451.953	-9.313	0.167	-0.111
-450.938	-117.755	-0.080	0.014
-449.924	38.275	-0.057	0.050
-448.909	-105.676	-0.161	0.036
-447.895	800.000	-0.022	-0.081
-446.880	-200.000	0.056	0.267
-445.865	-89.004	0.305	-0.090
-444.851	120.398	-0.092	-0.113
-443.836	147.839	0.188	0.252
-442.822	153.926	-0.049	-0.066
-441.807	77.841	-0.111	-0.117
-440.792	-200.000	-0.049	0.288
-439.778	-86.757	-0.158	0.048
-438.763	-84.157	-0.054	0.017
-437.749	-172.531	0.182	0.006
-436.734	597.326	-0.077	-0.190
-435.719	-169.527	0.244	0.009
-434.705	91.713	-0.180	0.202
-433.690	-107.027	0.203	-0.045
-432.676	242.263	0.084	0.140
-431.661	82.274	-0.152	0.164
-430.646	197.039	0.129	0.195
-429.632	800.000	0.049	-0.187
-428.617	-89.699	-0.154	0.045
-427.603	800.000	-0.036	0.111
-426.588	-178.294	0.212	0.005
-425.573	-200.000	-0.069	-0.479
-424.559	-200.000	-0.013	-0.239
-423.544	59.256	0.141	-0.137
-422.530	235.386	0.119	-0.195
-421.515	-95.670	0.111	0.030
-420.500	-43.682	0.055	-0.028
-419.486	800.000	0.033	-0.115
-418.471	800.000	0.086	-0.318
-417.457	-15.875	0.349	0.221
-416.442	171.246	-0.037	-0.053
-415.428	-20.024	-0.311	-0.190
-414.413	-98.729	-0.096	0.024
-413.398	-179.973	0.264	0.006
-412.384	-129.960	0.357	0.049
-411.369	-200.000	0.060	0.317
-410.355	-200.000	0.028	0.365
-409.340	291.229	0.094	0.169
-408.325	13.131	0.156	-0.120
-407.311	-163.152	-0.067	0.003
-406.296	-70.569	-0.151	0.057
-405.282	364.938	-0.088	-0.175
-404.267	-147.771	0.169	-0.014
-403.252	-51.145	0.396	-0.184
-402.238	-172.011	-0.214	0.007
-401.223	77.460	0.307	-0.324
-400.209	586.205	0.041	-0.099
-399.194	-120.607	-0.345	-0.058
-398.179	-6.160	0.099	0.067
-397.165	-55.936	0.305	-0.135
-396.150	83.895	-0.105	0.113
-395.136	-200.000	0.009	0.324
-394.121	-145.981	-0.070	-0.006
-393.106	138.642	0.042	0.054
-392.092	-167.345	0.352	-0.014
-391.077	-200.000	-0.078	0.394
-390.063	339.501	0.181	0.349
-389.048	-184.440	0.233	-0.004
-388.033	800.000	-0.026	-0.096
-387.019	-200.000	-0.021	0.110
-386.004	800.000	0.030	0.127
-384.990	17.976	0.287	0.227
-383.975	800.000	-0.062	0.212
-382.960	-46.211	0.071	-0.035
-381.946	386.104	0.162	0.330
-380.931	-7.786	-0.017	0.011
-379.917	800.000	-0.071	-0.217
-378.902	482.720	0.118	-0.266
-377.888	-200.000	-0.036	-0.304
-376.873	-143.690	0.327	-0.031
-375.858	21.198	-0.214	0.172
-374.844	-200.000	-0.018	0.300
-373.829	-127.741	0.101	0.014
-372.815	651.525	0.108	-0.274
-371.800	-200.000	-0.021	-0.161
-370.785	-76.687	-0.129	0.045
-369.771	63.878	-0.339	0.338
-368.756	800.000	0.088	-0.370
-367.742	-60.657	-0.243	0.102
-366.727	-197.752	-0.182	-0.001
-365.712	-147.933	-0.219	-0.018
-364.698	-200.000	-0.017	0.122
-363.683	37.802	-0.384	0.338
-362.669	-30.130	-0.334	-0.188
-361.654	5.010	0.253	-0.184
-360.639	-164.733	0.231	-0.010
-359.625	10.805	-0.084	0.064
-358.610	-117.508	0.241	-0.043
-357.596	800.000	-0.093	-0.295
-356.581	-92.845	0.256	0.071
-355.566	-36.283	-0.147	-0.079
-354.552	-35.575	-0.244	0.131
-353.537	-117.380	-0.248	0.045
-352.523	-200.000	-0.007	-0.222
-351.508	-200.000	-0.001	0.172
-350.493	-200.000	0.128	-0.001
-349.479	270.275	-0.111	0.193
-348.464	-97.456	0.165	-0.042
-347.450	-200.000	-0.112	0.573
-346.435	264.887	0.120	0.207
-345.420	159.233	-0.290	-0.399
-344.406	74.052	-0.173	0.180
-343.391	143.137	0.264	-0.348
-342.377	288.209	-0.103	-0.184
-341.362	682.167	0.030	-0.077
-340.348	229.161	-0.100	-0.161
-339.333	-107.262	0.153	0.033
-338.318	-200.000	-0.017	0.169
-337.304	125.906	0.106	0.133
-336.289	-59.111	0.203	0.087
-335.275	800.000	-0.089	0.280
-334.260	800.000	-0.045	-0.175
-333.245	11.861	0.057	-0.043
-332.231	32.525	-0.083	0.071
-331.216	133.007	-0.093	0.118
-330.202	-4.984	-0.215	-0.146
-329.187	-160.663	0.057	0.003
-328.172	318.894	-0.080	0.149
-327.158	255.924	-0.011	0.018
-326.143	-200.000	-0.018	0.156
-325.129	-96.387	0.256	0.067
-324.114	800.000	0.029	-0.100
-323.099	63.208	-0.060	0.059
-322.085	283.404	0.056	-0.099
-321.070	13.603	0.070	-0.054
-320.056	743.220	-0.096	0.255
-319.041	59.246	0.106	0.103
-318.026	800.000	-0.010	0.043
-317.012	-200.000	-0.008	0.146
-315.997	800.000	0.017	0.055
-314.983	97.832	0.115	-0.131
-313.968	-133.300	0.296	0.037
-312.953	800.000	0.058	-0.194
-311.939	111.839	-0.197	0.235
-310.924	-120.526	-0.145	-0.024
-309.910	-166.941	-0.144	-0.006
-308.895	800.000	-0.067	0.266
-307.880	30.611	0.247	0.208
-306.866	190.037	-0.064	-0.095
-305.851	-11.350	0.157	-0.102
-304.837	13.154	-0.322	-0.246
-303.822	-104.150	-0.176	-0.040
-302.807	-161.599	-0.204	-0.010
-301.793	-200.000	-0.021	-0.181
-300.778	45.446	0.082	-0.074
-299.764	127.841	-0.281	-0.353
-298.749	134.178	0.098	-0.126
-297.735	195.676	-0.134	0.201
-296.720	183.556	-0.100	0.146
-295.705	800.000	0.018	-0.053
-294.691	800.000	-0.011	0.040
-293.676	-59.757	-0.131	0.056
-292.662	800.000	0.076	0.273
-291.647	-84.478	0.096	0.030
-290.632	64.742	-0.094	-0.093
-289.618	800.000	-0.073	-0.243
-288.603	-29.460	0.241	-0.136
-287.589	-33.128	-0.128	0.070
-286.574	-200.000	-0.003	-0.101
-285.559	-108.731	-0.250	-0.053
-284.545	-96.131	0.195	-0.051
-283.530	280.470	0.121	0.214
-282.516	81.220	-0.172	0.184
-281.501	-62.763	-0.230	-0.094
-280.486	800.000	0.082	0.266
-279.472	-40.939	0.354	-0.181
-278.457	-66.221	-0.254	-0.100
-277.443	800.000	-0.056	-0.231
-276.428	800.000	-0.071	0.301
-275.413	61.789	-0.088	-0.087
-274.399	85.526	-0.205	0.222
-273.384	-46.332	0.181	0.088
-272.370	-43.252	-0.547	-0.273
-271.355	-190.151	-0.171	0.002
-270.340	800.000	-0.044	-0.131
-269.326	-132.708	-0.077	0.010
-268.311	70.825	-0.139	0.142
-267.297	-43.101	0.140	-0.070
-266.282	-22.238	-0.111	0.067
-265.267	609.158	-0.100	0.246
-264.253	-52.635	0.109	0.050
-263.238	-44.623	-0.426	-0.210
-262.224	194.661	0.166	0.249
-261.209	-100.322	-0.321	0.079
-260.195	-200.000	0.002	-0.141
-259.180	-42.078	0.275	0.139
-258.165	31.528	0.138	-0.117
-257.151	513.999	0.070	-0.160
-256.136	43.156	-0.123	0.111
-255.122	87.822	-0.030	-0.033
-254.107	-200.000	-0.012	0.123
-253.092	-175.605	-0.342	0.009
-252.078	87.067	-0.209	0.228
-251.063	-114.375	-0.042	0.008
-250.049	21.196	-0.037	-0.030
-249.034	4.169	-0.329	-0.237
-248.019	378.266	0.092	-0.185
-247.005	-200.000	0.057	0.276
-245.990	-153.363	0.089	0.006
-244.976	669.916	0.102	-0.260
-243.961	-200.000	0.013	0.128
-242.946	142.750	0.131	-0.172
-241.932	800.000	0.127	0.358
-240.917	-110.483	0.323	0.066
-239.903	-63.102	-0.120	-0.049
-238.888	69.040	0.170	-0.172
-237.873	800.000	0.047	-0.169
-236.859	-54.849	-0.081	-0.036
-235.844	563.542	-0.133	0.316
-234.830	800.000	-0.051	-0.201
-233.815	304.807	0.062	-0.114
-232.800	-200.000	0.013	-0.096
-231.786	-48.145	0.259	0.123
-230.771	-57.133	-0.257	-0.112
-229.757	-200.000	0.017	-0.117
-228.742	-200.000	-0.027	0.153
-227.727	-67.245	-0.190	-0.074
-226.713	-200.000	-0.073	0.322
-225.698	-8.080	-0.306	-0.203
-224.684	800.000	0.087	-0.284
-223.669	10.970	0.165	0.124
-222.655	-18.346	-0.147	-0.091
-221.640	-74.536	0.409	-0.145
-220.625	800.000	0.088	0.300
-219.611	33.597	0.168	-0.144
-218.596	-29.538	-0.154	-0.087
-217.582	-85.316	0.324	-0.100
-216.567	11.110	0.201	-0.151
-215.552	-200.000	-0.000	0.237
-214.538	65.962	0.232	0.232
-213.523	288.346	-0.059	-0.105
-212.509	158.343	-0.171	-0.233
-211.494	-97.510	-0.209	-0.053
-210.479	800.000	-0.059	-0.226
-209.465	-200.000	0.012	0.424
-208.450	-41.602	0.219	0.111
-207.436	23.430	-0.193	-0.156
-206.421	-91.428	0.055	0.015
-205.406	800.000	0.106	-0.342
-204.392	-4.420	0.145	0.099
-203.377	622.204	-0.162	-0.401
-202.363	356.393	0.097	-0.191
-201.348	-150.354	0.247	0.019
-200.333	800.000	0.039	0.165
-199.319	432.419	-0.095	-0.202
-198.304	-62.704	0.215	-0.088
-197.290	174.172	0.219	-0.312
-196.275	497.066	0.058	0.130
-195.260	107.250	0.152	0.178
-194.246	-120.440	-0.160	-0.027
-193.231	-83.266	-0.057	0.018
-192.217	-67.762	-0.163	-0.063
-191.202	22.487	0.192	-0.154
-190.187	9.296	-0.392	-0.292
-189.173	-83.115	-0.141	-0.045
-188.158	-77.164	0.051	-0.017
-187.144	241.550	-0.207	-0.340
-186.129	163.965	-0.125	0.173
-185.114	-200.000	0.073	0.352
-184.100	259.248	0.040	-0.068
-183.085	160.372	0.134	-0.184
-182.071	36.638	0.152	-0.132
-181.056	800.000	-0.039	-0.142
-180.042	296.555	-0.103	0.185
-179.027	-200.000	-0.030	-0.202
-178.012	-142.414	-0.300	0.029
-176.998	44.018	-0.231	0.208
-175.983	800.000	-0.088	0.371
-174.969	-78.719	-0.319	0.107
-173.954	-200.000	0.031	-0.342
-172.939	-200.000	-0.087	-0.416
-171.925	-109.160	-0.249	-0.052
-170.910	105.435	0.058	-0.068
-169.896	584.193	0.197	0.475
-168.881	-61.203	-0.096	0.040
-167.866	800.000	-0.107	-0.324
-166.852	-200.000	0.078	-0.401
-165.837	-128.410	-0.139	-0.019
-164.823	115.436	0.276	-0.332
-163.808	75.816	0.050	0.052
-162.793	238.290	-0.148	0.241
-161.779	-200.000	-0.042	-0.233
-160.764	119.556	0.229	0.279
-159.750	-200.000	0.046	-0.380
-158.735	374.257	0.044	0.088
-157.720	329.785	-0.038	0.072
-156.706	-18.691	0.220	-0.135
-155.691	800.000	-0.049	0.203
-154.677	-87.170	0.171	-0.051
-153.662	-20.041	-0.175	0.106
-152.647	-114.507	-0.097	0.018
-151.633	86.957	0.140	0.152
-150.618	137.223	0.027	0.034
-149.604	-200.000	0.185	0.001
-148.589	-135.997	-0.274	0.032
-147.574	448.629	0.076	0.165
-146.560	623.439	-0.093	-0.230
-145.545	6.974	0.062	0.045
-144.531	238.331	-0.017	-0.028
-143.516	-79.961	0.229	-0.075
-142.502	-80.236	0.105	0.035
-141.487	150.615	0.139	-0.185
-140.472	165.302	-0.185	0.257
-139.458	-200.000	0.034	-0.329
-138.443	-95.577	-0.122	-0.032
-137.429	800.000	0.165	-0.599
-136.414	29.721	0.088	-0.074
-135.399	68.851	0.144	-0.146
-134.385	800.000	0.132	-0.464
-133.370	147.605	-0.044	-0.058
-132.356	39.933	0.094	0.082
-131.341	-200.000	-0.081	-0.373
-130.326	800.000	-0.065	-0.218
-129.312	13.763	-0.093	0.071
-128.297	-66.134	-0.120	-0.047
-127.283	135.272	-0.132	0.168
-126.268	65.549	0.041	0.040
-125.253	-91.987	-0.121	0.034
-124.239	-71.835	0.121	0.044
-123.224	-200.000	-0.002	-0.070
-122.210	-13.005	-0.358	0.229
-121.195	-28.660	0.292	0.165
