DTS Sentinel unit serial number:	SN413079Multiplexer serial number:	ORYXHardware model number:	OX4-SRSoftware version number:	ORYX F/W v4.00 Oryx Data Collector v3.7.2.0data status	okinstallation	princeton_trtdifferential loss correction	single-endedforward channel	channel 2reverse channel	N/Adate	2019/09/10time	21:21:10forward acquisition time	60.00reverse acquisition time	0.00gamma	496.2192k internal	0.2330k external	0.2330temperature offset calibration	0.9942default loss term (dB/km)	0.3790temperature slope calibration	1.0000multiplexer offset coefficient	1.0000multiplexer slope coefficient	1.0000fibre end	0.00T internal ref (°C)	31.27T ext. ref 1 (°C)	-0.33T ext. ref 2 (°C)	24.40length (m)	temperature (°C)	Stokes	anti-Stokes-747.200	-43.247	0.128	0.065
-746.185	-37.714	-0.241	0.129
-745.171	255.498	0.112	-0.194
-744.156	-200.000	-0.021	0.474
-743.142	309.384	0.092	-0.173
-742.127	31.218	-0.044	-0.038
-741.112	234.814	0.026	-0.043
-740.098	-109.579	-0.320	0.068
-739.083	-46.849	-0.117	0.058
-738.069	601.911	-0.071	-0.177
-737.054	62.245	0.183	-0.184
-736.039	-19.344	-0.188	-0.117
-735.025	604.904	-0.108	-0.271
-734.010	-109.824	-0.093	-0.020
-732.996	-57.816	-0.210	0.092
-731.981	-200.000	-0.018	-0.341
-730.966	-200.000	-0.091	-0.517
-729.952	-133.818	0.309	-0.039
-728.937	-123.077	0.226	0.037
-727.923	281.398	-0.113	-0.204
-726.908	-98.446	-0.262	0.068
-725.894	477.046	-0.054	0.122
-724.879	32.007	-0.027	-0.023
-723.864	-106.761	-0.231	0.052
-722.850	220.545	-0.094	0.152
-721.835	-72.628	-0.388	-0.144
-720.821	-20.897	0.104	-0.064
-719.806	-90.024	-0.209	-0.061
-718.791	85.423	-0.072	-0.080
-717.777	800.000	-0.031	-0.099
-716.762	-93.470	0.163	0.045
-715.748	-104.791	0.082	0.019
-714.733	76.401	-0.057	0.061
-713.718	312.011	-0.191	0.361
-712.704	741.136	0.072	-0.194
-711.689	-200.000	0.018	-0.203
-710.675	-22.993	0.228	-0.138
-709.660	-66.895	0.381	-0.152
-708.645	-69.368	0.126	0.049
-707.631	-110.437	-0.188	-0.039
-706.616	-200.000	-0.077	-0.383
-705.602	800.000	0.051	-0.159
-704.587	-147.706	0.125	-0.011
-703.572	334.362	0.166	-0.322
-702.558	-93.616	0.307	-0.085
-701.543	-13.887	-0.066	-0.043
-700.529	-200.000	0.033	-0.166
-699.514	-61.155	-0.254	0.108
-698.499	256.721	0.149	-0.256
-697.485	37.823	-0.295	-0.264
-696.470	42.931	-0.051	0.047
-695.456	-15.253	0.199	0.128
-694.441	215.643	0.103	-0.164
-693.426	123.223	-0.105	-0.132
-692.412	800.000	0.049	-0.195
-691.397	55.077	-0.127	-0.124
-690.383	15.638	-0.329	0.260
-689.368	-120.576	0.286	0.049
-688.354	-200.000	-0.036	0.277
-687.339	-132.220	-0.168	-0.022
-686.324	33.156	-0.247	0.215
-685.310	-18.043	0.044	0.028
-684.295	-33.277	-0.427	0.238
-683.281	-51.204	0.288	0.136
-682.266	-88.713	-0.232	-0.069
-681.251	553.061	-0.061	-0.146
-680.237	-200.000	-0.036	-0.193
-679.222	753.680	0.153	-0.414
-678.208	64.381	0.102	0.103
-677.193	180.618	-0.185	-0.273
-676.178	137.614	-0.092	0.122
-675.164	-83.192	-0.431	0.139
-674.149	800.000	-0.041	0.121
-673.135	800.000	-0.009	0.025
-672.120	1.066	-0.124	0.090
-671.105	-200.000	0.011	-0.259
-670.091	800.000	-0.024	0.067
-669.076	-153.117	-0.084	0.006
-668.062	157.437	0.133	0.185
-667.047	99.436	0.154	0.179
-666.032	151.865	0.120	0.164
-665.018	-132.523	-0.223	0.029
-664.003	-200.000	0.025	-0.156
-662.989	616.410	0.087	0.220
-661.974	800.000	-0.068	0.230
-660.959	631.699	-0.112	0.284
-659.945	412.657	-0.045	-0.096
-658.930	-97.745	-0.218	0.057
-657.916	17.749	-0.273	-0.218
-656.901	-8.131	-0.134	0.090
-655.886	-200.000	0.019	-0.147
-654.872	800.000	-0.046	0.181
-653.857	-81.986	0.253	0.083
-652.843	411.015	0.077	-0.165
-651.828	203.084	-0.066	0.102
-650.814	-50.707	0.203	-0.096
-649.799	173.293	0.056	0.081
-648.784	-126.864	-0.238	0.035
-647.770	44.502	-0.119	0.110
-646.755	499.499	0.019	0.044
-645.741	800.000	0.036	0.121
-644.726	-76.611	-0.469	0.165
-643.711	134.399	0.198	-0.257
-642.697	298.678	-0.222	0.409
-641.682	-125.427	-0.147	-0.022
-640.668	-200.000	0.021	0.255
-639.653	88.894	0.221	0.247
-638.638	14.255	-0.270	-0.211
-637.624	96.896	-0.117	0.135
-636.609	69.622	-0.198	-0.204
-635.595	117.289	-0.062	-0.076
-634.580	-200.000	-0.075	-0.361
-633.565	-171.071	0.151	0.005
-632.551	-11.935	-0.257	-0.169
-631.536	-200.000	0.067	0.300
-630.522	-15.404	0.338	-0.216
-629.507	800.000	-0.072	0.283
-628.492	-200.000	-0.016	0.097
-627.478	0.065	-0.224	0.160
-626.463	-200.000	-0.062	0.321
-625.449	-200.000	0.020	0.246
-624.434	100.344	-0.075	-0.088
-623.419	-124.768	-0.267	-0.041
-622.405	-200.000	0.050	-0.273
-621.390	-113.941	0.211	-0.041
-620.376	-42.107	0.204	0.105
-619.361	537.425	-0.089	-0.212
-618.346	15.122	-0.307	-0.241
-617.332	-53.153	-0.199	0.092
-616.317	-200.000	-0.003	0.109
-615.303	164.801	-0.157	0.223
-614.288	61.247	-0.070	0.070
-613.273	-64.429	-0.148	0.060
-612.259	28.085	0.414	-0.350
-611.244	21.510	0.083	-0.067
-610.230	81.236	-0.056	-0.061
-609.215	100.755	-0.039	-0.045
-608.201	-99.756	-0.227	0.057
-607.186	-118.530	0.144	0.025
-606.171	495.884	-0.133	0.307
-605.157	682.421	-0.181	-0.473
-604.142	800.000	-0.030	-0.092
-603.128	-200.000	-0.016	-0.123
-602.113	28.226	0.041	0.035
-601.098	-142.125	-0.220	0.022
-600.084	-117.008	0.199	0.036
-599.069	-200.000	0.045	-0.282
-598.055	264.233	0.123	0.215
-597.040	2.876	-0.114	0.083
-596.025	37.958	0.232	-0.206
-595.011	-177.082	-0.233	-0.006
-593.996	97.584	-0.174	-0.200
-592.982	128.335	-0.191	-0.244
-591.967	-164.757	0.273	-0.012
-590.952	800.000	0.136	0.582
-589.938	-73.723	0.148	0.054
-588.923	80.908	0.197	0.213
-587.909	-200.000	-0.039	-0.597
-586.894	354.404	-0.086	-0.171
-585.879	-5.606	0.128	0.088
-584.865	-66.137	0.283	0.113
-583.850	800.000	-0.078	0.237
-582.836	-60.098	-0.509	-0.217
-581.821	-200.000	0.205	0.001
-580.806	800.000	-0.076	-0.221
-579.792	-28.268	-0.269	0.156
-578.777	-180.189	-0.068	0.001
-577.763	587.296	0.081	0.200
-576.748	142.110	-0.091	-0.120
-575.733	-200.000	0.006	-0.168
-574.719	-85.337	0.148	-0.046
-573.704	25.424	-0.077	0.064
-572.690	300.236	0.056	0.103
-571.675	-200.000	0.010	0.127
-570.661	800.000	0.021	-0.063
-569.646	-68.369	0.163	-0.063
-568.631	307.178	0.232	0.432
-567.617	800.000	0.065	-0.205
-566.602	-73.503	-0.164	0.060
-565.588	418.734	-0.191	-0.409
-564.573	8.788	-0.040	-0.030
-563.558	-12.110	-0.127	-0.083
-562.544	102.227	-0.087	-0.102
-561.529	800.000	-0.042	0.127
-560.515	290.726	-0.055	0.100
-559.500	-111.736	0.327	0.066
-558.485	-67.178	0.302	-0.119
-557.471	800.000	-0.037	-0.108
-556.456	-85.611	0.436	0.135
-555.442	18.342	-0.319	-0.255
-554.427	-200.000	0.032	-0.154
-553.412	45.565	0.235	-0.217
-552.398	82.811	0.053	-0.057
-551.383	105.920	0.117	-0.138
-550.369	800.000	-0.055	0.199
-549.354	-32.979	-0.276	0.153
-548.339	211.735	-0.119	0.187
-547.325	-24.728	0.141	-0.084
-546.310	75.067	-0.148	-0.156
-545.296	-59.789	0.195	-0.083
-544.281	117.019	0.054	0.067
-543.266	-13.044	-0.211	0.137
-542.252	-113.711	-0.411	0.080
-541.237	-200.000	-0.065	-0.462
-540.223	28.756	-0.267	0.226
-539.208	-57.855	0.113	0.049
-538.193	-200.000	0.012	-0.323
-537.179	644.028	0.047	-0.120
-536.164	147.021	-0.322	-0.433
-535.150	-110.118	0.227	-0.047
-534.135	-200.000	-0.033	-0.319
-533.121	772.716	-0.054	-0.146
-532.106	-137.386	0.564	-0.064
-531.091	-132.392	-0.207	-0.027
-530.077	-200.000	0.204	0.000
-529.062	-50.148	0.156	0.074
-528.048	-51.554	0.094	-0.044
-527.033	102.633	0.050	-0.059
-526.018	-23.480	-0.038	-0.023
-525.004	-11.319	-0.316	-0.208
-523.989	-44.185	0.152	0.076
-522.975	64.627	-0.240	0.241
-521.960	125.708	-0.067	-0.085
-520.945	-200.000	0.013	-0.198
-519.931	-86.273	-0.172	0.053
-518.916	-55.710	0.344	-0.154
-517.902	-96.417	0.408	0.108
-516.887	136.822	0.150	0.195
-515.872	-95.789	-0.358	0.095
-514.858	162.174	0.189	0.264
-513.843	-39.375	0.094	0.049
-512.829	-120.050	-0.362	0.062
-511.814	-49.954	0.449	0.212
-510.799	-62.530	0.335	0.139
-509.785	48.981	-0.324	0.303
-508.770	-52.744	-0.155	0.071
-507.756	-200.000	-0.045	-0.257
-506.741	38.385	-0.130	0.115
-505.726	208.071	0.065	0.101
-504.712	568.375	0.092	-0.223
-503.697	-200.000	-0.010	0.177
-502.683	-82.292	-0.340	-0.110
-501.668	-167.353	0.228	0.009
-500.653	84.266	-0.202	0.220
-499.639	64.126	0.251	0.252
-498.624	252.978	0.024	0.041
-497.610	20.462	-0.108	-0.087
-496.595	-96.367	0.087	0.023
-495.581	-26.856	0.146	-0.085
-494.566	800.000	0.100	-0.340
-493.551	214.745	-0.031	-0.049
-492.537	-200.000	0.024	0.226
-491.522	-42.565	-0.049	-0.025
-490.508	68.004	0.192	-0.196
-489.493	-53.344	-0.333	0.152
-488.478	360.937	0.044	-0.089
-487.464	61.915	0.336	0.334
-486.449	-82.163	-0.278	-0.090
-485.435	-2.180	0.094	0.066
-484.420	-200.000	0.058	0.368
-483.405	-163.863	0.198	-0.009
-482.391	-38.091	-0.417	0.220
-481.376	-88.386	0.190	0.056
-480.362	38.442	0.045	-0.040
-479.347	-126.435	-0.107	-0.016
-478.332	-200.000	-0.039	0.204
-477.318	20.303	-0.233	0.188
-476.303	-200.000	0.014	-0.273
-475.289	42.858	-0.187	-0.170
-474.274	-18.878	-0.144	0.089
-473.259	170.300	0.085	-0.122
-472.245	18.198	0.268	-0.213
-471.230	-81.842	0.067	0.022
-470.216	-102.206	0.054	0.013
-469.201	293.442	-0.156	-0.284
-468.186	87.085	-0.091	-0.100
-467.172	-54.209	0.184	-0.083
-466.157	212.750	-0.138	-0.217
-465.143	-200.000	-0.033	-0.197
-464.128	28.316	0.221	-0.186
-463.113	-102.897	-0.128	-0.030
-462.099	479.649	0.040	0.091
-461.084	16.541	0.111	0.088
-460.070	800.000	0.075	0.327
-459.055	-63.798	0.234	-0.095
-458.040	-200.000	0.015	-0.133
-457.026	-176.150	-0.279	-0.007
-456.011	9.566	0.505	0.381
-454.997	800.000	0.039	-0.134
-453.982	800.000	-0.008	-0.022
-452.968	-200.000	0.009	0.180
-451.953	-6.854	-0.287	0.194
-450.938	106.266	0.082	-0.097
-449.924	160.914	-0.122	0.170
-448.909	237.910	0.063	-0.105
-447.895	89.566	0.085	-0.094
-446.880	-200.000	0.029	-0.325
-445.865	800.000	-0.061	-0.200
-444.851	270.542	0.060	-0.105
-443.836	-200.000	0.013	0.174
-442.822	-125.061	-0.314	0.048
-441.807	-200.000	0.042	-0.209
-440.792	-43.191	-0.282	0.142
-439.778	-200.000	0.002	-0.246
-438.763	18.916	-0.178	0.142
-437.749	-137.520	0.281	-0.032
-436.734	-200.000	0.025	0.182
-435.719	-8.452	-0.178	0.119
-434.705	800.000	-0.043	0.174
-433.690	-200.000	-0.017	-0.102
-432.676	-142.943	0.056	-0.005
-431.661	38.977	0.048	0.043
-430.646	180.709	0.151	-0.220
-429.632	800.000	-0.059	-0.196
-428.617	-25.108	-0.216	-0.128
-427.603	86.950	-0.227	0.249
-426.588	-200.000	-0.024	-0.256
-425.573	-147.822	0.251	0.021
-424.559	91.753	0.232	-0.260
-423.544	-15.179	0.182	-0.116
-422.530	-200.000	-0.013	-0.230
-421.515	-27.209	-0.146	-0.085
-420.500	-193.815	0.225	0.002
-419.486	720.872	0.097	-0.256
-418.471	-10.708	0.192	0.126
-417.457	560.480	-0.147	0.354
-416.442	-61.787	0.142	-0.059
-415.428	465.604	0.078	0.173
-414.413	-147.186	0.261	-0.022
-413.398	441.287	0.110	0.240
-412.384	39.464	-0.155	0.138
-411.369	-200.000	-0.052	0.367
-410.355	-59.087	-0.230	0.099
-409.340	-88.041	-0.642	-0.191
-408.325	-200.000	0.043	0.280
-407.311	149.790	0.035	0.048
-406.296	800.000	0.067	0.215
-405.282	71.570	0.203	0.209
-404.267	10.548	0.152	0.115
-403.252	132.459	0.099	-0.127
-402.238	-65.932	0.231	0.092
-401.223	800.000	-0.083	-0.246
-400.209	-90.029	-0.021	0.006
-399.194	-40.171	-0.163	-0.084
-398.179	142.310	-0.182	-0.240
-397.165	-10.169	-0.083	-0.055
-396.150	-2.251	-0.137	-0.096
-395.136	22.342	-0.031	0.025
-394.121	26.259	0.139	-0.115
-393.106	80.649	-0.128	-0.137
-392.092	215.366	-0.144	-0.227
-391.077	29.993	-0.166	0.140
-390.063	183.403	-0.187	-0.275
-389.048	-64.821	-0.007	-0.003
-388.033	-53.299	-0.088	-0.040
-387.019	122.753	-0.169	0.210
-386.004	-124.169	0.075	0.012
-384.990	-200.000	0.001	-0.049
-383.975	-187.359	0.059	-0.001
-382.960	-200.000	-0.036	0.180
-381.946	-57.018	0.289	0.127
-380.931	-147.097	-0.161	-0.014
-379.917	-83.069	-0.118	-0.038
-378.902	-140.665	0.318	-0.033
-377.888	800.000	-0.048	0.176
-376.873	12.469	-0.169	-0.129
-375.858	64.060	0.218	-0.218
-374.844	800.000	0.070	-0.295
-373.829	-110.527	-0.085	-0.017
-372.815	-75.715	0.365	0.129
-371.800	800.000	-0.085	0.283
-370.785	94.107	0.083	-0.093
-369.771	-141.589	0.420	-0.042
-368.756	-85.060	0.173	-0.054
-367.742	-56.173	0.096	-0.043
-366.727	-200.000	0.001	-0.120
-365.712	708.130	-0.146	0.383
-364.698	-111.531	0.450	0.091
-363.683	-68.367	0.129	-0.050
-362.669	-12.918	-0.103	0.066
-361.654	-200.000	-0.007	0.203
-360.639	800.000	-0.087	0.300
-359.625	800.000	0.017	-0.064
-358.610	476.252	0.066	0.147
-357.596	-40.554	0.276	0.142
-356.581	-73.969	0.234	-0.084
-355.566	-120.974	0.364	-0.061
-354.552	-3.625	0.252	0.173
-353.537	-13.101	-0.029	0.018
-352.523	-3.546	-0.132	0.091
-351.508	800.000	-0.071	0.197
-350.493	-172.656	-0.219	-0.007
-349.479	-200.000	-0.010	0.217
-348.464	-92.689	-0.397	0.110
-347.450	-173.362	0.263	-0.008
-346.435	-113.700	-0.270	-0.052
-345.420	-23.219	0.121	-0.072
-344.406	289.972	0.083	0.149
-343.391	-81.719	0.263	0.086
-342.377	184.428	0.111	0.163
-341.362	-141.046	0.114	-0.012
-340.348	503.949	-0.012	0.028
-339.333	46.347	-0.189	-0.173
-338.318	-62.394	0.112	-0.046
-337.304	-59.237	0.340	0.145
-336.289	800.000	-0.018	-0.067
-335.275	180.271	-0.041	-0.059
-334.260	27.525	0.227	0.190
-333.245	302.910	-0.112	0.206
-332.231	800.000	0.041	0.132
-331.216	51.930	-0.168	-0.159
-330.202	800.000	0.043	-0.134
-329.187	108.364	0.119	-0.141
-328.172	179.915	-0.080	-0.116
-327.158	800.000	-0.030	-0.109
-326.143	-93.729	-0.415	-0.113
-325.129	293.431	0.123	0.223
-324.114	-94.408	0.193	-0.052
-323.099	4.525	0.314	-0.228
-322.085	-104.739	-0.129	-0.029
-321.070	89.088	-0.170	-0.187
-320.056	-119.347	0.069	-0.012
-319.041	800.000	0.127	-0.364
-318.026	108.957	0.204	0.241
-317.012	-85.186	-0.496	-0.154
-315.997	-200.000	0.065	-0.335
-314.983	26.243	0.187	-0.155
-313.968	190.069	-0.195	-0.291
-312.953	-107.178	0.293	0.064
-311.939	154.241	0.156	0.212
-310.924	-20.662	0.185	-0.112
-309.910	66.612	-0.023	-0.023
-308.895	497.548	0.039	-0.089
-307.880	-43.383	-0.311	0.156
-306.866	75.728	-0.258	-0.269
-305.851	-171.807	-0.042	-0.001
-304.837	800.000	0.114	-0.428
-303.822	-200.000	0.001	0.276
-302.807	612.371	-0.127	0.315
-301.793	-141.703	0.190	-0.019
-300.778	178.697	0.205	0.297
-299.764	800.000	0.048	0.151
-298.749	-98.717	0.081	-0.021
-297.735	-200.000	-0.019	-0.238
-296.720	221.691	0.171	-0.272
-295.705	800.000	0.029	-0.106
-294.691	-74.532	-0.241	-0.086
-293.676	37.977	-0.170	-0.150
-292.662	-200.000	0.007	0.178
-291.647	-188.795	-0.100	-0.001
-290.632	179.176	-0.341	0.493
-289.618	193.439	0.055	-0.083
-288.603	61.519	-0.275	0.271
-287.589	-20.144	0.133	-0.081
-286.574	-31.768	0.425	0.236
-285.559	3.698	0.348	0.251
-284.545	438.479	-0.209	-0.451
-283.530	-33.575	0.138	0.075
-282.516	40.845	-0.268	0.239
-281.501	-16.165	-0.445	0.279
-280.486	-37.807	-0.313	-0.165
-279.472	-200.000	-0.023	-0.172
-278.457	-132.781	0.098	-0.012
-277.443	-128.368	-0.276	-0.039
-276.428	-94.158	-0.026	-0.007
-275.413	-200.000	0.007	-0.190
-274.399	-18.020	0.055	-0.034
-273.384	800.000	-0.097	0.278
-272.370	-57.247	0.156	-0.068
-271.355	-180.656	-0.197	0.004
-270.340	62.037	0.133	0.131
-269.326	-200.000	0.003	0.156
-268.311	-127.079	-0.392	-0.057
-267.297	301.095	0.021	0.039
-266.282	800.000	-0.077	-0.290
-265.267	-154.765	0.324	0.021
-264.253	33.852	-0.289	0.249
-263.238	635.133	0.050	0.126
-262.224	-5.103	-0.320	0.218
-261.209	-200.000	0.010	0.099
-260.195	800.000	-0.055	0.184
-259.180	-52.834	0.264	0.120
-258.165	-0.817	-0.031	0.022
-257.151	-36.672	-0.146	-0.078
-256.136	357.430	-0.109	-0.214
-255.122	-200.000	0.034	0.177
-254.107	-200.000	0.021	0.093
-253.092	289.768	-0.144	-0.259
-252.078	-74.601	0.170	-0.060
-251.063	5.842	0.043	-0.032
-250.049	750.288	-0.069	-0.185
-249.034	-95.801	-0.098	-0.026
-248.019	27.643	-0.138	-0.115
-247.005	-200.000	0.028	-0.209
-245.990	783.423	-0.044	-0.120
-244.976	800.000	-0.051	0.163
-243.961	-106.822	0.124	0.027
-242.946	-59.199	-0.374	-0.159
-241.932	109.401	-0.225	-0.266
-240.917	50.916	0.231	0.216
-239.903	687.098	-0.096	0.248
-238.888	244.010	0.173	0.286
-237.873	-130.722	0.165	0.022
-236.859	-143.311	0.337	-0.032
-235.844	390.234	-0.055	-0.112
-234.830	104.129	-0.228	0.265
-233.815	-65.397	-0.289	-0.115
-232.800	292.839	0.150	0.269
-231.786	269.374	-0.125	0.216
-230.771	178.256	-0.050	-0.072
-229.757	9.152	-0.047	0.035
-228.742	-77.341	-0.064	0.022
-227.727	111.525	0.242	-0.288
-226.713	150.098	0.123	-0.165
-225.698	800.000	0.097	0.276
-224.684	119.829	0.127	-0.155
-223.669	800.000	-0.064	0.205
-222.655	-200.000	-0.002	-0.199
-221.640	-109.553	0.596	-0.124
-220.625	-20.922	-0.209	-0.126
-219.611	-200.000	-0.039	-0.203
-218.596	128.922	0.152	-0.192
-217.582	77.378	-0.283	0.297
-216.567	-80.171	0.126	-0.042
-215.552	-7.787	0.212	-0.141
-214.538	2.412	0.124	0.089
-213.523	-78.026	0.233	-0.079
-212.509	800.000	-0.042	0.133
-211.494	-101.490	-0.392	0.094
-210.479	800.000	0.153	-0.554
-209.465	-176.481	-0.118	-0.003
-208.450	800.000	0.027	0.078
-207.436	257.468	-0.041	0.069
-206.421	-61.914	-0.336	-0.139
-205.406	-126.334	-0.069	-0.010
-204.392	321.639	-0.076	-0.143
-203.377	39.688	0.096	0.085
-202.363	-59.250	0.109	0.046
-201.348	800.000	-0.054	-0.166
-200.333	-5.803	0.264	0.178
-199.319	460.234	0.150	0.330
-198.304	134.508	-0.026	-0.033
-197.290	-200.000	-0.021	-0.306
-196.275	7.238	0.296	0.218
-195.260	119.785	-0.189	0.231
-194.246	57.125	-0.080	-0.077
-193.231	78.587	0.122	0.129
-192.217	-200.000	0.063	0.335
-191.202	-39.104	-0.388	-0.201
-190.187	-89.971	0.128	0.037
-189.173	-177.821	0.242	0.006
-188.158	800.000	0.060	-0.163
-187.144	800.000	-0.031	-0.116
-186.129	-200.000	-0.068	0.299
-185.114	101.543	-0.291	0.335
-184.100	-185.774	-0.021	-0.000
-183.085	-107.788	-0.314	0.067
-182.071	-105.989	0.144	-0.032
-181.056	-200.000	-0.015	0.114
-180.042	345.313	-0.248	-0.479
-179.027	279.864	0.128	0.225
-178.012	-75.148	-0.046	-0.016
-176.998	-2.611	0.076	0.052
-175.983	-96.461	-0.194	0.051
-174.969	-34.903	-0.245	-0.132
-173.954	-200.000	-0.043	0.351
-172.939	-200.000	0.045	0.396
-171.925	112.294	-0.044	-0.053
-170.910	-166.635	0.452	0.018
-169.896	53.915	0.118	-0.112
-168.881	-200.000	-0.018	-0.319
-167.866	192.358	0.086	-0.128
-166.852	-200.000	0.020	0.085
-165.837	-200.000	0.032	0.197
-164.823	376.761	0.060	-0.121
-163.808	162.128	0.340	0.468
-162.793	-55.336	-0.165	-0.073
-161.779	17.170	0.218	-0.170
-160.764	-200.000	0.001	-0.382
-159.750	507.860	-0.068	0.155
-158.735	-50.115	0.181	-0.085
-157.720	-84.592	0.173	-0.054
-156.706	-200.000	-0.023	0.158
-155.691	800.000	-0.048	-0.163
-154.677	-27.410	-0.103	-0.059
-153.662	-200.000	-0.006	-0.062
-152.647	145.360	0.229	-0.302
-151.633	54.307	-0.200	0.190
-150.618	9.341	-0.289	-0.215
-149.604	-62.985	0.304	0.124
-148.589	288.503	0.076	-0.135
-147.574	-15.912	-0.067	-0.042
-146.560	7.025	0.052	-0.038
-145.545	-23.466	0.027	0.016
-144.531	-122.616	-0.268	0.043
-143.516	-200.000	0.256	0.000
-142.502	-200.000	0.021	0.401
-141.487	800.000	-0.047	0.164
-140.472	177.700	-0.141	-0.202
-139.458	-200.000	0.023	0.159
-138.443	-27.209	-0.332	0.190
-137.429	696.349	-0.143	-0.368
-136.414	-200.000	-0.051	-0.224
-135.399	-200.000	-0.018	0.134
-134.385	118.380	0.172	0.209
-133.370	95.851	0.086	-0.097
-132.356	237.139	-0.113	0.184
-131.341	-200.000	-0.051	0.301
-130.326	59.638	-0.185	0.179
-129.312	-82.054	-0.186	0.060
-128.297	89.903	-0.028	0.030
-127.283	-168.031	-0.286	-0.011
-126.268	126.275	0.166	0.206
-125.253	800.000	0.073	0.310
-124.239	-82.448	0.275	-0.088
-123.224	-200.000	0.019	0.100
-122.210	-143.994	0.091	0.008
-121.195	-156.493	0.279	-0.017
