DTS Sentinel unit serial number:	SN413079Multiplexer serial number:	ORYXHardware model number:	OX4-SRSoftware version number:	ORYX F/W v4.00 Oryx Data Collector v3.7.2.0data status	okinstallation	princeton_trtdifferential loss correction	single-endedforward channel	channel 2reverse channel	N/Adate	2019/09/14time	00:03:34forward acquisition time	60.00reverse acquisition time	0.00gamma	496.2192k internal	0.2338k external	0.2338temperature offset calibration	1.0130default loss term (dB/km)	0.3790temperature slope calibration	1.0000multiplexer offset coefficient	1.0000multiplexer slope coefficient	1.0000fibre end	0.00T internal ref (°C)	26.50T ext. ref 1 (°C)	3.15T ext. ref 2 (°C)	21.38length (m)	temperature (°C)	Stokes	anti-Stokes-747.200	-55.174	0.156	-0.070
-746.185	-115.319	-0.167	0.032
-745.171	800.000	0.021	-0.072
-744.156	12.197	-0.101	-0.078
-743.142	123.995	0.197	-0.248
-742.127	25.452	-0.143	0.119
-741.112	28.617	0.211	-0.180
-740.098	136.073	-0.121	0.158
-739.083	-26.088	-0.078	0.046
-738.069	-80.315	0.325	-0.109
-737.054	-90.248	-0.194	0.057
-736.039	76.805	-0.148	-0.158
-735.025	71.655	0.305	0.318
-734.010	-61.247	-0.256	0.108
-732.996	469.517	-0.238	-0.536
-731.981	800.000	-0.042	0.152
-730.966	738.329	-0.069	-0.186
-729.952	478.982	-0.138	-0.314
-728.937	194.345	0.134	-0.204
-727.923	548.734	0.079	-0.190
-726.908	-14.695	-0.314	-0.202
-725.894	100.477	0.078	0.091
-724.879	-9.666	-0.209	-0.140
-723.864	133.548	0.144	-0.187
-722.850	800.000	-0.055	-0.188
-721.835	45.277	-0.355	-0.329
-720.821	-200.000	-0.028	-0.292
-719.806	800.000	0.144	-0.426
-718.791	15.959	-0.189	0.150
-717.777	12.295	-0.074	-0.057
-716.762	48.812	-0.174	0.164
-715.748	-42.042	-0.339	-0.174
-714.733	3.288	-0.275	-0.201
-713.718	56.032	0.137	-0.133
-712.704	-200.000	0.042	-0.318
-711.689	-200.000	-0.041	-0.245
-710.675	-147.778	0.212	0.018
-709.660	800.000	0.003	-0.013
-708.645	-200.000	-0.071	-0.511
-707.631	93.508	-0.119	0.135
-706.616	-200.000	0.007	-0.099
-705.602	-200.000	-0.059	-0.285
-704.587	-128.223	0.013	-0.002
-703.572	31.665	0.189	0.163
-702.558	160.821	0.027	-0.038
-701.543	800.000	-0.099	0.285
-700.529	229.817	0.085	0.140
-699.514	27.964	-0.179	0.152
-698.499	800.000	-0.048	0.166
-697.485	-60.380	-0.069	-0.030
-696.470	-134.753	-0.184	-0.022
-695.456	-74.873	0.234	0.084
-694.441	-94.532	0.072	0.020
-693.426	-127.601	-0.142	-0.021
-692.412	102.787	-0.091	0.107
-691.397	-83.851	0.180	0.058
-690.383	-136.099	0.047	-0.005
-689.368	-108.953	-0.157	0.033
-688.354	-23.788	0.230	-0.138
-687.339	335.044	0.072	0.140
-686.324	-200.000	0.013	0.126
-685.310	203.766	-0.122	-0.188
-684.295	661.037	-0.090	-0.232
-683.281	-97.769	0.130	0.034
-682.266	-198.625	-0.181	-0.001
-681.251	-44.646	0.361	0.180
-680.237	-76.117	-0.156	0.055
-679.222	-175.181	-0.529	0.015
-678.208	800.000	0.098	-0.274
-677.193	276.280	-0.205	-0.365
-676.178	-73.037	-0.204	0.075
-675.164	115.412	0.133	0.162
-674.149	-200.000	-0.028	0.145
-673.135	535.714	-0.018	0.044
-672.120	-200.000	-0.036	0.261
-671.105	800.000	-0.078	-0.220
-670.091	-200.000	0.015	0.082
-669.076	-50.363	-0.225	0.107
-668.062	29.499	-0.152	-0.129
-667.047	-200.000	0.020	-0.237
-666.032	-21.925	-0.257	0.156
-665.018	47.285	-0.169	0.157
-664.003	800.000	-0.062	0.205
-662.989	-200.000	0.006	0.222
-661.974	104.115	-0.132	0.155
-660.959	-200.000	-0.021	0.157
-659.945	-200.000	-0.002	0.102
-658.930	124.285	0.154	-0.193
-657.916	6.324	-0.113	0.084
-656.901	-12.093	-0.153	-0.100
-655.886	27.165	-0.277	-0.233
-654.872	7.786	0.095	0.071
-653.857	800.000	0.063	-0.175
-652.843	-104.721	0.392	0.090
-651.828	800.000	-0.031	0.123
-650.814	-136.457	0.629	0.073
-649.799	-6.097	0.046	-0.032
-648.784	-121.638	-0.344	-0.057
-647.770	-200.000	-0.001	-0.068
-646.755	-97.448	0.306	-0.080
-645.741	-100.644	0.233	0.058
-644.726	45.923	-0.162	-0.150
-643.711	-123.767	0.169	-0.027
-642.697	-200.000	0.059	0.271
-641.682	43.330	0.114	-0.105
-640.668	-200.000	0.021	0.144
-639.653	-98.570	0.024	0.006
-638.638	-108.791	-0.188	0.040
-637.624	-120.901	0.322	-0.054
-636.609	224.946	0.358	0.580
-635.595	-200.000	0.031	0.206
-634.580	-98.340	0.251	0.064
-633.565	-200.000	-0.044	0.460
-632.551	-95.398	0.236	-0.063
-631.536	-200.000	0.031	-0.256
-630.522	-38.805	-0.047	0.025
-629.507	-26.546	0.262	-0.154
-628.492	-37.365	0.113	0.060
-627.478	-37.158	-0.346	0.185
-626.463	154.244	-0.078	0.107
-625.449	267.976	-0.023	-0.040
-624.434	-21.915	-0.178	-0.108
-623.419	-84.138	-0.285	0.090
-622.405	-28.166	-0.018	0.010
-621.390	310.450	-0.151	0.283
-620.376	110.152	0.074	-0.089
-619.361	-14.818	-0.372	-0.238
-618.346	-200.000	-0.025	-0.185
-617.332	-169.535	-0.310	0.011
-616.317	800.000	-0.055	-0.202
-615.303	-3.197	0.106	0.074
-614.288	-114.318	-0.085	0.016
-613.273	83.936	0.146	-0.160
-612.259	200.922	0.077	0.118
-611.244	261.127	-0.124	-0.214
-610.230	191.481	0.158	0.237
-609.215	81.269	0.110	0.118
-608.201	-102.455	-0.163	0.039
-607.186	197.646	0.227	-0.346
-606.171	-200.000	0.018	0.103
-605.157	800.000	-0.085	0.248
-604.142	-24.078	0.184	-0.110
-603.128	-200.000	-0.001	0.441
-602.113	-118.254	-0.201	0.036
-601.098	800.000	0.055	-0.224
-600.084	800.000	0.079	-0.231
-599.069	800.000	-0.054	0.168
-598.055	404.366	-0.077	0.161
-597.040	-200.000	0.007	0.134
-596.025	-84.184	0.407	-0.129
-595.011	201.491	0.117	0.180
-593.996	-200.000	0.078	-0.342
-592.982	254.400	0.049	-0.084
-591.967	-53.281	0.105	0.048
-590.952	-200.000	0.017	0.116
-589.938	7.749	0.104	0.077
-588.923	-55.582	-0.066	-0.029
-587.909	-12.755	-0.097	0.063
-586.894	-160.777	0.202	-0.011
-585.879	143.438	0.219	-0.291
-584.865	-114.162	-0.108	0.021
-583.850	-108.485	0.226	0.048
-582.836	-100.554	-0.048	0.012
-581.821	-65.336	0.215	0.086
-580.806	-43.749	0.056	-0.028
-579.792	-200.000	0.070	-0.411
-578.777	-64.543	-0.253	-0.103
-577.763	-48.269	-0.264	-0.127
-576.748	800.000	0.112	-0.351
-575.733	464.133	0.108	0.241
-574.719	-68.479	-0.157	-0.061
-573.704	-16.262	-0.175	-0.111
-572.690	-72.481	0.225	-0.083
-571.675	-200.000	-0.004	-0.053
-570.661	-28.530	0.090	0.052
-569.646	-170.708	-0.406	-0.014
-568.631	-134.960	-0.141	-0.017
-567.617	-66.281	-0.337	-0.134
-566.602	68.388	-0.013	-0.013
-565.588	-77.707	0.121	0.042
-564.573	20.103	0.250	0.201
-563.558	-200.000	0.038	-0.273
-562.544	-39.816	0.118	-0.061
-561.529	-21.590	-0.180	0.109
-560.515	-200.000	-0.024	-0.142
-559.500	3.599	0.062	-0.045
-558.485	-137.187	-0.006	-0.001
-557.471	92.622	0.236	-0.266
-556.456	-200.000	0.059	0.389
-555.442	-60.324	-0.330	-0.140
-554.427	-79.018	-0.272	-0.092
-553.412	284.466	0.067	0.121
-552.398	-0.492	-0.184	-0.130
-551.383	-142.601	-0.222	0.022
-550.369	-141.327	0.496	0.050
-549.354	800.000	0.037	0.144
-548.339	42.329	-0.216	0.195
-547.325	-200.000	0.034	0.306
-546.310	118.937	-0.089	0.110
-545.296	-200.000	-0.061	-0.456
-544.281	632.006	0.124	0.312
-543.266	75.831	-0.266	0.280
-542.252	-26.824	-0.081	-0.047
-541.237	-48.965	0.289	-0.138
-540.223	-21.101	0.197	0.120
-539.208	233.429	-0.092	0.150
-538.193	-200.000	-0.044	0.240
-537.179	75.083	-0.194	0.204
-536.164	800.000	0.023	-0.079
-535.150	3.374	0.198	-0.144
-534.135	189.014	-0.086	-0.129
-533.121	-200.000	0.041	-0.177
-532.106	3.794	0.212	-0.154
-531.091	-49.100	-0.258	-0.123
-530.077	597.014	-0.103	-0.254
-529.062	279.899	-0.031	0.055
-528.048	65.771	-0.139	-0.140
-527.033	116.379	0.030	-0.036
-526.018	-12.580	-0.308	0.200
-525.004	26.410	0.277	-0.230
-523.989	-89.610	-0.199	-0.058
-522.975	-144.448	-0.232	-0.021
-521.960	-79.982	-0.121	-0.040
-520.945	800.000	-0.092	-0.385
-519.931	562.459	0.131	0.314
-518.916	-33.773	-0.260	-0.143
-517.902	113.172	0.215	-0.259
-516.887	82.320	0.037	-0.040
-515.872	-183.730	0.097	0.002
-514.858	21.936	-0.266	0.215
-513.843	-200.000	-0.014	0.432
-512.829	20.310	0.121	-0.097
-511.814	63.126	-0.162	-0.161
-510.799	444.707	0.123	-0.268
-509.785	-95.652	-0.284	0.076
-508.770	163.893	0.357	0.500
-507.756	800.000	0.060	0.197
-506.741	-200.000	0.071	0.333
-505.726	-200.000	-0.017	0.091
-504.712	-54.165	-0.237	0.107
-503.697	-102.924	-0.065	-0.015
-502.683	-143.494	0.272	0.026
-501.668	374.308	0.098	-0.198
-500.653	46.662	0.121	0.111
-499.639	178.130	0.169	-0.245
-498.624	16.818	-0.215	0.169
-497.610	800.000	0.020	0.065
-496.595	-189.808	-0.515	-0.006
-495.581	-120.416	-0.076	-0.013
-494.566	-186.274	0.208	-0.003
-493.551	42.421	0.205	-0.185
-492.537	800.000	0.096	-0.388
-491.522	32.338	0.191	0.164
-490.508	122.106	0.087	0.108
-489.493	168.463	0.179	0.254
-488.478	-60.315	-0.016	0.007
-487.464	-200.000	-0.012	-0.196
-486.449	-71.668	0.166	0.062
-485.435	800.000	0.060	-0.186
-484.420	106.529	0.164	-0.193
-483.405	15.399	0.168	-0.131
-482.391	-200.000	0.019	-0.209
-481.376	22.127	0.281	-0.227
-480.362	150.251	0.099	0.134
-479.347	226.189	0.396	0.637
-478.332	48.066	-0.271	0.252
-477.318	-0.195	0.424	-0.300
-476.303	4.539	-0.309	0.225
-475.289	-152.629	-0.261	-0.019
-474.274	-200.000	-0.042	0.207
-473.259	800.000	-0.069	-0.219
-472.245	46.606	0.173	-0.159
-471.230	-26.281	-0.202	0.117
-470.216	123.894	-0.109	-0.136
-469.201	-112.589	-0.282	-0.056
-468.186	299.960	-0.103	-0.188
-467.172	-95.949	-0.318	0.084
-466.157	-175.560	-0.233	-0.006
-465.143	767.491	-0.123	0.332
-464.128	-200.000	0.008	-0.085
-463.113	449.398	-0.124	-0.272
-462.099	-38.187	0.204	-0.107
-461.084	-200.000	-0.002	0.343
-460.070	55.265	0.052	-0.050
-459.055	79.701	0.154	0.164
-458.040	-41.215	-0.081	0.041
-457.026	-36.971	-0.268	0.143
-456.011	66.489	0.082	-0.083
-454.997	-139.032	0.269	0.029
-453.982	78.273	0.105	-0.111
-452.968	135.793	0.126	-0.163
-451.953	610.102	0.051	0.126
-450.938	18.321	-0.241	-0.191
-449.924	-200.000	-0.056	0.246
-448.909	-200.000	0.075	-0.363
-447.895	-92.617	0.179	-0.050
-446.880	165.851	-0.124	0.174
-445.865	363.957	0.030	0.060
-444.851	50.883	-0.211	0.199
-443.836	-82.045	-0.219	-0.071
-442.822	419.476	0.229	-0.487
-441.807	413.876	-0.079	-0.168
-440.792	-21.631	0.079	-0.048
-439.778	-32.015	0.154	0.085
-438.763	-32.464	0.092	-0.051
-437.749	-105.327	-0.329	0.074
-436.734	177.368	0.112	-0.161
-435.719	-200.000	-0.056	-0.384
-434.705	582.528	0.069	-0.167
-433.690	375.567	0.102	0.207
-432.676	13.115	-0.124	0.095
-431.661	-50.322	-0.259	0.121
-430.646	-200.000	0.007	-0.105
-429.632	-30.969	-0.108	-0.060
-428.617	-141.941	-0.248	0.024
-427.603	-200.000	-0.053	0.237
-426.588	-200.000	0.103	0.486
-425.573	800.000	0.025	-0.100
-424.559	-80.386	-0.137	0.045
-423.544	-200.000	-0.132	-0.000
-422.530	-41.483	-0.163	-0.083
-421.515	291.448	-0.050	-0.091
-420.500	-113.284	0.157	0.031
-419.486	-86.001	0.406	0.124
-418.471	332.946	0.195	-0.373
-417.457	148.906	-0.135	-0.181
-416.442	-53.448	-0.387	-0.176
-415.428	12.655	-0.131	-0.100
-414.413	-20.000	0.140	-0.085
-413.398	79.853	0.197	0.210
-412.384	-200.000	-0.033	0.448
-411.369	800.000	0.041	0.142
-410.355	462.390	0.101	-0.224
-409.340	-93.632	-0.278	0.076
-408.325	-191.544	-0.151	0.002
-407.311	-5.166	0.404	-0.275
-406.296	800.000	-0.090	-0.301
-405.282	-104.813	-0.473	-0.108
-404.267	141.381	0.166	0.217
-403.252	-64.983	0.154	-0.061
-402.238	-11.450	-0.229	0.149
-401.223	800.000	0.039	0.118
-400.209	-78.797	-0.244	0.082
-399.194	89.396	0.156	0.172
-398.179	-200.000	-0.017	-0.127
-397.165	800.000	0.057	0.216
-396.150	-200.000	0.042	0.237
-395.136	167.540	0.100	0.141
-394.121	114.740	0.128	-0.154
-393.106	-200.000	0.051	0.234
-392.092	-33.315	0.209	-0.114
-391.077	-200.000	-0.019	0.218
-390.063	-200.000	-0.018	0.272
-389.048	-34.579	0.454	-0.246
-388.033	391.885	0.069	0.141
-387.019	9.504	-0.198	0.148
-386.004	-115.045	0.205	0.039
-384.990	-200.000	-0.041	0.554
-383.975	-59.202	0.295	-0.126
-382.960	-200.000	-0.003	0.113
-381.946	196.610	-0.230	0.347
-380.931	121.448	0.148	-0.183
-379.917	800.000	-0.038	-0.132
-378.902	-27.117	-0.153	0.088
-377.888	-19.502	0.316	0.194
-376.873	800.000	-0.122	-0.357
-375.858	45.442	0.372	-0.340
-374.844	-32.734	0.418	0.230
-373.829	-200.000	-0.042	0.000
-372.815	45.688	-0.284	0.260
-371.800	800.000	0.059	0.199
-370.785	264.284	0.120	0.206
-369.771	800.000	-0.060	0.172
-368.756	-42.860	-0.156	-0.078
-367.742	-118.611	0.109	-0.019
-366.727	276.836	-0.059	0.104
-365.712	-161.928	0.237	-0.012
-364.698	1.358	-0.077	-0.055
-363.683	-91.951	-0.008	0.002
-362.669	-84.528	0.186	0.058
-361.654	418.258	0.034	0.072
-360.639	800.000	0.014	-0.048
-359.625	-72.029	0.146	-0.054
-358.610	800.000	-0.083	-0.237
-357.596	67.227	-0.169	0.171
-356.581	-42.225	-0.481	0.243
-355.566	-76.143	-0.227	0.079
-354.552	120.526	0.107	-0.132
-353.537	68.329	0.104	-0.106
-352.523	-1.222	0.056	-0.039
-351.508	111.561	-0.111	-0.132
-350.493	-200.000	-0.034	0.161
-349.479	430.478	0.050	0.108
-348.464	87.414	-0.004	-0.005
-347.450	800.000	0.016	0.045
-346.435	-158.784	-0.006	-0.000
-345.420	35.916	0.147	0.128
-344.406	-41.745	0.210	0.107
-343.391	205.687	-0.070	-0.108
-342.377	205.952	0.177	-0.272
-341.362	-200.000	0.019	-0.292
-340.348	174.357	0.117	0.167
-339.333	-200.000	-0.049	-0.240
-338.318	-86.019	0.212	-0.065
-337.304	-200.000	0.051	0.219
-336.289	59.953	-0.124	-0.121
-335.275	-81.196	-0.170	-0.055
-334.260	800.000	-0.042	-0.122
-333.245	-194.438	-0.016	-0.000
-332.231	-200.000	-0.017	-0.110
-331.216	-127.826	0.302	-0.043
-330.202	-200.000	0.045	0.203
-329.187	-118.662	-0.572	-0.100
-328.172	800.000	-0.105	-0.347
-327.158	-195.853	0.124	-0.001
-326.143	73.663	-0.186	0.193
-325.129	-67.243	-0.156	0.061
-324.114	285.272	0.017	0.030
-323.099	800.000	0.061	-0.178
-322.085	-192.751	0.029	0.000
-321.070	128.315	-0.292	-0.367
-320.056	-5.730	0.180	-0.122
-319.041	-200.000	0.011	-0.252
-318.026	-80.758	-0.283	-0.093
-317.012	-124.536	0.344	-0.053
-315.997	235.049	0.178	-0.289
-314.983	-200.000	-0.005	0.067
-313.968	-113.158	0.052	0.010
-312.953	-72.042	-0.410	-0.151
-311.939	424.842	-0.064	-0.135
-310.924	800.000	0.159	-0.448
-309.910	-110.985	0.333	0.068
-308.895	-9.376	-0.199	0.131
-307.880	0.977	-0.180	-0.127
-306.866	123.618	0.044	0.054
-305.851	79.019	-0.156	0.165
-304.837	-14.906	-0.152	-0.096
-303.822	-156.952	0.235	0.014
-302.807	800.000	0.039	0.109
-301.793	800.000	-0.121	-0.393
-300.778	-21.148	-0.106	-0.064
-299.764	-200.000	0.022	0.195
-298.749	-112.347	0.134	-0.027
-297.735	-200.000	0.068	0.328
-296.720	141.277	-0.193	-0.252
-295.705	236.383	-0.039	0.063
-294.691	-72.980	0.318	-0.115
-293.676	-80.668	0.318	0.104
-292.662	496.037	0.026	0.058
-291.647	-88.488	-0.158	-0.047
-290.632	800.000	-0.112	-0.411
-289.618	-200.000	0.016	-0.277
-288.603	182.074	0.149	0.216
-287.589	120.341	-0.218	-0.267
-286.574	231.542	-0.135	0.218
-285.559	146.555	0.178	0.236
-284.545	-200.000	0.033	0.250
-283.530	29.121	-0.252	0.211
-282.516	800.000	0.028	0.115
-281.501	-164.670	0.445	0.020
-280.486	-200.000	0.001	-0.337
-279.472	-200.000	0.058	-0.329
-278.457	149.187	0.095	0.127
-277.443	78.183	-0.081	0.085
-276.428	800.000	0.069	0.206
-275.413	-78.928	0.428	-0.144
-274.399	41.217	0.076	-0.068
-273.384	25.196	0.153	-0.125
-272.370	-200.000	-0.005	-0.149
-271.355	156.073	0.115	0.156
-270.340	38.769	-0.225	0.198
-269.326	-61.842	0.203	-0.084
-268.311	-0.919	-0.110	0.077
-267.297	-60.828	-0.180	-0.075
-266.282	-21.387	-0.180	0.108
-265.267	150.604	0.058	0.078
-264.253	326.802	0.109	-0.206
-263.238	800.000	0.059	-0.225
-262.224	-200.000	-0.017	0.146
-261.209	39.905	0.146	-0.129
-260.195	282.195	-0.144	-0.255
-259.180	37.705	-0.162	-0.142
-258.165	800.000	0.112	-0.358
-257.151	242.963	-0.135	-0.223
-256.136	-70.787	-0.226	0.084
-255.122	800.000	-0.060	-0.247
-254.107	-200.000	-0.127	-0.585
-253.092	76.924	-0.169	-0.177
-252.078	-131.082	0.216	-0.028
-251.063	67.340	0.131	-0.132
-250.049	158.616	0.326	0.445
-249.034	-65.152	-0.304	-0.121
-248.019	123.075	-0.012	0.014
-247.005	-118.346	-0.094	0.016
-245.990	800.000	-0.073	0.296
-244.976	800.000	-0.183	0.547
-243.961	-28.587	0.080	0.045
-242.946	343.108	-0.190	0.367
-241.932	192.871	0.140	-0.208
-240.917	-200.000	0.005	0.210
-239.903	-144.089	-0.368	-0.034
-238.888	-65.181	0.148	0.059
-237.873	-89.523	-0.254	0.073
-236.859	16.208	-0.178	-0.138
-235.844	-113.513	-0.226	-0.043
-234.830	-200.000	-0.019	0.281
-233.815	-99.936	0.141	0.035
-232.800	800.000	-0.074	-0.233
-231.786	-64.133	-0.181	0.073
-230.771	59.345	-0.092	-0.089
-229.757	484.846	-0.140	0.314
-228.742	71.404	0.162	-0.166
-227.727	-1.761	0.142	-0.098
-226.713	326.126	0.130	0.245
-225.698	-20.297	0.324	-0.196
-224.684	-200.000	0.015	0.106
-223.669	533.728	-0.069	0.160
-222.655	196.211	-0.027	0.041
-221.640	51.957	-0.128	-0.120
-220.625	-120.932	0.136	-0.022
-219.611	800.000	0.073	0.242
-218.596	-200.000	-0.009	-0.234
-217.582	-95.190	-0.105	-0.028
-216.567	-200.000	0.001	0.319
-215.552	-94.410	-0.145	0.039
-214.538	-200.000	0.074	-0.354
-213.523	165.705	0.078	0.108
-212.509	62.207	-0.144	0.141
-211.494	800.000	0.114	0.350
-210.479	16.543	-0.126	0.098
-209.465	-101.784	0.143	-0.034
-208.450	-102.474	-0.182	-0.043
-207.436	-99.888	0.443	0.109
-206.421	100.507	-0.139	0.159
-205.406	-200.000	0.138	0.000
-204.392	-200.000	0.036	-0.215
-203.377	-80.376	0.270	-0.089
-202.363	-86.956	-0.113	0.034
-201.348	-38.714	0.168	-0.087
-200.333	-63.759	-0.213	0.086
-199.319	800.000	0.052	0.148
-198.304	-172.790	-0.141	-0.004
-197.290	-70.506	-0.148	-0.055
-196.275	-200.000	-0.048	-0.224
-195.260	-164.351	0.356	-0.016
-194.246	176.331	0.020	-0.029
-193.231	4.003	-0.235	-0.169
-192.217	5.862	0.111	0.080
-191.202	74.046	0.204	0.211
-190.187	-200.000	0.003	0.034
-189.173	61.674	0.203	0.199
-188.158	119.372	-0.173	0.210
-187.144	-120.418	0.129	0.022
-186.129	-151.327	-0.122	-0.009
-185.114	-44.281	-0.105	-0.052
-184.100	-96.915	0.087	0.022
-183.085	-45.991	-0.106	0.051
-182.071	38.071	0.174	0.152
-181.056	-108.780	0.048	-0.010
-180.042	-200.000	0.062	-0.302
-179.027	156.889	-0.195	0.264
-178.012	46.389	-0.111	-0.101
-176.998	43.952	-0.090	-0.081
-175.983	256.560	0.134	-0.226
-174.969	-152.541	-0.256	0.018
-173.954	-121.567	-0.247	-0.040
-172.939	61.356	-0.156	0.152
-171.925	74.410	0.229	0.236
-170.910	262.699	-0.116	0.197
-169.896	-128.895	0.276	-0.038
-168.881	97.807	0.093	0.104
-167.866	-33.432	0.082	0.045
-166.852	-94.691	-0.331	0.088
-165.837	-150.769	0.299	-0.022
-164.823	-164.834	0.115	0.005
-163.808	63.106	-0.054	-0.053
-162.793	-198.025	-0.328	-0.002
-161.779	-200.000	-0.015	-0.179
-160.764	418.850	-0.069	-0.146
-159.750	-2.139	-0.332	0.229
-158.735	-26.929	0.209	-0.120
-157.720	-200.000	0.016	0.383
-156.706	126.272	-0.334	-0.414
-155.691	-80.949	0.132	0.043
-154.677	800.000	0.090	-0.286
-153.662	-200.000	0.048	0.242
-152.647	-129.453	-0.252	0.034
-151.633	162.179	-0.009	-0.012
-150.618	439.921	0.079	0.170
-149.604	-82.849	0.403	-0.128
-148.589	-200.000	-0.093	-0.453
-147.574	507.662	-0.012	0.027
-146.560	265.364	-0.072	0.124
-145.545	118.318	-0.125	-0.151
-144.531	-200.000	0.005	0.164
-143.516	-117.778	-0.021	0.004
-142.502	-143.089	0.144	-0.014
-141.487	-48.089	-0.185	-0.088
-140.472	-130.913	-0.151	0.020
-139.458	-77.843	0.167	-0.057
-138.443	800.000	-0.037	-0.136
-137.429	-200.000	-0.072	0.307
-136.414	78.692	0.180	0.188
-135.399	-115.658	-0.109	-0.020
-134.385	-200.000	-0.295	0.001
-133.370	-124.953	0.394	-0.060
-132.356	-122.776	0.105	0.017
-131.341	-69.017	-0.534	-0.202
-130.326	40.421	-0.148	-0.131
-129.312	-68.873	-0.300	-0.113
-128.297	344.442	-0.021	0.040
-127.283	381.549	-0.098	0.198
-126.268	-67.738	-0.141	0.054
-125.253	1.173	-0.064	0.045
-124.239	120.644	0.169	0.206
-123.224	44.006	-0.082	-0.073
-122.210	-63.956	-0.388	-0.155
-121.195	-200.000	0.012	-0.176
