DTS Sentinel unit serial number:	SN413079Multiplexer serial number:	ORYXHardware model number:	OX4-SRSoftware version number:	ORYX F/W v4.00 Oryx Data Collector v3.7.2.0data status	okinstallation	princeton_trtdifferential loss correction	single-endedforward channel	channel 2reverse channel	N/Adate	2019/09/16time	19:35:35forward acquisition time	60.00reverse acquisition time	0.00gamma	496.2192k internal	0.2323k external	0.2323temperature offset calibration	0.9971default loss term (dB/km)	0.3790temperature slope calibration	1.0000multiplexer offset coefficient	1.0000multiplexer slope coefficient	1.0000fibre end	0.00T internal ref (°C)	34.28T ext. ref 1 (°C)	0.10T ext. ref 2 (°C)	27.22length (m)	temperature (°C)	Stokes	anti-Stokes-747.200	270.914	0.106	0.188
-746.185	-200.000	0.170	0.000
-745.171	-132.736	-0.067	0.009
-744.156	55.918	-0.150	0.147
-743.142	-35.423	0.109	0.060
-742.127	800.000	-0.145	0.494
-741.112	35.655	-0.212	-0.188
-740.098	-11.803	0.385	0.255
-739.083	-17.707	-0.132	0.084
-738.069	788.587	-0.180	0.499
-737.054	-126.326	0.322	-0.048
-736.039	639.116	-0.036	-0.091
-735.025	148.217	0.178	0.243
-734.010	708.411	-0.112	-0.300
-732.996	-145.487	-0.304	-0.028
-731.981	-77.056	-0.574	-0.202
-730.966	-200.000	0.023	-0.273
-729.952	-71.241	-0.218	-0.083
-728.937	800.000	-0.080	0.224
-727.923	-200.000	0.030	-0.133
-726.908	228.697	0.148	-0.243
-725.894	-116.363	-0.029	-0.005
-724.879	88.132	0.166	0.186
-723.864	16.539	-0.239	0.191
-722.850	40.372	-0.175	-0.159
-721.835	-65.087	0.133	-0.054
-720.821	-84.221	0.365	0.117
-719.806	296.767	-0.127	0.236
-718.791	-107.374	0.118	0.026
-717.777	800.000	-0.082	0.322
-716.762	-99.488	-0.221	-0.056
-715.748	700.191	-0.032	0.086
-714.733	574.355	-0.080	-0.196
-713.718	-53.397	0.166	-0.077
-712.704	-200.000	0.044	-0.277
-711.689	-6.532	0.116	-0.080
-710.675	225.031	0.062	-0.102
-709.660	800.000	-0.072	-0.205
-708.645	410.898	0.126	-0.269
-707.631	-200.000	0.012	0.290
-706.616	-71.241	0.216	0.082
-705.602	-10.809	0.188	0.126
-704.587	348.196	0.066	0.131
-703.572	-38.438	0.285	0.152
-702.558	49.044	0.061	-0.058
-701.543	-2.608	0.153	-0.108
-700.529	-200.000	0.008	-0.257
-699.514	-193.101	-0.125	0.001
-698.499	-79.974	-0.183	-0.062
-697.485	285.133	-0.132	0.240
-696.470	-32.751	0.088	-0.049
-695.456	800.000	-0.069	-0.294
-694.441	-137.479	0.174	0.020
-693.426	-200.000	-0.022	-0.195
-692.412	-68.586	-0.042	-0.016
-691.397	-133.473	-0.312	-0.039
-690.383	75.552	-0.213	-0.227
-689.368	-95.762	0.226	-0.061
-688.354	99.172	0.168	-0.196
-687.339	-80.666	-0.348	0.117
-686.324	157.970	0.130	-0.182
-685.310	-200.000	0.015	-0.069
-684.295	111.680	-0.024	0.029
-683.281	800.000	0.104	0.312
-682.266	-31.408	-0.263	0.149
-681.251	25.664	0.342	0.287
-680.237	-0.080	-0.223	0.160
-679.222	555.287	-0.022	-0.054
-678.208	-55.564	-0.316	0.142
-677.193	-200.000	0.091	-0.516
-676.178	57.609	-0.325	-0.320
-675.164	-64.126	-0.229	0.094
-674.149	-3.458	0.079	0.055
-673.135	-61.545	-0.322	-0.136
-672.120	550.404	0.028	-0.068
-671.105	-200.000	-0.011	-0.083
-670.091	50.037	0.191	0.181
-669.076	710.268	-0.035	-0.093
-668.062	-92.361	-0.193	0.055
-667.047	800.000	0.069	0.200
-666.032	800.000	0.031	-0.109
-665.018	-200.000	0.064	-0.352
-664.003	-200.000	-0.110	-0.001
-662.989	43.390	-0.196	0.180
-661.974	214.921	-0.285	-0.455
-660.959	-200.000	0.005	0.157
-659.945	800.000	0.197	-0.580
-658.930	241.890	0.129	-0.217
-657.916	-111.720	0.086	-0.017
-656.901	412.779	0.135	0.288
-655.886	105.333	0.389	0.462
-654.872	-99.265	0.176	0.045
-653.857	5.857	0.219	0.163
-652.843	-42.779	-0.101	0.052
-651.828	253.575	-0.122	0.210
-650.814	22.066	-0.026	-0.021
-649.799	293.297	0.045	-0.082
-648.784	87.536	0.180	0.200
-647.770	800.000	-0.043	0.162
-646.755	-77.882	-0.407	0.141
-645.741	-157.111	-0.275	0.017
-644.726	-97.662	0.416	-0.108
-643.711	800.000	0.114	-0.461
-642.697	-47.850	-0.249	0.122
-641.682	406.645	0.081	0.172
-640.668	9.413	-0.076	-0.058
-639.653	-3.052	-0.300	0.210
-638.638	82.833	-0.121	0.133
-637.624	-200.000	-0.027	-0.161
-636.609	94.877	-0.225	0.257
-635.595	-200.000	-0.021	0.438
-634.580	-161.699	-0.094	-0.005
-633.565	-106.408	-0.214	0.048
-632.551	-63.221	-0.293	0.121
-631.536	-138.532	0.057	0.006
-630.522	-55.442	-0.147	0.066
-629.507	-8.733	0.239	0.161
-628.492	-200.000	-0.022	-0.212
-627.478	59.635	-0.160	-0.158
-626.463	416.338	0.023	-0.049
-625.449	-50.144	-0.054	0.026
-624.434	800.000	0.042	-0.179
-623.419	127.004	0.116	-0.148
-622.405	-200.000	-0.037	-0.319
-621.390	97.041	0.029	-0.034
-620.376	237.503	0.156	0.259
-619.361	-73.824	0.267	-0.097
-618.346	800.000	0.147	0.476
-617.332	135.103	-0.090	0.117
-616.317	800.000	-0.056	-0.170
-615.303	-130.731	0.277	-0.037
-614.288	800.000	-0.051	-0.164
-613.273	800.000	-0.096	-0.273
-612.259	800.000	0.108	0.360
-611.244	-69.684	-0.089	-0.034
-610.230	-82.972	-0.231	-0.075
-609.215	-200.000	-0.002	0.027
-608.201	-200.000	-0.013	0.083
-607.186	2.385	0.199	0.145
-606.171	371.417	-0.160	0.325
-605.157	129.368	-0.082	-0.105
-604.142	-43.116	-0.280	0.142
-603.128	800.000	-0.057	-0.197
-602.113	800.000	0.032	-0.109
-601.098	34.000	0.255	-0.223
-600.084	-183.262	0.215	0.004
-599.069	-81.215	0.397	-0.132
-598.055	-34.505	0.192	-0.105
-597.040	566.785	0.125	-0.304
-596.025	800.000	-0.064	-0.257
-595.011	181.681	0.123	-0.182
-593.996	-47.898	-0.156	-0.076
-592.982	293.304	0.188	-0.345
-591.967	-150.740	0.192	0.015
-590.952	477.775	-0.125	0.285
-589.938	-200.000	-0.022	0.198
-588.923	-104.347	-0.159	-0.037
-587.909	71.066	-0.189	0.196
-586.894	-123.720	-0.341	-0.054
-585.879	800.000	0.145	-0.517
-584.865	557.607	0.063	0.153
-583.850	43.490	-0.162	-0.148
-582.836	-200.000	-0.001	0.158
-581.821	-111.071	-0.481	0.099
-580.806	238.710	0.026	-0.044
-579.792	-200.000	-0.038	0.399
-578.777	3.835	-0.145	-0.106
-577.763	377.449	-0.082	0.169
-576.748	704.011	-0.047	0.126
-575.733	-2.119	0.225	-0.158
-574.719	-9.071	0.366	-0.246
-573.704	121.400	0.151	0.189
-572.690	-16.442	0.085	0.054
-571.675	62.050	-0.176	-0.176
-570.661	-200.000	0.024	0.153
-569.646	181.032	-0.090	0.133
-568.631	2.673	0.033	-0.024
-567.617	-200.000	-0.034	0.167
-566.602	-1.983	0.068	0.048
-565.588	-2.591	0.012	0.008
-564.573	225.047	0.154	0.251
-563.558	550.541	0.033	-0.078
-562.544	264.082	-0.076	0.132
-561.529	237.915	-0.127	-0.211
-560.515	-182.967	0.245	-0.004
-559.500	113.407	-0.057	-0.069
-558.485	360.138	-0.122	-0.245
-557.471	-101.785	0.202	0.049
-556.456	-200.000	-0.023	0.263
-555.442	-8.606	-0.369	-0.248
-554.427	92.830	0.162	0.183
-553.412	-200.000	0.045	-0.230
-552.398	-115.564	0.076	-0.014
-551.383	-83.485	-0.091	-0.029
-550.369	-200.000	-0.001	-0.211
-549.354	201.094	0.042	0.065
-548.339	16.679	-0.402	0.318
-547.325	-200.000	-0.035	-0.314
-546.310	-155.085	-0.062	-0.004
-545.296	549.931	0.089	-0.214
-544.281	-172.487	0.105	0.003
-543.266	146.763	0.121	-0.162
-542.252	-113.694	-0.183	0.036
-541.237	765.535	0.010	-0.029
-540.223	365.016	-0.072	0.145
-539.208	-16.999	-0.217	-0.137
-538.193	-66.415	-0.115	-0.046
-537.179	-10.072	0.128	0.085
-536.164	603.759	-0.115	-0.286
-535.150	800.000	-0.144	0.426
-534.135	-59.560	0.127	0.054
-533.121	800.000	-0.075	-0.242
-532.106	232.297	0.058	-0.096
-531.091	19.031	-0.389	-0.312
-530.077	-13.912	-0.138	0.090
-529.062	-85.765	-0.098	-0.030
-528.048	122.942	-0.128	-0.160
-527.033	237.930	0.021	-0.034
-526.018	-34.996	0.149	0.081
-525.004	-57.414	-0.284	-0.125
-523.989	-24.264	0.409	-0.244
-522.975	463.152	-0.084	-0.188
-521.960	-181.604	-0.234	-0.005
-520.945	-200.000	-0.007	-0.358
-519.931	-41.691	0.414	0.213
-518.916	-200.000	-0.036	0.456
-517.902	-44.255	-0.095	0.048
-516.887	30.876	-0.139	0.119
-515.872	175.778	-0.114	0.166
-514.858	-27.959	0.391	-0.227
-513.843	181.508	-0.171	0.252
-512.829	-9.242	-0.060	-0.040
-511.814	800.000	-0.037	0.156
-510.799	-200.000	-0.022	0.439
-509.785	-62.360	-0.289	0.120
-508.770	-200.000	-0.043	-0.248
-507.756	26.932	0.193	0.162
-506.741	-63.007	0.259	-0.107
-505.726	470.403	-0.016	0.037
-504.712	-116.574	-0.139	0.026
-503.697	-51.909	0.234	0.109
-502.683	-21.607	0.096	-0.059
-501.668	-129.194	-0.163	0.023
-500.653	-200.000	0.074	-0.373
-499.639	116.382	-0.107	0.131
-498.624	-200.000	0.007	-0.146
-497.610	311.377	-0.111	-0.209
-496.595	377.835	0.143	-0.292
-495.581	58.580	0.245	0.240
-494.566	87.818	-0.065	0.072
-493.551	-135.544	0.087	-0.010
-492.537	88.011	-0.139	-0.154
-491.522	0.489	-0.066	-0.047
-490.508	-29.207	0.287	-0.164
-489.493	117.518	-0.108	0.133
-488.478	-117.081	-0.161	-0.029
-487.464	-79.756	-0.253	-0.085
-486.449	-72.369	-0.150	0.056
-485.435	-200.000	-0.046	-0.239
-484.420	-136.667	0.122	0.014
-483.405	69.725	0.138	-0.142
-482.391	-57.563	0.116	0.051
-481.376	800.000	0.062	-0.198
-480.362	800.000	-0.047	0.168
-479.347	800.000	0.040	-0.155
-478.332	-200.000	0.001	0.013
-477.318	-90.075	0.182	0.053
-476.303	-15.701	-0.045	0.029
-475.289	-75.092	0.137	0.049
-474.274	-88.373	0.158	-0.047
-473.259	-200.000	-0.061	-0.266
-472.245	-200.000	-0.019	-0.192
-471.230	147.365	-0.131	-0.176
-470.216	-200.000	0.032	0.349
-469.201	-200.000	-0.031	0.187
-468.186	-1.281	0.162	0.114
-467.172	-30.398	-0.170	0.097
-466.157	-11.912	-0.237	0.156
-465.143	-80.969	-0.340	0.112
-464.128	192.409	0.088	-0.133
-463.113	214.187	0.101	-0.159
-462.099	130.653	-0.131	-0.168
-461.084	457.872	-0.017	-0.038
-460.070	800.000	-0.074	-0.209
-459.055	-135.739	-0.182	-0.021
-458.040	144.402	0.144	0.192
-457.026	-114.073	0.168	-0.032
-456.011	-35.141	-0.187	0.102
-454.997	177.073	-0.082	0.119
-453.982	-172.717	0.107	0.003
-452.968	52.202	0.234	-0.223
-451.953	-118.450	-0.246	-0.044
-450.938	59.344	-0.135	-0.133
-449.924	-200.000	-0.000	-0.326
-448.909	594.596	0.046	0.114
-447.895	14.308	0.183	-0.142
-446.880	-200.000	-0.019	0.137
-445.865	-200.000	-0.030	0.258
-444.851	-45.035	-0.060	0.030
-443.836	-173.340	0.502	0.015
-442.822	5.974	-0.261	-0.193
-441.807	-200.000	0.031	-0.174
-440.792	-100.733	-0.260	-0.064
-439.778	-42.929	0.196	0.099
-438.763	-113.907	-0.095	-0.018
-437.749	268.789	-0.055	0.097
-436.734	-57.808	0.107	-0.047
-435.719	-53.692	-0.217	0.099
-434.705	800.000	0.110	-0.341
-433.690	-200.000	-0.003	0.168
-432.676	-140.560	0.141	-0.015
-431.661	-55.822	0.154	0.069
-430.646	10.602	-0.218	-0.165
-429.632	-200.000	-0.012	0.065
-428.617	-68.870	0.157	0.060
-427.603	93.935	0.103	0.116
-426.588	-138.164	-0.128	0.014
-425.573	13.131	0.070	0.054
-424.559	-142.733	-0.164	0.016
-423.544	366.812	0.158	0.318
-422.530	72.026	-0.094	-0.098
-421.515	-200.000	-0.002	-0.012
-420.500	-57.448	-0.280	0.123
-419.486	22.262	0.107	0.087
-418.471	62.430	-0.182	0.181
-417.457	-200.000	0.000	0.018
-416.442	-86.417	-0.435	-0.133
-415.428	-45.113	-0.179	0.089
-414.413	-83.031	-0.078	0.025
-413.398	800.000	0.074	0.233
-412.384	-200.000	-0.004	0.257
-411.369	477.899	0.044	0.100
-410.355	800.000	0.032	-0.120
-409.340	800.000	-0.090	-0.343
-408.325	-200.000	-0.010	0.144
-407.311	-200.000	0.007	-0.140
-406.296	317.083	0.179	0.338
-405.282	55.409	0.113	-0.109
-404.267	-145.085	0.327	0.030
-403.252	800.000	0.068	-0.190
-402.238	71.542	-0.191	0.198
-401.223	-165.542	-0.211	0.009
-400.209	83.293	-0.215	-0.233
-399.194	18.675	-0.274	-0.219
-398.179	-200.000	-0.009	0.377
-397.165	-200.000	-0.025	-0.116
-396.150	-199.641	-0.365	-0.002
-395.136	-102.342	0.300	0.072
-394.121	-148.241	-0.201	0.017
-393.106	800.000	-0.015	-0.047
-392.092	-69.453	0.106	0.040
-391.077	36.415	0.110	-0.097
-390.063	800.000	-0.048	0.209
-389.048	135.728	0.198	0.257
-388.033	-47.326	-0.340	0.165
-387.019	372.839	-0.067	-0.135
-386.004	57.233	-0.205	-0.199
-384.990	800.000	0.037	-0.151
-383.975	187.985	-0.164	-0.243
-382.960	45.529	0.201	-0.185
-381.946	135.985	0.054	-0.069
-380.931	-200.000	0.037	0.164
-379.917	-200.000	0.051	0.266
-378.902	800.000	0.031	0.125
-377.888	366.882	-0.154	0.310
-376.873	93.924	0.093	-0.105
-375.858	245.763	-0.070	0.117
-374.844	384.140	-0.181	0.371
-373.829	-200.000	-0.009	-0.122
-372.815	800.000	-0.041	0.141
-371.800	121.823	-0.127	0.158
-370.785	96.221	-0.217	-0.246
-369.771	-75.259	0.205	0.073
-368.756	-157.516	0.056	0.003
-367.742	311.270	-0.073	-0.137
-366.727	-200.000	0.008	0.254
-365.712	171.180	-0.276	-0.393
-364.698	220.330	0.160	-0.255
-363.683	-81.544	-0.129	0.042
-362.669	281.855	0.052	-0.093
-361.654	-103.066	-0.075	0.018
-360.639	-200.000	0.002	0.056
-359.625	800.000	-0.043	0.157
-358.610	161.534	-0.193	0.269
-357.596	-95.113	-0.246	0.066
-356.581	-5.605	-0.119	0.081
-355.566	-11.170	0.241	0.158
-354.552	-200.000	0.016	0.116
-353.537	-108.897	0.172	0.036
-352.523	-98.457	0.220	0.056
-351.508	-200.000	-0.010	-0.051
-350.493	-200.000	-0.005	0.280
-349.479	378.379	-0.162	-0.329
-348.464	269.488	-0.150	-0.261
-347.450	-200.000	-0.026	0.238
-346.435	800.000	-0.059	0.173
-345.420	-51.574	0.145	0.067
-344.406	800.000	-0.040	-0.147
-343.391	-151.905	0.254	0.018
-342.377	595.158	-0.080	0.197
-341.362	-118.340	0.165	0.029
-340.348	-23.923	0.089	-0.053
-339.333	374.958	-0.137	-0.277
-338.318	-129.141	0.475	0.066
-337.304	786.876	0.131	-0.358
-336.289	-200.000	0.004	-0.232
-335.275	-200.000	0.003	0.083
-334.260	-200.000	0.018	0.216
-333.245	45.090	0.363	0.332
-332.231	121.472	0.103	-0.127
-331.216	111.341	-0.125	0.149
-330.202	385.988	0.082	0.169
-329.187	-63.716	0.395	0.161
-328.172	-123.589	-0.031	0.005
-327.158	-48.052	0.403	0.194
-326.143	800.000	-0.092	0.271
-325.129	-200.000	-0.065	0.559
-324.114	289.447	-0.064	0.116
-323.099	-200.000	0.019	-0.200
-322.085	156.457	-0.115	-0.158
-321.070	-200.000	0.031	-0.197
-320.056	6.885	-0.059	-0.043
-319.041	-99.366	-0.121	0.030
-318.026	-200.000	0.058	-0.487
-317.012	249.281	0.085	0.142
-315.997	-39.457	-0.205	0.107
-314.983	647.230	-0.104	-0.265
-313.968	-184.831	0.174	-0.003
-312.953	800.000	-0.050	-0.201
-311.939	87.265	-0.097	-0.107
-310.924	266.176	-0.130	0.225
-309.910	250.728	0.136	0.229
-308.895	118.662	0.143	0.175
-307.880	11.065	-0.309	-0.235
-306.866	57.435	0.126	-0.122
-305.851	499.972	-0.129	0.295
-304.837	-68.975	0.342	-0.131
-303.822	-51.290	-0.324	-0.150
-302.807	-200.000	0.012	0.132
-301.793	-93.672	-0.404	-0.111
-300.778	800.000	-0.043	-0.174
-299.764	421.752	-0.123	0.262
-298.749	130.230	0.155	0.196
-297.735	-25.665	-0.212	-0.124
-296.720	349.153	0.192	0.377
-295.705	-145.546	0.139	-0.012
-294.691	-12.630	0.196	-0.127
-293.676	181.282	-0.072	0.105
-292.662	5.671	0.101	0.074
-291.647	176.741	-0.158	0.228
-290.632	-200.000	-0.023	-0.105
-289.618	121.459	0.084	0.103
-288.603	-119.679	-0.188	-0.032
-287.589	-119.700	0.292	0.050
-286.574	221.063	0.097	-0.154
-285.559	-33.103	0.265	0.146
-284.545	-45.175	0.037	0.018
-283.530	-85.854	0.264	-0.081
-282.516	800.000	0.088	-0.365
-281.501	159.564	0.112	0.155
-280.486	287.102	-0.158	0.282
-279.472	150.755	-0.192	-0.259
-278.457	-137.568	0.109	0.012
-277.443	724.914	-0.062	-0.164
-276.428	800.000	-0.041	0.172
-275.413	-8.287	-0.086	0.057
-274.399	-200.000	0.003	-0.133
-273.384	232.545	0.080	0.130
-272.370	-139.243	-0.037	-0.004
-271.355	-41.974	-0.102	-0.052
-270.340	750.170	0.064	-0.172
-269.326	12.493	-0.174	-0.133
-268.311	451.434	-0.089	-0.194
-267.297	800.000	-0.067	0.217
-266.282	800.000	-0.018	-0.062
-265.267	4.587	0.277	-0.202
-264.253	-46.206	-0.136	-0.066
-263.238	42.361	0.278	-0.250
-262.224	-57.113	-0.202	0.088
-261.209	-169.584	0.035	-0.001
-260.195	-81.634	0.105	-0.034
-259.180	128.817	-0.156	-0.197
-258.165	-200.000	-0.009	-0.119
-257.151	-200.000	-0.001	-0.245
-256.136	-200.000	-0.042	-0.392
-255.122	800.000	0.080	-0.303
-254.107	-68.994	0.421	-0.161
-253.092	456.995	0.082	-0.180
-252.078	-17.227	-0.203	-0.127
-251.063	-148.262	0.185	0.015
-250.049	-56.687	-0.138	0.061
-249.034	-200.000	0.016	0.144
-248.019	-150.877	-0.122	0.009
-247.005	-145.523	0.173	0.015
-245.990	376.735	0.044	0.089
-244.976	-200.000	-0.012	0.139
-243.961	142.955	-0.044	0.059
-242.946	-200.000	0.004	0.126
-241.932	80.178	-0.116	-0.124
-240.917	318.418	0.109	-0.205
-239.903	-23.142	0.253	0.151
-238.888	99.245	0.263	0.301
-237.873	9.184	-0.133	-0.099
-236.859	628.043	-0.159	0.398
-235.844	569.193	-0.126	0.302
-234.830	-56.310	-0.097	0.043
-233.815	-22.695	-0.179	0.107
-232.800	543.646	-0.094	0.222
-231.786	-41.078	0.216	0.110
-230.771	-37.017	0.136	0.072
-229.757	44.935	0.104	-0.094
-228.742	-200.000	-0.005	0.058
-227.727	800.000	-0.010	0.027
-226.713	9.574	-0.224	-0.168
-225.698	-49.722	-0.207	-0.098
-224.684	-200.000	0.038	-0.376
-223.669	-172.116	0.174	0.006
-222.655	-87.219	0.308	0.093
-221.640	-149.063	0.141	-0.011
-220.625	800.000	-0.047	0.136
-219.611	3.768	0.155	0.112
-218.596	800.000	0.073	-0.207
-217.582	800.000	-0.092	0.285
-216.567	-200.000	-0.036	0.183
-215.552	103.324	0.166	0.193
-214.538	-124.333	0.278	0.043
-213.523	-7.196	-0.102	-0.069
-212.509	-51.457	-0.211	-0.097
-211.494	-108.026	0.270	-0.058
-210.479	-124.845	0.176	0.027
-209.465	-56.000	-0.194	0.086
-208.450	16.140	-0.312	0.243
-207.436	-11.809	0.029	0.019
-206.421	154.608	0.167	0.227
-205.406	173.875	0.142	-0.203
-204.392	-83.597	0.055	0.017
-203.377	-37.299	0.592	-0.313
-202.363	9.063	-0.249	-0.186
-201.348	-112.370	0.243	-0.048
-200.333	-65.491	-0.105	-0.042
-199.319	800.000	-0.057	-0.241
-198.304	61.765	0.115	0.114
-197.290	-200.000	-0.007	0.233
-196.275	171.506	0.039	-0.055
-195.260	747.236	-0.013	-0.035
-194.246	-13.007	0.302	-0.194
-193.231	-75.529	0.290	0.102
-192.217	-137.761	-0.160	0.018
-191.202	80.555	-0.112	0.119
-190.187	800.000	0.071	0.269
-189.173	78.073	0.143	-0.151
-188.158	66.694	-0.062	0.062
-187.144	-70.344	-0.037	-0.014
-186.129	310.483	-0.127	-0.235
-185.114	122.504	0.095	-0.117
-184.100	-104.853	-0.142	-0.032
-183.085	310.933	0.163	0.301
-182.071	800.000	-0.044	0.159
-181.056	-1.070	-0.228	-0.159
-180.042	800.000	0.049	-0.209
-179.027	-200.000	-0.023	0.218
-178.012	181.283	-0.089	-0.129
-176.998	-146.854	-0.203	-0.017
-175.983	242.454	0.033	-0.054
-174.969	-16.983	0.147	0.092
-173.954	-43.541	0.223	0.111
-172.939	-200.000	-0.004	-0.111
-171.925	-200.000	0.090	-0.483
-170.910	270.180	0.108	0.188
-169.896	-200.000	0.000	-0.014
-168.881	27.879	-0.407	-0.339
-167.866	194.480	-0.259	-0.388
-166.852	696.402	-0.128	-0.331
-165.837	-164.823	0.501	-0.022
-164.823	-200.000	-0.051	-0.252
-163.808	-200.000	-0.017	0.208
-162.793	-200.000	-0.031	-0.135
-161.779	-200.000	-0.020	0.341
-160.764	193.908	-0.097	0.145
-159.750	-200.000	-0.027	-0.270
-158.735	3.987	0.316	0.228
-157.720	98.914	0.207	0.236
-156.706	41.745	0.240	0.215
-155.691	276.473	0.148	0.260
-154.677	754.850	0.094	-0.252
-153.662	-12.753	0.209	0.135
-152.647	65.275	-0.208	-0.208
-151.633	-17.096	0.330	0.205
-150.618	764.156	0.150	0.402
-149.604	186.713	-0.068	0.100
-148.589	-145.039	0.161	0.014
-147.574	62.589	0.118	0.117
-146.560	-200.000	-0.015	0.226
-145.545	21.822	-0.248	0.199
-144.531	800.000	0.073	0.287
-143.516	-134.445	-0.202	0.024
-142.502	-127.352	0.139	0.020
-141.487	-40.948	0.225	-0.115
-140.472	-45.368	0.218	0.107
-139.458	-98.030	-0.333	0.085
-138.443	800.000	0.079	0.288
-137.429	90.362	0.168	0.185
-136.414	205.215	0.170	-0.261
-135.399	-44.320	0.320	0.158
-134.385	639.724	-0.076	0.191
-133.370	-47.720	-0.296	0.142
-132.356	-54.749	0.311	-0.138
-131.341	188.273	0.190	0.280
-130.326	800.000	-0.054	-0.162
-129.312	-78.071	0.339	-0.115
-128.297	-63.651	0.081	-0.033
-127.283	131.989	-0.045	-0.058
-126.268	-200.000	0.006	-0.228
-125.253	-46.578	-0.375	0.181
-124.239	-106.532	-0.565	-0.124
-123.224	-200.000	-0.002	-0.028
-122.210	174.126	-0.156	0.222
-121.195	-200.000	0.006	0.291
