DTS Sentinel unit serial number:	SN413079Multiplexer serial number:	ORYXHardware model number:	OX4-SRSoftware version number:	ORYX F/W v4.00 Oryx Data Collector v3.7.2.0data status	okinstallation	princeton_trtdifferential loss correction	single-endedforward channel	channel 2reverse channel	N/Adate	2019/09/11time	12:05:11forward acquisition time	60.00reverse acquisition time	0.00gamma	496.2192k internal	0.2299k external	0.2299temperature offset calibration	0.9968default loss term (dB/km)	0.3790temperature slope calibration	1.0000multiplexer offset coefficient	1.0000multiplexer slope coefficient	1.0000fibre end	0.00T internal ref (°C)	39.48T ext. ref 1 (°C)	0.19T ext. ref 2 (°C)	37.79length (m)	temperature (°C)	Stokes	anti-Stokes-747.200	-98.190	0.349	0.092
-746.185	-30.078	0.070	0.040
-745.171	-41.270	0.032	-0.017
-744.156	181.779	-0.095	-0.143
-743.142	-123.172	-0.263	0.043
-742.127	-38.113	0.338	0.183
-741.112	-13.820	-0.055	0.036
-740.098	5.035	0.147	-0.110
-739.083	78.587	0.166	0.181
-738.069	800.000	-0.056	-0.178
-737.054	-86.103	-0.085	0.027
-736.039	404.320	0.174	0.375
-735.025	-86.396	0.177	-0.055
-734.010	329.186	0.034	0.066
-732.996	128.287	-0.151	-0.196
-731.981	539.914	0.026	-0.063
-730.966	-200.000	0.029	-0.131
-729.952	68.185	-0.101	-0.106
-728.937	-8.710	0.172	-0.117
-727.923	316.940	0.125	-0.241
-726.908	-90.158	-0.119	0.035
-725.894	-121.818	-0.110	-0.019
-724.879	-30.574	-0.182	0.105
-723.864	-164.359	0.232	-0.011
-722.850	-2.308	0.163	0.117
-721.835	-62.831	-0.085	0.036
-720.821	-15.416	-0.064	0.042
-719.806	189.480	-0.089	-0.136
-718.791	-39.470	-0.198	0.106
-717.777	800.000	0.059	0.236
-716.762	-130.590	0.274	0.038
-715.748	-88.227	0.045	-0.014
-714.733	-118.076	-0.331	-0.060
-713.718	491.345	0.089	-0.208
-712.704	117.179	-0.183	-0.230
-711.689	18.292	0.134	0.109
-710.675	6.677	-0.348	0.264
-709.660	384.110	0.021	-0.045
-708.645	-66.504	-0.206	0.083
-707.631	91.112	-0.060	-0.069
-706.616	311.777	0.041	0.079
-705.602	340.264	0.140	-0.279
-704.587	5.791	-0.219	-0.165
-703.572	743.588	0.045	0.124
-702.558	-87.252	0.230	-0.071
-701.543	-35.032	0.021	-0.012
-700.529	-148.318	-0.224	0.019
-699.514	-136.448	-0.198	0.023
-698.499	-0.861	0.233	-0.168
-697.485	361.593	-0.142	0.290
-696.470	-200.000	0.015	0.262
-695.456	-163.579	-0.068	-0.003
-694.441	409.620	0.066	-0.142
-693.426	720.488	-0.064	-0.172
-692.412	-46.407	0.098	0.049
-691.397	-71.896	0.290	0.110
-690.383	-70.277	-0.106	-0.041
-689.368	38.732	-0.138	-0.126
-688.354	-21.853	0.179	0.111
-687.339	197.680	0.045	0.071
-686.324	-200.000	0.005	0.319
-685.310	-61.198	-0.269	-0.116
-684.295	346.074	0.144	-0.288
-683.281	73.907	0.246	-0.263
-682.266	240.240	-0.208	-0.352
-681.251	-200.000	-0.024	-0.177
-680.237	-200.000	0.048	-0.340
-679.222	105.385	0.195	-0.234
-678.208	125.431	0.207	-0.266
-677.193	-14.851	0.231	0.151
-676.178	800.000	-0.064	-0.194
-675.164	329.200	0.041	-0.079
-674.149	504.508	0.066	0.155
-673.135	-138.915	0.391	-0.043
-672.120	-182.439	0.437	-0.008
-671.105	-200.000	-0.069	-0.407
-670.091	-200.000	-0.032	-0.147
-669.076	-75.411	-0.310	-0.113
-668.062	-28.597	0.146	-0.086
-667.047	209.226	0.092	-0.147
-666.032	27.105	0.199	0.170
-665.018	35.429	-0.182	0.163
-664.003	198.118	-0.106	0.164
-662.989	201.072	0.130	0.203
-661.974	-69.554	0.214	-0.083
-660.959	-98.727	-0.127	0.033
-659.945	-200.000	-0.004	0.125
-658.930	-118.562	0.229	-0.041
-657.916	-62.194	-0.132	-0.056
-656.901	6.573	0.379	-0.287
-655.886	-74.486	-0.044	0.016
-654.872	147.501	0.281	-0.385
-653.857	325.202	-0.191	-0.372
-652.843	103.715	-0.329	-0.393
-651.828	245.014	-0.102	-0.174
-650.814	800.000	-0.087	-0.290
-649.799	-135.723	-0.105	-0.013
-648.784	-48.136	0.303	-0.149
-647.770	279.260	-0.101	-0.184
-646.755	-88.852	-0.153	-0.046
-645.741	569.246	0.056	0.138
-644.726	68.392	-0.313	0.326
-643.711	-78.537	0.070	-0.024
-642.697	-167.772	0.177	-0.007
-641.682	-108.039	-0.125	-0.028
-640.668	-200.000	0.049	0.000
-639.653	-200.000	-0.028	0.279
-638.638	-200.000	0.018	0.171
-637.624	171.003	-0.244	-0.356
-636.609	800.000	-0.111	0.386
-635.595	800.000	-0.022	0.088
-634.580	-200.000	0.002	0.097
-633.565	592.923	-0.042	0.107
-632.551	250.590	0.181	0.312
-631.536	119.699	-0.147	0.185
-630.522	-99.231	-0.239	0.061
-629.507	504.674	0.011	0.026
-628.492	261.592	0.133	-0.234
-627.478	-159.492	0.318	-0.018
-626.463	532.628	0.052	0.125
-625.449	-6.440	0.133	0.092
-624.434	-200.000	0.019	-0.095
-623.419	-187.056	-0.114	0.002
-622.405	-46.423	0.276	0.137
-621.390	800.000	-0.047	0.180
-620.376	-79.373	0.524	-0.180
-619.361	-98.967	-0.227	-0.058
-618.346	-157.404	-0.240	-0.015
-617.332	5.500	0.324	-0.243
-616.317	-2.617	-0.177	0.126
-615.303	55.357	-0.268	-0.263
-614.288	221.351	0.105	-0.171
-613.273	444.171	-0.018	-0.040
-612.259	-30.422	0.461	0.265
-611.244	102.972	-0.121	0.144
-610.230	-65.804	0.259	0.105
-609.215	91.562	0.121	0.138
-608.201	-38.933	0.365	-0.195
-607.186	-200.000	0.058	-0.393
-606.171	-156.077	-0.074	0.005
-605.157	-105.830	-0.057	0.013
-604.142	-8.168	-0.162	-0.111
-603.128	222.959	-0.137	-0.224
-602.113	-18.344	-0.184	-0.117
-601.098	517.653	-0.129	0.306
-600.084	5.241	-0.055	0.041
-599.069	-200.000	-0.017	-0.224
-598.055	-200.000	0.006	-0.059
-597.040	355.337	-0.126	0.254
-596.025	142.723	-0.114	0.154
-595.011	-76.952	0.159	0.057
-593.996	-200.000	-0.039	-0.226
-592.982	800.000	0.056	-0.178
-591.967	-83.580	0.247	-0.080
-590.952	-9.416	0.237	0.161
-589.938	383.446	-0.030	-0.063
-588.923	27.224	-0.342	-0.291
-587.909	-91.331	-0.258	0.075
-586.894	64.398	0.133	0.136
-585.879	466.078	-0.065	0.148
-584.865	49.569	0.181	-0.173
-583.850	800.000	-0.107	-0.378
-582.836	-55.746	-0.171	0.078
-581.821	-80.691	0.033	0.011
-580.806	178.064	0.112	-0.166
-579.792	800.000	0.016	-0.070
-578.777	-81.166	0.185	-0.062
-577.763	-65.162	-0.171	0.070
-576.748	518.434	0.136	-0.323
-575.733	56.005	0.123	-0.121
-574.719	23.018	-0.232	0.193
-573.704	-200.000	-0.074	0.402
-572.690	-18.941	0.092	-0.058
-571.675	-88.755	-0.247	0.075
-570.661	-81.443	0.246	0.082
-569.646	495.448	-0.105	-0.245
-568.631	-28.612	-0.132	0.077
-567.617	206.710	-0.119	0.188
-566.602	800.000	-0.027	-0.114
-565.588	658.507	-0.129	-0.336
-564.573	-85.092	0.123	0.039
-563.558	-92.977	0.090	-0.026
-562.544	-59.231	0.209	-0.091
-561.529	-119.898	0.269	0.047
-560.515	-74.326	0.127	-0.046
-559.500	9.338	0.024	0.019
-558.485	81.598	0.324	-0.356
-557.471	273.583	0.033	0.058
-556.456	-200.000	-0.004	-0.248
-555.442	-22.613	-0.048	0.029
-554.427	-200.000	0.038	0.264
-553.412	-72.673	0.227	0.085
-552.398	-132.021	-0.156	0.021
-551.383	-200.000	0.040	0.283
-550.369	-114.665	0.380	-0.074
-549.354	-85.150	0.290	0.092
-548.339	-49.168	-0.227	0.110
-547.325	-200.000	0.029	-0.219
-546.310	-52.614	-0.238	-0.111
-545.296	-64.221	-0.452	-0.187
-544.281	-161.445	0.289	0.015
-543.266	-89.483	0.091	-0.027
-542.252	284.998	0.016	0.028
-541.237	182.008	0.027	0.041
-540.223	-136.624	0.090	0.011
-539.208	-114.951	0.131	-0.025
-538.193	-172.287	0.212	-0.007
-537.179	-30.325	-0.105	0.060
-536.164	75.091	-0.188	0.201
-535.150	6.244	0.069	0.052
-534.135	-120.662	0.158	0.027
-533.121	27.418	0.223	-0.189
-532.106	4.158	-0.220	0.163
-531.091	-102.419	0.105	-0.026
-530.077	55.393	-0.324	0.318
-529.062	-200.000	-0.008	0.037
-528.048	-68.633	0.129	0.051
-527.033	-200.000	0.008	-0.086
-526.018	98.197	-0.108	-0.126
-525.004	-200.000	-0.006	0.121
-523.989	80.805	0.178	0.195
-522.975	800.000	-0.065	0.279
-521.960	424.071	0.127	-0.277
-520.945	-200.000	0.013	-0.105
-519.931	556.113	-0.039	-0.094
-518.916	800.000	-0.099	0.304
-517.902	291.324	-0.092	0.169
-516.887	30.840	0.335	0.290
-515.872	37.207	-0.171	0.153
-514.858	-200.000	0.020	-0.177
-513.843	800.000	-0.040	-0.127
-512.829	283.600	0.070	-0.127
-511.814	-200.000	0.033	-0.295
-510.799	800.000	-0.031	0.129
-509.785	800.000	0.068	0.225
-508.770	-200.000	0.032	0.195
-507.756	800.000	-0.042	-0.143
-506.741	-200.000	-0.067	-0.497
-505.726	-27.358	0.241	-0.142
-504.712	18.183	-0.135	-0.109
-503.697	211.848	-0.184	0.292
-502.683	235.596	0.121	-0.202
-501.668	-145.806	0.119	-0.011
-500.653	65.275	-0.062	0.064
-499.639	6.267	-0.264	0.198
-498.624	187.137	-0.137	-0.207
-497.610	-109.419	-0.170	-0.036
-496.595	-16.398	0.226	0.145
-495.581	-200.000	0.033	-0.490
-494.566	800.000	-0.068	-0.284
-493.551	-146.539	0.290	0.025
-492.537	800.000	0.026	0.109
-491.522	800.000	0.057	0.176
-490.508	-64.395	-0.312	-0.128
-489.493	-40.651	0.119	0.062
-488.478	481.293	0.040	0.091
-487.464	634.642	0.159	-0.407
-486.449	55.434	-0.165	0.161
-485.435	-139.641	0.407	-0.044
-484.420	-38.167	0.229	0.123
-483.405	800.000	-0.037	-0.120
-482.391	-93.826	-0.360	-0.100
-481.376	-10.442	-0.142	-0.095
-480.362	-200.000	-0.032	-0.257
-479.347	800.000	-0.061	0.233
-478.332	800.000	0.098	-0.380
-477.318	-200.000	0.020	-0.250
-476.303	477.242	-0.045	-0.102
-475.289	759.424	0.144	-0.395
-474.274	-67.954	-0.154	-0.061
-473.259	-23.302	-0.269	-0.163
-472.245	-200.000	0.025	0.444
-471.230	692.772	-0.094	-0.249
-470.216	800.000	0.050	-0.153
-469.201	353.776	-0.091	0.183
-468.186	551.745	0.116	-0.280
-467.172	216.643	-0.103	0.166
-466.157	65.931	-0.177	0.181
-465.143	-39.316	-0.036	0.019
-464.128	-40.315	-0.135	0.071
-463.113	-25.939	-0.186	0.111
-462.099	48.335	0.211	0.200
-461.084	282.725	0.161	-0.292
-460.070	800.000	-0.134	-0.540
-459.055	734.916	0.022	0.059
-458.040	800.000	0.078	-0.335
-457.026	42.270	0.202	-0.185
-456.011	64.778	0.240	0.244
-454.997	-126.864	0.078	-0.012
-453.982	163.608	0.056	-0.080
-452.968	260.643	-0.216	-0.378
-451.953	190.991	0.070	0.106
-450.938	133.418	0.109	0.142
-449.924	73.867	0.066	-0.069
-448.909	83.920	0.145	-0.160
-447.895	-65.573	0.185	-0.075
-446.880	800.000	0.106	0.333
-445.865	-66.237	0.228	-0.092
-444.851	-75.391	0.265	0.095
-443.836	70.095	-0.257	0.267
-442.822	-66.460	-0.282	0.113
-441.807	-200.000	-0.049	-0.241
-440.792	68.076	-0.232	-0.239
-439.778	-143.775	0.173	-0.016
-438.763	-1.138	0.126	-0.090
-437.749	-200.000	0.030	0.145
-436.734	-200.000	-0.062	0.415
-435.719	-72.066	-0.218	-0.082
-434.705	-200.000	0.018	0.254
-433.690	449.084	0.059	0.131
-432.676	410.238	0.076	0.163
-431.661	-200.000	-0.048	0.262
-430.646	-11.379	-0.065	-0.043
-429.632	800.000	0.074	-0.216
-428.617	-99.625	0.277	0.070
-427.603	-1.307	0.207	-0.148
-426.588	9.384	-0.147	0.112
-425.573	800.000	-0.064	-0.270
-424.559	-146.108	0.360	-0.032
-423.544	800.000	0.083	-0.260
-422.530	632.436	0.088	-0.224
-421.515	-55.259	-0.251	-0.114
-420.500	-200.000	0.029	-0.214
-419.486	-48.780	0.074	-0.036
-418.471	115.940	-0.072	0.089
-417.457	-181.135	0.192	-0.004
-416.442	407.783	0.088	0.188
-415.428	150.776	0.069	-0.094
-414.413	-51.260	0.248	-0.117
-413.398	-4.462	0.044	0.030
-412.384	-1.065	-0.137	0.098
-411.369	-122.874	0.174	-0.028
-410.355	-33.157	-0.161	-0.090
-409.340	-75.590	-0.235	-0.084
-408.325	-138.926	-0.375	-0.041
-407.311	457.086	0.036	-0.080
-406.296	-83.534	-0.189	-0.061
-405.282	-200.000	0.033	0.411
-404.267	-200.000	0.022	0.239
-403.252	-40.834	0.330	-0.172
-402.238	800.000	-0.040	-0.120
-401.223	-83.280	0.056	-0.018
-400.209	-74.683	0.111	-0.040
-399.194	-86.528	0.277	0.086
-398.179	-6.339	0.283	0.194
-397.165	-36.408	0.041	-0.022
-396.150	-37.348	-0.072	-0.039
-395.136	469.752	0.054	0.122
-394.121	35.945	0.278	0.246
-393.106	101.432	-0.055	-0.065
-392.092	244.383	-0.069	0.117
-391.077	41.000	-0.081	0.073
-390.063	-73.572	-0.280	-0.103
-389.048	-40.878	0.134	0.070
-388.033	-13.304	-0.209	0.137
-387.019	348.831	0.124	-0.247
-386.004	-200.000	-0.057	-0.454
-384.990	-99.379	-0.126	-0.032
-383.975	-20.713	-0.134	0.083
-382.960	410.633	0.152	0.324
-381.946	-79.676	-0.050	-0.017
-380.931	800.000	0.021	-0.077
-379.917	-200.000	0.004	-0.168
-378.902	-10.347	0.191	-0.127
-377.888	800.000	0.034	0.144
-376.873	34.144	0.155	-0.136
-375.858	-200.000	0.002	0.017
-374.844	173.099	0.175	0.253
-373.829	800.000	0.014	0.047
-372.815	415.770	-0.096	0.206
-371.800	-189.621	-0.285	-0.003
-370.785	18.378	0.151	0.122
-369.771	-200.000	-0.014	-0.078
-368.756	354.556	-0.033	0.065
-367.742	-200.000	-0.009	0.102
-366.727	56.277	-0.159	-0.156
-365.712	-82.359	0.163	0.053
-364.698	205.144	0.141	0.221
-363.683	-161.809	0.139	0.007
-362.669	-128.038	-0.149	-0.022
-361.654	-93.284	-0.054	0.015
-360.639	-80.057	0.350	0.118
-359.625	354.882	0.169	-0.338
-358.610	-101.735	-0.237	0.058
-357.596	82.735	0.257	-0.281
-356.581	31.719	0.050	0.043
-355.566	278.979	-0.071	-0.127
-354.552	-200.000	-0.011	-0.122
-353.537	151.328	-0.043	-0.059
-352.523	57.080	-0.191	-0.187
-351.508	90.731	0.028	0.031
-350.493	86.389	-0.137	-0.152
-349.479	-60.850	-0.283	0.120
-348.464	-112.704	0.062	-0.012
-347.450	800.000	0.084	-0.352
-346.435	-200.000	0.069	0.307
-345.420	-200.000	-0.041	0.209
-344.406	62.728	-0.134	0.135
-343.391	-181.598	-0.192	-0.004
-342.377	-75.250	-0.198	-0.071
-341.362	-200.000	-0.034	0.203
-340.348	383.082	-0.122	0.252
-339.333	566.113	0.025	0.061
-338.318	-112.615	0.232	0.046
-337.304	-116.402	0.149	-0.028
-336.289	430.708	-0.043	0.094
-335.275	-56.846	0.179	-0.080
-334.260	135.081	0.162	-0.212
-333.245	53.961	0.066	0.064
-332.231	-123.475	-0.437	-0.070
-331.216	-154.552	0.130	0.009
-330.202	-122.425	0.019	0.003
-329.187	140.615	-0.061	-0.081
-328.172	800.000	-0.038	-0.148
-327.158	21.920	0.063	0.051
-326.143	-61.536	-0.272	-0.115
-325.129	649.654	0.060	0.153
-324.114	24.792	-0.326	0.271
-323.099	-18.795	-0.156	0.098
-322.085	-188.449	-0.012	-0.000
-321.070	-162.989	0.155	0.008
-320.056	411.775	-0.126	-0.269
-319.041	-200.000	0.058	0.349
-318.026	800.000	0.020	0.065
-317.012	-162.068	0.333	-0.017
-315.997	272.455	-0.179	-0.316
-314.983	-70.963	0.140	-0.053
-313.968	-134.620	-0.255	0.031
-312.953	43.403	-0.173	-0.159
-311.939	34.891	-0.104	-0.092
-310.924	11.358	-0.197	-0.151
-309.910	117.157	0.127	-0.157
-308.895	-200.000	0.014	-0.240
-307.880	142.592	-0.196	-0.261
-306.866	206.484	0.078	0.121
-305.851	800.000	-0.086	-0.250
-304.837	669.268	0.054	-0.140
-303.822	-69.113	0.387	-0.150
-302.807	-27.238	0.344	0.201
-301.793	-28.280	-0.090	0.052
-300.778	800.000	0.009	-0.037
-299.764	-2.918	-0.258	-0.181
-298.749	63.337	0.029	-0.029
-297.735	-9.374	-0.267	0.179
-296.720	430.814	-0.127	-0.275
-295.705	106.816	0.191	0.228
-294.691	-200.000	-0.017	0.089
-293.676	26.795	0.213	0.179
-292.662	-135.574	-0.170	0.020
-291.647	65.161	-0.081	0.082
-290.632	-104.683	0.322	0.074
-289.618	161.974	-0.038	-0.053
-288.603	-187.791	-0.139	-0.002
-287.589	566.340	0.111	0.270
-286.574	369.301	-0.133	0.270
-285.559	50.292	0.043	-0.041
-284.545	800.000	0.115	0.323
-283.530	589.043	-0.087	0.216
-282.516	295.057	-0.113	-0.207
-281.501	-200.000	-0.003	0.042
-280.486	-172.625	0.194	-0.006
-279.472	518.569	-0.149	0.351
-278.457	22.897	-0.029	0.024
-277.443	54.755	-0.083	-0.081
-276.428	51.491	0.199	-0.189
-275.413	363.216	0.103	0.208
-274.399	-97.254	-0.231	0.060
-273.384	552.026	-0.078	-0.189
-272.370	-71.833	-0.338	-0.126
-271.355	-200.000	-0.009	0.045
-270.340	-147.129	-0.083	0.007
-269.326	204.300	-0.117	-0.182
-268.311	-89.118	0.076	0.022
-267.297	251.905	-0.159	-0.271
-266.282	124.525	0.199	-0.251
-265.267	-124.093	0.219	0.034
-264.253	-178.712	-0.115	0.003
-263.238	-108.796	-0.210	-0.045
-262.224	-200.000	0.074	0.328
-261.209	374.887	-0.109	0.222
-260.195	582.701	-0.138	0.338
-259.180	-152.240	0.123	-0.009
-258.165	295.885	-0.120	-0.220
-257.151	-200.000	0.012	0.183
-256.136	200.003	-0.087	-0.134
-255.122	-49.293	0.089	-0.043
-254.107	51.057	-0.130	0.123
-253.092	-93.428	0.122	-0.034
-252.078	-27.472	-0.069	0.040
-251.063	-44.428	-0.162	0.081
-250.049	46.466	-0.168	-0.156
-249.034	800.000	0.061	0.229
-248.019	-96.655	-0.196	0.052
-247.005	-200.000	-0.020	0.119
-245.990	80.343	0.038	0.040
-244.976	800.000	-0.133	-0.418
-243.961	425.324	0.166	0.358
-242.946	-200.000	-0.026	0.535
-241.932	-20.886	-0.541	0.332
-240.917	307.648	-0.106	-0.197
-239.903	-119.185	-0.258	0.045
-238.888	34.145	0.253	0.220
-237.873	-22.693	0.491	-0.297
-236.859	63.416	0.309	-0.310
-235.844	252.850	0.108	0.185
-234.830	784.280	-0.128	0.350
-233.815	213.335	0.078	-0.124
-232.800	51.741	0.244	-0.232
-231.786	-107.514	-0.220	0.048
-230.771	-43.385	-0.438	0.222
-229.757	10.993	-0.081	0.062
-228.742	636.293	-0.114	-0.289
-227.727	-200.000	0.008	-0.134
-226.713	-88.401	0.324	0.097
-225.698	-44.205	0.107	-0.053
-224.684	-74.428	0.135	-0.049
-223.669	-200.000	0.076	-0.399
-222.655	-54.111	0.440	0.200
-221.640	4.239	0.140	-0.102
-220.625	118.903	-0.211	0.261
-219.611	800.000	0.048	0.202
-218.596	-49.491	-0.122	-0.058
-217.582	377.592	0.129	-0.264
-216.567	133.651	-0.055	0.072
-215.552	-61.361	0.368	0.155
-214.538	-148.332	-0.195	-0.016
-213.523	245.776	-0.104	-0.176
-212.509	-29.651	-0.231	0.132
-211.494	-120.021	-0.257	0.044
-210.479	99.850	-0.117	-0.135
-209.465	-136.013	-0.321	0.038
-208.450	800.000	0.167	0.521
-207.436	516.174	0.172	0.401
-206.421	-100.703	-0.297	0.073
-205.406	-47.100	-0.038	0.019
-204.392	-200.000	0.027	-0.447
-203.377	800.000	-0.097	0.416
-202.363	800.000	-0.020	0.068
-201.348	-200.000	0.059	0.493
-200.333	49.492	-0.176	0.166
-199.319	235.763	0.123	0.203
-198.304	54.197	-0.275	0.265
-197.290	276.961	-0.274	-0.487
-196.275	-77.728	0.047	-0.016
-195.260	-200.000	0.000	-0.025
-194.246	-167.645	0.322	-0.013
-193.231	60.276	0.149	-0.147
-192.217	29.239	0.161	0.136
-191.202	-71.109	-0.215	-0.081
-190.187	443.138	0.213	-0.466
-189.173	8.407	0.126	-0.095
-188.158	-136.717	0.039	-0.004
-187.144	173.167	-0.200	0.288
-186.129	-92.574	0.089	0.025
-185.114	-200.000	0.007	0.420
-184.100	-181.708	-0.339	-0.007
-183.085	-19.379	0.453	0.280
-182.071	-18.176	-0.111	0.070
-181.056	154.091	0.035	-0.047
-180.042	76.948	0.137	0.146
-179.027	-41.850	-0.216	0.110
-178.012	-7.468	-0.125	-0.084
-176.998	64.945	0.095	-0.096
-175.983	745.536	-0.080	0.214
-174.969	723.980	-0.130	-0.345
-173.954	326.252	-0.094	-0.180
-172.939	-14.472	0.365	0.234
-171.925	-200.000	-0.002	0.081
-170.910	-63.680	-0.280	0.115
-169.896	759.438	0.043	0.117
-168.881	123.692	0.022	-0.028
-167.866	-22.716	-0.096	0.058
-166.852	-200.000	-0.036	0.185
-165.837	-200.000	0.011	-0.180
-164.823	-119.368	0.088	-0.015
-163.808	-200.000	-0.016	0.144
-162.793	55.710	0.113	0.110
-161.779	-200.000	0.009	-0.106
-160.764	-90.368	-0.267	-0.077
-159.750	-200.000	-0.066	-0.337
-158.735	-200.000	-0.028	0.232
-157.720	0.790	-0.060	-0.043
-156.706	203.647	-0.148	-0.228
-155.691	-124.351	-0.161	0.025
-154.677	-93.197	-0.113	-0.031
-153.662	-41.414	-0.063	0.032
-152.647	45.745	-0.182	-0.168
-151.633	800.000	0.140	-0.416
-150.618	800.000	-0.187	-0.586
-149.604	-200.000	0.004	-0.029
-148.589	-91.345	0.159	-0.045
-147.574	-85.065	-0.152	0.048
-146.560	498.967	0.051	0.116
-145.545	10.990	0.171	0.130
-144.531	300.217	-0.100	0.184
-143.516	-37.788	-0.281	0.149
-142.502	67.716	0.056	-0.057
-141.487	-39.602	-0.195	0.102
-140.472	800.000	-0.032	-0.110
-139.458	-11.123	-0.091	0.060
-138.443	-118.032	-0.166	0.030
-137.429	14.102	0.102	0.079
-136.414	90.509	0.109	-0.122
-135.399	-146.704	0.353	-0.030
-134.385	190.786	-0.147	0.220
-133.370	-5.269	0.139	0.095
-132.356	-68.440	-0.188	0.073
-131.341	-162.381	-0.156	0.008
-130.326	800.000	-0.025	0.080
-129.312	-126.260	0.132	-0.020
-128.297	-200.000	-0.061	0.383
-127.283	-62.719	0.104	0.043
-126.268	-200.000	0.017	-0.092
-125.253	-116.168	0.217	-0.040
-124.239	-200.000	0.019	0.289
-123.224	-200.000	-0.012	0.166
-122.210	-0.355	-0.048	-0.034
-121.195	584.932	0.109	0.268
-120.180	692.919	-0.092	0.239
