DTS Sentinel unit serial number:	SN413079Multiplexer serial number:	ORYXHardware model number:	OX4-SRSoftware version number:	ORYX F/W v4.00 Oryx Data Collector v3.7.2.0data status	okinstallation	princeton_trtdifferential loss correction	single-endedforward channel	channel 2reverse channel	N/Adate	2019/09/17time	18:23:35forward acquisition time	60.00reverse acquisition time	0.00gamma	496.2192k internal	0.2289k external	0.2289temperature offset calibration	0.9979default loss term (dB/km)	0.3790temperature slope calibration	1.0000multiplexer offset coefficient	1.0000multiplexer slope coefficient	1.0000fibre end	0.00T internal ref (°C)	43.23T ext. ref 1 (°C)	0.30T ext. ref 2 (°C)	36.44length (m)	temperature (°C)	Stokes	anti-Stokes-747.200	-52.227	0.256	-0.122
-746.185	-163.044	-0.297	-0.015
-745.171	-53.383	0.138	-0.065
-744.156	-126.631	-0.077	-0.012
-743.142	-109.345	0.144	-0.031
-742.127	239.343	0.029	0.050
-741.112	-128.501	0.289	0.042
-740.098	423.744	-0.047	0.105
-739.083	147.773	-0.103	-0.142
-738.069	15.987	-0.272	0.220
-737.054	73.196	-0.064	-0.069
-736.039	-23.053	0.055	-0.034
-735.025	-200.000	-0.037	0.177
-734.010	-173.380	-0.462	0.014
-732.996	-200.000	-0.021	0.122
-731.981	-70.225	0.195	0.076
-730.966	-114.965	-0.230	0.045
-729.952	110.712	0.063	-0.078
-728.937	-200.000	0.003	0.056
-727.923	-166.028	-0.062	-0.003
-726.908	149.595	-0.043	0.060
-725.894	-200.000	-0.016	-0.314
-724.879	800.000	0.078	-0.225
-723.864	111.807	-0.028	-0.034
-722.850	595.425	-0.093	-0.235
-721.835	800.000	-0.039	-0.139
-720.821	-18.933	-0.140	0.089
-719.806	-149.987	-0.175	-0.014
-718.791	-123.334	-0.161	0.026
-717.777	-200.000	0.003	-0.156
-716.762	63.477	0.192	-0.197
-715.748	-156.469	-0.211	0.013
-714.733	-200.000	0.012	-0.236
-713.718	-200.000	0.015	-0.116
-712.704	70.919	0.263	-0.279
-711.689	-94.132	-0.345	-0.097
-710.675	566.872	-0.061	0.151
-709.660	800.000	0.027	0.120
-708.645	451.968	0.073	-0.166
-707.631	-25.863	0.182	-0.110
-706.616	250.368	-0.147	-0.255
-705.602	132.494	0.075	0.100
-704.587	800.000	0.047	-0.147
-703.572	-200.000	0.041	0.235
-702.558	83.773	-0.199	0.222
-701.543	317.605	0.100	-0.193
-700.529	361.419	0.044	0.090
-699.514	6.921	-0.158	0.120
-698.499	-53.382	0.158	0.074
-697.485	800.000	-0.113	-0.335
-696.470	-200.000	-0.003	-0.016
-695.456	-69.095	-0.350	-0.138
-694.441	-80.437	-0.223	-0.076
-693.426	-138.275	0.166	0.019
-692.412	-20.762	0.079	-0.050
-691.397	-200.000	-0.032	-0.196
-690.383	-200.000	-0.000	-0.090
-689.368	-82.358	0.102	0.034
-688.354	508.172	0.138	-0.328
-687.339	-109.957	0.105	-0.023
-686.324	0.957	-0.198	0.145
-685.310	800.000	0.059	0.196
-684.295	-22.108	-0.233	-0.145
-683.281	800.000	0.026	0.086
-682.266	9.344	0.188	-0.146
-681.251	-24.463	-0.193	-0.118
-680.237	-124.651	0.098	0.016
-679.222	-15.028	-0.157	0.103
-678.208	234.072	0.116	0.195
-677.193	-81.597	-0.225	0.075
-676.178	-27.308	0.155	-0.092
-675.164	800.000	-0.028	0.080
-674.149	30.574	0.015	0.013
-673.135	125.287	-0.090	-0.116
-672.120	-200.000	0.008	-0.177
-671.105	-200.000	0.007	-0.182
-670.091	85.306	0.238	-0.267
-669.076	-113.095	-0.066	-0.013
-668.062	174.350	0.201	0.297
-667.047	230.820	0.088	0.147
-666.032	-71.918	-0.277	0.105
-665.018	175.410	-0.095	0.140
-664.003	140.490	-0.136	0.184
-662.989	-200.000	-0.027	0.123
-661.974	-182.951	0.225	0.004
-660.959	-200.000	-0.005	-0.231
-659.945	-139.499	-0.264	0.029
-658.930	-93.867	-0.250	-0.070
-657.916	96.291	0.192	-0.225
-656.901	800.000	-0.040	0.166
-655.886	-49.112	0.302	0.148
-654.872	-90.330	-0.202	0.060
-653.857	-200.000	-0.002	0.098
-652.843	800.000	0.030	0.135
-651.828	800.000	0.055	0.200
-650.814	9.150	-0.114	0.088
-649.799	238.148	0.130	0.221
-648.784	-75.544	-0.042	-0.015
-647.770	58.020	-0.105	-0.105
-646.755	23.353	-0.321	0.270
-645.741	-141.592	-0.107	-0.011
-644.726	42.397	-0.165	-0.153
-643.711	236.092	0.256	0.432
-642.697	-200.000	0.035	-0.342
-641.682	240.182	0.095	-0.161
-640.668	-61.508	0.397	0.170
-639.653	800.000	-0.034	-0.145
-638.638	-137.840	-0.594	0.068
-637.624	-82.861	0.324	-0.107
-636.609	61.261	-0.270	0.274
-635.595	83.802	0.150	0.167
-634.580	-200.000	-0.028	-0.201
-633.565	58.558	-0.156	-0.157
-632.551	800.000	-0.020	-0.059
-631.536	800.000	-0.021	-0.082
-630.522	40.468	-0.104	-0.096
-629.507	87.903	-0.112	0.127
-628.492	121.399	-0.038	-0.049
-627.478	286.794	-0.059	-0.108
-626.463	-80.314	-0.207	-0.071
-625.449	-200.000	0.003	-0.038
-624.434	-96.766	-0.330	0.088
-623.419	-72.919	-0.232	0.087
-622.405	-56.789	-0.188	0.085
-621.390	-200.000	0.037	0.321
-620.376	-123.684	0.024	0.004
-619.361	-200.000	-0.044	0.203
-618.346	568.418	-0.127	0.314
-617.332	-200.000	0.015	0.287
-616.317	76.628	-0.230	0.249
-615.303	-4.848	-0.117	0.082
-614.288	199.244	-0.051	-0.080
-613.273	442.418	-0.047	0.105
-612.259	-100.323	-0.383	-0.097
-611.244	-200.000	0.074	-0.413
-610.230	800.000	-0.069	-0.258
-609.215	-124.543	0.257	0.041
-608.201	-200.000	0.004	-0.106
-607.186	265.130	-0.177	-0.315
-606.171	177.612	0.194	-0.288
-605.157	85.423	0.051	-0.058
-604.142	-83.012	0.160	0.053
-603.128	417.453	-0.089	0.193
-602.113	56.835	-0.079	-0.078
-601.098	-200.000	-0.010	-0.226
-600.084	-68.603	0.336	0.133
-599.069	91.350	0.067	0.076
-598.055	408.378	0.067	0.145
-597.040	69.128	-0.099	-0.104
-596.025	-150.383	-0.049	0.004
-595.011	800.000	0.011	0.036
-593.996	800.000	0.035	0.109
-592.982	94.882	0.004	0.004
-591.967	-180.114	-0.207	-0.004
-590.952	-200.000	-0.018	-0.389
-589.938	-200.000	0.007	-0.089
-588.923	597.366	0.143	0.360
-587.909	-200.000	0.080	0.429
-586.894	9.116	0.175	-0.135
-585.879	-83.712	0.057	0.019
-584.865	706.007	-0.060	-0.161
-583.850	319.941	-0.167	0.322
-582.836	711.517	-0.081	0.217
-581.821	-200.000	0.051	0.484
-580.806	-104.655	-0.288	-0.068
-579.792	-45.275	-0.057	-0.029
-578.777	-143.177	-0.174	-0.017
-577.763	367.105	-0.144	0.295
-576.748	-93.192	0.177	0.050
-575.733	-10.419	-0.223	-0.151
-574.719	286.219	-0.053	-0.098
-573.704	-200.000	0.005	-0.287
-572.690	28.422	0.187	-0.161
-571.675	-200.000	0.002	-0.188
-570.661	-80.608	-0.079	0.027
-569.646	-189.497	0.302	-0.004
-568.631	-133.910	-0.251	-0.032
-567.617	-159.995	-0.147	-0.008
-566.602	-200.000	0.043	-0.369
-565.588	800.000	0.077	-0.287
-564.573	-200.000	-0.048	-0.280
-563.558	74.497	-0.125	0.133
-562.544	295.070	0.016	0.030
-561.529	34.032	0.107	-0.095
-560.515	-200.000	0.024	-0.374
-559.500	-129.803	-0.215	0.030
-558.485	181.814	0.120	-0.180
-557.471	800.000	-0.024	0.077
-556.456	187.091	-0.065	-0.099
-555.442	-151.044	0.137	0.011
-554.427	77.751	-0.245	-0.266
-553.412	238.151	-0.026	-0.044
-552.398	-50.904	-0.154	0.074
-551.383	146.150	0.026	-0.036
-550.369	75.639	0.256	0.275
-549.354	-200.000	0.023	-0.224
-548.339	800.000	-0.014	0.055
-547.325	-117.573	0.041	0.008
-546.310	81.332	-0.252	0.277
-545.296	-76.707	0.253	-0.090
-544.281	-105.150	-0.319	-0.074
-543.266	800.000	-0.077	-0.292
-542.252	215.791	0.123	-0.199
-541.237	-116.615	0.371	0.070
-540.223	-200.000	0.008	-0.320
-539.208	-42.060	0.149	-0.078
-538.193	78.100	-0.249	0.270
-537.179	-200.000	0.012	-0.266
-536.164	12.348	0.106	-0.083
-535.150	800.000	0.093	0.399
-534.135	-14.554	0.061	-0.040
-533.121	-200.000	-0.017	0.102
-532.106	16.659	0.387	0.311
-531.091	65.401	0.114	-0.118
-530.077	-200.000	0.005	-0.196
-529.062	75.957	0.241	-0.259
-528.048	9.246	0.313	0.241
-527.033	144.345	-0.063	0.086
-526.018	-48.260	-0.188	0.092
-525.004	687.487	-0.118	-0.314
-523.989	-200.000	-0.042	-0.217
-522.975	704.388	0.223	-0.597
-521.960	-107.463	0.267	-0.059
-520.945	47.946	0.132	-0.125
-519.931	-7.409	0.409	-0.281
-518.916	-105.860	-0.199	-0.046
-517.902	347.977	-0.160	-0.321
-516.887	-47.685	-0.048	-0.024
-515.872	88.780	-0.218	-0.246
-514.858	-151.619	-0.038	-0.003
-513.843	800.000	-0.033	-0.106
-512.829	158.368	0.224	0.316
-511.814	-34.117	0.162	-0.091
-510.799	145.124	-0.171	-0.233
-509.785	107.657	-0.127	0.154
-508.770	156.984	-0.147	0.206
-507.756	-200.000	0.025	0.144
-506.741	124.052	-0.106	-0.135
-505.726	-200.000	0.010	0.232
-504.712	525.480	-0.011	0.025
-503.697	-200.000	0.038	0.351
-502.683	-200.000	-0.116	-0.000
-501.668	-74.291	0.285	-0.105
-500.653	-25.070	-0.131	0.079
-499.639	800.000	-0.035	0.115
-498.624	50.143	0.319	-0.305
-497.610	409.164	0.113	0.243
-496.595	800.000	-0.064	-0.242
-495.581	-66.585	-0.134	-0.054
-494.566	-200.000	-0.001	0.121
-493.551	-200.000	0.015	-0.217
-492.537	-65.906	0.208	-0.085
-491.522	-83.476	0.334	-0.108
-490.508	-84.740	-0.217	0.069
-489.493	173.159	0.160	-0.234
-488.478	385.320	-0.190	0.397
-487.464	-200.000	0.065	0.300
-486.449	-155.888	0.344	0.022
-485.435	-100.978	-0.367	0.091
-484.420	417.293	-0.108	0.235
-483.405	-52.791	0.145	0.068
-482.391	-117.804	-0.116	0.021
-481.376	74.370	-0.141	-0.151
-480.362	-137.056	-0.226	0.026
-479.347	-105.687	0.102	-0.023
-478.332	-148.263	-0.027	-0.002
-477.318	-100.004	-0.082	-0.021
-476.303	-82.942	-0.140	0.046
-475.289	-11.905	-0.298	0.198
-474.274	800.000	0.148	0.471
-473.259	-153.979	0.332	0.023
-472.245	-100.265	-0.108	0.027
-471.230	-200.000	0.001	-0.143
-470.216	177.040	-0.140	-0.206
-469.201	-200.000	-0.012	0.317
-468.186	800.000	0.114	0.480
-467.172	-200.000	-0.033	0.350
-466.157	-150.618	-0.235	0.018
-465.143	-83.274	0.253	0.082
-464.128	136.679	0.107	0.142
-463.113	375.345	-0.173	-0.357
-462.099	714.953	-0.068	-0.184
-461.084	12.312	0.174	0.136
-460.070	376.119	-0.113	-0.234
-459.055	800.000	0.105	0.351
-458.040	800.000	-0.036	0.131
-457.026	800.000	-0.076	-0.322
-456.011	547.874	0.134	0.326
-454.997	-97.128	0.107	-0.028
-453.982	-79.897	0.098	0.033
-452.968	392.430	-0.091	-0.192
-451.953	-200.000	-0.014	-0.121
-450.938	-103.581	-0.380	-0.090
-449.924	-200.000	0.012	-0.243
-448.909	-99.675	0.145	0.037
-447.895	-48.832	0.190	-0.092
-446.880	-81.568	-0.152	0.051
-445.865	-22.930	0.218	-0.133
-444.851	337.894	0.027	-0.053
-443.836	-35.348	-0.055	0.030
-442.822	800.000	0.119	0.344
-441.807	360.360	-0.012	-0.025
-440.792	377.125	-0.121	-0.251
-439.778	-15.422	0.366	-0.237
-438.763	357.207	0.195	0.393
-437.749	442.743	-0.129	-0.286
-436.734	-200.000	-0.043	-0.231
-435.719	135.839	-0.132	-0.174
-434.705	-200.000	-0.039	0.292
-433.690	92.651	0.220	-0.251
-432.676	380.676	-0.193	-0.402
-431.661	-30.021	0.187	0.108
-430.646	180.678	-0.234	0.348
-429.632	-77.949	0.154	-0.054
-428.617	-38.009	0.172	-0.093
-427.603	198.530	-0.131	0.203
-426.588	-133.455	-0.282	-0.036
-425.573	-200.000	0.008	0.289
-424.559	-200.000	0.029	0.232
-423.544	-59.428	-0.266	0.116
-422.530	305.252	0.105	-0.197
-421.515	39.408	0.134	0.121
-420.500	97.614	0.129	0.150
-419.486	325.690	0.166	-0.321
-418.471	-50.493	-0.025	0.012
-417.457	-27.363	0.053	-0.031
-416.442	38.352	0.087	0.079
-415.428	800.000	0.061	0.195
-414.413	-200.000	-0.010	0.293
-413.398	-30.201	0.391	0.225
-412.384	-200.000	-0.019	-0.220
-411.369	234.855	0.054	-0.091
-410.355	-114.419	-0.125	-0.024
-409.340	224.315	0.091	-0.148
-408.325	-4.447	-0.108	-0.076
-407.311	-153.265	-0.090	0.006
-406.296	303.496	-0.072	0.135
-405.282	-200.000	-0.034	-0.171
-404.267	88.701	0.096	-0.108
-403.252	800.000	-0.079	0.317
-402.238	-140.945	-0.147	0.015
-401.223	800.000	0.008	-0.030
-400.209	-85.001	-0.231	0.073
-399.194	-148.286	0.198	-0.016
-398.179	222.567	0.109	-0.178
-397.165	-147.335	0.225	-0.019
-396.150	-71.772	0.275	-0.104
-395.136	-21.709	-0.081	-0.050
-394.121	306.380	0.135	-0.254
-393.106	55.942	0.185	-0.182
-392.092	-200.000	-0.017	0.170
-391.077	-8.766	-0.168	0.114
-390.063	-116.618	0.131	-0.024
-389.048	800.000	-0.076	-0.311
-388.033	18.583	0.037	0.030
-387.019	-86.550	0.218	0.067
-386.004	26.483	0.105	-0.089
-384.990	-200.000	-0.021	-0.283
-383.975	-200.000	-0.025	0.119
-382.960	319.292	0.130	-0.249
-381.946	-81.017	-0.281	-0.094
-380.931	48.341	-0.120	-0.114
-379.917	18.331	-0.314	0.253
-378.902	420.989	0.046	-0.100
-377.888	-60.404	0.169	-0.073
-376.873	357.133	0.039	-0.079
-375.858	4.346	-0.159	-0.118
-374.844	-37.364	-0.364	0.196
-373.829	800.000	-0.055	0.198
-372.815	681.671	0.041	0.108
-371.800	-96.123	0.380	0.102
-370.785	-200.000	0.060	0.379
-369.771	-118.173	0.147	-0.026
-368.756	-28.485	-0.179	0.104
-367.742	402.634	-0.113	0.240
-366.727	-123.951	0.021	-0.003
-365.712	295.031	0.098	-0.181
-364.698	-100.668	0.299	0.075
-363.683	96.698	-0.232	0.269
-362.669	104.526	-0.020	0.023
-361.654	232.921	-0.107	0.177
-360.639	74.344	0.208	0.221
-359.625	2.451	0.055	-0.041
-358.610	-177.728	-0.333	0.008
-357.596	-39.756	0.218	-0.115
-356.581	29.135	-0.019	0.016
-355.566	-200.000	-0.020	0.133
-354.552	-200.000	0.000	0.063
-353.537	-131.914	0.167	-0.022
-352.523	202.374	-0.099	0.154
-351.508	800.000	-0.152	-0.429
-350.493	-23.143	-0.091	0.055
-349.479	-46.244	-0.207	0.103
-348.464	71.484	-0.157	0.165
-347.450	-16.928	-0.394	-0.252
-346.435	97.212	-0.174	0.202
-345.420	800.000	0.069	-0.226
-344.406	-28.250	0.172	-0.100
-343.391	236.602	-0.043	0.071
-342.377	-200.000	0.030	-0.202
-341.362	65.691	0.123	-0.126
-340.348	-20.027	-0.355	-0.221
-339.333	86.972	0.052	0.058
-338.318	-200.000	-0.019	0.291
-337.304	35.714	-0.095	0.084
-336.289	148.977	-0.208	0.284
-335.275	393.027	-0.174	-0.365
-334.260	26.433	-0.247	0.209
-333.245	3.098	-0.093	0.068
-332.231	76.246	0.085	-0.091
-331.216	71.783	-0.293	-0.307
-330.202	-200.000	0.035	-0.250
-329.187	-42.158	-0.129	-0.066
-328.172	141.316	0.119	0.158
-327.158	556.681	-0.075	-0.182
-326.143	-111.849	-0.114	-0.023
-325.129	-104.837	0.435	-0.101
-324.114	-200.000	-0.057	-0.316
-323.099	-108.501	-0.099	0.021
-322.085	581.805	-0.043	0.106
-321.070	584.945	-0.105	0.261
-320.056	108.721	0.083	-0.100
-319.041	800.000	0.183	-0.524
-318.026	-72.370	-0.114	-0.042
-317.012	-152.926	-0.391	0.028
-315.997	-111.657	0.273	0.056
-314.983	219.255	-0.045	-0.072
-313.968	86.798	-0.157	-0.175
-312.953	-200.000	0.017	0.125
-311.939	-200.000	0.041	-0.378
-310.924	172.783	0.021	-0.031
-309.910	40.650	0.142	-0.129
-308.895	-18.470	-0.249	0.156
-307.880	-200.000	0.026	0.319
-306.866	-28.049	-0.209	-0.122
-305.851	41.352	-0.169	-0.154
-304.837	-200.000	-0.008	-0.095
-303.822	171.370	0.058	-0.083
-302.807	371.774	0.076	0.155
-301.793	13.974	-0.184	0.144
-300.778	-200.000	0.010	0.142
-299.764	128.172	-0.084	0.107
-298.749	162.241	-0.193	-0.273
-297.735	-94.168	0.247	-0.068
-296.720	223.981	0.052	0.084
-295.705	-200.000	-0.035	-0.208
-294.691	-125.259	0.368	-0.057
-293.676	331.811	-0.031	0.060
-292.662	293.325	0.137	0.252
-291.647	-110.737	-0.239	0.050
-290.632	-158.527	0.047	-0.003
-289.618	-111.735	0.457	0.093
-288.603	642.386	-0.010	0.024
-287.589	44.766	0.089	-0.082
-286.574	-200.000	-0.002	-0.265
-285.559	-9.525	-0.137	0.092
-284.545	128.891	-0.075	-0.097
-283.530	-51.145	0.080	0.038
-282.516	-18.344	-0.251	0.158
-281.501	-29.475	0.169	-0.097
-280.486	-200.000	0.008	0.176
-279.472	-200.000	-0.008	0.494
-278.457	-63.443	0.263	-0.109
-277.443	-200.000	0.003	0.021
-276.428	162.990	-0.201	0.284
-275.413	800.000	-0.051	0.194
-274.399	-200.000	-0.002	-0.332
-273.384	314.479	-0.109	-0.206
-272.370	-10.354	-0.215	0.143
-271.355	-200.000	0.085	-0.464
-270.340	-27.749	-0.236	0.138
-269.326	-200.000	0.034	-0.181
-268.311	-200.000	-0.008	0.107
-267.297	169.128	0.129	-0.185
-266.282	-200.000	0.020	0.247
-265.267	-144.291	0.236	-0.022
-264.253	595.718	0.056	0.139
-263.238	-85.023	-0.305	0.096
-262.224	-164.783	-0.245	0.011
-261.209	492.252	-0.034	0.079
-260.195	-172.771	0.402	-0.013
-259.180	-30.818	0.233	0.132
-258.165	-13.682	0.034	-0.022
-257.151	257.630	-0.174	0.301
-256.136	57.319	0.106	0.104
-255.122	-173.377	-0.176	-0.005
-254.107	534.780	-0.116	0.275
-253.092	71.551	-0.094	-0.098
-252.078	-200.000	-0.002	-0.125
-251.063	800.000	-0.071	0.253
-250.049	-26.209	0.204	0.121
-249.034	-120.899	0.351	-0.059
-248.019	-62.623	-0.191	-0.080
-247.005	-200.000	-0.052	0.265
-245.990	155.584	0.269	0.372
-244.976	396.867	0.059	-0.124
-243.961	-116.362	0.182	0.034
-242.946	66.648	0.236	0.241
-241.932	-51.776	0.061	-0.029
-240.917	-85.419	-0.262	-0.082
-239.903	-95.439	0.442	-0.119
-238.888	-68.875	-0.238	0.093
-237.873	-200.000	-0.019	-0.155
-236.859	247.426	-0.077	-0.130
-235.844	-200.000	-0.037	-0.184
-234.830	-6.083	0.117	0.080
-233.815	173.957	0.097	-0.141
-232.800	126.487	0.130	0.166
-231.786	-200.000	0.061	0.291
-230.771	-200.000	-0.020	-0.239
-229.757	-17.624	-0.245	-0.154
-228.742	-80.347	-0.244	-0.082
-227.727	-112.564	0.262	-0.052
-226.713	-42.180	0.102	0.052
-225.698	141.254	-0.228	0.303
-224.684	800.000	0.070	0.200
-223.669	800.000	0.106	0.316
-222.655	-114.361	0.213	0.041
-221.640	167.611	0.014	0.020
-220.625	-102.849	0.184	0.044
-219.611	200.551	0.114	0.176
-218.596	-200.000	0.003	-0.307
-217.582	-41.577	-0.120	-0.062
-216.567	290.964	0.033	-0.061
-215.552	-112.198	0.417	-0.084
-214.538	-95.523	0.155	-0.042
-213.523	15.846	-0.133	-0.105
-212.509	175.035	-0.156	0.227
-211.494	-200.000	0.014	-0.149
-210.479	64.273	0.148	0.150
-209.465	527.642	0.014	0.034
-208.450	20.943	-0.451	-0.367
-207.436	119.926	0.144	-0.179
-206.421	-163.930	0.327	-0.015
-205.406	16.273	0.063	0.050
-204.392	-58.871	0.547	-0.237
-203.377	52.884	0.213	-0.204
-202.363	-57.432	-0.265	0.117
-201.348	-200.000	0.037	-0.164
-200.333	-132.797	-0.154	0.020
-199.319	650.757	-0.149	-0.384
-198.304	325.179	-0.076	-0.145
-197.290	78.016	-0.187	0.200
-196.275	-200.000	-0.007	0.047
-195.260	42.965	0.086	-0.079
-194.246	458.224	-0.056	-0.125
-193.231	-23.645	0.211	0.127
-192.217	-200.000	0.042	0.247
-191.202	-102.815	-0.338	-0.081
-190.187	-115.670	0.235	0.044
-189.173	38.920	-0.411	0.368
-188.158	79.066	-0.220	-0.237
-187.144	800.000	0.050	0.168
-186.129	-50.083	-0.105	0.050
-185.114	254.332	0.075	0.129
-184.100	286.178	0.094	0.170
-183.085	800.000	-0.061	0.244
-182.071	-23.926	-0.247	-0.148
-181.056	-99.414	0.174	-0.044
-180.042	27.240	0.224	-0.189
-179.027	-6.006	0.168	0.115
-178.012	112.575	0.172	-0.209
-176.998	1.545	0.112	0.081
-175.983	-200.000	-0.001	0.005
-174.969	164.702	0.076	-0.108
-173.954	22.610	0.098	0.081
-172.939	268.370	-0.149	-0.263
-171.925	-200.000	-0.079	-0.486
-170.910	179.330	-0.070	-0.102
-169.896	64.722	0.237	0.239
-168.881	60.029	0.163	-0.161
-167.866	-163.636	0.188	0.009
-166.852	186.832	-0.226	-0.338
-165.837	-93.143	0.309	0.086
-164.823	-200.000	-0.014	0.092
-163.808	-15.248	-0.271	0.174
-162.793	800.000	-0.049	0.157
-161.779	128.757	0.153	0.196
-160.764	-153.878	0.211	-0.014
-159.750	68.015	-0.112	0.115
-158.735	-45.868	-0.092	-0.046
-157.720	37.980	0.106	-0.094
-156.706	510.461	-0.099	0.231
-155.691	94.093	0.187	0.212
-154.677	800.000	0.140	0.422
-153.662	-38.797	-0.123	0.065
-152.647	296.663	0.102	0.187
-151.633	202.109	-0.036	0.056
-150.618	-200.000	0.006	0.350
-149.604	34.905	0.093	0.081
-148.589	-200.000	-0.014	-0.302
-147.574	270.063	0.142	-0.250
-146.560	-76.162	0.365	-0.129
-145.545	615.453	0.114	-0.287
-144.531	-200.000	0.022	-0.162
-143.516	800.000	-0.035	-0.116
-142.502	-200.000	0.070	0.414
-141.487	50.773	0.175	0.166
-140.472	78.376	0.110	-0.118
-139.458	-122.583	0.304	-0.049
-138.443	-95.913	-0.355	-0.095
-137.429	76.705	-0.056	-0.059
-136.414	93.002	-0.061	-0.069
-135.399	-64.669	0.224	0.091
-134.385	-6.279	0.176	0.120
-133.370	42.511	0.177	-0.161
-132.356	-13.535	-0.191	0.124
-131.341	-137.087	-0.227	-0.026
-130.326	66.755	0.180	-0.183
-129.312	98.245	-0.084	-0.097
-128.297	24.337	-0.245	0.202
-127.283	800.000	0.054	0.160
-126.268	20.700	0.096	0.078
-125.253	-78.656	-0.201	0.069
-124.239	-104.642	0.264	0.061
-123.224	-150.716	0.292	0.022
-122.210	-200.000	-0.017	0.094
-121.195	-200.000	0.018	0.117
