DTS Sentinel unit serial number:	SN413079Multiplexer serial number:	ORYXHardware model number:	OX4-SRSoftware version number:	ORYX F/W v4.00 Oryx Data Collector v3.7.2.0data status	okinstallation	princeton_trtdifferential loss correction	single-endedforward channel	channel 2reverse channel	N/Adate	2019/09/17time	05:47:34forward acquisition time	60.00reverse acquisition time	0.00gamma	496.2192k internal	0.2330k external	0.2330temperature offset calibration	0.9977default loss term (dB/km)	0.3790temperature slope calibration	1.0000multiplexer offset coefficient	1.0000multiplexer slope coefficient	1.0000fibre end	0.00T internal ref (°C)	29.00T ext. ref 1 (°C)	0.14T ext. ref 2 (°C)	22.81length (m)	temperature (°C)	Stokes	anti-Stokes-747.200	353.592	-0.182	-0.363
-746.185	175.031	-0.240	0.350
-745.171	129.033	0.197	-0.254
-744.156	28.075	0.030	0.026
-743.142	-96.091	-0.361	0.097
-742.127	316.038	-0.169	0.322
-741.112	131.004	0.074	-0.095
-740.098	95.347	0.369	0.423
-739.083	686.857	0.125	-0.328
-738.069	-41.540	0.225	0.116
-737.054	153.147	-0.166	-0.228
-736.039	100.694	-0.123	0.144
-735.025	800.000	0.068	0.223
-734.010	-63.177	-0.192	0.080
-732.996	-200.000	-0.008	-0.112
-731.981	56.765	-0.099	0.097
-730.966	-109.445	0.179	0.038
-729.952	-97.866	0.267	0.069
-728.937	-141.346	0.160	-0.016
-727.923	-85.705	-0.304	0.095
-726.908	-42.692	-0.769	-0.394
-725.894	37.077	-0.177	-0.157
-724.879	60.241	-0.183	0.182
-723.864	-16.359	0.258	0.165
-722.850	169.123	0.048	0.069
-721.835	-200.000	-0.078	-0.374
-720.821	58.145	0.073	-0.072
-719.806	55.197	-0.287	0.280
-718.791	-200.000	-0.067	0.000
-717.777	-30.605	0.311	-0.177
-716.762	348.105	-0.096	-0.190
-715.748	50.274	-0.234	-0.222
-714.733	163.023	-0.070	0.100
-713.718	680.197	0.048	-0.126
-712.704	-58.419	-0.134	0.059
-711.689	14.811	0.083	0.065
-710.675	-181.171	0.386	0.008
-709.660	167.082	-0.078	0.111
-708.645	-0.327	0.454	-0.324
-707.631	-40.551	-0.248	0.129
-706.616	-95.817	-0.098	-0.026
-705.602	-130.613	-0.272	-0.037
-704.587	-62.289	-0.048	-0.020
-703.572	-57.813	-0.242	-0.106
-702.558	483.547	0.113	-0.259
-701.543	-186.957	-0.169	-0.002
-700.529	-65.297	-0.142	0.058
-699.514	312.111	-0.029	-0.054
-698.499	108.689	0.219	-0.263
-697.485	-45.434	-0.266	0.133
-696.470	162.167	0.128	-0.180
-695.456	61.273	-0.142	0.142
-694.441	-200.000	-0.019	0.222
-693.426	191.198	-0.131	0.198
-692.412	-44.267	-0.215	-0.109
-691.397	391.276	-0.041	-0.086
-690.383	-76.817	0.195	0.069
-689.368	454.580	0.176	0.391
-688.354	34.252	0.261	-0.229
-687.339	-57.874	0.156	0.069
-686.324	141.794	-0.121	0.162
-685.310	62.833	0.271	-0.272
-684.295	-73.220	0.290	-0.107
-683.281	-85.880	-0.278	0.086
-682.266	-122.555	-0.096	0.016
-681.251	51.921	-0.134	-0.128
-680.237	17.184	0.100	-0.080
-679.222	540.448	0.042	-0.101
-678.208	146.813	0.144	-0.195
-677.193	19.446	0.179	-0.144
-676.178	46.413	0.156	-0.145
-675.164	-200.000	-0.029	-0.264
-674.149	-160.286	-0.255	0.014
-673.135	-200.000	0.001	0.188
-672.120	800.000	0.007	-0.019
-671.105	-130.331	-0.213	-0.029
-670.091	83.396	-0.206	0.225
-669.076	244.864	0.113	0.191
-668.062	-200.000	0.038	0.428
-667.047	-85.885	0.235	-0.073
-666.032	284.006	-0.095	-0.172
-665.018	21.637	-0.230	0.188
-664.003	-11.100	-0.255	0.169
-662.989	-153.797	0.194	-0.013
-661.974	217.577	-0.100	-0.160
-660.959	-24.294	-0.393	0.236
-659.945	-66.289	-0.135	0.054
-658.930	39.352	-0.158	0.142
-657.916	70.223	-0.151	0.156
-656.901	358.854	-0.115	-0.231
-655.886	316.656	0.078	-0.148
-654.872	-200.000	0.041	0.209
-653.857	90.578	-0.167	-0.187
-652.843	-53.636	-0.255	-0.117
-651.828	-154.664	0.202	-0.013
-650.814	-50.227	0.242	-0.115
-649.799	649.727	-0.118	-0.304
-648.784	431.332	0.076	0.166
-647.770	-200.000	-0.234	0.001
-646.755	-108.770	-0.135	0.029
-645.741	-143.034	0.229	-0.022
-644.726	-15.794	0.238	0.152
-643.711	94.641	-0.315	-0.359
-642.697	-59.934	0.145	0.062
-641.682	-200.000	0.036	0.243
-640.668	41.646	0.072	0.065
-639.653	-72.434	-0.042	0.016
-638.638	-88.096	-0.252	0.076
-637.624	-33.812	0.152	-0.084
-636.609	-143.389	-0.301	-0.029
-635.595	800.000	0.127	0.370
-634.580	-135.496	-0.248	-0.030
-633.565	12.996	0.106	0.082
-632.551	800.000	0.103	0.298
-631.536	800.000	0.006	0.018
-630.522	200.022	-0.022	-0.034
-629.507	2.538	0.125	0.091
-628.492	-200.000	0.024	-0.146
-627.478	-75.244	0.162	0.058
-626.463	-200.000	-0.028	-0.287
-625.449	-77.477	0.181	-0.063
-624.434	347.938	0.019	-0.038
-623.419	-200.000	-0.042	0.544
-622.405	-83.761	-0.147	-0.047
-621.390	-87.637	0.208	-0.063
-620.376	-200.000	0.031	-0.144
-619.361	170.315	-0.036	0.051
-618.346	-51.826	-0.104	0.049
-617.332	-6.165	0.269	0.184
-616.317	74.695	0.179	0.189
-615.303	-107.310	-0.334	0.074
-614.288	38.564	0.100	-0.089
-613.273	-200.000	0.034	0.420
-612.259	-200.000	-0.040	-0.452
-611.244	800.000	0.041	0.141
-610.230	431.320	0.154	0.333
-609.215	-71.237	-0.117	-0.044
-608.201	-70.079	0.018	0.007
-607.186	-200.000	0.007	-0.282
-606.171	-62.624	-0.573	-0.238
-605.157	-116.959	-0.170	-0.031
-604.142	630.246	0.193	-0.489
-603.128	122.198	-0.241	0.302
-602.113	372.194	-0.072	0.145
-601.098	43.806	-0.046	0.042
-600.084	103.207	-0.089	0.105
-599.069	773.083	-0.071	0.194
-598.055	118.878	-0.025	-0.031
-597.040	-159.705	0.292	-0.016
-596.025	7.090	0.222	-0.165
-595.011	800.000	-0.020	-0.064
-593.996	-98.522	0.285	-0.073
-592.982	-200.000	0.026	-0.467
-591.967	788.383	-0.065	0.178
-590.952	-200.000	-0.046	0.217
-589.938	-20.267	0.243	-0.150
-588.923	10.075	-0.135	0.103
-587.909	-151.473	-0.048	0.004
-586.894	-36.061	0.155	0.084
-585.879	-83.789	0.108	0.035
-584.865	43.896	-0.502	0.460
-583.850	43.890	-0.230	-0.211
-582.836	9.657	0.155	-0.117
-581.821	-200.000	-0.025	0.246
-580.806	9.633	-0.266	-0.202
-579.792	45.187	0.224	0.207
-578.777	11.614	-0.101	-0.078
-577.763	83.406	-0.344	-0.375
-576.748	175.488	-0.272	0.395
-575.733	54.616	-0.061	-0.058
-574.719	110.937	0.136	-0.164
-573.704	800.000	0.069	-0.236
-572.690	121.593	-0.078	0.097
-571.675	-0.515	-0.135	0.096
-570.661	624.290	-0.131	-0.329
-569.646	-22.087	0.169	0.103
-568.631	-98.216	-0.158	0.040
-567.617	-125.166	-0.096	-0.015
-566.602	251.036	0.074	-0.125
-565.588	168.176	-0.118	0.168
-564.573	10.632	0.100	0.076
-563.558	-62.715	-0.233	0.097
-562.544	158.649	-0.034	-0.047
-561.529	59.507	0.190	0.187
-560.515	-200.000	0.003	0.235
-559.500	800.000	0.027	0.078
-558.485	186.907	0.036	-0.053
-557.471	-151.860	0.336	-0.025
-556.456	-14.735	-0.176	0.113
-555.442	79.404	0.154	0.165
-554.427	-200.000	-0.016	-0.208
-553.412	781.431	0.037	-0.102
-552.398	65.249	0.114	0.116
-551.383	-30.441	0.044	0.025
-550.369	48.081	-0.158	-0.148
-549.354	-113.008	-0.107	-0.021
-548.339	-200.000	-0.006	0.110
-547.325	-114.588	0.150	-0.029
-546.310	-54.638	-0.258	-0.116
-545.296	-76.138	0.302	-0.106
-544.281	33.386	-0.382	-0.332
-543.266	-200.000	-0.016	-0.378
-542.252	-0.157	0.156	-0.111
-541.237	800.000	0.054	-0.171
-540.223	-64.308	-0.296	-0.120
-539.208	81.403	-0.217	-0.234
-538.193	-200.000	-0.005	0.192
-537.179	199.763	0.272	0.417
-536.164	119.729	-0.132	-0.164
-535.150	217.399	0.093	-0.147
-534.135	-55.593	0.111	-0.050
-533.121	-76.913	-0.303	-0.106
-532.106	242.956	0.066	0.111
-531.091	259.796	-0.152	0.261
-530.077	-200.000	0.042	-0.478
-529.062	-120.189	-0.119	0.020
-528.048	-151.723	-0.212	-0.016
-527.033	800.000	0.033	-0.123
-526.018	-28.904	0.232	0.133
-525.004	-25.323	-0.164	0.097
-523.989	-109.734	0.105	0.022
-522.975	89.488	-0.127	0.141
-521.960	-189.897	0.315	-0.004
-520.945	349.176	-0.100	-0.197
-519.931	204.361	0.043	0.066
-518.916	-93.079	-0.319	-0.089
-517.902	569.284	0.160	-0.389
-516.887	36.264	-0.084	0.074
-515.872	1.412	-0.354	0.254
-514.858	-23.357	-0.110	-0.066
-513.843	-0.685	0.171	-0.121
-512.829	-128.576	-0.171	0.024
-511.814	800.000	-0.041	0.140
-510.799	309.034	-0.075	0.140
-509.785	96.033	-0.155	0.176
-508.770	-84.864	0.241	0.075
-507.756	800.000	-0.063	0.241
-506.741	-200.000	0.018	0.116
-505.726	-135.326	-0.101	0.012
-504.712	-200.000	0.046	0.255
-503.697	-109.869	0.156	-0.033
-502.683	-124.837	0.333	0.051
-501.668	-200.000	0.031	0.160
-500.653	192.246	0.056	0.084
-499.639	51.234	0.205	-0.194
-498.624	-101.893	0.286	0.069
-497.610	-72.210	-0.080	0.030
-496.595	-200.000	-0.010	0.222
-495.581	800.000	-0.089	-0.315
-494.566	69.815	-0.182	-0.187
-493.551	81.017	0.243	0.262
-492.537	-168.259	0.246	-0.009
-491.522	800.000	0.037	-0.115
-490.508	178.986	0.117	-0.171
-489.493	6.263	0.137	-0.101
-488.478	385.156	-0.038	0.078
-487.464	-122.295	0.492	0.080
-486.449	50.958	0.184	-0.174
-485.435	182.233	-0.028	0.042
-484.420	226.947	0.105	-0.170
-483.405	-200.000	0.015	0.157
-482.391	473.332	-0.108	0.242
-481.376	-38.248	0.250	-0.132
-480.362	534.149	-0.144	0.340
-479.347	-94.319	-0.247	-0.067
-478.332	-30.486	0.380	0.214
-477.318	-31.729	-0.333	-0.186
-476.303	-200.000	0.003	-0.102
-475.289	-200.000	0.000	0.283
-474.274	-10.597	-0.212	0.140
-473.259	39.061	-0.037	-0.033
-472.245	-200.000	-0.067	0.401
-471.230	173.410	-0.183	0.263
-470.216	800.000	0.005	0.022
-469.201	-20.146	-0.185	0.113
-468.186	128.659	0.118	-0.150
-467.172	-185.673	-0.227	-0.003
-466.157	-115.869	-0.202	-0.038
-465.143	-119.909	-0.242	-0.041
-464.128	31.176	-0.341	0.291
-463.113	-200.000	0.017	-0.264
-462.099	-52.532	0.078	-0.036
-461.084	-185.104	-0.085	-0.001
-460.070	447.291	-0.118	0.259
-459.055	-200.000	0.038	-0.180
-458.040	337.025	-0.040	0.078
-457.026	323.904	0.148	0.282
-456.011	-5.015	0.125	-0.086
-454.997	73.459	-0.263	-0.274
-453.982	128.580	0.084	0.106
-452.968	405.312	0.072	-0.151
-451.953	35.246	-0.273	-0.238
-450.938	-72.663	-0.309	0.114
-449.924	-153.583	-0.257	0.018
-448.909	-34.531	-0.146	-0.080
-447.895	-198.615	0.400	0.002
-446.880	-24.874	0.078	0.046
-445.865	172.401	0.110	-0.157
-444.851	641.798	-0.027	0.070
-443.836	-200.000	0.010	-0.083
-442.822	138.231	-0.099	-0.129
-441.807	101.296	0.054	0.062
-440.792	800.000	0.034	-0.126
-439.778	-131.227	0.276	0.036
-438.763	41.586	-0.141	0.127
-437.749	-107.665	-0.142	0.031
-436.734	800.000	-0.134	-0.504
-435.719	-200.000	0.021	-0.111
-434.705	-70.873	0.170	-0.064
-433.690	671.687	-0.039	0.101
-432.676	800.000	-0.054	0.202
-431.661	800.000	-0.050	-0.176
-430.646	-200.000	0.034	-0.363
-429.632	-161.452	-0.044	0.002
-428.617	347.354	0.179	-0.351
-427.603	-62.009	0.092	0.038
-426.588	-200.000	-0.043	-0.229
-425.573	-14.575	0.177	0.113
-424.559	800.000	0.081	-0.269
-423.544	800.000	0.080	-0.254
-422.530	782.273	0.087	0.237
-421.515	-200.000	-0.032	0.148
-420.500	356.503	0.093	-0.185
-419.486	129.552	0.054	-0.068
-418.471	-200.000	0.004	-0.029
-417.457	-10.150	-0.218	0.144
-416.442	-88.900	-0.328	0.097
-415.428	-200.000	0.009	0.045
-414.413	-144.200	0.102	0.010
-413.398	-107.905	-0.200	0.043
-412.384	48.351	-0.130	-0.121
-411.369	-81.807	0.277	0.090
-410.355	-176.509	0.521	0.013
-409.340	57.181	0.237	-0.229
-408.325	-200.000	0.041	0.602
-407.311	352.993	-0.055	0.109
-406.296	155.264	0.154	-0.211
-405.282	-11.087	-0.177	-0.116
-404.267	57.984	-0.076	0.074
-403.252	-91.740	-0.271	0.077
-402.238	-22.533	0.123	0.074
-401.223	-200.000	-0.001	-0.581
-400.209	-200.000	-0.043	0.323
-399.194	457.676	-0.063	-0.139
-398.179	-56.135	-0.164	0.073
-397.165	-174.272	0.114	0.003
-396.150	-116.670	-0.218	0.040
-395.136	198.165	-0.121	-0.184
-394.121	-22.425	0.080	-0.048
-393.106	800.000	0.093	0.272
-392.092	-108.201	-0.108	0.023
-391.077	-200.000	-0.093	0.493
-390.063	90.791	-0.320	0.357
-389.048	-48.102	-0.057	-0.027
-388.033	-139.960	0.330	0.035
-387.019	265.380	-0.109	0.188
-386.004	-9.935	-0.330	0.218
-384.990	-33.506	-0.062	0.034
-383.975	-132.760	-0.063	-0.008
-382.960	499.622	-0.151	-0.347
-381.946	11.810	0.119	-0.090
-380.931	41.500	-0.061	-0.055
-379.917	-93.200	0.307	0.085
-378.902	188.558	-0.100	-0.148
-377.888	16.315	-0.226	0.177
-376.873	800.000	0.110	0.318
-375.858	800.000	0.056	0.174
-374.844	391.060	-0.035	-0.071
-373.829	69.203	0.115	-0.117
-372.815	-165.155	0.108	0.005
-371.800	109.890	0.134	0.160
-370.785	-35.520	-0.303	-0.163
-369.771	-200.000	-0.013	-0.079
-368.756	109.807	0.064	-0.077
-367.742	182.551	0.170	-0.248
-366.727	150.665	0.151	0.203
-365.712	-200.000	-0.014	0.218
-364.698	-18.470	-0.225	0.139
-363.683	-65.391	-0.020	0.008
-362.669	46.799	0.054	0.050
-361.654	293.647	0.074	0.135
-360.639	291.982	-0.136	-0.246
-359.625	-128.256	0.180	0.026
-358.610	93.559	-0.216	-0.243
-357.596	-200.000	-0.058	0.284
-356.581	-22.029	0.134	0.081
-355.566	-81.716	-0.186	-0.060
-354.552	-200.000	0.007	-0.138
-353.537	112.179	0.173	0.208
-352.523	691.563	0.075	-0.195
-351.508	800.000	-0.018	0.065
-350.493	-131.168	-0.204	0.027
-349.479	-84.597	0.312	0.097
-348.464	-200.000	0.048	-0.354
-347.450	177.222	-0.076	-0.110
-346.435	0.551	-0.281	0.199
-345.420	277.105	-0.058	0.102
-344.406	800.000	0.019	-0.065
-343.391	-200.000	-0.027	-0.149
-342.377	-107.319	0.088	-0.019
-341.362	-200.000	0.029	0.178
-340.348	-200.000	-0.015	-0.167
-339.333	800.000	0.153	-0.419
-338.318	-200.000	-0.049	0.231
-337.304	-55.659	-0.207	0.092
-336.289	800.000	0.072	0.213
-335.275	-200.000	0.004	-0.297
-334.260	72.157	-0.133	-0.137
-333.245	-26.016	0.115	-0.067
-332.231	800.000	0.047	0.187
-331.216	163.670	-0.062	-0.086
-330.202	187.977	-0.050	-0.074
-329.187	-200.000	-0.066	0.335
-328.172	-99.650	-0.177	-0.044
-327.158	-13.890	-0.069	0.044
-326.143	427.964	-0.014	0.030
-325.129	-59.198	-0.406	-0.173
-324.114	-200.000	-0.008	0.190
-323.099	307.860	0.124	0.230
-322.085	646.550	0.146	0.370
-321.070	280.267	0.050	0.089
-320.056	7.120	-0.105	0.078
-319.041	-168.695	-0.190	0.007
-318.026	-141.631	-0.129	-0.013
-317.012	131.957	-0.141	0.180
-315.997	-76.729	-0.160	0.055
-314.983	180.705	0.077	-0.112
-313.968	-200.000	0.025	0.212
-312.953	-200.000	0.007	0.090
-311.939	800.000	-0.019	0.073
-310.924	-162.984	0.047	0.002
-309.910	84.193	0.061	0.066
-308.895	-108.900	0.300	-0.063
-307.880	-47.445	0.142	-0.068
-306.866	-59.847	0.228	-0.097
-305.851	-33.848	-0.289	-0.157
-304.837	271.321	-0.065	0.114
-303.822	-200.000	0.006	-0.095
-302.807	-71.776	0.044	-0.016
-301.793	22.615	0.268	-0.217
-300.778	-162.662	-0.387	-0.019
-299.764	204.854	-0.092	0.141
-298.749	-200.000	-0.079	0.352
-297.735	-102.627	0.258	0.061
-296.720	-137.791	0.261	0.029
-295.705	800.000	-0.013	0.045
-294.691	-19.015	0.140	-0.086
-293.676	-149.377	0.415	0.033
-292.662	-35.967	0.191	0.102
-291.647	-70.108	0.170	0.064
-290.632	78.917	-0.108	-0.115
-289.618	362.761	-0.137	0.271
-288.603	10.637	0.126	0.095
-287.589	-47.230	-0.162	-0.078
-286.574	-103.659	0.120	-0.028
-285.559	-165.204	0.139	0.006
-284.545	-37.642	-0.135	-0.071
-283.530	800.000	0.099	-0.273
-282.516	-200.000	-0.035	0.171
-281.501	227.032	-0.117	0.188
-280.486	195.182	0.051	0.077
-279.472	38.106	0.214	0.188
-278.457	91.200	-0.134	-0.148
-277.443	170.946	0.098	-0.138
-276.428	206.287	0.213	0.327
-275.413	62.177	-0.133	0.131
-274.399	-19.607	0.214	-0.131
-273.384	521.632	-0.045	-0.105
-272.370	186.933	0.140	0.206
-271.355	-200.000	0.014	-0.084
-270.340	37.134	-0.113	-0.099
-269.326	-132.874	0.127	-0.016
-268.311	800.000	-0.112	-0.391
-267.297	800.000	-0.046	-0.185
-266.282	351.473	-0.106	0.207
-265.267	85.277	0.018	0.020
-264.253	153.898	0.194	-0.263
-263.238	220.883	0.173	-0.274
-262.224	-12.386	0.345	0.223
-261.209	222.896	-0.094	-0.149
-260.195	-104.046	0.070	-0.016
-259.180	159.447	-0.139	0.191
-258.165	127.500	0.417	-0.523
-257.151	-127.951	-0.088	0.012
-256.136	12.304	-0.085	0.065
-255.122	800.000	-0.114	-0.328
-254.107	323.163	-0.093	0.175
-253.092	-200.000	-0.017	0.175
-252.078	-24.169	0.057	0.034
-251.063	-200.000	-0.006	-0.070
-250.049	800.000	0.060	-0.223
-249.034	800.000	0.155	-0.455
-248.019	-200.000	-0.003	-0.177
-247.005	-76.460	-0.141	-0.049
-245.990	-154.555	0.092	0.006
-244.976	647.366	-0.085	0.214
-243.961	268.433	-0.039	-0.068
-242.946	31.788	-0.180	-0.153
-241.932	800.000	-0.040	0.119
-240.917	-200.000	0.004	-0.073
-239.903	-200.000	-0.028	0.239
-238.888	82.856	0.139	0.149
-237.873	-10.677	0.099	-0.064
-236.859	700.935	0.118	-0.306
-235.844	-156.841	-0.149	-0.009
-234.830	-182.461	-0.374	-0.007
-233.815	305.890	0.116	0.213
-232.800	-200.000	-0.046	-0.263
-231.786	-64.084	-0.258	-0.104
-230.771	327.701	0.145	-0.274
-229.757	422.567	0.077	-0.164
-228.742	42.162	0.285	0.255
-227.727	299.413	0.071	0.128
-226.713	62.232	-0.082	-0.081
-225.698	218.076	0.143	-0.224
-224.684	-26.378	0.220	-0.127
-223.669	-114.473	0.009	-0.002
-222.655	433.288	-0.072	0.153
-221.640	329.993	0.196	0.372
-220.625	-200.000	-0.021	0.244
-219.611	0.804	0.295	0.208
-218.596	-200.000	0.001	-0.179
-217.582	-34.622	-0.190	0.103
-216.567	150.476	-0.109	0.145
-215.552	49.891	0.204	-0.190
-214.538	-25.456	-0.187	0.109
-213.523	644.931	-0.105	0.264
-212.509	-44.939	-0.247	0.121
-211.494	180.675	-0.152	-0.221
-210.479	-75.278	0.390	0.137
-209.465	800.000	-0.031	-0.094
-208.450	150.381	0.077	-0.103
-207.436	-119.735	-0.323	0.055
-206.421	-143.822	0.250	-0.023
-205.406	-63.373	0.203	-0.082
-204.392	23.945	0.275	0.223
-203.377	747.576	0.175	-0.464
-202.363	253.071	-0.019	0.033
-201.348	116.065	-0.136	0.164
-200.333	489.403	0.136	0.306
-199.319	158.698	-0.107	-0.146
-198.304	800.000	0.016	0.062
-197.290	-126.142	-0.072	-0.011
-196.275	-24.612	-0.277	-0.163
-195.260	124.776	-0.121	0.151
-194.246	472.044	-0.068	0.151
-193.231	-62.897	-0.068	-0.028
-192.217	-70.095	-0.113	0.042
-191.202	99.833	0.209	-0.238
-190.187	-200.000	-0.021	-0.293
-189.173	615.260	-0.096	-0.236
-188.158	-9.493	0.199	-0.131
-187.144	393.532	-0.067	-0.137
-186.129	-38.750	-0.239	-0.124
-185.114	522.232	0.190	-0.439
-184.100	-133.537	0.250	0.031
-183.085	-119.614	-0.196	-0.033
-182.071	213.205	-0.111	-0.172
-181.056	-156.629	0.253	-0.015
-180.042	131.028	0.180	0.228
-179.027	-85.335	-0.161	0.050
-178.012	439.934	-0.023	-0.051
-176.998	10.916	-0.128	-0.096
-175.983	9.378	0.175	0.131
-174.969	-200.000	0.043	-0.387
-173.954	-13.855	0.245	-0.156
-172.939	-200.000	0.026	-0.138
-171.925	-28.647	0.311	0.176
-170.910	-92.926	-0.298	-0.082
-169.896	-70.206	-0.356	0.133
-168.881	272.375	0.002	0.003
-167.866	-155.287	-0.176	0.011
-166.852	30.575	0.083	-0.070
-165.837	-200.000	-0.023	-0.195
-164.823	694.203	0.076	0.196
-163.808	-23.986	0.236	0.139
-162.793	111.223	0.206	-0.244
-161.779	-200.000	0.059	-0.278
-160.764	98.894	-0.261	0.297
-159.750	-28.996	0.032	0.018
-158.735	-130.351	0.328	0.044
-157.720	-66.716	0.203	0.079
-156.706	-7.809	0.106	0.070
-155.691	-74.601	0.002	0.001
-154.677	426.921	-0.149	-0.317
-153.662	115.818	-0.125	-0.150
-152.647	42.643	0.323	0.289
-151.633	220.744	0.089	0.141
-150.618	-101.487	-0.089	-0.021
-149.604	11.293	-0.074	-0.056
-148.589	-179.275	0.122	-0.003
-147.574	96.934	-0.121	-0.137
-146.560	800.000	0.135	0.378
-145.545	-174.362	-0.131	0.004
-144.531	-70.957	0.260	-0.096
-143.516	-36.217	-0.260	0.138
-142.502	-200.000	-0.025	-0.168
-141.487	691.535	-0.151	-0.390
-140.472	426.965	-0.117	-0.249
-139.458	-87.521	-0.384	0.114
-138.443	36.056	0.140	-0.121
-137.429	-76.030	-0.340	0.118
-136.414	-190.131	0.203	-0.002
-135.399	-70.805	0.180	0.067
-134.385	635.399	0.114	0.286
-133.370	800.000	0.049	-0.208
-132.356	-109.247	0.153	-0.032
-131.341	80.715	0.075	-0.080
-130.326	371.801	-0.132	0.262
-129.312	169.862	0.158	0.222
-128.297	2.212	-0.274	-0.195
-127.283	-22.739	-0.107	0.063
-126.268	-169.143	-0.166	-0.006
-125.253	-200.000	-0.037	0.378
-124.239	107.703	-0.292	0.342
-123.224	-37.954	-0.118	-0.062
-122.210	-71.374	-0.234	-0.086
-121.195	-136.827	-0.038	0.004
