DTS Sentinel unit serial number:	SN413079Multiplexer serial number:	ORYXHardware model number:	OX4-SRSoftware version number:	ORYX F/W v4.00 Oryx Data Collector v3.7.2.0data status	okinstallation	princeton_trtdifferential loss correction	single-endedforward channel	channel 2reverse channel	N/Adate	2019/09/12time	12:09:11forward acquisition time	60.00reverse acquisition time	0.00gamma	496.2192k internal	0.2299k external	0.2299temperature offset calibration	1.0076default loss term (dB/km)	0.3790temperature slope calibration	1.0000multiplexer offset coefficient	1.0000multiplexer slope coefficient	1.0000fibre end	0.00T internal ref (°C)	40.56T ext. ref 1 (°C)	2.04T ext. ref 2 (°C)	36.41length (m)	temperature (°C)	Stokes	anti-Stokes-747.200	-98.955	-0.334	-0.086
-746.185	800.000	0.149	-0.594
-745.171	-34.860	0.247	-0.137
-744.156	-46.289	0.237	0.119
-743.142	34.912	-0.048	0.043
-742.127	254.481	0.090	-0.157
-741.112	72.629	0.226	-0.241
-740.098	-145.419	0.089	0.008
-739.083	-10.055	0.231	-0.157
-738.069	14.043	0.085	-0.068
-737.054	47.503	0.144	-0.137
-736.039	-200.000	-0.279	0.000
-735.025	51.352	-0.137	0.133
-734.010	36.618	-0.238	-0.214
-732.996	-200.000	0.006	0.040
-731.981	-200.000	-0.026	-0.340
-730.966	-169.563	0.068	0.003
-729.952	-47.308	-0.219	-0.109
-728.937	-200.000	0.034	0.297
-727.923	-155.132	-0.029	0.002
-726.908	-200.000	0.016	-0.362
-725.894	130.897	-0.328	-0.429
-724.879	-147.715	0.369	0.032
-723.864	-16.067	0.181	-0.117
-722.850	-38.669	0.123	-0.066
-721.835	218.458	0.123	0.200
-720.821	-98.049	-0.355	0.093
-719.806	115.890	-0.244	-0.304
-718.791	-76.199	-0.185	-0.067
-717.777	-200.000	0.019	-0.163
-716.762	-42.956	-0.103	0.053
-715.748	-200.000	0.016	-0.115
-714.733	134.458	-0.163	-0.215
-713.718	-130.017	-0.312	0.043
-712.704	800.000	0.047	-0.192
-711.689	-0.535	0.122	0.089
-710.675	-140.938	0.068	-0.007
-709.660	-38.182	-0.141	-0.076
-708.645	-92.520	-0.293	-0.084
-707.631	-200.000	0.031	-0.162
-706.616	66.932	-0.294	-0.306
-705.602	800.000	0.113	-0.474
-704.587	-200.000	0.041	0.349
-703.572	32.255	-0.345	-0.304
-702.558	-96.564	-0.209	0.056
-701.543	-197.014	-0.204	0.001
-700.529	-43.630	-0.265	-0.136
-699.514	162.810	-0.081	-0.116
-698.499	-37.348	-0.105	-0.057
-697.485	8.217	0.149	-0.114
-696.470	-61.178	-0.223	-0.096
-695.456	800.000	-0.039	-0.111
-694.441	-25.600	-0.185	-0.112
-693.426	-3.583	-0.101	0.071
-692.412	254.749	0.076	0.133
-691.397	-106.122	-0.458	0.105
-690.383	3.247	0.363	-0.269
-689.368	-122.867	0.123	0.020
-688.354	800.000	-0.023	0.084
-687.339	-64.655	0.190	-0.079
-686.324	28.753	-0.203	-0.175
-685.310	-39.719	0.196	0.104
-684.295	102.189	0.091	0.108
-683.281	174.041	-0.169	-0.249
-682.266	232.089	0.026	0.044
-681.251	-81.899	-0.504	-0.168
-680.237	424.698	-0.234	-0.514
-679.222	-66.282	0.139	-0.056
-678.208	-68.440	-0.197	0.078
-677.193	-130.974	0.145	0.020
-676.178	-12.774	0.252	-0.167
-675.164	-59.544	-0.517	0.226
-674.149	-200.000	0.028	0.203
-673.135	113.529	-0.094	0.116
-672.120	800.000	0.005	-0.014
-671.105	-200.000	0.013	0.139
-670.091	-117.059	-0.116	0.021
-669.076	-200.000	-0.082	-0.385
-668.062	-150.583	-0.198	0.015
-667.047	147.375	0.149	-0.205
-666.032	-33.627	-0.182	-0.102
-665.018	-152.622	-0.719	0.052
-664.003	-144.814	-0.137	0.013
-662.989	800.000	-0.051	-0.191
-661.974	-73.886	-0.129	-0.048
-660.959	800.000	0.075	0.279
-659.945	-85.103	-0.214	-0.068
-658.930	164.388	-0.062	-0.089
-657.916	-41.027	-0.300	-0.158
-656.901	310.958	-0.187	-0.356
-655.886	565.264	0.103	-0.254
-654.872	148.624	-0.141	-0.194
-653.857	334.769	-0.160	-0.315
-652.843	-28.215	-0.175	0.103
-651.828	745.465	-0.034	-0.093
-650.814	-139.035	-0.092	0.010
-649.799	48.428	-0.121	0.115
-648.784	1.714	0.188	0.138
-647.770	-105.715	-0.106	-0.024
-646.755	240.940	0.107	-0.182
-645.741	6.894	-0.048	0.036
-644.726	66.675	0.245	-0.253
-643.711	-200.000	0.084	-0.394
-642.697	-79.123	-0.326	0.113
-641.682	34.560	-0.431	-0.383
-640.668	-118.862	0.343	0.061
-639.653	-193.119	-0.412	-0.004
-638.638	91.867	0.187	0.213
-637.624	-68.673	0.330	-0.130
-636.609	57.123	-0.031	-0.031
-635.595	-97.548	0.262	0.069
-634.580	-200.000	-0.012	-0.101
-633.565	-3.891	0.095	-0.067
-632.551	69.008	-0.078	0.082
-631.536	66.762	0.289	0.299
-630.522	-21.188	0.226	-0.140
-629.507	78.498	-0.144	-0.157
-628.492	1.140	-0.113	0.082
-627.478	69.391	-0.095	0.099
-626.463	214.378	0.152	0.244
-625.449	190.176	-0.178	0.271
-624.434	-84.876	-0.196	0.062
-623.419	-200.000	-0.034	-0.217
-622.405	800.000	0.068	-0.200
-621.390	-122.078	0.204	-0.034
-620.376	800.000	0.064	0.283
-619.361	216.472	-0.048	-0.078
-618.346	-142.926	-0.032	0.003
-617.332	-200.000	-0.001	-0.298
-616.317	-34.918	-0.279	0.155
-615.303	464.986	-0.034	-0.078
-614.288	44.255	-0.141	0.131
-613.273	572.252	0.100	-0.248
-612.259	-200.000	-0.007	-0.182
-611.244	-200.000	0.014	0.113
-610.230	-175.779	0.272	-0.007
-609.215	57.075	-0.083	-0.082
-608.201	-73.798	-0.041	0.015
-607.186	-158.758	0.268	0.016
-606.171	-9.762	-0.177	0.120
-605.157	-111.980	0.128	-0.026
-604.142	800.000	-0.050	-0.187
-603.128	-163.344	0.205	0.010
-602.113	-200.000	-0.050	0.328
-601.098	-200.000	-0.008	-0.034
-600.084	615.910	-0.080	0.203
-599.069	319.630	-0.086	-0.166
-598.055	-200.000	0.076	0.367
-597.040	-123.097	0.142	0.023
-596.025	22.351	-0.247	-0.204
-595.011	-41.616	0.016	0.008
-593.996	800.000	-0.104	-0.343
-592.982	-37.658	-0.162	-0.088
-591.967	364.119	0.094	0.191
-590.952	800.000	0.040	0.114
-589.938	-112.576	0.141	-0.028
-588.923	491.287	-0.154	-0.357
-587.909	108.967	0.030	-0.037
-586.894	-200.000	0.007	-0.229
-585.879	-119.796	0.129	-0.023
-584.865	-200.000	-0.056	-0.252
-583.850	-164.973	-0.370	-0.017
-582.836	800.000	0.044	-0.172
-581.821	44.592	-0.080	0.075
-580.806	574.615	0.029	0.071
-579.792	-10.714	-0.246	-0.165
-578.777	245.070	-0.168	-0.286
-577.763	145.346	-0.161	-0.219
-576.748	-68.417	-0.106	-0.042
-575.733	-67.978	-0.013	-0.005
-574.719	-157.665	-0.211	0.013
-573.704	452.621	0.106	-0.238
-572.690	800.000	0.022	0.093
-571.675	800.000	0.025	-0.084
-570.661	-92.634	-0.339	0.096
-569.646	-154.229	-0.401	-0.027
-568.631	44.459	-0.047	-0.043
-567.617	800.000	0.088	0.386
-566.602	-120.632	0.106	-0.018
-565.588	-200.000	0.014	0.189
-564.573	800.000	-0.038	-0.113
-563.558	31.712	-0.329	0.287
-562.544	-200.000	-0.013	-0.104
-561.529	190.183	0.232	0.353
-560.515	-200.000	-0.004	0.181
-559.500	-14.913	-0.111	-0.072
-558.485	800.000	-0.017	0.055
-557.471	333.838	-0.117	0.230
-556.456	-101.211	0.210	-0.052
-555.442	107.214	-0.297	-0.358
-554.427	-87.806	0.215	0.066
-553.412	-200.000	-0.011	-0.081
-552.398	12.416	-0.387	0.302
-551.383	-97.483	-0.103	-0.027
-550.369	-200.000	-0.004	0.235
-549.354	-42.288	-0.335	-0.173
-548.339	-200.000	0.025	-0.330
-547.325	-105.846	0.073	0.017
-546.310	-200.000	0.013	0.194
-545.296	-137.559	0.049	0.006
-544.281	-200.000	-0.033	-0.258
-543.266	-92.231	-0.126	-0.036
-542.252	800.000	-0.037	0.147
-541.237	-126.220	-0.459	-0.070
-540.223	-200.000	-0.033	-0.343
-539.208	236.478	0.045	0.075
-538.193	-124.383	0.208	0.033
-537.179	-200.000	0.026	-0.161
-536.164	-37.544	-0.179	-0.097
-535.150	-77.171	-0.366	-0.129
-534.135	-57.011	0.008	0.003
-533.121	-200.000	0.029	-0.265
-532.106	-16.590	0.136	-0.087
-531.091	-93.921	-0.294	0.082
-530.077	-47.521	0.082	-0.040
-529.062	440.611	-0.172	-0.382
-528.048	126.534	0.213	0.273
-527.033	-86.522	0.024	0.007
-526.018	-114.226	-0.370	0.072
-525.004	800.000	0.123	-0.353
-523.989	-112.078	0.141	0.029
-522.975	3.899	-0.177	-0.131
-521.960	590.576	-0.078	-0.195
-520.945	-37.214	0.135	-0.073
-519.931	325.557	0.148	0.287
-518.916	505.398	-0.055	-0.128
-517.902	-145.027	0.103	0.009
-516.887	-200.000	0.001	-0.113
-515.872	-84.818	-0.223	-0.071
-514.858	-61.756	0.134	0.057
-513.843	-91.915	0.199	0.057
-512.829	41.803	0.156	0.143
-511.814	-161.752	-0.254	-0.013
-510.799	218.605	-0.111	0.179
-509.785	800.000	-0.128	-0.523
-508.770	16.149	0.394	0.314
-507.756	678.202	-0.155	0.408
-506.741	-86.628	0.121	-0.037
-505.726	800.000	-0.094	0.383
-504.712	275.559	-0.170	-0.305
-503.697	729.184	0.034	0.092
-502.683	45.524	-0.160	-0.150
-501.668	-137.675	-0.232	-0.026
-500.653	346.637	0.169	0.336
-499.639	214.269	0.164	0.262
-498.624	399.653	0.092	-0.195
-497.610	68.614	-0.066	-0.068
-496.595	243.197	-0.050	-0.085
-495.581	179.270	-0.078	0.116
-494.566	57.612	0.088	0.087
-493.551	266.932	-0.194	0.342
-492.537	11.278	-0.092	0.071
-491.522	-38.657	0.215	0.115
-490.508	-111.613	0.382	-0.078
-489.493	-92.421	0.238	-0.068
-488.478	34.827	0.037	0.033
-487.464	-75.239	0.176	-0.064
-486.449	707.625	-0.035	0.094
-485.435	7.951	0.249	-0.189
-484.420	800.000	-0.101	-0.327
-483.405	-181.254	-0.237	0.005
-482.391	-200.000	0.015	0.170
-481.376	-64.258	-0.191	0.079
-480.362	-200.000	0.006	0.212
-479.347	-191.911	0.333	-0.003
-478.332	141.427	0.025	-0.034
-477.318	800.000	-0.034	0.136
-476.303	-78.401	0.226	0.078
-475.289	-100.624	0.155	0.039
-474.274	250.676	0.059	0.102
-473.259	12.153	-0.205	0.159
-472.245	234.656	0.110	0.183
-471.230	-48.686	0.090	-0.044
-470.216	800.000	-0.054	-0.213
-469.201	484.174	-0.051	-0.116
-468.186	26.295	0.059	-0.050
-467.172	200.416	-0.032	-0.049
-466.157	-48.039	-0.072	0.035
-465.143	203.357	0.068	0.105
-464.128	544.785	0.083	-0.200
-463.113	616.243	0.067	-0.169
-462.099	-200.000	0.028	-0.296
-461.084	200.314	0.155	-0.241
-460.070	-13.352	0.119	0.078
-459.055	99.315	-0.113	0.132
-458.040	632.537	0.046	0.117
-457.026	800.000	0.039	0.166
-456.011	800.000	0.023	0.071
-454.997	650.296	0.026	-0.068
-453.982	-77.177	-0.161	-0.056
-452.968	291.447	0.048	-0.089
-451.953	-105.048	0.315	-0.073
-450.938	-93.333	0.187	-0.052
-449.924	-107.254	0.402	0.089
-448.909	-0.293	0.227	-0.163
-447.895	59.683	0.105	-0.105
-446.880	-40.409	0.148	0.078
-445.865	34.747	0.042	0.037
-444.851	158.576	0.030	0.042
-443.836	-200.000	-0.010	0.111
-442.822	441.382	-0.115	0.254
-441.807	3.105	-0.202	0.148
-440.792	800.000	-0.058	0.196
-439.778	-200.000	-0.019	0.117
-438.763	-97.596	-0.476	-0.124
-437.749	-155.135	-0.342	-0.023
-436.734	-124.001	-0.416	0.066
-435.719	-81.194	-0.136	0.045
-434.705	321.544	0.025	0.048
-433.690	22.906	0.216	-0.178
-432.676	-83.389	0.268	0.087
-431.661	-189.198	-0.112	0.001
-430.646	-200.000	0.048	-0.304
-429.632	379.364	-0.131	0.271
-428.617	800.000	0.097	0.375
-427.603	-200.000	-0.150	0.000
-426.588	194.123	-0.142	-0.216
-425.573	-76.059	0.234	0.083
-424.559	800.000	-0.075	0.264
-423.544	228.290	-0.127	-0.208
-422.530	-200.000	0.076	0.462
-421.515	575.584	0.047	0.117
-420.500	-113.287	0.250	0.050
-419.486	-51.242	0.122	0.057
-418.471	-200.000	0.023	-0.190
-417.457	44.698	-0.173	0.161
-416.442	-65.310	-0.203	0.082
-415.428	160.317	0.170	-0.238
-414.413	199.177	-0.054	-0.084
-413.398	16.490	0.191	0.152
-412.384	-108.139	0.154	0.034
-411.369	800.000	0.052	-0.161
-410.355	121.565	0.264	0.331
-409.340	800.000	-0.027	-0.097
-408.325	6.350	-0.079	-0.059
-407.311	-39.410	0.152	-0.080
-406.296	-105.435	0.065	0.015
-405.282	371.249	0.081	-0.165
-404.267	636.614	0.144	0.369
-403.252	800.000	-0.028	-0.091
-402.238	162.282	0.176	-0.249
-401.223	-121.073	-0.165	-0.028
-400.209	544.996	-0.057	0.138
-399.194	-103.177	0.125	0.030
-398.179	215.522	0.082	-0.132
-397.165	69.931	-0.127	-0.132
-396.150	7.676	0.127	0.096
-395.136	-200.000	0.474	0.000
-394.121	-200.000	-0.028	0.377
-393.106	-200.000	0.005	-0.221
-392.092	121.099	0.191	-0.239
-391.077	560.866	0.113	-0.275
-390.063	800.000	-0.013	-0.035
-389.048	-93.350	0.110	-0.031
-388.033	106.624	0.263	0.315
-387.019	-108.767	0.039	-0.008
-386.004	21.246	0.189	-0.154
-384.990	-2.528	-0.250	0.176
-383.975	-200.000	0.077	-0.365
-382.960	-141.750	-0.414	0.042
-381.946	64.978	-0.011	0.011
-380.931	149.596	-0.068	0.093
-379.917	796.996	-0.018	0.049
-378.902	-60.878	0.220	-0.094
-377.888	-162.322	-0.243	-0.012
-376.873	95.475	0.062	-0.071
-375.858	-50.832	0.352	-0.167
-374.844	71.585	-0.090	-0.094
-373.829	-70.587	0.198	0.075
-372.815	-200.000	0.031	-0.210
-371.800	-170.240	-0.238	0.008
-370.785	89.975	0.069	-0.078
-369.771	338.237	0.065	0.127
-368.756	-118.571	0.279	0.050
-367.742	-200.000	0.025	-0.148
-366.727	-200.000	-0.003	-0.335
-365.712	800.000	0.026	0.101
-364.698	-39.688	0.242	0.127
-363.683	52.703	0.255	-0.245
-362.669	-137.594	-0.103	0.012
-361.654	-137.768	0.363	-0.041
-360.639	635.216	-0.040	-0.103
-359.625	-96.700	0.330	-0.087
-358.610	800.000	-0.064	-0.179
-357.596	800.000	-0.063	0.190
-356.581	-80.158	0.131	0.044
-355.566	122.928	-0.070	-0.088
-354.552	800.000	-0.052	0.157
-353.537	-110.556	-0.068	0.014
-352.523	-43.828	-0.263	-0.133
-351.508	494.017	-0.096	0.221
-350.493	-32.892	0.105	-0.059
-349.479	-172.109	-0.279	-0.009
-348.464	14.802	0.188	-0.148
-347.450	-79.675	0.122	0.041
-346.435	-200.000	0.064	0.399
-345.420	78.584	0.130	-0.139
-344.406	26.875	0.173	0.146
-343.391	302.802	-0.226	0.421
-342.377	-200.000	-0.024	-0.157
-341.362	-200.000	0.040	-0.270
-340.348	387.870	0.128	-0.267
-339.333	-41.110	-0.104	0.054
-338.318	-127.188	-0.201	-0.030
-337.304	-88.030	0.341	0.103
-336.289	-200.000	0.038	0.191
-335.275	25.652	0.203	0.170
-334.260	83.841	0.135	-0.148
-333.245	-119.720	0.060	-0.010
-332.231	539.528	0.052	0.125
-331.216	66.427	-0.161	-0.164
-330.202	546.940	0.079	-0.189
-329.187	-200.000	-0.027	-0.141
-328.172	800.000	-0.126	-0.406
-327.158	300.476	-0.214	0.395
-326.143	-105.790	0.228	-0.052
-325.129	-73.216	0.042	0.016
-324.114	176.113	-0.176	0.257
-323.099	-200.000	0.081	0.368
-322.085	-3.404	0.342	-0.239
-321.070	-144.436	0.432	-0.040
-320.056	-200.000	-0.032	-0.164
-319.041	-200.000	-0.006	-0.200
-318.026	-56.340	0.368	0.164
-317.012	-200.000	0.004	0.215
-315.997	168.307	-0.259	-0.370
-314.983	180.787	-0.095	0.139
-313.968	800.000	-0.054	-0.226
-312.953	-140.080	-0.043	0.005
-311.939	-65.631	-0.112	-0.045
-310.924	800.000	0.025	0.097
-309.910	-200.000	-0.028	-0.252
-308.895	118.028	0.086	-0.106
-307.880	-200.000	0.085	-0.476
-306.866	-178.444	-0.152	0.004
-305.851	0.466	0.094	-0.067
-304.837	-53.131	-0.134	-0.062
-303.822	493.521	-0.098	-0.225
-302.807	6.363	-0.259	-0.193
-301.793	-38.620	0.226	0.120
-300.778	-200.000	-0.021	0.105
-299.764	-76.016	-0.193	-0.068
-298.749	14.088	0.126	0.099
-297.735	-12.390	0.241	0.158
-296.720	-138.726	-0.268	-0.029
-295.705	-145.593	-0.051	0.005
-294.691	-62.043	0.025	0.011
-293.676	-191.719	0.328	-0.003
-292.662	-114.918	0.091	0.017
-291.647	443.305	0.090	0.199
-290.632	-200.000	0.185	-0.001
-289.618	800.000	0.048	-0.139
-288.603	-0.118	-0.218	-0.155
-287.589	-200.000	0.002	0.199
-286.574	800.000	-0.117	0.438
-285.559	129.917	-0.129	0.166
-284.545	800.000	-0.032	-0.126
-283.530	10.294	-0.294	0.224
-282.516	558.024	-0.100	0.241
-281.501	161.254	-0.069	-0.096
-280.486	-153.205	-0.122	0.009
-279.472	-65.782	0.153	-0.062
-278.457	800.000	-0.028	-0.117
-277.443	-200.000	-0.008	-0.189
-276.428	208.191	0.053	0.082
-275.413	456.714	-0.149	0.332
-274.399	266.754	-0.103	0.180
-273.384	-33.828	-0.328	0.181
-272.370	-200.000	0.059	-0.574
-271.355	-47.255	-0.366	-0.179
-270.340	-200.000	0.003	-0.088
-269.326	-119.615	0.109	-0.019
-268.311	-11.669	-0.187	0.123
-267.297	-29.212	0.366	-0.210
-266.282	249.281	0.069	-0.118
-265.267	-62.702	0.155	0.064
-264.253	62.967	0.194	0.194
-263.238	51.291	0.299	-0.285
-262.224	-100.051	-0.036	-0.009
-261.209	-200.000	-0.022	0.256
-260.195	316.894	-0.212	0.401
-259.180	-200.000	0.012	-0.089
-258.165	-200.000	-0.171	-0.000
-257.151	-12.440	-0.182	0.119
-256.136	-68.500	-0.231	-0.090
-255.122	-107.487	-0.155	-0.034
-254.107	-105.678	-0.126	0.028
-253.092	4.059	0.261	-0.191
-252.078	339.354	-0.028	-0.055
-251.063	257.164	0.111	0.191
-250.049	147.316	-0.091	-0.123
-249.034	10.673	0.235	0.180
-248.019	-200.000	0.000	-0.031
-247.005	-183.957	-0.326	-0.005
-245.990	-200.000	-0.021	-0.155
-244.976	186.369	0.089	0.132
-243.961	-6.184	-0.057	0.039
-242.946	330.712	0.100	0.192
-241.932	-100.823	-0.352	-0.087
-240.917	10.400	0.206	0.157
-239.903	369.071	0.093	-0.187
-238.888	800.000	0.045	0.139
-237.873	-130.510	0.119	-0.016
-236.859	-55.850	0.279	-0.125
-235.844	-200.000	0.006	0.366
-234.830	10.240	-0.406	0.309
-233.815	-66.764	-0.109	0.043
-232.800	-121.604	-0.098	-0.016
-231.786	800.000	-0.071	-0.214
-230.771	-109.636	0.102	0.022
-229.757	89.892	0.150	0.168
-228.742	-134.135	-0.136	0.017
-227.727	-95.648	0.168	0.045
-226.713	107.249	-0.139	0.165
-225.698	-85.853	-0.217	-0.067
-224.684	800.000	0.080	0.223
-223.669	-151.827	-0.149	0.011
-222.655	-122.469	-0.251	-0.041
-221.640	-70.033	-0.368	0.140
-220.625	-44.043	-0.170	0.086
-219.611	262.221	-0.212	0.368
-218.596	341.742	-0.074	-0.145
-217.582	-176.779	0.123	-0.003
-216.567	800.000	0.092	0.257
-215.552	467.085	0.021	0.046
-214.538	378.928	0.059	0.121
-213.523	-54.725	-0.050	-0.023
-212.509	-50.974	0.097	0.046
-211.494	-4.808	-0.102	0.070
-210.479	501.232	-0.058	0.134
-209.465	-200.000	0.010	-0.142
-208.450	800.000	-0.072	0.248
-207.436	-200.000	-0.035	-0.214
-206.421	-24.995	0.170	-0.101
-205.406	226.018	0.033	-0.054
-204.392	-10.596	0.194	0.128
-203.377	111.622	-0.106	0.128
-202.363	-200.000	0.003	-0.192
-201.348	-200.000	0.002	-0.011
-200.333	-21.897	0.236	0.143
-199.319	-3.205	0.395	0.275
-198.304	155.660	0.177	0.244
-197.290	-200.000	-0.041	0.193
-196.275	220.415	-0.143	0.229
-195.260	-200.000	0.002	-0.164
-194.246	-75.563	-0.055	0.020
-193.231	238.648	-0.242	-0.401
-192.217	769.201	-0.086	0.234
-191.202	77.808	-0.095	-0.102
-190.187	16.467	-0.049	-0.039
-189.173	-111.242	0.333	-0.068
-188.158	-156.886	-0.261	-0.016
-187.144	493.733	-0.070	-0.160
-186.129	-200.000	-0.012	-0.176
-185.114	228.051	-0.100	-0.163
-184.100	800.000	-0.030	-0.088
-183.085	-111.970	0.337	0.068
-182.071	259.876	-0.117	0.201
-181.056	-200.000	0.088	-0.440
-180.042	-200.000	-0.000	-0.020
-179.027	-200.000	-0.015	-0.113
-178.012	-156.225	-0.343	0.022
-176.998	223.328	-0.059	-0.096
-175.983	-200.000	0.001	0.182
-174.969	3.327	0.036	-0.026
-173.954	19.355	0.261	-0.210
-172.939	63.862	-0.067	-0.067
-171.925	61.977	-0.110	-0.109
-170.910	163.542	0.155	-0.217
-169.896	-111.970	-0.238	-0.048
-168.881	800.000	-0.121	-0.365
-167.866	800.000	-0.093	0.310
-166.852	6.262	0.216	0.160
-165.837	-30.065	-0.181	-0.103
-164.823	-138.985	0.123	-0.013
-163.808	84.016	0.107	-0.117
-162.793	222.445	-0.091	0.147
-161.779	237.696	0.117	0.193
-160.764	19.145	0.243	0.195
-159.750	5.729	0.124	0.091
-158.735	211.429	0.150	-0.236
-157.720	-7.248	0.132	-0.089
-156.706	295.074	0.199	0.363
-155.691	-143.153	-0.161	0.015
-154.677	-49.490	-0.264	0.125
-153.662	-200.000	-0.079	0.459
-152.647	-54.399	-0.365	-0.165
-151.633	-85.743	-0.045	0.014
-150.618	42.869	-0.157	0.143
-149.604	-184.360	0.209	0.003
-148.589	-200.000	-0.025	0.556
-147.574	-179.390	0.357	-0.008
-146.560	800.000	-0.033	0.097
-145.545	800.000	-0.024	-0.073
-144.531	87.980	-0.079	0.087
-143.516	88.077	0.091	-0.100
-142.502	234.884	-0.172	-0.282
-141.487	800.000	-0.020	-0.073
-140.472	-31.732	-0.150	-0.084
-139.458	-200.000	0.072	0.412
-138.443	-40.935	0.219	0.113
-137.429	-184.175	0.270	0.004
-136.414	-200.000	0.059	0.370
-135.399	-34.167	-0.141	-0.077
-134.385	-37.675	-0.241	0.128
-133.370	800.000	-0.056	0.155
-132.356	-200.000	-0.035	-0.472
-131.341	490.069	0.050	-0.113
-130.326	-71.633	0.081	0.030
-129.312	492.241	0.054	0.124
-128.297	-200.000	0.022	-0.172
-127.283	262.282	-0.102	-0.177
-126.268	121.907	-0.096	0.119
-125.253	-55.505	0.109	-0.048
-124.239	37.728	-0.131	-0.116
-123.224	35.857	0.290	-0.254
-122.210	800.000	0.160	0.473
