DTS Sentinel unit serial number:	SN413079Multiplexer serial number:	ORYXHardware model number:	OX4-SRSoftware version number:	ORYX F/W v4.00 Oryx Data Collector v3.7.2.0data status	okinstallation	princeton_trtdifferential loss correction	single-endedforward channel	channel 2reverse channel	N/Adate	2019/09/17time	13:55:35forward acquisition time	60.00reverse acquisition time	0.00gamma	496.2192k internal	0.2316k external	0.2316temperature offset calibration	0.9982default loss term (dB/km)	0.3790temperature slope calibration	1.0000multiplexer offset coefficient	1.0000multiplexer slope coefficient	1.0000fibre end	0.00T internal ref (°C)	35.42T ext. ref 1 (°C)	0.41T ext. ref 2 (°C)	32.50length (m)	temperature (°C)	Stokes	anti-Stokes-747.200	62.156	-0.290	-0.293
-746.185	137.709	0.125	-0.166
-745.171	346.811	-0.025	-0.050
-744.156	-200.000	-0.091	0.581
-743.142	58.074	0.350	0.347
-742.127	800.000	-0.025	-0.085
-741.112	-200.000	0.029	0.223
-740.098	-126.317	0.160	0.024
-739.083	12.590	-0.079	0.062
-738.069	800.000	-0.092	0.317
-737.054	800.000	-0.146	0.431
-736.039	154.065	0.104	0.145
-735.025	404.281	-0.082	0.175
-734.010	800.000	0.043	-0.173
-732.996	12.751	0.120	0.094
-731.981	-12.693	-0.215	-0.142
-730.966	-47.435	0.209	-0.103
-729.952	123.158	0.103	0.131
-728.937	275.264	-0.177	0.317
-727.923	-25.247	-0.238	0.143
-726.908	30.076	-0.230	-0.198
-725.894	94.606	-0.123	0.142
-724.879	199.091	0.147	0.228
-723.864	224.412	-0.111	0.181
-722.850	197.074	0.115	-0.177
-721.835	-12.522	-0.249	0.165
-720.821	-30.250	0.223	-0.128
-719.806	-121.564	-0.304	-0.051
-718.791	-86.744	-0.130	-0.040
-717.777	-200.000	-0.050	-0.405
-716.762	-25.154	0.309	-0.185
-715.748	-180.788	0.255	0.005
-714.733	-200.000	0.004	-0.109
-713.718	433.055	0.096	0.211
-712.704	-200.000	0.019	0.249
-711.689	273.452	-0.098	0.175
-710.675	-184.575	-0.079	0.001
-709.660	134.818	0.042	0.055
-708.645	7.121	0.058	-0.044
-707.631	-105.922	0.231	0.053
-706.616	800.000	0.075	0.291
-705.602	800.000	-0.116	0.402
-704.587	-200.000	-0.009	0.106
-703.572	-133.704	0.126	0.016
-702.558	31.880	0.034	0.030
-701.543	-57.314	0.571	0.254
-700.529	42.639	-0.169	-0.155
-699.514	-52.216	-0.126	-0.059
-698.499	800.000	0.081	0.330
-697.485	-101.452	0.237	-0.058
-696.470	-200.000	0.013	-0.222
-695.456	-200.000	-0.011	0.072
-694.441	-151.609	0.203	-0.015
-693.426	-131.589	-0.064	0.009
-692.412	-134.908	0.292	0.036
-691.397	-119.841	0.128	-0.022
-690.383	148.755	0.144	0.197
-689.368	800.000	-0.018	-0.062
-688.354	71.975	-0.114	-0.120
-687.339	-141.792	-0.277	0.028
-686.324	460.777	0.107	-0.242
-685.310	-151.082	0.268	0.020
-684.295	800.000	0.076	0.336
-683.281	27.706	0.038	-0.032
-682.266	-81.038	-0.388	-0.130
-681.251	800.000	-0.121	-0.420
-680.237	-200.000	-0.020	0.343
-679.222	-200.000	-0.039	0.287
-678.208	800.000	-0.076	-0.249
-677.193	800.000	-0.091	-0.312
-676.178	-41.494	-0.146	0.076
-675.164	5.576	0.233	-0.174
-674.149	-110.514	-0.353	-0.074
-673.135	25.578	0.147	0.124
-672.120	-200.000	-0.013	0.070
-671.105	784.698	0.044	0.122
-670.091	9.735	0.164	-0.126
-669.076	78.437	0.203	-0.219
-668.062	-136.935	0.130	-0.015
-667.047	-73.629	0.324	-0.119
-666.032	271.857	0.167	0.297
-665.018	-4.718	-0.235	-0.163
-664.003	-46.765	-0.181	-0.089
-662.989	800.000	-0.068	0.218
-661.974	197.297	-0.039	0.060
-660.959	800.000	0.049	-0.211
-659.945	-97.167	0.099	-0.026
-658.930	-122.729	-0.375	-0.061
-657.916	-200.000	0.048	-0.277
-656.901	-11.756	-0.192	-0.127
-655.886	-200.000	-0.010	0.211
-654.872	-99.222	-0.214	-0.055
-653.857	-200.000	0.014	0.315
-652.843	-63.814	-0.118	0.049
-651.828	-90.572	-0.530	0.155
-650.814	-200.000	0.030	0.283
-649.799	-138.496	-0.137	-0.015
-648.784	-73.659	-0.193	0.071
-647.770	-46.302	-0.308	-0.153
-646.755	-30.706	-0.295	0.168
-645.741	-44.760	0.411	0.207
-644.726	-149.473	0.127	0.010
-643.711	800.000	-0.115	-0.414
-642.697	-51.311	-0.234	-0.110
-641.682	800.000	-0.047	-0.163
-640.668	800.000	-0.027	0.097
-639.653	-200.000	0.001	-0.226
-638.638	-109.231	-0.498	0.107
-637.624	255.849	0.087	0.151
-636.609	-200.000	0.043	0.294
-635.595	5.806	0.105	-0.078
-634.580	196.024	0.028	-0.043
-633.565	38.082	-0.144	0.129
-632.551	338.485	-0.028	-0.054
-631.536	78.246	-0.055	-0.060
-630.522	-163.802	-0.313	-0.015
-629.507	-200.000	-0.020	-0.108
-628.492	-200.000	-0.052	-0.390
-627.478	229.315	0.063	-0.104
-626.463	-103.225	0.533	-0.127
-625.449	-74.426	-0.428	-0.156
-624.434	-15.248	-0.261	0.168
-623.419	-12.904	-0.435	-0.286
-622.405	-102.454	-0.256	0.062
-621.390	-200.000	-0.028	0.188
-620.376	-56.886	0.347	0.154
-619.361	-66.745	0.100	-0.040
-618.346	-97.306	0.407	0.107
-617.332	-80.950	0.243	-0.081
-616.317	-200.000	-0.033	0.224
-615.303	113.363	0.188	-0.230
-614.288	373.612	-0.062	0.127
-613.273	-200.000	0.433	0.000
-612.259	-34.517	-0.203	-0.112
-611.244	-200.000	0.030	-0.158
-610.230	-50.648	0.082	0.039
-609.215	-200.000	-0.040	0.219
-608.201	334.592	-0.051	-0.100
-607.186	27.876	0.313	-0.266
-606.171	311.968	-0.061	-0.115
-605.157	38.697	0.279	0.250
-604.142	265.245	0.049	-0.086
-603.128	255.013	-0.095	0.163
-602.113	-108.715	0.039	0.009
-601.098	149.317	-0.037	0.050
-600.084	-132.161	-0.094	-0.012
-599.069	-200.000	-0.004	0.226
-598.055	-11.165	0.227	0.151
-597.040	-12.262	-0.119	0.078
-596.025	-48.304	-0.190	-0.092
-595.011	800.000	-0.051	-0.148
-593.996	-0.943	0.202	0.144
-592.982	61.894	0.154	0.154
-591.967	259.078	-0.073	0.126
-590.952	-37.019	-0.236	0.128
-589.938	800.000	0.019	0.070
-588.923	20.858	-0.380	-0.310
-587.909	189.273	-0.229	0.346
-586.894	122.319	-0.037	-0.046
-585.879	-200.000	0.024	0.383
-584.865	43.959	0.154	0.142
-583.850	-84.844	0.092	0.029
-582.836	591.578	-0.086	-0.214
-581.821	800.000	-0.016	-0.052
-580.806	-96.643	-0.187	-0.050
-579.792	800.000	0.049	0.163
-578.777	800.000	0.052	0.200
-577.763	-184.410	-0.367	-0.006
-576.748	-16.372	-0.284	-0.182
-575.733	-12.898	0.365	-0.239
-574.719	-126.909	0.174	-0.026
-573.704	312.776	-0.079	0.148
-572.690	-143.146	-0.557	-0.054
-571.675	-132.673	-0.200	0.026
-570.661	185.016	-0.114	0.170
-569.646	-66.923	-0.096	-0.038
-568.631	800.000	0.065	-0.219
-567.617	149.403	0.240	-0.327
-566.602	180.311	-0.075	0.110
-565.588	-200.000	0.133	0.632
-564.573	800.000	0.052	0.225
-563.558	-144.350	0.371	-0.035
-562.544	128.903	-0.119	0.152
-561.529	-47.514	-0.059	-0.029
-560.515	-107.009	0.144	-0.032
-559.500	-46.961	0.263	0.129
-558.485	41.019	-0.228	-0.207
-557.471	-61.306	0.311	-0.132
-556.456	-200.000	-0.034	0.236
-555.442	-64.629	0.069	0.028
-554.427	-56.084	-0.190	-0.085
-553.412	271.161	-0.199	-0.352
-552.398	317.738	0.088	-0.168
-551.383	-200.000	-0.004	-0.153
-550.369	800.000	-0.058	-0.218
-549.354	800.000	0.037	0.107
-548.339	-112.237	-0.191	-0.038
-547.325	-66.932	-0.186	0.074
-546.310	800.000	0.033	-0.111
-545.296	-15.799	0.144	0.092
-544.281	356.716	-0.045	-0.091
-543.266	-200.000	0.051	-0.258
-542.252	800.000	-0.013	0.043
-541.237	-200.000	-0.053	0.236
-540.223	135.331	-0.081	0.106
-539.208	398.993	0.044	0.092
-538.193	193.368	-0.129	0.197
-537.179	150.064	-0.113	-0.155
-536.164	455.066	-0.104	-0.231
-535.150	-106.580	-0.303	-0.068
-534.135	-200.000	-0.061	0.315
-533.121	750.250	-0.062	-0.168
-532.106	-20.598	0.048	0.030
-531.091	-200.000	-0.007	0.338
-530.077	800.000	0.080	0.233
-529.062	-200.000	0.037	0.362
-528.048	351.699	-0.069	-0.137
-527.033	284.096	0.165	0.298
-526.018	-148.255	-0.091	0.008
-525.004	-200.000	0.038	0.300
-523.989	106.603	0.190	0.226
-522.975	-186.398	-0.261	0.004
-521.960	-52.205	-0.201	-0.094
-520.945	800.000	0.083	0.253
-519.931	174.310	0.162	0.236
-518.916	-200.000	-0.010	-0.151
-517.902	-96.634	0.387	0.102
-516.887	33.043	0.161	0.140
-515.872	-200.000	-0.029	0.325
-514.858	85.435	0.243	-0.268
-513.843	-200.000	0.016	-0.623
-512.829	21.198	0.230	-0.188
-511.814	86.591	-0.235	-0.260
-510.799	499.141	-0.151	0.348
-509.785	707.526	0.056	0.149
-508.770	-26.847	-0.298	0.175
-507.756	-2.686	-0.183	-0.129
-506.741	30.326	0.212	0.182
-505.726	-200.000	-0.031	0.192
-504.712	210.178	-0.193	0.304
-503.697	176.174	0.155	-0.226
-502.683	-83.332	-0.096	0.031
-501.668	-131.660	-0.048	-0.006
-500.653	102.715	0.140	-0.165
-499.639	14.884	0.019	0.015
-498.624	-200.000	0.008	-0.277
-497.610	-28.141	-0.090	0.052
-496.595	800.000	-0.012	0.038
-495.581	-74.361	0.377	-0.136
-494.566	-200.000	-0.002	-0.127
-493.551	31.971	-0.249	-0.215
-492.537	-175.772	0.218	-0.006
-491.522	219.752	0.117	0.188
-490.508	150.697	0.111	0.151
-489.493	800.000	-0.079	-0.330
-488.478	-200.000	0.016	0.238
-487.464	-9.651	-0.222	-0.148
-486.449	23.282	0.225	0.185
-485.435	-145.652	-0.286	0.026
-484.420	140.712	-0.040	-0.053
-483.405	800.000	0.048	0.207
-482.391	-200.000	-0.007	0.362
-481.376	-200.000	0.040	0.250
-480.362	-200.000	0.009	-0.097
-479.347	-45.906	0.308	0.152
-478.332	206.170	0.099	-0.155
-477.318	-200.000	0.014	0.120
-476.303	137.681	-0.102	-0.134
-475.289	800.000	-0.043	-0.148
-474.274	164.799	-0.287	-0.406
-473.259	-35.929	0.206	-0.112
-472.245	-70.069	0.233	0.089
-471.230	343.380	-0.106	-0.208
-470.216	640.036	-0.079	-0.200
-469.201	62.270	-0.061	0.061
-468.186	476.082	0.149	0.338
-467.172	-54.505	0.101	0.046
-466.157	316.741	-0.154	-0.291
-465.143	353.247	-0.138	-0.274
-464.128	800.000	-0.088	-0.368
-463.113	-60.524	0.131	-0.056
-462.099	-87.730	0.176	-0.053
-461.084	-200.000	-0.036	0.247
-460.070	-35.586	-0.174	-0.094
-459.055	361.287	-0.076	-0.152
-458.040	-149.563	0.203	0.016
-457.026	-122.905	-0.110	0.018
-456.011	800.000	0.100	0.396
-454.997	-200.000	-0.004	-0.666
-453.982	800.000	0.074	-0.215
-452.968	-200.000	0.049	-0.357
-451.953	800.000	0.040	0.120
-450.938	18.902	0.147	0.118
-449.924	-22.717	-0.225	0.136
-448.909	-69.062	-0.074	0.029
-447.895	-200.000	-0.021	0.232
-446.880	72.289	-0.061	-0.063
-445.865	-38.141	0.324	-0.172
-444.851	-155.707	-0.179	-0.011
-443.836	-30.314	-0.114	0.065
-442.822	558.373	0.169	0.409
-441.807	-200.000	0.065	-0.417
-440.792	800.000	-0.138	0.412
-439.778	9.831	-0.479	0.364
-438.763	-200.000	-0.066	-0.479
-437.749	583.044	-0.197	-0.485
-436.734	67.861	-0.076	0.078
-435.719	-170.190	0.266	0.009
-434.705	-43.251	-0.216	-0.109
-433.690	205.982	-0.035	0.055
-432.676	-128.558	0.156	0.022
-431.661	-89.379	-0.225	0.066
-430.646	-141.605	0.184	-0.019
-429.632	-45.887	0.175	-0.087
-428.617	83.855	0.132	-0.144
-427.603	176.986	-0.131	0.190
-426.588	96.099	-0.102	-0.117
-425.573	46.852	0.249	-0.232
-424.559	2.367	0.186	-0.135
-423.544	-200.000	-0.042	0.184
-422.530	800.000	0.112	0.323
-421.515	157.026	0.199	-0.275
-420.500	201.868	-0.173	-0.267
-419.486	-76.197	-0.200	-0.071
-418.471	-130.849	-0.317	-0.042
-417.457	-91.866	0.087	-0.025
-416.442	-36.203	-0.129	0.069
-415.428	86.890	0.169	0.186
-414.413	800.000	0.082	0.234
-413.398	-4.101	0.266	-0.184
-412.384	-132.498	0.218	-0.028
-411.369	68.617	0.393	-0.403
-410.355	-200.000	-0.019	0.113
-409.340	538.569	-0.125	0.297
-408.325	9.199	-0.175	-0.132
-407.311	256.274	-0.024	-0.041
-406.296	7.595	0.125	0.094
-405.282	100.128	0.177	0.205
-404.267	-97.452	0.133	0.035
-403.252	-92.414	-0.301	0.085
-402.238	800.000	-0.052	0.199
-401.223	159.028	0.082	-0.114
-400.209	45.411	-0.260	0.239
-399.194	800.000	-0.038	0.142
-398.179	-200.000	-0.044	-0.358
-397.165	202.190	-0.178	-0.274
-396.150	-43.856	-0.101	-0.051
-395.136	-22.510	0.262	0.159
-394.121	16.971	-0.130	-0.103
-393.106	-200.000	-0.039	-0.415
-392.092	-27.521	0.022	-0.013
-391.077	4.998	-0.114	-0.083
-390.063	87.679	-0.140	-0.155
-389.048	185.623	0.227	-0.337
-388.033	-111.167	-0.019	0.004
-387.019	-114.889	0.396	-0.075
-386.004	800.000	-0.019	0.075
-384.990	-67.245	0.190	-0.075
-383.975	800.000	0.095	0.278
-382.960	-105.353	0.182	-0.041
-381.946	30.771	-0.109	0.094
-380.931	800.000	-0.063	-0.203
-379.917	475.039	0.045	0.101
-378.902	75.883	0.124	0.131
-377.888	-182.004	-0.139	0.003
-376.873	-144.923	-0.033	0.003
-375.858	800.000	0.043	0.184
-374.844	339.662	0.072	-0.140
-373.829	204.704	0.132	-0.205
-372.815	-53.100	-0.354	-0.162
-371.800	-181.978	0.229	-0.004
-370.785	-200.000	-0.062	0.456
-369.771	84.634	0.112	-0.122
-368.756	559.948	-0.147	-0.354
-367.742	-46.624	-0.083	-0.041
-366.727	245.886	-0.085	-0.142
-365.712	78.023	-0.047	-0.050
-364.698	364.968	-0.146	-0.294
-363.683	62.174	-0.065	0.065
-362.669	-59.267	0.117	-0.050
-361.654	770.736	0.189	0.514
-360.639	126.590	-0.075	0.095
-359.625	-93.387	0.213	0.059
-358.610	-165.605	-0.292	0.013
-357.596	-96.842	0.098	-0.026
-356.581	-106.960	0.244	-0.054
-355.566	-62.043	-0.134	-0.056
-354.552	-3.957	-0.060	0.042
-353.537	-57.538	-0.287	0.125
-352.523	800.000	0.007	0.026
-351.508	-200.000	0.016	0.372
-350.493	-104.071	0.082	0.019
-349.479	-10.003	-0.180	0.120
-348.464	-200.000	0.019	0.147
-347.450	-194.820	0.063	-0.000
-346.435	116.157	-0.203	-0.247
-345.420	121.234	0.087	0.109
-344.406	468.881	-0.025	-0.056
-343.391	-3.047	-0.272	0.189
-342.377	-38.353	-0.072	-0.038
-341.362	800.000	-0.044	-0.124
-340.348	5.496	-0.145	-0.107
-339.333	127.330	0.037	-0.047
-338.318	628.668	0.220	-0.555
-337.304	-19.560	0.235	0.145
-336.289	49.156	0.190	-0.178
-335.275	13.524	0.189	-0.146
-334.260	800.000	-0.086	0.281
-333.245	660.513	-0.091	-0.234
-332.231	316.351	0.059	-0.111
-331.216	54.076	-0.202	-0.193
-330.202	236.344	-0.098	0.161
-329.187	277.344	0.144	-0.255
-328.172	800.000	0.121	-0.356
-327.158	-33.964	0.357	-0.196
-326.143	-23.177	0.159	-0.095
-325.129	-200.000	-0.001	0.012
-324.114	-132.657	0.091	-0.012
-323.099	553.733	0.148	-0.354
-322.085	-3.313	-0.221	0.154
-321.070	-66.396	-0.260	-0.103
-320.056	-48.221	-0.175	0.084
-319.041	-41.241	-0.205	-0.105
-318.026	14.701	-0.185	-0.144
-317.012	-67.753	0.432	0.168
-315.997	220.181	-0.164	-0.261
-314.983	-115.575	0.159	0.030
-313.968	208.358	-0.031	0.049
-312.953	-132.902	-0.232	0.029
-311.939	190.796	-0.087	0.130
-310.924	152.216	0.202	0.275
-309.910	82.692	-0.149	-0.161
-308.895	137.271	0.205	-0.267
-307.880	800.000	-0.071	-0.216
-306.866	-104.180	0.100	-0.023
-305.851	245.606	-0.108	0.181
-304.837	-25.361	-0.370	-0.218
-303.822	571.739	-0.024	0.058
-302.807	386.301	0.086	0.176
-301.793	58.991	0.088	0.086
-300.778	48.494	-0.268	0.250
-299.764	-38.962	-0.183	0.096
-298.749	274.896	-0.058	-0.102
-297.735	382.651	0.038	0.077
-296.720	269.072	-0.124	0.217
-295.705	-26.854	-0.177	0.103
-294.691	-83.736	0.154	0.049
-293.676	50.349	0.150	-0.141
-292.662	150.373	0.222	0.300
-291.647	80.664	0.141	-0.151
-290.632	-200.000	0.044	-0.193
-289.618	-125.677	-0.349	0.053
-288.603	-200.000	-0.023	0.144
-287.589	-63.582	-0.168	-0.068
-286.574	24.051	0.088	0.072
-285.559	-66.697	0.188	0.074
-284.545	-61.882	0.211	-0.088
-283.530	-42.907	-0.073	-0.037
-282.516	117.076	0.290	-0.355
-281.501	800.000	0.057	0.216
-280.486	599.387	-0.109	0.269
-279.472	-104.085	0.131	-0.030
-278.457	8.346	0.207	-0.155
-277.443	202.044	0.043	0.065
-276.428	423.641	-0.094	0.201
-275.413	233.066	-0.146	-0.238
-274.399	-41.397	0.167	-0.086
-273.384	-200.000	-0.015	0.131
-272.370	182.430	-0.067	-0.098
-271.355	66.961	0.252	-0.256
-270.340	-200.000	0.009	0.282
-269.326	106.595	0.097	0.115
-268.311	-99.635	-0.127	-0.032
-267.297	182.390	-0.162	0.237
-266.282	373.340	-0.036	0.074
-265.267	-200.000	0.025	0.112
-264.253	132.473	-0.176	0.226
-263.238	-137.109	-0.163	-0.018
-262.224	-65.229	-0.084	0.034
-261.209	800.000	0.061	0.210
-260.195	148.541	0.137	-0.184
-259.180	800.000	-0.135	0.457
-258.165	46.911	0.175	0.161
-257.151	-150.833	-0.153	-0.012
-256.136	-104.643	0.309	-0.071
-255.122	329.392	0.125	-0.238
-254.107	-200.000	-0.028	-0.404
-253.092	229.990	0.112	0.181
-252.078	-120.398	-0.173	0.029
-251.063	-200.000	0.021	-0.136
-250.049	-62.181	0.304	-0.126
-249.034	207.937	0.093	-0.144
-248.019	800.000	0.088	0.306
-247.005	145.809	0.149	-0.199
-245.990	121.020	-0.189	0.234
-244.976	94.825	0.327	-0.370
-243.961	381.118	0.064	-0.130
-242.946	-82.902	-0.066	0.021
-241.932	-200.000	0.051	-0.456
-240.917	-126.701	-0.293	0.043
-239.903	-200.000	-0.012	0.251
-238.888	-200.000	-0.034	0.175
-237.873	31.855	-0.106	0.091
-236.859	-200.000	-0.035	-0.220
-235.844	358.528	-0.095	0.188
-234.830	-200.000	0.036	-0.208
-233.815	-111.352	-0.218	0.044
-232.800	152.480	0.130	0.176
-231.786	73.195	0.180	0.187
-230.771	800.000	-0.057	-0.233
-229.757	184.383	-0.323	0.475
-228.742	-200.000	-0.004	-0.020
-227.727	86.217	0.212	0.232
-226.713	-81.692	0.244	0.079
-225.698	384.207	0.027	0.055
-224.684	-200.000	-0.090	0.414
-223.669	-200.000	-0.008	-0.052
-222.655	-49.682	0.261	-0.123
-221.640	131.249	-0.089	0.114
-220.625	-200.000	0.052	-0.527
-219.611	4.764	0.121	-0.088
-218.596	-143.060	-0.208	-0.020
-217.582	276.577	0.105	0.185
-216.567	558.547	-0.035	0.083
-215.552	40.703	0.143	-0.128
-214.538	355.065	0.221	-0.435
-213.523	-110.583	-0.121	0.025
-212.509	800.000	-0.044	0.136
-211.494	-153.594	-0.219	-0.015
-210.479	-42.265	0.304	-0.154
-209.465	205.465	0.080	-0.124
-208.450	12.992	0.228	-0.175
-207.436	593.237	0.014	-0.034
-206.421	189.778	-0.140	0.208
-205.406	57.382	-0.122	0.118
-204.392	193.286	-0.262	0.392
-203.377	-200.000	-0.050	0.304
-202.363	-16.951	-0.078	-0.049
-201.348	307.535	-0.118	-0.218
-200.333	16.373	-0.099	-0.078
-199.319	-129.764	-0.304	-0.041
-198.304	-153.168	0.108	-0.008
-197.290	-119.505	0.129	-0.022
-196.275	-117.742	-0.203	-0.036
-195.260	-111.042	0.208	0.042
-194.246	694.755	-0.042	-0.110
-193.231	-66.751	0.129	0.051
-192.217	-58.358	-0.215	0.092
-191.202	-104.934	-0.139	0.032
-190.187	-200.000	0.008	-0.264
-189.173	-98.620	0.514	0.130
-188.158	-22.665	0.041	0.025
-187.144	-55.334	0.249	0.111
-186.129	-134.613	-0.387	0.047
-185.114	-2.957	-0.333	-0.230
-184.100	436.212	-0.086	0.185
-183.085	-100.240	0.269	0.066
-182.071	-200.000	-0.033	0.210
-181.056	-93.794	0.121	-0.033
-180.042	121.599	0.098	-0.121
-179.027	-109.750	-0.396	0.082
-178.012	-200.000	0.015	0.129
-176.998	116.959	0.182	0.221
-175.983	-117.913	-0.112	-0.020
-174.969	774.172	0.060	-0.161
-173.954	-117.440	0.051	-0.009
-172.939	800.000	0.104	-0.300
-171.925	-195.549	-0.089	0.001
-170.910	139.685	0.112	0.146
-169.896	150.712	0.109	-0.147
-168.881	-19.559	-0.143	0.087
-167.866	-200.000	-0.004	0.110
-166.852	-54.991	0.314	-0.140
-165.837	800.000	0.140	0.396
-164.823	209.359	-0.048	-0.075
-163.808	-99.923	0.337	-0.083
-162.793	95.938	-0.069	-0.078
-161.779	-34.493	-0.134	0.073
-160.764	800.000	0.076	-0.294
-159.750	800.000	-0.024	0.072
-158.735	-42.136	0.320	0.162
-157.720	800.000	0.025	0.094
-156.706	83.590	0.137	-0.147
-155.691	331.916	0.058	0.111
-154.677	107.367	0.245	0.288
-153.662	-56.974	0.201	-0.088
-152.647	5.771	-0.192	0.141
-151.633	72.853	-0.249	0.257
-150.618	-83.874	0.072	-0.023
-149.604	-200.000	-0.003	-0.162
-148.589	102.756	-0.136	0.157
-147.574	-64.503	-0.231	0.093
-146.560	-76.607	-0.115	-0.040
-145.545	30.402	-0.221	-0.187
-144.531	132.324	0.177	0.225
-143.516	158.697	0.042	-0.058
-142.502	370.318	0.157	0.315
-141.487	800.000	0.032	0.090
-140.472	-167.762	0.179	-0.007
-139.458	298.153	0.064	-0.117
-138.443	-53.831	-0.061	-0.027
-137.429	800.000	-0.045	0.168
-136.414	-16.551	0.081	0.051
-135.399	113.358	-0.068	-0.081
-134.385	-200.000	-0.007	-0.124
-133.370	35.592	0.013	-0.011
-132.356	80.092	-0.252	0.268
-131.341	133.147	0.129	-0.164
-130.326	-50.562	0.252	-0.118
-129.312	564.061	-0.054	-0.130
-128.297	-200.000	-0.023	0.119
-127.283	800.000	-0.041	-0.165
-126.268	-42.927	0.125	-0.062
-125.253	71.160	0.211	-0.217
-124.239	-35.470	0.193	0.103
-123.224	37.811	0.100	-0.088
-122.210	386.376	-0.117	0.238
-121.195	75.281	0.163	-0.170
