DTS Sentinel unit serial number:	SN413079Multiplexer serial number:	ORYXHardware model number:	OX4-SRSoftware version number:	ORYX F/W v4.00 Oryx Data Collector v3.7.2.0data status	okinstallation	princeton_trtdifferential loss correction	single-endedforward channel	channel 2reverse channel	N/Adate	2019/09/19time	09:55:35forward acquisition time	60.00reverse acquisition time	0.00gamma	496.2192k internal	0.2347k external	0.2347temperature offset calibration	1.0005default loss term (dB/km)	0.3790temperature slope calibration	1.0000multiplexer offset coefficient	1.0000multiplexer slope coefficient	1.0000fibre end	0.00T internal ref (°C)	23.62T ext. ref 1 (°C)	0.66T ext. ref 2 (°C)	19.40length (m)	temperature (°C)	Stokes	anti-Stokes-747.200	800.000	0.043	0.186
-746.185	226.952	-0.202	0.328
-745.171	180.321	0.333	0.489
-744.156	268.821	0.124	0.217
-743.142	5.287	0.097	0.072
-742.127	210.094	-0.044	0.068
-741.112	-163.591	-0.282	0.013
-740.098	251.434	-0.162	0.276
-739.083	-122.571	0.216	0.035
-738.069	-25.948	-0.233	-0.137
-737.054	-109.134	-0.310	-0.066
-736.039	489.509	-0.163	-0.372
-735.025	800.000	-0.042	0.162
-734.010	151.435	-0.149	0.203
-732.996	-25.314	0.061	0.036
-731.981	-200.000	-0.005	-0.180
-730.966	372.375	-0.081	-0.165
-729.952	261.857	-0.136	-0.235
-728.937	-79.105	-0.480	0.163
-727.923	-200.000	0.031	0.202
-726.908	-200.000	-0.003	-0.171
-725.894	-102.565	-0.499	0.119
-724.879	419.615	0.132	-0.282
-723.864	-150.752	0.061	-0.005
-722.850	-200.000	-0.024	0.209
-721.835	-60.377	0.289	0.123
-720.821	800.000	0.046	-0.158
-719.806	-66.896	0.115	0.045
-718.791	-84.313	-0.268	-0.085
-717.777	-92.522	-0.337	-0.095
-716.762	-24.179	0.272	0.162
-715.748	435.065	0.010	-0.022
-714.733	10.346	-0.366	-0.278
-713.718	550.273	0.101	-0.241
-712.704	143.990	0.234	0.312
-711.689	-200.000	-0.009	0.076
-710.675	-200.000	0.049	-0.331
-709.660	216.520	0.115	0.182
-708.645	-13.073	-0.105	-0.068
-707.631	193.108	0.146	-0.220
-706.616	-127.513	0.221	-0.032
-705.602	-22.621	-0.181	0.109
-704.587	12.738	0.060	0.047
-703.572	22.768	-0.384	0.314
-702.558	-37.955	-0.138	-0.073
-701.543	43.930	-0.064	-0.058
-700.529	-124.172	0.400	0.063
-699.514	268.083	0.075	0.131
-698.499	80.762	-0.108	-0.116
-697.485	218.952	-0.211	-0.336
-696.470	-200.000	-0.007	0.360
-695.456	800.000	-0.042	0.151
-694.441	-95.715	-0.353	0.094
-693.426	330.244	0.075	-0.144
-692.412	-74.346	0.218	-0.079
-691.397	-107.564	-0.048	0.010
-690.383	10.460	-0.046	0.035
-689.368	-12.695	0.105	0.068
-688.354	-200.000	-0.005	0.054
-687.339	800.000	0.060	0.240
-686.324	156.549	-0.233	0.321
-685.310	-156.890	-0.350	-0.021
-684.295	800.000	0.120	-0.380
-683.281	800.000	0.064	-0.257
-682.266	-146.359	-0.201	-0.018
-681.251	203.457	-0.058	0.090
-680.237	372.119	0.016	0.033
-679.222	-58.619	-0.108	0.047
-678.208	-168.947	0.357	0.013
-677.193	-94.953	0.208	-0.056
-676.178	66.299	0.091	0.092
-675.164	-112.306	0.315	-0.063
-674.149	170.083	-0.076	0.108
-673.135	-6.904	0.125	0.085
-672.120	-16.467	0.119	-0.075
-671.105	-133.946	0.028	0.003
-670.091	-71.869	-0.282	-0.105
-669.076	-23.243	0.104	0.062
-668.062	305.397	0.112	-0.208
-667.047	277.569	-0.106	-0.189
-666.032	170.975	-0.107	0.152
-665.018	244.256	-0.114	-0.191
-664.003	259.189	-0.151	0.260
-662.989	31.459	0.090	-0.077
-661.974	32.634	0.161	0.139
-660.959	450.197	-0.067	0.146
-659.945	-200.000	0.023	0.240
-658.930	502.803	-0.142	-0.327
-657.916	-200.000	-0.013	-0.306
-656.901	-110.127	-0.236	-0.049
-655.886	39.708	-0.135	-0.121
-654.872	-200.000	-0.016	-0.465
-653.857	70.990	0.255	-0.263
-652.843	800.000	0.087	-0.368
-651.828	254.871	-0.184	-0.314
-650.814	113.200	0.294	0.355
-649.799	17.929	0.173	0.138
-648.784	-66.563	-0.246	0.097
-647.770	-200.000	0.050	-0.443
-646.755	-46.397	0.437	-0.214
-645.741	800.000	-0.084	-0.267
-644.726	800.000	0.122	0.445
-643.711	550.908	0.064	-0.153
-642.697	126.312	0.201	-0.254
-641.682	19.820	-0.253	0.203
-640.668	-200.000	0.010	0.263
-639.653	124.767	0.124	-0.155
-638.638	272.984	-0.069	0.121
-637.624	-200.000	-0.007	-0.106
-636.609	800.000	0.027	-0.088
-635.595	-9.080	-0.246	0.164
-634.580	-79.030	0.083	-0.028
-633.565	-127.011	0.161	0.024
-632.551	-200.000	-0.042	-0.184
-631.536	94.697	-0.094	-0.106
-630.522	88.452	0.106	-0.118
-629.507	-200.000	0.019	-0.187
-628.492	-69.804	0.147	0.056
-627.478	-200.000	0.023	0.315
-626.463	-65.959	0.091	0.036
-625.449	285.767	-0.120	-0.215
-624.434	-119.475	-0.113	-0.019
-623.419	-200.000	0.006	0.118
-622.405	5.657	0.140	-0.103
-621.390	-34.991	-0.157	-0.085
-620.376	291.165	-0.098	-0.178
-619.361	113.712	-0.178	-0.215
-618.346	-84.553	0.077	-0.024
-617.332	234.539	0.263	-0.431
-616.317	-149.875	-0.518	0.040
-615.303	800.000	-0.067	-0.284
-614.288	-200.000	-0.004	0.130
-613.273	800.000	0.053	-0.189
-612.259	136.062	-0.172	0.222
-611.244	3.401	-0.208	0.151
-610.230	-200.000	0.018	-0.272
-609.215	-146.201	-0.509	0.044
-608.201	196.557	-0.110	-0.166
-607.186	-200.000	0.043	0.449
-606.171	-200.000	-0.019	-0.292
-605.157	-157.531	0.279	-0.017
-604.142	-91.941	0.307	-0.087
-603.128	-200.000	-0.072	-0.564
-602.113	64.018	0.265	-0.265
-601.098	-102.722	-0.235	0.056
-600.084	-139.014	0.039	-0.004
-599.069	-200.000	-0.051	0.227
-598.055	317.820	-0.148	0.279
-597.040	-200.000	0.000	0.229
-596.025	60.286	-0.078	-0.077
-595.011	-82.622	-0.185	-0.060
-593.996	-159.901	-0.080	-0.004
-592.982	187.056	0.050	0.073
-591.967	58.171	0.261	0.255
-590.952	37.090	-0.234	0.206
-589.938	-93.529	-0.183	-0.050
-588.923	-77.096	0.425	-0.147
-587.909	800.000	-0.072	0.227
-586.894	173.390	-0.101	-0.145
-585.879	72.123	-0.179	0.185
-584.865	-45.161	-0.137	0.067
-583.850	-200.000	0.018	-0.113
-582.836	-200.000	0.000	0.287
-581.821	56.210	-0.176	0.169
-580.806	-19.903	0.361	-0.221
-579.792	-200.000	-0.002	0.255
-578.777	-128.681	0.226	-0.032
-577.763	766.202	-0.020	0.055
-576.748	18.381	0.217	-0.172
-575.733	47.647	0.128	-0.118
-574.719	154.941	0.069	-0.094
-573.704	631.652	-0.034	-0.085
-572.690	-200.000	-0.019	-0.136
-571.675	19.293	0.212	-0.169
-570.661	42.760	0.251	-0.227
-569.646	219.343	-0.046	0.074
-568.631	-102.662	0.319	-0.076
-567.617	491.717	-0.089	0.202
-566.602	736.316	0.081	0.216
-565.588	-13.356	0.203	0.131
-564.573	136.816	-0.154	0.200
-563.558	-25.743	0.043	0.025
-562.544	125.804	0.183	-0.229
-561.529	256.409	-0.117	-0.199
-560.515	800.000	-0.086	-0.334
-559.500	358.396	0.082	0.163
-558.485	-9.875	-0.170	0.112
-557.471	-87.742	-0.107	-0.032
-556.456	55.449	0.157	-0.151
-555.442	-128.061	0.160	-0.023
-554.427	-200.000	0.083	-0.383
-553.412	-90.682	-0.239	-0.068
-552.398	-131.425	0.037	0.005
-551.383	-41.196	0.013	-0.007
-550.369	-109.535	-0.295	0.062
-549.354	-193.142	0.209	-0.002
-548.339	-79.155	-0.344	-0.116
-547.325	-84.763	-0.193	-0.060
-546.310	-18.212	-0.248	0.154
-545.296	255.493	-0.090	0.152
-544.281	48.734	-0.174	-0.162
-543.266	89.442	-0.275	-0.304
-542.252	73.895	0.241	-0.251
-541.237	800.000	0.034	0.141
-540.223	800.000	0.065	-0.242
-539.208	-200.000	0.020	-0.246
-538.193	-149.250	-0.434	0.034
-537.179	312.912	0.218	0.406
-536.164	-200.000	-0.030	0.345
-535.150	-200.000	0.005	-0.189
-534.135	0.806	-0.353	0.250
-533.121	106.656	0.194	-0.228
-532.106	-31.382	-0.101	-0.056
-531.091	-5.166	-0.142	-0.097
-530.077	800.000	-0.073	0.281
-529.062	-200.000	0.032	-0.396
-528.048	-75.327	-0.244	-0.086
-527.033	-35.787	0.422	-0.227
-526.018	-109.861	-0.306	-0.064
-525.004	-75.866	-0.270	-0.095
-523.989	245.108	-0.112	-0.187
-522.975	83.972	-0.089	0.096
-521.960	800.000	-0.030	-0.095
-520.945	30.497	0.071	0.060
-519.931	350.333	-0.012	0.023
-518.916	-200.000	-0.010	-0.126
-517.902	-200.000	0.028	-0.209
-516.887	-102.497	-0.300	0.071
-515.872	-142.530	0.266	-0.026
-514.858	800.000	0.024	-0.070
-513.843	800.000	0.041	0.148
-512.829	-200.000	-0.010	0.293
-511.814	31.043	-0.121	0.103
-510.799	-72.556	0.074	-0.027
-509.785	-29.280	-0.126	0.072
-508.770	679.147	0.097	0.250
-507.756	-200.000	-0.010	0.072
-506.741	-15.231	0.348	0.221
-505.726	-200.000	0.044	0.205
-504.712	-200.000	-0.015	-0.175
-503.697	-200.000	-0.042	0.263
-502.683	-158.123	-0.050	0.003
-501.668	139.324	0.121	0.158
-500.653	-200.000	0.080	-0.485
-499.639	-132.492	0.282	-0.036
-498.624	-78.300	0.227	0.077
-497.610	300.189	0.093	-0.171
-496.595	-74.691	0.085	0.030
-495.581	-200.000	-0.005	-0.056
-494.566	-113.971	-0.199	0.038
-493.551	-66.425	0.187	-0.073
-492.537	-47.815	-0.131	0.063
-491.522	-125.245	0.098	0.015
-490.508	-156.831	-0.223	0.014
-489.493	-200.000	0.053	0.436
-488.478	-200.000	0.020	0.166
-487.464	-23.175	-0.103	-0.061
-486.449	-200.000	-0.444	0.002
-485.435	800.000	0.036	0.147
-484.420	114.168	-0.167	0.201
-483.405	-200.000	-0.061	-0.342
-482.391	122.150	-0.229	0.283
-481.376	800.000	-0.069	0.263
-480.362	47.861	-0.101	0.093
-479.347	187.378	0.174	0.256
-478.332	22.885	-0.110	0.090
-477.318	-25.831	-0.248	0.145
-476.303	30.219	0.164	0.139
-475.289	-4.139	0.246	0.169
-474.274	-200.000	-0.013	-0.383
-473.259	-34.281	0.234	-0.127
-472.245	30.874	-0.085	-0.072
-471.230	-28.864	0.293	-0.167
-470.216	800.000	0.148	0.478
-469.201	-14.759	-0.054	0.034
-468.186	418.586	0.042	0.088
-467.172	-199.186	0.259	-0.001
-466.157	800.000	0.159	-0.452
-465.143	800.000	-0.027	0.074
-464.128	358.491	0.030	-0.059
-463.113	-180.996	0.069	-0.001
-462.099	177.757	-0.177	0.255
-461.084	-200.000	0.018	-0.091
-460.070	-131.124	0.024	-0.003
-459.055	-17.766	-0.327	0.203
-458.040	-4.394	-0.113	-0.078
-457.026	-184.444	0.256	0.004
-456.011	-129.052	-0.067	0.009
-454.997	580.165	0.106	0.257
-453.982	-138.505	0.428	-0.047
-452.968	-114.806	0.172	-0.032
-451.953	422.174	0.109	0.231
-450.938	-186.600	0.167	0.002
-449.924	9.107	0.234	-0.175
-448.909	-200.000	0.029	0.364
-447.895	188.156	0.175	0.259
-446.880	-200.000	0.001	-0.170
-445.865	-200.000	-0.003	-0.225
-444.851	4.814	-0.103	-0.075
-443.836	-148.713	0.241	-0.019
-442.822	-92.266	-0.142	0.039
-441.807	-25.240	-0.145	-0.085
-440.792	97.542	0.160	0.182
-439.778	-140.722	-0.373	0.038
-438.763	-200.000	0.016	0.160
-437.749	-49.850	-0.358	-0.168
-436.734	137.396	0.092	-0.119
-435.719	361.485	-0.098	-0.193
-434.705	-200.000	-0.009	0.135
-433.690	134.692	0.096	-0.123
-432.676	-200.000	0.009	0.154
-431.661	-57.487	-0.057	-0.025
-430.646	-70.160	-0.168	-0.063
-429.632	-117.861	-0.264	0.047
-428.617	800.000	0.031	-0.088
-427.603	89.077	-0.163	0.179
-426.588	-30.433	-0.118	-0.066
-425.573	-89.937	-0.300	-0.086
-424.559	800.000	0.047	0.132
-423.544	-74.703	0.087	0.031
-422.530	800.000	-0.052	0.144
-421.515	800.000	-0.071	-0.240
-420.500	638.561	-0.103	-0.259
-419.486	299.208	-0.161	0.292
-418.471	-200.000	0.020	-0.272
-417.457	-120.078	-0.105	0.018
-416.442	-200.000	-0.010	-0.225
-415.428	-110.718	0.191	-0.039
-414.413	202.406	0.088	-0.134
-413.398	439.897	-0.086	-0.184
-412.384	12.041	-0.142	0.108
-411.369	-11.124	-0.253	0.165
-410.355	-118.742	0.171	0.030
-409.340	-80.577	-0.311	0.102
-408.325	-24.619	0.264	0.155
-407.311	-122.863	0.178	-0.028
-406.296	-185.657	0.187	0.003
-405.282	-200.000	0.055	-0.292
-404.267	-47.414	0.427	0.205
-403.252	-200.000	0.009	0.054
-402.238	-181.875	0.156	0.003
-401.223	-65.115	0.188	-0.075
-400.209	-110.831	-0.139	-0.028
-399.194	33.467	-0.183	0.157
-398.179	-162.485	-0.106	0.005
-397.165	800.000	-0.059	0.176
-396.150	73.259	0.119	-0.122
-395.136	800.000	0.049	-0.174
-394.121	53.496	0.199	-0.188
-393.106	41.878	0.163	-0.146
-392.092	-50.555	0.227	0.106
-391.077	160.762	0.122	-0.168
-390.063	-88.838	0.144	-0.042
-389.048	72.093	-0.187	-0.192
-388.033	800.000	0.069	-0.209
-387.019	41.012	0.149	0.132
-386.004	-79.929	0.685	0.227
-384.990	-147.168	-0.061	-0.005
-383.975	-66.020	0.311	0.122
-382.960	-142.364	-0.155	0.015
-381.946	-72.147	-0.068	0.025
-380.931	-10.258	-0.171	0.112
-379.917	-3.001	-0.259	-0.178
-378.902	-47.709	-0.358	-0.171
-377.888	-200.000	0.030	0.175
-376.873	-200.000	-0.001	-0.015
-375.858	31.958	-0.303	-0.258
-374.844	-158.399	0.264	0.015
-373.829	40.507	-0.190	0.169
-372.815	-155.415	-0.122	0.008
-371.800	-105.554	-0.153	-0.034
-370.785	440.148	0.088	-0.190
-369.771	-88.733	-0.274	0.080
-368.756	76.524	0.451	-0.471
-367.742	303.929	-0.162	-0.295
-366.727	-3.483	0.076	-0.052
-365.712	-69.568	-0.107	0.040
-364.698	800.000	-0.099	-0.337
-363.683	-200.000	0.023	0.113
-362.669	-200.000	-0.028	-0.222
-361.654	-132.233	-0.154	0.020
-360.639	-96.510	-0.161	-0.042
-359.625	236.838	-0.008	0.013
-358.610	386.599	0.053	0.108
-357.596	160.851	-0.073	-0.100
-356.581	-39.978	0.093	-0.048
-355.566	125.255	-0.225	-0.279
-354.552	103.371	0.225	-0.260
-353.537	800.000	-0.036	-0.108
-352.523	-200.000	-0.015	-0.160
-351.508	-99.000	0.320	0.080
-350.493	-109.970	0.123	-0.025
-349.479	66.902	0.231	0.232
-348.464	85.155	0.253	-0.273
-347.450	-178.248	-0.210	0.005
-346.435	73.598	-0.093	0.095
-345.420	44.636	0.259	0.235
-344.406	155.100	-0.042	-0.057
-343.391	-15.893	0.078	-0.049
-342.377	138.529	0.110	0.142
-341.362	800.000	-0.039	0.144
-340.348	-38.338	0.237	-0.123
-339.333	-24.773	-0.243	-0.142
-338.318	800.000	0.017	0.059
-337.304	-52.241	0.040	0.018
-336.289	800.000	-0.059	0.168
-335.275	154.471	-0.186	-0.252
-334.260	800.000	-0.016	0.059
-333.245	407.357	-0.096	0.199
-332.231	-174.855	0.185	-0.005
-331.216	-65.473	-0.179	0.071
-330.202	-170.500	-0.314	0.011
-329.187	201.191	-0.093	-0.140
-328.172	-170.683	-0.094	-0.003
-327.158	222.701	-0.089	-0.142
-326.143	-200.000	0.012	-0.090
-325.129	218.885	-0.103	-0.162
-324.114	-116.385	0.221	-0.040
-323.099	800.000	-0.069	0.276
-322.085	-87.948	-0.050	0.015
-321.070	-79.555	-0.197	-0.065
-320.056	-65.856	0.319	0.126
-319.041	-117.167	0.086	0.015
-318.026	-46.020	-0.025	0.012
-317.012	70.772	0.174	0.177
-315.997	-200.000	0.051	0.221
-314.983	-200.000	0.051	-0.367
-313.968	-111.936	0.140	0.028
-312.953	88.233	0.147	-0.160
-311.939	238.377	-0.159	0.259
-310.924	-14.909	-0.094	0.059
-309.910	-43.022	0.389	-0.194
-308.895	240.142	0.069	-0.113
-307.880	-200.000	0.047	-0.353
-306.866	-97.411	0.065	0.017
-305.851	800.000	0.062	-0.170
-304.837	-200.000	0.018	0.162
-303.822	-200.000	-0.009	0.246
-302.807	-200.000	-0.000	0.087
-301.793	-200.000	0.004	0.025
-300.778	96.832	-0.135	0.152
-299.764	546.603	0.106	0.249
-298.749	388.649	-0.052	0.106
-297.735	90.169	0.027	-0.029
-296.720	-171.152	-0.368	-0.012
-295.705	633.995	-0.065	0.161
-294.691	138.300	0.041	0.052
-293.676	159.644	-0.156	-0.213
-292.662	-200.000	0.065	-0.357
-291.647	526.726	0.006	0.014
-290.632	-9.330	-0.231	0.151
-289.618	519.142	-0.176	0.406
-288.603	147.633	-0.220	-0.291
-287.589	-137.043	-0.242	-0.027
-286.574	-200.000	-0.075	-0.358
-285.559	-24.059	0.283	0.166
-284.545	8.454	0.101	0.074
-283.530	90.816	0.091	0.101
-282.516	57.897	0.149	0.143
-281.501	198.050	0.185	-0.277
-280.486	-200.000	0.037	0.241
-279.472	800.000	-0.079	0.262
-278.457	97.094	-0.328	-0.369
-277.443	-200.000	0.045	0.228
-276.428	-61.451	0.247	-0.102
-275.413	48.213	0.064	0.059
-274.399	-101.839	0.239	-0.057
-273.384	395.399	-0.220	-0.450
-272.370	-46.095	-0.123	-0.060
-271.355	-200.000	0.032	-0.208
-270.340	-112.833	0.198	-0.039
-269.326	-136.931	0.092	-0.010
-268.311	348.128	0.038	-0.073
-267.297	23.415	-0.292	-0.235
-266.282	800.000	-0.121	0.495
-265.267	-200.000	-0.092	0.449
-264.253	119.833	-0.292	0.355
-263.238	45.501	0.145	-0.132
-262.224	242.244	0.048	0.079
-261.209	143.668	-0.031	0.040
-260.195	-61.398	0.191	-0.079
-259.180	92.233	-0.112	-0.123
-258.165	106.198	0.191	0.222
-257.151	114.305	-0.113	0.135
-256.136	-115.271	0.173	0.032
-255.122	24.669	0.325	0.264
-254.107	593.269	0.028	-0.067
-253.092	-32.168	0.258	0.141
-252.078	-13.578	-0.213	-0.135
-251.063	-200.000	0.025	0.231
-250.049	455.340	-0.025	-0.054
-249.034	-134.270	-0.344	0.041
-248.019	-103.217	0.349	-0.081
-247.005	-200.000	-0.030	-0.208
-245.990	-130.788	-0.084	-0.011
-244.976	212.592	-0.165	0.255
-243.961	800.000	0.094	0.290
-242.946	10.225	-0.126	-0.094
-241.932	-200.000	-0.047	0.326
-240.917	63.670	-0.120	0.118
-239.903	-173.038	0.068	0.002
-238.888	5.942	0.307	-0.223
-237.873	90.413	-0.066	0.072
-236.859	574.605	0.132	0.316
-235.844	37.553	-0.115	-0.100
-234.830	-200.000	-0.019	-0.108
-233.815	109.355	-0.183	-0.215
-232.800	-114.550	0.181	-0.034
-231.786	-72.552	0.195	0.071
-230.771	-89.247	0.157	-0.045
-229.757	-161.650	-0.233	0.012
-228.742	7.434	0.139	-0.102
-227.727	800.000	0.075	0.222
-226.713	382.329	-0.122	0.247
-225.698	-105.256	0.388	0.087
-224.684	-55.476	-0.304	-0.134
-223.669	127.418	0.120	0.149
-222.655	-200.000	0.020	0.110
-221.640	131.153	0.250	0.314
-220.625	-121.252	0.132	-0.022
-219.611	512.396	-0.084	-0.193
-218.596	-200.000	0.006	0.148
-217.582	-38.029	0.296	0.154
-216.567	-101.419	0.329	0.079
-215.552	1.942	0.236	0.167
-214.538	81.251	-0.165	0.175
-213.523	75.243	-0.234	-0.241
-212.509	-33.190	0.258	0.140
-211.494	-109.215	-0.337	0.070
-210.479	158.167	-0.132	0.179
-209.465	217.174	0.072	-0.112
-208.450	-27.015	-0.256	0.146
-207.436	34.421	-0.124	0.106
-206.421	239.823	0.149	0.243
-205.406	-200.000	-0.031	-0.203
-204.392	-200.000	-0.003	0.113
-203.377	-81.287	-0.383	0.124
-202.363	21.538	-0.070	0.056
-201.348	-58.446	-0.263	0.112
-200.333	-166.280	-0.163	-0.007
-199.319	-116.909	-0.211	-0.038
-198.304	-16.703	0.055	0.034
-197.290	-91.909	-0.237	-0.066
-196.275	-200.000	0.041	0.203
-195.260	-200.000	0.073	0.372
-194.246	190.890	-0.036	-0.053
-193.231	-200.000	0.024	-0.169
-192.217	58.809	0.208	0.200
-191.202	-139.875	-0.253	-0.026
-190.187	60.391	-0.265	-0.257
-189.173	-67.910	0.200	0.076
-188.158	37.518	-0.095	-0.083
-187.144	-54.247	0.245	0.109
-186.129	-119.088	0.206	0.035
-185.114	30.593	-0.128	0.107
-184.100	-200.000	-0.017	-0.176
-183.085	-200.000	0.068	0.425
-182.071	800.000	-0.101	-0.411
-181.056	681.754	0.168	-0.428
-180.042	534.358	-0.063	0.146
-179.027	-200.000	-0.031	-0.212
-178.012	-59.498	0.155	0.065
-176.998	56.777	0.019	0.018
-175.983	-72.320	-0.301	-0.109
-174.969	134.518	0.083	-0.105
-173.954	-34.570	-0.191	-0.102
-172.939	800.000	0.113	0.330
-171.925	603.114	0.020	0.049
-170.910	3.619	0.093	-0.067
-169.896	800.000	0.111	0.301
-168.881	-141.185	-0.251	0.025
-167.866	157.370	0.059	0.080
-166.852	-78.866	0.103	0.034
-165.837	-146.421	0.100	0.009
-164.823	-75.637	0.112	0.039
-163.808	66.787	0.088	0.087
-162.793	-70.897	0.146	-0.054
-161.779	314.933	0.020	-0.036
-160.764	-35.905	-0.412	-0.218
-159.750	-200.000	0.007	-0.167
-158.735	-77.468	-0.310	-0.105
-157.720	312.128	-0.045	-0.082
-156.706	-200.000	-0.017	0.115
-155.691	-25.663	-0.162	0.093
-154.677	-24.167	0.242	-0.141
-153.662	-19.106	-0.214	0.130
-152.647	-128.805	0.342	0.047
-151.633	19.941	0.378	-0.298
-150.618	800.000	-0.056	0.219
-149.604	85.427	0.139	-0.149
-148.589	-6.005	0.152	-0.102
-147.574	-80.037	-0.291	0.095
-146.560	-196.732	0.201	0.001
-145.545	-200.000	-0.029	-0.229
-144.531	-15.418	-0.056	-0.035
-143.516	800.000	0.082	-0.320
-142.502	215.177	0.257	-0.398
-141.487	47.462	0.124	-0.113
-140.472	-129.475	-0.153	-0.021
-139.458	-98.126	0.160	-0.040
-138.443	-60.914	0.057	0.024
-137.429	-13.937	0.283	-0.179
-136.414	-136.144	-0.056	-0.006
-135.399	-23.785	-0.110	-0.064
-134.385	55.799	0.348	0.330
-133.370	321.982	-0.114	0.211
-132.356	-200.000	0.007	0.095
-131.341	482.222	-0.153	-0.339
-130.326	-200.000	0.027	-0.132
-129.312	-200.000	-0.017	0.169
-128.297	502.435	0.073	0.164
-127.283	-40.750	-0.080	0.040
-126.268	800.000	0.102	-0.360
-125.253	184.500	0.184	-0.266
-124.239	-200.000	-0.028	0.345
-123.224	-59.127	0.274	0.115
-122.210	203.391	-0.251	0.379
-121.195	128.918	-0.013	0.016
