DTS Sentinel unit serial number:	SN413079Multiplexer serial number:	ORYXHardware model number:	OX4-SRSoftware version number:	ORYX F/W v4.00 Oryx Data Collector v3.7.2.0data status	okinstallation	princeton_trtdifferential loss correction	single-endedforward channel	channel 2reverse channel	N/Adate	2019/09/14time	11:35:35forward acquisition time	60.00reverse acquisition time	0.00gamma	496.2192k internal	0.2311k external	0.2311temperature offset calibration	1.0154default loss term (dB/km)	0.3790temperature slope calibration	1.0000multiplexer offset coefficient	1.0000multiplexer slope coefficient	1.0000fibre end	0.00T internal ref (°C)	36.81T ext. ref 1 (°C)	4.56T ext. ref 2 (°C)	33.05length (m)	temperature (°C)	Stokes	anti-Stokes-747.200	111.342	-0.127	0.156
-746.185	-137.426	-0.336	0.039
-745.171	-103.297	0.206	0.049
-744.156	800.000	0.040	0.148
-743.142	135.554	-0.196	-0.260
-742.127	800.000	-0.170	0.493
-741.112	-47.649	-0.152	0.075
-740.098	-200.000	-0.017	0.231
-739.083	81.606	0.060	-0.066
-738.069	-51.835	-0.405	0.191
-737.054	800.000	0.077	-0.289
-736.039	-111.970	-0.326	-0.067
-735.025	-28.535	0.242	-0.142
-734.010	674.156	-0.116	0.305
-732.996	800.000	-0.051	0.219
-731.981	771.932	0.082	0.227
-730.966	262.510	-0.128	-0.225
-729.952	136.967	0.070	-0.092
-728.937	148.009	-0.042	0.057
-727.923	94.994	-0.155	-0.179
-726.908	287.861	-0.163	0.300
-725.894	-36.082	-0.299	-0.164
-724.879	-109.357	-0.202	0.043
-723.864	800.000	0.075	-0.238
-722.850	138.848	-0.187	-0.250
-721.835	29.988	-0.186	-0.161
-720.821	-107.809	0.089	-0.020
-719.806	361.954	-0.084	0.172
-718.791	270.986	-0.133	-0.237
-717.777	-115.975	-0.233	-0.044
-716.762	-11.640	0.173	-0.115
-715.748	-115.054	0.203	-0.039
-714.733	800.000	-0.033	-0.141
-713.718	325.087	-0.111	-0.216
-712.704	245.013	0.063	0.107
-711.689	-21.911	-0.143	-0.088
-710.675	155.874	-0.079	-0.111
-709.660	236.408	-0.150	-0.252
-708.645	-126.930	0.329	-0.049
-707.631	800.000	-0.061	-0.243
-706.616	800.000	-0.068	0.252
-705.602	231.316	0.070	-0.116
-704.587	96.463	0.063	-0.073
-703.572	-200.000	-0.012	-0.061
-702.558	109.388	-0.162	-0.197
-701.543	-67.074	-0.251	-0.100
-700.529	-132.687	0.098	0.013
-699.514	41.885	-0.240	0.221
-698.499	210.222	-0.173	-0.275
-697.485	-101.706	-0.446	0.110
-696.470	-48.649	-0.360	0.175
-695.456	-112.672	-0.171	-0.034
-694.441	-86.699	0.110	-0.034
-693.426	109.784	0.264	0.321
-692.412	20.407	0.228	-0.187
-691.397	425.055	-0.044	0.096
-690.383	-200.000	0.019	0.087
-689.368	-81.419	-0.285	-0.095
-688.354	-51.993	-0.300	-0.141
-687.339	6.382	-0.169	-0.127
-686.324	249.105	-0.191	0.329
-685.310	20.641	-0.452	-0.371
-684.295	85.913	0.120	0.133
-683.281	333.597	-0.177	-0.347
-682.266	-200.000	0.026	-0.207
-681.251	5.318	-0.235	0.176
-680.237	85.252	-0.275	0.305
-679.222	94.204	-0.252	-0.290
-678.208	-102.634	0.185	-0.045
-677.193	-66.938	0.156	-0.062
-676.178	30.634	0.031	0.027
-675.164	-118.391	-0.244	-0.044
-674.149	800.000	0.065	0.251
-673.135	-123.331	0.106	0.017
-672.120	56.546	-0.160	-0.157
-671.105	-59.705	-0.066	-0.029
-670.091	-37.981	-0.073	-0.039
-669.076	59.916	0.338	-0.338
-668.062	14.476	0.146	-0.115
-667.047	-200.000	0.030	0.161
-666.032	-200.000	-0.026	0.123
-665.018	-70.497	-0.261	0.100
-664.003	-158.723	-0.176	0.010
-662.989	122.737	-0.182	0.230
-661.974	-200.000	0.024	-0.175
-660.959	-127.731	-0.251	0.037
-659.945	-3.945	-0.240	0.169
-658.930	31.385	0.025	-0.022
-657.916	-73.347	0.117	0.043
-656.901	-116.769	0.297	0.055
-655.886	-200.000	0.008	0.169
-654.872	334.986	-0.199	-0.390
-653.857	41.601	0.342	0.313
-652.843	-200.000	0.074	-0.365
-651.828	102.233	-0.216	0.256
-650.814	800.000	0.058	-0.255
-649.799	-92.724	0.157	-0.044
-648.784	-86.062	-0.178	0.056
-647.770	-77.442	-0.202	0.071
-646.755	-200.000	0.002	0.286
-645.741	-200.000	-0.040	-0.231
-644.726	-94.751	-0.168	-0.046
-643.711	8.859	-0.322	0.245
-642.697	109.916	0.117	-0.142
-641.682	-171.850	0.141	-0.005
-640.668	-200.000	0.004	0.078
-639.653	800.000	0.099	0.336
-638.638	-82.242	-0.075	0.025
-637.624	-80.063	0.320	-0.109
-636.609	27.110	-0.215	0.182
-635.595	107.475	-0.104	-0.125
-634.580	-200.000	-0.058	-0.278
-633.565	-157.428	-0.339	0.021
-632.551	439.413	-0.047	-0.103
-631.536	-45.405	-0.289	-0.145
-630.522	-4.770	0.050	-0.035
-629.507	800.000	0.072	-0.266
-628.492	562.550	-0.170	-0.417
-627.478	-200.000	0.014	0.170
-626.463	-128.475	-0.134	-0.019
-625.449	-168.835	0.142	-0.005
-624.434	113.082	-0.040	0.049
-623.419	-199.953	-0.611	0.003
-622.405	-200.000	0.002	0.046
-621.390	-28.482	0.272	0.159
-620.376	-82.079	0.126	0.042
-619.361	-65.396	0.163	-0.066
-618.346	-200.000	0.012	0.055
-617.332	46.027	0.151	0.141
-616.317	-71.981	-0.245	0.092
-615.303	205.388	0.091	0.143
-614.288	232.221	0.161	-0.267
-613.273	-200.000	0.085	0.397
-612.259	-12.798	0.112	0.074
-611.244	75.888	-0.196	-0.209
-610.230	-200.000	0.050	0.321
-609.215	68.964	-0.076	0.079
-608.201	800.000	-0.049	-0.161
-607.186	800.000	-0.131	0.447
-606.171	2.744	-0.108	-0.079
-605.157	21.671	-0.131	0.108
-604.142	-200.000	0.001	-0.096
-603.128	40.175	-0.299	-0.271
-602.113	206.492	0.066	0.104
-601.098	-166.533	0.080	0.003
-600.084	-78.624	0.206	0.071
-599.069	259.059	0.090	0.157
-598.055	-200.000	-0.305	0.000
-597.040	-155.706	-0.153	0.010
-596.025	745.488	0.079	0.214
-595.011	-200.000	0.019	-0.597
-593.996	173.861	-0.149	-0.217
-592.982	322.912	-0.124	-0.239
-591.967	-61.069	-0.180	0.077
-590.952	-200.000	-0.023	-0.414
-589.938	56.069	0.104	-0.102
-588.923	322.789	-0.202	-0.389
-587.909	-35.985	-0.296	-0.161
-586.894	-160.653	0.286	-0.015
-585.879	-200.000	0.140	-0.000
-584.865	-10.577	-0.026	-0.017
-583.850	-3.797	-0.252	0.176
-582.836	-85.696	0.232	0.073
-581.821	-173.073	-0.214	0.007
-580.806	-31.252	0.258	-0.146
-579.792	-71.606	-0.069	0.026
-578.777	-65.886	0.264	0.106
-577.763	-200.000	-0.064	0.333
-576.748	147.073	-0.226	0.307
-575.733	264.429	0.150	0.264
-574.719	-200.000	0.006	-0.185
-573.704	800.000	0.053	-0.161
-572.690	-11.042	0.198	0.132
-571.675	285.743	0.164	-0.299
-570.661	-25.570	-0.085	0.051
-569.646	-200.000	0.023	0.122
-568.631	-9.485	-0.094	-0.063
-567.617	-5.247	-0.051	0.035
-566.602	800.000	-0.027	-0.103
-565.588	48.383	0.095	0.089
-564.573	83.126	-0.007	-0.008
-563.558	768.547	-0.032	0.089
-562.544	-81.874	0.142	-0.047
-561.529	-200.000	-0.009	-0.160
-560.515	-200.000	-0.014	0.079
-559.500	17.689	-0.226	-0.181
-558.485	-104.587	0.206	0.048
-557.471	-31.595	-0.252	-0.143
-556.456	-39.871	0.186	0.098
-555.442	-200.000	-0.026	0.484
-554.427	-58.757	-0.255	0.111
-553.412	-84.631	0.289	-0.092
-552.398	800.000	-0.073	-0.295
-551.383	-62.686	-0.033	0.014
-550.369	-131.659	-0.192	0.025
-549.354	-159.339	0.310	0.018
-548.339	285.895	-0.146	-0.266
-547.325	95.042	-0.092	0.106
-546.310	-68.425	-0.237	0.093
-545.296	-10.707	-0.097	-0.064
-544.281	800.000	0.014	0.057
-543.266	-92.520	0.180	0.051
-542.252	89.631	-0.074	-0.083
-541.237	-152.678	-0.215	0.015
-540.223	759.906	0.022	-0.060
-539.208	259.658	0.069	-0.120
-538.193	-129.289	0.251	-0.035
-537.179	-36.749	0.175	0.094
-536.164	-100.819	-0.181	-0.045
-535.150	300.809	0.158	-0.293
-534.135	247.296	0.111	0.188
-533.121	20.386	-0.302	0.246
-532.106	-51.842	-0.375	0.176
-531.091	-200.000	-0.010	-0.182
-530.077	800.000	0.072	-0.236
-529.062	-200.000	0.029	-0.192
-528.048	-22.353	0.200	-0.122
-527.033	-62.660	0.103	0.043
-526.018	-17.108	0.353	-0.224
-525.004	-200.000	-0.027	-0.350
-523.989	-141.137	-0.175	-0.018
-522.975	115.871	0.165	0.203
-521.960	500.219	-0.073	-0.170
-520.945	-147.440	-0.221	0.019
-519.931	-17.241	-0.113	0.072
-518.916	323.855	-0.067	-0.129
-517.902	40.699	-0.034	-0.031
-516.887	446.706	-0.041	0.091
-515.872	6.455	0.124	-0.092
-514.858	800.000	-0.065	0.188
-513.843	-73.103	0.148	0.055
-512.829	-102.700	-0.272	0.065
-511.814	363.977	-0.205	-0.415
-510.799	-200.000	-0.022	0.117
-509.785	-22.564	-0.276	0.168
-508.770	45.944	-0.168	-0.157
-507.756	-11.482	-0.049	0.032
-506.741	-13.262	-0.061	-0.040
-505.726	34.837	-0.280	-0.246
-504.712	-83.909	0.064	0.020
-503.697	800.000	0.061	-0.196
-502.683	-19.424	0.117	-0.073
-501.668	34.269	0.047	0.041
-500.653	197.318	-0.123	-0.189
-499.639	113.007	-0.081	-0.099
-498.624	-200.000	-0.022	-0.122
-497.610	-200.000	0.044	-0.230
-496.595	14.252	-0.136	-0.107
-495.581	-81.387	-0.236	-0.078
-494.566	-63.976	0.237	-0.097
-493.551	-119.790	0.157	0.027
-492.537	37.620	-0.212	0.189
-491.522	-8.579	0.234	0.158
-490.508	27.679	-0.368	0.312
-489.493	-150.942	-0.060	0.005
-488.478	-150.748	-0.099	-0.008
-487.464	326.932	-0.056	-0.108
-486.449	-103.521	0.082	0.019
-485.435	171.870	0.207	0.299
-484.420	-14.043	0.384	-0.249
-483.405	-103.500	0.097	0.023
-482.391	165.227	-0.121	-0.171
-481.376	-37.959	0.107	-0.057
-480.362	-58.818	0.102	-0.044
-479.347	594.310	0.162	-0.401
-478.332	-53.243	0.082	-0.038
-477.318	325.493	-0.033	0.064
-476.303	800.000	-0.045	0.136
-475.289	-49.457	-0.156	0.075
-474.274	-6.631	-0.320	0.219
-473.259	132.380	0.032	-0.042
-472.245	-2.338	0.305	-0.215
-471.230	800.000	-0.163	0.487
-470.216	-63.688	0.534	0.220
-469.201	-78.267	0.225	0.077
-468.186	800.000	-0.051	-0.179
-467.172	-94.363	0.076	0.021
-466.157	-146.830	-0.145	0.013
-465.143	85.372	-0.198	-0.218
-464.128	-200.000	0.013	-0.098
-463.113	-125.443	-0.244	0.037
-462.099	-200.000	0.019	0.242
-461.084	-53.323	0.069	-0.032
-460.070	-145.207	0.091	0.008
-459.055	-93.108	0.309	0.086
-458.040	-200.000	-0.023	-0.286
-457.026	780.321	-0.069	0.190
-456.011	-121.034	0.167	0.028
-454.997	-113.464	0.126	-0.025
-453.982	97.014	-0.135	-0.156
-452.968	249.242	-0.034	0.057
-451.953	170.072	0.167	0.240
-450.938	800.000	-0.009	0.031
-449.924	-0.708	0.175	-0.124
-448.909	-98.803	-0.211	-0.054
-447.895	4.559	0.133	0.098
-446.880	355.801	-0.026	0.052
-445.865	-58.601	-0.121	0.053
-444.851	112.308	-0.036	0.043
-443.836	-67.624	0.147	0.058
-442.822	40.420	0.096	-0.086
-441.807	489.020	0.163	0.374
-440.792	-48.873	0.447	0.215
-439.778	-200.000	0.210	-0.001
-438.763	-73.246	0.347	-0.128
-437.749	-119.988	0.123	0.021
-436.734	-63.101	0.331	-0.137
-435.719	800.000	-0.067	-0.270
-434.705	9.919	-0.301	0.229
-433.690	-5.007	-0.407	-0.281
-432.676	-138.425	-0.164	0.018
-431.661	-102.109	-0.206	-0.050
-430.646	700.346	0.089	-0.236
-429.632	-110.808	-0.377	0.078
-428.617	-200.000	-0.015	-0.169
-427.603	-200.000	-0.207	-0.000
-426.588	392.337	-0.124	0.258
-425.573	68.902	-0.096	0.099
-424.559	568.432	0.069	-0.167
-423.544	460.920	0.007	0.015
-422.530	800.000	0.029	-0.125
-421.515	19.270	0.143	-0.115
-420.500	800.000	0.076	0.245
-419.486	-200.000	-0.021	0.111
-418.471	-29.712	0.422	-0.242
-417.457	-9.837	-0.127	0.084
-416.442	118.768	-0.148	-0.183
-415.428	800.000	0.060	-0.226
-414.413	-121.854	0.248	-0.041
-413.398	-132.278	0.231	0.030
-412.384	522.105	-0.060	-0.142
-411.369	-6.679	0.162	0.110
-410.355	-48.490	0.327	-0.158
-409.340	119.205	-0.129	-0.160
-408.325	800.000	-0.055	-0.193
-407.311	-145.496	0.203	0.018
-406.296	-91.282	0.219	-0.063
-405.282	-135.022	0.152	0.018
-404.267	-41.373	0.093	0.048
-403.252	580.710	0.036	-0.089
-402.238	-105.714	-0.192	-0.043
-401.223	-114.443	0.170	-0.033
-400.209	-106.299	-0.099	0.022
-399.194	-69.423	-0.098	-0.038
-398.179	-200.000	-0.051	0.369
-397.165	-180.683	0.165	0.003
-396.150	25.001	-0.266	0.221
-395.136	213.349	0.255	-0.403
-394.121	-60.018	-0.220	-0.094
-393.106	326.195	-0.059	-0.114
-392.092	22.662	-0.446	-0.365
-391.077	443.561	-0.067	0.148
-390.063	39.440	0.024	0.022
-389.048	-55.139	0.091	0.041
-388.033	584.037	0.096	-0.236
-387.019	-12.815	0.231	0.151
-386.004	-24.201	0.091	-0.055
-384.990	5.004	-0.083	0.061
-383.975	528.299	0.106	0.251
-382.960	-32.306	-0.331	-0.185
-381.946	375.304	-0.026	-0.054
-380.931	-120.907	0.486	-0.082
-379.917	-36.476	0.275	-0.148
-378.902	106.390	0.146	-0.174
-377.888	800.000	0.028	0.087
-376.873	-200.000	-0.047	-0.360
-375.858	-141.965	-0.152	-0.015
-374.844	-200.000	0.002	0.020
-373.829	800.000	-0.122	0.481
-372.815	-22.508	0.121	-0.073
-371.800	-200.000	0.021	-0.188
-370.785	-117.623	-0.222	-0.040
-369.771	266.402	-0.114	0.200
-368.756	-29.155	-0.154	-0.088
-367.742	-81.670	-0.267	-0.088
-366.727	-12.822	0.348	-0.227
-365.712	249.784	0.110	0.187
-364.698	-38.597	-0.073	-0.038
-363.683	670.865	-0.104	-0.270
-362.669	10.684	-0.151	0.115
-361.654	-27.734	0.173	-0.100
-360.639	523.172	0.127	-0.298
-359.625	-91.938	0.214	0.061
-358.610	-29.424	0.181	0.104
-357.596	-200.000	-0.039	0.243
-356.581	-112.842	-0.452	-0.090
-355.566	-11.388	0.117	-0.077
-354.552	722.362	0.181	0.481
-353.537	-53.089	-0.209	-0.096
-352.523	462.708	0.106	0.237
-351.508	562.225	-0.110	-0.266
-350.493	448.416	-0.100	0.221
-349.479	-85.986	0.125	0.039
-348.464	-200.000	-0.024	0.389
-347.450	-98.016	0.377	0.097
-346.435	-1.534	0.127	0.089
-345.420	800.000	0.037	0.157
-344.406	409.124	0.081	-0.171
-343.391	-96.212	-0.266	-0.071
-342.377	-51.018	0.524	-0.246
-341.362	41.559	-0.185	-0.167
-340.348	-137.648	-0.111	-0.013
-339.333	-4.727	-0.199	-0.137
-338.318	-24.953	0.304	0.180
-337.304	151.323	0.149	0.203
-336.289	484.577	-0.124	0.283
-335.275	-200.000	0.003	-0.276
-334.260	-115.544	-0.004	-0.001
-333.245	800.000	0.005	-0.019
-332.231	26.530	-0.306	0.255
-331.216	-200.000	0.048	-0.231
-330.202	38.443	-0.175	-0.156
-329.187	-192.913	-0.202	-0.002
-328.172	247.835	0.188	0.317
-327.158	-200.000	-0.028	-0.155
-326.143	-200.000	-0.018	-0.475
-325.129	800.000	0.017	0.073
-324.114	-24.359	-0.050	0.030
-323.099	-84.159	-0.232	0.073
-322.085	75.875	0.139	0.147
-321.070	-35.278	-0.060	-0.033
-320.056	18.952	-0.175	0.140
-319.041	-11.874	0.176	0.116
-318.026	119.191	-0.179	0.221
-317.012	10.350	-0.093	0.071
-315.997	10.123	0.253	0.192
-314.983	550.692	-0.019	0.046
-313.968	-150.189	0.166	-0.013
-312.953	800.000	-0.060	0.175
-311.939	218.247	-0.298	0.475
-310.924	-65.205	-0.189	0.076
-309.910	800.000	0.079	-0.219
-308.895	-200.000	-0.049	-0.293
-307.880	431.109	-0.089	0.192
-306.866	-49.363	0.172	-0.082
-305.851	116.605	0.100	-0.123
-304.837	237.171	0.040	-0.066
-303.822	224.946	0.073	0.118
-302.807	-167.893	-0.048	0.002
-301.793	367.856	0.012	-0.023
-300.778	-156.020	0.079	0.005
-299.764	777.964	0.029	0.078
-298.749	-200.000	0.012	0.199
-297.735	800.000	0.150	0.494
-296.720	-200.000	0.037	0.257
-295.705	190.723	0.016	-0.024
-294.691	-115.511	-0.233	-0.044
-293.676	-176.173	-0.171	-0.004
-292.662	126.771	0.091	-0.114
-291.647	36.095	-0.135	-0.118
-290.632	245.400	-0.126	0.211
-289.618	-172.504	0.216	0.007
-288.603	800.000	-0.069	0.283
-287.589	-127.515	0.162	-0.023
-286.574	-37.964	0.366	-0.194
-285.559	2.281	0.202	0.146
-284.545	738.061	0.049	-0.131
-283.530	-200.000	0.017	0.115
-282.516	800.000	-0.103	0.345
-281.501	224.089	0.180	-0.290
-280.486	426.936	0.100	0.216
-279.472	647.273	-0.111	-0.282
-278.457	-200.000	-0.008	0.109
-277.443	-80.770	-0.142	0.047
-276.428	-5.086	-0.095	0.065
-275.413	-75.549	-0.259	-0.092
-274.399	-200.000	-0.061	0.292
-273.384	407.429	-0.096	-0.203
-272.370	-104.657	-0.102	0.023
-271.355	121.380	0.053	0.066
-270.340	-200.000	0.031	0.371
-269.326	163.911	-0.208	-0.292
-268.311	799.003	0.140	0.385
-267.297	-124.789	-0.442	0.068
-266.282	331.055	-0.116	-0.222
-265.267	-166.596	-0.200	0.008
-264.253	471.819	0.194	-0.435
-263.238	-102.929	-0.131	0.031
-262.224	159.935	0.027	-0.038
-261.209	-143.792	0.448	-0.042
-260.195	800.000	0.085	-0.314
-259.180	65.739	0.163	0.164
-258.165	151.781	-0.117	-0.158
-257.151	-173.768	-0.140	0.004
-256.136	-200.000	-0.030	0.232
-255.122	92.631	0.221	0.248
-254.107	-200.000	-0.052	0.409
-253.092	755.746	0.012	-0.033
-252.078	-185.547	0.238	-0.004
-251.063	800.000	0.056	-0.195
-250.049	-1.294	-0.189	-0.133
-249.034	79.427	-0.145	-0.155
-248.019	38.609	-0.111	0.099
-247.005	-90.150	0.396	-0.115
-245.990	-200.000	-0.042	-0.189
-244.976	-200.000	0.010	-0.216
-243.961	396.378	-0.071	0.147
-242.946	141.906	-0.116	-0.153
-241.932	-21.552	-0.162	0.098
-240.917	103.489	-0.131	0.153
-239.903	363.954	-0.050	0.101
-238.888	-173.066	-0.263	-0.008
-237.873	-105.397	0.084	-0.019
-236.859	45.055	0.100	0.091
-235.844	-200.000	-0.020	0.098
-234.830	461.173	-0.128	0.284
-233.815	285.425	0.059	0.106
-232.800	2.601	0.199	0.143
-231.786	-55.046	0.219	0.098
-230.771	-200.000	0.069	-0.539
-229.757	83.386	0.191	0.207
-228.742	-160.245	-0.166	-0.009
-227.727	-3.179	-0.104	0.072
-226.713	601.660	0.121	-0.299
-225.698	281.938	0.074	-0.131
-224.684	-67.250	0.302	-0.118
-223.669	499.562	-0.133	0.305
-222.655	-158.156	0.206	0.012
-221.640	-146.553	-0.269	0.023
-220.625	-39.671	-0.128	0.067
-219.611	800.000	0.066	0.282
-218.596	-200.000	-0.008	-0.208
-217.582	57.419	-0.030	0.029
-216.567	-39.032	-0.147	0.077
-215.552	67.563	-0.058	0.059
-214.538	115.419	0.128	0.155
-213.523	333.748	0.181	0.349
-212.509	-117.156	-0.087	-0.016
-211.494	-200.000	0.027	-0.297
-210.479	392.491	0.042	0.086
-209.465	543.846	-0.041	-0.096
-208.450	217.613	0.093	-0.147
-207.436	-130.451	-0.572	-0.077
-206.421	683.548	-0.026	0.068
-205.406	558.033	0.110	-0.264
-204.392	-200.000	0.023	-0.423
-203.377	-3.729	0.177	0.122
-202.363	-151.230	-0.094	0.007
-201.348	-63.306	0.184	0.075
-200.333	800.000	0.034	0.134
-199.319	-200.000	-0.058	-0.254
-198.304	-162.335	0.219	0.011
-197.290	-136.144	0.327	-0.038
-196.275	378.476	-0.132	0.269
-195.260	-98.809	-0.310	-0.078
-194.246	-48.862	-0.051	-0.024
-193.231	-200.000	0.006	-0.086
-192.217	-200.000	-0.017	-0.205
-191.202	-200.000	-0.051	-0.484
-190.187	-82.524	-0.221	0.071
-189.173	156.088	-0.064	-0.088
-188.158	741.792	0.013	0.034
-187.144	-194.870	0.091	0.001
-186.129	-76.832	-0.205	0.071
-185.114	-45.906	0.251	0.123
-184.100	-200.000	0.031	-0.180
-183.085	377.952	0.061	0.124
-182.071	-88.413	-0.363	0.108
-181.056	-200.000	0.012	0.057
-180.042	-200.000	0.072	-0.000
-179.027	-113.166	-0.160	-0.031
-178.012	-109.533	-0.204	-0.043
-176.998	-200.000	0.075	0.563
-175.983	362.729	-0.102	0.204
-174.969	523.774	-0.066	0.154
-173.954	-200.000	-0.002	0.037
-172.939	-119.882	-0.199	-0.034
-171.925	-200.000	-0.179	-0.000
-170.910	6.614	0.131	0.097
-169.896	314.801	0.154	0.288
-168.881	-185.856	0.108	0.002
-167.866	-34.891	-0.213	0.115
-166.852	-134.808	0.167	-0.020
-165.837	576.593	0.096	-0.232
-164.823	-76.001	0.383	0.135
-163.808	33.917	0.231	0.200
-162.793	-2.227	0.282	-0.196
-161.779	21.436	0.160	-0.129
-160.764	381.018	-0.086	-0.175
-159.750	-198.915	0.186	0.001
-158.735	-40.190	0.267	0.138
-157.720	-200.000	-0.021	-0.104
-156.706	-90.802	-0.189	0.054
-155.691	-200.000	-0.015	0.270
-154.677	87.745	0.111	0.122
-153.662	-62.628	0.206	-0.085
-152.647	-48.429	-0.087	-0.041
-151.633	1.321	0.280	0.200
-150.618	-200.000	0.010	0.194
-149.604	-122.814	0.205	0.033
-148.589	-1.810	-0.156	-0.109
-147.574	39.814	-0.267	-0.238
-146.560	81.651	0.149	0.159
-145.545	-59.013	-0.249	0.107
-144.531	-200.000	0.036	-0.219
-143.516	154.707	0.101	-0.138
-142.502	-200.000	0.018	0.233
-141.487	270.341	0.075	-0.130
-140.472	-200.000	-0.060	-0.372
-139.458	479.658	-0.093	-0.209
-138.443	-200.000	-0.009	-0.122
-137.429	-100.072	0.073	-0.018
-136.414	-97.681	0.160	-0.041
-135.399	-18.431	0.089	0.055
-134.385	-74.320	0.029	-0.010
-133.370	-125.821	0.242	-0.036
-132.356	-175.347	0.206	0.006
-131.341	-104.949	0.363	-0.082
-130.326	2.222	-0.297	-0.213
-129.312	-72.507	-0.235	-0.086
-128.297	-200.000	-0.010	0.236
-127.283	235.058	0.075	-0.123
-126.268	800.000	-0.027	-0.103
-125.253	-85.717	-0.402	-0.124
-124.239	168.362	0.177	-0.250
-123.224	-200.000	0.016	-0.129
-122.210	190.457	0.138	-0.205
