DTS Sentinel unit serial number:	SN413079Multiplexer serial number:	ORYXHardware model number:	OX4-SRSoftware version number:	ORYX F/W v4.00 Oryx Data Collector v3.7.2.0data status	okinstallation	princeton_trtdifferential loss correction	single-endedforward channel	channel 2reverse channel	N/Adate	2019/09/16time	01:23:34forward acquisition time	60.00reverse acquisition time	0.00gamma	496.2192k internal	0.2337k external	0.2337temperature offset calibration	0.9967default loss term (dB/km)	0.3790temperature slope calibration	1.0000multiplexer offset coefficient	1.0000multiplexer slope coefficient	1.0000fibre end	0.00T internal ref (°C)	27.27T ext. ref 1 (°C)	9.89T ext. ref 2 (°C)	21.86length (m)	temperature (°C)	Stokes	anti-Stokes-747.200	-116.367	-0.097	-0.018
-746.185	137.729	-0.191	-0.251
-745.171	-200.000	-0.018	0.121
-744.156	-133.539	-0.094	-0.012
-743.142	34.357	-0.099	-0.087
-742.127	-17.568	-0.062	0.039
-741.112	-104.559	0.232	-0.054
-740.098	-40.653	-0.375	0.195
-739.083	800.000	-0.065	0.184
-738.069	800.000	-0.236	0.655
-737.054	-200.000	0.028	0.217
-736.039	202.793	-0.231	-0.358
-735.025	-200.000	0.032	0.152
-734.010	179.195	0.055	0.081
-732.996	68.833	0.113	0.116
-731.981	-136.936	-0.080	-0.009
-730.966	-200.000	-0.008	-0.380
-729.952	-50.143	0.131	0.062
-728.937	-200.000	0.009	0.186
-727.923	257.871	0.088	-0.152
-726.908	-41.405	0.186	0.096
-725.894	-200.000	0.111	-0.623
-724.879	-200.000	-0.033	-0.380
-723.864	800.000	0.034	-0.128
-722.850	-155.535	0.079	0.005
-721.835	328.640	0.145	-0.280
-720.821	-200.000	0.013	0.068
-719.806	-55.375	-0.221	0.099
-718.791	-107.437	-0.371	-0.082
-717.777	468.511	-0.092	-0.206
-716.762	-16.269	-0.202	0.128
-715.748	-83.423	0.212	0.068
-714.733	6.755	0.102	0.076
-713.718	310.344	-0.050	0.094
-712.704	-4.485	-0.029	-0.020
-711.689	-200.000	0.018	0.101
-710.675	-43.427	-0.238	-0.121
-709.660	-66.161	0.136	-0.054
-708.645	103.965	0.203	-0.239
-707.631	47.259	0.161	0.150
-706.616	42.372	0.172	0.157
-705.602	-200.000	-0.018	0.209
-704.587	7.965	-0.213	0.160
-703.572	464.494	0.130	0.291
-702.558	31.597	0.159	-0.137
-701.543	-60.858	0.046	0.020
-700.529	-200.000	0.008	-0.272
-699.514	-200.000	0.059	0.426
-698.499	-200.000	-0.058	0.297
-697.485	-200.000	-0.028	0.281
-696.470	800.000	-0.040	-0.141
-695.456	-200.000	-0.156	0.000
-694.441	-1.394	-0.364	-0.257
-693.426	-64.029	0.158	-0.065
-692.412	-200.000	0.012	0.055
-691.397	-125.970	-0.340	0.051
-690.383	-200.000	-0.016	0.156
-689.368	800.000	0.023	0.085
-688.354	-161.563	-0.422	-0.022
-687.339	-25.948	0.203	-0.120
-686.324	-3.994	-0.182	0.127
-685.310	421.583	-0.088	0.190
-684.295	-200.000	0.018	0.125
-683.281	1.901	0.047	-0.034
-682.266	-105.333	0.212	0.048
-681.251	-156.767	-0.257	0.016
-680.237	217.047	0.057	-0.091
-679.222	-89.440	0.039	0.011
-678.208	-200.000	0.004	0.215
-677.193	-200.000	0.020	-0.171
-676.178	800.000	0.039	-0.143
-675.164	782.560	-0.066	-0.180
-674.149	99.643	-0.082	0.095
-673.135	-117.263	0.108	-0.020
-672.120	255.024	-0.129	0.221
-671.105	-200.000	-0.040	-0.465
-670.091	177.915	0.071	0.104
-669.076	-38.037	-0.212	-0.113
-668.062	11.472	0.099	-0.076
-667.047	800.000	-0.044	0.172
-666.032	800.000	-0.057	0.205
-665.018	800.000	-0.034	-0.103
-664.003	-200.000	-0.072	-0.322
-662.989	-104.994	0.095	-0.022
-661.974	0.515	-0.172	-0.123
-660.959	-77.368	-0.400	-0.139
-659.945	211.100	0.074	-0.116
-658.930	-59.524	0.171	-0.074
-657.916	-200.000	0.020	0.302
-656.901	53.726	-0.083	-0.080
-655.886	800.000	0.152	0.429
-654.872	-90.514	-0.144	-0.042
-653.857	60.995	-0.168	-0.167
-652.843	150.530	-0.044	-0.060
-651.828	-58.534	-0.125	0.054
-650.814	-200.000	0.019	-0.236
-649.799	278.477	0.176	0.314
-648.784	-110.193	0.371	0.077
-647.770	-136.978	-0.385	0.044
-646.755	5.099	0.410	-0.302
-645.741	-200.000	0.029	-0.158
-644.726	-90.607	0.144	0.041
-643.711	68.718	-0.271	0.279
-642.697	-40.155	-0.208	0.108
-641.682	-40.207	-0.199	-0.104
-640.668	120.953	-0.232	-0.288
-639.653	88.202	-0.247	-0.274
-638.638	188.836	0.125	0.187
-637.624	-200.000	-0.011	0.072
-636.609	231.055	-0.054	-0.089
-635.595	-100.698	-0.255	0.063
-634.580	628.420	0.148	-0.373
-633.565	-67.136	-0.274	-0.108
-632.551	-102.042	0.050	-0.012
-631.536	-101.902	0.197	0.048
-630.522	-11.802	0.212	0.139
-629.507	28.024	0.189	-0.159
-628.492	-38.535	-0.140	0.074
-627.478	-14.058	-0.320	-0.206
-626.463	283.604	0.033	-0.059
-625.449	44.260	-0.173	0.159
-624.434	800.000	0.084	0.291
-623.419	-200.000	0.039	-0.221
-622.405	-58.734	-0.175	0.076
-621.390	122.742	-0.135	-0.169
-620.376	-155.342	0.149	-0.010
-619.361	12.952	-0.121	0.094
-618.346	233.336	0.052	-0.086
-617.332	86.966	0.037	-0.041
-616.317	-140.037	-0.072	-0.008
-615.303	221.032	-0.095	0.153
-614.288	-200.000	-0.036	0.275
-613.273	-73.213	0.134	0.049
-612.259	-200.000	0.042	-0.223
-611.244	-128.063	-0.150	0.021
-610.230	-200.000	-0.014	-0.369
-609.215	-122.913	-0.251	-0.040
-608.201	-110.331	-0.356	-0.074
-607.186	-57.836	0.209	-0.091
-606.171	-87.217	-0.100	0.030
-605.157	4.360	-0.092	0.067
-604.142	800.000	-0.036	-0.133
-603.128	523.508	0.115	0.271
-602.113	2.716	0.102	0.074
-601.098	-148.919	-0.238	-0.019
-600.084	-26.647	-0.205	0.120
-599.069	310.020	-0.107	-0.200
-598.055	800.000	0.049	0.186
-597.040	20.153	-0.055	0.044
-596.025	64.526	0.194	0.196
-595.011	-14.898	-0.526	0.337
-593.996	21.112	0.110	0.089
-592.982	800.000	0.104	-0.321
-591.967	187.936	0.022	0.033
-590.952	-152.039	-0.321	-0.023
-589.938	800.000	0.059	0.216
-588.923	800.000	0.015	0.042
-587.909	-95.323	0.597	0.160
-586.894	800.000	-0.019	0.063
-585.879	800.000	0.050	-0.208
-584.865	615.607	-0.161	0.402
-583.850	-200.000	0.018	0.207
-582.836	3.714	0.291	-0.212
-581.821	-97.665	-0.022	0.006
-580.806	321.496	0.044	-0.084
-579.792	-200.000	0.012	-0.120
-578.777	-200.000	0.024	-0.150
-577.763	718.363	-0.119	0.315
-576.748	161.880	-0.298	0.417
-575.733	119.839	-0.174	-0.215
-574.719	800.000	-0.040	0.168
-573.704	578.253	0.009	0.022
-572.690	-153.405	0.341	-0.024
-571.675	-40.117	-0.141	-0.073
-570.661	53.889	-0.202	0.193
-569.646	231.797	-0.057	-0.094
-568.631	-81.879	0.258	-0.084
-567.617	-130.074	-0.201	0.027
-566.602	173.172	-0.123	-0.177
-565.588	169.616	-0.139	0.198
-564.573	-53.897	-0.395	0.180
-563.558	24.949	0.146	0.121
-562.544	73.475	-0.137	0.142
-561.529	136.399	-0.146	-0.189
-560.515	339.573	-0.127	-0.247
-559.500	-178.108	-0.033	-0.001
-558.485	-135.212	-0.223	0.027
-557.471	-200.000	0.032	0.155
-556.456	-200.000	-0.046	-0.279
-555.442	-111.767	0.120	-0.024
-554.427	268.391	-0.106	-0.186
-553.412	27.014	-0.058	0.049
-552.398	-200.000	-0.018	-0.120
-551.383	53.144	0.301	0.287
-550.369	166.178	-0.193	0.273
-549.354	-37.957	0.063	0.033
-548.339	209.600	0.043	0.067
-547.325	120.901	0.115	0.143
-546.310	-67.778	0.140	0.055
-545.296	-91.382	-0.398	-0.113
-544.281	-164.996	-0.029	0.001
-543.266	-145.249	-0.217	0.020
-542.252	-200.000	-0.016	-0.101
-541.237	215.227	-0.126	0.199
-540.223	-31.530	0.277	0.155
-539.208	800.000	0.074	-0.307
-538.193	179.021	0.153	0.223
-537.179	203.272	-0.113	-0.174
-536.164	-7.236	-0.106	-0.072
-535.150	-200.000	-0.048	-0.346
-534.135	80.626	-0.109	-0.117
-533.121	-10.546	-0.209	0.138
-532.106	-20.966	-0.022	-0.014
-531.091	-78.230	-0.166	-0.057
-530.077	206.701	-0.233	-0.361
-529.062	-76.427	0.149	-0.052
-528.048	408.659	-0.140	0.295
-527.033	565.497	0.104	0.250
-526.018	-127.681	-0.080	-0.011
-525.004	175.568	0.227	-0.327
-523.989	137.048	0.220	-0.286
-522.975	800.000	0.095	-0.271
-521.960	59.587	0.112	0.110
-520.945	6.778	0.142	0.105
-519.931	188.396	0.114	0.170
-518.916	-200.000	-0.010	-0.257
-517.902	-200.000	-0.010	0.175
-516.887	-200.000	0.001	-0.264
-515.872	2.209	-0.135	-0.097
-514.858	-100.083	0.336	-0.083
-513.843	51.625	-0.076	0.072
-512.829	181.435	0.044	0.065
-511.814	-14.955	0.090	0.057
-510.799	800.000	0.061	0.193
-509.785	123.568	-0.202	0.252
-508.770	-43.132	0.254	0.128
-507.756	378.356	0.137	-0.278
-506.741	149.875	-0.190	-0.256
-505.726	-200.000	0.025	-0.280
-504.712	213.346	-0.197	0.310
-503.697	299.376	-0.030	-0.054
-502.683	-36.744	-0.407	0.217
-501.668	190.966	-0.075	0.112
-500.653	34.993	-0.025	-0.022
-499.639	377.764	-0.093	0.189
-498.624	726.495	-0.027	0.072
-497.610	-200.000	0.001	0.056
-496.595	-200.000	0.004	0.215
-495.581	97.948	0.043	-0.049
-494.566	-22.485	0.203	0.122
-493.551	-103.068	0.061	0.014
-492.537	111.576	0.177	-0.212
-491.522	-200.000	-0.041	-0.270
-490.508	216.318	0.175	-0.277
-489.493	-50.593	-0.285	0.134
-488.478	-200.000	-0.009	0.198
-487.464	-150.432	0.293	0.022
-486.449	-37.264	0.110	-0.058
-485.435	-159.988	0.174	0.009
-484.420	-200.000	-0.058	-0.317
-483.405	-104.299	0.190	-0.044
-482.391	374.980	0.019	0.038
-481.376	-114.377	-0.229	-0.044
-480.362	34.435	-0.142	-0.123
-479.347	-117.397	0.243	-0.044
-478.332	-200.000	0.024	0.253
-477.318	70.768	0.337	-0.347
-476.303	-200.000	0.033	0.171
-475.289	-200.000	0.028	0.203
-474.274	208.485	-0.191	0.297
-473.259	184.500	-0.060	-0.088
-472.245	327.847	-0.081	0.155
-471.230	-74.392	0.184	0.066
-470.216	-59.664	-0.176	0.075
-469.201	800.000	-0.087	-0.367
-468.186	617.492	-0.034	0.084
-467.172	-200.000	0.015	0.154
-466.157	12.627	-0.284	0.218
-465.143	108.702	0.116	0.138
-464.128	-200.000	-0.001	0.126
-463.113	659.746	0.159	0.407
-462.099	176.347	-0.085	-0.123
-461.084	-200.000	0.040	-0.210
-460.070	35.198	-0.287	-0.250
-459.055	373.598	-0.148	0.298
-458.040	94.497	-0.128	0.145
-457.026	-28.939	-0.197	0.113
-456.011	800.000	-0.064	0.228
-454.997	177.851	0.058	0.084
-453.982	-62.472	-0.030	0.012
-452.968	-24.926	-0.249	0.147
-451.953	32.261	0.220	-0.188
-450.938	207.622	-0.166	-0.257
-449.924	800.000	0.066	0.194
-448.909	-143.427	0.367	0.035
-447.895	-108.119	-0.185	-0.040
-446.880	188.342	-0.207	-0.307
-445.865	55.372	-0.212	-0.203
-444.851	-91.169	0.166	0.047
-443.836	-200.000	-0.009	0.274
-442.822	800.000	-0.011	-0.041
-441.807	54.574	0.063	-0.061
-440.792	202.014	0.066	0.101
-439.778	-152.960	0.203	0.014
-438.763	-200.000	0.035	-0.190
-437.749	-23.052	-0.018	0.011
-436.734	-32.315	0.313	-0.174
-435.719	-118.743	-0.256	0.045
-434.705	-200.000	0.008	0.139
-433.690	385.124	0.047	0.095
-432.676	41.418	0.161	-0.144
-431.661	-128.005	-0.079	-0.011
-430.646	250.079	0.230	0.387
-429.632	-200.000	0.023	0.150
-428.617	-43.469	0.149	0.075
-427.603	322.071	0.074	0.139
-426.588	604.108	0.085	-0.210
-425.573	800.000	0.095	-0.321
-424.559	800.000	-0.115	0.415
-423.544	-200.000	-0.026	-0.418
-422.530	-130.444	0.130	-0.017
-421.515	800.000	-0.021	0.070
-420.500	390.900	0.089	0.184
-419.486	-91.875	-0.198	-0.056
-418.471	800.000	0.094	-0.326
-417.457	-200.000	-0.019	-0.271
-416.442	-50.931	-0.301	-0.140
-415.428	-200.000	0.077	-0.348
-414.413	122.652	0.140	-0.173
-413.398	-91.552	-0.321	0.091
-412.384	37.579	-0.042	0.037
-411.369	328.156	-0.084	0.161
-410.355	800.000	0.072	0.218
-409.340	176.881	0.150	0.217
-408.325	-57.743	-0.157	-0.068
-407.311	800.000	-0.034	-0.111
-406.296	-200.000	-0.061	0.558
-405.282	302.786	-0.263	-0.482
-404.267	-109.927	0.130	-0.027
-403.252	270.888	-0.160	-0.279
-402.238	-138.370	0.271	0.030
-401.223	58.113	-0.127	0.124
-400.209	-168.696	-0.385	-0.014
-399.194	-200.000	-0.011	0.291
-398.179	113.682	0.125	0.150
-397.165	425.933	0.077	-0.164
-396.150	-200.000	-0.043	-0.276
-395.136	-60.668	-0.226	0.095
-394.121	127.980	-0.075	-0.095
-393.106	383.394	-0.066	-0.135
-392.092	16.475	0.032	-0.025
-391.077	-76.041	-0.212	-0.074
-390.063	339.863	0.113	0.218
-389.048	99.992	-0.060	0.069
-388.033	-149.031	0.269	0.021
-387.019	-92.081	-0.094	0.026
-386.004	-140.197	-0.471	0.049
-384.990	-200.000	-0.026	-0.161
-383.975	286.055	0.036	-0.064
-382.960	-94.027	0.137	0.037
-381.946	35.864	-0.198	0.172
-380.931	304.125	-0.102	0.187
-379.917	152.335	-0.226	-0.306
-378.902	89.399	0.046	-0.051
-377.888	-200.000	0.006	-0.282
-376.873	-96.663	0.306	-0.080
-375.858	93.689	0.061	-0.068
-374.844	-54.895	-0.334	0.149
-373.829	1.825	0.201	0.143
-372.815	-97.828	0.571	-0.146
-371.800	45.508	-0.203	-0.185
-370.785	59.835	0.414	-0.404
-369.771	-200.000	-0.057	0.287
-368.756	431.093	-0.101	-0.215
-367.742	-42.635	0.314	-0.158
-366.727	333.576	-0.061	0.116
-365.712	-98.721	0.092	0.023
-364.698	-165.307	-0.151	-0.007
-363.683	791.952	0.102	0.277
-362.669	795.895	0.106	0.288
-361.654	85.246	-0.197	0.213
-360.639	-200.000	-0.030	-0.232
-359.625	-107.383	-0.326	0.071
-358.610	387.376	0.128	0.261
-357.596	-55.106	0.290	-0.129
-356.581	255.316	0.144	0.244
-355.566	399.315	0.169	0.350
-354.552	21.082	0.526	0.422
-353.537	-200.000	0.034	0.178
-352.523	-11.995	-0.197	-0.128
-351.508	37.969	-0.095	0.084
-350.493	184.939	0.046	0.067
-349.479	-43.399	-0.151	-0.076
-348.464	17.402	-0.167	-0.131
-347.450	140.693	-0.387	-0.506
-346.435	800.000	0.046	0.158
-345.420	-139.462	0.180	0.019
-344.406	613.361	-0.051	-0.126
-343.391	234.582	0.048	0.078
-342.377	-70.304	-0.254	0.095
-341.362	249.786	-0.159	-0.267
-340.348	800.000	0.100	-0.289
-339.333	576.860	-0.100	-0.242
-338.318	-48.565	0.106	-0.050
-337.304	99.271	0.147	-0.168
-336.289	227.442	-0.101	0.162
-335.275	192.197	0.196	0.292
-334.260	-78.225	0.311	0.106
-333.245	-200.000	0.042	-0.323
-332.231	90.524	0.199	0.220
-331.216	800.000	-0.052	0.205
-330.202	87.011	0.334	0.365
-329.187	-131.153	0.322	-0.042
-328.172	15.024	0.298	0.230
-327.158	-200.000	-0.008	0.171
-326.143	124.630	-0.204	-0.253
-325.129	800.000	0.110	0.324
-324.114	800.000	-0.036	-0.137
-323.099	502.946	0.073	-0.168
-322.085	800.000	-0.069	-0.273
-321.070	97.732	-0.244	-0.277
-320.056	91.807	-0.147	-0.163
-319.041	3.280	0.071	0.051
-318.026	-112.147	0.339	-0.067
-317.012	-200.000	-0.011	-0.092
-315.997	314.761	0.135	-0.251
-314.983	-197.607	0.229	-0.001
-313.968	720.213	0.079	0.208
-312.953	126.025	0.054	0.067
-311.939	-190.944	0.189	-0.002
-310.924	-10.924	0.054	0.035
-309.910	-55.268	-0.177	-0.078
-308.895	-200.000	0.024	0.233
-307.880	19.475	-0.259	0.205
-306.866	78.347	0.061	0.064
-305.851	-82.982	-0.139	0.044
-304.837	209.431	0.110	0.170
-303.822	-146.519	0.294	-0.025
-302.807	264.886	0.052	0.089
-301.793	-90.786	0.061	-0.017
-300.778	-111.807	-0.381	0.076
-299.764	-108.040	-0.166	-0.035
-298.749	-143.283	0.538	0.051
-297.735	23.727	-0.269	-0.219
-296.720	-92.460	0.523	-0.145
-295.705	578.790	-0.129	0.312
-294.691	-100.377	0.436	0.107
-293.676	-184.560	-0.094	-0.002
-292.662	-200.000	0.001	0.301
-291.647	-200.000	0.020	0.148
-290.632	800.000	0.110	0.384
-289.618	-34.434	-0.474	0.256
-288.603	800.000	-0.178	-0.511
-287.589	800.000	-0.042	0.177
-286.574	86.695	0.121	-0.131
-285.559	-142.204	-0.159	0.016
-284.545	-200.000	0.069	-0.487
-283.530	-200.000	0.003	-0.217
-282.516	-53.864	-0.197	0.089
-281.501	-200.000	-0.030	-0.255
-280.486	445.305	-0.127	-0.275
-279.472	-118.235	-0.133	0.023
-278.457	306.891	-0.180	0.331
-277.443	242.349	0.121	0.199
-276.428	42.201	0.156	-0.140
-275.413	-39.127	-0.193	0.100
-274.399	-23.630	-0.112	-0.066
-273.384	282.736	0.128	-0.226
-272.370	14.095	-0.260	-0.200
-271.355	-134.985	-0.441	-0.053
-270.340	-158.297	0.432	-0.025
-269.326	-138.813	-0.159	-0.017
-268.311	-186.322	0.118	-0.002
-267.297	108.740	0.040	-0.047
-266.282	261.842	-0.246	0.421
-265.267	-200.000	-0.047	0.465
-264.253	284.343	0.079	-0.141
-263.238	-154.187	-0.184	0.012
-262.224	47.570	-0.048	-0.044
-261.209	-36.699	0.191	-0.101
-260.195	-53.719	-0.172	0.077
-259.180	-76.560	0.192	0.066
-258.165	201.627	0.084	-0.128
-257.151	-200.000	-0.019	-0.139
-256.136	94.854	-0.056	0.062
-255.122	-104.336	-0.093	-0.021
-254.107	-55.881	-0.193	-0.085
-253.092	-191.070	0.317	0.003
-252.078	87.219	0.076	-0.083
-251.063	108.045	-0.156	0.183
-250.049	117.893	0.043	0.052
-249.034	599.919	0.022	-0.054
-248.019	-23.821	0.170	0.100
-247.005	-103.070	0.104	-0.024
-245.990	159.459	0.109	-0.149
-244.976	-18.232	0.076	0.047
-243.961	26.992	0.185	0.153
-242.946	11.241	0.244	0.184
-241.932	121.600	-0.188	-0.231
-240.917	58.350	0.051	0.050
-239.903	-200.000	0.027	0.161
-238.888	800.000	0.052	-0.154
-237.873	155.550	-0.150	0.204
-236.859	10.206	-0.129	0.097
-235.844	-200.000	0.025	-0.288
-234.830	173.225	0.129	0.182
-233.815	536.091	-0.106	0.246
-232.800	66.078	-0.212	-0.212
-231.786	-37.575	0.145	-0.076
-230.771	-200.000	0.031	-0.293
-229.757	92.753	0.100	0.112
-228.742	450.484	-0.117	0.254
-227.727	81.302	0.132	0.140
-226.713	102.937	0.094	-0.108
-225.698	54.725	-0.079	-0.075
-224.684	233.069	0.105	0.170
-223.669	800.000	0.064	-0.234
-222.655	27.953	0.070	0.058
-221.640	-57.052	0.111	-0.048
-220.625	-94.693	0.326	0.087
-219.611	87.925	0.187	-0.204
-218.596	800.000	0.030	-0.085
-217.582	-200.000	0.077	0.372
-216.567	596.605	-0.044	0.107
-215.552	-148.477	0.292	0.024
-214.538	800.000	-0.019	0.079
-213.523	-26.965	0.477	-0.274
-212.509	7.247	0.123	-0.090
-211.494	-37.690	-0.244	0.128
-210.479	2.697	-0.120	-0.085
-209.465	-89.954	-0.219	0.063
-208.450	-77.671	0.305	0.104
-207.436	-200.000	0.017	0.084
-206.421	605.447	-0.095	-0.232
-205.406	-159.531	0.099	0.005
-204.392	82.702	0.047	-0.050
-203.377	-200.000	-0.018	-0.248
-202.363	-200.000	-0.022	-0.302
-201.348	-41.228	-0.293	-0.148
-200.333	800.000	0.115	-0.324
-199.319	-94.097	-0.122	0.033
-198.304	278.803	0.024	0.042
-197.290	87.871	0.168	0.183
-196.275	800.000	-0.085	0.296
-195.260	-20.343	-0.177	-0.107
-194.246	-200.000	-0.041	0.262
-193.231	-81.362	0.007	-0.002
-192.217	-76.036	-0.030	-0.010
-191.202	800.000	0.084	-0.238
-190.187	-200.000	0.002	-0.126
-189.173	83.116	-0.033	0.035
-188.158	57.798	0.224	0.216
-187.144	-97.599	-0.046	0.012
-186.129	-200.000	0.028	0.219
-185.114	-200.000	-0.011	-0.245
-184.100	-200.000	-0.053	0.286
-183.085	157.418	0.168	-0.228
-182.071	93.624	0.231	-0.257
-181.056	288.505	-0.109	-0.194
-180.042	800.000	-0.185	-0.517
-179.027	-9.509	0.159	0.104
-178.012	166.603	0.108	0.150
-176.998	-200.000	0.018	0.131
-175.983	121.837	-0.163	-0.199
-174.969	-200.000	-0.025	0.291
-173.954	-200.000	0.005	-0.347
-172.939	-108.853	0.172	-0.036
-171.925	800.000	0.058	-0.210
-170.910	-48.051	0.155	0.074
-169.896	-32.193	-0.272	-0.149
-168.881	381.161	0.116	0.234
-167.866	471.582	0.060	0.132
-166.852	16.494	0.124	0.096
-165.837	403.135	0.115	0.237
-164.823	-162.555	0.079	0.004
-163.808	-125.611	-0.278	-0.041
-162.793	180.374	-0.162	-0.233
-161.779	-7.337	-0.132	-0.088
-160.764	59.675	-0.098	-0.095
-159.750	-200.000	0.024	-0.146
-158.735	-115.097	0.319	-0.059
-157.720	204.312	0.187	0.285
-156.706	62.092	-0.193	-0.189
-155.691	-115.839	0.222	-0.041
-154.677	800.000	-0.073	-0.295
-153.662	-200.000	-0.027	-0.187
-152.647	-28.122	-0.237	0.134
-151.633	-10.251	0.234	-0.152
-150.618	-40.053	0.311	0.159
-149.604	-200.000	-0.008	-0.172
-148.589	-200.000	-0.011	-0.087
-147.574	-68.604	-0.242	-0.092
-146.560	137.238	0.036	0.047
-145.545	146.740	0.080	-0.106
-144.531	-125.655	0.254	-0.038
-143.516	-124.386	0.124	0.019
-142.502	58.942	0.262	-0.253
-141.487	-143.087	-0.258	0.024
-140.472	-127.530	0.412	-0.059
-139.458	-40.557	-0.172	0.088
-138.443	171.890	0.259	0.365
-137.429	439.733	0.114	0.245
-136.414	-14.169	-0.162	0.103
-135.399	29.263	-0.301	-0.251
-134.385	227.498	-0.081	-0.130
-133.370	-126.433	-0.297	-0.043
-132.356	375.537	-0.147	0.293
-131.341	-68.304	-0.238	-0.091
-130.326	800.000	0.073	0.309
-129.312	314.605	0.170	0.315
-128.297	800.000	0.072	-0.301
-127.283	22.727	0.122	0.098
-126.268	79.286	-0.103	-0.108
-125.253	72.251	-0.133	0.136
-124.239	78.195	-0.156	0.163
-123.224	0.496	-0.178	-0.125
-122.210	800.000	-0.055	0.175
-121.195	180.705	0.150	-0.216
-120.180	800.000	-0.054	0.188
