DTS Sentinel unit serial number:	SN413079Multiplexer serial number:	ORYXHardware model number:	OX4-SRSoftware version number:	ORYX F/W v4.00 Oryx Data Collector v3.7.2.0data status	okinstallation	princeton_trtdifferential loss correction	single-endedforward channel	channel 2reverse channel	N/Adate	2019/09/16time	21:07:35forward acquisition time	60.00reverse acquisition time	0.00gamma	496.2192k internal	0.2329k external	0.2329temperature offset calibration	0.9965default loss term (dB/km)	0.3790temperature slope calibration	1.0000multiplexer offset coefficient	1.0000multiplexer slope coefficient	1.0000fibre end	0.00T internal ref (°C)	31.89T ext. ref 1 (°C)	0.05T ext. ref 2 (°C)	25.34length (m)	temperature (°C)	Stokes	anti-Stokes-747.200	-200.000	-0.012	0.299
-746.185	571.034	-0.187	0.458
-745.171	-200.000	-0.051	0.326
-744.156	-9.104	-0.152	-0.103
-743.142	555.924	0.027	-0.065
-742.127	800.000	-0.097	0.287
-741.112	-116.055	0.408	0.076
-740.098	208.210	0.109	0.172
-739.083	217.923	0.197	0.317
-738.069	133.993	0.239	0.312
-737.054	-83.842	-0.223	0.072
-736.039	25.012	0.199	0.166
-735.025	-134.275	-0.524	-0.065
-734.010	-149.955	-0.252	0.020
-732.996	-45.235	-0.060	-0.030
-731.981	-163.427	-0.314	-0.015
-730.966	57.297	0.086	0.084
-729.952	-200.000	-0.019	0.117
-728.937	321.154	0.135	-0.258
-727.923	-126.009	0.132	-0.020
-726.908	-68.462	-0.232	-0.090
-725.894	181.682	-0.092	-0.136
-724.879	-59.761	-0.231	0.100
-723.864	-145.315	-0.593	-0.054
-722.850	-85.413	0.137	0.043
-721.835	644.455	0.125	0.321
-720.821	111.872	-0.126	0.153
-719.806	-25.189	-0.227	-0.135
-718.791	109.032	-0.269	0.324
-717.777	295.293	-0.075	-0.138
-716.762	22.493	-0.102	-0.084
-715.748	257.027	-0.236	-0.408
-714.733	-200.000	-0.056	-0.561
-713.718	-53.826	-0.124	-0.057
-712.704	-155.371	-0.066	-0.004
-711.689	-11.090	-0.203	-0.135
-710.675	319.059	-0.118	0.226
-709.660	113.482	0.106	0.130
-708.645	20.520	-0.206	-0.168
-707.631	-200.000	-0.018	-0.133
-706.616	242.970	0.061	0.103
-705.602	-200.000	-0.018	-0.087
-704.587	669.118	-0.067	0.175
-703.572	131.049	0.186	0.240
-702.558	-5.943	-0.217	-0.149
-701.543	203.341	0.062	0.097
-700.529	305.142	-0.097	0.181
-699.514	800.000	-0.066	0.218
-698.499	330.604	-0.119	-0.230
-697.485	68.057	-0.053	0.055
-696.470	-54.092	0.317	-0.145
-695.456	-155.558	0.017	-0.001
-694.441	-200.000	-0.019	0.219
-693.426	180.354	-0.066	0.097
-692.412	142.744	-0.088	0.117
-691.397	629.624	-0.102	0.259
-690.383	390.717	-0.183	0.381
-689.368	-200.000	0.021	-0.156
-688.354	-200.000	-0.011	-0.287
-687.339	-200.000	0.005	0.059
-686.324	-136.701	-0.114	-0.013
-685.310	-200.000	-0.015	-0.185
-684.295	-32.227	0.230	-0.129
-683.281	-90.120	0.237	-0.069
-682.266	-65.309	-0.391	-0.158
-681.251	232.523	-0.060	-0.099
-680.237	171.858	0.156	-0.226
-679.222	-125.256	-0.145	0.022
-678.208	70.552	-0.260	-0.270
-677.193	800.000	0.059	0.179
-676.178	-78.434	-0.259	-0.089
-675.164	-200.000	0.025	-0.277
-674.149	-145.858	-0.299	-0.027
-673.135	-200.000	-0.006	0.085
-672.120	800.000	0.016	-0.058
-671.105	-62.868	0.229	-0.095
-670.091	800.000	0.095	-0.277
-669.076	-200.000	0.000	0.175
-668.062	-54.186	-0.081	0.037
-667.047	-34.022	0.086	-0.048
-666.032	-170.971	-0.183	-0.006
-665.018	-97.700	-0.220	0.057
-664.003	-143.188	0.045	-0.004
-662.989	-153.751	0.292	0.020
-661.974	325.492	0.147	0.282
-660.959	8.417	-0.085	-0.064
-659.945	-200.000	0.016	-0.104
-658.930	-76.378	0.116	0.041
-657.916	-5.192	0.078	-0.054
-656.901	100.736	-0.229	-0.267
-655.886	800.000	-0.056	0.165
-654.872	117.218	-0.049	0.061
-653.857	1.510	-0.119	-0.086
-652.843	800.000	-0.084	-0.254
-651.828	-146.692	-0.312	0.027
-650.814	-53.618	-0.345	0.158
-649.799	594.147	-0.137	0.339
-648.784	51.315	0.153	-0.146
-647.770	-130.563	0.040	-0.005
-646.755	24.241	-0.395	0.328
-645.741	-63.487	0.137	0.057
-644.726	-155.287	0.037	-0.002
-643.711	-76.225	0.111	-0.039
-642.697	201.083	-0.106	-0.164
-641.682	-55.174	0.195	0.088
-640.668	800.000	0.090	-0.344
-639.653	345.668	-0.094	0.186
-638.638	-160.426	0.122	-0.007
-637.624	-177.640	-0.233	-0.006
-636.609	-160.212	0.387	0.021
-635.595	22.884	0.026	-0.022
-634.580	20.958	-0.257	0.209
-633.565	19.703	-0.243	-0.196
-632.551	800.000	0.043	0.141
-631.536	-11.758	0.336	0.221
-630.522	-34.735	0.387	-0.212
-629.507	197.720	-0.356	-0.545
-628.492	-174.618	0.251	-0.007
-627.478	-46.318	-0.283	-0.140
-626.463	-200.000	-0.022	0.134
-625.449	199.947	0.222	0.341
-624.434	-106.503	0.268	0.060
-623.419	33.578	-0.142	-0.124
-622.405	-132.812	-0.234	-0.030
-621.390	-44.652	0.271	0.136
-620.376	-103.189	0.067	0.016
-619.361	-200.000	0.013	0.108
-618.346	81.568	-0.155	-0.168
-617.332	-200.000	0.012	0.114
-616.317	-200.000	0.038	0.247
-615.303	220.736	0.171	-0.275
-614.288	800.000	0.060	-0.193
-613.273	-114.316	-0.255	-0.049
-612.259	-200.000	-0.006	-0.173
-611.244	505.819	-0.125	0.289
-610.230	800.000	-0.024	-0.084
-609.215	-94.605	0.374	0.102
-608.201	-200.000	0.044	0.289
-607.186	-200.000	0.073	-0.402
-606.171	63.651	-0.318	-0.320
-605.157	-52.121	0.444	-0.206
-604.142	-63.598	0.122	-0.050
-603.128	-43.080	-0.152	-0.077
-602.113	241.295	0.045	-0.075
-601.098	-95.401	0.076	-0.021
-600.084	-106.313	0.294	0.066
-599.069	230.632	-0.259	-0.425
-598.055	-200.000	-0.022	-0.407
-597.040	-114.186	-0.219	-0.042
-596.025	-152.803	-0.302	0.021
-595.011	-127.806	0.125	-0.018
-593.996	800.000	0.120	0.339
-592.982	275.550	0.067	0.118
-591.967	8.430	-0.126	0.095
-590.952	-117.185	0.130	-0.024
-589.938	195.522	-0.109	-0.165
-588.923	333.283	0.037	-0.072
-587.909	82.541	-0.196	0.213
-586.894	-80.103	-0.116	-0.039
-585.879	407.250	-0.107	-0.225
-584.865	212.276	0.055	0.087
-583.850	800.000	-0.056	0.184
-582.836	16.351	-0.148	-0.117
-581.821	64.712	0.128	-0.130
-580.806	-99.001	0.128	-0.033
-579.792	-200.000	0.052	-0.235
-578.777	-18.322	-0.214	0.134
-577.763	-200.000	-0.003	0.055
-576.748	-159.581	0.244	-0.014
-575.733	-78.944	-0.222	-0.076
-574.719	-90.841	-0.073	-0.021
-573.704	-66.418	0.100	-0.040
-572.690	-111.793	0.181	0.037
-571.675	800.000	0.033	-0.104
-570.661	218.605	-0.233	-0.373
-569.646	98.927	0.057	0.066
-568.631	-200.000	0.013	0.067
-567.617	-133.904	-0.052	-0.006
-566.602	-97.173	-0.143	-0.037
-565.588	326.506	-0.152	-0.292
-564.573	-102.634	0.194	0.046
-563.558	-37.522	0.274	-0.146
-562.544	-134.639	-0.156	-0.019
-561.529	699.326	-0.160	0.420
-560.515	-83.617	0.175	0.056
-559.500	-69.647	0.177	0.068
-558.485	-158.317	0.133	-0.008
-557.471	-60.765	0.185	-0.078
-556.456	-103.403	-0.070	0.017
-555.442	-200.000	-0.007	-0.097
-554.427	-8.420	-0.100	0.067
-553.412	-141.136	-0.091	0.009
-552.398	17.852	0.034	-0.027
-551.383	800.000	-0.047	0.130
-550.369	5.513	-0.076	0.056
-549.354	-10.567	0.156	0.103
-548.339	389.327	0.139	-0.289
-547.325	-98.360	-0.128	-0.033
-546.310	98.735	0.219	0.253
-545.296	441.976	0.024	0.052
-544.281	-100.390	0.127	0.032
-543.266	396.533	0.067	-0.140
-542.252	135.716	0.063	-0.082
-541.237	-194.057	0.079	-0.001
-540.223	7.752	-0.104	0.078
-539.208	-117.205	0.104	-0.019
-538.193	376.862	-0.033	0.067
-537.179	-151.709	-0.472	-0.035
-536.164	-137.491	-0.103	0.012
-535.150	800.000	-0.044	-0.168
-534.135	359.930	-0.109	-0.219
-533.121	-200.000	-0.018	-0.249
-532.106	-200.000	0.110	-0.501
-531.091	-200.000	-0.006	0.182
-530.077	-85.282	0.147	0.046
-529.062	19.287	0.060	-0.048
-528.048	14.304	0.219	0.171
-527.033	48.339	0.151	0.141
-526.018	42.652	0.381	0.347
-525.004	17.682	-0.339	-0.270
-523.989	91.285	0.172	-0.193
-522.975	-177.940	-0.406	-0.010
-521.960	46.246	-0.158	0.147
-520.945	-107.914	-0.241	0.052
-519.931	29.502	0.061	-0.052
-518.916	-41.799	-0.281	-0.144
-517.902	-200.000	0.006	-0.077
-516.887	-33.984	0.218	0.120
-515.872	-79.706	0.104	0.035
-514.858	-200.000	0.000	0.009
-513.843	800.000	-0.077	-0.217
-512.829	-111.715	-0.074	-0.015
-511.814	-30.868	0.034	-0.019
-510.799	171.488	0.082	0.118
-509.785	-57.861	0.299	0.130
-508.770	37.216	-0.061	0.054
-507.756	-158.199	-0.312	0.018
-506.741	189.617	-0.107	-0.161
-505.726	-200.000	0.012	-0.306
-504.712	-200.000	0.008	0.050
-503.697	-101.927	-0.085	0.020
-502.683	-117.672	-0.245	0.044
-501.668	238.865	-0.127	0.210
-500.653	-121.405	-0.244	-0.041
-499.639	121.939	-0.092	-0.114
-498.624	236.163	-0.126	-0.208
-497.610	-200.000	0.001	0.128
-496.595	-69.449	-0.065	0.025
-495.581	-47.364	-0.301	-0.146
-494.566	746.751	0.024	0.065
-493.551	-163.318	-0.208	0.010
-492.537	13.839	-0.068	-0.053
-491.522	-200.000	-0.358	0.001
-490.508	-200.000	-0.006	-0.419
-489.493	-165.276	-0.079	-0.003
-488.478	-93.864	0.257	0.071
-487.464	-200.000	0.008	0.507
-486.449	137.260	-0.054	-0.070
-485.435	-35.840	0.185	0.100
-484.420	-136.157	-0.127	0.015
-483.405	-75.677	-0.130	-0.046
-482.391	31.085	-0.148	0.127
-481.376	-55.756	0.123	-0.055
-480.362	-84.061	-0.108	0.034
-479.347	800.000	-0.065	0.249
-478.332	-109.244	0.156	-0.033
-477.318	-0.074	-0.214	-0.152
-476.303	-200.000	-0.002	-0.115
-475.289	36.092	-0.224	0.197
-474.274	393.425	-0.099	-0.206
-473.259	-112.842	-0.052	-0.010
-472.245	74.697	0.084	0.088
-471.230	-200.000	0.063	-0.369
-470.216	-200.000	-0.004	-0.151
-469.201	-200.000	-0.035	-0.237
-468.186	800.000	-0.089	0.268
-467.172	-60.540	-0.222	-0.094
-466.157	8.459	-0.234	-0.175
-465.143	-96.656	-0.329	0.086
-464.128	537.223	0.096	-0.227
-463.113	-38.763	0.168	-0.088
-462.099	371.362	-0.057	0.115
-461.084	33.804	-0.120	-0.104
-460.070	-84.161	0.343	0.108
-459.055	-200.000	-0.016	0.082
-458.040	-29.331	0.190	-0.108
-457.026	-200.000	0.018	0.435
-456.011	-84.622	0.214	-0.067
-454.997	-38.692	-0.064	0.033
-453.982	178.252	0.048	-0.070
-452.968	-200.000	-0.016	0.361
-451.953	-130.939	0.308	-0.041
-450.938	224.797	0.010	0.016
-449.924	-56.569	0.031	0.014
-448.909	-200.000	-0.007	0.124
-447.895	736.149	-0.067	-0.179
-446.880	800.000	-0.051	0.203
-445.865	-200.000	-0.004	-0.109
-444.851	-75.478	-0.175	0.062
-443.836	800.000	-0.183	0.612
-442.822	-27.670	0.263	-0.152
-441.807	-138.108	0.293	-0.032
-440.792	-155.055	0.373	-0.024
-439.778	800.000	0.135	0.442
-438.763	96.055	-0.119	0.135
-437.749	-29.180	-0.237	0.135
-436.734	11.870	-0.188	-0.144
-435.719	-82.295	0.168	0.055
-434.705	-187.229	-0.452	-0.006
-433.690	-34.229	-0.156	-0.085
-432.676	-52.283	0.245	0.113
-431.661	8.623	-0.332	-0.249
-430.646	7.361	0.022	-0.016
-429.632	-120.414	0.213	-0.036
-428.617	33.394	-0.137	0.118
-427.603	-61.205	0.245	0.103
-426.588	-200.000	0.026	-0.336
-425.573	66.319	-0.128	-0.129
-424.559	-200.000	0.022	0.161
-423.544	-186.354	0.358	0.005
-422.530	-90.482	-0.346	-0.100
-421.515	152.336	0.173	0.236
-420.500	17.552	0.144	0.114
-419.486	800.000	0.072	-0.265
-418.471	-35.422	0.056	0.031
-417.457	7.288	0.046	-0.034
-416.442	-118.933	-0.038	0.007
-415.428	-200.000	-0.008	0.258
-414.413	-92.270	0.255	-0.072
-413.398	-80.272	0.270	0.090
-412.384	-93.868	0.033	0.009
-411.369	-59.754	0.151	-0.064
-410.355	83.735	-0.163	0.177
-409.340	-120.284	0.088	-0.015
-408.325	476.513	-0.179	0.403
-407.311	754.273	0.127	-0.342
-406.296	-147.510	-0.286	0.024
-405.282	-191.557	0.069	0.001
-404.267	28.062	0.043	-0.036
-403.252	-25.687	0.294	0.172
-402.238	161.987	0.274	-0.382
-401.223	-161.536	-0.498	-0.025
-400.209	-200.000	0.010	0.059
-399.194	-81.171	-0.202	-0.066
-398.179	-70.712	-0.202	0.076
-397.165	-59.262	-0.073	0.031
-396.150	-200.000	0.075	0.479
-395.136	46.431	0.196	-0.181
-394.121	52.059	0.062	-0.059
-393.106	-65.170	-0.186	0.074
-392.092	-200.000	0.022	0.199
-391.077	95.837	0.141	-0.159
-390.063	-52.139	-0.213	-0.098
-389.048	-161.461	0.256	-0.013
-388.033	289.746	-0.031	-0.056
-387.019	-200.000	-0.008	0.157
-386.004	46.603	-0.146	0.135
-384.990	710.215	-0.068	0.179
-383.975	-55.074	0.235	-0.105
-382.960	131.337	0.110	0.141
-381.946	451.065	0.065	0.144
-380.931	800.000	0.078	0.336
-379.917	-123.310	0.105	0.017
-378.902	27.613	0.343	-0.287
-377.888	800.000	-0.078	0.261
-376.873	-81.846	0.212	0.069
-375.858	53.446	-0.036	0.034
-374.844	-127.911	0.143	-0.020
-373.829	74.144	-0.227	-0.236
-372.815	-141.403	-0.185	0.019
-371.800	-74.869	0.139	-0.049
-370.785	-102.651	-0.293	-0.069
-369.771	110.509	0.066	-0.078
-368.756	30.666	-0.427	-0.363
-367.742	800.000	0.113	0.474
-366.727	172.368	0.042	0.059
-365.712	-200.000	-0.008	0.065
-364.698	78.829	0.200	0.213
-363.683	128.145	-0.087	0.109
-362.669	9.694	-0.261	0.196
-361.654	-200.000	0.033	0.199
-360.639	209.453	-0.045	-0.069
-359.625	236.540	-0.065	0.106
-358.610	155.187	-0.143	0.195
-357.596	-69.238	-0.094	0.036
-356.581	-46.433	-0.487	0.237
-355.566	-200.000	0.046	0.532
-354.552	50.086	-0.112	-0.105
-353.537	-200.000	-0.007	0.071
-352.523	800.000	-0.018	0.066
-351.508	-168.605	-0.286	0.011
-350.493	-50.364	0.191	0.089
-349.479	27.057	0.094	0.078
-348.464	9.518	0.030	-0.023
-347.450	19.648	0.030	0.024
-346.435	-172.983	0.109	0.003
-345.420	127.109	-0.140	-0.176
-344.406	346.209	-0.081	-0.157
-343.391	5.620	0.160	-0.117
-342.377	7.824	-0.242	0.180
-341.362	148.394	0.144	0.193
-340.348	-200.000	0.008	0.263
-339.333	176.870	0.159	-0.229
-338.318	-200.000	-0.035	-0.190
-337.304	36.388	-0.054	0.047
-336.289	-154.594	0.286	0.019
-335.275	-141.311	0.134	-0.014
-334.260	-40.974	-0.131	0.067
-333.245	307.693	0.212	-0.391
-332.231	99.631	0.199	-0.228
-331.216	234.645	0.045	0.073
-330.202	-60.762	-0.117	-0.049
-329.187	-27.365	-0.073	-0.042
-328.172	-63.352	0.184	-0.075
-327.158	-75.854	0.075	-0.026
-326.143	-120.311	-0.196	-0.033
-325.129	-7.381	0.119	0.080
-324.114	202.726	0.048	0.073
-323.099	480.831	-0.129	0.290
-322.085	75.326	-0.288	-0.301
-321.070	-123.931	0.106	-0.016
-320.056	8.897	0.132	0.098
-319.041	-200.000	-0.034	0.336
-318.026	800.000	-0.067	0.220
-317.012	-103.644	0.052	-0.012
-315.997	-19.902	0.185	0.113
-314.983	-200.000	-0.009	0.134
-313.968	14.235	-0.359	-0.277
-312.953	-200.000	-0.043	-0.292
-311.939	47.777	-0.064	0.059
-310.924	-73.039	-0.290	-0.105
-309.910	386.833	0.006	0.013
-308.895	-175.614	0.223	-0.006
-307.880	-108.106	0.365	0.078
-306.866	-27.518	0.188	0.108
-305.851	-42.391	-0.381	0.193
-304.837	-19.470	0.246	0.151
-303.822	-103.237	-0.082	0.019
-302.807	21.612	-0.047	0.038
-301.793	800.000	-0.180	0.542
-300.778	197.486	-0.035	-0.053
-299.764	-20.752	-0.175	0.106
-298.749	-20.012	-0.240	-0.147
-297.735	178.810	0.142	0.205
-296.720	41.143	-0.067	0.060
-295.705	651.884	0.085	0.215
-294.691	519.278	0.071	-0.164
-293.676	-183.378	-0.220	0.004
-292.662	454.645	-0.089	0.195
-291.647	-61.603	0.193	-0.080
-290.632	554.784	0.115	-0.274
-289.618	-161.775	0.173	0.009
-288.603	-98.104	0.209	-0.053
-287.589	-183.306	-0.294	-0.005
-286.574	353.383	-0.236	-0.464
-285.559	-98.394	-0.100	0.025
-284.545	-63.166	0.245	-0.100
-283.530	-200.000	0.047	0.367
-282.516	-200.000	-0.053	0.286
-281.501	10.421	0.075	-0.057
-280.486	-200.000	0.016	0.181
-279.472	-68.295	0.318	0.122
-278.457	-200.000	0.043	-0.216
-277.443	-1.677	0.199	-0.139
-276.428	-200.000	-0.009	-0.139
-275.413	115.179	-0.302	-0.364
-274.399	-17.570	-0.270	0.168
-273.384	-97.624	-0.236	0.060
-272.370	145.252	-0.070	-0.093
-271.355	34.734	0.175	-0.151
-270.340	-200.000	0.021	-0.269
-269.326	61.515	-0.207	-0.204
-268.311	-200.000	0.031	0.329
-267.297	43.342	-0.429	-0.388
-266.282	-68.818	0.231	-0.088
-265.267	-25.778	0.086	-0.050
-264.253	-157.822	0.088	0.005
-263.238	3.925	-0.068	0.049
-262.224	126.993	0.138	-0.173
-261.209	33.015	-0.214	0.183
-260.195	55.834	-0.168	-0.161
-259.180	-139.804	0.250	0.026
-258.165	800.000	0.046	-0.130
-257.151	68.412	-0.209	0.212
-256.136	-200.000	-0.015	0.212
-255.122	-200.000	-0.009	0.247
-254.107	501.916	-0.099	-0.226
-253.092	54.776	0.116	0.110
-252.078	345.042	0.205	0.399
-251.063	-9.758	-0.072	0.047
-250.049	-200.000	0.030	-0.240
-249.034	-120.830	-0.418	0.070
-248.019	-135.755	-0.187	-0.022
-247.005	-13.414	-0.115	0.074
-245.990	-124.693	0.301	0.046
-244.976	-200.000	0.023	0.152
-243.961	-30.055	-0.065	0.036
-242.946	-17.364	-0.256	0.160
-241.932	800.000	-0.069	0.214
-240.917	-100.364	0.091	0.022
-239.903	-200.000	-0.027	0.165
-238.888	-48.018	0.318	-0.152
-237.873	-200.000	-0.004	0.019
-236.859	203.833	0.074	-0.114
-235.844	-8.954	0.253	-0.168
-234.830	-45.368	0.339	-0.166
-233.815	36.589	-0.307	-0.267
-232.800	-15.253	0.378	0.239
-231.786	85.034	0.118	-0.127
-230.771	-200.000	-0.011	-0.097
-229.757	-103.825	0.271	0.063
-228.742	-78.153	0.238	0.081
-227.727	496.857	-0.072	-0.163
-226.713	-58.664	0.150	-0.064
-225.698	-93.941	-0.197	-0.054
-224.684	-22.809	0.274	-0.163
-223.669	278.833	0.041	0.072
-222.655	-29.194	-0.127	-0.072
-221.640	-125.505	-0.061	0.009
-220.625	145.210	-0.137	0.182
-219.611	-7.258	0.093	-0.062
-218.596	-200.000	0.003	-0.125
-217.582	-200.000	-0.005	0.189
-216.567	-159.960	0.285	0.015
-215.552	-200.000	0.029	-0.192
-214.538	617.115	0.076	-0.189
-213.523	-133.397	-0.048	-0.006
-212.509	-126.712	-0.223	-0.033
-211.494	91.302	-0.146	-0.161
-210.479	64.065	-0.252	-0.250
-209.465	141.419	0.104	0.136
-208.450	800.000	0.037	0.148
-207.436	-7.184	0.298	-0.199
-206.421	-200.000	-0.026	-0.274
-205.406	-71.704	-0.208	-0.077
-204.392	6.080	0.146	-0.107
-203.377	81.296	-0.158	-0.168
-202.363	53.913	-0.033	0.031
-201.348	308.427	-0.103	0.189
-200.333	-200.000	0.099	0.455
-199.319	52.617	0.091	-0.085
-198.304	-170.793	-0.404	-0.014
-197.290	754.348	0.081	-0.216
-196.275	-200.000	-0.012	0.214
-195.260	-156.705	0.323	0.020
-194.246	-183.581	0.381	0.006
-193.231	105.157	0.075	-0.087
-192.217	202.548	0.125	-0.190
-191.202	-200.000	-0.021	-0.257
-190.187	800.000	-0.093	0.352
-189.173	-44.200	0.150	0.074
-188.158	800.000	0.052	0.201
-187.144	-42.680	0.230	-0.115
-186.129	-48.007	0.556	-0.265
-185.114	586.734	-0.140	-0.340
-184.100	-68.295	0.179	0.068
-183.085	-59.738	0.114	-0.048
-182.071	13.042	0.103	-0.078
-181.056	-94.545	-0.246	0.066
-180.042	-200.000	-0.040	-0.182
-179.027	800.000	0.087	-0.271
-178.012	464.823	0.079	0.174
-176.998	800.000	-0.009	-0.036
-175.983	202.106	0.057	-0.087
-174.969	-158.633	-0.452	0.026
-173.954	-83.884	0.196	0.062
-172.939	-24.519	-0.250	0.147
-171.925	140.630	-0.095	0.123
-170.910	-200.000	0.001	-0.012
-169.896	-67.762	0.182	-0.070
-168.881	-82.512	-0.247	-0.079
-167.866	-200.000	-0.064	-0.322
-166.852	114.691	0.119	-0.143
-165.837	-200.000	0.012	-0.056
-164.823	149.708	-0.210	0.281
-163.808	99.964	0.202	0.231
-162.793	-200.000	0.024	-0.176
-161.779	-147.618	-0.291	0.024
-160.764	-107.102	0.124	-0.027
-159.750	-108.851	-0.245	-0.052
-158.735	-70.778	0.231	0.086
-157.720	0.342	-0.159	-0.112
-156.706	75.909	0.177	0.184
-155.691	-59.972	0.118	-0.050
-154.677	282.757	0.178	0.314
-153.662	-95.548	0.052	-0.014
-152.647	480.861	0.076	-0.170
-151.633	-71.482	-0.183	0.068
-150.618	-56.743	-0.174	-0.076
-149.604	129.319	-0.068	-0.086
-148.589	-101.698	0.283	-0.068
-147.574	-169.525	-0.069	0.002
-146.560	-200.000	0.010	-0.073
-145.545	100.825	0.178	-0.203
-144.531	-76.621	-0.049	0.017
-143.516	-60.162	0.203	-0.085
-142.502	-72.228	0.411	0.150
-141.487	-200.000	-0.002	0.378
-140.472	-2.098	0.067	0.046
-139.458	-200.000	-0.014	-0.237
-138.443	-1.260	0.287	-0.200
-137.429	-200.000	-0.005	0.167
-136.414	339.352	-0.068	0.131
-135.399	-200.000	0.020	0.138
-134.385	-200.000	0.003	-0.077
-133.370	800.000	-0.065	-0.229
-132.356	-158.007	-0.132	0.008
-131.341	800.000	-0.014	0.038
-130.326	-23.101	0.169	-0.100
-129.312	43.032	0.281	0.252
-128.297	511.612	-0.081	0.185
-127.283	559.919	0.100	0.238
-126.268	232.911	0.088	-0.142
-125.253	-143.826	0.212	0.020
-124.239	289.952	-0.222	-0.397
-123.224	-200.000	0.003	0.023
-122.210	62.955	-0.095	-0.094
