DTS Sentinel unit serial number:	SN413079Multiplexer serial number:	ORYXHardware model number:	OX4-SRSoftware version number:	ORYX F/W v4.00 Oryx Data Collector v3.7.2.0data status	okinstallation	princeton_trtdifferential loss correction	single-endedforward channel	channel 2reverse channel	N/Adate	2019/09/13time	15:03:35forward acquisition time	60.00reverse acquisition time	0.00gamma	496.2192k internal	0.2315k external	0.2315temperature offset calibration	1.0207default loss term (dB/km)	0.3790temperature slope calibration	1.0000multiplexer offset coefficient	1.0000multiplexer slope coefficient	1.0000fibre end	0.00T internal ref (°C)	35.64T ext. ref 1 (°C)	4.71T ext. ref 2 (°C)	30.93length (m)	temperature (°C)	Stokes	anti-Stokes-747.200	800.000	0.075	0.279
-746.185	-200.000	-0.005	-0.093
-745.171	800.000	0.033	-0.097
-744.156	-28.599	-0.107	-0.063
-743.142	29.641	0.235	-0.203
-742.127	567.579	-0.141	0.348
-741.112	-70.559	0.204	0.078
-740.098	-14.241	0.203	-0.132
-739.083	-88.136	0.035	-0.010
-738.069	-200.000	0.089	0.468
-737.054	-126.330	-0.164	0.025
-736.039	41.168	-0.170	-0.155
-735.025	498.428	-0.069	0.161
-734.010	467.896	-0.078	-0.176
-732.996	-94.958	-0.316	0.086
-731.981	257.911	-0.019	0.033
-730.966	-200.000	-0.002	0.196
-729.952	-200.000	-0.041	-0.416
-728.937	-111.153	0.207	-0.043
-727.923	-149.060	-0.191	0.016
-726.908	-65.967	-0.183	0.074
-725.894	418.161	-0.180	-0.389
-724.879	45.813	-0.140	-0.131
-723.864	-71.390	-0.191	-0.072
-722.850	-0.745	-0.264	-0.189
-721.835	7.303	0.071	0.054
-720.821	104.003	-0.054	-0.064
-719.806	541.878	-0.150	-0.362
-718.791	46.545	0.041	0.039
-717.777	-200.000	0.008	-0.253
-716.762	-62.942	0.271	0.113
-715.748	-200.000	0.012	-0.184
-714.733	-6.468	0.248	-0.171
-713.718	36.351	0.056	0.050
-712.704	-55.602	-0.191	-0.086
-711.689	-126.663	0.296	-0.044
-710.675	723.529	0.101	-0.271
-709.660	-84.090	-0.202	0.065
-708.645	-200.000	0.028	-0.277
-707.631	-200.000	-0.000	-0.066
-706.616	-200.000	-0.019	0.118
-705.602	-72.107	0.378	-0.142
-704.587	41.129	-0.263	-0.241
-703.572	-16.518	0.246	-0.157
-702.558	-86.075	-0.134	-0.042
-701.543	49.196	-0.289	-0.275
-700.529	80.802	0.031	0.034
-699.514	392.831	-0.154	-0.325
-698.499	-36.798	-0.261	-0.142
-697.485	-76.272	0.205	-0.073
-696.470	87.873	0.184	0.206
-695.456	-71.731	0.093	-0.035
-694.441	339.088	0.202	0.397
-693.426	-200.000	-0.020	0.161
-692.412	-200.000	0.048	-0.232
-691.397	331.988	-0.041	0.081
-690.383	800.000	-0.021	0.084
-689.368	-8.781	0.104	0.071
-688.354	-200.000	-0.040	-0.191
-687.339	192.099	0.013	-0.019
-686.324	434.268	0.224	-0.492
-685.310	-166.222	0.048	0.002
-684.295	283.747	0.127	0.230
-683.281	693.845	-0.027	0.070
-682.266	67.757	-0.157	0.162
-681.251	453.875	0.034	0.077
-680.237	-23.374	0.102	0.062
-679.222	-200.000	-0.047	0.257
-678.208	-200.000	-0.024	0.161
-677.193	63.541	-0.115	0.117
-676.178	-200.000	0.029	-0.218
-675.164	-156.647	-0.218	-0.014
-674.149	114.515	0.030	-0.037
-673.135	166.343	-0.094	0.134
-672.120	800.000	0.141	0.604
-671.105	-183.616	0.445	-0.008
-670.091	-200.000	0.000	-0.026
-669.076	-200.000	-0.033	0.330
-668.062	-86.482	0.155	0.048
-667.047	-66.776	0.250	-0.100
-666.032	50.956	-0.164	0.157
-665.018	-200.000	-0.010	0.299
-664.003	-37.397	-0.281	-0.152
-662.989	49.918	0.155	-0.147
-661.974	-26.986	0.264	-0.156
-660.959	-123.713	-0.214	-0.034
-659.945	-8.904	-0.100	-0.068
-658.930	-145.974	-0.383	-0.034
-657.916	-159.410	0.268	-0.015
-656.901	-93.893	-0.298	-0.083
-655.886	-33.122	-0.190	0.106
-654.872	-81.157	0.064	0.021
-653.857	-161.867	-0.405	-0.021
-652.843	38.371	-0.217	0.195
-651.828	800.000	0.105	-0.424
-650.814	141.858	0.125	0.167
-649.799	-19.564	0.218	0.136
-648.784	-87.936	0.119	0.036
-647.770	101.916	-0.311	0.367
-646.755	256.453	0.121	-0.211
-645.741	800.000	-0.025	-0.109
-644.726	-115.355	-0.094	0.018
-643.711	178.254	0.175	-0.257
-642.697	-200.000	0.017	-0.340
-641.682	-110.993	-0.141	-0.029
-640.668	800.000	-0.026	0.084
-639.653	-32.544	-0.305	-0.172
-638.638	-129.384	0.078	-0.011
-637.624	-130.617	0.576	-0.078
-636.609	-200.000	-0.036	-0.295
-635.595	107.409	-0.112	0.134
-634.580	-60.430	0.392	-0.168
-633.565	-94.735	-0.125	0.034
-632.551	-124.487	-0.151	0.024
-631.536	120.130	0.245	0.307
-630.522	86.387	-0.270	-0.301
-629.507	-12.386	0.312	-0.206
-628.492	-200.000	0.001	0.124
-627.478	118.027	0.110	-0.137
-626.463	-26.885	-0.061	-0.036
-625.449	335.215	-0.159	-0.311
-624.434	179.755	-0.031	0.046
-623.419	-200.000	-0.052	-0.299
-622.405	262.097	-0.283	-0.495
-621.390	-157.646	0.118	-0.007
-620.376	-163.675	-0.184	0.009
-619.361	800.000	0.117	-0.364
-618.346	286.177	0.034	-0.062
-617.332	220.892	-0.106	-0.171
-616.317	-12.396	-0.269	-0.177
-615.303	425.528	-0.161	0.349
-614.288	-74.635	0.026	0.009
-613.273	37.336	-0.135	0.120
-612.259	-166.293	-0.077	-0.003
-611.244	107.331	-0.179	0.215
-610.230	114.932	-0.051	-0.062
-609.215	-152.370	0.494	-0.036
-608.201	-7.682	-0.313	-0.213
-607.186	497.428	0.154	-0.357
-606.171	751.196	-0.124	0.337
-605.157	89.045	0.074	0.083
-604.142	87.007	-0.397	0.443
-603.128	-72.034	-0.049	0.018
-602.113	72.066	0.159	0.167
-601.098	-111.983	-0.206	-0.042
-600.084	-113.251	-0.179	-0.035
-599.069	-200.000	0.265	0.001
-598.055	-32.516	0.110	0.062
-597.040	246.199	0.085	-0.144
-596.025	800.000	-0.029	0.121
-595.011	237.620	-0.270	0.451
-593.996	611.658	-0.111	-0.281
-592.982	-200.000	-0.016	-0.085
-591.967	-108.840	-0.286	-0.062
-590.952	128.798	0.130	0.167
-589.938	800.000	0.025	0.095
-588.923	-106.935	0.319	0.071
-587.909	160.672	-0.141	-0.198
-586.894	57.880	0.123	0.122
-585.879	-35.445	0.122	0.067
-584.865	27.934	0.087	-0.074
-583.850	800.000	0.034	0.122
-582.836	-95.862	-0.007	-0.002
-581.821	653.004	0.046	-0.118
-580.806	-147.742	-0.126	-0.011
-579.792	272.221	0.224	-0.397
-578.777	299.092	0.095	0.177
-577.763	187.746	0.069	0.104
-576.748	533.396	-0.046	0.111
-575.733	113.147	0.060	0.073
-574.719	49.277	0.054	-0.051
-573.704	152.220	-0.204	0.280
-572.690	-200.000	0.030	0.142
-571.675	90.216	0.048	-0.054
-570.661	-113.700	0.194	0.038
-569.646	-200.000	-0.028	0.196
-568.631	-114.867	0.222	0.043
-567.617	-92.030	-0.116	0.033
-566.602	84.374	0.138	-0.152
-565.588	-23.947	0.129	0.078
-564.573	-77.854	-0.356	0.124
-563.558	-83.900	-0.228	0.073
-562.544	119.861	0.181	0.226
-561.529	800.000	0.036	0.110
-560.515	-200.000	-0.026	0.303
-559.500	-200.000	0.015	-0.302
-558.485	800.000	-0.056	-0.174
-557.471	206.325	-0.096	0.151
-556.456	-96.139	0.427	0.114
-555.442	-48.068	0.313	0.152
-554.427	800.000	-0.035	0.117
-553.412	52.756	0.040	0.038
-552.398	800.000	-0.032	-0.127
-551.383	149.642	0.185	0.253
-550.369	88.440	0.115	0.129
-549.354	800.000	-0.048	0.162
-548.339	-126.904	-0.112	-0.017
-547.325	94.456	-0.274	-0.313
-546.310	44.908	0.016	0.015
-545.296	497.505	0.141	0.326
-544.281	102.353	-0.125	0.147
-543.266	800.000	0.047	-0.138
-542.252	-200.000	-0.012	-0.241
-541.237	206.512	0.080	-0.126
-540.223	9.221	-0.280	0.213
-539.208	-200.000	-0.011	-0.141
-538.193	386.144	-0.067	-0.139
-537.179	800.000	0.017	0.062
-536.164	20.657	0.019	0.015
-535.150	38.395	-0.183	-0.164
-534.135	222.595	-0.099	-0.161
-533.121	4.857	-0.210	-0.155
-532.106	397.251	0.066	-0.138
-531.091	684.404	-0.049	-0.129
-530.077	44.490	0.028	-0.025
-529.062	23.780	-0.149	-0.123
-528.048	-102.310	0.266	0.064
-527.033	-200.000	-0.022	-0.114
-526.018	-200.000	-0.001	-0.225
-525.004	-181.605	0.365	0.007
-523.989	12.024	-0.043	-0.033
-522.975	370.052	-0.154	-0.313
-521.960	-71.265	0.270	0.102
-520.945	2.283	-0.142	-0.103
-519.931	-57.402	-0.124	-0.055
-518.916	-190.711	0.056	-0.001
-517.902	800.000	0.057	0.206
-516.887	-92.490	0.107	-0.030
-515.872	-30.623	0.073	0.041
-514.858	800.000	-0.052	0.168
-513.843	66.212	-0.122	0.124
-512.829	456.895	0.027	0.061
-511.814	-113.823	0.116	0.023
-510.799	777.742	-0.075	-0.205
-509.785	-9.664	0.180	-0.120
-508.770	164.988	-0.098	0.140
-507.756	19.114	-0.055	0.045
-506.741	800.000	-0.061	0.214
-505.726	24.625	-0.095	0.079
-504.712	60.407	-0.112	-0.111
-503.697	207.858	-0.078	0.123
-502.683	-111.131	0.099	-0.020
-501.668	-200.000	0.269	-0.001
-500.653	-118.185	0.250	-0.045
-499.639	576.065	-0.079	0.194
-498.624	-200.000	0.032	-0.180
-497.610	38.869	-0.105	-0.094
-496.595	-200.000	0.000	0.416
-495.581	39.504	-0.153	0.138
-494.566	-99.388	-0.205	0.052
-493.551	-200.000	-0.050	-0.247
-492.537	-24.477	-0.267	-0.160
-491.522	-97.011	-0.274	0.072
-490.508	214.300	0.282	-0.448
-489.493	800.000	-0.059	0.164
-488.478	7.414	0.298	0.224
-487.464	800.000	-0.167	-0.554
-486.449	665.020	-0.088	0.228
-485.435	-200.000	0.022	0.238
-484.420	645.839	0.153	0.393
-483.405	123.309	-0.160	-0.201
-482.391	297.266	0.238	0.439
-481.376	182.714	0.043	-0.063
-480.362	-52.692	0.184	-0.085
-479.347	-104.494	-0.212	-0.049
-478.332	491.913	-0.099	0.229
-477.318	-112.615	-0.231	-0.046
-476.303	-158.770	-0.245	0.014
-475.289	396.296	-0.106	0.223
-474.274	-28.334	0.104	0.060
-473.259	-200.000	0.007	-0.267
-472.245	-200.000	0.042	-0.199
-471.230	336.730	0.144	0.280
-470.216	-1.720	0.028	-0.020
-469.201	2.380	0.216	-0.157
-468.186	95.491	-0.026	-0.030
-467.172	129.650	-0.201	0.258
-466.157	-50.278	0.112	-0.053
-465.143	73.807	-0.107	-0.113
-464.128	-154.013	0.202	-0.014
-463.113	800.000	0.058	0.200
-462.099	-134.344	-0.251	-0.031
-461.084	-37.615	-0.186	0.099
-460.070	-200.000	-0.007	0.493
-459.055	-49.503	-0.150	-0.071
-458.040	-200.000	-0.051	-0.406
-457.026	197.646	-0.077	0.118
-456.011	15.265	-0.201	-0.158
-454.997	-142.371	0.292	-0.029
-453.982	800.000	-0.068	-0.240
-452.968	-87.574	-0.236	0.071
-451.953	-52.051	0.283	0.132
-450.938	-4.372	0.253	0.176
-449.924	128.696	0.183	-0.234
-448.909	40.132	-0.139	-0.125
-447.895	-46.346	0.204	-0.100
-446.880	-39.930	0.249	-0.130
-445.865	800.000	0.092	0.287
-444.851	34.590	-0.253	-0.222
-443.836	18.326	0.353	0.282
-442.822	800.000	-0.096	-0.304
-441.807	-152.934	0.245	0.017
-440.792	800.000	0.031	-0.117
-439.778	0.934	-0.151	0.109
-438.763	-75.401	-0.199	0.071
-437.749	14.573	0.210	0.165
-436.734	193.583	-0.227	-0.344
-435.719	313.267	0.079	0.149
-434.705	124.781	0.120	-0.152
-433.690	-200.000	-0.038	-0.212
-432.676	-200.000	0.018	0.236
-431.661	47.795	0.260	0.243
-430.646	-43.013	0.174	0.088
-429.632	-200.000	0.080	0.000
-428.617	45.906	-0.231	-0.214
-427.603	-162.311	-0.196	0.010
-426.588	549.486	0.034	-0.081
-425.573	-86.001	-0.566	0.175
-424.559	136.791	0.092	0.120
-423.544	261.200	0.242	-0.419
-422.530	-200.000	0.124	0.000
-421.515	161.059	0.232	0.325
-420.500	800.000	-0.078	0.261
-419.486	800.000	-0.040	-0.150
-418.471	-85.335	-0.120	0.038
-417.457	-200.000	0.025	-0.211
-416.442	800.000	-0.140	-0.437
-415.428	79.476	-0.100	0.107
-414.413	800.000	-0.037	-0.108
-413.398	-53.061	0.099	0.045
-412.384	-90.514	0.229	0.066
-411.369	-200.000	-0.002	-0.165
-410.355	20.246	0.288	0.232
-409.340	800.000	0.038	-0.162
-408.325	-79.255	-0.273	0.093
-407.311	-200.000	-0.043	0.222
-406.296	-200.000	-0.009	0.247
-405.282	-111.265	0.213	0.043
-404.267	175.241	0.049	-0.071
-403.252	657.503	-0.140	0.361
-402.238	-183.596	-0.304	0.005
-401.223	254.667	0.125	0.213
-400.209	330.457	-0.127	0.244
-399.194	800.000	-0.070	-0.219
-398.179	484.729	-0.041	-0.093
-397.165	-157.070	0.241	0.015
-396.150	-200.000	-0.018	0.143
-395.136	76.681	-0.136	0.144
-394.121	161.507	0.053	0.073
-393.106	800.000	0.053	0.153
-392.092	24.854	0.075	-0.062
-391.077	112.213	0.220	-0.266
-390.063	-74.937	0.138	0.049
-389.048	-104.829	0.146	-0.034
-388.033	256.261	-0.207	-0.356
-387.019	80.752	-0.156	-0.168
-386.004	-118.374	0.159	0.028
-384.990	800.000	-0.025	-0.103
-383.975	-145.753	0.199	-0.018
-382.960	105.468	-0.263	0.310
-381.946	-137.551	0.028	0.003
-380.931	345.414	0.046	-0.090
-379.917	-200.000	-0.061	0.292
-378.902	800.000	0.103	0.325
-377.888	-37.205	-0.279	0.149
-376.873	-200.000	-0.008	0.171
-375.858	-9.607	0.126	-0.084
-374.844	-148.817	0.392	-0.032
-373.829	800.000	0.066	0.253
-372.815	-200.000	0.001	-0.152
-371.800	-93.916	-0.283	-0.078
-370.785	53.893	-0.257	0.247
-369.771	-195.082	0.121	0.001
-368.756	-143.388	-0.078	-0.007
-367.742	108.020	0.096	-0.115
-366.727	-182.628	-0.277	-0.005
-365.712	301.838	-0.137	0.253
-364.698	-200.000	-0.011	0.058
-363.683	-33.143	0.331	0.183
-362.669	800.000	-0.071	-0.202
-361.654	550.772	-0.066	0.158
-360.639	-7.623	0.126	0.085
-359.625	55.543	-0.261	0.252
-358.610	800.000	-0.047	-0.181
-357.596	32.308	0.135	-0.117
-356.581	-6.616	0.086	-0.058
-355.566	-101.484	-0.037	0.009
-354.552	50.697	-0.212	0.200
-353.537	-30.400	-0.116	-0.066
-352.523	-71.282	0.060	0.022
-351.508	-29.534	0.236	-0.134
-350.493	-200.000	0.013	-0.270
-349.479	-200.000	-0.052	-0.261
-348.464	-200.000	-0.039	0.226
-347.450	-59.147	0.222	0.095
-346.435	-89.998	-0.438	0.127
-345.420	-131.392	0.073	-0.010
-344.406	-99.157	0.154	-0.039
-343.391	28.490	-0.246	-0.207
-342.377	-116.428	-0.249	0.046
-341.362	195.433	-0.235	0.356
-340.348	-43.408	0.047	0.024
-339.333	-137.257	0.229	-0.026
-338.318	140.266	0.094	-0.124
-337.304	260.245	-0.122	-0.211
-336.289	-109.110	-0.217	-0.046
-335.275	319.062	-0.091	-0.172
-334.260	-110.597	-0.428	-0.088
-333.245	-200.000	0.013	-0.290
-332.231	-21.706	-0.139	-0.085
-331.216	-13.185	-0.106	0.068
-330.202	36.241	0.151	-0.132
-329.187	-200.000	0.004	-0.035
-328.172	-128.384	0.223	-0.032
-327.158	152.446	-0.109	0.148
-326.143	55.377	0.131	-0.126
-325.129	-29.148	-0.178	0.101
-324.114	17.415	0.228	-0.181
-323.099	575.146	0.060	0.147
-322.085	-200.000	-0.013	0.104
-321.070	0.556	0.184	0.131
-320.056	377.553	0.081	0.165
-319.041	313.849	-0.021	-0.040
-318.026	92.552	-0.211	-0.238
-317.012	-200.000	-0.015	0.118
-315.997	239.424	-0.114	0.190
-314.983	293.649	0.101	-0.184
-313.968	-123.084	0.255	-0.041
-312.953	-24.133	-0.130	0.077
-311.939	-37.500	0.325	0.173
-310.924	-34.457	-0.220	0.120
-309.910	-119.549	-0.377	-0.065
-308.895	-81.702	0.312	-0.102
-307.880	-200.000	-0.026	0.143
-306.866	-166.437	-0.113	-0.005
-305.851	183.786	0.106	-0.156
-304.837	800.000	-0.057	0.250
-303.822	-200.000	0.014	-0.108
-302.807	-19.327	-0.224	0.139
-301.793	-160.400	0.330	0.018
-300.778	193.167	-0.110	0.166
-299.764	-200.000	0.020	-0.292
-298.749	233.014	-0.022	0.036
-297.735	-200.000	-0.023	0.155
-296.720	95.602	0.202	0.229
-295.705	-119.147	-0.234	0.041
-294.691	-91.387	0.101	-0.029
-293.676	363.379	-0.099	-0.198
-292.662	800.000	0.124	-0.355
-291.647	-159.417	0.285	0.016
-290.632	159.736	-0.117	0.162
-289.618	-85.770	-0.339	-0.105
-288.603	-99.187	-0.149	0.037
-287.589	73.077	0.116	-0.121
-286.574	468.498	0.065	0.144
-285.559	-80.998	0.210	0.069
-284.545	-130.586	0.125	-0.017
-283.530	157.098	0.131	0.180
-282.516	-117.714	-0.065	-0.012
-281.501	-200.000	-0.011	-0.116
-280.486	-4.769	0.356	-0.245
-279.472	-200.000	0.022	0.254
-278.457	-77.541	0.184	0.064
-277.443	-86.333	-0.205	0.063
-276.428	-182.240	0.198	-0.004
-275.413	800.000	-0.058	-0.181
-274.399	292.622	0.057	0.104
-273.384	800.000	0.046	-0.162
-272.370	-200.000	-0.046	-0.341
-271.355	-148.543	-0.086	0.007
-270.340	281.783	0.079	-0.141
-269.326	-200.000	-0.029	0.193
-268.311	180.845	-0.056	-0.081
-267.297	-48.812	-0.406	0.194
-266.282	101.492	-0.067	-0.078
-265.267	-128.284	0.260	-0.037
-264.253	10.287	-0.282	-0.213
-263.238	-36.922	-0.154	-0.082
-262.224	800.000	0.066	0.255
-261.209	-200.000	0.006	0.273
-260.195	-145.005	-0.388	0.035
-259.180	23.452	0.126	0.103
-258.165	437.402	0.162	0.352
-257.151	-200.000	0.002	-0.128
-256.136	-113.780	0.204	-0.040
-255.122	-81.534	-0.339	0.111
-254.107	32.510	-0.264	-0.227
-253.092	227.696	0.190	0.308
-252.078	-200.000	0.018	-0.122
-251.063	66.356	0.146	-0.147
-250.049	-145.169	0.343	-0.031
-249.034	132.192	-0.290	0.371
-248.019	121.973	-0.060	-0.075
-247.005	-200.000	0.002	0.245
-245.990	-78.641	-0.176	-0.060
-244.976	-200.000	-0.031	0.253
-243.961	288.391	-0.026	-0.047
-242.946	76.967	0.104	-0.110
-241.932	192.667	0.167	-0.251
-240.917	-131.499	-0.121	-0.016
-239.903	106.278	0.231	0.272
-238.888	-54.137	0.449	-0.203
-237.873	134.823	-0.060	-0.077
-236.859	193.905	0.147	0.222
-235.844	153.802	-0.101	-0.137
-234.830	44.909	0.139	-0.127
-233.815	-98.818	0.140	-0.035
-232.800	230.823	0.014	-0.022
-231.786	800.000	-0.063	-0.182
-230.771	73.473	0.144	0.149
-229.757	-6.245	-0.067	-0.046
-228.742	-59.337	0.111	-0.048
-227.727	191.824	-0.105	0.157
-226.713	800.000	-0.063	-0.193
-225.698	122.401	-0.140	-0.173
-224.684	-188.969	-0.408	0.005
-223.669	-172.999	0.199	0.006
-222.655	-200.000	0.011	0.179
-221.640	-200.000	0.026	-0.146
-220.625	-200.000	-0.039	-0.277
-219.611	400.534	0.007	0.015
-218.596	-200.000	0.005	0.200
-217.582	-200.000	0.017	0.403
-216.567	-182.295	-0.257	0.005
-215.552	-83.506	0.049	0.016
-214.538	378.896	0.048	0.098
-213.523	-106.104	-0.070	-0.016
-212.509	-96.468	0.264	-0.069
-211.494	-200.000	-0.013	-0.066
-210.479	-200.000	-0.001	-0.051
-209.465	-200.000	0.045	-0.223
-208.450	12.048	-0.172	0.131
-207.436	-42.506	0.120	0.061
-206.421	480.718	0.075	-0.169
-205.406	-15.546	-0.263	-0.166
-204.392	-11.780	-0.264	-0.172
-203.377	-129.844	0.050	-0.007
-202.363	94.877	0.150	-0.170
-201.348	-126.415	0.196	0.029
-200.333	200.493	0.132	0.201
-199.319	248.993	0.033	0.055
-198.304	-66.655	-0.165	-0.065
-197.290	545.661	-0.093	-0.220
-196.275	250.636	-0.141	0.237
-195.260	93.757	-0.252	0.283
-194.246	-200.000	0.003	0.031
-193.231	119.055	0.154	-0.189
-192.217	-149.508	0.332	0.026
-191.202	-49.152	0.205	-0.097
-190.187	800.000	-0.120	0.383
-189.173	-39.863	0.151	-0.078
-188.158	-8.233	0.085	-0.057
-187.144	536.888	0.074	-0.174
-186.129	-200.000	0.005	0.078
-185.114	649.309	0.092	0.234
-184.100	673.624	-0.063	-0.162
-183.085	758.171	-0.169	-0.455
-182.071	-82.150	0.079	-0.026
-181.056	-8.402	-0.232	0.154
-180.042	800.000	0.057	-0.187
-179.027	-148.943	-0.092	-0.007
-178.012	800.000	0.062	-0.175
-176.998	305.917	-0.103	-0.191
-175.983	-157.286	0.337	-0.020
-174.969	-10.639	0.283	-0.186
-173.954	-26.958	0.174	-0.101
-172.939	170.031	0.042	0.059
-171.925	-28.413	0.206	0.118
-170.910	33.819	0.054	-0.047
-169.896	-15.310	0.324	-0.206
-168.881	-25.216	-0.201	0.118
-167.866	-200.000	-0.023	-0.237
-166.852	609.222	-0.012	-0.029
-165.837	-111.639	-0.451	0.091
-164.823	800.000	-0.107	0.382
-163.808	-56.896	-0.097	-0.042
-162.793	31.359	0.060	-0.051
-161.779	800.000	0.080	-0.233
-160.764	-20.882	-0.252	0.153
-159.750	-200.000	-0.008	-0.100
-158.735	117.671	0.140	-0.171
-157.720	-22.456	0.180	-0.108
-156.706	-129.377	-0.143	0.020
-155.691	2.053	-0.158	0.113
-154.677	-123.892	0.426	0.066
-153.662	-38.937	-0.146	-0.076
-152.647	-109.264	-0.235	0.049
-151.633	-12.998	-0.072	0.046
-150.618	-69.102	-0.153	-0.058
-149.604	-47.621	-0.011	0.005
-148.589	-79.474	0.198	-0.066
-147.574	-200.000	0.002	-0.119
-146.560	-200.000	0.014	-0.110
-145.545	100.457	-0.242	0.278
-144.531	663.328	0.027	-0.068
-143.516	-49.496	0.203	0.096
-142.502	261.699	-0.114	-0.196
-141.487	52.807	0.131	0.124
-140.472	-147.330	0.118	-0.010
-139.458	58.352	-0.206	-0.200
-138.443	64.147	0.178	0.177
-137.429	83.803	0.150	0.162
-136.414	800.000	-0.085	0.338
-135.399	486.512	0.031	0.070
-134.385	61.378	-0.089	0.087
-133.370	311.359	0.072	0.134
-132.356	800.000	-0.057	0.234
-131.341	565.575	-0.125	0.300
-130.326	-4.367	-0.139	-0.095
-129.312	70.172	0.224	0.229
-128.297	-117.358	0.392	0.070
-127.283	800.000	-0.040	0.164
-126.268	-126.430	-0.184	0.027
-125.253	653.008	-0.072	-0.183
-124.239	131.291	0.224	0.285
-123.224	104.911	-0.150	0.175
-122.210	179.227	-0.061	0.088
-121.195	-117.132	-0.358	0.065
