DTS Sentinel unit serial number:	SN413079Multiplexer serial number:	ORYXHardware model number:	OX4-SRSoftware version number:	ORYX F/W v4.00 Oryx Data Collector v3.7.2.0data status	okinstallation	princeton_trtdifferential loss correction	single-endedforward channel	channel 2reverse channel	N/Adate	2019/09/10time	20:49:10forward acquisition time	60.00reverse acquisition time	0.00gamma	496.2192k internal	0.2330k external	0.2330temperature offset calibration	0.9946default loss term (dB/km)	0.3790temperature slope calibration	1.0000multiplexer offset coefficient	1.0000multiplexer slope coefficient	1.0000fibre end	0.00T internal ref (°C)	31.75T ext. ref 1 (°C)	-0.31T ext. ref 2 (°C)	25.34length (m)	temperature (°C)	Stokes	anti-Stokes-747.200	-1.976	-0.066	0.047
-746.185	-200.000	-0.011	0.163
-745.171	317.575	0.170	0.324
-744.156	-85.993	0.297	0.092
-743.142	-200.000	0.064	0.436
-742.127	-76.108	0.180	0.064
-741.112	-86.369	-0.329	-0.102
-740.098	124.849	0.172	0.218
-739.083	254.382	-0.116	-0.200
-738.069	136.609	-0.237	0.311
-737.054	-154.518	0.233	0.016
-736.039	212.308	-0.264	0.419
-735.025	602.785	0.146	0.364
-734.010	339.720	-0.076	0.149
-732.996	-38.650	-0.149	0.079
-731.981	-183.874	0.222	-0.004
-730.966	-200.000	-0.017	0.103
-729.952	-200.000	0.068	-0.329
-728.937	234.716	-0.123	0.204
-727.923	254.613	0.178	-0.306
-726.908	187.975	0.095	-0.143
-725.894	-53.706	-0.055	-0.025
-724.879	-127.153	-0.427	-0.063
-723.864	-163.381	0.193	-0.009
-722.850	12.939	0.136	-0.106
-721.835	-34.491	0.142	0.078
-720.821	-90.112	-0.176	-0.052
-719.806	32.361	-0.225	-0.196
-718.791	148.436	0.168	0.229
-717.777	-140.643	-0.244	0.025
-716.762	87.167	0.050	0.056
-715.748	259.265	-0.083	0.144
-714.733	-200.000	-0.003	-0.424
-713.718	-121.886	0.121	-0.020
-712.704	-35.902	-0.078	0.042
-711.689	592.837	0.134	0.333
-710.675	-20.021	-0.126	0.078
-709.660	-117.375	-0.053	0.010
-708.645	429.081	0.193	-0.419
-707.631	-4.824	-0.293	0.203
-706.616	32.791	0.359	-0.313
-705.602	333.178	-0.072	-0.139
-704.587	-200.000	-0.027	0.254
-703.572	413.637	0.072	0.154
-702.558	-157.819	0.285	0.017
-701.543	191.376	0.163	-0.247
-700.529	158.728	0.136	0.190
-699.514	18.923	-0.058	-0.046
-698.499	102.013	0.135	0.158
-697.485	800.000	-0.011	-0.033
-696.470	-200.000	-0.047	-0.309
-695.456	-200.000	0.004	0.125
-694.441	726.208	-0.042	0.114
-693.426	-103.673	-0.217	-0.051
-692.412	472.771	-0.073	0.165
-691.397	-200.000	0.026	0.181
-690.383	-10.369	0.082	-0.055
-689.368	800.000	-0.035	-0.137
-688.354	245.332	-0.161	0.272
-687.339	-111.006	-0.328	0.068
-686.324	26.375	-0.339	-0.285
-685.310	-129.475	0.291	-0.041
-684.295	38.073	-0.063	0.057
-683.281	318.839	-0.090	-0.171
-682.266	53.914	0.176	0.170
-681.251	-200.000	0.089	-0.450
-680.237	583.479	-0.177	-0.436
-679.222	-65.208	-0.328	0.133
-678.208	-63.911	0.200	0.082
-677.193	-144.740	-0.094	-0.009
-676.178	-200.000	-0.014	-0.146
-675.164	497.923	-0.039	-0.091
-674.149	-0.578	0.216	-0.154
-673.135	184.291	0.114	0.170
-672.120	-19.902	-0.038	0.024
-671.105	-132.653	-0.184	-0.024
-670.091	-7.829	0.093	0.063
-669.076	800.000	-0.050	0.212
-668.062	-85.893	-0.322	-0.100
-667.047	-73.061	0.063	0.023
-666.032	800.000	-0.066	-0.251
-665.018	-169.400	0.292	0.011
-664.003	298.143	-0.082	0.151
-662.989	-200.000	-0.015	-0.406
-661.974	-25.429	-0.205	-0.122
-660.959	-36.244	0.361	-0.196
-659.945	-194.445	0.173	-0.001
-658.930	-152.334	-0.103	-0.007
-657.916	54.542	-0.128	0.124
-656.901	-186.008	-0.236	0.003
-655.886	800.000	0.037	0.155
-654.872	442.491	-0.103	0.225
-653.857	-99.269	-0.382	-0.097
-652.843	-129.335	0.159	-0.022
-651.828	8.966	-0.247	0.187
-650.814	-59.060	0.218	0.094
-649.799	-75.459	0.027	0.010
-648.784	800.000	-0.109	0.374
-647.770	800.000	0.042	-0.125
-646.755	65.621	-0.202	-0.205
-645.741	479.173	0.018	-0.041
-644.726	-19.195	-0.093	-0.058
-643.711	150.672	0.098	0.133
-642.697	-200.000	0.021	0.431
-641.682	-123.157	-0.170	-0.027
-640.668	32.040	0.386	-0.333
-639.653	-103.625	0.261	0.061
-638.638	800.000	0.058	-0.172
-637.624	-200.000	0.033	-0.295
-636.609	-200.000	-0.003	-0.088
-635.595	-200.000	0.031	-0.339
-634.580	-200.000	0.015	-0.222
-633.565	-98.532	0.051	0.013
-632.551	27.959	0.194	0.164
-631.536	148.925	-0.120	-0.162
-630.522	9.605	-0.183	-0.139
-629.507	-39.655	0.330	-0.173
-628.492	800.000	-0.077	-0.323
-627.478	-200.000	-0.114	0.000
-626.463	-109.576	0.181	0.038
-625.449	-200.000	0.002	0.052
-624.434	-128.413	0.469	-0.067
-623.419	19.109	-0.211	-0.170
-622.405	-88.573	0.474	-0.142
-621.390	-42.257	-0.251	0.128
-620.376	0.081	-0.067	0.048
-619.361	536.532	-0.095	0.227
-618.346	-55.176	-0.294	-0.133
-617.332	596.189	-0.106	-0.262
-616.317	-94.722	-0.046	0.013
-615.303	-48.922	-0.340	-0.163
-614.288	800.000	0.029	-0.092
-613.273	-44.786	-0.427	0.213
-612.259	12.355	0.222	0.171
-611.244	-93.846	-0.076	0.021
-610.230	-27.648	-0.167	-0.097
-609.215	-31.182	0.231	0.131
-608.201	-200.000	-0.005	0.110
-607.186	-200.000	-0.033	-0.181
-606.171	-155.773	-0.103	-0.007
-605.157	209.698	-0.147	-0.230
-604.142	-179.948	-0.176	-0.004
-603.128	-79.958	-0.151	-0.051
-602.113	-200.000	-0.010	-0.230
-601.098	800.000	0.037	0.118
-600.084	-97.418	0.164	-0.043
-599.069	116.395	-0.132	0.161
-598.055	774.830	0.119	0.326
-597.040	706.816	-0.074	0.196
-596.025	-102.741	-0.176	0.042
-595.011	800.000	-0.100	-0.330
-593.996	-89.234	0.205	0.060
-592.982	-73.761	0.268	0.098
-591.967	158.869	-0.146	-0.202
-590.952	-34.974	0.133	-0.073
-589.938	85.500	-0.080	-0.088
-588.923	-109.244	0.287	0.061
-587.909	-21.762	0.221	-0.134
-586.894	-175.440	-0.371	-0.010
-585.879	-35.284	0.051	-0.028
-584.865	-200.000	-0.010	-0.149
-583.850	-47.818	0.327	-0.158
-582.836	26.665	-0.108	-0.090
-581.821	-78.521	0.296	0.102
-580.806	-166.405	0.105	0.004
-579.792	-168.664	0.330	-0.013
-578.777	186.346	0.056	0.083
-577.763	40.510	0.089	0.080
-576.748	-47.726	0.236	0.115
-575.733	65.340	-0.046	0.047
-574.719	-200.000	-0.023	0.196
-573.704	553.702	-0.099	-0.239
-572.690	-54.338	0.162	-0.074
-571.675	322.651	-0.035	0.066
-570.661	-105.105	0.197	-0.045
-569.646	-200.000	-0.006	0.180
-568.631	118.323	0.108	-0.134
-567.617	-53.537	-0.102	0.047
-566.602	224.438	0.043	-0.069
-565.588	229.626	0.117	0.190
-564.573	-200.000	0.065	0.354
-563.558	800.000	-0.119	0.330
-562.544	41.576	0.165	0.149
-561.529	402.144	-0.089	0.188
-560.515	-200.000	0.019	0.157
-559.500	-89.233	-0.228	0.067
-558.485	134.581	0.329	-0.427
-557.471	11.400	0.155	0.119
-556.456	27.309	-0.159	0.133
-555.442	-200.000	0.082	-0.378
-554.427	2.883	-0.309	-0.224
-553.412	49.699	0.156	0.147
-552.398	61.374	-0.061	-0.060
-551.383	180.506	-0.057	-0.084
-550.369	467.105	0.101	-0.227
-549.354	110.660	0.043	-0.052
-548.339	-200.000	-0.001	0.175
-547.325	6.633	0.168	-0.125
-546.310	170.860	-0.123	-0.177
-545.296	-56.628	-0.166	0.073
-544.281	-77.896	0.482	-0.166
-543.266	-4.481	-0.410	-0.283
-542.252	398.915	-0.070	-0.146
-541.237	-101.620	0.112	-0.027
-540.223	-35.079	0.112	-0.061
-539.208	205.029	-0.141	-0.219
-538.193	-172.678	-0.134	-0.004
-537.179	1.644	-0.118	0.085
-536.164	-3.132	-0.025	-0.017
-535.150	-16.537	-0.078	-0.049
-534.135	16.341	0.227	0.179
-533.121	-42.924	0.171	0.087
-532.106	-29.847	0.051	0.029
-531.091	-90.559	-0.188	-0.054
-530.077	-88.754	-0.320	0.095
-529.062	186.578	0.050	0.075
-528.048	-150.821	-0.365	-0.028
-527.033	345.900	-0.159	0.312
-526.018	-136.796	-0.282	-0.032
-525.004	-200.000	0.001	0.255
-523.989	-33.684	0.196	-0.108
-522.975	-94.532	0.153	0.042
-521.960	147.094	0.146	0.196
-520.945	-200.000	-0.061	0.404
-519.931	-46.020	0.081	0.040
-518.916	317.847	-0.208	-0.393
-517.902	173.512	0.063	-0.091
-516.887	-200.000	0.020	0.347
-515.872	-174.908	-0.304	-0.009
-514.858	-125.008	-0.070	-0.011
-513.843	45.224	0.246	-0.226
-512.829	-200.000	0.005	-0.050
-511.814	-116.958	-0.070	0.013
-510.799	7.044	0.314	-0.234
-509.785	-200.000	-0.029	0.202
-508.770	-200.000	-0.016	0.237
-507.756	-200.000	0.054	-0.272
-506.741	-190.470	0.200	0.002
-505.726	137.697	-0.227	0.296
-504.712	729.337	-0.102	-0.272
-503.697	-9.476	0.174	-0.116
-502.683	-21.560	-0.289	-0.176
-501.668	348.147	0.168	0.330
-500.653	800.000	0.092	-0.267
-499.639	-107.445	0.162	0.035
-498.624	486.408	0.080	-0.181
-497.610	-23.038	-0.200	0.120
-496.595	800.000	-0.053	-0.192
-495.581	-57.345	0.302	-0.132
-494.566	-84.232	-0.248	0.078
-493.551	51.767	-0.068	0.064
-492.537	444.324	0.110	-0.241
-491.522	-7.502	0.237	-0.160
-490.508	138.615	0.097	0.127
-489.493	-200.000	0.025	-0.230
-488.478	-200.000	-0.002	0.094
-487.464	-45.605	-0.076	0.037
-486.449	188.005	0.078	-0.116
-485.435	-110.814	0.061	0.013
-484.420	-146.151	-0.430	0.038
-483.405	-200.000	-0.014	-0.088
-482.391	74.777	-0.178	0.186
-481.376	-135.841	-0.233	0.027
-480.362	108.425	0.221	-0.263
-479.347	-89.958	-0.432	-0.126
-478.332	43.815	0.213	0.194
-477.318	-200.000	-0.003	-0.090
-476.303	-185.672	-0.124	0.002
-475.289	-120.108	0.303	0.052
-474.274	82.312	0.184	0.199
-473.259	292.169	0.126	-0.229
-472.245	-200.000	0.031	-0.192
-471.230	67.009	0.114	-0.115
-470.216	800.000	-0.063	0.210
-469.201	-200.000	0.019	0.133
-468.186	800.000	-0.036	-0.111
-467.172	303.697	-0.097	0.179
-466.157	-120.565	0.388	0.065
-465.143	-200.000	0.038	-0.185
-464.128	-200.000	-0.001	0.010
-463.113	377.626	-0.080	-0.163
-462.099	79.922	0.102	0.110
-461.084	-200.000	-0.018	0.272
-460.070	800.000	-0.047	-0.201
-459.055	141.378	0.112	0.147
-458.040	76.032	-0.169	0.178
-457.026	-200.000	-0.004	0.189
-456.011	-147.289	-0.116	-0.010
-454.997	-21.856	-0.296	0.179
-453.982	-200.000	-0.028	-0.180
-452.968	107.555	0.117	0.139
-451.953	-96.128	-0.223	-0.059
-450.938	-40.192	-0.125	-0.065
-449.924	-51.416	0.205	0.095
-448.909	11.472	0.210	-0.160
-447.895	800.000	-0.016	0.066
-446.880	-200.000	0.007	0.253
-445.865	-112.981	0.037	-0.007
-444.851	-166.955	0.202	0.008
-443.836	88.985	-0.184	-0.204
-442.822	45.148	0.209	-0.191
-441.807	82.928	0.189	0.204
-440.792	-123.043	-0.409	0.065
-439.778	-114.333	0.057	-0.011
-438.763	716.136	0.064	0.169
-437.749	800.000	-0.069	0.273
-436.734	15.690	0.321	0.251
-435.719	-200.000	0.038	0.183
-434.705	-200.000	-0.011	-0.122
-433.690	178.750	-0.115	-0.167
-432.676	800.000	-0.146	-0.438
-431.661	3.160	0.295	0.213
-430.646	-174.213	0.275	0.008
-429.632	28.651	-0.263	0.221
-428.617	759.162	-0.098	-0.265
-427.603	-157.846	-0.193	0.011
-426.588	476.048	-0.105	0.237
-425.573	363.986	-0.106	0.212
-424.559	605.368	-0.067	0.166
-423.544	-155.106	-0.167	-0.011
-422.530	-58.309	0.008	0.004
-421.515	198.734	-0.085	0.130
-420.500	-98.858	-0.142	-0.036
-419.486	-51.064	-0.168	-0.078
-418.471	-19.138	-0.265	-0.163
-417.457	-107.851	0.176	0.038
-416.442	-151.854	0.310	-0.023
-415.428	-200.000	0.027	0.186
-414.413	1.934	-0.204	-0.146
-413.398	-164.809	-0.430	0.019
-412.384	83.206	0.174	-0.189
-411.369	6.123	-0.215	-0.158
-410.355	159.655	-0.113	0.156
-409.340	-200.000	-0.031	0.354
-408.325	-200.000	0.053	0.459
-407.311	34.024	0.014	0.012
-406.296	433.489	-0.054	-0.116
-405.282	800.000	0.002	0.007
-404.267	800.000	-0.084	0.283
-403.252	17.105	0.097	0.077
-402.238	-200.000	-0.019	-0.241
-401.223	-14.927	-0.113	-0.072
-400.209	568.465	-0.058	-0.140
-399.194	-86.800	0.097	0.029
-398.179	425.572	-0.085	0.181
-397.165	-114.309	0.336	0.064
-396.150	243.961	-0.074	0.123
-395.136	-127.318	-0.108	0.016
-394.121	204.302	0.121	-0.186
-393.106	-82.008	0.035	0.012
-392.092	-53.990	-0.338	0.153
-391.077	65.362	0.204	-0.205
-390.063	356.891	0.069	-0.136
-389.048	-52.346	-0.230	0.106
-388.033	-14.501	0.090	0.058
-387.019	102.331	0.107	0.124
-386.004	-33.144	-0.257	0.141
-384.990	37.774	0.305	-0.269
-383.975	-167.653	0.145	0.006
-382.960	-200.000	0.000	0.231
-381.946	800.000	-0.023	0.071
-380.931	118.642	0.032	-0.039
-379.917	-200.000	0.005	0.108
-378.902	95.198	-0.098	-0.111
-377.888	321.189	-0.040	0.076
-376.873	97.766	0.216	-0.246
-375.858	-52.490	-0.244	-0.112
-374.844	-135.157	0.386	-0.046
-373.829	-200.000	0.041	-0.193
-372.815	-200.000	-0.007	0.172
-371.800	331.992	-0.116	-0.223
-370.785	-114.928	0.361	-0.068
-369.771	-136.265	0.047	-0.005
-368.756	276.931	0.144	0.253
-367.742	-72.119	-0.170	-0.062
-366.727	743.464	0.147	-0.391
-365.712	46.143	0.200	-0.184
-364.698	410.683	-0.194	0.408
-363.683	-200.000	0.041	0.347
-362.669	-130.098	0.441	0.060
-361.654	800.000	0.019	0.061
-360.639	240.932	-0.128	-0.212
-359.625	800.000	-0.044	-0.158
-358.610	-96.330	0.199	-0.052
-357.596	487.241	-0.012	0.026
-356.581	153.611	-0.047	0.064
-355.566	-200.000	0.075	0.405
-354.552	31.991	0.260	-0.222
-353.537	-200.000	0.000	-0.243
-352.523	9.191	0.146	-0.109
-351.508	-144.918	-0.212	0.019
-350.493	800.000	0.073	0.258
-349.479	790.133	-0.046	-0.126
-348.464	-17.789	-0.291	-0.181
-347.450	134.547	0.324	-0.417
-346.435	-167.866	0.227	0.009
-345.420	-200.000	0.002	0.136
-344.406	-128.114	-0.259	0.037
-343.391	-28.507	0.102	0.058
-342.377	276.945	-0.050	-0.088
-341.362	-56.233	-0.196	-0.086
-340.348	601.769	-0.118	0.292
-339.333	11.205	0.168	0.127
-338.318	15.533	-0.170	-0.132
-337.304	800.000	0.042	-0.122
-336.289	-59.751	-0.080	0.034
-335.275	800.000	-0.066	-0.226
-334.260	-62.399	-0.178	0.073
-333.245	104.982	-0.016	0.019
-332.231	564.738	-0.112	-0.270
-331.216	-49.384	-0.100	0.047
-330.202	-20.999	-0.212	0.128
-329.187	-103.139	0.020	0.005
-328.172	143.336	-0.160	0.212
-327.158	-54.912	-0.370	0.165
-326.143	-200.000	0.015	0.232
-325.129	189.407	0.130	-0.193
-324.114	-98.606	-0.414	0.105
-323.099	265.283	-0.165	0.285
-322.085	-200.000	0.020	0.277
-321.070	167.593	0.163	0.230
-320.056	-200.000	0.015	0.176
-319.041	181.769	-0.184	0.268
-318.026	800.000	0.091	-0.356
-317.012	2.319	0.119	0.085
-315.997	-200.000	0.038	0.186
-314.983	-119.281	0.118	0.020
-313.968	800.000	-0.128	-0.505
-312.953	-26.698	0.073	-0.042
-311.939	80.079	-0.144	0.153
-310.924	-11.735	0.074	0.048
-309.910	319.829	0.186	-0.350
-308.895	-168.366	-0.154	0.006
-307.880	13.240	0.065	-0.050
-306.866	55.064	0.160	0.153
-305.851	-200.000	0.018	-0.321
-304.837	89.384	-0.183	-0.202
-303.822	-46.193	-0.367	-0.179
-302.807	-75.161	-0.233	0.082
-301.793	-200.000	0.019	0.197
-300.778	74.870	0.228	-0.237
-299.764	752.740	-0.118	-0.314
-298.749	-101.171	0.217	0.053
-297.735	506.467	0.065	-0.148
-296.720	200.148	0.063	0.095
-295.705	-200.000	0.003	0.057
-294.691	85.712	0.097	-0.106
-293.676	91.326	0.188	-0.208
-292.662	-200.000	0.012	-0.081
-291.647	-98.239	-0.128	-0.032
-290.632	-200.000	-0.014	-0.062
-289.618	-115.646	0.227	0.042
-288.603	-89.157	-0.073	0.021
-287.589	489.421	-0.039	0.087
-286.574	564.610	-0.043	-0.102
-285.559	-125.899	-0.124	0.018
-284.545	255.955	0.049	-0.083
-283.530	35.888	-0.126	-0.110
-282.516	-57.965	0.319	0.138
-281.501	-200.000	-0.013	-0.237
-280.486	-19.445	-0.281	0.172
-279.472	235.325	-0.007	0.011
-278.457	145.789	0.152	0.201
-277.443	-134.759	0.240	-0.029
-276.428	-56.952	0.113	-0.049
-275.413	-200.000	0.041	0.223
-274.399	-64.477	-0.264	0.106
-273.384	-85.810	-0.297	0.091
-272.370	-57.071	-0.249	-0.108
-271.355	-200.000	0.045	0.000
-270.340	348.753	-0.032	-0.062
-269.326	-103.297	-0.479	0.112
-268.311	194.632	-0.119	-0.178
-267.297	64.339	0.084	-0.084
-266.282	-200.000	-0.039	0.224
-265.267	-105.280	-0.075	-0.017
-264.253	530.118	-0.116	0.271
-263.238	-168.674	0.318	-0.012
-262.224	-44.275	-0.036	-0.018
-261.209	-67.980	0.166	-0.064
-260.195	800.000	0.049	0.161
-259.180	-200.000	0.013	-0.101
-258.165	145.964	0.081	0.107
-257.151	348.364	0.090	0.176
-256.136	-31.876	0.220	-0.122
-255.122	199.203	-0.157	-0.237
-254.107	418.615	-0.099	-0.210
-253.092	-200.000	0.011	0.192
-252.078	272.490	0.059	-0.102
-251.063	-114.465	-0.226	0.043
-250.049	631.332	0.046	-0.115
-249.034	255.137	0.077	-0.131
-248.019	-36.670	0.061	0.032
-247.005	800.000	0.047	-0.131
-245.990	-2.487	0.052	-0.036
-244.976	-200.000	0.014	0.083
-243.961	122.669	0.028	0.034
-242.946	800.000	0.044	0.137
-241.932	-75.594	-0.407	0.143
-240.917	51.918	-0.238	-0.224
-239.903	-94.190	0.365	0.099
-238.888	-200.000	0.041	0.177
-237.873	-182.118	0.373	0.007
-236.859	-18.980	0.142	0.087
-235.844	255.242	-0.207	0.350
-234.830	-89.296	0.226	-0.066
-233.815	218.741	-0.126	-0.198
-232.800	368.533	0.094	-0.187
-231.786	6.380	-0.137	0.100
-230.771	111.606	-0.024	0.028
-229.757	296.967	0.169	0.307
-228.742	-196.231	-0.118	-0.001
-227.727	353.308	-0.073	-0.144
-226.713	41.941	0.029	-0.026
-225.698	581.947	0.044	-0.107
-224.684	-200.000	0.046	-0.238
-223.669	-192.641	-0.206	0.002
-222.655	-179.285	-0.194	0.004
-221.640	800.000	0.091	-0.267
-220.625	-200.000	0.032	0.182
-219.611	-200.000	0.014	0.134
-218.596	-128.092	-0.171	0.024
-217.582	-86.192	0.210	0.064
-216.567	149.661	0.054	0.072
-215.552	-130.850	0.374	-0.049
-214.538	-138.866	-0.283	0.030
-213.523	-116.749	-0.150	-0.027
-212.509	40.924	-0.169	0.150
-211.494	135.823	0.109	0.141
-210.479	134.035	-0.171	-0.219
-209.465	-161.791	0.119	-0.006
-208.450	-22.704	0.056	-0.034
-207.436	18.134	0.191	0.150
-206.421	174.313	0.154	0.219
-205.406	-200.000	-0.110	0.600
-204.392	162.309	-0.141	-0.196
-203.377	-137.434	0.051	-0.006
-202.363	197.003	-0.276	-0.415
-201.348	-166.892	-0.335	-0.014
-200.333	800.000	-0.014	-0.038
-199.319	-200.000	0.003	-0.096
-198.304	488.435	0.071	-0.160
-197.290	-2.193	0.122	-0.085
-196.275	-200.000	0.024	0.386
-195.260	342.402	-0.084	0.162
-194.246	-115.186	0.264	-0.049
-193.231	-18.654	0.167	0.103
-192.217	10.431	-0.089	-0.067
-191.202	144.596	0.092	0.121
-190.187	353.677	0.205	0.401
-189.173	800.000	-0.013	-0.038
-188.158	-3.828	0.104	-0.071
-187.144	-11.539	-0.141	-0.091
-186.129	405.262	0.151	0.313
-185.114	-200.000	0.033	-0.212
-184.100	49.958	0.207	-0.192
-183.085	-131.309	-0.211	-0.027
-182.071	27.005	0.301	-0.249
-181.056	723.102	0.005	0.014
-180.042	133.511	-0.153	0.194
-179.027	-104.677	0.179	0.041
-178.012	-129.413	-0.284	0.039
-176.998	-31.709	-0.098	0.054
-175.983	800.000	-0.057	0.223
-174.969	231.520	-0.044	0.070
-173.954	-200.000	0.004	-0.120
-172.939	-106.684	-0.168	0.037
-171.925	800.000	-0.095	0.259
-170.910	39.104	-0.474	-0.417
-169.896	-200.000	-0.047	-0.469
-168.881	43.554	0.068	-0.061
-167.866	352.977	-0.095	0.185
-166.852	-200.000	0.012	0.106
-165.837	198.333	0.091	0.138
-164.823	358.227	0.104	0.204
-163.808	236.260	-0.097	-0.157
-162.793	235.370	-0.014	0.022
-161.779	32.128	0.221	0.188
-160.764	-54.430	0.209	-0.093
-159.750	-200.000	-0.038	-0.243
-158.735	-200.000	0.049	-0.436
-157.720	214.579	0.050	0.078
-156.706	310.424	0.068	0.125
-155.691	-107.604	0.244	0.052
-154.677	-122.884	0.374	0.059
-153.662	687.483	-0.148	0.381
-152.647	-130.757	-0.031	0.004
-151.633	-139.014	-0.211	-0.022
-150.618	253.733	0.127	0.213
-149.604	-124.385	-0.247	0.038
-148.589	623.275	-0.111	0.275
-147.574	136.053	-0.044	0.056
-146.560	-72.167	-0.101	0.037
-145.545	54.455	0.120	0.114
-144.531	84.097	-0.063	0.068
-143.516	-96.484	0.052	-0.013
-142.502	134.797	-0.157	-0.200
-141.487	-200.000	-0.027	0.183
-140.472	305.892	-0.231	0.422
-139.458	-200.000	-0.001	-0.272
-138.443	144.893	-0.072	-0.094
-137.429	-200.000	0.011	-0.153
-136.414	-200.000	0.007	-0.123
-135.399	-99.628	0.155	-0.038
-134.385	-76.919	0.222	0.076
-133.370	-2.767	-0.126	0.087
-132.356	-200.000	0.009	-0.091
-131.341	274.320	-0.151	-0.263
-130.326	134.823	0.121	-0.154
-129.312	-10.101	0.224	-0.146
-128.297	-59.072	-0.126	-0.054
-127.283	800.000	-0.126	0.421
-126.268	362.757	-0.109	0.215
-125.253	-78.240	0.123	0.041
-124.239	-200.000	-0.019	0.114
-123.224	59.558	-0.146	-0.141
-122.210	141.329	-0.268	0.349
-121.195	105.627	0.114	-0.132
