DTS Sentinel unit serial number:	SN413079Multiplexer serial number:	ORYXHardware model number:	OX4-SRSoftware version number:	ORYX F/W v4.00 Oryx Data Collector v3.7.2.0data status	okinstallation	princeton_trtdifferential loss correction	single-endedforward channel	channel 2reverse channel	N/Adate	2019/09/19time	02:39:35forward acquisition time	60.00reverse acquisition time	0.00gamma	496.2192k internal	0.2353k external	0.2353temperature offset calibration	1.0013default loss term (dB/km)	0.3790temperature slope calibration	1.0000multiplexer offset coefficient	1.0000multiplexer slope coefficient	1.0000fibre end	0.00T internal ref (°C)	20.94T ext. ref 1 (°C)	0.66T ext. ref 2 (°C)	14.77length (m)	temperature (°C)	Stokes	anti-Stokes-747.200	-60.097	-0.051	-0.022
-746.185	54.722	-0.080	0.077
-745.171	-55.196	-0.263	-0.118
-744.156	-99.954	-0.115	-0.029
-743.142	-102.947	-0.031	-0.007
-742.127	63.942	-0.204	0.205
-741.112	580.373	-0.029	-0.071
-740.098	2.856	-0.082	0.059
-739.083	539.620	-0.011	-0.026
-738.069	51.067	-0.159	0.151
-737.054	42.399	-0.178	-0.161
-736.039	-200.000	-0.011	-0.277
-735.025	-70.114	0.249	0.094
-734.010	-13.481	-0.117	0.075
-732.996	-39.449	0.219	-0.115
-731.981	-200.000	-0.024	-0.186
-730.966	800.000	-0.089	-0.320
-729.952	743.975	-0.104	-0.279
-728.937	800.000	0.082	-0.259
-727.923	-200.000	-0.052	-0.409
-726.908	18.700	-0.366	0.292
-725.894	-172.615	0.091	-0.003
-724.879	-152.987	-0.360	-0.025
-723.864	800.000	-0.098	0.324
-722.850	185.645	0.156	0.231
-721.835	392.727	0.111	-0.231
-720.821	151.396	-0.032	0.044
-719.806	-200.000	0.035	0.220
-718.791	641.568	-0.059	-0.149
-717.777	-185.742	-0.052	-0.001
-716.762	355.377	0.165	-0.327
-715.748	-36.699	0.143	0.076
-714.733	-200.000	0.026	-0.163
-713.718	-85.442	-0.196	0.061
-712.704	-2.167	-0.103	0.072
-711.689	-55.161	0.089	0.040
-710.675	800.000	0.149	0.415
-709.660	-30.074	-0.275	0.156
-708.645	165.944	0.242	0.341
-707.631	614.428	-0.057	-0.142
-706.616	-200.000	-0.005	-0.047
-705.602	-113.457	-0.307	0.060
-704.587	100.543	-0.232	-0.269
-703.572	149.825	0.031	-0.042
-702.558	-6.809	-0.009	-0.006
-701.543	597.266	0.099	-0.244
-700.529	-200.000	0.021	0.255
-699.514	66.964	-0.174	0.176
-698.499	88.918	0.086	0.095
-697.485	35.564	-0.160	-0.140
-696.470	271.618	-0.084	0.147
-695.456	800.000	0.039	-0.163
-694.441	-108.555	0.217	0.046
-693.426	-200.000	0.019	-0.282
-692.412	200.596	0.179	-0.274
-691.397	198.308	0.134	0.203
-690.383	800.000	0.045	0.131
-689.368	51.918	0.108	-0.102
-688.354	-8.916	-0.116	-0.077
-687.339	569.821	0.070	-0.169
-686.324	33.190	-0.374	-0.323
-685.310	-200.000	-0.012	-0.109
-684.295	-35.166	0.153	-0.083
-683.281	800.000	-0.009	0.029
-682.266	-200.000	0.026	-0.189
-681.251	-200.000	0.004	-0.254
-680.237	-30.417	-0.250	0.141
-679.222	-200.000	0.045	-0.340
-678.208	37.049	-0.160	0.141
-677.193	800.000	-0.053	-0.172
-676.178	-200.000	0.006	0.030
-675.164	-200.000	0.026	-0.271
-674.149	287.194	0.173	0.312
-673.135	226.635	-0.243	0.393
-672.120	63.431	0.055	-0.054
-671.105	699.762	0.048	-0.126
-670.091	-200.000	0.027	-0.201
-669.076	478.368	0.095	-0.213
-668.062	-94.615	-0.191	-0.052
-667.047	383.024	-0.068	-0.139
-666.032	110.884	-0.177	0.212
-665.018	-200.000	-0.010	-0.094
-664.003	-54.080	0.201	-0.091
-662.989	116.341	-0.170	0.207
-661.974	172.606	0.080	0.114
-660.959	-200.000	-0.001	0.089
-659.945	61.389	-0.165	-0.163
-658.930	372.219	-0.021	-0.041
-657.916	-38.204	-0.057	0.030
-656.901	-109.150	-0.127	0.027
-655.886	-127.195	-0.180	-0.026
-654.872	-26.150	-0.332	0.194
-653.857	-14.313	-0.220	-0.141
-652.843	-59.263	-0.090	-0.039
-651.828	159.802	-0.097	-0.134
-650.814	-137.966	0.068	0.008
-649.799	-57.772	-0.449	0.195
-648.784	42.991	0.130	-0.118
-647.770	-182.292	-0.173	0.003
-646.755	-200.000	-0.011	-0.161
-645.741	332.410	-0.096	-0.184
-644.726	-8.261	-0.194	0.130
-643.711	166.178	-0.128	-0.180
-642.697	-200.000	-0.033	-0.196
-641.682	268.469	-0.123	0.214
-640.668	359.012	0.137	-0.273
-639.653	245.815	0.078	0.130
-638.638	-200.000	-0.018	-0.106
-637.624	-74.444	0.394	-0.141
-636.609	-200.000	0.066	0.394
-635.595	279.683	0.063	0.111
-634.580	-200.000	0.017	0.159
-633.565	122.096	0.072	0.089
-632.551	800.000	-0.044	-0.180
-631.536	165.279	-0.149	-0.210
-630.522	-63.500	-0.131	0.054
-629.507	51.298	0.198	-0.187
-628.492	800.000	-0.065	0.238
-627.478	-200.000	-0.040	-0.291
-626.463	800.000	0.042	0.154
-625.449	800.000	0.069	0.234
-624.434	22.617	0.149	0.121
-623.419	461.131	-0.078	-0.173
-622.405	800.000	0.088	0.249
-621.390	-200.000	-0.026	-0.121
-620.376	555.667	-0.117	-0.279
-619.361	-200.000	0.030	-0.284
-618.346	23.593	0.283	-0.231
-617.332	-200.000	-0.028	-0.156
-616.317	-94.503	-0.305	0.083
-615.303	-200.000	0.036	0.179
-614.288	-200.000	-0.033	-0.222
-613.273	800.000	-0.181	0.528
-612.259	499.630	0.072	-0.165
-611.244	271.908	0.123	-0.215
-610.230	-95.075	-0.047	-0.013
-609.215	144.013	-0.068	-0.090
-608.201	481.734	-0.061	0.138
-607.186	9.853	-0.149	-0.112
-606.171	132.678	-0.106	0.135
-605.157	-200.000	-0.031	0.321
-604.142	31.680	0.257	-0.219
-603.128	-200.000	-0.013	0.132
-602.113	280.312	-0.093	-0.165
-601.098	-200.000	0.024	0.261
-600.084	357.903	0.082	0.162
-599.069	-193.821	-0.260	0.002
-598.055	515.691	0.097	0.226
-597.040	-98.324	0.194	0.049
-596.025	-185.431	-0.212	0.003
-595.011	39.189	-0.209	-0.185
-593.996	-125.601	0.441	0.066
-592.982	322.728	0.207	-0.391
-591.967	-116.419	0.342	-0.063
-590.952	-200.000	0.025	0.122
-589.938	800.000	-0.092	-0.267
-588.923	7.861	-0.348	0.258
-587.909	168.030	-0.076	-0.107
-586.894	-50.924	-0.202	-0.094
-585.879	92.721	0.169	0.189
-584.865	-122.011	-0.215	0.035
-583.850	-98.140	-0.226	0.058
-582.836	33.997	0.207	0.178
-581.821	48.435	-0.154	0.142
-580.806	90.189	-0.262	0.291
-579.792	249.809	-0.088	-0.147
-578.777	5.346	-0.334	0.244
-577.763	-200.000	-0.029	0.313
-576.748	49.053	0.040	-0.038
-575.733	82.986	-0.092	-0.099
-574.719	-90.343	0.214	-0.061
-573.704	183.589	0.116	0.169
-572.690	680.753	0.101	0.261
-571.675	141.677	0.064	0.084
-570.661	-38.791	-0.228	0.119
-569.646	800.000	-0.060	-0.197
-568.631	154.573	0.155	-0.211
-567.617	73.221	0.252	-0.261
-566.602	-30.904	0.278	0.156
-565.588	72.765	-0.088	-0.091
-564.573	-115.300	0.125	0.023
-563.558	-200.000	-0.021	0.118
-562.544	800.000	0.054	-0.204
-561.529	482.117	-0.036	-0.081
-560.515	-200.000	0.016	0.424
-559.500	9.367	0.099	-0.074
-558.485	-151.360	0.407	-0.030
-557.471	10.033	-0.164	0.123
-556.456	-77.005	0.408	-0.141
-555.442	-200.000	0.003	-0.316
-554.427	-54.441	-0.087	0.039
-553.412	-200.000	0.031	-0.148
-552.398	-100.997	-0.234	0.057
-551.383	-200.000	-0.002	-0.140
-550.369	241.676	0.153	-0.252
-549.354	58.808	-0.047	0.045
-548.339	-68.654	0.445	0.171
-547.325	-88.471	-0.525	-0.155
-546.310	163.425	0.089	0.124
-545.296	46.835	-0.091	0.084
-544.281	452.358	-0.125	-0.273
-543.266	800.000	-0.081	0.304
-542.252	-200.000	0.035	-0.542
-541.237	-41.454	0.178	-0.091
-540.223	-85.512	-0.400	-0.123
-539.208	-7.455	0.364	-0.244
-538.193	-147.581	0.259	-0.022
-537.179	-105.299	-0.304	0.068
-536.164	115.396	-0.144	-0.174
-535.150	521.553	-0.061	0.143
-534.135	-200.000	-0.033	-0.312
-533.121	-200.000	0.024	0.294
-532.106	-27.117	-0.199	0.115
-531.091	-38.888	-0.043	-0.022
-530.077	-76.286	0.085	-0.030
-529.062	441.349	-0.077	0.167
-528.048	55.350	-0.212	0.203
-527.033	-61.330	0.103	-0.043
-526.018	800.000	0.095	0.292
-525.004	1.297	-0.041	0.029
-523.989	16.887	0.216	-0.169
-522.975	-139.195	-0.183	0.020
-521.960	-75.053	-0.151	-0.053
-520.945	800.000	0.098	0.299
-519.931	120.118	-0.158	-0.193
-518.916	-200.000	-0.006	-0.178
-517.902	-200.000	0.006	0.030
-516.887	-183.505	-0.284	0.005
-515.872	42.577	-0.076	-0.068
-514.858	-159.174	0.021	0.001
-513.843	54.902	0.068	-0.064
-512.829	-113.723	-0.330	-0.064
-511.814	-59.061	0.224	0.095
-510.799	-144.688	-0.193	-0.018
-509.785	-200.000	-0.072	0.391
-508.770	36.159	0.290	0.253
-507.756	-200.000	0.014	0.280
-506.741	-77.455	0.043	-0.015
-505.726	800.000	-0.072	-0.203
-504.712	-73.281	-0.274	0.099
-503.697	64.230	-0.081	0.080
-502.683	-200.000	0.056	0.249
-501.668	147.889	-0.144	-0.192
-500.653	24.513	-0.103	0.084
-499.639	232.840	-0.015	-0.024
-498.624	255.179	-0.101	-0.170
-497.610	3.187	-0.155	0.112
-496.595	-33.298	-0.307	-0.168
-495.581	-200.000	0.002	-0.161
-494.566	367.461	-0.101	0.201
-493.551	-140.314	-0.057	0.006
-492.537	-200.000	-0.010	0.246
-491.522	-54.169	-0.192	-0.086
-490.508	123.191	-0.051	0.063
-489.493	-200.000	-0.083	-0.378
-488.478	9.048	-0.290	-0.216
-487.464	69.643	0.252	-0.256
-486.449	-200.000	0.003	-0.141
-485.435	-75.143	0.239	0.084
-484.420	-116.964	0.198	-0.036
-483.405	761.447	0.025	0.066
-482.391	174.451	0.143	0.204
-481.376	-14.114	-0.368	0.234
-480.362	-200.000	0.042	-0.370
-479.347	382.707	0.081	0.165
-478.332	474.769	-0.075	0.167
-477.318	-128.758	0.114	0.016
-476.303	-200.000	0.009	0.288
-475.289	-38.153	-0.215	0.112
-474.274	-102.934	-0.235	0.055
-473.259	31.561	-0.162	0.138
-472.245	173.468	0.220	-0.314
-471.230	42.559	0.137	0.123
-470.216	-60.438	0.175	0.073
-469.201	306.397	-0.160	0.293
-468.186	650.575	0.038	-0.097
-467.172	-200.000	0.004	0.028
-466.157	292.542	-0.021	0.038
-465.143	670.608	-0.110	0.281
-464.128	-157.792	0.420	0.025
-463.113	633.408	-0.049	0.123
-462.099	-96.845	0.137	0.036
-461.084	390.816	0.108	-0.220
-460.070	-159.338	0.014	-0.001
-459.055	50.173	0.030	0.028
-458.040	63.395	0.214	0.212
-457.026	44.069	0.063	-0.057
-456.011	95.049	0.159	0.178
-454.997	-34.180	0.315	0.171
-453.982	-21.309	0.289	-0.174
-452.968	780.957	0.065	0.177
-451.953	-200.000	-0.050	0.252
-450.938	-37.833	-0.202	-0.106
-449.924	171.759	-0.163	-0.230
-448.909	-142.468	-0.371	-0.036
-447.895	55.559	-0.250	0.238
-446.880	-112.140	-0.167	-0.033
-445.865	63.147	-0.031	0.031
-444.851	-200.000	-0.010	0.127
-443.836	-154.849	-0.210	-0.014
-442.822	523.398	0.158	0.365
-441.807	-200.000	0.004	-0.124
-440.792	480.762	0.094	-0.209
-439.778	-200.000	-0.008	-0.192
-438.763	-0.663	-0.092	-0.064
-437.749	118.262	-0.063	-0.077
-436.734	-200.000	0.001	0.235
-435.719	-63.435	-0.051	-0.021
-434.705	-166.508	0.305	0.013
-433.690	172.856	0.242	-0.344
-432.676	459.703	-0.163	-0.357
-431.661	-200.000	-0.001	-0.066
-430.646	-77.444	-0.168	0.057
-429.632	32.409	-0.145	-0.123
-428.617	-7.817	-0.184	-0.122
-427.603	-200.000	-0.028	0.311
-426.588	-22.821	-0.064	0.038
-425.573	-133.549	0.142	-0.018
-424.559	553.806	0.081	-0.193
-423.544	-200.000	-0.018	0.385
-422.530	-81.730	-0.131	-0.042
-421.515	643.203	-0.033	0.083
-420.500	-200.000	-0.033	0.267
-419.486	138.627	0.025	0.032
-418.471	-90.237	-0.191	-0.055
-417.457	146.976	-0.065	0.086
-416.442	-151.911	0.059	0.004
-415.428	-200.000	0.014	-0.134
-414.413	93.570	0.099	0.110
-413.398	117.856	0.156	0.189
-412.384	-43.999	0.063	-0.031
-411.369	219.784	0.218	-0.344
-410.355	2.598	-0.268	0.191
-409.340	-200.000	-0.038	-0.188
-408.325	111.799	0.150	-0.178
-407.311	-181.139	0.043	0.001
-406.296	-200.000	-0.047	-0.350
-405.282	-139.323	0.096	-0.010
-404.267	35.452	0.173	0.149
-403.252	84.206	-0.061	-0.065
-402.238	21.296	0.213	-0.171
-401.223	-55.767	0.169	0.074
-400.209	-16.664	-0.171	0.106
-399.194	-200.000	-0.000	-0.182
-398.179	-170.500	0.486	-0.017
-397.165	-200.000	-0.042	-0.278
-396.150	-200.000	-0.061	-0.369
-395.136	800.000	0.060	-0.227
-394.121	-106.348	-0.276	0.061
-393.106	-27.390	-0.154	-0.088
-392.092	490.589	0.055	0.124
-391.077	-200.000	-0.005	-0.169
-390.063	-200.000	-0.023	-0.386
-389.048	-68.147	0.299	0.114
-388.033	343.541	-0.067	0.128
-387.019	-154.858	-0.224	-0.015
-386.004	-112.735	0.432	0.084
-384.990	-200.000	0.013	0.362
-383.975	-86.916	-0.070	-0.021
-382.960	-114.391	-0.109	0.021
-381.946	444.082	0.134	0.290
-380.931	-60.585	-0.331	-0.138
-379.917	-105.689	0.295	0.066
-378.902	-136.447	-0.207	0.024
-377.888	-78.255	-0.187	0.063
-376.873	-64.396	0.090	0.036
-375.858	-116.430	-0.036	0.007
-374.844	-105.352	-0.200	-0.045
-373.829	-97.581	0.281	-0.072
-372.815	-94.353	0.190	0.051
-371.800	109.885	-0.063	0.074
-370.785	-81.307	0.099	0.032
-369.771	800.000	-0.060	-0.173
-368.756	-200.000	0.024	-0.174
-367.742	-200.000	0.003	-0.044
-366.727	-11.813	-0.481	-0.310
-365.712	-200.000	-0.016	-0.130
-364.698	-200.000	0.019	-0.561
-363.683	-200.000	0.068	-0.563
-362.669	-57.932	0.156	-0.067
-361.654	-200.000	-0.033	0.309
-360.639	320.685	0.127	0.237
-359.625	800.000	-0.054	0.196
-358.610	287.136	-0.116	-0.206
-357.596	-86.364	0.116	-0.035
-356.581	-0.349	-0.130	-0.091
-355.566	172.496	0.064	-0.091
-354.552	-97.543	-0.366	0.093
-353.537	87.532	0.132	0.143
-352.523	-136.812	-0.124	-0.014
-351.508	-115.082	0.290	-0.054
-350.493	87.690	0.064	-0.069
-349.479	148.239	0.007	-0.009
-348.464	70.394	0.141	0.143
-347.450	38.478	0.233	0.204
-346.435	-35.564	0.036	-0.019
-345.420	171.766	-0.127	-0.179
-344.406	-200.000	0.032	0.310
-343.391	329.312	0.058	-0.110
-342.377	-134.170	-0.193	-0.023
-341.362	800.000	-0.165	-0.456
-340.348	-130.669	0.256	-0.034
-339.333	-200.000	0.037	0.297
-338.318	-200.000	-0.021	0.137
-337.304	-13.340	-0.230	-0.147
-336.289	-151.289	0.304	-0.022
-335.275	-94.124	-0.195	-0.053
-334.260	-200.000	0.034	-0.341
-333.245	-200.000	0.076	-0.343
-332.231	-41.434	-0.164	-0.083
-331.216	-200.000	0.040	0.255
-330.202	800.000	-0.048	0.134
-329.187	518.612	0.151	-0.347
-328.172	-200.000	-0.012	-0.409
-327.158	30.000	-0.074	0.062
-326.143	-47.758	0.561	0.267
-325.129	25.431	0.403	0.329
-324.114	192.314	0.116	-0.172
-323.099	-102.214	-0.162	-0.038
-322.085	-93.637	-0.172	-0.047
-321.070	-67.429	-0.225	-0.087
-320.056	-135.298	-0.135	-0.016
-319.041	800.000	-0.091	-0.274
-318.026	352.990	0.048	0.093
-317.012	84.545	-0.176	0.189
-315.997	-200.000	0.078	0.563
-314.983	267.550	0.098	0.169
-313.968	48.222	-0.226	-0.207
-312.953	27.921	0.091	0.075
-311.939	-200.000	-0.013	0.312
-310.924	800.000	0.038	-0.145
-309.910	-8.261	-0.224	-0.148
-308.895	-71.332	0.062	0.023
-307.880	800.000	-0.011	0.046
-306.866	-200.000	-0.028	0.142
-305.851	-54.572	0.159	-0.071
-304.837	218.703	0.089	-0.139
-303.822	-129.486	-0.480	0.065
-302.807	-10.946	-0.264	-0.171
-301.793	501.607	0.065	0.147
-300.778	213.644	-0.178	-0.276
-299.764	1.879	-0.304	-0.215
-298.749	-125.776	0.190	0.028
-297.735	81.329	-0.025	-0.026
-296.720	-60.712	0.138	0.057
-295.705	-200.000	-0.029	0.424
-294.691	6.566	-0.278	0.202
-293.676	151.937	-0.181	-0.242
-292.662	-200.000	0.031	0.144
-291.647	82.117	0.294	-0.312
-290.632	100.393	0.063	0.072
-289.618	141.002	-0.058	-0.075
-288.603	5.263	0.178	0.128
-287.589	582.530	-0.066	-0.159
-286.574	120.130	0.057	-0.069
-285.559	38.183	0.222	0.194
-284.545	52.670	0.309	0.289
-283.530	393.506	-0.056	-0.114
-282.516	-200.000	0.041	-0.257
-281.501	-47.342	0.131	0.062
-280.486	800.000	0.077	0.295
-279.472	-200.000	-0.028	0.147
-278.457	261.744	-0.183	-0.310
-277.443	-200.000	-0.017	0.353
-276.428	800.000	-0.085	-0.244
-275.413	18.612	0.084	-0.066
-274.399	-136.496	0.113	0.013
-273.384	-136.096	0.235	-0.027
-272.370	210.869	-0.109	-0.168
-271.355	405.620	-0.093	-0.192
-270.340	268.343	0.161	0.275
-269.326	-94.470	-0.169	-0.045
-268.311	87.825	0.142	-0.154
-267.297	176.782	-0.113	-0.161
-266.282	160.054	0.228	0.311
-265.267	800.000	-0.056	0.225
-264.253	90.329	-0.173	-0.190
-263.238	-200.000	-0.027	-0.223
-262.224	-200.000	-0.357	-0.001
-261.209	-108.489	-0.138	-0.029
-260.195	192.267	-0.131	-0.194
-259.180	-45.677	0.014	-0.007
-258.165	-146.612	-0.109	-0.009
-257.151	800.000	0.071	-0.291
-256.136	72.241	0.104	0.106
-255.122	800.000	0.010	-0.043
-254.107	-121.161	0.513	0.084
-253.092	800.000	0.045	0.146
-252.078	118.898	0.071	0.086
-251.063	188.982	-0.177	-0.259
-250.049	-43.144	0.174	-0.086
-249.034	-80.851	0.145	-0.047
-248.019	288.710	0.029	-0.052
-247.005	368.155	0.171	-0.337
-245.990	-18.610	0.278	-0.169
-244.976	35.731	0.066	-0.057
-243.961	-200.000	-0.038	-0.353
-242.946	44.879	0.442	0.398
-241.932	163.415	0.180	-0.248
-240.917	64.368	0.194	0.191
-239.903	-200.000	-0.033	-0.154
-238.888	30.381	-0.097	0.081
-237.873	-14.553	-0.381	0.239
-236.859	-64.994	0.259	0.102
-235.844	288.059	-0.054	0.095
-234.830	189.523	0.057	0.083
-233.815	-200.000	-0.024	0.142
-232.800	110.934	-0.177	0.208
-231.786	-94.089	-0.216	0.058
-230.771	-17.664	0.192	-0.118
-229.757	730.904	-0.047	-0.122
-228.742	36.209	-0.157	-0.135
-227.727	216.525	0.013	-0.021
-226.713	-162.567	0.313	0.015
-225.698	115.941	0.154	0.184
-224.684	-5.772	0.223	-0.150
-223.669	-200.000	-0.057	-0.376
-222.655	-50.371	0.075	-0.035
-221.640	22.015	-0.303	-0.241
-220.625	-59.294	0.305	-0.128
-219.611	-54.105	0.070	-0.031
-218.596	133.194	0.161	0.203
-217.582	527.284	-0.038	0.088
-216.567	12.528	-0.030	0.023
-215.552	-36.888	0.260	0.136
-214.538	-200.000	0.043	-0.223
-213.523	800.000	0.081	0.247
-212.509	683.005	0.036	-0.091
-211.494	34.652	-0.094	-0.081
-210.479	465.962	0.102	0.223
-209.465	-133.768	0.086	0.010
-208.450	17.855	-0.158	0.123
-207.436	-154.333	-0.048	-0.003
-206.421	53.161	-0.045	0.042
-205.406	-156.878	-0.160	0.010
-204.392	-174.919	0.169	-0.005
-203.377	-86.132	0.170	-0.051
-202.363	611.901	-0.111	-0.271
-201.348	800.000	0.076	-0.225
-200.333	44.892	0.110	0.098
-199.319	800.000	0.139	0.463
-198.304	119.987	-0.117	-0.142
-197.290	40.658	-0.133	0.117
-196.275	448.112	0.127	0.272
-195.260	-200.000	-0.077	0.459
-194.246	11.172	-0.155	0.116
-193.231	-200.000	-0.027	0.176
-192.217	64.655	0.401	0.395
-191.202	800.000	-0.030	-0.107
-190.187	-118.454	-0.059	0.010
-189.173	-80.563	0.031	-0.010
-188.158	91.569	-0.133	-0.146
-187.144	800.000	0.062	-0.210
-186.129	-68.924	-0.229	0.086
-185.114	-200.000	0.025	0.113
-184.100	-67.892	-0.021	0.008
-183.085	-20.782	0.298	0.178
-182.071	771.686	0.042	-0.113
-181.056	205.187	-0.101	-0.152
-180.042	521.644	-0.039	-0.089
-179.027	205.518	0.182	0.276
-178.012	80.344	0.158	0.166
-176.998	-51.365	-0.286	0.131
-175.983	463.876	-0.156	0.340
-174.969	-2.280	-0.156	-0.106
-173.954	-70.268	-0.095	0.035
-172.939	-64.198	0.020	-0.008
-171.925	-39.552	-0.293	0.150
-170.910	-200.000	-0.024	-0.177
-169.896	106.265	0.122	-0.141
-168.881	119.470	-0.189	0.228
-167.866	84.106	0.114	0.122
-166.852	-200.000	-0.061	-0.337
-165.837	-96.515	0.326	-0.084
-164.823	-200.000	-0.013	-0.116
-163.808	132.462	0.054	0.068
-162.793	34.677	0.087	-0.074
-161.779	800.000	-0.047	-0.154
-160.764	-94.764	-0.125	0.033
-159.750	-152.649	-0.217	0.015
-158.735	-200.000	0.002	0.360
-157.720	800.000	-0.035	0.127
-156.706	-173.376	0.168	-0.005
-155.691	-200.000	0.052	0.234
-154.677	-200.000	0.016	0.127
-153.662	254.957	-0.030	-0.050
-152.647	-200.000	0.022	-0.168
-151.633	-200.000	-0.049	0.217
-150.618	-181.961	0.228	-0.004
-149.604	-6.511	-0.150	0.099
-148.589	-200.000	-0.016	0.455
-147.574	-5.656	-0.203	0.136
-146.560	-130.835	0.458	0.060
-145.545	-7.945	-0.118	-0.078
-144.531	-64.198	-0.194	0.077
-143.516	-51.113	-0.140	0.064
-142.502	-200.000	-0.026	0.255
-141.487	-200.000	-0.033	-0.150
-140.472	-160.156	0.276	-0.015
-139.458	461.836	-0.111	-0.240
-138.443	-12.253	0.324	0.206
-137.429	800.000	0.120	0.375
-136.414	-200.000	0.042	0.292
-135.399	148.646	0.099	0.130
-134.385	186.516	-0.072	0.104
-133.370	161.536	-0.013	-0.017
-132.356	-200.000	-0.022	-0.249
-131.341	73.911	-0.091	-0.093
-130.326	410.854	-0.016	-0.033
-129.312	-134.783	-0.129	0.015
-128.297	-47.656	-0.270	-0.128
-127.283	800.000	0.035	0.099
-126.268	800.000	0.071	-0.234
-125.253	248.379	-0.202	-0.333
-124.239	800.000	-0.051	-0.142
-123.224	800.000	-0.065	0.206
-122.210	54.167	0.226	-0.211
