DTS Sentinel unit serial number:	SN413079Multiplexer serial number:	ORYXHardware model number:	OX4-SRSoftware version number:	ORYX F/W v4.00 Oryx Data Collector v3.7.2.0data status	okinstallation	princeton_trtdifferential loss correction	single-endedforward channel	channel 2reverse channel	N/Adate	2019/09/17time	02:11:35forward acquisition time	60.00reverse acquisition time	0.00gamma	496.2192k internal	0.2328k external	0.2328temperature offset calibration	0.9977default loss term (dB/km)	0.3790temperature slope calibration	1.0000multiplexer offset coefficient	1.0000multiplexer slope coefficient	1.0000fibre end	0.00T internal ref (°C)	29.69T ext. ref 1 (°C)	0.12T ext. ref 2 (°C)	24.63length (m)	temperature (°C)	Stokes	anti-Stokes-747.200	53.723	-0.042	-0.040
-746.185	-200.000	-0.058	0.328
-745.171	-200.000	0.039	0.201
-744.156	278.114	0.160	0.287
-743.142	-136.105	0.226	-0.027
-742.127	303.614	-0.055	0.103
-741.112	702.700	0.118	-0.315
-740.098	-200.000	0.030	0.132
-739.083	-200.000	0.000	0.137
-738.069	-200.000	0.010	0.216
-737.054	170.234	0.245	0.353
-736.039	56.521	-0.139	-0.137
-735.025	-98.768	0.354	-0.091
-734.010	40.234	-0.248	-0.225
-732.996	-33.618	-0.193	-0.107
-731.981	-200.000	0.002	0.229
-730.966	-200.000	0.071	0.347
-729.952	-200.000	-0.027	-0.275
-728.937	93.649	0.251	-0.286
-727.923	25.082	-0.157	0.131
-726.908	-116.574	-0.308	-0.057
-725.894	75.976	-0.185	0.197
-724.879	800.000	0.061	-0.179
-723.864	97.009	-0.206	0.238
-722.850	-33.698	0.165	0.092
-721.835	11.702	0.214	-0.166
-720.821	-39.569	0.382	-0.202
-719.806	87.329	0.037	-0.042
-718.791	742.289	-0.048	-0.131
-717.777	-61.524	-0.197	0.083
-716.762	800.000	0.067	-0.209
-715.748	129.966	-0.110	-0.142
-714.733	-43.693	0.176	-0.089
-713.718	-90.534	-0.121	-0.035
-712.704	-200.000	0.042	-0.222
-711.689	331.579	0.028	-0.055
-710.675	405.981	0.029	0.062
-709.660	173.554	0.136	-0.197
-708.645	-70.825	0.325	-0.123
-707.631	-70.269	-0.329	-0.126
-706.616	-135.098	0.180	-0.022
-705.602	427.427	-0.117	-0.253
-704.587	-200.000	-0.040	-0.372
-703.572	-200.000	-0.013	-0.131
-702.558	800.000	-0.045	-0.178
-701.543	38.722	0.060	-0.054
-700.529	-200.000	0.010	-0.295
-699.514	-188.762	-0.320	0.004
-698.499	75.365	0.167	-0.178
-697.485	441.498	0.079	-0.173
-696.470	214.495	0.103	-0.165
-695.456	252.296	-0.169	-0.290
-694.441	-144.177	-0.224	0.021
-693.426	-91.249	0.076	-0.022
-692.412	-200.000	-0.078	-0.498
-691.397	-157.784	0.111	0.007
-690.383	-28.801	-0.227	0.131
-689.368	-145.567	-0.264	-0.024
-688.354	-3.390	0.059	0.041
-687.339	-86.707	0.137	0.042
-686.324	167.251	-0.108	-0.155
-685.310	-200.000	0.036	-0.291
-684.295	800.000	0.025	-0.103
-683.281	-200.000	-0.002	0.157
-682.266	-50.841	-0.174	-0.082
-681.251	-24.928	0.393	-0.234
-680.237	-29.758	0.292	0.168
-679.222	-200.000	0.205	-0.001
-678.208	-200.000	-0.004	0.133
-677.193	-106.058	-0.252	-0.057
-676.178	-200.000	0.022	-0.215
-675.164	-200.000	0.036	0.317
-674.149	193.338	-0.217	0.330
-673.135	-200.000	-0.007	-0.084
-672.120	-109.042	-0.132	0.028
-671.105	15.216	0.127	-0.100
-670.091	-34.231	-0.696	-0.384
-669.076	426.383	0.066	0.143
-668.062	420.114	-0.101	-0.217
-667.047	2.023	-0.133	-0.096
-666.032	221.720	-0.033	-0.054
-665.018	647.088	-0.030	-0.078
-664.003	205.910	-0.051	-0.079
-662.989	617.768	0.058	0.147
-661.974	74.143	0.107	-0.113
-660.959	575.484	0.151	-0.371
-659.945	-70.458	-0.307	-0.117
-658.930	241.261	0.014	0.023
-657.916	-89.350	-0.311	-0.092
-656.901	-99.216	-0.206	-0.052
-655.886	-200.000	0.044	-0.223
-654.872	-200.000	-0.022	0.162
-653.857	-170.878	-0.180	0.006
-652.843	-65.489	0.092	-0.037
-651.828	130.275	-0.264	-0.340
-650.814	2.876	0.210	0.153
-649.799	-29.089	0.139	-0.080
-648.784	-200.000	0.064	-0.492
-647.770	80.978	-0.313	0.340
-646.755	445.466	-0.132	-0.291
-645.741	130.273	0.065	-0.084
-644.726	800.000	-0.111	-0.311
-643.711	-65.386	-0.115	-0.047
-642.697	-123.077	-0.075	0.012
-641.682	186.714	0.086	0.129
-640.668	362.104	0.022	0.045
-639.653	127.823	0.022	0.028
-638.638	-150.361	-0.320	0.025
-637.624	-186.867	-0.087	-0.001
-636.609	-21.280	0.137	0.084
-635.595	14.038	-0.107	0.084
-634.580	-0.346	0.051	0.037
-633.565	-200.000	-0.041	-0.296
-632.551	141.401	-0.066	-0.088
-631.536	51.254	-0.109	-0.104
-630.522	248.624	0.115	0.195
-629.507	-141.224	0.429	0.044
-628.492	-120.292	0.221	-0.038
-627.478	-200.000	0.001	0.157
-626.463	145.877	-0.163	0.220
-625.449	116.336	-0.152	-0.187
-624.434	-34.718	0.129	-0.071
-623.419	800.000	-0.071	0.308
-622.405	13.196	0.075	0.058
-621.390	9.391	0.155	-0.117
-620.376	-178.354	0.251	0.006
-619.361	196.062	0.162	0.247
-618.346	66.286	0.174	0.177
-617.332	259.237	0.148	0.257
-616.317	-200.000	-0.001	0.090
-615.303	-200.000	-0.004	-0.232
-614.288	80.538	-0.076	0.083
-613.273	36.509	0.057	0.050
-612.259	393.257	0.079	0.165
-611.244	618.536	0.148	-0.373
-610.230	326.174	-0.197	-0.379
-609.215	127.638	0.106	0.135
-608.201	-131.351	-0.072	-0.010
-607.186	-75.886	-0.356	-0.127
-606.171	270.141	0.123	0.216
-605.157	518.399	-0.052	0.122
-604.142	800.000	-0.049	-0.164
-603.128	800.000	-0.092	-0.298
-602.113	-177.321	-0.129	0.003
-601.098	-17.417	0.145	0.091
-600.084	-100.360	-0.047	0.012
-599.069	-122.912	-0.321	-0.052
-598.055	7.995	-0.191	0.143
-597.040	-63.640	0.068	-0.028
-596.025	736.642	0.038	0.101
-595.011	381.049	0.098	0.202
-593.996	800.000	-0.012	-0.042
-592.982	-125.958	-0.081	0.012
-591.967	614.143	0.019	0.048
-590.952	-200.000	-0.010	0.083
-589.938	-99.169	0.274	-0.069
-588.923	-89.286	0.337	0.100
-587.909	-3.291	0.194	-0.135
-586.894	308.156	-0.111	0.207
-585.879	-138.557	-0.278	-0.031
-584.865	-117.925	-0.181	0.032
-583.850	648.820	-0.115	0.294
-582.836	-77.018	-0.208	0.073
-581.821	-200.000	-0.001	-0.110
-580.806	125.466	0.196	0.248
-579.792	379.006	0.065	0.134
-578.777	274.740	0.077	-0.136
-577.763	440.039	-0.207	-0.452
-576.748	124.816	-0.221	0.279
-575.733	392.724	-0.058	0.121
-574.719	594.210	-0.041	0.102
-573.704	151.934	-0.107	0.146
-572.690	-61.549	0.156	-0.066
-571.675	70.181	0.222	-0.230
-570.661	-29.526	-0.256	0.147
-569.646	266.787	-0.113	-0.197
-568.631	101.573	-0.295	0.344
-567.617	-26.718	0.078	0.046
-566.602	738.292	-0.034	-0.092
-565.588	181.103	-0.196	-0.289
-564.573	-36.955	-0.147	0.079
-563.558	313.572	0.092	-0.173
-562.544	5.407	-0.080	-0.059
-561.529	6.338	-0.361	-0.268
-560.515	-115.491	0.285	0.054
-559.500	168.546	-0.145	0.207
-558.485	788.335	0.060	-0.164
-557.471	542.547	0.193	-0.461
-556.456	-200.000	0.008	-0.273
-555.442	-24.238	0.095	-0.057
-554.427	68.661	0.309	0.317
-553.412	-130.738	-0.182	-0.025
-552.398	-16.692	-0.312	-0.198
-551.383	101.131	-0.070	-0.081
-550.369	118.536	-0.237	0.292
-549.354	-73.369	0.044	-0.016
-548.339	173.021	-0.158	0.227
-547.325	800.000	0.046	0.184
-546.310	68.881	0.060	0.062
-545.296	-47.760	-0.221	-0.107
-544.281	-144.534	0.122	0.011
-543.266	501.364	0.089	-0.205
-542.252	800.000	-0.120	0.382
-541.237	800.000	-0.058	0.197
-540.223	66.579	0.168	0.171
-539.208	273.278	-0.080	-0.140
-538.193	-41.418	0.270	-0.139
-537.179	149.381	-0.073	0.098
-536.164	-8.520	0.089	-0.060
-535.150	-38.342	0.074	-0.039
-534.135	800.000	-0.046	-0.158
-533.121	-125.751	-0.170	-0.026
-532.106	-182.017	0.448	-0.008
-531.091	-110.257	0.044	-0.009
-530.077	-113.386	-0.589	0.115
-529.062	-200.000	-0.052	0.295
-528.048	800.000	0.103	-0.317
-527.033	46.185	0.092	0.085
-526.018	-200.000	0.029	-0.287
-525.004	-171.317	-0.290	-0.010
-523.989	-154.177	-0.234	0.016
-522.975	-200.000	-0.018	0.141
-521.960	-71.564	-0.239	0.089
-520.945	-200.000	0.018	-0.167
-519.931	-42.208	0.207	-0.106
-518.916	108.361	-0.142	-0.169
-517.902	101.900	-0.065	-0.076
-516.887	10.652	-0.191	0.145
-515.872	-200.000	0.016	0.107
-514.858	-30.811	-0.319	-0.180
-513.843	175.318	0.120	-0.173
-512.829	213.981	-0.205	-0.324
-511.814	120.457	0.047	-0.058
-510.799	378.627	-0.048	0.098
-509.785	-99.789	-0.147	0.037
-508.770	800.000	-0.107	-0.386
-507.756	603.615	-0.075	-0.187
-506.741	-72.202	-0.209	0.077
-505.726	-200.000	-0.295	0.001
-504.712	-34.718	-0.114	-0.062
-503.697	-200.000	-0.022	0.232
-502.683	675.721	-0.039	-0.102
-501.668	-59.085	-0.286	0.123
-500.653	800.000	0.097	0.280
-499.639	-200.000	-0.005	-0.026
-498.624	-86.455	-0.163	-0.050
-497.610	285.034	-0.116	-0.209
-496.595	500.162	0.043	-0.099
-495.581	-28.222	-0.118	-0.068
-494.566	800.000	-0.068	-0.289
-493.551	426.362	0.090	0.195
-492.537	-200.000	-0.015	0.382
-491.522	217.363	0.122	0.194
-490.508	-48.595	0.211	0.101
-489.493	114.378	-0.074	-0.090
-488.478	-200.000	0.054	-0.325
-487.464	106.561	-0.069	-0.081
-486.449	198.655	0.101	0.154
-485.435	-200.000	0.009	-0.101
-484.420	5.535	0.272	0.200
-483.405	-200.000	-0.003	0.041
-482.391	190.789	0.187	0.280
-481.376	12.638	0.110	-0.085
-480.362	-115.537	-0.147	-0.027
-479.347	-129.317	0.039	-0.005
-478.332	-200.000	-0.251	-0.001
-477.318	14.133	-0.073	-0.057
-476.303	-67.527	-0.391	0.153
-475.289	-65.285	0.143	-0.057
-474.274	2.190	-0.055	-0.039
-473.259	362.513	-0.061	-0.121
-472.245	-44.284	-0.165	-0.083
-471.230	-73.815	0.281	-0.102
-470.216	17.790	0.165	0.131
-469.201	125.390	0.115	0.145
-468.186	9.763	0.164	-0.124
-467.172	800.000	0.047	0.194
-466.157	202.279	-0.039	-0.060
-465.143	-200.000	0.012	-0.071
-464.128	-133.563	0.068	-0.009
-463.113	69.118	-0.027	0.028
-462.099	-200.000	0.093	-0.000
-461.084	-56.169	-0.150	-0.066
-460.070	-10.229	-0.219	0.145
-459.055	-115.611	-0.160	0.030
-458.040	-200.000	0.013	0.119
-457.026	-200.000	-0.012	0.138
-456.011	-8.523	-0.126	0.084
-454.997	78.566	0.172	-0.183
-453.982	9.521	0.051	-0.038
-452.968	-80.215	0.215	-0.072
-451.953	107.430	-0.072	0.085
-450.938	-200.000	-0.000	-0.205
-449.924	471.609	-0.160	-0.360
-448.909	228.152	0.101	-0.163
-447.895	-200.000	0.032	-0.283
-446.880	37.977	0.201	0.178
-445.865	-200.000	0.005	-0.247
-444.851	-200.000	0.010	-0.729
-443.836	-155.751	0.348	0.022
-442.822	-11.817	-0.151	0.099
-441.807	-95.959	0.176	0.047
-440.792	800.000	-0.018	0.078
-439.778	-10.490	0.426	-0.281
-438.763	51.298	-0.253	-0.239
-437.749	-140.391	-0.323	0.034
-436.734	616.879	-0.127	0.318
-435.719	365.204	0.112	0.224
-434.705	-31.324	-0.192	-0.108
-433.690	-138.240	0.141	0.016
-432.676	-179.604	0.227	-0.005
-431.661	-200.000	0.036	0.287
-430.646	-147.743	-0.225	0.019
-429.632	-144.574	0.241	0.022
-428.617	-89.648	0.076	0.022
-427.603	-92.066	-0.058	0.016
-426.588	-2.811	-0.302	-0.210
-425.573	-60.579	0.117	-0.049
-424.559	-148.288	-0.367	0.030
-423.544	-52.700	-0.174	-0.080
-422.530	800.000	-0.142	-0.539
-421.515	2.517	-0.111	0.080
-420.500	540.980	-0.024	0.056
-419.486	-181.624	0.089	0.002
-418.471	800.000	0.136	-0.394
-417.457	-77.370	-0.239	-0.083
-416.442	-200.000	-0.011	0.243
-415.428	-121.892	-0.524	0.086
-414.413	-200.000	-0.057	-0.250
-413.398	-9.623	0.496	0.329
-412.384	79.289	-0.172	-0.183
-411.369	-200.000	-0.029	-0.361
-410.355	-200.000	0.027	-0.229
-409.340	-77.412	-0.521	0.180
-408.325	-69.476	-0.156	0.059
-407.311	278.552	0.152	-0.270
-406.296	-200.000	0.008	0.145
-405.282	313.306	0.107	0.200
-404.267	-56.132	0.130	0.058
-403.252	-200.000	-0.088	-0.428
-402.238	-11.410	0.227	0.149
-401.223	-149.183	-0.232	-0.018
-400.209	-131.634	0.320	0.042
-399.194	428.532	-0.111	0.239
-398.179	-83.529	0.275	0.087
-397.165	28.850	0.200	0.168
-396.150	-92.641	0.605	-0.169
-395.136	54.526	-0.272	-0.261
-394.121	-200.000	0.038	-0.240
-393.106	-64.459	0.136	0.055
-392.092	-200.000	-0.039	-0.377
-391.077	-200.000	-0.014	0.172
-390.063	8.681	0.018	-0.014
-389.048	15.596	0.133	0.104
-388.033	539.434	-0.050	0.119
-387.019	-200.000	0.002	-0.042
-386.004	402.373	0.069	0.144
-384.990	-200.000	-0.001	0.017
-383.975	-164.297	0.090	0.004
-382.960	8.960	-0.042	-0.031
-381.946	-54.234	-0.366	0.165
-380.931	64.582	-0.195	0.196
-379.917	-200.000	-0.008	-0.111
-378.902	-200.000	0.075	-0.346
-377.888	-200.000	-0.065	-0.319
-376.873	8.392	0.162	0.121
-375.858	23.542	0.067	0.054
-374.844	-93.642	0.215	-0.059
-373.829	93.656	-0.038	-0.043
-372.815	-67.240	0.294	-0.115
-371.800	-125.554	-0.127	-0.019
-370.785	-93.796	0.094	-0.026
-369.771	-84.121	-0.395	0.125
-368.756	-110.591	0.294	0.060
-367.742	-34.802	0.259	-0.140
-366.727	755.741	0.018	-0.048
-365.712	34.775	0.161	0.140
-364.698	-16.730	0.082	-0.051
-363.683	-101.533	-0.176	-0.042
-362.669	-200.000	-0.011	-0.086
-361.654	-200.000	0.022	0.164
-360.639	157.474	-0.101	0.139
-359.625	-200.000	0.077	0.555
-358.610	-41.959	0.082	0.042
-357.596	-128.141	0.728	0.103
-356.581	-89.646	-0.285	0.083
-355.566	376.579	-0.097	0.197
-354.552	-200.000	0.000	-0.001
-353.537	224.224	-0.252	0.404
-352.523	316.255	-0.033	0.061
-351.508	-50.797	-0.123	-0.057
-350.493	89.408	-0.167	-0.185
-349.479	404.448	-0.081	-0.170
-348.464	-134.570	0.285	-0.034
-347.450	85.225	-0.225	-0.245
-346.435	-200.000	0.003	0.159
-345.420	-59.296	0.038	0.016
-344.406	39.653	0.081	-0.072
-343.391	55.126	0.136	-0.130
-342.377	-143.280	-0.150	0.014
-341.362	-200.000	0.062	0.322
-340.348	686.034	-0.048	0.124
-339.333	280.277	-0.112	-0.199
-338.318	47.600	-0.192	0.177
-337.304	-174.039	-0.264	0.008
-336.289	17.066	-0.140	0.110
-335.275	-200.000	0.035	-0.206
-334.260	-108.254	-0.206	0.044
-333.245	-200.000	0.009	-0.307
-332.231	472.380	-0.064	-0.143
-331.216	167.094	-0.044	0.062
-330.202	-200.000	0.014	-0.150
-329.187	69.582	0.121	-0.123
-328.172	598.394	-0.101	0.247
-327.158	43.118	0.027	-0.025
-326.143	257.331	-0.054	-0.093
-325.129	-139.721	0.252	0.027
-324.114	85.309	0.171	0.186
-323.099	-117.675	0.275	-0.049
-322.085	78.529	-0.118	-0.125
-321.070	291.377	-0.119	-0.214
-320.056	-104.560	0.167	-0.038
-319.041	-2.032	-0.085	-0.059
-318.026	215.098	0.120	-0.189
-317.012	130.851	0.375	0.476
-315.997	-49.064	-0.165	0.078
-314.983	-127.917	0.195	0.028
-313.968	-116.297	0.193	0.035
-312.953	800.000	-0.138	0.391
-311.939	12.644	0.149	0.114
-310.924	486.388	-0.116	-0.262
-309.910	47.506	0.057	0.052
-308.895	-54.941	0.313	0.140
-307.880	-200.000	-0.040	0.176
-306.866	56.990	0.225	0.217
-305.851	-28.845	-0.520	0.296
-304.837	204.688	0.043	0.066
-303.822	-200.000	-0.016	0.217
-302.807	-51.178	-0.187	0.087
-301.793	210.662	-0.221	0.343
-300.778	-100.432	0.295	-0.072
-299.764	477.907	0.156	0.350
-298.749	-111.598	0.341	-0.069
-297.735	-126.201	-0.083	0.012
-296.720	-200.000	-0.005	-0.115
-295.705	800.000	-0.077	-0.328
-294.691	528.058	0.044	-0.102
-293.676	-32.473	-0.172	-0.095
-292.662	135.989	0.006	-0.008
-291.647	285.983	0.176	-0.314
-290.632	315.507	0.015	-0.028
-289.618	800.000	0.013	-0.047
-288.603	165.261	-0.036	0.050
-287.589	-200.000	0.051	-0.242
-286.574	-200.000	-0.022	0.235
-285.559	-11.011	-0.146	-0.095
-284.545	-140.306	0.241	-0.025
-283.530	-200.000	0.006	0.225
-282.516	-119.064	-0.270	0.047
-281.501	42.430	-0.249	0.224
-280.486	-64.521	0.128	0.051
-279.472	-200.000	-0.039	0.579
-278.457	25.652	-0.245	0.202
-277.443	-52.679	-0.133	-0.061
-276.428	-22.387	0.435	0.261
-275.413	135.651	-0.099	-0.127
-274.399	-93.835	-0.160	-0.043
-273.384	223.124	-0.201	0.320
-272.370	112.075	0.012	-0.014
-271.355	508.552	-0.135	0.310
-270.340	44.782	0.062	-0.057
-269.326	-200.000	0.033	-0.398
-268.311	-37.905	0.106	0.056
-267.297	-46.739	0.127	-0.062
-266.282	193.942	-0.041	0.062
-265.267	-122.815	-0.113	0.018
-264.253	41.323	0.062	0.055
-263.238	-200.000	-0.031	-0.325
-262.224	800.000	-0.032	-0.139
-261.209	-55.373	0.165	0.073
-260.195	-200.000	-0.039	0.179
-259.180	-85.655	0.393	0.121
-258.165	800.000	0.010	0.030
-257.151	-153.974	-0.208	-0.014
-256.136	25.046	0.036	-0.030
-255.122	-200.000	-0.026	0.127
-254.107	104.010	-0.179	-0.208
-253.092	-102.341	-0.057	0.014
-252.078	-158.007	-0.091	0.005
-251.063	-60.518	-0.160	0.067
-250.049	800.000	-0.089	-0.281
-249.034	15.922	0.150	-0.117
-248.019	-5.960	-0.062	0.042
-247.005	-128.254	-0.178	-0.025
-245.990	546.057	0.074	0.176
-244.976	800.000	-0.058	-0.218
-243.961	-154.284	0.262	0.017
-242.946	-25.300	0.421	0.246
-241.932	-128.920	-0.065	0.009
-240.917	53.257	0.177	-0.167
-239.903	163.253	-0.066	-0.091
-238.888	800.000	-0.041	0.162
-237.873	-200.000	-0.052	-0.285
-236.859	496.514	-0.117	-0.265
-235.844	-4.617	0.153	0.104
-234.830	-74.998	0.177	-0.063
-233.815	637.736	-0.043	-0.109
-232.800	-109.814	-0.154	-0.032
-231.786	437.203	0.065	-0.139
-230.771	189.690	0.166	-0.246
-229.757	-82.038	-0.321	0.104
-228.742	-35.487	0.194	0.104
-227.727	-21.102	0.204	-0.124
-226.713	-123.513	0.111	0.017
-225.698	304.827	0.118	-0.217
-224.684	-200.000	0.051	-0.245
-223.669	567.594	0.034	0.082
-222.655	330.164	-0.187	0.356
-221.640	0.836	-0.027	-0.019
-220.625	-200.000	0.005	-0.222
-219.611	-28.385	0.167	0.095
-218.596	800.000	-0.023	-0.071
-217.582	-200.000	-0.006	0.194
-216.567	69.554	0.299	0.304
-215.552	800.000	-0.114	-0.350
-214.538	67.882	-0.174	-0.175
-213.523	261.934	-0.063	-0.107
-212.509	-200.000	0.009	0.252
-211.494	143.316	-0.044	-0.058
-210.479	39.638	0.346	0.306
-209.465	-200.000	-0.019	0.097
-208.450	-200.000	0.011	-0.118
-207.436	800.000	-0.041	0.163
-206.421	-191.161	-0.082	0.001
-205.406	-71.094	0.357	-0.132
-204.392	522.351	0.101	-0.235
-203.377	115.987	-0.036	-0.043
-202.363	-85.563	-0.112	-0.034
-201.348	-96.566	-0.139	-0.036
-200.333	153.378	0.074	0.099
-199.319	-200.000	0.029	0.371
-198.304	-11.675	0.218	-0.141
-197.290	298.399	-0.115	0.208
-196.275	5.772	0.088	-0.065
-195.260	-200.000	0.013	0.207
-194.246	-143.213	0.294	-0.028
-193.231	800.000	0.100	0.296
-192.217	-72.824	0.157	-0.057
-191.202	42.390	-0.471	-0.423
-190.187	-170.560	0.348	-0.012
-189.173	122.168	-0.108	-0.132
-188.158	-141.496	0.085	-0.009
-187.144	-200.000	-0.058	-0.314
-186.129	-36.069	-0.314	0.167
-185.114	800.000	0.076	0.311
-184.100	40.856	0.232	-0.206
-183.085	427.856	-0.243	-0.517
-182.071	191.004	0.271	-0.402
-181.056	-200.000	0.046	-0.336
-180.042	-109.281	0.304	0.064
-179.027	800.000	-0.088	0.262
-178.012	-200.000	0.047	0.289
-176.998	-200.000	-0.026	0.174
-175.983	-74.606	0.149	-0.053
-174.969	-161.107	0.247	0.013
-173.954	-142.676	-0.266	0.026
-172.939	-119.850	0.375	-0.064
-171.925	-96.270	0.218	-0.057
-170.910	18.771	0.288	0.227
-169.896	308.948	0.110	0.203
-168.881	-200.000	0.019	0.229
-167.866	76.558	0.096	0.100
-166.852	53.297	0.167	0.158
-165.837	800.000	0.061	0.231
-164.823	21.820	0.053	0.043
-163.808	-200.000	-0.012	0.209
-162.793	1.966	-0.437	-0.310
-161.779	-85.715	0.303	0.093
-160.764	-200.000	-0.035	-0.173
-159.750	64.917	0.306	0.305
-158.735	-77.439	-0.168	0.057
-157.720	-183.232	-0.003	0.000
-156.706	142.632	-0.185	0.243
-155.691	-176.114	-0.214	-0.006
-154.677	-28.546	-0.148	0.084
-153.662	-23.155	-0.061	0.036
-152.647	14.831	-0.036	0.028
-151.633	-188.564	0.332	-0.004
-150.618	124.026	0.222	-0.275
-149.604	-200.000	-0.016	0.391
-148.589	-96.584	0.052	0.013
-147.574	-78.506	-0.073	0.025
-146.560	-48.608	0.209	0.099
-145.545	420.962	0.028	0.060
-144.531	155.092	0.233	-0.316
-143.516	-200.000	-0.001	-0.213
-142.502	435.106	-0.083	0.177
-141.487	-200.000	-0.051	0.276
-140.472	256.716	0.215	0.364
-139.458	-55.436	0.291	-0.129
-138.443	-133.391	0.052	-0.006
-137.429	45.939	-0.139	0.126
-136.414	-20.238	0.051	-0.031
-135.399	-176.278	0.400	-0.010
-134.385	-200.000	-0.036	-0.334
-133.370	515.090	0.062	-0.143
-132.356	-109.311	-0.107	0.022
-131.341	-200.000	0.013	0.360
-130.326	800.000	0.044	0.166
-129.312	-29.759	-0.215	-0.121
-128.297	50.665	0.221	-0.206
-127.283	-63.698	-0.236	0.095
-126.268	-200.000	-0.018	-0.175
-125.253	165.150	0.192	0.267
-124.239	-200.000	0.003	0.145
-123.224	-200.000	-0.034	0.241
-122.210	3.648	0.167	-0.120
