DTS Sentinel unit serial number:	SN413079Multiplexer serial number:	ORYXHardware model number:	OX4-SRSoftware version number:	ORYX F/W v4.00 Oryx Data Collector v3.7.2.0data status	okinstallation	princeton_trtdifferential loss correction	single-endedforward channel	channel 2reverse channel	N/Adate	2019/09/19time	01:11:35forward acquisition time	60.00reverse acquisition time	0.00gamma	496.2192k internal	0.2353k external	0.2353temperature offset calibration	1.0012default loss term (dB/km)	0.3790temperature slope calibration	1.0000multiplexer offset coefficient	1.0000multiplexer slope coefficient	1.0000fibre end	0.00T internal ref (°C)	21.81T ext. ref 1 (°C)	0.70T ext. ref 2 (°C)	15.27length (m)	temperature (°C)	Stokes	anti-Stokes-747.200	279.159	0.163	-0.289
-746.185	2.135	-0.153	0.110
-745.171	202.802	-0.131	0.201
-744.156	800.000	0.056	0.184
-743.142	-200.000	0.016	0.281
-742.127	-200.000	-0.050	0.235
-741.112	101.138	-0.136	-0.157
-740.098	-200.000	0.026	0.357
-739.083	-110.032	0.229	0.048
-738.069	74.731	0.134	-0.140
-737.054	800.000	-0.036	0.111
-736.039	31.040	-0.125	0.107
-735.025	-200.000	0.073	0.626
-734.010	183.641	-0.174	-0.256
-732.996	70.630	-0.099	0.102
-731.981	443.861	-0.011	-0.023
-730.966	-153.851	-0.130	0.009
-729.952	-81.868	0.108	-0.035
-728.937	-99.249	-0.150	0.038
-727.923	48.440	0.082	0.077
-726.908	-200.000	-0.015	0.155
-725.894	792.321	0.038	0.104
-724.879	187.663	-0.064	-0.095
-723.864	-17.587	-0.154	-0.097
-722.850	82.158	-0.053	-0.057
-721.835	-4.609	-0.314	-0.216
-720.821	-200.000	-0.032	0.148
-719.806	-13.823	0.135	-0.087
-718.791	-93.127	-0.170	-0.047
-717.777	80.178	0.060	0.064
-716.762	-154.248	0.182	0.012
-715.748	800.000	0.031	0.097
-714.733	25.600	-0.010	-0.008
-713.718	-125.196	-0.227	-0.035
-712.704	-70.779	0.210	-0.079
-711.689	-8.896	-0.175	-0.116
-710.675	-200.000	0.017	-0.227
-709.660	800.000	-0.029	-0.097
-708.645	-11.482	-0.095	-0.062
-707.631	-200.000	-0.066	0.303
-706.616	-83.690	-0.111	-0.035
-705.602	75.429	-0.121	0.127
-704.587	86.895	-0.091	0.100
-703.572	-169.412	0.183	-0.007
-702.558	123.383	-0.056	-0.070
-701.543	800.000	-0.113	-0.375
-700.529	-200.000	0.031	-0.205
-699.514	-51.939	0.108	0.050
-698.499	162.181	0.117	-0.163
-697.485	-200.000	0.058	-0.332
-696.470	800.000	0.031	-0.115
-695.456	392.128	0.092	-0.190
-694.441	-129.918	-0.281	-0.038
-693.426	-200.000	-0.019	-0.089
-692.412	-200.000	0.002	-0.437
-691.397	-123.344	0.190	0.030
-690.383	-50.630	-0.370	-0.173
-689.368	-200.000	0.007	-0.166
-688.354	-51.779	0.124	-0.057
-687.339	380.727	0.018	-0.037
-686.324	800.000	0.071	0.210
-685.310	183.932	-0.074	-0.109
-684.295	40.308	-0.153	-0.137
-683.281	-100.748	-0.272	-0.067
-682.266	23.037	0.187	-0.152
-681.251	-200.000	-0.042	0.187
-680.237	-144.876	-0.341	-0.031
-679.222	18.364	-0.046	0.037
-678.208	490.338	-0.157	0.357
-677.193	144.672	-0.181	0.241
-676.178	715.397	-0.086	-0.228
-675.164	800.000	0.030	0.119
-674.149	-130.225	-0.052	-0.007
-673.135	-200.000	0.004	-0.110
-672.120	349.513	-0.079	-0.155
-671.105	-54.401	-0.425	-0.191
-670.091	267.805	0.021	0.036
-669.076	800.000	0.078	-0.242
-668.062	-200.000	-0.031	-0.398
-667.047	-104.330	-0.401	-0.092
-666.032	33.897	-0.084	0.073
-665.018	-31.971	0.090	0.050
-664.003	-200.000	0.085	0.387
-662.989	800.000	0.070	-0.247
-661.974	-82.343	-0.311	0.101
-660.959	-34.034	-0.225	0.123
-659.945	9.381	0.354	0.266
-658.930	-184.088	-0.458	-0.008
-657.916	800.000	-0.101	0.290
-656.901	266.527	-0.074	-0.129
-655.886	-26.729	-0.102	-0.059
-654.872	94.339	0.167	0.188
-653.857	-81.593	-0.135	0.044
-652.843	-96.006	-0.268	0.071
-651.828	800.000	0.089	-0.245
-650.814	-89.712	-0.133	-0.039
-649.799	50.370	-0.095	0.089
-648.784	15.114	-0.183	0.142
-647.770	-200.000	0.031	0.297
-646.755	272.782	0.231	-0.405
-645.741	29.111	-0.104	0.088
-644.726	317.996	0.125	0.234
-643.711	-13.550	-0.099	0.064
-642.697	-119.767	0.308	-0.053
-641.682	-5.934	-0.231	0.157
-640.668	-38.892	0.099	0.052
-639.653	-200.000	-0.004	-0.203
-638.638	83.013	-0.045	-0.049
-637.624	77.853	0.053	0.056
-636.609	90.880	0.235	-0.262
-635.595	-111.198	0.336	0.068
-634.580	56.734	0.151	0.146
-633.565	-200.000	-0.016	0.317
-632.551	-200.000	-0.017	-0.364
-631.536	-200.000	-0.028	0.220
-630.522	-104.261	0.464	0.107
-629.507	37.729	0.048	0.042
-628.492	237.351	-0.227	0.374
-627.478	-175.787	-0.093	0.002
-626.463	141.957	0.086	-0.114
-625.449	588.990	-0.056	0.137
-624.434	-20.368	0.125	0.076
-623.419	-141.306	-0.535	0.054
-622.405	128.479	0.125	0.158
-621.390	-74.795	-0.104	-0.037
-620.376	-146.465	-0.089	0.008
-619.361	105.538	0.195	0.229
-618.346	94.249	0.140	-0.158
-617.332	466.296	0.105	-0.234
-616.317	-200.000	0.013	0.383
-615.303	171.474	0.223	-0.318
-614.288	56.658	0.320	-0.309
-613.273	-87.465	-0.100	-0.030
-612.259	129.605	-0.197	0.250
-611.244	181.853	0.306	0.446
-610.230	151.100	0.044	-0.059
-609.215	12.668	0.051	0.039
-608.201	56.552	0.047	0.045
-607.186	800.000	0.024	0.077
-606.171	800.000	0.084	0.301
-605.157	587.982	0.027	-0.066
-604.142	-3.189	0.242	-0.167
-603.128	-89.349	0.120	-0.035
-602.113	-170.599	-0.259	-0.009
-601.098	-200.000	0.069	-0.323
-600.084	277.968	0.234	0.414
-599.069	-45.845	0.258	0.126
-598.055	578.620	0.131	-0.319
-597.040	-200.000	-0.199	-0.001
-596.025	416.295	-0.087	-0.185
-595.011	-200.000	0.012	-0.064
-593.996	-32.857	0.216	0.119
-592.982	-200.000	0.005	-0.044
-591.967	800.000	-0.056	0.158
-590.952	-200.000	-0.007	0.039
-589.938	747.942	0.097	-0.259
-588.923	-133.986	0.280	0.034
-587.909	800.000	0.120	0.334
-586.894	581.870	-0.069	-0.167
-585.879	171.363	0.174	0.248
-584.865	-121.828	0.155	0.025
-583.850	407.249	-0.158	-0.331
-582.836	19.034	0.236	0.187
-581.821	800.000	0.147	-0.416
-580.806	29.796	-0.183	0.155
-579.792	-200.000	-0.001	0.160
-578.777	-31.933	-0.097	0.054
-577.763	-200.000	0.186	-0.000
-576.748	-200.000	-0.063	-0.297
-575.733	-14.673	-0.017	-0.011
-574.719	800.000	0.070	0.241
-573.704	497.392	-0.058	0.131
-572.690	253.423	-0.146	-0.246
-571.675	-128.605	-0.231	-0.032
-570.661	-183.328	-0.226	-0.004
-569.646	59.312	-0.268	-0.261
-568.631	-94.028	-0.245	0.067
-567.617	-22.680	-0.269	-0.161
-566.602	-122.329	-0.156	0.025
-565.588	800.000	-0.090	-0.277
-564.573	-200.000	-0.033	-0.469
-563.558	800.000	-0.084	0.254
-562.544	738.124	-0.072	-0.191
-561.529	191.378	0.091	-0.136
-560.515	-200.000	0.002	-0.256
-559.500	-37.621	0.079	-0.042
-558.485	-63.597	0.121	0.049
-557.471	-0.444	-0.057	-0.040
-556.456	44.530	-0.060	-0.054
-555.442	205.228	-0.156	0.240
-554.427	133.547	0.225	0.287
-553.412	629.556	-0.138	-0.345
-552.398	-200.000	0.097	-0.493
-551.383	190.167	0.057	-0.084
-550.369	-126.976	-0.374	-0.054
-549.354	-200.000	0.005	-0.092
-548.339	79.698	-0.058	-0.062
-547.325	179.354	-0.181	0.262
-546.310	12.960	-0.113	0.086
-545.296	283.159	-0.184	0.327
-544.281	633.142	0.030	-0.076
-543.266	-128.106	0.267	0.038
-542.252	498.924	-0.060	-0.136
-541.237	27.291	-0.177	-0.147
-540.223	-39.694	-0.057	0.030
-539.208	341.285	-0.222	-0.429
-538.193	-46.919	0.218	-0.105
-537.179	81.282	-0.141	0.151
-536.164	392.961	-0.127	0.261
-535.150	-200.000	0.021	-0.262
-534.135	9.406	0.153	-0.115
-533.121	-8.486	-0.067	0.045
-532.106	91.748	-0.163	0.181
-531.091	-153.895	-0.153	0.010
-530.077	376.555	-0.061	-0.122
-529.062	-172.077	-0.209	-0.007
-528.048	-200.000	0.039	-0.401
-527.033	180.515	-0.127	0.185
-526.018	215.799	-0.208	0.326
-525.004	446.439	-0.133	-0.289
-523.989	-128.361	-0.378	-0.053
-522.975	-3.105	-0.175	-0.121
-521.960	-67.806	-0.276	0.107
-520.945	-91.278	-0.155	-0.044
-519.931	-22.024	0.330	0.198
-518.916	249.520	0.084	-0.140
-517.902	212.934	0.249	-0.388
-516.887	197.006	-0.123	0.185
-515.872	16.376	-0.045	0.035
-514.858	-100.804	0.133	0.032
-513.843	352.534	0.095	-0.186
-512.829	80.966	0.121	-0.129
-511.814	-200.000	0.078	-0.377
-510.799	10.846	0.170	-0.128
-509.785	4.210	0.141	0.102
-508.770	-108.588	0.145	-0.031
-507.756	800.000	-0.074	0.231
-506.741	800.000	0.045	0.161
-505.726	352.531	0.048	-0.094
-504.712	299.894	-0.059	0.108
-503.697	141.411	0.104	0.136
-502.683	800.000	-0.104	-0.308
-501.668	65.177	0.183	0.182
-500.653	-148.108	-0.372	-0.030
-499.639	-45.292	-0.055	-0.027
-498.624	-200.000	0.023	0.287
-497.610	-114.115	0.065	0.012
-496.595	-118.189	-0.089	0.016
-495.581	21.117	0.113	0.090
-494.566	-200.000	-0.167	0.000
-493.551	218.337	0.073	-0.115
-492.537	239.194	-0.036	-0.060
-491.522	-200.000	-0.006	-0.091
-490.508	800.000	0.041	-0.131
-489.493	168.262	0.296	0.416
-488.478	697.902	0.075	0.195
-487.464	426.090	-0.142	-0.302
-486.449	-96.603	-0.229	0.060
-485.435	53.354	-0.086	0.081
-484.420	800.000	-0.124	0.352
-483.405	-76.110	-0.118	-0.041
-482.391	46.185	0.213	0.194
-481.376	800.000	-0.014	-0.047
-480.362	-200.000	0.002	0.162
-479.347	-19.149	0.281	0.172
-478.332	52.293	-0.193	-0.181
-477.318	800.000	-0.111	0.349
-476.303	-14.814	-0.235	-0.149
-475.289	-200.000	0.019	-0.253
-474.274	-200.000	0.032	-0.256
-473.259	-60.876	0.095	0.040
-472.245	203.737	0.157	0.240
-471.230	-39.132	0.222	0.115
-470.216	-43.021	0.240	0.120
-469.201	800.000	-0.111	-0.341
-468.186	800.000	-0.023	-0.097
-467.172	155.692	-0.162	0.220
-466.157	-200.000	-0.016	-0.223
-465.143	-157.607	0.232	-0.014
-464.128	250.016	0.050	-0.084
-463.113	-127.027	0.105	-0.015
-462.099	107.977	-0.161	0.189
-461.084	-200.000	0.023	0.116
-460.070	298.348	0.052	-0.095
-459.055	800.000	0.078	-0.213
-458.040	-51.661	-0.457	-0.210
-457.026	-112.896	0.149	0.029
-456.011	-19.315	-0.072	-0.044
-454.997	-16.439	-0.134	-0.084
-453.982	800.000	-0.031	0.088
-452.968	-120.228	-0.500	0.084
-451.953	800.000	0.046	-0.162
-450.938	-86.064	0.043	-0.013
-449.924	800.000	-0.016	0.058
-448.909	-110.728	-0.192	0.039
-447.895	-77.418	0.069	-0.023
-446.880	465.780	0.221	0.487
-445.865	800.000	-0.010	0.043
-444.851	-200.000	-0.078	0.452
-443.836	118.768	0.054	0.066
-442.822	-200.000	0.002	-0.116
-441.807	-101.652	-0.049	-0.012
-440.792	-48.460	-0.324	0.154
-439.778	-200.000	0.002	0.148
-438.763	-200.000	-0.067	0.374
-437.749	313.306	-0.159	0.294
-436.734	3.529	-0.275	0.198
-435.719	-40.610	0.206	-0.105
-434.705	21.572	0.258	0.207
-433.690	120.575	-0.218	-0.266
-432.676	103.750	0.221	-0.256
-431.661	-103.227	0.129	0.030
-430.646	800.000	-0.045	-0.142
-429.632	-46.370	0.059	-0.028
-428.617	48.318	-0.176	0.163
-427.603	762.645	-0.052	0.139
-426.588	368.061	-0.162	0.323
-425.573	-78.430	0.240	0.081
-424.559	-128.993	0.124	0.017
-423.544	-105.875	-0.090	-0.020
-422.530	-6.964	0.176	-0.118
-421.515	800.000	0.120	-0.476
-420.500	800.000	-0.113	0.315
-419.486	-200.000	0.039	-0.240
-418.471	227.633	-0.141	-0.226
-417.457	-200.000	-0.053	0.238
-416.442	-107.670	-0.171	0.037
-415.428	-90.497	0.187	-0.053
-414.413	174.212	0.185	0.264
-413.398	168.479	-0.141	0.198
-412.384	241.320	0.159	-0.261
-411.369	133.960	-0.130	-0.166
-410.355	-80.798	-0.285	-0.093
-409.340	143.288	-0.082	0.108
-408.325	-50.579	0.033	-0.015
-407.311	66.475	0.088	-0.088
-406.296	150.627	-0.184	0.245
-405.282	329.050	0.045	-0.085
-404.267	-12.181	-0.355	-0.229
-403.252	800.000	-0.130	-0.398
-402.238	-200.000	0.028	0.135
-401.223	19.932	-0.229	-0.181
-400.209	800.000	-0.120	-0.402
-399.194	-59.710	0.148	0.063
-398.179	-96.307	0.193	-0.050
-397.165	800.000	-0.075	0.222
-396.150	-115.451	0.379	-0.070
-395.136	-200.000	-0.035	0.311
-394.121	-27.893	-0.223	-0.127
-393.106	-54.996	0.039	0.017
-392.092	-120.648	-0.176	-0.029
-391.077	-70.843	0.152	0.056
-390.063	264.138	0.118	-0.202
-389.048	3.774	0.124	0.089
-388.033	-117.077	0.218	0.039
-387.019	-11.208	0.222	0.144
-386.004	-58.960	-0.149	-0.063
-384.990	-99.586	-0.040	0.010
-383.975	-74.141	-0.121	0.043
-382.960	-97.136	-0.126	-0.032
-381.946	800.000	-0.022	0.088
-380.931	128.870	-0.217	-0.272
-379.917	156.619	-0.199	0.270
-378.902	123.806	-0.169	0.208
-377.888	-45.627	0.223	-0.108
-376.873	35.309	-0.245	0.211
-375.858	57.575	-0.223	-0.214
-374.844	89.142	0.168	0.184
-373.829	355.328	0.073	0.143
-372.815	17.335	-0.308	-0.240
-371.800	3.110	0.399	-0.285
-370.785	101.422	0.149	-0.170
-369.771	800.000	0.055	0.201
-368.756	-200.000	0.014	0.257
-367.742	-200.000	0.023	0.344
-366.727	-93.622	-0.424	0.115
-365.712	690.851	-0.121	-0.312
-364.698	-37.898	0.218	-0.114
-363.683	800.000	0.071	0.265
-362.669	-200.000	0.036	0.267
-361.654	-200.000	-0.011	0.069
-360.639	-64.081	0.404	-0.162
-359.625	-27.448	-0.363	-0.207
-358.610	-131.719	-0.171	0.022
-357.596	-200.000	-0.023	0.385
-356.581	-115.020	0.156	-0.029
-355.566	-97.937	-0.127	-0.032
-354.552	-6.858	-0.038	-0.025
-353.537	800.000	-0.061	0.174
-352.523	141.264	0.128	-0.166
-351.508	-129.970	0.185	-0.025
-350.493	-76.179	-0.230	-0.080
-349.479	-81.792	0.233	0.075
-348.464	618.518	-0.125	0.308
-347.450	-70.368	-0.134	-0.050
-346.435	-99.827	0.462	0.113
-345.420	-200.000	-0.011	-0.062
-344.406	800.000	-0.052	0.160
-343.391	-200.000	0.009	0.048
-342.377	-187.049	-0.265	-0.004
-341.362	800.000	-0.045	-0.135
-340.348	-200.000	-0.007	0.063
-339.333	-44.357	0.115	-0.057
-338.318	-46.724	-0.265	0.127
-337.304	341.287	-0.140	-0.269
-336.289	95.700	-0.072	0.081
-335.275	-59.327	-0.186	-0.078
-334.260	800.000	-0.137	-0.532
-333.245	197.611	0.192	-0.288
-332.231	-29.253	0.232	0.130
-331.216	-113.076	-0.199	0.039
-330.202	13.147	0.110	-0.084
-329.187	800.000	0.029	-0.107
-328.172	800.000	-0.070	0.191
-327.158	58.443	0.214	-0.206
-326.143	-43.983	-0.148	0.073
-325.129	46.140	-0.290	0.263
-324.114	28.143	0.214	0.177
-323.099	-142.883	0.275	0.026
-322.085	-200.000	-0.092	0.000
-321.070	-200.000	0.024	-0.225
-320.056	-200.000	0.033	-0.160
-319.041	-33.660	0.350	-0.190
-318.026	256.241	0.182	0.307
-317.012	24.166	-0.196	0.159
-315.997	-200.000	0.013	-0.081
-314.983	-200.000	0.013	-0.068
-313.968	-190.083	0.259	-0.003
-312.953	-21.869	0.199	-0.119
-311.939	61.045	-0.115	0.112
-310.924	-107.794	0.186	0.040
-309.910	574.207	-0.056	-0.134
-308.895	-112.161	-0.236	0.047
-307.880	-23.632	-0.377	0.222
-306.866	-200.000	-0.395	0.000
-305.851	-98.508	0.311	-0.078
-304.837	800.000	0.036	-0.154
-303.822	-200.000	-0.009	-0.170
-302.807	133.101	0.130	0.164
-301.793	-200.000	-0.068	0.382
-300.778	-65.642	0.273	-0.107
-299.764	-200.000	0.012	0.178
-298.749	-96.759	-0.485	-0.125
-297.735	-73.546	-0.306	-0.109
-296.720	-23.860	0.175	-0.103
-295.705	-200.000	-0.030	-0.131
-294.691	-200.000	0.078	0.508
-293.676	-15.262	-0.196	-0.123
-292.662	800.000	0.058	-0.235
-291.647	317.432	-0.111	0.206
-290.632	-187.285	0.153	0.002
-289.618	800.000	-0.067	0.276
-288.603	-20.688	-0.107	-0.064
-287.589	-118.471	0.165	-0.029
-286.574	549.116	0.041	0.097
-285.559	159.059	-0.241	-0.328
-284.545	156.415	-0.198	-0.267
-283.530	212.851	-0.083	-0.128
-282.516	514.379	-0.072	-0.164
-281.501	-142.745	0.435	0.042
-280.486	39.487	-0.227	0.199
-279.472	120.814	-0.152	0.185
-278.457	-21.027	-0.218	0.130
-277.443	-46.086	0.162	-0.078
-276.428	580.670	0.104	0.250
-275.413	-30.725	0.246	0.136
-274.399	-40.490	-0.242	-0.123
-273.384	-147.578	0.216	-0.018
-272.370	-140.260	0.202	-0.021
-271.355	-54.463	-0.303	-0.135
-270.340	455.873	-0.050	-0.108
-269.326	800.000	-0.031	-0.108
-268.311	-84.940	-0.175	-0.054
-267.297	-69.477	-0.104	-0.039
-266.282	-143.424	0.207	0.019
-265.267	-200.000	-0.023	-0.162
-264.253	-200.000	0.025	0.268
-263.238	-107.957	0.204	-0.043
-262.224	-200.000	0.025	0.137
-261.209	-66.582	0.194	-0.075
-260.195	-6.104	0.169	0.113
-259.180	74.605	-0.166	-0.171
-258.165	-32.443	0.164	0.089
-257.151	-200.000	0.018	0.103
-256.136	-118.302	0.390	0.068
-255.122	161.753	0.051	-0.070
-254.107	232.391	0.156	-0.251
-253.092	-57.939	0.169	-0.072
-252.078	247.431	0.135	-0.223
-251.063	-200.000	-0.028	-0.403
-250.049	487.972	-0.030	-0.068
-249.034	-200.000	0.033	0.480
-248.019	296.117	0.047	-0.085
-247.005	344.510	-0.063	0.121
-245.990	16.511	0.109	-0.084
-244.976	227.845	0.121	-0.192
-243.961	-61.038	0.205	-0.085
-242.946	5.126	0.262	-0.188
-241.932	313.920	-0.151	-0.278
-240.917	-200.000	-0.022	-0.200
-239.903	-200.000	-0.006	0.074
-238.888	429.672	0.063	0.134
-237.873	251.488	0.162	0.270
-236.859	-45.009	-0.159	0.077
-235.844	247.977	-0.230	-0.380
-234.830	-200.000	0.023	0.180
-233.815	105.017	0.046	0.053
-232.800	-8.223	0.121	0.079
-231.786	-106.021	-0.027	-0.006
-230.771	-69.175	-0.208	0.078
-229.757	-200.000	-0.026	0.264
-228.742	-170.887	0.088	0.003
-227.727	-36.754	0.174	-0.091
-226.713	415.045	-0.081	0.168
-225.698	31.765	-0.202	0.170
-224.684	28.289	0.142	0.117
-223.669	-106.834	-0.187	-0.041
-222.655	-87.446	0.231	-0.068
-221.640	-200.000	-0.034	-0.361
-220.625	-69.729	-0.413	-0.154
-219.611	800.000	0.033	-0.096
-218.596	245.109	0.146	-0.239
-217.582	264.095	-0.234	0.398
-216.567	16.510	0.168	0.130
-215.552	158.132	-0.019	0.026
-214.538	-55.403	0.190	-0.083
-213.523	477.818	-0.015	-0.033
-212.509	211.041	-0.121	0.185
-211.494	-29.936	-0.037	-0.020
-210.479	800.000	-0.013	0.048
-209.465	105.276	0.120	0.138
-208.450	-70.486	-0.024	-0.009
-207.436	64.620	0.091	-0.090
-206.421	0.612	0.414	-0.289
-205.406	202.747	-0.125	-0.189
-204.392	458.239	-0.021	0.046
-203.377	-50.416	0.293	0.135
-202.363	632.339	0.104	-0.258
-201.348	262.432	0.120	-0.203
-200.333	-27.286	0.293	-0.166
-199.319	-200.000	-0.060	0.334
-198.304	800.000	0.070	0.214
-197.290	-200.000	0.003	-0.227
-196.275	350.760	0.115	0.222
-195.260	10.533	0.208	-0.155
-194.246	-200.000	0.084	-0.360
-193.231	-179.981	-0.055	0.001
-192.217	800.000	0.051	0.205
-191.202	-200.000	-0.035	0.236
-190.187	30.385	0.241	0.200
-189.173	-109.441	0.124	0.026
-188.158	58.547	-0.425	0.407
-187.144	-12.315	0.085	0.054
-186.129	-47.433	-0.026	0.012
-185.114	800.000	0.106	-0.322
-184.100	-50.062	-0.229	0.106
-183.085	-123.213	-0.234	0.037
-182.071	456.057	0.024	0.052
-181.056	-129.640	-0.096	-0.013
-180.042	800.000	-0.069	0.214
-179.027	800.000	0.071	-0.238
-178.012	-30.770	-0.086	0.048
-176.998	235.983	-0.136	-0.220
-175.983	-134.334	-0.105	-0.013
-174.969	-120.442	0.341	0.056
-173.954	60.993	0.101	0.098
-172.939	338.588	0.095	-0.181
-171.925	-148.964	0.414	-0.032
-170.910	-96.958	-0.011	0.003
-169.896	-41.493	-0.272	-0.137
-168.881	310.124	-0.090	0.163
-167.866	800.000	-0.020	-0.077
-166.852	-3.190	-0.035	-0.024
-165.837	-73.535	-0.552	-0.196
-164.823	-200.000	0.048	-0.332
-163.808	-39.387	0.238	0.122
-162.793	539.140	0.051	0.119
-161.779	-200.000	0.055	-0.240
-160.764	350.674	0.036	-0.069
-159.750	-59.120	0.231	-0.097
-158.735	800.000	-0.059	0.166
-157.720	-200.000	-0.027	0.154
-156.706	-138.873	-0.265	0.028
-155.691	800.000	-0.071	0.274
-154.677	230.289	0.173	0.276
-153.662	45.926	0.063	-0.057
-152.647	-200.000	0.005	0.112
-151.633	-200.000	-0.013	-0.417
-150.618	-200.000	0.000	-0.097
-149.604	-7.185	0.328	-0.217
-148.589	50.103	0.202	-0.185
-147.574	-200.000	-0.018	-0.105
-146.560	800.000	-0.049	0.155
-145.545	-63.225	0.384	0.154
-144.531	800.000	0.108	0.458
-143.516	105.812	0.084	0.097
-142.502	-200.000	-0.007	0.125
-141.487	94.447	-0.269	-0.297
-140.472	-75.027	0.133	-0.046
-139.458	121.175	-0.110	-0.133
-138.443	-200.000	0.001	0.242
-137.429	-143.631	0.095	-0.009
-136.414	-136.677	-0.179	-0.020
-135.399	308.288	0.106	-0.193
-134.385	-184.307	-0.414	0.007
-133.370	-66.746	0.510	0.196
-132.356	224.635	-0.115	0.181
-131.341	34.867	0.124	-0.105
-130.326	-200.000	0.001	-0.146
-129.312	424.376	-0.035	-0.074
-128.297	434.460	0.033	-0.069
-127.283	-89.804	0.300	-0.085
-126.268	-26.429	-0.247	0.141
-125.253	-122.015	0.213	-0.034
-124.239	418.876	0.025	0.052
-123.224	-65.518	0.332	-0.130
-122.210	265.718	0.159	0.271
