DTS Sentinel unit serial number:	SN413079Multiplexer serial number:	ORYXHardware model number:	OX4-SRSoftware version number:	ORYX F/W v4.00 Oryx Data Collector v3.7.2.0data status	okinstallation	princeton_trtdifferential loss correction	single-endedforward channel	channel 2reverse channel	N/Adate	2019/09/16time	08:31:34forward acquisition time	60.00reverse acquisition time	0.00gamma	496.2192k internal	0.2327k external	0.2327temperature offset calibration	0.9979default loss term (dB/km)	0.3790temperature slope calibration	1.0000multiplexer offset coefficient	1.0000multiplexer slope coefficient	1.0000fibre end	0.00T internal ref (°C)	29.31T ext. ref 1 (°C)	11.92T ext. ref 2 (°C)	25.90length (m)	temperature (°C)	Stokes	anti-Stokes-747.200	143.686	-0.041	-0.055
-746.185	-41.535	0.084	0.044
-745.171	-77.619	0.177	-0.062
-744.156	800.000	-0.074	0.277
-743.142	-92.644	0.138	-0.039
-742.127	94.839	-0.208	0.238
-741.112	-5.476	-0.180	-0.125
-740.098	36.288	-0.131	0.116
-739.083	-56.617	0.413	-0.184
-738.069	800.000	0.092	0.349
-737.054	-200.000	0.017	-0.155
-736.039	-7.363	-0.425	-0.290
-735.025	800.000	-0.083	0.287
-734.010	-97.462	-0.155	0.041
-732.996	-13.829	0.144	-0.094
-731.981	345.182	-0.061	0.120
-730.966	800.000	0.122	0.470
-729.952	-142.902	0.288	-0.028
-728.937	52.483	-0.135	0.130
-727.923	249.305	-0.167	0.285
-726.908	167.063	-0.277	0.397
-725.894	-133.338	0.267	0.034
-724.879	800.000	-0.130	-0.375
-723.864	800.000	-0.031	-0.103
-722.850	-57.659	0.270	0.119
-721.835	-79.978	-0.163	-0.055
-720.821	49.416	-0.028	-0.026
-719.806	-124.553	-0.065	0.010
-718.791	-117.238	0.056	0.010
-717.777	-200.000	-0.042	0.295
-716.762	-200.000	0.048	-0.328
-715.748	62.744	0.210	0.212
-714.733	19.732	0.171	-0.139
-713.718	89.913	-0.248	-0.279
-712.704	-200.000	-0.023	0.490
-711.689	-44.085	-0.258	0.130
-710.675	493.173	-0.070	-0.161
-709.660	-19.358	0.115	-0.072
-708.645	77.504	0.267	-0.286
-707.631	800.000	0.053	0.159
-706.616	-139.980	-0.408	0.043
-705.602	546.490	0.084	0.203
-704.587	34.522	-0.313	-0.275
-703.572	-200.000	-0.078	-0.416
-702.558	-85.095	0.305	-0.096
-701.543	-44.849	-0.208	-0.104
-700.529	192.186	-0.111	-0.168
-699.514	-200.000	0.120	-0.538
-698.499	800.000	-0.124	-0.348
-697.485	-200.000	-0.003	0.044
-696.470	-200.000	-0.006	0.168
-695.456	183.560	0.128	0.190
-694.441	58.159	-0.061	0.060
-693.426	800.000	-0.048	0.154
-692.412	-17.044	0.308	0.196
-691.397	-85.444	0.279	0.087
-690.383	-133.825	-0.198	-0.025
-689.368	-183.985	-0.219	0.004
-688.354	800.000	-0.035	0.127
-687.339	-158.331	0.456	-0.027
-686.324	-34.980	0.121	0.066
-685.310	-68.797	-0.241	-0.094
-684.295	-38.124	-0.344	0.183
-683.281	363.830	0.018	-0.036
-682.266	110.437	-0.177	0.214
-681.251	120.093	0.188	0.235
-680.237	304.645	-0.130	-0.243
-679.222	800.000	0.065	-0.234
-678.208	275.186	-0.114	-0.203
-677.193	-200.000	-0.062	-0.418
-676.178	-96.602	0.200	0.053
-675.164	-24.113	0.273	0.164
-674.149	796.743	-0.081	-0.224
-673.135	103.526	0.171	-0.202
-672.120	-200.000	0.004	0.123
-671.105	-60.778	0.276	-0.118
-670.091	-144.663	-0.287	-0.027
-669.076	-72.373	-0.173	-0.064
-668.062	-91.219	-0.235	-0.068
-667.047	-106.756	-0.177	0.039
-666.032	-14.517	-0.197	-0.127
-665.018	32.057	-0.120	0.104
-664.003	-112.601	-0.566	-0.113
-662.989	-200.000	-0.012	0.112
-661.974	247.541	-0.109	0.186
-660.959	159.308	-0.256	-0.357
-659.945	-76.889	-0.232	0.081
-658.930	61.894	0.046	-0.046
-657.916	-200.000	0.008	0.037
-656.901	-75.656	-0.138	0.049
-655.886	-56.613	-0.295	-0.131
-654.872	30.473	-0.171	-0.147
-653.857	-200.000	0.034	-0.176
-652.843	-193.328	0.171	-0.001
-651.828	-18.690	0.198	0.124
-650.814	-200.000	-0.012	0.315
-649.799	-200.000	-0.030	-0.166
-648.784	68.125	0.091	-0.094
-647.770	-19.824	-0.159	0.099
-646.755	-0.238	-0.062	0.045
-645.741	-134.154	-0.392	0.049
-644.726	290.771	0.073	0.133
-643.711	75.739	-0.212	-0.224
-642.697	460.668	0.069	-0.155
-641.682	-121.425	0.280	0.047
-640.668	43.037	-0.120	-0.110
-639.653	-145.289	-0.354	-0.032
-638.638	-200.000	-0.001	-0.340
-637.624	101.137	0.174	-0.204
-636.609	-0.843	0.113	-0.081
-635.595	253.907	-0.058	0.100
-634.580	46.883	-0.171	-0.160
-633.565	-120.058	0.416	0.072
-632.551	-200.000	-0.040	-0.285
-631.536	-71.555	-0.108	-0.040
-630.522	147.148	0.194	-0.262
-629.507	8.654	-0.294	-0.222
-628.492	641.323	-0.086	-0.220
-627.478	139.087	0.234	-0.309
-626.463	-1.697	-0.331	-0.234
-625.449	-200.000	0.005	0.174
-624.434	350.489	0.127	0.252
-623.419	-127.451	0.173	0.025
-622.405	39.125	0.089	0.080
-621.390	-86.199	-0.024	-0.007
-620.376	-189.146	-0.073	0.001
-619.361	-51.825	0.123	0.057
-618.346	-200.000	0.011	0.102
-617.332	-58.501	-0.379	0.165
-616.317	-75.492	0.118	-0.042
-615.303	466.972	0.102	0.229
-614.288	69.446	0.225	-0.232
-613.273	-8.340	-0.055	-0.037
-612.259	-1.727	0.047	-0.033
-611.244	112.781	0.103	-0.125
-610.230	-128.263	-0.222	0.032
-609.215	-200.000	0.050	-0.393
-608.201	-200.000	-0.027	0.149
-607.186	-200.000	-0.043	-0.235
-606.171	-129.088	0.467	0.066
-605.157	9.869	0.162	0.123
-604.142	96.554	-0.164	-0.189
-603.128	-110.194	0.346	0.072
-602.113	-0.259	-0.087	-0.062
-601.098	800.000	-0.021	-0.061
-600.084	-199.198	-0.252	-0.001
-599.069	-200.000	-0.048	-0.213
-598.055	118.328	-0.236	0.291
-597.040	-200.000	-0.002	-0.019
-596.025	-147.016	-0.076	-0.007
-595.011	134.266	0.058	-0.076
-593.996	-96.977	0.205	0.054
-592.982	-194.684	-0.235	0.002
-591.967	-29.414	-0.025	0.014
-590.952	-145.383	0.216	-0.020
-589.938	108.059	0.181	0.217
-588.923	122.538	-0.345	0.432
-587.909	-6.541	-0.226	0.155
-586.894	173.904	0.136	0.196
-585.879	61.290	-0.278	-0.277
-584.865	800.000	-0.069	-0.207
-583.850	51.661	-0.277	0.264
-582.836	3.305	-0.148	-0.108
-581.821	-76.036	0.063	-0.022
-580.806	-82.564	0.228	-0.074
-579.792	-108.599	0.203	0.044
-578.777	502.096	-0.094	0.217
-577.763	800.000	0.037	-0.140
-576.748	55.906	0.094	-0.092
-575.733	-200.000	0.020	0.127
-574.719	-134.048	0.229	0.028
-573.704	118.054	-0.089	-0.110
-572.690	800.000	-0.047	0.157
-571.675	559.806	0.066	-0.159
-570.661	125.984	-0.120	0.152
-569.646	73.823	0.052	-0.054
-568.631	800.000	-0.097	0.416
-567.617	-37.809	-0.097	-0.052
-566.602	-200.000	0.001	-0.210
-565.588	-200.000	0.003	-0.158
-564.573	-144.706	0.200	-0.018
-563.558	-200.000	-0.022	0.161
-562.544	-200.000	-0.067	0.387
-561.529	2.168	0.332	-0.240
-560.515	42.717	-0.260	0.237
-559.500	-102.596	-0.131	0.031
-558.485	-72.611	0.244	-0.090
-557.471	-200.000	-0.000	-0.060
-556.456	-33.272	-0.316	0.175
-555.442	16.252	-0.147	-0.116
-554.427	-77.011	0.333	0.116
-553.412	-145.027	0.117	-0.011
-552.398	136.857	0.046	0.060
-551.383	-173.850	-0.150	0.004
-550.369	-42.067	0.230	-0.118
-549.354	-125.231	-0.269	0.041
-548.339	-98.669	0.314	0.080
-547.325	-200.000	-0.035	-0.390
-546.310	126.965	-0.131	0.166
-545.296	-200.000	-0.012	0.156
-544.281	-3.176	0.111	-0.077
-543.266	800.000	0.111	0.351
-542.252	-57.219	0.178	-0.079
-541.237	-200.000	0.011	-0.111
-540.223	-33.431	-0.084	0.046
-539.208	8.197	-0.152	-0.114
-538.193	800.000	-0.074	0.309
-537.179	156.880	0.118	-0.163
-536.164	-59.383	0.049	-0.021
-535.150	-200.000	-0.047	0.243
-534.135	-159.732	0.273	-0.015
-533.121	-104.579	-0.161	0.037
-532.106	-40.542	0.385	0.200
-531.091	-200.000	-0.012	-0.254
-530.077	-160.123	-0.206	-0.011
-529.062	45.844	-0.195	0.181
-528.048	-200.000	-0.011	-0.133
-527.033	39.672	0.235	-0.210
-526.018	16.341	-0.329	0.259
-525.004	180.872	-0.100	0.147
-523.989	-78.600	0.204	0.070
-522.975	-138.992	-0.312	0.034
-521.960	-200.000	0.027	-0.181
-520.945	146.545	0.167	0.224
-519.931	30.483	-0.143	0.122
-518.916	-126.067	-0.071	0.011
-517.902	-200.000	0.002	-0.156
-516.887	-200.000	-0.008	0.082
-515.872	-200.000	0.004	-0.051
-514.858	-112.034	0.525	-0.106
-513.843	416.067	0.100	-0.213
-512.829	563.598	0.026	0.062
-511.814	-119.867	0.152	0.026
-510.799	-44.848	0.284	-0.141
-509.785	49.284	-0.058	0.055
-508.770	-200.000	0.006	0.116
-507.756	43.824	0.141	-0.129
-506.741	-72.929	-0.381	-0.140
-505.726	800.000	-0.083	-0.289
-504.712	-200.000	0.006	0.036
-503.697	277.664	-0.117	-0.208
-502.683	39.195	-0.184	-0.164
-501.668	-163.338	-0.260	0.012
-500.653	220.410	0.133	0.213
-499.639	-72.366	-0.105	-0.039
-498.624	-16.813	-0.119	0.075
-497.610	-200.000	-0.047	0.233
-496.595	-80.813	-0.380	-0.126
-495.581	-1.405	0.226	-0.159
-494.566	359.527	-0.072	0.145
-493.551	-66.540	0.200	0.079
-492.537	-200.000	0.009	0.257
-491.522	207.325	0.105	0.163
-490.508	800.000	-0.042	-0.132
-489.493	-19.818	0.189	0.117
-488.478	202.368	-0.030	-0.046
-487.464	-152.658	-0.376	0.027
-486.449	-128.879	0.314	-0.044
-485.435	140.843	-0.095	-0.125
-484.420	800.000	0.079	0.279
-483.405	-138.497	-0.105	0.011
-482.391	474.348	-0.061	-0.138
-481.376	421.395	0.068	-0.145
-480.362	-190.530	0.067	0.001
-479.347	-200.000	0.003	0.190
-478.332	416.255	0.231	0.493
-477.318	-200.000	-0.194	0.001
-476.303	-43.533	-0.259	0.130
-475.289	19.836	-0.191	-0.153
-474.274	-138.859	-0.120	-0.013
-473.259	-130.736	0.148	0.020
-472.245	800.000	0.090	0.328
-471.230	348.419	-0.041	0.081
-470.216	-200.000	-0.017	-0.081
-469.201	227.896	0.033	-0.054
-468.186	-109.798	-0.185	0.039
-467.172	800.000	-0.069	-0.203
-466.157	72.224	0.143	-0.149
-465.143	-200.000	0.013	0.070
-464.128	-102.781	0.219	-0.052
-463.113	180.536	-0.093	0.136
-462.099	157.490	-0.053	-0.073
-461.084	-200.000	-0.017	-0.103
-460.070	85.851	0.285	-0.312
-459.055	209.189	-0.218	-0.341
-458.040	-98.386	0.337	0.086
-457.026	-200.000	0.012	0.274
-456.011	-79.904	-0.205	-0.069
-454.997	800.000	0.054	-0.169
-453.982	-73.078	-0.080	-0.029
-452.968	-118.068	-0.411	0.073
-451.953	-158.623	0.103	0.006
-450.938	100.143	0.223	0.257
-449.924	40.126	-0.124	0.112
-448.909	-200.000	-0.443	0.001
-447.895	26.551	0.151	-0.126
-446.880	-9.878	-0.262	0.174
-445.865	-200.000	0.025	-0.127
-444.851	-110.329	-0.324	-0.067
-443.836	113.825	0.172	-0.208
-442.822	-138.892	0.247	-0.027
-441.807	-200.000	-0.023	0.315
-440.792	343.256	-0.034	-0.066
-439.778	800.000	0.036	-0.123
-438.763	800.000	-0.053	0.148
-437.749	-200.000	-0.002	-0.267
-436.734	-113.751	0.316	-0.061
-435.719	491.415	-0.120	-0.273
-434.705	-38.856	0.206	-0.108
-433.690	-61.528	0.118	0.049
-432.676	-59.054	-0.296	0.127
-431.661	-95.647	-0.124	0.033
-430.646	-200.000	-0.028	-0.187
-429.632	-200.000	-0.016	0.253
-428.617	-26.703	0.182	0.106
-427.603	-200.000	0.083	0.420
-426.588	114.952	-0.132	-0.160
-425.573	-135.159	-0.321	0.038
-424.559	-112.532	-0.081	-0.016
-423.544	236.957	-0.014	-0.023
-422.530	-161.616	-0.327	-0.017
-421.515	180.459	0.084	0.123
-420.500	8.552	-0.048	0.036
-419.486	-91.218	-0.229	-0.065
-418.471	-78.610	0.261	0.089
-417.457	103.755	-0.242	0.283
-416.442	109.536	-0.076	0.091
-415.428	-200.000	-0.037	0.165
-414.413	-154.852	0.078	0.005
-413.398	53.094	-0.029	0.028
-412.384	-73.219	0.195	-0.071
-411.369	-200.000	-0.037	-0.376
-410.355	800.000	0.033	-0.093
-409.340	598.698	0.207	0.510
-408.325	180.416	-0.085	-0.124
-407.311	102.541	-0.166	-0.193
-406.296	258.386	0.113	0.194
-405.282	-153.097	0.227	-0.016
-404.267	-200.000	0.016	-0.110
-403.252	-4.844	0.295	-0.202
-402.238	-200.000	0.059	0.265
-401.223	18.390	0.205	-0.163
-400.209	-125.404	-0.046	0.007
-399.194	49.975	-0.145	0.136
-398.179	800.000	-0.095	0.335
-397.165	43.950	0.058	0.053
-396.150	-100.021	-0.324	-0.080
-395.136	78.079	-0.257	0.273
-394.121	376.745	0.088	-0.178
-393.106	-85.199	-0.149	0.046
-392.092	-95.032	0.066	0.018
-391.077	-18.159	-0.182	0.113
-390.063	520.615	0.069	-0.161
-389.048	293.749	-0.100	-0.182
-388.033	259.703	0.162	-0.278
-387.019	473.207	0.055	0.124
-386.004	308.087	0.108	-0.201
-384.990	-200.000	0.067	-0.297
-383.975	-12.684	0.152	0.098
-382.960	800.000	0.051	-0.186
-381.946	-9.939	0.114	-0.076
-380.931	-21.806	0.133	-0.080
-379.917	800.000	-0.012	-0.041
-378.902	800.000	-0.089	0.247
-377.888	-42.280	-0.124	0.063
-376.873	-130.623	-0.082	-0.011
-375.858	-134.051	0.194	0.024
-374.844	582.391	0.080	0.194
-373.829	626.332	-0.110	0.275
-372.815	7.295	0.064	-0.048
-371.800	-145.517	-0.227	-0.020
-370.785	-139.001	-0.197	-0.021
-369.771	-139.094	0.253	-0.027
-368.756	57.820	-0.118	0.115
-367.742	694.919	-0.090	-0.236
-366.727	22.536	-0.338	0.274
-365.712	-64.671	-0.096	-0.039
-364.698	-35.105	-0.227	0.123
-363.683	-116.280	0.049	0.009
-362.669	800.000	-0.053	-0.184
-361.654	800.000	0.124	-0.419
-360.639	-139.487	-0.113	-0.012
-359.625	800.000	-0.087	0.373
-358.610	127.755	0.101	0.128
-357.596	-127.200	0.177	0.026
-356.581	31.215	-0.151	0.129
-355.566	217.711	0.108	-0.171
-354.552	-200.000	0.009	-0.055
-353.537	190.307	-0.092	0.137
-352.523	-9.063	-0.118	-0.078
-351.508	188.521	0.138	-0.205
-350.493	-86.955	-0.142	-0.043
-349.479	240.430	-0.095	-0.157
-348.464	-200.000	0.041	-0.185
-347.450	-16.578	-0.327	0.206
-346.435	-92.230	-0.070	-0.020
-345.420	-119.941	0.316	-0.054
-344.406	-200.000	0.010	-0.275
-343.391	18.406	-0.161	-0.128
-342.377	-51.111	-0.226	0.105
-341.362	-200.000	0.004	-0.054
-340.348	800.000	-0.111	0.394
-339.333	515.153	-0.140	0.325
-338.318	-47.965	-0.102	0.049
-337.304	-78.625	0.075	0.025
-336.289	128.588	0.164	-0.207
-335.275	269.834	-0.054	-0.095
-334.260	-112.436	0.417	-0.083
-333.245	-107.595	0.369	0.080
-332.231	-67.110	0.149	0.058
-331.216	73.311	-0.267	-0.277
-330.202	-119.207	-0.206	-0.036
-329.187	467.547	0.003	0.007
-328.172	-113.656	-0.106	0.020
-327.158	690.502	-0.013	-0.033
-326.143	-164.747	-0.043	-0.002
-325.129	-200.000	-0.034	-0.156
-324.114	-200.000	0.003	-0.303
-323.099	-196.954	0.195	0.001
-322.085	-200.000	-0.013	0.196
-321.070	242.752	0.089	-0.148
-320.056	40.995	0.093	-0.083
-319.041	-200.000	-0.067	-0.328
-318.026	-200.000	0.015	0.152
-317.012	-64.444	-0.244	0.098
-315.997	800.000	0.056	0.168
-314.983	-56.137	-0.257	-0.114
-313.968	313.647	-0.143	0.267
-312.953	-200.000	0.041	-0.238
-311.939	258.337	0.172	0.294
-310.924	-200.000	0.017	0.108
-309.910	122.701	-0.285	0.353
-308.895	-83.020	-0.269	0.086
-307.880	651.911	-0.105	0.268
-306.866	-151.426	0.120	-0.009
-305.851	-200.000	0.013	-0.210
-304.837	-59.229	0.070	-0.030
-303.822	31.462	-0.079	-0.067
-302.807	-200.000	0.027	-0.190
-301.793	93.765	-0.302	-0.339
-300.778	-24.757	-0.244	0.144
-299.764	-72.516	-0.460	-0.168
-298.749	-175.626	0.152	0.004
-297.735	-19.811	0.056	-0.035
-296.720	201.775	-0.216	-0.329
-295.705	-111.058	-0.020	0.004
-294.691	44.546	0.235	0.214
-293.676	-78.948	-0.052	-0.018
-292.662	583.818	-0.132	0.321
-291.647	36.833	0.218	0.191
-290.632	570.558	-0.056	-0.134
-289.618	-104.803	0.068	0.016
-288.603	-113.710	0.182	0.035
-287.589	-48.152	0.332	-0.159
-286.574	800.000	-0.034	0.143
-285.559	184.005	0.055	0.080
-284.545	-200.000	-0.037	0.266
-283.530	-153.871	-0.164	-0.011
-282.516	-200.000	0.028	-0.176
-281.501	-23.104	0.085	-0.051
-280.486	32.023	0.065	-0.055
-279.472	-31.865	-0.261	-0.145
-278.457	143.549	-0.156	-0.205
-277.443	-69.925	-0.072	0.027
-276.428	800.000	0.031	-0.096
-275.413	76.331	-0.066	0.069
-274.399	500.150	-0.017	-0.039
-273.384	800.000	0.106	-0.420
-272.370	37.066	0.083	0.072
-271.355	-172.896	-0.276	-0.008
-270.340	-108.485	0.198	0.042
-269.326	-200.000	-0.019	0.195
-268.311	91.664	-0.178	-0.198
-267.297	73.985	-0.132	-0.137
-266.282	-109.471	0.399	0.083
-265.267	26.764	0.050	-0.041
-264.253	-101.345	-0.284	-0.069
-263.238	-200.000	0.100	-0.462
-262.224	665.940	0.075	0.192
-261.209	230.368	0.180	0.290
-260.195	800.000	0.087	0.338
-259.180	-200.000	0.033	0.476
-258.165	-47.712	0.116	-0.056
-257.151	-89.096	0.280	0.082
-256.136	247.490	-0.059	-0.098
-255.122	-200.000	0.025	-0.292
-254.107	-200.000	-0.058	-0.464
-253.092	-200.000	0.007	0.042
-252.078	688.205	-0.022	-0.057
-251.063	157.141	-0.055	-0.075
-250.049	-200.000	-0.019	0.150
-249.034	-56.756	0.378	0.165
-248.019	514.611	-0.142	0.327
-247.005	-154.331	0.085	-0.006
-245.990	-140.325	-0.065	0.007
-244.976	-109.607	0.253	0.053
-243.961	95.099	0.277	0.312
-242.946	-200.000	-0.012	-0.260
-241.932	82.202	0.350	-0.375
-240.917	-200.000	-0.000	-0.307
-239.903	32.351	-0.272	-0.232
-238.888	-160.419	0.126	-0.007
-237.873	-25.071	0.358	-0.210
-236.859	-54.224	0.177	0.079
-235.844	-80.033	0.232	-0.077
-234.830	445.833	-0.066	-0.144
-233.815	397.653	0.181	0.374
-232.800	126.050	-0.184	-0.230
-231.786	667.655	0.115	-0.294
-230.771	1.185	0.069	-0.049
-229.757	80.441	0.134	0.142
-228.742	345.106	-0.178	0.344
-227.727	-100.340	-0.176	-0.043
-226.713	-200.000	-0.176	0.001
-225.698	-200.000	0.027	0.130
-224.684	-71.857	-0.104	-0.038
-223.669	65.482	0.176	0.176
-222.655	-84.928	0.477	-0.148
-221.640	-9.630	-0.150	-0.099
-220.625	-135.282	0.228	-0.027
-219.611	65.604	-0.151	0.151
-218.596	36.752	0.058	-0.050
-217.582	-83.657	-0.293	-0.092
-216.567	-200.000	0.061	-0.431
-215.552	-200.000	-0.051	-0.319
-214.538	-11.977	0.188	-0.122
-213.523	-200.000	0.003	-0.098
-212.509	-151.013	-0.323	-0.024
-211.494	-3.530	0.167	0.115
-210.479	491.066	0.171	0.386
-209.465	-69.642	-0.540	-0.204
-208.450	-199.894	0.033	-0.000
-207.436	350.977	-0.061	-0.118
-206.421	-200.000	0.026	0.175
-205.406	402.311	-0.107	-0.222
-204.392	-200.000	0.030	0.239
-203.377	800.000	-0.057	-0.190
-202.363	402.874	0.159	0.331
-201.348	-135.226	0.380	0.045
-200.333	-41.118	-0.230	0.117
-199.319	375.540	-0.095	0.192
-198.304	591.490	0.063	0.155
-197.290	55.814	-0.034	0.032
-196.275	-200.000	0.026	-0.239
-195.260	125.853	-0.158	-0.197
-194.246	624.322	0.184	0.457
-193.231	-156.149	0.118	-0.007
-192.217	-50.607	0.137	-0.063
-191.202	218.489	-0.150	0.237
-190.187	372.574	0.086	-0.173
-189.173	269.962	0.135	0.234
-188.158	-100.273	0.039	-0.010
-187.144	800.000	0.030	-0.115
-186.129	800.000	-0.063	0.202
-185.114	-133.340	0.138	-0.017
-184.100	-75.824	-0.218	0.076
-183.085	-122.578	-0.385	-0.062
-182.071	-34.571	0.181	-0.098
-181.056	69.845	-0.116	0.118
-180.042	-146.670	0.222	0.019
-179.027	16.782	0.147	0.114
-178.012	800.000	0.095	-0.343
-176.998	800.000	0.099	-0.293
-175.983	274.422	0.064	0.112
-174.969	403.724	0.152	0.314
-173.954	-64.137	0.110	-0.044
-172.939	-39.454	0.010	-0.005
-171.925	-53.755	0.123	0.055
-170.910	98.166	0.102	0.116
-169.896	159.297	0.090	0.123
-168.881	460.545	0.110	0.243
-167.866	800.000	-0.043	0.179
-166.852	-165.004	0.275	0.012
-165.837	29.651	0.286	0.240
-164.823	575.584	-0.134	0.322
-163.808	-200.000	0.050	-0.308
-162.793	27.207	0.451	0.373
-161.779	537.261	0.061	-0.143
-160.764	-85.852	-0.167	0.051
-159.750	131.261	0.016	-0.020
-158.735	44.303	-0.142	0.129
-157.720	-20.618	-0.121	-0.073
-156.706	-52.398	-0.085	-0.039
-155.691	-62.330	0.026	0.011
-154.677	161.617	-0.089	0.122
-153.662	95.669	0.235	-0.264
-152.647	231.376	-0.058	0.094
-151.633	-200.000	0.027	0.183
-150.618	-95.808	0.235	0.062
-149.604	68.196	0.141	0.142
-148.589	1.293	-0.346	-0.245
-147.574	304.932	0.084	-0.155
-146.560	-200.000	-0.014	0.166
-145.545	267.119	-0.157	-0.271
-144.531	800.000	0.057	0.190
-143.516	-77.394	0.085	0.029
-142.502	567.366	0.055	-0.131
-141.487	-134.205	-0.156	0.019
-140.472	34.439	-0.094	-0.081
-139.458	291.275	0.134	0.241
-138.443	144.000	-0.070	0.092
-137.429	32.996	0.051	0.044
-136.414	-200.000	-0.002	-0.280
-135.399	-98.589	-0.197	-0.050
-134.385	-78.428	0.207	-0.070
-133.370	-1.467	-0.107	-0.074
-132.356	-200.000	-0.027	-0.491
-131.341	291.313	-0.189	0.339
-130.326	-92.612	0.174	0.048
-129.312	-200.000	-0.049	0.253
-128.297	-200.000	-0.007	-0.146
-127.283	37.673	0.181	0.158
-126.268	-112.407	-0.109	0.021
-125.253	126.194	0.095	0.119
-124.239	-35.341	0.157	0.084
-123.224	-117.436	0.313	0.056
-122.210	-37.421	0.018	-0.010
