DTS Sentinel unit serial number:	SN413079Multiplexer serial number:	ORYXHardware model number:	OX4-SRSoftware version number:	ORYX F/W v4.00 Oryx Data Collector v3.7.2.0data status	okinstallation	princeton_trtdifferential loss correction	single-endedforward channel	channel 2reverse channel	N/Adate	2019/09/11time	04:25:10forward acquisition time	60.00reverse acquisition time	0.00gamma	496.2192k internal	0.2329k external	0.2329temperature offset calibration	0.9938default loss term (dB/km)	0.3790temperature slope calibration	1.0000multiplexer offset coefficient	1.0000multiplexer slope coefficient	1.0000fibre end	0.00T internal ref (°C)	29.56T ext. ref 1 (°C)	-0.28T ext. ref 2 (°C)	23.41length (m)	temperature (°C)	Stokes	anti-Stokes-747.200	-148.213	0.499	-0.041
-746.185	-94.978	0.189	0.051
-745.171	-109.715	0.186	-0.039
-744.156	-116.556	0.187	0.035
-743.142	160.048	-0.241	-0.339
-742.127	60.061	0.371	0.369
-741.112	800.000	0.026	-0.079
-740.098	4.763	0.016	0.012
-739.083	-16.697	-0.161	-0.103
-738.069	-141.861	-0.109	0.011
-737.054	-139.542	-0.252	-0.027
-736.039	-83.675	-0.162	-0.052
-735.025	148.316	0.140	-0.190
-734.010	-122.498	-0.111	0.018
-732.996	56.816	-0.230	-0.226
-731.981	-200.000	-0.006	-0.203
-730.966	-107.554	0.026	-0.006
-729.952	-96.519	-0.225	-0.060
-728.937	-161.148	-0.132	-0.007
-727.923	112.489	0.197	-0.240
-726.908	-67.547	-0.128	0.051
-725.894	-163.513	-0.332	0.016
-724.879	800.000	-0.044	-0.165
-723.864	800.000	-0.045	-0.149
-722.850	56.576	-0.280	0.274
-721.835	-200.000	-0.008	-0.232
-720.821	800.000	-0.019	-0.082
-719.806	-128.877	-0.155	-0.022
-718.791	-200.000	-0.019	-0.319
-717.777	301.586	-0.261	0.486
-716.762	800.000	0.068	0.251
-715.748	-200.000	-0.027	-0.194
-714.733	43.061	0.095	-0.087
-713.718	-200.000	0.044	-0.223
-712.704	-107.836	-0.210	-0.046
-711.689	15.797	-0.113	-0.089
-710.675	-144.022	0.165	0.016
-709.660	-159.262	0.338	0.019
-708.645	800.000	-0.036	0.117
-707.631	-200.000	-0.071	-0.339
-706.616	800.000	-0.023	-0.083
-705.602	95.825	0.093	0.106
-704.587	-97.064	0.099	0.026
-703.572	800.000	-0.084	-0.345
-702.558	28.457	-0.275	-0.234
-701.543	-122.228	-0.481	-0.079
-700.529	-95.869	-0.366	-0.098
-699.514	62.437	-0.184	-0.184
-698.499	66.605	0.100	-0.103
-697.485	275.320	0.043	-0.077
-696.470	-23.753	0.183	0.111
-695.456	-66.475	0.208	-0.083
-694.441	-86.795	0.236	0.072
-693.426	19.779	-0.030	0.024
-692.412	581.381	0.092	0.226
-691.397	705.736	-0.108	-0.286
-690.383	-132.190	0.287	0.037
-689.368	229.251	-0.144	0.236
-688.354	-200.000	0.050	-0.336
-687.339	-67.233	-0.019	0.008
-686.324	-141.627	-0.422	0.043
-685.310	-84.827	0.396	-0.125
-684.295	130.249	0.082	0.106
-683.281	-200.000	-0.010	0.253
-682.266	-79.423	0.366	-0.125
-681.251	-200.000	-0.072	-0.336
-680.237	8.961	-0.262	-0.199
-679.222	800.000	-0.044	-0.150
-678.208	-118.841	0.192	-0.034
-677.193	800.000	0.047	-0.141
-676.178	506.265	0.126	-0.293
-675.164	-200.000	0.063	0.348
-674.149	-200.000	0.013	0.069
-673.135	-200.000	-0.019	-0.105
-672.120	270.140	-0.141	0.248
-671.105	17.578	-0.067	0.053
-670.091	6.789	-0.138	-0.103
-669.076	202.224	0.126	-0.196
-668.062	-49.843	-0.233	-0.111
-667.047	-98.598	0.430	-0.110
-666.032	-121.878	0.154	0.025
-665.018	495.398	-0.190	-0.437
-664.003	-194.217	0.138	-0.001
-662.989	-32.490	-0.120	-0.067
-661.974	273.353	-0.070	0.125
-660.959	-200.000	-0.030	-0.190
-659.945	74.505	-0.050	0.053
-658.930	239.282	-0.016	0.027
-657.916	-95.538	0.041	0.011
-656.901	-120.649	0.170	0.029
-655.886	476.219	-0.087	-0.197
-654.872	58.329	-0.110	-0.109
-653.857	158.520	-0.078	-0.109
-652.843	452.511	0.091	0.203
-651.828	16.386	-0.166	-0.131
-650.814	28.572	0.130	-0.110
-649.799	-39.926	0.043	-0.023
-648.784	-98.627	-0.260	-0.067
-647.770	453.330	0.232	0.516
-646.755	388.480	-0.105	0.218
-645.741	800.000	0.060	-0.214
-644.726	100.231	0.171	-0.199
-643.711	311.587	0.112	0.210
-642.697	800.000	0.086	-0.245
-641.682	0.828	-0.079	0.057
-640.668	-43.710	-0.121	0.061
-639.653	179.562	-0.131	-0.192
-638.638	-200.000	-0.041	-0.305
-637.624	-200.000	-0.029	0.194
-636.609	-200.000	0.000	0.252
-635.595	-8.026	-0.081	0.055
-634.580	-136.979	-0.156	-0.018
-633.565	-78.381	-0.197	-0.068
-632.551	800.000	0.032	-0.109
-631.536	478.287	-0.039	-0.087
-630.522	-173.944	-0.240	0.007
-629.507	58.473	-0.068	0.067
-628.492	-200.000	-0.067	-0.361
-627.478	64.502	-0.181	-0.183
-626.463	1.267	0.114	0.082
-625.449	-105.225	-0.011	-0.002
-624.434	-165.101	-0.077	-0.003
-623.419	39.381	0.030	-0.027
-622.405	15.169	-0.059	-0.047
-621.390	-81.602	0.166	-0.055
-620.376	-121.368	0.201	-0.034
-619.361	800.000	-0.027	-0.104
-618.346	-127.948	0.110	0.016
-617.332	-170.076	-0.031	0.001
-616.317	-26.453	-0.011	-0.007
-615.303	800.000	-0.067	-0.214
-614.288	31.647	0.187	-0.162
-613.273	800.000	0.077	0.293
-612.259	-95.998	-0.207	-0.055
-611.244	-35.672	-0.258	-0.140
-610.230	-200.000	-0.027	-0.201
-609.215	32.636	-0.035	0.030
-608.201	280.760	0.074	0.133
-607.186	13.657	0.048	0.037
-606.171	81.142	-0.247	0.267
-605.157	-200.000	-0.047	0.257
-604.142	-0.820	-0.335	-0.238
-603.128	-200.000	-0.010	-0.136
-602.113	17.783	-0.107	-0.085
-601.098	671.688	-0.060	0.157
-600.084	573.020	0.017	0.042
-599.069	299.998	-0.069	0.127
-598.055	282.737	0.048	-0.086
-597.040	114.404	0.114	-0.139
-596.025	-149.078	0.348	0.028
-595.011	88.743	-0.293	-0.327
-593.996	193.630	-0.052	-0.079
-592.982	-116.516	0.101	0.019
-591.967	-92.451	0.195	0.055
-590.952	385.472	0.113	0.233
-589.938	-200.000	-0.012	-0.089
-588.923	-103.465	0.336	0.079
-587.909	-68.156	-0.082	-0.032
-586.894	9.396	0.057	0.043
-585.879	-200.000	0.007	0.164
-584.865	-189.193	-0.195	-0.002
-583.850	176.191	0.044	-0.065
-582.836	-9.127	0.092	0.062
-581.821	-200.000	0.014	-0.076
-580.806	-198.779	-0.257	-0.001
-579.792	-103.946	0.132	0.031
-578.777	23.996	-0.220	0.182
-577.763	94.859	-0.197	0.224
-576.748	-125.251	-0.176	-0.027
-575.733	-169.371	-0.214	0.008
-574.719	357.234	-0.093	-0.185
-573.704	380.231	-0.082	-0.169
-572.690	-135.582	-0.103	-0.012
-571.675	-200.000	-0.037	0.253
-570.661	800.000	0.063	-0.229
-569.646	-200.000	0.010	-0.131
-568.631	13.581	-0.151	-0.117
-567.617	-61.756	-0.082	0.035
-566.602	252.744	0.130	-0.221
-565.588	116.136	-0.084	-0.103
-564.573	148.402	-0.346	-0.467
-563.558	800.000	0.003	-0.015
-562.544	-90.014	-0.356	-0.104
-561.529	-138.363	-0.112	-0.012
-560.515	671.589	0.064	0.166
-559.500	33.408	-0.205	0.178
-558.485	-92.201	0.346	0.098
-557.471	169.114	0.087	-0.124
-556.456	-200.000	-0.014	0.332
-555.442	16.533	-0.180	0.142
-554.427	27.910	0.266	0.224
-553.412	-195.341	0.237	0.002
-552.398	-16.181	-0.068	0.043
-551.383	-200.000	0.027	0.152
-550.369	154.577	-0.184	-0.253
-549.354	147.856	0.127	-0.171
-548.339	-83.574	-0.177	-0.056
-547.325	154.225	-0.189	-0.260
-546.310	-27.235	0.042	0.024
-545.296	53.876	-0.029	0.028
-544.281	-200.000	-0.006	0.054
-543.266	-17.743	0.044	0.028
-542.252	-200.000	-0.044	-0.213
-541.237	247.728	0.131	0.222
-540.223	-200.000	-0.022	-0.292
-539.208	-114.662	0.114	0.022
-538.193	-25.297	-0.345	-0.204
-537.179	-110.850	-0.406	-0.084
-536.164	-108.742	0.282	0.060
-535.150	536.716	-0.042	0.099
-534.135	401.209	0.143	0.300
-533.121	102.356	0.235	-0.275
-532.106	-200.000	0.025	0.270
-531.091	-90.857	0.501	0.144
-530.077	-200.000	-0.007	-0.600
-529.062	24.596	0.034	-0.028
-528.048	-76.563	0.327	-0.115
-527.033	175.815	-0.161	0.233
-526.018	367.912	-0.148	0.298
-525.004	493.270	0.091	0.209
-523.989	-200.000	-0.044	-0.399
-522.975	278.216	-0.143	-0.255
-521.960	-108.563	-0.386	0.083
-520.945	407.504	0.065	0.137
-519.931	-103.563	-0.387	-0.091
-518.916	390.469	0.084	-0.175
-517.902	800.000	-0.113	-0.414
-516.887	-200.000	0.011	-0.308
-515.872	319.479	0.176	0.333
-514.858	-72.119	-0.252	0.093
-513.843	389.983	-0.089	0.185
-512.829	-141.120	0.369	0.038
-511.814	-72.294	0.099	-0.036
-510.799	-99.387	-0.278	-0.070
-509.785	366.662	0.119	-0.240
-508.770	145.149	-0.093	0.124
-507.756	-49.400	-0.032	-0.015
-506.741	180.584	-0.170	0.249
-505.726	96.427	0.114	-0.130
-504.712	656.988	0.015	-0.037
-503.697	-7.818	-0.227	0.153
-502.683	800.000	0.123	0.353
-501.668	-57.779	0.184	0.080
-500.653	-200.000	0.023	-0.216
-499.639	-48.080	-0.242	-0.117
-498.624	-9.959	-0.350	0.232
-497.610	800.000	-0.008	-0.025
-496.595	800.000	0.018	0.057
-495.581	-26.576	0.211	0.123
-494.566	800.000	0.093	-0.359
-493.551	-93.625	-0.043	0.012
-492.537	-200.000	0.053	0.269
-491.522	800.000	-0.123	0.364
-490.508	18.236	-0.246	0.196
-489.493	-129.423	0.221	0.031
-488.478	800.000	-0.067	-0.221
-487.464	517.823	0.013	0.031
-486.449	-73.982	0.278	0.100
-485.435	800.000	0.100	0.362
-484.420	417.759	0.032	0.069
-483.405	170.502	0.129	-0.184
-482.391	50.978	0.206	0.195
-481.376	-117.214	-0.207	0.038
-480.362	-71.307	-0.378	-0.141
-479.347	-200.000	-0.036	-0.183
-478.332	-200.000	0.020	-0.377
-477.318	-200.000	-0.002	0.045
-476.303	-26.793	0.216	-0.126
-475.289	-200.000	-0.023	0.243
-474.274	267.526	0.209	-0.364
-473.259	70.593	0.187	0.193
-472.245	140.280	-0.064	-0.084
-471.230	87.265	0.098	-0.108
-470.216	-200.000	-0.012	0.233
-469.201	48.675	0.330	0.308
-468.186	-174.015	-0.375	-0.011
-467.172	-131.062	0.254	0.034
-466.157	-97.293	-0.360	0.093
-465.143	-95.215	-0.156	0.042
-464.128	299.502	0.187	-0.343
-463.113	293.284	-0.153	0.278
-462.099	-200.000	-0.006	-0.120
-461.084	509.264	-0.032	0.074
-460.070	265.560	0.120	0.209
-459.055	-79.209	0.454	0.153
-458.040	201.001	0.119	-0.182
-457.026	-200.000	-0.006	0.237
-456.011	800.000	-0.014	0.047
-454.997	-200.000	-0.052	-0.282
-453.982	-106.392	0.284	0.063
-452.968	49.697	-0.248	-0.232
-451.953	-200.000	0.013	0.063
-450.938	-82.348	-0.317	-0.103
-449.924	-200.000	0.015	0.101
-448.909	435.464	-0.119	0.257
-447.895	106.898	-0.072	-0.085
-446.880	-106.043	-0.181	0.041
-445.865	287.637	0.074	-0.133
-444.851	8.329	-0.058	-0.043
-443.836	-103.376	-0.324	-0.076
-442.822	22.752	-0.163	0.133
-441.807	-164.002	-0.247	0.011
-440.792	-128.522	-0.258	0.036
-439.778	-200.000	0.031	-0.191
-438.763	-38.109	0.186	0.098
-437.749	60.183	0.162	-0.159
-436.734	0.860	-0.317	-0.226
-435.719	107.877	-0.234	-0.278
-434.705	-17.925	0.264	-0.165
-433.690	-102.998	-0.227	-0.054
-432.676	292.743	0.232	0.420
-431.661	229.375	-0.091	-0.148
-430.646	-126.618	0.211	-0.031
-429.632	-200.000	-0.019	-0.160
-428.617	-87.517	-0.324	-0.097
-427.603	-3.688	-0.175	0.121
-426.588	-200.000	-0.109	-0.000
-425.573	208.802	0.171	0.266
-424.559	-57.137	-0.097	0.043
-423.544	-162.019	0.121	-0.006
-422.530	53.749	-0.153	0.147
-421.515	-103.948	-0.153	0.036
-420.500	-112.045	0.162	0.032
-419.486	800.000	0.057	0.162
-418.471	452.456	0.056	0.124
-417.457	-96.508	-0.134	-0.035
-416.442	158.801	0.129	-0.178
-415.428	131.550	-0.085	-0.109
-414.413	800.000	-0.087	0.321
-413.398	-66.442	-0.112	0.044
-412.384	-105.286	0.103	0.023
-411.369	660.298	-0.050	-0.128
-410.355	-200.000	-0.026	-0.183
-409.340	509.844	-0.095	0.221
-408.325	-6.126	0.120	0.081
-407.311	-110.440	0.300	0.062
-406.296	-104.919	-0.217	0.049
-405.282	762.458	0.169	-0.455
-404.267	-1.238	-0.429	-0.301
-403.252	-66.842	0.235	-0.092
-402.238	800.000	-0.077	0.324
-401.223	-97.566	0.135	-0.035
-400.209	-94.452	-0.284	0.077
-399.194	-35.901	-0.263	0.142
-398.179	214.586	-0.169	-0.266
-397.165	87.741	0.333	0.367
-396.150	579.380	-0.033	0.080
-395.136	169.456	0.113	0.161
-394.121	-49.386	0.213	0.101
-393.106	55.520	-0.292	0.280
-392.092	301.033	-0.056	0.102
-391.077	349.052	0.081	-0.160
-390.063	-123.186	-0.088	-0.014
-389.048	-27.360	0.393	-0.227
-388.033	-69.649	0.078	0.030
-387.019	77.282	-0.130	0.137
-386.004	67.049	0.114	-0.115
-384.990	-200.000	-0.002	-0.124
-383.975	-4.486	0.044	0.030
-382.960	544.158	0.181	-0.429
-381.946	-73.299	0.288	0.105
-380.931	682.858	0.159	-0.411
-379.917	-200.000	-0.014	-0.089
-378.902	78.934	0.129	-0.137
-377.888	3.401	-0.199	-0.144
-376.873	-131.521	0.384	-0.050
-375.858	-134.112	0.089	0.011
-374.844	599.685	-0.039	0.095
-373.829	544.075	0.023	0.054
-372.815	-200.000	-0.021	0.123
-371.800	-15.058	0.044	0.028
-370.785	-183.497	0.233	0.004
-369.771	47.036	0.245	-0.226
-368.756	-51.427	0.261	-0.121
-367.742	314.979	0.035	-0.066
-366.727	-124.820	-0.462	0.071
-365.712	-200.000	-0.022	0.290
-364.698	39.348	-0.105	0.093
-363.683	-75.100	0.047	-0.017
-362.669	-86.581	0.050	0.015
-361.654	30.438	0.050	0.042
-360.639	800.000	0.019	-0.079
-359.625	-60.918	-0.280	0.118
-358.610	-200.000	-0.054	0.279
-357.596	33.855	-0.087	0.075
-356.581	19.969	-0.049	0.039
-355.566	98.620	0.240	-0.274
-354.552	-97.304	0.288	-0.075
-353.537	-9.790	-0.253	-0.167
-352.523	23.248	0.139	0.113
-351.508	800.000	-0.066	-0.226
-350.493	165.775	0.051	0.072
-349.479	-200.000	0.059	0.295
-348.464	-134.662	-0.115	0.014
-347.450	176.702	0.090	0.130
-346.435	34.850	-0.212	0.184
-345.420	-149.683	0.185	-0.014
-344.406	158.434	-0.008	0.011
-343.391	-51.225	0.264	0.123
-342.377	-126.066	0.061	-0.009
-341.362	744.032	-0.029	0.078
-340.348	800.000	-0.147	0.482
-339.333	-64.218	-0.282	-0.114
-338.318	14.026	-0.108	-0.083
-337.304	19.764	-0.139	0.111
-336.289	-107.411	-0.128	0.028
-335.275	19.466	0.236	-0.188
-334.260	-177.620	-0.117	-0.003
-333.245	33.714	-0.118	0.101
-332.231	800.000	-0.049	0.137
-331.216	58.517	0.244	-0.237
-330.202	-180.380	0.123	-0.003
-329.187	-148.798	0.513	-0.041
-328.172	-178.164	0.171	0.004
-327.158	-131.935	0.059	-0.008
-326.143	-122.347	-0.170	-0.027
-325.129	-200.000	0.015	0.104
-324.114	800.000	0.035	-0.134
-323.099	468.618	0.046	-0.102
-322.085	-66.470	-0.128	-0.050
-321.070	265.481	0.030	0.051
-320.056	800.000	-0.074	0.229
-319.041	278.208	0.083	-0.147
-318.026	-89.478	-0.376	0.109
-317.012	9.421	-0.198	-0.148
-315.997	173.845	0.323	0.462
-314.983	104.886	0.251	-0.293
-313.968	-121.720	-0.072	-0.012
-312.953	93.646	-0.114	-0.128
-311.939	370.507	0.166	0.333
-310.924	-176.603	-0.276	0.007
-309.910	421.176	0.027	-0.057
-308.895	187.647	0.065	0.096
-307.880	-106.932	-0.333	-0.073
-306.866	-83.057	0.224	-0.072
-305.851	800.000	-0.023	0.076
-304.837	-200.000	-0.003	0.109
-303.822	800.000	-0.097	0.286
-302.807	-47.545	0.330	-0.159
-301.793	-102.849	0.079	-0.019
-300.778	-200.000	-0.058	0.335
-299.764	-0.040	-0.337	0.238
-298.749	-96.266	0.220	-0.058
-297.735	-77.526	-0.192	-0.066
-296.720	42.273	-0.325	-0.292
-295.705	-200.000	0.010	0.183
-294.691	-200.000	0.014	0.188
-293.676	143.660	0.173	0.227
-292.662	800.000	-0.024	0.087
-291.647	-174.612	-0.211	-0.006
-290.632	230.676	0.096	-0.155
-289.618	152.757	-0.176	0.239
-288.603	138.853	0.072	0.093
-287.589	-200.000	-0.009	-0.335
-286.574	-123.475	-0.171	0.027
-285.559	-81.146	-0.196	0.064
-284.545	-27.710	-0.150	-0.086
-283.530	41.181	0.125	-0.112
-282.516	-146.580	-0.310	-0.027
-281.501	361.280	-0.056	0.111
-280.486	343.852	-0.183	0.356
-279.472	-127.312	0.166	0.024
-278.457	-200.000	-0.016	0.239
-277.443	-80.226	-0.232	0.077
-276.428	179.890	0.033	-0.048
-275.413	551.875	-0.127	0.302
-274.399	-28.235	0.220	-0.126
-273.384	-90.035	0.192	0.055
-272.370	68.648	0.113	0.114
-271.355	106.979	0.194	-0.228
-270.340	-24.560	-0.300	-0.177
-269.326	-81.792	0.244	-0.079
-268.311	-200.000	-0.027	0.371
-267.297	91.045	0.062	0.069
-266.282	9.109	-0.144	-0.108
-265.267	14.110	0.290	0.223
-264.253	183.704	0.057	0.083
-263.238	104.126	0.281	0.326
-262.224	307.088	-0.082	0.150
-261.209	17.180	-0.180	0.141
-260.195	-123.283	-0.267	-0.042
-259.180	419.797	0.081	-0.171
-258.165	-200.000	0.005	0.273
-257.151	800.000	-0.064	0.237
-256.136	-140.973	0.242	-0.025
-255.122	-101.273	0.329	0.079
-254.107	-200.000	-0.005	0.053
-253.092	142.718	0.035	0.046
-252.078	336.274	0.139	-0.267
-251.063	35.499	-0.334	-0.290
-250.049	-17.942	0.171	0.106
-249.034	-170.678	-0.204	-0.007
-248.019	-23.865	0.165	-0.097
-247.005	800.000	0.035	-0.137
-245.990	146.740	0.222	-0.295
-244.976	-155.903	0.226	0.014
-243.961	59.017	0.087	-0.085
-242.946	800.000	-0.032	0.114
-241.932	-29.786	-0.303	0.171
-240.917	800.000	0.063	0.264
-239.903	88.784	-0.095	-0.104
-238.888	58.872	-0.303	-0.295
-237.873	-200.000	-0.010	0.170
-236.859	33.468	-0.084	-0.072
-235.844	8.281	-0.124	-0.092
-234.830	246.794	0.048	0.080
-233.815	-33.042	0.455	-0.249
-232.800	-37.416	-0.126	0.066
-231.786	158.840	0.035	0.048
-230.771	-200.000	-0.006	-0.145
-229.757	-200.000	0.038	-0.180
-228.742	-200.000	-0.014	-0.195
-227.727	800.000	0.014	-0.059
-226.713	-200.000	-0.036	0.245
-225.698	-28.864	-0.212	0.120
-224.684	-143.951	0.439	-0.041
-223.669	267.671	0.203	0.350
-222.655	-200.000	-0.018	0.214
-221.640	39.725	0.107	-0.095
-220.625	92.877	0.120	-0.134
-219.611	-38.842	-0.213	0.111
-218.596	70.772	-0.077	0.079
-217.582	-200.000	0.019	0.310
-216.567	-200.000	0.013	0.239
-215.552	77.770	0.209	-0.220
-214.538	-100.666	-0.158	0.039
-213.523	528.123	-0.087	0.204
-212.509	800.000	0.062	0.257
-211.494	-84.548	0.338	0.105
-210.479	-124.843	0.266	0.040
-209.465	-200.000	0.007	0.052
-208.450	-200.000	0.017	-0.123
-207.436	-73.312	-0.186	-0.067
-206.421	-29.015	0.083	-0.047
-205.406	82.646	0.146	0.156
-204.392	124.459	0.082	0.101
-203.377	-100.264	0.160	-0.039
-202.363	275.630	-0.047	-0.082
-201.348	-200.000	0.003	0.070
-200.333	-200.000	-0.002	0.270
-199.319	800.000	-0.064	0.182
-198.304	15.588	0.221	0.172
-197.290	-42.285	0.041	-0.021
-196.275	-200.000	0.025	-0.334
-195.260	-200.000	0.045	-0.198
-194.246	-3.923	0.403	-0.276
-193.231	155.079	0.125	-0.169
-192.217	-200.000	0.002	-0.188
-191.202	-22.384	-0.225	0.135
-190.187	-200.000	-0.031	0.359
-189.173	-200.000	0.070	0.356
-188.158	-57.947	-0.192	0.083
-187.144	800.000	0.107	-0.361
-186.129	-195.148	-0.177	0.001
-185.114	255.951	-0.038	-0.065
-184.100	95.204	0.274	-0.308
-183.085	577.881	-0.049	-0.118
-182.071	-200.000	-0.073	-0.389
-181.056	325.410	0.163	-0.307
-180.042	190.100	0.096	0.142
-179.027	-46.340	0.285	0.138
-178.012	-200.000	0.032	0.208
-176.998	61.079	0.025	-0.024
-175.983	-200.000	-0.093	0.455
-174.969	-200.000	0.007	-0.274
-173.954	73.679	0.252	-0.261
-172.939	800.000	0.112	-0.402
-171.925	-200.000	-0.025	-0.410
-170.910	175.192	0.108	-0.154
-169.896	-200.000	-0.020	-0.319
-168.881	-200.000	0.008	-0.254
-167.866	-78.322	0.053	-0.018
-166.852	28.103	0.068	0.057
-165.837	-9.029	0.345	0.227
-164.823	12.435	0.180	0.136
-163.808	-5.682	-0.098	0.066
-162.793	-144.616	-0.146	-0.013
-161.779	68.108	0.147	-0.148
-160.764	-90.821	-0.291	-0.083
-159.750	-87.427	-0.380	0.113
-158.735	112.503	-0.218	0.260
-157.720	86.598	0.231	-0.251
-156.706	-39.843	-0.154	-0.079
-155.691	-200.000	-0.023	-0.217
-154.677	51.518	0.371	-0.347
-153.662	-200.000	0.054	-0.238
-152.647	-125.109	0.426	-0.064
-151.633	-200.000	-0.039	-0.348
-150.618	-23.308	-0.210	0.124
-149.604	100.201	0.156	0.178
-148.589	22.159	-0.073	-0.059
-147.574	-200.000	0.039	-0.210
-146.560	-26.844	-0.185	-0.107
-145.545	-86.206	-0.181	0.055
-144.531	-71.402	-0.239	-0.088
-143.516	-42.031	0.334	0.168
-142.502	-75.323	-0.197	-0.069
-141.487	-142.354	-0.137	0.013
-140.472	-108.499	-0.103	-0.022
-139.458	-29.254	0.147	-0.083
-138.443	-0.638	-0.233	0.163
-137.429	184.677	0.226	-0.329
-136.414	405.761	-0.170	0.352
-135.399	-73.850	0.234	-0.084
-134.385	-151.488	-0.314	0.023
-133.370	142.179	0.356	0.464
-132.356	663.500	0.118	-0.298
-131.341	800.000	-0.078	-0.261
-130.326	-46.793	-0.213	0.102
-129.312	-81.703	-0.055	0.018
-128.297	-49.267	0.161	-0.076
-127.283	-200.000	-0.028	0.173
-126.268	-200.000	-0.021	-0.198
-125.253	-29.751	0.237	0.133
-124.239	253.620	-0.029	-0.048
-123.224	46.643	0.235	0.215
-122.210	-7.947	0.262	0.174
