DTS Sentinel unit serial number:	SN413079Multiplexer serial number:	ORYXHardware model number:	OX4-SRSoftware version number:	ORYX F/W v4.00 Oryx Data Collector v3.7.2.0data status	okinstallation	princeton_trtdifferential loss correction	single-endedforward channel	channel 2reverse channel	N/Adate	2019/09/13time	13:19:34forward acquisition time	60.00reverse acquisition time	0.00gamma	496.2192k internal	0.2315k external	0.2315temperature offset calibration	1.0208default loss term (dB/km)	0.3790temperature slope calibration	1.0000multiplexer offset coefficient	1.0000multiplexer slope coefficient	1.0000fibre end	0.00T internal ref (°C)	34.94T ext. ref 1 (°C)	4.57T ext. ref 2 (°C)	31.69length (m)	temperature (°C)	Stokes	anti-Stokes-747.200	218.841	0.103	-0.167
-746.185	-200.000	-0.092	0.503
-745.171	800.000	-0.018	-0.078
-744.156	-200.000	0.065	0.325
-743.142	-200.000	-0.017	0.078
-742.127	16.842	0.174	0.140
-741.112	697.164	-0.088	0.235
-740.098	462.084	0.186	0.420
-739.083	-31.841	-0.142	0.081
-738.069	-200.000	-0.006	0.139
-737.054	-200.000	0.041	0.295
-736.039	203.336	-0.030	0.047
-735.025	159.266	-0.157	0.221
-734.010	800.000	0.104	-0.358
-732.996	-116.826	-0.311	-0.058
-731.981	301.991	-0.240	-0.450
-730.966	22.566	0.183	-0.152
-729.952	37.903	-0.074	0.067
-728.937	198.992	0.121	0.188
-727.923	82.027	0.162	-0.178
-726.908	-51.767	-0.235	0.111
-725.894	-85.542	-0.089	0.028
-724.879	596.525	-0.025	-0.064
-723.864	800.000	-0.056	0.238
-722.850	60.486	0.038	-0.038
-721.835	-69.673	-0.360	0.139
-720.821	404.748	0.099	0.210
-719.806	-125.801	-0.136	-0.021
-718.791	-146.108	-0.219	-0.020
-717.777	-41.992	0.222	0.115
-716.762	-128.359	-0.235	0.034
-715.748	328.475	-0.115	-0.225
-714.733	-200.000	0.020	-0.099
-713.718	-200.000	0.037	-0.243
-712.704	-142.772	0.091	-0.009
-711.689	-200.000	0.089	-0.443
-710.675	-43.124	-0.221	-0.114
-709.660	-200.000	-0.063	-0.389
-708.645	-200.000	0.030	0.206
-707.631	-200.000	0.012	0.139
-706.616	-102.192	-0.291	-0.071
-705.602	256.308	0.181	-0.315
-704.587	112.084	-0.108	0.132
-703.572	-199.689	0.372	0.002
-702.558	-47.694	-0.077	0.038
-701.543	-125.600	0.157	0.024
-700.529	340.022	0.155	-0.305
-699.514	5.592	-0.114	-0.085
-698.499	204.035	-0.097	0.152
-697.485	141.146	-0.216	0.289
-696.470	-69.619	-0.438	-0.169
-695.456	45.430	-0.180	-0.168
-694.441	800.000	0.049	-0.157
-693.426	341.710	0.038	-0.075
-692.412	800.000	-0.059	-0.209
-691.397	800.000	0.076	-0.248
-690.383	124.122	0.031	0.040
-689.368	-129.635	-0.189	0.026
-688.354	0.256	-0.213	0.154
-687.339	-39.416	-0.138	-0.073
-686.324	-200.000	-0.162	0.000
-685.310	-117.763	0.230	-0.042
-684.295	-79.237	-0.331	0.113
-683.281	218.783	0.168	-0.271
-682.266	-41.074	-0.399	0.208
-681.251	276.138	-0.106	-0.190
-680.237	-99.202	-0.161	-0.041
-679.222	-63.828	-0.262	0.109
-678.208	-200.000	0.057	-0.357
-677.193	800.000	0.019	-0.072
-676.178	-200.000	-0.087	0.000
-675.164	243.826	-0.239	0.406
-674.149	452.622	-0.098	-0.219
-673.135	92.073	-0.081	-0.092
-672.120	11.473	0.186	0.144
-671.105	-72.553	0.275	-0.103
-670.091	-200.000	0.028	-0.123
-669.076	-160.454	0.339	0.018
-668.062	-200.000	0.027	0.237
-667.047	-83.475	0.214	-0.069
-666.032	800.000	0.032	-0.115
-665.018	712.735	0.051	-0.137
-664.003	79.798	-0.101	-0.109
-662.989	57.500	-0.156	-0.154
-661.974	307.071	-0.104	0.196
-660.959	-35.110	-0.256	-0.141
-659.945	-143.157	-0.085	-0.008
-658.930	-200.000	-0.020	-0.194
-657.916	-30.149	0.206	0.118
-656.901	800.000	-0.043	-0.165
-655.886	800.000	-0.103	-0.427
-654.872	36.218	-0.233	-0.207
-653.857	119.260	-0.169	0.211
-652.843	5.799	-0.039	0.029
-651.828	-156.866	-0.296	-0.018
-650.814	109.496	-0.135	-0.163
-649.799	-112.917	-0.086	-0.017
-648.784	-53.061	0.156	-0.072
-647.770	-200.000	-0.030	0.305
-646.755	-139.144	-0.219	-0.024
-645.741	36.042	-0.244	-0.217
-644.726	-36.392	0.105	0.057
-643.711	-200.000	-0.011	-0.049
-642.697	28.838	0.018	0.015
-641.682	-200.000	-0.029	-0.218
-640.668	-200.000	-0.032	0.382
-639.653	-33.198	-0.167	0.093
-638.638	18.871	-0.231	-0.186
-637.624	-42.665	0.181	0.093
-636.609	248.029	-0.125	-0.213
-635.595	800.000	0.107	0.367
-634.580	5.222	-0.070	-0.052
-633.565	256.434	-0.199	-0.344
-632.551	156.921	-0.200	-0.279
-631.536	-200.000	0.047	-0.290
-630.522	-200.000	-0.017	-0.085
-629.507	147.535	0.113	-0.154
-628.492	40.107	0.064	-0.058
-627.478	-61.016	-0.207	0.088
-626.463	800.000	0.067	-0.211
-625.449	-75.158	-0.333	0.120
-624.434	189.203	0.177	-0.267
-623.419	-61.317	-0.183	0.078
-622.405	-200.000	0.018	0.193
-621.390	-96.453	-0.361	-0.096
-620.376	-146.837	-0.310	-0.027
-619.361	300.443	0.046	-0.086
-618.346	-101.694	0.193	-0.047
-617.332	-157.788	0.264	-0.016
-616.317	-40.622	0.063	0.033
-615.303	279.681	0.078	-0.141
-614.288	19.490	-0.103	0.084
-613.273	-12.942	-0.363	-0.238
-612.259	-151.323	-0.288	-0.022
-611.244	140.427	0.143	-0.191
-610.230	422.017	0.253	-0.547
-609.215	-110.429	0.219	-0.046
-608.201	89.712	0.281	-0.316
-607.186	-200.000	-0.038	-0.391
-606.171	-200.000	0.040	0.269
-605.157	-114.239	-0.364	-0.071
-604.142	-108.707	-0.098	0.021
-603.128	-88.765	-0.166	-0.050
-602.113	-200.000	-0.015	-0.170
-601.098	-35.083	-0.145	-0.080
-600.084	-22.039	0.254	0.155
-599.069	23.920	0.155	-0.129
-598.055	34.488	0.206	-0.181
-597.040	-200.000	-0.006	-0.223
-596.025	-113.948	-0.193	0.038
-595.011	177.331	0.040	0.059
-593.996	232.194	-0.036	0.059
-592.982	505.023	-0.096	0.224
-591.967	-178.462	-0.083	-0.002
-590.952	800.000	-0.034	0.111
-589.938	-84.513	-0.206	0.065
-588.923	-200.000	-0.025	0.113
-587.909	65.106	-0.111	-0.113
-586.894	161.693	0.022	-0.031
-585.879	158.579	0.213	-0.298
-584.865	800.000	0.056	0.217
-583.850	56.411	-0.197	0.193
-582.836	95.638	0.088	0.101
-581.821	-200.000	-0.049	0.262
-580.806	360.520	-0.168	-0.339
-579.792	21.944	0.023	-0.019
-578.777	-132.470	0.421	0.055
-577.763	151.856	0.087	0.119
-576.748	41.043	0.139	0.126
-575.733	-79.084	0.382	-0.131
-574.719	325.035	0.122	0.234
-573.704	-200.000	0.025	-0.182
-572.690	-93.469	0.281	0.078
-571.675	-200.000	-0.018	0.110
-570.661	800.000	-0.044	0.137
-569.646	-110.167	0.369	-0.078
-568.631	-76.776	-0.292	0.103
-567.617	-23.392	0.164	0.099
-566.602	-173.375	-0.288	0.009
-565.588	55.729	-0.070	0.069
-564.573	93.316	0.210	-0.240
-563.558	-104.311	-0.139	-0.032
-562.544	-99.653	0.443	-0.112
-561.529	-53.849	-0.182	0.083
-560.515	254.037	0.060	0.104
-559.500	-47.981	0.282	0.137
-558.485	-200.000	-0.063	0.326
-557.471	30.010	0.055	-0.047
-556.456	-12.869	0.036	0.024
-555.442	239.351	0.100	0.167
-554.427	-179.591	0.073	-0.002
-553.412	-78.375	-0.162	0.056
-552.398	800.000	0.103	0.324
-551.383	-64.719	-0.217	-0.089
-550.369	165.083	-0.281	-0.399
-549.354	127.228	-0.137	-0.175
-548.339	800.000	-0.062	-0.261
-547.325	81.320	0.291	0.316
-546.310	-200.000	-0.082	0.401
-545.296	-138.824	0.181	0.020
-544.281	51.356	-0.109	-0.104
-543.266	-87.205	-0.193	-0.059
-542.252	-122.349	0.345	-0.057
-541.237	-59.606	-0.094	-0.040
-540.223	-81.242	-0.186	0.062
-539.208	-200.000	0.014	-0.283
-538.193	475.788	0.109	0.249
-537.179	87.733	-0.165	-0.183
-536.164	-30.075	-0.216	-0.123
-535.150	-200.000	0.002	-0.124
-534.135	188.110	-0.162	-0.243
-533.121	-200.000	-0.003	0.042
-532.106	-105.410	-0.127	0.029
-531.091	163.282	0.179	0.253
-530.077	-95.894	-0.227	-0.061
-529.062	45.218	-0.228	-0.211
-528.048	136.276	0.060	0.078
-527.033	-120.426	-0.065	0.011
-526.018	98.890	-0.104	0.121
-525.004	-107.387	0.129	-0.028
-523.989	-29.198	0.227	-0.131
-522.975	31.827	-0.145	0.125
-521.960	-115.274	0.452	0.086
-520.945	471.154	0.100	-0.227
-519.931	224.469	-0.186	-0.302
-518.916	7.720	0.109	0.082
-517.902	395.224	0.210	-0.440
-516.887	-151.219	-0.298	-0.022
-515.872	81.281	0.069	-0.075
-514.858	-200.000	0.028	-0.273
-513.843	-200.000	0.076	0.416
-512.829	-2.943	0.211	-0.148
-511.814	40.130	0.081	0.073
-510.799	-136.857	-0.254	-0.029
-509.785	-187.276	0.210	0.003
-508.770	-200.000	0.062	-0.323
-507.756	-131.717	0.085	0.011
-506.741	68.795	-0.160	-0.165
-505.726	-91.389	0.286	0.082
-504.712	525.326	0.055	-0.131
-503.697	47.842	0.093	-0.088
-502.683	800.000	-0.058	-0.225
-501.668	-95.717	-0.101	0.027
-500.653	-200.000	-0.013	0.177
-499.639	78.317	0.128	0.137
-498.624	71.136	-0.143	0.149
-497.610	-117.651	0.213	-0.039
-496.595	-60.209	-0.309	0.132
-495.581	82.538	0.228	0.248
-494.566	157.394	-0.215	0.299
-493.551	283.471	0.183	-0.329
-492.537	-72.230	-0.193	-0.072
-491.522	125.655	-0.120	0.151
-490.508	287.653	0.074	-0.135
-489.493	-110.117	-0.035	0.007
-488.478	-57.895	0.280	0.123
-487.464	-200.000	0.002	-0.149
-486.449	69.027	-0.121	-0.125
-485.435	29.859	0.116	0.099
-484.420	-37.814	0.126	0.067
-483.405	157.066	0.186	0.258
-482.391	-142.657	-0.210	-0.021
-481.376	-168.376	0.174	0.007
-480.362	36.930	-0.351	0.311
-479.347	-35.556	-0.149	0.081
-478.332	-28.590	-0.243	0.141
-477.318	800.000	-0.040	0.165
-476.303	12.641	-0.219	-0.170
-475.289	-90.509	-0.189	0.055
-474.274	800.000	0.104	0.302
-473.259	-61.786	0.069	-0.029
-472.245	-200.000	-0.066	-0.357
-471.230	112.917	-0.147	-0.178
-470.216	-200.000	-0.082	0.420
-469.201	-147.169	-0.345	0.030
-468.186	800.000	0.142	0.404
-467.172	-11.117	0.104	0.069
-466.157	-74.259	0.259	-0.094
-465.143	-69.622	-0.319	-0.122
-464.128	-129.948	0.041	0.006
-463.113	-84.443	-0.039	0.012
-462.099	210.492	0.205	0.323
-461.084	-62.321	0.280	0.117
-460.070	202.010	-0.099	-0.153
-459.055	-17.939	-0.046	-0.029
-458.040	-41.473	0.182	-0.094
-457.026	79.314	-0.144	0.155
-456.011	-70.427	0.200	0.076
-454.997	-95.300	-0.192	-0.052
-453.982	-200.000	-0.018	0.377
-452.968	42.489	-0.219	0.200
-451.953	-117.619	-0.306	-0.055
-450.938	-200.000	-0.004	-0.109
-449.924	34.450	-0.007	-0.006
-448.909	-200.000	-0.018	0.128
-447.895	497.270	-0.070	0.161
-446.880	-200.000	0.011	0.086
-445.865	101.487	-0.186	-0.217
-444.851	196.806	-0.002	-0.003
-443.836	800.000	-0.094	-0.408
-442.822	118.679	-0.153	0.190
-441.807	22.242	0.109	0.089
-440.792	-200.000	-0.002	0.221
-439.778	800.000	0.017	0.068
-438.763	-108.329	0.299	0.065
-437.749	-52.831	-0.188	-0.087
-436.734	800.000	0.023	-0.079
-435.719	45.505	0.075	-0.070
-434.705	-138.194	-0.179	-0.020
-433.690	121.950	-0.277	-0.346
-432.676	620.674	0.159	0.401
-431.661	-72.654	0.086	-0.032
-430.646	-24.270	-0.258	0.154
-429.632	421.765	0.044	-0.095
-428.617	456.353	0.092	0.204
-427.603	413.486	-0.055	0.116
-426.588	76.758	-0.176	-0.187
-425.573	-200.000	0.016	0.205
-424.559	86.273	0.123	0.136
-423.544	-113.010	-0.313	0.062
-422.530	-200.000	0.006	-0.094
-421.515	-67.582	-0.287	-0.113
-420.500	120.397	-0.044	-0.055
-419.486	89.479	0.136	0.152
-418.471	-113.837	-0.060	0.012
-417.457	31.396	0.111	-0.096
-416.442	-200.000	-0.048	0.373
-415.428	63.257	0.079	0.079
-414.413	800.000	0.089	0.265
-413.398	-3.599	0.207	0.144
-412.384	88.093	0.064	-0.071
-411.369	-200.000	0.053	-0.337
-410.355	-200.000	-0.027	0.268
-409.340	-13.320	0.067	-0.043
-408.325	213.020	-0.061	0.097
-407.311	129.382	-0.035	-0.045
-406.296	-96.709	-0.272	-0.072
-405.282	-200.000	0.024	0.298
-404.267	800.000	0.046	-0.157
-403.252	-22.435	0.261	0.158
-402.238	-200.000	-0.021	0.169
-401.223	-127.157	0.233	-0.034
-400.209	-121.925	-0.450	0.074
-399.194	-117.294	0.230	0.042
-398.179	22.156	-0.179	-0.146
-397.165	153.322	0.187	-0.256
-396.150	-200.000	0.020	0.226
-395.136	-133.585	-0.127	0.016
-394.121	-198.968	0.170	0.001
-393.106	13.955	0.289	-0.225
-392.092	-138.067	-0.190	0.021
-391.077	83.257	0.107	-0.116
-390.063	480.805	-0.085	0.194
-389.048	800.000	0.074	0.259
-388.033	140.457	-0.284	-0.374
-387.019	112.330	0.066	0.079
-386.004	165.649	0.107	-0.151
-384.990	-85.712	-0.213	0.066
-383.975	-161.191	0.117	0.006
-382.960	126.955	0.126	-0.160
-381.946	-13.646	-0.141	0.091
-380.931	121.767	0.210	0.262
-379.917	800.000	-0.055	0.169
-378.902	-200.000	0.012	0.323
-377.888	26.553	-0.164	0.137
-376.873	-175.756	0.116	-0.003
-375.858	128.702	0.164	0.209
-374.844	-200.000	0.002	-0.419
-373.829	-156.572	-0.063	0.004
-372.815	-200.000	-0.028	0.267
-371.800	-28.836	0.304	-0.175
-370.785	800.000	-0.067	0.246
-369.771	304.179	-0.129	-0.239
-368.756	-50.734	0.135	0.063
-367.742	188.704	0.264	0.394
-366.727	77.937	0.294	0.313
-365.712	-200.000	0.013	-0.085
-364.698	99.380	-0.202	-0.234
-363.683	-200.000	0.019	0.093
-362.669	8.904	-0.022	0.017
-361.654	-23.748	0.172	0.103
-360.639	-200.000	-0.012	0.693
-359.625	-57.196	-0.328	-0.144
-358.610	-50.333	-0.225	0.106
-357.596	372.104	-0.132	0.267
-356.581	-26.836	-0.147	0.086
-355.566	-17.309	0.061	0.038
-354.552	571.467	-0.072	0.175
-353.537	800.000	0.040	-0.114
-352.523	-200.000	-0.012	-0.053
-351.508	-127.029	0.147	0.022
-350.493	-90.272	-0.175	0.051
-349.479	-199.447	-0.206	0.001
-348.464	-113.101	0.347	-0.068
-347.450	-200.000	0.023	0.211
-346.435	270.809	-0.047	-0.082
-345.420	306.078	-0.097	0.179
-344.406	297.634	-0.039	-0.072
-343.391	357.987	-0.083	0.166
-342.377	402.504	-0.076	0.159
-341.362	-89.236	-0.229	-0.067
-340.348	34.338	0.236	-0.206
-339.333	-200.000	0.006	0.370
-338.318	256.288	0.128	0.219
-337.304	800.000	0.109	-0.458
-336.289	78.026	-0.219	0.233
-335.275	800.000	0.149	-0.500
-334.260	288.131	0.014	0.024
-333.245	2.690	-0.204	-0.148
-332.231	21.200	-0.160	-0.130
-331.216	74.784	-0.156	0.164
-330.202	-103.859	-0.192	0.045
-329.187	-82.963	-0.150	-0.048
-328.172	-66.547	-0.188	0.074
-327.158	80.809	0.183	0.197
-326.143	128.313	0.151	0.192
-325.129	-200.000	0.020	0.173
-324.114	-2.259	0.328	-0.230
-323.099	696.370	0.015	-0.038
-322.085	-106.411	0.323	-0.072
-321.070	127.460	-0.095	-0.120
-320.056	-100.410	0.267	0.066
-319.041	383.619	-0.060	-0.123
-318.026	491.835	-0.090	-0.205
-317.012	-200.000	0.031	0.000
-315.997	800.000	0.041	-0.170
-314.983	-200.000	0.044	-0.242
-313.968	-78.719	-0.209	0.071
-312.953	-4.891	-0.323	-0.222
-311.939	-135.911	0.107	0.013
-310.924	-200.000	0.006	0.123
-309.910	-105.534	-0.218	-0.049
-308.895	627.935	-0.034	-0.084
-307.880	40.178	-0.106	0.095
-306.866	33.352	0.220	0.191
-305.851	-66.950	-0.191	-0.075
-304.837	113.944	-0.144	0.174
-303.822	71.547	0.302	0.312
-302.807	-81.901	0.177	0.058
-301.793	-153.626	-0.218	0.015
-300.778	38.788	0.246	0.219
-299.764	-69.558	0.159	-0.061
-298.749	-39.296	0.206	0.108
-297.735	-8.856	-0.141	0.094
-296.720	361.020	-0.038	-0.075
-295.705	-112.986	0.044	0.009
-294.691	217.925	-0.114	-0.180
-293.676	-100.041	-0.225	-0.056
-292.662	146.543	0.098	0.131
-291.647	441.555	-0.018	-0.039
-290.632	53.856	0.199	-0.191
-289.618	85.119	-0.010	-0.011
-288.603	-133.295	0.269	-0.034
-287.589	-159.049	-0.200	0.011
-286.574	31.582	-0.268	-0.230
-285.559	195.962	0.202	-0.307
-284.545	-200.000	-0.006	-0.208
-283.530	800.000	-0.075	-0.308
-282.516	156.057	0.050	-0.069
-281.501	-1.479	-0.326	0.229
-280.486	-168.751	-0.032	0.001
-279.472	-200.000	-0.013	-0.194
-278.457	-93.597	-0.022	0.006
-277.443	-134.496	-0.185	0.023
-276.428	56.786	0.179	-0.173
-275.413	-20.310	0.393	-0.241
-274.399	800.000	-0.059	-0.193
-273.384	213.260	0.131	-0.206
-272.370	249.736	-0.065	0.110
-271.355	104.173	0.377	0.442
-270.340	-114.023	0.189	0.037
-269.326	-101.404	0.101	0.024
-268.311	360.335	-0.144	-0.288
-267.297	-63.813	0.171	0.070
-266.282	68.312	-0.277	-0.282
-265.267	-38.331	0.406	0.214
-264.253	43.584	0.231	-0.210
-263.238	95.917	-0.278	0.316
-262.224	-200.000	0.030	0.346
-261.209	-12.931	-0.161	-0.104
-260.195	76.941	-0.114	0.121
-259.180	-154.759	-0.223	-0.015
-258.165	-130.501	0.139	0.019
-257.151	211.148	0.153	-0.239
-256.136	-200.000	0.017	0.126
-255.122	53.199	0.488	0.464
-254.107	800.000	0.020	0.084
-253.092	-119.069	0.240	-0.042
-252.078	102.167	0.100	-0.116
-251.063	-139.929	0.373	0.039
-250.049	24.553	-0.204	0.168
-249.034	57.667	-0.204	0.199
-248.019	-11.117	0.149	0.098
-247.005	324.233	0.056	-0.107
-245.990	-72.168	-0.217	0.080
-244.976	-200.000	0.035	0.163
-243.961	474.597	-0.039	0.087
-242.946	257.875	0.098	-0.168
-241.932	-200.000	0.055	-0.289
-240.917	-63.875	-0.094	-0.038
-239.903	437.912	0.167	-0.361
-238.888	-200.000	0.050	-0.231
-237.873	-200.000	-0.009	0.312
-236.859	-95.017	-0.030	0.008
-235.844	-200.000	0.030	-0.160
-234.830	4.774	0.249	0.182
-233.815	-200.000	-0.078	-0.393
-232.800	-188.351	0.402	0.005
-231.786	-103.329	0.177	-0.041
-230.771	800.000	0.130	-0.485
-229.757	158.712	0.063	-0.087
-228.742	37.096	0.117	-0.103
-227.727	-69.988	0.348	-0.132
-226.713	417.452	0.069	-0.146
-225.698	13.706	-0.206	-0.159
-224.684	24.904	-0.092	-0.076
-223.669	178.529	-0.069	-0.101
-222.655	-200.000	0.039	0.338
-221.640	-200.000	-0.006	-0.033
-220.625	-57.344	-0.231	-0.101
-219.611	-200.000	-0.009	-0.255
-218.596	171.685	-0.117	0.167
-217.582	79.873	0.250	-0.267
-216.567	-73.660	-0.266	0.096
-215.552	-17.910	0.049	0.030
-214.538	800.000	-0.057	-0.164
-213.523	410.834	0.056	-0.117
-212.509	19.942	-0.052	0.042
-211.494	94.133	0.113	0.127
-210.479	-200.000	0.072	-0.339
-209.465	-58.588	0.164	-0.071
-208.450	211.000	-0.005	-0.008
-207.436	309.455	-0.091	-0.170
-206.421	18.403	-0.387	-0.307
-205.406	25.511	-0.304	-0.251
-204.392	-116.799	-0.400	-0.073
-203.377	-200.000	0.036	0.176
-202.363	-32.874	-0.057	-0.031
-201.348	-104.573	0.290	-0.066
-200.333	-200.000	0.013	0.187
-199.319	169.921	-0.146	-0.207
-198.304	-21.136	-0.125	0.076
-197.290	19.627	-0.261	0.208
-196.275	800.000	0.057	-0.170
-195.260	-110.946	0.133	-0.027
-194.246	171.683	-0.079	-0.113
-193.231	800.000	-0.040	-0.121
-192.217	-41.516	0.215	0.110
-191.202	-200.000	0.025	0.120
-190.187	-29.622	-0.052	-0.029
-189.173	-17.281	0.266	0.166
-188.158	5.531	0.205	0.150
-187.144	323.017	0.237	-0.448
-186.129	-35.700	-0.100	-0.054
-185.114	14.907	0.316	0.245
-184.100	-132.029	0.115	0.015
-183.085	800.000	0.061	0.190
-182.071	-44.842	-0.075	0.037
-181.056	80.595	0.145	-0.155
-180.042	-131.348	0.178	0.023
-179.027	-8.913	-0.093	-0.062
-178.012	80.755	0.243	-0.259
-176.998	218.258	0.050	-0.079
-175.983	-148.730	-0.153	0.012
-174.969	-37.535	-0.281	0.148
-173.954	34.700	0.070	-0.061
-172.939	214.422	-0.089	0.140
-171.925	62.182	-0.260	0.257
-170.910	49.972	0.094	-0.088
-169.896	196.797	0.082	0.124
-168.881	58.350	0.097	-0.094
-167.866	96.546	-0.200	-0.227
-166.852	768.762	0.087	-0.234
-165.837	-114.500	-0.020	-0.004
-164.823	-58.394	-0.189	0.081
-163.808	-27.366	-0.341	0.197
-162.793	185.768	0.096	0.141
-161.779	-81.823	-0.132	-0.043
-160.764	601.715	0.062	0.152
-159.750	800.000	0.057	0.161
-158.735	-200.000	-0.027	0.313
-157.720	-124.493	0.118	-0.018
-156.706	-45.890	0.157	-0.077
-155.691	626.347	-0.089	0.222
-154.677	-200.000	0.023	0.210
-153.662	174.875	-0.118	0.170
-152.647	103.556	-0.122	-0.142
-151.633	-200.000	0.030	-0.211
-150.618	-200.000	0.013	-0.263
-149.604	372.415	-0.085	0.171
-148.589	26.820	-0.077	-0.064
-147.574	221.570	0.094	-0.150
-146.560	157.749	0.126	-0.172
-145.545	269.787	-0.075	0.131
-144.531	637.859	-0.082	-0.205
-143.516	-178.814	0.185	-0.004
-142.502	303.468	-0.251	-0.461
-141.487	-15.841	-0.085	0.054
-140.472	161.234	0.299	0.414
-139.458	-95.039	0.073	0.020
-138.443	-200.000	0.007	0.098
-137.429	197.015	0.094	-0.142
-136.414	800.000	0.027	0.111
-135.399	-37.873	0.090	-0.047
-134.385	-47.855	-0.134	0.064
-133.370	-22.057	0.158	-0.095
-132.356	78.610	-0.066	-0.070
-131.341	17.260	-0.053	-0.042
-130.326	481.070	0.172	0.387
-129.312	3.803	0.274	0.198
-128.297	-4.153	-0.081	-0.055
-127.283	-103.887	0.320	-0.074
-126.268	-125.876	-0.256	-0.038
-125.253	800.000	0.040	-0.127
-124.239	-200.000	-0.057	-0.325
-123.224	-42.292	0.311	-0.157
-122.210	-23.642	0.131	0.078
-121.195	-200.000	0.036	-0.247
