DTS Sentinel unit serial number:	SN413079Multiplexer serial number:	ORYXHardware model number:	OX4-SRSoftware version number:	ORYX F/W v4.00 Oryx Data Collector v3.7.2.0data status	okinstallation	princeton_trtdifferential loss correction	single-endedforward channel	channel 2reverse channel	N/Adate	2019/09/13time	04:59:34forward acquisition time	60.00reverse acquisition time	0.00gamma	496.2192k internal	0.2337k external	0.2337temperature offset calibration	1.0188default loss term (dB/km)	0.3790temperature slope calibration	1.0000multiplexer offset coefficient	1.0000multiplexer slope coefficient	1.0000fibre end	0.00T internal ref (°C)	26.50T ext. ref 1 (°C)	4.06T ext. ref 2 (°C)	20.97length (m)	temperature (°C)	Stokes	anti-Stokes-747.200	744.369	0.070	0.189
-746.185	88.498	0.099	-0.111
-745.171	165.753	0.071	0.101
-744.156	-14.788	0.072	-0.046
-743.142	-200.000	-0.001	-0.483
-742.127	69.233	0.235	0.243
-741.112	-38.678	-0.053	-0.028
-740.098	-200.000	-0.002	0.172
-739.083	-132.082	0.267	0.035
-738.069	290.337	0.043	0.078
-737.054	-116.418	0.261	-0.048
-736.039	-200.000	0.025	-0.160
-735.025	429.401	0.069	0.150
-734.010	800.000	-0.068	-0.269
-732.996	49.003	-0.158	-0.149
-731.981	-60.144	-0.296	-0.127
-730.966	59.004	0.184	-0.181
-729.952	-158.884	0.101	-0.006
-728.937	800.000	-0.071	-0.207
-727.923	-91.793	-0.214	-0.061
-726.908	84.933	-0.303	-0.333
-725.894	-130.710	-0.168	-0.023
-724.879	429.951	0.161	0.350
-723.864	6.356	0.079	0.059
-722.850	-200.000	-0.084	0.419
-721.835	73.224	-0.379	-0.397
-720.821	-12.021	-0.093	0.061
-719.806	26.016	0.194	0.162
-718.791	-4.878	0.118	-0.082
-717.777	100.071	0.143	-0.167
-716.762	188.822	-0.211	-0.317
-715.748	-200.000	0.014	0.190
-714.733	800.000	-0.056	-0.167
-713.718	-115.077	-0.124	0.024
-712.704	-168.638	-0.125	0.005
-711.689	800.000	0.019	0.073
-710.675	31.811	0.110	-0.095
-709.660	-7.537	0.123	-0.083
-708.645	226.181	-0.119	-0.193
-707.631	47.580	-0.100	-0.093
-706.616	17.686	0.033	0.026
-705.602	-200.000	0.025	-0.192
-704.587	-181.381	-0.257	0.005
-703.572	-82.867	0.121	-0.039
-702.558	-47.015	-0.199	-0.098
-701.543	-135.320	-0.203	-0.024
-700.529	-10.970	-0.267	0.177
-699.514	-24.871	-0.238	-0.142
-698.499	82.936	-0.100	-0.109
-697.485	-80.910	0.077	-0.026
-696.470	420.735	0.052	0.111
-695.456	113.954	-0.196	0.239
-694.441	-161.104	0.122	0.006
-693.426	-124.151	-0.338	-0.053
-692.412	-200.000	0.003	-0.203
-691.397	55.749	-0.142	-0.137
-690.383	13.042	0.242	0.188
-689.368	-106.649	-0.131	-0.029
-688.354	-60.261	-0.244	0.104
-687.339	-200.000	0.001	-0.081
-686.324	800.000	-0.062	-0.272
-685.310	252.651	0.119	-0.203
-684.295	123.069	-0.296	-0.372
-683.281	164.178	-0.074	-0.105
-682.266	85.974	0.247	-0.272
-681.251	47.241	-0.098	-0.091
-680.237	-166.473	0.258	-0.011
-679.222	185.032	0.214	0.317
-678.208	488.490	-0.151	-0.344
-677.193	-100.514	0.149	0.037
-676.178	-127.230	-0.108	-0.016
-675.164	50.533	-0.187	0.177
-674.149	-155.523	0.315	0.020
-673.135	246.041	-0.218	0.368
-672.120	-200.000	-0.042	0.250
-671.105	103.046	-0.056	0.066
-670.091	-55.058	0.197	0.089
-669.076	5.063	-0.145	0.107
-668.062	-132.814	-0.388	0.050
-667.047	-131.193	0.272	0.036
-666.032	-200.000	0.006	-0.312
-665.018	-200.000	0.024	-0.143
-664.003	56.455	0.208	0.203
-662.989	-73.500	0.224	0.082
-661.974	40.452	-0.303	-0.273
-660.959	-200.000	-0.031	0.146
-659.945	-72.666	-0.246	-0.091
-658.930	-136.500	0.310	-0.036
-657.916	-164.970	0.312	-0.014
-656.901	557.420	-0.042	0.101
-655.886	339.819	-0.055	0.107
-654.872	-200.000	0.037	-0.234
-653.857	-200.000	0.061	0.278
-652.843	800.000	-0.090	0.282
-651.828	-200.000	0.030	-0.169
-650.814	355.295	0.147	0.293
-649.799	458.067	0.144	0.319
-648.784	800.000	0.036	0.130
-647.770	13.111	-0.210	-0.163
-646.755	81.921	-0.020	-0.022
-645.741	-109.765	-0.124	0.026
-644.726	-130.187	0.165	-0.023
-643.711	-62.773	0.105	-0.043
-642.697	399.492	0.031	0.066
-641.682	167.539	-0.117	-0.167
-640.668	210.036	0.193	0.303
-639.653	174.890	-0.140	0.202
-638.638	-200.000	0.015	0.120
-637.624	6.263	-0.461	0.342
-636.609	-111.163	0.247	-0.051
-635.595	16.232	-0.219	0.173
-634.580	94.928	0.116	0.132
-633.565	-27.630	0.545	-0.316
-632.551	15.919	0.055	-0.043
-631.536	-200.000	-0.000	-0.038
-630.522	-45.712	-0.201	-0.099
-629.507	-200.000	0.026	0.204
-628.492	-73.205	-0.308	-0.113
-627.478	-11.046	-0.047	0.031
-626.463	290.717	0.246	0.447
-625.449	-97.838	-0.220	-0.057
-624.434	203.801	-0.075	0.116
-623.419	337.025	0.091	-0.177
-622.405	-81.055	0.067	-0.022
-621.390	-24.630	0.212	-0.126
-620.376	13.315	0.160	-0.124
-619.361	47.716	0.188	0.175
-618.346	800.000	-0.063	0.213
-617.332	-150.096	-0.147	0.011
-616.317	800.000	-0.067	0.282
-615.303	-21.976	-0.078	0.047
-614.288	-129.501	-0.362	0.050
-613.273	-200.000	-0.017	-0.084
-612.259	10.374	0.112	-0.085
-611.244	-0.986	-0.152	0.107
-610.230	-83.462	0.130	0.042
-609.215	-114.966	0.104	0.020
-608.201	-98.915	-0.149	0.038
-607.186	-200.000	-0.095	-0.428
-606.171	-18.619	0.321	0.200
-605.157	-82.139	-0.217	0.071
-604.142	261.075	-0.122	0.211
-603.128	-37.199	-0.084	-0.045
-602.113	147.969	0.326	-0.439
-601.098	-0.630	-0.145	-0.103
-600.084	-106.534	-0.235	0.052
-599.069	15.942	0.197	0.155
-598.055	282.737	0.065	0.117
-597.040	800.000	-0.025	0.084
-596.025	-16.217	0.159	0.101
-595.011	706.225	0.109	-0.287
-593.996	309.827	-0.105	-0.196
-592.982	-200.000	-0.063	-0.503
-591.967	41.284	0.113	-0.102
-590.952	-128.218	-0.245	0.035
-589.938	-7.051	-0.067	-0.046
-588.923	-33.372	0.249	0.137
-587.909	-66.196	0.105	0.042
-586.894	164.100	-0.136	-0.191
-585.879	637.061	0.121	-0.307
-584.865	800.000	0.102	-0.366
-583.850	-160.330	0.224	0.012
-582.836	-200.000	0.012	0.086
-581.821	141.992	0.103	-0.136
-580.806	152.716	0.107	0.147
-579.792	-23.240	0.191	0.114
-578.777	204.567	-0.119	0.183
-577.763	174.245	-0.177	0.256
-576.748	-149.105	-0.205	-0.016
-575.733	-200.000	0.002	-0.350
-574.719	800.000	0.095	-0.276
-573.704	-168.936	0.159	0.006
-572.690	-200.000	0.055	-0.381
-571.675	-34.271	-0.105	-0.058
-570.661	-138.351	0.036	-0.004
-569.646	407.913	0.063	-0.133
-568.631	38.236	0.278	-0.246
-567.617	123.385	-0.086	-0.107
-566.602	-180.118	-0.240	0.005
-565.588	-200.000	-0.018	0.085
-564.573	800.000	0.072	0.256
-563.558	158.126	0.138	-0.191
-562.544	-80.822	-0.263	-0.087
-561.529	313.419	-0.168	-0.315
-560.515	-35.842	-0.085	-0.046
-559.500	554.900	-0.072	-0.172
-558.485	800.000	-0.049	-0.141
-557.471	441.113	0.065	0.142
-556.456	87.144	-0.354	-0.390
-555.442	-200.000	-0.025	-0.363
-554.427	59.162	-0.049	-0.048
-553.412	-178.972	0.171	-0.004
-552.398	47.614	-0.121	-0.112
-551.383	-200.000	-0.030	-0.303
-550.369	83.240	-0.227	0.246
-549.354	-200.000	-0.023	-0.278
-548.339	800.000	-0.045	-0.194
-547.325	-200.000	-0.005	-0.330
-546.310	189.760	0.084	0.125
-545.296	-91.875	-0.146	-0.041
-544.281	800.000	-0.020	-0.066
-543.266	-95.294	-0.294	0.079
-542.252	142.924	-0.192	-0.255
-541.237	-200.000	0.005	-0.150
-540.223	-125.306	0.246	-0.037
-539.208	55.797	0.221	0.213
-538.193	-200.000	-0.034	0.157
-537.179	-200.000	0.031	0.145
-536.164	219.711	-0.120	-0.192
-535.150	-200.000	0.044	0.194
-534.135	292.164	-0.074	0.135
-533.121	-157.462	0.230	-0.014
-532.106	-6.900	0.429	0.290
-531.091	-10.640	0.170	0.112
-530.077	800.000	-0.037	-0.133
-529.062	-66.424	-0.117	-0.046
-528.048	-85.582	-0.197	0.061
-527.033	-53.652	-0.157	-0.071
-526.018	800.000	0.037	0.152
-525.004	-55.302	0.166	-0.074
-523.989	-200.000	0.042	-0.436
-522.975	-164.130	-0.042	-0.002
-521.960	-109.759	0.142	-0.030
-520.945	-200.000	0.003	0.242
-519.931	800.000	0.091	-0.343
-518.916	800.000	-0.080	0.311
-517.902	-200.000	-0.006	-0.406
-516.887	-147.651	0.257	-0.021
-515.872	-200.000	-0.009	0.129
-514.858	-21.694	-0.194	-0.118
-513.843	122.586	0.101	0.126
-512.829	-160.259	-0.094	-0.005
-511.814	800.000	0.024	-0.076
-510.799	-82.727	-0.370	-0.119
-509.785	14.331	-0.368	0.285
-508.770	-58.461	-0.052	0.022
-507.756	269.981	-0.091	-0.159
-506.741	30.619	0.213	0.182
-505.726	659.406	-0.077	-0.196
-504.712	-19.747	0.403	-0.248
-503.697	-92.798	-0.097	0.027
-502.683	-200.000	-0.048	0.307
-501.668	-200.000	-0.011	-0.268
-500.653	800.000	-0.003	0.010
-499.639	-104.387	0.225	-0.052
-498.624	-124.526	-0.113	0.018
-497.610	-200.000	-0.005	0.156
-496.595	106.805	-0.175	0.206
-495.581	-39.442	0.118	-0.062
-494.566	13.912	0.085	-0.066
-493.551	-21.505	-0.269	-0.163
-492.537	800.000	-0.051	-0.152
-491.522	-67.936	-0.018	-0.007
-490.508	-140.579	-0.094	0.010
-489.493	218.829	-0.050	0.080
-488.478	7.295	0.382	0.284
-487.464	-179.926	-0.383	-0.008
-486.449	52.179	-0.120	-0.114
-485.435	3.327	-0.273	-0.197
-484.420	70.158	-0.206	-0.211
-483.405	-81.214	0.187	-0.061
-482.391	-12.109	-0.214	-0.139
-481.376	284.110	-0.101	0.181
-480.362	-200.000	-0.077	-0.350
-479.347	264.459	0.014	-0.025
-478.332	482.347	-0.253	-0.572
-477.318	-3.741	-0.163	-0.112
-476.303	-65.459	-0.089	-0.035
-475.289	5.536	0.207	0.152
-474.274	-88.746	-0.378	-0.112
-473.259	479.024	0.047	-0.105
-472.245	-39.145	-0.580	-0.303
-471.230	-22.699	-0.147	-0.088
-470.216	-70.750	0.257	-0.096
-469.201	-85.736	0.241	0.074
-468.186	800.000	0.100	0.318
-467.172	-200.000	0.018	-0.355
-466.157	303.140	0.136	-0.250
-465.143	106.038	-0.175	0.205
-464.128	800.000	0.107	0.382
-463.113	-200.000	-0.045	0.298
-462.099	-200.000	0.034	-0.188
-461.084	479.937	0.089	0.200
-460.070	517.699	0.068	-0.158
-459.055	26.469	0.211	-0.175
-458.040	-23.264	-0.209	-0.125
-457.026	-105.583	0.225	0.051
-456.011	800.000	0.103	0.385
-454.997	117.342	0.114	-0.139
-453.982	800.000	0.057	0.208
-452.968	537.581	-0.058	0.137
-451.953	136.462	-0.108	-0.140
-450.938	-61.383	-0.155	-0.065
-449.924	-200.000	0.017	-0.249
-448.909	-48.309	0.426	0.204
-447.895	51.995	-0.240	-0.227
-446.880	180.063	-0.093	-0.136
-445.865	111.098	0.253	0.302
-444.851	800.000	-0.139	-0.446
-443.836	-69.597	0.248	-0.094
-442.822	-31.321	-0.161	-0.090
-441.807	-200.000	-0.012	0.130
-440.792	116.555	-0.219	-0.267
-439.778	279.048	-0.155	0.275
-438.763	800.000	-0.054	-0.152
-437.749	87.619	0.342	-0.376
-436.734	-188.119	0.092	-0.001
-435.719	-0.808	-0.119	0.084
-434.705	80.199	0.157	-0.167
-433.690	-86.157	-0.375	-0.115
-432.676	-200.000	-0.031	0.269
-431.661	30.063	0.010	0.008
-430.646	728.313	0.051	0.134
-429.632	75.100	-0.061	0.063
-428.617	-200.000	0.000	-0.109
-427.603	-68.194	0.310	-0.120
-426.588	47.215	-0.130	-0.120
-425.573	-54.590	0.151	-0.068
-424.559	-14.085	-0.221	-0.141
-423.544	-172.119	0.241	0.008
-422.530	29.882	-0.189	-0.159
-421.515	-101.492	-0.180	0.043
-420.500	-87.443	0.424	0.127
-419.486	-200.000	-0.047	0.281
-418.471	278.048	0.202	0.357
-417.457	74.583	0.246	-0.256
-416.442	104.452	0.311	0.363
-415.428	-113.128	0.171	0.034
-414.413	86.927	-0.155	0.170
-413.398	800.000	-0.131	0.501
-412.384	4.790	0.330	0.240
-411.369	191.846	-0.115	-0.172
-410.355	800.000	-0.052	-0.197
-409.340	-200.000	-0.012	0.322
-408.325	115.860	-0.066	0.080
-407.311	29.743	0.161	0.136
-406.296	-200.000	0.065	0.292
-405.282	-41.118	0.101	0.052
-404.267	-193.480	-0.228	0.002
-403.252	-68.318	0.263	-0.101
-402.238	507.536	0.089	0.203
-401.223	-200.000	0.014	-0.297
-400.209	-102.274	0.118	-0.028
-399.194	-200.000	0.017	-0.138
-398.179	387.145	0.061	0.125
-397.165	-66.116	-0.114	-0.045
-396.150	-173.859	0.112	0.003
-395.136	-123.413	-0.235	-0.037
-394.121	800.000	0.010	0.031
-393.106	-36.253	-0.133	-0.071
-392.092	-78.586	0.033	0.011
-391.077	-31.402	-0.061	-0.034
-390.063	800.000	0.182	0.530
-389.048	-60.617	-0.236	0.099
-388.033	-156.291	0.440	0.027
-387.019	800.000	-0.017	0.074
-386.004	-154.584	-0.335	0.022
-384.990	800.000	-0.065	0.281
-383.975	182.017	0.199	0.290
-382.960	184.336	-0.116	-0.169
-381.946	48.852	0.192	-0.178
-380.931	224.389	0.102	-0.164
-379.917	-70.791	-0.228	0.085
-378.902	800.000	-0.115	0.457
-377.888	800.000	-0.071	0.248
-376.873	-106.989	0.262	0.057
-375.858	106.499	0.181	-0.213
-374.844	-35.124	-0.402	0.217
-373.829	-157.668	-0.057	-0.003
-372.815	-200.000	0.037	0.312
-371.800	-200.000	0.028	0.314
-370.785	-26.039	0.305	0.178
-369.771	800.000	0.052	0.185
-368.756	34.851	-0.098	0.085
-367.742	198.548	-0.132	0.201
-366.727	-200.000	0.032	0.192
-365.712	193.076	-0.173	0.259
-364.698	-200.000	-0.030	0.369
-363.683	82.799	0.131	0.141
-362.669	587.579	-0.100	-0.245
-361.654	-200.000	-0.019	0.093
-360.639	-200.000	-0.044	-0.234
-359.625	27.616	0.346	-0.288
-358.610	-134.527	0.427	-0.052
-357.596	-39.556	0.492	-0.255
-356.581	-200.000	0.062	-0.359
-355.566	-116.212	-0.260	-0.048
-354.552	-4.501	-0.244	-0.167
-353.537	-22.826	0.078	-0.047
-352.523	231.846	-0.055	-0.089
-351.508	-47.943	0.146	0.070
-350.493	317.113	-0.171	0.319
-349.479	759.059	0.069	0.185
-348.464	3.705	0.281	0.203
-347.450	-29.746	-0.430	0.243
-346.435	-200.000	0.046	0.221
-345.420	-200.000	0.011	-0.091
-344.406	800.000	-0.049	-0.184
-343.391	-62.238	0.216	-0.089
-342.377	-200.000	-0.002	-0.412
-341.362	-200.000	-0.020	0.092
-340.348	800.000	0.024	0.083
-339.333	40.668	0.125	0.111
-338.318	-112.339	0.134	-0.027
-337.304	800.000	0.016	-0.069
-336.289	-200.000	0.026	-0.191
-335.275	800.000	0.056	-0.184
-334.260	60.519	0.127	-0.125
-333.245	-20.134	-0.086	0.053
-332.231	-72.467	-0.254	0.093
-331.216	-176.306	0.185	0.005
-330.202	95.270	-0.161	-0.181
-329.187	-200.000	0.014	0.111
-328.172	-72.690	0.239	0.087
-327.158	800.000	-0.048	-0.193
-326.143	-80.120	0.459	-0.152
-325.129	793.449	-0.053	0.143
-324.114	129.081	0.126	0.159
-323.099	-200.000	-0.003	0.119
-322.085	-192.413	-0.095	-0.001
-321.070	433.330	-0.169	0.363
-320.056	-19.632	-0.383	0.234
-319.041	-200.000	0.028	0.249
-318.026	-44.003	-0.150	-0.074
-317.012	100.866	-0.331	-0.381
-315.997	-139.604	0.084	-0.009
-314.983	23.648	0.035	0.029
-313.968	143.130	0.006	0.008
-312.953	37.337	-0.237	-0.208
-311.939	-44.697	0.244	-0.120
-310.924	800.000	-0.081	0.260
-309.910	-12.403	-0.039	0.025
-308.895	-31.870	-0.242	-0.134
-307.880	-200.000	-0.024	-0.220
-306.866	180.432	-0.139	0.201
-305.851	-128.153	0.244	-0.034
-304.837	467.725	-0.092	0.205
-303.822	336.880	0.089	0.171
-302.807	-3.965	0.131	-0.089
-301.793	-65.967	-0.359	-0.141
-300.778	19.781	0.120	0.095
-299.764	580.584	-0.086	-0.207
-298.749	172.544	0.149	0.212
-297.735	-200.000	0.010	-0.196
-296.720	-11.433	0.150	0.098
-295.705	800.000	-0.070	0.225
-294.691	394.979	-0.143	-0.293
-293.676	492.060	0.100	-0.227
-292.662	-70.623	-0.158	-0.059
-291.647	-63.678	-0.226	0.092
-290.632	800.000	0.131	0.398
-289.618	-200.000	-0.003	0.204
-288.603	-65.829	0.236	0.093
-287.589	-48.475	0.312	-0.148
-286.574	176.724	-0.276	-0.396
-285.559	-68.359	-0.192	0.074
-284.545	721.171	0.145	0.380
-283.530	-40.945	-0.115	-0.059
-282.516	605.343	-0.049	0.121
-281.501	407.164	0.057	0.119
-280.486	-200.000	0.022	0.380
-279.472	17.782	0.159	0.125
-278.457	-149.026	-0.220	-0.017
-277.443	-200.000	0.006	0.034
-276.428	800.000	0.077	0.246
-275.413	-58.713	0.198	-0.084
-274.399	-2.574	0.067	-0.046
-273.384	800.000	-0.043	-0.164
-272.370	-12.236	-0.189	0.122
-271.355	-90.185	0.276	0.079
-270.340	-200.000	-0.001	0.039
-269.326	765.239	-0.105	0.282
-268.311	-83.458	0.239	-0.075
-267.297	-97.670	-0.222	-0.057
-266.282	250.435	0.108	-0.180
-265.267	46.862	0.018	0.017
-264.253	800.000	-0.124	-0.386
-263.238	800.000	0.026	-0.091
-262.224	83.704	0.129	-0.139
-261.209	-107.556	-0.152	-0.033
-260.195	-60.613	-0.149	0.062
-259.180	-35.358	-0.223	-0.120
-258.165	-138.872	-0.390	-0.042
-257.151	-200.000	0.012	0.227
-256.136	-200.000	0.061	0.275
-255.122	627.642	-0.079	-0.196
-254.107	230.857	0.221	-0.356
-253.092	493.768	0.100	-0.226
-252.078	-144.339	0.369	-0.034
-251.063	-165.224	-0.590	-0.026
-250.049	104.627	0.153	0.178
-249.034	-200.000	-0.008	-0.203
-248.019	800.000	0.057	-0.220
-247.005	561.496	-0.012	-0.030
-245.990	71.080	0.117	0.120
-244.976	-135.554	0.120	0.014
-243.961	66.858	0.121	-0.121
-242.946	-35.001	-0.103	-0.055
-241.932	-50.660	-0.492	0.228
-240.917	-200.000	0.029	0.235
-239.903	-91.022	0.175	0.049
-238.888	-200.000	-0.007	0.191
-237.873	205.563	0.158	-0.241
-236.859	-73.035	0.041	-0.015
-235.844	158.812	-0.082	0.112
-234.830	-200.000	0.049	0.399
-233.815	-179.264	-0.148	-0.003
-232.800	800.000	0.024	-0.103
-231.786	110.413	0.073	-0.086
-230.771	-2.673	-0.029	-0.020
-229.757	152.048	0.213	0.286
-228.742	-200.000	0.008	-0.140
-227.727	-200.000	-0.036	-0.204
-226.713	148.862	-0.070	-0.093
-225.698	-77.388	0.203	-0.070
-224.684	-200.000	-0.049	0.277
-223.669	48.846	0.183	-0.169
-222.655	131.292	0.043	0.054
-221.640	188.013	0.130	0.191
-220.625	313.554	0.066	0.122
-219.611	-122.084	-0.291	-0.047
-218.596	657.888	0.035	0.089
-217.582	-58.793	-0.199	0.085
-216.567	36.419	0.167	0.145
-215.552	-200.000	-0.061	0.272
-214.538	-34.566	0.100	0.054
-213.523	-100.027	0.134	0.033
-212.509	800.000	0.125	0.465
-211.494	529.330	-0.128	0.296
-210.479	-200.000	-0.029	0.517
-209.465	-101.891	-0.086	0.020
-208.450	-200.000	0.030	-0.193
-207.436	693.013	0.053	-0.136
-206.421	800.000	-0.125	-0.471
-205.406	16.532	-0.166	-0.129
-204.392	800.000	0.102	0.290
-203.377	76.746	-0.165	-0.172
-202.363	-200.000	-0.065	-0.281
-201.348	-113.084	0.144	0.028
-200.333	-200.000	-0.042	-0.212
-199.319	459.071	-0.064	0.140
-198.304	-76.054	-0.250	0.087
-197.290	-200.000	-0.016	0.266
-196.275	-168.268	-0.414	0.016
-195.260	-200.000	-0.012	-0.147
-194.246	797.597	0.040	-0.109
-193.231	341.232	0.099	0.190
-192.217	-83.634	-0.099	-0.031
-191.202	-40.473	-0.088	0.045
-190.187	-116.898	-0.190	0.034
-189.173	174.336	0.182	-0.259
-188.158	164.181	0.232	0.322
-187.144	43.381	-0.158	-0.142
-186.129	-101.590	0.216	0.052
-185.114	-4.354	0.290	-0.197
-184.100	-200.000	-0.008	-0.172
-183.085	-141.880	-0.179	-0.018
-182.071	-200.000	-0.008	-0.148
-181.056	-200.000	-0.008	-0.091
-180.042	-122.138	0.124	-0.020
-179.027	-139.411	-0.239	-0.025
-178.012	433.148	0.145	0.309
-176.998	-52.272	-0.096	-0.044
-175.983	-155.207	0.393	-0.025
-174.969	-76.926	0.210	0.072
-173.954	25.718	-0.202	0.165
-172.939	-7.312	0.222	-0.148
-171.925	-200.000	0.025	-0.123
-170.910	-32.570	0.199	0.109
-169.896	-200.000	0.109	-0.685
-168.881	-170.174	0.291	0.010
-167.866	-94.115	-0.418	-0.113
-166.852	-83.427	0.201	-0.063
-165.837	129.017	0.214	0.268
-164.823	380.169	-0.108	0.218
-163.808	45.579	-0.037	-0.034
-162.793	-132.753	0.452	0.057
-161.779	-200.000	0.023	0.174
-160.764	-163.485	-0.210	-0.010
-159.750	113.140	-0.295	0.351
-158.735	127.292	-0.112	-0.139
-157.720	800.000	-0.056	0.174
-156.706	-111.072	-0.133	0.027
-155.691	-200.000	0.021	-0.146
-154.677	-200.000	-0.096	-0.414
-153.662	800.000	-0.083	-0.253
-152.647	-110.708	0.163	-0.033
-151.633	-200.000	0.016	0.243
-150.618	-18.958	0.132	-0.081
-149.604	621.627	0.047	0.117
-148.589	359.434	0.122	0.238
-147.574	-200.000	-0.086	0.427
-146.560	11.426	-0.416	-0.312
-145.545	148.198	0.212	-0.280
-144.531	-200.000	-0.006	0.272
-143.516	456.451	-0.092	-0.201
-142.502	-179.037	0.203	0.004
-141.487	-200.000	-0.061	-0.355
-140.472	-95.112	0.212	0.056
-139.458	800.000	-0.033	0.137
-138.443	322.020	-0.030	-0.057
-137.429	406.758	-0.121	-0.251
-136.414	193.181	-0.021	0.031
-135.399	-200.000	-0.002	-0.057
-134.385	-181.848	0.057	0.001
-133.370	-200.000	-0.065	0.357
-132.356	-79.609	0.389	-0.129
-131.341	-99.508	0.313	0.077
-130.326	34.962	-0.242	0.208
-129.312	495.819	-0.131	0.296
-128.297	-51.078	-0.154	0.071
-127.283	314.387	0.161	-0.297
-126.268	-200.000	-0.067	-0.303
-125.253	20.783	0.050	0.040
-124.239	-106.373	0.113	0.025
-123.224	-155.618	0.188	-0.012
-122.210	-118.776	0.169	0.029
