DTS Sentinel unit serial number:	SN413079Multiplexer serial number:	ORYXHardware model number:	OX4-SRSoftware version number:	ORYX F/W v4.00 Oryx Data Collector v3.7.2.0data status	okinstallation	princeton_trtdifferential loss correction	single-endedforward channel	channel 2reverse channel	N/Adate	2019/09/16time	17:51:35forward acquisition time	60.00reverse acquisition time	0.00gamma	496.2192k internal	0.2314k external	0.2314temperature offset calibration	0.9950default loss term (dB/km)	0.3790temperature slope calibration	1.0000multiplexer offset coefficient	1.0000multiplexer slope coefficient	1.0000fibre end	0.00T internal ref (°C)	37.87T ext. ref 1 (°C)	15.60T ext. ref 2 (°C)	31.70length (m)	temperature (°C)	Stokes	anti-Stokes-747.200	800.000	0.058	-0.182
-746.185	-49.767	0.160	0.077
-745.171	52.995	0.029	-0.028
-744.156	-1.984	-0.218	0.156
-743.142	540.554	0.036	-0.086
-742.127	-122.323	-0.204	0.034
-741.112	-92.035	-0.078	0.022
-740.098	182.263	0.054	0.081
-739.083	731.314	0.008	-0.023
-738.069	800.000	-0.137	0.437
-737.054	-200.000	0.102	0.609
-736.039	139.731	-0.190	-0.254
-735.025	234.918	0.182	-0.305
-734.010	149.644	-0.157	0.215
-732.996	-11.401	0.258	-0.172
-731.981	-88.599	-0.558	0.168
-730.966	229.596	-0.106	0.175
-729.952	-167.212	-0.264	0.011
-728.937	234.711	-0.169	0.282
-727.923	153.247	0.273	0.379
-726.908	-45.756	-0.299	-0.150
-725.894	240.594	-0.214	-0.361
-724.879	-116.511	0.196	-0.037
-723.864	-96.923	-0.189	-0.050
-722.850	-74.297	-0.056	0.020
-721.835	800.000	-0.206	0.584
-720.821	61.762	0.122	-0.123
-719.806	-200.000	-0.021	0.121
-718.791	-20.532	0.205	-0.128
-717.777	-96.586	-0.142	0.038
-716.762	800.000	0.024	0.100
-715.748	57.469	-0.081	0.080
-714.733	-43.779	-0.305	0.156
-713.718	-84.648	-0.114	-0.036
-712.704	-146.343	0.252	-0.022
-711.689	800.000	0.077	0.284
-710.675	-84.578	-0.121	0.038
-709.660	167.648	-0.116	-0.167
-708.645	-3.081	-0.154	0.109
-707.631	52.469	-0.066	0.063
-706.616	-13.760	-0.189	0.124
-705.602	35.219	0.096	-0.086
-704.587	-200.000	0.002	0.102
-703.572	-200.000	-0.016	-0.200
-702.558	-84.410	0.217	0.069
-701.543	-200.000	-0.031	-0.472
-700.529	44.440	0.232	-0.215
-699.514	-8.243	0.163	-0.111
-698.499	-130.488	-0.187	0.026
-697.485	-53.102	-0.238	-0.110
-696.470	63.193	-0.061	0.061
-695.456	137.788	0.030	-0.039
-694.441	191.175	0.210	-0.321
-693.426	-20.186	0.158	0.099
-692.412	-200.000	-0.005	-0.097
-691.397	43.586	0.323	-0.299
-690.383	-137.909	0.288	-0.033
-689.368	301.857	0.100	0.187
-688.354	-52.300	-0.109	-0.051
-687.339	-117.618	0.356	0.065
-686.324	-200.000	0.028	0.148
-685.310	-144.795	-0.265	-0.025
-684.295	-200.000	0.008	-0.085
-683.281	0.730	-0.115	0.083
-682.266	-155.619	-0.111	0.007
-681.251	175.961	0.147	-0.216
-680.237	647.830	0.093	-0.241
-679.222	-147.416	-0.177	-0.015
-678.208	311.164	-0.140	0.266
-677.193	-56.054	0.080	-0.036
-676.178	-67.436	-0.141	0.056
-675.164	192.649	-0.061	-0.094
-674.149	64.186	-0.081	-0.083
-673.135	-159.904	0.024	0.001
-672.120	800.000	-0.064	-0.218
-671.105	-200.000	0.004	-0.027
-670.091	293.299	-0.027	-0.049
-669.076	159.402	0.119	0.167
-668.062	591.498	0.097	0.242
-667.047	117.196	-0.124	-0.154
-666.032	-33.255	0.584	-0.327
-665.018	-200.000	0.057	-0.496
-664.003	-200.000	-0.024	-0.268
-662.989	-200.000	-0.027	0.146
-661.974	260.012	-0.076	0.133
-660.959	-121.524	-0.143	-0.024
-659.945	-85.542	0.161	0.051
-658.930	223.951	-0.036	-0.059
-657.916	-126.588	-0.088	-0.013
-656.901	-200.000	-0.025	-0.391
-655.886	50.470	0.306	0.292
-654.872	37.275	-0.044	-0.039
-653.857	17.133	-0.246	0.197
-652.843	-200.000	0.018	-0.263
-651.828	62.373	0.020	-0.021
-650.814	56.713	-0.160	0.157
-649.799	-99.138	-0.306	0.078
-648.784	87.733	-0.130	-0.145
-647.770	-41.100	0.134	0.070
-646.755	-200.000	-0.024	-0.120
-645.741	124.085	-0.129	0.164
-644.726	48.073	0.176	0.166
-643.711	5.126	0.168	0.125
-642.697	115.844	0.175	0.217
-641.682	-131.670	0.306	0.041
-640.668	61.673	-0.116	-0.117
-639.653	59.222	0.072	-0.072
-638.638	297.629	-0.133	-0.246
-637.624	-122.757	-0.197	-0.032
-636.609	-101.854	-0.241	0.059
-635.595	320.573	-0.049	-0.094
-634.580	-93.512	-0.243	-0.068
-633.565	31.182	-0.125	-0.108
-632.551	-173.166	0.245	0.008
-631.536	-3.566	-0.193	0.136
-630.522	-99.631	-0.187	-0.047
-629.507	166.378	-0.099	-0.142
-628.492	12.583	0.279	-0.217
-627.478	-99.274	0.475	0.121
-626.463	273.154	0.023	-0.042
-625.449	76.410	-0.382	0.409
-624.434	800.000	-0.043	-0.130
-623.419	-83.216	-0.238	-0.077
-622.405	-200.000	0.004	-0.292
-621.390	101.818	0.227	0.267
-620.376	109.556	0.182	0.219
-619.361	-200.000	-0.031	-0.238
-618.346	-118.517	-0.151	-0.027
-617.332	-53.272	0.042	0.020
-616.317	800.000	-0.057	-0.215
-615.303	-7.882	-0.031	-0.021
-614.288	228.619	-0.175	-0.288
-613.273	170.495	-0.124	-0.180
-612.259	-79.987	0.018	0.006
-611.244	206.948	-0.049	-0.077
-610.230	-200.000	-0.002	-0.196
-609.215	-66.328	-0.091	-0.037
-608.201	-200.000	0.003	0.050
-607.186	-200.000	-0.004	-0.105
-606.171	-7.990	-0.182	0.124
-605.157	-148.037	-0.183	-0.015
-604.142	800.000	0.094	-0.279
-603.128	800.000	0.047	-0.143
-602.113	600.441	-0.033	-0.083
-601.098	-200.000	-0.304	-0.001
-600.084	-147.319	-0.296	-0.025
-599.069	197.332	0.117	-0.181
-598.055	71.667	-0.085	0.089
-597.040	-177.218	0.222	0.006
-596.025	-95.267	0.266	-0.072
-595.011	-74.429	0.087	-0.032
-593.996	-24.633	-0.146	0.088
-592.982	32.496	0.135	0.118
-591.967	-200.000	0.014	0.159
-590.952	800.000	0.102	-0.289
-589.938	-125.273	-0.194	0.030
-588.923	50.377	-0.251	0.239
-587.909	-46.284	0.267	0.132
-586.894	-60.714	0.288	0.123
-585.879	-140.906	0.051	-0.005
-584.865	-67.573	0.322	0.127
-583.850	458.428	0.072	-0.161
-582.836	4.084	-0.090	0.066
-581.821	250.110	-0.071	-0.121
-580.806	800.000	-0.073	0.257
-579.792	27.452	-0.127	0.108
-578.777	-200.000	0.045	0.221
-577.763	-66.583	0.069	0.028
-576.748	106.136	-0.047	-0.057
-575.733	-200.000	-0.004	-0.159
-574.719	-90.625	-0.120	-0.035
-573.704	10.548	0.075	0.058
-572.690	-200.000	-0.008	-0.334
-571.675	92.468	0.146	0.166
-570.661	92.042	-0.128	-0.145
-569.646	129.154	-0.114	-0.146
-568.631	-78.839	0.256	0.088
-567.617	95.357	-0.070	0.081
-566.602	-107.576	0.284	0.063
-565.588	-43.415	-0.278	-0.141
-564.573	166.408	0.138	-0.197
-563.558	564.812	-0.045	0.110
-562.544	-12.514	0.314	0.206
-561.529	133.914	-0.112	0.146
-560.515	96.832	-0.057	0.065
-559.500	128.915	-0.082	-0.105
-558.485	-6.169	-0.086	0.059
-557.471	-128.740	-0.180	0.026
-556.456	-154.901	0.084	-0.006
-555.442	800.000	-0.015	-0.056
-554.427	800.000	-0.105	-0.359
-553.412	68.491	-0.084	-0.087
-552.398	600.360	0.119	-0.297
-551.383	-118.134	-0.233	0.042
-550.369	608.056	0.122	-0.305
-549.354	-200.000	0.019	0.250
-548.339	-98.255	-0.301	0.078
-547.325	-18.854	0.101	0.063
-546.310	-108.988	-0.321	-0.069
-545.296	-113.845	0.125	-0.024
-544.281	-200.000	0.081	0.457
-543.266	44.521	-0.088	-0.081
-542.252	-200.000	0.016	-0.170
-541.237	-32.403	0.113	-0.063
-540.223	-124.928	-0.128	0.020
-539.208	-128.324	-0.071	0.010
-538.193	0.210	-0.216	-0.155
-537.179	-18.962	-0.302	-0.189
-536.164	-118.287	0.162	0.029
-535.150	33.803	-0.110	0.096
-534.135	-31.074	0.155	-0.088
-533.121	800.000	-0.065	-0.184
-532.106	77.051	-0.197	-0.211
-531.091	-53.722	0.100	0.046
-530.077	34.524	-0.148	-0.130
-529.062	706.370	-0.024	0.063
-528.048	284.487	0.037	0.066
-527.033	-19.287	-0.111	0.070
-526.018	-181.294	-0.228	0.005
-525.004	385.912	0.150	-0.312
-523.989	0.101	0.118	0.085
-522.975	-79.345	0.183	0.062
-521.960	-200.000	-0.004	-0.285
-520.945	800.000	0.021	-0.088
-519.931	326.624	-0.129	-0.249
-518.916	-161.785	-0.336	-0.017
-517.902	-200.000	0.016	0.219
-516.887	-200.000	-0.009	-0.232
-515.872	-11.262	-0.333	-0.221
-514.858	377.417	-0.076	0.155
-513.843	-95.126	0.331	-0.090
-512.829	78.904	-0.159	-0.171
-511.814	-88.064	-0.328	0.099
-510.799	-146.405	0.193	0.017
-509.785	-148.185	-0.199	0.017
-508.770	-4.690	0.156	0.108
-507.756	33.784	0.077	-0.068
-506.741	393.290	0.124	0.260
-505.726	-200.000	0.011	-0.150
-504.712	-106.229	-0.245	-0.055
-503.697	157.218	-0.133	0.185
-502.683	-18.968	0.150	-0.094
-501.668	-200.000	0.014	0.215
-500.653	369.039	-0.043	0.087
-499.639	67.405	-0.367	-0.376
-498.624	-200.000	0.038	0.196
-497.610	404.610	-0.201	0.425
-496.595	-126.539	0.161	-0.024
-495.581	45.904	0.271	-0.252
-494.566	-95.489	-0.293	0.079
-493.551	-100.194	0.353	0.088
-492.537	-29.541	0.223	0.128
-491.522	-72.111	0.019	0.007
-490.508	-200.000	0.010	-0.123
-489.493	155.810	0.086	0.118
-488.478	40.065	-0.241	0.217
-487.464	55.244	0.145	0.141
-486.449	76.178	0.156	0.166
-485.435	-200.000	0.009	-0.338
-484.420	81.201	0.187	0.202
-483.405	179.774	-0.120	0.177
-482.391	-155.184	-0.391	-0.026
-481.376	32.620	-0.109	-0.095
-480.362	502.893	0.239	0.555
-479.347	-74.221	-0.328	-0.119
-478.332	750.977	0.078	-0.211
-477.318	61.877	-0.105	0.105
-476.303	20.393	-0.340	0.276
-475.289	-98.143	-0.168	0.043
-474.274	-86.964	0.045	0.014
-473.259	-7.501	-0.161	-0.109
-472.245	180.425	0.081	-0.119
-471.230	138.198	-0.126	0.166
-470.216	-200.000	0.013	0.399
-469.201	145.427	0.129	0.173
-468.186	-77.261	-0.051	-0.018
-467.172	-39.575	0.179	0.094
-466.157	-200.000	-0.027	0.131
-465.143	396.720	-0.122	0.255
-464.128	238.218	0.094	-0.156
-463.113	130.045	-0.018	0.023
-462.099	462.452	0.113	0.253
-461.084	271.206	-0.130	-0.229
-460.070	63.697	0.123	-0.123
-459.055	221.666	0.093	0.150
-458.040	-2.839	-0.067	0.047
-457.026	-50.307	0.211	-0.100
-456.011	-200.000	-0.000	0.065
-454.997	481.437	-0.108	0.246
-453.982	185.270	-0.147	-0.219
-452.968	-89.882	0.373	-0.109
-451.953	800.000	-0.047	-0.160
-450.938	435.491	-0.148	-0.322
-449.924	225.278	0.056	0.091
-448.909	577.747	0.051	-0.124
-447.895	-129.551	-0.141	-0.020
-446.880	258.589	-0.111	-0.192
-445.865	5.794	-0.267	0.198
-444.851	-35.824	0.228	0.123
-443.836	800.000	-0.075	-0.308
-442.822	279.669	-0.109	0.195
-441.807	-200.000	-0.027	0.511
-440.792	6.864	0.167	-0.125
-439.778	-43.527	-0.041	0.021
-438.763	-21.845	0.052	-0.032
-437.749	82.424	0.159	-0.173
-436.734	-200.000	0.007	0.056
-435.719	57.188	0.197	-0.193
-434.705	-200.000	0.040	0.396
-433.690	-128.849	0.233	-0.033
-432.676	-51.853	0.058	-0.027
-431.661	270.291	-0.094	0.165
-430.646	-197.541	0.035	-0.000
-429.632	-49.318	0.136	0.065
-428.617	-200.000	0.011	0.227
-427.603	800.000	0.108	0.326
-426.588	-200.000	-0.008	-0.250
-425.573	64.142	-0.099	-0.099
-424.559	-141.636	0.238	0.024
-423.544	-23.074	-0.160	-0.097
-422.530	-100.441	0.202	0.050
-421.515	360.426	-0.039	-0.079
-420.500	23.712	-0.257	0.212
-419.486	-200.000	0.024	-0.143
-418.471	800.000	0.030	-0.086
-417.457	-200.000	-0.091	0.413
-416.442	103.183	0.407	0.477
-415.428	386.712	-0.176	0.364
-414.413	-66.243	-0.201	0.080
-413.398	194.566	0.122	0.186
-412.384	-7.741	0.220	0.149
-411.369	-129.878	0.180	0.025
-410.355	-99.061	-0.199	-0.050
-409.340	52.670	0.153	0.146
-408.325	-80.772	0.050	-0.017
-407.311	121.790	-0.184	0.230
-406.296	353.732	0.033	0.065
-405.282	233.784	-0.126	-0.208
-404.267	-200.000	0.014	0.316
-403.252	-25.223	0.267	0.158
-402.238	135.110	0.033	0.043
-401.223	257.868	0.030	0.052
-400.209	-129.650	-0.171	0.024
-399.194	-200.000	-0.020	0.285
-398.179	-66.121	-0.217	-0.087
-397.165	-1.218	0.059	-0.042
-396.150	-124.649	-0.198	-0.031
-395.136	-200.000	0.101	-0.506
-394.121	142.812	-0.106	-0.141
-393.106	-7.077	0.267	-0.182
-392.092	800.000	-0.073	0.217
-391.077	-200.000	-0.021	0.233
-390.063	-15.240	0.149	-0.096
-389.048	331.784	-0.085	-0.165
-388.033	217.062	-0.058	0.092
-387.019	47.943	-0.087	0.082
-386.004	99.448	-0.194	0.224
-384.990	247.957	0.069	-0.117
-383.975	-115.011	0.053	-0.010
-382.960	-72.225	0.156	-0.058
-381.946	800.000	-0.022	-0.095
-380.931	-24.456	-0.177	0.105
-379.917	-200.000	-0.024	0.168
-378.902	-64.992	0.234	0.095
-377.888	-95.577	0.259	-0.069
-376.873	268.572	0.037	0.064
-375.858	-150.538	-0.187	0.014
-374.844	-200.000	-0.034	-0.263
-373.829	-181.236	0.131	-0.003
-372.815	-102.658	0.193	-0.046
-371.800	-200.000	-0.036	-0.261
-370.785	-34.420	0.343	-0.188
-369.771	-19.345	0.413	-0.256
-368.756	-90.203	0.279	-0.081
-367.742	41.067	0.143	-0.129
-366.727	-20.800	0.219	0.134
-365.712	-46.346	-0.055	0.027
-364.698	474.546	-0.146	0.329
-363.683	-200.000	-0.039	-0.308
-362.669	33.605	0.238	0.206
-361.654	160.193	0.139	-0.194
-360.639	-200.000	-0.010	0.232
-359.625	-180.381	0.282	0.006
-358.610	-200.000	0.034	0.349
-357.596	96.119	-0.242	0.276
-356.581	222.399	-0.020	0.033
-355.566	800.000	0.097	-0.323
-354.552	775.850	0.086	-0.234
-353.537	2.806	-0.134	0.097
-352.523	-188.623	0.229	0.003
-351.508	512.623	0.069	-0.161
-350.493	-200.000	0.010	-0.183
-349.479	800.000	0.057	-0.196
-348.464	252.734	-0.125	0.212
-347.450	54.910	0.397	0.382
-346.435	260.993	-0.173	0.300
-345.420	365.602	-0.143	-0.287
-344.406	252.311	0.134	0.228
-343.391	7.546	0.273	-0.204
-342.377	87.148	-0.174	0.192
-341.362	477.294	-0.054	-0.122
-340.348	-200.000	0.041	-0.256
-339.333	-155.872	0.083	0.005
-338.318	-156.537	-0.296	-0.018
-337.304	81.411	-0.383	-0.414
-336.289	-66.802	-0.145	0.057
-335.275	-37.427	0.219	-0.117
-334.260	-200.000	0.074	-0.463
-333.245	-200.000	0.031	-0.138
-332.231	240.447	-0.137	-0.229
-331.216	127.487	0.171	0.217
-330.202	-167.800	0.185	-0.007
-329.187	-148.153	0.010	0.001
-328.172	-38.038	0.017	0.009
-327.158	-181.728	-0.112	0.002
-326.143	768.777	-0.039	0.107
-325.129	800.000	0.049	0.144
-324.114	-50.937	0.123	0.057
-323.099	-122.965	0.147	-0.024
-322.085	41.590	-0.236	0.213
-321.070	728.239	0.007	-0.019
-320.056	-54.710	0.134	0.060
-319.041	28.396	-0.137	-0.116
-318.026	10.613	-0.244	0.186
-317.012	-200.000	-0.025	0.125
-315.997	-83.047	0.156	-0.050
-314.983	-58.710	-0.352	0.152
-313.968	-30.426	-0.071	-0.040
-312.953	800.000	-0.098	0.282
-311.939	-8.001	-0.169	-0.114
-310.924	800.000	-0.049	0.169
-309.910	-90.539	-0.149	0.043
-308.895	-3.842	0.169	0.117
-307.880	639.075	-0.079	-0.201
-306.866	-200.000	-0.039	0.367
-305.851	-73.194	0.306	0.112
-304.837	5.873	-0.361	-0.266
-303.822	-143.393	0.092	0.009
-302.807	176.719	-0.200	-0.290
-301.793	-16.601	0.215	-0.136
-300.778	245.221	0.154	0.258
-299.764	-44.849	0.073	-0.036
-298.749	-45.373	-0.047	0.023
-297.735	800.000	-0.106	-0.389
-296.720	272.761	0.102	-0.180
-295.705	161.627	-0.101	-0.141
-294.691	558.859	0.148	0.356
-293.676	-60.665	-0.043	0.018
-292.662	-133.656	0.233	-0.029
-291.647	-200.000	0.051	-0.230
-290.632	272.142	0.046	0.080
-289.618	-200.000	-0.029	0.182
-288.603	-107.756	0.316	0.069
-287.589	78.862	-0.264	-0.281
-286.574	380.935	0.082	0.167
-285.559	-200.000	-0.028	0.482
-284.545	-200.000	-0.006	0.241
-283.530	-200.000	0.027	-0.200
-282.516	212.422	-0.105	0.165
-281.501	-200.000	0.038	0.167
-280.486	68.873	-0.077	-0.079
-279.472	102.268	0.155	0.180
-278.457	-68.958	0.152	0.058
-277.443	239.835	0.142	0.236
-276.428	-29.122	0.136	0.077
-275.413	800.000	0.104	-0.401
-274.399	148.376	-0.204	-0.274
-273.384	315.145	-0.086	-0.162
-272.370	-44.425	-0.153	0.076
-271.355	800.000	0.062	-0.206
-270.340	138.753	-0.270	-0.353
-269.326	-102.613	0.135	0.032
-268.311	194.566	0.230	-0.347
-267.297	-131.472	0.324	0.043
-266.282	-19.830	0.122	-0.075
-265.267	-200.000	-0.015	-0.071
-264.253	-66.402	0.334	0.132
-263.238	422.796	-0.178	-0.380
-262.224	555.865	-0.113	-0.272
-261.209	-88.043	0.281	-0.084
-260.195	182.036	0.188	0.276
-259.180	99.253	0.028	-0.033
-258.165	-62.166	-0.059	-0.025
-257.151	800.000	-0.068	0.239
-256.136	800.000	-0.129	0.412
-255.122	-31.902	0.107	-0.060
-254.107	538.297	0.188	-0.444
-253.092	15.094	-0.075	-0.059
-252.078	186.912	-0.187	0.277
-251.063	385.519	0.195	-0.399
-250.049	800.000	-0.094	-0.353
-249.034	240.066	0.193	0.319
-248.019	94.747	0.244	-0.276
-247.005	-200.000	0.012	0.064
-245.990	342.403	-0.074	-0.144
-244.976	168.598	0.081	0.115
-243.961	-114.711	0.066	-0.013
-242.946	-200.000	0.017	-0.261
-241.932	-76.130	0.144	0.051
-240.917	774.691	-0.121	-0.327
-239.903	138.066	0.172	-0.224
-238.888	-129.542	-0.018	0.003
-237.873	42.295	0.185	0.167
-236.859	203.534	0.046	-0.071
-235.844	18.387	0.001	0.001
-234.830	-67.657	0.192	-0.075
-233.815	-3.864	0.154	-0.106
-232.800	-76.533	-0.271	0.095
-231.786	-140.942	-0.320	0.033
-230.771	-146.015	0.181	0.016
-229.757	78.806	-0.014	0.014
-228.742	102.058	-0.049	0.057
-227.727	-141.261	-0.075	-0.008
-226.713	-200.000	-0.038	-0.173
-225.698	69.167	-0.095	0.097
-224.684	542.994	0.175	-0.414
-223.669	-9.931	-0.280	-0.185
-222.655	-50.774	-0.220	-0.103
-221.640	647.965	-0.153	-0.388
-220.625	-142.270	0.272	0.027
-219.611	-136.017	0.166	0.019
-218.596	-200.000	-0.010	-0.205
-217.582	-66.650	-0.267	-0.105
-216.567	-90.848	-0.335	0.096
-215.552	193.068	0.200	-0.300
-214.538	-95.759	-0.297	-0.079
-213.523	-108.745	-0.417	0.089
-212.509	232.332	0.062	-0.102
-211.494	-128.410	0.473	-0.067
-210.479	18.460	-0.141	-0.112
-209.465	100.124	-0.193	0.222
-208.450	-22.779	-0.215	0.129
-207.436	800.000	-0.042	0.140
-206.421	86.454	0.119	-0.130
-205.406	-200.000	0.003	0.040
-204.392	-200.000	0.017	-0.121
-203.377	-75.089	0.103	0.037
-202.363	-104.738	0.207	-0.047
-201.348	-30.589	-0.288	0.162
-200.333	800.000	-0.128	0.467
-199.319	-200.000	0.033	-0.174
-198.304	-200.000	0.029	-0.220
-197.290	325.529	-0.130	0.247
-196.275	-96.662	-0.402	0.105
-195.260	497.650	0.173	0.396
-194.246	-18.856	-0.088	0.054
-193.231	800.000	-0.052	0.148
-192.217	75.465	0.228	0.239
-191.202	48.415	-0.122	-0.113
-190.187	30.862	-0.192	-0.163
-189.173	-74.802	-0.185	0.066
-188.158	-149.380	0.054	-0.004
-187.144	800.000	0.070	0.204
-186.129	-196.743	0.225	-0.001
-185.114	-200.000	-0.015	0.114
-184.100	73.805	-0.045	-0.047
-183.085	-66.591	0.091	-0.036
-182.071	-200.000	-0.024	0.145
-181.056	114.506	-0.180	0.217
-180.042	515.601	-0.115	0.266
-179.027	688.642	-0.138	-0.358
-178.012	-63.208	-0.455	0.186
-176.998	-200.000	0.010	-0.090
-175.983	-117.699	0.150	0.027
-174.969	330.094	0.144	0.276
-173.954	161.104	0.127	0.176
-172.939	145.726	0.182	-0.242
-171.925	293.372	0.057	0.103
-170.910	21.657	-0.173	-0.140
-169.896	-39.950	0.115	0.060
-168.881	90.676	0.259	-0.288
-167.866	-200.000	-0.001	0.155
-166.852	-72.936	0.141	0.051
-165.837	800.000	0.031	-0.089
-164.823	-200.000	0.001	0.165
-163.808	19.601	-0.333	-0.265
-162.793	149.875	-0.096	-0.129
-161.779	247.147	-0.139	-0.233
-160.764	21.085	-0.175	-0.141
-159.750	112.268	0.212	-0.254
-158.735	-200.000	0.012	0.282
-157.720	800.000	0.039	-0.163
-156.706	-124.093	0.064	0.010
-155.691	-105.909	0.020	-0.004
-154.677	-84.583	0.257	0.080
-153.662	800.000	0.165	0.574
-152.647	-200.000	-0.093	0.448
-151.633	-106.729	0.286	-0.063
-150.618	-148.587	0.210	-0.017
-149.604	641.951	0.166	-0.419
-148.589	-119.593	0.290	0.050
-147.574	-158.282	-0.242	0.014
-146.560	-86.354	-0.256	-0.078
-145.545	129.179	-0.144	-0.182
-144.531	113.546	-0.052	-0.062
-143.516	-49.790	0.131	0.062
-142.502	-200.000	0.000	0.127
-141.487	-62.800	-0.383	0.157
-140.472	91.049	0.041	0.045
-139.458	546.080	0.078	-0.184
-138.443	-200.000	0.014	0.110
-137.429	102.206	-0.066	0.077
-136.414	800.000	0.083	-0.297
-135.399	-92.424	0.293	-0.082
-134.385	-200.000	-0.194	-0.001
-133.370	90.150	0.123	0.137
-132.356	476.626	-0.255	0.571
-131.341	-11.526	0.082	0.053
-130.326	-0.313	0.284	0.200
-129.312	-200.000	0.102	-0.000
-128.297	348.671	0.069	-0.135
-127.283	49.614	0.260	0.243
-126.268	-5.839	0.181	-0.122
-125.253	-4.668	0.081	0.055
-124.239	-128.486	-0.286	0.040
-123.224	118.365	-0.011	-0.013
-122.210	-44.473	0.304	0.151
-121.195	239.433	-0.120	0.198
-120.180	-200.000	0.061	0.283
