DTS Sentinel unit serial number:	SN413079Multiplexer serial number:	ORYXHardware model number:	OX4-SRSoftware version number:	ORYX F/W v4.00 Oryx Data Collector v3.7.2.0data status	okinstallation	princeton_trtdifferential loss correction	single-endedforward channel	channel 2reverse channel	N/Adate	2019/09/14time	11:07:34forward acquisition time	60.00reverse acquisition time	0.00gamma	496.2192k internal	0.2312k external	0.2312temperature offset calibration	1.0148default loss term (dB/km)	0.3790temperature slope calibration	1.0000multiplexer offset coefficient	1.0000multiplexer slope coefficient	1.0000fibre end	0.00T internal ref (°C)	36.30T ext. ref 1 (°C)	4.43T ext. ref 2 (°C)	34.12length (m)	temperature (°C)	Stokes	anti-Stokes-747.200	800.000	-0.056	-0.217
-746.185	800.000	-0.047	0.203
-745.171	-10.353	0.237	-0.160
-744.156	-24.792	-0.215	0.130
-743.142	-164.901	0.606	0.028
-742.127	104.800	-0.344	0.412
-741.112	-118.163	-0.155	-0.028
-740.098	250.349	-0.275	0.473
-739.083	-29.296	0.102	-0.059
-738.069	-158.321	-0.115	0.007
-737.054	49.217	-0.246	-0.235
-736.039	-106.137	-0.116	0.027
-735.025	211.973	-0.037	0.060
-734.010	-177.966	-0.393	-0.010
-732.996	-12.955	-0.185	0.122
-731.981	142.428	0.067	-0.090
-730.966	153.663	0.209	-0.290
-729.952	-27.535	-0.144	0.085
-728.937	-41.002	-0.253	0.133
-727.923	92.247	-0.164	0.187
-726.908	14.162	-0.084	-0.067
-725.894	800.000	0.076	-0.320
-724.879	-7.265	0.126	-0.087
-723.864	64.170	-0.359	-0.367
-722.850	-200.000	-0.054	-0.312
-721.835	15.147	0.222	-0.176
-720.821	210.191	-0.135	-0.215
-719.806	-48.288	-0.124	-0.061
-718.791	181.492	-0.185	-0.276
-717.777	-110.469	-0.353	0.074
-716.762	-200.000	-0.023	-0.245
-715.748	-179.766	-0.351	0.008
-714.733	48.719	0.211	-0.200
-713.718	-200.000	-0.011	-0.123
-712.704	330.587	0.021	0.041
-711.689	295.653	-0.055	0.102
-710.675	120.847	0.050	-0.064
-709.660	-200.000	0.026	0.273
-708.645	800.000	-0.044	-0.139
-707.631	-1.675	0.357	-0.255
-706.616	90.688	0.115	-0.130
-705.602	-139.083	-0.380	0.042
-704.587	-200.000	-0.016	-0.344
-703.572	-151.837	-0.105	0.008
-702.558	217.150	0.197	-0.317
-701.543	-100.137	-0.344	-0.087
-700.529	84.343	0.159	0.176
-699.514	743.062	-0.154	0.418
-698.499	27.183	-0.078	0.066
-697.485	-76.088	0.050	-0.018
-696.470	-111.623	0.263	0.054
-695.456	-142.562	-0.453	-0.045
-694.441	108.655	-0.129	-0.155
-693.426	24.498	-0.100	-0.083
-692.412	-130.875	0.245	0.033
-691.397	-200.000	0.034	-0.215
-690.383	65.057	-0.173	-0.177
-689.368	96.932	0.054	-0.063
-688.354	-32.363	0.154	-0.087
-687.339	-37.468	-0.144	-0.078
-686.324	171.669	0.109	0.159
-685.310	165.325	-0.064	-0.092
-684.295	-7.838	-0.239	0.164
-683.281	-159.173	-0.112	-0.006
-682.266	27.778	-0.208	0.177
-681.251	-134.722	0.182	0.022
-680.237	-157.413	-0.196	-0.012
-679.222	800.000	-0.040	0.128
-678.208	-111.898	0.148	-0.030
-677.193	-105.048	-0.372	-0.086
-676.178	-200.000	0.033	-0.250
-675.164	256.420	-0.029	0.051
-674.149	-32.605	-0.142	-0.080
-673.135	388.622	0.074	0.156
-672.120	-200.000	-0.004	0.116
-671.105	-200.000	0.012	-0.484
-670.091	167.605	-0.036	-0.052
-669.076	-96.364	-0.116	-0.031
-668.062	800.000	-0.039	-0.141
-667.047	800.000	0.050	-0.143
-666.032	-200.000	-0.035	-0.351
-665.018	-200.000	0.052	0.252
-664.003	-141.641	-0.202	0.021
-662.989	-200.000	-0.015	-0.135
-661.974	38.306	0.198	-0.178
-660.959	-43.428	-0.165	0.085
-659.945	-158.697	0.260	-0.015
-658.930	-200.000	0.035	0.239
-657.916	-135.483	0.361	0.044
-656.901	134.407	0.119	-0.156
-655.886	-57.058	-0.107	0.048
-654.872	24.193	-0.306	-0.256
-653.857	120.686	0.071	-0.090
-652.843	-84.221	0.215	-0.069
-651.828	134.958	0.105	0.138
-650.814	498.430	-0.010	0.024
-649.799	71.682	0.157	0.165
-648.784	420.839	-0.113	0.244
-647.770	175.102	0.108	0.157
-646.755	70.578	0.266	-0.278
-645.741	-94.807	-0.264	-0.072
-644.726	-18.033	-0.401	-0.254
-643.711	-200.000	0.004	0.026
-642.697	212.334	-0.056	-0.090
-641.682	591.188	-0.052	0.131
-640.668	-72.125	0.047	0.018
-639.653	800.000	0.084	-0.277
-638.638	-63.473	-0.139	-0.058
-637.624	-118.320	-0.089	-0.016
-636.609	447.087	0.041	-0.091
-635.595	-200.000	0.013	-0.257
-634.580	-100.341	0.121	-0.030
-633.565	-85.137	-0.316	-0.100
-632.551	-124.676	0.230	-0.036
-631.536	-48.130	0.207	-0.101
-630.522	-172.682	-0.216	-0.007
-629.507	-104.387	-0.526	-0.123
-628.492	-140.748	0.170	0.018
-627.478	-200.000	-0.025	-0.213
-626.463	-81.394	-0.208	-0.069
-625.449	126.957	0.097	-0.124
-624.434	-63.371	0.267	0.111
-623.419	-200.000	0.014	0.097
-622.405	227.734	-0.101	0.165
-621.390	-147.505	-0.257	-0.022
-620.376	-200.000	-0.007	0.163
-619.361	75.162	-0.227	-0.242
-618.346	177.652	0.176	-0.259
-617.332	-118.139	-0.302	0.054
-616.317	-200.000	-0.031	-0.188
-615.303	73.925	-0.236	-0.250
-614.288	799.958	-0.101	-0.282
-613.273	13.065	-0.015	0.011
-612.259	-154.148	0.217	-0.015
-611.244	-200.000	0.041	0.189
-610.230	800.000	0.035	0.155
-609.215	-200.000	0.012	0.324
-608.201	-121.299	0.339	0.057
-607.186	46.421	-0.255	-0.239
-606.171	66.208	-0.121	-0.124
-605.157	-200.000	0.003	0.296
-604.142	-19.673	0.175	-0.109
-603.128	64.227	-0.215	-0.218
-602.113	-59.789	0.100	-0.043
-601.098	-200.000	0.027	-0.120
-600.084	-117.004	0.307	0.057
-599.069	-69.291	-0.307	-0.119
-598.055	-18.655	-0.138	-0.086
-597.040	-200.000	0.026	0.326
-596.025	676.166	0.126	0.330
-595.011	0.811	-0.148	-0.107
-593.996	116.611	-0.112	0.139
-592.982	-136.430	-0.149	0.017
-591.967	-37.645	-0.160	0.086
-590.952	-158.220	-0.198	0.012
-589.938	68.794	0.216	-0.224
-588.923	-68.199	0.180	0.071
-587.909	-193.208	0.014	0.000
-586.894	91.039	-0.167	0.189
-585.879	-34.675	-0.196	-0.108
-584.865	-30.737	0.057	-0.032
-583.850	-74.431	-0.049	0.018
-582.836	199.949	-0.258	0.399
-581.821	-130.241	-0.029	-0.004
-580.806	166.892	-0.163	0.233
-579.792	-32.217	-0.176	-0.099
-578.777	-1.528	0.245	0.174
-577.763	201.477	-0.093	-0.144
-576.748	487.668	-0.109	-0.251
-575.733	246.849	0.107	-0.182
-574.719	-8.279	0.193	-0.131
-573.704	126.193	0.237	-0.302
-572.690	-200.000	-0.042	0.209
-571.675	11.376	0.131	-0.101
-570.661	-126.125	-0.143	0.022
-569.646	112.926	-0.087	0.106
-568.631	335.890	0.160	0.312
-567.617	-34.745	-0.190	-0.105
-566.602	155.506	0.260	-0.360
-565.588	-130.101	0.325	0.045
-564.573	49.414	0.033	-0.031
-563.558	-200.000	-0.005	-0.078
-562.544	-117.783	0.023	-0.004
-561.529	-200.000	0.039	0.313
-560.515	-9.463	-0.159	-0.107
-559.500	-200.000	-0.007	-0.220
-558.485	-200.000	0.066	-0.327
-557.471	-19.632	0.164	0.102
-556.456	37.848	-0.201	0.180
-555.442	-56.502	0.188	0.084
-554.427	-21.836	-0.188	0.115
-553.412	116.696	0.174	0.215
-552.398	351.478	0.131	-0.262
-551.383	-61.241	-0.229	-0.097
-550.369	-69.532	0.229	-0.088
-549.354	-108.298	-0.306	-0.066
-548.339	800.000	-0.033	-0.121
-547.325	155.230	0.168	0.233
-546.310	-102.920	0.093	0.022
-545.296	-200.000	0.008	0.147
-544.281	87.006	-0.207	0.230
-543.266	45.690	0.144	-0.134
-542.252	-155.131	-0.165	0.011
-541.237	51.988	-0.054	-0.052
-540.223	359.604	-0.099	0.199
-539.208	-2.793	0.323	0.227
-538.193	209.348	-0.070	0.110
-537.179	-200.000	-0.022	-0.168
-536.164	631.108	-0.050	-0.127
-535.150	800.000	0.051	0.195
-534.135	-27.231	-0.137	-0.080
-533.121	-200.000	0.007	0.174
-532.106	-182.205	0.216	0.004
-531.091	100.290	-0.086	0.101
-530.077	200.532	0.150	-0.232
-529.062	-200.000	0.008	-0.125
-528.048	-82.690	-0.419	-0.137
-527.033	56.492	0.109	0.107
-526.018	132.292	-0.163	0.211
-525.004	114.407	-0.211	0.259
-523.989	21.779	0.153	0.126
-522.975	103.198	-0.235	-0.277
-521.960	634.341	0.154	-0.394
-520.945	678.256	-0.092	-0.242
-519.931	64.238	-0.116	-0.117
-518.916	-200.000	-0.021	0.144
-517.902	800.000	-0.075	0.300
-516.887	-100.667	0.273	-0.068
-515.872	-115.919	-0.104	-0.020
-514.858	-22.878	0.146	-0.088
-513.843	-58.448	-0.325	0.142
-512.829	-112.207	-0.112	0.023
-511.814	151.608	0.098	0.134
-510.799	-200.000	-0.044	-0.256
-509.785	-100.691	-0.250	0.062
-508.770	37.652	0.112	-0.100
-507.756	-122.770	0.167	0.027
-506.741	-100.788	0.149	-0.037
-505.726	-200.000	-0.013	-0.092
-504.712	693.812	-0.070	-0.184
-503.697	-200.000	0.066	0.508
-502.683	130.503	0.146	0.188
-501.668	-200.000	-0.005	0.039
-500.653	-164.991	-0.281	0.013
-499.639	73.490	0.115	-0.121
-498.624	-200.000	0.067	-0.481
-497.610	372.140	-0.112	0.229
-496.595	-103.071	-0.203	-0.048
-495.581	-200.000	0.059	-0.330
-494.566	-200.000	0.002	-0.044
-493.551	74.663	0.019	0.020
-492.537	-48.245	-0.294	-0.142
-491.522	-200.000	0.023	-0.113
-490.508	-168.484	-0.070	-0.003
-489.493	800.000	-0.037	-0.145
-488.478	300.040	0.129	-0.240
-487.464	-71.243	-0.248	0.093
-486.449	-200.000	0.019	-0.186
-485.435	410.192	-0.084	-0.178
-484.420	-1.781	-0.223	-0.157
-483.405	247.295	-0.082	-0.138
-482.391	64.604	0.273	0.276
-481.376	133.589	0.161	-0.209
-480.362	800.000	-0.083	-0.296
-479.347	-127.071	0.341	0.050
-478.332	54.037	-0.047	-0.046
-477.318	-44.836	0.105	0.053
-476.303	-26.880	-0.147	-0.086
-475.289	-43.911	0.344	-0.174
-474.274	-200.000	-0.014	0.066
-473.259	-200.000	-0.024	-0.249
-472.245	-200.000	-0.088	-0.576
-471.230	179.238	0.128	-0.188
-470.216	-200.000	-0.032	-0.425
-469.201	800.000	0.066	-0.226
-468.186	-155.710	-0.154	0.010
-467.172	-188.720	0.380	-0.005
-466.157	-133.564	0.425	0.053
-465.143	674.057	0.087	0.227
-464.128	-73.246	-0.416	-0.153
-463.113	-200.000	0.012	0.284
-462.099	602.978	-0.119	0.298
-461.084	-200.000	0.006	0.177
-460.070	212.185	-0.197	-0.312
-459.055	-103.172	-0.082	0.019
-458.040	800.000	-0.067	0.263
-457.026	258.359	-0.068	-0.117
-456.011	346.954	-0.039	0.076
-454.997	54.340	-0.163	0.157
-453.982	-142.784	0.062	0.006
-452.968	-200.000	0.160	0.000
-451.953	13.511	0.215	-0.167
-450.938	-200.000	0.019	-0.427
-449.924	-200.000	-0.035	0.268
-448.909	-70.643	-0.183	0.069
-447.895	-85.944	-0.284	-0.088
-446.880	-5.855	0.023	-0.016
-445.865	-200.000	-0.016	-0.315
-444.851	-148.236	-0.089	-0.007
-443.836	800.000	-0.065	0.259
-442.822	-157.304	-0.324	-0.020
-441.807	-84.618	-0.153	0.048
-440.792	-200.000	-0.001	-0.053
-439.778	540.936	-0.077	0.184
-438.763	22.221	0.256	0.209
-437.749	130.752	-0.234	0.301
-436.734	-92.774	-0.221	0.062
-435.719	-98.725	0.273	0.070
-434.705	514.647	-0.134	0.313
-433.690	154.446	-0.074	0.101
-432.676	-93.912	0.120	-0.033
-431.661	-200.000	0.154	0.000
-430.646	800.000	-0.048	0.159
-429.632	-127.263	0.134	0.020
-428.617	-200.000	-0.007	0.175
-427.603	-24.213	0.056	-0.033
-426.588	207.602	-0.081	0.127
-425.573	-114.714	0.269	0.052
-424.559	-117.115	-0.252	0.046
-423.544	107.103	0.157	0.187
-422.530	232.668	0.121	-0.199
-421.515	-68.725	0.297	0.115
-420.500	767.616	0.041	-0.113
-419.486	-90.742	-0.319	-0.092
-418.471	800.000	0.039	-0.110
-417.457	-200.000	0.014	0.424
-416.442	346.601	0.115	0.227
-415.428	-132.740	0.095	0.012
-414.413	143.575	-0.208	0.277
-413.398	-0.276	-0.208	-0.148
-412.384	167.106	0.140	-0.199
-411.369	186.200	-0.218	-0.324
-410.355	26.723	-0.232	-0.194
-409.340	-5.505	0.246	0.169
-408.325	-200.000	0.012	0.254
-407.311	40.633	-0.209	0.188
-406.296	-185.807	-0.223	-0.003
-405.282	-165.250	0.169	-0.007
-404.267	-73.675	-0.137	-0.050
-403.252	42.242	0.221	0.201
-402.238	-200.000	0.038	-0.438
-401.223	26.438	0.336	-0.281
-400.209	800.000	-0.053	-0.166
-399.194	100.707	0.100	0.116
-398.179	98.967	0.036	0.042
-397.165	593.641	-0.158	-0.392
-396.150	-109.949	0.109	-0.023
-395.136	800.000	0.060	0.190
-394.121	-12.667	0.196	0.128
-393.106	-96.694	0.079	0.021
-392.092	800.000	0.084	0.285
-391.077	-22.997	-0.327	0.197
-390.063	-59.235	-0.389	-0.168
-389.048	-200.000	0.032	0.149
-388.033	800.000	-0.022	-0.097
-387.019	-43.481	-0.345	0.174
-386.004	40.027	0.174	0.156
-384.990	189.656	0.103	0.155
-383.975	-111.194	0.171	0.035
-382.960	160.464	-0.139	-0.195
-381.946	-146.359	0.250	0.022
-380.931	-150.197	-0.360	0.028
-379.917	738.874	0.068	-0.182
-378.902	-145.576	-0.118	-0.011
-377.888	266.115	-0.115	0.201
-376.873	-126.036	-0.337	0.051
-375.858	-128.550	-0.199	-0.028
-374.844	-200.000	0.016	0.139
-373.829	13.303	-0.118	0.091
-372.815	-200.000	0.014	0.214
-371.800	-190.688	0.355	-0.004
-370.785	412.746	0.129	-0.274
-369.771	207.769	0.082	0.128
-368.756	-200.000	0.010	-0.065
-367.742	6.567	-0.337	-0.251
-366.727	26.755	-0.171	0.143
-365.712	-2.590	0.157	-0.110
-364.698	-62.372	-0.342	0.142
-363.683	800.000	0.105	-0.362
-362.669	585.195	-0.165	0.406
-361.654	124.035	-0.285	0.358
-360.639	-126.395	0.194	-0.029
-359.625	-98.676	-0.255	0.065
-358.610	44.030	0.094	0.086
-357.596	37.161	-0.074	-0.065
-356.581	-191.671	0.332	-0.003
-355.566	-200.000	-0.008	-0.305
-354.552	33.234	-0.151	0.131
-353.537	-24.208	0.117	0.070
-352.523	179.070	-0.022	-0.031
-351.508	376.635	0.031	-0.063
-350.493	-80.292	-0.381	-0.127
-349.479	-19.938	0.117	-0.072
-348.464	30.146	0.082	-0.070
-347.450	-8.252	-0.161	0.108
-346.435	-33.488	-0.109	-0.060
-345.420	-8.040	0.097	0.066
-344.406	-84.403	-0.154	-0.049
-343.391	377.210	-0.003	-0.006
-342.377	129.918	0.088	0.112
-341.362	-18.870	-0.200	-0.124
-340.348	-7.728	0.215	-0.145
-339.333	-200.000	-0.035	0.166
-338.318	-123.445	0.284	-0.045
-337.304	386.096	0.156	-0.322
-336.289	-64.949	-0.131	0.053
-335.275	-161.921	-0.069	-0.003
-334.260	-87.166	0.224	-0.068
-333.245	-149.012	0.056	-0.005
-332.231	-126.460	-0.120	-0.018
-331.216	-164.790	0.177	0.008
-330.202	-182.804	-0.509	0.009
-329.187	-103.293	0.178	0.042
-328.172	-20.078	-0.056	0.035
-327.158	-78.451	0.214	0.073
-326.143	-92.176	0.223	0.063
-325.129	-79.670	0.225	0.076
-324.114	-46.159	0.241	0.118
-323.099	-99.714	-0.337	-0.084
-322.085	-200.000	0.018	0.115
-321.070	-200.000	-0.044	0.395
-320.056	-200.000	-0.006	-0.093
-319.041	-82.181	0.096	0.031
-318.026	800.000	0.091	-0.343
-317.012	312.307	-0.072	0.134
-315.997	43.566	0.200	0.182
-314.983	800.000	0.078	0.328
-313.968	800.000	-0.133	0.456
-312.953	-160.704	0.130	0.007
-311.939	-200.000	0.015	-0.175
-310.924	6.299	0.313	0.231
-309.910	-41.563	-0.244	-0.125
-308.895	-90.585	-0.155	-0.045
-307.880	-200.000	0.011	0.050
-306.866	-200.000	0.029	0.331
-305.851	-67.548	0.262	0.102
-304.837	51.387	-0.063	0.060
-303.822	202.946	0.178	-0.274
-302.807	-69.852	0.301	0.115
-301.793	-200.000	-0.047	0.462
-300.778	-200.000	0.034	0.173
-299.764	-173.972	-0.146	0.004
-298.749	-104.703	0.334	-0.077
-297.735	31.331	0.009	-0.008
-296.720	-46.894	-0.057	-0.028
-295.705	800.000	-0.016	-0.053
-294.691	-200.000	0.007	-0.109
-293.676	45.589	0.054	-0.049
-292.662	-53.757	0.157	0.071
-291.647	688.714	0.061	-0.160
-290.632	-85.791	-0.247	0.076
-289.618	800.000	0.047	-0.206
-288.603	273.839	-0.274	-0.484
-287.589	-160.310	0.068	0.004
-286.574	96.440	0.170	-0.193
-285.559	129.747	-0.142	-0.181
-284.545	-33.358	0.237	0.131
-283.530	-19.697	-0.020	-0.013
-282.516	800.000	0.093	-0.324
-281.501	216.468	0.184	-0.292
-280.486	-200.000	0.058	0.280
-279.472	800.000	-0.034	-0.105
-278.457	-200.000	-0.007	0.044
-277.443	-30.118	-0.248	0.140
-276.428	-145.508	0.197	-0.018
-275.413	-200.000	-0.015	0.252
-274.399	-23.938	0.229	-0.136
-273.384	-30.298	0.152	-0.086
-272.370	376.555	-0.048	-0.098
-271.355	36.840	-0.138	0.122
-270.340	-141.847	-0.282	0.028
-269.326	-120.651	-0.261	0.044
-268.311	124.550	0.079	0.099
-267.297	39.260	-0.082	0.073
-266.282	-200.000	-0.083	-0.509
-265.267	266.395	0.059	0.103
-264.253	-11.435	-0.032	0.021
-263.238	-135.158	0.182	0.022
-262.224	-100.429	-0.336	-0.083
-261.209	-141.176	-0.167	-0.017
-260.195	139.553	0.107	0.140
-259.180	-123.880	0.432	0.068
-258.165	-61.067	-0.090	0.038
-257.151	800.000	0.058	0.199
-256.136	50.588	-0.413	0.389
-255.122	106.842	-0.155	0.183
-254.107	-161.086	0.223	0.012
-253.092	-150.365	-0.259	0.020
-252.078	-200.000	-0.019	-0.274
-251.063	-73.718	0.251	0.091
-250.049	-117.375	0.046	0.008
-249.034	322.356	-0.194	0.368
-248.019	61.671	-0.162	0.160
-247.005	-179.753	0.229	-0.005
-245.990	-7.690	0.313	0.210
-244.976	-145.645	0.284	-0.025
-243.961	800.000	0.116	-0.337
-242.946	-145.079	-0.141	-0.013
-241.932	-200.000	0.022	0.351
-240.917	-62.860	-0.131	-0.054
-239.903	-151.828	0.302	-0.022
-238.888	-86.482	0.023	-0.007
-237.873	-200.000	-0.026	-0.188
-236.859	697.334	0.098	-0.257
-235.844	757.714	-0.063	-0.170
-234.830	215.314	0.125	-0.197
-233.815	-200.000	0.000	0.104
-232.800	-125.709	-0.140	0.021
-231.786	131.917	0.105	0.134
-230.771	-200.000	0.042	-0.295
-229.757	36.377	0.352	0.309
-228.742	-200.000	-0.015	-0.101
-227.727	237.054	-0.094	0.155
-226.713	27.774	-0.047	0.039
-225.698	237.495	-0.189	-0.312
-224.684	-28.346	-0.272	-0.156
-223.669	304.149	0.088	-0.162
-222.655	392.955	0.030	-0.062
-221.640	-119.710	0.051	-0.009
-220.625	-126.954	0.245	-0.036
-219.611	203.275	-0.123	-0.190
-218.596	221.812	0.226	-0.362
-217.582	-200.000	0.017	-0.085
-216.567	-132.866	0.084	-0.011
-215.552	-200.000	0.022	0.181
-214.538	-70.322	0.173	-0.065
-213.523	177.988	0.121	-0.175
-212.509	88.793	-0.283	0.312
-211.494	-200.000	-0.015	0.175
-210.479	241.787	-0.183	0.304
-209.465	-156.422	0.525	0.033
-208.450	50.765	0.182	-0.171
-207.436	-200.000	0.033	0.263
-206.421	-200.000	-0.024	-0.125
-205.406	-34.709	0.158	-0.086
-204.392	52.734	-0.205	-0.195
-203.377	-2.929	-0.175	-0.121
-202.363	-144.298	0.061	0.006
-201.348	-153.331	0.340	-0.024
-200.333	56.807	0.166	-0.160
-199.319	64.134	-0.075	-0.075
-198.304	-181.301	0.067	0.001
-197.290	800.000	-0.106	-0.328
-196.275	89.047	0.165	-0.182
-195.260	-127.350	-0.182	-0.026
-194.246	-61.383	0.183	0.076
-193.231	208.373	0.061	-0.094
-192.217	-200.000	0.026	0.123
-191.202	20.889	0.053	-0.042
-190.187	-60.661	0.136	0.057
-189.173	-200.000	0.018	0.115
-188.158	216.037	-0.133	-0.210
-187.144	-25.287	0.071	0.042
-186.129	36.299	-0.085	-0.075
-185.114	-117.026	0.292	-0.053
-184.100	-146.251	-0.414	-0.036
-183.085	-94.369	0.065	-0.018
-182.071	-52.763	-0.307	0.141
-181.056	57.877	0.116	-0.113
-180.042	-200.000	-0.049	0.220
-179.027	260.242	0.083	0.142
-178.012	-200.000	-0.052	0.280
-176.998	169.329	0.200	0.284
-175.983	-200.000	0.019	0.203
-174.969	245.844	-0.058	-0.097
-173.954	477.524	-0.032	0.071
-172.939	209.730	0.062	-0.097
-171.925	1.418	0.226	0.161
-170.910	-52.160	0.207	-0.095
-169.896	193.874	0.116	0.174
-168.881	800.000	0.053	-0.168
-167.866	-200.000	0.019	-0.101
-166.852	129.307	-0.066	0.084
-165.837	-17.197	0.209	0.131
-164.823	800.000	0.132	0.405
-163.808	-200.000	0.019	0.182
-162.793	96.763	0.021	0.024
-161.779	-161.717	0.162	-0.008
-160.764	-120.511	0.100	0.017
-159.750	-112.342	-0.147	-0.029
-158.735	-75.013	-0.258	0.092
-157.720	-200.000	0.039	-0.180
-156.706	84.177	0.008	0.008
-155.691	4.834	-0.245	0.178
-154.677	76.186	-0.110	0.115
-153.662	369.234	0.195	0.391
-152.647	37.540	0.285	-0.251
-151.633	-200.000	0.021	0.265
-150.618	-200.000	-0.024	-0.169
-149.604	439.052	-0.057	-0.123
-148.589	425.271	0.079	0.168
-147.574	66.566	-0.351	0.354
-146.560	-200.000	0.022	-0.261
-145.545	726.695	0.083	-0.219
-144.531	-135.028	0.037	-0.004
-143.516	-102.847	0.043	0.010
-142.502	90.014	0.183	-0.203
-141.487	-152.521	-0.253	-0.018
-140.472	-114.793	0.269	-0.051
-139.458	635.323	0.051	0.127
-138.443	-200.000	-0.014	-0.129
-137.429	-200.000	-0.048	0.470
-136.414	-20.702	0.049	-0.030
-135.399	-200.000	-0.012	0.220
-134.385	196.440	0.133	-0.201
-133.370	48.064	-0.038	-0.035
-132.356	192.500	0.128	-0.191
-131.341	401.550	0.136	0.282
-130.326	800.000	-0.027	-0.076
-129.312	106.504	0.171	-0.201
-128.297	101.886	-0.199	-0.230
-127.283	-200.000	0.058	-0.294
-126.268	18.224	-0.076	-0.060
-125.253	567.119	-0.056	-0.135
-124.239	349.623	-0.148	-0.290
-123.224	-98.848	-0.383	0.097
