DTS Sentinel unit serial number:	SN413079Multiplexer serial number:	ORYXHardware model number:	OX4-SRSoftware version number:	ORYX F/W v4.00 Oryx Data Collector v3.7.2.0data status	okinstallation	princeton_trtdifferential loss correction	single-endedforward channel	channel 2reverse channel	N/Adate	2019/09/16time	22:51:35forward acquisition time	60.00reverse acquisition time	0.00gamma	496.2192k internal	0.2329k external	0.2329temperature offset calibration	0.9974default loss term (dB/km)	0.3790temperature slope calibration	1.0000multiplexer offset coefficient	1.0000multiplexer slope coefficient	1.0000fibre end	0.00T internal ref (°C)	30.50T ext. ref 1 (°C)	0.09T ext. ref 2 (°C)	24.11length (m)	temperature (°C)	Stokes	anti-Stokes-747.200	-200.000	-0.032	-0.223
-746.185	-17.990	-0.199	0.125
-745.171	-84.181	0.182	-0.058
-744.156	140.839	-0.125	0.166
-743.142	-120.288	0.166	0.028
-742.127	-200.000	0.010	0.231
-741.112	-200.000	-0.030	-0.288
-740.098	66.910	-0.128	0.131
-739.083	800.000	-0.024	-0.100
-738.069	-200.000	-0.021	0.146
-737.054	-87.716	0.219	-0.067
-736.039	-122.675	-0.375	0.061
-735.025	800.000	0.046	-0.186
-734.010	217.268	-0.102	0.163
-732.996	800.000	-0.028	0.096
-731.981	51.379	0.175	0.168
-730.966	-123.752	-0.475	0.076
-729.952	-200.000	0.036	0.291
-728.937	-45.120	-0.097	0.049
-727.923	54.071	-0.259	-0.251
-726.908	-102.756	0.155	0.037
-725.894	-2.465	0.217	0.153
-724.879	-190.052	0.105	-0.001
-723.864	-89.952	-0.435	0.128
-722.850	-55.203	-0.373	0.169
-721.835	-13.432	-0.172	0.113
-720.821	-200.000	-0.003	-0.191
-719.806	-200.000	-0.044	0.319
-718.791	16.599	0.163	-0.130
-717.777	-148.244	0.172	-0.014
-716.762	168.066	-0.188	-0.269
-715.748	800.000	0.031	-0.118
-714.733	24.096	-0.138	-0.114
-713.718	59.635	-0.209	-0.208
-712.704	8.122	0.275	0.208
-711.689	-15.621	0.185	-0.119
-710.675	-55.248	0.184	0.083
-709.660	-132.076	-0.078	-0.010
-708.645	698.515	-0.114	-0.301
-707.631	-200.000	0.019	-0.199
-706.616	-51.166	-0.229	-0.108
-705.602	-91.337	-0.322	-0.093
-704.587	800.000	-0.054	-0.215
-703.572	-200.000	0.002	0.325
-702.558	800.000	0.014	-0.052
-701.543	-156.994	0.213	-0.013
-700.529	105.778	-0.106	0.126
-699.514	15.835	0.272	-0.215
-698.499	-11.975	-0.358	-0.236
-697.485	-168.355	0.114	0.004
-696.470	245.479	-0.031	0.052
-695.456	-200.000	-0.099	-0.537
-694.441	52.306	-0.055	0.053
-693.426	-200.000	0.017	-0.135
-692.412	-200.000	-0.004	0.086
-691.397	-48.605	-0.210	-0.102
-690.383	31.240	0.359	-0.310
-689.368	-200.000	0.005	0.097
-688.354	-200.000	0.056	-0.301
-687.339	-200.000	0.017	0.122
-686.324	-200.000	0.009	0.228
-685.310	-5.683	-0.392	-0.270
-684.295	800.000	-0.067	0.285
-683.281	68.949	-0.243	0.251
-682.266	-200.000	0.050	0.430
-681.251	-200.000	0.010	0.196
-680.237	22.628	0.103	0.084
-679.222	439.274	0.102	-0.223
-678.208	93.616	-0.165	-0.188
-677.193	58.586	0.193	0.191
-676.178	6.738	-0.139	0.104
-675.164	49.802	-0.075	0.071
-674.149	59.621	0.127	0.126
-673.135	-140.503	-0.063	-0.007
-672.120	-107.011	0.236	-0.052
-671.105	22.501	-0.195	0.160
-670.091	-113.465	0.307	-0.060
-669.076	-108.695	0.165	-0.035
-668.062	-105.997	-0.030	-0.007
-667.047	596.113	-0.077	-0.191
-666.032	-200.000	0.003	0.079
-665.018	-200.000	0.050	0.266
-664.003	-8.975	0.320	-0.215
-662.989	-171.085	-0.201	-0.007
-661.974	-151.644	0.358	-0.027
-660.959	-20.150	0.050	0.031
-659.945	150.239	0.053	-0.073
-658.930	-180.177	-0.281	-0.006
-657.916	-136.754	-0.355	-0.041
-656.901	-200.000	0.011	-0.061
-655.886	646.849	-0.085	0.218
-654.872	304.681	-0.052	-0.097
-653.857	-101.175	-0.341	-0.084
-652.843	-200.000	0.044	-0.270
-651.828	-0.133	0.115	-0.082
-650.814	540.491	-0.076	-0.182
-649.799	247.802	0.025	0.043
-648.784	16.098	-0.386	-0.306
-647.770	635.429	0.127	-0.325
-646.755	-28.686	0.113	0.065
-645.741	480.806	-0.096	0.219
-644.726	480.590	0.135	-0.308
-643.711	40.848	-0.073	-0.066
-642.697	800.000	-0.103	-0.439
-641.682	205.729	-0.128	0.199
-640.668	-200.000	0.001	-0.331
-639.653	81.564	-0.321	-0.348
-638.638	79.309	-0.278	-0.299
-637.624	-72.209	-0.290	0.108
-636.609	-200.000	0.009	-0.080
-635.595	-103.077	0.225	-0.053
-634.580	42.327	0.096	-0.088
-633.565	-63.661	0.081	-0.033
-632.551	152.791	-0.058	0.080
-631.536	204.901	-0.138	-0.215
-630.522	139.619	0.123	0.163
-629.507	-200.000	-0.029	0.153
-628.492	112.319	-0.195	-0.237
-627.478	-200.000	0.039	0.294
-626.463	-31.452	0.215	0.121
-625.449	-128.804	0.380	0.054
-624.434	-200.000	0.016	-0.202
-623.419	-46.247	0.084	0.042
-622.405	-200.000	-0.003	-0.051
-621.390	26.619	0.066	-0.056
-620.376	-200.000	0.007	-0.035
-619.361	-159.924	0.216	-0.012
-618.346	-38.447	0.199	0.105
-617.332	-126.828	-0.331	-0.049
-616.317	800.000	0.096	0.394
-615.303	169.542	-0.033	0.048
-614.288	389.992	0.076	0.158
-613.273	-152.136	0.080	0.006
-612.259	281.278	0.040	0.072
-611.244	-156.266	0.323	0.020
-610.230	60.030	-0.053	-0.052
-609.215	318.454	0.071	0.134
-608.201	246.457	-0.164	-0.277
-607.186	-200.000	-0.020	-0.210
-606.171	-152.678	-0.253	0.018
-605.157	-70.377	-0.272	0.104
-604.142	-105.270	-0.073	0.017
-603.128	800.000	0.035	-0.112
-602.113	-116.138	-0.267	0.050
-601.098	-200.000	-0.027	-0.122
-600.084	177.107	0.145	0.211
-599.069	157.829	0.435	-0.604
-598.055	134.954	-0.089	-0.116
-597.040	-131.180	0.113	0.015
-596.025	-3.595	-0.418	0.291
-595.011	-154.583	-0.264	0.018
-593.996	-200.000	0.101	0.000
-592.982	-41.683	0.446	0.229
-591.967	-95.395	-0.097	-0.026
-590.952	-79.086	-0.291	-0.099
-589.938	-6.102	-0.085	-0.058
-588.923	14.622	0.198	-0.155
-587.909	36.091	-0.145	0.128
-586.894	-41.659	-0.401	-0.206
-585.879	224.241	0.183	-0.295
-584.865	-153.818	-0.618	-0.042
-583.850	510.857	0.163	0.379
-582.836	-31.411	0.185	0.104
-581.821	15.619	0.086	0.068
-580.806	-200.000	0.043	0.197
-579.792	5.511	0.268	-0.198
-578.777	-82.047	-0.383	0.125
-577.763	800.000	-0.018	-0.053
-576.748	-172.762	0.109	0.003
-575.733	145.888	0.224	0.300
-574.719	69.232	0.334	-0.344
-573.704	-50.503	-0.277	-0.131
-572.690	-200.000	0.048	-0.260
-571.675	171.255	-0.037	0.053
-570.661	477.221	-0.104	0.235
-569.646	216.739	0.184	0.292
-568.631	2.207	0.128	-0.093
-567.617	35.220	-0.101	-0.088
-566.602	-200.000	0.019	-0.174
-565.588	800.000	-0.095	-0.265
-564.573	-150.896	0.196	0.015
-563.558	10.163	0.246	0.187
-562.544	37.039	-0.193	-0.171
-561.529	-118.402	0.157	0.028
-560.515	-99.686	0.107	0.027
-559.500	-148.740	0.255	0.021
-558.485	189.836	-0.055	0.082
-557.471	149.057	-0.288	0.390
-556.456	-13.320	-0.172	0.112
-555.442	83.752	-0.297	0.324
-554.427	-200.000	-0.029	-0.186
-553.412	193.296	-0.094	-0.143
-552.398	800.000	0.030	0.108
-551.383	-200.000	-0.041	0.366
-550.369	584.741	0.208	0.510
-549.354	155.911	0.119	0.164
-548.339	-200.000	-0.010	-0.205
-547.325	-156.950	0.429	-0.026
-546.310	7.884	-0.222	-0.166
-545.296	193.741	0.092	0.139
-544.281	-200.000	0.032	-0.240
-543.266	88.135	-0.379	-0.420
-542.252	-200.000	0.000	-0.025
-541.237	-173.115	0.199	-0.006
-540.223	-200.000	-0.006	-0.171
-539.208	149.294	-0.109	0.148
-538.193	-121.863	0.229	0.038
-537.179	420.518	0.017	-0.037
-536.164	-0.720	0.373	-0.264
-535.150	292.291	0.030	-0.055
-534.135	-126.994	-0.454	0.067
-533.121	-34.191	0.519	-0.285
-532.106	-168.304	0.119	0.005
-531.091	-60.765	-0.426	-0.180
-530.077	25.674	0.265	0.221
-529.062	-200.000	-0.063	0.368
-528.048	-124.547	-0.204	-0.032
-527.033	-38.192	-0.316	0.167
-526.018	-18.046	0.068	-0.043
-525.004	-15.055	0.382	-0.245
-523.989	-200.000	0.015	-0.384
-522.975	65.021	0.095	-0.096
-521.960	800.000	-0.061	-0.222
-520.945	247.546	-0.202	-0.341
-519.931	248.777	0.078	0.131
-518.916	420.444	0.061	-0.130
-517.902	-200.000	-0.024	0.231
-516.887	-41.601	-0.324	-0.166
-515.872	-84.091	0.215	-0.068
-514.858	-200.000	-0.029	-0.183
-513.843	-143.273	-0.243	-0.023
-512.829	-139.201	-0.253	0.027
-511.814	-15.892	-0.157	-0.100
-510.799	800.000	0.015	-0.057
-509.785	-130.257	0.015	-0.002
-508.770	53.746	0.148	-0.142
-507.756	-200.000	0.070	-0.394
-506.741	69.231	-0.247	0.253
-505.726	61.780	0.142	0.141
-504.712	-83.629	-0.244	-0.078
-503.697	160.700	-0.039	-0.055
-502.683	283.988	0.143	-0.256
-501.668	-121.698	0.330	0.054
-500.653	800.000	-0.111	-0.369
-499.639	360.532	0.123	0.246
-498.624	-38.356	0.162	-0.086
-497.610	-200.000	0.010	0.161
-496.595	8.272	-0.150	-0.112
-495.581	42.186	0.246	-0.223
-494.566	800.000	0.107	0.418
-493.551	-66.203	0.084	0.034
-492.537	34.026	-0.156	0.136
-491.522	-114.016	-0.435	-0.084
-490.508	-81.457	0.396	0.130
-489.493	-69.749	0.417	-0.159
-488.478	-200.000	-0.008	-0.122
-487.464	-200.000	-0.007	0.036
-486.449	-90.091	0.075	-0.022
-485.435	-64.634	-0.332	0.134
-484.420	800.000	0.065	-0.218
-483.405	-102.879	-0.106	0.025
-482.391	-200.000	-0.022	0.142
-481.376	800.000	0.040	-0.129
-480.362	-47.504	-0.049	-0.024
-479.347	-54.001	-0.442	-0.200
-478.332	-115.377	-0.069	-0.013
-477.318	-174.383	-0.196	0.006
-476.303	-200.000	-0.032	-0.224
-475.289	77.998	0.073	-0.078
-474.274	-200.000	-0.020	0.243
-473.259	212.100	-0.096	0.150
-472.245	-79.387	-0.271	-0.091
-471.230	271.695	-0.078	-0.138
-470.216	275.033	-0.274	-0.485
-469.201	-85.412	-0.182	-0.056
-468.186	33.194	-0.215	-0.186
-467.172	-123.799	0.233	0.037
-466.157	-140.457	0.150	0.016
-465.143	-118.318	0.359	-0.064
-464.128	31.879	0.315	0.271
-463.113	-200.000	0.001	-0.187
-462.099	-19.126	-0.307	-0.190
-461.084	33.748	-0.152	-0.131
-460.070	-21.112	-0.434	0.265
-459.055	172.048	-0.178	-0.254
-458.040	144.099	-0.111	0.148
-457.026	376.333	-0.070	0.141
-456.011	800.000	0.092	0.257
-454.997	-103.785	-0.209	-0.049
-453.982	-200.000	0.092	-0.423
-452.968	184.451	0.116	0.172
-451.953	5.012	0.335	0.246
-450.938	169.710	-0.129	-0.184
-449.924	-200.000	0.000	-0.288
-448.909	-151.861	-0.028	-0.002
-447.895	127.885	-0.243	-0.308
-446.880	22.767	-0.131	-0.107
-445.865	81.737	-0.122	0.132
-444.851	217.994	-0.170	0.270
-443.836	115.730	-0.083	0.101
-442.822	800.000	-0.055	-0.177
-441.807	-145.246	0.242	0.022
-440.792	5.416	-0.109	-0.080
-439.778	-200.000	-0.061	-0.314
-438.763	-27.925	0.042	0.024
-437.749	-82.041	0.287	0.093
-436.734	357.435	-0.056	0.111
-435.719	800.000	0.011	-0.042
-434.705	547.983	-0.014	-0.034
-433.690	229.043	-0.114	0.185
-432.676	-103.869	-0.102	0.024
-431.661	-200.000	-0.006	0.167
-430.646	-101.906	0.039	-0.009
-429.632	447.777	-0.088	0.192
-428.617	-134.800	-0.295	0.036
-427.603	-55.912	0.109	-0.048
-426.588	380.917	0.041	0.083
-425.573	732.683	0.104	0.276
-424.559	-200.000	0.031	0.226
-423.544	-66.742	-0.244	-0.096
-422.530	800.000	0.036	-0.116
-421.515	-80.910	0.416	-0.137
-420.500	47.257	0.056	-0.052
-419.486	316.947	-0.071	0.133
-418.471	163.520	0.276	0.386
-417.457	-133.636	0.205	-0.026
-416.442	-149.216	-0.313	-0.025
-415.428	85.741	0.264	-0.289
-414.413	-158.016	0.144	-0.008
-413.398	372.721	0.148	0.298
-412.384	800.000	-0.128	-0.413
-411.369	251.579	0.122	0.206
-410.355	13.511	-0.183	-0.141
-409.340	-200.000	-0.068	0.460
-408.325	-73.102	0.149	0.054
-407.311	-22.817	0.170	0.102
-406.296	-139.160	0.268	0.029
-405.282	97.434	0.148	0.169
-404.267	-200.000	0.012	-0.192
-403.252	800.000	0.067	-0.245
-402.238	565.495	-0.149	0.359
-401.223	-116.462	0.046	-0.008
-400.209	-33.467	-0.276	-0.151
-399.194	-111.755	0.126	-0.025
-398.179	438.131	-0.052	0.112
-397.165	-200.000	0.348	0.000
-396.150	-200.000	-0.053	0.271
-395.136	-20.017	0.173	0.106
-394.121	-102.852	-0.115	-0.027
-393.106	97.526	0.196	-0.223
-392.092	57.460	-0.198	-0.192
-391.077	-5.862	-0.273	0.185
-390.063	257.020	0.164	0.279
-389.048	299.589	0.155	-0.283
-388.033	-76.185	0.288	-0.101
-387.019	-155.204	-0.228	0.015
-386.004	-79.011	-0.196	0.066
-384.990	-200.000	0.024	0.414
-383.975	319.455	-0.094	0.177
-382.960	-35.588	0.256	-0.138
-381.946	35.105	0.208	0.181
-380.931	-200.000	0.011	0.120
-379.917	283.906	-0.159	-0.284
-378.902	-126.071	-0.209	0.031
-377.888	103.222	-0.124	-0.145
-376.873	587.320	0.101	-0.247
-375.858	-200.000	0.031	-0.178
-374.844	320.448	0.014	0.027
-373.829	800.000	0.022	-0.078
-372.815	444.288	-0.113	0.245
-371.800	391.908	-0.046	-0.095
-370.785	276.092	-0.122	-0.215
-369.771	39.173	0.038	-0.034
-368.756	-164.456	0.223	-0.010
-367.742	-108.173	0.326	0.070
-366.727	541.397	-0.121	0.287
-365.712	337.337	-0.119	-0.229
-364.698	147.452	0.243	0.325
-363.683	-166.075	-0.225	0.009
-362.669	-45.376	-0.067	0.033
-361.654	-161.572	-0.303	-0.015
-360.639	-120.739	0.144	0.024
-359.625	-86.356	-0.184	-0.056
-358.610	410.904	0.042	0.089
-357.596	-200.000	-0.026	0.151
-356.581	-19.976	-0.240	-0.147
-355.566	137.678	-0.116	0.151
-354.552	418.912	-0.165	-0.349
-353.537	-21.937	-0.150	0.090
-352.523	174.343	0.095	0.137
-351.508	47.463	-0.174	0.161
-350.493	125.065	-0.092	-0.115
-349.479	-82.931	0.278	0.089
-348.464	-87.693	0.125	0.037
-347.450	-132.474	-0.207	0.026
-346.435	381.865	-0.074	0.150
-345.420	63.723	-0.170	-0.169
-344.406	164.032	0.202	0.283
-343.391	-127.061	-0.307	-0.045
-342.377	800.000	-0.037	-0.157
-341.362	202.280	0.120	0.183
-340.348	504.258	-0.112	0.257
-339.333	-200.000	-0.034	0.444
-338.318	783.204	0.129	0.350
-337.304	-57.254	0.185	-0.081
-336.289	-150.998	-0.490	-0.037
-335.275	77.882	0.144	-0.152
-334.260	78.359	0.042	-0.045
-333.245	-200.000	0.009	-0.063
-332.231	120.006	0.106	0.131
-331.216	-123.265	-0.409	0.065
-330.202	-185.090	0.518	-0.008
-329.187	800.000	0.057	0.171
-328.172	-115.744	-0.142	-0.026
-327.158	100.478	-0.044	0.051
-326.143	-107.461	0.462	0.100
-325.129	-53.330	-0.237	0.108
-324.114	743.281	-0.131	0.349
-323.099	-98.560	0.241	0.061
-322.085	581.811	0.091	-0.221
-321.070	800.000	-0.142	-0.415
-320.056	-126.658	0.253	0.037
-319.041	-200.000	0.035	-0.193
-318.026	199.786	-0.207	0.315
-317.012	-200.000	0.012	0.265
-315.997	-148.751	0.179	-0.014
-314.983	800.000	0.012	-0.047
-313.968	-64.247	0.127	0.051
-312.953	-200.000	-0.004	0.535
-311.939	-200.000	0.042	-0.238
-310.924	117.824	0.126	-0.153
-309.910	800.000	-0.016	0.063
-308.895	-136.894	0.048	0.005
-307.880	-21.378	-0.245	0.148
-306.866	74.154	-0.156	-0.162
-305.851	-200.000	-0.009	-0.084
-304.837	-116.602	-0.276	-0.050
-303.822	-60.396	-0.403	-0.170
-302.807	73.482	0.272	0.282
-301.793	215.402	0.084	0.132
-300.778	114.495	0.255	-0.308
-299.764	638.394	-0.038	0.096
-298.749	0.495	-0.062	0.044
-297.735	-102.003	-0.349	0.083
-296.720	39.362	0.281	-0.249
-295.705	-99.061	0.236	-0.059
-294.691	-90.578	0.063	0.018
-293.676	113.888	0.267	0.321
-292.662	215.256	0.143	0.225
-291.647	25.534	-0.269	-0.222
-290.632	185.215	-0.042	0.062
-289.618	-112.661	0.142	-0.028
-288.603	-46.562	0.378	0.183
-287.589	2.613	-0.235	-0.169
-286.574	-105.401	0.187	0.042
-285.559	-173.539	-0.145	-0.004
-284.545	-42.473	-0.213	0.108
-283.530	-200.000	-0.067	0.492
-282.516	-43.864	0.199	0.099
-281.501	-200.000	-0.069	-0.404
-280.486	20.256	0.160	0.128
-279.472	-200.000	0.021	0.228
-278.457	-126.119	0.238	0.035
-277.443	-9.173	-0.113	-0.075
-276.428	48.448	-0.138	-0.128
-275.413	65.294	0.177	0.177
-274.399	133.831	0.163	-0.209
-273.384	89.044	-0.122	-0.135
-272.370	-72.268	-0.083	-0.030
-271.355	339.379	-0.308	0.593
-270.340	-97.727	0.221	-0.056
-269.326	-200.000	0.005	-0.350
-268.311	-70.863	-0.169	0.063
-267.297	-200.000	0.019	-0.452
-266.282	97.825	-0.155	0.177
-265.267	-151.772	0.281	0.020
-264.253	56.526	0.115	0.111
-263.238	-97.663	-0.230	0.059
-262.224	285.069	0.076	-0.136
-261.209	482.623	0.058	0.131
-260.195	-200.000	-0.038	0.324
-259.180	69.553	-0.068	0.069
-258.165	-89.332	-0.166	-0.048
-257.151	-5.160	0.021	-0.014
-256.136	10.390	0.188	0.141
-255.122	-44.732	-0.091	-0.045
-254.107	16.592	-0.312	0.244
-253.092	800.000	0.073	-0.276
-252.078	-0.224	0.239	0.168
-251.063	-162.226	-0.228	0.011
-250.049	-38.541	-0.146	0.076
-249.034	-99.100	0.408	-0.102
-248.019	800.000	0.023	-0.071
-247.005	-48.291	-0.483	-0.230
-245.990	-200.000	-0.020	-0.182
-244.976	-116.330	0.162	-0.030
-243.961	-89.468	0.075	0.022
-242.946	36.576	0.158	-0.138
-241.932	-164.498	-0.128	-0.006
-240.917	800.000	0.080	0.315
-239.903	-200.000	0.060	0.359
-238.888	282.974	-0.069	-0.123
-237.873	207.786	0.274	-0.423
-236.859	800.000	-0.059	-0.169
-235.844	-200.000	0.029	-0.146
-234.830	-39.740	-0.171	-0.088
-233.815	210.697	-0.110	0.170
-232.800	201.077	-0.153	-0.232
-231.786	-147.553	-0.235	-0.020
-230.771	2.481	-0.032	0.023
-229.757	704.200	-0.077	0.201
-228.742	-132.996	0.237	-0.030
-227.727	1.172	-0.172	0.122
-226.713	54.528	-0.124	-0.118
-225.698	294.087	0.101	0.182
-224.684	60.714	-0.260	0.255
-223.669	41.590	-0.191	-0.170
-222.655	-121.131	0.346	-0.057
-221.640	-45.562	-0.587	0.287
-220.625	-200.000	0.037	-0.239
-219.611	-81.121	0.184	-0.060
-218.596	47.329	-0.343	-0.315
-217.582	-200.000	0.001	0.225
-216.567	-80.408	-0.064	0.021
-215.552	-24.138	0.144	0.085
-214.538	351.862	0.092	0.179
-213.523	-151.074	0.529	-0.039
-212.509	-42.943	-0.186	0.093
-211.494	78.063	0.148	0.155
-210.479	552.503	0.034	-0.081
-209.465	-86.687	0.538	0.162
-208.450	-4.044	0.111	0.076
-207.436	272.721	0.090	0.156
-206.421	800.000	-0.046	0.186
-205.406	-58.603	-0.085	-0.036
-204.392	-59.544	-0.173	-0.073
-203.377	-200.000	-0.001	0.104
-202.363	388.760	-0.053	-0.108
-201.348	-1.350	0.122	-0.085
-200.333	-84.654	0.236	-0.073
-199.319	800.000	0.019	-0.065
-198.304	-200.000	0.041	0.339
-197.290	-172.369	-0.033	-0.001
-196.275	205.245	0.081	0.125
-195.260	-137.186	0.172	-0.019
-194.246	-64.090	0.151	0.061
-193.231	-110.459	0.165	0.034
-192.217	116.717	0.112	-0.136
-191.202	-63.851	-0.207	-0.083
-190.187	-200.000	-0.011	-0.408
-189.173	-35.925	0.214	-0.114
-188.158	9.545	0.150	-0.112
-187.144	-200.000	0.049	0.314
-186.129	449.711	0.036	0.078
-185.114	-200.000	0.036	-0.237
-184.100	-200.000	0.033	0.216
-183.085	-68.848	-0.216	0.082
-182.071	-200.000	0.032	-0.207
-181.056	37.093	-0.229	0.200
-180.042	-51.364	-0.188	-0.087
-179.027	-109.538	0.118	-0.025
-178.012	90.440	0.152	-0.168
-176.998	-200.000	0.033	0.242
-175.983	-28.861	-0.154	-0.087
-174.969	12.281	0.191	0.145
-173.954	-200.000	-0.045	-0.359
-172.939	-70.862	-0.277	-0.103
-171.925	-200.000	0.054	0.280
-170.910	-101.081	0.377	0.091
-169.896	-139.343	0.255	-0.027
-168.881	-70.661	-0.269	-0.100
-167.866	-200.000	-0.002	0.336
-166.852	34.424	-0.066	-0.057
-165.837	-115.909	-0.192	0.035
-164.823	470.266	0.029	0.065
-163.808	149.313	0.087	-0.116
-162.793	-18.038	-0.121	-0.075
-161.779	11.395	-0.225	-0.170
-160.764	-54.287	0.294	-0.131
-159.750	110.133	0.333	0.394
-158.735	742.795	0.110	0.291
-157.720	-107.827	0.335	-0.072
-156.706	345.915	0.174	-0.336
-155.691	257.675	-0.094	0.159
-154.677	23.432	0.270	-0.219
-153.662	-17.152	-0.104	0.065
-152.647	-200.000	-0.012	-0.071
-151.633	-131.524	-0.185	-0.024
-150.618	-200.000	0.034	0.362
-149.604	689.326	0.085	0.219
-148.589	74.691	0.064	0.066
-147.574	-200.000	-0.018	0.229
-146.560	29.265	0.199	-0.166
-145.545	36.683	0.123	0.107
-144.531	37.478	0.101	0.088
-143.516	390.466	-0.067	0.137
-142.502	800.000	-0.134	-0.463
-141.487	4.730	0.218	0.157
-140.472	-200.000	-0.026	-0.417
-139.458	-200.000	0.023	-0.218
-138.443	-200.000	0.021	-0.116
-137.429	-90.638	0.164	0.047
-136.414	-168.754	-0.164	0.006
-135.399	55.316	0.338	0.322
-134.385	273.934	-0.104	0.180
-133.370	-15.809	0.301	0.189
-132.356	-200.000	0.066	-0.370
-131.341	222.641	-0.166	-0.263
-130.326	355.527	0.106	0.207
-129.312	-200.000	0.054	0.242
-128.297	800.000	0.050	0.148
-127.283	800.000	-0.058	-0.159
-126.268	-163.161	-0.122	0.006
-125.253	30.803	-0.034	0.029
-124.239	450.625	-0.092	-0.199
-123.224	396.444	-0.061	-0.125
-122.210	419.357	0.114	0.241
-121.195	800.000	-0.123	0.444
