DTS Sentinel unit serial number:	SN413079Multiplexer serial number:	ORYXHardware model number:	OX4-SRSoftware version number:	ORYX F/W v4.00 Oryx Data Collector v3.7.2.0data status	okinstallation	princeton_trtdifferential loss correction	single-endedforward channel	channel 2reverse channel	N/Adate	2019/09/13time	05:03:35forward acquisition time	60.00reverse acquisition time	0.00gamma	496.2192k internal	0.2336k external	0.2336temperature offset calibration	1.0191default loss term (dB/km)	0.3790temperature slope calibration	1.0000multiplexer offset coefficient	1.0000multiplexer slope coefficient	1.0000fibre end	0.00T internal ref (°C)	26.44T ext. ref 1 (°C)	4.05T ext. ref 2 (°C)	20.88length (m)	temperature (°C)	Stokes	anti-Stokes-747.200	800.000	0.041	0.167
-746.185	-200.000	-0.018	0.123
-745.171	277.824	0.081	0.145
-744.156	378.851	0.064	0.131
-743.142	191.258	0.188	0.285
-742.127	800.000	-0.095	0.400
-741.112	-118.620	0.416	-0.074
-740.098	-200.000	-0.002	0.059
-739.083	-64.097	-0.042	-0.017
-738.069	-200.000	-0.061	0.299
-737.054	88.868	-0.116	0.130
-736.039	9.025	-0.315	-0.239
-735.025	31.963	0.073	0.063
-734.010	-146.437	0.302	-0.026
-732.996	-102.138	-0.386	-0.093
-731.981	249.511	-0.096	-0.163
-730.966	158.002	0.073	0.101
-729.952	-135.934	-0.171	-0.020
-728.937	-31.564	0.333	0.188
-727.923	103.110	0.133	0.156
-726.908	7.943	-0.208	-0.157
-725.894	-48.810	-0.233	0.112
-724.879	-200.000	-0.007	0.115
-723.864	-53.553	0.144	0.066
-722.850	-149.665	0.251	0.020
-721.835	-105.644	0.060	-0.014
-720.821	-44.879	-0.356	-0.178
-719.806	-92.612	-0.351	0.099
-718.791	800.000	-0.024	-0.104
-717.777	-55.135	-0.129	-0.058
-716.762	-117.061	-0.278	0.051
-715.748	66.250	0.132	-0.135
-714.733	-200.000	-0.023	-0.168
-713.718	359.304	0.216	0.432
-712.704	800.000	-0.063	-0.176
-711.689	74.872	0.187	-0.198
-710.675	-200.000	0.067	-0.478
-709.660	-200.000	0.002	-0.144
-708.645	-200.000	-0.022	0.258
-707.631	-19.118	-0.167	-0.104
-706.616	-49.808	0.227	0.108
-705.602	75.510	0.055	-0.058
-704.587	-62.643	0.138	0.057
-703.572	49.925	-0.161	-0.152
-702.558	-120.754	-0.527	0.089
-701.543	-79.422	0.056	-0.019
-700.529	51.893	0.247	0.236
-699.514	-200.000	0.032	0.000
-698.499	32.740	0.070	0.061
-697.485	299.120	-0.140	0.259
-696.470	-200.000	-0.030	-0.299
-695.456	1.632	0.086	-0.062
-694.441	-10.120	-0.294	0.196
-693.426	-77.159	0.395	-0.138
-692.412	-8.564	0.156	-0.105
-691.397	-168.630	-0.294	-0.011
-690.383	131.029	0.115	0.147
-689.368	-200.000	-0.080	0.437
-688.354	-89.824	0.060	0.017
-687.339	-80.930	-0.167	-0.055
-686.324	133.213	0.199	-0.257
-685.310	115.595	-0.172	-0.211
-684.295	11.994	-0.232	0.179
-683.281	706.188	0.088	-0.233
-682.266	-80.840	0.274	0.091
-681.251	-25.582	-0.172	-0.102
-680.237	579.219	0.086	-0.210
-679.222	-16.770	0.163	-0.104
-678.208	472.762	-0.019	0.043
-677.193	297.582	0.069	0.126
-676.178	-133.350	-0.211	-0.027
-675.164	-81.024	-0.398	-0.132
-674.149	40.722	0.178	-0.161
-673.135	-62.065	0.228	-0.096
-672.120	-100.063	-0.194	-0.048
-671.105	753.099	-0.058	-0.157
-670.091	238.230	0.054	0.090
-669.076	-144.219	-0.193	0.018
-668.062	-200.000	0.021	0.141
-667.047	-157.624	-0.155	-0.009
-666.032	188.618	0.090	-0.134
-665.018	800.000	-0.084	0.259
-664.003	-76.343	0.159	0.056
-662.989	-107.846	0.566	-0.123
-661.974	242.142	-0.069	0.115
-660.959	-4.979	-0.157	-0.108
-659.945	51.770	0.198	-0.188
-658.930	762.614	0.107	0.291
-657.916	33.338	-0.088	-0.077
-656.901	800.000	0.019	0.070
-655.886	147.926	-0.278	0.375
-654.872	270.834	-0.085	0.150
-653.857	-200.000	-0.006	-0.324
-652.843	-119.058	0.066	0.012
-651.828	283.352	-0.204	-0.367
-650.814	-56.981	-0.113	0.050
-649.799	800.000	-0.028	-0.082
-648.784	8.090	-0.182	0.137
-647.770	-90.110	0.424	-0.123
-646.755	-5.518	-0.223	0.153
-645.741	-200.000	-0.058	-0.276
-644.726	587.418	0.156	-0.385
-643.711	-27.232	0.081	0.047
-642.697	-200.000	-0.028	0.155
-641.682	519.288	0.021	0.050
-640.668	-190.709	-0.189	0.002
-639.653	-82.607	-0.312	0.101
-638.638	-108.819	-0.120	0.026
-637.624	-84.559	0.280	-0.088
-636.609	-200.000	-0.021	0.146
-635.595	81.389	-0.044	-0.048
-634.580	42.921	-0.134	-0.122
-633.565	-80.626	-0.107	0.036
-632.551	-200.000	0.007	-0.032
-631.536	353.157	-0.131	-0.259
-630.522	-200.000	-0.011	0.278
-629.507	-33.948	-0.188	0.103
-628.492	-98.015	-0.333	-0.086
-627.478	532.208	-0.026	-0.061
-626.463	-70.150	-0.466	0.177
-625.449	56.392	-0.097	0.094
-624.434	-137.321	0.156	-0.018
-623.419	40.294	-0.352	0.316
-622.405	776.047	-0.138	-0.376
-621.390	800.000	0.060	0.204
-620.376	-87.985	-0.360	0.108
-619.361	-49.595	-0.180	-0.086
-618.346	-200.000	-0.051	-0.554
-617.332	800.000	0.103	-0.306
-616.317	-80.648	-0.113	-0.038
-615.303	-3.176	-0.156	0.109
-614.288	250.275	-0.197	0.334
-613.273	-4.697	-0.327	-0.225
-612.259	800.000	0.080	-0.225
-611.244	271.811	0.084	-0.148
-610.230	-47.085	0.110	0.054
-609.215	151.460	-0.095	0.130
-608.201	135.853	-0.192	-0.250
-607.186	-200.000	-0.040	0.204
-606.171	-125.630	-0.165	-0.025
-605.157	800.000	-0.032	0.095
-604.142	213.797	0.198	0.313
-603.128	117.752	0.083	-0.102
-602.113	-200.000	-0.071	0.320
-601.098	46.415	0.074	0.069
-600.084	-24.254	-0.244	-0.145
-599.069	56.646	-0.295	-0.286
-598.055	-115.892	-0.202	-0.038
-597.040	-89.813	0.199	0.058
-596.025	-200.000	-0.001	0.130
-595.011	462.597	0.055	0.122
-593.996	78.482	0.093	0.099
-592.982	291.338	-0.169	-0.307
-591.967	-65.804	-0.044	0.017
-590.952	467.745	0.114	-0.255
-589.938	109.654	0.117	0.140
-588.923	106.877	-0.226	0.267
-587.909	800.000	-0.113	0.314
-586.894	-151.734	-0.235	-0.017
-585.879	-72.311	-0.097	-0.036
-584.865	6.306	-0.301	-0.223
-583.850	-200.000	0.012	0.089
-582.836	-63.097	-0.377	0.155
-581.821	-35.201	-0.197	0.107
-580.806	-103.590	-0.093	-0.022
-579.792	-200.000	0.028	0.198
-578.777	3.388	0.265	0.193
-577.763	315.853	0.200	0.376
-576.748	-200.000	0.041	0.315
-575.733	15.374	0.215	-0.168
-574.719	763.403	0.088	-0.238
-573.704	-90.883	0.144	0.041
-572.690	157.583	0.057	0.079
-571.675	-200.000	0.012	0.220
-570.661	403.310	-0.089	0.187
-569.646	520.325	0.116	-0.271
-568.631	-200.000	0.030	-0.218
-567.617	-131.695	0.071	0.009
-566.602	-39.718	0.382	0.199
-565.588	-53.098	-0.138	-0.063
-564.573	214.916	0.081	-0.128
-563.558	179.726	0.089	0.130
-562.544	-18.137	-0.377	-0.236
-561.529	-51.375	0.109	0.051
-560.515	-20.752	0.078	0.047
-559.500	69.231	-0.107	0.110
-558.485	-24.319	0.321	-0.191
-557.471	74.435	0.185	0.194
-556.456	-107.779	0.178	0.039
-555.442	207.348	-0.205	-0.319
-554.427	580.671	0.049	-0.120
-553.412	70.785	-0.182	-0.188
-552.398	-19.628	-0.242	-0.149
-551.383	414.195	-0.106	-0.225
-550.369	-200.000	-0.047	-0.225
-549.354	-200.000	-0.029	0.215
-548.339	-153.231	-0.282	-0.020
-547.325	526.033	-0.062	-0.145
-546.310	446.906	0.074	0.163
-545.296	-116.555	0.048	-0.009
-544.281	685.567	-0.151	0.392
-543.266	-115.996	0.103	-0.019
-542.252	-27.195	-0.077	0.045
-541.237	30.642	-0.499	-0.425
-540.223	-8.438	0.118	-0.079
-539.208	145.757	-0.117	-0.156
-538.193	-82.997	0.249	0.080
-537.179	800.000	0.045	0.143
-536.164	203.068	0.111	0.171
-535.150	-67.112	-0.281	0.110
-534.135	-4.003	0.502	0.347
-533.121	-132.683	-0.226	0.029
-532.106	800.000	0.071	-0.277
-531.091	-129.659	-0.250	0.034
-530.077	-200.000	0.023	-0.410
-529.062	-200.000	0.012	-0.221
-528.048	51.538	0.244	0.231
-527.033	314.865	0.071	-0.133
-526.018	-200.000	-0.006	0.173
-525.004	-18.816	0.186	0.115
-523.989	-200.000	-0.016	-0.216
-522.975	339.275	0.035	-0.068
-521.960	-82.500	0.099	0.032
-520.945	52.067	-0.120	0.114
-519.931	216.248	0.120	0.190
-518.916	-141.249	0.195	-0.020
-517.902	-20.782	0.144	-0.088
-516.887	-3.418	0.042	0.029
-515.872	-6.701	-0.374	0.254
-514.858	-65.763	0.126	-0.050
-513.843	-200.000	0.017	0.122
-512.829	-47.071	-0.328	-0.159
-511.814	-200.000	0.009	-0.175
-510.799	-200.000	0.028	0.278
-509.785	-46.894	-0.376	-0.183
-508.770	-122.367	-0.234	-0.038
-507.756	800.000	-0.064	-0.184
-506.741	0.894	-0.237	-0.169
-505.726	800.000	0.021	-0.069
-504.712	218.321	-0.104	0.165
-503.697	-129.101	0.173	0.024
-502.683	-33.048	0.262	-0.145
-501.668	238.376	0.164	-0.270
-500.653	-55.367	-0.114	0.051
-499.639	314.098	0.052	0.097
-498.624	438.392	0.131	0.284
-497.610	487.350	-0.129	-0.292
-496.595	-141.011	-0.261	-0.027
-495.581	174.328	-0.140	-0.201
-494.566	388.707	0.040	-0.082
-493.551	483.639	0.171	-0.387
-492.537	32.655	0.031	0.027
-491.522	-154.227	-0.054	-0.004
-490.508	-84.901	-0.093	0.029
-489.493	-118.976	0.223	-0.039
-488.478	-40.121	-0.177	0.092
-487.464	-36.953	0.200	-0.106
-486.449	439.058	0.097	0.210
-485.435	-181.341	-0.199	-0.004
-484.420	-157.080	0.374	0.023
-483.405	800.000	-0.075	0.303
-482.391	-98.205	-0.269	0.069
-481.376	165.380	-0.074	0.103
-480.362	30.306	0.176	0.149
-479.347	-120.772	0.310	0.052
-478.332	193.600	-0.119	0.179
-477.318	132.621	0.134	0.172
-476.303	-48.561	-0.199	0.095
-475.289	8.833	0.173	0.130
-474.274	-200.000	0.002	-0.442
-473.259	-94.438	0.221	0.060
-472.245	182.354	0.171	0.250
-471.230	269.072	0.057	0.099
-470.216	800.000	0.016	0.045
-469.201	-200.000	-0.020	0.152
-468.186	120.663	-0.094	0.117
-467.172	-200.000	0.065	-0.326
-466.157	192.895	-0.021	-0.031
-465.143	-103.385	0.151	-0.035
-464.128	118.332	-0.106	-0.129
-463.113	-9.317	0.122	-0.081
-462.099	-200.000	-0.020	-0.149
-461.084	-127.854	-0.179	-0.026
-460.070	-27.096	0.069	-0.040
-459.055	-200.000	0.000	-0.050
-458.040	172.086	-0.148	-0.212
-457.026	160.329	0.197	0.272
-456.011	-88.868	-0.248	0.073
-454.997	55.247	-0.153	-0.147
-453.982	17.231	-0.179	-0.141
-452.968	335.451	-0.084	-0.161
-451.953	-44.888	0.208	0.103
-450.938	-15.347	0.194	0.123
-449.924	-17.200	0.056	-0.035
-448.909	-200.000	0.025	0.120
-447.895	-200.000	0.018	-0.426
-446.880	-71.046	-0.212	-0.079
-445.865	-169.092	0.291	-0.011
-444.851	800.000	-0.116	0.392
-443.836	-27.895	-0.213	0.122
-442.822	800.000	-0.016	0.052
-441.807	-107.645	0.197	0.043
-440.792	67.908	-0.143	0.145
-439.778	-75.790	0.261	0.092
-438.763	-10.545	0.146	0.096
-437.749	-114.828	-0.084	0.016
-436.734	-168.903	-0.157	-0.006
-435.719	-200.000	-0.006	-0.126
-434.705	156.329	0.117	0.160
-433.690	359.603	-0.038	-0.075
-432.676	-103.992	0.325	0.075
-431.661	220.921	-0.226	-0.359
-430.646	4.241	-0.112	0.081
-429.632	322.030	0.080	-0.151
-428.617	-151.386	0.263	0.019
-427.603	256.970	0.121	-0.206
-426.588	-200.000	0.011	-0.086
-425.573	-80.270	0.135	-0.045
-424.559	21.350	-0.169	0.136
-423.544	-3.357	-0.138	-0.095
-422.530	-130.238	0.186	0.025
-421.515	-90.208	0.265	-0.076
-420.500	123.335	0.119	0.147
-419.486	-33.846	0.219	0.119
-418.471	41.337	0.019	0.017
-417.457	800.000	0.040	-0.124
-416.442	-200.000	-0.014	-0.226
-415.428	-28.051	-0.115	0.066
-414.413	-45.294	0.200	-0.098
-413.398	-36.448	-0.048	0.026
-412.384	6.230	0.185	-0.136
-411.369	-161.706	0.078	0.004
-410.355	-200.000	0.062	0.329
-409.340	800.000	-0.043	0.142
-408.325	9.163	0.073	0.055
-407.311	800.000	-0.091	0.341
-406.296	-88.888	0.191	0.056
-405.282	-200.000	-0.102	0.449
-404.267	-200.000	0.016	-0.153
-403.252	190.196	0.137	0.204
-402.238	-10.241	0.315	-0.207
-401.223	183.261	-0.116	0.170
-400.209	83.414	-0.202	-0.218
-399.194	-115.918	-0.189	-0.035
-398.179	800.000	-0.113	-0.394
-397.165	-61.842	0.216	-0.089
-396.150	42.552	-0.051	-0.046
-395.136	448.168	0.146	-0.319
-394.121	-147.837	-0.325	-0.027
-393.106	28.721	0.213	0.179
-392.092	-1.381	-0.155	0.108
-391.077	86.562	0.061	0.066
-390.063	-31.701	-0.290	0.161
-389.048	154.720	0.046	-0.062
-388.033	437.082	0.021	-0.046
-387.019	171.622	-0.058	-0.082
-386.004	-129.583	0.399	0.055
-384.990	-32.070	-0.237	0.131
-383.975	241.246	-0.148	0.244
-382.960	48.829	0.105	0.098
-381.946	-92.538	-0.056	0.016
-380.931	321.515	0.051	0.096
-379.917	-8.164	0.223	0.149
-378.902	-158.128	-0.326	-0.019
-377.888	42.121	-0.132	-0.119
-376.873	532.738	-0.040	0.094
-375.858	-87.982	0.074	0.022
-374.844	-165.864	0.435	0.018
-373.829	-109.310	-0.168	0.035
-372.815	-200.000	-0.045	-0.214
-371.800	100.244	-0.072	0.082
-370.785	710.261	-0.149	-0.391
-369.771	-200.000	-0.085	0.000
-368.756	427.464	0.153	0.327
-367.742	209.919	0.067	0.104
-366.727	-108.085	-0.157	-0.034
-365.712	-96.060	0.355	0.093
-364.698	335.352	-0.123	0.236
-363.683	302.507	-0.165	-0.303
-362.669	-172.983	0.128	-0.004
-361.654	72.155	0.089	0.092
-360.639	389.511	-0.098	0.202
-359.625	99.377	-0.255	-0.291
-358.610	-200.000	-0.053	-0.247
-357.596	-86.972	-0.270	0.081
-356.581	21.088	0.118	-0.094
-355.566	77.851	0.182	-0.192
-354.552	800.000	-0.118	-0.395
-353.537	-200.000	0.009	0.074
-352.523	-48.776	0.087	-0.041
-351.508	500.523	-0.108	0.247
-350.493	87.032	0.123	-0.134
-349.479	-80.904	0.206	0.068
-348.464	364.766	-0.138	-0.275
-347.450	-97.287	-0.226	0.058
-346.435	800.000	0.071	0.200
-345.420	221.720	0.191	-0.304
-344.406	-172.912	0.123	-0.004
-343.391	-200.000	0.028	0.152
-342.377	289.717	0.079	0.141
-341.362	-70.012	-0.413	-0.156
-340.348	-69.274	0.055	-0.021
-339.333	158.546	0.076	-0.105
-338.318	-8.894	-0.331	-0.220
-337.304	37.576	-0.120	-0.105
-336.289	-200.000	-0.038	-0.429
-335.275	478.698	-0.137	0.307
-334.260	-177.994	-0.275	0.006
-333.245	-86.879	0.189	-0.057
-332.231	-36.498	0.345	-0.183
-331.216	445.975	-0.089	-0.193
-330.202	-200.000	0.034	-0.230
-329.187	800.000	0.057	-0.170
-328.172	-98.411	-0.223	0.056
-327.158	632.092	0.097	-0.242
-326.143	133.128	0.179	-0.229
-325.129	800.000	-0.135	0.416
-324.114	-167.459	0.103	-0.004
-323.099	412.443	-0.087	-0.182
-322.085	-200.000	-0.005	-0.215
-321.070	-82.523	-0.104	0.033
-320.056	680.558	-0.058	-0.150
-319.041	-200.000	-0.056	-0.422
-318.026	16.991	0.303	0.237
-317.012	-104.837	0.236	-0.053
-315.997	470.029	0.137	0.303
-314.983	108.356	-0.215	-0.254
-313.968	348.663	0.194	0.379
-312.953	800.000	0.019	-0.056
-311.939	-20.107	0.134	-0.082
-310.924	36.347	0.194	0.169
-309.910	336.731	-0.117	-0.224
-308.895	143.639	-0.241	0.317
-307.880	800.000	-0.017	0.054
-306.866	-77.195	-0.080	0.028
-305.851	212.254	-0.103	-0.161
-304.837	-146.309	-0.456	0.039
-303.822	-147.723	-0.449	-0.037
-302.807	-79.516	0.213	0.071
-301.793	-128.154	0.070	-0.010
-300.778	-67.003	-0.174	-0.068
-299.764	800.000	-0.052	0.197
-298.749	-37.484	-0.154	-0.081
-297.735	-107.726	0.318	-0.069
-296.720	-50.832	0.190	-0.088
-295.705	238.792	0.136	-0.223
-294.691	-0.229	-0.274	0.192
-293.676	800.000	-0.083	-0.309
-292.662	-162.355	0.244	0.012
-291.647	-200.000	-0.014	0.086
-290.632	-143.755	0.164	-0.015
-289.618	800.000	-0.121	0.445
-288.603	26.164	0.100	-0.082
-287.589	800.000	0.027	0.076
-286.574	-87.211	-0.366	-0.110
-285.559	-126.580	0.368	-0.054
-284.545	-146.598	-0.301	0.026
-283.530	-200.000	-0.021	-0.176
-282.516	155.995	0.122	-0.165
-281.501	-169.142	0.046	-0.002
-280.486	-161.330	0.187	-0.010
-279.472	-92.396	0.380	-0.105
-278.457	-65.879	0.366	-0.144
-277.443	466.565	0.133	-0.293
-276.428	75.006	0.077	0.080
-275.413	-140.307	-0.112	-0.011
-274.399	-65.384	0.032	0.013
-273.384	800.000	0.033	0.092
-272.370	800.000	-0.083	0.345
-271.355	89.290	0.164	0.180
-270.340	109.958	0.104	-0.123
-269.326	-48.114	-0.312	0.149
-268.311	10.985	-0.151	-0.114
-267.297	-29.461	0.096	-0.054
-266.282	-103.286	0.093	-0.022
-265.267	-13.351	0.166	-0.106
-264.253	-33.614	-0.115	-0.063
-263.238	-33.837	0.251	-0.136
-262.224	-139.175	-0.169	0.018
-261.209	-65.797	0.417	-0.164
-260.195	-67.901	0.239	-0.092
-259.180	-190.401	0.089	-0.001
-258.165	-21.242	-0.264	-0.159
-257.151	-116.760	-0.205	0.037
-256.136	154.690	0.095	-0.129
-255.122	586.609	0.147	0.357
-254.107	211.060	0.209	0.324
-253.092	86.154	0.306	0.332
-252.078	28.745	0.084	-0.070
-251.063	800.000	-0.026	-0.102
-250.049	529.686	0.152	0.354
-249.034	-143.376	0.149	0.014
-248.019	800.000	0.053	-0.225
-247.005	-47.039	-0.217	0.104
-245.990	-200.000	-0.031	-0.410
-244.976	29.680	0.272	-0.228
-243.961	-200.000	0.028	0.294
-242.946	-19.788	0.144	-0.087
-241.932	-200.000	0.054	0.427
-240.917	800.000	-0.060	-0.205
-239.903	-200.000	-0.017	0.277
-238.888	385.670	0.156	0.317
-237.873	-127.796	-0.149	0.021
-236.859	32.920	0.206	0.175
-235.844	-22.056	-0.139	0.083
-234.830	289.983	-0.081	0.144
-233.815	373.108	-0.018	0.035
-232.800	623.309	0.069	0.170
-231.786	800.000	0.082	-0.346
-230.771	-22.116	0.197	-0.118
-229.757	-200.000	-0.032	0.345
-228.742	-200.000	0.061	0.263
-227.727	93.873	0.110	0.123
-226.713	229.083	-0.076	0.123
-225.698	-16.482	-0.116	0.072
-224.684	364.014	0.035	0.070
-223.669	11.720	-0.105	0.080
-222.655	-200.000	0.005	-0.045
-221.640	172.555	-0.078	-0.111
-220.625	-30.031	0.045	0.025
-219.611	-83.044	-0.180	-0.057
-218.596	-101.035	-0.091	-0.022
-217.582	414.758	-0.184	0.386
-216.567	800.000	-0.093	-0.285
-215.552	-4.079	0.047	-0.032
-214.538	800.000	0.057	-0.184
-213.523	125.016	0.069	-0.085
-212.509	800.000	-0.057	-0.240
-211.494	95.685	0.110	0.124
-210.479	-18.014	0.130	-0.080
-209.465	-192.513	-0.239	0.002
-208.450	92.214	-0.165	-0.183
-207.436	-59.385	0.019	0.008
-206.421	-10.614	0.181	0.118
-205.406	61.135	0.277	0.271
-204.392	221.950	-0.206	-0.326
-203.377	-200.000	0.049	-0.228
-202.363	11.462	0.227	-0.171
-201.348	-77.604	0.117	-0.040
-200.333	25.697	0.187	0.153
-199.319	142.491	0.073	-0.095
-198.304	139.429	0.249	0.322
-197.290	204.231	-0.168	0.257
-196.275	-159.220	0.120	0.007
-195.260	800.000	0.024	-0.087
-194.246	-52.189	-0.554	-0.252
-193.231	217.490	-0.131	-0.204
-192.217	-143.518	0.132	-0.012
-191.202	-99.113	0.112	-0.028
-190.187	561.090	-0.095	0.226
-189.173	213.286	-0.067	-0.105
-188.158	164.094	0.110	-0.153
-187.144	-114.613	0.124	0.023
-186.129	37.089	0.163	-0.142
-185.114	800.000	0.056	0.190
-184.100	131.287	0.096	0.121
-183.085	-200.000	-0.001	0.102
-182.071	272.289	0.067	-0.117
-181.056	-133.861	-0.053	-0.006
-180.042	201.070	0.188	-0.285
-179.027	171.917	-0.152	0.215
-178.012	-66.161	-0.158	-0.062
-176.998	-118.285	0.357	0.062
-175.983	-200.000	0.083	0.425
-174.969	245.497	-0.165	0.272
-173.954	-124.508	-0.120	-0.018
-172.939	7.102	0.153	-0.112
-171.925	-19.653	-0.189	-0.115
-170.910	-200.000	0.044	-0.574
-169.896	359.660	0.145	-0.285
-168.881	-64.640	0.216	0.086
-167.866	-105.799	-0.244	-0.054
-166.852	38.135	-0.285	-0.249
-165.837	-31.265	0.339	-0.188
-164.823	-48.545	0.185	-0.087
-163.808	800.000	-0.183	0.568
-162.793	59.596	-0.215	-0.208
-161.779	480.402	0.235	0.524
-160.764	-24.694	0.173	-0.101
-159.750	-20.945	0.139	-0.083
-158.735	800.000	-0.063	0.248
-157.720	-200.000	-0.069	0.385
-156.706	800.000	0.136	0.484
-155.691	144.299	0.330	0.433
-154.677	475.150	-0.121	-0.268
-153.662	-99.134	-0.320	-0.079
-152.647	800.000	-0.133	0.378
-151.633	-48.887	-0.111	0.052
-150.618	38.295	0.048	-0.042
-149.604	-200.000	0.052	0.284
-148.589	-157.591	0.256	-0.015
-147.574	83.109	-0.187	0.200
-146.560	-125.037	0.583	0.088
-145.545	-147.089	0.144	-0.012
-144.531	341.411	0.085	0.164
-143.516	-124.475	-0.240	-0.037
-142.502	800.000	0.037	-0.145
-141.487	249.294	-0.032	-0.053
-140.472	-200.000	0.028	0.317
-139.458	-200.000	0.029	0.281
-138.443	-123.276	0.386	-0.060
-137.429	-43.420	0.148	-0.073
-136.414	-91.780	0.111	0.031
-135.399	-33.210	-0.255	-0.139
-134.385	-200.000	-0.018	-0.093
-133.370	800.000	0.039	-0.115
-132.356	-91.348	-0.094	-0.026
-131.341	187.658	0.156	-0.228
-130.326	-30.002	0.129	0.072
-129.312	-200.000	-0.055	0.244
-128.297	-60.955	0.440	0.182
-127.283	123.892	0.123	-0.151
-126.268	-10.197	0.219	0.142
-125.253	800.000	-0.105	0.326
-124.239	69.895	0.136	0.137
-123.224	735.266	0.066	0.173
-122.210	-29.969	-0.240	0.134
-121.195	-136.356	0.321	0.037
-120.180	-51.788	0.148	-0.068
