DTS Sentinel unit serial number:	SN413079Multiplexer serial number:	ORYXHardware model number:	OX4-SRSoftware version number:	ORYX F/W v4.00 Oryx Data Collector v3.7.2.0data status	okinstallation	princeton_trtdifferential loss correction	single-endedforward channel	channel 2reverse channel	N/Adate	2019/09/12time	21:35:35forward acquisition time	60.00reverse acquisition time	0.00gamma	496.2192k internal	0.2329k external	0.2329temperature offset calibration	1.0169default loss term (dB/km)	0.3790temperature slope calibration	1.0000multiplexer offset coefficient	1.0000multiplexer slope coefficient	1.0000fibre end	0.00T internal ref (°C)	30.37T ext. ref 1 (°C)	3.68T ext. ref 2 (°C)	25.00length (m)	temperature (°C)	Stokes	anti-Stokes-747.200	-66.845	0.171	-0.068
-746.185	-200.000	0.010	0.207
-745.171	143.512	-0.195	-0.262
-744.156	339.529	-0.040	0.078
-743.142	800.000	-0.023	0.087
-742.127	26.368	-0.121	0.102
-741.112	-200.000	-0.006	0.157
-740.098	-200.000	0.002	0.152
-739.083	-76.546	0.394	0.140
-738.069	31.763	-0.163	0.141
-737.054	39.438	0.244	0.220
-736.039	-27.939	-0.173	-0.101
-735.025	-130.766	0.236	0.032
-734.010	-36.017	-0.066	-0.036
-732.996	-141.506	-0.188	-0.019
-731.981	-200.000	0.060	-0.283
-730.966	60.429	0.211	0.211
-729.952	-198.338	-0.181	0.001
-728.937	159.458	0.141	-0.197
-727.923	-200.000	-0.012	-0.194
-726.908	-200.000	0.013	-0.063
-725.894	-45.641	-0.257	-0.128
-724.879	-59.153	-0.420	0.182
-723.864	37.294	0.155	0.138
-722.850	-176.434	-0.256	-0.007
-721.835	13.238	-0.099	0.077
-720.821	251.521	-0.127	0.218
-719.806	800.000	0.042	-0.128
-718.791	-200.000	0.005	-0.051
-717.777	70.134	-0.283	-0.294
-716.762	-13.075	-0.020	0.013
-715.748	67.015	-0.226	-0.232
-714.733	-24.007	-0.081	0.049
-713.718	-70.338	-0.225	0.086
-712.704	114.402	0.067	0.083
-711.689	-177.444	0.229	0.006
-710.675	17.200	-0.172	0.137
-709.660	800.000	-0.048	0.212
-708.645	-108.638	-0.186	0.040
-707.631	-39.184	0.103	0.054
-706.616	-98.948	0.114	-0.029
-705.602	-200.000	-0.016	0.121
-704.587	305.489	-0.180	0.336
-703.572	-200.000	0.018	-0.174
-702.558	339.868	-0.077	-0.151
-701.543	-78.781	0.161	0.055
-700.529	800.000	-0.053	0.203
-699.514	-71.777	-0.190	-0.071
-698.499	170.289	-0.127	0.183
-697.485	-200.000	-0.031	0.250
-696.470	-200.000	0.000	0.057
-695.456	-78.102	-0.260	0.090
-694.441	136.568	-0.131	-0.172
-693.426	-200.000	0.005	-0.112
-692.412	-22.440	-0.288	0.176
-691.397	-102.084	0.214	-0.052
-690.383	336.668	0.081	-0.159
-689.368	604.779	-0.097	-0.242
-688.354	-94.318	-0.086	-0.024
-687.339	-66.354	0.327	-0.131
-686.324	-200.000	0.003	-0.449
-685.310	800.000	0.044	0.194
-684.295	-199.658	-0.433	0.002
-683.281	224.159	0.125	-0.203
-682.266	108.555	0.126	-0.152
-681.251	-102.561	0.020	0.005
-680.237	-88.315	-0.106	-0.032
-679.222	800.000	0.052	0.161
-678.208	-133.095	-0.083	-0.011
-677.193	-40.899	-0.487	0.253
-676.178	-200.000	0.061	-0.315
-675.164	-59.272	0.146	0.063
-674.149	-200.000	-0.016	0.071
-673.135	786.149	-0.083	-0.228
-672.120	-132.607	0.320	-0.041
-671.105	-200.000	-0.013	0.336
-670.091	106.584	-0.055	0.065
-669.076	0.269	-0.205	-0.147
-668.062	-92.524	-0.475	0.134
-667.047	-93.899	-0.049	0.014
-666.032	-45.159	-0.140	0.070
-665.018	-47.408	0.261	0.128
-664.003	-63.822	-0.128	0.053
-662.989	-74.216	-0.188	-0.068
-661.974	-31.644	0.120	0.068
-660.959	-25.723	-0.204	-0.121
-659.945	-45.165	0.046	-0.023
-658.930	58.483	-0.147	-0.144
-657.916	66.862	-0.057	0.058
-656.901	83.056	-0.211	-0.231
-655.886	29.166	0.023	0.019
-654.872	17.612	-0.053	0.042
-653.857	-53.025	-0.212	-0.098
-652.843	130.212	-0.272	0.349
-651.828	18.680	-0.158	-0.127
-650.814	603.915	-0.106	-0.266
-649.799	-69.715	0.247	-0.095
-648.784	169.874	0.264	0.379
-647.770	800.000	0.149	0.465
-646.755	50.413	-0.236	-0.224
-645.741	-136.757	-0.205	0.024
-644.726	-200.000	0.025	0.383
-643.711	-200.000	0.016	-0.360
-642.697	-112.698	-0.442	-0.088
-641.682	349.852	0.120	-0.238
-640.668	-107.260	-0.030	-0.007
-639.653	100.986	0.073	0.086
-638.638	-126.523	0.256	-0.038
-637.624	-200.000	0.006	-0.032
-636.609	800.000	0.026	0.076
-635.595	-200.000	0.076	-0.361
-634.580	250.521	0.052	-0.089
-633.565	-2.385	0.139	-0.098
-632.551	-38.245	-0.401	-0.213
-631.536	295.305	-0.069	0.126
-630.522	-140.773	0.323	0.033
-629.507	69.218	-0.177	0.183
-628.492	4.608	-0.032	0.023
-627.478	338.292	0.157	-0.307
-626.463	65.147	-0.236	-0.239
-625.449	-67.686	-0.112	0.044
-624.434	-58.537	-0.418	0.182
-623.419	47.653	0.132	0.124
-622.405	754.253	-0.180	0.488
-621.390	-200.000	-0.246	-0.001
-620.376	-43.925	-0.131	-0.066
-619.361	-109.148	-0.155	-0.033
-618.346	-135.159	-0.277	-0.033
-617.332	-108.715	-0.051	0.011
-616.317	93.396	0.257	0.291
-615.303	-200.000	0.037	0.184
-614.288	-93.300	0.272	-0.076
-613.273	-1.494	0.194	-0.137
-612.259	800.000	-0.022	-0.061
-611.244	-154.399	0.185	-0.012
-610.230	73.408	-0.123	-0.129
-609.215	-54.437	-0.360	-0.164
-608.201	54.713	0.207	0.200
-607.186	318.334	-0.058	-0.110
-606.171	-200.000	-0.024	-0.212
-605.157	-132.483	-0.302	-0.039
-604.142	31.969	-0.097	0.084
-603.128	-80.278	-0.131	0.044
-602.113	-14.686	-0.239	-0.154
-601.098	-200.000	-0.052	-0.247
-600.084	800.000	0.040	-0.172
-599.069	427.297	-0.159	-0.344
-598.055	736.989	-0.146	-0.391
-597.040	171.551	-0.120	-0.173
-596.025	94.702	-0.215	-0.245
-595.011	553.266	0.053	0.127
-593.996	36.756	0.269	-0.238
-592.982	292.256	0.110	-0.201
-591.967	73.580	-0.193	-0.202
-590.952	-200.000	0.030	-0.199
-589.938	-200.000	-0.009	-0.138
-588.923	42.726	-0.087	0.079
-587.909	-47.139	0.209	-0.102
-586.894	95.116	-0.070	-0.080
-585.879	-123.240	-0.125	0.020
-584.865	800.000	0.021	0.062
-583.850	408.147	-0.062	-0.132
-582.836	-181.379	0.211	0.004
-581.821	194.061	-0.057	-0.087
-580.806	-90.802	0.096	0.028
-579.792	282.787	0.122	0.219
-578.777	800.000	0.084	-0.234
-577.763	-200.000	0.016	-0.366
-576.748	760.632	0.021	0.056
-575.733	-34.790	-0.093	0.051
-574.719	800.000	0.051	0.220
-573.704	-136.659	-0.031	0.004
-572.690	-84.078	0.209	0.066
-571.675	-200.000	-0.001	0.061
-570.661	214.928	-0.140	-0.222
-569.646	186.205	0.179	0.267
-568.631	92.844	-0.146	0.165
-567.617	183.300	-0.044	0.065
-566.602	800.000	0.104	-0.453
-565.588	388.679	0.087	0.181
-564.573	-114.989	0.141	0.027
-563.558	8.824	0.362	-0.273
-562.544	-155.640	-0.411	-0.026
-561.529	-23.823	-0.370	-0.222
-560.515	-138.796	0.135	-0.015
-559.500	-127.173	0.198	-0.029
-558.485	221.058	0.087	-0.139
-557.471	-200.000	-0.069	-0.345
-556.456	-34.759	-0.213	-0.116
-555.442	-41.286	-0.251	-0.130
-554.427	-200.000	-0.019	-0.249
-553.412	235.778	0.176	0.291
-552.398	-160.106	-0.134	-0.007
-551.383	-79.565	-0.338	0.114
-550.369	102.065	0.166	-0.194
-549.354	-33.595	-0.187	0.103
-548.339	800.000	0.077	0.305
-547.325	363.960	0.109	-0.220
-546.310	175.540	-0.053	0.077
-545.296	-200.000	0.024	-0.124
-544.281	136.066	-0.095	0.124
-543.266	-129.807	0.379	-0.052
-542.252	-21.968	-0.311	-0.189
-541.237	44.794	0.280	0.257
-540.223	-25.020	0.060	-0.036
-539.208	483.765	0.084	-0.191
-538.193	585.913	-0.044	-0.109
-537.179	-197.735	0.198	0.001
-536.164	-122.770	0.316	-0.051
-535.150	-120.404	0.095	-0.016
-534.135	87.827	0.285	0.316
-533.121	522.977	-0.130	-0.306
-532.106	-21.340	0.235	0.143
-531.091	13.865	0.276	0.214
-530.077	-139.474	-0.305	-0.033
-529.062	53.517	-0.190	-0.182
-528.048	-82.553	0.098	0.032
-527.033	-51.341	0.111	-0.052
-526.018	-79.642	0.089	-0.030
-525.004	223.864	0.123	0.198
-523.989	257.914	-0.106	0.183
-522.975	-200.000	0.026	-0.294
-521.960	-200.000	0.026	0.000
-520.945	109.814	-0.022	0.027
-519.931	-162.968	-0.300	0.015
-518.916	-200.000	0.035	-0.195
-517.902	-197.690	-0.462	-0.003
-516.887	-144.813	-0.173	-0.016
-515.872	11.163	-0.149	0.114
-514.858	372.565	-0.198	0.402
-513.843	-100.802	0.673	0.166
-512.829	422.864	0.163	0.350
-511.814	-101.479	-0.346	-0.084
-510.799	60.873	-0.068	-0.067
-509.785	442.789	0.090	0.198
-508.770	800.000	0.037	0.107
-507.756	32.200	-0.281	-0.242
-506.741	-134.427	0.234	-0.029
-505.726	660.436	0.076	-0.196
-504.712	-101.300	-0.238	-0.058
-503.697	-75.733	-0.061	-0.022
-502.683	230.989	-0.059	0.096
-501.668	203.408	-0.056	-0.086
-500.653	74.131	0.301	0.315
-499.639	-77.170	-0.338	0.118
-498.624	-200.000	0.013	0.257
-497.610	180.153	0.136	0.199
-496.595	432.476	-0.066	0.144
-495.581	154.408	-0.124	0.170
-494.566	-62.574	-0.121	-0.050
-493.551	800.000	0.023	0.073
-492.537	800.000	-0.056	-0.155
-491.522	166.080	0.024	-0.034
-490.508	-200.000	-0.007	-0.324
-489.493	294.814	0.102	-0.187
-488.478	-124.986	-0.077	0.012
-487.464	-200.000	-0.013	-0.284
-486.449	-131.005	0.112	0.015
-485.435	-28.238	0.272	0.157
-484.420	172.801	0.190	0.273
-483.405	-200.000	-0.028	-0.220
-482.391	800.000	-0.120	-0.353
-481.376	86.354	-0.279	0.306
-480.362	800.000	-0.086	0.270
-479.347	418.903	0.156	0.333
-478.332	-44.080	-0.303	0.152
-477.318	35.184	-0.169	0.147
-476.303	-3.338	0.279	0.193
-475.289	-200.000	-0.072	-0.358
-474.274	430.494	-0.079	-0.171
-473.259	14.030	-0.331	-0.257
-472.245	-200.000	-0.008	0.078
-471.230	3.158	0.260	0.188
-470.216	280.139	0.176	0.313
-469.201	-200.000	0.024	-0.352
-468.186	170.869	0.089	-0.127
-467.172	-200.000	0.017	0.175
-466.157	800.000	-0.018	0.061
-465.143	800.000	-0.075	0.242
-464.128	519.408	0.075	0.176
-463.113	58.994	-0.070	-0.069
-462.099	-48.220	0.081	-0.039
-461.084	54.512	0.218	0.210
-460.070	-21.496	-0.291	0.177
-459.055	26.845	0.248	0.207
-458.040	558.578	0.023	-0.054
-457.026	-200.000	-0.062	-0.313
-456.011	54.738	0.078	0.075
-454.997	486.608	0.128	0.291
-453.982	-140.620	-0.044	-0.005
-452.968	800.000	0.107	-0.349
-451.953	-200.000	0.035	0.357
-450.938	-174.345	-0.129	0.004
-449.924	73.054	0.180	0.187
-448.909	-116.068	0.203	-0.038
-447.895	136.195	-0.145	-0.188
-446.880	66.473	0.127	0.128
-445.865	-200.000	-0.006	-0.138
-444.851	48.568	0.201	0.187
-443.836	-9.260	0.145	-0.096
-442.822	-85.289	-0.173	0.054
-441.807	-168.526	-0.074	-0.003
-440.792	-113.757	0.155	0.030
-439.778	-44.030	0.237	0.119
-438.763	32.466	-0.097	0.083
-437.749	-64.643	0.145	0.058
-436.734	-53.321	0.356	-0.163
-435.719	-94.688	-0.242	-0.065
-434.705	-73.275	-0.284	-0.103
-433.690	-4.899	0.215	-0.148
-432.676	10.817	0.226	-0.172
-431.661	-49.006	0.256	-0.122
-430.646	-107.694	0.128	-0.028
-429.632	800.000	-0.089	-0.271
-428.617	-48.819	0.195	0.093
-427.603	34.823	-0.188	-0.164
-426.588	-25.006	0.511	0.302
-425.573	-114.362	0.348	-0.067
-424.559	9.679	-0.157	-0.118
-423.544	800.000	-0.032	0.131
-422.530	-200.000	-0.019	0.229
-421.515	800.000	-0.023	0.066
-420.500	192.733	0.101	0.152
-419.486	-38.389	0.223	0.117
-418.471	-58.140	-0.310	-0.134
-417.457	800.000	-0.046	-0.179
-416.442	800.000	-0.123	0.384
-415.428	87.983	0.128	0.141
-414.413	318.045	-0.043	0.081
-413.398	-167.854	0.429	0.017
-412.384	616.626	0.139	0.346
-411.369	549.718	0.125	-0.298
-410.355	-40.183	-0.098	0.051
-409.340	120.393	0.012	0.014
-408.325	-149.076	0.162	-0.013
-407.311	529.245	0.104	-0.243
-406.296	-200.000	0.071	-0.362
-405.282	500.550	-0.106	0.243
-404.267	107.702	0.241	0.285
-403.252	-113.113	0.192	0.038
-402.238	397.539	0.127	0.263
-401.223	-5.967	-0.230	0.156
-400.209	-200.000	0.004	-0.249
-399.194	23.033	0.142	-0.116
-398.179	-52.807	-0.293	0.134
-397.165	5.470	0.137	-0.100
-396.150	-200.000	-0.071	0.371
-395.136	-123.569	-0.319	0.050
-394.121	208.243	0.049	0.076
-393.106	411.602	0.082	-0.173
-392.092	-200.000	0.029	-0.406
-391.077	-97.901	-0.028	0.007
-390.063	-148.222	-0.395	-0.032
-389.048	215.668	-0.117	-0.184
-388.033	-25.335	-0.134	0.079
-387.019	-160.326	-0.119	-0.006
-386.004	157.556	-0.096	-0.131
-384.990	-94.719	0.341	0.092
-383.975	-200.000	-0.009	0.140
-382.960	-200.000	-0.004	0.362
-381.946	-65.312	0.156	-0.062
-380.931	-32.926	-0.037	0.020
-379.917	623.094	-0.036	0.089
-378.902	-26.565	0.299	0.174
-377.888	-200.000	-0.029	-0.242
-376.873	-124.065	-0.125	0.019
-375.858	-200.000	-0.058	0.455
-374.844	21.668	0.216	0.174
-373.829	-138.310	-0.114	-0.012
-372.815	10.615	-0.181	0.137
-371.800	-5.811	-0.364	0.247
-370.785	777.383	-0.105	0.284
-369.771	-169.439	0.278	0.010
-368.756	-200.000	0.034	-0.345
-367.742	255.631	-0.195	-0.332
-366.727	309.798	0.042	0.077
-365.712	78.173	-0.051	-0.054
-364.698	178.138	-0.202	-0.292
-363.683	800.000	-0.090	-0.350
-362.669	49.088	0.111	-0.104
-361.654	-6.744	-0.343	-0.231
-360.639	-89.458	-0.321	0.094
-359.625	-78.624	0.197	0.067
-358.610	-154.205	-0.100	0.007
-357.596	800.000	0.039	0.133
-356.581	-19.373	-0.107	0.066
-355.566	-182.825	-0.374	-0.007
-354.552	-78.856	0.223	0.076
-353.537	15.203	0.121	0.094
-352.523	-70.228	0.280	-0.105
-351.508	72.816	-0.056	0.058
-350.493	312.035	-0.116	0.215
-349.479	40.270	0.245	-0.219
-348.464	194.071	0.088	0.132
-347.450	-200.000	-0.016	0.225
-346.435	-25.372	0.276	-0.162
-345.420	800.000	0.084	-0.320
-344.406	-1.936	0.151	0.106
-343.391	56.395	-0.233	-0.225
-342.377	-23.199	-0.146	-0.087
-341.362	-90.498	0.302	0.087
-340.348	-104.699	0.478	0.109
-339.333	-16.241	-0.309	-0.195
-338.318	658.606	0.121	-0.308
-337.304	-200.000	-0.034	0.233
-336.289	-200.000	-0.006	-0.035
-335.275	238.540	-0.031	0.051
-334.260	800.000	-0.095	0.410
-333.245	800.000	0.042	0.145
-332.231	-200.000	0.011	0.242
-331.216	-6.237	-0.177	0.119
-330.202	58.187	0.091	0.089
-329.187	-148.922	0.213	-0.017
-328.172	254.497	-0.082	0.140
-327.158	800.000	-0.067	0.276
-326.143	-17.831	0.142	-0.088
-325.129	-73.411	0.142	-0.051
-324.114	-122.854	-0.238	-0.038
-323.099	166.268	-0.191	0.268
-322.085	428.826	0.071	0.152
-321.070	-48.801	-0.298	0.141
-320.056	630.382	-0.132	0.330
-319.041	-200.000	0.003	-0.041
-318.026	-96.040	0.145	-0.038
-317.012	-200.000	0.003	-0.435
-315.997	-89.536	-0.088	0.026
-314.983	101.867	-0.124	0.144
-313.968	647.551	-0.047	0.119
-312.953	130.607	0.214	0.272
-311.939	-158.476	-0.189	0.011
-310.924	-200.000	-0.017	-0.090
-309.910	236.692	0.049	-0.080
-308.895	101.076	-0.203	-0.234
-307.880	-200.000	-0.038	0.178
-306.866	-146.583	-0.162	0.014
-305.851	-119.809	-0.107	-0.018
-304.837	139.528	-0.036	-0.048
-303.822	82.932	-0.173	-0.186
-302.807	7.992	-0.094	-0.070
-301.793	100.222	-0.039	-0.044
-300.778	-34.739	-0.215	-0.116
-299.764	-122.330	0.250	-0.040
-298.749	3.123	0.187	0.134
-297.735	38.712	0.175	0.155
-296.720	1.374	0.102	-0.073
-295.705	-200.000	0.011	0.152
-294.691	-200.000	0.019	0.257
-293.676	435.332	0.090	-0.194
-292.662	-107.298	0.505	0.110
-291.647	122.181	-0.172	0.213
-290.632	180.816	-0.116	0.168
-289.618	142.509	0.064	-0.085
-288.603	-111.034	0.212	-0.043
-287.589	-91.007	-0.218	-0.062
-286.574	-200.000	-0.028	-0.173
-285.559	325.387	0.196	-0.372
-284.545	564.810	-0.168	0.402
-283.530	245.729	0.085	0.142
-282.516	145.181	-0.125	-0.166
-281.501	800.000	0.016	-0.046
-280.486	27.653	-0.159	-0.133
-279.472	-112.402	0.139	-0.028
-278.457	-200.000	0.003	0.104
-277.443	-200.000	0.002	0.041
-276.428	543.096	-0.134	-0.315
-275.413	-87.180	-0.174	0.052
-274.399	-12.182	-0.235	-0.152
-273.384	-200.000	0.010	-0.339
-272.370	-103.193	0.370	0.087
-271.355	-29.189	-0.166	0.094
-270.340	-109.054	0.194	-0.041
-269.326	-200.000	-0.003	-0.269
-268.311	-12.765	-0.084	0.054
-267.297	51.679	-0.108	0.101
-266.282	-136.980	0.210	0.024
-265.267	-200.000	0.034	0.324
-264.253	800.000	0.063	0.173
-263.238	-43.632	0.341	0.170
-262.224	-130.724	0.214	0.029
-261.209	-185.547	-0.128	-0.002
-260.195	113.953	0.166	-0.200
-259.180	9.497	0.128	-0.096
-258.165	28.128	0.138	0.115
-257.151	507.195	0.161	-0.369
-256.136	800.000	-0.097	-0.378
-255.122	-34.610	0.020	-0.011
-254.107	-200.000	-0.075	0.376
-253.092	272.747	0.164	-0.286
-252.078	227.357	0.038	-0.061
-251.063	263.319	-0.033	0.056
-250.049	-23.473	0.147	0.087
-249.034	335.523	-0.219	-0.419
-248.019	800.000	0.067	-0.206
-247.005	800.000	-0.157	0.534
-245.990	28.629	-0.147	0.123
-244.976	129.533	-0.336	-0.425
-243.961	-2.466	0.264	0.182
-242.946	287.049	0.070	-0.125
-241.932	165.811	0.049	-0.069
-240.917	133.528	-0.143	0.183
-239.903	-54.017	0.343	-0.154
-238.888	247.134	-0.050	-0.084
-237.873	-104.715	-0.191	0.043
-236.859	-200.000	-0.044	0.272
-235.844	-68.162	0.232	-0.089
-234.830	-45.187	-0.309	-0.152
-233.815	90.930	0.099	-0.109
-232.800	65.090	0.036	0.036
-231.786	-1.304	0.208	-0.145
-230.771	-200.000	0.014	-0.227
-229.757	-106.851	-0.089	-0.019
-228.742	-101.279	-0.213	0.051
-227.727	196.130	-0.046	-0.069
-226.713	104.534	0.156	0.182
-225.698	-141.693	-0.597	-0.059
-224.684	10.884	-0.050	0.038
-223.669	-37.915	0.194	0.102
-222.655	-200.000	-0.016	0.262
-221.640	-62.909	0.057	0.023
-220.625	-76.392	0.240	0.083
-219.611	70.913	0.156	-0.159
-218.596	-200.000	-0.082	-0.403
-217.582	-98.645	0.222	0.056
-216.567	-200.000	0.014	-0.081
-215.552	113.245	-0.143	0.171
-214.538	29.745	-0.146	-0.123
-213.523	-90.366	-0.325	0.093
-212.509	90.136	-0.038	-0.042
-211.494	-44.471	0.241	0.119
-210.479	178.288	0.072	0.103
-209.465	-8.544	0.115	-0.076
-208.450	-122.249	-0.027	0.004
-207.436	-200.000	-0.007	-0.281
-206.421	-200.000	-0.024	-0.321
-205.406	79.034	0.394	-0.416
-204.392	-22.175	-0.375	0.225
-203.377	-136.497	0.071	0.008
-202.363	800.000	0.118	-0.323
-201.348	-200.000	0.032	0.353
-200.333	473.593	0.119	0.266
-199.319	93.683	0.131	0.146
-198.304	800.000	-0.036	-0.123
-197.290	24.989	-0.068	-0.056
-196.275	-191.448	-0.180	0.002
-195.260	-31.705	-0.105	-0.058
-194.246	-200.000	0.006	0.288
-193.231	-155.183	-0.187	0.012
-192.217	261.597	-0.087	0.148
-191.202	-193.915	-0.162	-0.001
-190.187	-200.000	0.021	0.090
-189.173	-200.000	0.037	-0.196
-188.158	-177.331	-0.257	0.006
-187.144	-200.000	-0.030	0.310
-186.129	260.415	0.063	-0.107
-185.114	86.876	0.175	0.191
-184.100	-200.000	0.009	0.194
-183.085	-0.329	0.231	-0.162
-182.071	139.259	0.039	-0.050
-181.056	-127.905	-0.318	0.045
-180.042	-30.462	-0.246	0.137
-179.027	-44.535	0.128	-0.063
-178.012	-143.568	-0.101	-0.009
-176.998	-4.882	0.263	0.179
-175.983	40.299	0.009	0.008
-174.969	800.000	0.022	-0.071
-173.954	-200.000	0.000	0.115
-172.939	466.456	0.115	-0.255
-171.925	317.928	-0.101	0.189
-170.910	-158.018	0.236	-0.014
-169.896	-30.877	0.054	0.030
-168.881	568.806	0.113	0.271
-167.866	-144.801	-0.109	0.010
-166.852	276.488	-0.159	-0.279
-165.837	800.000	0.080	-0.336
-164.823	321.812	0.031	-0.058
-163.808	236.043	-0.163	-0.266
-162.793	-140.533	-0.215	0.022
-161.779	-92.080	-0.384	0.107
-160.764	800.000	0.037	0.139
-159.750	-200.000	-0.036	-0.417
-158.735	-200.000	-0.098	0.501
-157.720	-85.038	0.258	0.080
-156.706	-20.166	-0.183	0.111
-155.691	53.617	0.236	-0.223
-154.677	46.489	-0.097	-0.088
-153.662	86.235	-0.168	0.183
-152.647	-135.645	-0.405	0.047
-151.633	10.290	0.242	0.181
-150.618	-149.299	0.414	-0.033
-149.604	-31.122	-0.307	0.170
-148.589	151.885	-0.071	-0.095
-147.574	185.224	-0.070	0.102
-146.560	181.231	-0.144	0.209
-145.545	-27.003	-0.211	0.121
-144.531	-87.473	0.354	0.105
-143.516	704.662	-0.079	0.206
-142.502	-46.616	-0.304	-0.147
-141.487	36.035	0.182	-0.157
-140.472	-200.000	0.001	-0.370
-139.458	-88.182	0.293	-0.086
-138.443	-13.389	-0.207	-0.132
-137.429	-108.261	-0.224	-0.048
-136.414	-200.000	0.082	-0.000
-135.399	718.598	-0.035	-0.091
-134.385	102.865	-0.110	-0.127
-133.370	-12.339	-0.254	0.163
-132.356	47.568	-0.132	-0.121
-131.341	800.000	-0.054	0.154
-130.326	-200.000	-0.003	-0.090
-129.312	-59.038	0.064	0.027
-128.297	800.000	0.069	-0.212
-127.283	800.000	0.055	-0.199
-126.268	-98.501	0.269	-0.068
-125.253	432.803	-0.156	-0.333
-124.239	-97.468	0.042	0.011
-123.224	-166.494	-0.163	0.007
-122.210	-200.000	0.025	0.225
-121.195	248.843	-0.172	0.286
