DTS Sentinel unit serial number:	SN413079Multiplexer serial number:	ORYXHardware model number:	OX4-SRSoftware version number:	ORYX F/W v4.00 Oryx Data Collector v3.7.2.0data status	okinstallation	princeton_trtdifferential loss correction	single-endedforward channel	channel 2reverse channel	N/Adate	2019/09/18time	22:11:35forward acquisition time	60.00reverse acquisition time	0.00gamma	496.2192k internal	0.2348k external	0.2348temperature offset calibration	1.0018default loss term (dB/km)	0.3790temperature slope calibration	1.0000multiplexer offset coefficient	1.0000multiplexer slope coefficient	1.0000fibre end	0.00T internal ref (°C)	24.44T ext. ref 1 (°C)	0.80T ext. ref 2 (°C)	18.16length (m)	temperature (°C)	Stokes	anti-Stokes-747.200	-200.000	-0.023	0.136
-746.185	-74.614	-0.230	-0.083
-745.171	-200.000	-0.022	0.115
-744.156	-87.348	0.178	0.054
-743.142	-200.000	0.016	0.211
-742.127	14.168	-0.270	0.210
-741.112	-200.000	-0.022	-0.142
-740.098	149.910	0.111	0.150
-739.083	138.159	0.174	0.228
-738.069	800.000	0.052	0.202
-737.054	613.759	0.031	-0.078
-736.039	-200.000	0.005	-0.065
-735.025	-156.436	0.033	0.002
-734.010	77.344	-0.296	-0.314
-732.996	35.614	-0.173	0.152
-731.981	-200.000	-0.050	0.238
-730.966	269.512	-0.095	-0.166
-729.952	-200.000	0.034	0.280
-728.937	800.000	-0.091	-0.304
-727.923	-76.564	0.066	-0.023
-726.908	267.276	-0.052	0.090
-725.894	-200.000	-0.071	-0.525
-724.879	-200.000	-0.016	-0.103
-723.864	-200.000	-0.029	-0.164
-722.850	800.000	-0.049	-0.202
-721.835	-117.469	-0.254	0.046
-720.821	334.636	0.118	-0.229
-719.806	15.207	0.221	0.173
-718.791	-179.721	-0.076	-0.002
-717.777	-187.283	0.466	-0.006
-716.762	-200.000	0.050	0.260
-715.748	-200.000	-0.000	0.151
-714.733	40.011	-0.177	-0.158
-713.718	-31.546	-0.122	0.068
-712.704	-200.000	0.005	-0.056
-711.689	-36.933	0.137	-0.073
-710.675	-200.000	-0.002	-0.125
-709.660	223.370	0.290	-0.467
-708.645	800.000	-0.061	0.213
-707.631	-29.727	0.314	0.178
-706.616	189.744	0.022	-0.033
-705.602	-20.185	-0.234	0.144
-704.587	-98.776	0.181	0.046
-703.572	800.000	0.060	-0.177
-702.558	365.802	-0.169	-0.340
-701.543	266.133	-0.087	-0.151
-700.529	-200.000	0.034	0.434
-699.514	-74.335	0.216	0.078
-698.499	-200.000	0.006	0.054
-697.485	-98.232	0.277	-0.071
-696.470	4.109	-0.318	-0.232
-695.456	14.845	-0.171	-0.133
-694.441	625.612	-0.037	0.093
-693.426	26.190	0.401	0.334
-692.412	800.000	0.056	-0.197
-691.397	113.840	0.120	-0.146
-690.383	-110.678	-0.356	-0.073
-689.368	567.089	-0.087	0.211
-688.354	-200.000	-0.016	0.217
-687.339	-9.738	0.133	-0.088
-686.324	-154.640	-0.094	0.006
-685.310	-200.000	-0.013	0.280
-684.295	180.619	-0.140	-0.205
-683.281	57.307	0.098	-0.095
-682.266	-200.000	-0.062	-0.330
-681.251	352.702	0.088	0.174
-680.237	52.577	0.177	-0.169
-679.222	-86.969	0.087	0.026
-678.208	-200.000	-0.087	-0.431
-677.193	-56.156	0.207	-0.092
-676.178	-81.237	0.119	-0.039
-675.164	141.684	0.228	0.301
-674.149	566.854	0.037	-0.089
-673.135	-67.612	-0.262	-0.102
-672.120	-87.639	0.571	-0.172
-671.105	317.874	0.095	0.178
-670.091	800.000	-0.191	-0.711
-669.076	13.103	-0.231	0.178
-668.062	-39.110	-0.237	-0.124
-667.047	-16.608	-0.147	-0.093
-666.032	8.165	0.276	-0.207
-665.018	584.857	0.049	-0.121
-664.003	319.213	0.071	-0.134
-662.989	-91.813	-0.203	0.057
-661.974	-200.000	-0.014	-0.132
-660.959	253.670	-0.098	-0.167
-659.945	800.000	-0.013	0.039
-658.930	-50.452	0.329	0.155
-657.916	163.494	0.153	-0.214
-656.901	-67.860	0.236	-0.092
-655.886	-17.103	-0.156	0.098
-654.872	92.650	-0.074	0.084
-653.857	-59.014	-0.199	-0.085
-652.843	-30.474	0.095	-0.054
-651.828	22.665	-0.174	0.142
-650.814	-75.899	0.285	-0.100
-649.799	-200.000	-0.200	-0.000
-648.784	581.527	-0.088	-0.216
-647.770	215.411	0.167	-0.264
-646.755	99.003	0.064	0.073
-645.741	-161.592	-0.404	0.021
-644.726	-186.784	-0.260	-0.004
-643.711	-200.000	0.030	0.156
-642.697	-59.540	0.182	-0.078
-641.682	-184.067	0.099	-0.002
-640.668	-94.531	-0.106	-0.029
-639.653	123.923	0.177	0.222
-638.638	-200.000	0.032	0.439
-637.624	-37.001	-0.139	-0.074
-636.609	120.073	0.149	-0.184
-635.595	5.010	-0.084	-0.062
-634.580	-200.000	0.025	0.129
-633.565	-99.008	0.150	0.038
-632.551	-200.000	-0.003	-0.024
-631.536	252.879	-0.080	-0.136
-630.522	-200.000	-0.039	-0.201
-629.507	100.644	0.131	-0.151
-628.492	309.582	-0.139	-0.259
-627.478	800.000	0.043	0.137
-626.463	800.000	0.111	0.356
-625.449	-36.652	-0.343	-0.184
-624.434	800.000	-0.044	0.150
-623.419	122.201	-0.181	-0.225
-622.405	-200.000	-0.028	-0.360
-621.390	145.197	-0.082	-0.109
-620.376	14.063	-0.120	-0.093
-619.361	800.000	-0.001	-0.003
-618.346	-39.615	0.173	-0.090
-617.332	-48.761	0.453	-0.216
-616.317	800.000	0.006	-0.022
-615.303	389.422	-0.143	0.295
-614.288	-94.447	0.210	-0.057
-613.273	31.734	-0.143	-0.122
-612.259	-51.605	-0.373	-0.173
-611.244	-18.872	-0.127	0.079
-610.230	-96.976	0.286	-0.075
-609.215	343.312	0.124	-0.241
-608.201	-96.871	0.166	-0.043
-607.186	-10.008	0.094	0.062
-606.171	61.483	0.125	-0.124
-605.157	-36.164	-0.277	-0.148
-604.142	-87.614	-0.091	-0.027
-603.128	756.046	-0.105	-0.282
-602.113	449.793	-0.150	0.328
-601.098	800.000	0.078	-0.240
-600.084	11.658	0.194	0.148
-599.069	523.799	0.130	-0.303
-598.055	500.989	0.127	0.290
-597.040	-200.000	-0.003	-0.206
-596.025	-150.116	-0.211	0.016
-595.011	420.649	-0.082	0.176
-593.996	579.164	-0.078	0.188
-592.982	-200.000	-0.345	0.000
-591.967	-2.728	-0.135	-0.094
-590.952	-80.802	-0.283	0.093
-589.938	31.932	-0.150	0.128
-588.923	-175.357	-0.038	-0.001
-587.909	-64.436	0.543	0.219
-586.894	247.094	0.197	-0.330
-585.879	273.726	0.137	-0.241
-584.865	-60.847	0.078	-0.033
-583.850	-37.584	-0.156	0.083
-582.836	-44.008	0.236	-0.118
-581.821	21.299	0.093	0.075
-580.806	11.360	-0.056	-0.042
-579.792	-10.958	0.092	0.061
-578.777	441.441	-0.170	0.370
-577.763	-200.000	0.042	0.227
-576.748	209.216	0.062	0.097
-575.733	-40.590	0.227	-0.117
-574.719	-7.847	0.217	0.146
-573.704	80.773	0.180	-0.193
-572.690	59.102	0.225	-0.220
-571.675	-110.666	-0.237	-0.049
-570.661	95.774	0.368	-0.417
-569.646	-174.189	-0.269	-0.008
-568.631	6.847	-0.138	-0.102
-567.617	-58.330	-0.053	-0.023
-566.602	50.761	-0.231	0.217
-565.588	-71.247	-0.224	0.083
-564.573	-25.527	-0.357	0.209
-563.558	-50.480	0.268	-0.126
-562.544	363.283	-0.073	-0.146
-561.529	675.997	0.093	0.240
-560.515	-6.343	-0.097	-0.066
-559.500	21.304	-0.139	-0.112
-558.485	-200.000	0.014	-0.307
-557.471	-24.894	0.174	-0.103
-556.456	44.014	-0.092	-0.083
-555.442	-92.958	0.152	-0.042
-554.427	-112.421	-0.110	0.022
-553.412	-3.362	-0.048	-0.033
-552.398	121.996	-0.125	-0.155
-551.383	104.431	0.082	-0.095
-550.369	19.280	-0.082	-0.065
-549.354	800.000	0.091	0.327
-548.339	-200.000	0.030	0.144
-547.325	153.605	-0.078	-0.106
-546.310	159.172	0.145	-0.200
-545.296	-46.679	-0.244	0.119
-544.281	133.694	-0.019	0.024
-543.266	-200.000	-0.034	0.216
-542.252	-100.527	0.027	-0.007
-541.237	-88.124	-0.350	0.104
-540.223	99.988	-0.144	0.166
-539.208	738.524	-0.059	0.158
-538.193	-66.963	-0.154	-0.060
-537.179	-81.601	0.265	0.086
-536.164	88.721	0.050	-0.055
-535.150	800.000	0.088	-0.267
-534.135	800.000	-0.081	-0.223
-533.121	574.540	-0.147	0.355
-532.106	-39.625	0.081	0.042
-531.091	234.321	-0.041	0.068
-530.077	-5.727	-0.080	-0.055
-529.062	-4.341	0.220	0.151
-528.048	-200.000	-0.012	0.134
-527.033	163.937	0.152	-0.212
-526.018	-56.153	-0.322	-0.142
-525.004	800.000	-0.056	-0.170
-523.989	-32.790	-0.154	-0.085
-522.975	126.368	-0.196	0.245
-521.960	27.542	-0.093	0.077
-520.945	-200.000	0.003	-0.243
-519.931	-71.001	0.339	0.126
-518.916	-200.000	-0.006	0.030
-517.902	-15.432	0.281	-0.178
-516.887	-127.177	-0.390	0.056
-515.872	-53.539	-0.364	0.165
-514.858	10.522	0.048	-0.036
-513.843	800.000	0.064	0.215
-512.829	-18.228	-0.105	-0.065
-511.814	800.000	-0.031	-0.127
-510.799	27.479	0.187	-0.155
-509.785	-200.000	-0.006	0.173
-508.770	3.550	-0.230	0.166
-507.756	525.401	0.056	-0.132
-506.741	-177.280	0.323	-0.008
-505.726	-120.350	-0.109	0.018
-504.712	-12.315	0.134	-0.087
-503.697	123.236	0.134	0.166
-502.683	800.000	-0.083	-0.348
-501.668	-37.140	-0.275	-0.146
-500.653	-200.000	-0.027	0.211
-499.639	221.781	0.124	0.197
-498.624	346.835	-0.064	0.124
-497.610	-98.938	0.126	0.032
-496.595	444.136	0.187	-0.405
-495.581	-200.000	0.026	0.214
-494.566	-137.393	0.030	-0.003
-493.551	25.302	0.105	0.086
-492.537	60.433	0.092	0.090
-491.522	9.512	0.247	0.185
-490.508	-153.701	0.077	0.005
-489.493	-116.455	0.132	0.024
-488.478	-200.000	-0.044	0.305
-487.464	-137.434	-0.086	-0.010
-486.449	427.972	0.069	-0.147
-485.435	141.440	-0.234	0.306
-484.420	-46.743	-0.302	-0.146
-483.405	-165.673	0.014	-0.001
-482.391	-124.337	0.304	0.047
-481.376	-100.007	0.154	0.038
-480.362	-200.000	0.056	0.338
-479.347	6.188	0.074	0.054
-478.332	75.246	-0.219	0.228
-477.318	-114.807	0.296	0.056
-476.303	-2.214	-0.170	0.118
-475.289	59.447	-0.088	-0.085
-474.274	-5.481	0.079	0.054
-473.259	58.277	0.095	0.092
-472.245	-84.850	-0.275	0.085
-471.230	-2.573	0.088	0.061
-470.216	-200.000	0.005	-0.035
-469.201	84.005	0.264	0.285
-468.186	288.193	-0.114	-0.203
-467.172	-200.000	-0.045	-0.199
-466.157	-17.336	-0.229	-0.142
-465.143	48.623	-0.178	0.164
-464.128	435.500	0.052	-0.112
-463.113	103.547	-0.237	0.275
-462.099	-24.139	0.478	0.282
-461.084	-200.000	0.087	0.464
-460.070	679.714	0.025	-0.064
-459.055	-73.183	-0.140	-0.051
-458.040	87.624	-0.113	-0.124
-457.026	24.362	0.139	-0.113
-456.011	-200.000	0.038	0.171
-454.997	-59.281	-0.307	0.130
-453.982	387.841	0.082	0.168
-452.968	231.426	0.100	0.161
-451.953	-200.000	-0.020	0.139
-450.938	-200.000	0.001	0.011
-449.924	-154.997	-0.193	0.013
-448.909	800.000	0.034	0.121
-447.895	800.000	0.026	0.092
-446.880	432.985	0.083	0.177
-445.865	800.000	0.094	0.350
-444.851	-200.000	0.001	-0.081
-443.836	-194.749	-0.279	0.002
-442.822	149.626	0.124	0.166
-441.807	195.405	-0.041	-0.061
-440.792	-106.591	-0.260	0.057
-439.778	800.000	-0.088	0.295
-438.763	474.045	0.106	-0.236
-437.749	-1.947	0.223	-0.155
-436.734	102.810	0.115	-0.133
-435.719	-78.614	0.245	0.083
-434.705	-18.601	0.078	-0.048
-433.690	-79.254	-0.271	-0.091
-432.676	-155.471	0.258	0.016
-431.661	208.621	-0.146	0.226
-430.646	-104.104	0.302	0.069
-429.632	-200.000	-0.016	-0.143
-428.617	731.834	-0.062	-0.163
-427.603	22.912	-0.182	-0.147
-426.588	-200.000	0.024	0.301
-425.573	603.184	-0.164	0.403
-424.559	800.000	-0.097	0.323
-423.544	-200.000	0.009	-0.210
-422.530	-84.471	-0.242	0.075
-421.515	-69.650	0.044	-0.017
-420.500	-41.926	0.046	-0.023
-419.486	77.339	-0.362	-0.380
-418.471	800.000	0.004	-0.016
-417.457	800.000	-0.063	-0.189
-416.442	-51.343	-0.220	0.101
-415.428	-200.000	-0.018	0.191
-414.413	151.591	-0.221	-0.296
-413.398	23.512	0.180	0.146
-412.384	-46.350	-0.237	0.115
-411.369	800.000	-0.066	-0.185
-410.355	55.202	0.221	-0.211
-409.340	28.030	0.256	0.213
-408.325	-200.000	-0.354	-0.000
-407.311	-96.400	0.455	0.119
-406.296	-200.000	-0.055	0.299
-405.282	800.000	0.098	-0.380
-404.267	202.862	-0.191	-0.291
-403.252	-200.000	-0.009	-0.053
-402.238	53.348	-0.218	-0.206
-401.223	93.155	-0.144	-0.160
-400.209	-114.211	-0.119	-0.023
-399.194	-39.735	0.153	-0.079
-398.179	-200.000	0.038	0.337
-397.165	-200.000	-0.037	-0.357
-396.150	225.023	0.027	-0.042
-395.136	-142.368	0.323	0.031
-394.121	25.830	-0.134	0.110
-393.106	70.993	0.156	-0.159
-392.092	425.596	0.070	-0.148
-391.077	-200.000	0.020	-0.178
-390.063	-200.000	0.001	0.368
-389.048	-37.084	-0.224	-0.118
-388.033	318.463	-0.153	0.286
-387.019	-77.442	0.206	-0.071
-386.004	-22.762	-0.020	-0.012
-384.990	80.548	0.182	0.193
-383.975	215.473	0.145	-0.227
-382.960	613.591	0.033	-0.081
-381.946	-151.417	0.269	-0.020
-380.931	-200.000	0.005	-0.304
-379.917	-48.897	0.268	0.126
-378.902	206.984	-0.108	0.166
-377.888	43.657	-0.119	-0.107
-376.873	162.929	-0.356	0.492
-375.858	800.000	0.024	-0.085
-374.844	-200.000	0.008	-0.179
-373.829	13.266	-0.185	-0.141
-372.815	44.300	-0.216	-0.195
-371.800	7.658	-0.121	-0.089
-370.785	-59.574	0.071	0.030
-369.771	-122.784	-0.290	-0.046
-368.756	22.817	-0.307	-0.248
-367.742	-200.000	0.016	-0.198
-366.727	59.646	0.128	-0.124
-365.712	-200.000	-0.005	-0.120
-364.698	68.210	-0.055	0.055
-363.683	-187.428	0.192	-0.003
-362.669	26.715	0.159	0.131
-361.654	-42.922	-0.029	-0.015
-360.639	-200.000	0.010	-0.387
-359.625	-75.194	-0.176	-0.062
-358.610	-49.953	0.186	-0.087
-357.596	-109.300	0.227	0.047
-356.581	222.563	0.101	-0.160
-355.566	-134.833	-0.142	-0.017
-354.552	17.696	0.250	-0.196
-353.537	46.816	0.039	0.036
-352.523	33.261	-0.121	-0.103
-351.508	253.087	-0.083	0.140
-350.493	162.828	0.096	-0.133
-349.479	-200.000	0.030	0.338
-348.464	168.877	-0.084	0.117
-347.450	101.994	-0.222	0.255
-346.435	399.733	-0.032	0.066
-345.420	-60.070	0.219	0.092
-344.406	15.082	-0.341	-0.263
-343.391	800.000	0.038	0.130
-342.377	367.168	0.153	0.304
-341.362	166.974	0.342	0.477
-340.348	253.242	-0.172	0.289
-339.333	-200.000	0.024	0.202
-338.318	127.069	0.037	-0.046
-337.304	761.754	0.083	0.220
-336.289	322.206	-0.188	0.353
-335.275	716.488	-0.029	-0.076
-334.260	-27.043	-0.241	0.138
-333.245	800.000	-0.030	0.109
-332.231	-50.299	0.350	-0.162
-331.216	278.517	0.028	0.050
-330.202	-20.617	0.179	-0.108
-329.187	-134.165	-0.038	0.005
-328.172	-20.891	0.249	0.150
-327.158	-68.974	0.089	-0.034
-326.143	-41.300	0.235	0.119
-325.129	120.815	-0.164	-0.201
-324.114	53.020	-0.197	0.185
-323.099	-200.000	-0.047	0.223
-322.085	439.550	0.133	-0.285
-321.070	800.000	-0.016	0.063
-320.056	800.000	0.078	0.221
-319.041	800.000	0.037	-0.136
-318.026	-200.000	0.026	-0.156
-317.012	-200.000	-0.027	-0.164
-315.997	-22.433	0.277	0.165
-314.983	204.460	-0.240	-0.365
-313.968	219.634	0.189	-0.297
-312.953	237.066	-0.024	-0.039
-311.939	-200.000	-0.012	-0.222
-310.924	47.635	-0.240	-0.219
-309.910	-117.057	-0.047	0.008
-308.895	721.193	0.103	0.270
-307.880	-49.631	-0.185	0.087
-306.866	-134.787	-0.082	0.010
-305.851	-200.000	0.042	0.294
-304.837	357.731	0.119	-0.233
-303.822	-200.000	0.020	0.215
-302.807	-200.000	-0.015	0.182
-301.793	474.181	-0.033	-0.074
-300.778	692.079	0.035	0.090
-299.764	-59.476	-0.052	-0.022
-298.749	800.000	0.036	0.103
-297.735	-63.543	0.118	-0.047
-296.720	-95.539	-0.300	0.079
-295.705	136.814	-0.031	-0.040
-294.691	-200.000	0.013	0.126
-293.676	-200.000	-0.027	0.235
-292.662	-200.000	0.028	0.238
-291.647	106.007	-0.163	0.189
-290.632	-93.394	0.167	-0.046
-289.618	62.257	0.258	0.253
-288.603	-22.356	0.254	-0.151
-287.589	-200.000	0.027	-0.317
-286.574	399.919	0.124	-0.254
-285.559	-129.126	-0.190	-0.026
-284.545	800.000	0.107	-0.337
-283.530	317.409	0.139	-0.258
-282.516	94.593	-0.154	-0.172
-281.501	-40.822	0.186	0.094
-280.486	-137.516	-0.234	-0.026
-279.472	455.532	0.210	0.457
-278.457	800.000	0.107	-0.381
-277.443	120.222	-0.239	0.291
-276.428	-200.000	-0.017	0.086
-275.413	89.245	-0.196	0.215
-274.399	4.057	-0.115	0.083
-273.384	-200.000	0.020	0.262
-272.370	800.000	-0.084	-0.339
-271.355	-82.124	-0.152	-0.049
-270.340	-200.000	0.024	0.197
-269.326	-94.454	0.114	-0.030
-268.311	-53.162	-0.249	-0.112
-267.297	-200.000	0.064	-0.381
-266.282	-200.000	0.011	0.094
-265.267	112.032	-0.116	0.137
-264.253	730.235	0.140	-0.367
-263.238	-46.423	0.249	-0.120
-262.224	-110.672	-0.137	-0.028
-261.209	800.000	-0.126	-0.533
-260.195	-200.000	0.040	-0.304
-259.180	44.648	0.192	-0.173
-258.165	-200.000	0.023	0.180
-257.151	74.316	-0.214	0.221
-256.136	43.656	0.224	-0.201
-255.122	576.959	-0.057	0.136
-254.107	-180.709	0.614	0.012
-253.092	800.000	-0.059	0.248
-252.078	-192.775	0.283	-0.003
-251.063	179.938	-0.152	-0.218
-250.049	-135.534	0.116	0.013
-249.034	-105.020	0.251	0.056
-248.019	-200.000	-0.135	0.000
-247.005	110.832	0.149	0.176
-245.990	46.131	0.052	-0.047
-244.976	800.000	-0.080	-0.243
-243.961	99.309	0.176	-0.199
-242.946	235.960	0.154	-0.249
-241.932	-200.000	-0.050	-0.312
-240.917	-200.000	0.028	0.345
-239.903	-57.713	0.099	0.042
-238.888	-138.406	0.122	-0.013
-237.873	-104.163	-0.057	0.013
-236.859	-47.962	0.060	0.029
-235.844	-80.738	0.357	-0.116
-234.830	434.228	-0.079	-0.169
-233.815	59.055	-0.163	-0.157
-232.800	-200.000	-0.047	0.245
-231.786	-187.747	-0.116	-0.001
-230.771	12.293	-0.328	0.248
-229.757	-80.947	-0.193	0.063
-228.742	-200.000	-0.005	0.068
-227.727	-109.795	0.217	-0.045
-226.713	79.267	-0.180	-0.189
-225.698	6.153	-0.188	0.137
-224.684	-5.801	-0.190	-0.128
-223.669	800.000	0.094	0.349
-222.655	-200.000	-0.006	0.071
-221.640	262.195	-0.066	-0.112
-220.625	0.192	0.041	0.028
-219.611	-117.483	-0.251	0.044
-218.596	-21.343	0.131	0.078
-217.582	541.680	0.064	0.148
-216.567	710.194	0.015	-0.039
-215.552	800.000	-0.094	-0.273
-214.538	-139.138	0.114	0.012
-213.523	-100.703	0.174	0.042
-212.509	-76.189	-0.204	-0.070
-211.494	-90.775	-0.428	0.121
-210.479	800.000	-0.070	-0.247
-209.465	17.452	0.193	-0.150
-208.450	796.846	-0.125	-0.336
-207.436	133.137	-0.171	0.217
-206.421	-70.266	0.276	-0.103
-205.406	379.344	0.063	0.127
-204.392	27.959	0.266	-0.219
-203.377	792.763	0.049	0.133
-202.363	52.357	-0.218	-0.203
-201.348	-200.000	0.020	0.168
-200.333	599.462	-0.168	0.407
-199.319	-200.000	-0.023	-0.137
-198.304	-83.928	-0.158	0.049
-197.290	-104.489	0.138	-0.031
-196.275	800.000	0.029	-0.087
-195.260	-20.399	0.108	0.065
-194.246	163.677	-0.107	-0.148
-193.231	-200.000	-0.017	0.190
-192.217	131.379	0.035	-0.044
-191.202	764.178	0.140	0.371
-190.187	-200.000	-0.010	-0.182
-189.173	-200.000	-0.022	-0.422
-188.158	91.066	0.029	-0.032
-187.144	-68.910	0.329	-0.124
-186.129	4.314	-0.035	-0.025
-185.114	800.000	-0.017	-0.048
-184.100	-125.998	-0.192	0.028
-183.085	-5.124	0.167	0.112
-182.071	152.119	0.073	-0.097
-181.056	800.000	0.006	0.020
-180.042	800.000	-0.059	0.182
-179.027	112.200	0.134	0.159
-178.012	-200.000	-0.040	-0.238
-176.998	-6.381	0.119	0.079
-175.983	-23.859	0.331	-0.194
-174.969	-30.029	0.059	-0.033
-173.954	86.002	-0.134	-0.144
-172.939	-200.000	-0.006	0.185
-171.925	42.088	-0.209	-0.185
-170.910	-64.053	0.161	-0.064
-169.896	105.815	-0.053	0.062
-168.881	-200.000	-0.031	-0.200
-167.866	800.000	0.058	0.242
-166.852	4.593	0.126	-0.090
-165.837	213.122	-0.086	0.133
-164.823	-29.593	-0.123	0.068
-163.808	-91.955	-0.229	0.063
-162.793	-71.212	0.311	0.114
-161.779	-134.111	0.122	0.015
-160.764	-68.081	-0.270	-0.103
-159.750	-200.000	0.009	0.106
-158.735	-169.230	0.136	-0.005
-157.720	193.730	0.011	-0.016
-156.706	252.348	0.152	-0.253
-155.691	-132.883	0.309	0.038
-154.677	-200.000	0.002	0.275
-153.662	180.115	-0.108	0.154
-152.647	-141.954	0.201	0.020
-151.633	-98.320	-0.266	-0.067
-150.618	-200.000	-0.046	0.203
-149.604	800.000	-0.044	-0.170
-148.589	-200.000	0.056	0.294
-147.574	152.084	-0.123	-0.164
-146.560	518.543	-0.082	-0.187
-145.545	95.263	0.147	-0.164
-144.531	-107.803	0.220	0.047
-143.516	-116.310	0.369	-0.067
-142.502	-185.638	-0.323	-0.005
-141.487	12.382	0.242	0.182
-140.472	-110.312	-0.419	0.085
-139.458	-200.000	-0.020	0.295
-138.443	-200.000	-0.048	-0.454
-137.429	-76.063	0.410	0.141
-136.414	-94.142	0.317	0.085
-135.399	-200.000	-0.016	0.356
-134.385	-200.000	0.019	0.130
-133.370	800.000	0.055	-0.190
-132.356	-35.285	0.312	0.166
-131.341	146.997	0.096	0.126
-130.326	-92.786	0.221	0.060
-129.312	-54.495	0.326	0.144
-128.297	-22.884	0.200	0.118
-127.283	800.000	-0.100	-0.290
-126.268	44.263	-0.326	-0.292
-125.253	195.657	0.102	0.151
-124.239	78.811	-0.044	-0.046
-123.224	-90.613	0.044	0.012
-122.210	16.376	0.196	-0.151
-121.195	101.154	0.173	-0.196
