DTS Sentinel unit serial number:	SN413079Multiplexer serial number:	ORYXHardware model number:	OX4-SRSoftware version number:	ORYX F/W v4.00 Oryx Data Collector v3.7.2.0data status	okinstallation	princeton_trtdifferential loss correction	single-endedforward channel	channel 2reverse channel	N/Adate	2019/09/14time	02:51:34forward acquisition time	60.00reverse acquisition time	0.00gamma	496.2192k internal	0.2337k external	0.2337temperature offset calibration	1.0123default loss term (dB/km)	0.3790temperature slope calibration	1.0000multiplexer offset coefficient	1.0000multiplexer slope coefficient	1.0000fibre end	0.00T internal ref (°C)	26.56T ext. ref 1 (°C)	3.26T ext. ref 2 (°C)	21.63length (m)	temperature (°C)	Stokes	anti-Stokes-747.200	800.000	0.147	0.549
-746.185	-79.323	-0.382	-0.130
-745.171	-69.530	-0.294	0.113
-744.156	-102.206	-0.131	-0.032
-743.142	181.332	-0.138	0.203
-742.127	-33.776	-0.042	0.023
-741.112	26.422	0.201	-0.169
-740.098	800.000	-0.076	-0.263
-739.083	-0.428	-0.307	-0.219
-738.069	-200.000	-0.007	0.103
-737.054	119.466	0.068	-0.085
-736.039	-72.873	-0.292	0.108
-735.025	165.568	0.117	0.166
-734.010	-13.770	-0.389	-0.253
-732.996	-200.000	-0.030	0.342
-731.981	-200.000	-0.053	-0.331
-730.966	-67.191	0.163	-0.064
-729.952	-200.000	-0.000	-0.076
-728.937	42.091	0.204	0.186
-727.923	-57.997	-0.054	0.024
-726.908	-129.376	-0.367	-0.051
-725.894	800.000	-0.152	-0.437
-724.879	165.875	-0.076	-0.108
-723.864	-40.048	0.163	0.085
-722.850	-200.000	0.019	-0.089
-721.835	-59.426	-0.181	-0.078
-720.821	560.321	-0.085	-0.205
-719.806	-43.424	-0.098	0.050
-718.791	-3.571	-0.111	-0.077
-717.777	-78.315	-0.144	-0.050
-716.762	-61.908	-0.291	-0.122
-715.748	-77.797	0.156	0.054
-714.733	351.670	0.034	-0.067
-713.718	259.505	-0.123	-0.212
-712.704	-35.625	-0.092	0.050
-711.689	8.970	-0.194	0.147
-710.675	-133.350	0.209	0.026
-709.660	-39.475	-0.133	-0.070
-708.645	686.828	0.178	-0.466
-707.631	-138.409	-0.352	0.039
-706.616	350.637	-0.067	-0.133
-705.602	340.145	-0.042	-0.082
-704.587	800.000	0.054	-0.180
-703.572	162.427	0.083	-0.116
-702.558	800.000	-0.073	0.243
-701.543	-200.000	-0.000	-0.066
-700.529	-186.536	-0.186	-0.003
-699.514	-53.112	0.104	0.048
-698.499	800.000	0.034	0.123
-697.485	-68.498	0.226	0.088
-696.470	-200.000	0.020	-0.139
-695.456	-200.000	0.005	-0.137
-694.441	-18.952	0.143	-0.089
-693.426	729.801	-0.079	-0.211
-692.412	-95.313	0.248	0.067
-691.397	357.519	-0.043	0.087
-690.383	226.005	-0.142	-0.231
-689.368	-200.000	-0.135	-0.000
-688.354	308.813	0.153	-0.286
-687.339	49.495	-0.224	-0.211
-686.324	-57.983	-0.179	-0.078
-685.310	800.000	-0.027	0.077
-684.295	-149.347	0.460	0.037
-683.281	800.000	0.078	-0.277
-682.266	322.754	-0.079	-0.151
-681.251	-37.631	-0.353	0.188
-680.237	-42.712	-0.221	-0.112
-679.222	-72.569	-0.074	-0.027
-678.208	-84.007	-0.342	-0.109
-677.193	62.641	-0.140	0.140
-676.178	800.000	0.037	-0.101
-675.164	-145.972	-0.072	-0.006
-674.149	-54.857	0.129	0.058
-673.135	-54.550	-0.092	0.042
-672.120	36.252	-0.190	-0.168
-671.105	-50.325	0.344	-0.163
-670.091	-116.568	-0.103	0.019
-669.076	-121.505	-0.324	-0.054
-668.062	-122.986	0.456	0.073
-667.047	-132.804	-0.234	-0.030
-666.032	-3.099	-0.183	-0.128
-665.018	13.031	-0.172	0.133
-664.003	127.920	-0.086	-0.109
-662.989	-200.000	-0.007	0.157
-661.974	-3.017	-0.339	-0.237
-660.959	-200.000	0.020	-0.219
-659.945	-109.250	-0.068	-0.015
-658.930	-69.702	-0.208	-0.079
-657.916	40.072	-0.064	0.058
-656.901	-70.694	-0.216	-0.082
-655.886	20.426	0.121	-0.098
-654.872	249.955	0.048	-0.082
-653.857	-133.883	-0.347	0.043
-652.843	-143.118	-0.404	-0.039
-651.828	118.521	-0.187	0.231
-650.814	277.226	-0.080	0.143
-649.799	-200.000	0.028	-0.480
-648.784	-106.757	0.019	-0.004
-647.770	0.126	-0.153	0.109
-646.755	-200.000	-0.016	0.102
-645.741	800.000	0.039	-0.143
-644.726	-33.239	-0.274	0.152
-643.711	130.011	0.027	0.034
-642.697	62.152	-0.011	0.011
-641.682	86.563	0.158	0.174
-640.668	766.470	0.096	0.260
-639.653	224.651	0.276	-0.447
-638.638	800.000	-0.084	-0.348
-637.624	67.971	0.027	0.027
-636.609	-169.788	0.165	0.006
-635.595	-200.000	-0.026	-0.125
-634.580	134.634	0.099	0.128
-633.565	800.000	-0.091	-0.274
-632.551	207.323	-0.088	0.138
-631.536	800.000	-0.053	0.230
-630.522	-119.840	-0.152	-0.026
-629.507	-114.578	0.198	0.038
-628.492	-33.332	-0.260	0.144
-627.478	800.000	-0.052	-0.219
-626.463	800.000	0.052	-0.218
-625.449	638.342	-0.083	-0.212
-624.434	800.000	-0.009	0.032
-623.419	149.833	-0.283	0.383
-622.405	-92.841	0.148	0.041
-621.390	10.185	-0.134	0.102
-620.376	-95.939	0.149	-0.040
-619.361	-147.858	-0.132	0.011
-618.346	-95.243	0.187	-0.050
-617.332	63.824	-0.157	-0.158
-616.317	99.001	-0.082	0.094
-615.303	710.387	-0.022	-0.058
-614.288	117.883	0.170	-0.209
-613.273	-200.000	0.028	0.163
-612.259	-61.168	-0.198	0.083
-611.244	-12.672	-0.326	-0.212
-610.230	178.669	0.044	-0.064
-609.215	-35.848	0.199	-0.107
-608.201	-59.865	-0.063	0.027
-607.186	67.397	0.126	0.128
-606.171	528.736	0.022	0.052
-605.157	-131.605	-0.208	0.027
-604.142	79.926	0.125	0.134
-603.128	286.719	-0.105	0.190
-602.113	-7.630	-0.139	-0.094
-601.098	20.098	-0.248	-0.200
-600.084	-115.746	0.125	-0.023
-599.069	-200.000	-0.119	-0.683
-598.055	-54.137	0.284	-0.129
-597.040	-67.182	0.135	0.053
-596.025	-150.489	-0.155	-0.012
-595.011	43.558	0.245	-0.223
-593.996	-132.493	-0.268	0.034
-592.982	-117.168	-0.272	-0.049
-591.967	28.571	0.077	-0.065
-590.952	-38.193	0.215	0.114
-589.938	68.658	-0.155	0.159
-588.923	226.115	-0.226	0.366
-587.909	-2.236	0.090	0.063
-586.894	-169.058	-0.135	-0.005
-585.879	-123.266	0.315	0.050
-584.865	79.687	0.085	-0.091
-583.850	56.849	0.161	-0.157
-582.836	-17.897	-0.403	-0.252
-581.821	-63.394	0.017	0.007
-580.806	-200.000	-0.050	0.258
-579.792	-70.956	0.310	-0.117
-578.777	518.037	0.078	-0.181
-577.763	64.489	-0.253	-0.254
-576.748	38.440	-0.169	-0.151
-575.733	205.307	-0.045	0.069
-574.719	69.790	-0.111	-0.114
-573.704	25.341	-0.155	0.129
-572.690	27.617	0.206	-0.173
-571.675	-200.000	0.033	-0.315
-570.661	-10.434	-0.121	0.080
-569.646	-30.295	0.437	-0.247
-568.631	-36.605	-0.198	0.106
-567.617	-137.740	-0.284	0.032
-566.602	-120.938	0.200	-0.033
-565.588	-74.192	-0.141	0.051
-564.573	-16.180	-0.061	-0.039
-563.558	-41.133	0.201	0.104
-562.544	-122.369	-0.090	0.015
-561.529	33.402	0.284	-0.246
-560.515	-104.426	-0.041	-0.009
-559.500	-105.388	0.092	0.021
-558.485	-200.000	0.040	0.238
-557.471	33.971	0.226	-0.196
-556.456	-35.124	-0.332	0.180
-555.442	-200.000	0.010	0.093
-554.427	-53.494	-0.277	-0.126
-553.412	328.109	-0.086	-0.164
-552.398	800.000	0.048	-0.151
-551.383	-115.894	0.279	0.052
-550.369	-105.344	-0.284	-0.064
-549.354	36.280	0.141	-0.124
-548.339	-200.000	0.010	-0.356
-547.325	800.000	-0.059	-0.188
-546.310	157.360	0.146	0.202
-545.296	800.000	0.064	0.201
-544.281	-189.169	-0.374	-0.004
-543.266	800.000	0.013	-0.050
-542.252	108.452	0.051	-0.060
-541.237	65.435	-0.127	-0.128
-540.223	-69.836	-0.242	-0.092
-539.208	38.377	-0.228	-0.202
-538.193	-200.000	-0.030	-0.244
-537.179	-200.000	-0.070	-0.359
-536.164	36.340	-0.279	-0.245
-535.150	271.615	-0.119	0.209
-534.135	-20.971	0.292	-0.178
-533.121	-200.000	-0.029	0.178
-532.106	800.000	0.035	0.139
-531.091	800.000	-0.068	-0.267
-530.077	-80.146	0.175	-0.058
-529.062	70.437	0.088	-0.090
-528.048	77.302	0.174	-0.185
-527.033	19.927	-0.101	-0.081
-526.018	-10.890	0.095	0.063
-525.004	-86.258	0.215	0.066
-523.989	-200.000	-0.058	0.381
-522.975	47.702	-0.231	0.215
-521.960	800.000	-0.074	0.224
-520.945	270.898	0.068	-0.119
-519.931	-3.478	0.085	-0.059
-518.916	-200.000	0.028	0.384
-517.902	239.867	-0.085	0.140
-516.887	-200.000	-0.000	0.104
-515.872	-72.856	0.373	0.136
-514.858	-74.453	0.166	0.060
-513.843	18.709	0.167	0.133
-512.829	5.695	0.052	-0.038
-511.814	15.948	-0.213	0.167
-510.799	800.000	-0.077	0.265
-509.785	270.544	-0.179	0.314
-508.770	8.938	0.359	-0.269
-507.756	-116.535	0.375	-0.069
-506.741	-200.000	-0.016	0.133
-505.726	-200.000	0.017	-0.276
-504.712	-200.000	-0.051	-0.288
-503.697	356.170	0.139	-0.275
-502.683	142.907	-0.121	0.160
-501.668	-75.980	-0.101	0.035
-500.653	-139.856	0.294	0.031
-499.639	-37.981	-0.104	0.055
-498.624	559.026	-0.081	0.194
-497.610	-135.928	0.221	-0.026
-496.595	-119.730	-0.254	-0.044
-495.581	-200.000	0.011	-0.052
-494.566	-104.507	0.259	-0.060
-493.551	48.788	-0.068	0.063
-492.537	-200.000	0.142	0.000
-491.522	70.849	0.193	0.198
-490.508	-200.000	0.039	-0.225
-489.493	-118.638	0.131	0.023
-488.478	-39.188	-0.133	0.070
-487.464	-166.999	-0.255	-0.010
-486.449	4.914	-0.116	0.085
-485.435	273.926	0.180	0.316
-484.420	10.516	-0.150	-0.114
-483.405	-7.541	0.172	0.116
-482.391	-162.753	0.338	-0.016
-481.376	-87.638	0.081	0.024
-480.362	-125.913	0.083	0.012
-479.347	407.844	-0.207	0.435
-478.332	338.668	0.152	0.295
-477.318	-75.225	0.171	0.061
-476.303	-32.432	0.300	0.166
-475.289	327.444	-0.133	-0.253
-474.274	-200.000	0.031	-0.179
-473.259	9.803	-0.115	0.087
-472.245	800.000	-0.085	-0.306
-471.230	-73.041	-0.150	0.055
-470.216	-200.000	0.021	0.338
-469.201	491.261	-0.024	0.055
-468.186	-200.000	-0.042	-0.255
-467.172	800.000	-0.012	0.042
-466.157	169.636	-0.060	-0.085
-465.143	75.830	0.191	-0.200
-464.128	-15.100	0.253	0.161
-463.113	800.000	0.018	-0.078
-462.099	39.466	0.051	0.045
-461.084	-43.974	0.104	-0.052
-460.070	-11.000	-0.252	0.165
-459.055	-200.000	0.053	-0.264
-458.040	-12.460	-0.124	0.081
-457.026	32.175	0.358	-0.307
-456.011	-39.985	0.119	0.061
-454.997	-200.000	0.012	0.170
-453.982	-200.000	0.022	0.132
-452.968	-182.703	0.240	0.004
-451.953	-127.443	0.129	0.019
-450.938	272.411	-0.110	0.193
-449.924	-200.000	-0.011	-0.122
-448.909	-200.000	-0.064	0.419
-447.895	262.998	0.151	-0.260
-446.880	-167.840	-0.155	-0.006
-445.865	-200.000	-0.083	-0.418
-444.851	13.941	0.260	-0.200
-443.836	615.848	0.029	-0.071
-442.822	3.697	0.195	0.141
-441.807	-101.150	0.197	0.048
-440.792	-200.000	-0.010	0.323
-439.778	-78.695	0.324	0.110
-438.763	800.000	-0.028	0.120
-437.749	800.000	0.102	-0.333
-436.734	55.944	-0.074	0.071
-435.719	134.427	-0.050	0.065
-434.705	-104.429	-0.337	0.077
-433.690	-200.000	-0.039	0.244
-432.676	-109.966	-0.181	0.038
-431.661	58.696	0.295	0.287
-430.646	800.000	-0.063	0.214
-429.632	541.845	-0.166	-0.393
-428.617	168.679	-0.147	-0.207
-427.603	196.135	-0.143	0.215
-426.588	8.872	-0.416	-0.311
-425.573	185.288	0.196	0.288
-424.559	800.000	0.083	-0.272
-423.544	-62.723	-0.090	-0.037
-422.530	-200.000	0.039	-0.360
-421.515	136.653	-0.092	-0.119
-420.500	-176.775	-0.248	0.006
-419.486	54.081	0.047	-0.045
-418.471	336.383	0.092	-0.177
-417.457	382.494	-0.073	-0.149
-416.442	-69.369	-0.126	0.048
-415.428	-200.000	0.065	-0.311
-414.413	199.952	0.074	0.112
-413.398	-200.000	-0.008	-0.119
-412.384	74.905	0.057	-0.060
-411.369	173.691	0.045	-0.064
-410.355	-176.472	-0.256	0.007
-409.340	100.723	0.027	0.031
-408.325	-7.190	-0.235	-0.158
-407.311	191.301	0.094	0.141
-406.296	-78.580	0.528	-0.179
-405.282	663.328	-0.033	-0.084
-404.267	800.000	-0.056	0.214
-403.252	-200.000	0.013	0.088
-402.238	-20.253	0.138	0.084
-401.223	60.867	0.242	-0.238
-400.209	-131.868	-0.155	0.020
-399.194	707.313	-0.174	0.456
-398.179	-47.668	0.328	-0.157
-397.165	-150.090	0.150	0.012
-396.150	96.022	-0.169	0.192
-395.136	-151.129	-0.156	0.012
-394.121	-103.453	0.265	0.062
-393.106	-200.000	-0.024	-0.175
-392.092	246.508	-0.085	-0.142
-391.077	-27.746	0.234	-0.134
-390.063	-200.000	0.038	0.240
-389.048	735.529	-0.072	0.190
-388.033	70.141	-0.242	-0.247
-387.019	-43.170	-0.156	0.078
-386.004	800.000	0.092	0.384
-384.990	-161.101	-0.306	-0.016
-383.975	351.359	0.117	0.228
-382.960	-68.046	-0.433	0.167
-381.946	-200.000	-0.019	0.321
-380.931	52.560	0.143	-0.135
-379.917	-72.992	0.321	-0.117
-378.902	-132.323	0.114	-0.015
-377.888	-200.000	0.015	0.186
-376.873	-200.000	0.099	-0.536
-375.858	800.000	0.011	-0.029
-374.844	800.000	-0.073	0.205
-373.829	800.000	0.064	-0.214
-372.815	-60.183	0.372	-0.157
-371.800	-200.000	0.025	-0.110
-370.785	2.502	-0.274	-0.196
-369.771	-200.000	0.071	0.312
-368.756	119.468	-0.253	0.310
-367.742	252.199	0.064	0.107
-366.727	52.568	-0.263	-0.249
-365.712	245.752	0.034	-0.057
-364.698	-200.000	-0.009	0.091
-363.683	-200.000	0.059	0.479
-362.669	52.544	-0.158	-0.149
-361.654	-200.000	-0.029	-0.232
-360.639	-5.253	-0.335	0.228
-359.625	-88.451	-0.179	-0.053
-358.610	-69.867	-0.104	-0.039
-357.596	13.101	-0.142	-0.108
-356.581	-23.153	0.090	-0.054
-355.566	-69.728	0.123	-0.046
-354.552	27.988	0.107	0.089
-353.537	-70.776	-0.303	-0.113
-352.523	-106.464	-0.461	-0.102
-351.508	-107.129	-0.198	-0.043
-350.493	2.491	0.126	-0.090
-349.479	-40.793	0.416	0.213
-348.464	323.395	0.046	0.086
-347.450	107.493	-0.114	-0.134
-346.435	-0.862	0.129	0.090
-345.420	-200.000	0.061	0.396
-344.406	-44.880	-0.331	-0.163
-343.391	-84.662	-0.202	-0.063
-342.377	800.000	-0.071	-0.229
-341.362	-52.076	0.145	0.067
-340.348	-200.000	-0.042	0.324
-339.333	-200.000	0.010	0.147
-338.318	-162.654	0.284	0.014
-337.304	-200.000	-0.007	-0.149
-336.289	-84.719	-0.123	-0.038
-335.275	-88.959	-0.129	-0.038
-334.260	-53.579	-0.232	-0.105
-333.245	370.622	0.121	0.242
-332.231	-200.000	-0.003	0.337
-331.216	-134.458	0.376	0.045
-330.202	8.337	-0.099	-0.073
-329.187	-74.609	-0.061	0.022
-328.172	223.444	-0.180	-0.287
-327.158	-193.452	0.280	0.002
-326.143	300.214	-0.194	-0.354
-325.129	-200.000	-0.014	0.182
-324.114	-8.669	0.084	-0.056
-323.099	424.036	0.062	-0.132
-322.085	-200.000	-0.041	-0.198
-321.070	22.467	0.173	0.140
-320.056	240.039	-0.141	0.233
-319.041	-200.000	0.032	-0.187
-318.026	-34.518	-0.320	0.173
-317.012	-200.000	0.046	-0.223
-315.997	178.951	-0.127	-0.183
-314.983	-71.008	-0.452	-0.168
-313.968	-117.113	0.065	0.012
-312.953	116.543	0.175	-0.212
-311.939	800.000	0.090	-0.250
-310.924	800.000	-0.067	0.283
-309.910	800.000	-0.038	-0.107
-308.895	-69.922	-0.285	0.107
-307.880	-22.606	0.192	-0.114
-306.866	-184.174	0.389	-0.006
-305.851	-142.698	-0.242	0.023
-304.837	138.468	-0.147	0.191
-303.822	-200.000	0.072	0.372
-302.807	-200.000	-0.023	-0.222
-301.793	-200.000	-0.027	0.187
-300.778	-92.305	0.194	0.054
-299.764	98.934	-0.099	0.113
-298.749	16.190	0.044	-0.034
-297.735	96.419	-0.260	-0.293
-296.720	-200.000	0.047	-0.206
-295.705	-55.311	-0.144	-0.064
-294.691	-200.000	-0.071	-0.368
-293.676	-26.438	-0.097	0.056
-292.662	-200.000	0.015	0.242
-291.647	-60.313	-0.093	-0.039
-290.632	-35.752	-0.235	-0.126
-289.618	282.923	-0.022	-0.038
-288.603	-99.436	0.383	0.095
-287.589	800.000	0.088	0.363
-286.574	253.492	-0.049	-0.082
-285.559	146.548	0.092	0.123
-284.545	349.005	-0.092	0.179
-283.530	12.107	0.066	0.050
-282.516	11.185	0.055	0.041
-281.501	-200.000	0.013	-0.287
-280.486	-200.000	-0.015	0.162
-279.472	-118.692	-0.221	0.038
-278.457	23.270	0.357	0.289
-277.443	-200.000	0.024	0.179
-276.428	-200.000	-0.025	0.146
-275.413	20.146	-0.086	-0.068
-274.399	-75.605	-0.279	-0.098
-273.384	800.000	0.104	0.302
-272.370	-200.000	0.008	0.086
-271.355	121.893	-0.139	0.171
-270.340	180.721	-0.067	-0.097
-269.326	-200.000	-0.028	0.190
-268.311	503.354	-0.044	0.101
-267.297	-66.356	0.210	0.082
-266.282	56.817	0.283	-0.272
-265.267	-150.371	0.346	-0.026
-264.253	-12.439	0.174	0.112
-263.238	521.922	0.178	-0.412
-262.224	-69.720	0.171	-0.064
-261.209	-123.253	-0.362	0.057
-260.195	55.714	0.273	0.261
-259.180	800.000	0.022	-0.062
-258.165	27.993	-0.215	-0.178
-257.151	157.670	-0.182	-0.248
-256.136	-2.716	-0.200	-0.138
-255.122	-50.231	-0.261	0.121
-254.107	-200.000	0.025	0.259
-253.092	-115.891	-0.294	0.054
-252.078	-102.673	0.378	0.089
-251.063	505.635	0.088	0.202
-250.049	503.782	0.084	0.191
-249.034	800.000	0.096	0.286
-248.019	18.301	0.276	-0.217
-247.005	-115.419	-0.170	-0.032
-245.990	227.795	0.159	0.254
-244.976	67.406	0.230	-0.231
-243.961	687.255	0.103	0.264
-242.946	192.420	0.105	-0.155
-241.932	-21.523	0.059	0.036
-240.917	-188.849	0.236	0.003
-239.903	-102.720	-0.241	0.057
-238.888	-52.921	0.325	0.147
-237.873	311.419	0.086	-0.160
-236.859	-117.591	-0.364	-0.065
-235.844	-118.483	-0.202	-0.035
-234.830	259.641	0.016	-0.026
-233.815	-55.045	-0.479	-0.212
-232.800	-200.000	-0.012	0.197
-231.786	47.353	-0.192	-0.176
-230.771	800.000	-0.034	0.111
-229.757	34.556	0.231	0.198
-228.742	-156.184	-0.137	0.008
-227.727	54.940	0.171	0.163
-226.713	-200.000	-0.006	-0.183
-225.698	124.112	-0.109	-0.134
-224.684	-25.294	0.337	-0.196
-223.669	115.995	-0.144	-0.173
-222.655	-200.000	0.029	-0.217
-221.640	800.000	0.081	0.336
-220.625	-200.000	-0.002	-0.187
-219.611	407.652	0.088	-0.183
-218.596	-124.841	-0.221	-0.034
-217.582	-200.000	-0.029	-0.486
-216.567	-48.479	0.335	0.158
-215.552	-109.325	0.264	0.055
-214.538	-80.036	-0.178	-0.059
-213.523	-34.990	0.125	0.067
-212.509	-200.000	0.011	0.062
-211.494	-28.859	-0.138	0.078
-210.479	-47.092	-0.114	-0.055
-209.465	-10.715	0.182	-0.118
-208.450	-200.000	0.072	0.347
-207.436	-103.235	-0.415	0.096
-206.421	472.088	0.110	0.244
-205.406	-200.000	0.031	0.280
-204.392	-75.471	0.119	-0.042
-203.377	-55.097	0.385	-0.170
-202.363	452.349	-0.123	-0.267
-201.348	22.811	0.074	-0.060
-200.333	703.300	0.022	0.056
-199.319	-200.000	-0.033	0.147
-198.304	104.585	-0.092	0.107
-197.290	-26.885	0.137	0.079
-196.275	161.531	0.039	-0.054
-195.260	462.515	0.120	-0.262
-194.246	-200.000	0.035	0.176
-193.231	-131.849	-0.327	-0.042
-192.217	86.852	0.088	0.096
-191.202	319.430	-0.122	-0.228
-190.187	-95.128	-0.244	0.065
-189.173	-200.000	0.019	0.093
-188.158	-157.199	0.134	-0.008
-187.144	586.364	-0.040	0.097
-186.129	183.758	-0.198	0.288
-185.114	9.577	0.226	-0.168
-184.100	106.445	0.047	-0.055
-183.085	-4.762	0.122	0.082
-182.071	-148.375	0.326	0.026
-181.056	684.398	0.094	0.240
-180.042	3.772	-0.185	0.132
-179.027	289.228	0.149	-0.266
-178.012	-58.156	-0.391	0.167
-176.998	800.000	-0.053	-0.179
-175.983	-200.000	-0.012	0.096
-174.969	472.217	-0.126	0.278
-173.954	-51.578	-0.062	0.028
-172.939	-92.495	-0.253	0.070
-171.925	164.099	0.087	0.120
-170.910	-128.537	-0.518	-0.072
-169.896	315.622	-0.070	0.130
-168.881	800.000	0.127	0.435
-167.866	123.317	-0.005	-0.006
-166.852	-200.000	-0.007	0.234
-165.837	-87.802	0.132	-0.039
-164.823	-200.000	-0.001	-0.019
-163.808	130.718	-0.066	0.083
-162.793	800.000	0.056	-0.222
-161.779	-47.723	0.167	0.079
-160.764	800.000	0.042	0.137
-159.750	800.000	0.106	0.353
-158.735	-200.000	0.030	-0.192
-157.720	-91.026	0.143	0.040
-156.706	187.527	0.106	-0.155
-155.691	-57.429	0.314	-0.135
-154.677	368.563	-0.171	-0.340
-153.662	800.000	-0.014	-0.048
-152.647	-108.369	0.040	0.008
-151.633	-200.000	-0.008	0.059
-150.618	626.971	-0.071	-0.177
-149.604	191.934	0.079	0.117
-148.589	175.990	-0.255	-0.363
-147.574	-200.000	-0.038	-0.259
-146.560	-17.979	0.141	0.087
-145.545	800.000	-0.108	-0.459
-144.531	-32.479	0.142	0.078
-143.516	-14.325	0.321	-0.203
-142.502	-84.251	0.330	0.102
-141.487	16.767	-0.284	0.221
-140.472	365.480	0.161	0.318
-139.458	-200.000	-0.023	-0.122
-138.443	53.406	-0.236	0.222
-137.429	-200.000	0.057	0.496
-136.414	-142.664	-0.376	-0.036
-135.399	121.222	0.111	0.135
-134.385	-151.235	-0.178	0.013
-133.370	106.734	-0.204	0.238
-132.356	717.927	0.038	0.099
-131.341	800.000	0.028	0.101
-130.326	654.404	0.134	0.336
-129.312	81.004	-0.195	0.206
-128.297	162.423	-0.100	0.137
-127.283	9.798	0.163	-0.121
-126.268	320.258	-0.070	-0.130
-125.253	800.000	-0.036	-0.128
-124.239	800.000	-0.071	0.234
-123.224	-81.239	0.135	-0.044
-122.210	-200.000	-0.019	0.252
-121.195	800.000	0.030	-0.105
