DTS Sentinel unit serial number:	SN413079Multiplexer serial number:	ORYXHardware model number:	OX4-SRSoftware version number:	ORYX F/W v4.00 Oryx Data Collector v3.7.2.0data status	okinstallation	princeton_trtdifferential loss correction	single-endedforward channel	channel 2reverse channel	N/Adate	2019/09/11time	00:45:11forward acquisition time	60.00reverse acquisition time	0.00gamma	496.2192k internal	0.2332k external	0.2332temperature offset calibration	0.9940default loss term (dB/km)	0.3790temperature slope calibration	1.0000multiplexer offset coefficient	1.0000multiplexer slope coefficient	1.0000fibre end	0.00T internal ref (°C)	29.19T ext. ref 1 (°C)	-0.31T ext. ref 2 (°C)	22.80length (m)	temperature (°C)	Stokes	anti-Stokes-747.200	-200.000	-0.032	0.237
-746.185	43.552	-0.138	-0.127
-745.171	-7.830	0.182	-0.124
-744.156	82.729	-0.227	0.249
-743.142	72.311	0.110	0.115
-742.127	-126.226	-0.353	-0.053
-741.112	-159.349	-0.174	0.010
-740.098	-181.363	0.215	-0.004
-739.083	513.773	0.065	0.153
-738.069	32.598	0.092	-0.080
-737.054	-24.218	-0.154	-0.093
-736.039	-200.000	0.027	0.222
-735.025	45.606	0.089	-0.083
-734.010	-200.000	-0.005	-0.044
-732.996	-14.534	-0.443	0.287
-731.981	-200.000	0.004	-0.292
-730.966	688.827	0.052	-0.136
-729.952	-93.260	-0.081	-0.023
-728.937	-62.252	-0.103	0.043
-727.923	800.000	0.073	-0.240
-726.908	-200.000	0.021	-0.232
-725.894	-200.000	0.015	0.170
-724.879	-83.060	0.254	-0.082
-723.864	541.807	0.143	-0.343
-722.850	-126.316	0.474	0.071
-721.835	-200.000	0.030	-0.212
-720.821	397.284	-0.205	0.431
-719.806	-19.841	-0.332	0.206
-718.791	616.597	-0.084	0.211
-717.777	109.332	-0.151	-0.181
-716.762	685.575	-0.056	-0.146
-715.748	-43.376	0.210	0.107
-714.733	-124.715	-0.167	-0.026
-713.718	800.000	-0.045	0.167
-712.704	-29.637	-0.179	-0.103
-711.689	-23.294	0.098	0.059
-710.675	-200.000	0.044	-0.356
-709.660	74.378	0.068	0.072
-708.645	-200.000	-0.020	-0.169
-707.631	469.409	-0.068	0.152
-706.616	226.451	-0.162	-0.264
-705.602	32.132	-0.043	-0.037
-704.587	302.566	-0.215	-0.400
-703.572	488.347	-0.232	-0.532
-702.558	800.000	-0.058	-0.254
-701.543	-115.954	-0.136	0.025
-700.529	-95.228	-0.120	-0.032
-699.514	-200.000	-0.018	0.130
-698.499	-120.721	-0.126	0.021
-697.485	-200.000	0.038	0.239
-696.470	87.333	-0.097	0.108
-695.456	5.169	0.144	-0.107
-694.441	-121.748	0.199	-0.033
-693.426	-39.396	-0.112	-0.059
-692.412	-200.000	0.005	-0.376
-691.397	-186.716	0.029	-0.000
-690.383	800.000	-0.051	0.185
-689.368	628.137	-0.057	-0.145
-688.354	61.961	-0.142	0.142
-687.339	-6.429	0.055	-0.037
-686.324	-90.189	-0.052	-0.015
-685.310	378.857	-0.039	-0.079
-684.295	-200.000	-0.004	0.043
-683.281	68.445	0.269	0.277
-682.266	-200.000	-0.049	-0.286
-681.251	-155.119	0.297	-0.020
-680.237	122.497	-0.205	0.258
-679.222	11.334	-0.194	-0.149
-678.208	800.000	0.044	-0.127
-677.193	128.721	-0.160	0.205
-676.178	-130.746	-0.230	-0.031
-675.164	-200.000	0.051	-0.319
-674.149	-119.364	0.279	-0.049
-673.135	-200.000	-0.072	-0.342
-672.120	335.542	-0.072	-0.140
-671.105	-142.875	-0.230	0.022
-670.091	-200.000	0.042	0.215
-669.076	232.129	-0.149	0.245
-668.062	-83.311	-0.248	0.080
-667.047	15.677	0.199	-0.157
-666.032	151.515	0.093	0.128
-665.018	97.625	0.060	0.069
-664.003	37.766	-0.079	-0.070
-662.989	-7.629	-0.155	-0.105
-661.974	-97.420	0.089	0.023
-660.959	-115.939	-0.213	-0.040
-659.945	238.045	-0.128	0.213
-658.930	182.256	0.261	-0.385
-657.916	-75.770	-0.430	0.153
-656.901	-200.000	-0.003	0.244
-655.886	-60.356	0.256	-0.109
-654.872	19.232	-0.188	-0.151
-653.857	476.536	0.111	0.251
-652.843	77.331	0.216	0.230
-651.828	63.201	-0.166	-0.167
-650.814	-47.587	-0.283	0.138
-649.799	419.159	0.051	-0.110
-648.784	800.000	-0.029	0.091
-647.770	-114.357	0.170	-0.033
-646.755	397.084	0.067	0.140
-645.741	-99.072	-0.235	-0.060
-644.726	-17.104	-0.079	0.050
-643.711	476.311	-0.055	0.125
-642.697	-85.659	0.110	0.034
-641.682	-51.870	-0.134	-0.063
-640.668	111.709	0.035	-0.042
-639.653	-200.000	-0.000	0.061
-638.638	104.743	-0.195	-0.231
-637.624	-55.214	-0.145	-0.065
-636.609	-5.257	0.039	0.027
-635.595	391.373	-0.016	-0.033
-634.580	-15.024	0.445	0.286
-633.565	-152.970	-0.292	0.021
-632.551	-123.782	0.256	0.041
-631.536	-200.000	-0.042	0.408
-630.522	-41.661	-0.210	-0.108
-629.507	194.218	0.084	0.127
-628.492	222.697	-0.115	0.186
-627.478	-129.140	0.041	-0.006
-626.463	-124.029	-0.337	0.053
-625.449	20.904	0.118	-0.096
-624.434	-199.467	-0.220	-0.001
-623.419	-0.097	-0.159	0.113
-622.405	-60.168	-0.047	-0.020
-621.390	-63.220	0.280	0.116
-620.376	207.089	-0.119	-0.185
-619.361	800.000	-0.032	0.099
-618.346	-104.764	-0.261	-0.060
-617.332	-55.869	-0.207	0.093
-616.317	-129.742	0.404	-0.056
-615.303	330.417	0.078	-0.150
-614.288	-119.557	-0.148	-0.026
-613.273	-56.615	-0.484	0.215
-612.259	800.000	0.033	0.123
-611.244	351.435	0.128	-0.254
-610.230	-200.000	0.001	0.153
-609.215	152.302	-0.110	0.151
-608.201	91.386	-0.267	0.300
-607.186	-89.412	0.170	0.050
-606.171	64.539	0.213	0.214
-605.157	248.308	-0.113	-0.192
-604.142	119.823	-0.145	0.180
-603.128	-188.232	-0.161	-0.002
-602.113	677.359	-0.099	-0.256
-601.098	-180.587	0.236	-0.005
-600.084	800.000	-0.053	-0.179
-599.069	306.669	0.029	-0.054
-598.055	148.798	0.054	0.073
-597.040	523.124	-0.061	0.144
-596.025	-112.042	-0.153	-0.031
-595.011	-149.035	0.433	-0.035
-593.996	800.000	-0.181	0.505
-592.982	800.000	-0.058	0.162
-591.967	-68.385	-0.059	0.023
-590.952	266.170	0.202	-0.352
-589.938	469.421	-0.049	0.111
-588.923	-116.501	0.068	0.012
-587.909	-200.000	-0.036	-0.223
-586.894	800.000	-0.017	-0.050
-585.879	-30.901	0.249	0.140
-584.865	-53.304	0.048	-0.022
-583.850	-200.000	0.053	-0.251
-582.836	-183.103	-0.283	-0.005
-581.821	-24.131	0.081	-0.049
-580.806	-200.000	0.020	0.184
-579.792	-141.675	-0.244	-0.025
-578.777	36.724	-0.219	-0.194
-577.763	800.000	-0.054	-0.167
-576.748	129.968	0.138	0.177
-575.733	58.982	0.123	-0.121
-574.719	800.000	0.063	0.227
-573.704	-163.374	0.326	-0.016
-572.690	-28.743	0.205	-0.118
-571.675	800.000	-0.072	0.230
-570.661	767.465	-0.111	0.303
-569.646	-39.499	-0.554	-0.290
-568.631	800.000	-0.066	-0.285
-567.617	50.980	-0.034	0.032
-566.602	-171.065	-0.248	-0.008
-565.588	167.191	0.275	-0.390
-564.573	-200.000	0.004	-0.132
-563.558	32.118	0.249	-0.214
-562.544	7.731	0.057	-0.043
-561.529	-200.000	-0.004	0.294
-560.515	94.821	-0.220	0.250
-559.500	104.990	0.091	-0.108
-558.485	140.244	-0.064	-0.084
-557.471	-110.165	0.288	0.060
-556.456	-200.000	0.027	-0.238
-555.442	63.000	0.276	-0.276
-554.427	-105.261	0.146	0.033
-553.412	364.868	0.096	0.193
-552.398	-109.801	0.084	-0.018
-551.383	12.533	0.176	-0.136
-550.369	800.000	-0.044	0.153
-549.354	114.342	0.185	0.224
-548.339	322.715	-0.071	-0.134
-547.325	30.278	-0.241	-0.205
-546.310	242.620	-0.106	-0.178
-545.296	-200.000	-0.042	0.195
-544.281	-200.000	0.051	0.237
-543.266	15.436	-0.222	-0.174
-542.252	-122.726	-0.146	0.024
-541.237	-26.774	-0.084	-0.049
-540.223	-6.332	-0.184	-0.125
-539.208	53.217	-0.154	-0.147
-538.193	3.242	0.144	0.105
-537.179	-200.000	0.047	0.370
-536.164	-200.000	-0.015	-0.217
-535.150	-113.365	0.328	0.064
-534.135	194.544	0.140	0.212
-533.121	800.000	0.051	-0.148
-532.106	0.416	0.212	0.151
-531.091	800.000	0.039	0.160
-530.077	-63.513	-0.239	-0.098
-529.062	800.000	0.036	0.155
-528.048	800.000	0.020	0.060
-527.033	-71.615	-0.187	-0.070
-526.018	224.718	0.240	0.386
-525.004	-200.000	0.010	-0.056
-523.989	-200.000	0.023	-0.459
-522.975	-27.522	0.064	0.037
-521.960	-132.005	0.170	-0.022
-520.945	-200.000	0.024	-0.337
-519.931	23.393	-0.223	-0.183
-518.916	-110.709	0.218	-0.045
-517.902	61.772	-0.233	-0.231
-516.887	1.756	-0.306	0.220
-515.872	119.013	0.110	0.136
-514.858	122.950	-0.073	-0.091
-513.843	-16.003	-0.235	-0.149
-512.829	-68.240	-0.242	0.094
-511.814	-111.908	0.244	0.049
-510.799	297.437	0.066	0.121
-509.785	-127.289	0.032	0.005
-508.770	84.293	0.150	-0.164
-507.756	666.778	0.108	-0.277
-506.741	-178.230	-0.055	-0.001
-505.726	171.658	0.118	0.168
-504.712	-200.000	0.035	0.253
-503.697	258.552	0.251	-0.432
-502.683	535.025	0.107	-0.252
-501.668	-4.404	0.369	-0.255
-500.653	-200.000	-0.013	-0.157
-499.639	-110.463	0.147	0.030
-498.624	800.000	0.101	0.392
-497.610	-128.724	-0.021	0.003
-496.595	-36.589	0.098	-0.053
-495.581	45.984	0.049	-0.045
-494.566	-144.094	-0.284	-0.027
-493.551	-90.430	0.326	0.094
-492.537	109.980	0.106	0.127
-491.522	-44.341	-0.234	-0.117
-490.508	-200.000	0.035	-0.460
-489.493	65.978	-0.074	-0.075
-488.478	17.359	-0.148	-0.117
-487.464	-155.801	-0.137	-0.009
-486.449	-98.383	0.245	-0.063
-485.435	185.110	-0.025	0.037
-484.420	312.344	0.060	-0.113
-483.405	47.546	-0.236	0.219
-482.391	300.752	-0.145	0.266
-481.376	800.000	-0.035	0.154
-480.362	-155.700	0.076	-0.005
-479.347	-93.571	-0.198	-0.054
-478.332	287.786	0.192	0.346
-477.318	2.466	0.204	0.147
-476.303	-200.000	-0.003	-0.181
-475.289	122.594	-0.180	0.224
-474.274	110.524	-0.203	0.244
-473.259	-5.341	-0.193	-0.132
-472.245	148.613	0.345	-0.464
-471.230	800.000	0.111	-0.348
-470.216	-81.998	-0.113	0.037
-469.201	228.556	0.137	0.222
-468.186	-13.012	0.359	0.232
-467.172	213.026	0.256	0.403
-466.157	183.606	0.169	-0.248
-465.143	88.946	0.097	-0.107
-464.128	405.357	-0.082	0.173
-463.113	-11.920	-0.121	-0.079
-462.099	-152.939	-0.186	0.013
-461.084	-135.882	-0.197	-0.023
-460.070	-69.499	-0.195	-0.074
-459.055	75.738	0.075	0.078
-458.040	182.978	0.061	0.090
-457.026	-64.561	-0.212	0.085
-456.011	-82.883	0.154	0.050
-454.997	-162.843	0.352	0.017
-453.982	-58.813	0.440	-0.189
-452.968	-56.369	-0.057	-0.025
-451.953	-200.000	0.064	-0.485
-450.938	132.296	-0.207	0.265
-449.924	109.184	0.122	-0.145
-448.909	-30.241	-0.136	-0.077
-447.895	800.000	-0.017	0.056
-446.880	-200.000	-0.018	0.356
-445.865	60.625	0.142	-0.140
-444.851	-5.318	-0.111	-0.076
-443.836	-200.000	0.047	-0.213
-442.822	-88.184	0.206	0.061
-441.807	800.000	-0.026	-0.079
-440.792	391.226	0.122	-0.253
-439.778	33.266	-0.193	-0.166
-438.763	-200.000	0.011	0.064
-437.749	-21.566	-0.072	0.044
-436.734	-200.000	-0.034	0.160
-435.719	-86.602	0.243	0.074
-434.705	222.702	-0.297	0.475
-433.690	-39.241	0.362	-0.189
-432.676	-59.180	-0.163	0.070
-431.661	-200.000	-0.000	-0.038
-430.646	78.147	0.210	0.223
-429.632	-200.000	-0.030	0.254
-428.617	-129.698	-0.322	0.044
-427.603	-200.000	-0.040	0.185
-426.588	-56.425	0.212	-0.094
-425.573	-200.000	0.005	-0.132
-424.559	-8.116	0.117	-0.078
-423.544	-42.227	0.133	0.067
-422.530	585.390	0.129	-0.315
-421.515	800.000	0.146	-0.417
-420.500	-200.000	-0.050	-0.387
-419.486	-167.498	-0.384	-0.015
-418.471	-120.735	0.189	0.032
-417.457	191.517	0.052	0.078
-416.442	-200.000	-0.024	0.295
-415.428	-106.466	-0.329	0.073
-414.413	283.060	-0.063	-0.113
-413.398	140.113	0.176	-0.231
-412.384	-12.878	-0.325	-0.210
-411.369	-60.391	0.214	0.091
-410.355	-120.218	-0.348	0.059
-409.340	516.225	0.098	-0.227
-408.325	-106.426	0.165	0.037
-407.311	800.000	-0.029	-0.113
-406.296	-5.196	-0.096	0.066
-405.282	-58.537	0.233	0.100
-404.267	476.697	0.132	0.297
-403.252	800.000	0.041	-0.146
-402.238	115.574	0.184	-0.224
-401.223	492.448	-0.055	-0.124
-400.209	-22.314	-0.041	-0.025
-399.194	78.213	-0.203	-0.215
-398.179	145.195	-0.096	0.128
-397.165	-15.375	-0.378	0.240
-396.150	149.306	0.154	-0.207
-395.136	-116.198	-0.071	0.013
-394.121	800.000	0.048	-0.155
-393.106	-85.655	-0.205	-0.063
-392.092	-200.000	0.013	0.118
-391.077	500.168	-0.104	-0.238
-390.063	-128.606	0.255	-0.036
-389.048	-200.000	-0.027	0.188
-388.033	-90.272	-0.141	0.041
-387.019	800.000	-0.053	-0.178
-386.004	-37.606	-0.067	-0.035
-384.990	-162.002	-0.248	-0.012
-383.975	30.338	0.319	0.270
-382.960	-200.000	0.007	0.200
-381.946	58.513	-0.053	0.051
-380.931	-119.934	0.137	0.023
-379.917	-200.000	-0.040	-0.221
-378.902	355.305	-0.090	0.177
-377.888	121.145	0.116	0.143
-376.873	800.000	-0.023	-0.082
-375.858	-40.357	-0.305	-0.157
-374.844	36.442	0.127	0.111
-373.829	-133.938	0.139	0.017
-372.815	-34.511	0.326	-0.177
-371.800	425.060	0.095	-0.202
-370.785	-168.820	-0.162	-0.006
-369.771	-148.560	0.221	-0.018
-368.756	232.708	0.063	0.102
-367.742	800.000	-0.025	0.077
-366.727	196.022	-0.051	0.077
-365.712	-40.249	0.023	0.012
-364.698	148.937	0.351	-0.471
-363.683	101.646	0.167	0.194
-362.669	-200.000	0.010	-0.199
-361.654	-200.000	-0.018	-0.102
-360.639	-138.146	0.141	0.015
-359.625	-22.548	0.263	0.158
-358.610	-99.039	-0.059	0.015
-357.596	209.970	0.101	-0.157
-356.581	-155.111	-0.276	-0.018
-355.566	-127.223	0.313	-0.045
-354.552	-136.028	0.030	-0.004
-353.537	-60.127	-0.153	0.065
-352.523	800.000	-0.057	0.167
-351.508	-76.066	-0.097	-0.034
-350.493	150.987	0.049	-0.067
-349.479	219.123	0.115	0.182
-348.464	800.000	-0.070	-0.265
-347.450	-107.042	-0.444	0.097
-346.435	-60.974	0.097	0.041
-345.420	274.406	0.077	-0.135
-344.406	202.434	0.178	-0.272
-343.391	24.388	0.201	-0.165
-342.377	-85.370	0.307	0.095
-341.362	131.275	-0.164	0.209
-340.348	-200.000	-0.012	0.172
-339.333	330.272	0.073	-0.139
-338.318	-136.400	0.345	-0.040
-337.304	800.000	-0.076	-0.230
-336.289	311.426	-0.076	0.140
-335.275	276.596	0.116	0.204
-334.260	-173.076	-0.232	-0.007
-333.245	-200.000	-0.048	-0.269
-332.231	800.000	0.061	0.205
-331.216	-200.000	0.060	0.402
-330.202	-121.322	-0.269	0.044
-329.187	-30.536	-0.335	-0.188
-328.172	-61.656	-0.248	-0.103
-327.158	-74.592	-0.084	0.030
-326.143	-200.000	0.067	-0.311
-325.129	165.013	0.181	-0.253
-324.114	483.504	-0.046	0.104
-323.099	-76.990	-0.262	-0.091
-322.085	81.141	-0.164	0.175
-321.070	283.645	-0.108	0.193
-320.056	-200.000	-0.017	0.091
-319.041	1.308	0.388	-0.276
-318.026	333.528	0.064	0.122
-317.012	-200.000	0.023	0.370
-315.997	-27.799	0.066	-0.038
-314.983	-54.815	0.211	0.094
-313.968	800.000	0.034	0.123
-312.953	363.588	0.153	-0.305
-311.939	-200.000	-0.046	-0.336
-310.924	800.000	-0.093	-0.262
-309.910	-142.525	0.147	0.014
-308.895	148.124	0.236	-0.316
-307.880	83.788	-0.081	0.087
-306.866	-181.129	-0.054	0.001
-305.851	348.580	-0.057	-0.110
-304.837	109.772	-0.129	-0.153
-303.822	714.115	0.113	-0.297
-302.807	-138.633	0.288	0.031
-301.793	-139.424	-0.459	-0.049
-300.778	-54.746	-0.333	-0.149
-299.764	-200.000	-0.036	0.211
-298.749	0.577	-0.150	-0.106
-297.735	-200.000	-0.019	0.283
-296.720	-160.879	-0.386	-0.020
-295.705	0.190	0.198	0.140
-294.691	-119.611	-0.194	-0.033
-293.676	547.588	0.052	0.122
-292.662	185.442	0.117	0.172
-291.647	-119.807	0.242	-0.041
-290.632	18.151	0.156	0.123
-289.618	-169.324	-0.091	0.003
-288.603	-200.000	0.018	0.251
-287.589	-34.964	-0.091	0.049
-286.574	-200.000	0.012	-0.100
-285.559	-200.000	0.019	0.101
-284.545	-190.857	-0.268	-0.003
-283.530	225.149	0.045	0.072
-282.516	-162.788	0.050	0.002
-281.501	-200.000	0.002	-0.072
-280.486	-20.974	-0.367	0.222
-279.472	-145.893	-0.311	-0.027
-278.457	66.532	0.245	-0.246
-277.443	298.084	0.014	0.025
-276.428	32.037	-0.035	0.030
-275.413	365.711	0.061	-0.121
-274.399	-200.000	-0.076	0.384
-273.384	800.000	0.071	0.271
-272.370	229.857	0.237	0.382
-271.355	-124.850	-0.057	-0.009
-270.340	-109.175	-0.316	0.066
-269.326	-51.667	0.271	0.125
-268.311	235.978	0.030	-0.049
-267.297	48.093	0.177	0.163
-266.282	6.975	-0.309	0.228
-265.267	6.969	-0.128	-0.094
-264.253	170.540	0.148	-0.209
-263.238	-79.203	-0.306	-0.103
-262.224	573.159	0.191	-0.459
-261.209	-137.373	-0.149	-0.017
-260.195	-2.199	0.143	0.099
-259.180	197.982	0.018	-0.027
-258.165	635.845	-0.032	-0.080
-257.151	768.421	0.150	0.402
-256.136	482.869	-0.118	-0.264
-255.122	180.336	-0.030	-0.044
-254.107	-33.223	-0.295	0.161
-253.092	-83.274	-0.323	-0.102
-252.078	-42.703	-0.206	0.104
-251.063	-22.264	-0.266	-0.159
-250.049	60.070	0.154	-0.150
-249.034	313.594	0.191	-0.355
-248.019	-72.498	0.283	0.103
-247.005	800.000	0.033	0.097
-245.990	25.264	0.041	0.034
-244.976	23.212	-0.137	0.111
-243.961	-71.517	0.269	0.099
-242.946	-13.019	-0.054	-0.035
-241.932	71.780	0.159	-0.163
-240.917	98.725	0.248	0.283
-239.903	194.798	-0.154	0.231
-238.888	-126.029	0.290	-0.043
-237.873	800.000	-0.078	0.312
-236.859	-200.000	-0.080	0.411
-235.844	271.977	0.127	-0.221
-234.830	0.773	-0.112	-0.079
-233.815	86.176	0.128	-0.139
-232.800	114.229	0.079	0.095
-231.786	23.068	0.169	0.137
-230.771	-200.000	-0.010	-0.150
-229.757	463.640	-0.039	-0.086
-228.742	-149.445	-0.322	-0.025
-227.727	-126.302	0.200	-0.029
-226.713	-21.275	-0.430	-0.259
-225.698	-154.170	-0.333	-0.022
-224.684	-45.635	0.160	-0.078
-223.669	211.180	-0.112	0.174
-222.655	0.288	-0.147	0.103
-221.640	-81.984	0.141	0.045
-220.625	-81.770	0.283	-0.091
-219.611	-200.000	0.011	-0.060
-218.596	-75.613	-0.165	0.058
-217.582	-200.000	-0.024	-0.231
-216.567	-104.290	0.258	-0.059
-215.552	568.441	-0.140	-0.336
-214.538	395.407	-0.130	0.267
-213.523	-200.000	0.002	0.036
-212.509	-109.727	0.336	0.070
-211.494	-175.350	0.361	-0.010
-210.479	143.200	-0.060	0.079
-209.465	800.000	-0.080	0.290
-208.450	67.950	-0.028	-0.028
-207.436	-5.661	-0.208	0.140
-206.421	-164.772	0.232	0.010
-205.406	-74.623	0.145	0.051
-204.392	92.033	-0.166	-0.185
-203.377	-146.970	0.224	-0.019
-202.363	-200.000	-0.028	0.414
-201.348	800.000	-0.053	-0.185
-200.333	-71.278	-0.154	0.057
-199.319	800.000	0.022	-0.089
-198.304	152.922	-0.098	-0.132
-197.290	-42.438	0.397	0.199
-196.275	-148.947	0.196	-0.016
-195.260	-90.548	-0.136	0.039
-194.246	17.430	-0.149	0.117
-193.231	-145.000	-0.166	-0.015
-192.217	131.866	-0.208	0.263
-191.202	429.628	-0.196	0.417
-190.187	-36.004	-0.109	0.058
-189.173	-0.047	-0.177	-0.124
-188.158	-200.000	0.029	0.148
-187.144	130.600	0.171	-0.215
-186.129	-128.953	-0.207	-0.029
-185.114	55.113	-0.343	-0.326
-184.100	86.517	-0.147	-0.159
-183.085	-58.392	0.081	0.035
-182.071	-161.561	0.209	0.011
-181.056	-16.128	-0.151	-0.095
-180.042	381.372	0.092	0.187
-179.027	64.279	0.156	-0.154
-178.012	-200.000	0.051	0.258
-176.998	-148.415	0.241	0.019
-175.983	-122.469	0.367	-0.059
-174.969	678.616	-0.038	0.096
-173.954	77.873	-0.143	0.150
-172.939	125.424	0.050	-0.062
-171.925	-200.000	0.043	0.194
-170.910	-53.376	-0.294	0.133
-169.896	169.203	0.008	0.011
-168.881	-200.000	-0.016	-0.281
-167.866	95.125	0.165	-0.185
-166.852	-200.000	0.007	0.284
-165.837	-86.359	0.153	-0.046
-164.823	201.188	-0.109	0.165
-163.808	6.974	-0.440	0.322
-162.793	105.221	0.232	-0.270
-161.779	800.000	0.039	-0.160
-160.764	-96.048	-0.220	-0.058
-159.750	800.000	-0.022	-0.071
-158.735	-77.475	0.164	-0.056
-157.720	-97.354	0.129	0.033
-156.706	85.124	-0.044	-0.047
-155.691	68.911	-0.052	-0.053
-154.677	-200.000	0.003	-0.249
-153.662	-171.447	-0.184	-0.006
-152.647	-200.000	-0.007	0.564
-151.633	-73.849	-0.161	-0.058
-150.618	137.845	0.110	0.141
-149.604	751.415	0.187	-0.495
-148.589	10.055	0.139	-0.104
-147.574	42.108	-0.194	0.173
-146.560	-140.245	0.059	-0.006
-145.545	-200.000	0.014	-0.114
-144.531	-175.277	-0.220	0.006
-143.516	-52.898	-0.134	0.061
-142.502	-89.773	0.269	0.077
-141.487	-62.059	0.238	-0.098
-140.472	-200.000	0.040	0.268
-139.458	180.049	0.060	-0.086
-138.443	198.402	-0.133	0.199
-137.429	800.000	-0.077	-0.319
-136.414	19.290	-0.256	0.202
-135.399	-200.000	-0.011	0.171
-134.385	-55.740	-0.224	0.098
-133.370	-200.000	-0.049	0.247
-132.356	800.000	0.057	0.190
-131.341	-20.880	-0.292	-0.176
-130.326	-170.833	0.208	0.007
-129.312	-29.712	-0.181	0.101
-128.297	-48.463	-0.074	-0.035
-127.283	71.671	0.025	0.026
-126.268	130.427	-0.098	-0.124
-125.253	0.201	-0.272	-0.190
-124.239	55.346	0.135	-0.128
-123.224	-96.717	0.164	-0.042
-122.210	350.413	0.149	-0.290
