DTS Sentinel unit serial number:	SN413079Multiplexer serial number:	ORYXHardware model number:	OX4-SRSoftware version number:	ORYX F/W v4.00 Oryx Data Collector v3.7.2.0data status	okinstallation	princeton_trtdifferential loss correction	single-endedforward channel	channel 2reverse channel	N/Adate	2019/09/13time	18:03:34forward acquisition time	60.00reverse acquisition time	0.00gamma	496.2192k internal	0.2317k external	0.2317temperature offset calibration	1.0210default loss term (dB/km)	0.3790temperature slope calibration	1.0000multiplexer offset coefficient	1.0000multiplexer slope coefficient	1.0000fibre end	0.00T internal ref (°C)	34.83T ext. ref 1 (°C)	4.68T ext. ref 2 (°C)	27.51length (m)	temperature (°C)	Stokes	anti-Stokes-747.200	451.023	-0.086	-0.193
-746.185	-129.338	-0.025	-0.004
-745.171	22.778	0.180	0.149
-744.156	176.913	0.217	0.320
-743.142	-136.033	-0.125	-0.015
-742.127	800.000	-0.050	0.160
-741.112	800.000	-0.057	-0.237
-740.098	-73.676	-0.209	-0.077
-739.083	97.820	0.125	0.145
-738.069	555.192	-0.151	0.368
-737.054	-88.062	-0.443	-0.134
-736.039	86.868	0.041	-0.046
-735.025	28.672	-0.260	0.223
-734.010	147.783	-0.056	-0.076
-732.996	-200.000	0.097	-0.439
-731.981	-137.782	0.215	-0.024
-730.966	-200.000	-0.010	-0.412
-729.952	422.984	0.102	0.221
-728.937	165.747	-0.122	-0.174
-727.923	-129.227	-0.107	0.015
-726.908	800.000	-0.074	-0.227
-725.894	339.325	-0.104	-0.205
-724.879	100.404	0.051	0.060
-723.864	115.873	-0.102	-0.126
-722.850	-101.032	-0.046	-0.011
-721.835	207.174	-0.127	-0.201
-720.821	109.827	-0.050	0.061
-719.806	-200.000	0.015	0.368
-718.791	-39.924	-0.222	-0.117
-717.777	-65.359	-0.342	-0.139
-716.762	143.119	0.165	-0.221
-715.748	538.252	-0.080	0.193
-714.733	-49.084	0.226	0.110
-713.718	-200.000	-0.059	0.272
-712.704	273.750	-0.055	0.099
-711.689	-200.000	-0.039	0.271
-710.675	42.124	0.193	0.177
-709.660	438.252	-0.058	-0.127
-708.645	-124.132	0.448	-0.071
-707.631	18.069	-0.054	-0.043
-706.616	-62.443	0.097	-0.041
-705.602	-98.618	-0.371	-0.096
-704.587	181.651	0.117	-0.173
-703.572	52.980	0.243	0.235
-702.558	-64.803	0.070	0.029
-701.543	-200.000	0.002	-0.051
-700.529	-14.093	0.256	0.167
-699.514	-58.379	-0.058	0.025
-698.499	-92.980	0.086	-0.024
-697.485	-102.038	-0.089	0.022
-696.470	45.802	-0.262	-0.245
-695.456	380.524	-0.129	0.267
-694.441	-19.469	0.230	0.144
-693.426	201.988	-0.007	0.011
-692.412	-24.853	0.053	-0.032
-691.397	-200.000	-0.012	-0.302
-690.383	-200.000	-0.027	-0.362
-689.368	-200.000	0.013	-0.123
-688.354	-183.435	-0.114	0.002
-687.339	183.419	-0.207	-0.309
-686.324	-21.968	0.276	0.169
-685.310	-55.223	0.439	-0.199
-684.295	-200.000	0.032	-0.182
-683.281	57.765	-0.234	-0.231
-682.266	-130.382	-0.291	-0.040
-681.251	-74.150	-0.217	0.079
-680.237	39.181	-0.353	-0.319
-679.222	-134.534	-0.258	-0.032
-678.208	195.625	0.131	0.201
-677.193	611.199	0.079	0.199
-676.178	800.000	0.063	-0.231
-675.164	-41.907	-0.102	0.053
-674.149	-151.964	0.250	0.018
-673.135	382.517	-0.153	0.318
-672.120	-200.000	-0.007	-0.076
-671.105	-69.533	-0.239	-0.092
-670.091	-35.921	0.260	-0.142
-669.076	800.000	0.019	0.056
-668.062	-200.000	-0.001	-0.153
-667.047	-200.000	-0.004	-0.282
-666.032	-46.626	-0.288	0.142
-665.018	800.000	-0.074	0.326
-664.003	138.155	0.203	-0.269
-662.989	212.787	-0.106	-0.168
-661.974	-200.000	-0.007	-0.223
-660.959	205.200	-0.133	-0.208
-659.945	-15.037	0.182	-0.117
-658.930	22.246	0.157	0.129
-657.916	120.875	-0.017	0.021
-656.901	-102.669	0.141	0.034
-655.886	89.399	-0.066	0.075
-654.872	-145.989	-0.189	-0.017
-653.857	-62.899	-0.051	0.021
-652.843	-135.000	-0.444	-0.054
-651.828	-19.620	0.226	-0.141
-650.814	-160.603	-0.123	-0.007
-649.799	-200.000	0.041	-0.378
-648.784	-200.000	0.047	-0.384
-647.770	-111.515	0.178	0.037
-646.755	152.595	-0.050	0.069
-645.741	800.000	-0.074	-0.252
-644.726	-16.101	-0.326	-0.209
-643.711	63.494	-0.149	-0.151
-642.697	-117.655	0.147	-0.027
-641.682	-135.376	-0.153	-0.018
-640.668	-176.841	0.091	-0.002
-639.653	329.414	0.083	0.161
-638.638	150.308	0.158	-0.216
-637.624	13.869	-0.202	-0.158
-636.609	103.870	0.239	-0.283
-635.595	800.000	0.050	-0.150
-634.580	-95.925	0.148	0.040
-633.565	144.190	0.047	0.064
-632.551	136.875	-0.291	0.383
-631.536	-11.837	-0.161	-0.106
-630.522	270.869	0.060	0.106
-629.507	-200.000	-0.025	0.325
-628.492	716.574	-0.040	-0.106
-627.478	154.514	-0.101	-0.139
-626.463	558.076	-0.016	-0.039
-625.449	-90.824	-0.066	0.019
-624.434	218.117	0.108	-0.173
-623.419	374.273	-0.142	-0.291
-622.405	-31.906	-0.184	-0.104
-621.390	137.589	0.297	0.391
-620.376	317.759	-0.133	0.254
-619.361	800.000	0.012	0.044
-618.346	-49.099	0.293	0.141
-617.332	-200.000	-0.007	0.155
-616.317	79.568	0.103	0.111
-615.303	-200.000	-0.052	0.323
-614.288	409.148	-0.167	-0.355
-613.273	96.706	-0.219	-0.253
-612.259	-200.000	-0.006	-0.072
-611.244	-136.545	0.120	-0.014
-610.230	-78.481	0.286	-0.099
-609.215	123.888	-0.118	-0.149
-608.201	-122.648	-0.418	0.068
-607.186	-115.073	-0.227	-0.043
-606.171	361.807	0.069	0.139
-605.157	-53.772	0.194	-0.089
-604.142	92.442	-0.039	0.044
-603.128	-200.000	-0.033	-0.163
-602.113	-49.342	0.296	-0.142
-601.098	-54.386	-0.151	-0.069
-600.084	272.886	0.059	0.105
-599.069	190.400	-0.214	-0.323
-598.055	465.147	-0.074	-0.166
-597.040	-21.441	-0.087	-0.054
-596.025	-130.801	-0.316	0.043
-595.011	-200.000	-0.027	0.137
-593.996	-59.023	0.111	0.048
-592.982	800.000	0.033	0.120
-591.967	241.446	0.004	0.007
-590.952	-137.319	-0.140	-0.016
-589.938	-180.101	-0.387	-0.008
-588.923	-200.000	0.005	-0.116
-587.909	-36.153	-0.041	0.022
-586.894	-145.618	0.213	0.019
-585.879	-56.609	0.061	0.027
-584.865	-174.433	-0.064	0.002
-583.850	-131.367	0.419	0.056
-582.836	-182.128	-0.122	-0.002
-581.821	800.000	-0.046	0.160
-580.806	708.634	-0.088	-0.233
-579.792	7.320	0.086	0.065
-578.777	-200.000	0.002	-0.119
-577.763	-171.477	0.251	-0.008
-576.748	-30.902	-0.111	0.063
-575.733	4.308	-0.149	-0.110
-574.719	-33.695	0.217	0.121
-573.704	-4.357	-0.229	0.159
-572.690	244.645	0.111	-0.188
-571.675	-27.710	0.140	-0.082
-570.661	800.000	0.096	0.306
-569.646	-92.169	0.288	-0.082
-568.631	536.997	0.114	-0.273
-567.617	1.867	-0.142	-0.103
-566.602	161.081	-0.127	0.179
-565.588	-200.000	0.027	-0.346
-564.573	-200.000	0.475	0.000
-563.558	158.758	-0.053	0.073
-562.544	-200.000	-0.028	-0.420
-561.529	-127.732	-0.206	-0.030
-560.515	209.292	0.047	-0.074
-559.500	-60.686	-0.249	-0.106
-558.485	634.070	-0.127	-0.323
-557.471	462.671	0.018	-0.040
-556.456	14.934	-0.266	0.209
-555.442	-200.000	-0.012	0.152
-554.427	-111.013	-0.100	0.021
-553.412	-200.000	0.039	-0.204
-552.398	-5.148	0.322	0.223
-551.383	-68.354	-0.228	0.089
-550.369	-200.000	-0.020	0.158
-549.354	-94.869	-0.287	-0.078
-548.339	278.905	0.063	-0.114
-547.325	7.991	0.222	-0.168
-546.310	67.461	0.263	0.270
-545.296	-8.325	0.172	0.116
-544.281	-142.044	0.200	-0.020
-543.266	800.000	-0.075	-0.268
-542.252	310.137	-0.060	-0.113
-541.237	18.317	-0.167	-0.134
-540.223	-105.409	0.216	0.049
-539.208	336.325	-0.050	-0.097
-538.193	-104.719	-0.143	-0.033
-537.179	800.000	0.048	0.151
-536.164	-94.823	-0.078	-0.021
-535.150	-200.000	0.062	-0.388
-534.135	-38.678	0.163	-0.086
-533.121	-118.150	-0.068	-0.012
-532.106	-61.135	0.109	0.046
-531.091	175.055	0.258	-0.375
-530.077	-142.261	-0.267	-0.026
-529.062	800.000	0.069	-0.294
-528.048	-200.000	0.016	-0.087
-527.033	-200.000	0.038	-0.187
-526.018	-200.000	0.051	-0.268
-525.004	-200.000	0.012	0.215
-523.989	800.000	-0.034	0.126
-522.975	-101.363	-0.298	-0.073
-521.960	-139.494	0.263	-0.028
-520.945	-48.209	-0.532	-0.258
-519.931	238.945	-0.265	0.442
-518.916	293.711	-0.068	-0.125
-517.902	-49.512	0.302	0.145
-516.887	-143.450	0.267	-0.026
-515.872	-120.939	-0.328	-0.055
-514.858	-99.280	-0.233	-0.059
-513.843	-128.264	-0.291	-0.042
-512.829	3.259	-0.285	-0.208
-511.814	800.000	0.036	0.141
-510.799	-200.000	0.018	0.119
-509.785	35.828	0.124	0.110
-508.770	800.000	-0.061	-0.189
-507.756	8.679	-0.316	0.239
-506.741	69.909	-0.299	0.309
-505.726	-96.699	-0.296	-0.078
-504.712	-200.000	0.040	0.285
-503.697	-152.192	-0.080	0.006
-502.683	22.868	0.106	0.087
-501.668	-65.645	0.148	-0.060
-500.653	81.966	-0.164	0.178
-499.639	72.532	0.241	-0.252
-498.624	-52.680	-0.206	-0.095
-497.610	87.308	0.304	0.337
-496.595	183.281	-0.083	-0.124
-495.581	-17.926	-0.149	0.094
-494.566	40.585	0.168	0.152
-493.551	23.213	0.236	-0.194
-492.537	800.000	0.056	0.174
-491.522	-200.000	-0.047	0.223
-490.508	114.913	0.226	0.276
-489.493	-200.000	0.039	-0.188
-488.478	-89.751	0.020	0.006
-487.464	217.903	-0.017	-0.028
-486.449	39.462	0.152	0.137
-485.435	130.320	0.036	-0.047
-484.420	728.127	0.068	-0.182
-483.405	800.000	0.054	0.175
-482.391	-128.451	0.208	0.030
-481.376	-54.453	0.189	-0.086
-480.362	800.000	0.057	0.206
-479.347	-15.224	-0.184	0.118
-478.332	-68.071	0.160	-0.062
-477.318	-53.916	0.089	-0.041
-476.303	-75.275	0.022	-0.008
-475.289	202.345	-0.207	-0.320
-474.274	-9.353	0.136	-0.091
-473.259	-200.000	-0.020	0.138
-472.245	181.524	-0.150	0.222
-471.230	-4.737	0.291	0.201
-470.216	652.712	-0.040	0.103
-469.201	-200.000	0.037	-0.255
-468.186	134.139	-0.130	0.169
-467.172	-68.454	0.284	-0.110
-466.157	800.000	-0.087	0.381
-465.143	-200.000	0.001	-0.046
-464.128	-33.868	0.104	0.058
-463.113	800.000	-0.099	0.320
-462.099	-200.000	0.273	0.000
-461.084	165.936	-0.097	0.137
-460.070	193.164	-0.196	-0.297
-459.055	-48.943	-0.192	-0.092
-458.040	-200.000	-0.013	-0.110
-457.026	-31.707	-0.119	-0.067
-456.011	410.119	0.115	-0.244
-454.997	800.000	-0.052	0.178
-453.982	800.000	-0.015	0.053
-452.968	89.268	-0.280	0.312
-451.953	-33.183	-0.187	-0.104
-450.938	-173.955	0.083	-0.002
-449.924	380.121	-0.014	-0.029
-448.909	800.000	0.016	0.064
-447.895	-44.525	0.199	-0.100
-446.880	-200.000	-0.020	-0.177
-445.865	75.149	-0.181	-0.191
-444.851	-17.856	-0.228	0.143
-443.836	-49.350	0.345	-0.165
-442.822	-83.288	-0.646	0.207
-441.807	-85.265	-0.397	0.124
-440.792	-46.498	0.052	0.026
-439.778	-22.749	0.125	-0.076
-438.763	33.897	-0.111	-0.097
-437.749	-54.578	-0.064	0.029
-436.734	-44.535	-0.249	-0.124
-435.719	41.748	0.180	-0.163
-434.705	85.637	-0.113	0.124
-433.690	203.408	0.182	0.282
-432.676	489.446	-0.047	0.107
-431.661	47.669	0.161	-0.150
-430.646	-1.140	-0.240	-0.170
-429.632	-200.000	0.031	-0.203
-428.617	-65.992	0.458	-0.183
-427.603	800.000	-0.118	0.353
-426.588	-14.487	-0.277	-0.178
-425.573	-151.737	-0.134	-0.010
-424.559	80.021	-0.089	-0.096
-423.544	-108.121	0.196	0.042
-422.530	-97.597	-0.226	0.058
-421.515	61.873	0.275	-0.274
-420.500	-200.000	-0.029	0.246
-419.486	-200.000	0.007	-0.030
-418.471	-18.276	-0.041	-0.026
-417.457	-2.866	-0.189	0.132
-416.442	-3.557	-0.320	0.223
-415.428	800.000	0.065	-0.181
-414.413	800.000	0.134	0.414
-413.398	-76.117	-0.328	0.116
-412.384	-11.399	0.274	-0.180
-411.369	-200.000	0.002	-0.150
-410.355	257.722	0.130	-0.223
-409.340	388.824	0.067	-0.139
-408.325	-19.180	0.253	0.157
-407.311	-29.610	0.160	0.091
-406.296	-75.086	-0.222	-0.079
-405.282	-200.000	-0.004	-0.149
-404.267	-200.000	-0.014	0.204
-403.252	-200.000	0.027	0.283
-402.238	-200.000	0.059	-0.400
-401.223	-77.500	-0.034	-0.012
-400.209	-200.000	0.007	-0.242
-399.194	-200.000	0.022	-0.177
-398.179	-138.780	0.149	0.016
-397.165	-200.000	-0.048	-0.232
-396.150	-103.349	0.363	0.085
-395.136	-84.255	-0.055	-0.017
-394.121	-200.000	0.025	-0.263
-393.106	-192.871	-0.354	-0.003
-392.092	-120.137	0.126	0.022
-391.077	-135.875	0.458	0.054
-390.063	255.778	-0.163	0.279
-389.048	510.927	-0.008	0.018
-388.033	-51.764	0.334	0.155
-387.019	4.100	-0.197	0.144
-386.004	183.202	-0.029	-0.043
-384.990	-87.472	-0.161	0.049
-383.975	5.122	-0.094	0.069
-382.960	-200.000	0.012	0.469
-381.946	114.596	-0.217	0.264
-380.931	-39.256	-0.323	0.169
-379.917	-23.283	-0.153	0.092
-378.902	-109.582	0.109	0.023
-377.888	-200.000	-0.001	-0.020
-376.873	-19.565	0.085	0.053
-375.858	-200.000	0.004	0.084
-374.844	-4.987	0.130	0.089
-373.829	-200.000	0.027	-0.260
-372.815	41.865	-0.309	0.280
-371.800	8.730	0.070	-0.053
-370.785	800.000	-0.049	0.212
-369.771	-100.797	0.148	0.036
-368.756	362.949	0.096	-0.191
-367.742	318.913	0.157	-0.297
-366.727	-200.000	0.024	0.166
-365.712	-200.000	-0.011	-0.076
-364.698	-153.936	-0.193	0.013
-363.683	-129.042	0.134	0.019
-362.669	-29.998	0.134	0.076
-361.654	154.169	0.108	0.148
-360.639	84.221	0.101	0.110
-359.625	-134.719	0.270	-0.033
-358.610	800.000	-0.085	-0.292
-357.596	-200.000	0.029	0.175
-356.581	-48.197	0.294	0.142
-355.566	-200.000	0.011	0.129
-354.552	653.514	0.097	0.248
-353.537	90.649	0.265	-0.295
-352.523	800.000	0.111	0.403
-351.508	-115.704	-0.277	-0.052
-350.493	-75.452	-0.046	-0.016
-349.479	159.639	-0.123	0.171
-348.464	-200.000	0.009	-0.299
-347.450	149.389	0.230	-0.310
-346.435	-52.439	-0.251	-0.116
-345.420	412.311	-0.081	-0.172
-344.406	800.000	0.084	0.236
-343.391	-95.599	-0.294	0.078
-342.377	198.023	-0.114	-0.174
-341.362	-200.000	-0.035	0.241
-340.348	361.977	-0.268	-0.536
-339.333	66.518	0.150	0.151
-338.318	-126.227	-0.267	0.040
-337.304	55.405	0.057	0.055
-336.289	88.449	-0.108	-0.120
-335.275	18.254	-0.078	0.062
-334.260	134.296	-0.093	0.121
-333.245	-20.457	0.249	0.152
-332.231	156.366	0.147	-0.202
-331.216	-200.000	0.020	0.098
-330.202	-133.265	0.418	-0.053
-329.187	800.000	-0.032	0.105
-328.172	-118.222	0.378	-0.067
-327.158	800.000	0.053	0.178
-326.143	-121.765	-0.141	-0.023
-325.129	800.000	-0.089	-0.244
-324.114	23.147	0.110	0.090
-323.099	-43.510	-0.119	-0.060
-322.085	97.603	-0.208	-0.239
-321.070	-61.951	-0.360	0.150
-320.056	-200.000	-0.033	-0.326
-319.041	-200.000	-0.038	-0.190
-318.026	-200.000	0.022	-0.375
-317.012	-100.895	0.186	0.045
-315.997	-13.990	0.258	0.166
-314.983	7.505	-0.142	0.106
-313.968	800.000	-0.045	-0.189
-312.953	800.000	0.084	-0.234
-311.939	199.069	0.102	0.155
-310.924	-124.677	-0.126	-0.019
-309.910	-122.315	0.168	-0.027
-308.895	-18.445	0.021	-0.013
-307.880	14.381	-0.083	0.065
-306.866	-139.889	0.202	0.021
-305.851	-61.438	-0.138	-0.058
-304.837	188.795	-0.154	0.230
-303.822	270.724	-0.222	0.389
-302.807	-200.000	-0.032	-0.187
-301.793	-127.064	0.178	-0.026
-300.778	-86.988	-0.265	0.080
-299.764	-200.000	-0.027	0.230
-298.749	107.458	0.078	0.093
-297.735	-136.697	0.157	-0.018
-296.720	-19.015	-0.126	-0.078
-295.705	397.176	-0.206	0.428
-294.691	-110.373	0.070	0.014
-293.676	297.476	0.111	-0.203
-292.662	612.928	0.032	0.079
-291.647	-200.000	-0.009	-0.166
-290.632	60.891	0.173	-0.171
-289.618	180.372	-0.236	0.345
-288.603	-200.000	-0.081	0.387
-287.589	245.028	-0.150	0.251
-286.574	-200.000	-0.018	0.366
-285.559	-132.752	0.112	0.014
-284.545	663.511	-0.142	-0.365
-283.530	69.526	0.244	0.249
-282.516	-19.124	-0.104	0.064
-281.501	-16.043	-0.374	0.237
-280.486	800.000	-0.098	-0.302
-279.472	539.186	-0.111	-0.262
-278.457	197.357	-0.108	-0.164
-277.443	280.911	-0.072	-0.129
-276.428	-200.000	0.004	-0.051
-275.413	556.518	-0.183	0.439
-274.399	-34.774	-0.407	0.221
-273.384	299.722	0.022	0.040
-272.370	-52.938	0.156	0.071
-271.355	53.737	-0.101	-0.096
-270.340	-5.219	-0.344	-0.235
-269.326	89.398	-0.180	0.199
-268.311	-200.000	-0.010	0.238
-267.297	38.074	0.066	-0.058
-266.282	137.942	0.103	-0.134
-265.267	-4.134	-0.102	0.070
-264.253	800.000	0.069	0.190
-263.238	369.682	0.144	-0.289
-262.224	800.000	-0.055	0.208
-261.209	-121.695	-0.298	0.049
-260.195	-178.338	0.304	-0.007
-259.180	-200.000	-0.027	0.332
-258.165	60.103	0.162	0.159
-257.151	-200.000	0.035	-0.300
-256.136	96.159	0.105	0.120
-255.122	800.000	0.037	0.117
-254.107	531.221	0.160	-0.375
-253.092	-94.721	-0.173	0.047
-252.078	212.522	0.141	0.221
-251.063	528.987	0.026	-0.062
-250.049	-200.000	0.029	-0.260
-249.034	-200.000	0.012	-0.124
-248.019	-20.737	0.068	-0.041
-247.005	-117.729	0.081	0.014
-245.990	254.493	-0.083	-0.140
-244.976	-200.000	0.055	0.344
-243.961	798.666	-0.008	-0.021
-242.946	80.258	0.151	-0.161
-241.932	-200.000	0.045	-0.346
-240.917	217.680	0.074	0.117
-239.903	-200.000	0.056	-0.387
-238.888	59.204	0.224	-0.219
-237.873	326.571	-0.081	-0.154
-236.859	-118.688	-0.103	-0.018
-235.844	-200.000	0.005	-0.071
-234.830	800.000	0.054	0.172
-233.815	91.074	-0.091	-0.102
-232.800	800.000	-0.065	0.235
-231.786	117.075	-0.228	0.278
-230.771	-97.832	-0.130	0.033
-229.757	800.000	-0.153	-0.495
-228.742	558.629	-0.058	0.139
-227.727	-102.934	0.180	-0.042
-226.713	-24.224	0.307	-0.182
-225.698	-160.155	-0.192	-0.010
-224.684	188.987	-0.046	-0.069
-223.669	243.602	0.170	0.283
-222.655	58.825	-0.172	-0.168
-221.640	-200.000	0.013	0.157
-220.625	-79.258	0.150	-0.050
-219.611	-120.704	0.180	-0.030
-218.596	773.936	-0.092	0.248
-217.582	800.000	0.046	0.177
-216.567	184.176	0.200	0.293
-215.552	-27.655	-0.284	0.163
-214.538	-165.630	0.292	-0.013
-213.523	-109.785	0.198	-0.041
-212.509	800.000	0.125	0.401
-211.494	-200.000	0.095	-0.462
-210.479	143.670	0.161	0.213
-209.465	-8.262	-0.152	0.101
-208.450	-65.212	0.231	-0.092
-207.436	101.122	0.035	-0.040
-206.421	36.558	0.114	0.099
-205.406	-51.739	-0.091	0.042
-204.392	-47.120	-0.159	-0.077
-203.377	800.000	-0.018	0.055
-202.363	110.791	0.222	0.265
-201.348	800.000	-0.114	0.355
-200.333	-79.006	0.382	-0.129
-199.319	-200.000	-0.012	-0.215
-198.304	800.000	0.044	-0.149
-197.290	-200.000	0.022	-0.102
-196.275	50.423	0.212	-0.199
-195.260	-55.159	-0.189	-0.084
-194.246	-4.139	-0.346	0.238
-193.231	147.513	-0.084	-0.112
-192.217	-200.000	0.022	-0.333
-191.202	110.588	-0.168	0.200
-190.187	52.224	-0.089	0.084
-189.173	-97.394	0.068	0.018
-188.158	-103.085	-0.198	0.046
-187.144	-96.232	0.226	-0.059
-186.129	-200.000	-0.007	-0.371
-185.114	556.822	0.008	-0.019
-184.100	-200.000	-0.063	0.293
-183.085	555.871	-0.052	-0.125
-182.071	-23.939	-0.077	0.046
-181.056	-4.161	-0.358	0.245
-180.042	-7.362	-0.160	-0.108
-179.027	-36.268	0.098	-0.052
-178.012	-95.224	-0.302	-0.081
-176.998	-14.786	0.265	0.168
-175.983	-28.932	0.158	-0.090
-174.969	800.000	0.085	0.341
-173.954	86.012	0.199	0.217
-172.939	-41.957	0.110	0.056
-171.925	-103.413	0.206	-0.048
-170.910	-115.990	0.443	-0.082
-169.896	208.513	0.084	0.130
-168.881	169.653	0.025	-0.035
-167.866	311.043	-0.026	0.048
-166.852	-95.879	0.305	0.080
-165.837	72.974	0.075	0.078
-164.823	1.445	0.168	-0.120
-163.808	317.796	-0.061	0.114
-162.793	-200.000	0.321	0.001
-161.779	-63.812	-0.124	-0.050
-160.764	-169.156	0.297	-0.011
-159.750	800.000	0.048	-0.157
-158.735	-125.614	0.064	0.010
-157.720	-125.371	0.245	-0.037
-156.706	-48.927	0.224	0.106
-155.691	-136.291	0.177	0.020
-154.677	82.870	-0.094	0.101
-153.662	34.549	-0.222	-0.192
-152.647	-200.000	-0.006	0.138
-151.633	110.950	0.058	0.070
-150.618	-200.000	-0.033	0.292
-149.604	-68.102	0.173	-0.067
-148.589	-200.000	0.223	0.000
-147.574	-118.045	0.113	0.020
-146.560	-191.308	-0.258	-0.003
-145.545	800.000	0.131	0.373
-144.531	142.085	-0.237	0.311
-143.516	-200.000	0.023	-0.121
-142.502	-103.565	-0.357	0.083
-141.487	-81.022	0.150	0.049
-140.472	-157.107	-0.171	-0.010
-139.458	-1.335	-0.264	0.185
-138.443	-41.344	-0.163	-0.083
-137.429	-160.510	-0.158	0.008
-136.414	355.475	0.131	0.258
-135.399	800.000	0.072	0.302
-134.385	800.000	0.037	-0.116
-133.370	-129.081	0.110	-0.015
-132.356	13.900	0.190	-0.146
-131.341	-200.000	-0.030	0.230
-130.326	800.000	0.038	-0.119
-129.312	-82.591	0.213	0.068
-128.297	17.480	-0.244	-0.192
-127.283	-48.810	0.030	0.014
-126.268	-117.582	0.234	0.042
-125.253	-7.803	-0.130	0.087
-124.239	800.000	-0.054	0.178
-123.224	-67.321	0.109	-0.042
-122.210	-32.779	-0.081	0.045
