DTS Sentinel unit serial number:	SN413079Multiplexer serial number:	ORYXHardware model number:	OX4-SRSoftware version number:	ORYX F/W v4.00 Oryx Data Collector v3.7.2.0data status	okinstallation	princeton_trtdifferential loss correction	single-endedforward channel	channel 2reverse channel	N/Adate	2019/09/13time	20:11:34forward acquisition time	60.00reverse acquisition time	0.00gamma	496.2192k internal	0.2333k external	0.2333temperature offset calibration	1.0141default loss term (dB/km)	0.3790temperature slope calibration	1.0000multiplexer offset coefficient	1.0000multiplexer slope coefficient	1.0000fibre end	0.00T internal ref (°C)	29.50T ext. ref 1 (°C)	3.30T ext. ref 2 (°C)	23.85length (m)	temperature (°C)	Stokes	anti-Stokes-747.200	51.362	-0.288	-0.275
-746.185	-58.279	-0.054	-0.024
-745.171	-167.413	-0.325	0.013
-744.156	-107.131	-0.224	-0.050
-743.142	63.782	0.128	-0.130
-742.127	220.744	0.136	0.220
-741.112	-113.286	-0.373	0.074
-740.098	74.737	-0.040	-0.043
-739.083	39.189	-0.259	0.233
-738.069	28.559	-0.187	0.159
-737.054	424.446	0.116	-0.250
-736.039	111.933	-0.138	-0.167
-735.025	124.560	0.086	0.109
-734.010	800.000	-0.041	-0.165
-732.996	-92.685	-0.486	-0.137
-731.981	41.854	0.274	-0.250
-730.966	800.000	-0.123	-0.405
-729.952	232.616	-0.026	-0.042
-728.937	-82.361	-0.264	-0.086
-727.923	-120.700	-0.262	0.044
-726.908	-200.000	0.036	-0.365
-725.894	800.000	0.020	-0.085
-724.879	800.000	-0.028	-0.101
-723.864	150.783	-0.115	0.157
-722.850	-17.994	-0.516	0.325
-721.835	-94.630	-0.080	0.022
-720.821	-47.372	0.133	0.065
-719.806	25.330	-0.191	-0.159
-718.791	-80.787	-0.296	0.099
-717.777	571.743	-0.148	-0.362
-716.762	30.633	-0.190	0.163
-715.748	20.587	0.059	0.048
-714.733	207.284	-0.102	-0.160
-713.718	282.223	-0.063	-0.113
-712.704	-33.960	-0.175	-0.096
-711.689	118.165	-0.221	0.274
-710.675	166.997	-0.043	-0.061
-709.660	-200.000	-0.025	0.184
-708.645	-150.240	0.155	0.012
-707.631	230.093	-0.089	0.147
-706.616	342.027	0.091	0.179
-705.602	9.350	-0.165	-0.125
-704.587	51.521	0.102	0.097
-703.572	-74.390	0.169	-0.061
-702.558	-68.716	0.196	-0.076
-701.543	-84.901	-0.172	-0.054
-700.529	-200.000	-0.071	-0.405
-699.514	-200.000	0.001	-0.348
-698.499	-128.014	0.176	0.025
-697.485	138.972	-0.087	0.114
-696.470	2.109	0.222	-0.161
-695.456	-25.221	-0.475	-0.282
-694.441	-122.855	0.099	-0.016
-693.426	-168.483	-0.100	-0.004
-692.412	-95.165	-0.289	-0.078
-691.397	-200.000	0.004	0.023
-690.383	-200.000	-0.023	0.248
-689.368	-200.000	-0.037	0.174
-688.354	-103.732	-0.159	-0.037
-687.339	-85.906	0.097	-0.030
-686.324	-200.000	0.011	-0.329
-685.310	-200.000	-0.001	-0.034
-684.295	30.992	-0.375	-0.323
-683.281	-124.020	-0.229	0.036
-682.266	105.936	-0.150	0.178
-681.251	-200.000	0.002	-0.033
-680.237	181.024	-0.119	-0.176
-679.222	-76.461	-0.305	0.108
-678.208	-142.403	-0.322	-0.032
-677.193	-200.000	-0.081	-0.406
-676.178	-200.000	-0.064	-0.418
-675.164	-200.000	-0.084	-0.402
-674.149	30.650	0.371	0.318
-673.135	151.338	0.028	0.038
-672.120	-200.000	-0.015	-0.402
-671.105	159.045	-0.142	0.198
-670.091	-147.362	0.325	0.028
-669.076	800.000	-0.030	0.119
-668.062	51.731	0.109	-0.104
-667.047	-98.996	-0.130	0.033
-666.032	-67.080	-0.095	-0.037
-665.018	-200.000	0.009	0.088
-664.003	-39.115	0.141	-0.074
-662.989	800.000	-0.025	0.077
-661.974	-167.812	-0.220	-0.009
-660.959	-200.000	-0.002	-0.231
-659.945	7.085	0.277	0.207
-658.930	800.000	0.069	-0.262
-657.916	21.335	-0.097	-0.079
-656.901	-53.488	0.052	-0.024
-655.886	116.333	-0.247	0.304
-654.872	800.000	-0.032	0.100
-653.857	-42.498	0.392	-0.200
-652.843	-200.000	0.006	-0.059
-651.828	95.902	0.029	-0.033
-650.814	149.808	-0.060	0.082
-649.799	-200.000	0.023	-0.430
-648.784	-97.340	-0.093	-0.024
-647.770	-64.509	-0.455	-0.185
-646.755	-43.113	0.196	-0.099
-645.741	686.743	-0.067	-0.176
-644.726	190.171	-0.239	0.359
-643.711	-200.000	-0.003	0.098
-642.697	-167.179	-0.172	0.007
-641.682	-200.000	-0.003	-0.114
-640.668	-159.194	-0.150	-0.008
-639.653	-147.314	-0.214	-0.018
-638.638	22.808	-0.120	-0.098
-637.624	-200.000	0.044	-0.217
-636.609	-62.669	-0.129	-0.054
-635.595	-122.806	-0.436	-0.071
-634.580	-32.731	0.167	-0.093
-633.565	800.000	-0.058	-0.200
-632.551	-65.876	-0.304	-0.122
-631.536	270.387	0.222	0.391
-630.522	-200.000	-0.004	0.155
-629.507	107.329	-0.177	-0.211
-628.492	800.000	-0.084	0.256
-627.478	34.984	0.204	-0.179
-626.463	-86.341	0.237	-0.073
-625.449	-130.377	-0.171	0.023
-624.434	-114.481	0.109	0.021
-623.419	-117.776	-0.093	0.017
-622.405	-155.415	-0.126	-0.008
-621.390	-200.000	-0.043	0.253
-620.376	96.707	0.189	-0.217
-619.361	-78.397	0.245	-0.084
-618.346	-200.000	0.020	0.177
-617.332	59.358	0.150	0.148
-616.317	47.679	-0.199	0.186
-615.303	115.705	0.203	-0.248
-614.288	-36.219	-0.478	-0.258
-613.273	-134.961	0.050	0.006
-612.259	-200.000	0.038	0.355
-611.244	-198.567	0.070	-0.000
-610.230	-75.522	0.145	-0.052
-609.215	-200.000	-0.020	-0.354
-608.201	-200.000	0.003	0.071
-607.186	-72.857	-0.209	0.077
-606.171	200.648	-0.153	0.235
-605.157	-79.803	-0.227	-0.076
-604.142	602.813	-0.102	-0.253
-603.128	-78.886	-0.181	-0.062
-602.113	-200.000	0.090	0.504
-601.098	320.902	-0.070	0.133
-600.084	220.065	0.181	-0.290
-599.069	800.000	-0.072	-0.285
-598.055	-50.836	-0.206	0.097
-597.040	-200.000	0.005	-0.035
-596.025	-6.966	0.013	-0.009
-595.011	800.000	0.046	0.186
-593.996	-187.935	-0.264	0.003
-592.982	800.000	0.091	-0.337
-591.967	-138.326	0.269	0.030
-590.952	800.000	0.057	0.166
-589.938	123.075	-0.144	-0.180
-588.923	147.281	0.078	0.104
-587.909	-77.421	-0.054	0.019
-586.894	218.367	-0.110	0.175
-585.879	-107.959	-0.266	-0.058
-584.865	-31.561	-0.127	0.072
-583.850	-158.630	0.292	0.017
-582.836	-25.310	-0.112	-0.066
-581.821	-200.000	-0.029	0.211
-580.806	-106.572	-0.196	-0.044
-579.792	-26.013	0.197	0.116
-578.777	34.958	0.293	-0.256
-577.763	54.254	-0.109	-0.105
-576.748	-200.000	0.040	0.272
-575.733	-200.000	0.046	0.362
-574.719	-177.343	-0.275	-0.007
-573.704	-17.919	-0.281	-0.176
-572.690	201.629	-0.061	-0.093
-571.675	-156.261	-0.310	0.019
-570.661	-173.756	0.221	0.007
-569.646	-26.357	0.182	-0.107
-568.631	-69.977	0.082	0.031
-567.617	-146.993	-0.092	-0.008
-566.602	-19.085	0.218	0.135
-565.588	-171.892	-0.032	0.001
-564.573	-101.376	0.052	-0.013
-563.558	800.000	-0.071	0.302
-562.544	21.983	0.101	0.082
-561.529	624.326	0.077	0.195
-560.515	3.921	0.155	0.113
-559.500	401.130	0.094	0.197
-558.485	-28.163	-0.166	-0.096
-557.471	-200.000	0.013	0.071
-556.456	-200.000	0.035	-0.258
-555.442	150.697	0.161	-0.218
-554.427	-29.585	0.115	-0.065
-553.412	74.845	0.045	0.047
-552.398	523.810	-0.046	-0.107
-551.383	800.000	-0.049	0.160
-550.369	-146.944	0.051	-0.004
-549.354	381.486	-0.086	-0.177
-548.339	-106.841	0.183	-0.041
-547.325	-80.620	0.206	-0.068
-546.310	147.950	-0.200	-0.269
-545.296	0.530	0.361	0.257
-544.281	43.898	0.220	0.201
-543.266	37.777	-0.271	-0.240
-542.252	-163.043	0.159	-0.008
-541.237	75.253	-0.151	0.158
-540.223	66.851	-0.097	0.098
-539.208	-103.216	-0.263	-0.062
-538.193	-38.142	0.168	0.089
-537.179	-82.087	-0.380	0.124
-536.164	232.849	-0.132	-0.217
-535.150	21.446	-0.139	-0.113
-534.135	123.154	-0.234	0.292
-533.121	402.361	-0.050	-0.105
-532.106	800.000	0.066	0.196
-531.091	47.240	-0.270	-0.251
-530.077	103.922	-0.076	-0.088
-529.062	-64.399	0.270	-0.109
-528.048	-200.000	-0.026	-0.224
-527.033	48.962	0.122	-0.115
-526.018	483.281	0.046	0.104
-525.004	-87.895	-0.400	-0.120
-523.989	38.497	0.099	-0.088
-522.975	-64.451	-0.053	-0.022
-521.960	-200.000	-0.042	-0.210
-520.945	-200.000	-0.021	0.195
-519.931	800.000	0.037	0.131
-518.916	-200.000	0.018	-0.109
-517.902	-182.242	0.268	-0.005
-516.887	102.725	0.190	-0.222
-515.872	73.129	-0.086	0.089
-514.858	-28.823	-0.348	0.199
-513.843	-200.000	0.039	0.211
-512.829	435.289	0.130	-0.281
-511.814	564.510	-0.118	-0.285
-510.799	-17.478	-0.337	-0.211
-509.785	-78.969	0.132	0.045
-508.770	195.280	0.042	-0.063
-507.756	800.000	0.046	-0.169
-506.741	78.496	-0.050	0.053
-505.726	800.000	0.093	0.360
-504.712	110.590	0.203	0.243
-503.697	266.563	-0.075	-0.131
-502.683	167.830	-0.119	-0.168
-501.668	-200.000	-0.037	-0.309
-500.653	48.380	-0.308	-0.287
-499.639	-182.216	0.385	0.007
-498.624	-138.409	0.200	0.022
-497.610	-110.547	0.172	-0.035
-496.595	-200.000	-0.087	0.440
-495.581	163.633	-0.136	-0.190
-494.566	71.774	-0.176	-0.182
-493.551	269.839	0.130	-0.228
-492.537	-165.432	0.177	-0.008
-491.522	109.900	-0.205	0.245
-490.508	-200.000	-0.003	-0.028
-489.493	16.238	0.321	0.252
-488.478	-95.657	0.168	-0.045
-487.464	-116.490	-0.273	0.050
-486.449	-137.322	-0.221	0.025
-485.435	-63.100	0.176	0.072
-484.420	57.732	-0.196	0.191
-483.405	-4.488	0.335	-0.231
-482.391	-114.483	-0.074	0.014
-481.376	-147.996	-0.101	0.008
-480.362	-18.220	0.146	-0.091
-479.347	-58.315	-0.078	-0.034
-478.332	-200.000	0.031	-0.247
-477.318	-200.000	0.014	-0.176
-476.303	35.172	0.105	0.092
-475.289	403.488	0.083	0.174
-474.274	-200.000	0.010	-0.277
-473.259	800.000	0.065	-0.205
-472.245	-47.839	-0.202	-0.097
-471.230	-85.383	-0.139	-0.043
-470.216	533.711	0.053	0.124
-469.201	-72.873	-0.161	-0.059
-468.186	800.000	0.066	-0.214
-467.172	375.210	-0.092	0.187
-466.157	33.169	0.257	-0.221
-465.143	42.097	-0.270	-0.244
-464.128	26.871	0.255	-0.212
-463.113	-200.000	-0.053	0.243
-462.099	309.430	0.076	0.142
-461.084	16.702	0.114	0.089
-460.070	-54.094	0.169	0.076
-459.055	795.449	0.066	-0.181
-458.040	-26.843	-0.060	0.035
-457.026	70.042	0.048	0.050
-456.011	800.000	0.042	-0.123
-454.997	-62.897	0.299	-0.123
-453.982	-67.698	0.161	-0.063
-452.968	800.000	-0.033	0.123
-451.953	-25.868	0.023	0.013
-450.938	-23.834	-0.125	-0.074
-449.924	124.687	-0.215	0.269
-448.909	3.061	0.207	-0.149
-447.895	-24.122	0.339	-0.202
-446.880	-200.000	0.004	0.075
-445.865	-37.208	-0.187	0.100
-444.851	-58.604	-0.315	0.136
-443.836	194.579	0.058	-0.087
-442.822	-200.000	-0.030	0.272
-441.807	489.365	0.178	-0.404
-440.792	800.000	-0.021	-0.088
-439.778	293.022	-0.105	0.190
-438.763	-200.000	-0.010	-0.133
-437.749	-62.240	0.371	0.154
-436.734	-200.000	-0.037	-0.320
-435.719	131.055	0.056	-0.071
-434.705	9.374	-0.045	0.034
-433.690	302.096	0.129	-0.237
-432.676	-37.386	-0.128	0.068
-431.661	-108.054	0.298	0.064
-430.646	-133.571	0.048	-0.006
-429.632	251.495	-0.075	-0.127
-428.617	-56.239	0.335	-0.148
-427.603	-200.000	-0.038	-0.365
-426.588	-148.067	-0.280	0.023
-425.573	-52.222	-0.336	0.155
-424.559	-200.000	0.012	0.059
-423.544	-21.549	-0.067	-0.040
-422.530	-161.689	0.127	0.006
-421.515	800.000	0.053	-0.184
-420.500	-183.991	-0.181	0.003
-419.486	-200.000	0.002	-0.131
-418.471	800.000	-0.019	-0.070
-417.457	248.547	0.091	-0.152
-416.442	-200.000	-0.018	0.081
-415.428	138.339	0.201	0.261
-414.413	-55.304	-0.244	0.109
-413.398	-34.088	-0.129	-0.071
-412.384	-149.243	0.216	-0.017
-411.369	458.240	-0.098	0.216
-410.355	243.390	0.039	0.065
-409.340	-200.000	-0.039	0.259
-408.325	-77.069	-0.208	0.072
-407.311	37.767	-0.153	0.135
-406.296	-28.223	-0.199	-0.114
-405.282	-62.131	0.215	0.089
-404.267	53.344	-0.138	-0.131
-403.252	-89.941	-0.260	0.075
-402.238	-10.170	-0.089	0.059
-401.223	800.000	0.043	0.153
-400.209	-97.975	0.201	0.051
-399.194	274.912	0.093	-0.164
-398.179	-70.039	0.261	-0.099
-397.165	102.793	0.101	-0.118
-396.150	-71.465	-0.108	-0.040
-395.136	121.433	-0.123	-0.152
-394.121	72.754	0.109	-0.112
-393.106	230.816	-0.063	-0.103
-392.092	30.803	-0.154	0.131
-391.077	43.538	0.090	-0.082
-390.063	71.628	-0.149	-0.154
-389.048	76.539	0.203	0.214
-388.033	-121.520	-0.331	-0.055
-387.019	-96.956	0.344	-0.089
-386.004	202.567	0.101	-0.154
-384.990	-32.970	-0.107	0.059
-383.975	657.685	-0.091	-0.233
-382.960	-112.369	0.165	-0.033
-381.946	391.067	0.122	0.251
-380.931	202.985	-0.215	0.329
-379.917	375.225	0.048	0.098
-378.902	-200.000	-0.007	0.120
-377.888	675.018	-0.028	-0.071
-376.873	-69.588	0.216	-0.082
-375.858	21.521	-0.229	-0.185
-374.844	-200.000	0.028	0.186
-373.829	-92.335	0.098	-0.027
-372.815	800.000	0.036	0.141
-371.800	134.262	0.139	-0.179
-370.785	-130.510	0.136	0.018
-369.771	-5.154	0.246	-0.168
-368.756	-90.455	-0.043	0.012
-367.742	-200.000	-0.005	-0.186
-366.727	22.188	-0.316	0.256
-365.712	580.382	-0.034	-0.083
-364.698	-151.149	0.309	-0.023
-363.683	44.132	0.202	0.183
-362.669	316.610	0.231	-0.432
-361.654	-84.596	-0.261	-0.082
-360.639	-143.204	-0.198	-0.019
-359.625	178.544	-0.022	0.032
-358.610	301.361	-0.068	0.125
-357.596	-80.098	0.514	0.171
-356.581	-10.988	0.282	-0.184
-355.566	306.985	0.105	-0.194
-354.552	531.262	0.095	0.222
-353.537	-200.000	0.021	-0.199
-352.523	210.314	0.212	0.329
-351.508	86.398	-0.172	0.188
-350.493	696.084	0.058	0.151
-349.479	73.048	-0.069	0.072
-348.464	-135.499	-0.225	-0.027
-347.450	101.034	-0.139	0.160
-346.435	-10.830	-0.212	0.139
-345.420	-56.448	-0.314	-0.138
-344.406	-132.506	-0.239	0.030
-343.391	-14.297	0.237	0.151
-342.377	645.266	0.062	0.156
-341.362	-77.997	0.065	0.022
-340.348	332.423	0.061	0.116
-339.333	79.205	0.131	0.139
-338.318	-163.303	-0.385	-0.018
-337.304	-104.981	0.040	-0.009
-336.289	76.641	-0.062	0.065
-335.275	685.278	0.043	-0.110
-334.260	249.267	0.073	0.122
-333.245	-149.513	0.166	-0.013
-332.231	-189.693	0.105	0.001
-331.216	136.135	-0.147	-0.189
-330.202	183.033	0.135	-0.197
-329.187	31.453	-0.288	0.245
-328.172	-6.685	-0.250	-0.168
-327.158	316.398	0.164	-0.307
-326.143	-93.061	0.062	-0.017
-325.129	-46.461	0.280	-0.136
-324.114	-32.645	0.134	-0.074
-323.099	182.555	-0.238	0.348
-322.085	-123.148	0.041	0.007
-321.070	25.169	0.092	0.075
-320.056	-128.012	-0.122	-0.017
-319.041	-34.971	-0.233	-0.126
-318.026	-200.000	-0.029	-0.145
-317.012	-200.000	-0.042	0.200
-315.997	431.202	-0.064	0.138
-314.983	-108.564	0.270	0.057
-313.968	-200.000	-0.039	0.174
-312.953	-169.401	-0.226	0.008
-311.939	-200.000	-0.006	0.167
-310.924	-200.000	0.006	0.513
-309.910	-91.122	0.204	0.058
-308.895	109.577	0.079	0.094
-307.880	-73.091	-0.170	-0.062
-306.866	-200.000	0.042	-0.222
-305.851	800.000	0.083	-0.232
-304.837	-54.655	0.434	-0.194
-303.822	126.717	-0.163	-0.204
-302.807	367.353	-0.132	0.264
-301.793	294.294	-0.094	0.170
-300.778	238.850	0.050	0.082
-299.764	284.992	0.128	-0.227
-298.749	800.000	0.111	-0.358
-297.735	-22.321	-0.157	0.094
-296.720	-200.000	0.006	0.310
-295.705	37.499	0.114	-0.100
-294.691	-7.493	-0.220	-0.147
-293.676	800.000	-0.072	0.206
-292.662	-200.000	0.357	0.000
-291.647	-200.000	-0.034	0.151
-290.632	754.990	0.080	0.213
-289.618	-34.799	-0.166	0.090
-288.603	-78.900	-0.288	0.097
-287.589	92.734	0.144	0.160
-286.574	800.000	0.099	-0.305
-285.559	-165.688	0.163	-0.007
-284.545	336.538	-0.361	0.693
-283.530	119.541	0.158	0.194
-282.516	-158.269	-0.120	-0.007
-281.501	-200.000	0.020	-0.201
-280.486	-160.768	-0.257	-0.013
-279.472	37.179	0.145	0.127
-278.457	-67.298	-0.119	0.046
-277.443	-101.211	-0.234	-0.056
-276.428	-92.392	-0.132	0.037
-275.413	-200.000	0.018	0.112
-274.399	800.000	-0.051	0.220
-273.384	800.000	-0.012	-0.039
-272.370	-97.630	0.215	0.055
-271.355	754.262	-0.093	-0.249
-270.340	-200.000	-0.016	0.142
-269.326	-156.393	-0.257	0.016
-268.311	-167.609	0.142	-0.006
-267.297	-60.445	-0.136	-0.057
-266.282	-3.425	-0.136	0.093
-265.267	-200.000	0.056	0.423
-264.253	-73.500	-0.398	0.143
-263.238	800.000	0.006	-0.015
-262.224	800.000	0.075	0.244
-261.209	-200.000	-0.043	-0.270
-260.195	215.014	-0.157	0.245
-259.180	528.491	0.068	-0.157
-258.165	-48.626	0.066	0.031
-257.151	-200.000	-0.008	-0.503
-256.136	73.886	-0.118	-0.122
-255.122	-184.552	0.185	-0.003
-254.107	656.953	-0.169	0.428
-253.092	-95.894	-0.233	-0.061
-252.078	76.649	0.083	-0.087
-251.063	301.741	-0.121	-0.221
-250.049	-88.207	-0.321	-0.095
-249.034	800.000	0.067	0.222
-248.019	33.325	0.143	-0.123
-247.005	-23.916	0.184	-0.108
-245.990	-84.114	0.192	-0.060
-244.976	196.947	0.034	-0.051
-243.961	-192.094	0.068	0.001
-242.946	-60.301	0.458	0.192
-241.932	800.000	0.064	0.184
-240.917	-200.000	0.024	-0.143
-239.903	-74.796	-0.342	0.121
-238.888	-200.000	-0.013	-0.179
-237.873	-186.955	0.145	0.002
-236.859	-200.000	0.046	0.318
-235.844	111.810	-0.168	0.200
-234.830	388.477	0.046	-0.094
-233.815	-64.326	-0.172	-0.069
-232.800	-200.000	0.005	-0.111
-231.786	-200.000	0.004	-0.102
-230.771	93.388	0.099	0.111
-229.757	-155.052	-0.387	-0.025
-228.742	-200.000	0.031	0.483
-227.727	-118.148	0.202	0.035
-226.713	-56.336	-0.194	0.085
-225.698	-5.185	-0.306	0.207
-224.684	113.110	0.050	-0.059
-223.669	117.930	0.200	0.243
-222.655	800.000	-0.062	-0.234
-221.640	-200.000	-0.002	-0.247
-220.625	143.437	0.235	-0.308
-219.611	-62.639	-0.210	0.086
-218.596	6.122	0.215	0.157
-217.582	-176.131	-0.227	-0.006
-216.567	-27.732	-0.140	-0.080
-215.552	-55.164	0.167	-0.074
-214.538	253.876	0.039	-0.066
-213.523	-123.830	0.081	0.013
-212.509	-200.000	0.070	-0.401
-211.494	152.322	-0.138	0.186
-210.479	800.000	0.125	0.344
-209.465	800.000	-0.031	-0.086
-208.450	800.000	-0.045	0.125
-207.436	-98.915	-0.164	0.041
-206.421	-123.866	-0.084	-0.013
-205.406	-153.300	0.356	-0.024
-204.392	-22.736	0.418	-0.248
-203.377	81.619	-0.092	-0.098
-202.363	-157.662	0.204	-0.012
-201.348	-183.027	0.333	0.006
-200.333	-200.000	-0.020	0.214
-199.319	179.852	0.296	0.427
-198.304	800.000	0.085	0.260
-197.290	-92.575	0.190	-0.053
-196.275	-43.866	0.275	0.136
-195.260	-200.000	-0.027	-0.339
-194.246	-200.000	-0.104	-0.000
-193.231	534.679	-0.124	-0.289
-192.217	56.245	-0.078	-0.075
-191.202	-55.419	-0.264	0.116
-190.187	-58.597	-0.116	-0.049
-189.173	-200.000	-0.016	0.205
-188.158	-200.000	0.008	-0.249
-187.144	-121.502	0.231	0.038
-186.129	69.136	-0.037	0.037
-185.114	-85.762	-0.116	0.035
-184.100	-34.508	0.369	-0.199
-183.085	-96.226	-0.111	-0.029
-182.071	-89.105	-0.194	-0.056
-181.056	-80.418	0.304	-0.100
-180.042	32.237	-0.081	0.068
-179.027	-200.000	0.028	0.269
-178.012	109.596	-0.229	-0.270
-176.998	800.000	0.100	-0.341
-175.983	-157.524	0.443	0.026
-174.969	-59.113	-0.362	0.154
-173.954	-200.000	-0.090	0.404
-172.939	20.414	0.239	0.190
-171.925	-21.974	-0.181	0.108
-170.910	-171.821	0.150	-0.005
-169.896	86.872	-0.209	0.227
-168.881	0.263	0.074	0.052
-167.866	86.961	-0.229	0.249
-166.852	58.785	0.224	0.217
-165.837	40.336	0.259	-0.229
-164.823	800.000	0.072	-0.261
-163.808	286.493	-0.046	-0.081
-162.793	200.786	-0.091	0.138
-161.779	-200.000	-0.009	-0.367
-160.764	55.001	-0.090	0.085
-159.750	-142.439	0.114	0.011
-158.735	-9.370	0.255	-0.168
-157.720	219.428	0.041	0.064
-156.706	-11.319	0.199	-0.129
-155.691	-62.708	-0.035	0.014
-154.677	21.890	0.211	0.169
-153.662	783.580	-0.037	-0.101
-152.647	-128.866	0.429	-0.059
-151.633	-85.166	0.242	0.074
-150.618	96.859	0.005	0.006
-149.604	-45.873	0.225	0.109
-148.589	225.888	0.147	-0.234
-147.574	800.000	-0.040	-0.168
-146.560	-38.990	-0.302	0.156
-145.545	-189.593	0.419	0.005
-144.531	84.376	-0.139	-0.149
-143.516	154.034	0.244	0.329
-142.502	800.000	-0.105	0.374
-141.487	257.872	-0.052	0.089
-140.472	108.347	0.086	-0.101
-139.458	-48.025	-0.121	0.057
-138.443	-200.000	0.004	-0.251
-137.429	-90.597	-0.215	0.061
-136.414	-93.970	0.110	-0.030
-135.399	800.000	0.065	-0.211
-134.385	800.000	-0.104	-0.286
-133.370	10.703	-0.232	-0.173
-132.356	-27.789	-0.118	-0.067
-131.341	-1.380	-0.220	-0.152
-130.326	142.692	-0.152	-0.199
-129.312	-200.000	-0.009	0.221
-128.297	309.401	-0.109	-0.201
-127.283	385.346	0.076	0.155
-126.268	-166.347	-0.044	0.002
-125.253	116.254	-0.339	-0.408
-124.239	800.000	0.013	0.035
-123.224	800.000	0.059	0.204
-122.210	14.344	0.070	0.053
