DTS Sentinel unit serial number:	SN413079Multiplexer serial number:	ORYXHardware model number:	OX4-SRSoftware version number:	ORYX F/W v4.00 Oryx Data Collector v3.7.2.0data status	okinstallation	princeton_trtdifferential loss correction	single-endedforward channel	channel 2reverse channel	N/Adate	2019/09/19time	12:55:35forward acquisition time	60.00reverse acquisition time	0.00gamma	496.2192k internal	0.2332k external	0.2332temperature offset calibration	1.0015default loss term (dB/km)	0.3790temperature slope calibration	1.0000multiplexer offset coefficient	1.0000multiplexer slope coefficient	1.0000fibre end	0.00T internal ref (°C)	28.37T ext. ref 1 (°C)	0.91T ext. ref 2 (°C)	26.67length (m)	temperature (°C)	Stokes	anti-Stokes-747.200	363.153	0.171	0.345
-746.185	-40.380	-0.260	0.136
-745.171	251.324	0.082	0.140
-744.156	131.550	-0.207	-0.268
-743.142	109.155	-0.223	0.268
-742.127	376.573	-0.169	0.347
-741.112	438.130	-0.101	-0.222
-740.098	-200.000	0.031	0.144
-739.083	362.412	0.123	-0.248
-738.069	800.000	-0.030	-0.109
-737.054	-19.742	-0.092	-0.057
-736.039	800.000	-0.056	0.193
-735.025	162.288	-0.141	0.199
-734.010	271.805	0.031	-0.054
-732.996	-67.308	-0.214	-0.084
-731.981	-57.540	-0.117	-0.052
-730.966	-175.989	-0.142	0.004
-729.952	786.347	-0.031	0.086
-728.937	-200.000	-0.024	-0.136
-727.923	-115.109	-0.257	0.049
-726.908	333.765	-0.113	0.220
-725.894	-7.149	-0.138	0.094
-724.879	-87.841	-0.091	-0.027
-723.864	170.952	0.104	0.150
-722.850	-200.000	-0.023	-0.285
-721.835	-200.000	-0.017	0.176
-720.821	-79.131	0.110	-0.038
-719.806	349.299	-0.129	-0.256
-718.791	-200.000	-0.018	-0.080
-717.777	-200.000	-0.010	-0.345
-716.762	-14.636	0.020	-0.013
-715.748	462.290	0.142	-0.318
-714.733	-200.000	0.025	0.225
-713.718	431.007	-0.171	-0.372
-712.704	800.000	0.098	-0.383
-711.689	133.250	0.080	-0.103
-710.675	-18.202	-0.205	-0.129
-709.660	136.132	-0.175	-0.229
-708.645	-200.000	-0.053	0.302
-707.631	182.877	-0.052	-0.077
-706.616	800.000	0.034	-0.104
-705.602	64.675	-0.202	-0.204
-704.587	-200.000	-0.042	-0.277
-703.572	408.598	-0.077	-0.164
-702.558	-131.376	0.253	-0.034
-701.543	-63.078	-0.155	0.064
-700.529	90.669	0.140	-0.157
-699.514	77.319	-0.102	-0.109
-698.499	-147.770	-0.006	0.001
-697.485	-41.999	-0.237	0.122
-696.470	-15.473	-0.127	-0.081
-695.456	-95.861	-0.445	-0.119
-694.441	-149.219	-0.219	0.018
-693.426	-200.000	0.016	-0.289
-692.412	-92.098	0.370	0.105
-691.397	-157.298	0.098	-0.006
-690.383	-200.000	-0.043	-0.229
-689.368	41.428	0.122	-0.111
-688.354	30.540	-0.333	-0.286
-687.339	16.947	-0.166	-0.132
-686.324	11.686	-0.236	-0.182
-685.310	-200.000	-0.015	0.200
-684.295	-96.886	0.078	-0.021
-683.281	138.489	0.167	0.220
-682.266	-51.138	0.119	0.056
-681.251	800.000	0.057	-0.179
-680.237	111.765	0.151	0.183
-679.222	364.103	-0.158	-0.320
-678.208	-120.684	-0.202	-0.034
-677.193	132.011	-0.191	-0.247
-676.178	25.270	0.167	0.139
-675.164	-25.916	0.212	0.125
-674.149	397.110	-0.228	-0.478
-673.135	800.000	-0.132	-0.447
-672.120	-86.071	-0.082	-0.025
-671.105	8.124	0.021	0.016
-670.091	-200.000	-0.027	0.255
-669.076	731.630	-0.241	0.647
-668.062	-71.002	-0.030	-0.011
-667.047	5.745	-0.228	0.169
-666.032	-200.000	-0.012	-0.120
-665.018	-165.476	0.150	-0.007
-664.003	-131.944	0.180	-0.024
-662.989	391.067	0.064	0.132
-661.974	-14.651	0.126	-0.081
-660.959	56.936	0.079	-0.078
-659.945	170.044	-0.189	-0.271
-658.930	225.071	0.157	-0.255
-657.916	-140.073	-0.244	-0.026
-656.901	183.129	0.137	-0.203
-655.886	-66.318	0.077	0.031
-654.872	-200.000	-0.021	0.228
-653.857	-21.987	-0.177	0.108
-652.843	-121.630	0.227	-0.038
-651.828	-8.887	-0.225	0.151
-650.814	127.832	-0.069	0.088
-649.799	-157.163	0.453	0.028
-648.784	-200.000	-0.006	0.252
-647.770	81.496	-0.184	0.199
-646.755	-64.370	0.279	-0.114
-645.741	-200.000	0.043	-0.347
-644.726	-200.000	0.008	-0.263
-643.711	17.361	-0.138	-0.110
-642.697	-62.282	0.261	-0.109
-641.682	-50.571	-0.195	-0.092
-640.668	179.356	0.079	0.116
-639.653	75.732	0.169	-0.178
-638.638	-70.329	-0.103	-0.039
-637.624	-200.000	0.032	0.404
-636.609	64.069	0.259	0.261
-635.595	-77.431	0.166	0.058
-634.580	-99.205	-0.148	0.038
-633.565	166.245	0.112	-0.158
-632.551	-136.618	-0.420	-0.049
-631.536	-200.000	-0.021	-0.218
-630.522	-68.668	0.347	0.134
-629.507	-187.294	0.049	0.001
-628.492	-115.401	0.105	0.020
-627.478	169.714	-0.161	-0.230
-626.463	-59.633	-0.097	-0.042
-625.449	-174.014	-0.235	-0.007
-624.434	-200.000	0.001	0.051
-623.419	-161.408	-0.200	0.010
-622.405	-133.383	-0.273	-0.034
-621.390	800.000	0.026	-0.080
-620.376	-82.203	0.242	-0.079
-619.361	-200.000	0.045	-0.256
-618.346	154.382	-0.265	-0.364
-617.332	800.000	-0.048	-0.151
-616.317	-200.000	-0.025	0.237
-615.303	289.177	0.181	-0.328
-614.288	-200.000	0.010	-0.085
-613.273	6.141	0.291	-0.216
-612.259	601.435	-0.071	-0.177
-611.244	-200.000	0.022	0.216
-610.230	-69.406	-0.207	0.079
-609.215	-73.473	-0.235	-0.086
-608.201	235.789	0.164	0.271
-607.186	-200.000	-0.007	0.139
-606.171	410.644	0.062	0.132
-605.157	800.000	0.047	-0.142
-604.142	-87.807	0.268	0.081
-603.128	8.126	0.163	0.123
-602.113	-200.000	0.021	-0.116
-601.098	800.000	0.003	-0.011
-600.084	515.497	-0.090	-0.210
-599.069	-193.157	-0.192	0.002
-598.055	187.135	-0.100	0.149
-597.040	24.729	-0.280	-0.232
-596.025	-114.747	-0.158	-0.030
-595.011	39.965	-0.277	0.249
-593.996	-200.000	0.072	0.388
-592.982	-200.000	-0.008	0.253
-591.967	-200.000	0.009	-0.100
-590.952	800.000	0.060	-0.194
-589.938	-81.299	-0.186	0.061
-588.923	-200.000	-0.041	0.191
-587.909	800.000	0.085	0.274
-586.894	371.619	0.165	-0.335
-585.879	-125.766	-0.229	0.035
-584.865	-200.000	0.034	0.290
-583.850	35.521	0.199	0.174
-582.836	-172.841	0.293	0.009
-581.821	-82.294	0.160	-0.052
-580.806	-131.696	-0.377	-0.049
-579.792	355.179	-0.023	-0.045
-578.777	-84.656	0.144	0.045
-577.763	211.892	0.047	0.074
-576.748	57.117	0.244	0.238
-575.733	-22.821	-0.116	0.070
-574.719	-31.300	-0.125	0.070
-573.704	-60.789	-0.204	-0.086
-572.690	-143.352	0.117	0.011
-571.675	52.487	0.242	-0.231
-570.661	187.911	-0.141	0.210
-569.646	-123.237	0.043	0.007
-568.631	-86.535	0.197	0.060
-567.617	-200.000	-0.001	0.047
-566.602	-127.472	-0.277	-0.040
-565.588	-200.000	-0.034	0.199
-564.573	228.063	0.270	0.439
-563.558	7.078	0.155	0.115
-562.544	-200.000	-0.045	-0.253
-561.529	-200.000	-0.008	-0.122
-560.515	85.289	-0.103	0.113
-559.500	-200.000	0.011	-0.313
-558.485	251.623	-0.070	0.120
-557.471	3.394	-0.101	0.073
-556.456	-200.000	-0.002	0.391
-555.442	-47.174	0.331	0.161
-554.427	117.281	0.067	0.083
-553.412	800.000	-0.049	0.192
-552.398	113.401	0.129	0.157
-551.383	81.529	-0.238	-0.257
-550.369	85.908	-0.190	0.209
-549.354	-200.000	0.007	0.274
-548.339	-38.547	0.231	0.122
-547.325	155.506	-0.150	-0.207
-546.310	12.131	0.295	-0.227
-545.296	800.000	-0.067	-0.190
-544.281	-200.000	0.002	0.054
-543.266	16.801	0.254	0.201
-542.252	-23.457	-0.128	-0.077
-541.237	-62.773	0.182	0.075
-540.223	-200.000	-0.011	0.070
-539.208	-200.000	0.009	-0.345
-538.193	244.944	0.245	-0.411
-537.179	-87.699	-0.050	-0.015
-536.164	519.947	-0.045	-0.105
-535.150	-200.000	-0.021	-0.162
-534.135	800.000	-0.100	0.286
-533.121	-67.309	0.287	0.113
-532.106	-200.000	0.012	-0.072
-531.091	-43.440	-0.318	0.160
-530.077	158.614	-0.179	0.248
-529.062	-200.000	0.008	0.150
-528.048	-116.688	0.260	0.048
-527.033	-22.779	-0.179	-0.108
-526.018	544.672	0.090	-0.214
-525.004	-139.262	-0.086	0.009
-523.989	7.103	-0.087	-0.064
-522.975	-130.339	0.118	0.016
-521.960	-101.720	-0.317	-0.077
-520.945	110.286	0.064	-0.077
-519.931	-82.140	0.356	-0.116
-518.916	8.974	-0.218	0.164
-517.902	-70.500	0.223	0.084
-516.887	-30.450	0.129	-0.073
-515.872	-200.000	0.047	0.209
-514.858	800.000	-0.090	0.313
-513.843	590.974	0.058	-0.143
-512.829	643.058	-0.104	-0.265
-511.814	-145.595	-0.212	-0.019
-510.799	256.133	0.245	0.419
-509.785	171.520	0.064	0.091
-508.770	534.724	-0.048	0.114
-507.756	-142.299	-0.274	0.027
-506.741	-92.955	-0.370	0.103
-505.726	17.490	-0.290	0.230
-504.712	-90.926	0.302	0.087
-503.697	-100.448	-0.391	0.096
-502.683	105.959	-0.158	0.187
-501.668	260.101	0.134	0.231
-500.653	-200.000	0.010	-0.047
-499.639	-200.000	0.029	0.191
-498.624	-153.404	-0.395	-0.027
-497.610	-13.908	-0.179	-0.116
-496.595	-43.377	-0.022	0.011
-495.581	-136.758	0.089	0.010
-494.566	-116.716	0.247	0.045
-493.551	-200.000	-0.379	-0.001
-492.537	136.370	0.233	-0.302
-491.522	-176.069	0.257	-0.007
-490.508	287.699	0.169	0.304
-489.493	36.847	0.191	-0.168
-488.478	-82.349	-0.168	0.055
-487.464	800.000	0.085	0.295
-486.449	-140.048	0.686	-0.072
-485.435	-120.348	0.265	0.045
-484.420	800.000	0.015	-0.047
-483.405	417.128	0.150	-0.319
-482.391	588.601	-0.133	-0.325
-481.376	268.396	0.101	-0.177
-480.362	-86.075	-0.189	-0.058
-479.347	-200.000	-0.009	-0.080
-478.332	-88.996	-0.323	-0.095
-477.318	-57.490	0.200	0.088
-476.303	-200.000	-0.033	-0.184
-475.289	-200.000	0.051	-0.224
-474.274	413.029	0.028	-0.060
-473.259	-200.000	-0.003	0.016
-472.245	-173.232	0.136	0.004
-471.230	725.925	0.082	-0.217
-470.216	-156.180	-0.315	0.020
-469.201	-87.515	0.056	0.017
-468.186	-200.000	0.011	-0.164
-467.172	-119.324	0.112	0.019
-466.157	-200.000	0.018	-0.135
-465.143	-89.278	-0.339	0.099
-464.128	30.485	0.098	-0.083
-463.113	-200.000	-0.040	-0.191
-462.099	-118.035	0.151	0.027
-461.084	243.107	-0.128	0.213
-460.070	800.000	-0.077	0.308
-459.055	-80.934	-0.030	-0.010
-458.040	-118.069	0.057	0.010
-457.026	-200.000	-0.030	0.233
-456.011	423.203	-0.049	-0.105
-454.997	43.712	-0.241	-0.219
-453.982	127.536	0.127	0.161
-452.968	-39.605	0.155	-0.081
-451.953	94.274	-0.245	-0.277
-450.938	58.707	-0.265	-0.259
-449.924	-100.378	-0.168	-0.041
-448.909	116.952	0.140	0.171
-447.895	-35.396	-0.149	0.081
-446.880	800.000	0.066	0.263
-445.865	-71.269	0.152	-0.057
-444.851	-200.000	0.031	-0.257
-443.836	231.874	0.079	0.128
-442.822	-80.236	0.103	-0.034
-441.807	486.092	-0.116	-0.262
-440.792	704.742	0.082	0.216
-439.778	590.237	0.116	-0.285
-438.763	-200.000	-0.013	-0.261
-437.749	800.000	0.065	-0.197
-436.734	322.816	0.140	-0.265
-435.719	800.000	0.047	0.140
-434.705	-129.608	-0.354	-0.049
-433.690	-24.326	0.343	-0.203
-432.676	289.147	-0.155	-0.279
-431.661	-87.747	0.195	-0.058
-430.646	-46.401	-0.247	-0.120
-429.632	-200.000	0.029	-0.233
-428.617	800.000	0.057	-0.248
-427.603	63.783	0.138	0.138
-426.588	-32.239	0.296	0.164
-425.573	3.750	0.130	0.094
-424.559	-142.621	-0.172	-0.017
-423.544	513.579	0.055	-0.128
-422.530	800.000	0.116	0.414
-421.515	-95.250	-0.083	-0.022
-420.500	130.288	0.103	-0.132
-419.486	-138.129	0.442	-0.049
-418.471	-200.000	0.021	-0.124
-417.457	-19.755	0.154	0.094
-416.442	-200.000	0.016	0.120
-415.428	-57.905	-0.207	0.090
-414.413	-69.675	0.248	0.094
-413.398	800.000	-0.035	-0.147
-412.384	634.698	-0.117	0.296
-411.369	-200.000	0.000	0.238
-410.355	800.000	0.126	-0.460
-409.340	-200.000	0.033	0.201
-408.325	276.694	0.116	-0.204
-407.311	-38.047	0.223	-0.117
-406.296	-200.000	0.031	0.210
-405.282	-14.248	-0.212	0.135
-404.267	197.028	-0.158	0.238
-403.252	-79.641	-0.169	0.056
-402.238	-20.724	-0.183	0.111
-401.223	-55.281	-0.312	0.139
-400.209	-200.000	-0.007	0.174
-399.194	96.609	-0.139	0.158
-398.179	800.000	0.140	0.416
-397.165	-53.103	-0.380	0.173
-396.150	294.341	-0.140	-0.255
-395.136	-43.764	-0.311	0.156
-394.121	75.399	-0.084	-0.088
-393.106	609.368	-0.017	-0.043
-392.092	800.000	-0.107	0.414
-391.077	-63.043	-0.220	-0.090
-390.063	-149.567	0.232	-0.018
-389.048	117.566	0.111	-0.135
-388.033	434.259	-0.161	-0.346
-387.019	232.811	-0.081	-0.132
-386.004	800.000	-0.059	0.204
-384.990	-200.000	0.004	0.098
-383.975	-97.587	0.331	0.085
-382.960	48.910	0.225	0.210
-381.946	-12.273	-0.266	-0.172
-380.931	262.174	-0.048	0.083
-379.917	-153.134	0.052	-0.004
-378.902	201.953	-0.169	0.259
-377.888	20.852	0.088	-0.071
-376.873	-14.122	0.078	0.050
-375.858	-12.871	-0.280	-0.181
-374.844	-107.140	-0.334	0.073
-373.829	30.961	0.065	0.055
-372.815	-115.632	-0.048	-0.009
-371.800	38.697	-0.238	0.210
-370.785	800.000	0.037	-0.104
-369.771	471.605	0.090	0.201
-368.756	21.992	-0.130	0.105
-367.742	89.757	0.164	-0.181
-366.727	-0.120	0.152	-0.107
-365.712	-200.000	0.067	-0.353
-364.698	-200.000	0.006	-0.199
-363.683	-19.505	0.221	-0.136
-362.669	24.670	0.388	-0.318
-361.654	-53.841	0.076	0.034
-360.639	-120.087	-0.319	0.054
-359.625	7.634	0.243	-0.180
-358.610	-78.540	-0.131	-0.044
-357.596	-200.000	-0.009	0.125
-356.581	131.848	0.124	-0.158
-355.566	-10.571	0.104	-0.068
-354.552	-81.699	-0.305	0.099
-353.537	-200.000	-0.019	0.176
-352.523	-142.384	0.296	-0.029
-351.508	-67.524	0.394	-0.153
-350.493	800.000	0.073	-0.261
-349.479	800.000	-0.100	0.384
-348.464	-200.000	-0.028	0.402
-347.450	-109.745	-0.336	0.070
-346.435	-111.834	0.195	0.039
-345.420	174.045	0.248	-0.354
-344.406	79.747	0.071	0.075
-343.391	305.135	-0.142	-0.261
-342.377	-81.043	-0.126	0.041
-341.362	-200.000	0.025	-0.138
-340.348	150.236	-0.183	-0.246
-339.333	-7.257	-0.221	-0.148
-338.318	-200.000	0.007	-0.258
-337.304	-200.000	-0.044	0.212
-336.289	244.703	-0.074	0.123
-335.275	114.996	0.152	0.183
-334.260	-103.800	-0.011	0.002
-333.245	-142.397	0.289	-0.028
-332.231	67.530	0.171	0.173
-331.216	-170.739	-0.390	-0.013
-330.202	-80.778	-0.097	-0.032
-329.187	-200.000	-0.085	0.396
-328.172	40.143	0.039	-0.035
-327.158	800.000	-0.040	0.130
-326.143	-55.361	0.072	-0.032
-325.129	-200.000	0.180	0.000
-324.114	702.913	0.033	0.087
-323.099	-0.973	0.369	0.258
-322.085	800.000	-0.095	-0.354
-321.070	121.786	0.108	-0.134
-320.056	-83.501	0.017	-0.006
-319.041	-29.665	0.312	0.176
-318.026	-60.073	0.251	0.106
-317.012	14.318	-0.147	-0.113
-315.997	28.006	0.237	0.197
-314.983	-101.441	-0.156	0.038
-313.968	-127.735	-0.189	-0.027
-312.953	800.000	0.062	0.235
-311.939	-100.720	0.122	0.030
-310.924	62.660	0.155	0.153
-309.910	-14.896	0.141	0.089
-308.895	800.000	-0.114	-0.423
-307.880	-133.896	0.280	0.034
-306.866	315.247	0.084	-0.157
-305.851	130.185	-0.209	-0.265
-304.837	-200.000	-0.030	0.279
-303.822	-130.460	0.047	-0.006
-302.807	-108.649	0.261	-0.055
-301.793	-102.609	0.167	-0.039
-300.778	800.000	-0.023	-0.065
-299.764	800.000	0.056	-0.169
-298.749	-200.000	0.053	0.323
-297.735	8.117	-0.267	0.198
-296.720	250.434	-0.041	0.069
-295.705	465.479	-0.050	-0.110
-294.691	-200.000	-0.068	-0.332
-293.676	-200.000	-0.004	0.209
-292.662	800.000	0.025	-0.074
-291.647	-137.961	-0.085	0.009
-290.632	52.093	-0.143	-0.135
-289.618	-28.200	-0.029	0.017
-288.603	-107.526	0.123	0.027
-287.589	-200.000	-0.011	0.131
-286.574	-69.700	-0.170	0.064
-285.559	-48.395	0.189	-0.090
-284.545	364.446	0.021	-0.042
-283.530	259.324	0.186	0.318
-282.516	-96.830	0.265	0.069
-281.501	311.994	-0.106	0.196
-280.486	705.531	-0.069	0.180
-279.472	800.000	-0.030	-0.114
-278.457	-12.232	0.251	0.162
-277.443	800.000	0.041	-0.114
-276.428	44.552	-0.178	0.161
-275.413	39.845	-0.143	-0.127
-274.399	-200.000	0.016	0.162
-273.384	50.075	-0.145	-0.135
-272.370	-93.060	-0.148	0.041
-271.355	-200.000	-0.011	-0.401
-270.340	279.555	0.081	-0.143
-269.326	-111.005	-0.262	-0.053
-268.311	222.199	-0.180	-0.285
-267.297	-161.869	-0.041	0.002
-266.282	-61.979	0.355	-0.146
-265.267	-200.000	0.017	-0.158
-264.253	-124.016	-0.139	0.022
-263.238	-99.854	0.122	0.030
-262.224	134.400	-0.044	0.056
-261.209	-51.778	-0.122	-0.056
-260.195	356.212	-0.067	0.131
-259.180	-109.008	-0.187	-0.039
-258.165	198.467	0.190	-0.287
-257.151	-114.447	-0.197	0.037
-256.136	-90.931	-0.345	-0.098
-255.122	92.784	-0.186	0.208
-254.107	662.865	-0.033	-0.084
-253.092	488.830	0.109	0.245
-252.078	-108.617	-0.364	0.077
-251.063	323.491	-0.100	0.188
-250.049	-66.396	-0.136	-0.053
-249.034	-96.587	0.087	0.023
-248.019	-14.055	-0.271	0.173
-247.005	800.000	-0.163	-0.443
-245.990	162.931	-0.231	-0.320
-244.976	800.000	0.069	0.268
-243.961	-84.419	-0.118	0.037
-242.946	156.415	-0.068	0.092
-241.932	-200.000	-0.037	-0.179
-240.917	737.941	-0.141	-0.374
-239.903	-79.722	0.178	0.059
-238.888	-116.094	0.112	-0.021
-237.873	-83.953	-0.219	0.069
-236.859	430.697	0.191	-0.407
-235.844	1.862	0.058	-0.042
-234.830	-200.000	0.015	0.174
-233.815	667.787	0.060	0.153
-232.800	-200.000	-0.007	-0.030
-231.786	133.532	0.029	-0.037
-230.771	477.414	-0.076	0.170
-229.757	800.000	-0.019	-0.077
-228.742	30.903	-0.089	-0.075
-227.727	603.477	0.115	-0.281
-226.713	-52.379	0.413	-0.189
-225.698	250.939	-0.077	0.129
-224.684	37.475	0.214	-0.187
-223.669	216.996	-0.146	0.230
-222.655	-160.743	0.363	0.019
-221.640	800.000	-0.038	-0.149
-220.625	29.745	0.246	0.207
-219.611	471.039	-0.096	0.212
-218.596	-77.242	-0.211	0.072
-217.582	-110.386	0.270	0.055
-216.567	21.105	0.272	0.217
-215.552	-200.000	0.018	0.131
-214.538	-87.745	0.063	-0.019
-213.523	96.008	0.122	-0.138
-212.509	-12.509	-0.147	0.094
-211.494	800.000	-0.023	-0.082
-210.479	-1.592	0.040	0.028
-209.465	-34.451	-0.207	-0.112
-208.450	-21.807	-0.209	0.125
-207.436	-84.593	0.215	0.067
-206.421	-200.000	-0.012	-0.124
-205.406	-168.987	-0.273	-0.010
-204.392	286.035	0.125	0.221
-203.377	464.107	0.078	0.171
-202.363	-40.249	0.256	-0.131
-201.348	470.171	0.072	-0.159
-200.333	-200.000	-0.014	-0.271
-199.319	95.805	0.087	0.097
-198.304	20.628	0.232	-0.185
-197.290	-62.060	-0.062	-0.025
-196.275	62.792	0.095	0.094
-195.260	98.411	-0.192	-0.217
-194.246	800.000	0.021	-0.066
-193.231	132.259	-0.223	0.283
-192.217	-200.000	0.057	0.311
-191.202	38.259	0.189	0.165
-190.187	38.752	-0.099	0.087
-189.173	42.563	-0.170	-0.152
-188.158	-129.395	0.185	0.025
-187.144	-30.062	-0.025	-0.014
-186.129	-118.233	-0.155	-0.027
-185.114	-39.432	-0.098	0.050
-184.100	-49.058	-0.166	0.078
-183.085	87.151	-0.131	0.143
-182.071	43.956	-0.199	0.179
-181.056	-200.000	-0.007	-0.162
-180.042	-93.458	0.291	0.079
-179.027	148.236	-0.080	-0.106
-178.012	289.793	0.101	-0.180
-176.998	-200.000	-0.034	-0.226
-175.983	-112.349	0.053	-0.010
-174.969	-200.000	-0.047	-0.315
-173.954	-132.611	-0.274	0.035
-172.939	800.000	0.053	0.179
-171.925	173.170	0.046	0.065
-170.910	800.000	0.041	0.123
-169.896	800.000	-0.078	-0.239
-168.881	-41.825	0.117	-0.059
-167.866	800.000	-0.051	0.172
-166.852	800.000	0.080	-0.261
-165.837	-57.384	-0.313	-0.135
-164.823	67.829	0.257	0.258
-163.808	-200.000	-0.005	0.339
-162.793	800.000	0.052	0.149
-161.779	725.725	-0.049	-0.128
-160.764	33.542	-0.173	-0.148
-159.750	-43.536	0.200	-0.099
-158.735	800.000	0.108	0.333
-157.720	-106.399	-0.560	-0.123
-156.706	800.000	0.102	-0.324
-155.691	2.281	0.257	0.183
-154.677	72.501	-0.052	-0.053
-153.662	-200.000	0.045	-0.287
-152.647	-40.114	-0.251	0.129
-151.633	48.284	-0.247	-0.227
-150.618	38.592	0.097	0.085
-149.604	-92.058	-0.310	0.086
-148.589	-72.941	0.364	-0.132
-147.574	-76.917	-0.295	-0.101
-146.560	800.000	0.048	0.141
-145.545	89.651	-0.153	0.168
-144.531	-1.816	0.253	-0.175
-143.516	61.862	0.121	-0.119
-142.502	-89.607	0.311	0.090
-141.487	103.193	-0.162	-0.187
-140.472	-200.000	0.074	-0.460
-139.458	31.117	0.178	-0.150
-138.443	86.505	-0.081	0.088
-137.429	260.246	-0.064	0.108
-136.414	-200.000	0.010	-0.246
-135.399	-200.000	0.027	-0.233
-134.385	114.499	-0.093	0.111
-133.370	143.793	0.237	-0.310
-132.356	34.114	-0.090	-0.077
-131.341	-10.883	-0.190	0.123
-130.326	108.264	0.155	-0.182
-129.312	527.850	-0.136	-0.314
-128.297	11.808	0.142	-0.107
-127.283	-125.782	0.258	0.038
-126.268	-124.782	0.209	-0.032
-125.253	379.081	-0.190	-0.381
-124.239	-200.000	-0.024	-0.118
-123.224	168.201	-0.067	-0.093
-122.210	359.274	0.067	0.132
