DTS Sentinel unit serial number:	SN413079Multiplexer serial number:	ORYXHardware model number:	OX4-SRSoftware version number:	ORYX F/W v4.00 Oryx Data Collector v3.7.2.0data status	okinstallation	princeton_trtdifferential loss correction	single-endedforward channel	channel 2reverse channel	N/Adate	2019/09/16time	13:59:35forward acquisition time	60.00reverse acquisition time	0.00gamma	496.2192k internal	0.2295k external	0.2295temperature offset calibration	0.9941default loss term (dB/km)	0.3790temperature slope calibration	1.0000multiplexer offset coefficient	1.0000multiplexer slope coefficient	1.0000fibre end	0.00T internal ref (°C)	42.39T ext. ref 1 (°C)	14.02T ext. ref 2 (°C)	37.60length (m)	temperature (°C)	Stokes	anti-Stokes-747.200	338.487	0.124	-0.247
-746.185	-107.653	0.190	0.042
-745.171	-15.918	-0.080	-0.052
-744.156	92.211	0.082	0.095
-743.142	-200.000	0.030	-0.207
-742.127	-13.952	-0.277	0.183
-741.112	55.149	0.255	-0.252
-740.098	800.000	0.036	0.156
-739.083	-200.000	0.011	-0.320
-738.069	720.913	-0.050	0.135
-737.054	-200.000	-0.035	0.347
-736.039	-35.031	-0.359	0.200
-735.025	141.159	0.040	-0.054
-734.010	-185.733	-0.035	0.001
-732.996	-47.725	-0.485	0.241
-731.981	-200.000	0.017	0.082
-730.966	34.510	-0.121	0.108
-729.952	-114.343	0.308	0.061
-728.937	-200.000	-0.014	0.260
-727.923	-97.366	-0.226	-0.060
-726.908	292.937	-0.033	0.061
-725.894	-89.481	-0.106	0.032
-724.879	-58.334	-0.271	-0.120
-723.864	-122.277	0.088	-0.015
-722.850	800.000	0.042	0.127
-721.835	331.964	-0.152	0.300
-720.821	292.153	-0.172	-0.320
-719.806	296.668	-0.194	-0.364
-718.791	-8.297	-0.174	-0.119
-717.777	-200.000	-0.006	-0.041
-716.762	-47.097	-0.165	-0.082
-715.748	-200.000	0.008	-0.259
-714.733	179.340	-0.033	0.050
-713.718	-101.018	0.328	-0.082
-712.704	-200.000	0.047	-0.330
-711.689	-32.301	-0.171	0.098
-710.675	34.046	-0.180	-0.160
-709.660	34.408	-0.006	-0.005
-708.645	90.693	-0.308	0.353
-707.631	-25.249	-0.185	0.112
-706.616	61.737	0.058	-0.059
-705.602	15.162	0.237	0.189
-704.587	-200.000	0.060	-0.313
-703.572	800.000	0.056	-0.220
-702.558	-200.000	-0.027	0.203
-701.543	149.902	-0.109	-0.151
-700.529	316.170	-0.053	-0.103
-699.514	304.009	-0.049	0.093
-698.499	-58.534	0.400	-0.177
-697.485	-200.000	-0.022	-0.170
-696.470	357.741	-0.028	0.058
-695.456	800.000	0.027	-0.098
-694.441	108.103	0.055	-0.067
-693.426	-38.276	0.071	0.038
-692.412	-173.580	0.195	0.006
-691.397	11.578	-0.297	0.232
-690.383	67.256	-0.213	-0.222
-689.368	-37.428	0.099	-0.054
-688.354	-200.000	0.011	-0.117
-687.339	6.441	0.243	-0.184
-686.324	179.503	-0.214	-0.320
-685.310	-200.000	-0.008	-0.407
-684.295	800.000	-0.088	-0.269
-683.281	714.671	0.100	-0.270
-682.266	-9.566	-0.086	-0.058
-681.251	743.847	0.122	-0.335
-680.237	-200.000	-0.064	0.322
-679.222	1.207	-0.331	-0.242
-678.208	-200.000	-0.034	-0.492
-677.193	-39.814	0.128	-0.068
-676.178	53.847	0.171	-0.168
-675.164	619.901	0.112	0.287
-674.149	158.347	-0.236	0.334
-673.135	192.578	0.053	0.081
-672.120	206.142	0.143	-0.227
-671.105	-12.261	-0.411	0.274
-670.091	-5.760	-0.170	0.118
-669.076	-93.326	-0.373	-0.105
-668.062	800.000	-0.100	-0.391
-667.047	-79.283	0.104	0.036
-666.032	-133.612	-0.124	0.016
-665.018	350.688	-0.040	-0.080
-664.003	65.842	0.132	-0.136
-662.989	-71.631	-0.130	-0.050
-661.974	-200.000	-0.037	0.251
-660.959	-161.095	-0.227	0.012
-659.945	156.745	0.167	-0.235
-658.930	800.000	-0.064	-0.213
-657.916	-200.000	0.005	-0.088
-656.901	155.722	0.146	0.206
-655.886	143.305	0.094	-0.127
-654.872	800.000	-0.151	-0.470
-653.857	-200.000	0.017	0.122
-652.843	-200.000	-0.048	-0.496
-651.828	-107.262	0.149	0.033
-650.814	-71.494	-0.173	-0.066
-649.799	-200.000	0.004	-0.099
-648.784	51.013	0.237	0.229
-647.770	254.515	0.062	-0.109
-646.755	182.589	0.068	0.102
-645.741	190.910	-0.249	0.382
-644.726	800.000	0.048	0.206
-643.711	100.863	0.113	-0.134
-642.697	-10.830	-0.126	-0.085
-641.682	105.433	-0.121	0.146
-640.668	-109.862	-0.123	-0.026
-639.653	-22.872	-0.194	-0.119
-638.638	-80.293	0.285	-0.097
-637.624	10.131	-0.208	0.161
-636.609	205.068	0.006	0.010
-635.595	-35.691	-0.183	0.101
-634.580	800.000	0.095	0.357
-633.565	-156.766	0.109	0.007
-632.551	800.000	-0.057	0.227
-631.536	97.739	-0.102	0.119
-630.522	800.000	-0.090	0.362
-629.507	679.950	-0.140	-0.372
-628.492	-200.000	-0.022	0.167
-627.478	392.603	0.074	-0.157
-626.463	23.655	-0.200	-0.167
-625.449	800.000	-0.062	-0.210
-624.434	-70.313	0.096	0.037
-623.419	54.540	0.194	0.191
-622.405	-200.000	-0.033	-0.158
-621.390	-200.000	-0.025	-0.164
-620.376	-182.408	0.123	0.002
-619.361	70.565	-0.070	0.073
-618.346	151.130	0.104	0.145
-617.332	800.000	0.103	-0.337
-616.317	800.000	0.004	-0.013
-615.303	-200.000	0.061	0.294
-614.288	-70.206	-0.183	0.071
-613.273	45.398	0.151	0.141
-612.259	800.000	-0.021	0.062
-611.244	-200.000	0.079	0.499
-610.230	-41.150	-0.129	-0.068
-609.215	-126.005	0.141	-0.022
-608.201	-76.958	-0.096	0.034
-607.186	1.923	0.149	-0.109
-606.171	800.000	0.056	0.225
-605.157	161.428	-0.087	0.124
-604.142	-131.336	-0.064	-0.009
-603.128	19.661	0.046	0.038
-602.113	-200.000	0.044	-0.308
-601.098	-65.227	0.254	0.104
-600.084	-90.480	0.108	0.032
-599.069	-87.200	0.144	-0.044
-598.055	215.544	0.122	0.197
-597.040	-67.349	0.209	0.083
-596.025	-155.536	0.214	-0.014
-595.011	-155.156	0.204	0.014
-593.996	800.000	-0.030	0.109
-592.982	183.847	-0.285	0.429
-591.967	241.031	-0.075	-0.128
-590.952	115.131	-0.163	0.202
-589.938	-8.683	-0.129	-0.088
-588.923	60.031	0.123	-0.124
-587.909	-200.000	-0.092	-0.415
-586.894	-67.210	-0.016	-0.006
-585.879	-200.000	0.006	-0.105
-584.865	208.511	-0.109	-0.174
-583.850	-52.716	0.132	-0.062
-582.836	-111.561	-0.095	-0.020
-581.821	-200.000	0.029	0.253
-580.806	24.087	0.206	-0.173
-579.792	-149.850	-0.445	0.035
-578.777	-95.824	-0.079	-0.021
-577.763	20.815	0.260	0.214
-576.748	115.078	0.131	0.162
-575.733	303.953	-0.077	-0.146
-574.719	-200.000	-0.037	0.192
-573.704	-86.834	-0.183	-0.057
-572.690	285.864	-0.063	-0.115
-571.675	-139.722	0.150	-0.016
-570.661	-89.006	0.204	-0.061
-569.646	-200.000	-0.022	-0.107
-568.631	-31.345	0.079	-0.045
-567.617	-175.242	0.140	-0.004
-566.602	167.961	0.127	-0.184
-565.588	-2.270	0.134	0.095
-564.573	107.291	-0.167	-0.201
-563.558	11.496	-0.183	-0.142
-562.544	82.380	0.096	-0.105
-561.529	-108.812	-0.058	-0.013
-560.515	-200.000	0.007	0.034
-559.500	-110.846	-0.312	0.065
-558.485	673.746	0.155	-0.409
-557.471	800.000	0.011	0.035
-556.456	14.000	-0.080	-0.063
-555.442	-61.596	0.142	-0.060
-554.427	-117.233	-0.065	0.012
-553.412	-0.523	0.132	-0.095
-552.398	-106.448	0.298	-0.068
-551.383	-49.851	-0.048	-0.023
-550.369	-134.988	-0.274	-0.034
-549.354	-21.120	0.142	0.088
-548.339	-200.000	0.088	0.451
-547.325	-99.975	-0.091	0.023
-546.310	-35.851	-0.125	-0.069
-545.296	-200.000	-0.002	-0.059
-544.281	-200.000	0.021	-0.525
-543.266	23.465	-0.299	0.250
-542.252	-115.256	-0.012	-0.002
-541.237	-119.562	-0.218	0.038
-540.223	-200.000	-0.052	0.350
-539.208	118.848	0.147	-0.184
-538.193	800.000	-0.070	-0.231
-537.179	141.786	0.096	-0.129
-536.164	61.213	-0.126	-0.127
-535.150	-45.696	-0.112	-0.056
-534.135	-200.000	-0.025	-0.124
-533.121	-200.000	0.041	-0.310
-532.106	-53.074	0.203	-0.094
-531.091	118.999	-0.084	-0.106
-530.077	-71.890	0.284	0.107
-529.062	-165.145	0.170	-0.008
-528.048	-9.603	-0.184	0.125
-527.033	-16.110	-0.121	0.078
-526.018	-82.203	-0.198	-0.065
-525.004	-104.649	0.399	0.093
-523.989	-153.706	-0.134	-0.009
-522.975	800.000	-0.018	-0.072
-521.960	-84.641	-0.205	-0.066
-520.945	51.769	-0.188	-0.181
-519.931	43.585	-0.089	-0.082
-518.916	-180.687	0.219	0.005
-517.902	-61.765	0.132	0.056
-516.887	-200.000	-0.043	-0.304
-515.872	-200.000	-0.005	0.152
-514.858	90.601	-0.009	0.010
-513.843	-69.258	-0.228	0.089
-512.829	237.864	-0.085	0.144
-511.814	-16.671	-0.132	-0.085
-510.799	-152.840	0.274	0.020
-509.785	-146.034	-0.207	-0.019
-508.770	-119.362	0.369	-0.065
-507.756	-155.884	-0.163	-0.011
-506.741	-13.983	-0.206	-0.135
-505.726	-200.000	0.021	0.173
-504.712	-43.022	-0.044	-0.023
-503.697	91.708	-0.211	-0.240
-502.683	59.326	0.112	0.111
-501.668	408.629	-0.108	-0.231
-500.653	-77.049	-0.120	-0.043
-499.639	-200.000	0.021	0.262
-498.624	-143.122	-0.245	-0.024
-497.610	-200.000	0.028	-0.154
-496.595	-8.085	0.231	-0.158
-495.581	-200.000	0.008	-0.162
-494.566	-58.731	-0.193	-0.085
-493.551	3.305	-0.320	0.236
-492.537	-200.000	0.025	0.137
-491.522	337.786	0.041	0.081
-490.508	-133.454	-0.213	-0.027
-489.493	-117.959	-0.342	0.062
-488.478	207.659	-0.129	0.204
-487.464	-128.409	0.264	0.038
-486.449	-19.706	0.266	-0.167
-485.435	-14.695	-0.311	-0.202
-484.420	800.000	-0.051	-0.160
-483.405	-80.905	0.134	-0.045
-482.391	493.887	-0.129	-0.300
-481.376	-84.474	-0.310	0.099
-480.362	-200.000	-0.054	0.280
-479.347	800.000	0.042	-0.153
-478.332	-82.022	0.285	-0.094
-477.318	-173.459	-0.374	-0.011
-476.303	-75.987	-0.086	-0.031
-475.289	800.000	-0.026	0.103
-474.274	-108.095	0.109	-0.024
-473.259	-25.625	0.170	-0.102
-472.245	-200.000	-0.028	0.201
-471.230	11.730	0.079	-0.061
-470.216	9.707	-0.152	-0.116
-469.201	-55.876	-0.184	-0.083
-468.186	61.083	0.071	-0.072
-467.172	199.832	-0.150	-0.232
-466.157	-18.140	0.125	-0.079
-465.143	244.616	0.077	-0.130
-464.128	-200.000	-0.020	-0.107
-463.113	-33.501	-0.148	-0.083
-462.099	-177.393	0.028	0.001
-461.084	694.105	0.099	-0.263
-460.070	-72.908	-0.449	0.167
-459.055	-97.287	0.082	0.022
-458.040	-200.000	0.007	0.159
-457.026	800.000	-0.170	-0.505
-456.011	-200.000	0.019	-0.234
-454.997	34.042	-0.109	0.096
-453.982	-44.787	0.006	-0.003
-452.968	-112.279	-0.325	-0.066
-451.953	-113.344	-0.089	0.018
-450.938	-200.000	0.021	0.217
-449.924	-176.003	-0.081	0.002
-448.909	-79.264	-0.107	0.037
-447.895	173.619	-0.120	0.175
-446.880	-109.372	0.339	0.072
-445.865	-24.760	0.094	0.057
-444.851	37.468	-0.141	0.126
-443.836	79.522	0.051	-0.055
-442.822	-46.409	-0.281	0.139
-441.807	-61.398	-0.243	-0.103
-440.792	-36.072	-0.170	0.093
-439.778	741.445	0.130	0.354
-438.763	-57.665	0.365	-0.162
-437.749	17.343	0.093	-0.075
-436.734	-154.520	-0.094	-0.006
-435.719	30.171	0.060	0.052
-434.705	-141.587	0.459	-0.047
-433.690	76.225	-0.199	0.213
-432.676	-200.000	-0.030	-0.210
-431.661	-10.560	0.194	0.129
-430.646	-6.207	0.071	-0.049
-429.632	-11.972	-0.041	-0.027
-428.617	-43.984	-0.158	-0.080
-427.603	800.000	0.060	-0.187
-426.588	800.000	-0.012	-0.035
-425.573	-111.788	-0.189	0.039
-424.559	113.655	0.135	-0.166
-423.544	-193.284	0.111	0.001
-422.530	125.695	0.177	-0.226
-421.515	-80.479	0.124	0.042
-420.500	-126.988	-0.202	0.030
-419.486	-123.741	0.152	0.024
-418.471	-64.419	-0.070	0.029
-417.457	706.865	0.113	0.301
-416.442	13.915	-0.204	-0.160
-415.428	-144.110	0.148	-0.014
-414.413	126.301	-0.070	0.089
-413.398	-171.061	-0.097	-0.003
-412.384	-8.382	0.180	0.122
-411.369	-120.302	-0.095	-0.016
-410.355	-86.323	-0.161	0.050
-409.340	-110.890	0.199	-0.041
-408.325	-103.776	-0.064	0.015
-407.311	306.261	-0.119	0.224
-406.296	-62.157	-0.172	-0.073
-405.282	116.739	-0.185	0.229
-404.267	-200.000	0.042	0.233
-403.252	108.450	-0.129	-0.156
-402.238	-200.000	-0.016	0.241
-401.223	800.000	-0.029	-0.092
-400.209	-135.467	0.295	0.036
-399.194	-2.622	-0.195	0.138
-398.179	701.101	-0.077	-0.205
-397.165	-200.000	0.015	0.148
-396.150	-200.000	-0.037	0.229
-395.136	50.697	0.089	-0.085
-394.121	526.910	-0.086	0.205
-393.106	249.524	-0.213	-0.365
-392.092	25.224	0.142	-0.119
-391.077	800.000	-0.091	-0.305
-390.063	800.000	0.053	0.224
-389.048	669.505	0.121	0.316
-388.033	-200.000	0.050	-0.234
-387.019	-200.000	0.002	-0.207
-386.004	23.643	0.087	-0.072
-384.990	-56.867	0.191	0.085
-383.975	215.971	0.040	-0.064
-382.960	-153.893	-0.216	-0.015
-381.946	-200.000	-0.083	0.418
-380.931	-200.000	0.008	-0.207
-379.917	-122.915	-0.347	0.056
-378.902	69.976	-0.145	-0.150
-377.888	-58.151	0.293	-0.129
-376.873	-79.468	-0.233	-0.079
-375.858	-146.499	0.427	0.037
-374.844	-200.000	-0.019	-0.197
-373.829	-200.000	-0.010	0.168
-372.815	800.000	-0.125	0.402
-371.800	-69.636	-0.266	-0.102
-370.785	-200.000	0.002	-0.165
-369.771	-132.116	-0.100	0.013
-368.756	-51.323	-0.233	-0.110
-367.742	374.468	0.128	0.262
-366.727	800.000	0.046	0.193
-365.712	64.332	0.189	-0.192
-364.698	-200.000	0.003	-0.048
-363.683	-90.280	0.289	0.085
-362.669	-200.000	-0.009	0.171
-361.654	-165.611	-0.204	0.009
-360.639	295.923	0.170	0.314
-359.625	800.000	0.029	0.113
-358.610	-41.031	-0.132	-0.069
-357.596	800.000	0.081	-0.318
-356.581	-181.939	-0.174	-0.003
-355.566	-186.444	-0.259	0.004
-354.552	-122.879	0.119	0.019
-353.537	-200.000	0.028	0.211
-352.523	4.840	-0.214	0.158
-351.508	-93.826	-0.250	0.069
-350.493	150.424	-0.076	0.103
-349.479	-158.198	-0.280	0.017
-348.464	-200.000	-0.004	0.202
-347.450	739.923	0.061	-0.165
-346.435	46.151	0.188	0.175
-345.420	-57.917	-0.063	0.028
-344.406	-82.516	-0.254	0.083
-343.391	-119.404	-0.288	-0.050
-342.377	502.080	0.173	0.402
-341.362	71.071	0.181	-0.188
-340.348	800.000	-0.040	0.134
-339.333	91.593	0.153	0.173
-338.318	55.602	-0.111	0.108
-337.304	254.053	-0.156	0.268
-336.289	-82.840	0.133	-0.043
-335.275	-41.015	-0.321	-0.167
-334.260	-127.460	0.422	-0.062
-333.245	-200.000	-0.064	-0.296
-332.231	-200.000	0.088	-0.393
-331.216	-109.763	0.287	-0.061
-330.202	-56.997	-0.127	0.057
-329.187	118.982	0.218	-0.271
-328.172	-34.805	0.248	0.137
-327.158	162.834	-0.255	0.359
-326.143	-200.000	0.039	0.194
-325.129	-146.883	0.140	-0.012
-324.114	-100.254	0.200	-0.050
-323.099	800.000	-0.059	0.175
-322.085	179.545	0.156	0.230
-321.070	41.514	0.086	0.079
-320.056	182.867	0.142	-0.211
-319.041	38.321	0.160	0.143
-318.026	311.208	0.166	0.313
-317.012	404.503	0.081	0.171
-315.997	101.506	0.166	0.195
-314.983	128.113	0.177	-0.226
-313.968	117.253	-0.144	-0.178
-312.953	-89.071	-0.216	0.064
-311.939	173.422	0.083	0.120
-310.924	729.782	0.056	0.151
-309.910	120.422	-0.157	-0.195
-308.895	-29.837	0.389	-0.223
-307.880	542.560	-0.066	-0.159
-306.866	99.433	0.142	-0.165
-305.851	-26.199	-0.218	0.129
-304.837	-200.000	-0.039	0.413
-303.822	-124.814	0.152	-0.024
-302.807	83.433	0.154	0.169
-301.793	102.391	0.340	-0.400
-300.778	769.790	0.070	-0.193
-299.764	341.927	0.061	-0.120
-298.749	-137.262	0.223	-0.026
-297.735	-37.862	0.086	0.046
-296.720	29.361	0.265	0.226
-295.705	-85.128	-0.095	-0.030
-294.691	244.079	0.265	0.447
-293.676	-200.000	0.044	0.270
-292.662	-200.000	-0.015	0.178
-291.647	-200.000	0.025	-0.281
-290.632	-161.779	-0.249	-0.013
-289.618	800.000	0.093	-0.276
-288.603	112.293	-0.305	-0.370
-287.589	800.000	-0.091	-0.293
-286.574	66.071	-0.106	0.108
-285.559	-200.000	0.015	-0.306
-284.545	-77.979	0.476	0.165
-283.530	-127.477	0.281	-0.041
-282.516	55.074	0.410	-0.398
-281.501	150.443	0.174	-0.237
-280.486	-137.314	0.229	0.026
-279.472	-98.201	0.332	-0.086
-278.457	-70.256	-0.188	-0.072
-277.443	360.070	-0.156	0.313
-276.428	-18.160	-0.272	-0.171
-275.413	477.956	-0.033	-0.075
-274.399	195.323	0.260	0.396
-273.384	257.936	-0.072	-0.125
-272.370	183.691	-0.038	-0.057
-271.355	800.000	-0.152	0.454
-270.340	-200.000	0.024	0.144
-269.326	60.162	-0.214	-0.213
-268.311	548.319	-0.094	0.226
-267.297	-38.294	0.086	-0.045
-266.282	-100.261	0.383	0.095
-265.267	593.256	0.077	-0.192
-264.253	487.323	0.051	0.117
-263.238	-93.401	-0.174	0.048
-262.224	131.367	0.156	-0.201
-261.209	120.996	0.275	0.343
-260.195	1.848	0.119	0.086
-259.180	-200.000	-0.045	-0.285
-258.165	-88.570	0.189	-0.057
-257.151	-129.816	0.294	0.040
-256.136	-68.287	0.058	-0.023
-255.122	-11.383	0.043	-0.029
-254.107	18.884	0.202	-0.162
-253.092	-41.069	0.171	-0.088
-252.078	-67.955	-0.180	-0.070
-251.063	425.746	0.066	-0.143
-250.049	-200.000	-0.034	-0.250
-249.034	800.000	-0.036	-0.148
-248.019	491.583	-0.044	0.100
-247.005	-151.543	0.185	-0.014
-245.990	-200.000	-0.014	-0.152
-244.976	-200.000	-0.021	-0.386
-243.961	92.573	-0.072	-0.081
-242.946	203.557	-0.175	0.271
-241.932	-18.402	0.158	-0.099
-240.917	236.163	0.124	-0.205
-239.903	-49.554	0.210	0.100
-238.888	-4.716	-0.097	0.067
-237.873	-112.856	0.312	0.062
-236.859	265.503	-0.121	-0.212
-235.844	45.352	-0.186	0.172
-234.830	-22.036	-0.039	0.024
-233.815	-200.000	0.016	0.263
-232.800	43.154	0.139	0.127
-231.786	686.518	-0.094	0.246
-230.771	12.338	-0.279	0.215
-229.757	133.170	0.133	-0.172
-228.742	-89.458	0.072	0.021
-227.727	53.709	0.130	0.125
-226.713	316.637	-0.119	-0.224
-225.698	-200.000	0.012	-0.135
-224.684	110.857	-0.171	-0.206
-223.669	-200.000	0.050	0.343
-222.655	137.532	0.128	-0.168
-221.640	2.751	0.066	0.048
-220.625	245.468	0.090	0.152
-219.611	83.865	-0.308	-0.337
-218.596	-1.385	0.076	0.054
-217.582	90.686	-0.303	-0.340
-216.567	-200.000	-0.029	0.160
-215.552	153.954	0.097	0.133
-214.538	-15.708	0.172	0.110
-213.523	-200.000	0.010	0.161
-212.509	633.045	0.030	0.076
-211.494	-200.000	0.003	0.048
-210.479	307.436	-0.134	-0.250
-209.465	67.308	0.170	-0.174
-208.450	-137.572	-0.316	-0.036
-207.436	-199.671	0.556	0.003
-206.421	24.460	0.035	-0.029
-205.406	-43.889	-0.241	0.121
-204.392	14.060	-0.110	0.085
-203.377	-59.781	-0.155	-0.066
-202.363	-83.640	0.103	-0.033
-201.348	-115.051	-0.230	0.044
-200.333	18.528	-0.148	-0.118
-199.319	-63.504	-0.313	-0.129
-198.304	94.379	0.301	0.342
-197.290	800.000	-0.072	0.242
-196.275	7.270	0.088	-0.066
-195.260	697.984	0.013	0.035
-194.246	51.306	-0.202	0.191
-193.231	38.899	-0.215	0.192
-192.217	-56.734	0.279	0.123
-191.202	59.657	0.037	0.037
-190.187	113.630	-0.134	0.163
-189.173	-49.820	0.213	0.101
-188.158	-200.000	-0.004	0.324
-187.144	-200.000	-0.001	-0.351
-186.129	-200.000	-0.081	-0.393
-185.114	-48.509	0.147	0.071
-184.100	-200.000	-0.016	-0.096
-183.085	-200.000	0.084	0.419
-182.071	-200.000	-0.029	0.306
-181.056	800.000	-0.093	-0.319
-180.042	-200.000	-0.029	-0.182
-179.027	-49.414	0.047	-0.023
-178.012	800.000	-0.012	-0.050
-176.998	800.000	0.012	0.034
-175.983	38.503	0.253	0.225
-174.969	72.691	-0.159	0.166
-173.954	-25.841	-0.178	0.105
-172.939	-67.404	0.049	0.019
-171.925	-146.687	-0.229	-0.020
-170.910	800.000	-0.063	-0.176
-169.896	-171.558	0.169	0.006
-168.881	-12.483	-0.152	0.099
-167.866	-145.624	0.237	0.021
-166.852	-200.000	0.013	0.273
-165.837	800.000	-0.055	-0.216
-164.823	81.826	0.079	0.086
-163.808	-146.624	-0.424	-0.037
-162.793	800.000	0.098	-0.392
-161.779	-87.632	-0.111	0.033
-160.764	37.046	0.243	0.215
-159.750	116.172	-0.076	0.093
-158.735	800.000	-0.137	-0.420
-157.720	-176.141	0.251	-0.007
-156.706	-122.575	-0.186	-0.030
-155.691	-55.566	-0.346	-0.155
-154.677	-200.000	-0.004	-0.203
-153.662	-40.968	0.020	-0.010
-152.647	105.624	-0.017	0.020
-151.633	-200.000	0.001	-0.101
-150.618	-1.560	0.002	-0.002
-149.604	800.000	0.147	-0.493
-148.589	-59.111	0.313	0.135
-147.574	-27.074	-0.282	0.164
-146.560	-20.180	0.152	-0.094
-145.545	251.533	-0.036	-0.062
-144.531	-40.667	-0.183	0.095
-143.516	245.010	-0.240	-0.403
-142.502	43.828	0.122	-0.112
-141.487	800.000	0.010	0.043
-140.472	-90.976	0.125	-0.036
-139.458	-81.927	-0.040	-0.013
-138.443	-200.000	0.009	-0.080
-137.429	171.596	-0.139	-0.200
-136.414	-66.748	0.161	0.064
-135.399	107.158	-0.174	0.206
-134.385	800.000	0.073	-0.232
-133.370	170.580	0.223	0.319
-132.356	65.000	-0.119	0.120
-131.341	329.154	-0.116	0.223
-130.326	-200.000	-0.075	0.346
-129.312	-8.527	-0.189	0.127
-128.297	-200.000	0.032	-0.229
-127.283	251.632	0.054	0.091
-126.268	654.305	0.094	0.242
-125.253	-200.000	0.006	-0.157
-124.239	-62.466	-0.084	-0.035
-123.224	-96.612	0.189	-0.050
-122.210	-74.904	-0.214	-0.077
