DTS Sentinel unit serial number:	SN413079Multiplexer serial number:	ORYXHardware model number:	OX4-SRSoftware version number:	ORYX F/W v4.00 Oryx Data Collector v3.7.2.0data status	okinstallation	princeton_trtdifferential loss correction	single-endedforward channel	channel 2reverse channel	N/Adate	2019/09/18time	00:31:34forward acquisition time	60.00reverse acquisition time	0.00gamma	496.2192k internal	0.2349k external	0.2349temperature offset calibration	0.9986default loss term (dB/km)	0.3790temperature slope calibration	1.0000multiplexer offset coefficient	1.0000multiplexer slope coefficient	1.0000fibre end	0.00T internal ref (°C)	23.52T ext. ref 1 (°C)	0.17T ext. ref 2 (°C)	17.16length (m)	temperature (°C)	Stokes	anti-Stokes-747.200	-57.941	-0.245	-0.107
-746.185	717.852	0.046	0.121
-745.171	800.000	0.034	-0.129
-744.156	-200.000	-0.005	0.042
-743.142	-76.811	-0.197	-0.069
-742.127	-68.542	0.060	-0.023
-741.112	-23.597	0.302	0.181
-740.098	-200.000	-0.011	-0.052
-739.083	-97.244	-0.315	-0.082
-738.069	-145.392	-0.336	0.030
-737.054	18.725	-0.082	-0.066
-736.039	623.599	-0.011	-0.028
-735.025	394.074	-0.099	0.205
-734.010	0.128	-0.174	0.124
-732.996	-89.710	-0.077	0.023
-731.981	-62.812	0.173	-0.072
-730.966	44.276	-0.168	-0.154
-729.952	-91.087	-0.582	-0.167
-728.937	200.089	-0.063	0.096
-727.923	800.000	-0.079	-0.301
-726.908	-200.000	0.023	-0.215
-725.894	-130.660	-0.394	0.053
-724.879	-85.718	0.214	-0.066
-723.864	-121.931	-0.239	-0.039
-722.850	58.130	-0.179	0.175
-721.835	-144.989	-0.073	0.007
-720.821	-200.000	0.012	-0.185
-719.806	1.186	0.153	0.110
-718.791	-98.657	0.392	-0.100
-717.777	18.723	-0.196	0.156
-716.762	-65.400	0.216	-0.087
-715.748	800.000	0.048	0.158
-714.733	-0.495	0.234	0.165
-713.718	800.000	0.121	0.377
-712.704	140.110	-0.234	-0.307
-711.689	492.679	0.073	-0.166
-710.675	548.351	-0.149	-0.355
-709.660	-200.000	-0.034	0.181
-708.645	489.725	0.073	-0.166
-707.631	644.289	-0.062	0.158
-706.616	-138.840	0.112	-0.012
-705.602	-106.599	0.347	-0.077
-704.587	800.000	-0.106	0.296
-703.572	-175.184	-0.279	0.008
-702.558	545.669	-0.153	-0.365
-701.543	-200.000	0.020	-0.418
-700.529	-33.440	0.400	0.220
-699.514	-11.525	-0.116	0.076
-698.499	800.000	-0.016	0.047
-697.485	30.672	0.181	0.154
-696.470	75.886	0.147	0.155
-695.456	13.733	-0.224	0.173
-694.441	-133.020	-0.165	0.021
-693.426	-90.782	-0.139	-0.040
-692.412	-12.693	0.303	-0.197
-691.397	9.441	-0.257	0.194
-690.383	800.000	-0.081	0.233
-689.368	-96.400	-0.160	-0.042
-688.354	205.164	-0.074	-0.114
-687.339	-200.000	0.058	-0.289
-686.324	-21.379	-0.156	-0.095
-685.310	-193.248	-0.357	-0.003
-684.295	-74.027	0.124	-0.045
-683.281	-17.814	0.122	0.076
-682.266	800.000	0.075	-0.312
-681.251	41.626	-0.191	0.173
-680.237	-200.000	-0.008	-0.164
-679.222	800.000	-0.112	-0.357
-678.208	-147.805	0.305	0.025
-677.193	-49.131	0.102	-0.049
-676.178	-186.029	-0.335	0.005
-675.164	-7.623	-0.099	-0.067
-674.149	-74.120	0.190	0.068
-673.135	-96.000	-0.157	0.042
-672.120	-200.000	0.005	-0.157
-671.105	-200.000	-0.016	0.134
-670.091	-200.000	0.018	-0.078
-669.076	89.016	-0.159	0.176
-668.062	-11.801	0.167	0.109
-667.047	63.238	-0.266	-0.265
-666.032	66.488	-0.106	-0.108
-665.018	-132.967	0.129	0.016
-664.003	-200.000	0.008	0.205
-662.989	14.844	-0.042	-0.033
-661.974	800.000	-0.019	-0.057
-660.959	-109.695	-0.154	0.032
-659.945	-200.000	0.212	0.001
-658.930	-45.011	-0.422	0.209
-657.916	-65.190	0.474	-0.190
-656.901	-200.000	-0.065	-0.300
-655.886	-133.478	0.117	0.015
-654.872	785.663	0.128	-0.350
-653.857	-8.804	0.091	0.061
-652.843	111.748	-0.347	0.417
-651.828	242.288	0.084	0.140
-650.814	206.103	-0.121	-0.187
-649.799	-101.447	0.141	-0.034
-648.784	21.998	-0.422	0.343
-647.770	425.255	-0.092	-0.198
-646.755	252.078	-0.086	-0.145
-645.741	111.853	-0.159	0.191
-644.726	-155.319	0.174	0.011
-643.711	789.430	0.084	-0.230
-642.697	62.199	0.138	0.137
-641.682	-78.478	0.264	-0.090
-640.668	-200.000	-0.017	0.173
-639.653	-83.061	0.244	0.078
-638.638	-54.839	0.192	-0.086
-637.624	800.000	-0.088	-0.246
-636.609	-118.113	0.139	-0.025
-635.595	800.000	0.074	-0.215
-634.580	29.664	-0.077	0.065
-633.565	-135.100	0.285	0.034
-632.551	800.000	-0.010	-0.042
-631.536	750.872	-0.124	-0.333
-630.522	-88.827	0.306	-0.090
-629.507	-98.664	0.156	-0.039
-628.492	183.226	0.302	-0.444
-627.478	-200.000	0.005	0.093
-626.463	-9.063	0.291	0.194
-625.449	-167.572	-0.134	-0.005
-624.434	-178.827	-0.342	-0.008
-623.419	-200.000	-0.031	0.226
-622.405	23.005	-0.297	0.242
-621.390	24.446	-0.134	0.110
-620.376	800.000	0.068	0.188
-619.361	-73.582	0.281	0.102
-618.346	55.188	0.063	-0.061
-617.332	-65.976	-0.135	-0.054
-616.317	42.872	-0.337	-0.306
-615.303	365.594	-0.027	-0.053
-614.288	-92.216	-0.274	-0.077
-613.273	-17.119	0.216	-0.136
-612.259	77.579	-0.343	-0.362
-611.244	290.062	-0.134	-0.242
-610.230	74.943	0.148	-0.155
-609.215	-21.122	-0.093	0.057
-608.201	-200.000	0.016	-0.121
-607.186	-147.263	-0.289	-0.024
-606.171	282.783	0.179	-0.318
-605.157	-77.897	0.205	-0.070
-604.142	-57.617	0.129	-0.056
-603.128	37.020	-0.379	-0.333
-602.113	800.000	-0.049	-0.201
-601.098	-39.829	0.089	0.046
-600.084	-85.403	0.304	0.094
-599.069	160.444	0.134	0.185
-598.055	49.136	-0.175	0.163
-597.040	330.314	-0.154	-0.294
-596.025	-113.802	0.076	-0.015
-595.011	-64.242	-0.005	-0.002
-593.996	-200.000	0.006	0.172
-592.982	22.603	0.040	0.032
-591.967	-138.128	-0.098	0.011
-590.952	800.000	0.075	0.314
-589.938	-10.251	0.109	-0.072
-588.923	-157.228	-0.093	-0.006
-587.909	48.482	0.078	0.073
-586.894	194.147	-0.050	0.075
-585.879	800.000	-0.017	0.064
-584.865	202.089	-0.098	0.151
-583.850	10.866	-0.170	0.129
-582.836	45.534	-0.211	0.193
-581.821	-179.028	-0.285	0.006
-580.806	204.949	-0.222	0.342
-579.792	800.000	-0.057	0.156
-578.777	42.906	-0.163	0.147
-577.763	-73.107	0.242	-0.088
-576.748	-127.079	0.099	-0.014
-575.733	-67.185	-0.084	-0.033
-574.719	-151.302	0.321	0.024
-573.704	-16.202	-0.113	-0.071
-572.690	-164.807	0.134	0.006
-571.675	27.167	0.192	0.160
-570.661	-87.246	-0.284	-0.086
-569.646	-100.318	-0.157	-0.039
-568.631	-56.918	-0.175	-0.077
-567.617	-142.897	-0.220	0.021
-566.602	112.936	-0.288	0.346
-565.588	-98.648	0.183	0.046
-564.573	277.143	0.070	-0.123
-563.558	398.803	0.070	-0.146
-562.544	-42.147	0.137	-0.070
-561.529	480.714	0.136	0.306
-560.515	-12.338	-0.040	0.026
-559.500	568.013	0.121	0.292
-558.485	-38.493	-0.080	0.042
-557.471	-200.000	-0.025	0.212
-556.456	-200.000	0.015	0.105
-555.442	273.347	0.051	0.090
-554.427	-33.879	0.208	-0.114
-553.412	-200.000	-0.004	-0.026
-552.398	-160.943	0.111	0.006
-551.383	-68.809	-0.089	-0.034
-550.369	-13.181	0.281	-0.181
-549.354	131.064	-0.271	0.345
-548.339	13.828	-0.030	0.023
-547.325	800.000	-0.026	0.082
-546.310	-200.000	0.011	0.255
-545.296	-175.322	-0.245	0.007
-544.281	372.753	-0.072	0.145
-543.266	27.243	0.191	-0.159
-542.252	18.067	-0.081	-0.064
-541.237	25.913	-0.108	-0.089
-540.223	156.877	0.111	0.153
-539.208	28.127	-0.062	-0.052
-538.193	-200.000	-0.035	0.220
-537.179	-200.000	0.016	-0.257
-536.164	758.273	-0.101	-0.272
-535.150	-57.175	0.220	-0.096
-534.135	58.595	0.261	0.254
-533.121	-70.213	0.088	-0.033
-532.106	-107.666	-0.166	0.036
-531.091	-200.000	0.009	-0.185
-530.077	-116.920	-0.425	0.077
-529.062	30.358	-0.113	0.095
-528.048	-200.000	-0.010	0.084
-527.033	213.802	-0.207	0.324
-526.018	-115.371	0.399	0.074
-525.004	24.385	0.179	0.146
-523.989	361.964	0.035	0.070
-522.975	-79.495	-0.058	-0.019
-521.960	-31.865	0.180	-0.100
-520.945	25.629	-0.077	-0.064
-519.931	499.367	0.097	0.222
-518.916	800.000	-0.163	0.532
-517.902	800.000	-0.066	0.190
-516.887	-166.228	-0.319	-0.013
-515.872	18.208	-0.177	0.140
-514.858	54.632	0.195	0.186
-513.843	-122.196	-0.351	0.057
-512.829	39.872	0.149	0.132
-511.814	-41.032	-0.099	0.051
-510.799	625.874	0.093	0.231
-509.785	-200.000	0.030	-0.566
-508.770	65.985	-0.088	-0.088
-507.756	-28.740	0.009	0.005
-506.741	64.428	-0.177	-0.177
-505.726	800.000	0.050	-0.212
-504.712	-200.000	0.425	0.000
-503.697	77.182	-0.187	0.197
-502.683	67.942	-0.090	-0.091
-501.668	54.718	0.244	0.233
-500.653	800.000	0.117	-0.447
-499.639	-118.636	0.137	0.024
-498.624	-151.857	0.084	0.006
-497.610	51.986	-0.147	-0.138
-496.595	38.174	0.099	0.087
-495.581	366.259	0.135	0.269
-494.566	800.000	-0.034	0.133
-493.551	-142.750	0.154	0.015
-492.537	800.000	-0.108	-0.423
-491.522	161.388	-0.167	-0.231
-490.508	65.974	0.320	-0.321
-489.493	-88.141	0.392	-0.116
-488.478	-200.000	0.052	-0.336
-487.464	-200.000	-0.030	0.331
-486.449	-137.813	0.255	-0.028
-485.435	-200.000	-0.010	0.195
-484.420	96.588	0.248	0.280
-483.405	-62.427	-0.064	-0.026
-482.391	-100.208	0.239	0.059
-481.376	-176.527	-0.414	0.011
-480.362	-189.316	0.126	0.001
-479.347	-200.000	0.015	-0.093
-478.332	-47.816	0.064	0.031
-477.318	6.656	0.261	0.192
-476.303	90.650	-0.077	-0.085
-475.289	784.514	0.064	0.172
-474.274	-49.095	-0.211	-0.100
-473.259	401.263	0.125	-0.258
-472.245	-80.201	-0.336	-0.111
-471.230	25.765	-0.164	0.135
-470.216	147.905	0.179	0.238
-469.201	278.337	0.095	-0.167
-468.186	-40.024	0.239	0.123
-467.172	-143.203	0.087	-0.008
-466.157	392.732	-0.158	0.325
-465.143	-74.563	-0.127	-0.045
-464.128	-200.000	0.005	0.134
-463.113	-43.990	-0.258	-0.128
-462.099	309.390	-0.093	0.171
-461.084	-80.945	0.332	0.109
-460.070	3.807	0.238	-0.171
-459.055	102.135	-0.216	0.249
-458.040	430.685	0.068	-0.145
-457.026	-82.964	0.220	0.070
-456.011	7.661	-0.178	0.132
-454.997	-200.000	-0.014	-0.141
-453.982	-119.548	-0.165	0.028
-452.968	-73.807	0.056	-0.020
-451.953	175.142	-0.079	0.112
-450.938	-94.574	0.232	0.062
-449.924	148.824	-0.149	-0.199
-448.909	800.000	-0.098	-0.273
-447.895	-200.000	-0.036	-0.179
-446.880	35.520	0.303	-0.263
-445.865	-98.059	0.271	0.069
-444.851	-200.000	-0.018	-0.455
-443.836	327.205	-0.144	-0.273
-442.822	206.218	0.076	-0.116
-441.807	49.989	0.172	0.160
-440.792	-84.152	-0.109	-0.034
-439.778	-156.837	0.225	0.014
-438.763	-30.875	-0.121	0.067
-437.749	546.920	-0.103	0.243
-436.734	265.225	0.016	0.027
-435.719	24.621	-0.200	-0.164
-434.705	-200.000	0.014	-0.400
-433.690	-200.000	0.028	0.218
-432.676	-6.904	-0.189	-0.126
-431.661	-49.694	-0.362	-0.170
-430.646	335.085	0.033	-0.063
-429.632	800.000	-0.067	0.234
-428.617	244.231	-0.094	0.156
-427.603	-200.000	-0.010	-0.178
-426.588	-82.949	-0.278	-0.089
-425.573	-189.616	-0.119	-0.001
-424.559	8.712	-0.055	-0.041
-423.544	-127.757	0.585	-0.083
-422.530	757.063	-0.169	0.452
-421.515	-200.000	0.035	0.153
-420.500	-176.031	-0.397	-0.010
-419.486	255.795	-0.127	0.214
-418.471	346.278	0.103	0.199
-417.457	88.773	-0.109	-0.120
-416.442	-106.969	-0.460	0.100
-415.428	800.000	-0.083	-0.285
-414.413	800.000	0.044	-0.165
-413.398	-36.409	-0.279	0.148
-412.384	800.000	-0.032	-0.095
-411.369	238.168	0.138	0.226
-410.355	33.311	0.029	-0.024
-409.340	68.876	-0.124	-0.125
-408.325	67.768	0.083	-0.084
-407.311	604.538	-0.046	0.114
-406.296	-40.109	0.401	-0.206
-405.282	80.969	0.094	-0.100
-404.267	368.735	-0.092	0.184
-403.252	324.900	0.132	0.249
-402.238	366.633	-0.247	0.491
-401.223	-73.553	-0.242	-0.087
-400.209	-200.000	-0.053	0.296
-399.194	-22.721	-0.203	-0.121
-398.179	108.174	0.066	-0.078
-397.165	800.000	-0.044	-0.157
-396.150	5.917	0.389	-0.284
-395.136	-48.706	-0.166	0.078
-394.121	85.175	-0.136	0.147
-393.106	-200.000	-0.049	-0.449
-392.092	96.560	0.340	0.383
-391.077	-200.000	-0.039	-0.252
-390.063	-200.000	0.035	-0.317
-389.048	-18.949	-0.219	0.134
-388.033	-61.438	0.384	-0.159
-387.019	34.568	-0.207	0.178
-386.004	23.791	-0.074	-0.060
-384.990	75.058	-0.123	-0.128
-383.975	652.611	-0.100	-0.252
-382.960	-99.332	-0.278	-0.069
-381.946	-200.000	0.052	0.443
-380.931	-146.450	0.181	0.016
-379.917	-200.000	-0.118	0.000
-378.902	46.069	0.126	0.115
-377.888	800.000	-0.079	-0.239
-376.873	105.956	0.071	0.083
-375.858	-42.153	0.192	0.097
-374.844	800.000	-0.132	0.423
-373.829	126.019	-0.143	-0.177
-372.815	800.000	-0.085	-0.292
-371.800	477.911	0.093	-0.207
-370.785	-25.861	0.223	-0.129
-369.771	-14.206	0.296	-0.188
-368.756	-59.323	-0.293	-0.124
-367.742	-200.000	0.015	-0.144
-366.727	-200.000	0.077	-0.520
-365.712	-76.322	-0.234	-0.081
-364.698	27.012	-0.200	-0.165
-363.683	-200.000	0.000	0.202
-362.669	-10.416	-0.235	0.153
-361.654	-110.903	0.183	0.037
-360.639	16.718	-0.297	0.231
-359.625	-131.350	-0.322	0.042
-358.610	800.000	-0.003	0.013
-357.596	-122.176	-0.214	0.034
-356.581	27.928	-0.227	-0.189
-355.566	112.708	0.148	-0.177
-354.552	-200.000	0.041	-0.310
-353.537	125.992	0.244	-0.303
-352.523	800.000	0.081	0.319
-351.508	553.411	-0.053	0.125
-350.493	-116.917	0.210	0.038
-349.479	7.971	0.126	0.093
-348.464	-7.826	0.185	-0.123
-347.450	-60.360	0.127	0.053
-346.435	104.044	-0.064	0.074
-345.420	78.323	0.240	0.252
-344.406	-39.607	-0.052	-0.027
-343.391	235.658	0.188	0.305
-342.377	191.768	0.031	-0.046
-341.362	11.723	-0.177	-0.134
-340.348	800.000	-0.073	-0.213
-339.333	-53.965	0.275	0.123
-338.318	42.103	0.358	0.320
-337.304	800.000	-0.048	0.162
-336.289	52.139	-0.075	-0.070
-335.275	-113.529	-0.198	0.038
-334.260	109.730	-0.078	0.092
-333.245	-131.372	-0.350	0.046
-332.231	-62.162	0.126	-0.051
-331.216	-32.370	-0.252	0.138
-330.202	-51.124	-0.178	-0.082
-329.187	800.000	0.019	-0.058
-328.172	-177.658	0.248	0.006
-327.158	-114.785	0.473	-0.089
-326.143	-200.000	-0.022	0.150
-325.129	800.000	-0.120	0.388
-324.114	564.998	0.068	-0.161
-323.099	9.544	0.090	0.067
-322.085	13.138	0.256	0.195
-321.070	-193.825	-0.249	-0.002
-320.056	-139.071	0.329	0.035
-319.041	-124.958	0.135	-0.020
-318.026	-79.692	0.097	-0.032
-317.012	-48.156	-0.103	0.049
-315.997	-200.000	-0.041	0.241
-314.983	-92.954	0.265	0.073
-313.968	196.532	-0.128	0.191
-312.953	-45.071	-0.260	-0.127
-311.939	-200.000	0.020	0.097
-310.924	-200.000	-0.027	-0.129
-309.910	-164.748	-0.148	-0.007
-308.895	-14.176	-0.137	0.087
-307.880	-7.089	-0.287	-0.191
-306.866	-23.265	-0.310	0.183
-305.851	4.912	-0.214	-0.154
-304.837	237.388	-0.057	0.093
-303.822	-123.041	-0.408	0.064
-302.807	8.669	0.103	0.076
-301.793	-200.000	0.005	-0.286
-300.778	617.618	-0.144	0.355
-299.764	51.869	0.306	-0.286
-298.749	-143.204	0.192	0.018
-297.735	-152.798	0.137	-0.010
-296.720	1.383	-0.132	-0.093
-295.705	-168.980	0.185	0.007
-294.691	409.012	-0.235	-0.489
-293.676	324.746	0.058	-0.108
-292.662	-200.000	0.026	-0.520
-291.647	-150.782	-0.285	-0.021
-290.632	-200.000	-0.056	-0.255
-289.618	-95.737	-0.075	-0.020
-288.603	-200.000	0.016	-0.122
-287.589	95.101	0.155	-0.173
-286.574	621.484	0.039	-0.097
-285.559	-121.503	-0.213	0.035
-284.545	-23.164	-0.353	-0.208
-283.530	185.129	0.139	-0.202
-282.516	-38.717	-0.159	-0.082
-281.501	362.242	-0.101	-0.198
-280.486	-200.000	0.000	-0.134
-279.472	-200.000	-0.042	0.234
-278.457	800.000	0.057	0.209
-277.443	101.390	0.191	0.218
-276.428	292.701	-0.125	-0.223
-275.413	-200.000	0.036	-0.237
-274.399	-172.712	-0.077	-0.002
-273.384	-26.350	0.151	-0.087
-272.370	800.000	-0.035	-0.121
-271.355	0.065	-0.302	0.211
-270.340	-36.099	-0.029	-0.015
-269.326	312.876	-0.105	0.193
-268.311	157.936	0.129	0.176
-267.297	-107.048	0.096	0.021
-266.282	-46.723	-0.470	-0.226
-265.267	-173.790	0.418	-0.012
-264.253	-6.794	0.247	0.165
-263.238	710.016	-0.094	-0.245
-262.224	-77.086	0.092	0.032
-261.209	520.078	0.063	0.144
-260.195	8.565	0.020	-0.015
-259.180	-57.329	0.204	0.088
-258.165	-61.292	0.168	0.069
-257.151	-57.029	0.072	0.031
-256.136	-92.625	0.459	-0.126
-255.122	-192.489	-0.209	0.002
-254.107	-41.928	-0.131	-0.066
-253.092	800.000	0.080	-0.304
-252.078	-200.000	0.012	0.089
-251.063	-92.171	-0.082	-0.023
-250.049	-110.748	-0.243	0.049
-249.034	-158.097	0.070	-0.004
-248.019	800.000	0.163	0.480
-247.005	448.055	-0.058	0.124
-245.990	130.672	0.025	0.032
-244.976	187.683	-0.020	0.029
-243.961	-174.224	0.369	-0.011
-242.946	-10.178	0.076	0.049
-241.932	-200.000	0.007	-0.049
-240.917	142.063	0.260	0.338
-239.903	-91.504	-0.571	0.160
-238.888	-55.059	-0.059	-0.026
-237.873	-200.000	0.021	0.129
-236.859	-113.092	0.147	0.028
-235.844	-200.000	0.051	0.218
-234.830	9.282	-0.239	-0.177
-233.815	39.484	0.160	-0.141
-232.800	77.006	-0.236	-0.246
-231.786	800.000	0.048	-0.200
-230.771	-200.000	-0.087	-0.443
-229.757	83.753	-0.139	-0.149
-228.742	46.766	-0.191	-0.173
-227.727	-63.276	-0.174	0.070
-226.713	348.675	-0.019	0.037
-225.698	216.290	-0.039	-0.060
-224.684	-48.412	0.150	0.071
-223.669	800.000	0.033	-0.139
-222.655	334.308	-0.035	0.067
-221.640	168.505	0.042	-0.059
-220.625	99.768	0.120	0.136
-219.611	12.189	-0.357	-0.269
-218.596	-81.868	-0.130	0.042
-217.582	-7.594	0.316	-0.209
-216.567	750.727	0.108	0.284
-215.552	-184.291	-0.321	-0.005
-214.538	-200.000	-0.011	0.226
-213.523	-200.000	-0.001	-0.023
-212.509	-39.235	0.251	-0.129
-211.494	-73.849	-0.061	0.022
-210.479	-200.000	-0.062	-0.374
-209.465	-36.359	-0.097	-0.051
-208.450	-20.579	0.068	-0.041
-207.436	-71.811	0.364	0.133
-206.421	-200.000	-0.066	0.298
-205.406	-112.570	-0.201	0.039
-204.392	-45.953	-0.066	-0.032
-203.377	657.346	-0.064	-0.161
-202.363	-102.728	0.273	0.064
-201.348	-131.377	0.117	0.015
-200.333	-34.517	0.061	-0.033
-199.319	800.000	-0.074	-0.297
-198.304	42.495	-0.123	-0.109
-197.290	-40.274	-0.218	0.111
-196.275	-200.000	-0.024	-0.108
-195.260	570.457	0.106	-0.253
-194.246	242.949	0.118	0.194
-193.231	715.543	0.142	0.368
-192.217	-200.000	0.110	0.492
-191.202	-200.000	-0.035	0.360
-190.187	208.127	-0.233	0.356
-189.173	-123.175	0.214	-0.033
-188.158	29.312	0.252	-0.209
-187.144	-27.626	0.118	-0.067
-186.129	-141.221	-0.109	0.011
-185.114	800.000	0.069	0.214
-184.100	-200.000	-0.043	-0.197
-183.085	-160.248	-0.224	-0.012
-182.071	-5.719	0.254	0.170
-181.056	362.391	-0.050	0.098
-180.042	-200.000	-0.002	0.168
-179.027	-200.000	0.040	0.263
-178.012	-200.000	0.009	-0.212
-176.998	-32.079	0.416	-0.227
-175.983	-31.815	0.022	-0.012
-174.969	115.557	-0.157	0.187
-173.954	-75.750	0.092	-0.032
-172.939	-107.138	0.469	0.101
-171.925	325.151	0.059	-0.110
-170.910	-200.000	0.010	-0.183
-169.896	-200.000	0.026	0.169
-168.881	163.747	0.094	-0.130
-167.866	800.000	-0.096	-0.267
-166.852	396.538	0.108	-0.220
-165.837	75.236	-0.100	0.103
-164.823	4.912	0.222	0.160
-163.808	450.944	0.047	-0.101
-162.793	100.592	-0.179	0.203
-161.779	-40.954	0.155	0.078
-160.764	24.496	0.204	0.165
-159.750	277.976	0.153	0.267
-158.735	10.155	0.101	-0.075
-157.720	-14.179	0.358	-0.226
-156.706	-200.000	-0.010	-0.202
-155.691	235.031	-0.317	0.510
-154.677	-126.907	-0.174	-0.025
-153.662	-116.693	0.339	0.061
-152.647	-30.454	0.142	-0.078
-151.633	147.332	-0.096	-0.126
-150.618	41.536	0.089	-0.078
-149.604	-40.591	0.331	-0.167
-148.589	58.948	-0.151	-0.145
-147.574	-51.171	0.206	0.094
-146.560	-8.101	-0.297	0.195
-145.545	-33.392	0.269	-0.145
-144.531	-162.446	0.234	0.011
-143.516	229.419	-0.203	-0.323
-142.502	73.296	-0.128	-0.131
-141.487	149.093	0.122	0.162
-140.472	800.000	0.109	0.355
-139.458	-177.912	-0.203	0.005
-138.443	-145.436	-0.046	0.004
-137.429	99.827	-0.298	-0.336
-136.414	-121.774	0.343	-0.055
-135.399	37.542	0.397	0.343
-134.385	-200.000	-0.009	-0.231
-133.370	-2.908	-0.115	-0.078
-132.356	-11.883	-0.332	0.212
-131.341	-55.458	0.027	-0.012
-130.326	-200.000	-0.009	-0.167
-129.312	-76.397	0.393	0.135
-128.297	-83.176	0.483	-0.151
-127.283	53.810	0.216	-0.202
-126.268	-200.000	0.042	0.179
-125.253	96.254	0.160	0.179
-124.239	165.786	0.280	-0.386
-123.224	140.699	-0.088	0.113
-122.210	-10.074	0.080	-0.052
-121.195	-200.000	0.051	0.246
-120.180	-45.947	0.127	-0.061
