DTS Sentinel unit serial number:	SN413079Multiplexer serial number:	ORYXHardware model number:	OX4-SRSoftware version number:	ORYX F/W v4.00 Oryx Data Collector v3.7.2.0data status	okinstallation	princeton_trtdifferential loss correction	single-endedforward channel	channel 2reverse channel	N/Adate	2019/09/15time	22:23:35forward acquisition time	60.00reverse acquisition time	0.00gamma	496.2192k internal	0.2335k external	0.2335temperature offset calibration	0.9950default loss term (dB/km)	0.3790temperature slope calibration	1.0000multiplexer offset coefficient	1.0000multiplexer slope coefficient	1.0000fibre end	0.00T internal ref (°C)	29.30T ext. ref 1 (°C)	8.70T ext. ref 2 (°C)	22.74length (m)	temperature (°C)	Stokes	anti-Stokes-747.200	-70.585	0.160	0.061
-746.185	-200.000	0.101	0.519
-745.171	126.707	-0.192	0.244
-744.156	-61.462	-0.164	-0.069
-743.142	-122.327	-0.298	-0.049
-742.127	411.951	0.195	0.415
-741.112	-75.911	0.251	-0.089
-740.098	800.000	-0.036	0.132
-739.083	22.971	-0.173	-0.142
-738.069	-32.194	-0.038	-0.021
-737.054	-163.067	-0.072	0.004
-736.039	260.618	0.120	-0.209
-735.025	-31.468	0.301	0.170
-734.010	428.333	0.120	-0.260
-732.996	-200.000	-0.013	0.399
-731.981	286.164	-0.071	-0.129
-730.966	-132.659	-0.198	0.025
-729.952	73.746	0.312	0.328
-728.937	19.411	-0.071	-0.057
-727.923	-96.677	0.227	-0.060
-726.908	-130.370	-0.178	0.024
-725.894	40.385	0.182	-0.165
-724.879	-151.647	-0.198	0.015
-723.864	800.000	-0.027	0.076
-722.850	156.070	0.147	-0.203
-721.835	-200.000	0.010	-0.241
-720.821	288.373	0.040	-0.072
-719.806	800.000	-0.094	0.332
-718.791	-142.798	0.109	0.011
-717.777	122.961	-0.335	-0.421
-716.762	-102.943	0.222	-0.053
-715.748	558.542	-0.073	0.176
-714.733	-24.721	-0.117	-0.070
-713.718	634.074	0.132	-0.336
-712.704	800.000	0.157	-0.620
-711.689	-150.222	-0.329	0.026
-710.675	800.000	0.066	0.248
-709.660	104.800	0.113	-0.133
-708.645	527.750	0.203	-0.481
-707.631	9.828	0.069	-0.053
-706.616	800.000	0.076	0.301
-705.602	182.014	0.029	0.043
-704.587	708.312	0.011	-0.029
-703.572	-103.816	-0.377	-0.088
-702.558	91.863	-0.188	0.213
-701.543	800.000	-0.017	0.068
-700.529	800.000	-0.093	0.279
-699.514	-81.845	-0.062	0.020
-698.499	54.191	-0.186	-0.180
-697.485	800.000	0.024	0.091
-696.470	-91.862	0.132	0.038
-695.456	-200.000	-0.063	0.336
-694.441	21.630	-0.209	-0.170
-693.426	-115.163	0.263	0.050
-692.412	-200.000	0.038	-0.208
-691.397	-97.900	0.029	0.007
-690.383	-78.691	0.079	0.027
-689.368	34.959	0.344	-0.302
-688.354	-116.120	-0.128	0.024
-687.339	458.484	0.037	0.082
-686.324	-130.080	0.240	-0.033
-685.310	-123.705	0.251	0.040
-684.295	141.616	-0.139	0.184
-683.281	560.011	0.044	-0.106
-682.266	-74.558	-0.264	-0.095
-681.251	626.857	-0.049	0.124
-680.237	-127.235	-0.260	-0.038
-679.222	64.511	-0.057	-0.058
-678.208	-46.871	0.282	0.138
-677.193	-89.614	-0.373	-0.110
-676.178	-56.145	0.072	-0.032
-675.164	-87.707	0.179	0.054
-674.149	-39.422	0.154	0.081
-673.135	60.861	0.265	-0.263
-672.120	-56.275	-0.172	0.077
-671.105	800.000	0.098	-0.410
-670.091	-174.579	-0.356	0.010
-669.076	224.551	0.101	-0.163
-668.062	-124.622	-0.203	-0.031
-667.047	-59.522	0.216	0.093
-666.032	-174.819	0.233	-0.007
-665.018	-103.453	-0.179	0.042
-664.003	800.000	0.082	-0.247
-662.989	18.435	0.074	-0.060
-661.974	-81.588	0.274	-0.090
-660.959	-75.481	0.135	-0.048
-659.945	70.698	-0.163	-0.169
-658.930	-132.432	-0.386	-0.050
-657.916	-200.000	-0.007	0.252
-656.901	15.820	0.127	-0.100
-655.886	171.728	-0.187	0.269
-654.872	213.469	-0.276	0.436
-653.857	800.000	0.103	-0.290
-652.843	-116.243	-0.310	-0.058
-651.828	-44.797	-0.073	-0.036
-650.814	-135.784	0.230	0.027
-649.799	-167.611	0.472	0.019
-648.784	-138.818	-0.087	0.010
-647.770	-51.021	-0.338	0.159
-646.755	111.521	-0.297	0.359
-645.741	-60.289	0.185	0.079
-644.726	73.449	0.194	0.203
-643.711	251.173	-0.169	0.288
-642.697	-200.000	-0.009	0.329
-641.682	-139.698	0.218	-0.023
-640.668	-159.055	-0.151	-0.009
-639.653	536.912	-0.063	-0.151
-638.638	693.870	-0.076	-0.199
-637.624	-88.875	-0.241	0.071
-636.609	-110.055	0.153	0.032
-635.595	176.404	0.087	-0.126
-634.580	406.404	-0.153	0.323
-633.565	-147.239	0.323	0.028
-632.551	-47.045	0.092	0.045
-631.536	-29.593	-0.146	0.083
-630.522	-200.000	-0.043	0.389
-629.507	29.456	-0.105	0.089
-628.492	-75.060	0.583	0.209
-627.478	-35.151	-0.214	-0.117
-626.463	800.000	-0.053	-0.162
-625.449	-200.000	0.030	0.164
-624.434	-76.128	-0.460	-0.162
-623.419	494.618	0.039	-0.090
-622.405	-118.332	-0.237	0.042
-621.390	121.889	0.150	-0.187
-620.376	800.000	-0.045	0.141
-619.361	800.000	0.082	-0.244
-618.346	-80.812	-0.362	0.120
-617.332	-68.265	0.176	-0.068
-616.317	-52.375	0.147	0.068
-615.303	276.915	-0.253	-0.449
-614.288	-23.923	-0.199	-0.119
-613.273	-61.873	-0.195	0.082
-612.259	505.781	0.062	0.145
-611.244	-82.034	-0.225	-0.073
-610.230	36.051	0.209	-0.184
-609.215	157.127	-0.191	-0.263
-608.201	800.000	-0.050	-0.139
-607.186	142.894	-0.094	-0.125
-606.171	-13.956	-0.103	0.066
-605.157	-169.817	0.220	-0.008
-604.142	-7.244	0.100	0.068
-603.128	-156.811	-0.068	-0.004
-602.113	-200.000	-0.013	-0.278
-601.098	84.516	-0.201	0.220
-600.084	95.697	0.232	-0.264
-599.069	-109.155	-0.125	-0.027
-598.055	246.213	0.179	0.302
-597.040	13.589	-0.080	0.062
-596.025	203.403	0.131	0.202
-595.011	-200.000	0.006	0.138
-593.996	-157.473	0.119	0.007
-592.982	800.000	-0.059	-0.232
-591.967	-56.405	-0.133	0.059
-590.952	262.371	0.098	0.170
-589.938	14.499	0.021	-0.016
-588.923	-59.328	-0.151	0.065
-587.909	-103.432	-0.469	-0.110
-586.894	-6.085	-0.127	-0.086
-585.879	-18.217	0.124	0.077
-584.865	-81.405	0.374	-0.123
-583.850	-200.000	-0.020	-0.194
-582.836	108.037	-0.073	-0.086
-581.821	-9.394	-0.219	-0.146
-580.806	-84.640	-0.279	0.088
-579.792	397.899	-0.120	-0.250
-578.777	-89.441	0.248	0.073
-577.763	-64.501	-0.141	-0.057
-576.748	12.414	-0.365	0.281
-575.733	265.882	-0.213	-0.371
-574.719	800.000	-0.051	0.172
-573.704	800.000	-0.063	0.259
-572.690	293.825	0.116	0.211
-571.675	-200.000	-0.031	0.268
-570.661	727.281	-0.018	0.048
-569.646	797.841	-0.177	-0.486
-568.631	-91.639	0.091	-0.026
-567.617	-83.573	-0.078	-0.025
-566.602	-92.126	0.182	0.051
-565.588	-200.000	-0.004	0.203
-564.573	-66.798	-0.107	0.042
-563.558	40.971	0.271	0.244
-562.544	549.610	0.026	-0.062
-561.529	-200.000	0.022	0.181
-560.515	265.210	-0.081	0.140
-559.500	261.824	0.008	-0.014
-558.485	-49.869	-0.033	0.016
-557.471	-50.103	-0.321	0.151
-556.456	-200.000	-0.187	-0.000
-555.442	86.756	-0.034	-0.037
-554.427	322.127	-0.145	-0.275
-553.412	-118.541	0.217	-0.038
-552.398	-200.000	-0.009	-0.171
-551.383	-120.180	0.343	0.058
-550.369	198.172	-0.201	0.307
-549.354	15.044	-0.171	0.134
-548.339	-200.000	-0.032	-0.228
-547.325	-84.964	0.079	-0.025
-546.310	-141.033	-0.166	-0.017
-545.296	800.000	0.070	0.259
-544.281	260.132	0.059	0.102
-543.266	-200.000	-0.045	0.265
-542.252	-200.000	0.016	0.133
-541.237	800.000	-0.062	-0.221
-540.223	-166.139	-0.324	-0.014
-539.208	349.587	-0.113	-0.222
-538.193	-75.473	0.407	0.144
-537.179	-200.000	-0.003	-0.241
-536.164	-46.718	0.377	0.184
-535.150	-200.000	0.028	-0.229
-534.135	-75.510	0.254	-0.090
-533.121	800.000	-0.053	-0.160
-532.106	-101.901	0.261	0.063
-531.091	70.158	0.071	-0.073
-530.077	-140.525	0.291	-0.030
-529.062	800.000	-0.054	-0.152
-528.048	-127.519	0.431	-0.062
-527.033	11.766	0.117	0.089
-526.018	143.354	-0.183	-0.243
-525.004	-50.104	-0.130	-0.061
-523.989	-47.293	0.188	-0.091
-522.975	-25.093	0.140	-0.083
-521.960	-64.765	0.151	-0.061
-520.945	800.000	0.070	-0.301
-519.931	41.661	-0.075	0.068
-518.916	171.487	-0.110	-0.158
-517.902	418.984	-0.290	-0.617
-516.887	425.109	-0.042	-0.091
-515.872	506.013	0.224	-0.516
-514.858	-144.147	-0.363	-0.034
-513.843	80.788	-0.148	0.159
-512.829	-12.947	-0.167	-0.108
-511.814	-20.099	-0.200	0.123
-510.799	97.775	0.207	0.237
-509.785	623.860	0.139	0.349
-508.770	-112.553	0.459	-0.091
-507.756	800.000	-0.089	-0.300
-506.741	800.000	-0.038	-0.113
-505.726	13.686	0.050	-0.039
-504.712	-151.253	0.232	0.017
-503.697	208.958	0.098	-0.153
-502.683	-69.196	-0.199	-0.076
-501.668	-7.964	-0.360	-0.242
-500.653	-63.615	-0.139	-0.057
-499.639	36.583	0.117	0.103
-498.624	-129.854	-0.484	0.066
-497.610	-163.161	0.269	0.013
-496.595	800.000	0.023	-0.076
-495.581	800.000	0.037	0.158
-494.566	-141.188	0.106	-0.011
-493.551	-13.928	-0.245	-0.158
-492.537	62.861	0.125	0.124
-491.522	118.627	-0.146	-0.179
-490.508	50.335	0.102	-0.096
-489.493	-125.025	-0.435	0.067
-488.478	-20.948	0.149	-0.091
-487.464	-18.455	0.275	-0.171
-486.449	105.886	0.056	-0.066
-485.435	127.142	0.058	-0.073
-484.420	-16.760	0.117	-0.074
-483.405	800.000	-0.036	0.116
-482.391	498.698	0.022	0.050
-481.376	-200.000	0.023	0.301
-480.362	800.000	-0.099	0.375
-479.347	800.000	0.050	-0.190
-478.332	53.554	0.119	0.113
-477.318	-56.101	-0.087	-0.038
-476.303	-12.166	-0.193	-0.126
-475.289	-41.574	0.201	-0.103
-474.274	81.736	-0.243	0.261
-473.259	-111.170	-0.103	-0.021
-472.245	356.646	0.085	0.167
-471.230	10.050	-0.364	0.275
-470.216	-32.508	-0.129	-0.071
-469.201	-5.849	-0.239	-0.163
-468.186	-23.043	0.154	0.092
-467.172	-91.825	0.137	-0.039
-466.157	40.123	0.183	-0.163
-465.143	-150.080	-0.205	0.016
-464.128	-143.595	-0.095	-0.009
-463.113	172.207	0.197	-0.282
-462.099	595.171	-0.102	0.251
-461.084	103.573	-0.239	0.278
-460.070	800.000	-0.041	0.147
-459.055	-200.000	0.038	-0.210
-458.040	-200.000	-0.025	-0.199
-457.026	-200.000	0.102	-0.657
-456.011	800.000	0.058	-0.195
-454.997	-128.581	-0.248	-0.035
-453.982	100.282	-0.097	-0.112
-452.968	-83.236	0.058	-0.019
-451.953	-47.440	-0.171	-0.083
-450.938	28.045	-0.100	-0.084
-449.924	276.479	0.102	0.181
-448.909	92.688	0.043	0.048
-447.895	-200.000	0.050	0.436
-446.880	800.000	0.037	-0.127
-445.865	-43.625	0.222	0.111
-444.851	9.019	0.424	-0.318
-443.836	800.000	-0.071	-0.229
-442.822	800.000	-0.099	0.425
-441.807	-38.653	0.090	-0.047
-440.792	249.156	0.106	-0.179
-439.778	-9.745	-0.149	-0.099
-438.763	-125.215	-0.202	-0.031
-437.749	800.000	0.013	0.042
-436.734	-36.251	0.254	0.136
-435.719	-67.730	-0.013	-0.005
-434.705	40.861	0.054	0.048
-433.690	-98.909	0.317	0.080
-432.676	450.629	-0.094	0.206
-431.661	687.468	0.210	-0.546
-430.646	226.846	0.023	0.037
-429.632	-59.802	0.324	0.138
-428.617	-200.000	0.001	-0.175
-427.603	-7.874	0.294	-0.197
-426.588	-186.398	-0.402	0.006
-425.573	-34.524	0.289	0.157
-424.559	-172.337	-0.119	-0.004
-423.544	447.827	-0.053	-0.116
-422.530	-49.344	0.106	-0.050
-421.515	34.161	0.260	-0.225
-420.500	-99.762	-0.037	0.009
-419.486	26.837	-0.133	-0.110
-418.471	-86.060	0.298	0.091
-417.457	-19.574	-0.258	0.158
-416.442	-113.072	0.291	-0.057
-415.428	-200.000	-0.022	0.242
-414.413	800.000	0.029	0.110
-413.398	-200.000	-0.065	0.320
-412.384	-35.963	-0.156	-0.084
-411.369	-12.592	-0.160	-0.103
-410.355	41.871	-0.056	-0.050
-409.340	-115.827	-0.315	0.058
-408.325	-87.121	0.333	0.100
-407.311	247.255	0.045	-0.075
-406.296	800.000	-0.073	-0.256
-405.282	-1.690	-0.264	0.185
-404.267	485.103	0.095	0.215
-403.252	800.000	0.057	0.174
-402.238	360.864	-0.062	0.123
-401.223	-50.181	-0.212	-0.100
-400.209	800.000	-0.065	-0.180
-399.194	-47.080	0.197	-0.095
-398.179	-200.000	-0.288	-0.001
-397.165	128.456	0.262	-0.331
-396.150	-109.289	0.338	0.071
-395.136	314.423	0.034	0.064
-394.121	800.000	0.066	0.245
-393.106	800.000	-0.052	-0.149
-392.092	223.498	0.085	0.136
-391.077	362.096	-0.087	-0.173
-390.063	-200.000	-0.058	0.271
-389.048	-15.225	0.261	0.165
-388.033	55.067	-0.092	0.088
-387.019	108.936	-0.077	0.092
-386.004	713.335	-0.038	0.101
-384.990	-113.376	-0.115	0.022
-383.975	-120.004	-0.222	-0.038
-382.960	-130.882	-0.252	0.033
-381.946	-154.055	0.359	0.024
-380.931	-27.420	-0.164	0.095
-379.917	800.000	-0.092	0.347
-378.902	-49.028	-0.113	0.054
-377.888	-200.000	-0.007	0.292
-376.873	190.374	-0.222	0.331
-375.858	800.000	-0.016	-0.058
-374.844	-133.964	-0.263	-0.032
-373.829	59.632	0.149	-0.145
-372.815	196.766	-0.127	0.192
-371.800	-131.653	-0.113	-0.015
-370.785	265.055	0.023	-0.040
-369.771	19.920	0.244	0.194
-368.756	800.000	0.059	-0.213
-367.742	-113.847	0.274	0.053
-366.727	15.712	0.239	0.186
-365.712	-49.099	-0.058	-0.027
-364.698	39.113	0.117	-0.103
-363.683	5.662	0.455	0.333
-362.669	-101.204	0.052	0.012
-361.654	407.880	-0.083	0.174
-360.639	800.000	-0.039	-0.162
-359.625	445.386	-0.215	0.468
-358.610	135.981	0.103	-0.133
-357.596	-17.611	0.168	0.105
-356.581	130.293	0.302	0.383
-355.566	-64.553	-0.291	-0.117
-354.552	77.186	0.186	-0.195
-353.537	-70.524	0.243	-0.091
-352.523	-200.000	-0.014	0.119
-351.508	-95.585	-0.206	0.055
-350.493	110.577	0.126	-0.150
-349.479	704.094	-0.093	-0.244
-348.464	-200.000	-0.023	0.205
-347.450	157.904	-0.192	-0.264
-346.435	10.098	-0.242	0.182
-345.420	7.608	-0.130	-0.096
-344.406	-149.910	-0.338	0.026
-343.391	-200.000	0.063	-0.273
-342.377	-154.821	-0.145	-0.009
-341.362	297.488	0.139	-0.252
-340.348	15.785	0.160	-0.125
-339.333	-115.416	-0.069	-0.013
-338.318	34.832	0.153	-0.132
-337.304	-77.515	-0.340	0.117
-336.289	191.285	0.119	0.178
-335.275	-178.140	-0.065	-0.002
-334.260	286.629	0.088	0.156
-333.245	230.405	-0.059	-0.096
-332.231	188.298	0.394	0.583
-331.216	-84.319	-0.109	0.034
-330.202	800.000	0.096	-0.303
-329.187	107.481	0.222	-0.261
-328.172	-78.491	0.186	-0.063
-327.158	-7.939	-0.189	0.126
-326.143	800.000	0.132	0.559
-325.129	80.438	-0.209	0.222
-324.114	349.872	0.017	-0.033
-323.099	93.497	-0.078	0.087
-322.085	416.439	-0.102	-0.216
-321.070	18.382	0.134	0.106
-320.056	-24.138	-0.111	0.065
-319.041	-64.719	0.166	-0.066
-318.026	-200.000	0.020	0.331
-317.012	166.184	0.114	0.159
-315.997	-98.000	0.182	0.046
-314.983	800.000	-0.048	0.137
-313.968	-28.037	-0.063	-0.036
-312.953	84.372	-0.261	0.282
-311.939	-154.940	-0.205	-0.013
-310.924	-151.152	0.399	-0.030
-309.910	132.462	0.106	-0.134
-308.895	308.152	0.134	-0.247
-307.880	-6.545	0.073	-0.049
-306.866	-160.311	0.381	0.020
-305.851	-75.375	-0.359	0.127
-304.837	-40.717	-0.059	-0.030
-303.822	800.000	0.059	0.199
-302.807	-143.363	-0.230	0.022
-301.793	800.000	0.042	0.125
-300.778	157.666	-0.034	-0.047
-299.764	-133.169	0.188	-0.024
-298.749	135.839	0.048	-0.061
-297.735	800.000	-0.073	-0.232
-296.720	17.348	-0.056	-0.044
-295.705	40.949	0.265	0.236
-294.691	223.688	-0.066	0.105
-293.676	-10.004	-0.182	-0.119
-292.662	-53.179	0.407	-0.185
-291.647	221.591	-0.173	0.274
-290.632	-159.356	0.275	-0.015
-289.618	800.000	0.054	0.156
-288.603	430.260	-0.177	0.378
-287.589	800.000	0.072	-0.231
-286.574	55.452	0.158	0.151
-285.559	-171.578	-0.087	0.003
-284.545	248.973	-0.067	0.112
-283.530	800.000	-0.034	0.110
-282.516	-200.000	0.008	0.130
-281.501	-66.185	0.301	0.119
-280.486	124.145	0.114	0.142
-279.472	169.240	0.204	-0.287
-278.457	-68.608	-0.101	-0.039
-277.443	-200.000	0.059	-0.273
-276.428	-200.000	0.022	-0.130
-275.413	-84.547	-0.332	-0.103
-274.399	-200.000	0.032	0.141
-273.384	-200.000	0.010	-0.290
-272.370	-55.919	0.234	0.103
-271.355	255.417	-0.081	0.136
-270.340	781.139	-0.105	-0.283
-269.326	-144.091	0.246	0.023
-268.311	-52.346	-0.214	0.098
-267.297	-200.000	-0.006	-0.114
-266.282	-121.775	-0.075	-0.012
-265.267	107.311	-0.112	0.131
-264.253	-127.053	0.269	0.039
-263.238	124.790	-0.098	0.121
-262.224	800.000	-0.056	0.156
-261.209	32.307	-0.080	-0.068
-260.195	-200.000	-0.028	-0.686
-259.180	-200.000	0.015	-0.160
-258.165	95.674	-0.158	-0.178
-257.151	-102.976	0.205	0.048
-256.136	9.186	-0.328	-0.245
-255.122	-144.596	0.103	0.009
-254.107	-100.337	0.205	-0.050
-253.092	424.836	0.189	-0.402
-252.078	22.021	-0.262	0.211
-251.063	-81.669	0.219	-0.071
-250.049	-88.060	-0.342	0.101
-249.034	62.055	0.202	0.198
-248.019	-105.560	0.069	-0.015
-247.005	-69.978	-0.200	-0.075
-245.990	-5.042	0.118	0.080
-244.976	-200.000	-0.021	0.398
-243.961	559.205	-0.120	0.285
-242.946	188.386	0.090	-0.132
-241.932	153.265	-0.086	0.116
-240.917	120.853	-0.195	-0.239
-239.903	-146.044	-0.488	-0.042
-238.888	-43.206	-0.254	-0.127
-237.873	-200.000	0.016	0.368
-236.859	-135.671	-0.174	0.020
-235.844	103.356	0.222	-0.257
-234.830	12.682	-0.254	-0.193
-233.815	156.164	0.113	-0.154
-232.800	-12.257	0.049	0.032
-231.786	-200.000	-0.003	-0.120
-230.771	-28.329	-0.122	-0.069
-229.757	-200.000	0.064	0.318
-228.742	-200.000	0.003	0.038
-227.727	-147.531	0.146	0.012
-226.713	-3.928	-0.205	-0.140
-225.698	-137.823	0.208	-0.023
-224.684	-66.732	0.234	0.091
-223.669	-74.556	0.425	-0.151
-222.655	-58.024	0.066	-0.028
-221.640	122.107	0.169	-0.208
-220.625	-114.030	-0.098	0.019
-219.611	21.634	0.048	0.039
-218.596	-200.000	0.018	-0.084
-217.582	-84.155	0.168	-0.052
-216.567	-134.727	0.083	-0.010
-215.552	654.410	-0.064	0.160
-214.538	44.312	0.031	-0.028
-213.523	-6.633	-0.127	0.085
-212.509	53.237	-0.069	0.065
-211.494	-76.710	-0.136	-0.047
-210.479	-34.114	-0.245	0.132
-209.465	-78.881	0.336	0.113
-208.450	-101.879	0.281	0.067
-207.436	351.185	-0.166	-0.323
-206.421	-84.318	0.148	-0.046
-205.406	263.923	0.170	-0.291
-204.392	-149.350	-0.093	0.007
-203.377	263.216	0.076	-0.130
-202.363	-200.000	0.003	-0.111
-201.348	236.565	-0.034	0.055
-200.333	324.566	-0.142	-0.267
-199.319	98.741	0.234	0.266
-198.304	31.921	0.231	0.195
-197.290	-27.406	-0.249	-0.143
-196.275	126.051	0.205	-0.255
-195.260	-173.513	-0.247	-0.007
-194.246	-21.817	-0.082	-0.049
-193.231	4.307	0.168	0.121
-192.217	-172.377	0.115	0.004
-191.202	800.000	0.018	-0.071
-190.187	44.107	0.156	0.141
-189.173	-67.875	-0.171	-0.066
-188.158	-200.000	-0.006	0.076
-187.144	396.053	0.084	0.172
-186.129	-168.744	-0.252	0.009
-185.114	60.785	0.157	0.153
-184.100	-200.000	0.026	-0.125
-183.085	800.000	-0.008	-0.033
-182.071	800.000	-0.087	-0.280
-181.056	-200.000	-0.019	-0.142
-180.042	-75.200	0.299	-0.105
-179.027	-167.790	-0.120	-0.005
-178.012	-64.699	-0.449	-0.179
-176.998	-200.000	0.013	0.237
-175.983	-200.000	0.018	-0.086
-174.969	-28.789	-0.100	-0.056
-173.954	176.801	0.216	-0.308
-172.939	800.000	0.067	-0.191
-171.925	168.600	0.075	0.104
-170.910	-26.353	-0.141	-0.081
-169.896	122.173	0.165	0.202
-168.881	-74.231	-0.088	0.031
-167.866	800.000	-0.048	0.137
-166.852	-28.716	-0.239	0.135
-165.837	-180.422	-0.220	0.004
-164.823	-53.905	0.216	-0.097
-163.808	38.963	0.185	0.163
-162.793	597.300	0.110	0.268
-161.779	116.867	-0.172	-0.207
-160.764	157.154	-0.143	-0.195
-159.750	800.000	-0.078	-0.324
-158.735	39.183	0.031	-0.027
-157.720	-200.000	0.007	0.138
-156.706	-109.937	0.243	0.050
-155.691	-110.609	0.224	-0.045
-154.677	-45.060	-0.288	0.141
-153.662	800.000	0.085	0.247
-152.647	-200.000	-0.029	0.226
-151.633	110.549	-0.099	-0.117
-150.618	-143.090	0.129	-0.012
-149.604	-200.000	-0.031	-0.350
-148.589	418.016	-0.098	-0.206
-147.574	-6.168	-0.238	0.160
-146.560	-164.772	-0.308	0.014
-145.545	123.307	-0.181	0.222
-144.531	364.669	-0.044	-0.086
-143.516	-28.531	-0.382	-0.216
-142.502	-8.275	-0.123	0.081
-141.487	-54.172	-0.113	-0.050
-140.472	-142.420	-0.240	-0.023
-139.458	380.669	-0.070	-0.140
-138.443	21.816	0.338	0.270
-137.429	-117.684	-0.105	0.019
-136.414	166.930	-0.184	0.256
-135.399	-16.866	0.249	0.154
-134.385	-57.368	-0.170	-0.073
-133.370	-200.000	0.015	-0.184
-132.356	-200.000	0.037	0.229
-131.341	31.319	-0.256	-0.215
-130.326	-135.906	-0.130	-0.015
-129.312	180.885	-0.056	-0.081
-128.297	311.069	0.125	0.230
-127.283	179.775	-0.110	-0.158
-126.268	-117.467	0.509	0.090
-125.253	70.983	0.057	0.058
-124.239	0.343	-0.579	0.406
-123.224	-26.675	0.147	0.084
-122.210	224.694	-0.186	-0.295
