DTS Sentinel unit serial number:	SN413079Multiplexer serial number:	ORYXHardware model number:	OX4-SRSoftware version number:	ORYX F/W v4.00 Oryx Data Collector v3.7.2.0data status	okinstallation	princeton_trtdifferential loss correction	single-endedforward channel	channel 2reverse channel	N/Adate	2019/09/16time	11:23:35forward acquisition time	60.00reverse acquisition time	0.00gamma	496.2192k internal	0.2312k external	0.2312temperature offset calibration	0.9956default loss term (dB/km)	0.3790temperature slope calibration	1.0000multiplexer offset coefficient	1.0000multiplexer slope coefficient	1.0000fibre end	0.00T internal ref (°C)	37.37T ext. ref 1 (°C)	12.90T ext. ref 2 (°C)	34.67length (m)	temperature (°C)	Stokes	anti-Stokes-747.200	162.293	0.048	-0.068
-746.185	-123.595	-0.157	-0.025
-745.171	149.341	0.038	-0.052
-744.156	176.449	0.058	0.085
-743.142	-51.419	-0.183	0.087
-742.127	-129.409	-0.357	0.050
-741.112	-200.000	-0.070	0.000
-740.098	800.000	0.052	0.204
-739.083	800.000	-0.062	-0.176
-738.069	-104.944	-0.278	0.065
-737.054	-169.918	-0.085	-0.003
-736.039	74.130	0.134	-0.143
-735.025	134.161	-0.052	0.068
-734.010	-51.939	-0.071	-0.033
-732.996	99.862	-0.344	-0.404
-731.981	-51.995	-0.220	-0.104
-730.966	-200.000	0.018	-0.277
-729.952	71.956	0.218	-0.230
-728.937	17.000	0.070	0.056
-727.923	726.345	0.024	-0.064
-726.908	63.955	0.124	0.126
-725.894	-200.000	0.016	0.195
-724.879	-82.048	-0.146	-0.048
-723.864	-100.820	-0.219	0.055
-722.850	-120.385	-0.129	0.022
-721.835	-200.000	-0.014	-0.081
-720.821	202.839	-0.113	0.178
-719.806	233.685	0.190	0.316
-718.791	-132.433	-0.218	-0.028
-717.777	-147.995	-0.275	-0.023
-716.762	-200.000	0.034	0.153
-715.748	50.915	0.018	0.017
-714.733	106.427	-0.178	-0.214
-713.718	254.979	0.076	0.133
-712.704	-114.166	-0.251	-0.049
-711.689	-200.000	-0.016	-0.297
-710.675	141.154	-0.153	-0.206
-709.660	-70.060	-0.314	0.121
-708.645	-79.925	-0.216	0.073
-707.631	-200.000	0.010	-0.375
-706.616	10.075	-0.216	0.166
-705.602	800.000	-0.107	-0.425
-704.587	52.996	-0.112	-0.109
-703.572	-3.849	-0.152	0.107
-702.558	-170.261	-0.259	0.009
-701.543	-200.000	-0.030	-0.204
-700.529	-200.000	-0.062	-0.304
-699.514	-73.414	-0.207	0.076
-698.499	98.120	0.143	0.167
-697.485	-55.630	-0.213	-0.097
-696.470	-168.108	-0.054	0.002
-695.456	132.735	-0.112	0.146
-694.441	-42.376	0.166	0.086
-693.426	-200.000	-0.006	-0.122
-692.412	-200.000	0.018	-0.388
-691.397	-165.276	-0.163	0.007
-690.383	-85.006	-0.263	-0.083
-689.368	800.000	-0.096	-0.297
-688.354	-25.735	-0.314	-0.187
-687.339	-95.590	0.226	-0.061
-686.324	-84.994	-0.492	-0.156
-685.310	-73.976	-0.067	-0.025
-684.295	800.000	-0.037	0.151
-683.281	800.000	-0.036	0.117
-682.266	-86.415	0.052	0.016
-681.251	225.659	-0.251	-0.412
-680.237	-95.605	0.368	-0.100
-679.222	-200.000	0.010	0.347
-678.208	-200.000	0.017	0.189
-677.193	34.350	-0.244	-0.215
-676.178	-200.000	0.116	-0.653
-675.164	-10.201	0.082	-0.055
-674.149	-35.576	-0.290	-0.159
-673.135	-16.720	-0.124	0.079
-672.120	299.398	-0.072	-0.134
-671.105	-134.629	0.149	0.018
-670.091	114.918	-0.232	-0.286
-669.076	800.000	0.126	-0.374
-668.062	646.412	-0.009	0.023
-667.047	800.000	-0.084	0.303
-666.032	-146.236	0.110	-0.010
-665.018	-42.869	-0.298	0.153
-664.003	9.878	-0.249	-0.191
-662.989	22.290	0.258	-0.213
-661.974	427.922	-0.168	0.367
-660.959	-89.011	-0.042	0.013
-659.945	43.205	0.203	0.187
-658.930	36.492	0.133	0.119
-657.916	332.928	0.175	-0.342
-656.901	10.706	0.080	0.061
-655.886	39.226	-0.128	-0.116
-654.872	-43.693	-0.231	-0.118
-653.857	800.000	-0.021	0.082
-652.843	800.000	-0.048	-0.152
-651.828	487.307	0.076	-0.176
-650.814	-200.000	-0.041	-0.367
-649.799	177.999	-0.108	0.160
-648.784	408.327	-0.050	0.108
-647.770	-42.286	0.135	-0.070
-646.755	800.000	-0.091	-0.261
-645.741	110.740	-0.163	0.198
-644.726	-200.000	0.119	-0.626
-643.711	389.161	-0.067	-0.140
-642.697	24.147	0.113	0.094
-641.682	-83.426	0.114	-0.037
-640.668	-60.589	-0.341	0.146
-639.653	141.671	0.075	-0.101
-638.638	449.129	0.128	0.285
-637.624	-200.000	-0.024	0.232
-636.609	-82.502	-0.235	0.077
-635.595	14.456	-0.235	0.185
-634.580	366.807	-0.169	0.345
-633.565	-98.245	-0.179	0.046
-632.551	54.167	0.393	-0.382
-631.536	387.416	0.131	-0.273
-630.522	32.364	-0.302	-0.264
-629.507	83.456	-0.050	-0.055
-628.492	-9.519	-0.088	-0.059
-627.478	-200.000	-0.102	-0.467
-626.463	-167.559	0.169	0.007
-625.449	-200.000	-0.006	0.167
-624.434	462.921	0.144	-0.325
-623.419	-200.000	-0.084	-0.493
-622.405	52.162	-0.124	-0.119
-621.390	79.954	-0.079	0.086
-620.376	-94.474	0.081	-0.022
-619.361	72.742	-0.124	-0.130
-618.346	465.507	0.122	-0.277
-617.332	-69.786	0.375	-0.144
-616.317	-69.265	-0.206	0.080
-615.303	-27.257	-0.101	-0.059
-614.288	-132.593	-0.088	-0.011
-613.273	-21.701	0.096	-0.059
-612.259	144.583	0.061	0.082
-611.244	69.783	-0.192	0.200
-610.230	56.128	0.212	0.207
-609.215	190.365	0.136	0.206
-608.201	140.272	-0.198	-0.264
-607.186	-42.008	-0.118	0.061
-606.171	-130.618	-0.256	-0.035
-605.157	351.371	-0.095	0.189
-604.142	-71.793	-0.118	-0.044
-603.128	-96.184	-0.119	0.032
-602.113	-17.076	-0.169	0.108
-601.098	-100.322	-0.003	-0.001
-600.084	-37.008	-0.392	0.212
-599.069	-200.000	0.016	0.327
-598.055	-200.000	-0.009	0.235
-597.040	-200.000	0.003	0.023
-596.025	-25.816	0.196	-0.117
-595.011	19.832	-0.084	0.069
-593.996	349.693	-0.254	0.505
-592.982	-200.000	0.011	0.279
-591.967	9.977	0.222	-0.170
-590.952	-200.000	-0.078	0.389
-589.938	-141.972	-0.184	0.019
-588.923	800.000	0.023	0.098
-587.909	-103.090	-0.206	0.049
-586.894	-29.121	-0.155	0.090
-585.879	-60.297	0.384	-0.165
-584.865	-127.261	-0.156	-0.023
-583.850	-139.172	-0.157	0.017
-582.836	48.480	-0.210	0.198
-581.821	-200.000	0.017	0.235
-580.806	-51.777	-0.301	-0.141
-579.792	291.503	0.130	0.239
-578.777	-70.944	0.080	0.030
-577.763	-126.473	0.056	-0.008
-576.748	800.000	-0.116	-0.378
-575.733	-96.478	0.146	0.039
-574.719	-145.670	0.226	0.020
-573.704	-62.814	0.234	-0.098
-572.690	84.513	-0.073	0.080
-571.675	-200.000	-0.010	0.129
-570.661	-72.529	0.301	-0.112
-569.646	800.000	-0.105	0.307
-568.631	780.913	0.143	0.395
-567.617	15.960	0.122	0.097
-566.602	-134.854	0.190	0.023
-565.588	-200.000	0.036	0.222
-564.573	8.621	0.265	0.201
-563.558	-200.000	0.020	0.238
-562.544	-33.435	0.199	0.111
-561.529	800.000	-0.021	-0.088
-560.515	-72.784	0.077	0.029
-559.500	353.633	0.109	0.218
-558.485	-165.311	0.054	0.002
-557.471	-70.546	0.218	0.083
-556.456	145.997	-0.124	-0.167
-555.442	39.540	0.138	-0.124
-554.427	-200.000	-0.007	0.127
-553.412	118.497	-0.175	-0.218
-552.398	-38.160	0.215	-0.115
-551.383	800.000	0.062	0.192
-550.369	376.810	-0.079	-0.162
-549.354	-60.918	-0.139	-0.059
-548.339	459.017	0.062	-0.139
-547.325	-68.634	0.212	0.083
-546.310	218.197	-0.150	-0.241
-545.296	-50.240	-0.214	0.102
-544.281	129.882	-0.126	-0.163
-543.266	768.994	0.067	-0.184
-542.252	800.000	0.026	-0.081
-541.237	84.249	-0.032	-0.035
-540.223	405.681	0.055	-0.117
-539.208	134.509	-0.100	-0.131
-538.193	-152.919	-0.662	0.047
-537.179	-127.440	0.160	0.023
-536.164	-25.167	-0.170	-0.102
-535.150	-63.971	-0.134	-0.055
-534.135	-19.027	0.193	-0.121
-533.121	121.281	0.203	0.255
-532.106	-138.364	0.300	-0.033
-531.091	-175.281	-0.188	-0.005
-530.077	253.754	0.149	-0.256
-529.062	-200.000	-0.005	-0.340
-528.048	565.573	-0.063	-0.153
-527.033	-200.000	-0.015	0.071
-526.018	-200.000	-0.012	0.303
-525.004	-14.910	0.291	0.188
-523.989	-103.631	0.053	-0.013
-522.975	-74.375	-0.196	-0.071
-521.960	-134.313	-0.232	0.029
-520.945	-200.000	-0.045	0.288
-519.931	25.468	0.319	-0.267
-518.916	-63.821	-0.424	0.175
-517.902	175.583	-0.207	-0.301
-516.887	800.000	0.159	-0.465
-515.872	800.000	-0.083	-0.243
-514.858	629.980	-0.045	-0.113
-513.843	296.324	0.107	0.197
-512.829	-47.380	0.187	-0.091
-511.814	-35.778	-0.201	-0.109
-510.799	-133.080	0.205	0.026
-509.785	231.435	-0.146	-0.241
-508.770	-200.000	0.017	0.186
-507.756	-200.000	-0.007	-0.183
-506.741	-200.000	-0.056	-0.306
-505.726	26.148	-0.089	0.075
-504.712	-17.272	0.094	-0.060
-503.697	-90.588	-0.121	-0.035
-502.683	480.505	-0.071	-0.161
-501.668	-168.921	0.109	-0.004
-500.653	-19.840	0.018	0.011
-499.639	-149.590	0.174	0.014
-498.624	-200.000	0.006	0.183
-497.610	-85.981	-0.322	0.100
-496.595	289.311	-0.088	0.160
-495.581	11.963	0.111	0.086
-494.566	-132.268	-0.212	0.028
-493.551	107.682	0.106	-0.126
-492.537	800.000	0.105	-0.309
-491.522	135.341	-0.225	-0.294
-490.508	-200.000	-0.034	-0.211
-489.493	-38.216	0.177	-0.094
-488.478	92.449	-0.070	-0.079
-487.464	-108.789	-0.255	-0.055
-486.449	800.000	0.040	0.143
-485.435	-200.000	0.012	-0.106
-484.420	-60.401	0.199	-0.085
-483.405	99.720	0.260	-0.303
-482.391	-200.000	0.001	-0.037
-481.376	800.000	0.034	-0.146
-480.362	-57.671	-0.119	0.053
-479.347	-123.291	0.273	0.044
-478.332	53.765	0.135	-0.130
-477.318	-106.408	-0.022	-0.005
-476.303	160.042	-0.073	0.103
-475.289	-105.515	-0.250	0.057
-474.274	4.624	0.227	0.168
-473.259	52.781	0.216	0.208
-472.245	800.000	-0.088	0.299
-471.230	-200.000	-0.027	-0.432
-470.216	800.000	0.031	-0.091
-469.201	-200.000	0.005	0.297
-468.186	-55.171	0.330	0.149
-467.172	-91.100	-0.109	0.032
-466.157	3.181	-0.254	-0.185
-465.143	71.453	-0.251	-0.262
-464.128	53.109	-0.139	0.133
-463.113	-200.000	0.016	-0.115
-462.099	-59.639	-0.045	-0.019
-461.084	-14.573	0.137	0.088
-460.070	-85.689	0.172	0.054
-459.055	-45.926	0.263	0.130
-458.040	-116.112	0.201	0.038
-457.026	-59.422	-0.373	0.161
-456.011	-111.308	0.200	0.041
-454.997	296.686	0.133	0.244
-453.982	720.740	-0.035	-0.094
-452.968	667.180	-0.065	-0.167
-451.953	800.000	0.061	-0.217
-450.938	224.135	-0.199	-0.322
-449.924	800.000	-0.037	-0.156
-448.909	184.891	-0.119	-0.177
-447.895	30.567	-0.165	0.142
-446.880	-147.433	0.261	0.022
-445.865	302.223	0.084	0.156
-444.851	-96.888	0.206	0.054
-443.836	-83.848	0.221	-0.071
-442.822	123.619	-0.222	0.280
-441.807	-162.087	0.121	-0.006
-440.792	-200.000	-0.014	0.200
-439.778	-200.000	-0.001	0.102
-438.763	-53.252	0.199	-0.092
-437.749	800.000	-0.041	-0.134
-436.734	171.198	-0.188	-0.270
-435.719	-200.000	0.010	-0.246
-434.705	-88.807	0.189	0.056
-433.690	-88.522	-0.186	-0.056
-432.676	-84.360	-0.084	-0.027
-431.661	-200.000	-0.036	-0.264
-430.646	800.000	-0.050	0.202
-429.632	3.472	0.261	0.190
-428.617	110.089	0.172	0.207
-427.603	-200.000	-0.040	0.260
-426.588	-5.147	0.088	-0.060
-425.573	-200.000	0.000	-0.005
-424.559	251.092	0.143	0.244
-423.544	-50.651	0.249	-0.118
-422.530	-70.208	-0.227	0.086
-421.515	60.161	-0.198	0.196
-420.500	142.101	0.222	0.295
-419.486	301.671	0.133	-0.246
-418.471	-109.668	0.313	0.066
-417.457	800.000	-0.108	0.402
-416.442	-83.100	-0.091	0.029
-415.428	521.727	-0.072	-0.168
-414.413	-200.000	0.013	0.070
-413.398	640.431	-0.068	-0.173
-412.384	-41.472	-0.066	-0.034
-411.369	800.000	0.097	-0.326
-410.355	-108.420	0.178	-0.038
-409.340	381.684	0.124	-0.254
-408.325	-170.363	0.348	0.012
-407.311	170.127	-0.162	0.232
-406.296	-146.933	0.137	0.012
-405.282	-83.086	0.198	0.064
-404.267	48.363	0.204	-0.191
-403.252	39.014	0.132	-0.118
-402.238	-64.763	-0.263	0.107
-401.223	117.513	-0.128	0.158
-400.209	-200.000	0.060	0.330
-399.194	81.019	0.140	-0.151
-398.179	11.638	0.202	-0.155
-397.165	781.556	-0.073	-0.200
-396.150	27.070	0.222	0.187
-395.136	-192.875	0.264	-0.002
-394.121	-41.372	0.204	0.105
-393.106	-90.889	-0.072	-0.021
-392.092	1.423	-0.069	0.050
-391.077	121.836	-0.145	-0.181
-390.063	-135.928	-0.177	0.021
-389.048	-110.168	0.221	-0.046
-388.033	-56.520	0.227	-0.101
-387.019	800.000	-0.065	0.219
-386.004	-200.000	-0.012	-0.081
-384.990	-67.170	0.437	-0.172
-383.975	-62.981	-0.340	-0.141
-382.960	-146.703	-0.237	-0.021
-381.946	-124.512	0.148	0.023
-380.931	62.519	-0.145	0.145
-379.917	-155.181	0.139	0.009
-378.902	-200.000	-0.096	-0.538
-377.888	-13.050	0.206	-0.134
-376.873	-57.822	0.261	-0.114
-375.858	125.345	-0.173	0.219
-374.844	-41.212	-0.104	0.054
-373.829	-78.390	-0.020	0.007
-372.815	605.056	0.033	-0.083
-371.800	299.537	0.111	0.204
-370.785	800.000	0.018	-0.066
-369.771	800.000	0.095	-0.335
-368.756	-200.000	-0.025	0.331
-367.742	-68.367	-0.415	0.161
-366.727	24.614	0.295	0.244
-365.712	-35.401	-0.198	-0.108
-364.698	-23.620	0.126	-0.075
-363.683	75.215	-0.094	0.100
-362.669	-167.642	-0.075	-0.003
-361.654	267.870	0.080	-0.141
-360.639	514.125	-0.167	0.390
-359.625	-132.668	0.189	0.024
-358.610	-200.000	0.015	-0.338
-357.596	48.759	-0.148	0.139
-356.581	-71.357	-0.237	-0.089
-355.566	-90.689	-0.224	0.065
-354.552	340.304	0.071	-0.138
-353.537	136.086	0.112	0.146
-352.523	-200.000	0.001	0.292
-351.508	711.648	-0.042	0.112
-350.493	800.000	0.020	0.065
-349.479	128.065	-0.175	-0.223
-348.464	80.275	-0.094	-0.101
-347.450	0.832	-0.201	-0.144
-346.435	-84.661	0.175	-0.055
-345.420	155.970	0.030	0.041
-344.406	43.823	0.102	0.093
-343.391	800.000	0.037	-0.160
-342.377	-73.887	-0.155	0.056
-341.362	-98.891	0.179	0.045
-340.348	-19.790	0.198	-0.122
-339.333	248.060	-0.103	0.174
-338.318	-200.000	0.009	-0.251
-337.304	188.090	-0.049	0.073
-336.289	102.621	0.277	0.323
-335.275	-74.738	-0.227	0.082
-334.260	-96.770	-0.481	-0.126
-333.245	-127.435	0.404	0.059
-332.231	-29.938	-0.090	-0.051
-331.216	800.000	0.079	0.284
-330.202	-126.146	0.102	-0.015
-329.187	-200.000	-0.045	0.203
-328.172	-86.951	0.275	0.084
-327.158	-117.467	-0.201	0.036
-326.143	-28.287	-0.147	-0.084
-325.129	-25.770	0.254	-0.149
-324.114	232.019	0.092	-0.151
-323.099	-200.000	-0.005	-0.178
-322.085	148.241	-0.079	0.107
-321.070	-11.926	0.111	-0.073
-320.056	-200.000	-0.072	-0.393
-319.041	251.460	-0.072	-0.123
-318.026	-200.000	-0.028	0.175
-317.012	89.098	0.356	0.395
-315.997	-0.778	0.069	-0.049
-314.983	-200.000	-0.014	-0.121
-313.968	-200.000	-0.034	0.172
-312.953	438.965	0.081	-0.176
-311.939	-4.803	-0.200	-0.137
-310.924	-143.756	0.066	-0.006
-309.910	39.389	-0.215	-0.192
-308.895	320.644	-0.062	0.117
-307.880	800.000	-0.064	0.183
-306.866	-42.378	-0.296	0.151
-305.851	-200.000	0.004	0.157
-304.837	-137.664	0.098	0.011
-303.822	32.662	0.139	-0.120
-302.807	66.585	-0.266	0.270
-301.793	251.556	0.109	-0.185
-300.778	-94.573	-0.047	-0.013
-299.764	-129.280	0.312	-0.043
-298.749	97.813	0.173	-0.198
-297.735	-31.661	0.071	-0.040
-296.720	-117.945	-0.290	0.052
-295.705	-200.000	0.004	0.169
-294.691	232.494	0.032	-0.053
-293.676	800.000	0.132	0.411
-292.662	-200.000	-0.013	0.160
-291.647	68.879	0.266	0.272
-290.632	365.006	-0.117	0.235
-289.618	31.136	-0.145	-0.124
-288.603	56.694	0.225	-0.218
-287.589	-24.535	-0.171	0.102
-286.574	13.406	0.173	-0.134
-285.559	-39.620	-0.225	0.117
-284.545	123.277	0.043	-0.054
-283.530	527.219	-0.113	-0.266
-282.516	0.187	-0.063	0.045
-281.501	56.026	0.257	-0.249
-280.486	-200.000	0.002	0.233
-279.472	800.000	-0.031	-0.114
-278.457	42.888	0.297	0.269
-277.443	-200.000	0.009	0.372
-276.428	800.000	-0.124	0.537
-275.413	-0.337	-0.243	-0.172
-274.399	14.021	0.304	-0.236
-273.384	-200.000	-0.024	0.147
-272.370	-89.859	0.047	-0.014
-271.355	192.132	-0.081	0.121
-270.340	-91.455	-0.101	-0.029
-269.326	-198.095	-0.383	-0.002
-268.311	51.276	0.137	-0.129
-267.297	-70.178	0.388	0.147
-266.282	12.183	-0.239	-0.183
-265.267	36.968	-0.173	-0.153
-264.253	-163.316	0.292	-0.014
-263.238	-91.679	0.175	0.050
-262.224	-29.425	-0.189	0.107
-261.209	-30.006	-0.054	0.030
-260.195	-138.990	0.160	-0.017
-259.180	110.786	-0.046	0.055
-258.165	343.374	0.092	0.180
-257.151	-74.098	-0.138	0.050
-256.136	-80.418	-0.373	0.124
-255.122	-65.214	-0.108	-0.043
-254.107	800.000	-0.129	0.476
-253.092	-15.017	0.114	0.073
-252.078	12.297	-0.184	0.141
-251.063	-74.910	0.093	0.033
-250.049	77.365	-0.036	0.038
-249.034	-200.000	0.059	0.522
-248.019	-68.805	-0.273	0.105
-247.005	621.908	-0.228	0.571
-245.990	-6.657	-0.230	-0.156
-244.976	40.231	0.334	-0.299
-243.961	-76.216	0.266	-0.093
-242.946	-126.378	0.150	0.022
-241.932	-122.921	0.026	-0.004
-240.917	105.888	-0.120	-0.142
-239.903	425.123	0.047	-0.100
-238.888	-72.706	-0.430	0.158
-237.873	35.075	0.106	-0.093
-236.859	15.685	0.053	-0.042
-235.844	-200.000	0.014	-0.112
-234.830	-90.690	-0.118	-0.034
-233.815	-75.787	-0.142	-0.050
-232.800	-48.251	0.107	-0.051
-231.786	-76.921	-0.261	0.091
-230.771	34.944	-0.183	0.159
-229.757	149.875	-0.064	0.086
-228.742	786.220	0.084	-0.229
-227.727	-124.893	0.416	0.064
-226.713	-200.000	-0.006	-0.051
-225.698	-56.976	0.325	-0.143
-224.684	-7.090	-0.170	0.115
-223.669	-50.058	-0.186	-0.088
-222.655	-200.000	0.015	-0.229
-221.640	188.348	0.101	-0.150
-220.625	119.796	-0.125	-0.154
-219.611	-200.000	0.007	0.107
-218.596	800.000	-0.042	-0.173
-217.582	148.765	-0.114	0.153
-216.567	339.950	0.242	0.469
-215.552	431.305	-0.125	0.268
-214.538	-200.000	-0.032	-0.220
-213.523	-64.020	-0.354	0.144
-212.509	-75.701	-0.087	-0.031
-211.494	85.310	-0.182	-0.198
-210.479	32.123	0.100	0.086
-209.465	10.520	-0.170	0.128
-208.450	-91.679	0.272	-0.077
-207.436	228.998	-0.061	0.099
-206.421	-74.754	0.470	0.168
-205.406	-54.500	0.311	-0.140
-204.392	-101.280	-0.240	0.058
-203.377	37.149	-0.010	-0.009
-202.363	-4.858	0.158	-0.108
-201.348	-163.076	0.405	-0.019
-200.333	333.122	-0.137	0.263
-199.319	-176.177	0.087	0.002
-198.304	-1.030	-0.267	-0.187
-197.290	95.762	-0.303	-0.344
-196.275	675.682	0.074	0.191
-195.260	13.986	0.247	-0.191
-194.246	485.573	0.080	0.182
-193.231	-163.379	-0.168	-0.008
-192.217	35.085	0.143	-0.124
-191.202	-200.000	-0.018	0.143
-190.187	179.825	-0.022	0.032
-189.173	178.168	0.107	-0.155
-188.158	100.058	-0.215	0.247
-187.144	-99.721	0.155	0.038
-186.129	24.440	0.135	-0.110
-185.114	267.100	-0.078	-0.135
-184.100	800.000	-0.076	0.243
-183.085	128.895	-0.130	-0.165
-182.071	163.429	-0.196	-0.274
-181.056	-63.473	0.170	0.069
-180.042	-66.524	-0.136	-0.054
-179.027	800.000	-0.031	-0.086
-178.012	407.012	0.225	-0.472
-176.998	-114.677	-0.147	-0.028
-175.983	120.511	-0.234	-0.288
-174.969	800.000	-0.068	-0.206
-173.954	165.849	0.176	-0.246
-172.939	-75.238	0.113	0.040
-171.925	-126.116	0.300	-0.045
-170.910	-16.723	0.032	0.020
-169.896	800.000	-0.108	0.412
-168.881	438.070	-0.186	-0.403
-167.866	-200.000	0.009	0.261
-166.852	124.567	-0.031	0.039
-165.837	-200.000	0.001	0.009
-164.823	-27.994	0.265	-0.152
-163.808	-66.494	-0.124	-0.049
-162.793	276.506	-0.093	0.163
-161.779	84.958	-0.356	-0.387
-160.764	220.943	0.058	0.092
-159.750	50.597	0.148	0.139
-158.735	800.000	0.095	0.320
-157.720	-179.294	-0.454	-0.010
-156.706	15.763	-0.159	-0.124
-155.691	22.775	0.221	0.180
-154.677	50.939	0.259	-0.243
-153.662	800.000	0.028	-0.105
-152.647	800.000	-0.065	-0.246
-151.633	-108.626	-0.289	0.062
-150.618	5.828	0.151	-0.110
-149.604	-43.081	-0.187	0.094
-148.589	31.883	-0.256	0.219
-147.574	437.504	0.040	0.085
-146.560	-67.912	-0.147	-0.057
-145.545	362.479	-0.056	0.112
-144.531	-115.379	0.149	-0.028
-143.516	-161.811	-0.133	-0.007
-142.502	8.262	-0.340	-0.253
-141.487	32.052	-0.180	0.154
-140.472	800.000	-0.047	0.144
-139.458	232.124	0.279	0.454
-138.443	-99.659	-0.208	-0.052
-137.429	-200.000	-0.013	-0.156
-136.414	234.161	0.076	-0.125
-135.399	800.000	-0.032	-0.098
-134.385	204.371	-0.144	-0.220
-133.370	-102.762	-0.223	-0.053
-132.356	235.006	0.067	0.110
-131.341	-200.000	0.025	0.111
-130.326	-116.122	0.182	-0.034
-129.312	-89.057	0.178	-0.052
-128.297	237.036	-0.227	0.373
-127.283	-200.000	0.028	-0.275
-126.268	398.510	-0.102	-0.211
-125.253	-200.000	0.028	0.335
-124.239	663.857	0.150	-0.383
-123.224	26.805	-0.218	0.180
-122.210	-25.917	0.183	-0.107
-121.195	383.521	0.150	-0.305
