DTS Sentinel unit serial number:	SN413079Multiplexer serial number:	ORYXHardware model number:	OX4-SRSoftware version number:	ORYX F/W v4.00 Oryx Data Collector v3.7.2.0data status	okinstallation	princeton_trtdifferential loss correction	single-endedforward channel	channel 2reverse channel	N/Adate	2019/09/15time	14:03:35forward acquisition time	60.00reverse acquisition time	0.00gamma	496.2192k internal	0.2302k external	0.2302temperature offset calibration	0.9990default loss term (dB/km)	0.3790temperature slope calibration	1.0000multiplexer offset coefficient	1.0000multiplexer slope coefficient	1.0000fibre end	0.00T internal ref (°C)	38.56T ext. ref 1 (°C)	4.95T ext. ref 2 (°C)	35.69length (m)	temperature (°C)	Stokes	anti-Stokes-747.200	87.834	0.169	-0.191
-746.185	-200.000	0.000	0.273
-745.171	-89.588	-0.311	0.093
-744.156	800.000	-0.100	0.322
-743.142	-120.587	0.408	0.071
-742.127	-194.399	-0.332	-0.003
-741.112	-125.775	0.043	-0.007
-740.098	44.026	-0.152	0.142
-739.083	-40.145	0.145	-0.077
-738.069	458.646	-0.114	0.258
-737.054	-90.484	0.312	0.092
-736.039	-124.476	-0.359	0.057
-735.025	77.640	-0.107	-0.116
-734.010	-50.565	-0.421	-0.202
-732.996	34.152	0.161	0.143
-731.981	800.000	-0.134	0.414
-730.966	-16.726	0.156	0.101
-729.952	429.625	0.117	-0.258
-728.937	800.000	-0.162	-0.515
-727.923	-95.078	-0.156	-0.043
-726.908	-38.543	0.119	-0.064
-725.894	137.430	-0.063	-0.085
-724.879	-83.333	-0.239	0.078
-723.864	-74.047	-0.285	0.105
-722.850	-200.000	0.032	-0.184
-721.835	-75.057	-0.114	0.042
-720.821	-1.239	-0.177	-0.128
-719.806	39.102	0.087	0.079
-718.791	523.298	-0.051	0.122
-717.777	16.742	0.056	-0.045
-716.762	-123.911	-0.252	0.040
-715.748	-200.000	0.005	-0.128
-714.733	57.753	-0.170	-0.169
-713.718	48.050	0.183	-0.174
-712.704	223.345	-0.126	-0.207
-711.689	277.944	0.079	-0.143
-710.675	15.849	0.020	-0.016
-709.660	-193.146	0.061	0.001
-708.645	55.134	0.056	-0.055
-707.631	800.000	0.033	-0.119
-706.616	356.461	-0.144	0.293
-705.602	17.401	0.077	-0.062
-704.587	10.215	-0.277	-0.215
-703.572	800.000	-0.016	-0.054
-702.558	-154.828	-0.089	-0.006
-701.543	-47.257	-0.099	0.049
-700.529	-48.350	0.167	-0.082
-699.514	-200.000	-0.050	0.334
-698.499	-197.113	0.217	0.001
-697.485	-110.084	-0.251	-0.053
-696.470	75.234	-0.072	-0.077
-695.456	800.000	0.042	-0.163
-694.441	800.000	-0.050	-0.215
-693.426	-78.633	-0.165	-0.057
-692.412	-58.203	0.075	-0.033
-691.397	800.000	-0.043	-0.182
-690.383	363.011	0.136	0.278
-689.368	-96.259	-0.177	-0.048
-688.354	-119.684	-0.206	0.036
-687.339	84.386	0.049	0.054
-686.324	-62.223	0.545	0.231
-685.310	-80.083	-0.363	-0.124
-684.295	800.000	-0.074	-0.246
-683.281	128.417	-0.085	-0.110
-682.266	292.330	-0.126	0.234
-681.251	69.675	-0.207	0.217
-680.237	-200.000	0.008	0.185
-679.222	-118.355	0.109	-0.020
-678.208	-50.466	0.227	-0.109
-677.193	-108.608	-0.137	-0.030
-676.178	224.491	-0.155	-0.255
-675.164	245.754	0.044	-0.075
-674.149	14.826	-0.272	0.216
-673.135	-50.602	-0.267	-0.128
-672.120	-200.000	-0.052	-0.523
-671.105	148.563	-0.272	-0.373
-670.091	189.130	-0.208	0.316
-669.076	199.770	-0.102	0.160
-668.062	-65.398	-0.138	0.057
-667.047	800.000	0.073	0.267
-666.032	28.201	0.108	0.093
-665.018	-70.482	0.344	-0.132
-664.003	-67.491	0.198	0.079
-662.989	63.177	-0.026	-0.026
-661.974	-200.000	0.001	0.030
-660.959	800.000	-0.137	-0.418
-659.945	259.153	0.132	-0.231
-658.930	-200.000	-0.034	0.524
-657.916	-21.425	-0.114	0.071
-656.901	800.000	-0.039	0.151
-655.886	-81.808	0.428	0.142
-654.872	148.431	-0.095	-0.130
-653.857	-200.000	-0.061	-0.272
-652.843	138.028	0.212	-0.283
-651.828	-186.079	-0.184	-0.003
-650.814	800.000	0.012	0.039
-649.799	5.508	0.125	0.094
-648.784	-93.233	-0.146	0.041
-647.770	153.966	-0.214	-0.299
-646.755	-10.924	-0.161	-0.108
-645.741	606.140	-0.025	0.064
-644.726	15.437	-0.329	-0.262
-643.711	256.600	-0.093	-0.163
-642.697	-131.519	0.079	-0.011
-641.682	198.843	-0.117	-0.182
-640.668	-200.000	0.048	-0.270
-639.653	-200.000	0.039	0.283
-638.638	135.731	-0.278	0.367
-637.624	17.170	-0.187	0.150
-636.609	-123.634	0.356	-0.057
-635.595	-200.000	-0.003	0.184
-634.580	-41.836	-0.158	-0.082
-633.565	-40.205	0.397	-0.210
-632.551	-143.707	-0.231	-0.022
-631.536	-200.000	0.014	-0.348
-630.522	43.010	0.256	-0.237
-629.507	-98.860	-0.415	-0.107
-628.492	800.000	-0.022	0.075
-627.478	-200.000	0.000	-0.053
-626.463	13.345	0.123	0.096
-625.449	-200.000	0.006	-0.108
-624.434	68.491	0.124	-0.129
-623.419	463.556	-0.057	0.129
-622.405	-21.685	0.156	-0.096
-621.390	-92.950	0.306	-0.087
-620.376	-100.845	0.118	-0.029
-619.361	136.251	-0.131	0.174
-618.346	46.540	0.153	-0.144
-617.332	-123.663	0.305	-0.049
-616.317	-200.000	0.002	0.179
-615.303	5.864	-0.140	-0.105
-614.288	-151.960	0.340	-0.025
-613.273	-122.157	-0.414	0.069
-612.259	143.460	0.283	0.382
-611.244	800.000	-0.098	-0.415
-610.230	262.791	0.041	0.073
-609.215	5.989	0.079	-0.059
-608.201	156.426	-0.133	0.186
-607.186	40.868	-0.092	-0.084
-606.171	-200.000	0.035	-0.284
-605.157	105.641	-0.102	0.122
-604.142	-200.000	0.002	-0.089
-603.128	-101.066	0.113	-0.028
-602.113	319.393	0.037	-0.071
-601.098	53.173	0.071	0.069
-600.084	-70.200	0.435	-0.168
-599.069	35.390	0.315	0.280
-598.055	-200.000	-0.017	0.267
-597.040	496.616	-0.105	-0.245
-596.025	35.919	0.184	0.164
-595.011	-200.000	0.018	-0.142
-593.996	75.242	0.121	0.130
-592.982	418.858	0.054	-0.118
-591.967	132.742	0.131	0.172
-590.952	-94.943	0.350	0.096
-589.938	-136.014	-0.281	-0.033
-588.923	-200.000	0.009	-0.265
-587.909	15.263	0.109	-0.087
-586.894	136.829	-0.164	-0.217
-585.879	-200.000	0.049	0.259
-584.865	-195.756	0.030	-0.000
-583.850	643.565	0.097	-0.249
-582.836	-200.000	0.023	-0.174
-581.821	-200.000	0.013	0.197
-580.806	452.688	-0.148	-0.331
-579.792	-177.546	0.110	-0.003
-578.777	-115.530	-0.099	0.019
-577.763	-52.957	-0.270	-0.126
-576.748	48.867	-0.185	-0.176
-575.733	119.894	-0.044	-0.055
-574.719	50.930	0.191	0.183
-573.704	503.261	0.116	0.272
-572.690	-64.742	-0.217	0.089
-571.675	-182.420	-0.188	0.004
-570.661	97.606	-0.252	0.293
-569.646	-200.000	-0.026	0.124
-568.631	208.113	-0.155	0.245
-567.617	610.629	0.039	-0.099
-566.602	-99.748	0.326	-0.083
-565.588	780.281	0.127	-0.352
-564.573	-117.238	-0.150	-0.028
-563.558	-94.861	-0.170	-0.047
-562.544	-22.426	-0.090	0.055
-561.529	-153.561	-0.197	0.014
-560.515	-200.000	-0.012	-0.211
-559.500	570.295	0.059	-0.146
-558.485	-38.058	-0.122	0.065
-557.471	800.000	-0.100	0.315
-556.456	-13.257	-0.183	0.120
-555.442	644.810	-0.013	-0.034
-554.427	-86.582	0.132	0.041
-553.412	296.402	-0.166	0.309
-552.398	-71.118	0.059	0.023
-551.383	1.516	-0.272	-0.198
-550.369	453.482	0.056	0.124
-549.354	31.668	-0.099	-0.087
-548.339	504.101	0.096	-0.224
-547.325	-200.000	0.029	-0.224
-546.310	31.909	-0.102	0.089
-545.296	324.747	0.115	-0.222
-544.281	126.421	0.147	-0.189
-543.266	14.770	0.203	0.161
-542.252	129.655	0.074	0.096
-541.237	19.580	-0.117	0.095
-540.223	618.444	-0.042	0.107
-539.208	425.265	-0.046	-0.100
-538.193	451.633	0.052	0.117
-537.179	-25.833	0.233	0.139
-536.164	-97.500	0.182	-0.048
-535.150	16.019	-0.043	0.035
-534.135	-143.064	-0.360	-0.035
-533.121	-56.804	-0.198	0.089
-532.106	651.510	-0.043	0.110
-531.091	800.000	0.038	-0.133
-530.077	800.000	0.086	-0.291
-529.062	-99.404	0.442	0.112
-528.048	800.000	-0.183	-0.580
-527.033	-140.750	-0.244	0.026
-526.018	800.000	0.022	0.076
-525.004	325.452	-0.066	-0.128
-523.989	762.645	-0.080	0.219
-522.975	-200.000	0.024	0.387
-521.960	800.000	0.014	0.051
-520.945	109.424	0.120	0.145
-519.931	-145.040	-0.093	-0.009
-518.916	-91.950	-0.265	-0.076
-517.902	-200.000	-0.014	-0.146
-516.887	-64.506	-0.397	-0.163
-515.872	121.460	-0.127	0.159
-514.858	115.650	-0.226	0.279
-513.843	-70.301	0.220	-0.084
-512.829	-73.819	0.222	0.081
-511.814	-122.492	-0.212	-0.035
-510.799	-125.199	0.020	0.003
-509.785	-200.000	-0.002	0.400
-508.770	35.581	0.219	-0.194
-507.756	138.854	-0.237	-0.314
-506.741	-47.172	0.302	0.149
-505.726	90.364	-0.167	-0.189
-504.712	-55.760	0.150	-0.068
-503.697	14.952	0.257	0.203
-502.683	16.992	0.207	-0.165
-501.668	21.387	0.326	0.267
-500.653	-26.817	0.338	-0.199
-499.639	-48.665	-0.433	-0.210
-498.624	701.187	0.110	0.292
-497.610	188.337	0.245	0.369
-496.595	401.388	-0.126	-0.266
-495.581	-127.906	0.224	-0.032
-494.566	86.012	-0.176	-0.195
-493.551	45.607	0.207	-0.193
-492.537	110.869	0.087	-0.106
-491.522	346.006	0.091	-0.181
-490.508	800.000	-0.094	-0.309
-489.493	-86.889	-0.346	0.106
-488.478	-200.000	-0.010	-0.063
-487.464	156.019	-0.057	0.079
-486.449	28.056	-0.303	0.258
-485.435	397.945	-0.021	0.045
-484.420	406.994	0.125	0.266
-483.405	299.166	-0.079	0.147
-482.391	800.000	0.056	-0.193
-481.376	-200.000	-0.016	-0.083
-480.362	-200.000	0.009	-0.057
-479.347	19.958	-0.134	0.109
-478.332	23.534	0.149	0.123
-477.318	655.901	-0.076	0.196
-476.303	-142.363	-0.331	0.033
-475.289	800.000	0.099	0.293
-474.274	800.000	-0.041	0.123
-473.259	-82.675	-0.114	0.037
-472.245	-142.080	0.137	-0.014
-471.230	22.235	0.086	0.071
-470.216	-45.719	-0.292	0.146
-469.201	133.553	-0.141	0.184
-468.186	-200.000	0.007	-0.107
-467.172	-154.276	-0.113	0.008
-466.157	18.603	0.067	0.054
-465.143	343.432	0.071	0.140
-464.128	63.186	-0.095	0.096
-463.113	-100.936	0.059	-0.015
-462.099	-40.730	0.393	-0.205
-461.084	221.428	0.166	0.269
-460.070	-200.000	-0.013	-0.156
-459.055	93.324	0.123	-0.140
-458.040	187.194	0.106	0.159
-457.026	70.826	-0.103	-0.107
-456.011	-74.993	0.221	-0.080
-454.997	544.661	-0.159	0.384
-453.982	800.000	-0.114	0.336
-452.968	578.150	-0.224	-0.553
-451.953	-129.547	-0.155	0.022
-450.938	481.483	0.036	-0.082
-449.924	-123.895	0.238	-0.038
-448.909	-58.427	0.132	-0.058
-447.895	-43.345	0.044	0.022
-446.880	-2.551	0.123	0.087
-445.865	800.000	-0.051	0.186
-444.851	543.179	0.154	-0.370
-443.836	206.375	0.030	-0.047
-442.822	520.196	0.021	0.051
-441.807	-61.435	0.361	-0.153
-440.792	76.349	-0.271	-0.289
-439.778	-200.000	0.001	0.223
-438.763	-122.621	-0.283	0.046
-437.749	-45.557	-0.311	-0.155
-436.734	800.000	-0.041	-0.165
-435.719	-181.600	0.317	0.006
-434.705	-200.000	-0.044	-0.297
-433.690	-9.650	0.095	0.064
-432.676	54.469	0.115	-0.112
-431.661	-67.406	-0.019	-0.007
-430.646	-24.377	0.396	0.238
-429.632	334.804	-0.188	-0.367
-428.617	-200.000	-0.006	-0.175
-427.603	-120.446	-0.411	-0.070
-426.588	-142.996	0.476	-0.046
-425.573	-200.000	-0.002	-0.024
-424.559	-133.763	0.163	0.020
-423.544	-113.902	0.287	-0.056
-422.530	-69.266	-0.301	0.116
-421.515	-200.000	0.005	0.092
-420.500	800.000	-0.075	0.255
-419.486	-13.587	-0.338	-0.221
-418.471	309.074	-0.117	-0.220
-417.457	95.450	-0.183	-0.210
-416.442	170.663	-0.108	-0.155
-415.428	-99.645	0.245	-0.062
-414.413	377.929	0.034	-0.070
-413.398	-200.000	-0.022	0.106
-412.384	94.514	-0.154	-0.176
-411.369	-8.458	-0.003	-0.002
-410.355	-64.578	0.059	0.024
-409.340	-200.000	0.013	0.272
-408.325	-78.592	-0.279	-0.096
-407.311	-200.000	0.019	-0.272
-406.296	81.402	0.195	-0.213
-405.282	208.877	0.209	-0.330
-404.267	95.754	-0.053	0.061
-403.252	-20.136	0.134	-0.083
-402.238	-62.570	0.089	0.037
-401.223	278.291	0.038	0.069
-400.209	139.049	0.048	0.063
-399.194	120.146	0.138	-0.173
-398.179	-111.512	-0.363	0.074
-397.165	-144.586	0.367	-0.034
-396.150	69.719	0.110	0.114
-395.136	-200.000	-0.041	-0.197
-394.121	83.168	0.148	-0.162
-393.106	-112.305	0.181	0.037
-392.092	-200.000	0.044	-0.224
-391.077	282.743	-0.110	0.198
-390.063	-120.664	0.227	-0.039
-389.048	99.457	0.106	-0.124
-388.033	158.938	-0.118	-0.165
-387.019	-200.000	0.040	0.191
-386.004	-200.000	-0.011	0.242
-384.990	-33.984	0.154	0.085
-383.975	-44.688	-0.158	0.079
-382.960	-51.569	-0.549	0.257
-381.946	-200.000	-0.004	0.156
-380.931	54.005	-0.021	-0.021
-379.917	55.747	-0.203	0.198
-378.902	114.735	-0.108	-0.132
-377.888	70.989	0.068	0.071
-376.873	33.932	0.211	0.185
-375.858	92.977	0.038	-0.043
-374.844	800.000	-0.133	0.455
-373.829	-200.000	-0.007	-0.060
-372.815	800.000	-0.066	-0.215
-371.800	-78.420	0.204	0.070
-370.785	721.967	0.100	0.267
-369.771	-24.895	0.117	-0.070
-368.756	-166.599	0.098	0.004
-367.742	800.000	0.042	-0.175
-366.727	11.267	-0.047	-0.036
-365.712	11.922	0.247	-0.191
-364.698	12.264	0.086	-0.066
-363.683	3.121	0.276	0.201
-362.669	735.616	-0.039	0.104
-361.654	-200.000	0.023	-0.139
-360.639	-200.000	0.021	0.189
-359.625	-14.110	0.225	-0.146
-358.610	-58.367	0.154	0.067
-357.596	-112.802	0.053	-0.010
-356.581	-56.738	-0.259	-0.115
-355.566	800.000	0.029	0.118
-354.552	246.442	-0.176	-0.299
-353.537	-200.000	0.003	-0.146
-352.523	-162.507	0.049	-0.002
-351.508	84.297	0.053	0.058
-350.493	200.655	0.151	-0.232
-349.479	-76.063	0.183	-0.065
-348.464	-76.921	-0.344	-0.121
-347.450	20.920	-0.305	-0.248
-346.435	529.141	-0.040	0.095
-345.420	-23.504	0.079	-0.047
-344.406	-50.958	0.091	0.043
-343.391	91.414	-0.179	0.202
-342.377	-60.400	0.093	-0.040
-341.362	800.000	-0.065	0.248
-340.348	118.236	0.083	-0.103
-339.333	800.000	-0.082	0.229
-338.318	-200.000	-0.020	-0.202
-337.304	-200.000	-0.027	-0.193
-336.289	-52.929	-0.349	0.161
-335.275	-146.787	-0.292	-0.025
-334.260	708.616	0.100	-0.265
-333.245	-58.797	0.222	-0.096
-332.231	800.000	-0.080	0.257
-331.216	-62.196	-0.057	0.024
-330.202	10.829	0.059	-0.045
-329.187	-65.645	0.245	-0.098
-328.172	595.569	-0.100	0.249
-327.158	336.876	-0.097	0.189
-326.143	800.000	-0.024	0.094
-325.129	-22.848	-0.172	-0.104
-324.114	65.326	-0.163	0.166
-323.099	-150.261	0.154	-0.012
-322.085	94.657	-0.201	-0.229
-321.070	-200.000	0.015	-0.089
-320.056	-43.889	-0.158	0.080
-319.041	-22.046	0.239	-0.145
-318.026	45.560	0.283	-0.262
-317.012	-200.000	-0.038	0.330
-315.997	-47.362	-0.150	0.073
-314.983	-200.000	-0.047	-0.289
-313.968	-200.000	0.008	0.040
-312.953	800.000	0.136	0.440
-311.939	-184.789	0.081	0.001
-310.924	-129.304	-0.369	0.051
-309.910	-99.469	-0.120	-0.030
-308.895	-74.869	0.402	-0.144
-307.880	-200.000	0.030	0.167
-306.866	-105.166	-0.103	-0.024
-305.851	-200.000	0.027	0.253
-304.837	800.000	-0.099	0.304
-303.822	-152.963	0.088	0.006
-302.807	-200.000	-0.014	-0.083
-301.793	800.000	-0.060	-0.189
-300.778	800.000	0.088	0.254
-299.764	-27.425	0.272	0.159
-298.749	69.729	-0.120	0.124
-297.735	14.296	0.181	-0.142
-296.720	-200.000	-0.022	-0.127
-295.705	70.030	0.115	0.119
-294.691	583.252	-0.108	0.265
-293.676	-161.760	0.182	-0.009
-292.662	-47.129	-0.156	-0.076
-291.647	69.226	0.087	-0.090
-290.632	-200.000	0.038	-0.222
-289.618	421.453	-0.101	0.217
-288.603	111.362	0.085	0.102
-287.589	-127.401	0.156	0.023
-286.574	-4.012	-0.466	-0.323
-285.559	-55.283	-0.153	-0.069
-284.545	-26.519	-0.112	-0.066
-283.530	-93.543	-0.471	-0.130
-282.516	-148.359	0.447	-0.037
-281.501	478.950	0.110	-0.249
-280.486	-97.946	-0.282	-0.073
-279.472	-126.142	0.162	-0.024
-278.457	-44.246	0.053	-0.026
-277.443	-74.211	0.054	0.020
-276.428	155.894	0.109	0.150
-275.413	10.791	-0.184	0.141
-274.399	-200.000	-0.017	-0.128
-273.384	-128.702	0.140	-0.020
-272.370	-50.187	0.251	0.119
-271.355	800.000	0.046	-0.148
-270.340	-35.072	-0.239	0.130
-269.326	-16.948	-0.138	-0.087
-268.311	-57.863	0.064	-0.028
-267.297	498.819	0.055	-0.127
-266.282	-64.984	-0.241	-0.098
-265.267	-24.109	-0.314	0.187
-264.253	-200.000	0.018	-0.095
-263.238	-43.174	0.176	0.089
-262.224	599.877	-0.095	0.237
-261.209	-200.000	0.000	-0.217
-260.195	-125.967	-0.233	-0.035
-259.180	-64.128	0.085	0.035
-258.165	-140.299	-0.282	0.030
-257.151	-11.413	-0.330	0.217
-256.136	-30.938	0.184	0.104
-255.122	-200.000	0.009	0.144
-254.107	-35.797	0.371	0.201
-253.092	279.113	-0.094	0.168
-252.078	-147.729	0.416	0.035
-251.063	204.077	-0.120	0.186
-250.049	-200.000	0.010	-0.125
-249.034	-6.430	0.211	-0.144
-248.019	39.871	-0.103	0.092
-247.005	-192.674	-0.399	0.004
-245.990	-192.622	-0.410	-0.004
-244.976	-56.596	0.134	0.060
-243.961	-200.000	0.089	0.704
-242.946	-154.331	0.169	-0.011
-241.932	366.798	-0.169	0.341
-240.917	-92.875	0.044	-0.012
-239.903	-43.184	-0.156	0.079
-238.888	9.295	-0.047	0.036
-237.873	-200.000	-0.034	-0.296
-236.859	800.000	0.038	-0.156
-235.844	-98.887	-0.264	-0.067
-234.830	21.814	-0.069	-0.057
-233.815	-200.000	0.065	0.317
-232.800	117.409	-0.130	-0.160
-231.786	-96.496	0.556	0.147
-230.771	-200.000	-0.022	0.166
-229.757	-200.000	0.003	0.323
-228.742	-200.000	0.001	-0.220
-227.727	-20.459	0.113	0.069
-226.713	-200.000	0.012	-0.115
-225.698	-200.000	0.008	-0.064
-224.684	-164.808	-0.300	0.013
-223.669	-37.944	0.168	-0.089
-222.655	603.699	-0.066	0.164
-221.640	-105.006	-0.152	0.035
-220.625	413.047	0.074	0.157
-219.611	-122.982	-0.202	0.032
-218.596	-200.000	0.013	0.273
-217.582	-200.000	-0.004	0.036
-216.567	800.000	0.013	0.048
-215.552	-71.449	-0.242	-0.090
-214.538	96.719	-0.227	0.260
-213.523	187.262	0.210	0.312
-212.509	800.000	0.082	-0.234
-211.494	-60.406	0.089	0.038
-210.479	-200.000	-0.004	-0.141
-209.465	-180.270	0.125	0.003
-208.450	-169.481	0.247	0.009
-207.436	330.234	-0.210	0.404
-206.421	-42.664	-0.190	0.097
-205.406	147.995	0.172	-0.231
-204.392	492.516	0.056	-0.129
-203.377	619.131	0.152	-0.380
-202.363	800.000	-0.073	-0.232
-201.348	266.192	0.097	0.169
-200.333	52.729	-0.038	-0.036
-199.319	-200.000	0.006	-0.062
-198.304	109.691	-0.108	-0.129
-197.290	-200.000	0.004	-0.280
-196.275	-200.000	-0.015	0.335
-195.260	-174.036	0.262	0.008
-194.246	53.354	-0.290	0.277
-193.231	449.539	0.198	-0.436
-192.217	-200.000	-0.064	0.291
-191.202	-69.411	0.070	-0.027
-190.187	83.180	0.180	0.196
-189.173	-200.000	-0.001	0.128
-188.158	118.997	-0.104	0.129
-187.144	-200.000	-0.005	0.216
-186.129	302.496	-0.096	0.177
-185.114	335.671	0.044	0.086
-184.100	-102.821	-0.215	-0.051
-183.085	-200.000	-0.021	-0.212
-182.071	-200.000	-0.013	-0.146
-181.056	-55.203	-0.206	-0.092
-180.042	-149.724	-0.239	-0.019
-179.027	-185.910	0.086	0.001
-178.012	186.021	-0.127	0.188
-176.998	-120.679	0.329	0.056
-175.983	-87.443	0.159	-0.048
-174.969	187.966	-0.188	0.279
-173.954	56.436	0.149	0.145
-172.939	-130.559	0.221	0.030
-171.925	-90.813	0.338	-0.097
-170.910	98.371	-0.112	-0.129
-169.896	800.000	0.116	-0.366
-168.881	-200.000	-0.022	-0.214
-167.866	-66.787	-0.015	0.006
-166.852	-108.407	-0.190	0.041
-165.837	-200.000	-0.017	-0.125
-164.823	-65.425	0.086	0.034
-163.808	48.345	0.069	0.064
-162.793	336.534	-0.127	0.246
-161.779	0.846	-0.093	-0.067
-160.764	-102.065	0.119	-0.029
-159.750	202.932	-0.133	-0.204
-158.735	-15.955	0.192	-0.122
-157.720	35.270	0.080	0.070
-156.706	116.421	-0.042	0.051
-155.691	265.971	-0.319	-0.555
-154.677	414.937	0.202	0.428
-153.662	62.190	0.282	0.280
-152.647	129.729	0.138	-0.176
-151.633	34.353	-0.142	-0.123
-150.618	800.000	-0.073	-0.218
-149.604	-8.691	0.177	0.118
-148.589	-42.104	-0.291	0.148
-147.574	697.683	-0.093	-0.244
-146.560	145.229	-0.210	0.280
-145.545	-200.000	-0.034	-0.412
-144.531	4.303	0.237	-0.173
-143.516	-109.970	0.410	0.085
-142.502	-38.647	0.164	0.086
-141.487	113.445	-0.044	-0.053
-140.472	-66.730	-0.162	0.064
-139.458	40.790	-0.065	-0.059
-138.443	-3.700	-0.033	-0.023
-137.429	-134.565	0.145	-0.018
-136.414	-92.163	0.310	0.087
-135.399	-34.576	-0.161	0.088
-134.385	-42.175	0.197	-0.100
-133.370	-200.000	-0.006	-0.114
-132.356	132.778	0.049	-0.062
-131.341	-200.000	0.034	0.173
-130.326	31.177	-0.169	-0.144
-129.312	-38.938	-0.090	0.047
-128.297	-200.000	0.057	-0.256
-127.283	622.137	-0.077	-0.194
-126.268	800.000	0.045	-0.130
-125.253	118.127	-0.261	0.320
-124.239	-200.000	-0.074	0.000
-123.224	800.000	-0.039	0.112
-122.210	-109.908	-0.191	-0.040
-121.195	34.978	-0.264	0.230
