DTS Sentinel unit serial number:	SN413079Multiplexer serial number:	ORYXHardware model number:	OX4-SRSoftware version number:	ORYX F/W v4.00 Oryx Data Collector v3.7.2.0data status	okinstallation	princeton_trtdifferential loss correction	single-endedforward channel	channel 2reverse channel	N/Adate	2019/09/13time	21:51:35forward acquisition time	60.00reverse acquisition time	0.00gamma	496.2192k internal	0.2334k external	0.2334temperature offset calibration	1.0130default loss term (dB/km)	0.3790temperature slope calibration	1.0000multiplexer offset coefficient	1.0000multiplexer slope coefficient	1.0000fibre end	0.00T internal ref (°C)	28.06T ext. ref 1 (°C)	3.19T ext. ref 2 (°C)	22.62length (m)	temperature (°C)	Stokes	anti-Stokes-747.200	-62.267	-0.168	0.070
-746.185	-126.646	-0.408	0.061
-745.171	-85.302	0.433	0.136
-744.156	23.423	-0.052	-0.043
-743.142	-104.167	0.217	0.051
-742.127	384.159	-0.183	0.379
-741.112	800.000	0.072	-0.206
-740.098	-166.868	-0.282	-0.012
-739.083	800.000	0.027	0.086
-738.069	800.000	-0.088	0.291
-737.054	-200.000	-0.016	0.261
-736.039	-52.075	-0.410	0.191
-735.025	800.000	-0.023	0.069
-734.010	-7.748	-0.274	0.186
-732.996	-41.444	-0.419	-0.217
-731.981	-84.647	-0.238	-0.075
-730.966	61.361	0.180	-0.180
-729.952	-89.700	-0.106	-0.031
-728.937	-49.922	0.115	0.055
-727.923	150.452	0.040	-0.055
-726.908	-31.459	-0.170	-0.096
-725.894	-136.049	-0.214	0.025
-724.879	43.781	0.210	-0.193
-723.864	800.000	0.064	-0.273
-722.850	191.975	0.144	-0.217
-721.835	91.457	0.204	0.230
-720.821	-46.394	-0.096	-0.047
-719.806	-200.000	0.001	0.190
-718.791	-200.000	0.000	0.080
-717.777	87.143	0.164	-0.181
-716.762	-75.900	0.252	0.089
-715.748	-200.000	-0.008	-0.404
-714.733	-200.000	-0.022	0.144
-713.718	40.260	-0.066	-0.059
-712.704	253.943	-0.120	-0.207
-711.689	-159.248	0.062	-0.003
-710.675	-157.078	-0.373	0.023
-709.660	46.582	0.132	0.123
-708.645	68.184	-0.220	0.226
-707.631	576.485	0.111	-0.273
-706.616	-81.732	-0.156	-0.051
-705.602	-159.476	0.190	0.011
-704.587	800.000	0.105	0.318
-703.572	-200.000	-0.008	-0.461
-702.558	42.866	0.442	-0.404
-701.543	-100.280	0.130	-0.032
-700.529	461.875	0.085	0.190
-699.514	480.912	-0.009	-0.021
-698.499	5.565	-0.237	0.175
-697.485	415.335	0.073	0.155
-696.470	800.000	-0.056	-0.177
-695.456	-75.361	0.344	-0.123
-694.441	-166.517	-0.399	-0.017
-693.426	-62.773	-0.369	-0.153
-692.412	-126.320	0.242	0.036
-691.397	-22.182	0.050	-0.030
-690.383	-200.000	-0.024	0.184
-689.368	193.925	-0.078	-0.118
-688.354	-18.702	-0.320	-0.200
-687.339	7.048	-0.138	-0.103
-686.324	207.313	-0.134	-0.210
-685.310	-64.166	0.260	-0.106
-684.295	-200.000	-0.055	0.271
-683.281	45.652	0.264	-0.245
-682.266	96.547	0.032	-0.037
-681.251	-200.000	-0.006	0.345
-680.237	13.140	-0.357	0.277
-679.222	-38.113	0.224	-0.119
-678.208	-200.000	-0.006	-0.312
-677.193	-200.000	0.025	0.226
-676.178	-70.385	0.201	-0.077
-675.164	800.000	0.055	-0.181
-674.149	72.455	-0.278	-0.290
-673.135	-13.483	-0.219	-0.143
-672.120	800.000	-0.115	-0.448
-671.105	-115.929	0.323	-0.060
-670.091	-66.120	-0.221	-0.088
-669.076	-184.000	0.118	-0.002
-668.062	-84.271	0.107	0.034
-667.047	-200.000	-0.012	0.085
-666.032	-200.000	-0.015	-0.093
-665.018	300.009	0.144	-0.266
-664.003	-100.501	-0.351	0.087
-662.989	145.727	0.062	0.084
-661.974	472.938	-0.051	-0.115
-660.959	158.179	-0.098	0.136
-659.945	800.000	0.074	-0.227
-658.930	204.696	-0.087	0.135
-657.916	294.419	-0.111	-0.204
-656.901	248.898	-0.127	0.215
-655.886	-119.474	0.241	-0.042
-654.872	-92.496	-0.427	0.120
-653.857	750.958	-0.059	-0.159
-652.843	258.440	-0.153	-0.264
-651.828	-24.274	0.198	0.118
-650.814	-0.277	0.076	0.054
-649.799	-34.833	-0.249	0.136
-648.784	-88.585	0.289	-0.086
-647.770	800.000	-0.043	0.132
-646.755	-166.878	-0.427	-0.018
-645.741	-152.888	-0.182	0.013
-644.726	721.511	0.066	-0.177
-643.711	133.481	0.187	0.242
-642.697	-100.682	-0.107	-0.026
-641.682	-13.000	-0.034	0.022
-640.668	-200.000	-0.003	-0.042
-639.653	224.113	-0.199	-0.322
-638.638	354.857	-0.062	0.124
-637.624	800.000	-0.040	0.144
-636.609	-80.155	0.173	-0.058
-635.595	-200.000	0.035	0.185
-634.580	-200.000	-0.001	0.200
-633.565	187.980	-0.255	-0.382
-632.551	-101.321	0.077	0.019
-631.536	360.706	-0.117	-0.235
-630.522	-81.524	-0.248	0.082
-629.507	332.316	0.102	0.197
-628.492	518.594	0.116	0.273
-627.478	-171.599	-0.406	-0.013
-626.463	46.370	-0.077	0.072
-625.449	-94.412	-0.167	-0.045
-624.434	647.389	-0.033	0.084
-623.419	92.776	0.254	-0.287
-622.405	-51.128	0.189	0.089
-621.390	800.000	0.047	0.177
-620.376	32.550	-0.207	0.179
-619.361	96.863	-0.076	0.087
-618.346	235.107	0.178	0.294
-617.332	324.635	0.111	0.212
-616.317	-39.286	-0.052	-0.027
-615.303	30.861	0.322	-0.275
-614.288	-35.587	-0.269	-0.146
-613.273	-78.364	-0.186	0.064
-612.259	-74.938	0.688	-0.246
-611.244	34.833	-0.043	0.037
-610.230	15.427	-0.122	-0.096
-609.215	586.739	-0.017	0.042
-608.201	-200.000	0.019	0.183
-607.186	-57.262	0.337	-0.148
-606.171	-15.193	0.059	0.038
-605.157	496.993	0.056	0.129
-604.142	259.043	-0.050	0.086
-603.128	548.392	0.089	-0.212
-602.113	-200.000	0.009	-0.071
-601.098	800.000	0.054	0.223
-600.084	171.237	-0.224	-0.321
-599.069	-12.349	-0.209	-0.136
-598.055	-200.000	-0.014	-0.219
-597.040	10.728	0.165	-0.126
-596.025	-200.000	-0.264	0.001
-595.011	-15.216	0.155	-0.099
-593.996	-200.000	0.062	-0.500
-592.982	-200.000	-0.043	-0.205
-591.967	490.015	-0.047	0.107
-590.952	365.534	0.068	-0.137
-589.938	-59.680	-0.211	0.090
-588.923	-85.555	-0.166	0.052
-587.909	-39.272	-0.097	0.051
-586.894	-114.102	-0.179	0.035
-585.879	86.704	0.353	0.389
-584.865	84.563	-0.183	0.200
-583.850	118.825	0.233	-0.287
-582.836	138.242	0.048	-0.063
-581.821	-115.885	-0.311	0.058
-580.806	-13.559	0.131	-0.085
-579.792	-18.860	-0.126	-0.078
-578.777	-200.000	0.014	0.215
-577.763	800.000	0.060	0.230
-576.748	-61.665	-0.245	0.103
-575.733	-85.201	-0.353	-0.110
-574.719	-184.115	0.066	-0.001
-573.704	68.456	-0.338	0.346
-572.690	-96.430	0.235	0.062
-571.675	-70.519	-0.292	0.110
-570.661	800.000	-0.052	-0.160
-569.646	37.829	0.143	-0.127
-568.631	1.191	-0.276	0.198
-567.617	-22.079	0.272	0.165
-566.602	196.811	-0.198	-0.302
-565.588	-95.053	-0.013	-0.004
-564.573	473.789	0.103	0.232
-563.558	470.224	-0.096	-0.215
-562.544	-68.784	0.297	-0.115
-561.529	-98.465	-0.240	0.061
-560.515	-149.476	0.237	-0.019
-559.500	-19.431	-0.059	-0.037
-558.485	-200.000	-0.046	-0.224
-557.471	-43.542	-0.070	-0.035
-556.456	-34.271	-0.182	0.100
-555.442	-152.210	-0.186	-0.013
-554.427	-200.000	-0.016	-0.142
-553.412	-200.000	-0.004	-0.059
-552.398	-180.927	0.285	0.006
-551.383	-200.000	-0.003	0.027
-550.369	-3.195	0.150	0.105
-549.354	-70.052	0.057	0.022
-548.339	616.491	0.025	0.062
-547.325	-45.320	0.202	-0.100
-546.310	-24.615	0.339	-0.201
-545.296	15.894	0.251	-0.197
-544.281	-55.362	-0.188	0.084
-543.266	-92.804	0.145	0.040
-542.252	23.674	0.056	0.046
-541.237	-17.806	-0.298	0.187
-540.223	800.000	0.026	-0.096
-539.208	6.231	-0.154	-0.114
-538.193	168.523	-0.100	0.142
-537.179	-180.215	-0.231	0.005
-536.164	41.669	0.156	0.141
-535.150	-198.312	-0.190	-0.001
-534.135	-140.029	0.061	-0.006
-533.121	2.333	-0.240	-0.173
-532.106	-51.322	-0.180	-0.084
-531.091	13.689	0.049	-0.038
-530.077	-200.000	-0.277	-0.001
-529.062	-132.693	0.118	-0.015
-528.048	219.214	-0.063	0.101
-527.033	82.524	-0.129	0.140
-526.018	-104.139	0.067	0.016
-525.004	-200.000	0.034	-0.324
-523.989	800.000	-0.055	-0.239
-522.975	126.724	0.036	0.045
-521.960	334.106	0.104	-0.200
-520.945	-45.408	-0.224	0.111
-519.931	784.321	-0.007	-0.019
-518.916	-14.970	-0.049	-0.031
-517.902	111.355	-0.118	-0.142
-516.887	-200.000	-0.029	-0.227
-515.872	156.209	-0.191	0.263
-514.858	113.600	-0.214	0.259
-513.843	143.090	0.244	0.324
-512.829	-94.569	0.062	-0.017
-511.814	-126.788	-0.214	-0.032
-510.799	-68.783	0.192	0.074
-509.785	-168.858	0.113	0.004
-508.770	2.970	0.077	0.055
-507.756	2.864	0.113	-0.082
-506.741	-200.000	-0.035	0.392
-505.726	-200.000	0.044	0.298
-504.712	128.244	0.053	0.068
-503.697	800.000	0.031	0.095
-502.683	100.469	-0.248	0.287
-501.668	-130.431	0.361	0.049
-500.653	-14.217	0.346	0.222
-499.639	366.165	-0.066	-0.132
-498.624	-53.932	0.134	-0.061
-497.610	331.554	-0.079	0.152
-496.595	800.000	-0.090	0.289
-495.581	411.998	-0.054	-0.113
-494.566	-102.866	-0.066	-0.016
-493.551	-146.789	-0.290	0.025
-492.537	26.588	0.156	-0.130
-491.522	-3.330	-0.123	-0.086
-490.508	-140.015	-0.186	-0.020
-489.493	237.044	0.093	-0.153
-488.478	-200.000	-0.013	0.406
-487.464	-200.000	-0.045	-0.356
-486.449	4.079	-0.157	-0.114
-485.435	-98.558	-0.168	0.043
-484.420	766.866	0.069	0.187
-483.405	-200.000	0.026	-0.188
-482.391	800.000	0.101	0.340
-481.376	-68.170	0.232	0.090
-480.362	-200.000	-0.016	0.281
-479.347	132.670	-0.160	-0.205
-478.332	-160.311	-0.084	-0.005
-477.318	-140.497	0.349	-0.036
-476.303	-200.000	0.004	0.064
-475.289	-91.945	0.343	0.097
-474.274	82.812	0.231	0.250
-473.259	579.940	0.143	0.348
-472.245	-18.057	-0.237	-0.147
-471.230	-7.507	-0.120	-0.081
-470.216	-200.000	-0.027	0.258
-469.201	-166.925	-0.177	0.007
-468.186	-74.458	-0.455	0.163
-467.172	-0.833	0.144	-0.102
-466.157	-200.000	0.016	-0.094
-465.143	107.959	-0.214	-0.253
-464.128	-200.000	-0.020	0.000
-463.113	-200.000	-0.086	-0.456
-462.099	230.291	-0.107	0.173
-461.084	800.000	-0.093	0.278
-460.070	-88.118	-0.046	0.014
-459.055	31.603	0.119	-0.102
-458.040	-200.000	0.030	-0.234
-457.026	415.084	-0.047	0.100
-456.011	-136.783	0.393	0.045
-454.997	-19.148	0.143	-0.089
-453.982	-137.245	0.137	-0.015
-452.968	-125.353	-0.197	0.030
-451.953	-200.000	0.033	-0.307
-450.938	800.000	-0.076	-0.236
-449.924	-75.488	-0.239	-0.084
-448.909	800.000	0.063	0.246
-447.895	383.081	-0.074	-0.151
-446.880	-10.998	0.107	0.070
-445.865	165.457	0.051	-0.072
-444.851	145.316	0.020	0.027
-443.836	800.000	-0.049	-0.166
-442.822	360.765	0.140	0.278
-441.807	-96.314	-0.049	-0.013
-440.792	800.000	0.027	-0.082
-439.778	-9.547	0.140	0.093
-438.763	34.351	-0.293	-0.254
-437.749	551.525	-0.100	0.239
-436.734	95.823	-0.250	0.283
-435.719	-151.795	-0.288	-0.021
-434.705	576.079	0.168	0.408
-433.690	401.979	-0.023	-0.049
-432.676	-200.000	-0.001	0.098
-431.661	-200.000	0.049	0.365
-430.646	-146.915	0.236	0.020
-429.632	38.729	0.259	-0.230
-428.617	-139.515	0.085	-0.009
-427.603	-200.000	0.007	0.048
-426.588	145.539	0.121	0.161
-425.573	-68.971	0.351	-0.134
-424.559	75.058	0.124	0.130
-423.544	-82.067	0.268	0.087
-422.530	111.856	0.103	-0.124
-421.515	165.029	-0.056	0.079
-420.500	-70.076	-0.214	-0.081
-419.486	-78.041	-0.239	-0.082
-418.471	210.286	-0.134	0.209
-417.457	-6.423	-0.208	-0.141
-416.442	214.247	0.085	0.134
-415.428	-42.722	0.196	-0.099
-414.413	-71.960	0.240	-0.089
-413.398	-200.000	-0.086	0.378
-412.384	800.000	-0.086	0.259
-411.369	25.163	0.215	-0.177
-410.355	-54.446	-0.339	-0.153
-409.340	-116.630	0.222	-0.040
-408.325	800.000	0.073	-0.282
-407.311	-131.132	0.123	-0.016
-406.296	-200.000	0.040	0.214
-405.282	800.000	-0.057	-0.182
-404.267	424.498	-0.016	0.034
-403.252	-10.129	-0.326	0.215
-402.238	-13.990	0.075	0.048
-401.223	624.594	-0.115	-0.288
-400.209	-53.926	0.256	-0.116
-399.194	-4.470	-0.145	-0.099
-398.179	14.302	-0.249	-0.193
-397.165	410.150	-0.144	-0.303
-396.150	309.223	-0.072	-0.132
-395.136	127.953	0.104	-0.131
-394.121	-200.000	0.031	-0.160
-393.106	-200.000	-0.009	-0.203
-392.092	44.461	0.059	0.054
-391.077	69.639	0.176	0.179
-390.063	-200.000	-0.061	-0.378
-389.048	120.578	-0.133	0.164
-388.033	-200.000	-0.028	0.282
-387.019	3.174	0.220	0.159
-386.004	-66.770	0.317	-0.124
-384.990	-142.375	0.107	-0.010
-383.975	-21.138	0.123	-0.074
-382.960	800.000	-0.019	0.059
-381.946	-200.000	0.006	0.134
-380.931	367.003	-0.104	0.208
-379.917	265.232	0.041	-0.072
-378.902	-92.697	-0.204	0.057
-377.888	-200.000	-0.080	0.480
-376.873	-200.000	-0.013	-0.189
-375.858	417.811	0.038	-0.080
-374.844	64.501	-0.091	-0.090
-373.829	342.889	0.062	-0.120
-372.815	101.885	-0.071	-0.083
-371.800	-151.840	0.332	0.024
-370.785	800.000	-0.006	-0.016
-369.771	800.000	0.100	0.296
-368.756	-20.867	0.146	0.089
-367.742	-200.000	-0.004	0.262
-366.727	-200.000	0.027	0.223
-365.712	189.544	-0.149	-0.222
-364.698	569.227	-0.175	0.421
-363.683	-89.033	-0.172	0.050
-362.669	-80.255	-0.192	-0.063
-361.654	-38.010	0.265	0.139
-360.639	98.807	0.086	0.099
-359.625	800.000	0.105	0.419
-358.610	-144.466	-0.252	0.023
-357.596	29.689	0.247	0.208
-356.581	-200.000	-0.058	-0.533
-355.566	-200.000	0.007	0.068
-354.552	-200.000	0.003	0.154
-353.537	-192.644	-0.302	0.003
-352.523	-117.294	0.181	0.033
-351.508	-200.000	-0.016	-0.165
-350.493	430.392	-0.157	0.336
-349.479	800.000	-0.039	-0.170
-348.464	-200.000	0.041	-0.256
-347.450	-11.065	0.308	-0.201
-346.435	211.167	-0.235	-0.365
-345.420	-101.647	0.164	-0.039
-344.406	19.528	-0.145	-0.116
-343.391	54.736	-0.245	-0.234
-342.377	-200.000	-0.023	0.206
-341.362	129.051	0.040	-0.050
-340.348	111.691	-0.146	0.174
-339.333	-112.133	0.312	-0.062
-338.318	-53.800	0.151	0.068
-337.304	-83.493	-0.218	-0.069
-336.289	-200.000	-0.008	0.056
-335.275	-46.356	0.286	0.139
-334.260	-75.778	-0.269	0.094
-333.245	109.645	-0.296	0.351
-332.231	21.568	0.396	-0.318
-331.216	-62.642	0.120	-0.049
-330.202	227.825	-0.225	0.362
-329.187	-200.000	0.001	0.190
-328.172	-200.000	0.003	-0.248
-327.158	-55.337	-0.180	-0.080
-326.143	-160.448	0.387	-0.021
-325.129	-126.390	0.250	-0.037
-324.114	400.430	-0.074	0.154
-323.099	-115.107	-0.235	0.044
-322.085	163.390	-0.087	-0.121
-321.070	-144.973	0.192	0.017
-320.056	-168.087	-0.141	0.005
-319.041	-161.416	-0.490	0.025
-318.026	-28.637	0.024	-0.014
-317.012	39.654	-0.238	-0.211
-315.997	243.385	0.162	0.268
-314.983	800.000	0.034	-0.125
-313.968	-31.541	0.369	0.205
-312.953	-67.536	-0.213	-0.083
-311.939	124.203	-0.149	-0.185
-310.924	-63.930	0.226	-0.091
-309.910	77.443	0.191	0.201
-308.895	50.558	-0.189	-0.177
-307.880	-10.187	0.198	-0.130
-306.866	-200.000	0.032	0.144
-305.851	-110.215	0.168	0.035
-304.837	-130.980	-0.287	0.038
-303.822	-200.000	-0.033	0.232
-302.807	90.422	0.092	-0.101
-301.793	800.000	0.070	-0.208
-300.778	800.000	0.022	-0.089
-299.764	-108.346	0.232	0.050
-298.749	255.741	-0.041	-0.069
-297.735	142.242	0.091	0.120
-296.720	204.837	-0.162	0.248
-295.705	405.259	0.164	0.341
-294.691	800.000	0.056	-0.170
-293.676	15.471	0.089	-0.069
-292.662	-92.412	0.557	0.155
-291.647	46.037	-0.146	0.134
-290.632	305.796	0.068	-0.125
-289.618	204.754	0.078	-0.119
-288.603	82.471	0.108	-0.116
-287.589	-155.339	0.312	0.020
-286.574	98.133	-0.018	-0.021
-285.559	-175.357	0.316	0.009
-284.545	-46.958	-0.199	-0.096
-283.530	800.000	-0.014	0.040
-282.516	-74.604	0.149	-0.053
-281.501	39.404	-0.166	-0.147
-280.486	-74.290	0.176	-0.063
-279.472	28.054	-0.166	0.139
-278.457	15.074	-0.097	0.075
-277.443	464.610	-0.077	-0.169
-276.428	800.000	-0.030	-0.104
-275.413	-50.675	-0.152	0.070
-274.399	206.779	-0.039	-0.061
-273.384	56.326	-0.161	0.154
-272.370	-117.680	0.176	-0.031
-271.355	-200.000	0.017	0.274
-270.340	-200.000	-0.074	0.396
-269.326	76.456	-0.193	-0.201
-268.311	-17.823	0.285	0.176
-267.297	-51.276	0.093	-0.043
-266.282	-200.000	0.000	-0.111
-265.267	-81.343	0.282	0.092
-264.253	59.476	-0.235	0.228
-263.238	228.754	0.120	0.193
-262.224	-61.480	-0.431	-0.179
-261.209	355.468	0.133	-0.260
-260.195	800.000	0.078	-0.265
-259.180	119.199	-0.035	-0.043
-258.165	-1.094	0.168	-0.117
-257.151	800.000	-0.030	0.128
-256.136	-14.634	0.049	0.031
-255.122	61.544	-0.093	-0.091
-254.107	157.070	-0.220	0.299
-253.092	386.384	0.089	-0.181
-252.078	-33.947	-0.054	-0.029
-251.063	-135.828	-0.168	-0.020
-250.049	222.678	0.124	0.197
-249.034	78.175	-0.154	-0.162
-248.019	225.545	0.165	0.264
-247.005	-43.099	-0.028	0.014
-245.990	295.090	0.127	0.229
-244.976	332.821	0.202	-0.385
-243.961	-98.629	0.180	0.045
-242.946	800.000	0.035	0.107
-241.932	401.333	-0.104	0.215
-240.917	-71.675	0.233	0.086
-239.903	49.854	-0.174	-0.162
-238.888	338.070	-0.033	-0.063
-237.873	232.581	-0.152	-0.247
-236.859	-156.484	-0.151	-0.009
-235.844	-200.000	-0.026	-0.143
-234.830	35.894	-0.072	-0.063
-233.815	-13.603	-0.201	0.128
-232.800	-116.310	0.176	0.032
-231.786	21.215	0.182	0.146
-230.771	-38.499	-0.116	-0.060
-229.757	-159.699	-0.269	0.015
-228.742	248.763	-0.253	-0.422
-227.727	800.000	-0.125	0.503
-226.713	800.000	-0.036	0.100
-225.698	-25.131	0.110	0.064
-224.684	91.502	0.231	-0.256
-223.669	-99.268	-0.434	-0.108
-222.655	-174.482	0.224	0.006
-221.640	800.000	-0.126	0.391
-220.625	-200.000	-0.024	0.308
-219.611	749.630	-0.070	0.185
-218.596	-200.000	-0.001	0.295
-217.582	800.000	-0.126	-0.351
-216.567	-17.792	0.230	0.142
-215.552	397.233	0.111	0.228
-214.538	-32.541	0.350	-0.192
-213.523	49.074	0.116	-0.107
-212.509	-59.250	0.154	-0.065
-211.494	278.651	0.213	-0.374
-210.479	-123.168	0.142	-0.022
-209.465	-129.888	-0.403	-0.054
-208.450	257.322	0.175	0.297
-207.436	174.833	-0.072	0.103
-206.421	-200.000	0.008	-0.162
-205.406	-67.768	-0.180	0.069
-204.392	360.748	0.060	-0.118
-203.377	3.615	0.364	-0.261
-202.363	-200.000	-0.033	-0.588
-201.348	-22.970	0.342	0.203
-200.333	-179.182	-0.131	-0.003
-199.319	-200.000	-0.015	-0.147
-198.304	89.793	-0.264	-0.290
-197.290	-145.011	-0.285	-0.026
-196.275	-200.000	0.039	-0.184
-195.260	-47.153	0.111	-0.053
-194.246	-13.608	0.274	0.174
-193.231	78.816	0.094	0.099
-192.217	800.000	-0.037	0.111
-191.202	-92.439	-0.250	-0.069
-190.187	-46.020	0.104	0.050
-189.173	-200.000	-0.000	-0.205
-188.158	-34.863	-0.159	-0.086
-187.144	-10.772	-0.301	-0.196
-186.129	-200.000	0.092	-0.462
-185.114	-154.355	-0.363	0.024
-184.100	54.878	-0.105	-0.100
-183.085	800.000	0.061	0.221
-182.071	-86.447	-0.189	0.057
-181.056	-200.000	0.023	-0.248
-180.042	-38.649	0.258	-0.134
-179.027	59.967	0.128	-0.124
-178.012	800.000	-0.171	-0.543
-176.998	125.924	0.099	0.123
-175.983	51.201	0.183	-0.171
-174.969	-54.912	-0.121	-0.054
-173.954	799.636	0.039	-0.106
-172.939	800.000	-0.089	-0.317
-171.925	-35.319	0.175	-0.093
-170.910	150.104	0.134	0.178
-169.896	86.142	-0.136	0.147
-168.881	37.935	-0.210	-0.184
-167.866	-99.196	0.139	-0.034
-166.852	-75.608	0.254	0.089
-165.837	-200.000	-0.017	0.248
-164.823	-17.141	0.230	-0.142
-163.808	-200.000	0.016	-0.124
-162.793	386.251	0.063	0.128
-161.779	-98.998	0.301	-0.075
-160.764	352.941	0.133	-0.259
-159.750	2.632	0.164	0.117
-158.735	-8.394	0.079	0.052
-157.720	-200.000	0.026	0.142
-156.706	34.402	-0.029	0.025
-155.691	34.810	-0.218	-0.187
-154.677	86.320	-0.065	0.070
-153.662	-28.804	0.047	0.026
-152.647	18.985	0.116	-0.091
-151.633	-200.000	-0.003	-0.193
-150.618	123.501	0.163	-0.201
-149.604	-112.086	-0.245	0.048
-148.589	652.538	-0.105	0.265
-147.574	-135.403	0.263	-0.031
-146.560	84.544	0.014	-0.015
-145.545	48.482	0.122	0.112
-144.531	-158.405	-0.212	-0.012
-143.516	221.034	-0.200	0.315
-142.502	800.000	-0.093	0.260
-141.487	-200.000	0.026	0.246
-140.472	354.226	0.045	-0.088
-139.458	91.837	0.051	-0.056
-138.443	32.537	0.185	0.157
-137.429	-124.633	0.168	-0.026
-136.414	283.009	-0.085	-0.149
-135.399	800.000	0.061	-0.243
-134.385	8.958	-0.112	0.083
-133.370	-200.000	0.019	0.116
-132.356	-129.136	-0.172	-0.024
-131.341	-200.000	-0.015	0.327
-130.326	565.430	-0.071	-0.170
-129.312	214.899	0.061	-0.094
-128.297	50.734	-0.088	-0.082
-127.283	-200.000	-0.003	-0.019
-126.268	-143.309	0.094	0.009
-125.253	800.000	0.085	0.343
-124.239	-105.468	0.273	0.061
-123.224	-4.208	0.251	-0.171
-122.210	133.688	0.142	-0.180
-121.195	15.603	0.170	-0.131
