DTS Sentinel unit serial number:	SN413079Multiplexer serial number:	ORYXHardware model number:	OX4-SRSoftware version number:	ORYX F/W v4.00 Oryx Data Collector v3.7.2.0data status	okinstallation	princeton_trtdifferential loss correction	single-endedforward channel	channel 2reverse channel	N/Adate	2019/09/19time	13:03:34forward acquisition time	60.00reverse acquisition time	0.00gamma	496.2192k internal	0.2331k external	0.2331temperature offset calibration	1.0014default loss term (dB/km)	0.3790temperature slope calibration	1.0000multiplexer offset coefficient	1.0000multiplexer slope coefficient	1.0000fibre end	0.00T internal ref (°C)	28.81T ext. ref 1 (°C)	0.93T ext. ref 2 (°C)	26.85length (m)	temperature (°C)	Stokes	anti-Stokes-747.200	-200.000	-0.056	0.462
-746.185	94.456	-0.166	0.190
-745.171	-130.602	-0.303	-0.041
-744.156	515.934	0.116	0.272
-743.142	-15.833	-0.237	0.152
-742.127	-90.469	-0.090	0.026
-741.112	-200.000	0.033	0.255
-740.098	85.616	-0.184	0.203
-739.083	800.000	0.061	0.175
-738.069	-200.000	-0.027	0.122
-737.054	113.536	0.230	-0.281
-736.039	-200.000	0.001	-0.062
-735.025	-200.000	0.038	0.329
-734.010	264.825	-0.065	-0.114
-732.996	135.393	-0.175	-0.229
-731.981	282.977	-0.114	-0.207
-730.966	63.267	-0.114	0.115
-729.952	443.448	-0.087	0.191
-728.937	-200.000	-0.069	0.317
-727.923	-101.682	-0.231	0.056
-726.908	-200.000	-0.085	-0.389
-725.894	8.202	-0.209	-0.158
-724.879	-11.331	-0.167	-0.110
-723.864	-130.295	-0.063	-0.009
-722.850	505.760	-0.033	-0.078
-721.835	-22.745	-0.351	0.213
-720.821	-26.202	-0.237	0.140
-719.806	-200.000	0.003	-0.037
-718.791	-21.394	-0.083	0.051
-717.777	-200.000	0.021	-0.259
-716.762	-21.903	0.137	-0.084
-715.748	-109.716	0.090	-0.019
-714.733	-110.378	0.087	0.018
-713.718	-71.594	0.207	-0.078
-712.704	800.000	-0.104	-0.295
-711.689	-200.000	-0.012	-0.319
-710.675	-106.224	0.386	0.087
-709.660	-200.000	-0.016	-0.405
-708.645	-200.000	0.004	-0.305
-707.631	468.602	-0.127	0.287
-706.616	-37.213	0.187	0.100
-705.602	-200.000	0.016	-0.128
-704.587	49.885	-0.053	0.050
-703.572	-200.000	0.031	0.211
-702.558	-200.000	-0.013	0.092
-701.543	735.250	0.076	0.204
-700.529	128.963	-0.284	-0.364
-699.514	444.195	-0.057	-0.126
-698.499	-110.337	-0.072	0.015
-697.485	120.352	-0.106	-0.132
-696.470	195.114	-0.132	-0.202
-695.456	62.664	-0.079	-0.080
-694.441	-147.034	0.223	0.019
-693.426	-77.857	-0.492	-0.171
-692.412	583.524	-0.024	0.058
-691.397	-156.703	0.130	-0.008
-690.383	47.904	-0.117	-0.110
-689.368	-93.085	-0.069	-0.019
-688.354	541.604	0.169	-0.404
-687.339	-58.638	0.258	-0.112
-686.324	-200.000	0.024	0.130
-685.310	544.767	-0.152	-0.365
-684.295	162.547	-0.100	-0.140
-683.281	-39.909	0.128	0.067
-682.266	-59.793	0.198	0.085
-681.251	-6.667	-0.210	-0.143
-680.237	-2.357	-0.094	0.066
-679.222	800.000	0.057	-0.179
-678.208	656.314	0.062	0.161
-677.193	800.000	-0.042	-0.154
-676.178	159.609	0.134	-0.187
-675.164	-200.000	0.032	0.197
-674.149	800.000	0.104	0.368
-673.135	338.281	0.169	0.330
-672.120	-24.478	-0.064	0.038
-671.105	-51.119	0.236	-0.111
-670.091	-154.733	-0.190	-0.013
-669.076	-21.054	0.325	0.199
-668.062	36.692	-0.130	0.115
-667.047	800.000	0.059	-0.166
-666.032	573.057	-0.119	-0.291
-665.018	-200.000	-0.009	-0.098
-664.003	17.586	-0.212	0.169
-662.989	670.272	-0.092	-0.240
-661.974	218.867	-0.093	0.149
-660.959	-200.000	0.001	0.277
-659.945	789.333	0.040	0.112
-658.930	-138.641	0.188	-0.021
-657.916	366.078	0.106	-0.215
-656.901	78.235	0.123	0.132
-655.886	100.240	-0.077	0.089
-654.872	6.317	-0.437	-0.326
-653.857	-35.189	-0.075	-0.041
-652.843	-77.493	-0.223	0.078
-651.828	-44.554	0.059	-0.030
-650.814	173.956	0.096	-0.139
-649.799	-109.909	-0.331	0.070
-648.784	-96.383	-0.450	-0.119
-647.770	67.422	0.189	-0.193
-646.755	-107.509	0.216	0.047
-645.741	612.924	-0.050	0.125
-644.726	17.444	0.247	0.197
-643.711	-145.230	-0.388	-0.035
-642.697	118.436	-0.083	0.103
-641.682	800.000	-0.040	-0.162
-640.668	-200.000	0.020	0.162
-639.653	151.762	0.135	-0.184
-638.638	-200.000	-0.033	-0.291
-637.624	173.828	-0.053	-0.076
-636.609	800.000	0.056	-0.220
-635.595	99.319	0.159	0.184
-634.580	-200.000	0.006	0.179
-633.565	514.101	0.048	0.112
-632.551	-200.000	0.003	0.131
-631.536	662.128	-0.048	0.123
-630.522	-200.000	0.018	0.114
-629.507	-75.181	-0.226	0.081
-628.492	800.000	0.130	0.364
-627.478	36.164	0.156	-0.137
-626.463	6.174	-0.044	0.033
-625.449	-5.219	0.191	0.131
-624.434	218.574	-0.166	0.266
-623.419	-25.544	-0.115	0.068
-622.405	130.534	-0.061	0.078
-621.390	91.245	0.264	-0.297
-620.376	-56.704	-0.115	0.051
-619.361	16.592	-0.158	-0.125
-618.346	-9.712	-0.270	0.180
-617.332	-17.935	-0.122	0.076
-616.317	-120.462	-0.314	-0.053
-615.303	-74.717	-0.254	0.091
-614.288	-33.759	-0.075	-0.041
-613.273	-122.009	0.274	-0.045
-612.259	-163.788	-0.336	-0.016
-611.244	-200.000	-0.068	-0.369
-610.230	22.916	-0.045	0.037
-609.215	2.760	-0.200	0.145
-608.201	-167.105	-0.332	-0.014
-607.186	-200.000	-0.044	-0.412
-606.171	71.598	0.284	-0.295
-605.157	68.013	-0.192	-0.196
-604.142	21.435	-0.130	-0.106
-603.128	-200.000	-0.050	-0.218
-602.113	-114.704	0.014	0.003
-601.098	-200.000	0.013	-0.157
-600.084	800.000	-0.074	-0.267
-599.069	547.634	-0.093	-0.223
-598.055	-200.000	0.056	-0.264
-597.040	-25.202	0.241	-0.143
-596.025	86.132	0.165	-0.182
-595.011	41.176	-0.274	-0.248
-593.996	765.810	-0.062	0.169
-592.982	-81.495	-0.135	0.045
-591.967	131.642	0.039	-0.050
-590.952	94.863	0.264	0.300
-589.938	231.063	-0.047	-0.077
-588.923	80.095	-0.145	-0.156
-587.909	800.000	-0.038	0.128
-586.894	231.390	0.155	-0.255
-585.879	-139.368	0.329	0.035
-584.865	-200.000	-0.006	0.078
-583.850	-175.454	-0.257	-0.007
-582.836	800.000	0.075	-0.272
-581.821	-200.000	-0.052	0.369
-580.806	739.426	-0.043	0.115
-579.792	800.000	-0.031	-0.118
-578.777	-103.425	-0.259	0.061
-577.763	-4.459	0.195	0.135
-576.748	-84.094	-0.075	-0.024
-575.733	-144.326	0.126	-0.012
-574.719	513.582	0.167	0.389
-573.704	800.000	0.086	0.357
-572.690	-56.553	-0.364	-0.161
-571.675	-102.624	0.210	-0.050
-570.661	30.097	-0.096	0.082
-569.646	435.166	-0.139	-0.302
-568.631	800.000	-0.106	0.362
-567.617	-10.560	0.138	-0.091
-566.602	-53.641	-0.091	-0.042
-565.588	800.000	0.046	-0.152
-564.573	-200.000	0.060	-0.264
-563.558	142.207	-0.153	-0.202
-562.544	66.576	-0.195	-0.198
-561.529	-46.020	-0.366	-0.180
-560.515	35.974	0.219	-0.193
-559.500	671.599	0.068	0.177
-558.485	-200.000	-0.052	0.367
-557.471	-108.321	-0.275	-0.059
-556.456	19.305	0.090	-0.072
-555.442	-91.931	-0.404	0.115
-554.427	-80.570	0.134	-0.045
-553.412	287.254	0.034	0.061
-552.398	-85.781	0.433	-0.134
-551.383	800.000	0.036	0.146
-550.369	48.251	-0.086	-0.080
-549.354	29.494	-0.288	0.245
-548.339	-140.957	0.202	-0.021
-547.325	65.420	-0.258	-0.260
-546.310	-156.897	-0.052	0.003
-545.296	-200.000	-0.002	-0.093
-544.281	-200.000	-0.039	0.470
-543.266	99.021	0.097	0.112
-542.252	-148.258	-0.160	0.013
-541.237	745.572	-0.012	0.032
-540.223	52.549	0.259	-0.247
-539.208	-14.026	0.104	0.067
-538.193	548.679	0.100	0.240
-537.179	331.671	0.100	-0.192
-536.164	-156.022	0.309	0.020
-535.150	293.949	-0.267	-0.486
-534.135	800.000	0.048	0.162
-533.121	800.000	0.052	-0.148
-532.106	-200.000	0.001	-0.211
-531.091	800.000	-0.081	-0.228
-530.077	800.000	-0.018	0.062
-529.062	504.084	-0.179	0.413
-528.048	-121.712	0.144	0.024
-527.033	-158.141	-0.076	0.004
-526.018	-8.468	-0.023	-0.015
-525.004	-200.000	-0.028	-0.266
-523.989	-113.725	0.230	-0.045
-522.975	63.299	-0.148	-0.148
-521.960	43.084	-0.322	0.293
-520.945	63.714	-0.066	0.066
-519.931	84.135	0.133	0.145
-518.916	-200.000	0.018	0.343
-517.902	-116.479	-0.114	-0.021
-516.887	-200.000	0.019	0.144
-515.872	144.236	-0.156	0.207
-514.858	-200.000	-0.106	-0.000
-513.843	296.855	-0.077	0.140
-512.829	-187.482	0.154	0.002
-511.814	-12.012	-0.064	-0.042
-510.799	-35.410	-0.033	-0.018
-509.785	-132.082	-0.204	-0.026
-508.770	-148.483	0.178	-0.015
-507.756	212.897	-0.155	0.244
-506.741	-58.760	-0.289	-0.125
-505.726	-132.283	0.181	0.023
-504.712	10.558	0.177	0.134
-503.697	800.000	0.049	0.187
-502.683	800.000	0.050	-0.181
-501.668	55.619	0.140	-0.135
-500.653	32.974	0.126	0.109
-499.639	-200.000	0.033	-0.204
-498.624	75.994	-0.230	-0.242
-497.610	13.036	-0.230	0.177
-496.595	-200.000	0.023	0.372
-495.581	293.141	0.124	0.225
-494.566	800.000	-0.036	-0.120
-493.551	181.299	0.149	-0.218
-492.537	131.669	-0.329	0.421
-491.522	220.795	0.251	0.402
-490.508	-2.046	-0.168	-0.118
-489.493	106.204	-0.225	0.266
-488.478	421.977	0.061	0.130
-487.464	102.836	-0.114	0.132
-486.449	-59.216	-0.096	0.041
-485.435	-147.518	0.458	-0.038
-484.420	269.002	-0.146	-0.256
-483.405	561.124	0.061	-0.148
-482.391	-161.930	-0.315	0.016
-481.376	-29.676	-0.352	-0.200
-480.362	-123.020	-0.094	-0.015
-479.347	-183.361	0.099	0.002
-478.332	-16.333	-0.310	-0.196
-477.318	81.776	-0.133	-0.144
-476.303	565.225	0.097	-0.234
-475.289	51.502	0.142	-0.134
-474.274	-25.910	-0.241	0.141
-473.259	-20.341	-0.096	-0.059
-472.245	29.687	0.251	0.213
-471.230	74.223	-0.163	-0.171
-470.216	17.557	0.384	-0.304
-469.201	-98.642	0.139	-0.035
-468.186	168.779	-0.235	-0.333
-467.172	-2.918	-0.151	-0.105
-466.157	169.101	-0.176	0.250
-465.143	70.836	0.086	0.088
-464.128	-200.000	0.079	0.433
-463.113	-149.593	-0.063	0.005
-462.099	157.380	-0.112	-0.154
-461.084	418.138	0.192	-0.408
-460.070	-157.483	-0.105	-0.006
-459.055	800.000	-0.080	-0.256
-458.040	291.588	-0.162	-0.294
-457.026	332.343	-0.051	0.097
-456.011	-6.842	-0.134	-0.091
-454.997	-200.000	0.005	0.069
-453.982	800.000	0.019	-0.053
-452.968	-200.000	0.037	0.303
-451.953	215.288	0.044	-0.069
-450.938	239.113	-0.115	-0.191
-449.924	-122.928	-0.046	-0.007
-448.909	-76.531	-0.326	-0.114
-447.895	-67.862	0.132	-0.051
-446.880	-162.550	0.267	-0.013
-445.865	-78.923	-0.173	-0.058
-444.851	800.000	0.143	0.575
-443.836	68.588	-0.234	0.239
-442.822	330.677	0.056	0.108
-441.807	656.272	-0.026	0.066
-440.792	66.515	0.223	-0.225
-439.778	180.151	0.161	-0.235
-438.763	174.083	-0.165	-0.237
-437.749	429.533	0.241	-0.518
-436.734	-200.000	0.027	-0.416
-435.719	581.398	0.093	-0.226
-434.705	153.506	-0.024	0.033
-433.690	-129.410	0.091	-0.012
-432.676	-173.426	-0.466	-0.014
-431.661	-0.478	-0.276	0.194
-430.646	202.670	0.085	-0.131
-429.632	-29.765	-0.296	-0.168
-428.617	-200.000	-0.010	0.056
-427.603	-200.000	-0.034	0.173
-426.588	406.872	0.037	-0.078
-425.573	178.442	0.205	0.298
-424.559	-110.350	-0.209	-0.043
-423.544	138.505	0.075	-0.098
-422.530	-200.000	-0.006	0.040
-421.515	106.715	-0.099	0.117
-420.500	477.476	0.242	0.545
-419.486	-150.213	-0.160	0.012
-418.471	21.515	-0.272	0.220
-417.457	-86.552	0.018	0.006
-416.442	-37.494	0.155	-0.082
-415.428	411.150	0.083	0.175
-414.413	33.479	-0.157	0.135
-413.398	118.144	0.096	0.117
-412.384	-75.898	0.114	-0.040
-411.369	95.053	0.083	-0.094
-410.355	58.150	-0.110	-0.107
-409.340	69.193	0.296	0.302
-408.325	-200.000	0.006	0.060
-407.311	119.784	-0.144	0.178
-406.296	560.980	-0.035	-0.084
-405.282	-146.443	0.251	0.022
-404.267	-160.373	-0.146	-0.008
-403.252	38.722	-0.160	-0.142
-402.238	-91.265	-0.301	0.086
-401.223	109.442	0.313	-0.372
-400.209	-20.055	0.120	0.074
-399.194	258.526	0.072	-0.123
-398.179	-42.558	0.211	0.106
-397.165	82.350	-0.104	0.112
-396.150	-200.000	-0.004	-0.113
-395.136	-32.225	0.192	0.107
-394.121	262.940	-0.134	0.231
-393.106	170.640	-0.018	-0.026
-392.092	-200.000	0.030	0.276
-391.077	520.858	0.056	-0.131
-390.063	272.509	-0.096	-0.168
-389.048	718.363	0.090	0.238
-388.033	-18.817	0.250	-0.154
-387.019	-200.000	-0.003	0.175
-386.004	468.738	-0.056	0.124
-384.990	-200.000	-0.015	-0.096
-383.975	-200.000	-0.007	0.133
-382.960	-50.003	0.051	0.024
-381.946	-123.126	0.073	0.012
-380.931	-200.000	0.030	0.155
-379.917	800.000	0.100	0.370
-378.902	92.066	-0.116	-0.129
-377.888	-200.000	-0.004	0.440
-376.873	-200.000	-0.006	0.330
-375.858	-118.240	-0.103	-0.018
-374.844	-61.063	0.095	0.040
-373.829	-200.000	-0.027	-0.118
-372.815	-200.000	0.040	-0.408
-371.800	800.000	-0.098	0.335
-370.785	236.066	0.102	-0.167
-369.771	197.692	-0.172	-0.261
-368.756	-110.529	-0.302	-0.062
-367.742	177.892	0.207	-0.300
-366.727	-60.422	0.212	0.090
-365.712	-138.398	-0.138	0.015
-364.698	64.352	0.212	-0.212
-363.683	-200.000	-0.007	-0.335
-362.669	29.934	-0.191	0.161
-361.654	-200.000	-0.009	-0.265
-360.639	-200.000	0.040	-0.339
-359.625	-200.000	0.018	-0.259
-358.610	767.232	-0.029	-0.078
-357.596	240.629	0.070	-0.115
-356.581	-44.524	0.322	-0.160
-355.566	113.230	0.126	0.151
-354.552	-113.025	-0.215	-0.042
-353.537	-46.945	-0.317	-0.154
-352.523	800.000	0.065	-0.234
-351.508	65.037	-0.158	-0.158
-350.493	-129.983	0.166	0.023
-349.479	-166.989	-0.185	0.008
-348.464	419.014	0.125	-0.265
-347.450	397.984	0.024	0.051
-346.435	150.759	-0.092	-0.124
-345.420	339.915	-0.070	0.135
-344.406	137.521	0.132	-0.171
-343.391	-50.908	0.094	-0.044
-342.377	800.000	0.076	-0.239
-341.362	-58.887	-0.304	-0.130
-340.348	-116.995	-0.131	-0.024
-339.333	-72.219	-0.459	-0.169
-338.318	284.700	-0.023	0.042
-337.304	-116.803	-0.294	-0.053
-336.289	-49.165	0.379	0.180
-335.275	81.502	0.234	0.250
-334.260	149.647	0.087	0.117
-333.245	-44.047	-0.276	-0.137
-332.231	-119.701	0.336	0.057
-331.216	603.878	0.155	0.381
-330.202	-107.743	-0.391	-0.084
-329.187	-200.000	0.028	-0.222
-328.172	-200.000	-0.084	-0.372
-327.158	-200.000	0.027	-0.178
-326.143	243.618	-0.173	-0.287
-325.129	-72.188	0.106	0.039
-324.114	800.000	-0.090	-0.265
-323.099	800.000	-0.023	0.096
-322.085	113.059	-0.095	-0.114
-321.070	-74.820	-0.117	-0.042
-320.056	25.280	0.303	0.250
-319.041	-200.000	-0.033	0.255
-318.026	800.000	0.032	-0.116
-317.012	800.000	-0.050	-0.162
-315.997	394.033	0.169	0.348
-314.983	-41.040	0.206	0.106
-313.968	-150.802	0.324	0.024
-312.953	-75.703	-0.374	0.131
-311.939	800.000	-0.069	0.261
-310.924	130.025	0.129	0.163
-309.910	800.000	-0.046	0.130
-308.895	-164.976	0.241	0.011
-307.880	-0.400	-0.205	-0.144
-306.866	-200.000	0.051	-0.246
-305.851	48.631	0.190	-0.176
-304.837	-84.261	0.434	-0.136
-303.822	381.544	0.022	0.045
-302.807	-200.000	0.013	0.087
-301.793	-9.191	0.296	-0.196
-300.778	-58.849	0.123	-0.053
-299.764	93.152	0.102	-0.114
-298.749	-68.000	0.149	-0.058
-297.735	79.908	0.189	-0.201
-296.720	800.000	0.082	0.291
-295.705	161.295	0.198	0.274
-294.691	-169.061	-0.054	-0.002
-293.676	99.489	0.131	0.149
-292.662	-200.000	-0.036	-0.294
-291.647	189.542	0.113	-0.167
-290.632	-38.261	0.063	0.033
-289.618	11.750	0.084	-0.064
-288.603	-181.955	0.265	0.005
-287.589	-137.341	0.451	-0.051
-286.574	800.000	0.122	0.345
-285.559	118.730	-0.219	-0.268
-284.545	800.000	-0.036	0.135
-283.530	-2.159	-0.155	0.108
-282.516	87.967	0.091	0.100
-281.501	652.955	-0.026	0.066
-280.486	454.505	0.044	-0.097
-279.472	-63.561	-0.192	0.078
-278.457	203.345	-0.093	0.142
-277.443	-200.000	0.007	0.276
-276.428	-31.840	-0.346	0.191
-275.413	-200.000	-0.003	0.207
-274.399	255.187	0.062	-0.105
-273.384	558.975	0.031	0.073
-272.370	-200.000	-0.049	0.382
-271.355	-50.869	0.507	0.235
-270.340	-47.120	-0.074	0.036
-269.326	-200.000	0.001	0.027
-268.311	-200.000	-0.007	0.333
-267.297	-87.654	0.225	0.067
-266.282	800.000	-0.086	-0.249
-265.267	-84.896	0.474	-0.147
-264.253	107.081	-0.073	-0.086
-263.238	-141.360	0.256	0.026
-262.224	-109.608	0.138	0.029
-261.209	-62.874	-0.207	-0.084
-260.195	-14.416	0.230	0.146
-259.180	127.957	-0.047	-0.058
-258.165	-135.624	0.216	0.025
-257.151	222.677	-0.062	0.099
-256.136	145.948	-0.077	-0.103
-255.122	-135.637	-0.117	0.014
-254.107	-200.000	-0.050	0.217
-253.092	21.968	0.062	-0.050
-252.078	75.125	0.237	0.247
-251.063	31.916	-0.281	0.239
-250.049	-21.619	-0.168	-0.101
-249.034	800.000	0.086	0.260
-248.019	-64.821	-0.333	0.133
-247.005	-127.251	0.198	-0.029
-245.990	-200.000	-0.017	-0.100
-244.976	97.936	-0.077	0.087
-243.961	-135.916	0.254	-0.030
-242.946	62.169	-0.192	0.189
-241.932	-20.396	-0.279	-0.169
-240.917	62.743	0.105	0.103
-239.903	-108.721	-0.331	-0.070
-238.888	71.051	0.274	0.280
-237.873	800.000	0.126	-0.392
-236.859	-200.000	-0.001	0.179
-235.844	100.414	0.389	0.446
-234.830	380.056	-0.060	0.121
-233.815	-148.417	0.208	-0.017
-232.800	-200.000	0.033	0.163
-231.786	216.056	0.077	0.120
-230.771	656.550	0.043	-0.109
-229.757	-105.418	0.353	0.079
-228.742	-200.000	0.004	0.157
-227.727	-74.425	0.375	-0.134
-226.713	179.942	0.112	0.162
-225.698	365.891	0.026	-0.052
-224.684	-138.939	0.296	0.032
-223.669	800.000	-0.070	0.244
-222.655	-47.522	0.204	0.098
-221.640	-109.544	0.224	-0.047
-220.625	285.297	0.068	-0.122
-219.611	-200.000	-0.035	0.155
-218.596	-200.000	0.014	0.149
-217.582	167.281	-0.196	0.275
-216.567	474.452	0.097	0.216
-215.552	-29.317	-0.305	-0.172
-214.538	-200.000	-0.008	-0.163
-213.523	-28.764	0.129	0.073
-212.509	-200.000	-0.045	0.374
-211.494	299.750	-0.082	-0.150
-210.479	-184.222	-0.390	0.006
-209.465	800.000	-0.085	-0.234
-208.450	-200.000	-0.025	0.118
-207.436	125.853	-0.241	-0.299
-206.421	-45.754	0.329	0.160
-205.406	-26.695	0.236	-0.136
-204.392	11.183	0.187	-0.141
-203.377	70.283	0.205	0.209
-202.363	-200.000	-0.011	-0.139
-201.348	42.244	0.321	0.288
-200.333	15.152	-0.102	0.078
-199.319	-9.639	0.206	0.135
-198.304	-42.772	-0.221	-0.111
-197.290	101.438	0.252	-0.289
-196.275	-111.023	0.118	-0.024
-195.260	-152.531	0.142	-0.010
-194.246	590.067	0.066	-0.160
-193.231	-65.338	0.046	0.018
-192.217	2.987	-0.048	-0.035
-191.202	-97.608	-0.197	0.050
-190.187	-200.000	0.010	-0.071
-189.173	-3.707	0.050	-0.034
-188.158	-76.938	0.168	-0.058
-187.144	-200.000	-0.042	0.358
-186.129	36.076	0.189	-0.164
-185.114	-123.865	0.143	-0.022
-184.100	-85.989	-0.233	-0.071
-183.085	214.971	-0.077	-0.120
-182.071	-94.729	0.138	0.037
-181.056	97.843	-0.149	-0.169
-180.042	125.360	-0.074	0.091
-179.027	261.737	0.050	0.086
-178.012	31.590	-0.131	0.111
-176.998	227.645	0.090	0.144
-175.983	-139.823	-0.128	0.013
-174.969	-21.688	-0.126	-0.075
-173.954	217.887	-0.074	-0.116
-172.939	22.698	-0.238	0.192
-171.925	-105.997	-0.246	0.054
-170.910	-200.000	-0.056	-0.247
-169.896	144.993	-0.057	-0.076
-168.881	131.232	0.098	-0.124
-167.866	-150.537	0.300	-0.023
-166.852	800.000	0.048	0.200
-165.837	26.524	0.155	-0.128
-164.823	800.000	0.095	-0.293
-163.808	800.000	0.079	0.237
-162.793	6.954	-0.191	-0.140
-161.779	-72.885	0.245	-0.088
-160.764	-81.433	0.378	0.122
-159.750	-61.309	-0.103	0.043
-158.735	-120.395	-0.258	0.043
-157.720	-46.586	0.044	0.021
-156.706	-115.178	-0.085	-0.016
-155.691	276.218	-0.128	-0.223
-154.677	256.435	0.197	-0.333
-153.662	-125.701	-0.207	0.031
-152.647	95.827	0.114	-0.128
-151.633	-19.548	-0.317	0.193
-150.618	564.776	0.043	0.102
-149.604	-4.242	0.261	-0.177
-148.589	-5.511	-0.076	0.052
-147.574	-60.677	-0.229	-0.095
-146.560	43.203	-0.101	0.090
-145.545	-200.000	-0.040	0.281
-144.531	-64.986	0.288	0.114
-143.516	-200.000	0.055	0.256
-142.502	-26.689	0.102	0.059
-141.487	-200.000	0.073	-0.428
-140.472	-13.225	0.124	-0.079
-139.458	30.117	-0.179	-0.150
-138.443	-200.000	0.065	0.430
-137.429	136.563	0.090	0.115
-136.414	46.266	-0.299	0.272
-135.399	-141.861	0.140	0.014
-134.385	-65.270	-0.224	0.089
-133.370	-200.000	-0.023	0.197
-132.356	77.147	0.113	0.118
-131.341	100.685	0.142	-0.162
-130.326	-200.000	-0.047	0.277
-129.312	41.998	0.299	0.266
-128.297	-40.023	-0.130	-0.067
-127.283	89.778	-0.186	-0.204
-126.268	-34.841	0.077	-0.041
-125.253	-200.000	0.042	-0.281
-124.239	769.425	-0.058	-0.155
-123.224	-200.000	0.061	-0.264
-122.210	43.045	0.213	0.191
-121.195	102.508	-0.138	-0.159
