DTS Sentinel unit serial number:	SN413079Multiplexer serial number:	ORYXHardware model number:	OX4-SRSoftware version number:	ORYX F/W v4.00 Oryx Data Collector v3.7.2.0data status	okinstallation	princeton_trtdifferential loss correction	single-endedforward channel	channel 2reverse channel	N/Adate	2019/09/10time	17:37:11forward acquisition time	60.00reverse acquisition time	0.00gamma	496.2192k internal	0.2310k external	0.2310temperature offset calibration	0.9937default loss term (dB/km)	0.3790temperature slope calibration	1.0000multiplexer offset coefficient	1.0000multiplexer slope coefficient	1.0000fibre end	0.00T internal ref (°C)	37.62T ext. ref 1 (°C)	-0.34T ext. ref 2 (°C)	31.31length (m)	temperature (°C)	Stokes	anti-Stokes-747.200	-143.402	-0.121	0.012
-746.185	69.497	0.025	0.026
-745.171	-200.000	-0.036	0.327
-744.156	143.615	0.126	-0.171
-743.142	8.499	0.128	-0.098
-742.127	-45.781	-0.212	-0.106
-741.112	-200.000	-0.004	-0.062
-740.098	-18.071	-0.039	0.025
-739.083	-71.977	0.215	0.081
-738.069	800.000	-0.072	0.316
-737.054	216.120	-0.174	-0.282
-736.039	666.090	-0.128	0.336
-735.025	377.892	0.150	0.310
-734.010	178.516	-0.207	-0.307
-732.996	612.534	-0.118	-0.299
-731.981	-107.129	0.067	-0.015
-730.966	91.046	-0.161	0.183
-729.952	800.000	-0.108	-0.377
-728.937	19.695	0.057	0.047
-727.923	169.319	-0.017	-0.024
-726.908	-200.000	0.018	0.183
-725.894	800.000	-0.059	-0.256
-724.879	800.000	-0.067	-0.216
-723.864	-92.550	-0.231	0.066
-722.850	-106.759	0.119	-0.027
-721.835	800.000	-0.068	-0.227
-720.821	478.084	0.052	-0.120
-719.806	-141.365	-0.210	-0.022
-718.791	-200.000	-0.004	-0.347
-717.777	-200.000	-0.024	0.109
-716.762	49.552	-0.146	0.139
-715.748	59.810	-0.122	0.123
-714.733	-200.000	0.027	0.334
-713.718	-200.000	0.023	-0.289
-712.704	-200.000	-0.026	-0.119
-711.689	488.518	-0.141	-0.327
-710.675	241.536	0.202	0.342
-709.660	800.000	0.079	0.244
-708.645	425.426	-0.071	0.155
-707.631	91.299	-0.054	-0.061
-706.616	28.768	-0.215	0.184
-705.602	14.081	-0.302	0.238
-704.587	-51.326	0.044	-0.021
-703.572	-90.631	-0.302	0.089
-702.558	-200.000	0.058	-0.351
-701.543	648.745	-0.168	-0.436
-700.529	-29.964	0.323	-0.186
-699.514	-200.000	0.015	0.228
-698.499	20.404	0.180	-0.147
-697.485	-200.000	0.029	-0.265
-696.470	141.354	0.048	-0.065
-695.456	-200.000	0.020	-0.213
-694.441	765.070	0.064	-0.177
-693.426	325.775	0.184	0.357
-692.412	-50.830	0.069	0.033
-691.397	-114.504	0.190	0.037
-690.383	396.645	-0.081	-0.172
-689.368	-161.295	0.027	0.001
-688.354	-200.000	-0.026	-0.279
-687.339	-200.000	0.030	-0.139
-686.324	-200.000	-0.020	0.349
-685.310	225.577	-0.179	0.293
-684.295	-200.000	-0.007	-0.201
-683.281	65.269	-0.160	-0.164
-682.266	-121.815	-0.203	0.034
-681.251	-200.000	0.071	-0.372
-680.237	-124.594	-0.251	-0.039
-679.222	18.521	0.197	0.160
-678.208	183.143	-0.277	0.414
-677.193	-9.967	0.106	0.071
-676.178	-200.000	-0.049	-0.444
-675.164	-120.568	-0.163	0.028
-674.149	75.240	0.166	0.178
-673.135	-161.091	-0.310	-0.016
-672.120	38.190	0.417	-0.376
-671.105	800.000	0.067	-0.256
-670.091	-50.082	0.146	0.070
-669.076	746.860	0.013	0.036
-668.062	-200.000	-0.001	-0.098
-667.047	92.264	0.127	0.145
-666.032	356.703	0.009	-0.018
-665.018	423.544	-0.128	-0.279
-664.003	311.706	-0.177	-0.335
-662.989	-96.993	0.170	-0.045
-661.974	-146.013	-0.040	0.004
-660.959	-89.693	0.090	0.027
-659.945	-48.213	0.348	-0.170
-658.930	19.607	0.066	-0.054
-657.916	216.119	-0.176	-0.283
-656.901	65.440	-0.377	-0.386
-655.886	-117.193	-0.130	0.024
-654.872	199.704	0.182	-0.282
-653.857	800.000	0.048	-0.147
-652.843	-200.000	0.036	-0.173
-651.828	800.000	-0.066	-0.238
-650.814	-200.000	0.034	-0.266
-649.799	-146.220	0.113	-0.010
-648.784	80.027	0.079	-0.086
-647.770	-200.000	0.026	-0.157
-646.755	-200.000	-0.054	-0.249
-645.741	800.000	0.141	0.439
-644.726	-75.909	0.264	0.095
-643.711	226.287	0.115	0.189
-642.697	-115.339	0.362	-0.069
-641.682	113.226	0.313	-0.384
-640.668	342.495	0.116	0.230
-639.653	289.168	-0.131	-0.241
-638.638	800.000	-0.040	0.163
-637.624	110.867	0.201	-0.245
-636.609	-70.324	0.150	-0.058
-635.595	-200.000	-0.021	-0.185
-634.580	-108.777	-0.252	0.055
-633.565	-0.420	-0.192	-0.138
-632.551	106.821	0.154	0.185
-631.536	65.478	-0.210	0.215
-630.522	121.950	0.373	0.471
-629.507	138.261	-0.106	-0.141
-628.492	-200.000	0.364	0.000
-627.478	50.725	-0.194	0.185
-626.463	23.312	-0.154	0.128
-625.449	-200.000	0.041	-0.225
-624.434	800.000	-0.058	-0.197
-623.419	183.447	0.168	-0.251
-622.405	-40.593	0.270	-0.142
-621.390	459.147	-0.131	-0.295
-620.376	-200.000	-0.020	-0.172
-619.361	-110.935	-0.127	-0.026
-618.346	63.513	-0.181	0.183
-617.332	347.387	-0.137	0.273
-616.317	134.300	0.021	0.027
-615.303	-16.763	0.123	0.079
-614.288	345.829	-0.043	0.085
-613.273	-81.618	0.223	0.074
-612.259	-200.000	-0.007	-0.172
-611.244	179.245	-0.270	-0.398
-610.230	-137.864	0.258	-0.029
-609.215	-38.383	-0.131	0.070
-608.201	-74.452	0.173	0.063
-607.186	800.000	-0.055	0.193
-606.171	0.000	-0.121	0.087
-605.157	-185.310	-0.296	0.005
-604.142	-55.761	-0.278	-0.126
-603.128	8.936	-0.174	-0.133
-602.113	-90.580	-0.244	0.071
-601.098	800.000	-0.050	-0.175
-600.084	-200.000	0.021	0.173
-599.069	-33.870	-0.253	-0.141
-598.055	-200.000	0.022	-0.173
-597.040	800.000	-0.023	0.067
-596.025	205.961	0.090	-0.141
-595.011	9.539	0.088	0.067
-593.996	334.865	-0.125	0.244
-592.982	-59.836	-0.050	-0.022
-591.967	-97.990	-0.066	0.017
-590.952	120.164	-0.028	0.035
-589.938	86.080	0.097	-0.108
-588.923	367.367	0.121	0.248
-587.909	-200.000	0.001	0.184
-586.894	-114.353	-0.203	0.039
-585.879	-99.143	-0.105	-0.027
-584.865	157.635	0.156	-0.219
-583.850	800.000	-0.071	-0.313
-582.836	200.434	-0.020	-0.031
-581.821	360.839	0.132	-0.267
-580.806	-181.047	-0.221	0.004
-579.792	44.808	-0.248	-0.231
-578.777	-79.506	-0.390	-0.133
-577.763	-21.262	0.158	-0.097
-576.748	-96.805	0.060	0.016
-575.733	-76.753	-0.556	-0.196
-574.719	101.764	-0.260	-0.306
-573.704	-200.000	0.017	0.178
-572.690	800.000	-0.102	0.434
-571.675	-80.959	0.319	-0.107
-570.661	-18.583	-0.298	0.187
-569.646	-119.938	-0.252	-0.044
-568.631	313.968	-0.203	-0.385
-567.617	32.058	-0.100	-0.087
-566.602	-114.356	-0.380	0.074
-565.588	-83.815	0.075	-0.024
-564.573	493.459	0.081	0.187
-563.558	529.219	-0.055	-0.130
-562.544	298.232	-0.030	-0.055
-561.529	-157.365	0.387	0.024
-560.515	-200.000	-0.020	0.130
-559.500	-69.928	-0.396	-0.152
-558.485	800.000	-0.119	-0.457
-557.471	629.292	-0.077	0.196
-556.456	444.682	-0.062	0.137
-555.442	800.000	0.059	0.220
-554.427	-200.000	-0.013	-0.083
-553.412	-82.277	-0.286	0.094
-552.398	-141.599	-0.298	-0.030
-551.383	-21.444	-0.123	-0.076
-550.369	156.569	0.039	0.055
-549.354	-200.000	-0.043	-0.398
-548.339	-73.882	-0.207	-0.076
-547.325	-120.455	0.138	0.024
-546.310	14.456	-0.234	-0.184
-545.296	121.259	-0.190	-0.238
-544.281	-101.745	-0.233	0.057
-543.266	564.111	0.092	-0.225
-542.252	-4.268	-0.184	-0.128
-541.237	-114.178	-0.346	0.067
-540.223	-135.346	-0.093	0.011
-539.208	461.904	0.231	-0.520
-538.193	148.133	-0.058	-0.079
-537.179	800.000	-0.038	0.111
-536.164	69.892	-0.362	0.377
-535.150	-200.000	-0.029	-0.157
-534.135	-134.727	0.359	-0.044
-533.121	25.125	-0.248	-0.207
-532.106	-169.471	-0.036	-0.001
-531.091	38.436	-0.345	-0.309
-530.077	800.000	-0.036	0.121
-529.062	175.569	-0.087	0.128
-528.048	-200.000	-0.001	-0.072
-527.033	195.994	-0.188	0.287
-526.018	-200.000	0.016	-0.195
-525.004	-181.203	0.205	-0.004
-523.989	-152.676	0.110	0.008
-522.975	-89.359	0.319	0.095
-521.960	-92.240	-0.069	0.020
-520.945	-200.000	-0.047	0.231
-519.931	106.393	0.118	-0.141
-518.916	-120.678	-0.139	0.024
-517.902	-131.433	0.291	-0.039
-516.887	-200.000	-0.001	0.037
-515.872	800.000	0.063	-0.201
-514.858	480.542	-0.027	-0.062
-513.843	-200.000	0.005	-0.059
-512.829	-104.127	0.276	-0.065
-511.814	-200.000	0.004	0.102
-510.799	280.821	0.098	0.176
-509.785	-198.450	0.157	0.001
-508.770	92.597	0.135	-0.153
-507.756	-187.786	-0.260	0.003
-506.741	144.358	-0.082	0.110
-505.726	52.417	0.141	0.135
-504.712	-22.617	-0.087	0.053
-503.697	-200.000	-0.000	0.331
-502.683	2.572	-0.292	-0.213
-501.668	-200.000	-0.001	0.156
-500.653	-200.000	0.026	0.137
-499.639	-68.482	-0.177	-0.069
-498.624	-200.000	0.027	0.148
-497.610	-95.471	0.144	0.039
-496.595	543.639	0.057	0.136
-495.581	112.899	-0.097	0.118
-494.566	-14.882	-0.218	-0.141
-493.551	-3.328	-0.344	-0.241
-492.537	139.103	-0.128	0.169
-491.522	-200.000	-0.004	-0.048
-490.508	107.244	-0.149	-0.178
-489.493	568.566	-0.193	-0.472
-488.478	147.821	-0.151	0.205
-487.464	-33.089	-0.196	0.109
-486.449	210.622	-0.137	0.216
-485.435	633.854	-0.040	-0.103
-484.420	800.000	-0.029	-0.084
-483.405	139.903	0.242	0.320
-482.391	242.034	-0.143	-0.241
-481.376	800.000	-0.043	0.119
-480.362	-200.000	-0.020	0.126
-479.347	-121.730	0.022	0.004
-478.332	299.810	0.133	-0.246
-477.318	-200.000	-0.002	-0.201
-476.303	103.257	0.079	0.093
-475.289	800.000	-0.090	0.304
-474.274	647.502	-0.081	0.208
-473.259	800.000	0.076	0.214
-472.245	-200.000	-0.004	0.057
-471.230	121.158	0.053	-0.067
-470.216	132.401	-0.135	0.175
-469.201	-27.388	0.102	0.060
-468.186	-102.540	0.197	0.047
-467.172	-200.000	-0.006	-0.053
-466.157	79.525	-0.262	0.282
-465.143	-107.118	0.184	-0.041
-464.128	-169.529	0.452	-0.017
-463.113	-39.561	-0.195	0.102
-462.099	34.842	-0.068	0.060
-461.084	-42.849	0.260	-0.133
-460.070	39.899	0.059	-0.053
-459.055	710.655	0.025	-0.065
-458.040	800.000	0.080	0.280
-457.026	11.813	-0.097	-0.075
-456.011	-90.080	0.195	0.057
-454.997	-200.000	0.000	-0.145
-453.982	32.597	0.219	-0.190
-452.968	64.662	-0.187	-0.189
-451.953	-78.170	-0.273	-0.094
-450.938	-200.000	0.019	-0.175
-449.924	121.111	0.375	0.469
-448.909	227.294	0.092	-0.151
-447.895	-103.584	-0.500	0.118
-446.880	-142.920	0.227	0.022
-445.865	800.000	-0.044	-0.132
-444.851	-200.000	-0.022	0.357
-443.836	-14.148	-0.083	0.054
-442.822	-200.000	0.009	0.240
-441.807	-55.662	0.119	0.054
-440.792	-200.000	0.028	-0.175
-439.778	-116.291	0.248	-0.046
-438.763	-91.740	-0.252	-0.072
-437.749	591.423	0.161	-0.399
-436.734	-102.917	0.204	-0.049
-435.719	-200.000	-0.015	0.191
-434.705	425.538	-0.101	0.217
-433.690	-200.000	-0.021	-0.195
-432.676	85.728	0.207	0.228
-431.661	-12.188	0.193	-0.127
-430.646	-200.000	0.018	0.183
-429.632	800.000	0.061	-0.238
-428.617	-200.000	-0.049	0.312
-427.603	37.698	-0.211	0.188
-426.588	-200.000	0.009	-0.270
-425.573	167.418	0.142	0.202
-424.559	366.709	-0.075	0.153
-423.544	123.344	0.051	0.064
-422.530	33.854	0.177	-0.155
-421.515	-2.353	-0.040	-0.028
-420.500	-150.828	-0.233	0.018
-419.486	-200.000	0.014	-0.100
-418.471	309.898	-0.029	-0.054
-417.457	359.671	-0.105	0.211
-416.442	-16.593	0.103	-0.066
-415.428	-147.365	-0.347	-0.029
-414.413	170.736	0.015	0.021
-413.398	92.005	0.103	-0.116
-412.384	800.000	0.128	-0.441
-411.369	-16.639	0.024	0.015
-410.355	-122.739	-0.096	-0.016
-409.340	44.621	-0.028	-0.025
-408.325	-111.268	0.072	-0.015
-407.311	800.000	-0.060	0.176
-406.296	-121.156	0.369	0.062
-405.282	271.984	0.194	-0.342
-404.267	-151.501	0.366	0.027
-403.252	230.866	0.045	0.073
-402.238	800.000	-0.086	0.288
-401.223	-82.290	-0.076	0.025
-400.209	30.598	0.034	-0.029
-399.194	-36.799	0.011	-0.006
-398.179	297.937	0.127	-0.234
-397.165	-26.364	-0.331	0.195
-396.150	-200.000	0.047	0.311
-395.136	34.506	-0.051	0.044
-394.121	10.043	-0.125	0.095
-393.106	156.306	0.130	-0.180
-392.092	800.000	-0.007	-0.027
-391.077	800.000	-0.090	-0.334
-390.063	-83.033	-0.164	-0.053
-389.048	-200.000	-0.046	0.210
-388.033	-200.000	-0.022	0.267
-387.019	360.219	0.192	0.385
-386.004	224.602	0.135	0.218
-384.990	-17.423	0.081	-0.051
-383.975	-107.539	0.303	-0.067
-382.960	800.000	0.021	-0.089
-381.946	689.544	-0.038	0.098
-380.931	-6.841	0.294	-0.200
-379.917	-59.550	-0.200	-0.086
-378.902	20.199	-0.212	-0.171
-377.888	-148.231	-0.202	0.017
-376.873	-200.000	-0.020	0.291
-375.858	-0.410	-0.040	-0.028
-374.844	141.514	0.195	-0.259
-373.829	-115.862	0.384	0.072
-372.815	-101.707	-0.262	0.063
-371.800	-169.164	-0.044	-0.002
-370.785	326.426	-0.176	-0.338
-369.771	-140.052	-0.087	0.009
-368.756	-91.967	-0.410	-0.116
-367.742	46.172	0.191	-0.177
-366.727	387.613	0.120	0.248
-365.712	-200.000	-0.010	-0.256
-364.698	-47.889	0.093	-0.045
-363.683	-87.059	-0.223	-0.068
-362.669	-50.761	-0.293	0.138
-361.654	-200.000	0.006	0.030
-360.639	30.656	-0.139	0.119
-359.625	800.000	0.086	-0.294
-358.610	217.022	0.126	-0.201
-357.596	92.254	0.034	-0.038
-356.581	-80.980	0.166	0.055
-355.566	800.000	0.062	0.173
-354.552	-73.161	0.224	0.082
-353.537	-113.327	0.038	0.007
-352.523	800.000	-0.089	-0.307
-351.508	-13.103	0.182	-0.118
-350.493	208.083	0.075	0.118
-349.479	-200.000	-0.034	-0.277
-348.464	61.683	0.295	-0.294
-347.450	-93.339	0.192	0.053
-346.435	-47.618	0.251	-0.122
-345.420	-69.699	0.094	-0.036
-344.406	284.773	0.094	0.169
-343.391	108.534	-0.180	0.215
-342.377	-91.802	0.225	-0.064
-341.362	688.697	0.065	0.170
-340.348	174.852	0.192	-0.277
-339.333	-51.642	0.139	-0.065
-338.318	9.585	0.268	-0.203
-337.304	-200.000	-0.038	0.274
-336.289	-70.753	0.210	-0.079
-335.275	-200.000	-0.085	0.393
-334.260	-160.041	-0.121	0.007
-333.245	36.959	0.297	-0.262
-332.231	-200.000	0.026	0.132
-331.216	-85.247	0.247	0.077
-330.202	-168.323	-0.160	0.006
-329.187	-57.620	-0.259	0.114
-328.172	257.052	-0.341	0.586
-327.158	-72.154	0.098	-0.036
-326.143	-79.729	-0.163	-0.055
-325.129	-74.089	0.359	0.130
-324.114	-106.591	-0.126	0.028
-323.099	-200.000	-0.011	0.316
-322.085	262.433	0.104	0.180
-321.070	348.709	0.170	0.336
-320.056	-67.125	0.143	-0.056
-319.041	-119.364	-0.153	-0.027
-318.026	154.371	0.048	-0.066
-317.012	-167.313	0.347	0.014
-315.997	-164.089	0.393	0.018
-314.983	-77.614	-0.161	-0.056
-313.968	18.719	0.116	0.092
-312.953	-145.349	0.115	-0.010
-311.939	-131.080	0.288	0.038
-310.924	-25.389	-0.167	0.098
-309.910	-123.722	0.227	-0.036
-308.895	158.867	0.071	0.099
-307.880	58.982	-0.120	-0.118
-306.866	-107.397	0.251	-0.055
-305.851	8.312	0.146	-0.110
-304.837	-200.000	0.016	-0.162
-303.822	-30.391	-0.306	-0.174
-302.807	-200.000	-0.045	0.323
-301.793	432.837	-0.052	-0.113
-300.778	100.950	0.167	-0.194
-299.764	241.230	-0.168	-0.280
-298.749	-25.534	0.052	0.030
-297.735	125.585	-0.093	0.118
-296.720	-200.000	0.052	0.311
-295.705	-98.902	-0.119	-0.030
-294.691	-200.000	-0.001	0.233
-293.676	-76.090	0.298	-0.105
-292.662	-74.303	0.230	0.083
-291.647	158.451	0.163	-0.225
-290.632	31.012	0.172	-0.147
-289.618	12.439	-0.161	0.124
-288.603	-16.758	0.070	-0.044
-287.589	-200.000	0.012	-0.056
-286.574	241.692	0.115	-0.191
-285.559	129.214	0.190	0.243
-284.545	117.603	-0.039	-0.048
-283.530	-104.964	-0.298	0.068
-282.516	3.395	-0.077	0.056
-281.501	-40.832	0.162	-0.084
-280.486	-79.002	-0.196	0.066
-279.472	-116.918	-0.323	-0.059
-278.457	800.000	0.099	0.351
-277.443	-44.885	0.266	0.132
-276.428	209.397	-0.036	0.056
-275.413	-200.000	0.004	0.119
-274.399	249.703	0.152	-0.257
-273.384	254.912	0.151	-0.258
-272.370	-95.147	0.269	0.072
-271.355	34.862	-0.178	0.155
-270.340	175.673	0.020	0.029
-269.326	596.154	-0.192	0.473
-268.311	-57.973	-0.233	-0.101
-267.297	-84.533	-0.274	0.086
-266.282	-200.000	-0.008	0.180
-265.267	-86.030	0.535	-0.165
-264.253	-94.977	0.110	-0.030
-263.238	800.000	-0.093	-0.305
-262.224	213.810	0.181	-0.286
-261.209	-184.697	-0.201	-0.003
-260.195	-77.345	0.231	-0.080
-259.180	-104.657	0.097	-0.022
-258.165	-33.965	-0.210	0.115
-257.151	12.362	-0.154	0.118
-256.136	-26.567	-0.204	0.119
-255.122	-28.899	-0.126	0.072
-254.107	-117.531	-0.153	-0.028
-253.092	563.787	0.236	0.570
-252.078	28.333	-0.276	0.232
-251.063	-71.388	-0.136	-0.051
-250.049	77.226	-0.098	-0.104
-249.034	-176.982	0.199	-0.005
-248.019	800.000	-0.053	-0.204
-247.005	-132.531	0.235	0.030
-245.990	800.000	-0.024	0.092
-244.976	-81.930	0.052	-0.017
-243.961	800.000	0.073	-0.291
-242.946	57.764	0.299	0.292
-241.932	-200.000	0.004	-0.223
-240.917	-2.505	-0.401	-0.280
-239.903	-200.000	-0.009	-0.170
-238.888	-82.729	0.117	0.038
-237.873	253.722	-0.058	-0.099
-236.859	7.716	0.267	0.199
-235.844	-145.108	0.254	-0.023
-234.830	-113.162	0.162	-0.032
-233.815	-9.802	0.321	0.213
-232.800	62.890	-0.149	0.148
-231.786	247.875	0.057	0.097
-230.771	661.426	0.067	-0.172
-229.757	254.394	-0.182	0.310
-228.742	194.281	-0.022	-0.033
-227.727	-120.847	0.413	-0.069
-226.713	233.906	-0.052	-0.085
-225.698	-138.076	-0.278	0.031
-224.684	147.177	-0.149	0.200
-223.669	147.529	-0.205	0.275
-222.655	-200.000	-0.022	0.142
-221.640	-102.890	-0.415	0.098
-220.625	-10.199	0.046	-0.030
-219.611	87.819	0.098	-0.109
-218.596	75.317	0.071	0.074
-217.582	-2.709	-0.091	-0.063
-216.567	-200.000	0.020	0.149
-215.552	342.412	0.108	-0.210
-214.538	46.447	-0.103	-0.095
-213.523	40.123	-0.189	0.169
-212.509	176.591	0.158	-0.228
-211.494	-49.479	0.174	0.082
-210.479	800.000	0.103	0.299
-209.465	-43.495	-0.174	0.087
-208.450	56.265	-0.288	0.279
-207.436	800.000	0.046	0.183
-206.421	-200.000	0.011	0.078
-205.406	61.515	0.163	-0.162
-204.392	309.546	-0.081	0.151
-203.377	743.896	0.081	0.216
-202.363	41.322	-0.036	-0.033
-201.348	69.992	0.087	0.089
-200.333	99.007	0.082	0.094
-199.319	-31.104	-0.288	-0.162
-198.304	-140.963	0.250	-0.025
-197.290	800.000	-0.109	-0.363
-196.275	800.000	-0.026	0.107
-195.260	201.936	0.018	-0.028
-194.246	77.421	-0.277	0.293
-193.231	57.456	0.030	0.029
-192.217	9.253	-0.135	0.101
-191.202	-200.000	-0.053	0.353
-190.187	-23.710	-0.018	0.011
-189.173	-119.479	0.283	-0.049
-188.158	800.000	0.026	-0.079
-187.144	-132.846	0.390	-0.049
-186.129	-200.000	-0.036	-0.207
-185.114	348.487	0.117	-0.230
-184.100	800.000	-0.035	-0.099
-183.085	79.041	0.163	0.173
-182.071	-48.961	-0.362	0.172
-181.056	-70.079	0.260	-0.098
-180.042	74.431	0.245	0.255
-179.027	-87.907	0.159	0.047
-178.012	1.569	0.113	-0.081
-176.998	360.887	0.101	-0.200
-175.983	-96.368	-0.213	0.056
-174.969	219.655	0.041	-0.064
-173.954	645.573	-0.054	-0.138
-172.939	-117.539	-0.188	0.034
-171.925	-52.913	0.151	0.069
-170.910	-115.631	-0.150	-0.028
-169.896	452.877	-0.109	-0.239
-168.881	103.212	0.130	-0.152
-167.866	-45.659	-0.093	-0.046
-166.852	-49.412	-0.183	-0.087
-165.837	-182.900	-0.355	-0.006
-164.823	21.686	-0.155	0.125
-163.808	417.824	0.060	-0.127
-162.793	23.723	0.121	-0.099
-161.779	-200.000	-0.060	-0.298
-160.764	-144.910	0.290	0.026
-159.750	43.539	0.370	-0.336
-158.735	-200.000	0.037	0.298
-157.720	-200.000	0.016	0.158
-156.706	461.578	-0.154	-0.340
-155.691	-94.549	-0.039	0.011
-154.677	51.581	-0.134	-0.126
-153.662	160.997	-0.041	-0.057
-152.647	800.000	0.046	0.179
-151.633	202.544	-0.092	-0.141
-150.618	130.164	-0.134	-0.170
-149.604	-71.400	-0.084	0.031
-148.589	-130.010	-0.160	-0.022
-147.574	61.908	-0.346	-0.342
-146.560	168.389	-0.212	-0.300
-145.545	-58.709	-0.210	-0.090
-144.531	106.996	0.068	-0.080
-143.516	34.745	0.187	0.163
-142.502	-125.850	-0.348	0.052
-141.487	-119.467	0.212	0.036
-140.472	800.000	0.009	0.034
-139.458	-50.137	0.320	0.150
-138.443	800.000	0.047	0.163
-137.429	-142.931	-0.172	0.017
-136.414	21.950	0.113	0.091
-135.399	-200.000	-0.041	0.292
-134.385	-19.034	-0.384	0.237
-133.370	100.378	0.139	-0.160
-132.356	-73.386	0.209	0.076
-131.341	762.098	-0.095	-0.257
-130.326	-200.000	0.011	0.144
-129.312	800.000	-0.053	-0.155
-128.297	-58.913	0.108	-0.046
-127.283	-101.801	-0.080	0.019
-126.268	115.263	0.123	-0.149
-125.253	800.000	0.044	-0.180
-124.239	-200.000	-0.010	0.057
-123.224	543.481	0.060	0.142
-122.210	-7.989	-0.189	-0.127
