DTS Sentinel unit serial number:	SN413079Multiplexer serial number:	ORYXHardware model number:	OX4-SRSoftware version number:	ORYX F/W v4.00 Oryx Data Collector v3.7.2.0data status	okinstallation	princeton_trtdifferential loss correction	single-endedforward channel	channel 2reverse channel	N/Adate	2019/09/15time	08:55:35forward acquisition time	60.00reverse acquisition time	0.00gamma	496.2192k internal	0.2321k external	0.2321temperature offset calibration	1.0020default loss term (dB/km)	0.3790temperature slope calibration	1.0000multiplexer offset coefficient	1.0000multiplexer slope coefficient	1.0000fibre end	0.00T internal ref (°C)	32.58T ext. ref 1 (°C)	4.99T ext. ref 2 (°C)	29.67length (m)	temperature (°C)	Stokes	anti-Stokes-747.200	-189.581	0.250	-0.003
-746.185	-200.000	-0.047	0.317
-745.171	120.165	-0.151	0.189
-744.156	140.201	0.087	-0.116
-743.142	-40.432	0.200	-0.105
-742.127	37.009	-0.181	0.162
-741.112	-165.275	-0.109	-0.005
-740.098	-200.000	0.015	0.388
-739.083	170.374	-0.098	-0.141
-738.069	-92.056	0.083	-0.024
-737.054	352.448	0.123	0.247
-736.039	-200.000	0.014	0.398
-735.025	34.606	0.042	0.037
-734.010	53.367	0.083	0.080
-732.996	235.250	0.081	0.136
-731.981	493.641	0.018	-0.041
-730.966	-113.075	0.105	-0.021
-729.952	-200.000	-0.011	-0.061
-728.937	-200.000	-0.009	-0.097
-727.923	-73.535	-0.238	0.088
-726.908	-68.790	-0.205	-0.080
-725.894	248.665	0.010	0.017
-724.879	50.618	0.222	0.212
-723.864	58.937	-0.368	-0.365
-722.850	-36.109	-0.064	-0.035
-721.835	84.809	0.215	0.238
-720.821	-14.305	0.182	0.118
-719.806	146.953	-0.245	-0.333
-718.791	-78.894	-0.520	-0.179
-717.777	277.409	0.155	0.279
-716.762	-110.186	-0.049	-0.010
-715.748	-59.426	0.175	-0.076
-714.733	-193.998	-0.395	0.003
-713.718	108.502	-0.094	0.113
-712.704	-13.121	0.454	0.298
-711.689	133.458	-0.131	-0.171
-710.675	-43.512	0.298	-0.152
-709.660	-189.474	-0.116	-0.001
-708.645	-200.000	0.039	-0.177
-707.631	800.000	-0.024	0.080
-706.616	286.527	0.231	-0.422
-705.602	-76.961	0.106	-0.037
-704.587	160.070	0.134	0.188
-703.572	-143.387	-0.425	0.041
-702.558	30.115	0.043	0.037
-701.543	116.157	-0.285	-0.352
-700.529	42.100	-0.123	-0.112
-699.514	-57.361	-0.074	-0.033
-698.499	124.283	0.187	0.237
-697.485	722.311	-0.161	-0.433
-696.470	-21.588	-0.066	0.040
-695.456	-200.000	-0.002	-0.146
-694.441	38.246	0.021	-0.019
-693.426	224.715	-0.115	0.188
-692.412	-61.977	0.406	-0.171
-691.397	800.000	0.020	0.074
-690.383	-200.000	-0.048	0.400
-689.368	3.736	-0.131	0.097
-688.354	-122.146	-0.341	-0.056
-687.339	-25.013	-0.248	-0.148
-686.324	-30.568	-0.050	0.028
-685.310	-6.170	0.064	-0.044
-684.295	800.000	0.056	0.213
-683.281	800.000	0.036	0.114
-682.266	15.166	-0.282	-0.223
-681.251	-6.719	0.197	0.135
-680.237	-200.000	-0.004	-0.128
-679.222	621.778	-0.037	-0.094
-678.208	-86.196	-0.096	-0.030
-677.193	-200.000	-0.026	0.161
-676.178	11.317	-0.096	-0.074
-675.164	18.215	-0.014	-0.011
-674.149	81.062	-0.090	0.098
-673.135	-200.000	0.076	0.576
-672.120	-200.000	-0.001	0.093
-671.105	-85.570	0.130	0.041
-670.091	-59.836	0.065	0.028
-669.076	566.655	-0.076	-0.186
-668.062	-47.161	-0.279	0.137
-667.047	800.000	-0.101	-0.369
-666.032	-58.562	-0.056	0.024
-665.018	-123.316	0.091	-0.015
-664.003	664.633	0.076	0.199
-662.989	-39.360	0.125	0.066
-661.974	-108.961	-0.182	0.039
-660.959	800.000	0.060	-0.236
-659.945	49.345	-0.135	0.128
-658.930	-177.070	0.348	-0.009
-657.916	96.866	-0.099	-0.114
-656.901	-9.347	-0.120	-0.080
-655.886	-165.661	0.164	0.007
-654.872	-200.000	-0.011	-0.070
-653.857	-200.000	-0.005	-0.107
-652.843	8.198	-0.530	0.401
-651.828	237.835	-0.012	-0.020
-650.814	85.785	-0.132	0.147
-649.799	-40.185	-0.217	-0.114
-648.784	33.129	-0.226	-0.198
-647.770	-58.394	-0.159	0.069
-646.755	-101.649	-0.303	0.074
-645.741	-0.867	-0.215	0.153
-644.726	324.048	-0.113	-0.218
-643.711	-200.000	0.047	-0.299
-642.697	800.000	0.048	-0.192
-641.682	526.141	-0.108	-0.257
-640.668	-200.000	-0.028	-0.309
-639.653	250.649	0.101	-0.173
-638.638	36.510	-0.021	0.019
-637.624	-103.718	0.089	0.021
-636.609	99.233	0.334	0.389
-635.595	-62.301	0.322	-0.135
-634.580	-84.145	0.098	-0.031
-633.565	800.000	-0.074	0.217
-632.551	-200.000	0.015	0.144
-631.536	-45.673	-0.188	-0.093
-630.522	123.065	0.030	-0.037
-629.507	800.000	0.180	0.509
-628.492	800.000	-0.098	0.315
-627.478	263.680	0.101	-0.177
-626.463	800.000	-0.084	-0.244
-625.449	-200.000	-0.015	-0.390
-624.434	205.595	-0.144	-0.226
-623.419	467.802	0.062	0.141
-622.405	-200.000	-0.055	-0.295
-621.390	-144.842	0.075	-0.007
-620.376	-25.191	0.295	0.176
-619.361	800.000	-0.041	0.131
-618.346	-9.143	0.133	0.090
-617.332	-200.000	-0.002	-0.181
-616.317	765.660	-0.046	-0.125
-615.303	687.785	-0.046	-0.121
-614.288	-74.165	-0.344	-0.125
-613.273	-147.202	-0.079	-0.007
-612.259	-93.193	0.182	-0.051
-611.244	-35.739	0.116	-0.063
-610.230	32.093	-0.035	0.030
-609.215	105.324	0.138	0.164
-608.201	-98.082	-0.021	-0.006
-607.186	-160.794	0.236	-0.013
-606.171	-176.666	0.451	-0.012
-605.157	15.003	-0.193	-0.152
-604.142	513.213	0.104	0.244
-603.128	70.124	0.125	0.130
-602.113	-200.000	-0.002	0.240
-601.098	-49.821	0.207	-0.099
-600.084	-200.000	0.026	0.216
-599.069	-60.633	-0.494	-0.210
-598.055	-72.119	0.510	0.190
-597.040	140.178	0.125	0.165
-596.025	-73.919	0.160	-0.058
-595.011	-200.000	-0.048	0.283
-593.996	299.849	0.175	-0.325
-592.982	180.367	0.032	0.047
-591.967	-72.784	-0.189	-0.070
-590.952	-137.640	0.147	0.017
-589.938	485.251	0.062	0.141
-588.923	-9.347	0.083	-0.056
-587.909	63.655	-0.273	-0.275
-586.894	68.726	0.111	-0.115
-585.879	800.000	0.077	0.241
-584.865	-95.191	-0.353	0.096
-583.850	-82.580	-0.157	0.051
-582.836	105.139	0.150	0.178
-581.821	-200.000	0.181	-0.000
-580.806	98.372	-0.118	0.137
-579.792	417.813	-0.085	0.181
-578.777	-95.664	0.280	-0.075
-577.763	62.770	-0.066	0.067
-576.748	-200.000	0.016	0.107
-575.733	43.177	0.043	-0.039
-574.719	800.000	-0.064	-0.216
-573.704	-133.755	-0.217	-0.027
-572.690	-160.918	-0.187	-0.010
-571.675	-200.000	-0.022	-0.169
-570.661	-200.000	0.044	0.242
-569.646	34.383	0.173	0.152
-568.631	283.199	-0.096	-0.172
-567.617	-66.141	-0.179	0.071
-566.602	45.875	-0.293	-0.272
-565.588	-66.119	0.217	0.087
-564.573	-83.914	-0.426	-0.136
-563.558	-123.363	0.213	-0.034
-562.544	-71.993	-0.230	-0.086
-561.529	10.256	-0.243	0.185
-560.515	75.773	0.122	0.130
-559.500	69.461	-0.103	0.106
-558.485	507.272	-0.171	-0.398
-557.471	102.016	-0.226	-0.265
-556.456	93.269	0.121	-0.138
-555.442	-95.764	0.249	-0.067
-554.427	168.047	-0.114	0.163
-553.412	53.796	0.187	0.180
-552.398	-62.051	-0.105	0.044
-551.383	800.000	0.087	-0.292
-550.369	-37.561	0.206	-0.110
-549.354	20.703	-0.078	-0.063
-548.339	-105.558	0.244	-0.056
-547.325	-192.163	0.383	0.004
-546.310	-49.201	-0.314	0.151
-545.296	-119.892	0.032	0.005
-544.281	-93.119	0.195	-0.054
-543.266	-2.831	0.128	-0.090
-542.252	172.435	0.099	0.143
-541.237	-16.210	-0.247	-0.157
-540.223	160.313	-0.116	0.163
-539.208	156.713	-0.039	0.053
-538.193	-173.460	0.251	0.008
-537.179	800.000	-0.100	-0.317
-536.164	19.140	0.181	0.146
-535.150	800.000	-0.053	0.204
-534.135	516.581	0.049	0.115
-533.121	-76.462	-0.312	-0.110
-532.106	271.378	-0.176	-0.310
-531.091	-200.000	-0.016	-0.095
-530.077	142.649	0.062	-0.082
-529.062	-17.547	0.107	0.067
-528.048	204.947	0.198	-0.307
-527.033	177.605	-0.124	-0.182
-526.018	-200.000	-0.014	-0.141
-525.004	21.202	-0.127	-0.103
-523.989	-93.251	-0.192	-0.053
-522.975	800.000	0.032	0.130
-521.960	-200.000	-0.015	-0.299
-520.945	200.317	-0.260	-0.401
-519.931	333.740	0.142	-0.275
-518.916	77.253	-0.175	0.186
-517.902	125.520	-0.173	0.219
-516.887	604.434	-0.133	-0.331
-515.872	-25.861	0.180	0.106
-514.858	-68.302	-0.077	0.030
-513.843	800.000	0.076	0.300
-512.829	-175.340	0.228	-0.006
-511.814	-54.301	0.219	-0.100
-510.799	-87.560	-0.046	0.014
-509.785	318.575	-0.210	-0.398
-508.770	-200.000	-0.006	-0.103
-507.756	43.099	-0.349	0.319
-506.741	27.110	0.369	0.310
-505.726	-46.151	-0.156	-0.077
-504.712	-149.198	-0.519	-0.042
-503.697	800.000	0.036	0.150
-502.683	549.255	-0.094	0.225
-501.668	-155.413	0.099	0.006
-500.653	-162.700	-0.393	-0.019
-499.639	-200.000	-0.054	0.514
-498.624	-200.000	0.018	0.194
-497.610	48.600	-0.220	-0.206
-496.595	32.980	0.157	-0.136
-495.581	45.393	-0.110	0.102
-494.566	734.004	0.081	-0.218
-493.551	210.889	-0.203	-0.320
-492.537	45.952	0.159	-0.147
-491.522	-132.244	-0.164	0.021
-490.508	-70.556	0.038	-0.015
-489.493	-172.111	0.196	-0.006
-488.478	14.955	0.210	-0.165
-487.464	-127.115	0.229	0.034
-486.449	-62.942	-0.334	-0.138
-485.435	157.713	0.168	-0.232
-484.420	-200.000	-0.044	-0.432
-483.405	4.532	-0.181	-0.133
-482.391	-86.760	-0.301	0.092
-481.376	-23.282	-0.305	0.183
-480.362	72.199	-0.230	0.239
-479.347	-93.206	0.229	-0.064
-478.332	-112.816	0.045	-0.009
-477.318	-141.372	-0.147	-0.015
-476.303	-120.383	0.319	0.054
-475.289	55.494	0.155	0.150
-474.274	36.412	-0.123	-0.108
-473.259	13.783	-0.294	0.228
-472.245	18.799	-0.163	-0.130
-471.230	800.000	-0.019	-0.081
-470.216	22.676	0.204	0.167
-469.201	-200.000	-0.004	0.066
-468.186	-5.513	0.232	0.159
-467.172	-200.000	0.053	0.385
-466.157	113.721	-0.092	0.112
-465.143	323.394	-0.056	-0.106
-464.128	-69.092	0.057	-0.022
-463.113	-43.510	-0.228	0.115
-462.099	-110.943	-0.134	0.028
-461.084	-54.546	-0.215	-0.097
-460.070	687.591	0.055	0.144
-459.055	-152.220	0.027	0.002
-458.040	-172.217	-0.214	-0.007
-457.026	800.000	-0.086	0.301
-456.011	147.417	0.179	0.241
-454.997	800.000	0.091	-0.330
-453.982	-26.960	0.076	-0.044
-452.968	315.255	-0.053	0.100
-451.953	77.108	-0.148	0.158
-450.938	39.090	-0.257	0.230
-449.924	382.765	-0.152	0.312
-448.909	-54.836	0.123	-0.055
-447.895	-20.532	0.280	-0.172
-446.880	-192.268	-0.214	-0.002
-445.865	270.580	-0.187	0.328
-444.851	647.107	-0.030	-0.076
-443.836	79.779	0.165	0.177
-442.822	-103.189	-0.127	-0.030
-441.807	134.396	0.116	0.151
-440.792	800.000	0.030	-0.094
-439.778	144.393	-0.172	0.229
-438.763	41.143	-0.142	0.129
-437.749	-176.232	0.197	0.005
-436.734	-200.000	-0.008	0.120
-435.719	-200.000	0.001	0.007
-434.705	-200.000	-0.005	-0.086
-433.690	800.000	0.103	-0.369
-432.676	800.000	0.067	-0.241
-431.661	-200.000	-0.010	-0.067
-430.646	-200.000	0.030	0.223
-429.632	84.117	-0.150	0.164
-428.617	-200.000	-0.012	0.393
-427.603	-9.118	0.255	-0.170
-426.588	-70.630	0.204	0.077
-425.573	286.596	0.201	0.362
-424.559	-116.089	-0.114	0.021
-423.544	152.984	-0.235	0.321
-422.530	261.204	0.215	-0.372
-421.515	-119.980	0.134	0.023
-420.500	-175.343	0.235	0.006
-419.486	119.761	-0.198	0.245
-418.471	800.000	-0.070	-0.255
-417.457	169.873	-0.070	0.099
-416.442	-74.403	0.328	-0.118
-415.428	253.750	-0.211	0.360
-414.413	237.602	0.086	-0.143
-413.398	378.876	-0.030	-0.062
-412.384	-68.490	0.234	-0.090
-411.369	212.722	0.212	-0.334
-410.355	509.326	0.026	0.060
-409.340	7.682	-0.213	-0.159
-408.325	156.145	-0.247	-0.340
-407.311	-200.000	0.061	0.458
-406.296	9.715	0.228	0.173
-405.282	-82.349	0.161	0.052
-404.267	-200.000	-0.061	-0.395
-403.252	-200.000	0.033	-0.210
-402.238	367.305	0.087	-0.174
-401.223	-95.653	-0.323	0.086
-400.209	-200.000	-0.003	-0.041
-399.194	-152.048	0.143	0.010
-398.179	-200.000	-0.044	0.224
-397.165	561.396	-0.093	-0.224
-396.150	221.220	0.105	-0.168
-395.136	128.349	0.064	0.081
-394.121	-48.777	0.362	0.173
-393.106	-30.788	-0.196	0.110
-392.092	-101.838	-0.201	0.048
-391.077	175.290	-0.111	-0.161
-390.063	-97.629	-0.208	-0.054
-389.048	423.005	-0.104	0.223
-388.033	-114.554	-0.194	-0.037
-387.019	354.687	0.183	-0.362
-386.004	-200.000	-0.042	-0.593
-384.990	-200.000	0.077	-0.369
-383.975	800.000	-0.014	-0.056
-382.960	89.770	0.231	0.257
-381.946	108.035	0.065	-0.077
-380.931	-79.375	0.214	-0.072
-379.917	665.971	0.088	0.227
-378.902	53.744	0.268	0.256
-377.888	444.613	-0.134	-0.293
-376.873	-143.953	0.101	0.009
-375.858	341.977	0.092	-0.180
-374.844	-200.000	-0.058	-0.330
-373.829	-143.665	0.343	-0.032
-372.815	-37.897	0.060	-0.032
-371.800	146.497	0.195	0.261
-370.785	-200.000	0.072	0.402
-369.771	159.813	0.069	0.096
-368.756	-200.000	-0.014	-0.154
-367.742	-200.000	0.078	0.441
-366.727	796.997	0.058	-0.159
-365.712	-200.000	0.025	0.437
-364.698	142.519	-0.180	0.238
-363.683	139.689	0.369	-0.484
-362.669	-200.000	0.012	0.159
-361.654	-200.000	-0.024	0.195
-360.639	154.320	-0.172	0.235
-359.625	-89.351	-0.233	0.068
-358.610	6.277	0.189	0.140
-357.596	31.725	-0.101	-0.086
-356.581	179.236	-0.080	-0.117
-355.566	-200.000	0.041	-0.195
-354.552	109.361	-0.154	-0.184
-353.537	-200.000	-0.005	0.137
-352.523	-21.728	-0.168	-0.102
-351.508	-68.614	-0.127	0.049
-350.493	327.014	-0.083	-0.158
-349.479	800.000	-0.046	-0.171
-348.464	559.911	-0.081	0.195
-347.450	-20.228	0.146	0.090
-346.435	-31.188	-0.237	-0.133
-345.420	-200.000	-0.017	0.196
-344.406	29.698	0.077	0.065
-343.391	327.987	-0.126	0.241
-342.377	28.272	-0.227	-0.191
-341.362	-81.442	-0.267	-0.088
-340.348	59.185	-0.229	-0.225
-339.333	459.693	0.070	0.156
-338.318	-191.739	0.365	-0.004
-337.304	670.971	0.034	-0.087
-336.289	336.231	0.134	-0.259
-335.275	-200.000	0.039	0.359
-334.260	-35.194	-0.131	0.071
-333.245	-200.000	0.018	0.086
-332.231	355.458	0.056	0.111
-331.216	7.598	0.137	-0.102
-330.202	439.694	0.114	-0.247
-329.187	-129.954	-0.232	-0.032
-328.172	136.487	0.288	-0.374
-327.158	-35.738	0.071	-0.038
-326.143	-72.307	-0.242	0.089
-325.129	-48.107	-0.440	0.212
-324.114	144.027	0.069	0.092
-323.099	266.721	0.132	-0.230
-322.085	-34.458	-0.184	-0.100
-321.070	23.008	-0.176	-0.144
-320.056	800.000	0.098	-0.344
-319.041	0.704	-0.154	0.109
-318.026	206.160	-0.033	-0.052
-317.012	-200.000	0.071	-0.373
-315.997	800.000	-0.108	0.311
-314.983	7.042	0.131	-0.097
-313.968	800.000	0.005	0.017
-312.953	16.796	-0.351	-0.276
-311.939	75.214	-0.083	0.087
-310.924	-200.000	0.007	0.158
-309.910	-200.000	-0.014	-0.281
-308.895	-200.000	0.025	0.208
-307.880	-65.965	-0.123	-0.049
-306.866	22.701	0.070	-0.057
-305.851	-83.422	-0.223	-0.071
-304.837	-66.393	0.381	-0.150
-303.822	25.921	0.086	0.071
-302.807	-101.897	-0.299	0.072
-301.793	253.272	-0.083	0.141
-300.778	-0.872	0.344	0.242
-299.764	800.000	-0.050	0.148
-298.749	-114.278	0.457	-0.088
-297.735	523.480	-0.050	-0.118
-296.720	770.021	0.030	0.081
-295.705	294.557	0.050	-0.091
-294.691	64.400	0.236	0.236
-293.676	-104.145	-0.398	-0.092
-292.662	-200.000	-0.017	0.082
-291.647	698.581	0.041	0.108
-290.632	26.598	0.283	0.235
-289.618	-152.586	-0.310	-0.022
-288.603	2.989	-0.134	0.097
-287.589	-200.000	-0.073	0.341
-286.574	-200.000	0.034	0.211
-285.559	-4.499	0.406	0.278
-284.545	-49.596	0.456	-0.215
-283.530	-200.000	0.030	0.207
-282.516	183.221	-0.033	-0.049
-281.501	82.433	0.123	0.133
-280.486	800.000	-0.033	-0.125
-279.472	-65.670	-0.178	-0.071
-278.457	381.577	-0.118	0.242
-277.443	444.261	0.114	0.247
-276.428	548.534	-0.040	0.094
-275.413	-130.258	0.171	0.023
-274.399	-80.328	-0.115	-0.038
-273.384	68.700	-0.284	-0.289
-272.370	68.899	0.280	-0.285
-271.355	-65.408	0.166	0.066
-270.340	-91.695	0.426	0.120
-269.326	127.975	0.081	-0.103
-268.311	-200.000	0.003	0.111
-267.297	-81.875	0.329	0.107
-266.282	-200.000	-0.034	0.189
-265.267	800.000	0.033	-0.111
-264.253	-117.495	-0.154	-0.028
-263.238	-60.681	0.106	-0.044
-262.224	-200.000	-0.010	0.233
-261.209	-11.761	-0.297	-0.193
-260.195	800.000	0.095	-0.395
-259.180	25.150	-0.166	0.137
-258.165	-100.605	0.181	-0.044
-257.151	547.113	0.034	-0.081
-256.136	694.309	0.034	-0.089
-255.122	-92.088	0.133	0.037
-254.107	-148.666	-0.487	-0.039
-253.092	-29.937	0.028	0.016
-252.078	-31.250	-0.160	0.090
-251.063	-38.373	-0.172	0.090
-250.049	559.993	0.086	-0.206
-249.034	-200.000	-0.048	-0.229
-248.019	-42.048	-0.134	-0.068
-247.005	15.736	0.133	-0.104
-245.990	248.264	0.079	0.132
-244.976	-200.000	0.061	-0.302
-243.961	-57.549	-0.072	-0.031
-242.946	693.662	-0.095	-0.247
-241.932	-73.267	0.087	0.031
-240.917	-32.824	-0.135	-0.074
-239.903	154.565	-0.217	-0.296
-238.888	-200.000	-0.056	-0.330
-237.873	-90.382	0.046	0.013
-236.859	-32.498	-0.140	-0.077
-235.844	35.236	0.171	0.148
-234.830	-200.000	-0.022	-0.213
-233.815	-34.126	0.290	0.158
-232.800	800.000	0.034	-0.114
-231.786	-10.887	-0.268	0.176
-230.771	-47.904	0.072	0.034
-229.757	-200.000	0.002	0.112
-228.742	21.020	-0.348	0.280
-227.727	-36.491	-0.208	-0.111
-226.713	139.072	0.117	0.152
-225.698	241.144	0.106	0.175
-224.684	800.000	-0.040	-0.142
-223.669	22.288	0.383	0.310
-222.655	-200.000	-0.045	0.300
-221.640	-134.263	0.023	-0.003
-220.625	-15.507	-0.065	-0.041
-219.611	-200.000	0.003	-0.342
-218.596	-43.096	0.198	0.100
-217.582	-200.000	-0.020	-0.099
-216.567	-53.244	0.449	-0.204
-215.552	-200.000	-0.446	-0.001
-214.538	-200.000	-0.040	-0.210
-213.523	-200.000	-0.009	0.050
-212.509	239.191	-0.160	0.263
-211.494	624.525	-0.024	0.059
-210.479	-200.000	-0.037	0.188
-209.465	-117.150	0.178	0.032
-208.450	310.115	-0.141	-0.262
-207.436	98.394	-0.127	0.145
-206.421	-93.553	0.371	-0.102
-205.406	-64.797	0.085	0.034
-204.392	85.800	0.131	-0.142
-203.377	-200.000	0.023	0.313
-202.363	-66.445	0.377	-0.148
-201.348	57.026	0.158	-0.153
-200.333	-76.798	-0.374	-0.130
-199.319	96.158	-0.060	0.068
-198.304	800.000	-0.025	0.095
-197.290	-200.000	0.050	0.246
-196.275	224.530	0.038	0.060
-195.260	67.257	0.083	0.083
-194.246	-95.133	0.198	-0.053
-193.231	16.999	-0.095	0.075
-192.217	-18.366	-0.333	0.206
-191.202	86.184	-0.047	0.052
-190.187	130.576	-0.326	0.413
-189.173	-200.000	-0.002	-0.226
-188.158	-3.211	0.243	0.168
-187.144	-140.290	0.262	-0.027
-186.129	800.000	-0.076	-0.286
-185.114	800.000	0.040	-0.135
-184.100	-200.000	0.009	-0.088
-183.085	800.000	0.046	0.134
-182.071	-200.000	0.033	0.344
-181.056	-200.000	0.017	0.182
-180.042	800.000	0.113	-0.314
-179.027	222.703	-0.139	0.221
-178.012	800.000	0.081	-0.271
-176.998	27.327	-0.190	-0.157
-175.983	-108.630	0.283	0.060
-174.969	-59.049	-0.058	0.025
-173.954	-64.792	0.431	0.172
-172.939	-2.773	0.144	0.100
-171.925	8.993	-0.029	0.021
-170.910	7.149	-0.106	-0.078
-169.896	-200.000	-0.010	-0.047
-168.881	-200.000	0.064	-0.481
-167.866	99.415	-0.095	0.109
-166.852	-200.000	-0.077	0.340
-165.837	678.478	0.116	0.299
-164.823	-200.000	0.007	0.164
-163.808	-200.000	-0.014	0.574
-162.793	119.024	-0.166	0.203
-161.779	-85.277	0.143	-0.044
-160.764	43.145	0.265	-0.239
-159.750	-154.347	0.101	-0.007
-158.735	-33.202	0.398	0.218
-157.720	-157.360	0.104	0.006
-156.706	-120.643	-0.493	-0.082
-155.691	87.955	0.251	0.275
-154.677	217.984	-0.083	-0.131
-153.662	-82.538	-0.300	-0.096
-152.647	40.795	-0.238	-0.212
-151.633	20.270	0.184	-0.147
-150.618	-94.096	0.102	-0.028
-149.604	-93.328	0.075	-0.021
-148.589	-200.000	0.037	0.172
-147.574	377.691	-0.222	0.449
-146.560	-103.675	-0.266	0.062
-145.545	146.515	0.069	-0.091
-144.531	-145.956	0.462	0.040
-143.516	-137.343	-0.236	-0.026
-142.502	-27.338	-0.279	0.160
-141.487	-109.223	-0.247	0.052
-140.472	-200.000	-0.001	0.072
-139.458	0.992	-0.157	0.111
-138.443	-200.000	0.097	0.000
-137.429	-200.000	-0.005	-0.172
-136.414	156.959	-0.125	0.170
-135.399	155.001	-0.257	-0.348
-134.385	-82.885	-0.273	-0.087
-133.370	749.791	-0.155	0.413
-132.356	77.380	0.135	-0.142
-131.341	-148.699	0.170	-0.014
-130.326	503.025	0.122	-0.278
-129.312	-200.000	0.037	0.231
-128.297	-139.585	0.168	0.018
-127.283	-200.000	-0.029	-0.147
-126.268	-180.933	-0.442	0.009
-125.253	53.298	-0.278	0.263
-124.239	109.933	-0.204	0.241
-123.224	-48.935	-0.134	0.063
-122.210	-139.034	-0.238	0.025
-121.195	-33.308	-0.159	0.087
