DTS Sentinel unit serial number:	SN413079Multiplexer serial number:	ORYXHardware model number:	OX4-SRSoftware version number:	ORYX F/W v4.00 Oryx Data Collector v3.7.2.0data status	okinstallation	princeton_trtdifferential loss correction	single-endedforward channel	channel 2reverse channel	N/Adate	2019/09/12time	16:09:11forward acquisition time	60.00reverse acquisition time	0.00gamma	496.2192k internal	0.2312k external	0.2312temperature offset calibration	1.0110default loss term (dB/km)	0.3790temperature slope calibration	1.0000multiplexer offset coefficient	1.0000multiplexer slope coefficient	1.0000fibre end	0.00T internal ref (°C)	38.52T ext. ref 1 (°C)	2.54T ext. ref 2 (°C)	31.37length (m)	temperature (°C)	Stokes	anti-Stokes-747.200	-200.000	-0.002	0.083
-746.185	208.170	0.075	-0.119
-745.171	119.987	-0.111	0.140
-744.156	-49.742	-0.181	0.087
-743.142	800.000	0.038	-0.122
-742.127	18.347	-0.181	0.147
-741.112	295.472	-0.160	-0.296
-740.098	154.993	-0.273	0.381
-739.083	-74.761	0.304	0.111
-738.069	-70.871	0.286	0.109
-737.054	180.271	0.068	-0.100
-736.039	-79.547	-0.059	-0.020
-735.025	-200.000	0.067	0.423
-734.010	231.458	0.182	0.303
-732.996	284.107	-0.214	-0.390
-731.981	-100.124	-0.227	-0.057
-730.966	-72.618	-0.049	-0.018
-729.952	800.000	-0.058	-0.181
-728.937	158.006	-0.126	0.177
-727.923	-120.449	-0.405	0.070
-726.908	-152.938	-0.276	-0.020
-725.894	457.848	-0.060	-0.134
-724.879	-133.762	-0.074	-0.009
-723.864	113.714	0.085	-0.105
-722.850	-200.000	0.039	-0.182
-721.835	-21.435	0.107	0.066
-720.821	-149.062	0.121	-0.010
-719.806	-200.000	0.017	-0.195
-718.791	-7.125	-0.113	0.077
-717.777	-148.193	-0.362	0.030
-716.762	747.483	0.075	0.204
-715.748	521.981	-0.092	-0.218
-714.733	-99.085	0.295	-0.076
-713.718	-200.000	0.061	-0.341
-712.704	-1.587	-0.383	-0.274
-711.689	800.000	0.034	-0.108
-710.675	-158.869	-0.247	-0.014
-709.660	800.000	-0.092	0.325
-708.645	-37.982	-0.076	-0.041
-707.631	158.139	0.135	-0.190
-706.616	27.757	0.232	0.198
-705.602	624.310	-0.162	-0.413
-704.587	-142.448	-0.296	0.029
-703.572	322.597	0.159	0.307
-702.558	193.234	0.086	-0.132
-701.543	-30.617	0.178	-0.102
-700.529	145.844	-0.109	0.148
-699.514	125.023	-0.071	-0.091
-698.499	-83.136	0.359	-0.117
-697.485	-83.206	0.367	-0.119
-696.470	765.681	-0.017	-0.048
-695.456	-200.000	0.024	-0.347
-694.441	-96.880	0.127	-0.034
-693.426	-129.066	0.106	0.015
-692.412	23.539	0.201	-0.167
-691.397	-200.000	-0.007	0.116
-690.383	658.507	-0.110	-0.287
-689.368	-68.633	-0.170	0.067
-688.354	751.086	-0.153	-0.419
-687.339	57.553	0.202	-0.200
-686.324	227.652	0.116	-0.191
-685.310	197.956	-0.209	-0.323
-684.295	65.021	-0.143	0.146
-683.281	-86.500	0.218	-0.068
-682.266	507.013	-0.076	-0.179
-681.251	-66.836	-0.158	-0.063
-680.237	137.653	-0.243	0.322
-679.222	139.969	-0.176	-0.235
-678.208	392.525	-0.085	0.179
-677.193	33.869	0.063	0.055
-676.178	-106.097	0.321	-0.073
-675.164	36.357	0.065	0.058
-674.149	-31.041	0.263	-0.150
-673.135	495.904	-0.057	0.131
-672.120	-17.365	0.113	0.072
-671.105	800.000	-0.054	-0.159
-670.091	-126.267	-0.059	0.009
-669.076	-200.000	-0.004	-0.118
-668.062	54.140	0.110	-0.107
-667.047	-83.260	0.151	-0.049
-666.032	800.000	-0.035	-0.149
-665.018	-69.555	0.056	0.022
-664.003	21.622	-0.136	0.112
-662.989	130.695	0.213	-0.277
-661.974	143.811	-0.163	-0.220
-660.959	-200.000	-0.007	-0.134
-659.945	11.512	-0.187	0.145
-658.930	3.525	0.129	0.095
-657.916	77.146	0.030	0.033
-656.901	-72.205	-0.092	0.034
-655.886	64.148	0.102	-0.104
-654.872	49.032	-0.217	0.206
-653.857	-200.000	-0.013	0.147
-652.843	-46.947	0.261	-0.129
-651.828	625.253	0.031	0.079
-650.814	21.587	-0.136	-0.112
-649.799	295.198	0.062	-0.116
-648.784	-200.000	-0.004	-0.376
-647.770	461.109	0.085	0.191
-646.755	147.451	0.113	-0.153
-645.741	167.177	-0.421	-0.604
-644.726	75.160	-0.276	-0.294
-643.711	85.226	0.180	0.200
-642.697	70.656	0.193	-0.202
-641.682	142.273	-0.092	0.123
-640.668	-112.090	-0.194	-0.040
-639.653	800.000	-0.114	0.328
-638.638	-200.000	0.016	0.311
-637.624	-84.109	-0.325	-0.104
-636.609	800.000	-0.066	-0.189
-635.595	-75.456	-0.312	0.112
-634.580	95.024	-0.066	-0.076
-633.565	102.494	-0.110	-0.130
-632.551	156.748	-0.193	-0.269
-631.536	-46.517	-0.061	0.030
-630.522	-200.000	-0.052	0.328
-629.507	-96.116	0.035	-0.009
-628.492	-150.555	0.377	-0.029
-627.478	67.186	-0.207	0.213
-626.463	-200.000	0.017	-0.217
-625.449	25.748	-0.162	0.136
-624.434	-156.543	-0.303	-0.019
-623.419	419.558	-0.044	0.095
-622.405	72.102	0.311	0.327
-621.390	800.000	-0.061	0.180
-620.376	-178.732	0.216	0.005
-619.361	7.481	-0.172	-0.130
-618.346	-9.121	0.365	-0.247
-617.332	-200.000	-0.013	-0.228
-616.317	683.026	0.078	0.204
-615.303	-104.892	-0.151	-0.035
-614.288	-200.000	-0.009	-0.306
-613.273	-95.372	-0.237	0.064
-612.259	-171.643	0.242	-0.008
-611.244	358.373	0.055	-0.110
-610.230	800.000	-0.006	-0.017
-609.215	-25.107	-0.245	-0.147
-608.201	-200.000	0.072	-0.493
-607.186	-79.309	0.199	0.068
-606.171	-30.454	-0.153	-0.088
-605.157	-55.164	0.085	0.039
-604.142	800.000	-0.059	-0.210
-603.128	-200.000	0.489	-0.002
-602.113	-128.383	0.250	-0.036
-601.098	423.442	-0.055	0.120
-600.084	-151.177	0.054	0.004
-599.069	-200.000	0.032	-0.248
-598.055	-71.505	-0.056	0.021
-597.040	384.558	-0.191	-0.398
-596.025	-200.000	0.005	-0.240
-595.011	-200.000	-0.044	0.195
-593.996	800.000	0.056	-0.231
-592.982	300.627	0.087	-0.162
-591.967	-0.252	-0.144	-0.103
-590.952	800.000	-0.002	0.005
-589.938	-200.000	-0.024	-0.337
-588.923	-183.796	-0.159	-0.003
-587.909	-200.000	-0.015	-0.220
-586.894	67.781	0.146	0.150
-585.879	-31.433	-0.109	0.062
-584.865	-162.563	-0.211	0.010
-583.850	40.530	0.107	-0.098
-582.836	-94.168	-0.351	-0.097
-581.821	13.719	-0.299	-0.234
-580.806	129.961	-0.146	0.188
-579.792	287.543	-0.128	-0.233
-578.777	77.565	0.095	-0.102
-577.763	213.763	-0.055	-0.088
-576.748	-49.418	0.286	0.137
-575.733	91.995	-0.105	0.119
-574.719	-10.676	-0.129	-0.086
-573.704	-200.000	-0.010	-0.098
-572.690	800.000	0.011	-0.031
-571.675	295.119	0.124	-0.229
-570.661	-11.917	0.139	-0.092
-569.646	-140.043	0.464	-0.049
-568.631	-129.051	-0.211	0.030
-567.617	-115.622	-0.091	-0.017
-566.602	-200.000	0.043	0.278
-565.588	143.605	-0.197	0.264
-564.573	9.463	0.138	0.105
-563.558	800.000	-0.102	-0.391
-562.544	-200.000	0.038	0.224
-561.529	-97.745	-0.228	-0.060
-560.515	297.037	0.096	0.178
-559.500	-65.724	-0.245	0.099
-558.485	125.966	0.029	-0.037
-557.471	576.589	-0.124	-0.305
-556.456	100.133	0.231	0.270
-555.442	569.469	0.019	-0.048
-554.427	314.573	-0.156	0.295
-553.412	65.131	0.081	0.082
-552.398	171.987	0.083	-0.120
-551.383	-29.917	0.216	0.124
-550.369	128.566	-0.183	0.235
-549.354	-111.755	0.320	-0.065
-548.339	800.000	-0.029	-0.093
-547.325	-200.000	-0.034	0.226
-546.310	-91.421	0.217	-0.062
-545.296	-77.715	-0.179	-0.062
-544.281	-49.135	-0.184	-0.089
-543.266	125.957	-0.051	-0.065
-542.252	96.828	-0.246	0.284
-541.237	167.788	-0.135	0.193
-540.223	800.000	-0.095	0.286
-539.208	29.428	-0.142	0.122
-538.193	652.724	-0.021	0.055
-537.179	-95.854	0.237	0.064
-536.164	311.178	0.111	0.209
-535.150	-48.285	0.414	0.201
-534.135	800.000	0.033	-0.138
-533.121	358.165	-0.190	-0.381
-532.106	-157.790	-0.203	0.012
-531.091	-97.668	-0.145	0.038
-530.077	-156.595	0.110	-0.007
-529.062	73.225	-0.142	-0.150
-528.048	701.366	0.125	-0.330
-527.033	-78.090	0.340	-0.118
-526.018	-159.339	0.254	-0.014
-525.004	282.498	0.211	0.381
-523.989	-40.216	-0.214	0.112
-522.975	14.001	0.463	0.362
-521.960	800.000	0.072	0.218
-520.945	-200.000	0.002	0.288
-519.931	-43.647	0.345	-0.175
-518.916	354.349	0.025	-0.051
-517.902	420.757	0.042	0.091
-516.887	-200.000	0.026	-0.187
-515.872	231.929	-0.078	-0.129
-514.858	-101.730	-0.098	-0.024
-513.843	8.117	-0.198	-0.150
-512.829	-200.000	-0.038	-0.399
-511.814	-200.000	0.037	-0.215
-510.799	-118.870	-0.457	-0.081
-509.785	-93.289	0.295	0.082
-508.770	800.000	-0.080	0.300
-507.756	800.000	-0.082	0.230
-506.741	318.242	-0.030	0.058
-505.726	-200.000	-0.048	0.361
-504.712	800.000	-0.059	-0.235
-503.697	-15.758	-0.239	0.153
-502.683	-119.062	-0.313	-0.055
-501.668	-34.573	0.234	-0.129
-500.653	-139.415	0.241	-0.026
-499.639	131.953	0.068	0.088
-498.624	-200.000	0.050	0.430
-497.610	315.848	0.177	0.336
-496.595	-200.000	-0.026	0.183
-495.581	494.938	-0.082	-0.189
-494.566	225.143	0.065	-0.106
-493.551	-10.795	0.177	0.118
-492.537	-171.222	0.208	-0.007
-491.522	646.515	-0.016	0.041
-490.508	-110.879	-0.229	-0.047
-489.493	-141.921	0.209	-0.021
-488.478	-48.060	-0.185	0.090
-487.464	-12.877	0.261	-0.171
-486.449	10.557	-0.182	0.139
-485.435	72.120	0.253	-0.265
-484.420	208.629	0.087	-0.136
-483.405	-200.000	0.021	0.115
-482.391	800.000	-0.089	-0.311
-481.376	-93.016	0.079	0.022
-480.362	-0.796	-0.215	0.153
-479.347	-35.396	0.132	0.072
-478.332	360.495	-0.044	0.088
-477.318	-159.603	0.276	0.015
-476.303	11.558	0.131	0.101
-475.289	365.885	0.149	0.302
-474.274	131.780	0.315	0.407
-473.259	800.000	0.089	-0.277
-472.245	-154.875	-0.082	0.005
-471.230	-114.625	-0.068	-0.013
-470.216	32.698	0.124	0.108
-469.201	-78.665	0.039	0.013
-468.186	-162.974	-0.175	0.009
-467.172	-65.557	0.159	0.064
-466.157	-200.000	0.029	-0.374
-465.143	-139.702	-0.431	-0.046
-464.128	-81.790	-0.145	-0.048
-463.113	-187.687	-0.096	0.001
-462.099	-4.248	-0.244	0.170
-461.084	-30.793	-0.148	-0.084
-460.070	-42.105	-0.208	-0.107
-459.055	-138.233	0.258	-0.029
-458.040	81.801	-0.090	0.098
-457.026	0.045	0.199	-0.142
-456.011	684.800	-0.026	0.067
-454.997	-153.838	0.131	0.009
-453.982	-122.603	0.052	0.009
-452.968	-44.157	-0.194	-0.098
-451.953	-140.931	0.315	0.032
-450.938	-200.000	-0.028	0.415
-449.924	-200.000	0.016	-0.109
-448.909	-129.699	0.083	0.012
-447.895	250.149	0.151	-0.257
-446.880	-64.707	-0.412	-0.167
-445.865	558.843	-0.099	-0.240
-444.851	-15.530	-0.106	-0.068
-443.836	683.654	0.063	-0.165
-442.822	-45.079	-0.194	-0.097
-441.807	104.714	0.171	0.202
-440.792	800.000	0.071	0.254
-439.778	-137.880	-0.329	0.037
-438.763	-140.799	-0.188	-0.019
-437.749	150.611	-0.090	-0.122
-436.734	59.160	0.191	-0.188
-435.719	5.235	0.058	0.043
-434.705	-200.000	-0.057	0.264
-433.690	-83.571	-0.266	0.085
-432.676	413.422	0.077	-0.165
-431.661	74.249	0.297	0.313
-430.646	800.000	-0.069	0.207
-429.632	-73.510	-0.239	-0.088
-428.617	-200.000	0.009	-0.092
-427.603	-20.867	0.266	-0.163
-426.588	-31.715	-0.419	-0.235
-425.573	800.000	0.041	-0.161
-424.559	-200.000	0.018	0.112
-423.544	800.000	-0.108	-0.301
-422.530	-91.352	-0.088	-0.025
-421.515	167.426	-0.105	0.150
-420.500	-121.399	-0.315	-0.053
-419.486	10.062	-0.281	0.214
-418.471	-90.596	0.266	-0.077
-417.457	-17.046	-0.217	-0.137
-416.442	-200.000	0.019	0.175
-415.428	-64.734	0.294	-0.119
-414.413	-24.870	-0.244	-0.145
-413.398	156.766	0.108	-0.150
-412.384	-200.000	-0.014	0.225
-411.369	800.000	0.047	0.146
-410.355	46.415	0.112	-0.104
-409.340	-200.000	0.074	0.347
-408.325	36.717	0.337	-0.298
-407.311	-34.441	0.324	0.178
-406.296	2.437	0.173	0.126
-405.282	-200.000	-0.015	0.069
-404.267	-101.638	-0.210	-0.051
-403.252	800.000	0.060	0.230
-402.238	-59.077	0.258	-0.111
-401.223	-200.000	-0.121	-0.564
-400.209	390.867	0.105	-0.217
-399.194	486.352	0.071	0.162
-398.179	539.074	0.036	0.086
-397.165	-10.461	-0.121	-0.080
-396.150	-164.681	0.202	0.009
-395.136	58.596	-0.179	-0.176
-394.121	-200.000	0.034	-0.236
-393.106	800.000	0.058	0.183
-392.092	800.000	0.054	-0.197
-391.077	-143.603	0.506	0.048
-390.063	-123.873	0.224	0.035
-389.048	497.611	-0.080	0.185
-388.033	-30.094	0.135	0.077
-387.019	22.612	0.194	0.159
-386.004	-18.840	-0.157	-0.098
-384.990	-79.649	0.253	0.085
-383.975	-200.000	-0.002	0.231
-382.960	-71.757	-0.162	0.061
-381.946	335.353	-0.118	0.228
-380.931	800.000	-0.006	0.023
-379.917	-124.156	-0.292	0.046
-378.902	265.512	-0.084	0.147
-377.888	-8.471	-0.107	0.072
-376.873	11.414	0.235	0.180
-375.858	-81.088	-0.275	-0.091
-374.844	491.907	0.070	-0.160
-373.829	-138.106	0.496	0.055
-372.815	800.000	0.092	-0.341
-371.800	-63.883	-0.436	0.178
-370.785	-112.654	-0.252	0.050
-369.771	142.805	-0.196	-0.260
-368.756	-66.667	0.209	-0.083
-367.742	800.000	-0.060	0.259
-366.727	213.435	-0.128	-0.202
-365.712	800.000	-0.035	0.096
-364.698	800.000	-0.119	0.464
-363.683	-175.162	-0.190	-0.005
-362.669	-52.258	-0.079	0.037
-361.654	147.855	0.083	-0.112
-360.639	266.552	0.025	0.044
-359.625	-200.000	0.020	-0.432
-358.610	-69.075	-0.072	-0.028
-357.596	479.214	0.115	-0.260
-356.581	-29.195	-0.209	-0.120
-355.566	122.133	-0.175	0.219
-354.552	213.543	0.196	0.309
-353.537	167.635	-0.095	-0.135
-352.523	131.457	0.077	-0.099
-351.508	345.374	-0.077	-0.150
-350.493	800.000	-0.066	-0.231
-349.479	-18.929	0.130	-0.081
-348.464	-200.000	-0.022	0.155
-347.450	-49.941	0.297	0.141
-346.435	-200.000	0.005	-0.235
-345.420	187.186	-0.051	0.076
-344.406	17.610	0.075	-0.060
-343.391	86.529	-0.240	-0.265
-342.377	-200.000	0.012	0.114
-341.362	-97.223	0.295	-0.077
-340.348	-200.000	-0.010	-0.089
-339.333	-42.583	-0.103	-0.052
-338.318	-57.775	0.181	-0.079
-337.304	-93.161	-0.077	-0.021
-336.289	-145.950	0.219	-0.019
-335.275	79.688	-0.122	-0.131
-334.260	13.834	-0.381	-0.296
-333.245	364.284	-0.115	-0.232
-332.231	-80.891	-0.195	0.065
-331.216	558.815	0.068	-0.163
-330.202	-200.000	0.016	0.226
-329.187	-132.943	0.434	0.055
-328.172	284.511	-0.071	0.128
-327.158	-17.069	0.062	-0.039
-326.143	-46.182	-0.352	0.173
-325.129	800.000	-0.038	0.136
-324.114	-200.000	-0.020	0.286
-323.099	-95.086	0.455	-0.123
-322.085	800.000	-0.103	-0.397
-321.070	-129.689	-0.068	-0.009
-320.056	9.271	0.151	0.114
-319.041	-175.551	-0.150	-0.004
-318.026	301.073	0.033	0.061
-317.012	72.280	0.132	0.138
-315.997	-26.505	0.278	0.162
-314.983	191.821	0.121	0.182
-313.968	-82.586	-0.140	-0.045
-312.953	44.200	0.289	-0.264
-311.939	10.328	-0.221	0.168
-310.924	-197.269	0.056	-0.000
-309.910	-200.000	-0.050	-0.223
-308.895	-69.466	-0.256	-0.098
-307.880	-200.000	0.055	0.304
-306.866	501.422	-0.105	0.241
-305.851	-200.000	0.002	-0.202
-304.837	1.068	-0.088	0.063
-303.822	325.147	0.066	-0.125
-302.807	-31.415	-0.151	0.085
-301.793	-77.753	-0.239	0.083
-300.778	-27.521	0.257	-0.149
-299.764	70.531	0.050	-0.052
-298.749	609.449	-0.012	0.031
-297.735	233.355	0.066	0.109
-296.720	800.000	-0.019	0.065
-295.705	122.836	0.077	-0.096
-294.691	-200.000	-0.044	-0.334
-293.676	-200.000	0.025	0.389
-292.662	-128.914	-0.179	-0.025
-291.647	55.675	-0.177	0.171
-290.632	-200.000	-0.007	-0.076
-289.618	-164.417	0.268	-0.012
-288.603	-19.963	0.026	0.016
-287.589	-26.349	-0.352	0.206
-286.574	668.361	-0.118	0.304
-285.559	-108.225	-0.026	-0.006
-284.545	208.985	-0.127	-0.198
-283.530	800.000	-0.040	0.133
-282.516	-35.454	-0.197	-0.107
-281.501	-77.084	-0.115	-0.040
-280.486	-117.200	0.233	-0.042
-279.472	8.228	-0.178	-0.133
-278.457	461.394	0.135	-0.300
-277.443	312.479	0.108	-0.203
-276.428	-42.285	0.222	-0.113
-275.413	30.835	0.098	0.084
-274.399	41.886	-0.100	0.091
-273.384	-200.000	-0.013	-0.193
-272.370	800.000	0.057	0.163
-271.355	-73.875	0.149	0.054
-270.340	84.120	0.116	0.127
-269.326	800.000	0.045	-0.152
-268.311	557.746	0.140	0.336
-267.297	-95.867	0.314	0.083
-266.282	-111.780	0.053	-0.011
-265.267	154.761	-0.217	-0.297
-264.253	-21.182	0.257	0.156
-263.238	-200.000	-0.087	-0.384
-262.224	439.284	0.040	0.087
-261.209	148.386	-0.108	-0.145
-260.195	752.777	0.068	0.183
-259.180	98.171	0.221	0.254
-258.165	-64.700	0.171	-0.069
-257.151	39.844	-0.035	-0.031
-256.136	4.775	-0.262	-0.192
-255.122	-200.000	-0.035	0.380
-254.107	-74.960	0.357	-0.127
-253.092	-63.868	-0.489	-0.199
-252.078	-36.983	-0.052	0.028
-251.063	17.608	-0.118	0.093
-250.049	-103.282	-0.218	0.051
-249.034	-32.676	0.196	0.108
-248.019	-12.261	-0.207	0.134
-247.005	130.407	0.204	0.260
-245.990	510.424	-0.090	0.207
-244.976	800.000	0.039	0.137
-243.961	-74.632	0.310	-0.111
-242.946	-200.000	-0.010	0.104
-241.932	-200.000	-0.016	-0.177
-240.917	6.426	0.263	0.194
-239.903	-86.523	-0.302	-0.092
-238.888	800.000	-0.019	-0.061
-237.873	-38.230	0.358	0.189
-236.859	-200.000	-0.049	0.214
-235.844	-191.338	0.196	-0.002
-234.830	-190.177	0.302	-0.003
-233.815	-200.000	-0.110	-0.672
-232.800	158.317	0.156	-0.215
-231.786	-200.000	0.060	-0.284
-230.771	-0.452	-0.261	0.184
-229.757	214.446	-0.014	-0.023
-228.742	-15.478	0.264	-0.168
-227.727	96.954	-0.108	0.123
-226.713	-51.980	-0.175	-0.081
-225.698	-200.000	-0.031	0.139
-224.684	-37.370	0.175	0.093
-223.669	-122.903	-0.066	0.011
-222.655	35.165	-0.259	0.225
-221.640	97.448	-0.225	-0.257
-220.625	-137.172	0.266	0.030
-219.611	-89.580	-0.189	0.055
-218.596	7.106	0.118	0.088
-217.582	-117.204	-0.142	0.026
-216.567	-139.586	-0.303	0.032
-215.552	-147.727	0.202	0.017
-214.538	-68.272	-0.102	0.039
-213.523	-4.428	-0.117	0.080
-212.509	57.836	0.297	0.289
-211.494	-128.755	0.333	0.047
-210.479	253.465	-0.026	-0.045
-209.465	-137.393	0.180	0.020
-208.450	-200.000	0.024	0.188
-207.436	71.840	0.139	-0.143
-206.421	-200.000	0.020	0.122
-205.406	90.315	0.179	0.199
-204.392	-36.116	-0.173	-0.093
-203.377	800.000	-0.058	-0.167
-202.363	-45.162	0.199	0.098
-201.348	3.941	-0.031	0.022
-200.333	-170.701	-0.175	-0.006
-199.319	-99.283	-0.186	-0.047
-198.304	83.964	-0.143	0.155
-197.290	-72.990	-0.319	0.116
-196.275	800.000	0.115	-0.337
-195.260	-61.662	0.255	0.106
-194.246	-75.753	0.164	0.058
-193.231	-78.004	-0.164	-0.056
-192.217	-74.507	0.260	0.093
-191.202	235.701	0.147	0.241
-190.187	-92.377	0.211	0.059
-189.173	800.000	0.015	-0.063
-188.158	800.000	-0.044	0.189
-187.144	-200.000	0.083	0.000
-186.129	11.687	0.276	0.210
-185.114	-200.000	-0.021	-0.400
-184.100	-136.629	-0.342	-0.039
-183.085	-0.839	0.182	0.128
-182.071	-200.000	0.018	-0.205
-181.056	-10.125	-0.140	0.092
-180.042	-39.512	-0.276	-0.144
-179.027	177.006	0.134	0.193
-178.012	3.540	-0.170	0.123
-176.998	188.095	0.155	0.230
-175.983	800.000	0.064	0.200
-174.969	46.917	0.067	-0.062
-173.954	-200.000	0.006	0.123
-172.939	356.088	-0.074	0.146
-171.925	30.195	0.083	0.070
-170.910	86.045	-0.067	0.073
-169.896	-92.657	-0.085	0.024
-168.881	208.832	0.028	-0.044
-167.866	-133.907	0.138	-0.017
-166.852	-200.000	-0.008	0.100
-165.837	-48.678	-0.250	0.119
-164.823	217.374	0.072	-0.114
-163.808	145.890	-0.150	0.199
-162.793	87.370	-0.140	-0.153
-161.779	353.775	-0.130	0.257
-160.764	34.258	-0.267	-0.231
-159.750	78.990	0.181	-0.192
-158.735	176.075	0.173	-0.249
-157.720	800.000	0.030	0.084
-156.706	-145.177	0.068	-0.006
-155.691	-63.498	-0.082	-0.033
-154.677	800.000	-0.077	0.313
-153.662	800.000	-0.083	0.284
-152.647	-132.288	-0.254	-0.033
-151.633	92.015	0.303	-0.338
-150.618	-25.592	-0.073	0.043
-149.604	137.287	0.269	-0.348
-148.589	-200.000	-0.000	-0.133
-147.574	-48.356	-0.117	0.056
-146.560	19.355	0.089	-0.071
-145.545	-24.078	0.189	0.112
-144.531	-139.676	-0.338	-0.036
-143.516	-92.863	-0.142	-0.039
-142.502	-129.361	-0.239	-0.033
-141.487	352.482	0.055	0.108
-140.472	800.000	-0.047	0.177
-139.458	-200.000	0.015	-0.226
-138.443	-200.000	0.056	0.317
-137.429	-58.607	0.061	-0.026
-136.414	104.157	-0.148	-0.172
-135.399	200.777	-0.088	-0.134
-134.385	-200.000	0.046	0.457
-133.370	-101.238	-0.262	-0.063
-132.356	-125.040	-0.199	0.030
-131.341	-200.000	0.033	-0.260
-130.326	31.728	0.075	0.064
-129.312	-42.243	0.157	-0.080
-128.297	20.011	-0.026	0.021
-127.283	-153.641	0.088	-0.006
-126.268	-153.308	0.197	0.014
-125.253	151.410	-0.165	0.222
-124.239	800.000	-0.044	-0.163
-123.224	800.000	0.022	0.064
-122.210	45.789	0.170	0.156
-121.195	-200.000	0.030	0.320
