DTS Sentinel unit serial number:	SN413079Multiplexer serial number:	ORYXHardware model number:	OX4-SRSoftware version number:	ORYX F/W v4.00 Oryx Data Collector v3.7.2.0data status	okinstallation	princeton_trtdifferential loss correction	single-endedforward channel	channel 2reverse channel	N/Adate	2019/09/12time	14:25:10forward acquisition time	60.00reverse acquisition time	0.00gamma	496.2192k internal	0.2302k external	0.2302temperature offset calibration	1.0088default loss term (dB/km)	0.3790temperature slope calibration	1.0000multiplexer offset coefficient	1.0000multiplexer slope coefficient	1.0000fibre end	0.00T internal ref (°C)	40.12T ext. ref 1 (°C)	2.28T ext. ref 2 (°C)	34.96length (m)	temperature (°C)	Stokes	anti-Stokes-747.200	-200.000	0.009	0.506
-746.185	-26.605	-0.143	0.086
-745.171	800.000	-0.049	0.166
-744.156	503.763	0.158	0.373
-743.142	-200.000	-0.040	0.306
-742.127	800.000	-0.072	0.319
-741.112	2.900	0.330	0.244
-740.098	23.974	0.241	0.202
-739.083	-200.000	0.021	0.269
-738.069	26.518	-0.309	0.263
-737.054	-200.000	-0.067	-0.353
-736.039	-129.408	0.241	0.034
-735.025	-36.480	0.359	-0.197
-734.010	282.069	-0.140	-0.255
-732.996	24.656	0.058	-0.049
-731.981	-200.000	-0.001	-0.110
-730.966	-10.306	0.274	0.185
-729.952	800.000	-0.079	-0.226
-728.937	82.801	-0.196	-0.217
-727.923	800.000	-0.020	0.071
-726.908	-35.888	-0.235	-0.130
-725.894	-119.271	0.047	-0.008
-724.879	-84.738	-0.150	-0.048
-723.864	241.853	0.036	0.061
-722.850	-200.000	-0.031	0.194
-721.835	-134.870	0.186	0.023
-720.821	-200.000	0.025	0.316
-719.806	-32.417	0.065	0.037
-718.791	235.241	0.075	-0.127
-717.777	11.081	0.135	-0.105
-716.762	-181.628	-0.161	0.003
-715.748	-6.302	0.112	-0.078
-714.733	-56.477	-0.326	-0.147
-713.718	-52.797	0.192	-0.090
-712.704	11.942	-0.150	0.118
-711.689	64.920	-0.266	0.273
-710.675	-200.000	0.089	-0.402
-709.660	800.000	0.070	-0.198
-708.645	103.706	-0.146	0.174
-707.631	93.171	0.081	0.093
-706.616	-12.012	-0.215	0.143
-705.602	-136.018	0.249	-0.030
-704.587	-14.892	0.216	0.141
-703.572	-123.076	-0.298	-0.049
-702.558	21.168	-0.312	0.258
-701.543	327.513	0.035	0.069
-700.529	-143.099	0.197	0.019
-699.514	-83.778	0.151	0.049
-698.499	-200.000	0.042	0.397
-697.485	-200.000	-0.012	-0.182
-696.470	-200.000	0.023	0.172
-695.456	-0.635	-0.126	0.091
-694.441	-200.000	-0.010	0.086
-693.426	428.870	0.108	0.237
-692.412	-159.509	-0.227	-0.013
-691.397	-67.415	-0.042	0.017
-690.383	743.364	-0.133	-0.364
-689.368	-200.000	0.013	0.086
-688.354	-157.119	-0.209	0.013
-687.339	-69.279	-0.255	-0.100
-686.324	231.557	-0.095	0.158
-685.310	-116.127	0.227	0.043
-684.295	-56.692	-0.370	-0.166
-683.281	288.205	0.089	-0.164
-682.266	800.000	-0.087	-0.284
-681.251	58.302	-0.248	0.247
-680.237	800.000	-0.030	0.086
-679.222	-200.000	0.008	-0.092
-678.208	-91.951	0.112	0.032
-677.193	-200.000	-0.021	0.166
-676.178	12.563	-0.136	0.106
-675.164	2.152	0.164	0.120
-674.149	-200.000	-0.030	-0.140
-673.135	659.676	0.069	-0.181
-672.120	120.986	0.068	-0.086
-671.105	183.767	0.011	0.017
-670.091	224.882	0.153	0.251
-669.076	-200.000	-0.032	0.210
-668.062	-91.570	-0.416	-0.120
-667.047	-200.000	0.003	0.120
-666.032	-79.602	0.271	-0.093
-665.018	165.746	-0.125	0.180
-664.003	-42.971	-0.162	0.084
-662.989	-101.184	-0.091	0.023
-661.974	2.019	-0.322	-0.236
-660.959	109.258	0.248	-0.301
-659.945	-53.871	0.095	-0.044
-658.930	-59.263	-0.360	0.157
-657.916	-178.366	-0.179	-0.004
-656.901	205.278	-0.058	-0.091
-655.886	197.257	-0.037	-0.058
-654.872	44.239	0.181	-0.169
-653.857	108.540	-0.348	-0.422
-652.843	-124.739	-0.507	-0.080
-651.828	139.098	-0.085	0.113
-650.814	-200.000	-0.014	0.264
-649.799	154.827	0.023	-0.033
-648.784	-97.608	0.159	-0.042
-647.770	149.803	0.026	0.036
-646.755	102.559	0.085	0.101
-645.741	58.053	0.208	-0.207
-644.726	4.147	-0.149	-0.111
-643.711	105.326	0.173	0.207
-642.697	-200.000	0.000	0.230
-641.682	322.419	0.167	-0.324
-640.668	800.000	-0.110	0.402
-639.653	-15.883	-0.378	0.244
-638.638	-22.286	0.416	0.256
-637.624	65.094	-0.224	0.230
-636.609	-200.000	0.029	0.257
-635.595	-200.000	-0.069	-0.391
-634.580	-47.348	-0.398	-0.196
-633.565	800.000	0.046	-0.141
-632.551	-200.000	0.021	-0.104
-631.536	-200.000	0.101	-0.481
-630.522	-84.978	-0.236	-0.075
-629.507	158.105	-0.121	0.171
-628.492	-6.786	-0.102	-0.071
-627.478	-200.000	0.015	0.080
-626.463	-33.944	-0.116	0.065
-625.449	184.181	-0.107	-0.161
-624.434	-32.983	-0.133	-0.075
-623.419	-200.000	0.005	-0.429
-622.405	-200.000	-0.002	-0.027
-621.390	-86.412	-0.179	-0.056
-620.376	-22.853	0.245	-0.150
-619.361	-75.478	-0.142	0.051
-618.346	-200.000	-0.038	0.175
-617.332	800.000	-0.007	0.024
-616.317	800.000	0.045	0.158
-615.303	-97.166	0.194	0.052
-614.288	69.626	0.056	-0.059
-613.273	-45.856	0.271	0.135
-612.259	-163.747	-0.322	0.015
-611.244	-107.904	-0.212	-0.047
-610.230	-200.000	-0.004	-0.048
-609.215	800.000	-0.096	-0.335
-608.201	-57.287	-0.068	0.030
-607.186	-40.463	-0.109	0.058
-606.171	-107.853	-0.268	-0.059
-605.157	333.821	-0.233	0.457
-604.142	45.159	-0.102	0.095
-603.128	162.444	-0.119	0.170
-602.113	-71.442	-0.024	-0.009
-601.098	1.754	-0.129	0.095
-600.084	105.050	-0.076	0.091
-599.069	143.826	-0.086	0.116
-598.055	-41.698	-0.143	0.075
-597.040	-127.757	0.338	0.049
-596.025	800.000	-0.060	-0.175
-595.011	-172.834	-0.261	0.008
-593.996	785.449	0.183	0.508
-592.982	-169.153	-0.278	0.010
-591.967	318.132	0.110	-0.210
-590.952	24.486	-0.429	0.359
-589.938	-200.000	-0.018	0.167
-588.923	301.226	-0.138	0.258
-587.909	-159.278	0.254	0.014
-586.894	42.089	0.177	-0.163
-585.879	-200.000	-0.075	-0.379
-584.865	-200.000	-0.003	0.070
-583.850	312.822	0.086	0.164
-582.836	-73.746	0.290	-0.107
-581.821	-48.170	-0.077	-0.038
-580.806	141.727	0.089	-0.119
-579.792	-16.272	0.153	-0.099
-578.777	125.369	-0.058	-0.074
-577.763	181.045	0.059	0.088
-576.748	-149.761	-0.499	0.040
-575.733	-80.402	0.291	0.099
-574.719	156.688	0.148	0.208
-573.704	-45.175	-0.195	0.098
-572.690	800.000	-0.004	0.017
-571.675	800.000	-0.065	-0.255
-570.661	-180.579	-0.167	0.003
-569.646	14.006	0.083	0.065
-568.631	-133.334	-0.226	0.029
-567.617	-200.000	0.001	0.059
-566.602	-105.106	-0.044	0.010
-565.588	460.688	0.105	0.238
-564.573	-129.354	0.411	-0.058
-563.558	229.276	-0.159	0.263
-562.544	-63.380	-0.146	0.061
-561.529	121.756	-0.108	-0.136
-560.515	-48.239	-0.150	0.073
-559.500	262.551	0.091	-0.161
-558.485	-31.252	0.141	-0.080
-557.471	326.141	0.157	-0.304
-556.456	800.000	0.058	-0.173
-555.442	-169.201	-0.204	-0.008
-554.427	-200.000	-0.008	-0.455
-553.412	-15.753	-0.207	-0.134
-552.398	-45.923	0.039	0.019
-551.383	-16.693	0.272	-0.174
-550.369	-73.856	-0.108	-0.040
-549.354	-26.074	0.219	0.130
-548.339	2.931	0.266	-0.195
-547.325	800.000	-0.053	-0.178
-546.310	86.548	0.049	0.055
-545.296	-200.000	-0.026	-0.304
-544.281	-200.000	0.057	0.398
-543.266	-200.000	0.038	0.201
-542.252	59.100	0.026	0.026
-541.237	350.205	-0.196	0.391
-540.223	149.731	-0.172	-0.235
-539.208	-111.928	-0.130	0.027
-538.193	29.835	0.027	0.023
-537.179	12.232	0.172	0.134
-536.164	280.976	-0.063	-0.114
-535.150	40.461	0.063	-0.057
-534.135	-108.243	0.249	0.054
-533.121	-200.000	-0.007	0.083
-532.106	-200.000	-0.010	0.072
-531.091	800.000	-0.056	-0.163
-530.077	683.286	0.076	-0.200
-529.062	8.580	-0.083	0.063
-528.048	65.767	0.239	0.245
-527.033	75.212	-0.081	0.087
-526.018	18.501	-0.127	0.102
-525.004	175.359	-0.035	0.051
-523.989	-35.064	0.297	0.163
-522.975	-200.000	-0.026	0.172
-521.960	-200.000	0.004	-0.334
-520.945	-200.000	0.006	0.054
-519.931	-187.934	0.097	-0.001
-518.916	-200.000	-0.065	-0.308
-517.902	-34.657	0.222	0.123
-516.887	-200.000	-0.078	0.347
-515.872	12.600	0.301	0.235
-514.858	146.101	0.204	0.277
-513.843	67.953	0.130	0.134
-512.829	800.000	0.016	-0.050
-511.814	8.070	0.180	0.136
-510.799	78.332	-0.179	-0.193
-509.785	54.504	-0.140	0.136
-508.770	-74.336	0.162	0.059
-507.756	-35.476	-0.275	0.151
-506.741	756.999	0.110	-0.301
-505.726	800.000	0.020	0.062
-504.712	-70.403	0.225	0.086
-503.697	554.922	-0.032	-0.078
-502.683	-98.087	-0.230	0.060
-501.668	82.901	0.049	0.053
-500.653	-65.563	0.122	0.050
-499.639	-130.783	0.291	-0.039
-498.624	77.102	0.092	-0.099
-497.610	-57.349	0.098	-0.043
-496.595	496.903	-0.084	-0.194
-495.581	-43.391	-0.422	0.216
-494.566	-185.079	0.051	0.001
-493.551	437.087	-0.098	-0.215
-492.537	-139.887	0.635	-0.068
-491.522	18.821	0.135	-0.109
-490.508	-200.000	0.023	-0.400
-489.493	479.014	-0.055	0.126
-488.478	-145.826	0.345	-0.031
-487.464	-131.581	0.384	-0.051
-486.449	800.000	-0.062	-0.178
-485.435	1.388	0.195	-0.142
-484.420	-110.142	-0.286	-0.060
-483.405	-13.127	-0.075	-0.049
-482.391	310.682	0.221	-0.417
-481.376	610.550	0.121	-0.305
-480.362	800.000	0.061	-0.183
-479.347	73.434	-0.124	0.131
-478.332	-35.755	-0.119	-0.065
-477.318	-120.347	-0.037	-0.006
-476.303	-200.000	0.062	0.297
-475.289	454.995	-0.124	-0.277
-474.274	10.481	0.315	-0.242
-473.259	-200.000	0.017	-0.098
-472.245	-200.000	-0.014	0.068
-471.230	-39.495	-0.243	0.128
-470.216	-88.636	0.298	-0.089
-469.201	-14.286	0.171	0.111
-468.186	-200.000	-0.004	-0.063
-467.172	15.323	-0.175	-0.138
-466.157	-123.416	0.158	-0.025
-465.143	124.767	-0.150	-0.191
-464.128	199.864	-0.137	-0.212
-463.113	-200.000	0.034	0.205
-462.099	-200.000	0.023	0.260
-461.084	19.057	-0.180	-0.146
-460.070	-35.118	-0.040	0.022
-459.055	-140.402	-0.051	0.005
-458.040	445.062	-0.100	0.222
-457.026	-17.875	-0.180	-0.114
-456.011	382.152	-0.089	-0.184
-454.997	-117.604	0.264	0.048
-453.982	-186.534	-0.119	0.002
-452.968	-200.000	-0.050	0.356
-451.953	-96.856	0.190	-0.050
-450.938	800.000	0.117	-0.336
-449.924	-200.000	0.020	-0.114
-448.909	-61.960	-0.110	-0.046
-447.895	-26.274	0.273	0.162
-446.880	86.567	0.176	0.196
-445.865	-84.632	0.162	0.052
-444.851	-114.233	-0.253	0.049
-443.836	786.132	-0.055	-0.152
-442.822	-102.317	0.162	-0.039
-441.807	-69.204	0.069	0.027
-440.792	289.195	0.035	-0.064
-439.778	47.894	-0.268	0.252
-438.763	142.961	0.063	-0.084
-437.749	-200.000	0.002	-0.056
-436.734	-71.898	-0.252	-0.095
-435.719	233.808	-0.098	-0.162
-434.705	-104.653	0.279	0.065
-433.690	-142.909	-0.367	-0.036
-432.676	-200.000	-0.007	0.134
-431.661	800.000	0.050	0.156
-430.646	27.105	-0.201	0.170
-429.632	-131.682	-0.133	-0.018
-428.617	-200.000	0.024	-0.109
-427.603	245.304	-0.127	0.215
-426.588	-39.140	-0.113	-0.060
-425.573	-77.304	-0.112	0.039
-424.559	126.510	0.113	0.144
-423.544	414.850	0.104	-0.224
-422.530	128.417	-0.109	-0.140
-421.515	-200.000	-0.041	-0.344
-420.500	-48.013	-0.093	0.045
-419.486	-50.279	0.204	0.097
-418.471	270.078	0.101	0.180
-417.457	-73.625	-0.147	0.054
-416.442	-16.081	-0.165	-0.106
-415.428	-24.690	0.131	0.078
-414.413	-33.760	-0.156	0.087
-413.398	-119.116	0.156	0.028
-412.384	-59.250	0.273	-0.118
-411.369	622.267	-0.076	-0.191
-410.355	67.514	-0.217	-0.223
-409.340	-137.273	0.317	-0.036
-408.325	524.972	0.031	-0.075
-407.311	-200.000	-0.034	0.202
-406.296	49.574	0.123	0.117
-405.282	144.952	0.171	0.229
-404.267	800.000	-0.048	0.145
-403.252	185.602	-0.182	-0.273
-402.238	-200.000	0.018	0.189
-401.223	-200.000	0.009	0.101
-400.209	-38.253	-0.096	-0.051
-399.194	-200.000	0.020	0.150
-398.179	-200.000	0.032	-0.255
-397.165	497.341	-0.056	0.131
-396.150	-195.833	-0.073	-0.001
-395.136	34.955	-0.062	0.054
-394.121	-11.536	0.143	0.095
-393.106	222.406	0.111	-0.179
-392.092	-118.195	0.175	0.031
-391.077	317.589	0.210	0.400
-390.063	-17.392	0.340	0.215
-389.048	15.288	-0.176	0.139
-388.033	-200.000	0.027	-0.277
-387.019	-200.000	-0.019	0.111
-386.004	-200.000	-0.024	-0.165
-384.990	-7.236	-0.102	0.069
-383.975	787.963	0.108	-0.299
-382.960	800.000	-0.042	-0.151
-381.946	124.296	-0.107	-0.135
-380.931	-200.000	-0.050	0.262
-379.917	88.201	-0.229	-0.255
-378.902	-35.574	-0.073	0.040
-377.888	-78.940	0.150	-0.051
-376.873	60.531	-0.122	0.121
-375.858	117.096	0.211	0.260
-374.844	57.719	-0.059	-0.058
-373.829	-200.000	-0.051	0.376
-372.815	100.136	-0.122	-0.142
-371.800	-8.996	-0.027	-0.018
-370.785	-87.978	-0.203	0.061
-369.771	800.000	0.020	0.085
-368.756	-130.654	0.209	-0.028
-367.742	-114.800	0.407	0.078
-366.727	-46.804	0.159	-0.078
-365.712	-200.000	-0.015	-0.190
-364.698	-26.168	0.116	-0.069
-363.683	-106.041	-0.210	0.048
-362.669	-28.808	0.269	-0.155
-361.654	-100.190	0.072	0.018
-360.639	-62.025	0.077	0.032
-359.625	21.529	0.118	-0.096
-358.610	26.240	0.179	0.150
-357.596	-89.574	0.083	-0.024
-356.581	520.022	0.100	-0.236
-355.566	154.219	-0.218	-0.301
-354.552	134.130	0.133	0.173
-353.537	296.053	-0.053	0.097
-352.523	800.000	-0.053	-0.162
-351.508	-200.000	-0.039	-0.540
-350.493	-91.098	-0.237	0.068
-349.479	144.866	-0.225	0.302
-348.464	-139.998	-0.314	0.033
-347.450	127.079	-0.116	0.148
-346.435	-125.906	-0.538	-0.081
-345.420	800.000	-0.079	-0.285
-344.406	-200.000	-0.010	0.057
-343.391	-130.584	-0.103	0.014
-342.377	-66.080	-0.263	-0.105
-341.362	-98.359	0.169	0.043
-340.348	-200.000	-0.002	0.119
-339.333	-133.428	-0.185	0.023
-338.318	84.248	0.055	0.061
-337.304	-61.153	-0.304	0.128
-336.289	418.986	-0.013	-0.027
-335.275	-122.799	0.191	0.031
-334.260	-32.868	0.078	-0.044
-333.245	-22.006	0.095	-0.058
-332.231	-62.533	0.237	-0.099
-331.216	99.544	0.097	-0.113
-330.202	800.000	-0.009	0.030
-329.187	-8.473	0.229	-0.154
-328.172	323.928	-0.154	-0.295
-327.158	-200.000	0.006	-0.212
-326.143	21.355	-0.063	0.051
-325.129	-42.959	0.065	-0.033
-324.114	36.858	0.128	-0.113
-323.099	-200.000	0.015	0.392
-322.085	-6.977	-0.088	-0.060
-321.070	-200.000	0.012	-0.163
-320.056	-44.483	0.125	-0.063
-319.041	-50.159	0.339	0.161
-318.026	-70.978	0.192	0.072
-317.012	-117.029	0.111	0.020
-315.997	-70.784	0.056	-0.021
-314.983	458.172	-0.101	0.226
-313.968	-2.510	-0.133	0.094
-312.953	-43.782	0.028	-0.014
-311.939	-200.000	-0.061	0.375
-310.924	-200.000	-0.077	0.545
-309.910	118.853	0.118	0.146
-308.895	33.571	-0.148	-0.129
-307.880	-88.094	-0.304	0.091
-306.866	103.502	0.133	0.157
-305.851	-200.000	-0.015	0.071
-304.837	-200.000	-0.004	-0.073
-303.822	-200.000	0.026	-0.253
-302.807	370.030	-0.036	-0.073
-301.793	800.000	0.025	-0.092
-300.778	-48.365	0.388	0.187
-299.764	89.557	0.101	-0.113
-298.749	-35.820	-0.310	-0.168
-297.735	800.000	0.050	-0.145
-296.720	61.925	-0.098	0.098
-295.705	-84.358	0.114	0.036
-294.691	-161.082	-0.143	0.007
-293.676	800.000	0.034	-0.127
-292.662	-86.617	0.213	0.065
-291.647	800.000	0.076	-0.308
-290.632	-119.785	0.229	-0.040
-289.618	76.808	-0.028	-0.030
-288.603	-200.000	0.019	-0.339
-287.589	583.377	0.050	-0.123
-286.574	-17.888	0.253	0.159
-285.559	-200.000	-0.004	0.271
-284.545	3.908	-0.523	0.383
-283.530	450.624	0.161	-0.355
-282.516	-52.514	0.074	0.034
-281.501	-200.000	-0.008	0.092
-280.486	729.965	-0.037	0.099
-279.472	-80.175	-0.184	0.062
-278.457	-200.000	-0.027	-0.269
-277.443	-39.268	-0.118	-0.062
-276.428	-67.304	-0.182	0.072
-275.413	-14.389	-0.259	0.167
-274.399	-40.017	0.117	0.061
-273.384	-56.652	0.145	0.064
-272.370	387.651	-0.037	0.076
-271.355	-139.024	-0.389	0.042
-270.340	-200.000	-0.008	-0.129
-269.326	-138.009	-0.123	0.014
-268.311	87.199	0.152	0.169
-267.297	20.327	0.129	-0.104
-266.282	-98.879	0.074	0.019
-265.267	485.120	0.088	-0.200
-264.253	800.000	0.122	-0.358
-263.238	800.000	-0.036	0.142
-262.224	229.020	-0.293	0.478
-261.209	16.597	0.108	-0.086
-260.195	143.427	0.105	-0.139
-259.180	-200.000	-0.044	0.205
-258.165	51.851	-0.066	0.062
-257.151	-114.658	-0.176	-0.034
-256.136	-200.000	0.021	-0.189
-255.122	330.068	-0.050	0.097
-254.107	-200.000	-0.028	0.378
-253.092	800.000	0.155	0.448
-252.078	-200.000	-0.005	-0.104
-251.063	86.072	-0.074	0.081
-250.049	122.157	-0.152	-0.190
-249.034	-29.873	0.159	0.091
-248.019	4.494	0.103	0.075
-247.005	-167.739	0.189	0.007
-245.990	800.000	0.067	-0.216
-244.976	-200.000	0.042	-0.190
-243.961	800.000	-0.098	0.330
-242.946	800.000	0.043	-0.177
-241.932	-200.000	-0.031	0.338
-240.917	3.665	0.095	-0.069
-239.903	-200.000	0.000	-0.147
-238.888	-200.000	-0.038	-0.306
-237.873	-200.000	-0.015	0.187
-236.859	-200.000	-0.041	0.259
-235.844	-18.879	-0.103	0.064
-234.830	-83.581	0.272	0.087
-233.815	-200.000	-0.011	0.058
-232.800	800.000	0.032	0.093
-231.786	276.873	-0.089	0.157
-230.771	648.769	-0.058	0.148
-229.757	104.320	0.113	-0.133
-228.742	261.239	-0.174	-0.301
-227.727	65.777	0.230	0.233
-226.713	-101.086	-0.271	0.066
-225.698	77.057	-0.213	-0.226
-224.684	800.000	-0.090	-0.286
-223.669	-108.680	0.186	0.040
-222.655	-200.000	0.010	0.152
-221.640	39.015	-0.340	-0.304
-220.625	247.601	-0.083	0.141
-219.611	-139.033	-0.230	0.025
-218.596	-200.000	-0.025	0.138
-217.582	417.376	-0.112	-0.239
-216.567	-166.045	0.371	0.016
-215.552	-55.759	0.210	0.094
-214.538	-129.958	0.211	-0.029
-213.523	-16.922	0.171	0.108
-212.509	-12.453	0.130	0.085
-211.494	-9.979	-0.148	-0.098
-210.479	-173.713	-0.386	0.011
-209.465	301.042	-0.120	0.221
-208.450	-55.215	0.226	-0.102
-207.436	102.012	-0.188	-0.220
-206.421	4.696	-0.216	-0.158
-205.406	106.004	0.094	-0.111
-204.392	541.668	-0.066	0.156
-203.377	-28.016	-0.208	0.120
-202.363	-161.670	-0.295	-0.015
-201.348	-200.000	-0.014	0.101
-200.333	-93.083	0.134	-0.037
-199.319	-104.336	0.276	0.064
-198.304	-19.265	-0.153	0.095
-197.290	-200.000	0.006	0.245
-196.275	25.153	0.218	-0.180
-195.260	24.809	-0.185	0.153
-194.246	-120.440	-0.079	0.013
-193.231	-17.710	0.460	-0.288
-192.217	-0.107	-0.089	-0.064
-191.202	-108.004	0.326	0.071
-190.187	-136.077	-0.186	0.022
-189.173	-127.898	0.225	0.032
-188.158	92.620	-0.147	0.165
-187.144	-126.125	-0.065	0.010
-186.129	6.944	0.147	-0.109
-185.114	-92.731	-0.224	-0.063
-184.100	-171.589	-0.092	0.003
-183.085	-200.000	-0.060	-0.400
-182.071	17.534	0.096	-0.076
-181.056	-57.184	0.138	0.061
-180.042	-125.041	0.323	0.049
-179.027	-19.445	-0.122	-0.076
-178.012	3.026	0.184	0.133
-176.998	-70.366	-0.141	-0.053
-175.983	-76.698	0.345	0.120
-174.969	438.352	0.083	0.181
-173.954	-31.483	0.093	-0.052
-172.939	193.187	0.151	-0.227
-171.925	-160.722	-0.136	0.007
-170.910	800.000	0.005	-0.018
-169.896	48.516	-0.121	-0.113
-168.881	-57.499	-0.179	0.078
-167.866	-46.002	-0.244	-0.120
-166.852	91.013	0.134	-0.150
-165.837	477.685	-0.082	-0.186
-164.823	53.125	-0.101	0.096
-163.808	800.000	0.068	0.190
-162.793	-135.730	-0.029	0.003
-161.779	-200.000	-0.002	-0.368
-160.764	339.381	0.079	0.154
-159.750	92.828	-0.158	0.177
-158.735	800.000	0.097	0.292
-157.720	-200.000	-0.057	-0.307
-156.706	37.336	-0.099	-0.087
-155.691	-200.000	0.099	0.442
-154.677	307.605	-0.164	-0.304
-153.662	-47.972	-0.055	0.027
-152.647	-65.523	0.228	-0.091
-151.633	-46.496	-0.128	-0.063
-150.618	123.262	0.190	-0.238
-149.604	-9.879	0.263	0.174
-148.589	170.743	-0.090	-0.128
-147.574	-32.190	0.052	0.029
-146.560	38.574	0.332	0.295
-145.545	-145.905	0.145	-0.013
-144.531	-27.606	-0.023	0.013
-143.516	-200.000	-0.036	0.218
-142.502	-54.172	0.177	-0.080
-141.487	612.467	0.069	0.172
-140.472	115.402	0.213	-0.259
-139.458	800.000	0.027	0.077
-138.443	-49.642	0.228	-0.108
-137.429	-88.628	-0.199	0.059
-136.414	-200.000	-0.020	-0.127
-135.399	367.417	-0.113	-0.227
-134.385	160.734	-0.161	0.224
-133.370	-200.000	-0.032	0.325
-132.356	-48.063	-0.263	-0.127
-131.341	-53.524	-0.157	0.071
-130.326	46.742	0.174	0.161
-129.312	615.801	0.108	-0.270
-128.297	-57.220	-0.305	0.133
-127.283	-146.088	-0.102	-0.009
-126.268	-45.674	-0.026	0.013
-125.253	-38.057	-0.085	0.045
-124.239	-200.000	0.009	0.058
-123.224	-43.900	0.255	0.128
-122.210	131.837	-0.264	0.338
-121.195	-108.123	-0.015	-0.003
