DTS Sentinel unit serial number:	SN413079Multiplexer serial number:	ORYXHardware model number:	OX4-SRSoftware version number:	ORYX F/W v4.00 Oryx Data Collector v3.7.2.0data status	okinstallation	princeton_trtdifferential loss correction	single-endedforward channel	channel 2reverse channel	N/Adate	2019/09/15time	15:35:35forward acquisition time	60.00reverse acquisition time	0.00gamma	496.2192k internal	0.2293k external	0.2293temperature offset calibration	0.9956default loss term (dB/km)	0.3790temperature slope calibration	1.0000multiplexer offset coefficient	1.0000multiplexer slope coefficient	1.0000fibre end	0.00T internal ref (°C)	41.44T ext. ref 1 (°C)	5.14T ext. ref 2 (°C)	38.99length (m)	temperature (°C)	Stokes	anti-Stokes-747.200	27.614	0.180	0.155
-746.185	50.531	-0.128	0.124
-745.171	-200.000	0.026	0.196
-744.156	654.209	0.056	0.146
-743.142	56.506	0.104	0.103
-742.127	760.218	0.155	0.430
-741.112	-100.306	0.241	-0.061
-740.098	-94.417	-0.254	-0.071
-739.083	800.000	0.051	0.225
-738.069	-153.347	0.378	-0.027
-737.054	-22.709	0.344	0.212
-736.039	717.075	-0.091	-0.248
-735.025	384.794	0.162	0.342
-734.010	-11.559	-0.151	-0.102
-732.996	-157.780	-0.088	-0.005
-731.981	14.413	-0.288	-0.230
-730.966	-19.893	-0.146	0.092
-729.952	35.499	0.210	-0.188
-728.937	492.263	-0.056	-0.131
-727.923	474.612	-0.122	0.282
-726.908	402.475	-0.086	0.185
-725.894	-33.856	-0.351	-0.198
-724.879	-54.805	-0.168	-0.078
-723.864	38.445	-0.220	0.200
-722.850	-106.186	0.095	-0.022
-721.835	730.056	0.108	0.294
-720.821	76.198	0.164	-0.178
-719.806	17.218	-0.049	0.039
-718.791	-200.000	0.008	-0.304
-717.777	-120.385	0.364	-0.063
-716.762	-200.000	-0.004	-0.171
-715.748	-200.000	-0.040	0.261
-714.733	30.818	0.243	0.213
-713.718	-132.762	-0.149	0.019
-712.704	108.773	-0.145	-0.177
-711.689	-53.829	0.210	-0.098
-710.675	-163.932	-0.427	-0.020
-709.660	-63.412	-0.283	-0.119
-708.645	-17.407	-0.288	-0.185
-707.631	489.552	0.058	-0.135
-706.616	-106.778	0.406	-0.092
-705.602	-73.521	-0.444	0.165
-704.587	-200.000	0.032	0.167
-703.572	119.838	-0.162	0.205
-702.558	-99.396	-0.337	0.087
-701.543	173.383	0.279	0.411
-700.529	-45.948	-0.158	0.080
-699.514	-106.137	-0.353	-0.081
-698.499	-47.501	-0.143	-0.071
-697.485	-160.375	0.253	-0.014
-696.470	-124.172	-0.347	0.056
-695.456	-195.533	-0.266	0.002
-694.441	-10.479	-0.194	-0.131
-693.426	143.067	0.212	0.289
-692.412	-200.000	0.058	0.316
-691.397	-142.118	0.432	-0.044
-690.383	-200.000	-0.005	-0.231
-689.368	-24.577	0.083	0.050
-688.354	-28.286	0.262	0.155
-687.339	160.840	-0.074	0.105
-686.324	-75.096	-0.023	-0.008
-685.310	-71.052	-0.019	0.007
-684.295	-200.000	-0.001	-0.135
-683.281	-110.774	0.331	-0.070
-682.266	-99.328	-0.235	-0.061
-681.251	-103.047	-0.253	0.061
-680.237	164.471	0.083	-0.120
-679.222	287.471	-0.162	0.299
-678.208	-200.000	0.021	-0.187
-677.193	745.554	-0.030	-0.083
-676.178	800.000	0.075	0.293
-675.164	111.692	-0.086	-0.106
-674.149	-22.549	-0.102	-0.063
-673.135	-83.184	0.216	0.071
-672.120	72.832	-0.114	0.122
-671.105	-64.087	0.314	0.131
-670.091	183.321	-0.062	0.094
-669.076	-41.756	0.298	-0.156
-668.062	-52.451	0.078	0.037
-667.047	-116.505	0.034	-0.006
-666.032	-112.083	0.340	0.070
-665.018	-33.951	0.171	-0.096
-664.003	37.626	-0.190	-0.172
-662.989	-42.416	0.120	-0.062
-661.974	91.104	0.173	0.198
-660.959	-189.709	-0.069	0.001
-659.945	549.030	0.213	0.522
-658.930	129.708	0.130	0.169
-657.916	452.937	-0.165	-0.373
-656.901	-48.765	0.156	-0.076
-655.886	-200.000	-0.002	-0.112
-654.872	-200.000	-0.000	0.343
-653.857	-60.344	-0.164	-0.071
-652.843	-104.436	-0.363	0.086
-651.828	-200.000	-0.009	0.067
-650.814	-200.000	0.002	0.025
-649.799	-137.541	0.207	0.024
-648.784	-200.000	0.006	-0.147
-647.770	-48.505	-0.319	-0.156
-646.755	22.730	0.194	-0.162
-645.741	501.884	-0.088	0.207
-644.726	-34.586	0.365	0.203
-643.711	265.034	0.185	0.329
-642.697	-173.673	0.280	0.009
-641.682	78.900	-0.166	-0.182
-640.668	445.787	0.020	0.045
-639.653	173.569	0.099	-0.145
-638.638	576.601	-0.040	-0.099
-637.624	-47.438	0.161	-0.080
-636.609	109.493	0.086	-0.105
-635.595	800.000	0.047	0.174
-634.580	-30.343	-0.448	-0.259
-633.565	177.253	-0.127	0.189
-632.551	44.437	-0.271	0.254
-631.536	167.311	0.135	0.196
-630.522	-141.717	-0.224	0.023
-629.507	592.503	-0.061	0.155
-628.492	800.000	-0.137	0.389
-627.478	-182.496	0.363	0.007
-626.463	-139.609	0.126	-0.014
-625.449	-112.246	0.240	-0.049
-624.434	-28.292	0.116	-0.068
-623.419	148.565	0.118	-0.163
-622.405	-100.585	-0.080	0.020
-621.390	-27.212	-0.141	0.084
-620.376	-75.465	0.416	-0.151
-619.361	-70.102	0.077	-0.030
-618.346	19.294	0.222	0.181
-617.332	63.104	0.277	-0.283
-616.317	248.099	-0.188	0.324
-615.303	800.000	0.073	-0.215
-614.288	246.188	-0.037	-0.063
-613.273	-200.000	0.009	0.153
-612.259	-42.342	0.248	0.129
-611.244	-36.041	0.159	0.087
-610.230	94.265	0.102	-0.118
-609.215	399.489	0.114	-0.242
-608.201	-4.523	0.385	0.271
-607.186	-59.394	-0.157	0.068
-606.171	214.708	0.079	-0.128
-605.157	-117.743	0.172	-0.031
-604.142	35.747	-0.237	-0.212
-603.128	-179.381	-0.299	-0.007
-602.113	111.134	-0.078	-0.095
-601.098	310.939	-0.078	0.148
-600.084	-200.000	-0.027	-0.253
-599.069	800.000	0.093	-0.292
-598.055	-162.376	-0.392	-0.020
-597.040	99.620	0.160	-0.189
-596.025	-189.850	-0.265	-0.003
-595.011	-16.704	-0.229	-0.147
-593.996	-151.699	0.363	-0.027
-592.982	479.117	0.038	-0.087
-591.967	-155.799	-0.366	0.024
-590.952	-0.981	0.068	-0.049
-589.938	800.000	-0.034	-0.099
-588.923	326.709	-0.094	-0.184
-587.909	397.851	-0.097	0.206
-586.894	800.000	-0.038	0.148
-585.879	142.003	0.104	-0.141
-584.865	94.518	0.024	-0.027
-583.850	327.784	0.180	0.351
-582.836	-102.076	0.283	-0.069
-581.821	241.575	0.061	-0.104
-580.806	-200.000	0.009	0.216
-579.792	-147.918	0.330	0.028
-578.777	-200.000	0.029	0.163
-577.763	50.338	-0.086	0.083
-576.748	210.498	0.033	0.052
-575.733	169.029	0.052	0.075
-574.719	-135.833	-0.209	-0.025
-573.704	-105.732	-0.367	0.084
-572.690	-112.680	-0.398	0.081
-571.675	760.583	-0.051	0.141
-570.661	-200.000	0.043	-0.221
-569.646	67.026	0.198	-0.205
-568.631	-73.124	-0.338	-0.126
-567.617	-109.652	0.106	-0.023
-566.602	-101.023	-0.304	-0.076
-565.588	655.661	-0.148	-0.386
-564.573	145.134	0.155	-0.211
-563.558	-113.751	0.209	-0.041
-562.544	85.118	0.215	0.240
-561.529	-200.000	-0.045	-0.219
-560.515	-171.874	0.254	0.008
-559.500	123.525	-0.314	-0.400
-558.485	-98.927	-0.168	0.043
-557.471	-80.588	-0.131	0.044
-556.456	-77.885	0.176	-0.062
-555.442	-81.411	0.266	-0.089
-554.427	78.892	-0.187	0.203
-553.412	57.210	-0.108	-0.107
-552.398	-72.563	-0.327	-0.123
-551.383	-200.000	0.077	-0.399
-550.369	-17.404	-0.198	0.127
-549.354	-132.134	0.195	0.026
-548.339	800.000	0.127	0.431
-547.325	800.000	-0.054	0.193
-546.310	800.000	0.028	-0.091
-545.296	-200.000	0.012	-0.267
-544.281	121.538	-0.231	0.292
-543.266	-29.279	-0.284	0.165
-542.252	279.205	0.093	0.168
-541.237	-102.815	-0.065	-0.016
-540.223	-200.000	0.002	0.311
-539.208	-200.000	-0.043	0.251
-538.193	-200.000	-0.012	-0.233
-537.179	143.818	0.132	-0.178
-536.164	-151.744	-0.113	0.008
-535.150	-64.601	0.136	-0.056
-534.135	113.969	0.159	-0.196
-533.121	81.123	-0.073	-0.080
-532.106	-200.000	-0.005	-0.144
-531.091	88.184	0.198	-0.223
-530.077	-200.000	-0.024	-0.190
-529.062	252.239	-0.028	-0.048
-528.048	-11.161	0.206	0.138
-527.033	-145.096	-0.081	-0.008
-526.018	56.572	-0.206	-0.203
-525.004	-90.926	-0.240	0.070
-523.989	100.604	0.024	-0.028
-522.975	61.310	0.146	0.147
-521.960	108.249	0.135	-0.163
-520.945	800.000	0.031	-0.123
-519.931	-126.338	-0.086	0.013
-518.916	-200.000	-0.005	-0.181
-517.902	231.159	-0.148	-0.246
-516.887	-65.323	-0.163	-0.067
-515.872	74.581	-0.048	0.051
-514.858	92.675	-0.248	-0.284
-513.843	-200.000	0.005	-0.118
-512.829	-200.000	-0.018	-0.146
-511.814	-99.617	-0.262	0.067
-510.799	-6.859	0.096	-0.066
-509.785	-200.000	-0.033	0.195
-508.770	-74.695	-0.091	0.033
-507.756	230.225	-0.148	-0.245
-506.741	800.000	0.105	-0.319
-505.726	24.077	0.129	-0.108
-504.712	88.903	0.234	0.264
-503.697	167.164	-0.119	0.171
-502.683	109.499	0.278	0.338
-501.668	122.839	0.205	0.260
-500.653	-48.497	0.189	-0.092
-499.639	46.932	-0.277	-0.261
-498.624	143.531	-0.064	0.087
-497.610	98.619	-0.132	-0.154
-496.595	6.735	0.297	-0.224
-495.581	-200.000	-0.008	0.297
-494.566	-200.000	0.011	0.083
-493.551	-176.971	-0.303	-0.008
-492.537	348.856	0.086	-0.171
-491.522	795.521	0.095	-0.266
-490.508	800.000	-0.047	0.151
-489.493	-76.326	0.369	0.132
-488.478	91.231	0.197	-0.224
-487.464	-200.000	-0.005	-0.045
-486.449	16.202	-0.141	-0.113
-485.435	-90.198	-0.216	-0.064
-484.420	5.277	-0.113	0.084
-483.405	800.000	-0.072	0.256
-482.391	-200.000	0.008	-0.077
-481.376	-200.000	-0.011	-0.076
-480.362	-151.847	0.387	-0.029
-479.347	-43.362	0.068	-0.035
-478.332	-87.287	-0.236	-0.073
-477.318	27.683	0.259	0.221
-476.303	-200.000	-0.006	0.223
-475.289	800.000	0.038	0.137
-474.274	238.803	0.103	0.173
-473.259	-200.000	-0.018	0.146
-472.245	800.000	-0.046	0.150
-471.230	375.571	0.026	-0.054
-470.216	355.469	-0.104	0.209
-469.201	-93.304	0.060	-0.017
-468.186	-8.895	0.367	0.249
-467.172	-106.998	-0.198	-0.044
-466.157	-200.000	0.028	0.000
-465.143	800.000	0.064	-0.235
-464.128	78.053	-0.163	-0.176
-463.113	-11.513	-0.400	-0.266
-462.099	7.110	-0.263	-0.198
-461.084	145.877	-0.069	-0.093
-460.070	163.680	0.266	-0.379
-459.055	-133.002	-0.116	0.015
-458.040	111.085	0.078	0.095
-457.026	-1.431	-0.203	-0.145
-456.011	-200.000	0.003	-0.297
-454.997	152.441	-0.176	-0.243
-453.982	-131.393	-0.199	0.027
-452.968	-37.853	0.092	-0.049
-451.953	-44.817	0.128	-0.065
-450.938	13.309	0.102	-0.080
-449.924	146.264	-0.185	0.251
-448.909	-200.000	0.060	0.336
-447.895	644.466	-0.085	0.220
-446.880	800.000	0.024	-0.091
-445.865	85.169	-0.349	0.387
-444.851	-49.587	-0.347	-0.167
-443.836	76.667	0.137	-0.147
-442.822	411.051	-0.046	-0.099
-441.807	-200.000	0.035	0.350
-440.792	-173.497	0.030	-0.001
-439.778	120.163	0.069	-0.087
-438.763	-200.000	-0.048	-0.227
-437.749	-170.423	0.317	-0.011
-436.734	-81.287	0.391	-0.130
-435.719	286.963	-0.056	0.102
-434.705	-173.798	-0.434	0.013
-433.690	144.983	-0.076	0.102
-432.676	59.706	-0.092	0.091
-431.661	514.015	-0.111	0.261
-430.646	-108.359	0.138	-0.030
-429.632	113.224	-0.123	-0.151
-428.617	10.225	-0.406	-0.312
-427.603	-148.346	-0.103	0.009
-426.588	47.387	0.085	0.080
-425.573	110.703	-0.031	0.038
-424.559	-200.000	-0.003	-0.204
-423.544	4.606	0.074	-0.055
-422.530	-200.000	0.027	-0.130
-421.515	9.698	-0.309	0.237
-420.500	267.733	-0.099	0.176
-419.486	422.128	-0.059	0.128
-418.471	139.197	0.123	-0.164
-417.457	-100.287	-0.113	0.028
-416.442	19.156	0.061	0.050
-415.428	-200.000	-0.034	0.169
-414.413	670.612	-0.018	0.048
-413.398	800.000	0.067	-0.188
-412.384	-125.253	-0.195	-0.030
-411.369	800.000	0.062	-0.222
-410.355	36.843	-0.147	0.132
-409.340	-154.727	-0.070	-0.005
-408.325	6.292	-0.237	-0.178
-407.311	-134.163	0.195	-0.024
-406.296	800.000	0.168	-0.469
-405.282	-112.672	0.405	0.081
-404.267	177.836	0.082	-0.120
-403.252	101.651	0.051	0.060
-402.238	800.000	-0.056	-0.200
-401.223	-47.952	0.317	0.155
-400.209	-200.000	-0.030	-0.137
-399.194	-200.000	-0.033	-0.673
-398.179	-200.000	0.013	-0.456
-397.165	800.000	-0.113	0.461
-396.150	252.596	-0.176	0.304
-395.136	574.682	0.108	0.265
-394.121	-72.602	0.188	0.070
-393.106	-200.000	-0.009	0.180
-392.092	-72.681	-0.252	0.094
-391.077	416.116	-0.066	0.142
-390.063	-137.693	0.262	-0.030
-389.048	-0.449	0.114	-0.081
-388.033	169.198	-0.031	-0.045
-387.019	-111.173	-0.122	0.025
-386.004	41.702	-0.347	-0.318
-384.990	431.539	0.063	-0.137
-383.975	-200.000	0.006	0.174
-382.960	258.074	-0.080	0.138
-381.946	-36.679	0.362	0.196
-380.931	-173.124	-0.385	0.012
-379.917	-52.802	0.164	0.076
-378.902	-40.443	-0.116	0.061
-377.888	-124.032	0.098	-0.016
-376.873	39.096	-0.241	-0.218
-375.858	100.348	-0.140	-0.164
-374.844	-96.285	0.043	-0.011
-373.829	800.000	0.034	0.113
-372.815	-24.606	0.033	-0.020
-371.800	-31.418	-0.340	-0.193
-370.785	-135.557	-0.120	0.014
-369.771	671.243	0.023	-0.061
-368.756	52.581	-0.139	0.134
-367.742	-174.735	0.500	-0.014
-366.727	-22.360	-0.360	0.220
-365.712	-129.341	0.243	-0.034
-364.698	800.000	-0.021	-0.077
-363.683	-84.460	0.122	0.039
-362.669	117.148	0.096	-0.119
-361.654	-39.763	0.271	-0.143
-360.639	13.116	-0.123	-0.096
-359.625	-200.000	0.033	-0.288
-358.610	655.456	0.089	-0.230
-357.596	-200.000	-0.023	-0.192
-356.581	564.497	-0.028	0.068
-355.566	-68.728	-0.299	-0.117
-354.552	29.074	0.025	-0.021
-353.537	125.408	-0.090	-0.114
-352.523	-8.625	-0.320	0.216
-351.508	-11.924	-0.293	-0.193
-350.493	85.873	-0.186	-0.206
-349.479	-54.064	0.266	0.122
-348.464	-188.409	0.204	0.003
-347.450	-57.478	-0.204	-0.090
-346.435	-38.533	-0.135	-0.072
-345.420	800.000	-0.117	-0.342
-344.406	-40.608	-0.092	-0.048
-343.391	-103.016	0.136	0.032
-342.377	-200.000	-0.010	-0.386
-341.362	-200.000	0.021	-0.106
-340.348	-184.097	-0.136	0.002
-339.333	-146.920	-0.326	-0.028
-338.318	-20.540	0.223	-0.138
-337.304	166.022	0.117	0.166
-336.289	-200.000	-0.001	-0.421
-335.275	-163.326	-0.170	-0.008
-334.260	-200.000	-0.115	0.545
-333.245	-200.000	0.038	0.253
-332.231	299.453	-0.033	-0.061
-331.216	81.753	-0.145	-0.158
-330.202	27.669	-0.154	-0.131
-329.187	268.836	-0.078	0.138
-328.172	-7.240	0.159	-0.109
-327.158	465.526	0.066	0.148
-326.143	-15.950	-0.166	-0.106
-325.129	-200.000	0.004	0.060
-324.114	-62.132	0.034	-0.014
-323.099	-19.316	0.157	0.098
-322.085	800.000	0.067	0.248
-321.070	71.208	0.165	0.172
-320.056	14.744	0.147	-0.116
-319.041	171.243	0.082	-0.119
-318.026	149.578	0.205	0.279
-317.012	11.295	-0.097	-0.075
-315.997	-200.000	0.026	0.252
-314.983	43.424	-0.128	0.118
-313.968	337.824	-0.092	-0.181
-312.953	-90.460	0.360	-0.105
-311.939	19.961	-0.287	0.233
-310.924	-58.330	-0.156	-0.068
-309.910	243.444	-0.105	-0.177
-308.895	-18.291	-0.192	-0.120
-307.880	83.488	0.154	-0.169
-306.866	-200.000	0.004	-0.258
-305.851	109.548	-0.134	0.161
-304.837	-200.000	-0.031	-0.240
-303.822	-114.449	-0.093	0.018
-302.807	-152.118	-0.254	0.019
-301.793	-154.894	-0.218	-0.014
-300.778	-86.060	0.097	0.030
-299.764	-200.000	-0.010	-0.130
-298.749	-200.000	-0.003	0.054
-297.735	-88.766	0.283	-0.085
-296.720	141.763	-0.141	-0.188
-295.705	-84.365	-0.203	0.064
-294.691	72.195	0.087	0.091
-293.676	800.000	0.022	0.069
-292.662	-71.098	0.100	-0.038
-291.647	314.547	0.034	-0.065
-290.632	-200.000	0.020	-0.235
-289.618	-86.145	0.457	0.142
-288.603	-200.000	0.030	-0.185
-287.589	-88.379	-0.126	-0.038
-286.574	628.669	-0.021	-0.054
-285.559	-94.651	-0.074	-0.020
-284.545	-142.331	0.214	0.021
-283.530	800.000	-0.074	-0.243
-282.516	800.000	0.073	0.229
-281.501	-88.986	0.251	0.075
-280.486	-17.258	0.077	0.049
-279.472	-144.332	-0.453	-0.042
-278.457	-30.187	0.205	-0.117
-277.443	-200.000	0.025	-0.138
-276.428	120.898	-0.062	-0.078
-275.413	5.723	0.308	0.229
-274.399	4.810	0.060	0.044
-273.384	800.000	-0.103	0.292
-272.370	162.648	-0.315	0.444
-271.355	800.000	-0.047	-0.158
-270.340	-151.818	0.345	-0.025
-269.326	372.581	-0.077	-0.157
-268.311	155.718	0.165	0.228
-267.297	-74.001	-0.139	0.051
-266.282	800.000	-0.053	0.187
-265.267	-159.019	0.286	-0.016
-264.253	420.180	-0.101	0.218
-263.238	-114.874	-0.056	-0.011
-262.224	243.064	0.162	-0.272
-261.209	591.410	0.063	-0.156
-260.195	271.184	0.102	0.180
-259.180	245.346	0.095	0.161
-258.165	53.512	-0.226	0.218
-257.151	95.853	-0.218	0.250
-256.136	800.000	-0.106	-0.306
-255.122	43.529	-0.250	-0.229
-254.107	-61.988	0.122	-0.051
-253.092	118.527	0.204	0.253
-252.078	-186.508	0.402	0.006
-251.063	-82.381	-0.139	0.045
-250.049	-82.145	0.137	0.045
-249.034	-82.888	0.469	0.152
-248.019	-200.000	0.071	0.371
-247.005	77.319	0.099	0.106
-245.990	85.452	0.082	0.091
-244.976	255.245	0.055	0.095
-243.961	-42.094	0.226	0.116
-242.946	-17.435	0.131	-0.083
-241.932	-23.088	-0.074	0.045
-240.917	-117.878	0.166	0.030
-239.903	-200.000	-0.002	-0.115
-238.888	800.000	-0.012	-0.051
-237.873	-19.112	-0.145	-0.090
-236.859	-142.353	0.094	-0.009
-235.844	39.401	0.045	0.040
-234.830	-144.382	-0.131	-0.012
-233.815	800.000	0.085	0.251
-232.800	-200.000	-0.082	0.380
-231.786	494.685	-0.083	0.192
-230.771	800.000	0.044	-0.129
-229.757	800.000	0.066	0.265
-228.742	-34.041	-0.194	0.107
-227.727	255.818	-0.190	0.326
-226.713	-147.007	-0.262	-0.022
-225.698	166.355	-0.226	0.321
-224.684	-91.806	-0.112	-0.032
-223.669	90.685	0.111	-0.124
-222.655	-32.986	0.109	-0.060
-221.640	188.425	0.157	0.235
-220.625	103.739	0.268	-0.315
-219.611	331.011	-0.097	-0.188
-218.596	669.006	0.163	0.422
-217.582	-200.000	-0.027	0.286
-216.567	800.000	0.030	0.131
-215.552	-170.190	-0.401	0.014
-214.538	-169.842	-0.311	0.011
-213.523	-58.946	-0.347	-0.150
-212.509	-132.063	0.425	-0.055
-211.494	-200.000	-0.032	0.147
-210.479	-200.000	0.041	0.234
-209.465	107.048	-0.163	0.194
-208.450	-33.308	0.091	-0.050
-207.436	-68.721	0.233	0.090
-206.421	627.341	0.063	-0.158
-205.406	-26.099	0.378	-0.222
-204.392	-5.294	0.095	-0.065
-203.377	800.000	0.039	-0.168
-202.363	-4.491	-0.130	0.090
-201.348	-200.000	0.088	0.424
-200.333	-25.154	0.132	0.078
-199.319	58.290	0.160	0.157
-198.304	151.173	-0.083	0.113
-197.290	-93.085	-0.130	-0.036
-196.275	-72.568	-0.193	0.071
-195.260	-200.000	-0.030	0.149
-194.246	123.753	-0.104	-0.131
-193.231	-142.224	0.236	0.023
-192.217	584.530	-0.093	-0.228
-191.202	14.165	0.213	0.166
-190.187	33.363	-0.080	0.070
-189.173	117.099	-0.284	-0.349
-188.158	127.004	0.061	0.077
-187.144	418.067	0.127	0.271
-186.129	310.314	-0.113	-0.211
-185.114	76.205	0.086	0.091
-184.100	51.233	0.181	0.172
-183.085	-11.828	-0.101	0.067
-182.071	-91.290	-0.231	-0.066
-181.056	-51.832	0.234	-0.109
-180.042	-133.103	0.121	0.015
-179.027	-200.000	0.016	0.146
-178.012	191.343	0.069	0.104
-176.998	-200.000	-0.005	0.418
-175.983	674.471	0.112	0.292
-174.969	-69.500	0.222	0.085
-173.954	800.000	0.087	-0.252
-172.939	71.090	0.192	-0.199
-171.925	296.695	-0.108	0.198
-170.910	-145.778	0.506	0.045
-169.896	-85.062	-0.108	-0.034
-168.881	-200.000	0.021	0.265
-167.866	-21.572	0.261	0.159
-166.852	27.470	0.246	0.207
-165.837	150.129	0.175	-0.237
-164.823	-47.286	-0.051	0.025
-163.808	-153.858	-0.229	-0.016
-162.793	468.749	0.126	-0.282
-161.779	-121.056	-0.229	-0.038
-160.764	800.000	0.080	0.285
-159.750	19.029	0.041	-0.033
-158.735	344.911	0.138	-0.271
-157.720	4.251	0.118	0.086
-156.706	313.112	-0.092	0.174
-155.691	-72.431	0.144	-0.053
-154.677	-73.470	-0.500	0.183
-153.662	-77.193	0.082	0.029
-152.647	185.533	-0.184	0.273
-151.633	-48.323	-0.120	0.058
-150.618	-200.000	0.063	-0.319
-149.604	-41.989	-0.099	-0.051
-148.589	-99.431	0.197	0.050
-147.574	681.547	0.056	-0.147
-146.560	-18.461	-0.143	-0.089
-145.545	740.605	-0.005	-0.014
-144.531	-75.689	0.208	-0.074
-143.516	-44.242	0.526	0.264
-142.502	-191.390	0.354	-0.004
-141.487	-151.434	0.312	0.023
-140.472	608.472	0.145	-0.362
-139.458	-134.665	0.110	-0.013
-138.443	27.023	0.271	-0.227
-137.429	396.248	-0.062	-0.129
-136.414	46.324	0.131	0.122
-135.399	125.994	0.018	-0.023
-134.385	235.657	0.102	0.169
-133.370	-200.000	-0.008	-0.309
-132.356	-154.417	0.062	0.004
-131.341	59.856	-0.073	-0.072
-130.326	547.090	0.092	0.219
-129.312	-60.720	0.254	-0.107
-128.297	-200.000	0.022	-0.291
-127.283	-132.808	0.119	-0.015
-126.268	-200.000	-0.003	0.051
-125.253	-200.000	-0.010	0.443
-124.239	800.000	0.024	0.070
-123.224	677.313	-0.064	-0.166
-122.210	-200.000	-0.018	0.096
