DTS Sentinel unit serial number:	SN413079Multiplexer serial number:	ORYXHardware model number:	OX4-SRSoftware version number:	ORYX F/W v4.00 Oryx Data Collector v3.7.2.0data status	okinstallation	princeton_trtdifferential loss correction	single-endedforward channel	channel 2reverse channel	N/Adate	2019/09/16time	13:51:35forward acquisition time	60.00reverse acquisition time	0.00gamma	496.2192k internal	0.2294k external	0.2294temperature offset calibration	0.9941default loss term (dB/km)	0.3790temperature slope calibration	1.0000multiplexer offset coefficient	1.0000multiplexer slope coefficient	1.0000fibre end	0.00T internal ref (°C)	42.31T ext. ref 1 (°C)	13.98T ext. ref 2 (°C)	38.91length (m)	temperature (°C)	Stokes	anti-Stokes-747.200	-115.260	-0.238	-0.046
-746.185	-200.000	-0.010	0.285
-745.171	-41.579	-0.109	-0.057
-744.156	-200.000	0.011	0.426
-743.142	440.908	-0.034	0.076
-742.127	-50.400	0.185	-0.089
-741.112	800.000	0.053	-0.232
-740.098	11.995	-0.353	0.278
-739.083	316.077	-0.109	-0.210
-738.069	152.469	-0.112	0.156
-737.054	800.000	-0.035	-0.149
-736.039	-200.000	0.023	-0.113
-735.025	118.258	0.159	-0.201
-734.010	-200.000	0.025	0.435
-732.996	800.000	0.120	0.372
-731.981	-7.646	-0.273	0.189
-730.966	120.399	0.135	-0.171
-729.952	327.822	0.076	-0.149
-728.937	-200.000	-0.020	-0.357
-727.923	-119.769	0.219	0.039
-726.908	-51.738	0.102	0.048
-725.894	49.309	0.029	-0.028
-724.879	-200.000	0.011	0.257
-723.864	-118.384	0.376	-0.068
-722.850	-25.640	-0.321	0.193
-721.835	-200.000	-0.016	0.222
-720.821	-18.373	-0.111	-0.071
-719.806	-127.771	-0.358	-0.053
-718.791	-71.723	-0.269	0.103
-717.777	167.297	0.022	0.032
-716.762	-41.774	0.085	-0.045
-715.748	-121.229	0.343	0.059
-714.733	800.000	-0.111	-0.424
-713.718	268.788	0.107	-0.192
-712.704	-97.061	-0.196	0.052
-711.689	-66.419	-0.405	-0.164
-710.675	292.302	0.063	-0.117
-709.660	505.446	0.106	-0.251
-708.645	-104.918	-0.143	-0.033
-707.631	98.681	0.131	-0.155
-706.616	10.563	0.414	-0.322
-705.602	-31.604	0.200	-0.115
-704.587	-200.000	-0.015	-0.212
-703.572	-124.539	-0.157	-0.025
-702.558	670.003	0.068	0.179
-701.543	-131.266	-0.339	0.046
-700.529	-200.000	0.075	-0.388
-699.514	-64.778	0.087	0.036
-698.499	-107.562	0.086	0.019
-697.485	-200.000	-0.001	0.034
-696.470	741.629	0.053	-0.145
-695.456	315.219	-0.210	0.403
-694.441	-25.705	0.233	-0.140
-693.426	-118.243	0.541	-0.098
-692.412	-28.187	0.217	-0.128
-691.397	800.000	-0.146	-0.442
-690.383	91.575	0.236	0.271
-689.368	-31.849	0.145	-0.083
-688.354	-63.279	0.370	-0.156
-687.339	34.004	-0.063	0.056
-686.324	-153.473	-0.272	-0.019
-685.310	-68.840	0.168	-0.066
-684.295	47.073	-0.155	0.147
-683.281	52.796	0.244	-0.238
-682.266	-200.000	0.016	0.165
-681.251	-146.803	0.165	-0.015
-680.237	800.000	-0.066	0.223
-679.222	212.700	0.236	0.381
-678.208	218.495	0.143	-0.232
-677.193	-47.817	0.047	-0.023
-676.178	-200.000	-0.026	0.123
-675.164	-150.252	-0.081	0.006
-674.149	-200.000	0.010	-0.303
-673.135	800.000	0.027	0.078
-672.120	-174.851	0.206	-0.006
-671.105	800.000	0.089	0.276
-670.091	-103.832	0.046	-0.011
-669.076	-200.000	0.000	0.318
-668.062	-200.000	0.054	-0.299
-667.047	467.164	0.063	-0.144
-666.032	-200.000	0.015	-0.172
-665.018	800.000	0.040	0.124
-664.003	-193.604	-0.104	0.001
-662.989	174.684	0.193	-0.285
-661.974	-48.430	0.294	-0.144
-660.959	-200.000	0.028	0.181
-659.945	-35.914	0.147	0.081
-658.930	224.071	-0.091	-0.150
-657.916	-18.183	-0.143	-0.091
-656.901	-200.000	0.001	0.318
-655.886	-200.000	0.016	-0.399
-654.872	309.134	-0.061	0.115
-653.857	60.686	-0.135	0.136
-652.843	188.669	-0.267	-0.407
-651.828	74.363	-0.157	-0.168
-650.814	181.122	0.104	-0.156
-649.799	-66.659	-0.279	-0.113
-648.784	-107.624	0.056	-0.012
-647.770	150.605	0.080	-0.111
-646.755	168.274	0.191	0.277
-645.741	60.810	-0.161	0.163
-644.726	566.614	-0.073	-0.180
-643.711	-200.000	-0.016	0.173
-642.697	-64.533	-0.013	-0.005
-641.682	-113.146	0.213	0.043
-640.668	-47.005	0.279	0.139
-639.653	-90.625	-0.154	-0.045
-638.638	800.000	0.075	-0.235
-637.624	-69.643	-0.122	-0.047
-636.609	-90.606	-0.405	-0.119
-635.595	-79.064	0.192	0.066
-634.580	-74.974	0.297	-0.108
-633.565	-8.527	0.159	-0.109
-632.551	-34.833	-0.234	-0.130
-631.536	-115.160	0.132	-0.025
-630.522	800.000	0.116	0.369
-629.507	-126.182	0.139	0.021
-628.492	652.478	0.096	0.250
-627.478	72.615	0.161	0.171
-626.463	-131.052	-0.348	0.047
-625.449	-200.000	-0.028	0.147
-624.434	800.000	-0.115	-0.397
-623.419	-27.206	-0.255	-0.151
-622.405	207.534	0.255	-0.406
-621.390	-200.000	-0.010	-0.263
-620.376	-12.740	-0.128	0.085
-619.361	25.087	0.265	-0.224
-618.346	-178.207	-0.131	0.003
-617.332	-200.000	-0.035	0.310
-616.317	116.799	0.158	-0.197
-615.303	-173.712	-0.420	-0.013
-614.288	17.553	-0.268	0.217
-613.273	55.917	-0.202	0.200
-612.259	-24.021	0.147	-0.090
-611.244	-40.262	-0.272	-0.144
-610.230	-41.864	-0.213	-0.111
-609.215	-105.060	-0.243	0.057
-608.201	-200.000	0.038	0.219
-607.186	-1.720	-0.014	0.010
-606.171	296.394	0.053	-0.098
-605.157	-77.498	0.085	0.030
-604.142	11.026	0.375	-0.292
-603.128	73.748	-0.119	0.127
-602.113	800.000	-0.051	0.165
-601.098	-128.812	0.129	0.018
-600.084	-33.830	-0.407	-0.228
-599.069	59.141	-0.142	-0.142
-598.055	-20.841	-0.226	0.141
-597.040	367.093	-0.042	-0.085
-596.025	-12.272	-0.135	0.090
-595.011	800.000	-0.018	0.054
-593.996	800.000	-0.049	0.201
-592.982	-62.071	0.117	0.050
-591.967	11.140	-0.138	-0.107
-590.952	-106.511	0.213	-0.048
-589.938	512.952	-0.050	0.118
-588.923	800.000	-0.096	0.345
-587.909	-4.869	-0.205	0.143
-586.894	-115.882	0.211	0.040
-585.879	-200.000	0.016	0.389
-584.865	-29.603	-0.284	0.165
-583.850	-200.000	0.015	-0.191
-582.836	10.524	0.211	0.164
-581.821	-163.509	-0.277	0.013
-580.806	-163.980	-0.433	-0.020
-579.792	-20.861	-0.135	0.084
-578.777	48.235	-0.225	0.214
-577.763	-200.000	-0.005	-0.282
-576.748	-200.000	0.000	-0.256
-575.733	1.307	0.291	0.213
-574.719	-79.178	-0.172	-0.059
-573.704	211.696	0.125	0.201
-572.690	-200.000	-0.001	0.112
-571.675	38.642	0.150	-0.136
-570.661	-200.000	0.008	0.181
-569.646	-108.289	-0.184	-0.040
-568.631	-200.000	0.040	-0.204
-567.617	-200.000	-0.012	0.247
-566.602	-200.000	0.002	-0.187
-565.588	165.077	-0.104	0.149
-564.573	-200.000	0.010	0.262
-563.558	-113.121	0.301	-0.060
-562.544	391.554	-0.128	0.270
-561.529	42.596	-0.181	0.167
-560.515	72.105	0.167	0.177
-559.500	767.796	0.082	-0.227
-558.485	-200.000	0.020	-0.246
-557.471	-39.599	0.097	0.051
-556.456	-67.829	-0.256	0.101
-555.442	536.928	0.120	-0.288
-554.427	-150.424	0.080	0.006
-553.412	51.947	-0.228	0.221
-552.398	800.000	-0.059	-0.218
-551.383	-137.833	0.079	-0.009
-550.369	19.929	-0.122	0.100
-549.354	-58.621	0.262	0.115
-548.339	-200.000	-0.032	-0.283
-547.325	-200.000	0.010	0.192
-546.310	800.000	0.083	0.365
-545.296	-200.000	0.012	0.091
-544.281	-64.270	-0.306	-0.127
-543.266	-118.883	-0.520	0.093
-542.252	715.526	-0.033	0.089
-541.237	-186.455	0.206	0.003
-540.223	-148.713	0.113	-0.009
-539.208	-200.000	-0.001	-0.163
-538.193	-10.245	0.029	-0.020
-537.179	-200.000	0.097	-0.000
-536.164	-200.000	-0.006	0.027
-535.150	800.000	-0.177	-0.514
-534.135	9.789	-0.318	-0.245
-533.121	800.000	-0.088	0.318
-532.106	800.000	0.057	-0.251
-531.091	-200.000	0.014	-0.100
-530.077	-53.543	-0.073	-0.034
-529.062	783.052	-0.112	-0.311
-528.048	-21.717	0.074	-0.046
-527.033	-200.000	-0.107	0.476
-526.018	103.625	0.064	0.076
-525.004	-135.615	0.223	0.027
-523.989	763.203	-0.092	0.252
-522.975	-77.217	-0.403	-0.142
-521.960	-13.664	0.301	0.198
-520.945	233.842	-0.125	0.209
-519.931	-57.721	-0.165	0.073
-518.916	-139.782	0.297	0.032
-517.902	800.000	-0.040	0.125
-516.887	-147.771	-0.296	0.025
-515.872	287.524	-0.111	0.203
-514.858	-149.371	-0.317	0.026
-513.843	252.481	0.044	0.077
-512.829	-200.000	0.047	0.268
-511.814	63.570	-0.128	-0.130
-510.799	205.420	0.045	0.071
-509.785	83.267	0.040	0.045
-508.770	-91.764	-0.076	0.022
-507.756	-69.648	0.277	0.108
-506.741	280.482	0.075	0.136
-505.726	218.645	-0.112	-0.181
-504.712	800.000	-0.111	0.426
-503.697	-200.000	-0.006	0.062
-502.683	-80.945	-0.038	0.013
-501.668	165.199	0.216	0.309
-500.653	97.688	0.060	0.070
-499.639	205.960	0.081	-0.127
-498.624	-93.294	-0.276	0.078
-497.610	800.000	0.068	0.276
-496.595	546.914	-0.110	0.266
-495.581	-200.000	-0.002	0.103
-494.566	254.266	-0.094	0.162
-493.551	-116.840	-0.302	0.056
-492.537	-112.471	0.169	-0.034
-491.522	800.000	-0.086	-0.364
-490.508	800.000	0.040	0.170
-489.493	421.106	-0.185	-0.401
-488.478	5.923	0.227	-0.170
-487.464	101.558	0.010	0.012
-486.449	130.932	0.161	0.209
-485.435	800.000	0.016	0.054
-484.420	279.430	0.076	-0.137
-483.405	61.873	-0.105	0.106
-482.391	-21.601	-0.032	0.019
-481.376	-200.000	-0.029	0.444
-480.362	43.012	0.200	-0.184
-479.347	-91.525	-0.121	0.035
-478.332	370.394	-0.193	-0.397
-477.318	-200.000	0.042	-0.237
-476.303	-127.053	0.298	-0.044
-475.289	-37.893	-0.326	-0.175
-474.274	99.367	0.205	-0.240
-473.259	-17.834	-0.266	0.169
-472.245	479.476	-0.081	-0.185
-471.230	-119.551	0.453	-0.079
-470.216	-200.000	0.023	-0.169
-469.201	-179.767	-0.169	-0.004
-468.186	-173.999	0.101	0.003
-467.172	-96.363	-0.080	0.022
-466.157	339.472	-0.085	0.167
-465.143	411.704	-0.048	-0.103
-464.128	-10.234	0.157	-0.105
-463.113	800.000	0.105	-0.441
-462.099	800.000	0.092	0.351
-461.084	-183.483	0.041	-0.001
-460.070	-200.000	0.070	0.490
-459.055	83.989	0.179	0.198
-458.040	-38.787	-0.345	0.184
-457.026	800.000	-0.055	-0.238
-456.011	123.096	0.291	-0.369
-454.997	204.767	0.091	0.143
-453.982	128.630	-0.138	0.177
-452.968	90.962	0.099	-0.112
-451.953	21.098	-0.065	-0.053
-450.938	-200.000	-0.023	-0.246
-449.924	-142.053	-0.232	0.023
-448.909	-200.000	-0.010	0.101
-447.895	-172.379	0.257	-0.008
-446.880	-28.984	0.058	0.033
-445.865	45.450	0.194	-0.181
-444.851	-13.184	0.256	-0.168
-443.836	800.000	-0.111	-0.402
-442.822	-128.517	-0.084	0.012
-441.807	76.459	-0.030	0.033
-440.792	441.665	-0.125	-0.277
-439.778	34.354	-0.338	0.298
-438.763	504.551	0.060	0.139
-437.749	-74.269	-0.234	-0.085
-436.734	-21.237	-0.205	-0.126
-435.719	-92.158	0.166	0.047
-434.705	-45.423	-0.333	0.167
-433.690	-129.612	-0.182	0.025
-432.676	68.814	0.001	0.001
-431.661	-200.000	0.010	-0.088
-430.646	-62.267	-0.240	0.101
-429.632	-200.000	0.025	-0.488
-428.617	136.758	-0.082	-0.108
-427.603	800.000	0.070	0.286
-426.588	121.171	0.015	0.019
-425.573	-117.463	0.268	-0.049
-424.559	800.000	-0.077	-0.301
-423.544	247.642	0.296	-0.505
-422.530	-103.244	-0.234	0.056
-421.515	-151.492	-0.095	-0.007
-420.500	33.874	-0.153	-0.135
-419.486	-24.488	0.188	-0.113
-418.471	800.000	0.075	0.254
-417.457	-200.000	-0.036	0.259
-416.442	86.652	-0.185	0.206
-415.428	-87.129	-0.294	0.090
-414.413	188.451	0.065	0.098
-413.398	165.385	-0.201	0.286
-412.384	-115.445	0.234	0.045
-411.369	250.128	-0.093	-0.160
-410.355	800.000	-0.092	-0.267
-409.340	800.000	-0.059	-0.225
-408.325	-200.000	-0.036	-0.312
-407.311	-51.710	-0.008	0.004
-406.296	-134.245	0.161	-0.020
-405.282	800.000	0.083	-0.310
-404.267	-200.000	-0.011	-0.398
-403.252	497.326	0.048	-0.112
-402.238	495.620	-0.084	-0.195
-401.223	-200.000	0.007	0.133
-400.209	226.263	0.106	-0.173
-399.194	726.681	-0.079	-0.213
-398.179	-106.296	0.225	-0.051
-397.165	78.362	0.208	0.225
-396.150	-72.252	0.096	0.036
-395.136	-124.009	-0.310	0.049
-394.121	205.039	0.169	-0.265
-393.106	77.608	-0.045	0.049
-392.092	167.136	0.052	-0.075
-391.077	-74.714	0.137	-0.050
-390.063	-98.219	-0.378	-0.098
-389.048	800.000	-0.048	-0.187
-388.033	566.618	-0.138	0.338
-387.019	53.072	-0.162	-0.156
-386.004	-200.000	0.002	0.048
-384.990	-200.000	0.028	0.128
-383.975	284.937	-0.093	0.168
-382.960	-48.966	0.127	0.061
-381.946	-200.000	-0.033	0.177
-380.931	-132.630	0.125	0.016
-379.917	33.733	-0.231	0.203
-378.902	-55.782	-0.154	-0.070
-377.888	585.451	0.089	0.222
-376.873	-115.283	0.096	0.018
-375.858	-86.754	0.295	0.091
-374.844	-135.743	-0.050	0.006
-373.829	800.000	0.021	0.074
-372.815	21.272	0.025	-0.020
-371.800	-107.677	0.187	0.041
-370.785	-32.593	0.190	0.107
-369.771	367.999	-0.089	0.182
-368.756	800.000	-0.017	0.058
-367.742	-200.000	-0.032	-0.148
-366.727	-3.103	-0.126	-0.088
-365.712	-43.816	0.275	-0.139
-364.698	-143.267	0.255	0.025
-363.683	-81.617	-0.057	0.019
-362.669	696.649	0.077	-0.203
-361.654	10.409	0.164	-0.126
-360.639	800.000	0.070	0.295
-359.625	148.358	0.050	0.067
-358.610	800.000	0.088	-0.327
-357.596	-200.000	0.013	0.083
-356.581	215.546	-0.096	-0.153
-355.566	179.085	0.069	-0.101
-354.552	-28.983	0.128	-0.074
-353.537	-2.657	0.102	-0.072
-352.523	757.741	-0.032	0.088
-351.508	99.094	-0.173	-0.201
-350.493	-32.550	-0.170	-0.095
-349.479	-118.294	-0.218	-0.039
-348.464	-200.000	-0.032	-0.144
-347.450	-200.000	0.038	-0.296
-346.435	-163.209	-0.220	-0.011
-345.420	404.999	-0.080	0.170
-344.406	-71.405	0.103	0.039
-343.391	-200.000	0.015	-0.070
-342.377	174.013	0.174	-0.252
-341.362	-74.256	0.279	0.101
-340.348	-200.000	-0.025	-0.209
-339.333	-200.000	0.024	-0.137
-338.318	-200.000	-0.016	-0.148
-337.304	800.000	-0.032	-0.090
-336.289	-119.370	0.239	0.042
-335.275	-63.984	0.242	0.100
-334.260	145.303	-0.165	-0.223
-333.245	800.000	-0.097	-0.322
-332.231	-55.299	-0.413	0.187
-331.216	14.793	-0.221	0.174
-330.202	-146.029	0.165	-0.015
-329.187	317.644	0.150	-0.286
-328.172	-101.794	0.243	-0.059
-327.158	87.786	0.049	0.055
-326.143	-200.000	0.170	-0.001
-325.129	-200.000	-0.042	0.275
-324.114	-120.942	-0.308	0.052
-323.099	-123.124	-0.162	-0.026
-322.085	96.474	-0.160	0.185
-321.070	-91.729	0.268	0.077
-320.056	-61.930	0.328	-0.138
-319.041	-150.326	0.398	0.031
-318.026	800.000	-0.025	0.090
-317.012	105.525	0.196	-0.233
-315.997	-48.131	0.093	0.045
-314.983	-200.000	0.036	0.242
-313.968	164.773	-0.075	0.106
-312.953	800.000	0.050	0.183
-311.939	800.000	-0.123	0.341
-310.924	98.633	0.177	-0.206
-309.910	-50.239	0.181	-0.086
-308.895	-107.009	0.090	-0.020
-307.880	-66.760	-0.063	0.025
-306.866	630.318	0.049	0.125
-305.851	13.402	0.101	0.079
-304.837	-59.165	-0.123	0.053
-303.822	-98.606	-0.416	-0.107
-302.807	-94.382	0.244	-0.067
-301.793	800.000	-0.031	-0.110
-300.778	598.509	0.098	0.244
-299.764	506.654	0.037	0.085
-298.749	-200.000	0.017	0.113
-297.735	-32.981	-0.106	0.059
-296.720	-177.835	0.214	-0.005
-295.705	-200.000	-0.007	-0.134
-294.691	800.000	-0.035	-0.148
-293.676	-200.000	0.012	-0.439
-292.662	7.647	-0.303	-0.228
-291.647	-167.974	0.178	0.007
-290.632	-200.000	0.040	-0.308
-289.618	-120.513	0.210	0.036
-288.603	-200.000	0.011	0.050
-287.589	-90.266	-0.096	0.028
-286.574	234.076	-0.244	0.404
-285.559	-114.403	0.062	-0.012
-284.545	93.743	0.099	0.113
-283.530	-127.084	-0.372	0.055
-282.516	22.456	0.300	-0.246
-281.501	-167.435	0.351	0.014
-280.486	-200.000	-0.011	0.105
-279.472	-147.819	-0.109	-0.009
-278.457	-71.174	0.091	-0.034
-277.443	384.959	-0.122	-0.253
-276.428	-200.000	-0.012	-0.266
-275.413	55.637	0.203	-0.198
-274.399	356.869	0.036	0.072
-273.384	-200.000	-0.001	-0.182
-272.370	17.974	-0.043	-0.035
-271.355	-200.000	-0.021	0.124
-270.340	291.236	0.173	0.315
-269.326	612.874	0.106	0.266
-268.311	-135.347	0.120	0.014
-267.297	719.564	0.102	0.272
-266.282	616.361	0.044	-0.110
-265.267	49.324	0.162	0.153
-264.253	-43.980	0.048	-0.024
-263.238	-200.000	-0.013	-0.273
-262.224	-62.620	0.159	0.066
-261.209	-120.483	0.293	-0.050
-260.195	77.805	0.204	0.218
-259.180	-180.168	-0.359	0.008
-258.165	-200.000	-0.018	-0.144
-257.151	-200.000	0.051	-0.381
-256.136	187.528	-0.197	-0.294
-255.122	800.000	-0.030	-0.111
-254.107	52.514	-0.130	0.125
-253.092	442.600	-0.131	0.287
-252.078	197.501	0.015	0.024
-251.063	-6.794	-0.157	0.107
-250.049	-75.869	0.251	0.089
-249.034	97.479	0.011	-0.013
-248.019	61.856	-0.356	0.356
-247.005	5.030	0.255	-0.188
-245.990	800.000	0.089	0.272
-244.976	302.364	-0.059	0.109
-243.961	800.000	-0.048	0.179
-242.946	800.000	-0.032	-0.112
-241.932	-89.588	0.252	0.074
-240.917	133.637	0.143	0.185
-239.903	800.000	-0.038	0.108
-238.888	-200.000	0.080	0.364
-237.873	-67.855	-0.096	0.038
-236.859	-200.000	0.008	-0.043
-235.844	-1.871	-0.171	-0.121
-234.830	-200.000	-0.013	-0.095
-233.815	-200.000	-0.086	-0.390
-232.800	-200.000	-0.019	-0.182
-231.786	625.185	-0.054	-0.136
-230.771	800.000	0.081	-0.263
-229.757	-200.000	-0.049	-0.260
-228.742	69.501	0.175	0.181
-227.727	-200.000	0.016	0.302
-226.713	171.524	0.155	-0.223
-225.698	800.000	-0.120	0.418
-224.684	-8.419	-0.135	-0.091
-223.669	-155.839	0.134	-0.009
-222.655	-104.330	-0.226	0.052
-221.640	17.848	0.275	-0.219
-220.625	65.679	0.097	0.099
-219.611	61.665	0.108	-0.107
-218.596	-58.183	-0.251	0.110
-217.582	166.646	-0.294	-0.417
-216.567	102.946	-0.239	-0.280
-215.552	-65.355	0.336	-0.135
-214.538	86.006	0.260	0.287
-213.523	373.066	0.062	-0.125
-212.509	430.214	0.077	-0.167
-211.494	209.461	0.052	-0.082
-210.479	-89.035	-0.273	0.081
-209.465	-70.622	0.165	0.063
-208.450	-13.156	0.335	-0.218
-207.436	-10.430	-0.179	0.119
-206.421	-200.000	0.026	0.278
-205.406	-56.104	-0.234	0.105
-204.392	127.876	0.045	0.057
-203.377	33.847	0.256	0.223
-202.363	272.188	-0.077	0.137
-201.348	-115.453	0.204	-0.039
-200.333	-138.235	0.388	-0.043
-199.319	800.000	0.050	0.174
-198.304	800.000	-0.042	0.152
-197.290	-63.475	-0.183	-0.075
-196.275	-200.000	0.004	-0.027
-195.260	-200.000	-0.013	-0.082
-194.246	-70.508	-0.151	-0.057
-193.231	-103.348	-0.086	0.020
-192.217	253.046	-0.030	0.052
-191.202	-71.592	0.045	-0.017
-190.187	-62.660	0.223	-0.093
-189.173	-135.005	0.166	-0.020
-188.158	556.558	0.023	0.055
-187.144	246.215	0.166	-0.280
-186.129	-200.000	-0.006	-0.107
-185.114	26.587	-0.139	0.116
-184.100	-27.208	0.249	0.145
-183.085	-14.207	0.252	0.163
-182.071	-127.739	-0.455	0.066
-181.056	28.986	0.255	-0.216
-180.042	361.556	0.091	0.183
-179.027	800.000	-0.062	0.225
-178.012	-80.618	-0.157	0.052
-176.998	800.000	0.073	-0.283
-175.983	324.318	0.092	-0.176
-174.969	328.881	0.254	-0.489
-173.954	-200.000	-0.021	-0.235
-172.939	-77.836	-0.128	0.044
-171.925	27.949	0.099	0.083
-170.910	518.874	-0.101	-0.235
-169.896	-134.672	-0.062	-0.008
-168.881	-200.000	-0.005	0.148
-167.866	91.241	0.215	0.242
-166.852	65.196	-0.053	-0.053
-165.837	82.864	0.025	-0.027
-164.823	-200.000	-0.017	0.123
-163.808	-121.008	0.255	-0.043
-162.793	5.968	-0.102	0.076
-161.779	8.886	-0.181	-0.137
-160.764	242.051	-0.097	0.162
-159.750	-200.000	-0.018	0.165
-158.735	-101.136	-0.164	0.040
-157.720	-97.198	0.163	0.043
-156.706	800.000	0.062	0.209
-155.691	-54.735	0.075	-0.034
-154.677	176.753	-0.159	0.231
-153.662	13.878	0.135	0.105
-152.647	-12.162	0.246	-0.161
-151.633	-200.000	-0.039	0.379
-150.618	-200.000	-0.031	0.228
-149.604	-61.436	0.181	-0.076
-148.589	-100.218	0.234	0.058
-147.574	-99.432	0.258	-0.065
-146.560	-55.455	0.071	-0.032
-145.545	-100.414	0.164	-0.041
-144.531	-106.810	-0.220	0.049
-143.516	143.289	0.113	0.150
-142.502	53.330	-0.258	-0.247
-141.487	322.894	-0.192	0.366
-140.472	309.931	0.153	-0.287
-139.458	-43.105	-0.157	-0.079
-138.443	-65.007	-0.100	0.041
-137.429	67.914	0.123	0.126
-136.414	-26.462	0.327	0.191
-135.399	-200.000	-0.006	0.100
-134.385	-200.000	0.002	0.252
-133.370	544.485	-0.076	0.182
-132.356	-15.652	0.392	-0.249
-131.341	-113.398	0.176	0.034
-130.326	286.944	-0.205	-0.370
-129.312	-200.000	-0.012	-0.170
-128.297	-200.000	-0.022	0.120
-127.283	-200.000	-0.022	-0.280
-126.268	-200.000	-0.021	-0.364
-125.253	90.108	0.189	0.211
-124.239	-67.747	0.155	-0.060
-123.224	138.108	-0.160	-0.209
-122.210	351.427	0.091	-0.181
