DTS Sentinel unit serial number:	SN413079Multiplexer serial number:	ORYXHardware model number:	OX4-SRSoftware version number:	ORYX F/W v4.00 Oryx Data Collector v3.7.2.0data status	okinstallation	princeton_trtdifferential loss correction	single-endedforward channel	channel 2reverse channel	N/Adate	2019/09/10time	18:37:11forward acquisition time	60.00reverse acquisition time	0.00gamma	496.2192k internal	0.2321k external	0.2321temperature offset calibration	0.9942default loss term (dB/km)	0.3790temperature slope calibration	1.0000multiplexer offset coefficient	1.0000multiplexer slope coefficient	1.0000fibre end	0.00T internal ref (°C)	35.55T ext. ref 1 (°C)	-0.32T ext. ref 2 (°C)	27.60length (m)	temperature (°C)	Stokes	anti-Stokes-747.200	800.000	-0.082	0.249
-746.185	624.330	0.108	-0.276
-745.171	-200.000	0.009	-0.098
-744.156	800.000	0.051	0.215
-743.142	40.067	0.253	-0.230
-742.127	-87.802	-0.086	0.026
-741.112	-183.970	0.196	0.003
-740.098	-22.096	0.205	0.126
-739.083	241.577	0.125	0.212
-738.069	69.193	0.032	0.033
-737.054	800.000	-0.027	-0.087
-736.039	101.373	-0.107	-0.126
-735.025	-7.273	0.198	-0.136
-734.010	-58.269	0.107	-0.047
-732.996	-200.000	-0.034	-0.418
-731.981	-3.575	-0.109	0.077
-730.966	-200.000	-0.009	-0.101
-729.952	-31.137	-0.043	-0.025
-728.937	-200.000	-0.080	-0.544
-727.923	381.896	-0.076	-0.157
-726.908	-144.125	0.154	0.015
-725.894	800.000	0.035	0.118
-724.879	21.814	-0.228	-0.188
-723.864	-200.000	0.057	-0.327
-722.850	-200.000	-0.022	0.111
-721.835	-108.138	-0.210	0.046
-720.821	354.882	0.123	0.247
-719.806	-200.000	0.012	0.182
-718.791	-200.000	0.001	-0.065
-717.777	800.000	0.073	-0.232
-716.762	-122.707	-0.234	-0.038
-715.748	4.901	-0.240	-0.179
-714.733	21.066	-0.091	0.074
-713.718	251.169	0.084	0.144
-712.704	183.711	0.094	0.141
-711.689	-60.687	0.090	0.039
-710.675	307.446	0.096	-0.180
-709.660	-200.000	0.003	0.437
-708.645	-200.000	0.001	0.019
-707.631	-156.608	0.017	-0.001
-706.616	800.000	0.065	0.183
-705.602	209.039	0.035	-0.056
-704.587	237.897	-0.108	0.181
-703.572	-12.273	0.140	0.093
-702.558	-200.000	-0.041	-0.214
-701.543	-11.925	-0.046	0.031
-700.529	800.000	-0.016	-0.071
-699.514	-91.893	-0.373	0.107
-698.499	-180.224	0.018	-0.000
-697.485	-200.000	-0.010	-0.054
-696.470	-134.333	0.290	0.036
-695.456	20.460	0.095	-0.077
-694.441	800.000	-0.059	0.177
-693.426	800.000	-0.101	0.324
-692.412	800.000	-0.128	0.475
-691.397	27.725	-0.357	-0.303
-690.383	-107.692	-0.314	-0.069
-689.368	-200.000	0.044	0.245
-688.354	-200.000	-0.065	0.547
-687.339	-200.000	0.018	-0.250
-686.324	-122.203	-0.299	-0.049
-685.310	800.000	0.066	0.279
-684.295	171.451	0.132	0.191
-683.281	-29.800	-0.222	-0.128
-682.266	-200.000	0.019	0.136
-681.251	-136.258	-0.233	0.027
-680.237	-124.686	0.062	0.010
-679.222	224.574	-0.051	0.083
-678.208	-200.000	0.035	-0.156
-677.193	61.053	0.094	0.094
-676.178	-96.627	0.205	-0.054
-675.164	-76.532	-0.300	-0.106
-674.149	-68.637	0.216	-0.084
-673.135	168.138	0.115	0.165
-672.120	-35.238	0.052	0.028
-671.105	10.662	-0.115	-0.088
-670.091	-47.105	0.300	-0.147
-669.076	30.350	-0.083	-0.071
-668.062	-132.952	-0.178	0.023
-667.047	-79.310	-0.071	-0.024
-666.032	69.561	-0.085	-0.088
-665.018	-126.917	-0.215	-0.032
-664.003	183.611	0.192	-0.287
-662.989	800.000	0.048	-0.162
-661.974	-116.561	-0.148	0.027
-660.959	-200.000	0.043	-0.325
-659.945	179.832	-0.139	-0.205
-658.930	800.000	0.048	-0.204
-657.916	261.587	0.067	0.117
-656.901	-173.717	0.178	-0.005
-655.886	-7.163	-0.199	-0.136
-654.872	-35.573	-0.112	-0.061
-653.857	317.587	-0.099	-0.189
-652.843	-200.000	-0.000	-0.137
-651.828	595.996	0.162	0.404
-650.814	-53.562	-0.364	-0.167
-649.799	-63.248	0.217	0.090
-648.784	-137.521	-0.214	-0.024
-647.770	27.993	-0.133	0.113
-646.755	-61.896	-0.107	0.045
-645.741	58.646	0.034	0.033
-644.726	4.863	-0.062	0.046
-643.711	-115.956	-0.354	-0.067
-642.697	-200.000	-0.012	0.238
-641.682	529.115	-0.044	0.104
-640.668	-86.651	-0.133	-0.041
-639.653	800.000	0.123	-0.460
-638.638	-169.906	0.193	-0.007
-637.624	800.000	-0.054	0.166
-636.609	77.640	-0.264	0.283
-635.595	-3.889	-0.185	0.129
-634.580	-96.541	-0.254	0.067
-633.565	324.565	-0.175	0.336
-632.551	212.235	-0.243	-0.385
-631.536	-78.455	0.207	-0.071
-630.522	-159.984	-0.256	-0.014
-629.507	85.948	-0.214	-0.237
-628.492	-64.666	0.219	-0.089
-627.478	-200.000	-0.060	-0.274
-626.463	86.490	-0.198	0.219
-625.449	800.000	-0.064	-0.274
-624.434	163.038	0.175	0.247
-623.419	-2.473	-0.114	-0.080
-622.405	0.905	0.246	0.178
-621.390	-51.864	-0.385	-0.180
-620.376	160.695	-0.136	0.190
-619.361	49.428	0.187	0.177
-618.346	800.000	0.023	-0.067
-617.332	-104.865	-0.102	0.023
-616.317	80.299	-0.104	0.112
-615.303	94.717	0.128	-0.146
-614.288	-9.199	-0.253	-0.170
-613.273	-56.324	-0.269	0.120
-612.259	206.569	-0.088	-0.139
-611.244	601.507	0.111	-0.276
-610.230	800.000	0.036	0.151
-609.215	-69.909	-0.308	0.118
-608.201	-40.665	-0.131	-0.069
-607.186	471.517	0.122	-0.277
-606.171	-83.011	-0.403	0.131
-605.157	-21.949	0.230	-0.141
-604.142	-134.115	-0.177	0.022
-603.128	102.240	-0.314	-0.369
-602.113	126.412	0.123	-0.156
-601.098	-164.905	0.173	0.008
-600.084	-3.565	-0.218	-0.152
-599.069	353.000	-0.129	0.256
-598.055	564.576	0.090	0.220
-597.040	-106.399	0.091	-0.021
-596.025	800.000	0.046	0.182
-595.011	800.000	-0.073	0.253
-593.996	129.326	-0.111	0.142
-592.982	22.767	0.025	0.020
-591.967	-149.081	0.234	0.019
-590.952	-107.999	-0.219	-0.048
-589.938	565.570	0.048	-0.116
-588.923	-41.336	-0.214	0.111
-587.909	-96.899	0.490	-0.129
-586.894	-22.211	0.246	-0.150
-585.879	-130.184	0.427	0.058
-584.865	-200.000	0.064	0.343
-583.850	295.587	-0.124	-0.229
-582.836	-57.359	-0.234	-0.103
-581.821	-58.450	0.168	-0.073
-580.806	-12.673	0.078	0.051
-579.792	-200.000	-0.039	-0.273
-578.777	-32.099	-0.281	-0.158
-577.763	-200.000	-0.049	-0.264
-576.748	-23.040	0.385	0.233
-575.733	253.734	-0.070	-0.120
-574.719	129.001	0.100	0.127
-573.704	-134.909	-0.155	-0.019
-572.690	-139.020	0.264	-0.029
-571.675	-46.675	-0.139	0.068
-570.661	-7.386	0.209	-0.142
-569.646	-49.604	0.086	-0.041
-568.631	-46.794	0.060	0.029
-567.617	-145.596	-0.203	0.018
-566.602	336.876	-0.140	0.274
-565.588	-200.000	0.060	0.389
-564.573	3.174	0.166	-0.121
-563.558	800.000	-0.024	0.070
-562.544	-161.063	0.284	-0.015
-561.529	-200.000	0.005	-0.112
-560.515	-169.876	-0.357	-0.013
-559.500	-102.533	0.248	0.059
-558.485	-200.000	0.017	-0.144
-557.471	-28.382	0.317	-0.183
-556.456	19.541	0.274	0.221
-555.442	290.968	-0.142	0.260
-554.427	65.026	-0.226	0.229
-553.412	6.240	-0.212	-0.158
-552.398	44.344	-0.384	0.353
-551.383	-200.000	-0.013	0.114
-550.369	703.613	-0.140	0.370
-549.354	-41.549	-0.120	0.062
-548.339	800.000	0.164	0.454
-547.325	800.000	-0.110	-0.310
-546.310	337.720	0.049	0.096
-545.296	138.025	0.106	0.139
-544.281	800.000	0.044	-0.161
-543.266	-43.797	0.338	0.171
-542.252	142.127	-0.150	0.200
-541.237	121.514	0.079	0.098
-540.223	-164.170	0.277	0.013
-539.208	-65.169	-0.043	-0.017
-538.193	-200.000	-0.063	0.335
-537.179	-200.000	-0.001	0.062
-536.164	-200.000	-0.045	-0.281
-535.150	96.884	-0.043	-0.050
-534.135	31.098	-0.055	-0.048
-533.121	350.482	-0.131	-0.259
-532.106	90.301	-0.273	-0.306
-531.091	-102.397	-0.380	-0.091
-530.077	-200.000	-0.037	-0.285
-529.062	35.251	-0.289	0.254
-528.048	25.380	0.056	-0.047
-527.033	-200.000	-0.013	0.204
-526.018	-68.867	-0.102	0.039
-525.004	73.844	-0.502	-0.527
-523.989	74.603	0.079	-0.083
-522.975	-200.000	-0.000	0.209
-521.960	-200.000	0.023	-0.149
-520.945	-89.982	0.155	-0.045
-519.931	-90.616	0.239	0.069
-518.916	-200.000	0.064	0.446
-517.902	4.528	-0.088	0.064
-516.887	-87.627	-0.108	-0.033
-515.872	-5.388	0.241	-0.166
-514.858	800.000	-0.067	-0.200
-513.843	320.523	-0.074	0.141
-512.829	-200.000	-0.011	-0.350
-511.814	-200.000	-0.006	-0.222
-510.799	685.553	0.008	-0.022
-509.785	-11.457	0.021	-0.014
-508.770	449.847	0.025	-0.055
-507.756	-167.202	-0.155	0.006
-506.741	-113.217	0.307	-0.061
-505.726	-64.450	0.270	-0.110
-504.712	800.000	0.067	-0.289
-503.697	128.358	0.128	-0.163
-502.683	-98.838	-0.369	0.094
-501.668	-190.306	-0.237	-0.003
-500.653	-167.966	-0.480	-0.019
-499.639	133.824	0.140	0.181
-498.624	-109.584	0.121	-0.026
-497.610	-73.844	-0.212	0.077
-496.595	70.900	-0.224	0.233
-495.581	6.602	-0.162	0.121
-494.566	-200.000	-0.062	-0.381
-493.551	558.861	-0.023	0.056
-492.537	658.633	0.118	0.305
-491.522	-200.000	-0.026	-0.120
-490.508	-35.823	-0.088	0.048
-489.493	-80.697	0.239	0.080
-488.478	800.000	-0.057	0.171
-487.464	39.502	0.160	-0.143
-486.449	-200.000	0.045	0.273
-485.435	-88.635	0.244	-0.073
-484.420	-200.000	0.040	-0.182
-483.405	-200.000	0.009	-0.189
-482.391	-13.020	0.155	-0.101
-481.376	-36.894	-0.166	0.089
-480.362	-12.402	0.174	-0.114
-479.347	-187.932	0.155	-0.002
-478.332	800.000	-0.044	0.142
-477.318	31.606	0.084	-0.072
-476.303	-41.034	0.250	-0.129
-475.289	341.195	0.060	0.116
-474.274	488.045	0.162	-0.370
-473.259	90.955	0.080	-0.090
-472.245	-97.565	0.373	0.097
-471.230	800.000	-0.036	-0.107
-470.216	-61.079	-0.112	0.047
-469.201	-151.637	-0.148	0.011
-468.186	-12.908	-0.178	-0.116
-467.172	552.524	0.101	0.243
-466.157	485.104	-0.130	-0.297
-465.143	800.000	-0.037	-0.109
-464.128	101.759	-0.169	0.196
-463.113	-200.000	-0.028	-0.197
-462.099	-115.041	0.380	-0.072
-461.084	-19.800	-0.196	-0.121
-460.070	-58.536	0.106	-0.046
-459.055	643.417	0.029	-0.075
-458.040	725.188	0.126	-0.335
-457.026	51.819	0.159	-0.151
-456.011	676.153	0.045	-0.118
-454.997	-34.535	-0.102	0.056
-453.982	-200.000	-0.099	-0.000
-452.968	-110.245	-0.295	0.061
-451.953	800.000	0.039	0.153
-450.938	104.972	0.201	0.237
-449.924	-145.451	-0.173	0.016
-448.909	417.505	0.079	0.169
-447.895	18.128	0.173	-0.138
-446.880	-10.096	0.087	-0.058
-445.865	800.000	0.038	-0.137
-444.851	-59.814	-0.085	0.036
-443.836	645.815	0.176	0.448
-442.822	800.000	0.080	0.340
-441.807	-160.708	0.073	0.004
-440.792	-200.000	-0.022	0.229
-439.778	-200.000	0.003	-0.145
-438.763	-200.000	0.011	0.134
-437.749	-137.953	0.311	-0.035
-436.734	98.770	-0.209	0.240
-435.719	73.595	-0.025	0.026
-434.705	481.274	-0.107	0.243
-433.690	-200.000	-0.040	-0.213
-432.676	177.209	-0.139	0.203
-431.661	-37.873	0.128	-0.068
-430.646	508.909	-0.069	-0.160
-429.632	-36.042	0.259	-0.140
-428.617	-65.232	-0.216	-0.087
-427.603	69.535	-0.051	0.052
-426.588	29.479	0.143	0.121
-425.573	94.480	0.200	0.226
-424.559	-56.968	0.151	0.067
-423.544	6.211	0.121	0.089
-422.530	-102.648	0.124	-0.030
-421.515	82.292	0.112	0.121
-420.500	78.481	-0.023	0.025
-419.486	107.433	0.070	0.083
-418.471	-84.422	-0.356	-0.112
-417.457	-130.112	0.215	-0.029
-416.442	215.881	0.104	0.165
-415.428	-200.000	-0.027	0.273
-414.413	-187.148	-0.222	0.003
-413.398	-200.000	-0.060	0.316
-412.384	-155.617	0.290	0.019
-411.369	83.388	0.120	-0.131
-410.355	-142.374	-0.139	0.014
-409.340	-200.000	-0.030	0.150
-408.325	18.641	-0.063	-0.050
-407.311	16.819	-0.354	0.279
-406.296	-109.497	0.186	0.039
-405.282	13.132	0.021	0.016
-404.267	-200.000	0.027	0.348
-403.252	-200.000	-0.039	0.222
-402.238	-200.000	-0.043	0.326
-401.223	-5.769	0.060	-0.041
-400.209	202.366	-0.149	-0.229
-399.194	-200.000	-0.043	-0.240
-398.179	-200.000	-0.009	0.043
-397.165	-38.205	0.362	-0.191
-396.150	300.097	0.048	-0.088
-395.136	-69.991	0.290	-0.110
-394.121	-200.000	-0.008	-0.188
-393.106	-21.876	0.067	-0.041
-392.092	-200.000	0.039	-0.263
-391.077	-200.000	0.007	0.222
-390.063	86.817	0.122	0.134
-389.048	-200.000	-0.085	0.410
-388.033	-200.000	-0.012	0.194
-387.019	800.000	-0.021	0.086
-386.004	324.402	-0.118	0.224
-384.990	556.848	-0.088	-0.210
-383.975	198.888	-0.116	0.177
-382.960	19.892	-0.172	0.138
-381.946	415.620	0.032	-0.067
-380.931	-178.864	-0.308	-0.007
-379.917	-103.378	-0.223	0.052
-378.902	-148.172	0.162	-0.013
-377.888	-200.000	-0.006	0.188
-376.873	-104.708	0.383	0.088
-375.858	-160.570	0.124	-0.007
-374.844	-66.436	-0.188	0.074
-373.829	-102.779	0.213	-0.051
-372.815	135.183	-0.272	-0.353
-371.800	43.830	-0.082	0.075
-370.785	-113.188	0.596	0.117
-369.771	-200.000	-0.024	0.196
-368.756	-44.210	-0.221	0.110
-367.742	-110.518	-0.167	0.034
-366.727	-200.000	0.012	-0.274
-365.712	138.537	0.114	-0.149
-364.698	-129.948	-0.143	-0.020
-363.683	-184.168	0.031	0.001
-362.669	392.514	0.017	0.034
-361.654	195.937	0.296	0.448
-360.639	800.000	-0.055	-0.177
-359.625	105.719	0.087	-0.102
-358.610	19.502	-0.292	-0.234
-357.596	800.000	0.069	0.280
-356.581	-168.132	-0.199	0.008
-355.566	44.384	0.249	0.228
-354.552	-200.000	-0.071	-0.357
-353.537	-200.000	0.042	-0.378
-352.523	-76.559	-0.269	0.094
-351.508	-118.829	0.185	0.032
-350.493	-19.881	-0.078	-0.048
-349.479	-114.930	-0.275	0.052
-348.464	564.741	-0.106	0.256
-347.450	-74.729	-0.376	-0.134
-346.435	-17.659	0.221	0.138
-345.420	800.000	0.037	0.106
-344.406	275.105	-0.145	-0.255
-343.391	-118.474	0.200	0.035
-342.377	800.000	-0.067	-0.209
-341.362	-143.585	0.118	0.011
-340.348	-120.244	-0.209	0.035
-339.333	154.775	-0.058	0.079
-338.318	-43.398	0.250	-0.126
-337.304	38.983	-0.192	0.171
-336.289	17.339	0.102	-0.081
-335.275	200.144	0.019	0.029
-334.260	-110.209	-0.136	0.028
-333.245	268.756	-0.217	-0.379
-332.231	64.706	-0.072	-0.072
-331.216	275.811	0.002	0.004
-330.202	-29.455	0.229	0.130
-329.187	-200.000	-0.031	-0.157
-328.172	-200.000	0.086	-0.456
-327.158	-102.084	-0.198	-0.047
-326.143	-112.778	0.168	-0.033
-325.129	800.000	0.096	0.265
-324.114	31.067	0.099	0.085
-323.099	172.577	0.173	-0.247
-322.085	-26.346	-0.082	-0.048
-321.070	-13.927	0.141	0.091
-320.056	-200.000	-0.011	-0.319
-319.041	-103.704	-0.098	0.023
-318.026	-200.000	0.036	0.226
-317.012	-197.631	-0.108	0.001
-315.997	-156.173	-0.260	-0.016
-314.983	113.593	-0.288	-0.347
-313.968	283.732	0.086	-0.153
-312.953	266.561	-0.102	0.176
-311.939	-75.622	-0.042	0.015
-310.924	97.011	0.112	-0.128
-309.910	-95.601	0.245	0.065
-308.895	-148.803	0.397	-0.032
-307.880	-136.985	0.431	0.049
-306.866	-200.000	-0.059	-0.298
-305.851	113.494	0.040	-0.048
-304.837	407.493	-0.078	0.163
-303.822	-127.753	-0.179	0.026
-302.807	111.980	0.202	0.242
-301.793	-92.517	0.185	-0.052
-300.778	142.663	0.121	0.160
-299.764	-113.151	-0.081	-0.016
-298.749	471.002	0.105	0.234
-297.735	-200.000	-0.048	0.217
-296.720	-138.531	0.163	-0.018
-295.705	-61.910	0.297	0.123
-294.691	392.228	0.145	-0.299
-293.676	-196.380	-0.372	0.003
-292.662	225.497	0.116	-0.186
-291.647	-17.370	-0.176	0.110
-290.632	425.890	0.093	-0.200
-289.618	99.216	-0.185	-0.213
-288.603	-18.817	0.100	-0.062
-287.589	36.695	-0.249	0.218
-286.574	800.000	-0.090	-0.276
-285.559	-200.000	0.077	0.486
-284.545	619.676	-0.033	0.083
-283.530	-23.348	0.381	-0.227
-282.516	296.693	0.168	0.306
-281.501	-27.384	0.154	0.089
-280.486	44.452	-0.296	-0.270
-279.472	15.067	0.144	-0.112
-278.457	538.287	-0.037	-0.088
-277.443	800.000	0.068	0.247
-276.428	6.193	-0.065	-0.048
-275.413	-27.097	0.357	-0.207
-274.399	33.570	-0.127	0.109
-273.384	-200.000	0.075	0.340
-272.370	227.637	-0.049	0.079
-271.355	402.763	-0.227	0.474
-270.340	133.352	-0.081	-0.104
-269.326	169.475	0.102	0.145
-268.311	-79.834	-0.085	-0.028
-267.297	390.531	-0.126	-0.259
-266.282	21.328	0.279	0.225
-265.267	77.058	0.164	0.173
-264.253	-122.442	-0.484	0.078
-263.238	-43.159	-0.170	-0.085
-262.224	800.000	-0.100	-0.404
-261.209	257.784	0.051	-0.086
-260.195	522.830	-0.052	0.121
-259.180	202.862	0.042	0.065
-258.165	-135.270	0.222	-0.026
-257.151	287.235	-0.201	-0.359
-256.136	-103.562	-0.061	0.014
-255.122	800.000	0.036	0.146
-254.107	600.502	0.071	-0.176
-253.092	51.695	-0.277	0.261
-252.078	-200.000	-0.007	0.214
-251.063	69.542	0.060	0.061
-250.049	-89.147	-0.142	-0.042
-249.034	-200.000	0.087	0.406
-248.019	18.639	0.093	-0.074
-247.005	160.446	-0.109	0.151
-245.990	-109.986	-0.181	-0.038
-244.976	-51.837	0.099	-0.046
-243.961	-71.404	-0.418	-0.155
-242.946	-92.290	0.291	0.081
-241.932	-200.000	-0.004	0.242
-240.917	800.000	-0.087	-0.330
-239.903	-134.591	-0.295	0.036
-238.888	-200.000	0.004	-0.046
-237.873	800.000	-0.063	-0.172
-236.859	-144.820	-0.057	0.005
-235.844	-49.921	0.312	-0.147
-234.830	87.138	-0.051	-0.056
-233.815	-200.000	0.011	0.110
-232.800	-130.962	0.091	-0.012
-231.786	418.211	0.156	0.330
-230.771	228.450	-0.078	0.126
-229.757	-200.000	0.002	-0.219
-228.742	-55.944	-0.055	0.024
-227.727	-121.814	0.174	0.028
-226.713	800.000	-0.112	-0.343
-225.698	-200.000	-0.007	-0.064
-224.684	800.000	-0.027	-0.106
-223.669	-143.355	0.223	-0.021
-222.655	-140.855	-0.483	0.049
-221.640	800.000	0.084	0.236
-220.625	-164.267	0.209	0.009
-219.611	77.407	-0.124	-0.130
-218.596	305.797	0.068	0.126
-217.582	-105.395	0.185	0.042
-216.567	-200.000	0.048	-0.263
-215.552	16.677	0.283	0.221
-214.538	400.219	0.060	-0.125
-213.523	38.732	0.152	-0.134
-212.509	-149.674	-0.266	-0.021
-211.494	320.956	-0.079	-0.149
-210.479	-89.131	-0.082	-0.024
-209.465	-49.185	0.187	-0.088
-208.450	111.999	0.149	-0.178
-207.436	-80.878	-0.096	0.032
-206.421	-35.108	0.244	0.132
-205.406	82.138	0.150	-0.161
-204.392	-36.387	0.258	-0.137
-203.377	-200.000	-0.010	0.057
-202.363	-85.138	0.364	-0.113
-201.348	-200.000	0.019	-0.285
-200.333	-114.446	0.243	0.046
-199.319	2.751	0.240	-0.172
-198.304	-20.955	0.219	-0.132
-197.290	-78.761	0.102	-0.034
-196.275	181.846	0.114	-0.166
-195.260	101.538	-0.103	-0.119
-194.246	18.720	-0.167	-0.132
-193.231	382.905	0.058	0.119
-192.217	81.691	0.205	0.220
-191.202	-136.559	0.246	0.028
-190.187	-200.000	0.039	0.188
-189.173	84.792	0.202	-0.219
-188.158	-40.685	-0.110	0.056
-187.144	-95.085	-0.240	-0.064
-186.129	248.843	-0.123	0.207
-185.114	-200.000	0.021	-0.225
-184.100	-99.933	-0.211	0.052
-183.085	42.715	-0.248	-0.223
-182.071	-200.000	-0.048	-0.277
-181.056	-200.000	-0.004	0.351
-180.042	-102.756	0.071	-0.017
-179.027	-43.519	0.170	0.085
-178.012	549.006	0.095	0.225
-176.998	-66.015	0.284	-0.112
-175.983	437.792	0.029	-0.063
-174.969	-125.271	0.072	0.011
-173.954	3.006	-0.441	-0.317
-172.939	-60.407	-0.041	0.017
-171.925	297.817	-0.114	0.207
-170.910	95.536	-0.071	-0.080
-169.896	13.809	0.199	-0.153
-168.881	800.000	-0.145	-0.419
-167.866	-180.412	-0.188	0.004
-166.852	159.046	0.113	-0.155
-165.837	87.602	-0.187	0.205
-164.823	-168.403	0.072	0.003
-163.808	-8.424	0.107	-0.071
-162.793	-200.000	0.005	0.117
-161.779	-81.317	0.266	0.087
-160.764	-200.000	0.025	-0.108
-159.750	120.439	0.134	0.165
-158.735	-89.365	0.074	0.022
-157.720	83.229	0.154	0.166
-156.706	800.000	0.009	0.025
-155.691	-16.219	-0.128	0.080
-154.677	-35.555	-0.135	0.073
-153.662	-200.000	0.018	-0.152
-152.647	76.389	-0.239	-0.250
-151.633	-49.880	-0.326	-0.153
-150.618	800.000	0.065	-0.184
-149.604	800.000	-0.070	-0.295
-148.589	-200.000	0.005	0.339
-147.574	-78.934	-0.135	0.045
-146.560	-139.609	0.189	0.020
-145.545	-184.895	-0.095	0.001
-144.531	-78.604	0.067	-0.023
-143.516	80.568	-0.188	0.200
-142.502	97.650	0.177	0.201
-141.487	785.704	-0.093	0.251
-140.472	-200.000	-0.030	-0.161
-139.458	152.562	0.052	0.070
-138.443	113.042	-0.086	0.103
-137.429	-61.730	0.511	0.211
-136.414	70.265	-0.217	-0.221
-135.399	144.856	0.245	-0.324
-134.385	447.257	0.066	0.144
-133.370	733.080	0.098	0.259
-132.356	800.000	0.056	0.207
-131.341	-44.268	0.243	0.120
-130.326	-103.983	-0.318	-0.073
-129.312	-47.975	-0.386	-0.184
-128.297	79.510	0.358	0.379
-127.283	134.414	0.217	-0.277
-126.268	-131.818	0.169	0.022
-125.253	-119.473	0.096	0.016
-124.239	193.824	0.125	-0.187
-123.224	-88.703	-0.073	0.022
-122.210	-200.000	-0.026	0.317
-121.195	425.452	-0.136	0.290
