DTS Sentinel unit serial number:	SN413079Multiplexer serial number:	ORYXHardware model number:	OX4-SRSoftware version number:	ORYX F/W v4.00 Oryx Data Collector v3.7.2.0data status	okinstallation	princeton_trtdifferential loss correction	single-endedforward channel	channel 2reverse channel	N/Adate	2019/09/18time	08:39:35forward acquisition time	60.00reverse acquisition time	0.00gamma	496.2192k internal	0.2340k external	0.2340temperature offset calibration	0.9977default loss term (dB/km)	0.3790temperature slope calibration	1.0000multiplexer offset coefficient	1.0000multiplexer slope coefficient	1.0000fibre end	0.00T internal ref (°C)	24.52T ext. ref 1 (°C)	0.22T ext. ref 2 (°C)	20.22length (m)	temperature (°C)	Stokes	anti-Stokes-747.200	-200.000	-0.019	0.141
-746.185	282.833	-0.081	0.147
-745.171	276.524	0.307	-0.547
-744.156	800.000	-0.087	0.328
-743.142	-26.962	0.042	-0.025
-742.127	-78.322	0.243	0.083
-741.112	248.397	-0.105	0.178
-740.098	-120.359	-0.238	0.041
-739.083	800.000	-0.099	-0.331
-738.069	-168.258	0.212	-0.008
-737.054	49.689	-0.118	-0.112
-736.039	-147.324	0.084	-0.007
-735.025	486.453	-0.022	-0.051
-734.010	800.000	-0.041	-0.174
-732.996	-200.000	0.018	-0.213
-731.981	-59.187	-0.353	-0.153
-730.966	-16.038	-0.195	0.124
-729.952	131.199	-0.112	0.145
-728.937	-29.063	-0.064	0.037
-727.923	598.959	-0.104	0.257
-726.908	103.463	0.180	-0.212
-725.894	216.059	-0.128	-0.203
-724.879	800.000	-0.022	0.064
-723.864	-180.288	0.302	0.006
-722.850	-34.743	0.187	0.102
-721.835	20.672	-0.140	-0.113
-720.821	-133.115	-0.266	0.034
-719.806	192.802	0.204	-0.308
-718.791	5.772	-0.280	0.208
-717.777	32.066	0.085	0.073
-716.762	51.771	-0.169	0.161
-715.748	-70.597	-0.240	0.091
-714.733	724.030	0.118	0.316
-713.718	-195.712	0.088	-0.001
-712.704	-141.939	-0.351	0.035
-711.689	-45.512	-0.164	-0.081
-710.675	-123.708	0.142	0.022
-709.660	-6.490	-0.111	-0.076
-708.645	-190.589	-0.267	0.003
-707.631	-40.131	0.158	-0.082
-706.616	583.281	-0.087	-0.215
-705.602	-183.801	0.395	-0.007
-704.587	-200.000	0.098	-0.463
-703.572	-49.148	-0.049	0.023
-702.558	305.643	-0.011	0.021
-701.543	699.004	-0.098	0.259
-700.529	-79.665	0.118	-0.040
-699.514	-65.809	-0.098	0.039
-698.499	80.206	-0.171	-0.184
-697.485	800.000	-0.096	0.273
-696.470	331.752	-0.042	0.081
-695.456	217.676	-0.055	0.088
-694.441	-93.893	-0.302	0.083
-693.426	800.000	0.168	-0.492
-692.412	-111.288	-0.351	-0.072
-691.397	63.430	0.028	-0.028
-690.383	-100.806	-0.086	-0.021
-689.368	800.000	-0.134	0.432
-688.354	143.550	-0.275	0.366
-687.339	-163.342	0.209	-0.010
-686.324	-128.957	-0.117	-0.016
-685.310	-111.225	0.265	-0.054
-684.295	97.213	0.063	-0.072
-683.281	26.870	0.203	0.170
-682.266	217.960	0.122	-0.195
-681.251	49.182	-0.376	-0.353
-680.237	201.849	-0.104	0.161
-679.222	419.122	0.029	0.062
-678.208	283.169	0.089	0.160
-677.193	134.663	0.143	0.186
-676.178	-123.610	-0.125	-0.020
-675.164	55.343	-0.236	-0.228
-674.149	-67.623	-0.202	-0.079
-673.135	253.716	0.221	-0.378
-672.120	-160.481	-0.189	0.010
-671.105	513.147	-0.028	0.065
-670.091	-200.000	-0.009	-0.520
-669.076	-200.000	0.014	-0.175
-668.062	138.697	0.084	-0.111
-667.047	-60.647	-0.116	0.049
-666.032	2.493	-0.240	0.174
-665.018	-52.439	-0.199	0.092
-664.003	-200.000	0.014	-0.149
-662.989	-123.873	0.304	-0.048
-661.974	305.660	-0.127	0.236
-660.959	-94.367	-0.053	0.014
-659.945	-89.319	-0.051	-0.015
-658.930	311.836	0.043	-0.080
-657.916	-200.000	0.003	-0.116
-656.901	800.000	-0.166	-0.543
-655.886	-57.348	-0.068	-0.030
-654.872	667.416	0.058	0.151
-653.857	-35.206	0.292	0.159
-652.843	-165.155	-0.263	-0.012
-651.828	133.047	0.165	-0.213
-650.814	800.000	0.135	0.381
-649.799	-8.156	-0.393	0.264
-648.784	72.856	-0.020	-0.021
-647.770	-200.000	-0.046	-0.227
-646.755	140.611	-0.189	-0.249
-645.741	-162.007	-0.181	0.009
-644.726	-128.743	0.239	0.034
-643.711	227.377	0.127	0.206
-642.697	-103.173	-0.260	-0.061
-641.682	-157.343	-0.245	0.015
-640.668	-158.255	0.299	-0.017
-639.653	-200.000	-0.059	-0.327
-638.638	-200.000	-0.001	0.106
-637.624	-94.064	-0.347	0.095
-636.609	36.897	-0.216	0.191
-635.595	800.000	0.066	-0.271
-634.580	-93.930	-0.407	0.112
-633.565	-129.315	-0.302	-0.042
-632.551	800.000	-0.077	0.264
-631.536	-200.000	0.011	0.270
-630.522	-88.685	0.349	-0.104
-629.507	94.957	0.104	0.118
-628.492	-115.296	-0.172	-0.032
-627.478	107.292	0.104	0.123
-626.463	8.756	-0.018	-0.014
-625.449	13.561	-0.220	-0.170
-624.434	-130.071	-0.202	-0.027
-623.419	94.197	-0.038	0.044
-622.405	-105.350	-0.214	0.049
-621.390	18.622	0.201	-0.160
-620.376	-67.822	-0.063	-0.025
-619.361	94.522	0.128	-0.145
-618.346	800.000	-0.058	-0.185
-617.332	-116.570	-0.209	0.038
-616.317	-106.913	-0.038	-0.008
-615.303	112.887	0.332	-0.401
-614.288	453.374	-0.133	0.293
-613.273	156.065	0.154	0.212
-612.259	265.342	0.059	0.103
-611.244	-4.523	0.029	0.020
-610.230	-103.726	-0.216	0.051
-609.215	785.242	-0.055	0.149
-608.201	-200.000	0.106	0.471
-607.186	19.422	-0.080	0.064
-606.171	-110.734	-0.061	-0.013
-605.157	-200.000	0.021	0.122
-604.142	-88.541	0.204	0.061
-603.128	717.660	0.056	-0.150
-602.113	331.189	0.015	-0.029
-601.098	-169.308	-0.115	0.004
-600.084	-23.528	0.172	0.103
-599.069	-117.286	-0.223	0.040
-598.055	52.882	0.163	-0.156
-597.040	16.952	-0.043	0.034
-596.025	-200.000	0.023	0.415
-595.011	24.850	0.117	-0.097
-593.996	85.079	-0.026	0.028
-592.982	800.000	0.010	-0.040
-591.967	-200.000	-0.005	0.165
-590.952	782.602	-0.084	-0.230
-589.938	-200.000	0.020	-0.299
-588.923	435.110	-0.077	-0.166
-587.909	11.447	-0.426	0.326
-586.894	355.794	-0.124	0.245
-585.879	115.137	-0.271	-0.329
-584.865	-162.972	0.247	0.012
-583.850	338.116	-0.059	-0.115
-582.836	544.731	-0.079	0.187
-581.821	-50.678	0.116	0.054
-580.806	-117.577	-0.370	0.066
-579.792	-64.420	0.060	0.024
-578.777	-61.546	-0.063	0.026
-577.763	-200.000	-0.016	-0.079
-576.748	59.283	0.098	0.096
-575.733	-200.000	0.038	-0.298
-574.719	-154.773	0.286	0.019
-573.704	800.000	0.056	-0.214
-572.690	-115.488	0.078	-0.015
-571.675	-66.934	-0.247	-0.097
-570.661	-23.965	0.263	-0.157
-569.646	800.000	0.038	-0.139
-568.631	-83.790	0.050	-0.016
-567.617	-93.547	-0.130	-0.036
-566.602	32.323	0.152	0.130
-565.588	103.844	-0.206	0.240
-564.573	-102.554	0.223	-0.053
-563.558	-200.000	0.014	-0.256
-562.544	-60.784	0.360	-0.152
-561.529	-171.653	0.066	0.002
-560.515	-200.000	-0.036	0.305
-559.500	800.000	0.033	0.127
-558.485	-200.000	0.015	-0.312
-557.471	17.520	-0.155	0.123
-556.456	31.680	0.249	-0.213
-555.442	-13.810	-0.119	-0.077
-554.427	12.186	-0.096	0.073
-553.412	-107.127	-0.100	0.022
-552.398	-116.551	-0.100	-0.018
-551.383	-200.000	-0.055	0.348
-550.369	-131.683	-0.207	0.027
-549.354	-200.000	0.027	0.166
-548.339	800.000	-0.041	0.116
-547.325	352.207	-0.032	0.062
-546.310	-102.878	0.247	0.058
-545.296	215.020	-0.045	0.071
-544.281	-200.000	0.007	-0.223
-543.266	-200.000	0.021	-0.353
-542.252	260.136	-0.031	-0.053
-541.237	-142.979	-0.470	-0.045
-540.223	-21.915	0.179	-0.108
-539.208	-200.000	0.005	-0.147
-538.193	-200.000	-0.023	-0.419
-537.179	-200.000	0.087	0.380
-536.164	2.153	0.060	0.043
-535.150	-130.623	-0.339	0.045
-534.135	195.909	0.128	0.194
-533.121	31.629	-0.180	-0.154
-532.106	-115.133	-0.233	-0.044
-531.091	-103.764	-0.213	-0.050
-530.077	-90.242	-0.223	0.064
-529.062	-76.846	-0.139	-0.048
-528.048	-200.000	0.025	-0.229
-527.033	-200.000	-0.007	-0.255
-526.018	-109.090	0.338	0.072
-525.004	202.880	0.116	-0.178
-523.989	-30.331	0.288	0.163
-522.975	227.428	-0.083	-0.135
-521.960	-29.772	-0.101	0.057
-520.945	800.000	-0.108	0.298
-519.931	-200.000	-0.038	0.278
-518.916	-65.327	-0.098	0.039
-517.902	-72.189	0.136	-0.050
-516.887	-79.046	-0.317	-0.107
-515.872	-119.069	0.136	-0.024
-514.858	75.221	-0.155	-0.162
-513.843	84.668	-0.190	-0.207
-512.829	-43.643	0.221	-0.111
-511.814	587.074	0.074	0.181
-510.799	-177.322	-0.189	-0.005
-509.785	51.846	-0.228	0.215
-508.770	-200.000	-0.017	-0.160
-507.756	-200.000	0.082	0.369
-506.741	370.641	-0.064	0.130
-505.726	41.773	0.249	0.224
-504.712	-30.823	-0.410	-0.230
-503.697	-145.389	0.074	0.007
-502.683	-113.393	-0.045	0.009
-501.668	-200.000	-0.032	-0.578
-500.653	154.520	0.243	-0.332
-499.639	-135.161	0.101	0.012
-498.624	-200.000	-0.004	0.153
-497.610	57.389	0.051	0.050
-496.595	733.260	-0.057	0.152
-495.581	-62.404	0.297	0.123
-494.566	-150.960	0.365	-0.027
-493.551	800.000	0.160	-0.460
-492.537	123.878	-0.029	-0.036
-491.522	-49.072	0.191	0.091
-490.508	585.755	-0.102	0.250
-489.493	-200.000	0.003	0.239
-488.478	106.977	0.183	0.216
-487.464	-64.952	-0.179	-0.072
-486.449	94.650	0.143	0.162
-485.435	145.285	-0.172	0.228
-484.420	-136.838	0.157	0.018
-483.405	5.249	-0.020	-0.014
-482.391	-200.000	0.080	-0.440
-481.376	800.000	0.125	0.501
-480.362	391.793	0.204	0.420
-479.347	524.010	0.127	-0.297
-478.332	700.178	-0.076	0.198
-477.318	46.584	-0.333	0.307
-476.303	31.227	0.096	-0.082
-475.289	379.800	0.151	-0.308
-474.274	174.194	0.188	0.270
-473.259	-174.385	0.235	0.007
-472.245	-156.667	0.172	-0.011
-471.230	145.700	0.193	-0.257
-470.216	-174.118	-0.170	-0.005
-469.201	800.000	0.045	-0.124
-468.186	800.000	-0.074	-0.224
-467.172	1.941	0.132	0.094
-466.157	-6.771	-0.265	0.179
-465.143	603.257	0.026	-0.063
-464.128	-35.783	0.170	-0.091
-463.113	-109.390	-0.479	0.101
-462.099	139.273	0.090	0.117
-461.084	-135.853	-0.326	-0.038
-460.070	800.000	0.057	-0.241
-459.055	-103.861	0.201	0.047
-458.040	-78.824	-0.103	0.035
-457.026	-25.366	-0.061	-0.036
-456.011	-80.456	-0.238	-0.079
-454.997	-42.684	0.309	-0.156
-453.982	-200.000	-0.021	-0.289
-452.968	-33.375	0.328	0.180
-451.953	226.941	0.130	-0.210
-450.938	-90.535	-0.428	-0.123
-449.924	376.121	0.136	0.275
-448.909	-175.954	0.223	-0.006
-447.895	-33.957	0.063	0.035
-446.880	342.491	-0.087	0.169
-445.865	-13.736	0.227	0.145
-444.851	54.515	-0.180	0.172
-443.836	55.896	0.022	0.022
-442.822	-200.000	0.004	-0.049
-441.807	-17.918	-0.186	-0.116
-440.792	800.000	0.023	-0.077
-439.778	-79.456	0.198	0.066
-438.763	-10.416	-0.192	0.126
-437.749	-200.000	-0.081	-0.355
-436.734	-200.000	0.007	-0.227
-435.719	-199.541	-0.483	0.002
-434.705	800.000	0.043	-0.185
-433.690	-13.778	-0.356	0.228
-432.676	-108.905	0.255	0.054
-431.661	-65.290	-0.053	-0.021
-430.646	662.223	0.020	-0.052
-429.632	-65.889	0.481	-0.190
-428.617	272.330	-0.258	-0.450
-427.603	-200.000	-0.009	-0.193
-426.588	-200.000	-0.006	0.047
-425.573	406.798	-0.115	0.241
-424.559	384.239	-0.042	0.087
-423.544	192.105	0.168	0.251
-422.530	-200.000	0.006	-0.156
-421.515	-64.394	0.281	-0.113
-420.500	-25.347	-0.188	0.110
-419.486	-12.280	0.277	-0.179
-418.471	156.701	-0.123	-0.168
-417.457	-200.000	0.033	-0.221
-416.442	-200.000	0.059	0.262
-415.428	-97.122	0.214	-0.055
-414.413	7.359	-0.069	0.051
-413.398	3.142	-0.028	-0.020
-412.384	800.000	-0.035	-0.150
-411.369	-200.000	0.000	-0.105
-410.355	-119.962	-0.239	-0.041
-409.340	-63.374	-0.310	0.126
-408.325	-161.791	-0.293	-0.015
-407.311	800.000	0.082	-0.261
-406.296	10.436	-0.214	-0.161
-405.282	-96.846	-0.324	-0.084
-404.267	5.673	0.165	0.120
-403.252	11.269	0.134	-0.101
-402.238	-43.588	0.224	-0.112
-401.223	-200.000	-0.037	-0.241
-400.209	-63.538	0.081	-0.033
-399.194	-103.402	0.062	-0.014
-398.179	-43.310	-0.266	-0.133
-397.165	12.413	0.305	-0.233
-396.150	18.400	-0.084	-0.067
-395.136	-120.772	-0.130	-0.022
-394.121	800.000	0.039	0.145
-393.106	235.367	-0.054	0.088
-392.092	166.329	-0.083	0.117
-391.077	-150.490	0.193	0.015
-390.063	-156.396	0.035	0.002
-389.048	-94.945	-0.199	0.053
-388.033	370.706	0.090	-0.181
-387.019	-200.000	-0.028	0.159
-386.004	83.172	-0.199	0.214
-384.990	-126.502	-0.143	0.021
-383.975	-200.000	-0.018	-0.192
-382.960	606.535	0.150	0.369
-381.946	70.785	0.239	-0.245
-380.931	-200.000	0.082	-0.453
-379.917	-116.299	-0.400	0.073
-378.902	-108.192	-0.358	0.076
-377.888	-19.268	0.154	-0.094
-376.873	-150.712	-0.204	0.015
-375.858	-88.799	0.171	-0.050
-374.844	-41.223	0.146	-0.074
-373.829	-96.733	-0.173	-0.045
-372.815	126.025	-0.082	0.102
-371.800	57.815	-0.078	-0.075
-370.785	-200.000	0.018	0.144
-369.771	62.828	0.187	0.185
-368.756	-200.000	-0.011	0.103
-367.742	-33.749	0.130	-0.071
-366.727	800.000	0.026	-0.082
-365.712	-47.933	-0.207	0.099
-364.698	-24.051	0.162	-0.096
-363.683	-11.994	0.127	0.082
-362.669	-64.311	0.283	-0.114
-361.654	24.877	-0.230	0.189
-360.639	-102.104	0.396	0.094
-359.625	-97.920	0.337	0.086
-358.610	79.368	0.189	0.200
-357.596	24.113	0.138	0.112
-356.581	49.242	-0.213	0.197
-355.566	216.144	0.113	-0.177
-354.552	233.464	0.121	0.197
-353.537	45.897	0.172	0.157
-352.523	20.261	-0.187	-0.149
-351.508	150.286	0.163	0.219
-350.493	10.284	0.203	-0.152
-349.479	-200.000	0.021	0.225
-348.464	-150.354	0.385	-0.029
-347.450	-27.821	-0.117	0.067
-346.435	-101.565	-0.292	0.070
-345.420	-200.000	0.032	-0.160
-344.406	108.099	0.099	-0.116
-343.391	-161.557	-0.265	-0.013
-342.377	-61.090	-0.041	-0.017
-341.362	-200.000	-0.002	0.256
-340.348	12.842	0.179	-0.136
-339.333	71.279	-0.108	0.111
-338.318	-32.268	0.167	-0.092
-337.304	-111.521	0.436	-0.088
-336.289	-63.048	0.223	0.091
-335.275	-23.918	0.231	-0.136
-334.260	-41.989	0.321	0.162
-333.245	49.677	0.333	-0.309
-332.231	-88.167	0.142	0.042
-331.216	591.833	-0.057	0.139
-330.202	169.295	0.117	-0.165
-329.187	34.276	-0.158	0.136
-328.172	-4.107	-0.307	-0.210
-327.158	-94.296	-0.086	0.023
-326.143	-92.812	-0.274	-0.076
-325.129	238.107	0.190	-0.311
-324.114	-119.552	0.286	-0.049
-323.099	-106.330	-0.178	-0.039
-322.085	77.439	-0.135	-0.142
-321.070	-40.362	-0.159	-0.082
-320.056	25.328	-0.085	0.070
-319.041	-200.000	-0.035	0.185
-318.026	-194.018	0.448	0.004
-317.012	800.000	0.043	0.153
-315.997	80.480	-0.125	0.133
-314.983	-38.158	-0.288	0.150
-313.968	-112.310	0.096	-0.019
-312.953	-200.000	0.068	0.423
-311.939	39.887	-0.090	0.080
-310.924	-109.479	-0.164	-0.034
-309.910	-200.000	0.044	0.476
-308.895	-127.784	-0.136	0.019
-307.880	-200.000	-0.007	0.092
-306.866	65.413	-0.197	0.196
-305.851	-129.907	-0.362	0.049
-304.837	-36.292	-0.122	0.065
-303.822	-72.790	0.166	-0.060
-302.807	514.138	0.037	-0.085
-301.793	-200.000	-0.045	0.309
-300.778	628.116	0.028	0.069
-299.764	93.537	0.071	0.079
-298.749	75.535	-0.039	-0.040
-297.735	43.319	0.098	-0.088
-296.720	38.588	0.097	0.085
-295.705	-73.069	0.204	-0.074
-294.691	50.581	0.273	-0.255
-293.676	535.626	-0.115	0.269
-292.662	-200.000	0.037	-0.245
-291.647	22.890	0.016	0.013
-290.632	800.000	-0.113	0.345
-289.618	-152.644	0.170	0.012
-288.603	-200.000	0.039	-0.309
-287.589	-2.330	-0.112	0.077
-286.574	-143.882	0.170	-0.016
-285.559	-164.397	0.065	0.003
-284.545	-94.930	0.326	-0.087
-283.530	214.366	0.079	-0.123
-282.516	313.110	-0.160	0.295
-281.501	-102.086	-0.154	-0.037
-280.486	-135.675	0.074	-0.009
-279.472	800.000	0.054	-0.166
-278.457	90.952	0.051	-0.056
-277.443	153.899	-0.123	-0.166
-276.428	-91.366	-0.134	0.038
-275.413	263.265	0.095	0.163
-274.399	800.000	-0.048	0.205
-273.384	-22.376	0.167	0.100
-272.370	-200.000	0.066	0.379
-271.355	-102.518	-0.166	0.039
-270.340	165.315	-0.121	-0.169
-269.326	800.000	-0.078	-0.276
-268.311	131.365	0.206	-0.261
-267.297	8.744	0.203	0.151
-266.282	188.933	0.143	-0.210
-265.267	-9.733	0.352	0.230
-264.253	-112.617	-0.361	0.071
-263.238	96.109	-0.161	-0.181
-262.224	6.092	0.020	0.015
-261.209	86.194	0.096	0.104
-260.195	-200.000	0.030	0.222
-259.180	647.640	0.042	0.106
-258.165	234.938	0.080	0.130
-257.151	-200.000	-0.122	-0.549
-256.136	-200.000	0.058	0.330
-255.122	-17.371	0.145	-0.090
-254.107	58.230	-0.131	0.126
-253.092	-24.957	0.151	-0.088
-252.078	800.000	-0.097	-0.286
-251.063	58.477	-0.109	0.105
-250.049	240.643	0.142	0.232
-249.034	-200.000	0.013	-0.092
-248.019	24.278	0.338	0.275
-247.005	-143.697	-0.205	0.019
-245.990	-144.426	0.242	-0.022
-244.976	-184.071	0.196	0.003
-243.961	1.970	0.269	0.191
-242.946	-87.159	-0.167	0.050
-241.932	135.781	0.074	0.095
-240.917	-128.948	0.176	0.024
-239.903	-36.006	0.153	0.081
-238.888	-166.817	-0.202	-0.008
-237.873	-122.645	-0.429	-0.068
-236.859	-200.000	-0.021	0.210
-235.844	800.000	-0.057	-0.171
-234.830	-184.952	-0.341	0.005
-233.815	28.243	-0.041	-0.034
-232.800	149.716	-0.118	-0.156
-231.786	-184.134	0.158	0.003
-230.771	-16.655	-0.073	-0.045
-229.757	-126.065	-0.060	-0.009
-228.742	-20.995	0.209	-0.126
-227.727	800.000	-0.069	-0.193
-226.713	515.133	-0.102	0.235
-225.698	800.000	-0.051	-0.219
-224.684	404.352	0.136	0.281
-223.669	-3.673	0.034	-0.023
-222.655	-124.744	0.147	0.022
-221.640	49.784	-0.337	-0.312
-220.625	-72.619	-0.232	-0.084
-219.611	54.120	-0.281	-0.265
-218.596	-35.713	0.055	0.029
-217.582	800.000	0.074	-0.299
-216.567	-200.000	0.013	0.067
-215.552	156.029	-0.095	0.129
-214.538	56.727	-0.267	-0.255
-213.523	-93.187	0.118	-0.032
-212.509	542.632	-0.095	0.223
-211.494	800.000	-0.045	-0.144
-210.479	-118.391	0.278	-0.048
-209.465	32.698	0.125	-0.106
-208.450	-107.150	0.457	0.099
-207.436	-26.609	-0.270	-0.155
-206.421	505.275	-0.103	0.234
-205.406	-200.000	0.013	-0.129
-204.392	162.918	-0.013	0.017
-203.377	-117.685	-0.170	0.030
-202.363	54.934	-0.241	-0.229
-201.348	-110.726	-0.055	0.011
-200.333	-107.637	0.133	0.028
-199.319	-200.000	0.026	0.254
-198.304	-200.000	0.025	-0.261
-197.290	783.907	0.121	0.325
-196.275	119.267	-0.145	0.176
-195.260	37.492	0.166	-0.145
-194.246	-146.054	0.372	-0.032
-193.231	87.375	-0.174	0.189
-192.217	-66.507	0.321	0.125
-191.202	-83.735	0.217	-0.068
-190.187	31.103	0.104	0.087
-189.173	59.220	-0.115	-0.111
-188.158	-36.555	-0.184	0.097
-187.144	91.300	0.166	0.183
-186.129	-116.787	-0.137	-0.025
-185.114	-200.000	-0.003	0.214
-184.100	-132.708	0.347	0.044
-183.085	-200.000	0.004	-0.108
-182.071	-91.721	0.139	-0.039
-181.056	-122.968	-0.106	0.017
-180.042	-200.000	-0.003	0.200
-179.027	-78.969	-0.018	0.006
-178.012	800.000	0.098	-0.296
-176.998	-21.711	-0.073	0.044
-175.983	506.314	0.131	-0.298
-174.969	-123.460	-0.369	0.058
-173.954	-200.000	-0.048	-0.243
-172.939	474.864	-0.075	0.165
-171.925	129.404	-0.054	-0.068
-170.910	-51.706	0.165	-0.075
-169.896	800.000	0.039	0.152
-168.881	150.122	-0.153	-0.204
-167.866	-49.195	-0.319	-0.150
-166.852	0.275	0.190	-0.133
-165.837	-47.101	-0.075	0.036
-164.823	134.645	0.159	0.202
-163.808	-53.781	0.049	-0.022
-162.793	-200.000	0.005	-0.263
-161.779	-49.299	0.188	0.088
-160.764	-200.000	-0.051	0.284
-159.750	-41.531	-0.450	0.227
-158.735	339.399	-0.045	-0.086
-157.720	236.107	0.010	0.016
-156.706	141.502	-0.099	0.128
-155.691	-49.482	0.233	-0.109
-154.677	-200.000	-0.007	0.118
-153.662	-200.000	-0.012	0.245
-152.647	293.746	-0.321	-0.575
-151.633	-68.651	0.285	-0.108
-150.618	41.156	0.128	-0.114
-149.604	1.299	-0.147	0.103
-148.589	184.404	0.143	-0.207
-147.574	-200.000	-0.021	-0.147
-146.560	-59.563	-0.033	-0.014
-145.545	-200.000	0.057	0.258
-144.531	-2.781	-0.194	-0.133
-143.516	7.018	0.196	-0.143
-142.502	800.000	-0.055	-0.184
-141.487	-200.000	0.003	-0.018
-140.472	696.827	-0.065	0.167
-139.458	-177.850	-0.301	0.007
-138.443	602.546	-0.103	0.251
-137.429	75.800	0.073	0.075
-136.414	-200.000	-0.018	-0.084
-135.399	132.067	0.072	0.091
-134.385	-132.563	-0.044	-0.006
-133.370	-200.000	-0.010	-0.055
-132.356	255.004	0.039	0.065
-131.341	-200.000	0.033	0.148
-130.326	-71.701	-0.385	0.140
-129.312	-46.693	0.321	0.154
-128.297	413.254	-0.061	-0.127
-127.283	294.625	0.028	-0.050
-126.268	377.677	0.158	0.315
-125.253	32.809	0.167	0.141
-124.239	-188.725	0.230	-0.003
-123.224	-128.535	-0.159	-0.022
-122.210	-68.000	0.151	0.057
-121.195	-200.000	0.014	-0.361
