DTS Sentinel unit serial number:	SN413079Multiplexer serial number:	ORYXHardware model number:	OX4-SRSoftware version number:	ORYX F/W v4.00 Oryx Data Collector v3.7.2.0data status	okinstallation	princeton_trtdifferential loss correction	single-endedforward channel	channel 2reverse channel	N/Adate	2019/09/19time	11:03:34forward acquisition time	60.00reverse acquisition time	0.00gamma	496.2192k internal	0.2341k external	0.2341temperature offset calibration	1.0008default loss term (dB/km)	0.3790temperature slope calibration	1.0000multiplexer offset coefficient	1.0000multiplexer slope coefficient	1.0000fibre end	0.00T internal ref (°C)	24.92T ext. ref 1 (°C)	0.76T ext. ref 2 (°C)	20.54length (m)	temperature (°C)	Stokes	anti-Stokes-747.200	800.000	0.113	0.317
-746.185	146.740	-0.170	0.229
-745.171	-14.952	0.265	-0.170
-744.156	46.177	0.086	-0.080
-743.142	170.367	0.075	-0.108
-742.127	800.000	0.111	0.341
-741.112	735.626	0.092	0.247
-740.098	-160.934	-0.211	0.011
-739.083	205.685	0.120	0.187
-738.069	-200.000	0.097	0.425
-737.054	561.798	-0.093	-0.226
-736.039	85.447	-0.321	-0.353
-735.025	-104.610	0.306	0.071
-734.010	80.411	-0.230	-0.248
-732.996	800.000	0.074	0.290
-731.981	774.000	-0.165	0.451
-730.966	-24.388	-0.032	0.019
-729.952	47.079	-0.051	0.047
-728.937	128.153	0.073	0.093
-727.923	60.046	-0.365	-0.361
-726.908	-200.000	-0.003	0.206
-725.894	800.000	0.051	-0.156
-724.879	-29.271	0.181	-0.104
-723.864	175.728	-0.107	-0.156
-722.850	-30.943	-0.104	-0.059
-721.835	-127.663	-0.061	-0.009
-720.821	-17.546	0.343	-0.216
-719.806	740.441	-0.065	0.175
-718.791	-200.000	0.014	0.162
-717.777	204.386	-0.059	0.092
-716.762	5.190	-0.245	0.181
-715.748	66.898	-0.182	0.185
-714.733	87.395	-0.239	0.265
-713.718	127.620	-0.072	-0.092
-712.704	-172.065	-0.236	0.008
-711.689	11.647	-0.048	0.037
-710.675	233.698	0.102	0.168
-709.660	800.000	0.007	-0.026
-708.645	717.833	0.088	-0.233
-707.631	-197.464	0.309	-0.002
-706.616	1.956	0.071	0.051
-705.602	287.449	0.032	0.058
-704.587	-24.937	-0.131	0.078
-703.572	296.558	0.133	0.245
-702.558	-114.762	-0.380	-0.073
-701.543	-200.000	0.045	0.314
-700.529	-142.753	0.174	-0.017
-699.514	383.079	0.073	0.150
-698.499	-22.916	0.361	0.218
-697.485	137.126	-0.013	-0.017
-696.470	-188.656	-0.101	0.001
-695.456	-163.432	0.542	-0.026
-694.441	-57.528	-0.192	-0.084
-693.426	-200.000	-0.035	0.299
-692.412	-147.917	-0.190	-0.016
-691.397	-115.880	0.177	-0.033
-690.383	-82.615	0.377	0.122
-689.368	-110.786	-0.056	-0.012
-688.354	-200.000	0.023	-0.123
-687.339	-1.254	0.151	-0.107
-686.324	180.923	0.093	0.137
-685.310	96.430	-0.170	0.194
-684.295	800.000	0.022	0.074
-683.281	-148.943	-0.449	-0.036
-682.266	70.558	-0.164	-0.169
-681.251	170.263	0.102	-0.145
-680.237	215.489	-0.255	0.404
-679.222	75.575	0.131	-0.139
-678.208	800.000	0.052	0.147
-677.193	-110.584	-0.175	-0.036
-676.178	6.665	-0.140	-0.104
-675.164	23.085	0.207	-0.170
-674.149	-200.000	0.002	0.071
-673.135	125.178	-0.123	-0.154
-672.120	-19.730	-0.308	0.191
-671.105	-200.000	-0.027	-0.192
-670.091	-200.000	0.021	0.210
-669.076	5.604	0.263	0.194
-668.062	181.524	-0.117	0.172
-667.047	800.000	-0.084	0.271
-666.032	237.717	-0.119	-0.197
-665.018	-200.000	-0.033	0.169
-664.003	611.565	-0.084	-0.211
-662.989	-200.000	-0.046	-0.236
-661.974	-35.834	0.245	0.132
-660.959	-200.000	0.002	-0.090
-659.945	407.469	0.125	-0.264
-658.930	35.403	0.142	0.125
-657.916	98.390	-0.036	-0.041
-656.901	157.658	-0.147	-0.203
-655.886	-51.080	-0.166	-0.078
-654.872	-50.298	-0.070	0.033
-653.857	-49.278	-0.152	0.072
-652.843	-200.000	-0.020	0.166
-651.828	-1.865	0.062	-0.044
-650.814	-104.932	-0.391	0.090
-649.799	237.056	0.185	0.305
-648.784	560.204	-0.083	0.199
-647.770	247.280	-0.187	0.315
-646.755	-91.199	-0.087	-0.025
-645.741	213.029	-0.059	-0.094
-644.726	396.932	0.084	-0.175
-643.711	-83.082	0.315	-0.101
-642.697	658.930	0.134	-0.343
-641.682	-200.000	-0.033	0.153
-640.668	-160.728	-0.260	0.014
-639.653	382.766	-0.140	-0.288
-638.638	-136.622	0.367	-0.042
-637.624	87.979	0.164	-0.181
-636.609	800.000	0.048	0.159
-635.595	-0.497	0.095	0.067
-634.580	281.841	0.030	-0.053
-633.565	-4.945	-0.276	-0.190
-632.551	-88.755	-0.100	0.030
-631.536	-200.000	-0.016	-0.076
-630.522	-65.837	0.193	0.077
-629.507	-43.323	0.085	-0.043
-628.492	6.968	-0.038	0.028
-627.478	11.529	0.132	0.101
-626.463	151.811	0.120	-0.163
-625.449	-94.845	0.065	0.018
-624.434	-200.000	0.033	-0.218
-623.419	14.215	0.247	0.192
-622.405	168.938	-0.136	0.194
-621.390	16.192	0.142	0.112
-620.376	-114.028	-0.054	-0.010
-619.361	81.620	0.027	0.029
-618.346	28.106	-0.156	0.131
-617.332	99.277	-0.120	0.138
-616.317	762.331	-0.056	0.151
-615.303	-92.093	-0.141	0.040
-614.288	41.964	0.208	0.188
-613.273	-106.483	0.505	-0.112
-612.259	800.000	0.113	-0.402
-611.244	12.270	0.135	0.103
-610.230	-26.114	0.175	0.103
-609.215	-200.000	0.024	-0.141
-608.201	-163.752	0.383	0.018
-607.186	-3.542	0.449	-0.311
-606.171	67.129	0.104	0.105
-605.157	800.000	-0.044	-0.170
-604.142	4.628	-0.138	0.101
-603.128	-140.682	-0.162	0.017
-602.113	93.749	0.044	0.050
-601.098	-95.454	-0.261	-0.070
-600.084	800.000	0.025	0.097
-599.069	9.682	0.219	0.166
-598.055	225.671	0.059	-0.095
-597.040	141.924	-0.161	-0.213
-596.025	534.908	0.137	-0.323
-595.011	-55.404	-0.086	0.038
-593.996	-200.000	0.013	-0.074
-592.982	800.000	0.063	0.205
-591.967	-17.737	0.076	0.048
-590.952	-58.137	-0.305	-0.133
-589.938	372.887	0.164	-0.333
-588.923	-200.000	0.000	0.302
-587.909	468.023	0.119	0.265
-586.894	-28.409	0.056	-0.032
-585.879	100.930	-0.248	0.287
-584.865	424.767	-0.158	-0.338
-583.850	-200.000	0.021	0.160
-582.836	800.000	-0.126	0.403
-581.821	-46.423	0.275	0.135
-580.806	-8.511	-0.188	0.126
-579.792	-7.295	-0.192	0.129
-578.777	6.969	0.063	-0.047
-577.763	86.373	0.195	-0.214
-576.748	147.976	-0.173	0.233
-575.733	-116.355	-0.338	-0.062
-574.719	800.000	0.097	-0.367
-573.704	-118.344	-0.169	0.030
-572.690	-200.000	0.005	-0.093
-571.675	23.775	-0.297	0.244
-570.661	244.990	0.111	-0.185
-569.646	138.858	0.085	-0.112
-568.631	-31.251	-0.339	0.190
-567.617	-200.000	-0.019	-0.136
-566.602	-7.399	-0.238	0.161
-565.588	294.729	0.091	-0.166
-564.573	-200.000	0.036	-0.186
-563.558	3.039	0.151	0.109
-562.544	124.389	-0.164	-0.205
-561.529	130.049	-0.085	0.108
-560.515	-200.000	0.061	-0.416
-559.500	772.491	0.070	-0.191
-558.485	308.999	-0.275	-0.511
-557.471	-102.263	0.100	0.024
-556.456	19.439	-0.207	0.165
-555.442	161.114	0.268	0.373
-554.427	113.005	0.180	0.218
-553.412	427.847	0.133	0.286
-552.398	-200.000	0.017	0.096
-551.383	-200.000	0.021	-0.157
-550.369	308.027	-0.140	-0.260
-549.354	192.993	0.068	-0.102
-548.339	28.084	-0.239	-0.201
-547.325	-107.310	0.155	-0.034
-546.310	-54.941	-0.239	0.107
-545.296	-180.662	-0.226	0.005
-544.281	-200.000	-0.005	-0.091
-543.266	387.167	0.071	0.147
-542.252	-58.504	-0.265	0.114
-541.237	452.655	-0.100	0.221
-540.223	-155.867	0.329	-0.021
-539.208	-200.000	0.042	-0.223
-538.193	-36.910	-0.237	-0.127
-537.179	800.000	-0.065	-0.207
-536.164	-75.626	-0.203	-0.072
-535.150	-200.000	0.019	-0.224
-534.135	19.493	0.355	0.284
-533.121	-200.000	-0.028	0.233
-532.106	-94.753	-0.438	-0.118
-531.091	-200.000	-0.005	-0.080
-530.077	-61.747	0.201	0.084
-529.062	-115.336	0.285	-0.054
-528.048	-98.517	-0.142	-0.036
-527.033	-132.242	0.198	-0.026
-526.018	-129.813	-0.219	-0.030
-525.004	5.219	0.306	-0.224
-523.989	800.000	-0.111	-0.346
-522.975	228.392	-0.093	0.150
-521.960	27.063	0.058	0.048
-520.945	-118.851	-0.273	-0.048
-519.931	-92.840	0.265	0.073
-518.916	-200.000	-0.055	-0.287
-517.902	-67.497	-0.160	-0.062
-516.887	800.000	-0.024	-0.070
-515.872	629.481	0.135	0.338
-514.858	115.487	-0.149	0.181
-513.843	284.737	0.026	0.047
-512.829	64.537	-0.106	-0.106
-511.814	-108.670	0.069	0.015
-510.799	-27.355	0.387	-0.223
-509.785	-31.565	-0.080	0.045
-508.770	-17.090	-0.237	-0.149
-507.756	216.985	-0.042	-0.067
-506.741	74.521	-0.353	0.369
-505.726	142.754	0.156	-0.206
-504.712	-141.863	-0.243	-0.024
-503.697	-200.000	-0.007	0.334
-502.683	-108.967	0.124	0.026
-501.668	-168.834	0.296	-0.011
-500.653	-200.000	0.004	-0.132
-499.639	253.439	-0.077	0.130
-498.624	-117.125	-0.045	-0.008
-497.610	-52.906	-0.212	-0.097
-496.595	-163.955	0.125	0.006
-495.581	-108.658	-0.411	-0.087
-494.566	-128.823	0.407	0.057
-493.551	-200.000	-0.016	0.091
-492.537	-22.981	0.289	0.173
-491.522	-200.000	-0.020	-0.181
-490.508	6.369	0.031	-0.023
-489.493	50.231	-0.072	0.068
-488.478	114.253	-0.045	-0.054
-487.464	-200.000	0.021	-0.244
-486.449	106.137	0.098	-0.115
-485.435	-200.000	-0.042	0.361
-484.420	278.079	-0.095	0.168
-483.405	170.166	0.124	-0.177
-482.391	365.140	-0.090	0.180
-481.376	-142.124	0.313	-0.031
-480.362	510.520	0.027	0.063
-479.347	-137.639	-0.339	0.038
-478.332	-166.337	-0.270	-0.011
-477.318	-43.863	0.091	0.045
-476.303	-200.000	0.028	-0.196
-475.289	-200.000	-0.004	-0.098
-474.274	10.882	-0.164	-0.125
-473.259	-200.000	0.028	-0.302
-472.245	-149.572	0.225	-0.018
-471.230	800.000	0.068	-0.187
-470.216	800.000	-0.056	-0.234
-469.201	17.849	-0.085	0.067
-468.186	-79.173	-0.139	0.047
-467.172	189.431	-0.258	-0.383
-466.157	-10.334	-0.223	-0.146
-465.143	-24.167	0.195	0.115
-464.128	800.000	-0.082	-0.241
-463.113	73.845	0.066	0.068
-462.099	215.764	-0.235	0.370
-461.084	-141.121	-0.127	-0.013
-460.070	321.803	-0.067	-0.126
-459.055	-71.312	-0.147	-0.055
-458.040	339.960	-0.101	0.194
-457.026	-200.000	-0.019	-0.133
-456.011	64.653	0.175	-0.175
-454.997	66.692	0.175	-0.177
-453.982	-200.000	0.036	-0.171
-452.968	-36.129	0.237	0.127
-451.953	-27.108	0.316	-0.183
-450.938	94.086	-0.252	-0.283
-449.924	-140.259	0.192	0.020
-448.909	5.347	-0.126	-0.092
-447.895	371.837	-0.074	-0.149
-446.880	-82.856	0.043	0.014
-445.865	277.246	-0.058	-0.101
-444.851	-200.000	-0.005	-0.213
-443.836	-200.000	0.052	-0.288
-442.822	800.000	0.023	0.066
-441.807	800.000	-0.060	-0.248
-440.792	-200.000	0.013	0.273
-439.778	-129.116	0.085	-0.012
-438.763	95.781	-0.164	-0.186
-437.749	-35.548	0.321	-0.172
-436.734	-24.915	-0.301	-0.177
-435.719	1.222	-0.268	0.191
-434.705	-108.471	0.235	0.050
-433.690	34.222	-0.303	0.262
-432.676	-200.000	-0.020	0.355
-431.661	21.710	-0.155	0.125
-430.646	-54.454	0.322	0.144
-429.632	67.597	-0.198	-0.200
-428.617	800.000	-0.066	-0.266
-427.603	119.789	-0.042	-0.051
-426.588	-200.000	0.017	0.287
-425.573	-121.722	-0.035	0.006
-424.559	-77.435	-0.237	0.081
-423.544	174.163	-0.109	0.156
-422.530	4.177	-0.280	-0.203
-421.515	-127.096	-0.170	0.025
-420.500	382.711	0.118	0.239
-419.486	-76.152	0.082	0.028
-418.471	-46.888	0.114	0.055
-417.457	37.456	0.305	-0.267
-416.442	462.409	0.075	-0.165
-415.428	-157.240	-0.255	0.015
-414.413	-200.000	0.021	0.111
-413.398	-200.000	0.038	0.197
-412.384	-200.000	0.025	0.323
-411.369	68.748	-0.133	0.135
-410.355	60.292	0.231	-0.226
-409.340	-200.000	0.010	-0.334
-408.325	-200.000	-0.035	0.222
-407.311	-200.000	-0.027	-0.386
-406.296	204.233	-0.208	-0.318
-405.282	-15.223	0.265	0.168
-404.267	-113.760	0.012	0.002
-403.252	18.232	-0.241	-0.191
-402.238	-106.503	-0.068	-0.015
-401.223	156.505	-0.076	0.104
-400.209	-79.778	-0.196	0.065
-399.194	160.041	0.066	0.091
-398.179	-100.755	-0.187	0.046
-397.165	800.000	0.067	0.218
-396.150	229.455	0.109	0.176
-395.136	212.325	-0.117	-0.182
-394.121	-34.355	-0.140	0.076
-393.106	-3.290	0.050	0.035
-392.092	800.000	0.035	0.125
-391.077	-200.000	-0.005	0.054
-390.063	592.925	0.061	0.150
-389.048	190.499	0.210	0.312
-388.033	800.000	0.048	0.183
-387.019	16.226	0.016	0.012
-386.004	422.043	-0.154	-0.327
-384.990	11.832	-0.108	-0.082
-383.975	455.129	0.086	0.188
-382.960	-200.000	0.001	0.256
-381.946	196.667	0.136	-0.204
-380.931	-200.000	0.046	0.268
-379.917	-145.462	-0.023	-0.002
-378.902	109.105	-0.104	-0.123
-377.888	-117.444	0.103	-0.018
-376.873	-28.258	0.078	-0.044
-375.858	647.126	-0.085	-0.215
-374.844	80.570	-0.200	-0.213
-373.829	158.170	0.073	-0.100
-372.815	553.570	0.118	-0.281
-371.800	-200.000	0.022	-0.263
-370.785	-82.255	-0.094	-0.030
-369.771	-200.000	0.005	0.248
-368.756	377.688	0.257	-0.519
-367.742	-200.000	0.006	0.091
-366.727	-200.000	-0.001	0.221
-365.712	-106.413	0.243	-0.054
-364.698	30.225	-0.131	0.111
-363.683	-118.558	0.027	-0.005
-362.669	-14.280	-0.262	0.167
-361.654	184.003	0.106	-0.155
-360.639	800.000	0.061	-0.215
-359.625	-50.990	-0.075	-0.035
-358.610	-200.000	0.004	-0.141
-357.596	63.721	0.058	-0.058
-356.581	76.304	-0.208	-0.218
-355.566	800.000	0.027	0.079
-354.552	800.000	0.044	-0.129
-353.537	111.968	-0.123	-0.147
-352.523	523.743	-0.103	0.238
-351.508	-99.128	-0.101	-0.025
-350.493	-200.000	0.026	-0.276
-349.479	41.157	-0.070	-0.063
-348.464	-127.153	-0.049	0.007
-347.450	-161.640	-0.286	0.014
-346.435	768.412	0.041	-0.109
-345.420	-93.888	-0.210	-0.057
-344.406	-129.155	-0.326	0.045
-343.391	800.000	0.142	0.495
-342.377	-200.000	0.037	0.186
-341.362	96.726	-0.119	-0.135
-340.348	-57.953	0.348	-0.150
-339.333	69.416	0.180	-0.183
-338.318	129.217	-0.060	-0.075
-337.304	135.903	0.076	-0.098
-336.289	-73.044	0.147	-0.053
-335.275	83.397	0.083	-0.089
-334.260	151.539	-0.020	-0.027
-333.245	-143.010	-0.091	0.009
-332.231	15.783	0.148	0.115
-331.216	-27.152	0.182	0.105
-330.202	-41.780	-0.159	0.080
-329.187	-111.844	0.426	0.085
-328.172	-76.362	-0.381	-0.132
-327.158	-108.519	0.354	0.075
-326.143	190.694	-0.110	-0.164
-325.129	-4.930	0.090	-0.061
-324.114	-200.000	0.011	-0.048
-323.099	-160.921	-0.093	-0.005
-322.085	2.214	-0.132	-0.094
-321.070	18.054	0.230	-0.181
-320.056	-200.000	-0.005	-0.105
-319.041	-139.677	-0.460	-0.048
-318.026	-2.450	-0.142	-0.098
-317.012	-200.000	0.006	0.030
-315.997	27.275	0.167	0.138
-314.983	800.000	-0.076	0.212
-313.968	-200.000	0.022	-0.097
-312.953	-119.123	0.313	0.054
-311.939	-200.000	0.020	-0.202
-310.924	63.795	0.156	0.155
-309.910	1.273	0.087	-0.062
-308.895	-92.235	0.089	-0.025
-307.880	-88.983	0.139	-0.040
-306.866	-122.043	0.205	-0.033
-305.851	-142.196	-0.243	0.024
-304.837	-16.646	0.083	-0.052
-303.822	604.400	0.125	0.306
-302.807	110.316	-0.194	0.229
-301.793	-200.000	0.009	-0.093
-300.778	-171.729	-0.145	-0.005
-299.764	-200.000	-0.019	0.258
-298.749	800.000	-0.088	0.335
-297.735	-71.842	-0.190	0.070
-296.720	800.000	0.102	0.350
-295.705	14.658	-0.359	0.276
-294.691	800.000	-0.031	-0.129
-293.676	-200.000	0.022	0.170
-292.662	-131.844	-0.193	0.025
-291.647	-30.937	0.126	0.070
-290.632	186.323	-0.180	-0.264
-289.618	800.000	-0.031	-0.093
-288.603	-38.110	-0.301	0.157
-287.589	-5.942	-0.157	-0.106
-286.574	-69.712	0.087	-0.033
-285.559	-92.220	-0.255	0.071
-284.545	-106.557	-0.309	-0.068
-283.530	22.145	0.154	0.124
-282.516	-81.372	-0.247	0.080
-281.501	-200.000	0.063	-0.347
-280.486	-73.228	-0.123	0.044
-279.472	-140.586	-0.245	0.025
-278.457	-70.165	0.247	-0.092
-277.443	-2.834	-0.062	-0.043
-276.428	-200.000	0.030	0.328
-275.413	391.961	-0.078	-0.160
-274.399	-70.803	0.184	-0.068
-273.384	-75.385	-0.188	-0.066
-272.370	-95.760	0.255	-0.067
-271.355	-172.059	-0.312	0.010
-270.340	-75.333	-0.129	-0.045
-269.326	-200.000	0.023	0.124
-268.311	150.213	-0.143	-0.191
-267.297	-32.943	0.359	0.196
-266.282	-38.508	-0.292	0.152
-265.267	105.594	-0.096	-0.111
-264.253	-200.000	0.009	-0.121
-263.238	95.009	0.153	0.171
-262.224	37.479	-0.017	-0.015
-261.209	800.000	0.103	0.305
-260.195	226.887	-0.123	-0.196
-259.180	255.285	-0.238	0.401
-258.165	129.319	0.078	0.098
-257.151	396.305	0.150	0.307
-256.136	102.197	-0.269	-0.309
-255.122	22.946	0.138	0.112
-254.107	800.000	-0.020	-0.086
-253.092	-114.792	0.218	0.041
-252.078	-200.000	-0.034	0.211
-251.063	168.645	-0.179	0.250
-250.049	-21.202	0.292	0.175
-249.034	-200.000	-0.009	0.072
-248.019	476.111	-0.076	0.169
-247.005	15.931	-0.116	0.089
-245.990	800.000	0.086	0.267
-244.976	-10.001	0.288	-0.188
-243.961	543.929	-0.076	-0.178
-242.946	207.892	0.095	-0.146
-241.932	-96.862	0.337	-0.087
-240.917	315.549	-0.178	-0.331
-239.903	501.685	-0.083	-0.188
-238.888	800.000	0.106	-0.308
-237.873	176.387	-0.053	0.075
-236.859	-158.388	-0.250	0.014
-235.844	-143.476	-0.233	0.022
-234.830	-131.052	0.309	-0.040
-233.815	-22.710	0.099	-0.059
-232.800	-200.000	-0.018	0.200
-231.786	800.000	-0.028	0.114
-230.771	282.881	0.254	0.448
-229.757	-4.832	0.361	0.244
-228.742	195.159	0.178	0.266
-227.727	-72.445	0.562	-0.204
-226.713	-55.595	0.130	0.057
-225.698	-147.634	-0.191	-0.016
-224.684	-60.298	0.096	0.040
-223.669	-41.857	-0.101	0.051
-222.655	-89.600	0.117	0.034
-221.640	-0.809	0.111	0.077
-220.625	-125.585	0.605	-0.090
-219.611	-200.000	-0.004	-0.179
-218.596	55.209	0.040	0.038
-217.582	-190.301	0.308	0.003
-216.567	-3.850	-0.093	-0.063
-215.552	-64.015	-0.207	-0.083
-214.538	-41.760	0.340	-0.171
-213.523	-19.037	0.151	0.092
-212.509	-173.776	0.315	-0.009
-211.494	137.075	0.058	0.075
-210.479	-200.000	-0.016	0.207
-209.465	-108.825	-0.209	0.044
-208.450	695.113	0.094	0.242
-207.436	-25.615	0.283	0.164
-206.421	-155.557	0.145	0.009
-205.406	-200.000	-0.046	0.231
-204.392	-200.000	-0.024	-0.313
-203.377	-114.729	0.233	0.044
-202.363	69.066	0.286	0.289
-201.348	40.157	-0.159	0.140
-200.333	227.675	0.127	0.203
-199.319	329.658	0.135	-0.254
-198.304	-159.568	0.161	-0.009
-197.290	-132.500	-0.334	-0.042
-196.275	-12.588	-0.075	0.048
-195.260	-200.000	-0.001	-0.120
-194.246	-200.000	-0.007	0.200
-193.231	-131.895	-0.148	-0.019
-192.217	287.222	0.075	0.132
-191.202	-200.000	-0.021	-0.163
-190.187	-26.674	-0.269	0.154
-189.173	562.665	0.023	-0.053
-188.158	223.393	-0.257	0.407
-187.144	319.476	-0.108	-0.202
-186.129	357.995	-0.095	-0.186
-185.114	-99.360	0.362	0.089
-184.100	-200.000	0.024	-0.171
-183.085	800.000	0.070	0.293
-182.071	-170.595	-0.179	0.006
-181.056	-155.893	0.129	0.008
-180.042	-200.000	-0.012	-0.167
-179.027	800.000	0.113	0.351
-178.012	-101.016	0.131	-0.031
-176.998	711.806	0.020	0.053
-175.983	32.652	-0.245	-0.208
-174.969	-200.000	-0.055	0.363
-173.954	578.430	0.030	-0.071
-172.939	219.148	-0.128	0.200
-171.925	-178.040	0.146	0.003
-170.910	-17.375	0.075	0.046
-169.896	127.415	-0.143	-0.178
-168.881	64.554	0.016	-0.016
-167.866	800.000	0.034	0.105
-166.852	117.108	0.166	0.200
-165.837	800.000	-0.150	0.446
-164.823	-5.029	0.255	0.172
-163.808	79.938	-0.047	-0.050
-162.793	-173.697	0.362	0.011
-161.779	-173.112	-0.173	-0.005
-160.764	-119.059	0.153	0.026
-159.750	-123.066	-0.035	-0.005
-158.735	-112.358	-0.255	-0.050
-157.720	60.550	-0.031	-0.030
-156.706	63.522	0.167	-0.165
-155.691	-177.493	-0.538	0.013
-154.677	-87.812	0.227	-0.067
-153.662	-110.161	-0.382	0.078
-152.647	-200.000	-0.020	-0.255
-151.633	-15.140	0.153	-0.096
-150.618	-25.036	0.265	-0.154
-149.604	-200.000	-0.063	-0.499
-148.589	19.992	-0.143	-0.113
-147.574	-36.928	0.191	0.100
-146.560	103.407	-0.043	0.050
-145.545	679.494	0.036	0.091
-144.531	-200.000	0.034	0.456
-143.516	369.551	-0.045	-0.088
-142.502	-116.675	-0.268	-0.048
-141.487	-200.000	0.029	-0.578
-140.472	-153.783	-0.235	0.016
-139.458	726.803	-0.005	0.014
-138.443	-119.035	-0.328	-0.056
-137.429	800.000	0.036	-0.130
-136.414	90.010	-0.031	-0.034
-135.399	-34.160	0.144	-0.078
-134.385	800.000	0.008	0.026
-133.370	-146.861	-0.412	0.035
-132.356	197.038	-0.095	-0.142
-131.341	-135.010	0.387	0.046
-130.326	29.819	-0.173	0.144
-129.312	-9.339	0.347	0.227
-128.297	153.946	-0.091	-0.122
-127.283	21.360	-0.182	-0.145
-126.268	50.094	0.067	0.062
-125.253	222.438	0.195	0.307
-124.239	20.618	-0.081	0.064
-123.224	-61.007	0.089	-0.037
-122.210	800.000	0.062	0.226
-121.195	303.120	0.114	-0.207
