DTS Sentinel unit serial number:	SN413079Multiplexer serial number:	ORYXHardware model number:	OX4-SRSoftware version number:	ORYX F/W v4.00 Oryx Data Collector v3.7.2.0data status	okinstallation	princeton_trtdifferential loss correction	single-endedforward channel	channel 2reverse channel	N/Adate	2019/09/18time	18:27:35forward acquisition time	60.00reverse acquisition time	0.00gamma	496.2192k internal	0.2307k external	0.2307temperature offset calibration	1.0022default loss term (dB/km)	0.3790temperature slope calibration	1.0000multiplexer offset coefficient	1.0000multiplexer slope coefficient	1.0000fibre end	0.00T internal ref (°C)	38.45T ext. ref 1 (°C)	0.93T ext. ref 2 (°C)	31.08length (m)	temperature (°C)	Stokes	anti-Stokes-747.200	83.952	0.172	0.191
-746.185	-200.000	0.050	0.379
-745.171	177.075	-0.246	-0.365
-744.156	39.976	0.100	0.091
-743.142	-1.719	-0.412	0.295
-742.127	473.471	-0.130	0.297
-741.112	-154.308	-0.361	-0.025
-740.098	569.784	-0.004	-0.011
-739.083	-200.000	-0.014	-0.113
-738.069	155.325	-0.052	-0.073
-737.054	0.093	0.186	0.135
-736.039	-97.671	0.215	-0.057
-735.025	34.742	0.059	0.053
-734.010	-68.382	-0.305	-0.120
-732.996	-141.355	-0.356	-0.037
-731.981	398.205	-0.149	0.317
-730.966	29.282	-0.260	-0.225
-729.952	493.380	0.062	-0.144
-728.937	206.831	-0.160	-0.254
-727.923	-132.549	-0.496	-0.065
-726.908	-85.299	0.296	-0.094
-725.894	-91.779	0.094	0.027
-724.879	-78.513	-0.358	-0.125
-723.864	800.000	-0.061	-0.188
-722.850	170.025	0.040	-0.059
-721.835	15.188	0.127	-0.101
-720.821	161.938	-0.089	-0.127
-719.806	167.301	-0.159	-0.229
-718.791	-24.304	0.393	0.238
-717.777	591.074	0.018	0.045
-716.762	-113.536	0.130	-0.026
-715.748	-112.595	-0.183	0.037
-714.733	-129.102	-0.452	-0.064
-713.718	295.319	-0.127	-0.237
-712.704	-25.998	-0.166	-0.099
-711.689	-1.787	-0.406	-0.290
-710.675	800.000	0.126	-0.392
-709.660	276.639	0.107	-0.192
-708.645	-6.012	-0.229	-0.159
-707.631	-200.000	-0.016	0.315
-706.616	-165.613	0.149	-0.007
-705.602	-124.789	-0.246	0.039
-704.587	313.941	-0.129	-0.246
-703.572	-60.899	0.132	-0.056
-702.558	-7.466	-0.275	0.189
-701.543	-200.000	0.019	0.198
-700.529	-118.718	0.163	-0.029
-699.514	-83.485	0.385	-0.125
-698.499	-161.512	-0.299	-0.016
-697.485	95.777	-0.094	-0.109
-696.470	200.869	0.122	-0.190
-695.456	-200.000	0.012	-0.067
-694.441	800.000	-0.067	-0.284
-693.426	800.000	-0.064	-0.183
-692.412	123.756	0.243	0.310
-691.397	-83.214	-0.343	-0.112
-690.383	162.756	-0.260	0.370
-689.368	62.162	-0.188	0.190
-688.354	62.092	0.103	-0.104
-687.339	-170.196	0.371	0.013
-686.324	-62.990	-0.107	0.045
-685.310	31.188	-0.064	-0.056
-684.295	-22.683	-0.270	0.166
-683.281	-44.509	-0.252	0.128
-682.266	220.903	0.163	-0.266
-681.251	53.715	-0.054	0.053
-680.237	-112.556	0.348	-0.070
-679.222	323.020	-0.050	0.098
-678.208	-69.322	0.191	0.074
-677.193	-76.295	-0.306	-0.109
-676.178	-200.000	0.029	-0.181
-675.164	-26.862	-0.136	-0.081
-674.149	-65.360	0.230	0.094
-673.135	800.000	0.139	0.483
-672.120	-168.628	0.221	-0.009
-671.105	-103.102	0.133	0.032
-670.091	800.000	-0.046	-0.154
-669.076	-200.000	-0.017	0.081
-668.062	-45.447	0.363	-0.183
-667.047	-59.965	-0.212	0.092
-666.032	66.952	0.142	-0.147
-665.018	-200.000	-0.000	-0.342
-664.003	211.971	-0.244	-0.389
-662.989	-200.000	0.013	-0.137
-661.974	-56.613	-0.167	0.075
-660.959	-144.131	-0.217	-0.021
-659.945	5.659	0.097	0.073
-658.930	800.000	-0.065	0.190
-657.916	-200.000	0.080	-0.358
-656.901	217.946	-0.152	-0.247
-655.886	108.806	-0.074	-0.090
-654.872	-85.965	0.056	-0.018
-653.857	-149.419	0.141	0.011
-652.843	-126.977	-0.351	-0.052
-651.828	-121.173	-0.121	0.021
-650.814	40.187	0.226	0.206
-649.799	394.061	-0.022	-0.047
-648.784	-137.862	-0.119	0.013
-647.770	294.934	-0.028	-0.052
-646.755	124.383	-0.162	0.207
-645.741	-200.000	0.005	0.329
-644.726	108.825	-0.145	0.175
-643.711	-83.584	-0.423	0.137
-642.697	36.507	0.248	0.222
-641.682	-101.705	-0.056	-0.014
-640.668	-200.000	-0.002	-0.067
-639.653	175.166	0.087	0.128
-638.638	242.638	0.162	0.274
-637.624	-200.000	-0.000	0.035
-636.609	800.000	-0.020	-0.074
-635.595	800.000	-0.061	-0.227
-634.580	-153.173	0.187	-0.013
-633.565	-87.787	0.058	0.018
-632.551	-128.269	0.359	0.052
-631.536	-30.353	0.249	-0.143
-630.522	800.000	0.045	0.185
-629.507	-42.456	-0.112	0.058
-628.492	-7.864	-0.102	-0.069
-627.478	-66.428	0.329	-0.132
-626.463	-200.000	0.049	0.312
-625.449	-200.000	0.028	-0.207
-624.434	87.630	-0.064	0.072
-623.419	800.000	0.017	-0.049
-622.405	427.006	0.211	-0.460
-621.390	-76.552	0.083	-0.029
-620.376	134.473	0.021	0.028
-619.361	-161.300	-0.149	0.008
-618.346	16.850	-0.154	0.123
-617.332	-200.000	-0.031	-0.267
-616.317	72.133	0.255	0.268
-615.303	-64.725	-0.231	-0.095
-614.288	800.000	0.008	-0.024
-613.273	-116.119	-0.066	-0.012
-612.259	-114.209	-0.280	-0.055
-611.244	-37.010	0.123	-0.067
-610.230	591.269	0.056	-0.139
-609.215	207.444	0.106	-0.167
-608.201	-72.844	-0.142	0.053
-607.186	-200.000	-0.040	-0.197
-606.171	99.770	0.134	-0.157
-605.157	12.469	0.171	0.133
-604.142	339.188	-0.155	0.305
-603.128	411.506	-0.067	-0.144
-602.113	31.003	-0.147	-0.127
-601.098	-116.042	-0.037	-0.007
-600.084	-136.886	0.411	-0.048
-599.069	31.880	0.205	0.179
-598.055	-200.000	-0.026	0.232
-597.040	-160.012	0.157	-0.009
-596.025	800.000	0.041	-0.173
-595.011	-8.594	-0.130	0.089
-593.996	-28.228	-0.224	-0.131
-592.982	-136.795	-0.145	0.017
-591.967	-75.293	0.361	-0.130
-590.952	-45.784	-0.467	0.233
-589.938	157.961	-0.275	-0.386
-588.923	221.250	-0.105	-0.170
-587.909	-200.000	0.010	0.270
-586.894	161.329	-0.018	0.025
-585.879	111.708	0.118	0.144
-584.865	12.316	0.202	-0.157
-583.850	-144.208	0.046	-0.004
-582.836	502.550	0.042	0.098
-581.821	30.391	-0.148	-0.128
-580.806	46.846	-0.053	-0.049
-579.792	-159.183	0.435	0.025
-578.777	2.242	-0.318	-0.232
-577.763	-200.000	0.029	0.151
-576.748	-57.277	-0.016	-0.007
-575.733	-83.167	0.147	0.048
-574.719	120.407	-0.059	0.074
-573.704	38.731	0.174	-0.157
-572.690	800.000	0.017	-0.058
-571.675	64.698	0.170	-0.173
-570.661	-144.996	-0.194	-0.018
-569.646	-10.294	0.140	-0.094
-568.631	411.671	-0.148	0.318
-567.617	589.710	0.097	0.241
-566.602	-200.000	-0.007	0.075
-565.588	323.145	0.124	0.238
-564.573	-200.000	-0.058	-0.309
-563.558	-200.000	0.045	0.356
-562.544	800.000	0.094	-0.362
-561.529	54.752	-0.141	-0.138
-560.515	24.277	0.311	0.259
-559.500	-200.000	-0.036	-0.326
-558.485	606.386	-0.090	0.227
-557.471	16.008	0.054	0.043
-556.456	268.561	0.185	0.328
-555.442	237.643	0.021	0.035
-554.427	-200.000	-0.044	-0.219
-553.412	800.000	-0.064	-0.265
-552.398	89.364	0.229	-0.258
-551.383	-35.669	-0.247	0.135
-550.369	-96.699	0.121	-0.032
-549.354	800.000	0.070	-0.236
-548.339	266.017	-0.215	-0.378
-547.325	-200.000	0.015	0.279
-546.310	-114.458	-0.211	-0.041
-545.296	-133.613	0.238	-0.030
-544.281	108.736	-0.169	0.204
-543.266	187.372	-0.116	0.174
-542.252	320.287	0.052	0.099
-541.237	-61.035	0.108	0.046
-540.223	-200.000	-0.061	-0.430
-539.208	-13.776	-0.265	-0.173
-538.193	800.000	-0.022	-0.066
-537.179	360.750	0.020	0.041
-536.164	9.881	-0.242	-0.185
-535.150	1.995	-0.197	0.144
-534.135	197.770	-0.127	-0.196
-533.121	-56.294	0.340	-0.153
-532.106	-67.497	0.109	-0.043
-531.091	96.884	-0.183	-0.212
-530.077	76.664	-0.136	0.145
-529.062	-183.113	0.271	0.005
-528.048	329.347	0.096	0.186
-527.033	61.626	-0.106	0.106
-526.018	320.673	-0.024	-0.046
-525.004	-106.179	0.191	-0.043
-523.989	-200.000	0.005	-0.387
-522.975	-200.000	-0.031	-0.208
-521.960	-200.000	0.044	-0.212
-520.945	19.346	0.063	-0.051
-519.931	-56.107	-0.299	0.134
-518.916	-80.017	-0.177	0.060
-517.902	-200.000	-0.026	0.329
-516.887	-118.456	-0.127	0.023
-515.872	-88.546	0.242	-0.073
-514.858	511.321	-0.051	0.120
-513.843	-17.735	-0.307	-0.194
-512.829	261.679	0.130	0.227
-511.814	-78.682	0.259	-0.089
-510.799	93.630	-0.184	-0.210
-509.785	-33.304	-0.172	0.096
-508.770	389.329	-0.055	0.115
-507.756	77.586	0.090	-0.097
-506.741	402.649	0.147	0.310
-505.726	-51.478	0.148	-0.070
-504.712	-131.941	0.293	-0.039
-503.697	-188.824	0.105	0.001
-502.683	-57.029	-0.135	0.060
-501.668	-8.443	0.431	0.292
-500.653	-87.995	-0.069	-0.021
-499.639	-40.277	-0.218	0.114
-498.624	154.317	0.223	-0.308
-497.610	-169.794	0.296	-0.011
-496.595	-200.000	-0.033	-0.318
-495.581	73.491	0.157	0.166
-494.566	308.710	-0.109	0.205
-493.551	-200.000	-0.003	0.081
-492.537	-121.218	0.419	0.071
-491.522	-200.000	0.004	0.077
-490.508	800.000	0.041	0.130
-489.493	19.726	0.190	0.154
-488.478	800.000	-0.133	0.418
-487.464	97.130	0.089	0.103
-486.449	-200.000	-0.014	0.247
-485.435	-182.559	-0.147	-0.003
-484.420	87.598	0.299	0.333
-483.405	-19.333	-0.065	-0.041
-482.391	-41.692	-0.210	-0.109
-481.376	800.000	0.042	-0.149
-480.362	-200.000	-0.042	-0.218
-479.347	-67.100	0.280	-0.111
-478.332	30.822	-0.214	-0.184
-477.318	83.314	-0.024	-0.026
-476.303	55.991	0.197	0.192
-475.289	52.589	0.089	0.086
-474.274	177.864	-0.055	-0.081
-473.259	-199.537	-0.590	0.003
-472.245	-200.000	0.009	-0.157
-471.230	-9.455	-0.206	-0.139
-470.216	-200.000	-0.043	0.247
-469.201	-140.809	-0.192	-0.020
-468.186	800.000	-0.025	-0.080
-467.172	-142.025	-0.186	0.019
-466.157	-171.345	0.390	-0.013
-465.143	-106.216	0.085	0.019
-464.128	-62.357	-0.209	-0.088
-463.113	-6.205	-0.529	0.363
-462.099	-200.000	-0.020	0.200
-461.084	151.608	0.144	-0.197
-460.070	800.000	-0.070	0.223
-459.055	454.609	0.121	-0.270
-458.040	-31.527	-0.092	0.052
-457.026	336.809	0.101	-0.197
-456.011	-200.000	-0.060	-0.378
-454.997	-54.294	0.329	0.150
-453.982	453.574	-0.050	0.110
-452.968	-52.582	-0.155	-0.072
-451.953	629.543	-0.049	0.123
-450.938	174.311	-0.024	0.036
-449.924	-200.000	-0.007	-0.038
-448.909	-5.879	-0.165	0.114
-447.895	-200.000	0.009	-0.187
-446.880	-57.556	0.171	-0.075
-445.865	114.512	-0.238	0.292
-444.851	451.128	-0.062	0.138
-443.836	288.135	0.041	-0.074
-442.822	37.898	0.150	-0.134
-441.807	-26.293	-0.227	-0.134
-440.792	-200.000	0.024	-0.124
-439.778	-200.000	-0.004	-0.217
-438.763	-151.869	-0.352	0.026
-437.749	-200.000	0.021	0.124
-436.734	229.845	0.059	0.097
-435.719	-94.967	0.070	-0.019
-434.705	-180.495	-0.152	-0.003
-433.690	-92.989	-0.285	-0.080
-432.676	118.740	0.202	-0.251
-431.661	-45.764	-0.275	-0.136
-430.646	-91.193	0.088	-0.025
-429.632	800.000	-0.037	-0.126
-428.617	-9.223	-0.207	-0.139
-427.603	109.285	-0.248	-0.298
-426.588	-44.755	-0.174	-0.087
-425.573	205.659	0.073	-0.114
-424.559	695.834	0.054	-0.142
-423.544	800.000	-0.034	0.108
-422.530	-151.138	-0.161	0.012
-421.515	-138.191	0.390	0.043
-420.500	800.000	0.060	0.198
-419.486	10.985	-0.269	0.206
-418.471	182.734	0.086	-0.127
-417.457	117.508	0.307	-0.379
-416.442	-200.000	0.004	-0.206
-415.428	-200.000	-0.011	0.192
-414.413	-200.000	0.007	0.193
-413.398	448.530	-0.147	0.325
-412.384	115.906	-0.178	-0.219
-411.369	-200.000	-0.015	-0.212
-410.355	576.807	-0.114	-0.279
-409.340	-56.789	0.321	-0.142
-408.325	-56.268	0.416	0.186
-407.311	278.145	0.106	0.190
-406.296	-200.000	-0.045	0.225
-405.282	555.739	-0.132	0.318
-404.267	80.415	0.110	0.119
-403.252	-23.256	-0.190	-0.115
-402.238	38.835	-0.082	0.073
-401.223	-42.084	0.028	-0.014
-400.209	23.050	0.286	0.235
-399.194	144.801	0.114	-0.153
-398.179	-200.000	0.012	-0.113
-397.165	132.204	-0.106	-0.137
-396.150	182.266	-0.076	-0.113
-395.136	-200.000	0.010	-0.180
-394.121	34.648	-0.136	0.119
-393.106	-85.355	0.347	0.108
-392.092	-41.536	0.458	-0.236
-391.077	-11.982	0.224	-0.147
-390.063	-146.083	0.021	-0.002
-389.048	61.608	0.180	-0.179
-388.033	42.635	-0.167	0.153
-387.019	-200.000	-0.061	0.507
-386.004	21.675	-0.087	0.071
-384.990	300.710	0.110	-0.203
-383.975	83.350	-0.107	-0.117
-382.960	-31.092	0.219	0.124
-381.946	-67.474	0.255	-0.100
-380.931	399.392	-0.052	0.110
-379.917	-117.114	-0.204	-0.037
-378.902	5.100	-0.079	0.058
-377.888	-14.949	0.133	-0.085
-376.873	-125.581	0.340	-0.052
-375.858	-78.081	0.080	0.028
-374.844	206.949	0.062	0.098
-373.829	372.344	-0.090	0.183
-372.815	151.365	0.080	0.109
-371.800	-46.458	-0.135	0.066
-370.785	800.000	-0.106	-0.378
-369.771	722.379	0.109	-0.290
-368.756	-19.789	-0.129	-0.080
-367.742	53.202	0.079	0.076
-366.727	-175.817	0.114	0.003
-365.712	-200.000	0.059	-0.284
-364.698	108.708	-0.118	0.141
-363.683	800.000	-0.025	0.107
-362.669	53.210	-0.226	0.217
-361.654	95.569	-0.240	-0.274
-360.639	27.154	0.269	0.226
-359.625	-200.000	0.009	-0.221
-358.610	515.774	-0.120	0.281
-357.596	-98.836	-0.101	0.026
-356.581	69.212	-0.130	-0.134
-355.566	338.231	0.094	0.184
-354.552	-36.601	0.189	0.102
-353.537	-181.396	0.254	0.005
-352.523	-19.442	-0.119	-0.074
-351.508	-198.429	-0.096	0.001
-350.493	800.000	-0.172	-0.538
-349.479	800.000	-0.083	-0.274
-348.464	-70.271	-0.026	0.010
-347.450	146.690	-0.238	0.320
-346.435	-172.591	-0.243	0.008
-345.420	-200.000	-0.007	0.166
-344.406	-200.000	-0.015	0.110
-343.391	682.474	-0.059	-0.153
-342.377	561.923	0.089	-0.216
-341.362	12.019	0.118	0.091
-340.348	-62.563	-0.169	-0.070
-339.333	800.000	0.012	0.046
-338.318	106.372	0.083	0.099
-337.304	-117.881	-0.154	-0.028
-336.289	800.000	-0.075	-0.218
-335.275	-37.132	0.480	0.257
-334.260	800.000	-0.035	0.128
-333.245	-196.524	0.249	-0.002
-332.231	60.810	-0.316	0.313
-331.216	25.187	0.122	0.102
-330.202	800.000	-0.020	-0.082
-329.187	-123.144	-0.202	-0.032
-328.172	214.723	-0.055	0.087
-327.158	-1.354	-0.154	-0.109
-326.143	536.739	-0.160	0.381
-325.129	-86.933	-0.277	-0.085
-324.114	450.427	-0.118	0.261
-323.099	-200.000	0.001	0.084
-322.085	-62.834	0.410	-0.170
-321.070	-6.394	0.035	0.024
-320.056	309.856	-0.110	0.206
-319.041	-83.307	-0.113	-0.036
-318.026	-200.000	0.004	-0.108
-317.012	82.750	-0.088	-0.096
-315.997	-125.543	-0.196	0.030
-314.983	-155.644	-0.260	-0.017
-313.968	-127.455	0.213	-0.031
-312.953	-97.332	0.214	0.056
-311.939	-100.841	-0.151	-0.037
-310.924	-200.000	0.009	0.097
-309.910	85.348	0.080	-0.088
-308.895	-200.000	0.069	0.317
-307.880	-78.474	0.141	0.048
-306.866	-200.000	-0.006	0.129
-305.851	228.029	0.136	0.221
-304.837	800.000	0.125	0.510
-303.822	-144.533	0.073	0.007
-302.807	-124.389	0.271	-0.042
-301.793	-115.956	0.250	-0.047
-300.778	12.154	-0.095	0.073
-299.764	412.681	0.151	-0.320
-298.749	-106.678	0.367	0.081
-297.735	-26.371	0.097	0.057
-296.720	704.786	0.175	0.461
-295.705	-41.833	0.276	0.141
-294.691	-12.898	-0.192	0.125
-293.676	-115.758	-0.386	-0.072
-292.662	-166.925	-0.278	0.011
-291.647	-55.990	0.102	0.045
-290.632	467.395	-0.108	0.241
-289.618	-143.816	-0.319	0.030
-288.603	-200.000	-0.065	0.413
-287.589	131.440	0.045	-0.058
-286.574	-69.202	-0.132	0.051
-285.559	224.787	-0.076	0.123
-284.545	762.429	-0.099	0.270
-283.530	-200.000	0.019	-0.324
-282.516	-21.608	0.322	-0.196
-281.501	-200.000	-0.081	-0.395
-280.486	-77.390	-0.092	0.032
-279.472	-129.766	0.159	0.022
-278.457	-115.736	0.166	0.031
-277.443	-29.862	-0.230	-0.131
-276.428	-153.329	-0.255	-0.018
-275.413	800.000	-0.021	0.061
-274.399	29.945	-0.113	0.096
-273.384	85.973	0.075	0.082
-272.370	2.208	0.219	-0.158
-271.355	-200.000	0.023	-0.244
-270.340	-15.384	-0.100	0.064
-269.326	106.234	0.119	-0.141
-268.311	-159.557	-0.210	-0.012
-267.297	-113.535	0.183	0.036
-266.282	-14.079	-0.143	-0.092
-265.267	-154.161	-0.306	-0.021
-264.253	-113.208	-0.063	-0.012
-263.238	44.009	0.117	0.107
-262.224	-21.073	0.076	0.046
-261.209	800.000	-0.047	0.138
-260.195	800.000	0.038	-0.117
-259.180	-200.000	0.030	-0.544
-258.165	169.259	0.220	-0.313
-257.151	-146.615	0.338	-0.029
-256.136	800.000	-0.002	-0.006
-255.122	-47.269	-0.195	0.095
-254.107	44.302	-0.122	0.112
-253.092	-5.515	0.189	0.129
-252.078	-69.573	0.377	-0.144
-251.063	-200.000	0.018	0.405
-250.049	60.752	0.097	0.096
-249.034	89.155	-0.182	-0.203
-248.019	88.055	-0.070	-0.078
-247.005	176.051	-0.165	0.239
-245.990	-45.816	-0.234	-0.115
-244.976	-57.273	-0.096	-0.042
-243.961	139.993	-0.081	0.107
-242.946	-200.000	-0.019	0.193
-241.932	-108.628	-0.048	0.010
-240.917	-200.000	-0.024	0.178
-239.903	14.221	0.152	0.118
-238.888	-152.760	-0.219	0.016
-237.873	-109.102	0.091	0.019
-236.859	-200.000	-0.007	0.178
-235.844	-38.653	0.464	-0.244
-234.830	330.609	-0.152	-0.292
-233.815	-117.574	0.125	-0.022
-232.800	800.000	0.025	0.081
-231.786	-168.852	-0.082	0.003
-230.771	20.614	0.255	-0.206
-229.757	-8.484	0.192	0.128
-228.742	-200.000	-0.016	0.102
-227.727	124.569	0.183	0.229
-226.713	629.448	0.043	-0.108
-225.698	-95.612	0.185	0.049
-224.684	-126.621	-0.092	-0.014
-223.669	788.939	0.042	-0.114
-222.655	184.720	-0.069	-0.102
-221.640	-154.344	0.455	-0.030
-220.625	794.260	-0.045	-0.125
-219.611	282.723	-0.075	-0.135
-218.596	800.000	-0.050	-0.163
-217.582	29.619	0.123	0.104
-216.567	-130.550	-0.122	0.016
-215.552	-119.193	-0.158	-0.028
-214.538	-87.866	-0.132	-0.040
-213.523	-200.000	-0.028	0.163
-212.509	-200.000	0.005	-0.075
-211.494	549.027	-0.061	-0.145
-210.479	165.908	-0.161	-0.227
-209.465	271.702	0.208	0.364
-208.450	-91.290	0.196	0.056
-207.436	-103.716	-0.237	-0.055
-206.421	-105.482	-0.162	0.037
-205.406	-20.196	-0.352	0.216
-204.392	288.150	-0.044	-0.079
-203.377	-26.742	0.162	-0.094
-202.363	112.782	0.155	-0.187
-201.348	117.874	-0.093	-0.114
-200.333	678.363	0.033	0.085
-199.319	461.596	-0.189	0.419
-198.304	592.110	-0.139	-0.341
-197.290	-69.063	0.060	-0.023
-196.275	238.133	-0.075	0.125
-195.260	800.000	0.036	-0.127
-194.246	60.487	-0.252	-0.248
-193.231	-8.223	0.305	-0.205
-192.217	-200.000	0.014	0.271
-191.202	60.305	-0.291	0.286
-190.187	362.899	0.033	-0.067
-189.173	17.706	0.216	-0.171
-188.158	789.028	0.072	0.196
-187.144	-108.883	-0.287	0.061
-186.129	1.513	0.172	-0.123
-185.114	-200.000	0.002	0.014
-184.100	-132.498	-0.157	-0.020
-183.085	-158.194	0.351	0.020
-182.071	-200.000	-0.000	-0.082
-181.056	800.000	-0.117	-0.414
-180.042	228.265	-0.067	-0.109
-179.027	-200.000	0.025	-0.234
-178.012	13.217	0.203	-0.157
-176.998	170.879	0.163	-0.232
-175.983	505.639	0.090	0.207
-174.969	133.540	0.124	0.160
-173.954	198.024	-0.080	-0.122
-172.939	-128.677	0.344	-0.048
-171.925	-97.711	-0.127	-0.033
-170.910	59.247	0.112	-0.110
-169.896	105.749	0.142	-0.167
-168.881	-77.502	-0.056	-0.019
-167.866	52.547	-0.081	0.077
-166.852	-136.681	-0.205	-0.024
-165.837	1.823	-0.108	0.078
-164.823	219.469	0.186	0.296
-163.808	-200.000	-0.011	-0.164
-162.793	-90.249	0.071	0.021
-161.779	-56.490	-0.398	-0.176
-160.764	-83.843	-0.134	-0.042
-159.750	645.521	0.128	0.325
-158.735	-200.000	0.039	0.327
-157.720	194.383	-0.110	0.166
-156.706	106.295	-0.103	0.122
-155.691	190.625	-0.203	-0.302
-154.677	-153.977	-0.218	-0.015
-153.662	17.025	-0.136	0.107
-152.647	-120.587	-0.277	0.047
-151.633	-77.954	0.138	0.047
-150.618	21.185	-0.102	0.083
-149.604	267.003	0.065	-0.113
-148.589	157.441	-0.054	-0.074
-147.574	-200.000	0.015	-0.226
-146.560	-200.000	0.049	-0.261
-145.545	613.823	-0.062	0.154
-144.531	185.932	-0.230	-0.340
-143.516	-154.656	0.172	-0.011
-142.502	-200.000	0.012	0.059
-141.487	-156.731	-0.275	-0.017
-140.472	35.911	-0.031	-0.027
-139.458	307.791	-0.057	0.105
-138.443	103.635	-0.112	0.130
-137.429	-139.212	0.292	0.031
-136.414	661.879	0.066	-0.168
-135.399	800.000	-0.037	-0.130
-134.385	205.305	0.219	0.337
-133.370	-72.676	-0.247	-0.090
-132.356	-121.467	-0.271	-0.045
-131.341	-200.000	-0.003	-0.176
-130.326	-200.000	0.019	0.158
-129.312	-200.000	0.042	0.321
-128.297	64.192	0.125	-0.125
-127.283	136.861	0.106	0.138
-126.268	800.000	0.012	0.047
-125.253	-122.792	0.202	0.032
-124.239	800.000	0.028	-0.112
-123.224	-167.250	-0.050	0.002
-122.210	800.000	-0.040	0.143
