DTS Sentinel unit serial number:	SN413079Multiplexer serial number:	ORYXHardware model number:	OX4-SRSoftware version number:	ORYX F/W v4.00 Oryx Data Collector v3.7.2.0data status	okinstallation	princeton_trtdifferential loss correction	single-endedforward channel	channel 2reverse channel	N/Adate	2019/09/13time	18:39:35forward acquisition time	60.00reverse acquisition time	0.00gamma	496.2192k internal	0.2322k external	0.2322temperature offset calibration	1.0188default loss term (dB/km)	0.3790temperature slope calibration	1.0000multiplexer offset coefficient	1.0000multiplexer slope coefficient	1.0000fibre end	0.00T internal ref (°C)	32.92T ext. ref 1 (°C)	4.18T ext. ref 2 (°C)	26.00length (m)	temperature (°C)	Stokes	anti-Stokes-747.200	-200.000	-0.049	-0.293
-746.185	-80.022	-0.111	-0.038
-745.171	27.355	0.313	-0.266
-744.156	145.874	0.140	0.190
-743.142	248.434	0.109	0.186
-742.127	413.361	0.086	0.185
-741.112	800.000	-0.082	-0.279
-740.098	-36.313	-0.101	0.055
-739.083	-200.000	0.070	0.337
-738.069	-71.299	-0.114	-0.043
-737.054	800.000	0.039	-0.137
-736.039	-200.000	-0.058	-0.302
-735.025	800.000	0.067	0.197
-734.010	800.000	0.030	-0.100
-732.996	2.980	-0.126	-0.092
-731.981	-97.542	-0.262	-0.069
-730.966	206.672	-0.112	-0.176
-729.952	-154.149	-0.148	0.010
-728.937	-200.000	-0.012	-0.074
-727.923	49.886	-0.122	0.116
-726.908	-142.606	0.268	0.027
-725.894	127.037	0.030	0.038
-724.879	112.615	0.175	0.214
-723.864	-135.504	-0.341	0.041
-722.850	75.083	-0.030	-0.032
-721.835	-158.943	-0.172	0.010
-720.821	-86.443	0.121	0.038
-719.806	-25.950	-0.143	0.085
-718.791	-47.790	-0.257	-0.125
-717.777	-200.000	0.029	-0.202
-716.762	-200.000	-0.000	-0.003
-715.748	800.000	0.093	-0.275
-714.733	254.712	-0.086	-0.148
-713.718	-112.348	0.416	0.084
-712.704	-168.541	0.139	-0.005
-711.689	-200.000	-0.001	0.208
-710.675	800.000	0.174	-0.504
-709.660	-50.801	0.186	-0.088
-708.645	800.000	-0.058	-0.238
-707.631	-114.865	0.147	-0.028
-706.616	-200.000	0.009	-0.147
-705.602	-145.427	0.239	-0.022
-704.587	-184.092	-0.096	0.002
-703.572	-62.140	-0.217	-0.091
-702.558	182.644	-0.143	0.212
-701.543	-106.510	-0.236	0.053
-700.529	14.531	0.165	0.130
-699.514	800.000	-0.025	-0.078
-698.499	-200.000	-0.018	0.251
-697.485	-110.195	0.038	0.008
-696.470	-24.643	0.040	-0.024
-695.456	-90.654	-0.285	-0.083
-694.441	55.366	0.162	-0.158
-693.426	-156.840	0.274	-0.017
-692.412	606.057	-0.111	0.278
-691.397	-168.074	-0.138	-0.005
-690.383	-135.240	-0.136	0.016
-689.368	218.895	-0.180	0.290
-688.354	-19.403	-0.125	-0.078
-687.339	107.155	0.149	0.179
-686.324	123.185	-0.131	0.165
-685.310	-200.000	-0.053	-0.372
-684.295	70.693	0.194	-0.202
-683.281	800.000	0.016	-0.058
-682.266	-200.000	-0.001	0.261
-681.251	-139.584	0.244	-0.026
-680.237	-73.104	0.467	-0.173
-679.222	800.000	-0.077	-0.253
-678.208	-19.748	-0.346	0.215
-677.193	283.534	-0.176	0.318
-676.178	-126.586	-0.142	0.021
-675.164	-100.981	0.304	0.075
-674.149	181.097	0.065	0.096
-673.135	67.919	-0.311	-0.320
-672.120	140.431	0.374	-0.498
-671.105	27.000	0.204	-0.173
-670.091	-35.078	-0.311	0.171
-669.076	77.890	-0.176	-0.189
-668.062	26.767	-0.187	0.158
-667.047	-200.000	-0.031	0.340
-666.032	794.730	-0.064	0.178
-665.018	233.203	0.062	0.103
-664.003	428.015	0.143	-0.311
-662.989	800.000	0.108	-0.303
-661.974	-87.958	0.096	-0.029
-660.959	137.267	0.008	-0.011
-659.945	-200.000	-0.037	-0.195
-658.930	437.520	0.100	0.219
-657.916	90.625	-0.183	0.207
-656.901	800.000	-0.099	-0.342
-655.886	62.146	-0.106	-0.106
-654.872	-26.329	-0.192	-0.114
-653.857	-27.989	-0.191	0.111
-652.843	-137.785	-0.316	-0.036
-651.828	130.483	-0.117	0.151
-650.814	-200.000	0.022	-0.236
-649.799	-76.110	0.234	-0.083
-648.784	25.499	-0.230	0.193
-647.770	-91.468	0.207	-0.059
-646.755	800.000	0.076	-0.274
-645.741	302.542	0.128	-0.238
-644.726	25.976	-0.277	-0.233
-643.711	-27.795	0.234	0.136
-642.697	-81.874	-0.077	-0.025
-641.682	240.223	0.039	0.065
-640.668	-55.688	-0.285	-0.128
-639.653	-68.691	-0.245	0.095
-638.638	219.385	0.134	0.215
-637.624	112.586	0.089	-0.108
-636.609	-5.922	-0.358	-0.247
-635.595	-92.943	-0.342	0.096
-634.580	-200.000	0.064	0.449
-633.565	800.000	0.036	-0.122
-632.551	-159.449	-0.377	0.021
-631.536	-63.501	-0.133	0.055
-630.522	-88.958	0.220	-0.065
-629.507	-200.000	-0.008	0.066
-628.492	95.284	-0.060	0.069
-627.478	56.168	0.258	-0.252
-626.463	-200.000	-0.026	0.124
-625.449	-88.885	-0.446	-0.133
-624.434	800.000	0.082	-0.297
-623.419	-2.352	-0.271	-0.191
-622.405	-9.121	-0.348	-0.234
-621.390	-129.531	0.371	-0.052
-620.376	-113.842	-0.230	0.045
-619.361	-130.774	0.154	-0.021
-618.346	-15.919	-0.167	-0.107
-617.332	-8.068	-0.348	0.236
-616.317	-88.233	0.254	0.077
-615.303	511.944	-0.059	0.139
-614.288	800.000	-0.062	0.261
-613.273	-68.569	-0.322	-0.125
-612.259	12.794	0.195	0.151
-611.244	288.016	-0.082	-0.149
-610.230	114.639	-0.080	-0.098
-609.215	-66.529	0.157	-0.062
-608.201	100.476	-0.252	-0.294
-607.186	-98.807	-0.410	-0.105
-606.171	-136.226	-0.310	0.036
-605.157	-200.000	0.011	0.084
-604.142	26.584	0.086	0.073
-603.128	-95.650	0.201	-0.054
-602.113	80.602	-0.122	-0.132
-601.098	-138.327	0.329	0.036
-600.084	246.614	0.025	0.042
-599.069	-31.073	0.051	0.029
-598.055	74.471	-0.028	-0.030
-597.040	215.768	-0.134	0.213
-596.025	-83.577	0.148	-0.048
-595.011	488.758	0.013	-0.029
-593.996	31.594	-0.266	-0.229
-592.982	-200.000	0.064	-0.289
-591.967	-200.000	0.055	-0.469
-590.952	-200.000	0.107	-0.505
-589.938	2.120	0.127	0.092
-588.923	-200.000	-0.009	0.217
-587.909	252.893	0.019	0.033
-586.894	1.592	-0.118	-0.085
-585.879	485.435	0.021	0.048
-584.865	382.952	0.062	-0.129
-583.850	-200.000	0.002	0.135
-582.836	330.702	0.038	0.073
-581.821	31.585	-0.251	-0.216
-580.806	-200.000	0.054	-0.312
-579.792	800.000	0.026	-0.077
-578.777	-200.000	-0.057	0.270
-577.763	33.502	0.025	-0.022
-576.748	294.295	0.074	0.136
-575.733	-6.017	0.089	0.061
-574.719	60.980	0.208	-0.207
-573.704	-110.769	0.126	-0.026
-572.690	652.957	-0.107	-0.276
-571.675	554.626	-0.021	-0.051
-570.661	800.000	0.100	0.325
-569.646	332.033	0.111	0.216
-568.631	149.240	0.268	0.363
-567.617	800.000	-0.055	0.191
-566.602	90.633	-0.163	0.183
-565.588	55.844	0.188	-0.182
-564.573	-68.956	-0.099	-0.038
-563.558	-200.000	-0.006	0.036
-562.544	-32.799	0.298	0.166
-561.529	-70.550	0.119	-0.045
-560.515	-200.000	0.062	0.275
-559.500	-136.503	-0.239	-0.028
-558.485	202.393	0.076	0.118
-557.471	-200.000	0.013	-0.211
-556.456	800.000	-0.049	-0.203
-555.442	89.527	0.087	-0.097
-554.427	185.523	-0.112	-0.166
-553.412	314.315	-0.055	0.103
-552.398	38.421	-0.350	-0.312
-551.383	-105.863	-0.187	-0.042
-550.369	66.634	0.159	-0.162
-549.354	-23.421	-0.146	-0.088
-548.339	-49.539	-0.082	-0.039
-547.325	148.893	-0.070	-0.094
-546.310	800.000	0.142	0.440
-545.296	-200.000	0.011	-0.179
-544.281	-71.515	-0.283	0.106
-543.266	-200.000	0.067	0.371
-542.252	8.029	-0.117	-0.088
-541.237	-82.810	0.112	-0.036
-540.223	-42.614	0.238	0.121
-539.208	169.198	-0.120	-0.171
-538.193	-200.000	0.029	0.169
-537.179	800.000	0.041	-0.135
-536.164	185.480	-0.044	-0.066
-535.150	-61.236	-0.123	-0.052
-534.135	236.093	0.016	-0.027
-533.121	-200.000	0.001	-0.259
-532.106	705.127	-0.020	-0.053
-531.091	120.130	-0.049	-0.060
-530.077	136.078	-0.066	-0.086
-529.062	-200.000	-0.024	-0.107
-528.048	25.965	0.155	-0.129
-527.033	-38.834	0.166	0.088
-526.018	-200.000	-0.005	-0.315
-525.004	-33.693	0.194	0.107
-523.989	-200.000	-0.005	-0.293
-522.975	35.795	0.116	0.102
-521.960	-166.489	0.081	0.003
-520.945	11.017	0.193	-0.147
-519.931	-175.051	0.233	0.007
-518.916	-112.859	0.534	0.106
-517.902	-200.000	-0.046	0.249
-516.887	800.000	-0.105	0.432
-515.872	50.968	-0.081	-0.077
-514.858	43.408	0.205	0.188
-513.843	-200.000	0.394	0.001
-512.829	72.151	0.159	0.165
-511.814	-108.505	0.163	0.035
-510.799	-125.713	0.090	0.014
-509.785	191.157	-0.029	0.044
-508.770	-93.985	-0.114	-0.031
-507.756	55.655	-0.288	-0.280
-506.741	-92.799	-0.246	0.069
-505.726	133.471	0.136	-0.176
-504.712	-73.512	0.034	-0.012
-503.697	145.183	-0.139	0.187
-502.683	-63.451	0.200	0.082
-501.668	-200.000	0.055	0.362
-500.653	-20.880	-0.122	0.075
-499.639	-102.642	-0.240	0.057
-498.624	46.053	-0.045	-0.042
-497.610	-200.000	0.056	-0.265
-496.595	173.841	-0.101	-0.146
-495.581	-36.260	0.148	0.080
-494.566	-200.000	0.008	-0.152
-493.551	-49.876	0.213	0.101
-492.537	479.561	0.127	0.288
-491.522	-91.930	0.073	0.021
-490.508	800.000	-0.079	-0.274
-489.493	-121.426	0.199	0.033
-488.478	43.458	0.115	0.105
-487.464	-103.535	-0.257	-0.060
-486.449	509.506	-0.081	-0.189
-485.435	-144.339	-0.496	-0.046
-484.420	-200.000	0.046	-0.221
-483.405	800.000	0.031	-0.098
-482.391	90.952	0.178	-0.199
-481.376	-37.140	-0.189	0.101
-480.362	173.499	0.140	0.201
-479.347	12.510	0.098	0.075
-478.332	206.005	-0.103	-0.160
-477.318	-127.547	0.253	-0.037
-476.303	-32.325	-0.184	0.103
-475.289	800.000	-0.111	-0.373
-474.274	-61.911	-0.274	0.115
-473.259	-36.881	-0.157	0.084
-472.245	-200.000	0.000	0.114
-471.230	800.000	0.038	-0.163
-470.216	135.975	-0.116	0.151
-469.201	-48.756	-0.125	0.060
-468.186	-134.117	-0.248	-0.031
-467.172	39.936	0.113	0.101
-466.157	-143.384	-0.236	0.023
-465.143	800.000	0.025	-0.079
-464.128	69.234	-0.100	-0.103
-463.113	15.118	0.054	0.042
-462.099	-200.000	0.061	-0.296
-461.084	13.923	-0.320	-0.249
-460.070	27.761	0.230	-0.193
-459.055	-90.349	0.243	0.070
-458.040	800.000	-0.066	0.182
-457.026	800.000	-0.039	-0.154
-456.011	-200.000	0.032	-0.265
-454.997	-66.694	-0.161	-0.064
-453.982	-89.834	-0.120	-0.035
-452.968	-14.493	-0.256	-0.165
-451.953	-7.815	0.260	-0.176
-450.938	-62.199	-0.116	0.048
-449.924	-200.000	0.221	-0.000
-448.909	149.525	0.297	0.402
-447.895	800.000	-0.009	-0.041
-446.880	-29.031	-0.094	-0.054
-445.865	800.000	-0.066	-0.206
-444.851	800.000	-0.080	0.239
-443.836	64.443	-0.190	-0.191
-442.822	60.812	-0.181	0.179
-441.807	344.007	-0.046	-0.091
-440.792	65.198	-0.113	-0.114
-439.778	-191.196	-0.124	-0.001
-438.763	-127.633	-0.207	0.030
-437.749	41.182	0.265	0.239
-436.734	-117.015	-0.238	-0.043
-435.719	-200.000	-0.023	-0.109
-434.705	-40.232	0.049	0.025
-433.690	188.099	0.029	0.044
-432.676	-16.405	-0.050	-0.031
-431.661	161.619	-0.262	0.365
-430.646	164.528	0.075	0.106
-429.632	-90.129	-0.264	-0.077
-428.617	-127.706	-0.199	-0.029
-427.603	38.448	0.048	-0.042
-426.588	-29.251	0.089	0.051
-425.573	74.154	-0.108	0.113
-424.559	150.391	0.148	-0.201
-423.544	-48.458	0.204	0.098
-422.530	47.532	0.130	0.121
-421.515	11.543	-0.177	0.135
-420.500	73.570	0.278	0.291
-419.486	-146.105	-0.267	-0.024
-418.471	-200.000	-0.047	0.209
-417.457	-138.818	0.410	-0.045
-416.442	-125.348	0.176	-0.027
-415.428	27.693	0.104	-0.087
-414.413	89.726	0.016	0.017
-413.398	-104.027	0.342	-0.080
-412.384	-126.902	-0.264	-0.039
-411.369	-90.680	0.298	-0.086
-410.355	552.650	-0.139	-0.334
-409.340	229.878	0.221	0.361
-408.325	-74.506	0.073	-0.026
-407.311	800.000	0.024	0.093
-406.296	170.211	0.135	0.192
-405.282	-116.623	-0.186	-0.034
-404.267	43.848	0.170	0.156
-403.252	-200.000	-0.072	0.403
-402.238	-200.000	-0.011	-0.291
-401.223	39.136	0.062	0.056
-400.209	-72.036	0.269	-0.100
-399.194	-200.000	0.010	-0.179
-398.179	800.000	0.057	0.175
-397.165	-22.149	-0.146	0.089
-396.150	-46.642	0.141	0.069
-395.136	217.740	0.220	0.349
-394.121	800.000	-0.088	0.313
-393.106	-200.000	0.050	-0.246
-392.092	535.645	-0.170	-0.401
-391.077	-89.726	0.089	0.026
-390.063	109.904	-0.081	-0.096
-389.048	-124.463	0.275	0.043
-388.033	-200.000	-0.038	0.186
-387.019	-134.021	0.248	-0.031
-386.004	-155.263	0.286	0.019
-384.990	-200.000	0.075	0.351
-383.975	-89.634	0.128	-0.037
-382.960	-200.000	0.051	0.313
-381.946	69.539	0.197	-0.202
-380.931	-2.943	-0.086	0.060
-379.917	-115.577	0.174	0.033
-378.902	470.770	0.093	0.208
-377.888	32.553	-0.013	-0.011
-376.873	106.223	0.094	-0.111
-375.858	176.972	0.079	-0.114
-374.844	69.565	-0.027	-0.028
-373.829	-54.474	-0.247	-0.111
-372.815	-200.000	0.017	-0.104
-371.800	-63.766	-0.152	0.062
-370.785	-70.529	0.124	0.047
-369.771	407.686	-0.042	0.089
-368.756	-200.000	-0.072	-0.349
-367.742	-86.749	-0.175	0.053
-366.727	-163.946	-0.344	0.016
-365.712	59.652	0.246	0.242
-364.698	-116.631	0.181	0.033
-363.683	800.000	0.108	0.312
-362.669	36.001	0.071	0.062
-361.654	-200.000	-0.009	0.121
-360.639	-71.557	-0.217	0.081
-359.625	6.029	-0.263	0.194
-358.610	800.000	0.030	-0.111
-357.596	-200.000	-0.167	-0.000
-356.581	22.661	-0.059	-0.048
-355.566	105.250	-0.048	0.057
-354.552	532.966	0.071	-0.167
-353.537	-99.269	0.420	0.105
-352.523	-146.401	0.066	0.006
-351.508	-0.766	-0.276	-0.195
-350.493	8.002	-0.229	-0.171
-349.479	-200.000	0.000	-0.127
-348.464	-200.000	0.017	-0.111
-347.450	-31.840	-0.140	0.078
-346.435	-200.000	-0.030	-0.131
-345.420	221.365	0.137	0.220
-344.406	-59.236	-0.285	0.122
-343.391	264.229	-0.115	0.199
-342.377	5.434	-0.127	0.093
-341.362	-25.467	-0.093	-0.055
-340.348	448.221	-0.127	0.278
-339.333	-97.371	0.289	-0.075
-338.318	478.145	-0.091	0.206
-337.304	157.917	0.150	0.207
-336.289	800.000	0.090	0.260
-335.275	-125.381	0.247	-0.037
-334.260	-113.617	0.020	0.004
-333.245	357.128	0.016	0.032
-332.231	237.857	0.077	-0.127
-331.216	26.402	0.234	-0.195
-330.202	800.000	-0.040	-0.114
-329.187	725.447	0.028	0.074
-328.172	-200.000	-0.014	-0.176
-327.158	-77.027	-0.114	-0.040
-326.143	547.804	-0.037	0.087
-325.129	-101.014	-0.242	-0.059
-324.114	-200.000	-0.017	0.087
-323.099	800.000	-0.075	0.301
-322.085	-1.069	0.016	-0.011
-321.070	-108.974	0.173	0.037
-320.056	278.471	0.217	-0.383
-319.041	29.431	-0.325	-0.275
-318.026	800.000	0.135	-0.420
-317.012	-16.260	0.190	0.120
-315.997	150.309	0.214	0.289
-314.983	-35.986	-0.322	-0.173
-313.968	-200.000	-0.003	-0.171
-312.953	800.000	0.025	-0.073
-311.939	80.652	0.266	-0.285
-310.924	264.674	0.176	-0.304
-309.910	212.480	0.064	0.101
-308.895	-200.000	-0.016	0.366
-307.880	-16.519	0.183	0.115
-306.866	46.033	0.158	-0.145
-305.851	-93.536	0.381	0.105
-304.837	30.078	0.340	-0.288
-303.822	-200.000	0.023	-0.227
-302.807	-70.307	0.055	0.021
-301.793	248.847	0.106	0.178
-300.778	84.222	0.115	0.125
-299.764	79.253	-0.045	0.048
-298.749	-137.956	-0.296	0.033
-297.735	-27.326	-0.068	0.039
-296.720	-49.390	-0.239	0.113
-295.705	800.000	-0.067	0.235
-294.691	-79.207	-0.238	-0.080
-293.676	-159.189	-0.155	-0.009
-292.662	562.725	0.147	0.352
-291.647	-85.866	0.370	-0.114
-290.632	-30.822	0.287	-0.161
-289.618	36.574	-0.108	0.095
-288.603	-88.580	0.198	0.059
-287.589	-32.955	-0.037	-0.020
-286.574	-174.433	-0.249	0.007
-285.559	31.213	-0.111	-0.095
-284.545	103.524	0.144	0.168
-283.530	137.455	0.103	-0.133
-282.516	-200.000	-0.016	-0.165
-281.501	-143.364	-0.173	-0.016
-280.486	431.302	-0.049	-0.105
-279.472	-53.440	-0.192	-0.087
-278.457	111.686	-0.147	0.175
-277.443	370.808	0.161	0.324
-276.428	482.282	0.049	0.110
-275.413	0.540	0.039	0.027
-274.399	-100.374	0.102	0.025
-273.384	-200.000	-0.008	-0.244
-272.370	150.409	-0.176	0.237
-271.355	-101.335	0.363	-0.088
-270.340	-83.935	0.365	0.115
-269.326	99.949	-0.218	0.251
-268.311	-10.963	0.202	0.132
-267.297	48.089	0.023	-0.022
-266.282	-200.000	0.017	-0.374
-265.267	-200.000	0.005	-0.227
-264.253	-170.097	-0.349	0.012
-263.238	-93.095	-0.383	-0.106
-262.224	-50.217	-0.307	0.144
-261.209	-132.171	-0.076	-0.010
-260.195	331.992	0.119	-0.227
-259.180	-159.841	-0.222	0.012
-258.165	32.858	0.083	0.071
-257.151	-65.506	0.106	0.042
-256.136	22.450	0.364	-0.295
-255.122	8.938	-0.050	0.037
-254.107	-117.194	0.259	0.047
-253.092	800.000	0.079	0.281
-252.078	-138.672	-0.425	-0.046
-251.063	-200.000	0.045	-0.379
-250.049	800.000	0.104	-0.316
-249.034	126.219	-0.194	-0.243
-248.019	-130.068	0.195	-0.026
-247.005	-200.000	0.014	-0.122
-245.990	800.000	0.049	-0.200
-244.976	-200.000	0.014	0.276
-243.961	78.180	0.089	-0.094
-242.946	-78.379	0.204	0.069
-241.932	179.037	-0.092	0.133
-240.917	-200.000	-0.017	0.156
-239.903	140.905	0.142	-0.186
-238.888	-76.606	0.169	-0.059
-237.873	-12.991	0.083	-0.053
-236.859	-53.857	0.089	0.040
-235.844	-200.000	-0.004	0.078
-234.830	324.881	0.074	-0.140
-233.815	-76.591	-0.113	0.039
-232.800	239.277	-0.078	0.128
-231.786	-38.566	-0.133	0.070
-230.771	120.102	-0.046	0.056
-229.757	-200.000	-0.001	0.127
-228.742	-133.015	-0.168	-0.021
-227.727	-109.383	0.055	-0.011
-226.713	-0.399	-0.184	0.130
-225.698	-28.385	-0.331	-0.189
-224.684	-27.261	0.203	0.117
-223.669	-56.886	0.200	-0.088
-222.655	-112.762	-0.105	-0.021
-221.640	-0.883	-0.253	0.178
-220.625	800.000	0.002	0.010
-219.611	97.912	-0.287	-0.327
-218.596	-178.800	0.313	-0.007
-217.582	340.005	-0.166	-0.321
-216.567	27.137	0.288	-0.239
-215.552	800.000	-0.088	-0.297
-214.538	-59.418	-0.348	0.148
-213.523	-200.000	-0.054	0.298
-212.509	-200.000	0.013	0.147
-211.494	-64.696	0.077	0.031
-210.479	800.000	0.043	-0.171
-209.465	-107.373	0.219	-0.048
-208.450	8.243	-0.163	0.121
-207.436	432.541	0.020	0.044
-206.421	-200.000	-0.043	0.208
-205.406	368.922	0.182	-0.364
-204.392	35.581	-0.233	0.202
-203.377	39.499	0.287	0.254
-202.363	-27.677	-0.208	-0.119
-201.348	-88.171	-0.310	-0.092
-200.333	213.278	-0.207	0.324
-199.319	800.000	-0.023	-0.076
-198.304	-66.118	0.122	-0.048
-197.290	51.906	-0.228	-0.214
-196.275	380.117	0.204	0.414
-195.260	-147.094	-0.179	0.015
-194.246	-157.606	-0.267	0.016
-193.231	-39.876	0.220	-0.114
-192.217	115.800	-0.018	0.022
-191.202	616.618	0.081	0.200
-190.187	292.835	0.105	-0.189
-189.173	13.644	0.138	0.106
-188.158	42.872	-0.186	0.168
-187.144	800.000	0.064	-0.248
-186.129	-200.000	-0.064	0.000
-185.114	-200.000	-0.062	0.461
-184.100	308.893	0.185	-0.341
-183.085	118.800	-0.064	0.078
-182.071	120.029	-0.020	-0.025
-181.056	396.077	-0.146	0.300
-180.042	2.238	0.425	-0.304
-179.027	318.550	-0.204	0.381
-178.012	43.454	0.257	0.232
-176.998	800.000	-0.107	-0.296
-175.983	-200.000	-0.022	0.138
-174.969	-200.000	-0.016	-0.160
-173.954	-98.583	-0.203	-0.051
-172.939	144.447	0.167	0.220
-171.925	-163.627	0.214	0.010
-170.910	-47.130	-0.248	-0.119
-169.896	433.916	-0.130	0.279
-168.881	131.363	0.087	0.110
-167.866	-44.115	-0.120	-0.060
-166.852	185.440	0.086	0.127
-165.837	-136.869	0.175	-0.020
-164.823	-178.003	0.240	-0.006
-163.808	800.000	-0.068	0.211
-162.793	310.265	-0.203	0.375
-161.779	-61.113	0.282	-0.118
-160.764	182.526	-0.079	0.114
-159.750	-186.901	0.114	-0.002
-158.735	-200.000	0.034	-0.420
-157.720	-72.279	0.130	-0.048
-156.706	144.912	-0.047	0.062
-155.691	-152.622	-0.277	0.019
-154.677	3.122	-0.126	0.091
-153.662	-200.000	-0.008	-0.135
-152.647	-200.000	-0.068	0.373
-151.633	800.000	-0.078	0.301
-150.618	-40.514	0.151	-0.078
-149.604	-128.422	-0.202	0.028
-148.589	-143.209	0.061	-0.006
-147.574	185.832	0.113	0.166
-146.560	-45.703	0.171	-0.083
-145.545	78.176	0.275	0.289
-144.531	-124.597	-0.060	0.009
-143.516	-200.000	-0.006	0.101
-142.502	800.000	0.177	-0.520
-141.487	23.122	-0.350	0.283
-140.472	-14.443	-0.456	-0.289
-139.458	-1.744	0.190	-0.132
-138.443	190.416	-0.199	-0.295
-137.429	800.000	-0.058	-0.240
-136.414	279.122	0.182	-0.320
-135.399	12.391	-0.265	-0.201
-134.385	-200.000	-0.029	-0.248
-133.370	-28.159	-0.218	-0.124
-132.356	-200.000	0.041	-0.298
-131.341	76.854	0.302	-0.316
-130.326	-200.000	0.030	-0.256
-129.312	800.000	0.049	-0.175
-128.297	-123.104	-0.240	0.038
-127.283	-200.000	-0.045	-0.281
-126.268	-200.000	0.032	-0.166
-125.253	23.316	0.176	0.142
-124.239	-73.653	-0.127	-0.046
-123.224	352.433	0.149	0.291
-122.210	541.782	0.082	0.192
-121.195	98.434	-0.169	0.192
