DTS Sentinel unit serial number:	SN413079Multiplexer serial number:	ORYXHardware model number:	OX4-SRSoftware version number:	ORYX F/W v4.00 Oryx Data Collector v3.7.2.0data status	okinstallation	princeton_trtdifferential loss correction	single-endedforward channel	channel 2reverse channel	N/Adate	2019/09/13time	22:55:34forward acquisition time	60.00reverse acquisition time	0.00gamma	496.2192k internal	0.2336k external	0.2336temperature offset calibration	1.0130default loss term (dB/km)	0.3790temperature slope calibration	1.0000multiplexer offset coefficient	1.0000multiplexer slope coefficient	1.0000fibre end	0.00T internal ref (°C)	27.42T ext. ref 1 (°C)	3.21T ext. ref 2 (°C)	21.47length (m)	temperature (°C)	Stokes	anti-Stokes-747.200	-174.950	0.157	-0.004
-746.185	91.989	-0.208	0.235
-745.171	-61.441	-0.169	0.071
-744.156	-38.825	-0.120	0.063
-743.142	59.609	-0.223	-0.221
-742.127	54.461	0.038	-0.037
-741.112	-24.024	-0.060	-0.036
-740.098	-33.952	0.088	-0.049
-739.083	-200.000	-0.007	0.046
-738.069	800.000	-0.064	-0.253
-737.054	800.000	0.073	-0.206
-736.039	-200.000	-0.004	-0.020
-735.025	-67.913	0.329	-0.129
-734.010	-159.911	-0.073	0.004
-732.996	-34.208	-0.745	-0.411
-731.981	800.000	-0.076	0.301
-730.966	189.147	-0.103	0.155
-729.952	-200.000	0.002	0.149
-728.937	22.987	-0.307	-0.253
-727.923	-135.541	0.272	0.032
-726.908	-157.478	0.032	-0.002
-725.894	281.084	-0.168	-0.303
-724.879	-25.168	-0.229	0.136
-723.864	800.000	-0.089	-0.390
-722.850	-200.000	0.041	0.359
-721.835	-200.000	-0.021	-0.104
-720.821	78.759	-0.279	-0.299
-719.806	-1.456	0.036	-0.026
-718.791	-9.958	-0.398	-0.265
-717.777	-200.000	0.007	-0.276
-716.762	39.930	0.058	-0.053
-715.748	-88.534	0.212	0.063
-714.733	171.087	0.182	-0.261
-713.718	-200.000	-0.022	-0.261
-712.704	-200.000	0.017	-0.214
-711.689	469.669	0.077	-0.173
-710.675	-200.000	-0.015	0.231
-709.660	-111.600	0.164	-0.033
-708.645	-21.772	0.081	0.049
-707.631	2.384	-0.097	0.070
-706.616	-200.000	0.018	-0.157
-705.602	800.000	-0.085	0.257
-704.587	32.250	-0.303	-0.262
-703.572	15.951	0.147	0.116
-702.558	237.091	-0.175	-0.290
-701.543	-200.000	-0.015	0.093
-700.529	88.857	-0.125	-0.140
-699.514	-112.291	-0.351	-0.070
-698.499	-200.000	0.028	-0.433
-697.485	800.000	-0.076	-0.266
-696.470	-81.257	0.226	-0.075
-695.456	-200.000	0.006	0.096
-694.441	32.598	0.060	-0.052
-693.426	-177.672	-0.532	0.013
-692.412	502.642	-0.110	0.255
-691.397	209.298	-0.121	0.190
-690.383	34.112	0.076	0.066
-689.368	-2.324	-0.070	-0.049
-688.354	171.761	0.076	0.109
-687.339	82.547	-0.273	0.297
-686.324	-57.638	0.307	-0.135
-685.310	330.472	0.151	0.291
-684.295	140.255	-0.108	-0.143
-683.281	800.000	0.085	0.276
-682.266	800.000	0.100	-0.367
-681.251	-22.042	-0.040	0.024
-680.237	800.000	0.049	-0.159
-679.222	-8.864	-0.193	-0.129
-678.208	75.130	-0.169	-0.179
-677.193	-27.427	0.300	0.175
-676.178	-64.265	0.097	0.040
-675.164	-41.320	0.022	0.012
-674.149	317.436	0.029	0.054
-673.135	775.595	-0.107	-0.291
-672.120	370.973	-0.079	-0.161
-671.105	-200.000	0.013	0.156
-670.091	207.566	0.158	-0.247
-669.076	-75.464	0.241	0.086
-668.062	-63.590	-0.135	-0.055
-667.047	118.307	0.111	-0.137
-666.032	-141.397	-0.198	-0.020
-665.018	63.867	0.114	0.114
-664.003	-1.683	0.108	-0.076
-662.989	-53.068	0.083	-0.038
-661.974	8.186	0.149	0.112
-660.959	740.230	-0.077	-0.207
-659.945	35.923	-0.027	0.024
-658.930	16.908	-0.094	-0.074
-657.916	214.268	-0.128	-0.203
-656.901	-200.000	0.026	-0.275
-655.886	-200.000	0.071	0.318
-654.872	-200.000	0.007	0.038
-653.857	-200.000	-0.033	-0.171
-652.843	800.000	-0.070	0.250
-651.828	-48.695	-0.124	-0.060
-650.814	375.124	0.077	0.158
-649.799	-15.395	0.100	0.064
-648.784	102.029	0.167	0.195
-647.770	-122.807	-0.040	0.006
-646.755	201.869	-0.114	-0.175
-645.741	607.444	0.105	0.263
-644.726	127.267	-0.023	-0.029
-643.711	-25.373	0.196	-0.116
-642.697	217.710	-0.273	-0.436
-641.682	101.493	0.108	-0.126
-640.668	299.149	-0.105	-0.194
-639.653	800.000	0.084	-0.252
-638.638	-200.000	-0.024	0.128
-637.624	170.568	-0.045	0.064
-636.609	-1.326	-0.273	0.193
-635.595	-13.263	-0.215	-0.140
-634.580	636.356	-0.050	-0.127
-633.565	-200.000	-0.033	0.225
-632.551	273.545	-0.137	0.243
-631.536	208.126	0.131	-0.204
-630.522	-141.188	-0.259	-0.026
-629.507	800.000	0.102	0.306
-628.492	137.777	0.082	-0.107
-627.478	-200.000	-0.004	0.162
-626.463	-112.817	-0.144	-0.029
-625.449	-200.000	-0.023	-0.265
-624.434	-143.057	-0.134	0.013
-623.419	257.570	0.209	-0.360
-622.405	-200.000	0.054	-0.236
-621.390	-13.694	0.257	-0.167
-620.376	307.173	-0.084	-0.157
-619.361	-39.776	0.209	-0.109
-618.346	223.610	0.146	0.235
-617.332	-79.671	0.106	-0.036
-616.317	199.185	0.195	0.298
-615.303	-91.810	-0.438	0.124
-614.288	268.560	-0.039	-0.067
-613.273	-165.672	0.059	0.003
-612.259	-129.959	0.267	0.036
-611.244	-55.419	-0.338	-0.152
-610.230	-33.659	0.313	-0.173
-609.215	43.187	-0.209	-0.191
-608.201	2.623	0.243	0.176
-607.186	-120.705	-0.281	-0.047
-606.171	800.000	0.016	0.055
-605.157	13.480	0.171	0.133
-604.142	800.000	-0.034	-0.129
-603.128	5.150	0.094	-0.069
-602.113	-30.810	-0.221	-0.125
-601.098	378.018	-0.058	-0.118
-600.084	-200.000	-0.070	-0.321
-599.069	800.000	-0.055	-0.185
-598.055	94.552	0.250	-0.284
-597.040	-4.484	-0.223	-0.154
-596.025	43.927	-0.161	-0.148
-595.011	-143.705	0.160	-0.015
-593.996	118.636	0.076	0.093
-592.982	800.000	0.071	0.251
-591.967	-109.458	0.143	0.030
-590.952	448.868	0.125	-0.276
-589.938	612.025	-0.138	-0.345
-588.923	223.735	-0.222	0.358
-587.909	-149.466	-0.144	-0.011
-586.894	-200.000	0.011	-0.103
-585.879	-16.288	-0.141	0.089
-584.865	-48.469	-0.097	-0.046
-583.850	-40.788	-0.258	0.133
-582.836	-61.878	-0.072	-0.030
-581.821	142.660	-0.124	-0.164
-580.806	-184.866	-0.676	0.011
-579.792	800.000	-0.101	0.431
-578.777	-45.987	-0.101	0.050
-577.763	-200.000	0.048	0.264
-576.748	169.271	0.155	-0.221
-575.733	56.147	-0.231	-0.224
-574.719	-148.962	-0.297	-0.024
-573.704	-71.752	0.183	-0.068
-572.690	800.000	-0.124	-0.397
-571.675	295.336	0.096	-0.175
-570.661	-59.866	-0.048	0.021
-569.646	-4.712	-0.223	-0.154
-568.631	-30.104	0.248	0.141
-567.617	-200.000	-0.015	-0.190
-566.602	-200.000	0.008	-0.108
-565.588	6.938	0.055	-0.041
-564.573	-200.000	-0.057	-0.273
-563.558	-200.000	-0.047	-0.223
-562.544	-200.000	-0.006	-0.144
-561.529	800.000	0.029	0.121
-560.515	-121.033	0.183	0.031
-559.500	-10.523	0.136	0.090
-558.485	-11.951	-0.097	0.063
-557.471	77.310	0.198	-0.210
-556.456	-100.475	-0.238	-0.059
-555.442	24.128	0.197	-0.162
-554.427	609.586	-0.144	-0.358
-553.412	-16.171	0.219	-0.139
-552.398	310.892	-0.171	-0.319
-551.383	0.841	-0.336	-0.240
-550.369	-25.510	0.335	0.197
-549.354	-200.000	-0.081	0.388
-548.339	48.988	-0.266	-0.249
-547.325	-29.325	-0.052	0.030
-546.310	-122.217	-0.219	0.036
-545.296	266.235	0.145	0.253
-544.281	-174.794	0.205	-0.006
-543.266	800.000	-0.073	0.271
-542.252	-37.564	0.101	0.054
-541.237	282.019	-0.067	-0.119
-540.223	-73.527	0.022	-0.008
-539.208	-174.854	0.238	-0.007
-538.193	800.000	0.070	-0.224
-537.179	107.482	-0.226	-0.268
-536.164	273.955	0.092	-0.163
-535.150	-129.378	0.304	0.042
-534.135	155.458	0.202	-0.277
-533.121	-32.693	0.242	0.134
-532.106	-200.000	0.042	-0.296
-531.091	-149.606	-0.264	-0.021
-530.077	-79.825	-0.010	-0.003
-529.062	-70.872	-0.241	0.090
-528.048	9.054	0.170	-0.128
-527.033	-200.000	-0.004	-0.097
-526.018	28.316	-0.125	-0.106
-525.004	-200.000	0.046	-0.258
-523.989	-200.000	0.002	0.070
-522.975	-97.674	-0.267	0.069
-521.960	-200.000	-0.003	0.082
-520.945	-200.000	-0.008	-0.158
-519.931	208.423	-0.069	0.108
-518.916	16.887	0.196	0.154
-517.902	192.410	-0.159	0.238
-516.887	-38.152	0.131	-0.069
-515.872	-97.945	0.119	0.031
-514.858	800.000	0.094	-0.315
-513.843	-118.807	-0.061	0.011
-512.829	14.537	0.164	-0.127
-511.814	339.667	0.118	0.229
-510.799	-84.373	-0.088	-0.028
-509.785	-80.659	-0.037	-0.012
-508.770	-130.010	-0.117	0.016
-507.756	-149.590	0.054	-0.004
-506.741	800.000	0.033	-0.128
-505.726	413.624	0.117	-0.248
-504.712	-200.000	-0.043	-0.363
-503.697	-200.000	-0.029	-0.173
-502.683	297.929	-0.179	-0.327
-501.668	672.835	-0.059	-0.153
-500.653	180.954	-0.045	-0.065
-499.639	477.338	0.210	0.473
-498.624	-179.778	-0.180	0.004
-497.610	135.922	0.139	-0.180
-496.595	60.085	-0.164	-0.162
-495.581	800.000	0.046	0.130
-494.566	491.429	0.053	-0.121
-493.551	-90.194	0.161	-0.047
-492.537	800.000	-0.108	0.325
-491.522	-122.849	0.274	-0.044
-490.508	146.621	-0.216	0.289
-489.493	163.157	0.063	0.088
-488.478	-120.726	0.246	0.041
-487.464	-0.060	-0.209	0.148
-486.449	-130.048	0.251	0.034
-485.435	-44.667	-0.143	0.071
-484.420	-170.825	0.122	0.004
-483.405	231.939	-0.130	0.212
-482.391	-200.000	-0.069	-0.489
-481.376	12.588	-0.150	-0.115
-480.362	35.293	0.101	0.088
-479.347	800.000	0.053	0.179
-478.332	239.257	0.076	0.126
-477.318	773.117	0.176	0.477
-476.303	-61.263	0.022	0.009
-475.289	-135.168	0.410	-0.049
-474.274	800.000	-0.012	0.038
-473.259	-200.000	0.018	0.089
-472.245	-183.392	0.232	0.004
-471.230	-120.937	0.169	-0.028
-470.216	28.738	-0.077	0.065
-469.201	549.693	0.125	0.297
-468.186	-158.539	0.364	-0.021
-467.172	-50.841	-0.274	-0.128
-466.157	155.257	0.214	0.292
-465.143	800.000	-0.061	-0.248
-464.128	-2.812	0.170	-0.118
-463.113	-100.437	-0.119	-0.029
-462.099	-200.000	0.033	-0.426
-461.084	-200.000	-0.006	-0.098
-460.070	622.533	0.070	0.175
-459.055	47.843	0.298	-0.277
-458.040	-122.041	-0.196	0.032
-457.026	229.594	0.140	-0.227
-456.011	294.979	0.124	0.226
-454.997	161.895	0.186	-0.259
-453.982	-182.749	-0.298	0.005
-452.968	-77.288	0.192	0.066
-451.953	800.000	0.057	0.159
-450.938	6.426	0.155	0.114
-449.924	6.025	0.368	0.271
-448.909	-200.000	-0.020	-0.157
-447.895	19.874	0.127	-0.102
-446.880	800.000	-0.070	-0.215
-445.865	-73.107	-0.146	0.053
-444.851	-67.568	0.237	-0.092
-443.836	32.717	0.138	0.118
-442.822	18.018	0.142	0.112
-441.807	-169.269	0.332	-0.012
-440.792	721.546	0.089	0.236
-439.778	303.946	0.093	-0.170
-438.763	373.810	-0.107	0.215
-437.749	98.332	-0.039	-0.044
-436.734	-93.186	0.117	-0.032
-435.719	-200.000	0.033	0.186
-434.705	323.139	-0.061	-0.115
-433.690	800.000	-0.078	0.252
-432.676	2.204	0.219	-0.157
-431.661	141.748	-0.110	-0.145
-430.646	800.000	-0.029	0.101
-429.632	-7.702	0.346	0.232
-428.617	102.146	0.064	-0.074
-427.603	-88.980	-0.233	0.068
-426.588	237.987	0.118	0.194
-425.573	-37.532	0.247	-0.131
-424.559	-200.000	0.027	-0.146
-423.544	-88.681	0.050	0.015
-422.530	-148.238	0.395	-0.032
-421.515	-111.871	-0.159	-0.032
-420.500	137.409	0.085	-0.111
-419.486	29.433	-0.140	0.118
-418.471	-31.961	0.082	-0.045
-417.457	147.698	-0.078	0.104
-416.442	-200.000	-0.070	0.322
-415.428	92.609	0.158	0.177
-414.413	45.233	-0.204	-0.187
-413.398	-200.000	-0.039	-0.205
-412.384	62.373	-0.092	-0.091
-411.369	250.061	-0.045	-0.075
-410.355	281.964	0.090	-0.159
-409.340	-29.732	0.346	-0.195
-408.325	-7.261	-0.078	0.053
-407.311	-200.000	0.043	-0.332
-406.296	-73.582	0.241	0.087
-405.282	800.000	-0.041	0.114
-404.267	548.979	0.065	-0.155
-403.252	59.174	-0.088	0.086
-402.238	-103.178	0.137	0.032
-401.223	14.932	0.178	0.138
-400.209	-141.975	-0.451	0.045
-399.194	31.741	-0.061	-0.052
-398.179	-200.000	0.002	-0.012
-397.165	-76.886	-0.176	0.061
-396.150	732.394	-0.115	0.306
-395.136	-200.000	0.027	0.132
-394.121	-86.225	-0.230	0.070
-393.106	207.591	-0.180	0.279
-392.092	-200.000	-0.001	0.116
-391.077	-200.000	0.067	-0.315
-390.063	218.066	-0.062	-0.098
-389.048	-200.000	-0.063	0.346
-388.033	-74.471	-0.319	0.114
-387.019	-200.000	0.014	-0.095
-386.004	20.059	-0.090	0.072
-384.990	-200.000	-0.066	0.358
-383.975	8.029	0.146	0.108
-382.960	79.674	-0.097	-0.103
-381.946	800.000	0.025	-0.094
-380.931	30.837	0.105	0.089
-379.917	800.000	-0.053	-0.148
-378.902	243.150	-0.103	-0.171
-377.888	-89.364	-0.178	0.052
-376.873	-112.312	-0.286	0.057
-375.858	82.392	0.164	0.177
-374.844	800.000	0.049	0.164
-373.829	-200.000	-0.030	-0.253
-372.815	800.000	-0.044	0.149
-371.800	392.177	0.019	0.040
-370.785	49.337	0.115	-0.107
-369.771	-1.988	-0.142	-0.099
-368.756	42.611	0.198	-0.178
-367.742	3.632	-0.398	0.288
-366.727	-200.000	-0.060	-0.451
-365.712	-41.531	0.429	0.218
-364.698	800.000	0.084	0.307
-363.683	81.414	-0.172	-0.184
-362.669	-56.191	0.213	-0.094
-361.654	498.640	-0.098	-0.223
-360.639	-55.249	0.104	-0.046
-359.625	-200.000	-0.007	-0.192
-358.610	-90.843	-0.377	0.107
-357.596	-10.225	0.304	-0.200
-356.581	-82.456	0.153	-0.049
-355.566	59.517	-0.211	-0.206
-354.552	-200.000	0.030	0.243
-353.537	-82.320	0.224	-0.072
-352.523	-42.636	-0.161	0.081
-351.508	222.668	0.127	-0.202
-350.493	91.364	0.109	-0.121
-349.479	37.809	0.188	-0.165
-348.464	-43.139	-0.111	0.055
-347.450	-200.000	0.041	0.232
-346.435	800.000	-0.133	-0.411
-345.420	290.631	-0.111	0.199
-344.406	-124.133	0.385	-0.060
-343.391	-114.259	0.188	0.036
-342.377	-200.000	0.023	0.200
-341.362	-200.000	-0.065	-0.398
-340.348	58.512	-0.217	0.210
-339.333	-200.000	-0.014	-0.166
-338.318	-65.842	-0.161	0.064
-337.304	237.309	0.087	0.142
-336.289	800.000	0.024	0.099
-335.275	304.468	-0.037	-0.068
-334.260	229.976	0.120	0.194
-333.245	-61.829	-0.129	-0.054
-332.231	305.687	0.119	0.219
-331.216	-200.000	-0.007	-0.202
-330.202	147.009	0.133	-0.176
-329.187	78.507	-0.212	0.224
-328.172	-3.068	-0.272	-0.188
-327.158	-200.000	0.010	0.187
-326.143	-200.000	0.017	0.161
-325.129	-10.644	-0.064	-0.042
-324.114	-58.921	-0.521	0.223
-323.099	528.509	-0.110	0.256
-322.085	-112.234	0.374	0.074
-321.070	-61.711	-0.227	-0.094
-320.056	-73.353	0.184	-0.066
-319.041	-128.479	-0.097	-0.014
-318.026	-58.782	-0.174	-0.074
-317.012	-200.000	-0.015	-0.144
-315.997	-0.521	-0.359	-0.251
-314.983	-127.352	0.208	0.030
-313.968	28.491	-0.307	-0.257
-312.953	-62.118	-0.141	0.058
-311.939	800.000	-0.009	-0.029
-310.924	83.505	-0.176	-0.190
-309.910	-36.590	-0.158	-0.084
-308.895	-141.134	-0.125	-0.013
-307.880	85.204	0.158	0.171
-306.866	119.501	0.111	0.136
-305.851	-200.000	0.070	-0.326
-304.837	365.432	0.063	-0.126
-303.822	-129.478	0.114	0.016
-302.807	30.730	0.189	-0.160
-301.793	246.124	-0.098	-0.163
-300.778	6.074	0.255	0.186
-299.764	-200.000	-0.013	-0.123
-298.749	-110.624	0.222	0.045
-297.735	226.738	-0.083	-0.133
-296.720	60.008	0.278	0.271
-295.705	367.370	-0.010	-0.019
-294.691	412.525	-0.099	0.208
-293.676	-200.000	0.017	0.128
-292.662	-200.000	0.036	-0.176
-291.647	37.254	-0.195	0.170
-290.632	107.681	-0.267	0.313
-289.618	183.955	-0.172	-0.251
-288.603	90.935	-0.226	-0.250
-287.589	79.582	0.136	0.144
-286.574	489.160	-0.060	-0.135
-285.559	238.676	0.082	0.134
-284.545	13.865	0.130	-0.100
-283.530	-16.541	0.085	-0.053
-282.516	300.794	0.115	0.210
-281.501	-88.462	-0.107	0.031
-280.486	800.000	-0.019	-0.068
-279.472	800.000	0.051	-0.212
-278.457	-200.000	-0.104	0.455
-277.443	-3.081	0.219	0.151
-276.428	-60.198	0.098	0.041
-275.413	57.753	0.306	-0.295
-274.399	145.599	0.190	-0.251
-273.384	71.299	-0.048	0.049
-272.370	-0.342	-0.210	0.147
-271.355	-200.000	0.056	0.456
-270.340	315.613	0.063	0.117
-269.326	-89.268	-0.158	0.046
-268.311	800.000	-0.242	0.666
-267.297	-200.000	-0.009	0.046
-266.282	149.047	-0.232	0.309
-265.267	-10.363	0.162	-0.106
-264.253	800.000	-0.037	-0.119
-263.238	-3.137	-0.086	0.059
-262.224	327.353	0.122	0.230
-261.209	-46.380	-0.157	0.076
-260.195	-69.463	-0.434	-0.164
-259.180	-91.536	-0.275	0.077
-258.165	-200.000	-0.014	0.117
-257.151	-34.190	-0.315	-0.171
-256.136	88.357	-0.101	0.110
-255.122	-21.532	0.450	0.270
-254.107	-37.592	0.164	0.086
-253.092	8.677	-0.110	-0.082
-252.078	32.507	0.231	0.197
-251.063	-77.925	0.103	-0.035
-250.049	800.000	-0.074	-0.207
-249.034	800.000	0.045	0.188
-248.019	41.629	0.120	-0.107
-247.005	525.912	0.093	-0.215
-245.990	-200.000	0.036	0.156
-244.976	-76.110	0.164	0.057
-243.961	-120.858	-0.139	-0.023
-242.946	131.075	0.224	-0.283
-241.932	570.000	-0.012	0.030
-240.917	-200.000	0.021	-0.107
-239.903	-9.074	-0.229	-0.151
-238.888	800.000	-0.020	-0.057
-237.873	-2.430	-0.077	-0.053
-236.859	385.427	0.079	-0.160
-235.844	-182.198	-0.291	0.005
-234.830	-23.155	-0.139	-0.083
-233.815	3.685	0.179	-0.128
-232.800	137.367	-0.137	0.177
-231.786	-125.599	-0.394	0.059
-230.771	-127.624	-0.197	0.028
-229.757	33.871	0.280	0.240
-228.742	-88.273	-0.167	-0.049
-227.727	-72.486	0.327	-0.119
-226.713	633.622	-0.018	0.046
-225.698	107.261	0.150	0.176
-224.684	-101.115	0.415	0.100
-223.669	59.700	-0.053	-0.051
-222.655	-1.433	-0.219	0.152
-221.640	108.229	0.103	0.121
-220.625	191.473	0.214	0.317
-219.611	-22.090	-0.293	0.175
-218.596	-98.015	-0.195	0.050
-217.582	161.628	0.195	0.268
-216.567	-166.919	0.209	-0.008
-215.552	-200.000	0.269	0.001
-214.538	-200.000	0.013	-0.128
-213.523	-136.300	-0.088	-0.010
-212.509	49.351	-0.184	0.170
-211.494	262.533	-0.123	0.211
-210.479	-18.414	0.137	0.084
-209.465	-200.000	-0.030	0.300
-208.450	-61.345	-0.124	-0.051
-207.436	219.172	0.100	0.157
-206.421	800.000	-0.130	0.495
-205.406	-200.000	-0.057	0.351
-204.392	-6.293	-0.112	0.075
-203.377	-200.000	-0.000	-0.272
-202.363	-146.540	0.362	-0.031
-201.348	-174.579	0.064	0.002
-200.333	-200.000	-0.021	-0.152
-199.319	-25.811	-0.158	-0.092
-198.304	312.859	-0.043	-0.080
-197.290	218.936	0.080	-0.126
-196.275	-139.073	-0.198	0.021
-195.260	24.681	-0.292	0.238
-194.246	42.581	-0.122	-0.109
-193.231	-200.000	-0.020	0.224
-192.217	-78.135	-0.110	0.037
-191.202	147.229	0.166	-0.220
-190.187	-109.097	-0.294	0.062
-189.173	-73.406	0.307	0.110
-188.158	-28.603	-0.126	-0.071
-187.144	32.809	0.325	-0.277
-186.129	800.000	-0.028	0.082
-185.114	130.138	0.196	0.247
-184.100	0.278	0.113	0.079
-183.085	-179.039	-0.035	0.001
-182.071	-133.025	0.320	0.040
-181.056	348.417	0.101	0.195
-180.042	532.692	0.134	0.312
-179.027	-8.082	-0.200	0.132
-178.012	404.201	0.094	0.194
-176.998	-106.163	0.327	-0.072
-175.983	70.287	0.331	0.335
-174.969	-22.449	-0.138	-0.082
-173.954	-63.089	0.147	0.060
-172.939	453.169	-0.128	0.277
-171.925	5.846	0.233	0.169
-170.910	-91.091	0.278	0.078
-169.896	800.000	-0.041	-0.122
-168.881	-153.851	-0.176	-0.012
-167.866	800.000	-0.044	-0.170
-166.852	-91.096	0.235	0.066
-165.837	-10.747	-0.068	0.044
-164.823	-23.769	-0.336	-0.198
-163.808	236.044	0.106	-0.172
-162.793	-178.459	-0.344	-0.008
-161.779	-106.870	0.186	0.040
-160.764	-140.200	0.170	0.018
-159.750	800.000	0.022	0.071
-158.735	-18.045	-0.300	0.185
-157.720	-117.128	-0.306	-0.055
-156.706	-120.827	-0.540	0.089
-155.691	-61.182	-0.344	0.142
-154.677	642.246	0.048	-0.120
-153.662	-18.966	-0.215	-0.131
-152.647	-27.666	-0.120	0.068
-151.633	349.294	0.093	0.181
-150.618	800.000	0.058	0.189
-149.604	800.000	-0.048	0.154
-148.589	-111.442	0.323	-0.064
-147.574	229.938	-0.111	-0.178
-146.560	8.848	0.278	-0.205
-145.545	800.000	0.071	0.215
-144.531	54.522	-0.158	-0.150
-143.516	368.801	-0.023	-0.046
-142.502	-200.000	0.026	0.283
-141.487	388.062	0.022	-0.044
-140.472	692.572	-0.107	-0.274
-139.458	23.994	0.406	-0.328
-138.443	-200.000	-0.028	0.302
-137.429	-200.000	0.032	0.284
-136.414	75.056	0.258	-0.266
-135.399	-127.691	0.111	0.016
-134.385	800.000	-0.091	-0.265
-133.370	139.651	0.122	-0.157
-132.356	298.194	0.187	-0.337
-131.341	-200.000	0.056	0.252
-130.326	30.952	0.074	-0.062
-129.312	118.935	0.070	0.085
-128.297	205.660	0.096	0.146
-127.283	618.901	0.019	-0.048
-126.268	800.000	-0.029	0.115
-125.253	126.369	-0.003	-0.004
-124.239	-200.000	0.081	-0.361
-123.224	289.152	0.097	-0.172
-122.210	-88.161	0.099	0.029
-121.195	271.418	0.120	0.206
-120.180	451.702	-0.137	0.296
