DTS Sentinel unit serial number:	SN413079Multiplexer serial number:	ORYXHardware model number:	OX4-SRSoftware version number:	ORYX F/W v4.00 Oryx Data Collector v3.7.2.0data status	okinstallation	princeton_trtdifferential loss correction	single-endedforward channel	channel 2reverse channel	N/Adate	2019/09/13time	08:59:35forward acquisition time	60.00reverse acquisition time	0.00gamma	496.2192k internal	0.2331k external	0.2331temperature offset calibration	1.0198default loss term (dB/km)	0.3790temperature slope calibration	1.0000multiplexer offset coefficient	1.0000multiplexer slope coefficient	1.0000fibre end	0.00T internal ref (°C)	28.39T ext. ref 1 (°C)	4.37T ext. ref 2 (°C)	25.65length (m)	temperature (°C)	Stokes	anti-Stokes-747.200	62.437	0.374	-0.376
-746.185	129.469	-0.182	0.234
-745.171	-130.686	0.101	-0.014
-744.156	-200.000	0.021	0.176
-743.142	-81.549	0.175	0.058
-742.127	168.286	-0.146	0.209
-741.112	-186.212	-0.289	0.004
-740.098	734.997	-0.197	0.531
-739.083	46.539	0.183	-0.171
-738.069	-99.961	0.376	0.095
-737.054	-109.858	-0.205	-0.043
-736.039	-138.671	-0.221	0.024
-735.025	232.882	0.253	0.418
-734.010	4.287	0.037	0.027
-732.996	-62.681	-0.441	0.184
-731.981	449.409	0.081	-0.180
-730.966	209.560	-0.182	0.288
-729.952	33.160	-0.136	-0.118
-728.937	-200.000	-0.039	0.317
-727.923	-116.721	-0.116	0.021
-726.908	-149.028	0.166	-0.013
-725.894	-97.817	-0.323	-0.084
-724.879	-170.711	0.143	-0.005
-723.864	-48.413	0.191	-0.093
-722.850	800.000	0.116	-0.332
-721.835	800.000	0.032	0.104
-720.821	-39.724	-0.291	0.153
-719.806	58.286	-0.123	-0.122
-718.791	-123.677	0.263	0.042
-717.777	-73.196	0.259	-0.095
-716.762	-200.000	0.000	-0.001
-715.748	800.000	-0.132	0.406
-714.733	-119.670	0.446	0.077
-713.718	-22.733	-0.067	-0.041
-712.704	183.083	-0.177	-0.263
-711.689	-18.388	0.267	0.168
-710.675	372.484	-0.155	0.316
-709.660	440.323	0.115	0.252
-708.645	-200.000	0.036	0.388
-707.631	173.851	0.321	0.465
-706.616	-76.156	0.096	-0.034
-705.602	119.968	0.111	-0.138
-704.587	217.751	-0.151	0.242
-703.572	-146.397	0.422	0.037
-702.558	106.524	-0.057	-0.068
-701.543	-77.977	0.346	-0.120
-700.529	-200.000	0.029	0.236
-699.514	319.907	-0.106	0.202
-698.499	99.867	-0.115	0.134
-697.485	-200.000	-0.020	-0.280
-696.470	800.000	0.083	-0.288
-695.456	-162.042	-0.272	0.014
-694.441	-69.404	-0.124	0.048
-693.426	39.071	0.160	-0.143
-692.412	-149.523	-0.182	-0.014
-691.397	69.137	0.020	-0.021
-690.383	103.943	-0.008	-0.009
-689.368	-200.000	0.027	-0.146
-688.354	35.576	0.270	0.238
-687.339	-140.795	-0.170	-0.018
-686.324	-27.698	-0.085	-0.050
-685.310	494.297	0.072	-0.166
-684.295	204.177	-0.175	-0.273
-683.281	-130.868	-0.371	-0.050
-682.266	-200.000	0.010	0.050
-681.251	-76.890	0.039	-0.014
-680.237	800.000	-0.055	0.161
-679.222	-101.548	-0.145	0.035
-678.208	426.649	0.046	-0.100
-677.193	-67.853	-0.122	-0.048
-676.178	603.929	-0.073	0.182
-675.164	74.789	-0.100	-0.106
-674.149	-48.813	0.117	0.056
-673.135	7.090	-0.281	-0.210
-672.120	38.010	0.070	-0.062
-671.105	218.444	0.143	-0.230
-670.091	82.447	0.245	-0.267
-669.076	-60.677	-0.077	-0.033
-668.062	800.000	0.079	0.297
-667.047	-89.889	-0.368	-0.108
-666.032	-174.379	0.064	-0.002
-665.018	-191.998	0.424	0.004
-664.003	-135.005	0.238	0.029
-662.989	-200.000	-0.000	-0.395
-661.974	-55.342	-0.094	0.042
-660.959	117.360	0.136	-0.168
-659.945	436.799	0.158	-0.346
-658.930	16.279	0.110	0.087
-657.916	-117.908	-0.096	0.017
-656.901	236.422	-0.252	-0.418
-655.886	-56.357	0.209	0.093
-654.872	-200.000	0.029	-0.204
-653.857	800.000	0.046	-0.186
-652.843	800.000	-0.110	-0.311
-651.828	-200.000	0.008	0.160
-650.814	800.000	-0.043	-0.153
-649.799	-200.000	-0.056	-0.391
-648.784	-200.000	0.037	-0.303
-647.770	9.931	0.270	0.205
-646.755	-150.697	0.153	0.012
-645.741	37.758	0.239	-0.213
-644.726	-103.863	0.169	-0.040
-643.711	114.832	0.068	0.083
-642.697	-40.787	-0.157	-0.082
-641.682	-60.157	0.091	-0.039
-640.668	-125.415	0.372	-0.057
-639.653	104.272	-0.137	-0.162
-638.638	-196.778	-0.253	-0.002
-637.624	77.990	-0.241	0.258
-636.609	172.237	-0.146	0.211
-635.595	-200.000	0.013	0.341
-634.580	24.838	-0.151	0.125
-633.565	-120.244	-0.143	-0.024
-632.551	3.772	0.202	0.148
-631.536	-27.812	-0.128	0.074
-630.522	-43.154	-0.141	0.072
-629.507	122.006	-0.134	-0.168
-628.492	-36.563	0.276	-0.149
-627.478	-127.598	-0.202	-0.029
-626.463	-65.027	0.202	0.082
-625.449	800.000	0.059	0.251
-624.434	89.621	0.098	0.110
-623.419	-99.461	0.502	0.127
-622.405	-158.580	0.335	-0.019
-621.390	-59.245	-0.153	-0.066
-620.376	-141.428	-0.175	0.018
-619.361	-200.000	0.061	-0.280
-618.346	-7.445	-0.182	-0.124
-617.332	96.791	-0.321	-0.368
-616.317	-52.743	0.043	-0.020
-615.303	-60.444	0.060	0.026
-614.288	-168.794	-0.357	0.013
-613.273	56.389	-0.079	-0.077
-612.259	-18.907	0.119	-0.074
-611.244	-140.204	0.125	-0.013
-610.230	800.000	0.088	-0.261
-609.215	-106.225	-0.068	-0.015
-608.201	119.169	-0.218	-0.270
-607.186	117.107	0.213	0.262
-606.171	33.843	-0.184	-0.160
-605.157	567.209	0.096	-0.234
-604.142	800.000	-0.073	-0.315
-603.128	73.971	0.253	-0.266
-602.113	-159.869	-0.078	0.004
-601.098	-200.000	-0.013	-0.110
-600.084	525.807	-0.076	-0.179
-599.069	174.984	0.191	-0.277
-598.055	-200.000	-0.010	0.073
-597.040	492.564	-0.107	-0.245
-596.025	-200.000	-0.002	-0.295
-595.011	3.841	0.036	0.026
-593.996	621.250	-0.100	-0.252
-592.982	311.780	-0.142	-0.267
-591.967	36.081	-0.114	0.100
-590.952	-152.800	-0.273	-0.019
-589.938	-200.000	-0.039	-0.322
-588.923	84.022	-0.128	-0.140
-587.909	-85.347	0.284	-0.089
-586.894	-74.622	0.142	-0.051
-585.879	-200.000	-0.015	-0.206
-584.865	800.000	0.037	0.107
-583.850	-200.000	0.019	-0.298
-582.836	-200.000	0.032	0.188
-581.821	75.339	-0.226	0.238
-580.806	46.715	0.235	0.218
-579.792	281.425	-0.068	0.121
-578.777	188.248	-0.144	-0.216
-577.763	800.000	0.086	0.348
-576.748	52.545	0.120	-0.115
-575.733	0.166	-0.168	0.120
-574.719	521.831	0.197	-0.463
-573.704	-25.213	0.143	-0.084
-572.690	800.000	-0.054	-0.195
-571.675	115.442	0.135	-0.165
-570.661	-90.089	0.236	-0.069
-569.646	-200.000	-0.018	0.333
-568.631	-134.058	-0.182	-0.022
-567.617	5.275	-0.083	0.061
-566.602	-200.000	-0.042	0.308
-565.588	10.022	-0.221	0.168
-564.573	-200.000	-0.014	0.091
-563.558	800.000	0.082	-0.349
-562.544	36.335	-0.183	-0.161
-561.529	-29.221	0.390	-0.223
-560.515	-200.000	-0.007	0.046
-559.500	-122.099	-0.257	0.042
-558.485	209.849	0.153	0.240
-557.471	-9.733	-0.290	0.193
-556.456	309.904	-0.089	0.166
-555.442	-26.591	-0.265	-0.155
-554.427	125.413	0.176	0.222
-553.412	-5.236	-0.140	-0.096
-552.398	-134.918	-0.147	0.018
-551.383	-6.341	0.125	0.085
-550.369	140.688	-0.248	-0.327
-549.354	-15.934	0.134	-0.085
-548.339	176.392	-0.257	-0.373
-547.325	-58.647	0.089	-0.038
-546.310	-135.794	-0.389	-0.046
-545.296	-200.000	0.035	-0.161
-544.281	800.000	-0.095	0.291
-543.266	-28.785	-0.140	0.081
-542.252	-200.000	-0.006	0.042
-541.237	-100.926	0.187	-0.046
-540.223	-200.000	0.004	0.149
-539.208	800.000	0.134	0.417
-538.193	-38.410	-0.295	-0.156
-537.179	95.972	0.108	0.123
-536.164	-64.208	-0.413	0.168
-535.150	-16.964	0.257	-0.162
-534.135	800.000	-0.039	-0.119
-533.121	800.000	-0.087	0.282
-532.106	800.000	-0.079	-0.235
-531.091	-200.000	-0.013	-0.277
-530.077	-66.515	-0.495	0.196
-529.062	800.000	-0.090	-0.292
-528.048	-200.000	0.008	-0.196
-527.033	-200.000	-0.007	-0.123
-526.018	3.692	-0.186	-0.136
-525.004	210.586	0.155	0.243
-523.989	800.000	-0.055	0.164
-522.975	-158.874	-0.182	0.010
-521.960	97.068	0.248	0.284
-520.945	-150.375	-0.401	-0.031
-519.931	-200.000	-0.015	-0.145
-518.916	-33.482	-0.109	0.060
-517.902	-67.903	-0.081	0.031
-516.887	800.000	-0.038	-0.157
-515.872	-0.925	-0.038	-0.027
-514.858	246.153	-0.100	0.168
-513.843	251.142	-0.063	0.106
-512.829	-200.000	0.049	0.423
-511.814	274.917	-0.042	0.073
-510.799	-200.000	0.069	0.308
-509.785	94.449	-0.221	-0.250
-508.770	-116.438	0.275	-0.051
-507.756	68.660	0.214	0.219
-506.741	287.311	-0.118	0.213
-505.726	-36.808	-0.144	-0.077
-504.712	68.018	-0.046	-0.047
-503.697	-34.155	-0.140	0.077
-502.683	29.960	0.280	0.238
-501.668	371.462	0.150	0.303
-500.653	-88.217	-0.180	0.054
-499.639	-151.172	0.408	-0.031
-498.624	-57.275	-0.121	0.053
-497.610	65.932	-0.187	0.189
-496.595	800.000	-0.067	0.247
-495.581	-73.786	0.220	0.080
-494.566	800.000	0.069	0.230
-493.551	277.052	0.133	-0.235
-492.537	-200.000	0.003	-0.121
-491.522	481.810	-0.119	0.269
-490.508	-68.039	-0.059	-0.023
-489.493	210.941	-0.122	0.192
-488.478	-138.352	0.286	0.031
-487.464	146.025	-0.099	0.132
-486.449	-35.708	-0.136	0.073
-485.435	144.818	0.128	-0.171
-484.420	19.473	0.203	-0.163
-483.405	260.990	0.090	0.156
-482.391	-70.635	0.137	-0.052
-481.376	-200.000	0.042	0.285
-480.362	-124.295	0.288	-0.045
-479.347	-200.000	-0.004	-0.076
-478.332	292.554	0.185	-0.335
-477.318	-128.868	-0.136	-0.019
-476.303	-28.789	-0.140	-0.080
-475.289	-33.516	0.147	0.081
-474.274	-1.551	-0.132	-0.093
-473.259	208.741	-0.202	0.315
-472.245	-11.888	0.344	0.224
-471.230	-59.559	-0.128	0.055
-470.216	-200.000	-0.022	-0.118
-469.201	150.546	0.121	0.164
-468.186	136.548	-0.041	0.053
-467.172	-105.817	0.342	0.077
-466.157	198.000	-0.125	0.190
-465.143	-18.678	-0.262	0.163
-464.128	800.000	-0.039	0.158
-463.113	59.616	0.095	-0.093
-462.099	-115.310	-0.355	-0.067
-461.084	-59.002	-0.056	-0.024
-460.070	-200.000	-0.001	0.187
-459.055	-170.165	0.044	0.002
-458.040	276.186	-0.123	-0.217
-457.026	-70.070	0.097	-0.037
-456.011	78.984	0.076	-0.081
-454.997	-143.252	-0.299	-0.029
-453.982	-45.492	-0.135	0.066
-452.968	-200.000	-0.014	-0.188
-451.953	166.060	-0.200	0.282
-450.938	-200.000	-0.057	0.333
-449.924	800.000	-0.151	0.422
-448.909	-112.770	-0.272	0.054
-447.895	670.494	0.178	-0.458
-446.880	-149.486	0.155	0.012
-445.865	67.205	-0.214	0.217
-444.851	-56.370	-0.106	0.047
-443.836	44.573	-0.101	0.092
-442.822	111.084	-0.204	-0.244
-441.807	43.460	-0.087	0.079
-440.792	-57.956	0.347	-0.151
-439.778	800.000	0.027	-0.110
-438.763	-78.939	-0.101	0.034
-437.749	281.393	0.072	0.128
-436.734	-55.994	0.244	0.108
-435.719	-11.048	-0.240	-0.157
-434.705	-108.598	-0.244	0.052
-433.690	-12.186	0.110	0.072
-432.676	95.723	0.174	-0.198
-431.661	78.073	-0.065	0.069
-430.646	-139.232	0.066	0.007
-429.632	122.639	-0.040	-0.050
-428.617	-200.000	0.006	0.054
-427.603	97.475	0.219	0.250
-426.588	-200.000	0.003	0.105
-425.573	159.393	-0.102	-0.142
-424.559	-200.000	0.024	-0.117
-423.544	21.079	-0.146	0.118
-422.530	-200.000	-0.003	-0.194
-421.515	-200.000	0.016	-0.341
-420.500	758.080	-0.038	-0.103
-419.486	800.000	0.047	-0.151
-418.471	330.521	-0.155	0.297
-417.457	-132.762	0.184	0.023
-416.442	227.114	-0.162	0.262
-415.428	165.997	0.160	0.224
-414.413	-200.000	0.002	0.241
-413.398	-200.000	0.024	0.126
-412.384	-86.802	-0.197	-0.060
-411.369	-200.000	-0.023	-0.194
-410.355	234.655	0.049	-0.081
-409.340	-152.055	0.100	0.007
-408.325	-13.929	-0.189	-0.121
-407.311	51.634	0.130	-0.123
-406.296	142.305	0.062	-0.082
-405.282	800.000	0.019	0.059
-404.267	800.000	0.081	-0.318
-403.252	-62.516	0.134	-0.055
-402.238	-62.494	-0.218	-0.090
-401.223	-200.000	0.132	0.000
-400.209	-127.685	-0.144	-0.021
-399.194	111.090	0.175	-0.209
-398.179	-112.808	0.075	-0.015
-397.165	33.712	0.022	0.019
-396.150	-77.048	-0.280	-0.097
-395.136	-200.000	-0.018	0.193
-394.121	476.171	-0.062	-0.138
-393.106	-96.410	0.163	0.043
-392.092	-157.321	0.412	0.025
-391.077	180.528	0.248	-0.361
-390.063	108.691	0.158	0.188
-389.048	1.791	-0.291	-0.208
-388.033	-47.494	0.299	0.144
-387.019	-200.000	0.024	-0.282
-386.004	51.232	0.068	-0.064
-384.990	-115.513	-0.346	-0.065
-383.975	-55.366	0.214	0.095
-382.960	42.716	0.359	0.325
-381.946	-94.148	-0.236	0.064
-380.931	-112.298	0.190	-0.038
-379.917	-134.003	-0.241	-0.030
-378.902	-200.000	0.011	0.278
-377.888	196.254	-0.133	-0.201
-376.873	-3.766	0.170	0.117
-375.858	800.000	0.029	0.119
-374.844	-114.588	-0.359	0.068
-373.829	800.000	-0.024	0.088
-372.815	98.235	-0.132	0.151
-371.800	800.000	-0.094	0.364
-370.785	-75.766	-0.125	-0.044
-369.771	409.074	-0.094	0.196
-368.756	-195.940	0.238	-0.002
-367.742	800.000	-0.056	0.225
-366.727	-198.931	-0.211	0.001
-365.712	447.778	-0.079	-0.173
-364.698	-200.000	-0.089	-0.000
-363.683	-200.000	0.019	-0.096
-362.669	-8.997	0.214	-0.142
-361.654	-200.000	-0.004	-0.123
-360.639	800.000	-0.074	0.220
-359.625	-17.565	0.165	0.103
-358.610	172.200	0.029	-0.041
-357.596	-7.305	0.090	-0.060
-356.581	235.196	0.078	0.127
-355.566	184.738	-0.130	0.191
-354.552	18.012	0.093	-0.074
-353.537	421.961	-0.076	0.161
-352.523	140.830	0.033	-0.044
-351.508	800.000	0.120	-0.337
-350.493	-75.491	-0.234	-0.083
-349.479	163.676	-0.180	0.251
-348.464	-32.745	0.461	0.254
-347.450	800.000	0.082	-0.321
-346.435	-43.126	-0.053	-0.026
-345.420	721.247	0.037	-0.097
-344.406	663.529	-0.069	0.176
-343.391	15.787	-0.262	0.204
-342.377	-88.680	0.421	-0.124
-341.362	307.625	0.121	0.224
-340.348	-23.665	0.079	0.047
-339.333	800.000	0.099	-0.293
-338.318	-200.000	-0.014	-0.234
-337.304	-200.000	0.013	0.257
-336.289	264.403	0.111	-0.192
-335.275	-2.627	-0.151	-0.105
-334.260	-57.870	-0.184	0.080
-333.245	-200.000	-0.020	0.354
-332.231	-178.122	-0.226	0.005
-331.216	-200.000	0.032	0.308
-330.202	339.497	0.169	0.325
-329.187	-200.000	0.092	0.497
-328.172	-96.826	0.151	-0.039
-327.158	-54.355	-0.042	0.019
-326.143	258.284	0.189	-0.322
-325.129	310.347	0.139	-0.257
-324.114	35.040	0.038	-0.033
-323.099	-200.000	-0.011	0.063
-322.085	-106.606	0.187	0.041
-321.070	-200.000	-0.021	0.186
-320.056	44.269	0.179	-0.163
-319.041	-115.670	0.227	0.042
-318.026	-200.000	-0.013	0.140
-317.012	-154.454	0.250	0.017
-315.997	492.910	0.039	-0.088
-314.983	-58.734	-0.270	-0.116
-313.968	256.772	0.103	0.176
-312.953	-4.888	0.243	0.166
-311.939	71.227	-0.240	0.247
-310.924	-200.000	0.012	-0.353
-309.910	482.890	-0.137	-0.307
-308.895	302.485	-0.165	-0.302
-307.880	-123.079	0.122	0.019
-306.866	-200.000	-0.023	-0.178
-305.851	785.289	0.075	-0.204
-304.837	-200.000	-0.002	-0.212
-303.822	-86.720	0.208	0.063
-302.807	-157.929	0.177	0.010
-301.793	800.000	-0.039	0.152
-300.778	-64.016	0.164	-0.066
-299.764	-13.417	0.209	0.134
-298.749	-41.903	0.277	0.141
-297.735	153.881	-0.146	0.197
-296.720	-109.062	0.230	0.048
-295.705	182.750	0.051	-0.075
-294.691	-30.766	-0.158	0.088
-293.676	-200.000	-0.006	0.335
-292.662	121.159	-0.101	-0.124
-291.647	-200.000	0.007	-0.094
-290.632	-84.596	-0.079	0.025
-289.618	529.843	-0.035	-0.081
-288.603	53.175	-0.143	-0.136
-287.589	-43.974	-0.210	0.104
-286.574	-112.526	0.231	-0.046
-285.559	345.681	0.040	-0.078
-284.545	-143.896	0.224	-0.021
-283.530	-59.741	-0.244	-0.103
-282.516	-67.404	-0.219	0.085
-281.501	-66.272	0.083	-0.033
-280.486	-70.901	0.080	-0.030
-279.472	-48.448	-0.266	0.127
-278.457	800.000	0.140	-0.428
-277.443	2.130	0.347	0.248
-276.428	800.000	-0.017	0.054
-275.413	-92.761	-0.306	-0.085
-274.399	254.959	-0.030	-0.051
-273.384	-31.473	0.046	-0.026
-272.370	800.000	-0.090	0.270
-271.355	300.048	0.082	-0.149
-270.340	-35.518	0.206	-0.110
-269.326	-200.000	0.008	0.079
-268.311	397.105	-0.064	0.132
-267.297	52.892	-0.222	0.209
-266.282	-114.798	0.199	0.037
-265.267	-54.811	-0.192	0.085
-264.253	65.402	0.146	-0.146
-263.238	89.170	-0.189	-0.207
-262.224	528.495	0.029	0.068
-261.209	-92.966	-0.134	-0.037
-260.195	-200.000	0.007	0.275
-259.180	115.410	0.294	-0.354
-258.165	-75.606	-0.100	0.035
-257.151	-17.937	0.240	0.148
-256.136	-61.624	0.492	0.204
-255.122	-200.000	-0.011	0.121
-254.107	64.106	-0.097	0.096
-253.092	-112.360	-0.231	-0.046
-252.078	-200.000	-0.009	0.056
-251.063	38.156	0.142	0.125
-250.049	-200.000	-0.003	0.098
-249.034	407.403	0.161	-0.336
-248.019	-48.313	0.198	0.094
-247.005	85.036	-0.139	-0.151
-245.990	800.000	-0.126	-0.459
-244.976	-97.810	0.166	-0.042
-243.961	63.503	-0.266	0.264
-242.946	800.000	0.136	0.474
-241.932	-76.173	0.101	-0.035
-240.917	95.991	-0.079	0.089
-239.903	210.547	-0.178	-0.276
-238.888	138.592	-0.003	0.004
-237.873	-98.042	-0.216	-0.055
-236.859	-7.379	-0.316	0.211
-235.844	182.114	-0.129	0.187
-234.830	-124.483	-0.207	0.032
-233.815	254.552	0.116	-0.195
-232.800	327.067	0.223	-0.421
-231.786	370.853	0.120	-0.241
-230.771	800.000	-0.060	0.177
-229.757	163.385	-0.144	-0.199
-228.742	142.635	0.175	-0.230
-227.727	-33.408	0.124	-0.068
-226.713	284.613	0.117	0.208
-225.698	88.293	0.146	0.160
-224.684	-25.262	-0.234	-0.136
-223.669	-126.215	-0.126	-0.019
-222.655	-12.699	-0.264	0.170
-221.640	-11.887	0.242	-0.156
-220.625	575.017	-0.068	-0.163
-219.611	-200.000	0.019	0.242
-218.596	-133.566	-0.326	-0.040
-217.582	16.620	-0.072	-0.056
-216.567	-101.703	-0.213	-0.051
-215.552	-113.026	-0.122	0.024
-214.538	-184.260	0.368	-0.006
-213.523	-200.000	-0.077	0.497
-212.509	278.094	0.062	0.109
-211.494	800.000	0.057	0.199
-210.479	-132.181	0.334	0.043
-209.465	-78.773	0.261	0.088
-208.450	-108.202	-0.102	-0.022
-207.436	-146.353	0.211	0.018
-206.421	-200.000	0.011	0.244
-205.406	105.003	-0.132	-0.154
-204.392	-9.810	-0.046	0.030
-203.377	41.200	-0.242	0.216
-202.363	-200.000	-0.000	0.011
-201.348	284.909	-0.120	-0.213
-200.333	43.923	-0.150	0.135
-199.319	-112.330	0.075	0.015
-198.304	-0.130	0.280	-0.196
-197.290	136.526	0.038	0.048
-196.275	-31.661	0.256	-0.142
-195.260	-82.478	0.390	0.125
-194.246	201.563	-0.048	-0.073
-193.231	-200.000	0.004	-0.101
-192.217	-136.746	0.235	0.027
-191.202	104.600	0.055	0.064
-190.187	-200.000	-0.007	-0.331
-189.173	-173.548	-0.143	0.004
-188.158	-200.000	0.060	0.270
-187.144	-56.415	0.410	0.179
-186.129	262.250	-0.162	-0.277
-185.114	-200.000	-0.006	-0.095
-184.100	77.585	-0.207	-0.217
-183.085	-200.000	-0.053	0.243
-182.071	-42.387	-0.367	-0.184
-181.056	-200.000	-0.045	-0.311
-180.042	98.652	0.126	0.143
-179.027	800.000	0.085	-0.261
-178.012	88.305	0.196	0.215
-176.998	701.145	0.045	-0.118
-175.983	65.022	-0.072	-0.072
-174.969	-200.000	-0.032	-0.244
-173.954	-135.881	0.350	0.041
-172.939	27.046	0.214	0.177
-171.925	-87.565	-0.304	-0.090
-170.910	-135.009	0.187	-0.022
-169.896	-120.154	0.118	-0.020
-168.881	-200.000	-0.018	-0.097
-167.866	26.555	0.370	-0.305
-166.852	-153.156	-0.203	0.014
-165.837	-200.000	-0.029	0.171
-164.823	-149.445	0.336	-0.026
-163.808	-8.101	-0.244	-0.161
-162.793	26.551	0.011	-0.009
-161.779	-3.273	-0.153	0.105
-160.764	64.069	0.109	0.108
-159.750	-34.766	-0.534	0.287
-158.735	-200.000	-0.002	-0.131
-157.720	-94.952	0.163	0.043
-156.706	-200.000	-0.004	-0.186
-155.691	2.169	0.068	0.048
-154.677	215.238	0.125	-0.196
-153.662	-125.243	-0.207	0.031
-152.647	209.925	-0.161	-0.249
-151.633	-36.272	-0.206	0.109
-150.618	7.040	0.411	0.301
-149.604	-171.196	0.344	0.011
-148.589	-200.000	-0.051	0.269
-147.574	329.835	0.056	-0.105
-146.560	34.449	0.075	0.065
-145.545	556.832	0.110	0.261
-144.531	-200.000	-0.022	0.428
-143.516	5.811	0.130	-0.094
-142.502	-66.737	0.036	0.014
-141.487	-92.138	0.257	0.071
-140.472	100.762	-0.098	0.112
-139.458	-75.806	0.217	0.076
-138.443	60.780	0.301	0.293
-137.429	450.603	-0.074	0.161
-136.414	-89.293	-0.083	0.024
-135.399	461.267	0.189	0.414
-134.385	28.905	-0.129	0.108
-133.370	-155.688	0.252	0.016
-132.356	113.825	0.161	0.192
-131.341	481.493	0.088	-0.197
-130.326	-54.598	-0.143	0.064
-129.312	310.656	-0.031	0.057
-128.297	105.747	0.196	0.227
-127.283	-47.464	-0.240	-0.115
-126.268	254.829	0.052	-0.087
-125.253	229.987	0.094	-0.151
-124.239	-125.821	0.388	-0.058
-123.224	-200.000	0.248	-0.001
-122.210	11.626	-0.163	0.123
-121.195	3.756	0.231	0.166
