DTS Sentinel unit serial number:	SN413079Multiplexer serial number:	ORYXHardware model number:	OX4-SRSoftware version number:	ORYX F/W v4.00 Oryx Data Collector v3.7.2.0data status	okinstallation	princeton_trtdifferential loss correction	single-endedforward channel	channel 2reverse channel	N/Adate	2019/09/11time	20:45:11forward acquisition time	60.00reverse acquisition time	0.00gamma	496.2192k internal	0.2321k external	0.2321temperature offset calibration	1.0058default loss term (dB/km)	0.3790temperature slope calibration	1.0000multiplexer offset coefficient	1.0000multiplexer slope coefficient	1.0000fibre end	0.00T internal ref (°C)	37.12T ext. ref 1 (°C)	1.57T ext. ref 2 (°C)	30.86length (m)	temperature (°C)	Stokes	anti-Stokes-747.200	800.000	0.030	0.099
-746.185	250.821	-0.134	0.231
-745.171	-105.911	0.079	0.018
-744.156	-159.536	-0.322	0.018
-743.142	224.428	0.191	-0.312
-742.127	173.694	0.095	-0.139
-741.112	-200.000	-0.005	0.096
-740.098	-162.756	0.113	0.006
-739.083	-55.453	0.288	0.131
-738.069	197.312	0.129	0.199
-737.054	372.951	-0.109	0.223
-736.039	-10.317	-0.204	-0.137
-735.025	-81.929	0.398	-0.132
-734.010	103.670	-0.143	0.170
-732.996	425.327	-0.082	-0.179
-731.981	-127.637	-0.494	0.072
-730.966	68.082	0.363	-0.375
-729.952	2.502	0.063	0.046
-728.937	-100.362	-0.231	0.058
-727.923	-81.216	-0.080	0.027
-726.908	98.417	0.044	-0.052
-725.894	0.478	-0.224	0.162
-724.879	623.999	-0.080	-0.204
-723.864	-18.033	-0.097	0.061
-722.850	-38.804	-0.114	0.060
-721.835	749.338	-0.142	-0.387
-720.821	800.000	0.132	-0.380
-719.806	-200.000	-0.039	0.249
-718.791	-24.371	-0.184	-0.111
-717.777	752.383	-0.081	0.221
-716.762	-44.052	-0.320	0.162
-715.748	86.071	0.047	-0.052
-714.733	800.000	0.018	0.059
-713.718	141.574	-0.114	-0.153
-712.704	-200.000	-0.001	-0.249
-711.689	-101.934	-0.534	-0.130
-710.675	-87.274	0.144	0.044
-709.660	-200.000	-0.024	-0.341
-708.645	229.221	0.058	0.096
-707.631	-200.000	0.011	0.133
-706.616	-185.021	-0.305	0.005
-705.602	24.804	0.178	-0.149
-704.587	-68.091	-0.224	-0.088
-703.572	-200.000	0.014	-0.062
-702.558	-110.605	0.147	0.031
-701.543	87.779	0.118	0.132
-700.529	-36.037	-0.045	0.025
-699.514	-99.389	0.370	0.094
-698.499	-200.000	0.090	-0.592
-697.485	-22.942	-0.145	-0.088
-696.470	125.458	0.098	-0.124
-695.456	297.014	0.108	-0.200
-694.441	95.440	0.094	0.108
-693.426	177.479	-0.121	-0.178
-692.412	589.451	0.021	0.051
-691.397	-134.130	-0.356	0.044
-690.383	800.000	0.054	-0.167
-689.368	-200.000	0.000	0.362
-688.354	-115.284	0.169	0.032
-687.339	-101.559	0.047	-0.011
-686.324	-29.774	0.346	0.199
-685.310	300.140	0.106	-0.197
-684.295	-145.570	0.286	-0.026
-683.281	113.583	0.146	0.179
-682.266	506.086	0.195	0.457
-681.251	361.653	-0.101	0.203
-680.237	-9.791	-0.312	0.209
-679.222	-14.629	-0.197	0.128
-678.208	138.335	0.185	-0.245
-677.193	-12.600	-0.250	-0.164
-676.178	53.359	0.053	-0.051
-675.164	800.000	-0.009	0.029
-674.149	44.456	-0.118	0.109
-673.135	574.024	-0.089	-0.220
-672.120	34.044	0.266	-0.234
-671.105	42.596	0.182	-0.167
-670.091	19.831	-0.069	-0.056
-669.076	416.375	-0.073	0.157
-668.062	114.864	0.070	-0.086
-667.047	368.055	-0.154	0.313
-666.032	-151.000	0.278	0.021
-665.018	619.211	-0.084	-0.213
-664.003	-200.000	-0.022	-0.380
-662.989	800.000	-0.091	-0.317
-661.974	-66.266	-0.279	-0.112
-660.959	100.030	-0.144	0.168
-659.945	-14.236	-0.180	-0.117
-658.930	66.479	-0.373	-0.382
-657.916	-200.000	0.003	-0.195
-656.901	141.182	-0.049	0.065
-655.886	316.558	-0.089	0.169
-654.872	26.881	0.044	-0.038
-653.857	-111.866	-0.275	-0.056
-652.843	-114.731	-0.241	-0.046
-651.828	29.777	-0.048	0.041
-650.814	-133.516	-0.298	0.038
-649.799	553.551	0.046	0.111
-648.784	-79.763	-0.098	0.033
-647.770	338.375	0.057	-0.112
-646.755	-200.000	0.025	-0.132
-645.741	800.000	-0.020	-0.073
-644.726	800.000	-0.066	0.187
-643.711	-49.774	0.100	0.048
-642.697	59.772	-0.229	-0.227
-641.682	534.884	0.157	-0.374
-640.668	-137.802	0.362	-0.041
-639.653	-48.594	-0.078	-0.038
-638.638	398.706	-0.125	0.264
-637.624	-121.542	0.275	-0.046
-636.609	411.853	-0.160	-0.342
-635.595	134.133	-0.171	0.223
-634.580	204.300	-0.122	0.191
-633.565	-53.277	0.359	0.166
-632.551	800.000	0.052	-0.225
-631.536	194.104	-0.036	-0.056
-630.522	167.953	-0.033	-0.048
-629.507	350.578	-0.098	-0.194
-628.492	-200.000	-0.023	-0.122
-627.478	390.772	-0.165	0.344
-626.463	468.848	-0.108	0.243
-625.449	84.438	-0.252	-0.278
-624.434	69.508	0.233	-0.241
-623.419	800.000	0.046	-0.155
-622.405	-200.000	0.013	0.420
-621.390	92.467	-0.129	0.147
-620.376	-151.883	-0.199	0.015
-619.361	-200.000	-0.005	-0.063
-618.346	-200.000	-0.018	0.139
-617.332	-94.087	0.073	0.020
-616.317	-98.798	-0.219	-0.056
-615.303	-105.221	0.190	-0.044
-614.288	750.711	0.186	0.506
-613.273	-41.268	0.112	0.058
-612.259	-200.000	-0.026	-0.366
-611.244	461.276	0.173	-0.387
-610.230	11.485	-0.161	-0.124
-609.215	800.000	0.117	-0.444
-608.201	340.141	-0.061	-0.120
-607.186	-69.887	-0.469	0.180
-606.171	-200.000	-0.000	0.058
-605.157	-200.000	0.013	0.113
-604.142	-200.000	0.022	-0.152
-603.128	-200.000	-0.016	-0.089
-602.113	29.862	-0.170	0.145
-601.098	-7.325	-0.151	0.103
-600.084	410.626	0.093	0.198
-599.069	109.617	-0.073	0.087
-598.055	-128.607	-0.272	-0.039
-597.040	-152.550	-0.254	-0.018
-596.025	-200.000	0.043	-0.310
-595.011	-78.672	0.147	0.051
-593.996	-49.679	0.095	0.045
-592.982	13.104	0.098	0.076
-591.967	-84.892	-0.225	-0.071
-590.952	110.852	0.060	-0.073
-589.938	-78.295	-0.362	-0.125
-588.923	-59.641	0.203	0.087
-587.909	-172.394	-0.064	0.002
-586.894	-117.717	-0.292	-0.053
-585.879	-90.643	-0.307	0.089
-584.865	-193.243	0.044	0.000
-583.850	47.044	0.194	0.181
-582.836	91.545	-0.084	0.095
-581.821	-200.000	-0.012	-0.193
-580.806	361.704	0.103	-0.206
-579.792	30.372	0.193	-0.165
-578.777	-144.473	0.592	0.055
-577.763	-200.000	-0.033	-0.489
-576.748	36.723	0.168	-0.149
-575.733	265.277	0.087	0.152
-574.719	99.207	-0.182	0.211
-573.704	79.502	0.206	0.222
-572.690	-109.210	0.327	0.070
-571.675	-93.281	0.216	0.060
-570.661	61.846	0.266	-0.266
-569.646	60.982	-0.049	0.048
-568.631	77.537	-0.047	-0.050
-567.617	282.271	0.028	0.051
-566.602	-200.000	0.024	-0.175
-565.588	-55.194	0.147	-0.066
-564.573	800.000	-0.008	0.027
-563.558	-200.000	0.034	-0.264
-562.544	-162.664	0.236	-0.012
-561.529	-42.592	-0.361	0.184
-560.515	104.853	-0.071	-0.084
-559.500	-138.688	-0.359	0.039
-558.485	169.769	-0.165	-0.237
-557.471	800.000	-0.021	-0.079
-556.456	157.497	0.064	-0.088
-555.442	217.707	-0.108	0.173
-554.427	800.000	-0.111	0.313
-553.412	30.560	-0.178	0.152
-552.398	41.313	0.118	-0.107
-551.383	-83.093	0.130	-0.042
-550.369	268.363	0.121	0.212
-549.354	-38.629	-0.194	0.103
-548.339	15.710	-0.186	-0.147
-547.325	-200.000	0.020	0.089
-546.310	268.379	0.144	0.253
-545.296	-150.412	0.107	0.008
-544.281	-200.000	-0.063	-0.378
-543.266	-200.000	0.042	0.267
-542.252	-200.000	-0.007	-0.062
-541.237	-104.905	-0.215	-0.049
-540.223	-200.000	-0.025	-0.190
-539.208	313.205	0.194	0.366
-538.193	-156.400	-0.022	-0.001
-537.179	96.609	-0.099	-0.114
-536.164	-142.245	-0.168	0.017
-535.150	800.000	-0.059	-0.192
-534.135	-89.911	0.303	0.089
-533.121	-97.290	0.457	-0.119
-532.106	-0.349	0.082	0.059
-531.091	-200.000	-0.012	0.291
-530.077	-200.000	-0.022	-0.207
-529.062	269.035	-0.045	-0.079
-528.048	281.155	-0.256	0.459
-527.033	421.635	-0.137	0.295
-526.018	-200.000	0.007	-0.146
-525.004	-116.268	-0.380	-0.071
-523.989	-200.000	0.004	0.509
-522.975	-200.000	0.001	0.014
-521.960	100.167	-0.307	0.356
-520.945	-200.000	-0.048	0.301
-519.931	-36.969	-0.135	-0.072
-518.916	359.066	-0.189	-0.378
-517.902	557.241	0.090	-0.217
-516.887	-65.696	0.024	-0.010
-515.872	342.889	-0.067	0.132
-514.858	56.441	-0.141	-0.137
-513.843	244.520	0.107	-0.181
-512.829	206.244	-0.114	0.178
-511.814	800.000	0.059	0.194
-510.799	80.006	-0.092	0.099
-509.785	146.465	-0.200	0.268
-508.770	5.999	-0.250	0.186
-507.756	92.066	0.288	0.325
-506.741	-121.081	-0.156	0.026
-505.726	76.064	-0.339	-0.359
-504.712	-88.426	-0.070	0.021
-503.697	-200.000	0.090	0.494
-502.683	-200.000	0.039	0.182
-501.668	161.337	0.182	-0.255
-500.653	108.798	0.053	0.063
-499.639	436.453	0.101	0.221
-498.624	48.440	0.112	0.105
-497.610	-200.000	-0.037	0.403
-496.595	182.750	0.173	0.256
-495.581	1.075	0.160	0.115
-494.566	222.751	-0.059	0.095
-493.551	-73.690	0.081	-0.029
-492.537	54.864	0.077	-0.075
-491.522	-200.000	0.041	-0.360
-490.508	290.195	-0.061	-0.111
-489.493	-200.000	-0.006	0.363
-488.478	226.452	0.214	0.347
-487.464	-81.292	0.374	0.123
-486.449	-126.893	-0.170	-0.025
-485.435	175.345	0.124	0.180
-484.420	-200.000	0.013	0.300
-483.405	-62.763	0.228	-0.094
-482.391	-82.714	0.130	-0.042
-481.376	473.547	0.107	-0.241
-480.362	-105.255	-0.341	-0.078
-479.347	-168.164	0.159	0.006
-478.332	-9.273	0.249	-0.167
-477.318	-27.576	-0.196	0.114
-476.303	413.084	0.026	-0.056
-475.289	-13.909	0.149	-0.096
-474.274	125.491	-0.058	0.073
-473.259	-111.848	0.122	0.025
-472.245	-29.105	0.398	-0.228
-471.230	-140.494	0.329	0.034
-470.216	-62.064	-0.371	-0.155
-469.201	192.845	-0.316	0.477
-468.186	800.000	-0.030	0.092
-467.172	34.335	0.186	0.162
-466.157	-118.502	-0.413	0.073
-465.143	-57.527	-0.232	0.102
-464.128	565.506	-0.042	-0.102
-463.113	-156.687	-0.328	0.020
-462.099	-32.124	0.137	0.076
-461.084	-6.870	0.172	-0.117
-460.070	-74.108	-0.159	0.058
-459.055	137.743	-0.138	-0.181
-458.040	-66.273	-0.193	-0.077
-457.026	800.000	0.038	0.114
-456.011	-119.214	-0.128	0.022
-454.997	-72.829	0.248	-0.091
-453.982	-22.817	0.227	-0.137
-452.968	-200.000	0.002	-0.474
-451.953	-200.000	-0.010	0.080
-450.938	-200.000	-0.023	-0.117
-449.924	223.248	0.185	0.298
-448.909	800.000	0.043	0.149
-447.895	7.460	-0.310	-0.231
-446.880	-200.000	-0.013	-0.070
-445.865	-200.000	0.004	-0.126
-444.851	-104.903	-0.221	-0.051
-443.836	-11.404	0.050	0.033
-442.822	-200.000	-0.096	-0.462
-441.807	185.037	-0.186	-0.276
-440.792	180.988	-0.118	-0.174
-439.778	260.564	-0.074	-0.128
-438.763	71.231	-0.099	-0.102
-437.749	800.000	0.083	0.361
-436.734	42.335	-0.103	0.093
-435.719	412.805	0.115	0.244
-434.705	544.942	0.128	-0.306
-433.690	-2.329	0.348	-0.243
-432.676	556.245	0.147	-0.354
-431.661	-139.965	0.149	0.016
-430.646	127.122	-0.271	0.343
-429.632	-114.275	-0.405	-0.078
-428.617	168.994	-0.204	-0.290
-427.603	-73.788	0.033	-0.012
-426.588	-69.512	0.191	-0.073
-425.573	-88.421	0.034	0.010
-424.559	-200.000	0.008	-0.099
-423.544	430.936	-0.075	0.162
-422.530	-133.531	-0.258	-0.032
-421.515	443.204	0.063	0.138
-420.500	-1.848	-0.258	-0.181
-419.486	-200.000	0.031	-0.172
-418.471	-123.788	-0.203	-0.032
-417.457	-117.913	0.193	-0.035
-416.442	-200.000	0.001	0.257
-415.428	800.000	0.052	-0.214
-414.413	-59.820	-0.302	-0.129
-413.398	800.000	-0.059	0.208
-412.384	-102.975	-0.530	0.126
-411.369	800.000	0.061	-0.176
-410.355	-184.428	0.122	-0.002
-409.340	56.553	-0.121	0.118
-408.325	79.380	-0.166	-0.177
-407.311	117.377	0.098	-0.120
-406.296	2.058	-0.113	0.082
-405.282	-200.000	0.025	0.183
-404.267	405.954	0.153	0.322
-403.252	-121.590	0.293	0.048
-402.238	-200.000	0.022	0.116
-401.223	-131.942	0.228	0.030
-400.209	800.000	0.040	-0.158
-399.194	-112.565	-0.223	-0.044
-398.179	413.327	-0.077	0.163
-397.165	-41.559	0.227	0.117
-396.150	-162.093	0.146	-0.007
-395.136	-200.000	-0.018	-0.342
-394.121	-200.000	-0.040	-0.243
-393.106	153.526	0.209	0.285
-392.092	51.071	-0.301	0.284
-391.077	-65.682	-0.130	-0.052
-390.063	343.871	-0.028	-0.056
-389.048	-64.393	-0.131	0.053
-388.033	-163.328	0.225	-0.011
-387.019	80.296	-0.116	0.124
-386.004	-200.000	-0.022	-0.163
-384.990	498.499	0.052	-0.119
-383.975	-123.562	-0.436	0.069
-382.960	-200.000	0.019	0.215
-381.946	-82.044	0.091	0.029
-380.931	-98.197	0.162	0.041
-379.917	-200.000	-0.012	-0.151
-378.902	333.885	0.167	-0.322
-377.888	666.048	0.083	-0.214
-376.873	279.393	-0.199	0.355
-375.858	35.998	-0.344	0.302
-374.844	63.565	0.111	0.111
-373.829	-26.438	0.079	-0.046
-372.815	800.000	-0.072	-0.298
-371.800	-95.577	0.134	0.036
-370.785	250.768	0.019	0.032
-369.771	334.836	-0.016	0.030
-368.756	437.521	-0.070	0.152
-367.742	222.897	-0.160	0.257
-366.727	206.103	0.084	0.130
-365.712	126.767	0.052	-0.066
-364.698	37.191	0.079	0.070
-363.683	331.474	-0.102	-0.196
-362.669	557.207	0.051	0.123
-361.654	-72.310	0.220	-0.081
-360.639	25.090	-0.125	0.103
-359.625	-8.560	0.247	0.165
-358.610	-125.396	-0.358	0.054
-357.596	56.228	-0.287	0.277
-356.581	-200.000	0.033	0.215
-355.566	-70.325	-0.071	-0.027
-354.552	-104.935	0.163	-0.037
-353.537	347.643	0.237	-0.465
-352.523	-177.162	0.306	-0.008
-351.508	73.737	0.345	0.360
-350.493	-109.256	0.504	-0.107
-349.479	-200.000	-0.002	0.208
-348.464	494.359	0.059	-0.135
-347.450	-25.711	0.259	-0.152
-346.435	-200.000	0.045	-0.321
-345.420	-200.000	-0.013	0.103
-344.406	-5.220	-0.114	0.078
-343.391	23.258	-0.047	-0.039
-342.377	-200.000	0.038	-0.189
-341.362	24.152	-0.123	-0.101
-340.348	89.926	-0.264	-0.293
-339.333	-46.772	0.179	-0.087
-338.318	-142.453	-0.649	-0.063
-337.304	-200.000	-0.032	0.147
-336.289	-51.646	0.378	0.175
-335.275	32.774	-0.167	-0.144
-334.260	-65.981	0.319	-0.127
-333.245	-13.478	0.029	0.019
-332.231	738.106	0.062	-0.165
-331.216	221.706	-0.037	-0.059
-330.202	121.919	-0.104	-0.129
-329.187	161.621	0.130	0.181
-328.172	-90.983	0.068	-0.019
-327.158	-137.769	0.328	-0.037
-326.143	-37.498	0.094	-0.050
-325.129	-74.008	-0.128	0.046
-324.114	152.808	0.188	-0.255
-323.099	-200.000	-0.077	-0.412
-322.085	95.266	-0.249	-0.282
-321.070	800.000	-0.044	-0.167
-320.056	-47.706	0.167	0.080
-319.041	-200.000	0.053	-0.236
-318.026	-124.599	-0.306	0.047
-317.012	116.511	0.301	0.367
-315.997	-52.559	0.177	-0.081
-314.983	-180.260	-0.232	0.005
-313.968	-200.000	0.039	0.252
-312.953	-102.404	-0.221	0.053
-311.939	-106.208	-0.136	0.030
-310.924	-82.906	-0.600	-0.193
-309.910	-160.921	-0.164	0.009
-308.895	213.147	-0.046	-0.072
-307.880	361.356	-0.024	0.048
-306.866	-24.609	-0.342	0.202
-305.851	-116.128	0.067	0.012
-304.837	108.288	-0.114	-0.135
-303.822	89.096	0.124	0.137
-302.807	104.626	0.150	0.176
-301.793	38.634	-0.134	-0.119
-300.778	800.000	-0.051	-0.148
-299.764	-32.044	0.069	0.038
-298.749	-58.077	-0.173	0.075
-297.735	248.408	-0.121	-0.204
-296.720	-200.000	-0.003	0.082
-295.705	415.349	0.250	-0.529
-294.691	471.707	-0.098	0.219
-293.676	-200.000	-0.025	0.122
-292.662	-114.305	-0.142	0.027
-291.647	800.000	0.068	-0.187
-290.632	-200.000	-0.036	0.245
-289.618	230.638	0.062	0.101
-288.603	454.249	0.077	0.168
-287.589	2.177	0.359	-0.258
-286.574	-200.000	0.046	-0.215
-285.559	-87.018	0.098	-0.030
-284.545	-200.000	0.010	0.199
-283.530	467.871	0.206	-0.459
-282.516	176.364	-0.102	0.147
-281.501	-200.000	0.007	-0.138
-280.486	-13.938	0.182	0.117
-279.472	-83.271	-0.292	-0.093
-278.457	-72.209	-0.224	0.083
-277.443	182.456	0.071	0.103
-276.428	54.453	-0.132	-0.126
-275.413	151.825	0.164	0.221
-274.399	-200.000	-0.034	-0.286
-273.384	-70.686	0.237	-0.089
-272.370	93.496	-0.063	0.070
-271.355	-68.122	0.284	0.110
-270.340	265.891	-0.150	0.260
-269.326	-59.290	0.117	-0.050
-268.311	-88.358	0.058	0.017
-267.297	-195.788	0.142	0.001
-266.282	-200.000	0.047	0.371
-265.267	-200.000	0.049	0.443
-264.253	-200.000	0.001	-0.334
-263.238	97.939	-0.269	0.307
-262.224	-200.000	0.045	0.275
-261.209	-161.414	-0.096	-0.005
-260.195	538.160	-0.054	-0.127
-259.180	-200.000	0.022	0.270
-258.165	-24.005	0.135	0.080
-257.151	229.049	-0.128	-0.206
-256.136	661.737	0.075	-0.191
-255.122	18.676	-0.184	0.146
-254.107	-20.935	0.120	0.073
-253.092	262.734	0.072	-0.124
-252.078	-200.000	0.017	-0.247
-251.063	-159.406	0.108	-0.006
-250.049	-151.169	-0.107	0.008
-249.034	-150.491	0.281	-0.021
-248.019	282.413	-0.062	0.110
-247.005	-59.370	0.187	0.080
-245.990	-31.324	-0.214	-0.119
-244.976	-85.100	0.228	-0.071
-243.961	7.857	0.218	0.162
-242.946	228.388	-0.209	-0.338
-241.932	-146.048	0.130	0.011
-240.917	-51.610	0.447	0.207
-239.903	134.488	-0.183	-0.236
-238.888	-200.000	-0.036	-0.378
-237.873	168.569	-0.119	0.168
-236.859	193.955	-0.046	0.070
-235.844	-200.000	0.016	0.447
-234.830	-61.224	0.137	-0.057
-233.815	80.879	0.112	-0.120
-232.800	-200.000	-0.076	-0.485
-231.786	10.832	-0.022	0.017
-230.771	220.540	-0.273	0.434
-229.757	145.950	-0.188	-0.249
-228.742	-200.000	0.024	-0.208
-227.727	-84.403	-0.170	0.053
-226.713	-106.182	-0.395	-0.088
-225.698	-118.780	-0.274	0.048
-224.684	-78.765	-0.234	-0.079
-223.669	124.763	0.229	-0.286
-222.655	-10.325	0.147	0.097
-221.640	-145.115	-0.141	0.013
-220.625	322.118	-0.069	0.130
-219.611	-200.000	-0.025	0.122
-218.596	-168.515	0.211	0.008
-217.582	-122.458	0.416	-0.067
-216.567	-95.340	0.268	0.071
-215.552	200.683	-0.040	-0.061
-214.538	-12.505	0.217	0.140
-213.523	-200.000	-0.024	-0.253
-212.509	-34.992	-0.094	0.051
-211.494	605.289	-0.048	0.119
-210.479	-200.000	-0.006	0.285
-209.465	219.376	0.165	0.262
-208.450	727.173	0.062	0.164
-207.436	-83.114	0.244	-0.078
-206.421	-25.859	-0.079	-0.046
-205.406	-200.000	-0.045	-0.287
-204.392	21.216	-0.167	-0.135
-203.377	-200.000	0.008	0.181
-202.363	403.563	-0.217	0.452
-201.348	-80.188	0.349	0.116
-200.333	-200.000	-0.009	-0.084
-199.319	-6.614	-0.076	0.051
-198.304	88.896	0.162	0.178
-197.290	106.342	0.168	0.197
-196.275	-118.087	0.344	-0.061
-195.260	800.000	0.103	0.366
-194.246	555.302	-0.039	-0.094
-193.231	497.849	0.011	0.024
-192.217	414.176	0.016	-0.034
-191.202	99.310	0.134	-0.154
-190.187	-191.290	-0.282	-0.003
-189.173	55.683	0.223	0.213
-188.158	-158.108	0.281	0.016
-187.144	800.000	-0.056	-0.200
-186.129	456.093	-0.070	-0.153
-185.114	800.000	0.042	0.173
-184.100	345.976	-0.091	0.176
-183.085	-200.000	-0.007	0.286
-182.071	-106.508	0.264	-0.058
-181.056	113.548	0.183	-0.219
-180.042	22.195	-0.163	-0.132
-179.027	800.000	0.045	0.165
-178.012	24.439	-0.175	-0.143
-176.998	-9.474	-0.112	-0.074
-175.983	4.796	0.196	-0.142
-174.969	29.389	0.322	-0.271
-173.954	-74.789	-0.308	-0.109
-172.939	-60.392	0.342	-0.144
-171.925	33.773	-0.246	0.211
-170.910	-26.483	-0.175	-0.101
-169.896	45.411	0.144	-0.132
-168.881	-60.899	0.062	0.026
-167.866	348.849	0.118	0.230
-166.852	800.000	0.049	0.199
-165.837	-200.000	-0.018	-0.442
-164.823	-200.000	-0.043	-0.345
-163.808	-36.238	-0.151	-0.081
-162.793	-178.258	0.239	-0.006
-161.779	124.204	-0.105	-0.130
-160.764	-78.445	-0.449	-0.152
-159.750	-128.326	0.064	-0.009
-158.735	-200.000	-0.290	-0.000
-157.720	-74.893	0.247	0.088
-156.706	338.769	0.071	-0.136
-155.691	49.527	0.209	0.195
-154.677	-165.572	-0.099	0.004
-153.662	-76.313	0.047	-0.016
-152.647	-66.711	0.156	-0.061
-151.633	-169.493	0.102	0.004
-150.618	-200.000	-0.011	-0.265
-149.604	718.903	-0.032	0.085
-148.589	-11.746	-0.242	0.157
-147.574	-200.000	0.009	0.076
-146.560	-200.000	-0.024	-0.284
-145.545	724.534	-0.058	-0.152
-144.531	275.857	-0.105	-0.184
-143.516	-118.521	-0.160	-0.028
-142.502	-141.880	0.207	0.020
-141.487	-39.130	0.265	0.138
-140.472	37.947	-0.081	0.071
-139.458	149.052	0.025	-0.033
-138.443	115.310	0.186	0.224
-137.429	8.754	0.282	-0.210
-136.414	83.126	0.147	0.157
-135.399	164.012	0.223	0.310
-134.385	63.660	0.323	0.320
-133.370	-72.367	0.330	0.120
-132.356	-105.568	0.123	0.028
-131.341	433.050	0.122	-0.262
-130.326	-73.273	-0.204	0.073
-129.312	-100.177	-0.233	0.057
-128.297	-120.969	-0.260	0.043
-127.283	-200.000	0.001	0.014
-126.268	-200.000	0.013	-0.118
-125.253	226.697	-0.161	-0.258
-124.239	-200.000	-0.029	0.306
-123.224	-200.000	-0.018	-0.309
-122.210	-200.000	0.016	-0.083
-121.195	81.229	0.266	-0.283
