DTS Sentinel unit serial number:	SN413079Multiplexer serial number:	ORYXHardware model number:	OX4-SRSoftware version number:	ORYX F/W v4.00 Oryx Data Collector v3.7.2.0data status	okinstallation	princeton_trtdifferential loss correction	single-endedforward channel	channel 2reverse channel	N/Adate	2019/09/17time	22:35:34forward acquisition time	60.00reverse acquisition time	0.00gamma	496.2192k internal	0.2344k external	0.2344temperature offset calibration	0.9980default loss term (dB/km)	0.3790temperature slope calibration	1.0000multiplexer offset coefficient	1.0000multiplexer slope coefficient	1.0000fibre end	0.00T internal ref (°C)	25.23T ext. ref 1 (°C)	0.17T ext. ref 2 (°C)	18.52length (m)	temperature (°C)	Stokes	anti-Stokes-747.200	-66.192	-0.096	0.038
-746.185	695.464	-0.031	0.081
-745.171	399.026	0.039	-0.081
-744.156	-200.000	0.004	0.282
-743.142	143.335	0.071	0.094
-742.127	15.901	-0.277	0.218
-741.112	229.117	-0.140	0.229
-740.098	218.544	0.109	-0.175
-739.083	-138.880	-0.242	-0.026
-738.069	-9.068	0.058	0.039
-737.054	-6.366	-0.103	-0.070
-736.039	43.737	-0.132	-0.121
-735.025	-116.937	0.345	0.063
-734.010	800.000	-0.007	-0.028
-732.996	464.793	-0.136	-0.305
-731.981	-53.136	-0.195	-0.090
-730.966	-37.890	0.117	0.062
-729.952	274.665	-0.187	-0.331
-728.937	-75.501	-0.300	-0.107
-727.923	-200.000	-0.070	0.410
-726.908	-115.008	-0.158	0.030
-725.894	-75.043	0.116	-0.042
-724.879	122.461	-0.241	-0.302
-723.864	-27.043	0.128	-0.074
-722.850	800.000	0.051	0.178
-721.835	-200.000	0.046	0.415
-720.821	18.574	-0.206	-0.164
-719.806	284.695	-0.136	-0.244
-718.791	145.354	-0.144	-0.193
-717.777	-111.106	0.465	-0.095
-716.762	75.142	-0.218	-0.229
-715.748	-61.479	0.138	-0.058
-714.733	-200.000	-0.038	-0.355
-713.718	-9.037	-0.163	0.109
-712.704	-17.939	0.216	-0.135
-711.689	261.707	0.174	0.301
-710.675	39.709	-0.305	0.274
-709.660	227.882	0.163	0.265
-708.645	90.150	-0.193	0.216
-707.631	-65.138	-0.369	0.149
-706.616	-124.739	-0.146	-0.023
-705.602	72.766	-0.130	0.135
-704.587	53.555	0.312	-0.299
-703.572	112.886	0.055	-0.067
-702.558	133.252	0.226	0.292
-701.543	-41.391	-0.258	0.133
-700.529	-200.000	-0.030	-0.207
-699.514	-69.603	0.099	0.038
-698.499	57.565	0.231	0.225
-697.485	800.000	0.040	0.171
-696.470	-151.950	0.159	-0.012
-695.456	-200.000	0.023	-0.127
-694.441	-27.644	-0.218	-0.126
-693.426	-56.339	0.277	0.123
-692.412	-200.000	-0.016	0.106
-691.397	-107.586	-0.190	-0.041
-690.383	-72.412	-0.487	-0.180
-689.368	68.556	0.103	0.106
-688.354	198.094	-0.123	0.187
-687.339	-21.840	-0.188	-0.114
-686.324	-200.000	0.018	-0.128
-685.310	108.821	-0.066	0.079
-684.295	63.254	0.194	-0.194
-683.281	-200.000	-0.005	-0.200
-682.266	-75.425	-0.293	0.104
-681.251	306.155	0.165	0.307
-680.237	122.991	-0.024	0.030
-679.222	-30.521	0.247	-0.140
-678.208	-58.221	-0.156	-0.068
-677.193	325.505	0.059	0.112
-676.178	118.710	-0.221	-0.273
-675.164	-58.732	-0.262	-0.113
-674.149	800.000	-0.015	0.060
-673.135	372.750	-0.055	0.113
-672.120	191.780	-0.150	-0.225
-671.105	-200.000	-0.003	0.047
-670.091	117.162	0.215	0.264
-669.076	-97.832	-0.220	-0.057
-668.062	-200.000	-0.012	0.052
-667.047	327.866	-0.149	-0.286
-666.032	208.252	0.145	0.226
-665.018	-114.268	0.104	-0.020
-664.003	-58.758	-0.448	0.193
-662.989	632.389	-0.033	-0.083
-661.974	81.179	0.056	-0.060
-660.959	490.105	-0.157	-0.358
-659.945	193.819	0.117	0.176
-658.930	-92.643	-0.096	-0.027
-657.916	-200.000	-0.006	-0.125
-656.901	-94.478	0.053	0.014
-655.886	470.373	0.045	0.100
-654.872	310.320	-0.031	0.057
-653.857	-0.398	-0.087	0.062
-652.843	127.769	0.288	0.365
-651.828	800.000	-0.050	0.198
-650.814	144.846	-0.148	0.197
-649.799	-75.074	0.194	-0.069
-648.784	800.000	0.139	-0.417
-647.770	40.041	0.093	-0.083
-646.755	-21.691	-0.290	-0.176
-645.741	-66.806	0.400	-0.158
-644.726	-22.072	0.138	-0.083
-643.711	121.658	0.150	-0.186
-642.697	-200.000	-0.003	-0.072
-641.682	107.319	-0.054	0.065
-640.668	-200.000	-0.021	0.151
-639.653	-83.090	-0.329	-0.106
-638.638	-13.455	-0.095	-0.061
-637.624	-200.000	0.045	-0.240
-636.609	-200.000	0.043	0.197
-635.595	-135.877	-0.167	0.020
-634.580	-74.772	0.111	0.040
-633.565	451.076	0.189	-0.415
-632.551	-75.175	0.029	0.010
-631.536	-15.894	-0.124	-0.079
-630.522	800.000	-0.056	-0.227
-629.507	-200.000	-0.010	0.053
-628.492	800.000	-0.025	-0.103
-627.478	-131.818	-0.131	-0.017
-626.463	148.581	-0.143	0.192
-625.449	234.850	-0.159	-0.262
-624.434	-120.893	0.062	-0.010
-623.419	-75.042	0.151	0.054
-622.405	-91.346	0.150	0.043
-621.390	92.076	0.123	-0.138
-620.376	-30.210	0.168	0.095
-619.361	-1.408	-0.279	-0.196
-618.346	10.847	-0.078	-0.059
-617.332	800.000	-0.104	-0.299
-616.317	126.322	-0.122	-0.154
-615.303	-200.000	-0.027	-0.232
-614.288	7.699	0.243	-0.181
-613.273	-142.884	-0.207	-0.020
-612.259	-91.811	-0.203	0.057
-611.244	-87.770	0.251	-0.075
-610.230	-108.191	-0.198	-0.043
-609.215	227.979	0.174	-0.282
-608.201	-200.000	-0.020	-0.281
-607.186	-44.336	-0.279	-0.139
-606.171	185.372	-0.076	0.113
-605.157	98.653	0.138	0.159
-604.142	-57.275	-0.234	-0.103
-603.128	289.031	0.129	0.232
-602.113	800.000	0.052	-0.159
-601.098	-77.383	-0.244	0.084
-600.084	-152.482	-0.140	-0.010
-599.069	-74.479	-0.261	0.094
-598.055	-0.348	0.185	0.131
-597.040	-45.623	-0.146	0.072
-596.025	232.827	0.128	-0.209
-595.011	-88.204	0.185	-0.055
-593.996	117.642	-0.023	-0.028
-592.982	-127.008	-0.226	0.033
-591.967	129.294	-0.124	-0.157
-590.952	455.225	0.007	0.016
-589.938	71.439	0.395	0.407
-588.923	171.757	0.047	0.067
-587.909	-200.000	-0.056	0.318
-586.894	307.686	0.075	-0.140
-585.879	-46.598	0.187	0.091
-584.865	-148.485	-0.095	0.008
-583.850	-131.647	0.137	0.018
-582.836	-137.101	0.303	-0.034
-581.821	113.738	-0.031	-0.037
-580.806	-200.000	-0.059	0.285
-579.792	-200.000	-0.059	-0.268
-578.777	-39.751	0.255	0.133
-577.763	-18.529	-0.376	-0.233
-576.748	41.648	-0.112	-0.101
-575.733	148.117	0.100	-0.134
-574.719	323.102	0.163	-0.308
-573.704	296.086	0.090	-0.164
-572.690	-107.111	0.051	0.011
-571.675	-21.495	0.170	0.103
-570.661	800.000	-0.085	0.315
-569.646	45.819	0.066	0.061
-568.631	379.364	-0.050	0.101
-567.617	131.991	-0.168	-0.215
-566.602	-200.000	0.019	-0.301
-565.588	181.224	0.118	-0.173
-564.573	353.994	0.135	0.267
-563.558	-57.192	0.393	-0.172
-562.544	-62.858	-0.303	-0.125
-561.529	81.431	-0.270	-0.290
-560.515	-200.000	-0.016	-0.115
-559.500	800.000	-0.088	-0.377
-558.485	-76.439	0.265	-0.093
-557.471	106.621	-0.204	0.240
-556.456	-68.642	-0.512	0.197
-555.442	-64.276	0.158	-0.064
-554.427	-95.259	-0.250	-0.067
-553.412	158.332	-0.144	-0.198
-552.398	-79.374	-0.225	-0.075
-551.383	-200.000	-0.014	0.256
-550.369	-155.023	0.239	-0.016
-549.354	-82.428	-0.149	-0.048
-548.339	-200.000	-0.050	-0.262
-547.325	-17.874	-0.269	-0.168
-546.310	159.516	0.156	0.216
-545.296	800.000	-0.034	-0.127
-544.281	-36.620	0.245	-0.131
-543.266	-200.000	0.098	-0.471
-542.252	40.402	0.405	0.362
-541.237	-5.147	-0.076	0.052
-540.223	215.880	0.089	-0.140
-539.208	223.911	-0.159	0.255
-538.193	-31.960	-0.042	-0.024
-537.179	-40.362	0.317	0.164
-536.164	-200.000	-0.022	0.260
-535.150	-59.729	0.300	-0.128
-534.135	-200.000	0.016	0.097
-533.121	27.737	0.203	0.170
-532.106	108.666	-0.149	0.176
-531.091	-89.077	0.281	-0.082
-530.077	185.472	-0.091	-0.134
-529.062	-74.252	-0.143	-0.051
-528.048	-200.000	-0.002	0.063
-527.033	-200.000	-0.010	-0.127
-526.018	122.645	-0.239	0.297
-525.004	-18.026	-0.151	0.094
-523.989	208.563	-0.096	-0.148
-522.975	-7.526	0.075	-0.050
-521.960	-16.519	0.361	-0.227
-520.945	-200.000	-0.047	-0.230
-519.931	62.074	0.068	0.067
-518.916	-99.067	0.060	-0.015
-517.902	699.344	0.030	0.078
-516.887	800.000	0.075	-0.282
-515.872	-149.260	0.095	-0.008
-514.858	366.062	0.014	0.028
-513.843	-133.460	-0.126	-0.016
-512.829	487.185	0.097	0.220
-511.814	151.671	-0.182	0.246
-510.799	3.785	-0.147	-0.106
-509.785	-56.512	0.108	0.048
-508.770	-56.327	-0.166	0.073
-507.756	-200.000	0.017	-0.158
-506.741	90.841	-0.157	0.174
-505.726	-59.128	0.166	-0.071
-504.712	226.363	-0.120	0.192
-503.697	-153.378	-0.327	-0.023
-502.683	173.086	-0.213	-0.304
-501.668	87.044	0.104	-0.114
-500.653	-200.000	0.022	0.205
-499.639	-200.000	-0.038	0.246
-498.624	-200.000	-0.054	-0.248
-497.610	660.931	-0.010	0.025
-496.595	-101.609	-0.223	0.054
-495.581	-165.714	-0.114	-0.005
-494.566	-10.424	-0.093	-0.061
-493.551	36.264	-0.070	0.061
-492.537	36.331	0.102	-0.089
-491.522	341.934	0.114	-0.222
-490.508	276.858	-0.171	-0.302
-489.493	-200.000	-0.065	-0.303
-488.478	37.990	-0.084	0.074
-487.464	-12.835	0.168	0.109
-486.449	76.850	-0.164	-0.173
-485.435	800.000	-0.028	-0.084
-484.420	-59.054	0.090	0.039
-483.405	800.000	0.062	0.176
-482.391	0.008	0.230	-0.162
-481.376	-185.575	0.306	-0.005
-480.362	253.816	-0.058	-0.098
-479.347	374.377	-0.088	-0.177
-478.332	-101.040	-0.125	-0.030
-477.318	-182.733	0.306	-0.005
-476.303	800.000	0.116	0.447
-475.289	800.000	0.100	0.307
-474.274	-130.800	0.033	0.004
-473.259	-59.748	0.229	0.097
-472.245	-5.299	-0.279	-0.190
-471.230	800.000	0.159	0.443
-470.216	-200.000	0.001	0.159
-469.201	-45.539	-0.306	0.150
-468.186	507.264	0.204	-0.469
-467.172	-143.526	0.239	-0.023
-466.157	-146.326	-0.209	-0.018
-465.143	800.000	-0.145	-0.448
-464.128	125.677	-0.130	0.162
-463.113	228.904	0.114	0.184
-462.099	716.916	-0.089	0.233
-461.084	-7.432	0.276	0.185
-460.070	-200.000	-0.038	0.227
-459.055	408.035	0.117	-0.244
-458.040	70.052	-0.129	0.132
-457.026	-19.058	0.269	0.166
-456.011	75.105	-0.237	0.247
-454.997	-164.225	0.147	0.007
-453.982	583.591	0.105	0.255
-452.968	-0.285	-0.231	-0.163
-451.953	346.700	-0.007	0.013
-450.938	177.569	0.109	-0.157
-449.924	-71.807	0.210	-0.077
-448.909	-67.180	-0.218	-0.085
-447.895	-96.700	0.383	-0.100
-446.880	-200.000	-0.008	-0.049
-445.865	449.980	-0.099	-0.217
-444.851	-200.000	0.081	-0.443
-443.836	-94.786	0.257	0.069
-442.822	493.927	-0.103	-0.234
-441.807	-193.160	0.241	-0.002
-440.792	208.215	0.146	-0.226
-439.778	-142.352	0.219	-0.021
-438.763	-38.270	-0.158	-0.083
-437.749	303.891	-0.044	0.081
-436.734	-200.000	-0.025	-0.276
-435.719	-200.000	-0.011	-0.203
-434.705	-70.755	-0.135	-0.050
-433.690	132.092	0.306	0.390
-432.676	-37.125	-0.160	0.085
-431.661	368.396	0.061	-0.122
-430.646	-135.419	-0.064	-0.008
-429.632	-145.188	-0.417	-0.037
-428.617	-116.280	-0.243	0.044
-427.603	105.112	0.195	0.227
-426.588	-144.809	0.152	0.014
-425.573	-172.990	0.098	-0.003
-424.559	294.013	-0.109	-0.197
-423.544	-102.950	-0.058	0.014
-422.530	-104.313	0.307	-0.070
-421.515	-200.000	-0.075	-0.396
-420.500	-200.000	0.038	-0.277
-419.486	458.414	0.065	0.142
-418.471	800.000	-0.031	-0.117
-417.457	-14.172	-0.250	0.159
-416.442	90.254	0.395	0.437
-415.428	-145.563	-0.120	0.011
-414.413	-200.000	0.058	-0.399
-413.398	310.721	0.063	0.117
-412.384	-73.523	0.141	0.051
-411.369	54.935	0.315	0.300
-410.355	-76.873	0.209	0.072
-409.340	102.869	-0.108	0.125
-408.325	-113.441	0.051	0.010
-407.311	375.864	0.071	0.142
-406.296	132.898	0.118	-0.150
-405.282	-37.495	0.115	0.060
-404.267	10.970	0.367	0.277
-403.252	-200.000	0.071	0.331
-402.238	800.000	0.130	0.375
-401.223	283.582	-0.197	-0.349
-400.209	-64.822	-0.081	0.032
-399.194	-30.318	-0.096	0.054
-398.179	695.646	-0.131	0.340
-397.165	-49.075	0.286	0.135
-396.150	-200.000	0.023	0.230
-395.136	1.977	-0.094	0.067
-394.121	721.140	-0.012	0.032
-393.106	-200.000	0.030	-0.301
-392.092	80.884	-0.075	0.080
-391.077	800.000	-0.081	0.237
-390.063	-100.596	0.150	-0.036
-389.048	-200.000	0.033	0.266
-388.033	-119.247	0.244	0.042
-387.019	-83.432	0.286	-0.090
-386.004	61.861	-0.272	0.268
-384.990	-18.186	-0.364	0.225
-383.975	-145.371	0.267	-0.024
-382.960	166.176	0.226	0.316
-381.946	533.947	-0.077	0.180
-380.931	157.648	0.140	0.192
-379.917	-114.844	-0.290	-0.055
-378.902	-200.000	-0.002	-0.299
-377.888	75.384	-0.134	-0.139
-376.873	162.217	-0.060	0.083
-375.858	717.365	0.100	0.263
-374.844	-87.403	0.121	-0.036
-373.829	97.661	0.175	0.199
-372.815	-32.469	0.166	-0.091
-371.800	-73.620	0.152	0.055
-370.785	-50.347	0.350	0.163
-369.771	28.036	-0.211	0.175
-368.756	-7.456	0.193	0.129
-367.742	800.000	-0.041	-0.142
-366.727	-4.827	0.152	0.103
-365.712	85.841	-0.123	-0.133
-364.698	-1.250	-0.218	-0.152
-363.683	-92.574	0.132	0.036
-362.669	12.637	0.132	-0.100
-361.654	800.000	0.101	0.295
-360.639	-130.384	-0.034	0.005
-359.625	-200.000	0.007	-0.040
-358.610	302.068	-0.089	0.162
-357.596	-77.842	-0.328	-0.112
-356.581	-200.000	0.000	-0.289
-355.566	-131.889	0.361	0.046
-354.552	-200.000	-0.012	-0.201
-353.537	15.394	0.164	0.127
-352.523	-200.000	-0.055	-0.262
-351.508	434.628	0.041	-0.087
-350.493	280.715	-0.030	-0.053
-349.479	-200.000	0.031	-0.162
-348.464	800.000	-0.075	0.230
-347.450	-65.684	-0.314	-0.124
-346.435	-139.483	-0.261	-0.027
-345.420	800.000	0.164	-0.491
-344.406	-69.232	-0.285	0.108
-343.391	665.041	-0.035	-0.090
-342.377	-4.528	-0.238	0.162
-341.362	47.964	-0.062	0.057
-340.348	-24.925	0.034	-0.020
-339.333	320.515	0.072	0.135
-338.318	128.219	0.089	0.111
-337.304	-69.747	-0.322	-0.121
-336.289	657.024	0.154	0.389
-335.275	569.344	0.108	-0.257
-334.260	69.262	0.101	0.102
-333.245	225.605	-0.106	0.170
-332.231	-48.865	0.241	-0.114
-331.216	65.172	-0.096	-0.096
-330.202	-200.000	-0.009	-0.165
-329.187	59.825	-0.128	0.124
-328.172	-23.689	0.208	-0.123
-327.158	225.789	0.122	0.195
-326.143	-200.000	-0.036	-0.160
-325.129	-98.250	-0.203	0.051
-324.114	-200.000	0.015	0.114
-323.099	76.583	-0.078	0.081
-322.085	-24.987	-0.219	0.128
-321.070	-107.240	-0.203	0.044
-320.056	-5.808	0.256	-0.173
-319.041	301.255	-0.069	-0.126
-318.026	153.363	0.212	0.285
-317.012	800.000	0.031	0.125
-315.997	-36.253	-0.191	0.101
-314.983	-74.517	-0.312	0.110
-313.968	195.095	-0.100	0.150
-312.953	800.000	-0.014	-0.040
-311.939	-200.000	-0.032	0.212
-310.924	134.136	0.090	0.114
-309.910	-62.510	0.035	-0.014
-308.895	40.478	0.107	0.094
-307.880	-171.485	-0.293	0.010
-306.866	-55.619	0.097	0.043
-305.851	-92.036	-0.192	-0.053
-304.837	340.808	0.084	-0.162
-303.822	-62.424	0.206	0.084
-302.807	141.933	-0.103	0.134
-301.793	35.929	0.193	0.167
-300.778	-125.652	0.045	0.007
-299.764	108.852	0.464	0.546
-298.749	800.000	0.026	0.105
-297.735	-38.381	-0.045	-0.023
-296.720	-58.424	0.250	-0.107
-295.705	-84.525	0.302	0.094
-294.691	0.935	-0.446	0.314
-293.676	-200.000	-0.014	-0.150
-292.662	421.445	0.067	0.141
-291.647	800.000	-0.063	-0.207
-290.632	-117.600	0.162	0.029
-289.618	51.094	-0.139	0.130
-288.603	47.149	-0.232	0.212
-287.589	18.155	-0.142	0.111
-286.574	-110.669	-0.112	-0.023
-285.559	-200.000	-0.042	0.204
-284.545	-128.720	0.238	0.033
-283.530	800.000	-0.050	-0.187
-282.516	132.486	-0.032	0.041
-281.501	-28.399	-0.166	-0.094
-280.486	140.430	-0.140	0.181
-279.472	-200.000	0.036	0.258
-278.457	800.000	0.056	0.213
-277.443	295.053	-0.135	-0.243
-276.428	86.861	0.169	-0.184
-275.413	-200.000	-0.018	0.093
-274.399	-200.000	0.084	0.537
-273.384	-54.849	0.306	0.136
-272.370	-28.515	-0.284	-0.161
-271.355	-89.240	-0.505	0.146
-270.340	800.000	0.029	-0.121
-269.326	62.401	0.235	0.230
-268.311	-76.761	-0.121	0.042
-267.297	608.480	0.056	0.138
-266.282	505.038	0.055	0.124
-265.267	-200.000	-0.034	0.232
-264.253	623.064	0.121	0.299
-263.238	800.000	-0.082	0.350
-262.224	-200.000	-0.019	0.195
-261.209	-145.203	-0.244	-0.022
-260.195	58.302	-0.136	-0.131
-259.180	24.392	0.305	0.248
-258.165	-200.000	-0.021	0.270
-257.151	-200.000	-0.022	0.155
-256.136	-200.000	0.003	0.105
-255.122	-27.050	0.090	0.052
-254.107	-200.000	0.016	0.122
-253.092	800.000	0.064	-0.187
-252.078	228.281	-0.169	-0.271
-251.063	12.025	0.138	-0.104
-250.049	-200.000	-0.027	-0.246
-249.034	800.000	-0.059	0.235
-248.019	109.475	-0.109	0.128
-247.005	-200.000	-0.028	-0.194
-245.990	-8.928	0.296	-0.194
-244.976	-200.000	-0.001	0.173
-243.961	108.695	0.061	0.072
-242.946	4.477	0.170	-0.123
-241.932	-84.852	0.102	0.032
-240.917	264.644	0.133	0.228
-239.903	109.608	-0.241	0.284
-238.888	800.000	-0.100	0.287
-237.873	-82.988	0.325	-0.103
-236.859	-167.912	-0.542	0.021
-235.844	7.913	-0.174	0.128
-234.830	391.975	-0.201	-0.409
-233.815	-34.054	-0.259	-0.140
-232.800	58.388	0.071	0.068
-231.786	590.071	0.106	-0.256
-230.771	-200.000	0.002	0.045
-229.757	-200.000	-0.065	-0.334
-228.742	-90.532	0.173	-0.049
-227.727	-200.000	0.037	-0.220
-226.713	425.309	-0.096	-0.202
-225.698	-147.221	-0.135	0.011
-224.684	635.881	-0.090	0.223
-223.669	-63.111	0.076	-0.031
-222.655	68.350	0.325	-0.326
-221.640	17.458	-0.148	-0.116
-220.625	-25.148	-0.065	0.037
-219.611	78.733	-0.210	0.221
-218.596	286.616	-0.059	0.105
-217.582	532.142	-0.090	-0.210
-216.567	-35.257	0.230	0.122
-215.552	-83.490	-0.074	-0.023
-214.538	-68.946	-0.207	0.078
-213.523	239.176	-0.183	0.298
-212.509	-180.006	-0.357	-0.007
-211.494	118.959	-0.111	-0.134
-210.479	-9.009	0.128	-0.084
-209.465	800.000	0.115	0.363
-208.450	52.360	0.124	0.115
-207.436	-102.840	0.114	-0.027
-206.421	66.197	0.062	0.062
-205.406	400.417	0.035	-0.072
-204.392	-151.503	0.101	-0.007
-203.377	-135.496	0.199	0.023
-202.363	290.506	0.095	-0.169
-201.348	-169.705	0.050	0.002
-200.333	452.218	-0.084	0.181
-199.319	56.927	-0.140	0.134
-198.304	-200.000	0.013	-0.148
-197.290	54.838	-0.272	0.257
-196.275	789.129	0.115	-0.308
-195.260	-200.000	0.011	-0.046
-194.246	-110.458	-0.162	0.033
-193.231	-200.000	0.013	-0.130
-192.217	-10.477	-0.283	0.184
-191.202	-200.000	0.157	-0.000
-190.187	-78.486	-0.213	-0.071
-189.173	-65.727	-0.122	0.048
-188.158	-32.714	0.090	-0.049
-187.144	22.560	-0.324	-0.259
-186.129	-120.849	-0.098	0.016
-185.114	-2.644	-0.342	-0.234
-184.100	800.000	0.036	0.124
-183.085	-200.000	-0.006	-0.149
-182.071	-155.471	-0.121	0.008
-181.056	-76.704	0.198	0.068
-180.042	-200.000	-0.053	-0.408
-179.027	-8.032	-0.345	-0.228
-178.012	-200.000	0.061	-0.287
-176.998	-155.041	-0.501	0.032
-175.983	-77.596	-0.195	-0.066
-174.969	-200.000	-0.030	-0.235
-173.954	-94.657	0.234	0.062
-172.939	800.000	-0.106	0.294
-171.925	-200.000	-0.041	0.195
-170.910	97.647	0.214	0.241
-169.896	51.570	-0.185	0.172
-168.881	25.837	0.272	-0.222
-167.866	124.704	0.382	-0.470
-166.852	184.342	0.299	-0.433
-165.837	68.631	-0.086	-0.086
-164.823	188.856	-0.109	-0.159
-163.808	-121.971	0.165	-0.027
-162.793	-115.336	0.149	0.028
-161.779	259.716	-0.217	-0.366
-160.764	352.550	-0.137	0.265
-159.750	-149.064	0.182	-0.014
-158.735	191.329	-0.054	0.079
-157.720	-70.114	-0.296	-0.110
-156.706	-122.057	0.377	0.061
-155.691	73.819	0.096	-0.098
-154.677	800.000	0.083	0.283
-153.662	-200.000	-0.006	-0.255
-152.647	-200.000	-0.008	0.118
-151.633	-200.000	-0.013	-0.060
-150.618	-0.358	0.097	0.067
-149.604	-34.387	0.301	0.161
-148.589	14.831	0.292	-0.223
-147.574	-141.340	-0.425	-0.042
-146.560	-127.314	-0.245	-0.035
-145.545	128.894	-0.141	-0.176
-144.531	-98.282	-0.086	-0.022
-143.516	169.801	0.181	0.253
-142.502	-31.929	-0.194	-0.106
-141.487	98.015	-0.135	0.152
-140.472	-41.953	0.111	0.056
-139.458	800.000	0.122	0.415
-138.443	589.752	-0.049	0.119
-137.429	800.000	-0.062	-0.178
-136.414	-200.000	0.054	-0.283
-135.399	800.000	-0.049	-0.186
-134.385	-200.000	-0.007	0.111
-133.370	-200.000	0.052	0.266
-132.356	-200.000	0.022	-0.252
-131.341	198.080	0.106	0.158
-130.326	-97.560	0.173	-0.044
-129.312	765.906	-0.061	-0.162
-128.297	-200.000	-0.038	-0.225
-127.283	36.215	0.123	0.106
-126.268	102.308	0.253	-0.288
-125.253	-80.835	-0.244	0.079
-124.239	161.526	0.232	-0.317
-123.224	-47.631	-0.127	-0.060
-122.210	-144.426	-0.136	0.012
-121.195	-22.697	-0.154	0.091
