DTS Sentinel unit serial number:	SN413079Multiplexer serial number:	ORYXHardware model number:	OX4-SRSoftware version number:	ORYX F/W v4.00 Oryx Data Collector v3.7.2.0data status	okinstallation	princeton_trtdifferential loss correction	single-endedforward channel	channel 2reverse channel	N/Adate	2019/09/15time	19:39:35forward acquisition time	60.00reverse acquisition time	0.00gamma	496.2192k internal	0.2320k external	0.2320temperature offset calibration	0.9932default loss term (dB/km)	0.3790temperature slope calibration	1.0000multiplexer offset coefficient	1.0000multiplexer slope coefficient	1.0000fibre end	0.00T internal ref (°C)	37.72T ext. ref 1 (°C)	7.39T ext. ref 2 (°C)	27.53length (m)	temperature (°C)	Stokes	anti-Stokes-747.200	228.596	0.107	0.177
-746.185	800.000	0.080	0.295
-745.171	34.933	0.386	0.342
-744.156	-200.000	-0.085	0.438
-743.142	-96.635	-0.195	-0.052
-742.127	644.167	0.187	0.482
-741.112	-8.224	-0.250	-0.170
-740.098	-200.000	0.032	-0.181
-739.083	-2.116	-0.185	0.131
-738.069	-200.000	-0.008	0.497
-737.054	-200.000	0.009	-0.098
-736.039	-200.000	-0.014	0.269
-735.025	99.177	-0.065	-0.076
-734.010	-11.050	0.170	-0.114
-732.996	-189.600	-0.180	-0.002
-731.981	46.349	0.094	-0.088
-730.966	117.110	-0.139	0.173
-729.952	800.000	-0.085	0.240
-728.937	-200.000	0.069	-0.349
-727.923	22.813	-0.183	-0.152
-726.908	229.153	-0.101	0.167
-725.894	-73.436	-0.453	-0.167
-724.879	-131.499	0.247	-0.033
-723.864	-21.359	-0.137	-0.085
-722.850	93.512	0.113	-0.129
-721.835	-200.000	-0.015	0.097
-720.821	-200.000	0.014	0.065
-719.806	-23.077	0.455	0.277
-718.791	-101.506	-0.373	-0.092
-717.777	-200.000	0.001	-0.027
-716.762	-10.935	0.155	0.103
-715.748	-85.545	0.055	0.017
-714.733	-200.000	-0.008	-0.197
-713.718	202.104	0.138	-0.215
-712.704	-105.453	0.195	0.045
-711.689	-103.549	-0.219	-0.052
-710.675	382.084	0.154	-0.319
-709.660	-16.939	-0.311	0.199
-708.645	-24.276	0.102	-0.061
-707.631	134.601	0.061	-0.080
-706.616	-12.661	0.312	0.206
-705.602	-200.000	-0.021	-0.102
-704.587	-51.004	-0.138	0.065
-703.572	-200.000	0.038	-0.247
-702.558	-157.656	-0.207	0.012
-701.543	328.150	-0.234	-0.453
-700.529	222.036	-0.116	0.189
-699.514	515.556	-0.143	0.336
-698.499	-123.080	0.062	0.010
-697.485	-89.903	-0.132	-0.039
-696.470	-128.143	-0.667	0.096
-695.456	215.496	0.143	0.229
-694.441	-87.905	-0.136	0.041
-693.426	-200.000	-0.017	0.306
-692.412	-62.033	0.343	-0.144
-691.397	70.387	0.145	-0.152
-690.383	31.469	-0.149	0.129
-689.368	-200.000	0.012	-0.210
-688.354	-170.150	-0.124	0.004
-687.339	-85.953	0.403	0.126
-686.324	-18.950	-0.222	0.139
-685.310	738.179	0.078	0.211
-684.295	-132.671	0.225	-0.029
-683.281	588.201	0.025	-0.063
-682.266	-200.000	0.011	-0.146
-681.251	-200.000	0.028	-0.390
-680.237	800.000	-0.009	0.032
-679.222	-89.780	0.248	-0.073
-678.208	10.576	0.234	-0.180
-677.193	-46.424	0.162	0.080
-676.178	-200.000	0.013	-0.205
-675.164	-200.000	-0.024	0.206
-674.149	-135.871	-0.297	0.035
-673.135	-117.524	0.419	-0.076
-672.120	800.000	0.066	0.204
-671.105	-200.000	-0.035	0.220
-670.091	53.047	0.147	-0.142
-669.076	-59.622	0.067	-0.029
-668.062	-200.000	-0.009	0.127
-667.047	-56.621	0.125	-0.056
-666.032	293.457	-0.056	-0.103
-665.018	800.000	0.161	0.560
-664.003	-52.384	-0.392	0.183
-662.989	800.000	0.082	-0.247
-661.974	139.295	0.187	-0.248
-660.959	36.628	-0.293	-0.261
-659.945	-57.471	0.329	0.145
-658.930	-33.396	-0.297	-0.165
-657.916	-128.554	0.383	0.055
-656.901	8.048	0.301	-0.228
-655.886	-137.262	-0.255	0.029
-654.872	-42.828	-0.211	0.108
-653.857	800.000	-0.047	0.146
-652.843	-115.420	0.123	-0.023
-651.828	72.515	0.136	-0.143
-650.814	409.858	0.082	0.176
-649.799	432.805	-0.080	-0.174
-648.784	124.014	0.070	0.088
-647.770	19.218	0.231	-0.187
-646.755	-37.818	-0.071	0.038
-645.741	-185.499	0.066	0.001
-644.726	636.796	-0.040	0.102
-643.711	317.851	-0.101	0.192
-642.697	800.000	-0.031	-0.098
-641.682	108.008	-0.120	0.144
-640.668	800.000	-0.064	-0.199
-639.653	44.962	-0.186	-0.173
-638.638	13.313	-0.152	0.119
-637.624	800.000	-0.055	-0.208
-636.609	191.705	-0.120	-0.183
-635.595	178.513	-0.071	0.104
-634.580	800.000	-0.081	-0.230
-633.565	-28.121	-0.161	0.094
-632.551	800.000	-0.056	-0.189
-631.536	-48.101	0.160	-0.078
-630.522	800.000	0.040	-0.122
-629.507	-200.000	-0.003	0.082
-628.492	-200.000	0.048	-0.214
-627.478	-88.938	0.187	-0.056
-626.463	-21.958	0.055	-0.034
-625.449	40.920	-0.323	0.294
-624.434	-101.664	-0.275	-0.067
-623.419	679.891	0.061	0.159
-622.405	-135.518	0.375	-0.045
-621.390	258.234	-0.223	-0.386
-620.376	-32.439	-0.201	-0.113
-619.361	269.245	0.100	-0.176
-618.346	-184.860	-0.305	-0.005
-617.332	677.662	-0.031	0.081
-616.317	-200.000	0.239	-0.001
-615.303	-9.915	0.095	-0.063
-614.288	-200.000	0.046	0.234
-613.273	800.000	0.054	-0.157
-612.259	-129.205	0.160	-0.022
-611.244	-200.000	0.063	-0.523
-610.230	90.272	-0.189	-0.213
-609.215	-91.245	0.469	0.135
-608.201	438.098	-0.105	0.230
-607.186	500.331	-0.092	-0.214
-606.171	-68.044	0.194	0.076
-605.157	190.834	-0.018	0.027
-604.142	-200.000	0.005	-0.233
-603.128	-200.000	0.052	-0.346
-602.113	264.413	0.133	-0.233
-601.098	-120.016	0.115	-0.020
-600.084	-49.753	0.370	-0.177
-599.069	62.904	0.145	0.146
-598.055	-200.000	0.042	0.201
-597.040	-200.000	-0.014	0.216
-596.025	-32.163	-0.229	0.129
-595.011	43.950	0.140	-0.129
-593.996	-200.000	0.044	0.198
-592.982	-125.167	0.285	0.044
-591.967	8.451	0.217	-0.164
-590.952	-200.000	-0.033	0.311
-589.938	288.346	-0.090	-0.163
-588.923	-200.000	0.079	-0.349
-587.909	-43.905	-0.110	0.055
-586.894	296.585	0.147	-0.271
-585.879	-25.405	-0.309	0.184
-584.865	14.040	-0.124	0.097
-583.850	-68.572	-0.269	-0.105
-582.836	124.123	-0.192	-0.243
-581.821	-200.000	0.007	0.296
-580.806	714.057	-0.050	0.134
-579.792	-154.439	0.252	0.017
-578.777	-200.000	-0.001	-0.264
-577.763	-187.499	0.323	0.004
-576.748	-200.000	-0.029	-0.153
-575.733	41.992	-0.193	0.176
-574.719	301.288	-0.090	-0.166
-573.704	800.000	0.035	-0.110
-572.690	-200.000	0.007	-0.379
-571.675	15.839	0.056	0.044
-570.661	-200.000	0.002	-0.350
-569.646	193.775	0.096	-0.145
-568.631	470.138	0.078	0.175
-567.617	-13.672	0.211	0.137
-566.602	652.767	0.026	0.067
-565.588	-86.439	-0.256	-0.079
-564.573	263.967	0.082	-0.144
-563.558	-180.481	0.087	0.002
-562.544	353.359	-0.311	0.621
-561.529	490.671	0.104	-0.240
-560.515	800.000	-0.096	-0.330
-559.500	-200.000	0.038	-0.198
-558.485	800.000	0.080	-0.286
-557.471	-200.000	0.008	-0.201
-556.456	-72.962	-0.185	0.068
-555.442	-17.186	0.296	0.187
-554.427	-16.931	-0.185	-0.118
-553.412	-140.818	0.096	-0.010
-552.398	-106.310	-0.290	-0.065
-551.383	800.000	-0.062	-0.216
-550.369	800.000	-0.019	0.067
-549.354	-200.000	-0.007	0.129
-548.339	-200.000	0.028	0.356
-547.325	61.948	0.158	-0.158
-546.310	-200.000	0.005	-0.277
-545.296	-15.002	0.214	0.138
-544.281	800.000	-0.040	-0.161
-543.266	-146.856	-0.208	0.018
-542.252	-129.009	-0.198	0.028
-541.237	-200.000	-0.015	0.265
-540.223	-200.000	-0.029	0.252
-539.208	-2.058	-0.164	0.116
-538.193	-98.882	0.037	-0.009
-537.179	-32.163	0.239	0.134
-536.164	-155.500	-0.234	0.015
-535.150	-166.905	-0.141	0.006
-534.135	-200.000	0.019	-0.228
-533.121	800.000	0.021	-0.073
-532.106	-94.150	0.297	0.081
-531.091	142.453	-0.137	0.182
-530.077	200.252	0.146	0.226
-529.062	800.000	0.080	-0.346
-528.048	800.000	0.049	-0.171
-527.033	305.345	0.047	0.088
-526.018	607.284	-0.097	0.241
-525.004	692.156	-0.148	-0.390
-523.989	-200.000	-0.030	0.218
-522.975	517.297	0.093	0.218
-521.960	525.248	0.106	0.250
-520.945	-168.337	0.516	0.020
-519.931	-156.069	-0.429	-0.027
-518.916	98.341	-0.190	-0.220
-517.902	800.000	-0.088	-0.292
-516.887	-169.734	0.194	0.007
-515.872	-200.000	0.030	-0.344
-514.858	54.999	0.148	-0.143
-513.843	-20.543	0.198	-0.122
-512.829	800.000	-0.055	0.161
-511.814	41.443	-0.198	0.180
-510.799	-24.119	0.238	-0.142
-509.785	64.413	-0.135	0.137
-508.770	44.849	0.275	0.254
-507.756	-101.251	0.150	-0.037
-506.741	137.173	0.107	-0.140
-505.726	259.949	-0.027	-0.047
-504.712	-200.000	-0.045	-0.321
-503.697	295.872	0.073	0.133
-502.683	-111.347	0.083	-0.017
-501.668	-162.334	-0.006	0.000
-500.653	-4.159	0.218	-0.151
-499.639	7.243	0.236	-0.177
-498.624	-14.752	-0.071	0.046
-497.610	-0.976	-0.089	-0.063
-496.595	42.670	-0.130	0.118
-495.581	-112.282	-0.165	0.033
-494.566	-111.981	0.288	-0.058
-493.551	-34.599	-0.365	-0.200
-492.537	309.617	-0.107	-0.200
-491.522	-200.000	-0.019	0.289
-490.508	-75.925	-0.080	-0.028
-489.493	147.786	0.039	0.052
-488.478	-200.000	-0.034	-0.177
-487.464	-5.687	-0.199	-0.136
-486.449	140.000	0.147	0.194
-485.435	-200.000	-0.030	0.313
-484.420	-101.502	-0.146	0.036
-483.405	-200.000	-0.003	0.080
-482.391	26.753	0.231	-0.193
-481.376	-4.217	0.166	0.115
-480.362	229.477	0.045	-0.073
-479.347	357.591	-0.118	0.236
-478.332	7.915	0.131	-0.098
-477.318	-200.000	0.004	0.142
-476.303	270.400	-0.100	0.176
-475.289	284.054	0.099	-0.179
-474.274	-30.243	0.069	0.039
-473.259	71.937	0.100	-0.104
-472.245	188.614	0.135	0.202
-471.230	-200.000	-0.017	-0.200
-470.216	-21.440	-0.424	-0.259
-469.201	84.423	-0.099	-0.108
-468.186	409.739	-0.161	0.342
-467.172	-179.744	-0.020	0.000
-466.157	-151.196	0.379	0.028
-465.143	-70.476	0.042	0.016
-464.128	-82.401	0.472	0.153
-463.113	-68.114	0.348	-0.136
-462.099	800.000	0.028	0.102
-461.084	-200.000	-0.019	-0.128
-460.070	133.551	0.152	-0.197
-459.055	-52.851	-0.384	0.177
-458.040	-76.540	-0.259	0.091
-457.026	250.407	-0.065	-0.110
-456.011	-161.149	-0.187	-0.010
-454.997	53.426	0.167	-0.160
-453.982	-200.000	-0.030	-0.138
-452.968	-135.888	0.176	-0.021
-451.953	-52.799	-0.102	0.047
-450.938	402.061	-0.056	-0.117
-449.924	-139.901	-0.108	0.011
-448.909	-87.836	-0.085	-0.026
-447.895	79.632	0.160	0.171
-446.880	-200.000	-0.008	0.075
-445.865	-60.470	0.265	0.112
-444.851	-200.000	-0.007	0.254
-443.836	763.702	0.057	0.153
-442.822	76.627	-0.121	-0.129
-441.807	-109.072	0.084	-0.018
-440.792	52.268	0.141	-0.134
-439.778	-200.000	0.007	-0.417
-438.763	-88.512	0.505	-0.150
-437.749	250.870	0.018	0.031
-436.734	-152.053	0.183	0.013
-435.719	-172.718	0.385	0.012
-434.705	-200.000	-0.090	0.665
-433.690	160.199	-0.151	-0.210
-432.676	-200.000	0.002	0.012
-431.661	-42.151	-0.387	0.198
-430.646	-39.429	0.554	0.290
-429.632	-119.034	-0.436	0.076
-428.617	-200.000	-0.033	0.179
-427.603	57.040	0.026	0.025
-426.588	53.579	0.130	-0.125
-425.573	96.554	-0.097	-0.111
-424.559	-67.750	-0.140	-0.055
-423.544	800.000	0.037	0.152
-422.530	-124.461	-0.195	0.030
-421.515	89.176	-0.216	-0.241
-420.500	800.000	-0.046	0.187
-419.486	-37.435	-0.357	-0.190
-418.471	156.947	-0.157	-0.217
-417.457	-83.797	0.438	0.139
-416.442	407.059	-0.069	-0.145
-415.428	-84.380	-0.271	0.086
-414.413	-200.000	0.049	0.315
-413.398	-200.000	-0.062	0.300
-412.384	-0.885	-0.171	-0.121
-411.369	-60.946	0.210	-0.089
-410.355	-200.000	-0.001	-0.231
-409.340	-105.905	-0.370	-0.083
-408.325	-200.000	0.088	-0.417
-407.311	-200.000	-0.004	0.256
-406.296	184.474	0.158	-0.234
-405.282	-200.000	0.041	0.604
-404.267	-138.112	-0.134	-0.015
-403.252	786.231	-0.072	0.198
-402.238	699.961	-0.010	0.027
-401.223	-200.000	0.024	-0.152
-400.209	129.555	-0.382	0.486
-399.194	-30.203	0.079	0.045
-398.179	-200.000	-0.006	0.177
-397.165	-200.000	-0.028	0.145
-396.150	179.257	-0.096	-0.140
-395.136	-200.000	0.063	-0.314
-394.121	174.153	-0.063	-0.090
-393.106	33.932	0.297	0.258
-392.092	-9.174	-0.171	0.114
-391.077	800.000	-0.108	0.359
-390.063	-11.769	0.197	-0.129
-389.048	41.237	0.101	-0.091
-388.033	413.288	0.079	0.168
-387.019	-200.000	0.013	0.114
-386.004	-80.285	-0.177	0.059
-384.990	-48.729	-0.191	-0.091
-383.975	-34.698	-0.121	-0.066
-382.960	51.058	-0.101	0.095
-381.946	65.518	0.329	-0.332
-380.931	-86.366	-0.209	-0.064
-379.917	34.034	-0.172	0.149
-378.902	800.000	-0.125	-0.367
-377.888	-200.000	0.038	0.185
-376.873	277.322	0.058	0.104
-375.858	114.171	-0.049	-0.059
-374.844	138.545	-0.092	-0.121
-373.829	7.354	-0.343	0.255
-372.815	-48.892	0.048	0.023
-371.800	10.347	-0.042	-0.032
-370.785	627.561	0.064	0.161
-369.771	58.163	-0.141	0.138
-368.756	-200.000	0.014	0.136
-367.742	-59.524	0.207	-0.089
-366.727	-45.739	0.170	-0.084
-365.712	-200.000	-0.071	-0.430
-364.698	-200.000	-0.002	-0.226
-363.683	-50.952	-0.272	0.127
-362.669	15.647	-0.105	0.082
-361.654	-54.081	0.223	0.101
-360.639	800.000	-0.122	0.433
-359.625	308.501	0.226	0.420
-358.610	119.738	-0.227	0.280
-357.596	-57.223	0.248	0.109
-356.581	-64.927	0.084	0.034
-355.566	-131.041	-0.071	-0.009
-354.552	580.249	0.108	-0.265
-353.537	-56.834	0.350	-0.154
-352.523	-200.000	0.042	-0.247
-351.508	-126.265	0.208	-0.031
-350.493	800.000	-0.043	0.157
-349.479	33.844	0.169	0.146
-348.464	-50.077	0.121	-0.057
-347.450	95.740	-0.043	0.049
-346.435	117.667	0.239	0.292
-345.420	-200.000	-0.004	-0.054
-344.406	-10.317	-0.349	0.230
-343.391	800.000	0.061	0.187
-342.377	93.958	-0.130	-0.146
-341.362	-182.850	-0.242	-0.004
-340.348	-34.898	-0.292	-0.159
-339.333	0.308	0.042	0.030
-338.318	-200.000	-0.011	-0.080
-337.304	800.000	-0.084	-0.309
-336.289	-108.811	0.201	-0.043
-335.275	-193.122	-0.271	-0.002
-334.260	278.137	-0.078	0.138
-333.245	800.000	-0.102	0.352
-332.231	800.000	-0.014	-0.039
-331.216	151.221	0.119	0.161
-330.202	-79.164	0.328	0.111
-329.187	-200.000	-0.022	-0.226
-328.172	-200.000	0.003	-0.143
-327.158	-46.767	0.031	-0.015
-326.143	70.405	0.116	-0.119
-325.129	250.757	0.160	0.270
-324.114	-200.000	0.007	0.214
-323.099	-200.000	0.014	0.121
-322.085	66.295	-0.392	0.396
-321.070	746.725	0.026	-0.071
-320.056	-154.760	-0.291	0.019
-319.041	440.120	0.069	-0.150
-318.026	233.376	-0.233	-0.381
-317.012	15.623	0.098	-0.077
-315.997	252.097	0.032	0.055
-314.983	800.000	0.100	0.389
-313.968	205.098	0.221	0.342
-312.953	179.572	0.215	-0.313
-311.939	-98.527	-0.123	0.031
-310.924	-200.000	-0.050	0.241
-309.910	-20.673	0.158	-0.096
-308.895	-43.097	0.231	0.116
-307.880	-200.000	-0.330	-0.001
-306.866	159.621	0.156	-0.216
-305.851	-34.960	0.219	-0.119
-304.837	98.728	-0.170	0.195
-303.822	217.930	0.064	0.101
-302.807	80.377	0.265	0.284
-301.793	-94.706	0.157	-0.042
-300.778	-200.000	-0.019	0.239
-299.764	800.000	0.114	0.456
-298.749	800.000	-0.056	-0.159
-297.735	-200.000	-0.002	0.030
-296.720	-56.667	-0.032	-0.014
-295.705	-73.712	0.271	0.098
-294.691	-91.614	-0.104	0.029
-293.676	130.577	0.177	-0.225
-292.662	371.119	0.154	-0.310
-291.647	-145.126	-0.112	-0.010
-290.632	-162.826	0.187	-0.009
-289.618	-103.824	-0.073	-0.017
-288.603	322.310	0.071	0.134
-287.589	171.495	0.151	-0.215
-286.574	-127.538	-0.317	0.046
-285.559	69.025	-0.285	-0.291
-284.545	87.593	0.067	0.074
-283.530	-0.715	0.156	-0.110
-282.516	-165.930	-0.109	-0.005
-281.501	-200.000	-0.030	-0.292
-280.486	-26.457	0.167	-0.097
-279.472	-5.303	-0.272	-0.185
-278.457	-63.312	0.219	-0.090
-277.443	92.298	-0.207	-0.231
-276.428	22.893	0.186	-0.151
-275.413	94.959	0.088	0.100
-274.399	800.000	-0.012	0.034
-273.384	-79.163	0.163	0.055
-272.370	800.000	0.108	0.312
-271.355	800.000	0.046	0.125
-270.340	153.329	-0.142	-0.192
-269.326	171.278	-0.229	0.326
-268.311	-200.000	0.006	-0.084
-267.297	29.124	0.112	0.095
-266.282	800.000	0.057	0.192
-265.267	99.325	0.189	-0.217
-264.253	-45.064	-0.236	-0.116
-263.238	800.000	0.032	0.109
-262.224	-143.610	0.441	-0.042
-261.209	-54.310	-0.273	0.123
-260.195	-129.167	-0.246	-0.034
-259.180	-200.000	0.016	-0.073
-258.165	-200.000	-0.007	-0.131
-257.151	-1.477	0.371	-0.259
-256.136	1.838	-0.204	0.146
-255.122	-59.528	0.279	-0.119
-254.107	-163.777	0.063	0.003
-253.092	800.000	0.111	-0.310
-252.078	-108.237	0.244	-0.052
-251.063	191.633	-0.091	-0.136
-250.049	-200.000	0.045	-0.384
-249.034	193.321	-0.061	-0.091
-248.019	220.997	0.116	0.185
-247.005	224.413	0.164	-0.263
-245.990	-20.347	-0.226	0.138
-244.976	-200.000	0.030	0.429
-243.961	58.197	0.220	0.214
-242.946	-114.917	0.371	0.070
-241.932	636.147	-0.049	0.123
-240.917	336.712	0.061	-0.118
-239.903	5.317	-0.103	-0.075
-238.888	-81.270	-0.213	0.070
-237.873	-189.004	-0.288	-0.003
-236.859	-125.833	-0.226	0.034
-235.844	-38.144	0.118	0.062
-234.830	-30.924	-0.083	-0.047
-233.815	800.000	0.099	-0.338
-232.800	-116.196	-0.065	-0.012
-231.786	-89.600	0.246	-0.072
-230.771	83.445	-0.217	0.235
-229.757	337.922	-0.084	0.161
-228.742	800.000	-0.078	-0.311
-227.727	-200.000	-0.019	0.170
-226.713	-142.604	-0.350	-0.034
-225.698	0.119	-0.162	-0.114
-224.684	-93.529	0.270	0.074
-223.669	-200.000	0.010	-0.081
-222.655	103.119	-0.167	-0.194
-221.640	328.548	0.215	-0.408
-220.625	800.000	0.056	-0.225
-219.611	94.392	-0.055	0.062
-218.596	25.043	-0.367	-0.302
-217.582	-134.937	-0.199	-0.024
-216.567	62.282	-0.162	-0.160
-215.552	-83.938	-0.201	0.063
-214.538	719.341	-0.088	-0.233
-213.523	-200.000	-0.015	0.121
-212.509	-119.568	0.228	0.039
-211.494	-200.000	0.010	0.176
-210.479	296.642	0.026	-0.047
-209.465	-61.552	0.272	0.113
-208.450	43.285	0.141	-0.128
-207.436	-7.775	-0.309	0.206
-206.421	2.485	-0.234	0.168
-205.406	800.000	-0.086	0.347
-204.392	-200.000	-0.019	0.231
-203.377	-67.873	0.061	0.024
-202.363	-51.552	-0.158	-0.073
-201.348	-156.359	-0.362	0.022
-200.333	-200.000	-0.010	-0.072
-199.319	419.694	-0.069	0.146
-198.304	205.485	0.067	-0.103
-197.290	-132.515	0.155	0.020
-196.275	-116.179	0.164	0.030
-195.260	106.692	0.210	0.247
-194.246	800.000	-0.125	0.377
-193.231	274.262	-0.112	-0.196
-192.217	-200.000	0.004	0.031
-191.202	-76.154	-0.327	-0.114
-190.187	-200.000	-0.022	0.193
-189.173	-100.570	0.251	-0.061
-188.158	800.000	0.050	-0.155
-187.144	-16.988	0.354	-0.221
-186.129	-41.042	-0.250	-0.128
-185.114	27.784	0.240	0.200
-184.100	-200.000	0.025	0.307
-183.085	-48.739	-0.253	0.120
-182.071	156.148	0.129	0.175
-181.056	359.353	0.142	-0.282
-180.042	-78.544	-0.263	-0.089
-179.027	123.613	0.219	0.272
-178.012	462.625	-0.109	0.241
-176.998	392.421	0.070	0.144
-175.983	22.770	-0.173	-0.140
-174.969	-42.780	-0.247	-0.124
-173.954	170.660	0.146	0.206
-172.939	100.805	-0.100	0.115
-171.925	-159.506	0.214	0.012
-170.910	137.996	-0.195	-0.253
-169.896	-71.958	0.192	-0.071
-168.881	-88.363	-0.254	0.075
-167.866	-117.745	-0.301	-0.054
-166.852	-200.000	-0.064	0.445
-165.837	-13.644	-0.091	0.058
-164.823	-200.000	0.006	0.038
-163.808	199.387	0.044	0.066
-162.793	-109.703	-0.094	-0.020
-161.779	-75.435	-0.348	0.122
-160.764	800.000	-0.107	-0.314
-159.750	3.278	0.176	-0.126
-158.735	-140.171	0.070	-0.007
-157.720	679.719	0.077	0.199
-156.706	170.904	-0.088	0.125
-155.691	-200.000	0.046	0.443
-154.677	-200.000	0.433	0.001
-153.662	-200.000	-0.002	0.094
-152.647	-45.287	-0.227	-0.111
-151.633	532.843	-0.035	0.083
-150.618	375.950	-0.051	0.103
-149.604	303.742	0.137	0.251
-148.589	189.051	-0.263	0.390
-147.574	-23.488	0.200	0.118
-146.560	-200.000	-0.013	-0.115
-145.545	-67.696	0.041	-0.016
-144.531	-200.000	0.039	-0.325
-143.516	-68.955	0.054	0.021
-142.502	-200.000	-0.013	-0.092
-141.487	281.435	-0.202	0.357
-140.472	119.417	0.042	0.051
-139.458	-94.780	-0.199	-0.053
-138.443	-113.010	-0.234	0.046
-137.429	104.292	-0.170	0.198
-136.414	416.065	0.065	0.137
-135.399	-200.000	-0.022	0.343
-134.385	459.055	-0.033	0.073
-133.370	-24.053	0.142	0.084
-132.356	-114.146	-0.343	-0.065
-131.341	-171.054	-0.129	0.004
-130.326	27.497	-0.181	0.150
-129.312	-200.000	0.002	-0.170
-128.297	-200.000	-0.015	0.095
-127.283	-200.000	-0.071	-0.338
-126.268	800.000	-0.077	0.279
-125.253	20.197	-0.226	0.180
-124.239	0.634	-0.187	-0.132
-123.224	-200.000	0.023	0.353
-122.210	-78.315	0.294	0.100
