DTS Sentinel unit serial number:	SN413079Multiplexer serial number:	ORYXHardware model number:	OX4-SRSoftware version number:	ORYX F/W v4.00 Oryx Data Collector v3.7.2.0data status	okinstallation	princeton_trtdifferential loss correction	single-endedforward channel	channel 2reverse channel	N/Adate	2019/09/15time	05:31:35forward acquisition time	60.00reverse acquisition time	0.00gamma	496.2192k internal	0.2326k external	0.2326temperature offset calibration	1.0034default loss term (dB/km)	0.3790temperature slope calibration	1.0000multiplexer offset coefficient	1.0000multiplexer slope coefficient	1.0000fibre end	0.00T internal ref (°C)	30.58T ext. ref 1 (°C)	4.75T ext. ref 2 (°C)	25.73length (m)	temperature (°C)	Stokes	anti-Stokes-747.200	-62.319	0.149	-0.063
-746.185	383.576	-0.081	0.167
-745.171	-9.746	0.078	0.053
-744.156	67.470	-0.237	0.244
-743.142	43.062	0.118	-0.109
-742.127	132.649	-0.171	0.223
-741.112	-54.336	-0.041	-0.019
-740.098	-200.000	-0.009	0.064
-739.083	264.543	-0.103	-0.180
-738.069	244.933	0.080	0.135
-737.054	-121.935	-0.231	0.038
-736.039	248.683	0.094	0.160
-735.025	-11.971	0.109	0.072
-734.010	13.435	-0.276	-0.216
-732.996	86.057	0.102	-0.113
-731.981	800.000	-0.147	-0.441
-730.966	-56.341	0.387	0.173
-729.952	800.000	0.096	0.383
-728.937	80.374	0.040	0.043
-727.923	29.699	0.179	-0.154
-726.908	616.596	0.117	-0.295
-725.894	-163.320	-0.346	0.017
-724.879	-200.000	-0.004	-0.030
-723.864	-14.206	0.056	-0.037
-722.850	-69.338	0.214	-0.083
-721.835	-84.416	-0.080	-0.026
-720.821	800.000	-0.029	-0.122
-719.806	12.782	-0.045	-0.035
-718.791	176.829	-0.055	-0.081
-717.777	362.580	0.274	0.554
-716.762	195.242	-0.217	-0.332
-715.748	-72.780	-0.222	-0.082
-714.733	366.869	0.120	0.244
-713.718	165.869	0.087	0.124
-712.704	639.134	0.066	0.170
-711.689	-200.000	0.003	-0.044
-710.675	-159.124	0.103	-0.006
-709.660	161.320	-0.207	0.292
-708.645	516.525	-0.131	-0.309
-707.631	-59.803	-0.272	-0.117
-706.616	105.272	-0.227	-0.269
-705.602	4.511	-0.075	-0.055
-704.587	-37.218	-0.102	0.055
-703.572	-200.000	0.037	-0.324
-702.558	106.721	0.255	-0.305
-701.543	215.745	0.212	-0.340
-700.529	-37.336	-0.032	-0.017
-699.514	-85.061	-0.075	-0.024
-698.499	-200.000	-0.044	-0.207
-697.485	-120.818	-0.514	-0.087
-696.470	37.978	-0.419	-0.375
-695.456	800.000	0.150	-0.517
-694.441	800.000	0.114	-0.389
-693.426	274.391	-0.089	-0.158
-692.412	800.000	-0.056	-0.196
-691.397	-200.000	0.007	0.313
-690.383	-200.000	-0.010	-0.078
-689.368	-14.334	-0.151	-0.098
-688.354	800.000	0.027	0.086
-687.339	-159.778	-0.186	0.010
-686.324	245.201	0.031	0.052
-685.310	-200.000	-0.020	0.127
-684.295	-139.591	0.215	0.023
-683.281	-65.923	-0.480	-0.193
-682.266	368.332	-0.100	-0.204
-681.251	-200.000	-0.006	-0.166
-680.237	140.884	-0.049	-0.065
-679.222	-61.302	-0.278	0.118
-678.208	-55.112	-0.183	-0.083
-677.193	-200.000	-0.005	-0.129
-676.178	-158.118	-0.205	0.012
-675.164	-162.303	0.392	-0.020
-674.149	-71.673	-0.210	-0.079
-673.135	53.495	0.125	0.121
-672.120	-12.559	-0.238	-0.156
-671.105	800.000	-0.029	-0.100
-670.091	-33.327	-0.103	-0.057
-669.076	21.891	0.188	0.154
-668.062	800.000	-0.076	0.335
-667.047	-113.238	-0.378	-0.075
-666.032	-105.827	-0.331	-0.075
-665.018	-93.270	0.229	-0.064
-664.003	-186.607	0.108	-0.002
-662.989	800.000	0.077	0.230
-661.974	800.000	-0.046	-0.170
-660.959	800.000	0.070	0.235
-659.945	-60.550	-0.112	-0.048
-658.930	28.644	0.312	-0.265
-657.916	30.382	0.265	-0.228
-656.901	-14.001	0.249	-0.161
-655.886	-71.108	-0.283	0.107
-654.872	-144.402	-0.167	0.016
-653.857	16.827	0.170	0.135
-652.843	-81.182	0.203	-0.068
-651.828	-200.000	0.058	-0.293
-650.814	-71.024	0.082	0.031
-649.799	130.641	0.027	0.035
-648.784	147.857	-0.111	0.150
-647.770	319.276	0.233	-0.444
-646.755	-102.320	0.370	0.089
-645.741	-3.663	0.207	0.144
-644.726	67.551	0.235	0.241
-643.711	-200.000	0.056	-0.295
-642.697	96.000	-0.114	-0.131
-641.682	28.364	-0.271	0.230
-640.668	-200.000	-0.053	0.270
-639.653	27.196	-0.156	0.131
-638.638	176.594	0.068	0.099
-637.624	-200.000	-0.001	0.304
-636.609	288.841	0.142	0.258
-635.595	-91.158	-0.214	-0.062
-634.580	-107.464	-0.371	-0.082
-633.565	-51.677	0.075	-0.035
-632.551	12.641	-0.497	0.385
-631.536	-200.000	0.033	0.273
-630.522	382.797	0.040	-0.082
-629.507	207.082	0.030	0.047
-628.492	795.367	-0.078	-0.215
-627.478	-18.092	-0.138	-0.087
-626.463	-132.581	-0.209	-0.027
-625.449	-45.618	-0.114	0.057
-624.434	43.756	0.071	0.065
-623.419	-200.000	0.070	-0.474
-622.405	381.281	-0.209	-0.431
-621.390	-120.499	-0.216	-0.037
-620.376	-21.102	0.194	0.119
-619.361	800.000	-0.021	0.087
-618.346	-116.427	-0.247	0.046
-617.332	144.840	0.179	-0.240
-616.317	800.000	0.073	-0.244
-615.303	265.934	0.076	0.133
-614.288	424.514	0.107	-0.230
-613.273	-139.204	0.063	0.007
-612.259	540.554	-0.077	-0.183
-611.244	-124.039	-0.213	0.034
-610.230	334.120	0.063	0.123
-609.215	28.041	-0.088	-0.074
-608.201	304.484	0.151	-0.281
-607.186	12.766	-0.180	-0.140
-606.171	-127.360	0.182	0.027
-605.157	-124.469	-0.311	-0.049
-604.142	40.830	-0.180	-0.163
-603.128	430.760	-0.081	0.177
-602.113	-200.000	0.007	-0.366
-601.098	129.105	-0.208	-0.266
-600.084	-76.464	0.054	0.019
-599.069	-200.000	0.008	-0.084
-598.055	-200.000	0.027	0.172
-597.040	-0.040	-0.273	0.195
-596.025	162.103	0.173	-0.243
-595.011	-200.000	0.024	-0.128
-593.996	-84.876	0.459	0.145
-592.982	247.292	0.118	-0.199
-591.967	65.144	0.272	-0.275
-590.952	34.891	0.185	0.163
-589.938	218.033	-0.029	-0.047
-588.923	38.643	-0.182	-0.163
-587.909	540.352	-0.041	-0.098
-586.894	96.503	-0.031	0.035
-585.879	210.167	0.096	-0.151
-584.865	800.000	-0.055	-0.179
-583.850	-200.000	0.008	-0.057
-582.836	-200.000	0.067	0.429
-581.821	800.000	0.093	0.307
-580.806	-97.042	0.127	-0.033
-579.792	237.415	-0.132	0.219
-578.777	145.175	-0.248	0.333
-577.763	633.994	0.027	-0.069
-576.748	-119.591	-0.241	-0.042
-575.733	-46.724	-0.172	-0.084
-574.719	24.632	-0.346	-0.287
-573.704	53.634	0.227	0.218
-572.690	-200.000	-0.029	0.147
-571.675	85.729	-0.282	-0.310
-570.661	456.534	0.181	-0.403
-569.646	-200.000	0.017	-0.383
-568.631	224.978	0.188	0.304
-567.617	88.621	0.079	0.088
-566.602	-115.026	-0.381	-0.073
-565.588	-200.000	-0.042	-0.289
-564.573	55.194	-0.213	0.206
-563.558	312.284	-0.148	-0.278
-562.544	-200.000	0.039	0.208
-561.529	138.101	0.118	-0.155
-560.515	-68.474	-0.357	-0.139
-559.500	210.028	0.162	-0.255
-558.485	800.000	-0.057	-0.190
-557.471	55.391	-0.136	0.132
-556.456	439.854	-0.057	0.125
-555.442	-200.000	0.005	0.111
-554.427	-200.000	-0.018	-0.198
-553.412	800.000	0.017	-0.062
-552.398	171.680	-0.154	0.221
-551.383	-155.155	-0.115	-0.008
-550.369	-200.000	-0.038	0.292
-549.354	-200.000	-0.015	0.117
-548.339	24.421	0.159	-0.131
-547.325	338.968	-0.046	0.089
-546.310	26.730	0.127	0.106
-545.296	-34.963	0.101	0.055
-544.281	84.011	-0.099	-0.108
-543.266	-39.981	0.162	-0.084
-542.252	1.946	-0.078	-0.057
-541.237	-81.388	-0.421	0.139
-540.223	56.106	-0.103	-0.100
-539.208	87.496	0.067	0.074
-538.193	142.992	0.082	0.109
-537.179	-119.997	0.531	0.091
-536.164	-200.000	0.009	-0.148
-535.150	520.965	-0.067	-0.158
-534.135	227.283	0.155	0.252
-533.121	-200.000	-0.001	0.146
-532.106	-200.000	0.010	0.261
-531.091	-200.000	0.077	-0.370
-530.077	-26.271	-0.057	-0.034
-529.062	800.000	-0.094	0.281
-528.048	-169.406	0.298	0.011
-527.033	55.988	-0.282	-0.274
-526.018	53.360	0.199	-0.191
-525.004	-71.981	0.359	0.133
-523.989	167.991	0.181	-0.258
-522.975	-45.392	-0.287	-0.142
-521.960	303.496	0.022	-0.040
-520.945	-120.030	-0.341	0.058
-519.931	800.000	0.041	0.118
-518.916	8.277	0.149	0.112
-517.902	22.679	0.070	0.057
-516.887	129.932	-0.127	0.163
-515.872	800.000	-0.016	0.053
-514.858	127.137	0.060	-0.076
-513.843	-159.201	0.149	0.008
-512.829	-76.910	-0.058	-0.020
-511.814	-152.596	0.084	-0.006
-510.799	-19.640	0.055	0.034
-509.785	31.569	-0.065	0.056
-508.770	-39.138	0.056	-0.029
-507.756	-155.115	-0.253	0.017
-506.741	66.767	-0.205	-0.209
-505.726	-74.392	0.333	-0.120
-504.712	-48.023	0.050	0.024
-503.697	103.497	0.166	-0.195
-502.683	212.633	0.198	0.313
-501.668	555.832	0.085	0.205
-500.653	-14.575	-0.265	-0.170
-499.639	339.226	-0.175	0.340
-498.624	-6.813	0.128	-0.087
-497.610	-99.503	0.101	-0.025
-496.595	-200.000	-0.043	0.211
-495.581	-164.118	-0.156	0.007
-494.566	-200.000	0.007	0.082
-493.551	26.632	0.076	-0.064
-492.537	-141.068	0.323	-0.033
-491.522	-200.000	0.060	0.324
-490.508	666.967	0.056	0.144
-489.493	-40.619	-0.130	-0.068
-488.478	142.309	-0.105	-0.139
-487.464	-12.894	-0.227	-0.148
-486.449	370.188	-0.061	0.123
-485.435	-102.545	0.207	0.049
-484.420	-1.661	-0.263	0.185
-483.405	-13.782	0.286	-0.184
-482.391	-94.114	0.292	-0.080
-481.376	-200.000	0.007	0.184
-480.362	-200.000	0.072	-0.396
-479.347	111.236	0.134	-0.161
-478.332	-61.104	0.086	-0.036
-477.318	-91.817	0.178	-0.050
-476.303	-200.000	-0.002	0.222
-475.289	-163.096	0.189	-0.009
-474.274	-200.000	0.012	0.087
-473.259	-200.000	0.005	-0.132
-472.245	-200.000	0.033	0.159
-471.230	-40.744	-0.302	0.156
-470.216	-114.806	-0.272	-0.052
-469.201	615.533	-0.138	-0.346
-468.186	56.401	0.126	-0.122
-467.172	-46.017	-0.255	0.125
-466.157	-58.172	0.176	0.077
-465.143	800.000	0.058	-0.170
-464.128	-67.638	0.159	-0.062
-463.113	-74.760	-0.014	0.005
-462.099	196.888	-0.086	-0.131
-461.084	-17.084	0.232	-0.146
-460.070	-84.801	0.163	0.051
-459.055	-50.098	-0.395	-0.186
-458.040	800.000	0.044	-0.161
-457.026	800.000	-0.016	0.047
-456.011	58.539	0.160	0.157
-454.997	1.240	-0.273	-0.195
-453.982	77.079	0.096	-0.102
-452.968	-200.000	0.012	0.095
-451.953	-200.000	-0.001	0.315
-450.938	-2.566	-0.191	0.133
-449.924	800.000	0.045	-0.153
-448.909	15.531	0.288	0.226
-447.895	-200.000	0.046	0.213
-446.880	175.860	-0.083	-0.120
-445.865	-49.567	-0.108	-0.051
-444.851	-200.000	0.004	0.065
-443.836	-167.432	0.054	-0.002
-442.822	537.134	-0.036	-0.086
-441.807	184.869	-0.142	-0.209
-440.792	409.017	-0.097	-0.205
-439.778	333.486	0.226	-0.435
-438.763	-200.000	0.015	-0.098
-437.749	165.939	0.196	-0.276
-436.734	-28.669	0.091	-0.052
-435.719	-0.092	0.153	-0.109
-434.705	335.205	-0.017	-0.033
-433.690	-103.497	-0.363	0.085
-432.676	91.482	-0.156	0.174
-431.661	800.000	0.085	0.259
-430.646	259.292	-0.100	0.172
-429.632	215.774	-0.204	0.322
-428.617	109.196	0.097	0.116
-427.603	-158.001	0.112	0.007
-426.588	118.026	-0.057	-0.070
-425.573	43.828	0.211	0.192
-424.559	216.724	0.158	-0.250
-423.544	481.975	-0.021	-0.048
-422.530	-70.013	0.228	0.086
-421.515	-124.675	-0.418	0.065
-420.500	116.407	0.127	0.155
-419.486	-200.000	0.028	0.288
-418.471	-200.000	0.014	-0.199
-417.457	800.000	0.071	0.287
-416.442	-168.562	0.112	0.004
-415.428	17.949	0.262	-0.208
-414.413	-200.000	0.067	-0.327
-413.398	85.383	-0.104	0.114
-412.384	-200.000	-0.015	0.174
-411.369	142.523	-0.114	0.151
-410.355	-93.027	-0.173	-0.048
-409.340	-11.709	-0.153	-0.100
-408.325	190.061	-0.053	0.079
-407.311	-19.390	-0.071	0.044
-406.296	-21.552	0.288	-0.175
-405.282	71.989	0.300	0.311
-404.267	-106.876	0.287	0.063
-403.252	-155.049	0.176	-0.012
-402.238	5.214	-0.220	-0.162
-401.223	800.000	0.085	0.335
-400.209	-200.000	-0.004	-0.345
-399.194	-118.223	-0.143	0.025
-398.179	-41.783	-0.291	-0.148
-397.165	261.639	-0.110	-0.189
-396.150	800.000	0.077	0.264
-395.136	4.100	0.076	0.055
-394.121	237.601	-0.193	-0.318
-393.106	-52.821	-0.274	-0.126
-392.092	-200.000	0.027	-0.120
-391.077	-121.533	-0.188	-0.031
-390.063	22.279	0.308	0.250
-389.048	-82.966	0.241	-0.077
-388.033	7.409	-0.156	0.116
-387.019	-10.536	-0.186	0.122
-386.004	151.009	0.298	0.403
-384.990	-53.802	-0.316	0.143
-383.975	-39.021	0.310	-0.162
-382.960	800.000	0.039	-0.151
-381.946	297.865	0.125	0.228
-380.931	438.924	0.027	0.059
-379.917	235.287	-0.123	-0.202
-378.902	-107.475	0.132	0.029
-377.888	-180.847	0.216	-0.004
-376.873	78.066	0.317	-0.336
-375.858	-154.932	0.287	0.019
-374.844	88.399	0.241	0.266
-373.829	-7.899	-0.266	0.178
-372.815	0.969	0.132	0.094
-371.800	13.068	0.140	0.107
-370.785	-151.718	-0.163	-0.012
-369.771	84.428	-0.299	-0.325
-368.756	800.000	-0.158	0.457
-367.742	-191.854	0.447	-0.004
-366.727	800.000	0.075	0.277
-365.712	-35.368	-0.114	0.062
-364.698	-110.047	0.084	-0.017
-363.683	163.547	0.013	0.018
-362.669	247.925	0.164	0.276
-361.654	-110.186	0.098	-0.020
-360.639	639.361	-0.030	0.075
-359.625	137.862	0.150	0.195
-358.610	800.000	0.042	0.155
-357.596	-200.000	0.020	0.261
-356.581	800.000	0.027	-0.093
-355.566	30.586	-0.192	0.163
-354.552	-84.289	0.224	-0.071
-353.537	-200.000	-0.046	-0.420
-352.523	323.897	0.187	-0.355
-351.508	-200.000	-0.043	0.187
-350.493	95.839	-0.080	-0.091
-349.479	51.560	-0.049	0.046
-348.464	425.314	-0.098	-0.210
-347.450	-51.097	0.369	0.172
-346.435	598.703	-0.046	0.113
-345.420	800.000	0.063	0.240
-344.406	19.572	-0.153	-0.122
-343.391	211.029	0.061	0.096
-342.377	-200.000	-0.018	-0.338
-341.362	-76.384	-0.021	0.007
-340.348	121.337	-0.303	-0.375
-339.333	-72.641	-0.213	0.078
-338.318	-38.267	0.123	-0.065
-337.304	-35.808	-0.074	-0.040
-336.289	63.809	0.085	-0.084
-335.275	-23.576	-0.092	-0.055
-334.260	497.725	0.072	-0.165
-333.245	-67.352	-0.277	0.108
-332.231	-106.059	-0.093	0.021
-331.216	-200.000	-0.017	-0.442
-330.202	-200.000	0.043	-0.232
-329.187	41.596	-0.225	0.202
-328.172	-200.000	0.095	-0.450
-327.158	626.326	-0.061	0.153
-326.143	12.449	-0.142	-0.108
-325.129	117.573	0.271	-0.331
-324.114	73.880	0.152	-0.158
-323.099	-111.855	0.277	-0.056
-322.085	-113.934	0.133	0.026
-321.070	-200.000	-0.016	-0.568
-320.056	514.824	0.052	0.120
-319.041	196.009	-0.148	0.223
-318.026	-144.835	-0.126	0.011
-317.012	-112.838	0.273	-0.054
-315.997	-200.000	0.043	0.235
-314.983	207.580	-0.095	0.148
-313.968	-200.000	0.000	-0.083
-312.953	800.000	-0.067	-0.290
-311.939	-200.000	0.028	0.168
-310.924	201.428	-0.046	0.070
-309.910	-146.443	-0.373	-0.032
-308.895	-200.000	0.012	0.157
-307.880	-99.211	0.028	-0.007
-306.866	394.219	0.060	-0.124
-305.851	-23.931	-0.095	-0.056
-304.837	84.449	-0.156	-0.170
-303.822	800.000	-0.095	0.281
-302.807	147.960	-0.088	-0.117
-301.793	-71.714	-0.360	0.133
-300.778	-200.000	0.004	0.428
-299.764	-110.192	0.171	0.035
-298.749	328.980	-0.096	0.183
-297.735	306.653	0.160	-0.295
-296.720	209.659	-0.255	0.397
-295.705	800.000	-0.047	0.146
-294.691	83.775	0.110	-0.119
-293.676	-78.535	-0.366	0.124
-292.662	-181.039	0.333	0.007
-291.647	-172.428	-0.224	-0.007
-290.632	-174.234	0.316	-0.009
-289.618	-182.507	0.369	0.007
-288.603	-105.744	-0.234	-0.052
-287.589	29.359	0.107	0.090
-286.574	-200.000	0.020	0.207
-285.559	338.334	-0.129	0.249
-284.545	219.456	-0.187	0.296
-283.530	800.000	-0.026	0.085
-282.516	-200.000	0.000	0.365
-281.501	-29.980	-0.190	0.107
-280.486	-78.757	0.203	-0.069
-279.472	36.363	0.147	-0.128
-278.457	800.000	0.033	-0.127
-277.443	-200.000	-0.046	0.211
-276.428	-154.557	-0.147	0.010
-275.413	-15.792	0.287	-0.181
-274.399	-143.319	0.101	0.010
-273.384	-200.000	-0.225	-0.001
-272.370	40.861	-0.151	-0.135
-271.355	-200.000	0.069	0.000
-270.340	732.491	0.044	-0.118
-269.326	-178.457	-0.093	0.002
-268.311	21.226	-0.174	-0.140
-267.297	12.951	0.133	-0.102
-266.282	-200.000	-0.006	-0.175
-265.267	-200.000	-0.045	0.349
-264.253	-34.507	-0.210	-0.114
-263.238	-200.000	0.010	-0.271
-262.224	120.182	-0.104	0.128
-261.209	-195.845	-0.364	0.003
-260.195	347.953	-0.111	-0.217
-259.180	-200.000	0.009	-0.166
-258.165	1.807	-0.432	0.308
-257.151	-164.197	-0.290	0.013
-256.136	800.000	-0.010	0.043
-255.122	-19.197	0.224	-0.137
-254.107	-125.587	-0.068	0.010
-253.092	41.346	-0.130	-0.117
-252.078	179.683	-0.137	-0.198
-251.063	-200.000	-0.002	-0.050
-250.049	118.637	0.018	-0.022
-249.034	-200.000	-0.025	-0.143
-248.019	48.114	0.231	-0.213
-247.005	30.183	0.067	0.057
-245.990	137.600	0.131	-0.170
-244.976	603.997	-0.117	-0.288
-243.961	-28.086	-0.148	0.085
-242.946	-73.575	0.118	0.042
-241.932	-200.000	0.008	0.288
-240.917	-13.078	0.040	0.026
-239.903	-71.399	0.279	0.103
-238.888	800.000	-0.073	0.313
-237.873	-50.442	0.067	-0.031
-236.859	-66.840	0.027	0.011
-235.844	-41.827	0.122	-0.062
-234.830	-167.032	0.134	0.005
-233.815	-160.001	-0.224	0.012
-232.800	-200.000	0.015	0.386
-231.786	432.535	0.194	0.416
-230.771	-59.092	-0.156	0.066
-229.757	-45.768	0.230	0.112
-228.742	119.689	-0.071	0.087
-227.727	-85.193	0.256	-0.079
-226.713	800.000	0.041	-0.139
-225.698	135.880	-0.131	0.168
-224.684	-112.773	0.208	0.041
-223.669	10.272	0.071	-0.053
-222.655	-14.104	-0.256	0.163
-221.640	-200.000	-0.025	-0.174
-220.625	-64.685	0.226	0.090
-219.611	-122.500	-0.467	-0.075
-218.596	800.000	0.157	-0.468
-217.582	-200.000	0.012	0.065
-216.567	-155.647	0.167	-0.011
-215.552	720.718	0.048	-0.127
-214.538	-110.893	-0.239	0.049
-213.523	-200.000	0.000	-0.133
-212.509	-200.000	-0.026	0.193
-211.494	-95.573	0.400	-0.106
-210.479	-70.436	-0.508	0.190
-209.465	336.148	0.170	0.326
-208.450	165.949	0.069	0.096
-207.436	800.000	-0.052	0.215
-206.421	436.671	-0.099	-0.213
-205.406	-165.048	0.680	-0.030
-204.392	20.778	0.027	-0.022
-203.377	-59.643	-0.308	0.130
-202.363	43.017	-0.020	-0.018
-201.348	-61.307	0.505	-0.210
-200.333	-29.994	0.137	0.077
-199.319	365.193	-0.111	0.221
-198.304	-200.000	0.069	-0.550
-197.290	101.022	-0.121	0.139
-196.275	176.719	-0.213	-0.305
-195.260	-27.176	0.392	-0.226
-194.246	-68.433	0.171	-0.065
-193.231	-12.545	-0.292	0.188
-192.217	-174.170	0.198	0.006
-191.202	60.354	0.144	-0.141
-190.187	22.826	-0.122	-0.099
-189.173	31.891	-0.221	0.188
-188.158	-200.000	0.071	0.387
-187.144	-200.000	-0.024	-0.114
-186.129	-61.619	-0.458	0.190
-185.114	-44.403	-0.360	0.178
-184.100	-38.443	0.129	-0.067
-183.085	-106.584	0.087	-0.019
-182.071	-200.000	0.014	-0.178
-181.056	-30.531	-0.185	0.104
-180.042	101.147	-0.471	0.541
-179.027	-200.000	0.031	-0.312
-178.012	-10.449	-0.229	0.150
-176.998	-200.000	-0.060	0.382
-175.983	-154.744	-0.146	0.010
-174.969	608.930	0.060	0.147
-173.954	28.240	0.134	-0.111
-172.939	127.898	0.108	-0.135
-171.925	162.459	0.185	0.256
-170.910	-134.486	0.341	-0.041
-169.896	95.137	0.254	0.285
-168.881	-131.665	-0.200	0.026
-167.866	41.297	-0.317	0.283
-166.852	31.510	0.306	-0.260
-165.837	-132.484	-0.059	-0.008
-164.823	-71.234	0.088	0.032
-163.808	159.718	-0.107	0.148
-162.793	800.000	0.038	-0.108
-161.779	-74.713	-0.075	0.027
-160.764	60.883	-0.079	-0.077
-159.750	-139.909	0.477	0.050
-158.735	-136.104	-0.125	-0.014
-157.720	360.527	0.088	-0.174
-156.706	800.000	-0.039	-0.153
-155.691	5.456	0.104	-0.075
-154.677	-91.299	0.169	0.048
-153.662	13.305	0.174	0.133
-152.647	-200.000	-0.016	-0.180
-151.633	-200.000	0.064	-0.358
-150.618	-68.161	-0.128	-0.049
-149.604	-200.000	-0.007	-0.048
-148.589	101.217	0.106	0.121
-147.574	-87.322	0.108	-0.032
-146.560	-200.000	-0.025	-0.181
-145.545	605.947	0.068	-0.167
-144.531	800.000	-0.073	-0.306
-143.516	582.444	-0.006	0.015
-142.502	-93.019	-0.229	0.063
-141.487	-119.113	-0.170	0.029
-140.472	-200.000	0.021	0.238
-139.458	-200.000	-0.007	0.216
-138.443	800.000	-0.007	-0.025
-137.429	-103.812	0.073	0.017
-136.414	-200.000	-0.041	0.354
-135.399	330.350	0.115	-0.219
-134.385	6.742	0.068	-0.050
-133.370	-172.972	0.052	-0.002
-132.356	-63.142	0.215	0.087
-131.341	217.263	-0.076	0.120
-130.326	-78.304	-0.062	0.021
-129.312	-120.070	0.117	-0.020
-128.297	85.405	0.032	0.035
-127.283	400.687	0.079	0.164
-126.268	-26.007	0.121	0.070
-125.253	-174.504	-0.275	0.008
-124.239	-200.000	-0.018	0.210
-123.224	601.266	-0.112	-0.275
-122.210	-19.698	-0.258	-0.157
-121.195	-94.327	-0.210	0.057
