DTS Sentinel unit serial number:	SN413079Multiplexer serial number:	ORYXHardware model number:	OX4-SRSoftware version number:	ORYX F/W v4.00 Oryx Data Collector v3.7.2.0data status	okinstallation	princeton_trtdifferential loss correction	single-endedforward channel	channel 2reverse channel	N/Adate	2019/09/11time	15:49:11forward acquisition time	60.00reverse acquisition time	0.00gamma	496.2192k internal	0.2288k external	0.2288temperature offset calibration	1.0016default loss term (dB/km)	0.3790temperature slope calibration	1.0000multiplexer offset coefficient	1.0000multiplexer slope coefficient	1.0000fibre end	0.00T internal ref (°C)	42.89T ext. ref 1 (°C)	1.01T ext. ref 2 (°C)	38.62length (m)	temperature (°C)	Stokes	anti-Stokes-747.200	-189.943	0.057	-0.001
-746.185	-147.674	-0.120	0.010
-745.171	-75.746	-0.009	0.003
-744.156	-200.000	-0.041	0.270
-743.142	-110.729	0.290	0.061
-742.127	-200.000	0.060	0.414
-741.112	88.487	-0.163	-0.186
-740.098	-37.710	-0.046	0.025
-739.083	-200.000	0.008	0.219
-738.069	-142.442	0.286	-0.029
-737.054	-82.140	-0.277	0.093
-736.039	280.263	0.158	-0.290
-735.025	-24.862	0.268	0.163
-734.010	18.316	-0.216	0.176
-732.996	-154.226	-0.380	0.026
-731.981	-200.000	0.057	0.271
-730.966	-30.112	0.050	-0.029
-729.952	568.971	-0.104	0.258
-728.937	-128.645	-0.070	0.010
-727.923	-24.306	-0.229	-0.140
-726.908	-18.638	0.196	0.125
-725.894	-81.894	-0.301	-0.101
-724.879	-62.034	0.117	0.050
-723.864	23.386	0.267	-0.225
-722.850	488.195	-0.025	0.059
-721.835	-129.591	-0.218	-0.031
-720.821	-75.725	-0.327	0.119
-719.806	-4.869	0.214	-0.151
-718.791	800.000	-0.072	-0.254
-717.777	-200.000	0.018	-0.232
-716.762	581.306	-0.087	-0.219
-715.748	386.842	-0.102	-0.215
-714.733	-77.019	-0.215	-0.077
-713.718	476.952	0.189	0.437
-712.704	412.473	-0.058	-0.127
-711.689	166.177	-0.187	-0.271
-710.675	65.864	-0.149	0.155
-709.660	58.922	-0.108	0.109
-708.645	41.183	0.130	-0.120
-707.631	-85.066	0.200	-0.064
-706.616	241.438	-0.040	-0.068
-705.602	115.570	0.048	0.061
-704.587	-200.000	-0.311	0.000
-703.572	-200.000	-0.009	0.162
-702.558	-95.114	-0.264	0.073
-701.543	-200.000	-0.005	-0.144
-700.529	-108.605	-0.353	0.077
-699.514	342.009	0.051	-0.102
-698.499	-177.052	0.136	0.003
-697.485	725.489	-0.033	0.090
-696.470	-7.237	-0.209	-0.145
-695.456	16.513	0.281	-0.227
-694.441	-84.518	-0.170	0.055
-693.426	-86.289	-0.318	0.100
-692.412	3.090	0.051	-0.038
-691.397	68.913	-0.110	-0.116
-690.383	800.000	0.092	0.267
-689.368	201.992	-0.315	0.498
-688.354	140.156	-0.085	0.115
-687.339	-174.715	0.120	-0.003
-686.324	354.010	-0.195	-0.397
-685.310	800.000	0.087	0.281
-684.295	-200.000	0.010	0.166
-683.281	186.289	-0.069	0.105
-682.266	313.036	0.071	0.136
-681.251	-31.928	0.352	-0.201
-680.237	146.661	0.182	0.250
-679.222	-152.423	-0.540	0.040
-678.208	159.059	-0.055	-0.078
-677.193	64.744	-0.374	0.385
-676.178	49.403	-0.249	0.240
-675.164	800.000	0.080	-0.295
-674.149	562.906	0.117	0.290
-673.135	-200.000	0.060	-0.416
-672.120	-200.000	-0.023	-0.203
-671.105	-110.400	-0.206	0.044
-670.091	-32.138	-0.132	0.076
-669.076	-59.706	-0.260	0.114
-668.062	-129.518	0.236	0.033
-667.047	800.000	-0.096	-0.355
-666.032	-52.457	-0.233	-0.110
-665.018	211.825	0.130	0.209
-664.003	-89.432	0.111	0.033
-662.989	-1.634	0.082	0.059
-661.974	-121.381	0.387	0.066
-660.959	-26.386	0.142	0.085
-659.945	-200.000	0.021	-0.321
-658.930	-189.978	-0.032	-0.000
-657.916	436.826	-0.066	-0.148
-656.901	-200.000	0.024	0.109
-655.886	-59.227	-0.165	0.073
-654.872	214.341	0.102	-0.165
-653.857	67.253	0.119	0.124
-652.843	-36.928	0.333	-0.182
-651.828	108.712	0.116	-0.142
-650.814	-134.928	-0.302	-0.037
-649.799	-33.005	0.102	-0.058
-648.784	-200.000	-0.067	-0.470
-647.770	698.459	-0.105	-0.283
-646.755	800.000	-0.015	0.056
-645.741	-89.211	-0.470	-0.142
-644.726	-200.000	-0.009	-0.079
-643.711	-32.894	0.327	-0.186
-642.697	-82.997	-0.217	-0.071
-641.682	12.404	0.138	-0.109
-640.668	360.823	0.041	0.084
-639.653	800.000	-0.051	-0.189
-638.638	-27.889	-0.247	0.146
-637.624	-200.000	-0.025	0.207
-636.609	800.000	-0.029	-0.085
-635.595	191.995	-0.255	-0.392
-634.580	800.000	-0.044	0.156
-633.565	186.055	0.166	0.253
-632.551	-26.784	-0.173	-0.103
-631.536	139.635	0.097	0.130
-630.522	144.626	0.078	0.106
-629.507	-100.110	0.066	0.017
-628.492	236.984	-0.071	-0.120
-627.478	-28.409	0.131	0.077
-626.463	-127.826	-0.159	-0.023
-625.449	-129.685	0.134	-0.019
-624.434	91.094	-0.188	0.215
-623.419	-9.841	-0.004	-0.002
-622.405	68.100	0.153	-0.160
-621.390	-200.000	0.008	-0.215
-620.376	109.449	0.134	-0.163
-619.361	-97.672	-0.051	0.014
-618.346	-127.309	-0.180	-0.027
-617.332	94.982	-0.188	-0.218
-616.317	555.694	0.162	-0.399
-615.303	-125.181	-0.242	0.038
-614.288	168.552	0.177	-0.258
-613.273	-200.000	0.005	0.198
-612.259	-26.531	-0.116	-0.070
-611.244	-200.000	-0.003	-0.073
-610.230	-72.928	0.301	0.113
-609.215	-75.891	-0.354	-0.128
-608.201	-6.922	0.125	-0.087
-607.186	-179.911	-0.194	0.004
-606.171	-53.850	-0.107	-0.050
-605.157	158.517	0.047	0.066
-604.142	659.281	-0.030	-0.080
-603.128	800.000	-0.079	0.227
-602.113	178.326	-0.011	0.016
-601.098	680.537	-0.091	0.242
-600.084	61.364	-0.077	0.078
-599.069	635.350	0.086	0.223
-598.055	170.387	0.166	-0.243
-597.040	-124.870	0.482	0.076
-596.025	-200.000	-0.042	0.228
-595.011	800.000	-0.063	-0.265
-593.996	43.620	0.101	-0.094
-592.982	-77.007	-0.194	0.069
-591.967	31.104	-0.098	-0.086
-590.952	-80.367	0.018	-0.006
-589.938	-200.000	0.044	-0.290
-588.923	5.938	0.203	0.153
-587.909	281.977	0.120	-0.219
-586.894	-153.469	0.194	0.014
-585.879	-110.280	-0.234	-0.050
-584.865	143.855	0.098	-0.132
-583.850	239.625	0.048	0.081
-582.836	-179.512	-0.270	0.006
-581.821	103.708	-0.173	0.207
-580.806	-74.131	0.188	0.069
-579.792	-158.930	0.101	0.006
-578.777	92.056	-0.120	0.138
-577.763	-54.235	0.211	0.098
-576.748	-101.395	-0.352	-0.087
-575.733	-38.214	0.109	-0.059
-574.719	-200.000	0.019	0.236
-573.704	-13.295	-0.140	-0.093
-572.690	-200.000	0.008	-0.212
-571.675	194.434	0.151	-0.233
-570.661	-113.230	-0.552	-0.111
-569.646	-76.102	-0.075	-0.027
-568.631	92.243	0.100	0.115
-567.617	800.000	-0.028	-0.086
-566.602	800.000	0.089	-0.304
-565.588	-200.000	-0.000	-0.096
-564.573	-200.000	0.038	-0.358
-563.558	13.520	-0.308	-0.243
-562.544	-1.564	0.151	0.109
-561.529	40.997	0.093	-0.086
-560.515	-2.359	-0.192	-0.137
-559.500	347.471	-0.098	-0.197
-558.485	143.503	0.107	-0.146
-557.471	-87.689	-0.189	-0.058
-556.456	169.852	-0.084	-0.122
-555.442	-30.249	-0.078	-0.045
-554.427	-76.358	-0.255	0.091
-553.412	800.000	-0.062	-0.267
-552.398	-154.787	0.181	-0.012
-551.383	-200.000	-0.004	-0.113
-550.369	-130.797	0.126	-0.017
-549.354	-200.000	-0.025	-0.186
-548.339	-200.000	0.029	0.237
-547.325	-60.483	0.319	0.138
-546.310	-66.156	0.144	-0.058
-545.296	-113.404	-0.218	-0.044
-544.281	800.000	0.129	0.449
-543.266	-56.166	0.123	-0.056
-542.252	210.461	0.047	-0.075
-541.237	-149.199	0.138	0.011
-540.223	204.710	-0.058	0.091
-539.208	19.947	0.098	-0.080
-538.193	-94.087	0.154	-0.043
-537.179	138.937	0.043	0.058
-536.164	186.698	-0.022	0.034
-535.150	-200.000	0.022	-0.112
-534.135	-52.931	0.211	-0.099
-533.121	-169.401	0.022	0.001
-532.106	84.881	0.166	-0.185
-531.091	654.986	-0.083	-0.218
-530.077	800.000	-0.068	-0.207
-529.062	-163.262	0.230	0.011
-528.048	-63.494	0.131	-0.055
-527.033	-200.000	-0.009	-0.067
-526.018	-200.000	0.002	0.187
-525.004	124.936	-0.068	0.087
-523.989	633.186	-0.089	-0.230
-522.975	87.099	-0.204	0.229
-521.960	193.474	-0.242	0.373
-520.945	-176.751	-0.266	-0.007
-519.931	-200.000	-0.002	-0.216
-518.916	-200.000	-0.024	0.152
-517.902	-58.110	0.525	0.232
-516.887	-200.000	0.061	0.602
-515.872	-71.871	0.121	0.046
-514.858	53.706	0.030	0.029
-513.843	77.119	-0.140	-0.151
-512.829	216.017	-0.150	-0.242
-511.814	-200.000	0.044	0.243
-510.799	-95.651	-0.274	0.074
-509.785	224.586	-0.189	-0.310
-508.770	-78.541	0.205	0.071
-507.756	444.670	-0.062	0.138
-506.741	-200.000	-0.041	0.344
-505.726	-69.112	-0.359	-0.140
-504.712	200.301	0.252	0.394
-503.697	-20.436	-0.043	0.027
-502.683	430.453	-0.018	-0.040
-501.668	-58.282	0.209	0.092
-500.653	-88.712	-0.242	0.073
-499.639	190.103	-0.137	-0.208
-498.624	-136.773	-0.183	0.021
-497.610	255.887	-0.081	0.142
-496.595	-103.771	-0.124	0.030
-495.581	-82.290	0.279	0.092
-494.566	800.000	-0.020	-0.087
-493.551	-200.000	0.024	-0.155
-492.537	-52.896	0.060	0.028
-491.522	-170.507	-0.253	-0.009
-490.508	720.697	-0.015	0.040
-489.493	23.238	-0.189	-0.158
-488.478	435.701	-0.138	0.305
-487.464	-200.000	-0.034	-0.350
-486.449	24.127	-0.189	-0.159
-485.435	800.000	-0.110	-0.388
-484.420	35.087	-0.024	0.021
-483.405	-195.068	-0.220	-0.002
-482.391	322.204	-0.034	-0.066
-481.376	-47.440	-0.058	0.029
-480.362	-90.935	-0.168	0.049
-479.347	223.515	-0.100	0.163
-478.332	49.631	0.207	0.198
-477.318	-77.140	-0.079	0.028
-476.303	147.056	-0.069	0.095
-475.289	621.489	-0.089	-0.228
-474.274	551.679	0.113	0.276
-473.259	-200.000	0.017	0.142
-472.245	97.987	-0.026	-0.031
-471.230	-52.377	0.083	-0.039
-470.216	-106.362	-0.308	0.070
-469.201	-200.000	-0.007	-0.151
-468.186	800.000	0.079	0.345
-467.172	-86.595	-0.264	-0.082
-466.157	-62.571	-0.122	0.051
-465.143	800.000	0.076	0.295
-464.128	800.000	-0.006	0.022
-463.113	121.651	-0.121	-0.153
-462.099	217.436	-0.188	0.304
-461.084	800.000	-0.037	0.104
-460.070	90.772	0.052	-0.059
-459.055	-104.794	0.211	-0.049
-458.040	-150.330	0.346	0.027
-457.026	87.091	-0.067	-0.075
-456.011	7.143	0.098	0.074
-454.997	141.095	-0.110	-0.147
-453.982	-95.987	-0.163	-0.044
-452.968	16.199	0.209	0.167
-451.953	-200.000	-0.016	0.071
-450.938	224.281	-0.044	-0.072
-449.924	-200.000	-0.031	0.197
-448.909	-125.858	0.197	-0.030
-447.895	-179.452	0.523	-0.012
-446.880	259.132	-0.187	0.326
-445.865	-104.675	0.279	0.065
-444.851	-149.962	-0.275	-0.022
-443.836	206.007	-0.013	-0.020
-442.822	800.000	-0.035	-0.122
-441.807	-47.077	0.071	0.035
-440.792	29.384	-0.172	0.149
-439.778	-200.000	-0.056	-0.280
-438.763	-137.085	-0.149	-0.017
-437.749	-157.135	-0.107	-0.007
-436.734	800.000	0.071	0.208
-435.719	98.527	-0.098	0.114
-434.705	-3.900	0.059	-0.041
-433.690	-161.027	-0.314	-0.017
-432.676	-96.106	0.320	-0.086
-431.661	-49.042	0.246	0.119
-430.646	37.634	0.178	-0.160
-429.632	800.000	-0.086	-0.334
-428.617	26.501	0.101	0.086
-427.603	-11.579	0.201	0.134
-426.588	-34.965	-0.118	-0.065
-425.573	-200.000	-0.041	0.244
-424.559	57.143	-0.332	0.328
-423.544	-38.988	-0.367	-0.196
-422.530	800.000	0.110	0.319
-421.515	413.098	-0.147	0.317
-420.500	-21.815	-0.200	-0.123
-419.486	-56.370	-0.272	0.122
-418.471	800.000	0.022	0.075
-417.457	800.000	-0.064	0.199
-416.442	-149.270	-0.144	-0.012
-415.428	-200.000	-0.003	0.024
-414.413	-200.000	0.025	0.156
-413.398	-200.000	-0.001	0.442
-412.384	-77.750	-0.150	0.053
-411.369	800.000	-0.053	-0.164
-410.355	-164.518	0.085	-0.004
-409.340	112.941	-0.204	-0.251
-408.325	-200.000	0.013	-0.312
-407.311	-33.079	-0.123	0.069
-406.296	-30.436	0.066	0.038
-405.282	76.595	-0.042	-0.046
-404.267	464.961	-0.064	0.145
-403.252	182.852	-0.202	0.302
-402.238	78.380	-0.050	0.054
-401.223	-95.915	0.149	0.040
-400.209	-200.000	-0.055	-0.252
-399.194	-51.291	0.121	0.057
-398.179	-120.551	-0.129	-0.022
-397.165	-179.300	0.176	0.004
-396.150	-120.840	-0.185	-0.032
-395.136	438.751	-0.170	0.375
-394.121	-10.848	-0.221	0.147
-393.106	-54.801	0.143	-0.065
-392.092	-200.000	-0.043	-0.246
-391.077	-160.972	-0.065	-0.003
-390.063	-171.349	0.072	0.002
-389.048	-91.937	0.346	0.099
-388.033	468.620	-0.052	0.118
-387.019	-24.137	-0.110	-0.067
-386.004	258.973	0.134	-0.234
-384.990	193.434	-0.006	-0.009
-383.975	-56.559	-0.055	-0.025
-382.960	-19.823	-0.149	0.093
-381.946	-92.056	0.515	0.147
-380.931	21.111	0.354	0.290
-379.917	-19.239	-0.063	0.039
-378.902	-53.005	0.421	-0.196
-377.888	164.924	0.067	0.096
-376.873	25.802	-0.348	-0.293
-375.858	-17.129	0.136	-0.087
-374.844	-200.000	0.015	-0.159
-373.829	800.000	-0.019	0.073
-372.815	648.359	0.077	-0.200
-371.800	0.846	-0.180	-0.130
-370.785	-31.874	0.331	0.188
-369.771	-39.526	0.393	0.208
-368.756	539.805	0.037	0.088
-367.742	-93.860	0.294	-0.082
-366.727	130.710	-0.144	-0.186
-365.712	-200.000	0.046	0.215
-364.698	800.000	-0.128	0.393
-363.683	-200.000	-0.001	0.024
-362.669	614.107	-0.065	0.164
-361.654	-200.000	-0.037	-0.240
-360.639	33.796	0.121	-0.106
-359.625	-74.369	-0.348	0.127
-358.610	-11.228	-0.066	0.044
-357.596	183.712	0.301	0.450
-356.581	418.263	0.121	0.261
-355.566	5.315	0.288	0.215
-354.552	-81.422	-0.061	0.020
-353.537	-64.852	0.152	-0.062
-352.523	86.910	-0.171	-0.191
-351.508	80.444	-0.235	-0.255
-350.493	55.128	-0.086	-0.084
-349.479	-200.000	0.018	0.318
-348.464	-200.000	-0.006	-0.087
-347.450	-94.415	0.073	-0.020
-346.435	-200.000	-0.009	-0.434
-345.420	103.018	0.126	-0.150
-344.406	-51.424	0.133	-0.063
-343.391	366.824	0.068	-0.139
-342.377	111.391	0.095	0.116
-341.362	752.100	0.025	0.067
-340.348	-200.000	-0.058	0.398
-339.333	516.639	0.042	-0.099
-338.318	-200.000	-0.038	0.177
-337.304	550.297	0.085	0.207
-336.289	800.000	0.088	0.252
-335.275	-160.976	0.345	-0.018
-334.260	-200.000	0.012	0.107
-333.245	-111.938	0.174	0.035
-332.231	158.119	0.184	-0.258
-331.216	6.893	0.217	0.163
-330.202	8.157	0.098	0.075
-329.187	98.149	0.290	0.337
-328.172	-129.000	-0.423	-0.060
-327.158	-5.050	0.373	0.259
-326.143	-54.009	0.486	-0.223
-325.129	43.142	-0.322	0.297
-324.114	141.295	0.219	0.293
-323.099	-54.211	-0.059	-0.027
-322.085	-176.319	0.251	-0.007
-321.070	107.853	0.272	-0.327
-320.056	208.841	0.232	-0.366
-319.041	-23.987	-0.253	0.153
-318.026	227.330	-0.050	-0.081
-317.012	740.672	0.034	0.092
-315.997	78.077	0.143	-0.154
-314.983	25.931	-0.024	0.020
-313.968	800.000	0.049	-0.207
-312.953	130.245	0.087	0.112
-311.939	800.000	-0.071	0.241
-310.924	-175.643	-0.079	0.002
-309.910	-75.116	-0.246	0.089
-308.895	566.781	0.119	0.290
-307.880	46.702	0.223	-0.208
-306.866	-190.874	0.579	-0.006
-305.851	-200.000	-0.052	-0.254
-304.837	267.191	0.138	-0.243
-303.822	-153.858	-0.154	-0.011
-302.807	101.870	-0.025	-0.029
-301.793	441.330	-0.040	0.088
-300.778	-3.132	0.190	-0.133
-299.764	-108.979	-0.081	-0.017
-298.749	-72.623	-0.193	-0.072
-297.735	443.450	-0.071	0.157
-296.720	25.745	0.207	0.174
-295.705	800.000	0.076	-0.297
-294.691	-94.530	0.136	0.037
-293.676	106.598	0.171	-0.205
-292.662	-36.278	0.172	-0.093
-291.647	24.083	-0.026	-0.021
-290.632	155.679	-0.155	-0.216
-289.618	749.608	-0.103	-0.281
-288.603	-65.371	-0.115	-0.047
-287.589	-38.121	-0.323	-0.172
-286.574	-15.056	-0.236	-0.152
-285.559	-200.000	0.033	-0.200
-284.545	-85.513	-0.149	-0.047
-283.530	78.600	-0.101	-0.108
-282.516	-55.124	0.074	-0.034
-281.501	-63.931	-0.128	0.053
-280.486	-131.801	-0.041	0.005
-279.472	800.000	0.042	-0.155
-278.457	157.706	-0.245	0.341
-277.443	568.783	0.138	-0.338
-276.428	-114.917	-0.510	-0.098
-275.413	162.787	-0.343	0.484
-274.399	-200.000	0.013	-0.099
-273.384	-70.342	-0.234	0.089
-272.370	189.055	0.197	-0.297
-271.355	-116.279	0.185	-0.034
-270.340	353.099	-0.182	-0.364
-269.326	-145.414	-0.182	0.017
-268.311	-96.748	-0.154	0.041
-267.297	-89.460	-0.390	-0.115
-266.282	800.000	-0.070	0.225
-265.267	354.827	0.128	-0.256
-264.253	-88.644	-0.115	0.034
-263.238	-126.556	0.117	-0.017
-262.224	99.531	0.181	-0.211
-261.209	555.266	-0.014	-0.034
-260.195	-149.473	-0.120	0.010
-259.180	-32.928	-0.122	0.068
-258.165	615.312	-0.034	-0.085
-257.151	-126.172	0.164	0.025
-256.136	292.503	-0.183	-0.336
-255.122	222.140	-0.053	0.087
-254.107	-74.007	-0.182	0.066
-253.092	643.165	-0.132	0.338
-252.078	-64.982	0.191	-0.077
-251.063	-118.540	0.266	-0.047
-250.049	-39.560	-0.197	-0.104
-249.034	-46.373	-0.058	-0.029
-248.019	-44.553	0.140	-0.070
-247.005	132.027	-0.053	0.069
-245.990	-200.000	0.014	-0.229
-244.976	153.053	0.134	0.185
-243.961	-117.564	0.402	-0.073
-242.946	270.738	-0.085	-0.151
-241.932	103.993	0.037	0.044
-240.917	127.945	0.127	0.162
-239.903	228.690	0.140	0.229
-238.888	124.033	-0.261	-0.330
-237.873	381.095	0.073	-0.150
-236.859	485.292	0.099	-0.226
-235.844	95.596	0.218	-0.250
-234.830	-2.863	0.185	-0.130
-233.815	-46.640	-0.169	0.083
-232.800	800.000	-0.022	0.078
-231.786	-200.000	0.021	0.228
-230.771	-84.329	0.090	0.029
-229.757	-42.288	0.203	-0.104
-228.742	32.282	0.249	0.216
-227.727	11.642	-0.126	-0.097
-226.713	59.547	0.255	-0.253
-225.698	13.578	-0.273	-0.213
-224.684	38.562	-0.133	0.119
-223.669	-200.000	-0.011	0.135
-222.655	-152.400	-0.202	-0.015
-221.640	-148.552	0.222	0.018
-220.625	627.381	-0.006	-0.016
-219.611	800.000	-0.099	0.335
-218.596	173.690	0.233	0.338
-217.582	800.000	-0.172	0.499
-216.567	67.807	-0.044	0.045
-215.552	-200.000	0.004	0.220
-214.538	119.389	-0.112	-0.139
-213.523	95.320	0.242	0.277
-212.509	-103.567	-0.303	0.071
-211.494	-125.071	-0.115	0.018
-210.479	-55.026	-0.161	-0.073
-209.465	261.684	0.124	-0.216
-208.450	-85.596	0.303	0.095
-207.436	-13.999	-0.102	0.066
-206.421	178.767	0.048	-0.071
-205.406	-196.018	-0.200	0.001
-204.392	-31.452	0.172	0.097
-203.377	-143.678	-0.096	0.009
-202.363	9.802	0.296	-0.225
-201.348	269.452	0.133	-0.234
-200.333	86.945	-0.136	-0.151
-199.319	-129.426	-0.470	-0.065
-198.304	800.000	-0.033	-0.144
-197.290	-200.000	-0.027	0.142
-196.275	222.194	-0.160	0.259
-195.260	13.569	0.328	0.256
-194.246	-200.000	-0.021	0.198
-193.231	1.107	-0.214	-0.154
-192.217	-112.265	-0.151	0.030
-191.202	240.882	-0.066	-0.110
-190.187	78.463	0.124	0.133
-189.173	15.914	-0.136	-0.107
-188.158	39.315	-0.085	-0.076
-187.144	-27.330	0.257	0.150
-186.129	770.290	0.121	-0.331
-185.114	-200.000	-0.047	-0.326
-184.100	800.000	-0.037	0.150
-183.085	-69.614	0.456	-0.175
-182.071	-54.699	0.045	-0.021
-181.056	336.078	0.143	0.279
-180.042	-102.381	-0.133	0.032
-179.027	-200.000	-0.070	-0.333
-178.012	-45.419	-0.201	0.100
-176.998	800.000	0.033	0.113
-175.983	799.203	0.127	-0.350
-174.969	65.180	-0.090	-0.091
-173.954	-83.428	0.233	0.075
-172.939	-75.309	-0.224	0.080
-171.925	-154.595	-0.203	0.014
-170.910	800.000	-0.078	0.282
-169.896	-128.299	0.354	0.051
-168.881	-73.097	0.146	-0.054
-167.866	-102.694	-0.107	-0.026
-166.852	-200.000	-0.023	0.227
-165.837	102.896	0.271	-0.318
-164.823	-115.406	-0.213	-0.040
-163.808	-200.000	0.007	-0.063
-162.793	-200.000	0.008	0.167
-161.779	800.000	0.088	0.278
-160.764	-137.541	-0.081	0.009
-159.750	-38.114	0.315	0.167
-158.735	124.676	-0.105	0.132
-157.720	82.365	0.236	0.257
-156.706	286.917	0.065	-0.118
-155.691	-26.320	0.093	0.055
-154.677	-200.000	0.046	0.305
-153.662	450.819	0.059	0.131
-152.647	5.890	0.164	-0.122
-151.633	-94.240	0.295	0.081
-150.618	-19.126	-0.221	-0.138
-149.604	135.919	0.094	-0.123
-148.589	309.869	0.166	0.311
-147.574	3.181	-0.140	-0.102
-146.560	87.793	-0.150	-0.167
-145.545	65.381	0.091	0.092
-144.531	-82.074	0.125	0.041
-143.516	-49.788	-0.394	0.188
-142.502	-200.000	0.003	0.062
-141.487	-109.776	0.168	0.035
-140.472	-35.702	-0.195	0.106
-139.458	-57.231	-0.129	0.057
-138.443	-200.000	-0.006	0.212
-137.429	-200.000	0.021	0.284
-136.414	800.000	0.106	0.442
-135.399	-20.717	0.096	0.059
-134.385	156.380	-0.086	0.118
-133.370	-200.000	0.012	0.058
-132.356	250.114	0.145	0.247
-131.341	79.798	0.107	0.115
-130.326	-36.899	-0.221	-0.118
-129.312	80.011	-0.246	0.264
-128.297	-200.000	-0.038	-0.284
-127.283	-200.000	0.007	0.045
-126.268	-36.734	-0.370	-0.199
-125.253	-33.941	-0.053	0.029
-124.239	-23.505	-0.176	-0.106
-123.224	24.376	0.064	0.053
-122.210	-200.000	0.011	0.172
-121.195	-15.727	-0.123	0.078
