DTS Sentinel unit serial number:	SN413079Multiplexer serial number:	ORYXHardware model number:	OX4-SRSoftware version number:	ORYX F/W v4.00 Oryx Data Collector v3.7.2.0data status	okinstallation	princeton_trtdifferential loss correction	single-endedforward channel	channel 2reverse channel	N/Adate	2019/09/17time	15:35:35forward acquisition time	60.00reverse acquisition time	0.00gamma	496.2192k internal	0.2303k external	0.2303temperature offset calibration	0.9984default loss term (dB/km)	0.3790temperature slope calibration	1.0000multiplexer offset coefficient	1.0000multiplexer slope coefficient	1.0000fibre end	0.00T internal ref (°C)	38.50T ext. ref 1 (°C)	0.38T ext. ref 2 (°C)	35.92length (m)	temperature (°C)	Stokes	anti-Stokes-747.200	-53.992	0.385	-0.179
-746.185	123.203	-0.104	0.133
-745.171	-57.162	0.074	0.033
-744.156	-91.298	-0.042	0.012
-743.142	-157.843	-0.399	0.024
-742.127	-147.536	-0.374	-0.032
-741.112	800.000	0.063	0.218
-740.098	-116.583	-0.011	-0.002
-739.083	498.874	0.075	0.177
-738.069	48.329	-0.199	-0.189
-737.054	-200.000	-0.005	-0.034
-736.039	-96.216	-0.274	0.074
-735.025	-200.000	0.048	0.357
-734.010	296.641	0.081	0.152
-732.996	-169.249	0.193	-0.007
-731.981	-12.322	-0.157	0.104
-730.966	148.318	-0.087	0.119
-729.952	-2.991	0.030	-0.021
-728.937	3.967	-0.312	-0.233
-727.923	-141.469	-0.151	0.016
-726.908	174.185	0.126	-0.185
-725.894	-1.183	-0.113	0.082
-724.879	-75.768	-0.189	0.068
-723.864	-32.827	-0.200	-0.113
-722.850	-59.892	0.312	-0.136
-721.835	447.340	0.127	0.284
-720.821	-200.000	-0.397	-0.001
-719.806	-125.909	-0.305	-0.047
-718.791	-200.000	-0.002	-0.258
-717.777	776.203	0.057	-0.159
-716.762	47.611	0.269	0.256
-715.748	30.652	0.063	-0.055
-714.733	-81.897	-0.240	-0.080
-713.718	70.486	0.193	0.203
-712.704	209.804	-0.142	-0.227
-711.689	-200.000	-0.004	0.223
-710.675	800.000	-0.095	0.309
-709.660	-36.494	-0.156	-0.085
-708.645	20.750	-0.292	0.241
-707.631	-200.000	0.043	0.445
-706.616	526.763	0.048	0.116
-705.602	-42.623	-0.170	-0.088
-704.587	155.417	0.100	-0.140
-703.572	43.222	0.064	-0.060
-702.558	401.964	0.079	-0.168
-701.543	-4.160	0.439	0.310
-700.529	-200.000	0.009	-0.243
-699.514	-200.000	-0.029	0.327
-698.499	124.376	-0.113	-0.145
-697.485	52.493	0.086	-0.083
-696.470	132.053	-0.172	0.226
-695.456	46.669	0.176	0.167
-694.441	-92.494	-0.162	-0.046
-693.426	800.000	-0.058	0.168
-692.412	800.000	-0.058	-0.216
-691.397	800.000	-0.083	0.330
-690.383	91.747	0.072	-0.082
-689.368	-200.000	-0.032	-0.296
-688.354	-67.304	0.148	-0.059
-687.339	-151.594	0.094	0.007
-686.324	-25.380	-0.021	0.013
-685.310	800.000	0.017	0.064
-684.295	-114.665	0.183	-0.035
-683.281	32.595	-0.204	-0.179
-682.266	-200.000	-0.040	0.246
-681.251	-51.734	-0.180	0.085
-680.237	238.052	-0.180	0.304
-679.222	19.132	-0.146	-0.119
-678.208	800.000	-0.087	-0.348
-677.193	144.021	-0.135	0.183
-676.178	-58.041	0.187	-0.083
-675.164	118.557	-0.205	-0.257
-674.149	494.260	-0.183	-0.426
-673.135	-178.886	0.231	0.005
-672.120	-84.939	0.146	0.046
-671.105	42.627	-0.181	0.168
-670.091	800.000	0.059	0.212
-669.076	800.000	-0.073	-0.320
-668.062	-100.213	-0.239	-0.060
-667.047	194.139	0.082	0.127
-666.032	-131.543	-0.208	-0.028
-665.018	-64.973	-0.112	-0.046
-664.003	800.000	0.039	-0.148
-662.989	229.972	-0.203	-0.337
-661.974	-15.767	-0.101	0.065
-660.959	58.351	-0.142	0.141
-659.945	-200.000	-0.008	0.190
-658.930	-200.000	0.021	-0.166
-657.916	220.241	-0.107	-0.174
-656.901	353.670	-0.200	-0.403
-655.886	-200.000	0.029	0.178
-654.872	-132.414	0.059	0.008
-653.857	-200.000	0.040	-0.276
-652.843	70.547	0.233	-0.245
-651.828	-200.000	-0.018	0.266
-650.814	-200.000	0.080	0.380
-649.799	108.689	0.210	0.254
-648.784	-200.000	-0.005	0.422
-647.770	-176.493	0.118	-0.003
-646.755	-149.252	-0.479	-0.039
-645.741	-200.000	0.056	-0.341
-644.726	-200.000	-0.019	-0.387
-643.711	501.424	0.176	-0.413
-642.697	331.627	-0.063	-0.124
-641.682	-101.822	0.139	-0.034
-640.668	800.000	0.074	-0.302
-639.653	-123.281	-0.183	-0.030
-638.638	-200.000	0.033	0.183
-637.624	172.186	0.159	0.232
-636.609	36.885	0.345	0.309
-635.595	-9.258	-0.120	0.081
-634.580	85.564	-0.131	0.146
-633.565	-9.215	0.129	0.088
-632.551	82.528	0.132	0.145
-631.536	-59.941	-0.100	-0.044
-630.522	-39.760	0.218	0.116
-629.507	108.402	-0.068	-0.082
-628.492	-21.347	0.117	-0.073
-627.478	231.172	-0.057	-0.094
-626.463	70.712	0.279	0.292
-625.449	-200.000	0.036	-0.184
-624.434	-55.628	-0.131	0.059
-623.419	280.194	-0.172	0.312
-622.405	80.031	-0.222	-0.242
-621.390	-91.472	0.138	-0.040
-620.376	132.386	0.187	-0.244
-619.361	-14.565	-0.100	0.065
-618.346	56.826	-0.378	-0.373
-617.332	110.287	-0.114	0.139
-616.317	-0.684	-0.237	-0.171
-615.303	141.919	0.083	0.111
-614.288	-147.998	0.140	-0.012
-613.273	449.340	0.044	0.098
-612.259	-30.866	-0.297	-0.170
-611.244	28.891	-0.482	-0.414
-610.230	65.871	-0.119	0.123
-609.215	-200.000	0.024	0.222
-608.201	182.588	0.145	-0.217
-607.186	-102.999	-0.353	-0.085
-606.171	-56.815	-0.293	0.131
-605.157	-96.039	0.073	0.020
-604.142	-200.000	-0.005	0.221
-603.128	652.342	0.127	0.329
-602.113	-167.468	0.255	0.010
-601.098	67.989	-0.161	-0.166
-600.084	561.604	-0.114	0.278
-599.069	127.462	0.235	-0.302
-598.055	-1.364	0.217	0.155
-597.040	-127.284	0.229	0.034
-596.025	-121.690	-0.360	0.060
-595.011	800.000	-0.035	-0.151
-593.996	91.540	0.117	0.133
-592.982	2.239	-0.038	-0.028
-591.967	-200.000	0.012	0.139
-590.952	102.414	0.141	-0.167
-589.938	56.242	0.125	-0.123
-588.923	-36.698	-0.113	-0.062
-587.909	-154.661	0.195	-0.013
-586.894	-32.458	-0.126	0.071
-585.879	-200.000	0.013	0.161
-584.865	800.000	0.027	0.105
-583.850	189.871	-0.088	-0.133
-582.836	-13.318	-0.091	0.060
-581.821	-42.123	-0.158	0.082
-580.806	-200.000	0.015	0.297
-579.792	-61.016	0.093	-0.040
-578.777	-26.511	0.024	-0.014
-577.763	-148.241	-0.052	-0.004
-576.748	193.603	0.056	-0.086
-575.733	484.321	-0.050	0.114
-574.719	-94.687	-0.374	0.103
-573.704	62.712	-0.301	0.305
-572.690	518.617	0.096	0.228
-571.675	-200.000	0.067	-0.302
-570.661	15.758	-0.189	-0.150
-569.646	-118.964	-0.306	0.054
-568.631	-200.000	-0.007	0.117
-567.617	417.502	-0.081	0.174
-566.602	-42.420	0.202	-0.104
-565.588	67.143	-0.277	0.285
-564.573	-100.260	-0.115	0.029
-563.558	-200.000	0.038	-0.272
-562.544	-200.000	0.008	-0.256
-561.529	229.765	-0.061	0.100
-560.515	-143.247	-0.049	0.005
-559.500	-93.915	0.120	-0.033
-558.485	-101.180	0.138	0.034
-557.471	-200.000	-0.023	0.109
-556.456	244.242	0.034	0.058
-555.442	-200.000	0.007	-0.381
-554.427	-200.000	-0.005	-0.087
-553.412	-200.000	0.004	-0.121
-552.398	-109.589	-0.184	-0.039
-551.383	-57.161	-0.314	-0.140
-550.369	-13.747	-0.225	-0.147
-549.354	145.392	0.070	0.095
-548.339	55.653	0.240	-0.235
-547.325	-33.720	0.074	-0.041
-546.310	53.470	0.050	0.048
-545.296	-80.948	-0.122	-0.041
-544.281	23.315	-0.142	0.118
-543.266	-35.419	-0.385	0.211
-542.252	-86.160	-0.138	0.043
-541.237	-148.213	0.309	-0.026
-540.223	-5.323	0.195	0.135
-539.208	-35.832	-0.271	0.148
-538.193	-28.146	-0.252	0.147
-537.179	-167.612	-0.160	-0.006
-536.164	-7.683	-0.236	0.161
-535.150	255.345	-0.119	0.207
-534.135	-200.000	0.001	-0.007
-533.121	-119.883	-0.392	0.068
-532.106	41.498	0.153	0.140
-531.091	800.000	0.080	-0.234
-530.077	800.000	-0.041	-0.140
-529.062	-128.937	-0.354	-0.050
-528.048	180.216	-0.050	0.074
-527.033	735.724	0.115	0.312
-526.018	-126.163	0.445	0.067
-525.004	80.946	-0.041	-0.044
-523.989	800.000	-0.089	-0.256
-522.975	40.235	0.193	-0.175
-521.960	-200.000	0.003	0.266
-520.945	-78.224	0.097	-0.034
-519.931	-14.835	-0.132	-0.085
-518.916	65.696	-0.142	0.146
-517.902	800.000	0.016	0.057
-516.887	-155.597	0.229	-0.015
-515.872	341.505	-0.273	-0.539
-514.858	-74.571	-0.113	-0.041
-513.843	121.787	0.048	-0.060
-512.829	-120.437	-0.145	-0.025
-511.814	326.486	-0.143	-0.277
-510.799	362.391	0.115	-0.233
-509.785	76.995	-0.168	-0.180
-508.770	-200.000	-0.039	0.531
-507.756	67.133	-0.127	0.130
-506.741	-200.000	-0.002	0.059
-505.726	-98.021	-0.092	-0.024
-504.712	-117.575	0.259	-0.047
-503.697	567.777	0.173	-0.424
-502.683	153.557	0.210	0.291
-501.668	800.000	0.062	0.270
-500.653	800.000	0.060	0.229
-499.639	-66.846	0.166	0.066
-498.624	5.880	-0.349	-0.261
-497.610	674.806	0.080	-0.210
-496.595	183.396	-0.184	0.274
-495.581	-122.844	-0.057	0.009
-494.566	-200.000	-0.019	0.121
-493.551	-75.216	0.307	0.111
-492.537	-200.000	-0.002	-0.238
-491.522	606.665	0.089	-0.223
-490.508	800.000	-0.081	0.284
-489.493	491.961	0.088	0.203
-488.478	19.105	-0.081	-0.065
-487.464	-112.304	-0.349	0.070
-486.449	63.597	0.074	-0.075
-485.435	-178.165	-0.205	-0.005
-484.420	51.519	0.074	-0.071
-483.405	800.000	0.077	-0.216
-482.391	11.189	0.103	0.079
-481.376	-92.318	0.435	-0.124
-480.362	100.952	0.180	0.211
-479.347	26.557	0.156	0.132
-478.332	159.457	-0.151	-0.212
-477.318	-149.293	-0.218	0.018
-476.303	-77.807	-0.207	0.072
-475.289	-138.718	0.158	0.017
-474.274	137.738	-0.145	0.191
-473.259	-71.372	-0.167	0.063
-472.245	40.149	-0.188	-0.170
-471.230	346.712	0.034	-0.067
-470.216	264.013	0.141	0.248
-469.201	-20.468	-0.165	0.102
-468.186	68.193	0.211	-0.217
-467.172	-168.978	0.315	-0.012
-466.157	133.870	0.035	0.046
-465.143	800.000	0.012	0.046
-464.128	-190.206	0.250	0.003
-463.113	116.210	0.087	0.108
-462.099	-200.000	-0.023	0.159
-461.084	124.113	0.195	0.247
-460.070	-200.000	-0.004	-0.239
-459.055	-149.003	-0.154	0.013
-458.040	-8.806	0.191	-0.129
-457.026	-200.000	-0.038	-0.301
-456.011	-34.837	0.232	0.127
-454.997	107.460	0.109	-0.131
-453.982	305.191	-0.065	-0.121
-452.968	-200.000	0.005	0.064
-451.953	672.679	-0.067	0.175
-450.938	36.985	-0.309	-0.275
-449.924	373.516	0.044	0.090
-448.909	296.372	-0.170	0.314
-447.895	471.426	-0.081	-0.183
-446.880	800.000	-0.055	-0.154
-445.865	-47.608	-0.339	0.166
-444.851	800.000	0.051	-0.147
-443.836	-116.690	-0.074	0.014
-442.822	-154.349	0.365	0.025
-441.807	781.749	-0.087	0.239
-440.792	-119.867	-0.214	-0.037
-439.778	-126.544	-0.204	0.030
-438.763	549.679	-0.064	-0.153
-437.749	-127.098	-0.160	0.024
-436.734	34.205	-0.159	-0.139
-435.719	-80.548	-0.306	0.102
-434.705	-200.000	-0.005	0.082
-433.690	-99.155	0.185	0.047
-432.676	63.713	0.105	-0.106
-431.661	198.225	-0.142	-0.219
-430.646	21.654	-0.138	0.113
-429.632	188.434	-0.116	-0.175
-428.617	122.938	0.062	0.078
-427.603	-75.479	0.174	0.062
-426.588	-35.634	-0.189	-0.103
-425.573	-200.000	-0.016	0.239
-424.559	186.614	-0.112	-0.168
-423.544	578.938	0.075	-0.184
-422.530	68.114	-0.178	0.183
-421.515	800.000	0.071	0.253
-420.500	-200.000	0.020	0.321
-419.486	-149.571	0.324	-0.026
-418.471	-71.146	0.152	-0.057
-417.457	-113.535	0.115	0.023
-416.442	-85.656	-0.165	-0.052
-415.428	-166.530	0.160	-0.007
-414.413	-200.000	0.033	-0.231
-413.398	287.113	0.188	-0.341
-412.384	-200.000	0.004	0.421
-411.369	-136.421	-0.264	0.031
-410.355	-159.744	-0.322	0.018
-409.340	73.353	-0.093	-0.098
-408.325	-6.432	0.026	0.018
-407.311	474.189	0.015	0.034
-406.296	-128.707	0.440	-0.062
-405.282	-200.000	-0.031	-0.195
-404.267	-151.568	0.092	0.007
-403.252	473.483	-0.039	0.089
-402.238	-104.458	-0.125	-0.029
-401.223	-200.000	-0.050	-0.348
-400.209	-2.731	0.156	0.109
-399.194	-152.304	0.240	-0.017
-398.179	44.708	0.164	-0.151
-397.165	5.482	0.217	0.161
-396.150	-7.052	-0.174	-0.119
-395.136	-200.000	-0.013	-0.128
-394.121	43.579	-0.177	-0.163
-393.106	-174.300	0.165	-0.005
-392.092	41.333	-0.172	-0.156
-391.077	-200.000	-0.072	-0.355
-390.063	-124.979	-0.200	-0.031
-389.048	-200.000	0.002	0.417
-388.033	-97.557	0.242	0.063
-387.019	-38.843	-0.209	-0.111
-386.004	-134.835	0.111	-0.014
-384.990	-200.000	-0.004	-0.293
-383.975	683.415	-0.060	0.156
-382.960	756.267	0.098	-0.266
-381.946	-200.000	0.014	0.122
-380.931	-9.884	-0.140	-0.094
-379.917	-24.136	0.112	-0.067
-378.902	-20.256	0.336	0.208
-377.888	-200.000	-0.017	0.230
-376.873	-200.000	0.053	-0.370
-375.858	186.830	0.120	0.179
-374.844	-200.000	-0.008	-0.111
-373.829	306.927	-0.183	-0.343
-372.815	116.012	-0.089	0.109
-371.800	-93.850	-0.233	-0.064
-370.785	74.920	-0.217	-0.229
-369.771	-88.107	-0.314	0.094
-368.756	112.394	0.183	-0.222
-367.742	128.862	-0.108	-0.139
-366.727	414.900	-0.115	-0.246
-365.712	800.000	-0.042	-0.127
-364.698	-22.464	0.218	-0.132
-363.683	278.523	-0.142	0.254
-362.669	800.000	-0.132	0.423
-361.654	-61.496	0.196	-0.083
-360.639	392.699	0.075	-0.157
-359.625	-70.225	-0.139	-0.053
-358.610	-200.000	0.028	0.139
-357.596	-72.866	0.153	0.056
-356.581	201.191	-0.124	0.192
-355.566	800.000	0.025	0.092
-354.552	-200.000	-0.046	-0.269
-353.537	-105.519	0.046	0.011
-352.523	-148.417	-0.422	0.035
-351.508	119.265	0.039	-0.048
-350.493	463.808	-0.196	0.440
-349.479	398.793	-0.095	0.199
-348.464	69.107	-0.084	-0.086
-347.450	41.990	0.085	0.077
-346.435	-139.175	-0.254	0.027
-345.420	663.729	-0.093	-0.241
-344.406	-96.692	-0.070	-0.018
-343.391	146.353	-0.112	-0.150
-342.377	-107.068	-0.148	0.033
-341.362	82.808	-0.118	-0.128
-340.348	800.000	-0.084	-0.311
-339.333	-200.000	-0.015	0.213
-338.318	-68.307	0.147	-0.057
-337.304	-200.000	-0.014	0.206
-336.289	69.154	0.070	0.072
-335.275	-48.138	-0.336	-0.163
-334.260	800.000	-0.087	-0.352
-333.245	800.000	-0.082	-0.226
-332.231	800.000	0.113	-0.349
-331.216	-58.914	-0.059	0.026
-330.202	56.275	-0.240	-0.234
-329.187	-162.977	0.263	-0.013
-328.172	-141.226	0.210	-0.021
-327.158	-200.000	0.007	0.147
-326.143	-75.683	0.196	-0.070
-325.129	-200.000	0.015	0.071
-324.114	-143.381	0.241	-0.023
-323.099	-200.000	-0.012	0.082
-322.085	-28.548	-0.136	0.079
-321.070	-200.000	0.036	0.267
-320.056	800.000	-0.067	-0.252
-319.041	-48.065	0.225	0.109
-318.026	-200.000	-0.065	0.332
-317.012	-174.437	0.140	0.004
-315.997	116.874	0.218	-0.268
-314.983	-195.086	-0.173	-0.001
-313.968	117.016	0.162	0.199
-312.953	83.348	-0.262	0.286
-311.939	-10.192	0.146	0.097
-310.924	-200.000	0.071	0.330
-309.910	62.840	-0.036	-0.036
-308.895	-109.401	-0.027	0.006
-307.880	169.112	0.020	0.028
-306.866	94.342	-0.162	0.184
-305.851	800.000	-0.022	0.084
-304.837	-92.323	-0.342	0.097
-303.822	-55.896	0.228	-0.102
-302.807	66.543	0.155	0.158
-301.793	-135.575	0.255	-0.030
-300.778	-153.063	-0.240	-0.017
-299.764	5.571	0.427	-0.315
-298.749	-34.695	0.328	-0.180
-297.735	20.032	0.130	-0.105
-296.720	3.061	-0.225	0.164
-295.705	-1.054	0.204	0.144
-294.691	-89.763	0.176	0.051
-293.676	-8.506	-0.013	0.009
-292.662	51.071	-0.235	-0.223
-291.647	-99.654	0.204	-0.051
-290.632	-101.407	-0.200	0.049
-289.618	64.318	0.068	0.069
-288.603	-63.815	0.119	-0.049
-287.589	-20.429	-0.114	0.070
-286.574	-200.000	-0.021	-0.205
-285.559	-134.945	0.143	0.017
-284.545	241.860	-0.136	0.228
-283.530	390.193	0.072	0.150
-282.516	241.432	0.097	0.162
-281.501	80.373	0.029	-0.031
-280.486	14.655	0.164	0.128
-279.472	-200.000	-0.009	0.250
-278.457	-102.137	0.385	0.093
-277.443	-200.000	-0.105	0.467
-276.428	800.000	0.036	0.107
-275.413	-43.624	0.244	-0.123
-274.399	-200.000	0.010	-0.192
-273.384	59.010	-0.186	-0.183
-272.370	-150.913	0.285	0.022
-271.355	435.733	-0.223	-0.485
-270.340	33.607	0.277	0.241
-269.326	-200.000	0.002	0.235
-268.311	-104.197	0.251	-0.058
-267.297	-53.813	0.334	0.152
-266.282	115.591	0.204	-0.249
-265.267	418.919	0.140	0.299
-264.253	-77.317	0.335	-0.116
-263.238	-200.000	0.010	0.342
-262.224	97.109	-0.108	-0.123
-261.209	-200.000	0.091	-0.412
-260.195	-200.000	0.032	-0.284
-259.180	486.474	-0.076	-0.173
-258.165	-124.925	-0.085	-0.013
-257.151	-151.430	0.055	0.004
-256.136	-118.799	0.172	-0.030
-255.122	16.261	0.168	0.133
-254.107	104.415	-0.047	0.055
-253.092	-200.000	-0.005	-0.025
-252.078	120.350	-0.074	-0.091
-251.063	-89.033	0.230	0.068
-250.049	5.963	-0.203	-0.150
-249.034	121.433	-0.083	-0.104
-248.019	-120.696	-0.212	0.036
-247.005	-163.500	0.302	-0.014
-245.990	6.021	-0.076	-0.056
-244.976	-91.542	-0.286	-0.081
-243.961	-87.943	-0.270	0.081
-242.946	800.000	0.050	0.201
-241.932	370.533	-0.113	-0.229
-240.917	-37.134	-0.193	-0.103
-239.903	-51.746	-0.253	0.118
-238.888	188.620	0.112	-0.167
-237.873	18.213	0.229	-0.182
-236.859	-92.960	0.205	-0.057
-235.844	-125.068	0.078	-0.012
-234.830	251.903	0.067	-0.115
-233.815	-108.777	0.037	-0.008
-232.800	-66.589	-0.235	0.093
-231.786	523.913	-0.074	0.175
-230.771	800.000	-0.046	-0.141
-229.757	800.000	0.059	-0.245
-228.742	-45.415	0.144	0.071
-227.727	-200.000	-0.002	-0.089
-226.713	79.475	-0.165	-0.176
-225.698	5.484	-0.131	-0.097
-224.684	121.838	-0.168	0.210
-223.669	-32.009	0.382	0.213
-222.655	-200.000	-0.018	0.287
-221.640	-200.000	-0.056	-0.268
-220.625	48.280	-0.065	0.061
-219.611	-200.000	-0.071	-0.315
-218.596	-9.163	-0.160	-0.107
-217.582	-200.000	0.006	0.120
-216.567	-200.000	0.010	0.116
-215.552	-9.684	-0.183	0.122
-214.538	-200.000	-0.001	-0.020
-213.523	258.492	0.059	-0.101
-212.509	66.452	0.225	-0.228
-211.494	800.000	0.085	-0.251
-210.479	237.090	-0.032	0.052
-209.465	4.201	0.183	-0.133
-208.450	800.000	0.021	0.092
-207.436	-106.540	0.270	-0.060
-206.421	800.000	-0.139	0.393
-205.406	-73.687	0.049	-0.018
-204.392	388.708	-0.092	0.190
-203.377	63.055	0.263	0.262
-202.363	59.717	-0.019	0.019
-201.348	-200.000	0.053	0.415
-200.333	53.842	-0.212	0.203
-199.319	-88.007	-0.164	0.049
-198.304	-108.766	-0.153	-0.033
-197.290	-137.880	0.201	-0.022
-196.275	-158.104	0.118	-0.007
-195.260	98.100	0.053	0.061
-194.246	100.404	0.047	0.054
-193.231	87.872	-0.176	-0.194
-192.217	-200.000	-0.015	0.130
-191.202	-160.992	0.232	-0.012
-190.187	303.857	0.121	-0.224
-189.173	-84.704	0.111	-0.035
-188.158	407.683	0.032	0.068
-187.144	-200.000	0.020	0.103
-186.129	245.837	-0.089	0.149
-185.114	-149.970	0.239	-0.019
-184.100	-19.458	0.141	-0.087
-183.085	132.453	-0.156	0.200
-182.071	-71.143	-0.103	0.039
-181.056	71.584	0.317	-0.328
-180.042	-50.409	0.213	-0.100
-179.027	-136.614	0.193	-0.022
-178.012	160.892	-0.251	-0.350
-176.998	800.000	0.027	0.088
-175.983	-43.008	0.198	0.100
-174.969	-82.357	0.295	0.095
-173.954	17.873	0.254	-0.202
-172.939	-76.683	-0.203	0.071
-171.925	221.887	0.156	-0.249
-170.910	120.928	-0.026	0.032
-169.896	-178.957	-0.134	-0.003
-168.881	-200.000	-0.032	0.186
-167.866	3.886	0.116	-0.084
-166.852	-31.270	0.063	0.036
-165.837	-16.930	0.049	0.031
-164.823	-63.363	0.221	-0.091
-163.808	127.461	0.120	-0.152
-162.793	-9.570	-0.127	0.084
-161.779	800.000	0.036	-0.117
-160.764	-200.000	-0.002	0.195
-159.750	800.000	0.049	-0.170
-158.735	467.308	0.099	0.221
-157.720	-56.381	0.260	0.115
-156.706	-33.294	-0.263	0.145
-155.691	140.647	-0.144	0.189
-154.677	-151.796	0.398	-0.029
-153.662	800.000	0.112	0.334
-152.647	-12.684	-0.299	0.194
-151.633	-167.884	0.115	-0.004
-150.618	-200.000	0.045	0.247
-149.604	-200.000	-0.079	-0.404
-148.589	800.000	-0.005	-0.017
-147.574	290.423	-0.055	-0.100
-146.560	800.000	0.101	0.300
-145.545	145.604	0.236	0.315
-144.531	-200.000	0.004	-0.334
-143.516	-116.772	-0.218	-0.040
-142.502	107.115	-0.074	0.087
-141.487	-151.039	0.145	-0.011
-140.472	131.839	0.145	0.186
-139.458	181.153	-0.055	0.080
-138.443	-200.000	-0.033	-0.246
-137.429	-200.000	0.055	0.372
-136.414	-200.000	0.033	-0.286
-135.399	41.936	-0.177	0.159
-134.385	473.415	0.081	0.181
-133.370	-72.531	0.250	-0.092
-132.356	-53.790	0.360	0.163
-131.341	57.888	0.380	0.370
-130.326	-70.588	0.471	-0.177
-129.312	-72.566	0.183	0.067
-128.297	-44.937	-0.156	-0.077
-127.283	22.139	-0.134	0.109
-126.268	-106.143	0.084	-0.019
-125.253	104.387	-0.045	0.053
-124.239	131.462	-0.175	0.224
-123.224	-64.360	-0.350	0.141
-122.210	396.079	0.040	-0.083
-121.195	9.558	0.130	0.098
