DTS Sentinel unit serial number:	SN413079Multiplexer serial number:	ORYXHardware model number:	OX4-SRSoftware version number:	ORYX F/W v4.00 Oryx Data Collector v3.7.2.0data status	okinstallation	princeton_trtdifferential loss correction	single-endedforward channel	channel 2reverse channel	N/Adate	2019/09/15time	21:27:35forward acquisition time	60.00reverse acquisition time	0.00gamma	496.2192k internal	0.2333k external	0.2333temperature offset calibration	0.9942default loss term (dB/km)	0.3790temperature slope calibration	1.0000multiplexer offset coefficient	1.0000multiplexer slope coefficient	1.0000fibre end	0.00T internal ref (°C)	30.81T ext. ref 1 (°C)	8.28T ext. ref 2 (°C)	23.83length (m)	temperature (°C)	Stokes	anti-Stokes-747.200	-98.527	0.126	-0.032
-746.185	800.000	0.063	0.223
-745.171	-76.637	0.176	-0.062
-744.156	-200.000	0.033	0.293
-743.142	492.263	-0.114	-0.263
-742.127	-200.000	-0.043	0.366
-741.112	157.221	-0.308	-0.429
-740.098	-30.034	-0.033	-0.019
-739.083	-112.629	0.267	-0.054
-738.069	223.783	-0.069	0.112
-737.054	107.209	-0.150	0.179
-736.039	-29.132	-0.390	-0.225
-735.025	-184.396	0.332	-0.005
-734.010	143.881	-0.052	-0.070
-732.996	98.083	-0.088	-0.102
-731.981	-200.000	-0.005	0.278
-730.966	-200.000	0.085	-0.378
-729.952	-117.781	0.186	0.034
-728.937	603.730	0.060	0.151
-727.923	-24.720	-0.141	0.084
-726.908	-72.014	-0.053	0.020
-725.894	434.548	-0.084	-0.184
-724.879	-200.000	0.051	-0.268
-723.864	196.915	-0.157	-0.241
-722.850	80.743	0.076	-0.082
-721.835	-73.712	-0.188	0.069
-720.821	223.426	-0.143	-0.232
-719.806	-57.558	0.101	-0.044
-718.791	16.079	-0.069	0.054
-717.777	18.506	0.304	-0.244
-716.762	-143.941	-0.315	-0.030
-715.748	739.832	-0.024	-0.064
-714.733	-5.547	-0.100	-0.069
-713.718	-200.000	-0.082	-0.419
-712.704	737.980	-0.092	-0.248
-711.689	182.513	0.165	-0.245
-710.675	385.078	-0.180	-0.373
-709.660	726.890	0.116	-0.311
-708.645	-160.433	-0.085	-0.005
-707.631	266.767	0.164	-0.288
-706.616	32.266	0.437	0.379
-705.602	43.883	0.182	0.167
-704.587	424.307	-0.070	-0.152
-703.572	8.084	-0.264	-0.199
-702.558	800.000	-0.044	-0.173
-701.543	-29.761	-0.448	0.256
-700.529	-115.736	-0.073	0.014
-699.514	-200.000	0.008	0.104
-698.499	320.702	0.187	-0.356
-697.485	-68.683	0.072	-0.028
-696.470	604.054	0.115	-0.288
-695.456	-44.989	-0.274	0.137
-694.441	-2.515	0.194	-0.137
-693.426	20.621	-0.098	0.079
-692.412	-73.081	-0.095	0.035
-691.397	800.000	0.076	-0.232
-690.383	800.000	0.071	-0.204
-689.368	-200.000	-0.049	-0.320
-688.354	3.599	-0.319	-0.233
-687.339	91.341	-0.053	-0.060
-686.324	-2.727	0.302	-0.212
-685.310	-131.901	-0.168	0.022
-684.295	27.211	0.230	-0.194
-683.281	-200.000	-0.010	-0.086
-682.266	-200.000	-0.021	-0.102
-681.251	344.339	0.097	-0.192
-680.237	133.829	0.070	-0.091
-679.222	-77.102	-0.104	-0.036
-678.208	-187.631	-0.226	0.003
-677.193	-98.503	-0.200	0.051
-676.178	-194.295	-0.307	-0.002
-675.164	-21.331	-0.043	-0.027
-674.149	-200.000	-0.013	-0.277
-673.135	238.577	-0.117	0.194
-672.120	800.000	-0.062	0.270
-671.105	-167.144	0.424	0.017
-670.091	-14.493	-0.348	-0.224
-669.076	800.000	-0.118	-0.336
-668.062	-200.000	0.035	-0.331
-667.047	-66.060	-0.341	-0.136
-666.032	241.211	0.147	0.246
-665.018	111.192	-0.213	-0.257
-664.003	-200.000	-0.018	0.174
-662.989	-200.000	0.007	-0.123
-661.974	800.000	-0.126	-0.354
-660.959	0.699	0.128	0.092
-659.945	-136.407	-0.692	-0.081
-658.930	-200.000	-0.003	-0.143
-657.916	-120.908	0.096	0.016
-656.901	-22.493	0.166	-0.101
-655.886	-131.087	-0.037	0.005
-654.872	596.092	-0.142	-0.352
-653.857	310.544	0.064	-0.119
-652.843	-200.000	0.074	-0.332
-651.828	-71.701	-0.423	0.158
-650.814	-35.170	0.153	0.083
-649.799	800.000	0.058	-0.240
-648.784	-147.855	-0.295	0.025
-647.770	-146.804	0.242	0.021
-646.755	-19.694	-0.105	-0.065
-645.741	-9.121	-0.361	-0.242
-644.726	-27.449	-0.022	-0.013
-643.711	-112.630	-0.134	-0.027
-642.697	21.674	0.310	0.253
-641.682	92.599	0.184	-0.208
-640.668	266.192	0.033	0.057
-639.653	72.085	-0.144	-0.150
-638.638	800.000	-0.089	0.330
-637.624	-200.000	-0.070	0.310
-636.609	135.327	-0.025	-0.033
-635.595	-171.345	0.116	0.004
-634.580	-34.946	0.195	0.107
-633.565	52.541	-0.143	0.137
-632.551	100.997	0.067	-0.078
-631.536	426.588	-0.130	-0.280
-630.522	174.517	-0.151	-0.219
-629.507	96.055	-0.232	0.266
-628.492	150.329	0.062	0.084
-627.478	-200.000	-0.016	-0.131
-626.463	48.731	0.105	0.099
-625.449	-52.707	0.250	-0.115
-624.434	-99.615	0.174	0.044
-623.419	-200.000	0.014	-0.171
-622.405	117.433	0.115	-0.141
-621.390	31.049	-0.208	-0.178
-620.376	-200.000	-0.004	-0.024
-619.361	738.913	0.129	0.345
-618.346	-61.914	0.176	-0.074
-617.332	77.705	0.234	0.249
-616.317	410.129	0.223	-0.474
-615.303	134.969	0.047	0.061
-614.288	-73.220	-0.473	-0.173
-613.273	800.000	-0.086	-0.309
-612.259	-48.501	-0.279	-0.134
-611.244	-44.993	-0.119	0.059
-610.230	55.787	-0.096	0.093
-609.215	800.000	-0.130	-0.447
-608.201	-200.000	0.210	-0.001
-607.186	-200.000	0.004	-0.175
-606.171	182.172	-0.175	-0.259
-605.157	25.809	0.245	0.204
-604.142	-122.787	-0.167	0.027
-603.128	-55.913	0.211	-0.094
-602.113	73.221	0.099	-0.104
-601.098	23.722	-0.117	-0.096
-600.084	63.876	-0.101	-0.101
-599.069	84.826	0.130	-0.142
-598.055	-4.197	-0.122	0.084
-597.040	82.017	0.065	0.071
-596.025	800.000	0.143	0.407
-595.011	538.987	-0.099	0.234
-593.996	-141.384	-0.134	0.014
-592.982	-129.313	0.094	-0.013
-591.967	-59.081	-0.160	-0.069
-590.952	-133.545	0.304	-0.038
-589.938	-27.405	0.355	-0.207
-588.923	-200.000	0.061	0.423
-587.909	-115.364	0.415	-0.078
-586.894	-123.264	0.074	-0.012
-585.879	800.000	-0.069	0.278
-584.865	-200.000	-0.011	-0.063
-583.850	800.000	0.065	-0.194
-582.836	-1.328	-0.018	0.013
-581.821	-55.941	-0.179	0.080
-580.806	-200.000	-0.001	0.091
-579.792	192.551	0.094	-0.141
-578.777	11.642	0.036	-0.028
-577.763	146.531	-0.103	0.138
-576.748	-74.457	-0.069	-0.025
-575.733	-200.000	0.003	0.201
-574.719	-200.000	-0.005	-0.040
-573.704	53.683	-0.381	-0.365
-572.690	800.000	0.055	-0.199
-571.675	-147.331	-0.046	0.004
-570.661	391.837	-0.099	0.205
-569.646	743.655	0.086	-0.230
-568.631	487.337	0.111	-0.252
-567.617	-113.818	-0.187	0.036
-566.602	-200.000	0.026	0.119
-565.588	-45.234	0.109	0.054
-564.573	800.000	0.022	0.082
-563.558	299.735	-0.078	-0.143
-562.544	-172.650	-0.330	-0.010
-561.529	22.368	-0.311	0.254
-560.515	-18.742	-0.230	0.143
-559.500	29.467	0.327	0.277
-558.485	800.000	0.126	-0.432
-557.471	395.160	-0.051	0.107
-556.456	49.528	-0.237	0.223
-555.442	359.722	-0.082	0.164
-554.427	800.000	0.097	-0.343
-553.412	-70.450	-0.124	-0.047
-552.398	-45.682	0.241	-0.119
-551.383	-146.844	-0.325	0.028
-550.369	-200.000	-0.016	0.195
-549.354	-53.227	0.090	-0.041
-548.339	-16.947	0.078	-0.049
-547.325	208.441	0.136	0.212
-546.310	-148.349	0.110	-0.009
-545.296	184.251	-0.185	-0.274
-544.281	48.072	-0.104	0.097
-543.266	277.780	0.057	-0.101
-542.252	-145.996	0.393	0.035
-541.237	-8.768	0.204	-0.137
-540.223	282.597	-0.100	-0.179
-539.208	14.635	-0.201	-0.156
-538.193	-200.000	0.001	0.033
-537.179	-14.515	0.080	0.051
-536.164	35.569	0.308	-0.270
-535.150	-200.000	0.022	0.319
-534.135	-33.611	-0.281	0.155
-533.121	-200.000	-0.032	0.265
-532.106	34.957	-0.349	0.305
-531.091	-200.000	0.046	0.266
-530.077	-13.791	-0.270	-0.174
-529.062	-22.805	0.226	0.136
-528.048	604.799	-0.011	0.027
-527.033	50.449	0.270	0.255
-526.018	177.647	-0.220	0.320
-525.004	-133.601	-0.207	-0.026
-523.989	-146.028	-0.253	0.022
-522.975	-200.000	0.015	0.074
-521.960	9.293	-0.189	-0.142
-520.945	333.407	0.074	-0.142
-519.931	68.822	-0.236	-0.241
-518.916	-87.752	-0.059	-0.018
-517.902	-200.000	0.032	0.426
-516.887	-125.749	-0.019	0.003
-515.872	-12.673	-0.232	-0.150
-514.858	476.841	0.074	-0.167
-513.843	326.054	0.119	-0.226
-512.829	-45.795	0.153	0.076
-511.814	250.454	-0.122	0.206
-510.799	-141.572	-0.122	-0.012
-509.785	-12.416	0.111	0.072
-508.770	-36.902	-0.103	0.055
-507.756	767.763	0.087	-0.235
-506.741	-78.573	-0.221	0.075
-505.726	253.554	0.080	0.137
-504.712	49.640	0.020	-0.019
-503.697	211.766	0.124	0.195
-502.683	-19.487	0.113	-0.070
-501.668	346.974	0.074	0.145
-500.653	175.948	0.117	0.169
-499.639	-89.467	-0.194	-0.057
-498.624	-121.938	0.114	-0.019
-497.610	-104.410	0.352	-0.081
-496.595	-4.601	0.211	0.145
-495.581	-99.184	-0.128	0.032
-494.566	-200.000	-0.001	0.057
-493.551	63.874	0.147	0.147
-492.537	163.577	0.168	0.235
-491.522	-10.350	-0.174	0.115
-490.508	-31.975	-0.380	0.212
-489.493	0.747	-0.195	0.139
-488.478	669.760	0.036	0.093
-487.464	583.481	-0.135	0.329
-486.449	-127.828	-0.518	-0.074
-485.435	-154.003	0.169	0.011
-484.420	-84.903	-0.161	0.050
-483.405	94.018	-0.104	-0.117
-482.391	-41.970	-0.151	-0.077
-481.376	41.818	-0.100	-0.090
-480.362	243.393	-0.100	-0.166
-479.347	-200.000	0.110	0.528
-478.332	-84.469	0.263	-0.083
-477.318	61.217	0.176	-0.174
-476.303	89.241	-0.077	0.085
-475.289	-148.788	0.221	0.018
-474.274	800.000	0.051	0.191
-473.259	115.167	0.023	0.028
-472.245	-200.000	0.026	-0.207
-471.230	-77.510	0.376	-0.130
-470.216	46.339	0.060	0.055
-469.201	151.909	-0.159	-0.216
-468.186	-200.000	-0.020	0.146
-467.172	-67.883	0.308	-0.120
-466.157	121.873	-0.072	-0.090
-465.143	-200.000	0.024	0.407
-464.128	5.920	-0.171	-0.126
-463.113	16.746	-0.179	-0.141
-462.099	351.549	0.059	0.116
-461.084	-24.506	0.246	0.146
-460.070	63.644	-0.066	0.066
-459.055	688.739	0.105	-0.272
-458.040	263.203	0.257	-0.444
-457.026	-200.000	0.057	0.306
-456.011	-200.000	-0.023	-0.176
-454.997	122.520	0.181	0.225
-453.982	452.695	-0.024	-0.053
-452.968	646.597	0.029	-0.074
-451.953	239.406	0.200	0.331
-450.938	58.731	-0.085	0.083
-449.924	105.932	0.199	-0.234
-448.909	-51.913	0.417	-0.193
-447.895	-200.000	-0.025	-0.178
-446.880	-103.086	0.277	-0.065
-445.865	-192.736	-0.448	0.004
-444.851	-57.511	-0.225	-0.098
-443.836	-200.000	-0.000	0.126
-442.822	-53.701	-0.340	-0.154
-441.807	201.611	0.063	0.096
-440.792	-200.000	0.042	0.376
-439.778	-200.000	0.001	0.005
-438.763	-160.614	0.022	-0.001
-437.749	203.011	-0.049	0.075
-436.734	30.823	0.141	-0.120
-435.719	-39.545	-0.247	0.129
-434.705	-118.165	-0.343	-0.061
-433.690	-66.837	-0.135	-0.053
-432.676	-106.192	0.148	-0.033
-431.661	-25.542	0.181	0.106
-430.646	-162.989	-0.280	-0.013
-429.632	50.746	-0.026	-0.025
-428.617	-200.000	-0.033	0.232
-427.603	-29.183	0.120	0.068
-426.588	-0.451	0.174	0.123
-425.573	-29.623	0.068	-0.038
-424.559	-77.081	-0.190	-0.066
-423.544	800.000	-0.033	0.104
-422.530	468.737	0.191	0.427
-421.515	172.112	-0.117	0.167
-420.500	12.061	0.107	0.082
-419.486	800.000	-0.062	0.250
-418.471	135.388	0.073	-0.094
-417.457	27.467	-0.154	-0.129
-416.442	800.000	0.072	-0.243
-415.428	507.045	0.038	0.088
-414.413	-200.000	0.011	-0.053
-413.398	800.000	0.048	-0.162
-412.384	-68.295	-0.116	-0.045
-411.369	-74.244	0.253	-0.091
-410.355	800.000	0.065	-0.199
-409.340	254.096	0.204	0.346
-408.325	-200.000	-0.020	0.109
-407.311	-17.279	-0.132	0.083
-406.296	202.941	-0.129	-0.197
-405.282	800.000	0.043	-0.169
-404.267	282.262	-0.130	0.231
-403.252	63.864	-0.246	-0.246
-402.238	131.454	0.205	0.262
-401.223	800.000	0.038	0.113
-400.209	-26.758	0.063	-0.037
-399.194	406.990	0.128	0.269
-398.179	49.133	0.022	0.021
-397.165	781.241	-0.103	-0.279
-396.150	248.116	0.066	0.110
-395.136	98.081	0.094	0.107
-394.121	-200.000	0.024	0.157
-393.106	-36.486	0.269	0.144
-392.092	-200.000	0.087	-0.432
-391.077	159.889	0.096	0.133
-390.063	771.094	0.017	0.047
-389.048	25.990	0.397	-0.328
-388.033	78.694	0.157	0.166
-387.019	275.980	-0.180	0.317
-386.004	3.927	0.155	-0.113
-384.990	198.939	0.273	-0.415
-383.975	44.347	-0.143	0.130
-382.960	64.434	-0.093	0.093
-381.946	-200.000	0.002	0.112
-380.931	-128.861	0.087	-0.012
-379.917	-102.692	-0.415	0.098
-378.902	97.238	-0.167	-0.190
-377.888	-200.000	-0.007	-0.043
-376.873	211.670	0.146	-0.228
-375.858	-125.961	-0.595	-0.089
-374.844	415.185	0.030	-0.064
-373.829	-200.000	0.007	-0.048
-372.815	800.000	0.082	-0.235
-371.800	-200.000	-0.107	0.470
-370.785	193.484	0.144	-0.215
-369.771	-200.000	-0.024	-0.187
-368.756	-200.000	-0.019	-0.147
-367.742	-200.000	0.029	0.232
-366.727	-200.000	0.041	-0.219
-365.712	326.569	-0.232	0.441
-364.698	-200.000	-0.002	0.047
-363.683	19.161	-0.184	-0.146
-362.669	132.288	-0.178	-0.228
-361.654	-86.027	-0.071	-0.022
-360.639	89.057	-0.263	-0.290
-359.625	44.273	0.322	-0.293
-358.610	134.131	-0.150	-0.193
-357.596	248.663	0.037	0.062
-356.581	-169.938	0.341	-0.012
-355.566	-15.733	-0.415	0.262
-354.552	47.180	-0.183	-0.169
-353.537	-132.851	0.533	-0.067
-352.523	568.678	-0.085	0.204
-351.508	-189.524	-0.286	0.003
-350.493	-29.187	0.025	-0.014
-349.479	33.212	-0.010	0.008
-348.464	65.030	-0.310	0.310
-347.450	-200.000	0.041	0.211
-346.435	800.000	-0.056	-0.212
-345.420	10.290	-0.057	0.043
-344.406	-96.423	0.545	-0.143
-343.391	-113.043	-0.064	-0.012
-342.377	-130.234	-0.131	-0.018
-341.362	190.723	-0.082	-0.122
-340.348	-125.803	-0.286	-0.043
-339.333	-81.782	-0.161	-0.052
-338.318	77.707	0.138	0.146
-337.304	113.322	-0.146	0.175
-336.289	160.552	0.187	0.259
-335.275	-39.040	0.201	0.105
-334.260	-72.445	0.335	0.123
-333.245	-98.218	-0.228	-0.058
-332.231	178.214	-0.175	-0.253
-331.216	-37.492	-0.101	-0.053
-330.202	134.843	-0.207	0.267
-329.187	-101.357	0.320	-0.077
-328.172	20.081	0.339	0.270
-327.158	33.846	0.083	0.072
-326.143	-200.000	0.012	-0.123
-325.129	48.156	-0.174	-0.161
-324.114	141.136	0.097	0.127
-323.099	40.334	-0.274	0.244
-322.085	-200.000	-0.011	0.468
-321.070	58.722	-0.391	-0.379
-320.056	-200.000	-0.008	0.038
-319.041	-81.688	-0.185	0.060
-318.026	-200.000	0.029	-0.265
-317.012	341.290	0.142	-0.275
-315.997	133.524	-0.203	0.259
-314.983	3.444	0.176	0.127
-313.968	-10.838	0.280	-0.183
-312.953	560.988	-0.073	-0.174
-311.939	615.954	0.072	-0.179
-310.924	800.000	0.045	-0.188
-309.910	-200.000	0.015	0.176
-308.895	413.412	-0.111	0.234
-307.880	-24.186	0.128	0.076
-306.866	800.000	-0.069	-0.258
-305.851	-43.339	-0.108	0.054
-304.837	-200.000	-0.329	0.000
-303.822	555.013	0.070	-0.168
-302.807	-200.000	-0.018	-0.362
-301.793	101.124	-0.191	0.220
-300.778	-200.000	-0.020	-0.198
-299.764	-85.133	0.204	-0.063
-298.749	-200.000	0.010	0.064
-297.735	399.663	0.154	0.320
-296.720	-140.938	-0.263	-0.027
-295.705	270.901	-0.068	0.118
-294.691	690.329	-0.117	0.302
-293.676	-145.366	0.164	-0.015
-292.662	-200.000	0.010	-0.085
-291.647	132.337	0.254	-0.324
-290.632	5.387	0.126	-0.092
-289.618	139.056	-0.162	0.210
-288.603	172.490	0.020	0.028
-287.589	37.318	0.109	0.095
-286.574	-86.297	-0.240	-0.073
-285.559	-83.877	0.221	-0.070
-284.545	-49.692	0.438	-0.206
-283.530	292.039	-0.079	0.143
-282.516	61.064	0.171	-0.167
-281.501	-105.177	-0.393	0.089
-280.486	316.125	-0.040	-0.074
-279.472	-58.317	0.058	0.025
-278.457	131.446	0.113	-0.144
-277.443	-162.397	-0.153	-0.007
-276.428	100.188	-0.146	0.167
-275.413	-191.198	-0.241	0.002
-274.399	-106.286	0.341	-0.075
-273.384	108.647	0.114	0.134
-272.370	381.387	-0.067	0.135
-271.355	-200.000	-0.047	0.218
-270.340	425.483	-0.103	0.218
-269.326	40.800	-0.221	0.197
-268.311	-13.592	0.186	-0.119
-267.297	-200.000	-0.060	-0.489
-266.282	-94.923	-0.338	0.090
-265.267	800.000	0.013	0.046
-264.253	-102.258	-0.201	-0.048
-263.238	41.142	-0.209	-0.186
-262.224	271.316	0.042	-0.073
-261.209	6.882	0.309	-0.227
-260.195	-96.463	-0.176	-0.046
-259.180	-32.043	0.241	0.133
-258.165	211.972	-0.071	-0.110
-257.151	33.326	-0.271	0.232
-256.136	203.949	0.105	0.160
-255.122	-6.680	0.111	0.075
-254.107	-101.788	-0.408	0.097
-253.092	131.706	-0.089	0.113
-252.078	-23.063	0.449	0.267
-251.063	229.771	-0.202	-0.326
-250.049	-200.000	0.044	-0.282
-249.034	-200.000	-0.007	-0.072
-248.019	6.911	-0.220	-0.161
-247.005	-39.302	0.198	0.102
-245.990	366.495	-0.055	0.108
-244.976	20.342	0.046	0.036
-243.961	-44.931	0.387	0.190
-242.946	140.399	0.090	0.117
-241.932	-154.142	-0.114	0.008
-240.917	44.478	0.312	0.283
-239.903	-157.606	0.323	0.019
-238.888	141.535	0.209	-0.273
-237.873	77.897	0.125	0.131
-236.859	-200.000	-0.004	-0.347
-235.844	-15.681	0.254	0.159
-234.830	-44.303	-0.272	0.135
-233.815	800.000	0.126	-0.496
-232.800	44.146	0.104	0.094
-231.786	87.331	-0.114	0.125
-230.771	598.691	0.063	-0.153
-229.757	49.683	0.123	0.114
-228.742	-200.000	-0.012	0.156
-227.727	138.683	-0.240	-0.310
-226.713	34.006	-0.174	0.150
-225.698	800.000	0.048	-0.203
-224.684	-98.740	0.117	0.029
-223.669	106.835	0.277	0.324
-222.655	740.791	0.120	0.317
-221.640	-200.000	0.019	-0.082
-220.625	11.879	0.238	-0.180
-219.611	25.499	0.225	-0.184
-218.596	547.319	0.038	-0.090
-217.582	211.035	0.193	0.299
-216.567	-87.508	0.186	-0.056
-215.552	-11.091	-0.157	-0.102
-214.538	-43.213	-0.288	0.144
-213.523	800.000	0.101	-0.404
-212.509	-105.453	0.169	0.038
-211.494	-11.437	0.241	0.156
-210.479	-23.432	-0.097	-0.057
-209.465	-152.747	0.212	0.015
-208.450	135.043	-0.092	-0.117
-207.436	-200.000	0.022	0.101
-206.421	-200.000	0.000	-0.139
-205.406	97.344	-0.084	0.095
-204.392	112.571	0.251	-0.299
-203.377	-126.758	-0.253	-0.037
-202.363	-78.114	0.189	-0.064
-201.348	8.665	-0.085	-0.063
-200.333	-200.000	-0.027	-0.323
-199.319	-49.900	-0.176	-0.082
-198.304	-115.973	-0.332	0.061
-197.290	-200.000	-0.015	-0.227
-196.275	-41.885	-0.163	-0.082
-195.260	642.123	-0.111	0.279
-194.246	800.000	0.040	-0.110
-193.231	164.156	0.087	-0.120
-192.217	16.907	0.164	-0.128
-191.202	-200.000	-0.011	0.115
-190.187	242.030	0.081	-0.134
-189.173	800.000	-0.101	-0.327
-188.158	145.539	-0.157	0.207
-187.144	268.579	0.022	-0.037
-186.129	21.222	0.176	-0.140
-185.114	-200.000	-0.021	-0.137
-184.100	800.000	-0.050	0.213
-183.085	800.000	0.051	-0.158
-182.071	115.704	0.041	0.049
-181.056	-60.952	0.196	0.081
-180.042	19.481	-0.061	0.049
-179.027	-145.301	-0.091	-0.008
-178.012	579.823	-0.188	0.453
-176.998	-141.856	-0.498	0.049
-175.983	2.923	0.006	0.004
-174.969	88.643	0.060	0.066
-173.954	-113.634	-0.597	-0.115
-172.939	-5.909	0.308	-0.207
-171.925	-91.621	0.418	-0.117
-170.910	-200.000	0.049	0.243
-169.896	-80.480	-0.206	-0.067
-168.881	-200.000	0.028	-0.284
-167.866	800.000	-0.075	-0.211
-166.852	800.000	0.071	0.238
-165.837	800.000	0.023	-0.084
-164.823	-154.564	0.142	-0.009
-163.808	67.063	-0.122	-0.122
-162.793	277.525	0.083	0.145
-161.779	80.416	0.149	-0.158
-160.764	278.498	0.170	0.298
-159.750	-200.000	0.030	-0.305
-158.735	-71.398	-0.054	0.020
-157.720	-142.707	-0.330	0.032
-156.706	-59.571	0.265	-0.112
-155.691	-63.438	0.029	-0.012
-154.677	-109.806	0.179	0.037
-153.662	-10.978	-0.167	0.108
-152.647	195.944	0.040	0.060
-151.633	242.009	0.050	0.082
-150.618	146.119	0.088	-0.116
-149.604	190.594	-0.080	0.119
-148.589	-125.282	0.309	-0.046
-147.574	-97.695	-0.263	0.067
-146.560	278.377	-0.092	-0.162
-145.545	245.971	-0.245	-0.406
-144.531	-200.000	-0.002	-0.062
-143.516	-4.711	0.179	-0.121
-142.502	282.245	0.173	0.305
-141.487	-200.000	0.096	0.479
-140.472	-200.000	-0.013	-0.212
-139.458	226.702	-0.067	-0.107
-138.443	89.229	0.142	0.155
-137.429	-87.370	-0.202	0.060
-136.414	800.000	-0.064	0.219
-135.399	800.000	-0.132	-0.464
-134.385	302.657	-0.101	-0.183
-133.370	-182.399	-0.160	-0.003
-132.356	-83.593	-0.386	0.121
-131.341	56.295	-0.175	-0.167
-130.326	800.000	-0.022	-0.072
-129.312	-200.000	0.030	0.226
-128.297	180.119	-0.126	0.182
-127.283	-132.218	-0.350	-0.045
-126.268	19.606	-0.215	0.170
-125.253	-47.581	-0.222	0.106
-124.239	800.000	0.011	0.037
-123.224	-102.813	0.268	0.063
-122.210	-77.531	-0.184	-0.063
-121.195	4.287	-0.078	-0.056
