DTS Sentinel unit serial number:	SN413079Multiplexer serial number:	ORYXHardware model number:	OX4-SRSoftware version number:	ORYX F/W v4.00 Oryx Data Collector v3.7.2.0data status	okinstallation	princeton_trtdifferential loss correction	single-endedforward channel	channel 2reverse channel	N/Adate	2019/09/17time	22:47:35forward acquisition time	60.00reverse acquisition time	0.00gamma	496.2192k internal	0.2345k external	0.2345temperature offset calibration	0.9986default loss term (dB/km)	0.3790temperature slope calibration	1.0000multiplexer offset coefficient	1.0000multiplexer slope coefficient	1.0000fibre end	0.00T internal ref (°C)	25.00T ext. ref 1 (°C)	0.18T ext. ref 2 (°C)	18.24length (m)	temperature (°C)	Stokes	anti-Stokes-747.200	124.088	0.048	0.060
-746.185	31.588	-0.186	0.160
-745.171	-78.362	0.291	-0.100
-744.156	-86.155	-0.273	0.084
-743.142	-33.496	0.147	0.081
-742.127	-62.028	0.227	0.095
-741.112	-200.000	-0.013	-0.064
-740.098	800.000	0.059	0.238
-739.083	37.794	-0.182	-0.162
-738.069	627.535	-0.040	-0.101
-737.054	-26.741	-0.198	0.116
-736.039	147.198	0.103	0.138
-735.025	778.047	0.154	0.422
-734.010	-130.627	-0.493	0.066
-732.996	155.676	-0.098	-0.135
-731.981	800.000	0.039	-0.161
-730.966	-28.349	-0.036	0.021
-729.952	-200.000	0.033	-0.180
-728.937	103.848	-0.020	-0.023
-727.923	320.218	0.074	0.141
-726.908	-102.577	-0.142	0.034
-725.894	73.829	-0.092	-0.096
-724.879	29.229	0.096	-0.082
-723.864	-200.000	0.018	-0.307
-722.850	55.763	0.116	-0.112
-721.835	800.000	-0.093	-0.338
-720.821	800.000	0.070	0.252
-719.806	-122.523	-0.463	0.075
-718.791	-162.835	-0.115	-0.006
-717.777	-102.476	-0.229	-0.055
-716.762	-200.000	0.071	0.679
-715.748	654.882	-0.072	0.185
-714.733	-154.613	0.144	-0.010
-713.718	-96.882	-0.361	0.095
-712.704	492.025	-0.051	-0.117
-711.689	800.000	0.019	0.061
-710.675	800.000	0.064	-0.197
-709.660	-119.897	0.267	0.046
-708.645	172.981	0.022	0.031
-707.631	177.928	0.186	-0.271
-706.616	15.179	0.142	-0.111
-705.602	-12.505	-0.187	0.122
-704.587	-92.464	-0.292	0.082
-703.572	238.728	0.060	-0.100
-702.558	-90.365	-0.155	0.045
-701.543	132.840	-0.208	-0.268
-700.529	79.043	0.117	-0.125
-699.514	-95.311	-0.161	-0.043
-698.499	-73.506	-0.200	-0.073
-697.485	291.796	0.090	0.164
-696.470	107.130	-0.273	-0.325
-695.456	102.129	-0.245	0.286
-694.441	-200.000	0.002	-0.077
-693.426	369.931	-0.063	0.127
-692.412	-200.000	-0.061	0.395
-691.397	-200.000	-0.044	-0.234
-690.383	-40.139	-0.247	-0.129
-689.368	-200.000	-0.078	0.430
-688.354	-22.370	0.139	0.084
-687.339	-13.007	0.200	0.130
-686.324	-50.180	-0.210	-0.099
-685.310	-34.075	-0.272	-0.149
-684.295	127.659	0.088	0.112
-683.281	493.492	-0.081	-0.186
-682.266	114.166	0.070	-0.085
-681.251	-200.000	-0.015	-0.209
-680.237	-44.676	-0.316	-0.157
-679.222	47.643	0.144	0.134
-678.208	189.316	-0.306	0.458
-677.193	322.404	0.067	0.127
-676.178	-200.000	-0.049	0.346
-675.164	11.297	-0.071	-0.054
-674.149	-89.021	-0.152	-0.045
-673.135	40.296	-0.335	0.301
-672.120	0.407	0.227	-0.162
-671.105	-47.221	-0.257	-0.125
-670.091	-91.722	-0.380	-0.108
-669.076	-86.890	0.134	0.041
-668.062	-108.352	-0.218	-0.047
-667.047	-77.289	-0.212	0.074
-666.032	-94.057	0.220	0.060
-665.018	-39.089	0.218	-0.114
-664.003	-200.000	-0.006	-0.174
-662.989	-200.000	0.020	-0.289
-661.974	-30.866	-0.093	-0.053
-660.959	-125.401	0.397	0.060
-659.945	24.110	-0.261	0.215
-658.930	-32.712	0.106	0.059
-657.916	21.716	-0.178	0.145
-656.901	-43.293	-0.232	-0.117
-655.886	53.152	-0.163	-0.155
-654.872	21.726	0.204	0.166
-653.857	800.000	0.113	0.409
-652.843	-83.094	-0.297	0.095
-651.828	330.549	-0.126	-0.242
-650.814	-200.000	0.036	0.272
-649.799	433.729	0.228	0.494
-648.784	-154.549	-0.318	0.021
-647.770	360.821	0.136	-0.271
-646.755	800.000	0.115	-0.331
-645.741	192.992	0.074	0.112
-644.726	-159.895	0.160	-0.009
-643.711	-73.919	-0.220	-0.080
-642.697	114.111	0.287	0.348
-641.682	-153.909	-0.167	-0.011
-640.668	800.000	0.089	-0.348
-639.653	55.091	-0.091	0.088
-638.638	73.626	-0.114	0.119
-637.624	-10.522	-0.084	-0.055
-636.609	99.377	-0.151	-0.174
-635.595	-89.498	-0.194	-0.057
-634.580	800.000	-0.016	-0.057
-633.565	800.000	-0.089	0.249
-632.551	173.413	-0.050	0.072
-631.536	-12.683	0.212	-0.138
-630.522	274.275	-0.105	-0.185
-629.507	800.000	0.050	0.149
-628.492	262.986	0.208	0.359
-627.478	-184.000	-0.192	-0.003
-626.463	-200.000	-0.108	-0.635
-625.449	651.825	-0.066	-0.169
-624.434	-191.244	0.074	-0.001
-623.419	-56.517	-0.122	-0.054
-622.405	800.000	0.083	-0.321
-621.390	-144.473	-0.277	0.026
-620.376	-135.061	-0.272	-0.033
-619.361	-25.317	-0.103	0.061
-618.346	609.734	0.126	0.312
-617.332	74.358	-0.172	-0.180
-616.317	191.888	0.145	0.217
-615.303	252.923	-0.069	0.117
-614.288	800.000	0.132	-0.421
-613.273	25.003	-0.303	0.250
-612.259	-62.052	-0.212	-0.088
-611.244	65.033	0.130	-0.131
-610.230	-7.526	0.227	0.153
-609.215	500.036	0.064	-0.146
-608.201	-92.379	0.104	0.029
-607.186	99.427	0.132	-0.152
-606.171	60.375	-0.030	-0.030
-605.157	-123.364	-0.128	0.020
-604.142	-80.779	-0.310	0.103
-603.128	800.000	0.082	0.283
-602.113	-184.993	-0.302	0.005
-601.098	-51.847	0.072	0.034
-600.084	800.000	-0.080	0.265
-599.069	800.000	0.050	-0.198
-598.055	-200.000	-0.028	0.148
-597.040	179.043	0.041	0.059
-596.025	800.000	0.072	-0.271
-595.011	-64.247	0.029	0.012
-593.996	399.769	0.095	-0.198
-592.982	-80.526	-0.332	0.110
-591.967	20.944	-0.149	0.120
-590.952	-130.917	-0.272	0.036
-589.938	35.165	0.163	0.142
-588.923	-5.294	-0.102	0.070
-587.909	800.000	-0.074	0.312
-586.894	44.716	0.148	0.136
-585.879	451.433	0.103	0.226
-584.865	524.750	-0.090	0.211
-583.850	800.000	0.138	-0.454
-582.836	-200.000	0.034	0.208
-581.821	20.600	-0.153	0.123
-580.806	-36.938	-0.238	-0.127
-579.792	-32.782	-0.127	0.070
-578.777	-2.600	0.073	-0.051
-577.763	14.075	0.178	0.138
-576.748	337.253	0.085	-0.164
-575.733	297.054	0.194	0.354
-574.719	-179.617	0.238	-0.005
-573.704	716.619	-0.032	0.085
-572.690	152.876	0.208	-0.282
-571.675	-50.724	-0.151	0.070
-570.661	-161.402	0.016	-0.001
-569.646	-74.368	0.285	-0.102
-568.631	800.000	-0.018	0.072
-567.617	603.309	0.071	0.177
-566.602	-122.245	-0.236	0.038
-565.588	800.000	-0.082	0.229
-564.573	-138.798	-0.356	0.039
-563.558	800.000	0.049	0.181
-562.544	150.843	-0.096	0.129
-561.529	671.795	0.183	0.470
-560.515	-63.595	0.150	0.061
-559.500	278.103	-0.189	0.334
-558.485	-200.000	0.004	-0.224
-557.471	-38.930	0.061	0.032
-556.456	20.883	0.294	-0.236
-555.442	313.219	0.071	-0.132
-554.427	-81.446	0.271	-0.089
-553.412	-106.908	0.321	0.071
-552.398	800.000	0.056	-0.193
-551.383	-74.531	-0.291	0.104
-550.369	-98.533	0.272	0.069
-549.354	-42.439	-0.147	0.074
-548.339	-105.489	0.270	-0.061
-547.325	800.000	0.129	-0.451
-546.310	-139.379	-0.279	-0.030
-545.296	-103.670	0.380	-0.088
-544.281	-50.817	-0.256	0.120
-543.266	-200.000	-0.017	-0.235
-542.252	199.573	-0.034	0.051
-541.237	-99.668	-0.242	0.060
-540.223	800.000	-0.026	-0.078
-539.208	-130.654	-0.299	0.040
-538.193	11.308	-0.365	0.277
-537.179	14.518	-0.183	-0.142
-536.164	-145.966	0.151	0.013
-535.150	-200.000	-0.001	0.130
-534.135	393.068	0.101	-0.208
-533.121	210.607	0.141	-0.219
-532.106	800.000	-0.054	-0.207
-531.091	550.176	0.069	-0.164
-530.077	82.079	0.105	0.113
-529.062	236.949	-0.074	-0.121
-528.048	-120.141	-0.153	0.026
-527.033	-140.566	-0.189	0.019
-526.018	357.295	0.064	0.127
-525.004	-151.923	-0.073	0.005
-523.989	-34.976	0.085	0.046
-522.975	55.994	-0.166	-0.160
-521.960	-140.898	-0.233	0.024
-520.945	-103.440	-0.035	0.008
-519.931	-140.047	0.231	-0.024
-518.916	-150.875	0.129	-0.010
-517.902	16.768	0.115	0.091
-516.887	-32.453	0.220	0.122
-515.872	-41.739	-0.387	-0.197
-514.858	-200.000	-0.010	-0.219
-513.843	-200.000	-0.030	-0.223
-512.829	39.969	-0.196	0.174
-511.814	800.000	-0.054	-0.187
-510.799	622.612	0.154	0.384
-509.785	-150.412	0.279	0.021
-508.770	243.229	-0.066	-0.109
-507.756	394.539	0.076	0.157
-506.741	-55.450	0.224	-0.100
-505.726	-82.629	-0.045	0.014
-504.712	-121.650	0.013	-0.002
-503.697	318.209	0.101	-0.189
-502.683	-4.593	0.080	-0.055
-501.668	800.000	-0.099	0.361
-500.653	18.691	-0.365	-0.289
-499.639	-40.146	-0.364	0.188
-498.624	-143.907	-0.081	0.008
-497.610	-200.000	-0.009	-0.108
-496.595	-128.075	-0.259	0.037
-495.581	182.764	0.098	-0.143
-494.566	-31.102	0.203	-0.114
-493.551	366.884	0.080	0.161
-492.537	-148.962	-0.267	0.021
-491.522	276.638	0.117	0.205
-490.508	47.897	-0.267	0.247
-489.493	180.204	-0.059	0.086
-488.478	-67.626	0.198	0.077
-487.464	-107.956	0.038	-0.008
-486.449	-75.100	0.275	-0.097
-485.435	-95.142	-0.311	0.083
-484.420	325.452	-0.038	-0.073
-483.405	800.000	0.020	-0.084
-482.391	800.000	0.072	-0.247
-481.376	-27.220	0.078	-0.045
-480.362	-50.630	-0.183	0.085
-479.347	-128.334	0.039	-0.005
-478.332	-81.648	0.105	-0.034
-477.318	-200.000	0.042	0.193
-476.303	-73.171	-0.161	-0.058
-475.289	2.618	0.120	-0.086
-474.274	475.830	-0.099	0.221
-473.259	-28.620	0.388	0.221
-472.245	67.912	-0.141	-0.143
-471.230	147.724	-0.024	0.031
-470.216	-193.262	-0.206	-0.002
-469.201	800.000	-0.023	-0.063
-468.186	-200.000	0.017	-0.130
-467.172	315.389	0.100	0.187
-466.157	-200.000	-0.006	0.176
-465.143	10.845	-0.086	-0.065
-464.128	-200.000	0.005	0.121
-463.113	-142.539	0.099	-0.010
-462.099	12.188	0.167	-0.127
-461.084	303.175	-0.122	-0.224
-460.070	-44.277	-0.185	-0.092
-459.055	-200.000	0.031	0.282
-458.040	490.976	0.067	0.151
-457.026	-156.305	0.470	-0.029
-456.011	7.135	-0.377	-0.278
-454.997	447.245	-0.062	-0.136
-453.982	-3.440	0.122	0.084
-452.968	-108.186	-0.218	0.047
-451.953	-78.232	0.340	0.116
-450.938	86.834	0.176	0.193
-449.924	384.129	-0.163	-0.332
-448.909	13.263	-0.145	-0.111
-447.895	-161.298	-0.197	-0.010
-446.880	-107.450	0.363	0.079
-445.865	-143.526	-0.145	0.014
-444.851	362.702	-0.031	0.061
-443.836	-158.426	-0.137	-0.008
-442.822	-51.662	-0.033	0.015
-441.807	695.572	0.029	-0.077
-440.792	-63.082	-0.656	-0.268
-439.778	-107.270	-0.085	0.019
-438.763	65.482	0.179	-0.179
-437.749	-88.920	-0.035	-0.010
-436.734	-200.000	-0.027	-0.170
-435.719	599.802	-0.132	-0.323
-434.705	10.115	0.030	-0.022
-433.690	-109.065	0.344	-0.072
-432.676	-200.000	-0.081	-0.358
-431.661	-200.000	-0.037	-0.181
-430.646	-200.000	0.017	-0.163
-429.632	-117.024	-0.220	-0.040
-428.617	-119.270	0.064	0.011
-427.603	25.025	-0.161	0.132
-426.588	286.434	-0.106	0.190
-425.573	-103.848	-0.350	0.081
-424.559	800.000	0.185	0.657
-423.544	302.054	-0.158	0.289
-422.530	137.375	0.163	-0.211
-421.515	-44.448	-0.266	-0.132
-420.500	189.972	0.072	0.106
-419.486	-107.241	0.342	0.074
-418.471	135.580	-0.149	-0.191
-417.457	380.349	-0.055	0.112
-416.442	-97.552	-0.288	-0.074
-415.428	12.594	-0.096	-0.073
-414.413	-68.054	0.652	-0.251
-413.398	428.936	-0.075	-0.159
-412.384	-175.712	0.415	0.011
-411.369	-49.518	-0.222	0.105
-410.355	401.610	0.156	0.323
-409.340	656.068	0.111	0.281
-408.325	800.000	-0.130	0.411
-407.311	-64.849	0.078	-0.031
-406.296	20.754	-0.202	-0.161
-405.282	-64.138	0.256	0.103
-404.267	706.413	0.107	-0.279
-403.252	-15.853	-0.124	0.078
-402.238	300.773	-0.033	0.059
-401.223	480.303	0.126	0.281
-400.209	-48.749	0.316	0.150
-399.194	369.690	-0.060	0.119
-398.179	-29.061	0.443	0.251
-397.165	295.971	0.112	-0.202
-396.150	800.000	0.041	0.156
-395.136	-200.000	0.011	0.196
-394.121	-42.129	0.449	0.227
-393.106	-176.705	-0.430	-0.011
-392.092	76.621	0.225	0.235
-391.077	561.976	0.195	0.465
-390.063	-92.000	0.114	0.032
-389.048	360.205	-0.027	0.052
-388.033	-0.244	0.232	0.163
-387.019	-18.422	-0.129	0.080
-386.004	-46.395	-0.099	0.048
-384.990	56.442	-0.114	0.109
-383.975	-200.000	-0.023	-0.114
-382.960	175.411	-0.088	0.125
-381.946	98.633	0.257	0.292
-380.931	732.049	0.095	0.251
-379.917	-4.962	-0.281	-0.191
-378.902	-45.876	0.219	-0.107
-377.888	6.501	0.234	0.171
-376.873	-200.000	0.037	-0.246
-375.858	179.135	0.044	-0.064
-374.844	246.049	-0.124	-0.206
-373.829	-124.105	0.218	-0.034
-372.815	9.578	-0.090	-0.067
-371.800	126.842	0.156	-0.195
-370.785	-86.688	0.141	-0.042
-369.771	159.786	-0.147	0.201
-368.756	-74.012	0.073	0.026
-367.742	-85.760	0.260	-0.080
-366.727	-71.768	-0.238	0.087
-365.712	-118.696	0.421	0.073
-364.698	-159.545	0.222	0.012
-363.683	4.633	-0.380	-0.275
-362.669	-130.517	-0.216	-0.029
-361.654	-107.030	0.205	-0.045
-360.639	-46.244	-0.144	0.070
-359.625	-118.795	-0.195	-0.034
-358.610	55.701	0.224	0.214
-357.596	-200.000	-0.008	0.158
-356.581	-200.000	-0.051	0.284
-355.566	100.154	0.100	0.115
-354.552	-200.000	0.017	0.082
-353.537	-197.399	-0.352	-0.002
-352.523	17.987	0.050	0.039
-351.508	-80.233	0.119	0.039
-350.493	128.312	0.214	0.268
-349.479	-4.246	-0.021	-0.014
-348.464	-72.612	0.142	-0.051
-347.450	-45.394	-0.308	0.150
-346.435	-200.000	0.008	-0.184
-345.420	257.245	0.042	0.072
-344.406	-200.000	-0.011	0.147
-343.391	79.204	0.279	0.295
-342.377	118.915	0.096	0.116
-341.362	-153.240	-0.229	0.016
-340.348	-200.000	-0.023	-0.127
-339.333	-31.851	-0.199	0.110
-338.318	-159.312	-0.201	0.011
-337.304	-97.255	-0.238	-0.061
-336.289	-200.000	-0.023	-0.269
-335.275	101.245	-0.139	-0.160
-334.260	-200.000	-0.011	0.126
-333.245	-63.189	-0.178	-0.072
-332.231	-178.847	0.139	0.003
-331.216	-144.151	-0.326	-0.030
-330.202	-200.000	-0.029	0.157
-329.187	-200.000	0.013	0.065
-328.172	800.000	0.025	-0.106
-327.158	5.395	0.188	-0.136
-326.143	-188.851	0.360	-0.004
-325.129	-57.766	-0.561	0.242
-324.114	-200.000	0.002	0.363
-323.099	-200.000	-0.019	-0.244
-322.085	340.584	0.148	0.285
-321.070	-200.000	-0.015	-0.124
-320.056	77.234	0.136	-0.142
-319.041	505.852	0.099	-0.226
-318.026	81.320	-0.112	-0.119
-317.012	800.000	-0.056	0.178
-315.997	390.624	-0.113	-0.232
-314.983	-200.000	0.060	-0.358
-313.968	88.006	0.166	0.181
-312.953	794.634	-0.036	-0.098
-311.939	-120.238	-0.448	-0.075
-310.924	689.100	0.062	-0.158
-309.910	-200.000	-0.030	-0.130
-308.895	-24.153	-0.252	-0.148
-307.880	-200.000	-0.050	-0.423
-306.866	-51.008	-0.150	0.069
-305.851	800.000	0.071	-0.292
-304.837	-6.240	0.137	-0.092
-303.822	-42.093	-0.132	0.067
-302.807	-200.000	-0.000	-0.073
-301.793	-59.839	-0.069	0.029
-300.778	277.389	-0.045	-0.079
-299.764	19.967	0.283	0.225
-298.749	-200.000	0.007	-0.302
-297.735	-200.000	-0.049	-0.243
-296.720	-133.645	-0.326	0.040
-295.705	628.936	-0.071	0.176
-294.691	-94.174	0.319	0.086
-293.676	-200.000	-0.006	0.133
-292.662	-200.000	0.014	-0.164
-291.647	-141.938	0.086	-0.008
-290.632	-14.757	-0.258	0.163
-289.618	-8.018	0.162	0.107
-288.603	297.164	-0.062	-0.112
-287.589	-11.825	0.278	0.180
-286.574	7.407	0.179	-0.131
-285.559	-200.000	-0.020	-0.182
-284.545	-103.278	0.093	-0.022
-283.530	-120.334	-0.139	0.023
-282.516	-60.327	0.129	-0.054
-281.501	-49.040	0.212	0.100
-280.486	198.748	0.091	0.137
-279.472	-200.000	-0.020	0.182
-278.457	-62.297	-0.293	0.120
-277.443	-98.956	0.178	0.044
-276.428	-113.924	-0.149	0.028
-275.413	-200.000	0.001	-0.353
-274.399	-81.881	-0.322	0.104
-273.384	126.063	0.061	0.075
-272.370	-55.194	0.173	0.076
-271.355	30.400	0.131	0.110
-270.340	-200.000	0.020	-0.204
-269.326	88.643	0.165	-0.180
-268.311	-200.000	0.011	-0.256
-267.297	-70.772	-0.111	0.041
-266.282	-161.646	0.137	0.007
-265.267	-21.854	-0.076	0.045
-264.253	111.426	-0.331	0.391
-263.238	38.794	0.130	-0.114
-262.224	109.389	0.022	-0.026
-261.209	-54.574	0.242	-0.108
-260.195	-49.646	-0.046	0.022
-259.180	628.413	-0.100	-0.248
-258.165	513.927	-0.059	0.136
-257.151	191.796	0.073	-0.108
-256.136	237.512	-0.184	-0.299
-255.122	-74.977	0.198	-0.070
-254.107	800.000	0.120	-0.392
-253.092	-110.336	0.263	-0.054
-252.078	-200.000	0.048	-0.350
-251.063	-133.941	-0.503	-0.061
-250.049	23.740	0.138	-0.111
-249.034	-200.000	0.033	0.147
-248.019	186.923	0.191	-0.279
-247.005	800.000	0.029	-0.109
-245.990	65.154	0.206	0.204
-244.976	800.000	0.089	0.273
-243.961	204.639	-0.112	-0.170
-242.946	578.510	-0.015	0.036
-241.932	690.923	0.042	0.109
-240.917	-83.715	-0.160	0.050
-239.903	279.083	0.239	-0.419
-238.888	-70.307	0.076	0.028
-237.873	53.626	-0.174	-0.163
-236.859	9.987	0.140	-0.104
-235.844	-65.215	-0.115	0.045
-234.830	-200.000	0.031	-0.132
-233.815	214.369	-0.138	-0.215
-232.800	-200.000	-0.006	0.177
-231.786	-200.000	0.044	0.304
-230.771	215.459	0.105	0.163
-229.757	-200.000	0.070	0.341
-228.742	800.000	-0.093	0.298
-227.727	45.975	0.058	0.053
-226.713	434.437	0.100	-0.214
-225.698	-200.000	-0.012	0.252
-224.684	-77.703	-0.136	-0.046
-223.669	37.649	-0.130	0.113
-222.655	688.205	-0.032	-0.081
-221.640	194.109	0.129	0.192
-220.625	-200.000	-0.035	0.293
-219.611	-84.276	0.064	0.020
-218.596	72.098	-0.174	-0.178
-217.582	800.000	0.045	-0.142
-216.567	-200.000	-0.078	-0.514
-215.552	157.356	0.084	-0.113
-214.538	272.205	-0.263	-0.454
-213.523	800.000	0.012	-0.039
-212.509	341.091	-0.042	-0.080
-211.494	146.521	-0.088	0.116
-210.479	-200.000	0.001	-0.118
-209.465	627.687	-0.055	-0.136
-208.450	-17.500	0.247	0.152
-207.436	-153.630	-0.214	0.014
-206.421	-42.513	0.103	0.051
-205.406	113.716	0.116	-0.138
-204.392	-123.512	-0.208	0.032
-203.377	-200.000	-0.007	0.231
-202.363	800.000	-0.060	-0.172
-201.348	-200.000	0.086	-0.000
-200.333	108.477	0.100	0.117
-199.319	800.000	-0.103	-0.286
-198.304	-92.850	-0.152	0.042
-197.290	800.000	-0.091	0.254
-196.275	800.000	0.028	-0.111
-195.260	-200.000	0.036	-0.302
-194.246	231.516	-0.052	0.084
-193.231	333.583	0.110	-0.209
-192.217	185.279	-0.063	-0.091
-191.202	92.856	-0.188	0.208
-190.187	-64.865	0.039	0.015
-189.173	-200.000	0.024	-0.276
-188.158	-200.000	0.045	-0.202
-187.144	426.921	-0.045	0.096
-186.129	-100.872	-0.090	0.022
-185.114	-68.897	0.239	0.090
-184.100	195.443	0.103	-0.153
-183.085	-58.759	0.084	-0.036
-182.071	322.336	-0.100	0.186
-181.056	-164.110	0.266	0.012
-180.042	156.205	0.093	0.125
-179.027	800.000	0.037	0.119
-178.012	-106.208	0.361	0.079
-176.998	-200.000	0.076	0.490
-175.983	-57.483	0.185	-0.079
-174.969	800.000	-0.033	0.112
-173.954	264.476	-0.169	0.288
-172.939	225.663	0.028	0.044
-171.925	262.702	-0.066	0.111
-170.910	118.350	0.155	-0.188
-169.896	176.891	0.125	0.178
-168.881	-200.000	0.012	0.134
-167.866	-116.247	0.265	0.048
-166.852	-112.546	-0.262	0.051
-165.837	276.442	0.168	-0.291
-164.823	-200.000	0.022	0.323
-163.808	111.478	0.051	-0.061
-162.793	-76.541	0.210	-0.072
-161.779	98.048	-0.218	-0.246
-160.764	-200.000	0.030	-0.278
-159.750	-116.897	0.337	0.060
-158.735	150.485	-0.222	0.295
-157.720	32.432	0.177	0.150
-156.706	-200.000	-0.041	-0.207
-155.691	165.106	0.117	-0.161
-154.677	-59.691	-0.299	-0.125
-153.662	82.115	0.196	-0.208
-152.647	205.600	-0.148	-0.224
-151.633	168.528	-0.238	-0.332
-150.618	224.745	0.056	-0.088
-149.604	-79.253	0.205	0.068
-148.589	-107.193	-0.218	-0.047
-147.574	-200.000	0.026	0.337
-146.560	54.418	-0.027	-0.025
-145.545	800.000	0.073	0.204
-144.531	-200.000	-0.016	0.233
-143.516	-111.238	-0.113	0.023
-142.502	-32.239	0.213	0.116
-141.487	-98.476	0.181	0.045
-140.472	48.684	0.162	0.148
-139.458	593.762	-0.071	0.172
-138.443	-200.000	-0.047	0.500
-137.429	-123.700	-0.229	-0.035
-136.414	-61.934	0.080	0.033
-135.399	101.841	-0.195	-0.222
-134.385	-200.000	0.056	-0.245
-133.370	268.300	0.046	-0.079
-132.356	-84.468	-0.293	0.091
-131.341	214.957	0.022	0.034
-130.326	-200.000	0.047	-0.206
-129.312	723.904	-0.096	0.250
-128.297	167.361	-0.087	-0.121
-127.283	-200.000	0.008	0.167
-126.268	-200.000	0.004	0.184
-125.253	-200.000	0.045	0.234
-124.239	-42.045	-0.236	0.118
-123.224	10.788	0.315	0.235
-122.210	-200.000	0.006	-0.072
-121.195	800.000	-0.053	0.168
