DTS Sentinel unit serial number:	SN413079Multiplexer serial number:	ORYXHardware model number:	OX4-SRSoftware version number:	ORYX F/W v4.00 Oryx Data Collector v3.7.2.0data status	okinstallation	princeton_trtdifferential loss correction	single-endedforward channel	channel 2reverse channel	N/Adate	2019/09/12time	14:09:11forward acquisition time	60.00reverse acquisition time	0.00gamma	496.2192k internal	0.2302k external	0.2302temperature offset calibration	1.0081default loss term (dB/km)	0.3790temperature slope calibration	1.0000multiplexer offset coefficient	1.0000multiplexer slope coefficient	1.0000fibre end	0.00T internal ref (°C)	40.39T ext. ref 1 (°C)	2.22T ext. ref 2 (°C)	35.65length (m)	temperature (°C)	Stokes	anti-Stokes-747.200	800.000	-0.071	0.265
-746.185	74.529	-0.169	0.181
-745.171	689.556	-0.058	0.156
-744.156	-200.000	0.063	-0.314
-743.142	-98.764	-0.111	0.029
-742.127	800.000	-0.180	0.536
-741.112	468.776	0.048	-0.110
-740.098	-181.707	-0.239	-0.005
-739.083	-200.000	-0.007	0.093
-738.069	-24.017	0.114	0.069
-737.054	-111.210	-0.437	-0.091
-736.039	2.775	-0.035	-0.026
-735.025	-183.685	-0.155	-0.003
-734.010	294.475	-0.071	-0.132
-732.996	17.148	0.127	0.103
-731.981	292.410	-0.118	-0.220
-730.966	446.183	0.049	-0.109
-729.952	-67.252	0.194	0.078
-728.937	440.734	-0.029	-0.066
-727.923	-200.000	-0.017	0.118
-726.908	-69.824	-0.218	0.085
-725.894	56.079	-0.208	-0.205
-724.879	-36.503	-0.197	0.108
-723.864	-141.640	-0.201	-0.021
-722.850	-20.751	-0.324	0.203
-721.835	-74.832	0.050	0.018
-720.821	148.958	-0.043	0.059
-719.806	-73.577	0.053	0.020
-718.791	170.431	0.117	0.171
-717.777	-52.354	-0.236	0.111
-716.762	-200.000	-0.009	0.180
-715.748	465.636	0.056	0.128
-714.733	51.974	-0.206	-0.200
-713.718	243.092	0.127	0.217
-712.704	-48.876	-0.106	-0.052
-711.689	-200.000	-0.084	0.403
-710.675	160.681	0.154	-0.219
-709.660	-200.000	0.004	-0.033
-708.645	-200.000	-0.034	0.248
-707.631	49.766	-0.240	-0.230
-706.616	17.103	-0.140	0.113
-705.602	-57.496	-0.310	0.138
-704.587	800.000	-0.131	0.386
-703.572	-44.942	-0.291	0.148
-702.558	-43.140	-0.429	-0.221
-701.543	-200.000	-0.002	-0.132
-700.529	373.525	0.173	-0.358
-699.514	22.347	-0.094	-0.078
-698.499	-48.194	-0.117	0.057
-697.485	-89.443	0.183	-0.055
-696.470	-37.114	-0.188	-0.102
-695.456	138.870	-0.182	-0.244
-694.441	-200.000	0.015	-0.081
-693.426	51.634	-0.203	-0.197
-692.412	5.334	0.106	-0.080
-691.397	-98.220	-0.234	-0.061
-690.383	-83.581	-0.081	0.026
-689.368	-67.905	-0.198	0.078
-688.354	63.870	0.219	-0.224
-687.339	789.931	-0.061	0.170
-686.324	348.854	0.042	0.083
-685.310	-92.072	0.315	-0.091
-684.295	644.664	-0.210	-0.545
-683.281	740.543	0.023	0.063
-682.266	61.262	0.062	0.063
-681.251	-200.000	0.020	0.233
-680.237	39.793	0.143	-0.130
-679.222	-37.588	0.246	0.133
-678.208	-54.495	0.084	0.039
-677.193	-116.551	-0.626	0.117
-676.178	-136.646	-0.345	-0.041
-675.164	165.797	0.114	-0.163
-674.149	259.435	-0.080	0.140
-673.135	5.585	0.199	-0.150
-672.120	66.207	-0.156	-0.161
-671.105	-74.314	0.108	-0.040
-670.091	253.582	0.145	0.252
-669.076	-41.424	0.250	0.131
-668.062	-200.000	0.030	-0.187
-667.047	-200.000	-0.008	-0.130
-666.032	189.859	0.070	0.107
-665.018	-72.553	0.128	0.048
-664.003	357.268	-0.085	-0.173
-662.989	375.231	0.115	-0.238
-661.974	-49.145	-0.267	-0.130
-660.959	453.095	-0.118	-0.266
-659.945	492.263	0.092	-0.214
-658.930	276.429	-0.099	-0.179
-657.916	-139.705	0.324	0.035
-656.901	-94.226	0.024	-0.007
-655.886	-200.000	0.023	0.307
-654.872	537.911	0.112	0.270
-653.857	-123.290	0.312	-0.051
-652.843	-200.000	-0.017	-0.408
-651.828	75.202	-0.253	-0.271
-650.814	422.983	-0.198	-0.432
-649.799	-121.621	0.331	-0.056
-648.784	800.000	-0.021	0.078
-647.770	51.659	0.143	-0.138
-646.755	-200.000	0.020	-0.339
-645.741	381.782	0.081	0.170
-644.726	253.837	0.011	0.019
-643.711	113.825	-0.046	0.056
-642.697	-200.000	-0.038	-0.447
-641.682	364.954	0.143	-0.293
-640.668	48.072	-0.090	-0.085
-639.653	-144.907	0.114	-0.011
-638.638	-124.351	0.103	-0.016
-637.624	-73.629	0.342	-0.126
-636.609	100.456	-0.161	-0.189
-635.595	411.335	-0.166	0.358
-634.580	46.803	-0.086	-0.081
-633.565	-33.454	-0.298	-0.167
-632.551	800.000	-0.015	-0.052
-631.536	379.688	0.055	-0.114
-630.522	-102.220	0.177	0.043
-629.507	-117.178	0.162	-0.030
-628.492	142.424	-0.059	0.080
-627.478	-200.000	0.026	0.171
-626.463	-43.175	-0.186	-0.096
-625.449	290.893	-0.111	-0.205
-624.434	-200.000	-0.021	0.222
-623.419	103.297	-0.127	0.151
-622.405	148.843	0.081	0.111
-621.390	-63.278	0.276	0.115
-620.376	191.382	-0.095	0.145
-619.361	21.077	0.384	-0.316
-618.346	-167.995	-0.462	-0.018
-617.332	57.479	-0.117	-0.116
-616.317	271.393	-0.195	0.349
-615.303	-200.000	-0.026	-0.181
-614.288	29.355	-0.162	-0.139
-613.273	120.287	-0.014	-0.017
-612.259	0.445	-0.050	0.036
-611.244	189.270	-0.022	-0.034
-610.230	-21.491	0.312	-0.193
-609.215	-200.000	0.002	-0.150
-608.201	-139.522	0.253	-0.027
-607.186	-200.000	-0.022	0.127
-606.171	173.614	0.067	0.098
-605.157	800.000	-0.045	0.149
-604.142	800.000	-0.066	0.202
-603.128	-126.147	-0.182	0.028
-602.113	61.773	0.125	0.126
-601.098	-110.375	-0.282	0.059
-600.084	-165.569	0.327	0.014
-599.069	-200.000	-0.007	-0.258
-598.055	164.269	-0.111	-0.158
-597.040	-200.000	0.025	-0.145
-596.025	800.000	0.039	-0.163
-595.011	-200.000	-0.020	0.255
-593.996	212.275	0.063	0.100
-592.982	-112.955	-0.163	-0.033
-591.967	800.000	-0.079	0.274
-590.952	53.037	-0.268	0.260
-589.938	610.512	0.111	0.282
-588.923	-106.780	0.008	-0.002
-587.909	219.590	-0.113	-0.183
-586.894	-61.215	0.314	-0.134
-585.879	800.000	0.037	0.104
-584.865	214.862	0.114	0.183
-583.850	223.537	-0.188	0.307
-582.836	2.473	-0.395	-0.290
-581.821	-15.941	-0.097	-0.062
-580.806	-78.117	-0.180	-0.063
-579.792	637.810	-0.168	0.431
-578.777	431.732	0.091	0.199
-577.763	-48.592	0.134	0.065
-576.748	-130.243	0.343	-0.047
-575.733	40.647	0.217	-0.198
-574.719	-44.277	0.405	0.206
-573.704	30.616	0.174	-0.150
-572.690	-76.169	0.246	0.088
-571.675	800.000	0.099	0.362
-570.661	109.467	-0.050	0.061
-569.646	-159.064	-0.406	-0.023
-568.631	800.000	0.060	0.226
-567.617	-109.118	0.304	0.065
-566.602	-200.000	-0.007	-0.140
-565.588	-200.000	-0.009	-0.196
-564.573	-20.394	0.341	0.212
-563.558	-55.042	0.232	-0.106
-562.544	189.141	-0.186	-0.282
-561.529	-79.457	0.211	0.072
-560.515	16.222	0.009	-0.007
-559.500	164.674	-0.198	-0.282
-558.485	-153.877	-0.221	-0.015
-557.471	-96.732	0.044	-0.012
-556.456	800.000	-0.097	0.319
-555.442	45.686	0.098	0.092
-554.427	-110.498	0.077	0.016
-553.412	-142.954	-0.385	-0.038
-552.398	-200.000	-0.015	0.133
-551.383	101.019	0.249	-0.293
-550.369	-200.000	-0.056	0.453
-549.354	-103.868	0.196	0.046
-548.339	308.151	-0.091	-0.171
-547.325	71.439	0.196	0.205
-546.310	-36.182	-0.240	-0.131
-545.296	-66.636	-0.283	0.113
-544.281	-153.613	0.071	-0.005
-543.266	-82.305	-0.391	0.129
-542.252	800.000	0.063	-0.218
-541.237	-97.070	-0.185	0.049
-540.223	-61.407	0.295	-0.125
-539.208	69.732	0.198	-0.207
-538.193	171.118	0.007	-0.010
-537.179	102.024	0.135	-0.160
-536.164	-85.974	0.199	0.062
-535.150	90.305	0.122	0.138
-534.135	135.497	0.154	0.203
-533.121	-91.067	0.198	0.057
-532.106	-113.763	0.050	-0.010
-531.091	89.339	-0.168	0.190
-530.077	242.025	-0.076	0.129
-529.062	-109.427	-0.140	0.030
-528.048	155.029	0.079	0.110
-527.033	13.494	0.236	-0.185
-526.018	-18.460	-0.252	-0.159
-525.004	-121.062	0.238	0.040
-523.989	-178.403	-0.162	0.004
-522.975	-182.925	-0.309	-0.006
-521.960	21.196	0.285	-0.234
-520.945	111.599	0.077	-0.094
-519.931	9.603	-0.085	0.065
-518.916	-200.000	-0.023	-0.135
-517.902	800.000	0.075	-0.301
-516.887	800.000	0.093	-0.261
-515.872	-200.000	0.001	-0.139
-514.858	-21.650	0.193	-0.119
-513.843	41.339	0.169	-0.154
-512.829	-200.000	0.058	0.319
-511.814	4.765	0.202	0.150
-510.799	29.195	-0.185	-0.159
-509.785	-200.000	0.009	-0.079
-508.770	81.590	0.127	0.138
-507.756	23.785	-0.175	0.145
-506.741	158.701	0.149	-0.208
-505.726	-62.665	0.310	-0.130
-504.712	79.065	0.159	-0.172
-503.697	128.389	-0.232	-0.298
-502.683	-200.000	-0.000	0.201
-501.668	-200.000	0.008	0.381
-500.653	-26.006	0.207	-0.123
-499.639	-8.000	-0.151	0.103
-498.624	800.000	-0.051	-0.143
-497.610	94.843	0.086	0.099
-496.595	-75.622	-0.264	0.095
-495.581	-73.384	-0.236	0.087
-494.566	144.869	-0.044	0.060
-493.551	32.952	0.075	0.066
-492.537	-162.613	-0.317	0.016
-491.522	-200.000	-0.002	-0.093
-490.508	-131.604	-0.310	0.041
-489.493	-94.317	-0.116	-0.032
-488.478	-200.000	0.010	0.181
-487.464	372.622	0.014	0.029
-486.449	-76.584	-0.328	0.116
-485.435	-168.042	-0.101	0.004
-484.420	-68.694	-0.393	0.153
-483.405	-115.718	-0.090	-0.017
-482.391	-137.960	0.301	0.034
-481.376	-106.290	-0.232	0.052
-480.362	250.264	-0.133	0.227
-479.347	-200.000	0.039	-0.229
-478.332	309.380	0.036	-0.069
-477.318	35.463	0.122	0.108
-476.303	-9.697	-0.294	0.198
-475.289	13.641	-0.316	-0.247
-474.274	-89.651	-0.063	-0.018
-473.259	-185.215	-0.088	-0.001
-472.245	-126.366	-0.292	-0.044
-471.230	-56.706	-0.300	0.134
-470.216	-9.511	0.140	0.094
-469.201	800.000	0.009	0.028
-468.186	156.726	-0.145	0.202
-467.172	-20.310	-0.292	-0.181
-466.157	-78.080	-0.192	-0.067
-465.143	59.299	-0.133	-0.132
-464.128	-118.675	0.076	0.014
-463.113	-138.359	-0.411	-0.046
-462.099	158.852	0.182	0.255
-461.084	134.557	-0.218	0.286
-460.070	-34.168	-0.165	-0.091
-459.055	524.607	-0.025	0.060
-458.040	47.801	0.101	0.095
-457.026	-146.969	0.142	0.012
-456.011	159.411	0.104	-0.146
-454.997	149.103	-0.067	0.092
-453.982	791.909	-0.053	0.148
-452.968	100.915	0.127	-0.148
-451.953	-116.681	0.214	-0.040
-450.938	-200.000	0.022	-0.343
-449.924	-28.882	0.327	0.189
-448.909	54.169	-0.120	0.117
-447.895	783.438	0.087	-0.240
-446.880	-103.416	-0.374	0.089
-445.865	442.292	-0.086	0.189
-444.851	-119.273	-0.081	0.014
-443.836	18.515	0.490	-0.395
-442.822	223.547	0.161	0.262
-441.807	-56.439	0.173	0.077
-440.792	41.817	0.215	0.196
-439.778	-137.199	-0.166	0.019
-438.763	-200.000	0.055	0.302
-437.749	-173.372	-0.193	-0.006
-436.734	90.199	0.245	-0.276
-435.719	-61.872	0.141	0.060
-434.705	-99.991	-0.220	-0.055
-433.690	615.375	-0.152	-0.383
-432.676	800.000	0.056	-0.176
-431.661	-165.798	0.143	-0.006
-430.646	95.523	-0.011	0.013
-429.632	149.550	0.067	0.092
-428.617	-117.229	0.102	-0.019
-427.603	-200.000	-0.022	-0.339
-426.588	-102.701	-0.539	-0.129
-425.573	-11.183	0.297	0.197
-424.559	800.000	-0.037	-0.123
-423.544	310.635	-0.170	0.321
-422.530	-27.733	-0.114	0.067
-421.515	-105.133	-0.154	-0.035
-420.500	283.367	-0.132	-0.238
-419.486	-28.299	0.133	0.077
-418.471	800.000	0.073	0.206
-417.457	547.183	0.155	0.373
-416.442	169.846	0.163	0.235
-415.428	-200.000	-0.231	0.000
-414.413	80.975	0.289	0.314
-413.398	-78.114	0.236	0.082
-412.384	-196.815	0.229	-0.002
-411.369	66.805	0.193	-0.197
-410.355	119.772	0.356	-0.444
-409.340	-184.354	-0.228	0.004
-408.325	-53.812	-0.171	-0.079
-407.311	-14.933	0.313	-0.202
-406.296	-146.994	0.195	-0.017
-405.282	247.124	0.049	-0.083
-404.267	-200.000	-0.013	0.108
-403.252	-200.000	0.022	0.111
-402.238	-75.856	0.259	-0.092
-401.223	-200.000	0.016	0.155
-400.209	-200.000	-0.006	-0.104
-399.194	-20.603	0.132	-0.081
-398.179	89.448	0.055	-0.061
-397.165	270.239	-0.112	0.199
-396.150	-200.000	-0.013	-0.092
-395.136	-200.000	-0.027	0.248
-394.121	-117.960	0.282	0.051
-393.106	28.020	0.284	-0.240
-392.092	-200.000	0.032	-0.368
-391.077	-112.956	-0.059	-0.012
-390.063	364.551	0.045	0.090
-389.048	90.072	-0.185	-0.208
-388.033	800.000	0.054	0.215
-387.019	70.885	0.246	0.256
-386.004	-15.258	0.036	-0.023
-384.990	138.126	-0.144	-0.189
-383.975	800.000	-0.034	-0.123
-382.960	-137.606	0.330	-0.037
-381.946	59.848	-0.139	-0.138
-380.931	-10.663	-0.115	-0.076
-379.917	800.000	-0.061	0.194
-378.902	-200.000	-0.040	0.196
-377.888	37.134	-0.247	0.219
-376.873	-161.832	0.127	-0.006
-375.858	273.153	0.052	-0.092
-374.844	-26.107	-0.213	0.126
-373.829	-200.000	0.026	0.131
-372.815	140.433	-0.070	-0.093
-371.800	-75.443	0.410	-0.147
-370.785	10.044	0.380	-0.290
-369.771	800.000	-0.049	0.174
-368.756	800.000	-0.089	-0.392
-367.742	-147.626	-0.235	0.020
-366.727	-200.000	-0.006	-0.064
-365.712	57.250	0.061	-0.060
-364.698	-127.407	-0.325	0.048
-363.683	47.488	-0.193	-0.181
-362.669	-31.241	-0.213	-0.121
-361.654	-200.000	-0.007	-0.120
-360.639	67.043	0.224	0.229
-359.625	42.847	0.115	-0.106
-358.610	800.000	0.065	0.191
-357.596	-133.954	-0.094	-0.012
-356.581	-150.234	0.282	-0.022
-355.566	-200.000	0.008	-0.044
-354.552	56.503	-0.233	0.228
-353.537	-149.000	0.164	-0.013
-352.523	-121.113	-0.106	-0.018
-351.508	800.000	-0.080	-0.299
-350.493	-163.474	0.256	0.012
-349.479	444.427	0.111	0.245
-348.464	800.000	-0.094	0.350
-347.450	75.701	-0.101	0.107
-346.435	-64.087	0.052	-0.021
-345.420	-68.294	0.119	-0.046
-344.406	65.777	-0.088	-0.090
-343.391	-175.711	0.073	-0.002
-342.377	-129.341	0.303	0.042
-341.362	161.298	-0.040	0.056
-340.348	-123.609	-0.306	-0.049
-339.333	63.874	-0.093	0.093
-338.318	291.030	-0.055	-0.101
-337.304	800.000	0.088	0.272
-336.289	570.946	0.021	0.050
-335.275	255.557	0.064	-0.111
-334.260	-10.813	-0.108	-0.072
-333.245	26.246	0.073	-0.061
-332.231	-200.000	-0.007	0.325
-331.216	-77.231	0.067	-0.023
-330.202	-83.668	-0.211	-0.067
-329.187	-40.485	0.129	0.067
-328.172	-200.000	-0.022	-0.138
-327.158	800.000	-0.033	-0.121
-326.143	-101.668	0.144	0.035
-325.129	-154.816	-0.394	-0.026
-324.114	800.000	-0.031	-0.107
-323.099	-58.906	0.171	0.074
-322.085	-9.746	0.338	0.226
-321.070	-43.876	0.186	-0.094
-320.056	-3.196	-0.366	-0.256
-319.041	800.000	-0.043	0.149
-318.026	82.807	-0.071	0.077
-317.012	-28.575	0.211	-0.122
-315.997	-136.486	0.207	-0.024
-314.983	-87.745	0.280	0.084
-313.968	-29.728	-0.130	0.074
-312.953	340.461	0.049	-0.097
-311.939	-200.000	-0.045	-0.255
-310.924	-99.523	0.123	0.031
-309.910	196.314	-0.102	-0.156
-308.895	206.971	-0.166	-0.260
-307.880	-200.000	0.043	0.244
-306.866	800.000	0.009	-0.030
-305.851	36.920	0.307	0.272
-304.837	-150.680	-0.153	0.012
-303.822	-200.000	-0.004	-0.187
-302.807	248.061	0.081	0.137
-301.793	657.637	0.089	0.229
-300.778	327.381	0.134	0.257
-299.764	-116.383	-0.203	0.038
-298.749	-200.000	-0.014	-0.353
-297.735	-200.000	0.014	-0.128
-296.720	312.299	-0.123	0.231
-295.705	-200.000	0.007	-0.183
-294.691	163.996	-0.141	0.199
-293.676	79.147	0.049	0.052
-292.662	800.000	0.042	-0.169
-291.647	-127.342	0.263	-0.038
-290.632	71.718	-0.239	-0.249
-289.618	-19.333	0.303	-0.188
-288.603	-44.337	-0.328	0.164
-287.589	2.981	-0.199	0.144
-286.574	-76.193	-0.275	-0.097
-285.559	763.023	0.150	-0.408
-284.545	50.832	0.153	-0.145
-283.530	-200.000	-0.043	0.388
-282.516	-80.067	0.289	0.097
-281.501	-77.230	-0.211	0.073
-280.486	-57.257	-0.241	0.106
-279.472	-1.153	-0.081	0.057
-278.457	200.002	0.169	-0.259
-277.443	-66.097	-0.278	0.111
-276.428	-45.321	0.132	0.066
-275.413	-200.000	0.015	-0.121
-274.399	28.434	-0.058	-0.049
-273.384	417.038	0.021	0.045
-272.370	-128.628	-0.113	0.016
-271.355	316.585	0.036	0.067
-270.340	-200.000	0.030	-0.179
-269.326	-200.000	-0.021	-0.291
-268.311	-132.181	-0.150	-0.019
-267.297	527.893	0.128	-0.303
-266.282	-52.391	-0.122	-0.057
-265.267	-74.171	0.041	-0.015
-264.253	148.645	-0.279	0.378
-263.238	353.699	-0.195	-0.387
-262.224	-65.767	-0.171	0.068
-261.209	-200.000	-0.010	-0.290
-260.195	800.000	-0.129	-0.376
-259.180	-56.189	-0.134	-0.060
-258.165	800.000	0.063	-0.211
-257.151	-107.375	-0.246	-0.054
-256.136	800.000	0.065	0.191
-255.122	133.947	0.215	-0.279
-254.107	425.225	0.049	-0.105
-253.092	295.848	0.075	0.138
-252.078	-61.504	0.018	0.007
-251.063	-141.395	-0.275	-0.028
-250.049	-67.077	0.111	-0.044
-249.034	589.147	0.074	0.182
-248.019	-77.046	-0.351	0.122
-247.005	-165.237	-0.223	0.010
-245.990	-85.321	-0.167	0.052
-244.976	114.164	0.146	-0.178
-243.961	-29.382	0.304	0.174
-242.946	-155.674	0.217	-0.014
-241.932	-73.851	0.297	-0.108
-240.917	800.000	-0.058	-0.188
-239.903	114.635	0.075	-0.092
-238.888	800.000	-0.027	-0.102
-237.873	-200.000	0.029	0.235
-236.859	6.651	-0.136	-0.101
-235.844	-77.476	-0.299	0.104
-234.830	800.000	-0.098	0.300
-233.815	7.519	0.188	0.140
-232.800	402.296	-0.129	0.272
-231.786	-30.966	0.349	0.197
-230.771	-138.642	-0.124	0.014
-229.757	582.808	-0.159	0.390
-228.742	-104.443	-0.152	0.035
-227.727	43.054	0.225	0.205
-226.713	800.000	0.120	-0.478
-225.698	-200.000	-0.041	0.378
-224.684	-200.000	0.037	-0.215
-223.669	-200.000	-0.032	0.202
-222.655	208.045	0.106	0.166
-221.640	-52.252	-0.577	-0.267
-220.625	329.483	-0.122	-0.235
-219.611	-173.282	-0.260	-0.008
-218.596	281.506	0.157	0.281
-217.582	-76.720	0.350	0.122
-216.567	-200.000	-0.036	0.236
-215.552	261.995	-0.094	-0.163
-214.538	-126.125	0.089	0.013
-213.523	-200.000	-0.038	-0.410
-212.509	-101.003	-0.127	0.031
-211.494	72.909	0.078	0.081
-210.479	138.263	-0.132	-0.173
-209.465	-81.417	-0.224	-0.074
-208.450	-52.603	-0.439	0.202
-207.436	14.186	0.126	-0.098
-206.421	-11.236	0.217	0.143
-205.406	-200.000	0.000	-0.047
-204.392	-41.298	0.253	-0.130
-203.377	-128.161	0.382	0.055
-202.363	-143.995	0.230	0.022
-201.348	71.574	-0.200	0.208
-200.333	-130.092	-0.130	-0.018
-199.319	-200.000	0.050	0.232
-198.304	-129.295	-0.295	-0.041
-197.290	800.000	-0.010	-0.033
-196.275	50.401	0.143	0.135
-195.260	-21.591	0.044	-0.027
-194.246	3.842	0.175	-0.127
-193.231	95.926	0.059	-0.068
-192.217	-99.419	-0.168	0.042
-191.202	82.989	-0.145	0.158
-190.187	800.000	-0.045	-0.138
-189.173	-184.378	0.261	0.004
-188.158	-40.952	0.105	0.054
-187.144	236.478	0.143	0.235
-186.129	32.484	0.172	-0.148
-185.114	-104.586	0.269	0.062
-184.100	-11.551	-0.113	0.074
-183.085	-70.633	-0.186	-0.070
-182.071	-0.098	-0.094	0.066
-181.056	-94.349	0.413	-0.112
-180.042	246.810	0.163	-0.275
-179.027	-1.135	-0.126	0.089
-178.012	11.306	-0.237	-0.181
-176.998	-127.586	-0.193	0.028
-175.983	-200.000	0.007	-0.114
-174.969	557.005	-0.093	-0.223
-173.954	-200.000	0.019	0.128
-172.939	-200.000	0.011	-0.255
-171.925	-33.444	0.178	0.098
-170.910	326.332	0.061	-0.116
-169.896	174.639	0.133	-0.192
-168.881	53.195	-0.252	-0.241
-167.866	-77.738	0.209	-0.072
-166.852	-16.858	-0.073	-0.046
-165.837	467.247	0.082	0.184
-164.823	-200.000	-0.008	-0.057
-163.808	-187.424	-0.292	0.004
-162.793	-160.721	0.135	-0.007
-161.779	-88.010	0.024	-0.007
-160.764	503.412	-0.150	0.345
-159.750	-62.935	0.114	-0.047
-158.735	-6.797	-0.182	-0.123
-157.720	623.326	0.093	0.233
-156.706	304.835	0.027	0.049
-155.691	-14.820	0.036	0.023
-154.677	27.962	0.263	0.221
-153.662	-15.723	-0.198	0.126
-152.647	-132.026	-0.216	-0.028
-151.633	219.770	-0.090	0.143
-150.618	-200.000	-0.014	-0.209
-149.604	-69.495	-0.133	0.051
-148.589	-22.223	-0.263	-0.159
-147.574	-200.000	-0.005	0.093
-146.560	-200.000	-0.018	0.086
-145.545	476.383	0.060	-0.135
-144.531	108.844	-0.132	-0.157
-143.516	-200.000	0.025	-0.111
-142.502	-119.652	0.201	-0.035
-141.487	-200.000	0.047	-0.345
-140.472	-166.626	0.295	-0.012
-139.458	165.973	0.136	0.192
-138.443	-42.320	0.218	0.111
-137.429	639.701	-0.052	0.131
-136.414	278.986	0.130	0.231
-135.399	110.754	-0.013	0.016
-134.385	-167.772	0.176	0.007
-133.370	800.000	0.082	-0.333
-132.356	-155.945	-0.267	0.017
-131.341	-200.000	0.054	0.271
-130.326	-200.000	-0.037	-0.190
-129.312	-200.000	-0.006	-0.376
-128.297	623.531	0.112	-0.281
-127.283	-200.000	0.031	0.322
-126.268	-37.550	0.272	0.144
-125.253	-200.000	-0.002	0.055
-124.239	-200.000	-0.019	0.115
-123.224	775.058	-0.088	-0.239
-122.210	14.922	-0.239	-0.186
