DTS Sentinel unit serial number:	SN413079Multiplexer serial number:	ORYXHardware model number:	OX4-SRSoftware version number:	ORYX F/W v4.00 Oryx Data Collector v3.7.2.0data status	okinstallation	princeton_trtdifferential loss correction	single-endedforward channel	channel 2reverse channel	N/Adate	2019/09/18time	00:47:35forward acquisition time	60.00reverse acquisition time	0.00gamma	496.2192k internal	0.2349k external	0.2349temperature offset calibration	0.9991default loss term (dB/km)	0.3790temperature slope calibration	1.0000multiplexer offset coefficient	1.0000multiplexer slope coefficient	1.0000fibre end	0.00T internal ref (°C)	23.37T ext. ref 1 (°C)	0.17T ext. ref 2 (°C)	17.02length (m)	temperature (°C)	Stokes	anti-Stokes-747.200	-81.060	-0.332	0.110
-746.185	179.946	0.083	-0.122
-745.171	303.546	-0.214	0.397
-744.156	-124.447	-0.339	0.053
-743.142	-200.000	0.053	0.353
-742.127	-200.000	0.010	0.270
-741.112	206.675	0.116	0.181
-740.098	-79.047	-0.217	0.074
-739.083	11.285	-0.133	-0.101
-738.069	34.733	-0.207	0.181
-737.054	800.000	-0.142	-0.416
-736.039	-127.337	-0.376	0.055
-735.025	24.823	0.335	0.277
-734.010	-32.786	-0.115	0.064
-732.996	-49.999	0.203	0.096
-731.981	211.425	-0.053	0.084
-730.966	-39.164	-0.376	-0.197
-729.952	800.000	0.059	-0.240
-728.937	-200.000	0.040	-0.210
-727.923	-97.155	-0.253	0.066
-726.908	-64.650	0.187	0.076
-725.894	508.201	-0.103	0.239
-724.879	82.247	-0.190	-0.206
-723.864	-183.550	-0.225	-0.004
-722.850	546.238	-0.141	-0.336
-721.835	-57.183	0.042	-0.019
-720.821	800.000	0.048	0.181
-719.806	800.000	-0.061	0.189
-718.791	-86.924	-0.114	-0.035
-717.777	-200.000	0.072	-0.329
-716.762	-104.563	-0.316	0.073
-715.748	-200.000	-0.028	-0.237
-714.733	800.000	0.093	-0.369
-713.718	-17.312	-0.130	0.082
-712.704	-48.460	0.335	-0.161
-711.689	134.218	0.054	0.070
-710.675	451.965	-0.188	-0.415
-709.660	223.559	-0.068	-0.110
-708.645	-104.932	0.258	-0.059
-707.631	-23.244	0.068	0.041
-706.616	-111.188	0.297	-0.061
-705.602	-112.272	-0.178	0.036
-704.587	-200.000	0.021	0.254
-703.572	414.052	-0.120	-0.254
-702.558	-46.440	0.097	-0.048
-701.543	-92.725	0.420	-0.117
-700.529	-30.583	-0.103	-0.058
-699.514	-17.854	0.281	-0.176
-698.499	-115.990	-0.234	-0.043
-697.485	14.690	-0.071	0.056
-696.470	800.000	-0.059	-0.166
-695.456	-200.000	-0.027	0.140
-694.441	354.556	0.147	0.290
-693.426	-122.569	-0.461	0.075
-692.412	800.000	-0.044	0.134
-691.397	21.927	-0.245	0.199
-690.383	800.000	-0.154	-0.451
-689.368	2.189	0.081	0.058
-688.354	99.642	-0.089	-0.103
-687.339	-200.000	0.017	-0.119
-686.324	-128.374	-0.064	-0.009
-685.310	310.672	-0.151	0.282
-684.295	-56.379	-0.136	0.060
-683.281	260.104	-0.163	0.281
-682.266	-117.966	0.215	-0.038
-681.251	800.000	-0.092	0.386
-680.237	-9.377	-0.049	0.033
-679.222	-114.330	0.049	-0.009
-678.208	296.945	-0.156	0.284
-677.193	-7.801	0.150	-0.101
-676.178	-200.000	-0.042	-0.291
-675.164	-60.862	-0.237	0.100
-674.149	710.727	0.093	-0.246
-673.135	-200.000	-0.002	-0.118
-672.120	-91.587	-0.346	0.098
-671.105	-40.793	-0.194	-0.100
-670.091	-17.121	-0.123	-0.078
-669.076	60.149	0.101	-0.099
-668.062	15.088	0.230	-0.180
-667.047	-91.196	-0.271	-0.077
-666.032	-200.000	-0.001	-0.036
-665.018	7.815	-0.256	-0.191
-664.003	-200.000	0.017	0.237
-662.989	776.095	-0.135	0.367
-661.974	-134.464	0.119	0.015
-660.959	-134.542	0.093	0.011
-659.945	-141.154	-0.233	-0.024
-658.930	23.239	0.161	0.132
-657.916	-200.000	-0.009	-0.125
-656.901	-67.313	-0.077	-0.030
-655.886	-122.503	-0.184	-0.030
-654.872	73.778	0.325	0.339
-653.857	-29.625	0.194	-0.110
-652.843	493.508	0.063	-0.145
-651.828	91.791	-0.078	-0.087
-650.814	-85.398	-0.230	0.071
-649.799	-197.257	0.256	-0.002
-648.784	-120.987	-0.257	-0.043
-647.770	-88.383	0.026	-0.008
-646.755	172.929	0.147	0.211
-645.741	800.000	-0.089	-0.275
-644.726	-200.000	0.034	-0.216
-643.711	43.594	-0.202	-0.183
-642.697	-85.714	-0.158	0.049
-641.682	-88.952	0.123	0.036
-640.668	180.970	0.091	-0.134
-639.653	540.420	-0.102	-0.243
-638.638	658.731	-0.095	-0.242
-637.624	-200.000	-0.001	-0.132
-636.609	100.440	-0.136	-0.157
-635.595	-177.596	0.036	-0.001
-634.580	-30.239	-0.405	-0.229
-633.565	26.685	-0.180	-0.150
-632.551	-41.662	-0.123	-0.063
-631.536	-53.763	0.019	-0.009
-630.522	336.167	-0.031	-0.059
-629.507	-91.078	-0.196	0.056
-628.492	-130.613	-0.136	-0.018
-627.478	-175.188	-0.125	0.003
-626.463	-32.131	0.470	-0.261
-625.449	63.066	0.022	-0.022
-624.434	-169.064	-0.369	-0.014
-623.419	-200.000	0.011	-0.154
-622.405	-69.672	0.336	-0.128
-621.390	-200.000	-0.032	0.142
-620.376	65.016	-0.226	-0.227
-619.361	-200.000	0.040	-0.176
-618.346	-29.956	0.093	-0.053
-617.332	627.939	0.015	-0.037
-616.317	15.885	-0.166	0.130
-615.303	206.827	-0.106	0.164
-614.288	-7.234	0.089	0.060
-613.273	-129.655	-0.159	-0.022
-612.259	-200.000	-0.000	-0.222
-611.244	-200.000	0.028	0.252
-610.230	23.782	0.101	-0.083
-609.215	322.981	0.187	-0.353
-608.201	-5.671	-0.060	0.041
-607.186	800.000	0.016	0.062
-606.171	-49.186	0.134	0.064
-605.157	-182.778	0.123	-0.002
-604.142	179.170	0.053	-0.077
-603.128	4.106	-0.224	-0.163
-602.113	-78.287	-0.251	0.085
-601.098	-45.415	0.270	-0.133
-600.084	36.637	-0.094	0.083
-599.069	-200.000	0.002	-0.019
-598.055	-20.442	-0.151	0.092
-597.040	-200.000	-0.037	-0.163
-596.025	199.433	0.066	0.101
-595.011	40.945	-0.124	-0.111
-593.996	-78.657	0.300	-0.102
-592.982	8.698	-0.189	0.141
-591.967	471.430	0.167	0.374
-590.952	607.840	-0.105	-0.259
-589.938	138.941	0.212	-0.276
-588.923	41.725	0.233	-0.209
-587.909	-57.931	0.194	-0.084
-586.894	-144.989	-0.218	0.020
-585.879	8.616	-0.371	0.277
-584.865	144.236	0.229	0.303
-583.850	-60.104	0.161	0.068
-582.836	-98.258	-0.331	-0.084
-581.821	800.000	-0.076	-0.223
-580.806	-200.000	0.011	-0.233
-579.792	254.286	-0.231	-0.391
-578.777	-135.383	0.203	0.024
-577.763	-78.705	-0.318	-0.108
-576.748	693.848	-0.145	0.377
-575.733	10.668	-0.265	0.200
-574.719	-200.000	0.012	0.250
-573.704	-105.987	0.182	0.041
-572.690	-200.000	-0.238	0.000
-571.675	-200.000	-0.019	-0.090
-570.661	75.412	0.055	-0.058
-569.646	-113.684	0.127	0.025
-568.631	-69.445	-0.213	-0.081
-567.617	800.000	0.097	-0.332
-566.602	-46.489	0.060	-0.029
-565.588	-110.779	-0.282	-0.058
-564.573	-26.944	-0.172	0.099
-563.558	-200.000	-0.024	0.134
-562.544	118.019	-0.123	-0.151
-561.529	-200.000	0.063	-0.310
-560.515	-7.491	-0.170	-0.114
-559.500	-200.000	-0.048	-0.276
-558.485	136.843	0.056	-0.073
-557.471	-26.394	-0.087	-0.051
-556.456	205.024	-0.100	0.153
-555.442	197.025	0.063	0.095
-554.427	-200.000	-0.001	-0.019
-553.412	-137.195	0.221	0.025
-552.398	-157.549	-0.205	0.012
-551.383	-128.333	0.175	-0.025
-550.369	-200.000	-0.051	0.302
-549.354	217.702	-0.230	0.363
-548.339	-71.563	0.063	-0.023
-547.325	178.708	0.099	-0.144
-546.310	-47.480	-0.331	0.160
-545.296	1.978	-0.405	-0.290
-544.281	178.740	0.322	0.466
-543.266	800.000	-0.023	-0.072
-542.252	88.528	-0.126	0.139
-541.237	-123.144	-0.186	-0.030
-540.223	-200.000	-0.002	-0.146
-539.208	-56.985	-0.053	-0.023
-538.193	-90.425	-0.177	0.051
-537.179	-88.865	0.039	-0.012
-536.164	-90.180	-0.156	-0.045
-535.150	-85.390	-0.097	-0.030
-534.135	-56.565	0.147	0.065
-533.121	-200.000	0.018	-0.139
-532.106	-83.727	-0.162	-0.051
-531.091	800.000	-0.075	-0.259
-530.077	-101.211	-0.225	0.054
-529.062	-29.108	-0.089	0.051
-528.048	-80.482	-0.192	0.063
-527.033	-15.966	0.140	0.088
-526.018	36.445	0.173	-0.151
-525.004	261.172	0.068	0.116
-523.989	-22.527	0.141	0.084
-522.975	437.223	0.084	0.180
-521.960	387.384	-0.051	-0.105
-520.945	14.156	0.105	0.081
-519.931	800.000	0.121	0.341
-518.916	-48.413	0.101	-0.048
-517.902	217.069	0.074	0.116
-516.887	96.854	0.147	0.167
-515.872	-109.684	0.231	0.048
-514.858	-172.305	0.211	0.007
-513.843	-200.000	0.007	-0.191
-512.829	800.000	-0.037	-0.105
-511.814	-143.227	-0.568	0.054
-510.799	89.823	-0.079	-0.087
-509.785	-91.047	0.139	-0.039
-508.770	-200.000	-0.047	0.310
-507.756	-200.000	0.017	0.143
-506.741	800.000	-0.070	-0.207
-505.726	-200.000	-0.048	0.346
-504.712	-74.400	0.095	-0.034
-503.697	103.277	-0.157	-0.182
-502.683	51.820	0.204	0.192
-501.668	-26.592	-0.104	0.060
-500.653	153.181	-0.066	0.089
-499.639	-30.242	0.063	-0.035
-498.624	153.327	-0.348	0.472
-497.610	-200.000	0.014	-0.154
-496.595	-38.736	-0.200	-0.105
-495.581	-94.758	-0.145	0.039
-494.566	-137.119	-0.181	-0.020
-493.551	-178.369	-0.219	0.005
-492.537	-158.392	0.272	-0.016
-491.522	100.514	-0.228	-0.262
-490.508	-70.974	0.162	-0.060
-489.493	800.000	-0.019	0.055
-488.478	-11.003	0.372	0.243
-487.464	800.000	-0.093	0.382
-486.449	35.792	-0.043	-0.038
-485.435	800.000	0.103	-0.365
-484.420	448.184	-0.081	0.176
-483.405	13.687	0.095	0.073
-482.391	-95.924	-0.199	-0.053
-481.376	69.499	-0.165	0.168
-480.362	-86.219	-0.220	-0.067
-479.347	-59.472	0.275	0.117
-478.332	87.329	-0.054	-0.059
-477.318	-61.114	0.191	0.080
-476.303	-113.217	-0.044	-0.008
-475.289	273.477	0.058	0.101
-474.274	179.925	0.151	-0.219
-473.259	-200.000	0.042	0.206
-472.245	-29.255	0.291	0.165
-471.230	-200.000	-0.010	-0.102
-470.216	800.000	-0.140	-0.406
-469.201	169.575	-0.134	0.190
-468.186	-65.909	0.070	-0.027
-467.172	-63.658	0.163	-0.066
-466.157	-16.805	-0.238	-0.149
-465.143	-24.849	0.063	-0.037
-464.128	-96.875	0.287	-0.074
-463.113	-85.537	-0.279	-0.086
-462.099	800.000	0.074	0.269
-461.084	-200.000	0.030	0.153
-460.070	-156.485	0.419	0.026
-459.055	-57.285	0.343	0.149
-458.040	67.795	0.195	-0.197
-457.026	-46.910	0.255	-0.123
-456.011	77.080	0.064	0.067
-454.997	115.480	0.220	-0.265
-453.982	44.577	0.057	-0.052
-452.968	-200.000	0.055	0.249
-451.953	-36.505	0.076	0.040
-450.938	-31.415	-0.163	-0.090
-449.924	293.330	-0.078	-0.141
-448.909	54.134	0.346	-0.329
-447.895	-170.205	-0.102	0.004
-446.880	94.429	0.135	0.152
-445.865	267.524	0.086	-0.148
-444.851	-164.568	-0.047	0.002
-443.836	-73.318	0.106	-0.038
-442.822	-49.777	0.175	0.082
-441.807	-35.888	-0.300	-0.160
-440.792	-59.153	-0.177	0.075
-439.778	533.173	-0.024	0.056
-438.763	7.241	0.327	0.241
-437.749	800.000	0.127	-0.372
-436.734	7.035	0.193	-0.142
-435.719	397.077	-0.150	0.309
-434.705	22.074	0.186	-0.150
-433.690	-158.862	0.229	0.013
-432.676	73.589	-0.204	0.211
-431.661	-72.284	-0.135	0.049
-430.646	-90.582	0.147	-0.042
-429.632	14.448	0.171	0.131
-428.617	536.327	-0.111	-0.260
-427.603	-31.295	0.255	0.142
-426.588	163.689	-0.122	0.169
-425.573	-63.923	0.403	0.163
-424.559	-137.796	-0.017	-0.002
-423.544	-200.000	0.015	0.279
-422.530	71.835	-0.385	0.394
-421.515	-200.000	-0.040	0.215
-420.500	28.877	-0.088	-0.074
-419.486	-200.000	-0.009	-0.048
-418.471	1.764	-0.148	0.105
-417.457	58.912	-0.137	0.133
-416.442	800.000	0.039	-0.135
-415.428	-126.840	0.058	0.008
-414.413	-78.126	-0.206	-0.070
-413.398	-200.000	0.022	-0.282
-412.384	-200.000	-0.006	0.310
-411.369	-200.000	0.160	0.000
-410.355	-107.644	-0.185	0.040
-409.340	-34.805	-0.071	0.038
-408.325	-200.000	-0.016	0.244
-407.311	-107.569	-0.347	0.075
-406.296	43.154	0.111	0.100
-405.282	-58.439	0.431	0.185
-404.267	235.489	0.200	0.326
-403.252	61.417	-0.280	0.275
-402.238	-87.139	0.131	-0.039
-401.223	-72.200	-0.196	-0.072
-400.209	-45.434	-0.161	0.079
-399.194	-200.000	0.009	0.132
-398.179	-21.282	-0.222	-0.133
-397.165	117.920	-0.061	0.074
-396.150	-63.618	0.285	-0.115
-395.136	800.000	0.077	0.241
-394.121	-58.996	-0.022	-0.009
-393.106	-200.000	-0.076	0.360
-392.092	-33.957	-0.045	-0.024
-391.077	-22.268	-0.138	-0.082
-390.063	-2.526	-0.450	0.310
-389.048	131.953	-0.098	-0.124
-388.033	368.940	0.137	-0.273
-387.019	-49.921	-0.443	0.207
-386.004	-92.023	-0.202	-0.056
-384.990	-77.376	-0.237	-0.081
-383.975	718.553	0.132	0.345
-382.960	98.741	0.189	-0.215
-381.946	-200.000	-0.010	0.405
-380.931	-200.000	-0.052	-0.236
-379.917	-119.698	0.570	-0.097
-378.902	22.836	-0.093	-0.075
-377.888	-25.538	0.028	-0.016
-376.873	62.089	-0.309	0.303
-375.858	8.048	0.207	0.153
-374.844	132.893	0.118	0.150
-373.829	-171.854	0.165	-0.005
-372.815	800.000	-0.130	-0.381
-371.800	-200.000	0.015	-0.070
-370.785	-109.019	-0.256	-0.054
-369.771	-64.968	-0.169	-0.067
-368.756	-54.704	0.277	0.123
-367.742	-77.463	0.376	0.128
-366.727	-102.526	0.182	-0.043
-365.712	-200.000	-0.036	0.207
-364.698	32.968	-0.218	0.186
-363.683	-148.450	-0.421	-0.034
-362.669	-25.140	0.153	0.089
-361.654	424.672	0.057	0.121
-360.639	-200.000	0.022	-0.295
-359.625	473.882	0.094	-0.208
-358.610	800.000	0.025	-0.085
-357.596	236.375	-0.242	-0.395
-356.581	51.683	0.071	0.066
-355.566	-33.140	0.164	0.089
-354.552	349.597	-0.125	0.244
-353.537	-18.355	0.346	0.213
-352.523	27.841	-0.207	-0.172
-351.508	-200.000	0.046	-0.208
-350.493	-94.559	0.392	0.105
-349.479	-76.175	-0.190	-0.066
-348.464	80.130	0.176	-0.187
-347.450	-63.731	0.169	0.068
-346.435	-86.631	0.141	0.043
-345.420	-13.707	-0.217	0.138
-344.406	3.162	0.568	-0.406
-343.391	226.876	0.142	-0.227
-342.377	800.000	-0.104	-0.291
-341.362	-200.000	-0.019	-0.347
-340.348	218.049	-0.247	0.387
-339.333	281.411	0.032	0.057
-338.318	-109.241	0.252	0.053
-337.304	172.025	-0.136	0.192
-336.289	800.000	-0.091	0.374
-335.275	289.943	0.102	-0.181
-334.260	57.717	0.303	-0.291
-333.245	-36.603	-0.382	-0.202
-332.231	-19.651	0.107	0.065
-331.216	-200.000	-0.026	0.135
-330.202	-78.814	-0.411	-0.138
-329.187	-200.000	0.006	0.101
-328.172	252.624	-0.146	0.245
-327.158	-32.909	0.354	0.193
-326.143	-119.064	0.159	-0.027
-325.129	-200.000	0.053	0.283
-324.114	-200.000	-0.013	0.363
-323.099	133.318	0.121	-0.153
-322.085	-63.926	0.164	-0.066
-321.070	-114.414	0.117	0.022
-320.056	195.326	0.111	-0.166
-319.041	-169.903	-0.514	-0.018
-318.026	-200.000	-0.010	-0.072
-317.012	44.565	-0.281	-0.253
-315.997	-200.000	-0.004	-0.290
-314.983	-200.000	0.008	0.075
-313.968	362.349	-0.194	-0.383
-312.953	-200.000	-0.033	0.474
-311.939	194.373	0.242	-0.360
-310.924	296.887	-0.140	-0.252
-309.910	-200.000	0.012	-0.421
-308.895	-62.570	0.134	-0.055
-307.880	164.951	0.036	-0.050
-306.866	265.851	0.059	0.102
-305.851	-164.889	0.037	-0.002
-304.837	57.329	0.016	0.015
-303.822	-109.513	0.157	-0.033
-302.807	800.000	0.082	-0.342
-301.793	-200.000	0.022	-0.126
-300.778	-200.000	-0.026	-0.218
-299.764	423.449	-0.223	0.471
-298.749	81.583	0.117	-0.124
-297.735	-63.062	-0.096	-0.039
-296.720	10.653	-0.040	-0.030
-295.705	-200.000	-0.015	0.239
-294.691	-41.651	-0.244	-0.123
-293.676	632.288	0.142	0.352
-292.662	-78.036	0.248	-0.084
-291.647	131.280	-0.228	0.288
-290.632	125.945	0.163	-0.202
-289.618	-200.000	-0.019	0.291
-288.603	321.404	-0.137	-0.255
-287.589	39.921	0.327	0.288
-286.574	258.906	0.119	-0.201
-285.559	-140.386	-0.236	0.024
-284.545	-200.000	-0.016	-0.239
-283.530	-106.857	0.071	-0.015
-282.516	257.020	0.071	-0.120
-281.501	-179.264	-0.062	-0.001
-280.486	-90.972	-0.089	-0.025
-279.472	71.075	0.266	-0.271
-278.457	-106.804	-0.262	-0.057
-277.443	-153.840	0.186	0.012
-276.428	-137.246	-0.069	0.008
-275.413	-84.841	0.130	-0.040
-274.399	-65.278	0.449	-0.177
-273.384	-31.287	0.226	-0.125
-272.370	79.860	0.035	0.037
-271.355	52.387	-0.242	-0.226
-270.340	286.377	0.130	-0.230
-269.326	-43.738	0.114	-0.057
-268.311	-200.000	-0.015	0.119
-267.297	364.098	0.162	0.319
-266.282	174.450	0.153	-0.217
-265.267	-4.682	0.187	0.126
-264.253	-200.000	-0.038	-0.216
-263.238	106.232	0.039	0.045
-262.224	-2.089	0.280	0.192
-261.209	76.999	0.173	-0.180
-260.195	-121.091	-0.099	0.016
-259.180	-33.732	0.468	-0.253
-258.165	-200.000	0.026	-0.136
-257.151	28.097	-0.179	0.148
-256.136	-109.624	0.251	-0.052
-255.122	-200.000	-0.007	-0.130
-254.107	-56.673	-0.073	-0.032
-253.092	64.249	-0.217	-0.214
-252.078	-200.000	0.047	-0.283
-251.063	22.570	-0.231	0.185
-250.049	97.629	0.064	0.073
-249.034	285.522	-0.160	0.282
-248.019	26.159	0.187	-0.153
-247.005	107.989	0.128	-0.150
-245.990	-53.240	0.374	0.168
-244.976	391.518	0.108	0.220
-243.961	-200.000	0.017	-0.137
-242.946	78.734	0.023	0.024
-241.932	-138.525	-0.164	0.018
-240.917	-34.239	0.196	0.105
-239.903	49.964	0.071	0.065
-238.888	-64.715	-0.276	-0.109
-237.873	-200.000	0.045	-0.235
-236.859	760.400	-0.044	-0.117
-235.844	-149.097	0.264	-0.021
-234.830	-33.334	0.269	0.146
-233.815	-35.253	0.214	-0.114
-232.800	800.000	0.018	0.067
-231.786	-121.506	0.069	-0.011
-230.771	278.237	0.144	0.252
-229.757	-57.995	0.322	0.138
-228.742	205.606	0.049	0.075
-227.727	-17.643	0.287	0.177
-226.713	800.000	-0.027	-0.072
-225.698	318.523	-0.045	0.084
-224.684	229.706	-0.111	0.177
-223.669	233.224	0.030	0.049
-222.655	86.958	0.089	-0.096
-221.640	800.000	-0.018	0.073
-220.625	-49.858	-0.151	0.070
-219.611	-87.087	0.046	-0.014
-218.596	-10.444	-0.337	-0.219
-217.582	14.625	-0.068	-0.052
-216.567	-200.000	0.019	-0.127
-215.552	327.911	0.097	0.181
-214.538	-200.000	-0.008	0.101
-213.523	267.713	0.056	0.096
-212.509	-11.748	-0.074	0.047
-211.494	-95.533	-0.170	-0.045
-210.479	4.818	-0.018	-0.013
-209.465	-33.766	-0.204	0.110
-208.450	124.030	0.111	0.136
-207.436	121.433	-0.187	-0.227
-206.421	424.357	-0.025	0.052
-205.406	800.000	0.061	0.228
-204.392	9.816	0.196	-0.146
-203.377	-150.782	-0.050	0.004
-202.363	95.581	0.149	-0.166
-201.348	44.023	0.175	0.157
-200.333	524.119	-0.073	-0.167
-199.319	104.931	-0.201	-0.232
-198.304	748.015	-0.070	-0.184
-197.290	648.973	-0.085	-0.213
-196.275	-167.332	-0.158	0.006
-195.260	-172.947	0.112	-0.003
-194.246	800.000	0.109	0.298
-193.231	123.233	0.144	0.177
-192.217	579.192	-0.133	0.319
-191.202	-200.000	-0.025	-0.106
-190.187	124.412	-0.201	-0.247
-189.173	37.261	0.197	0.170
-188.158	-66.664	-0.367	0.142
-187.144	78.931	0.138	0.144
-186.129	2.906	0.348	-0.247
-185.114	800.000	-0.109	0.348
-184.100	-47.335	-0.406	-0.193
-183.085	800.000	-0.021	0.074
-182.071	-17.322	-0.309	-0.190
-181.056	17.423	0.152	0.118
-180.042	-133.466	-0.391	-0.048
-179.027	-126.890	-0.013	-0.002
-178.012	-45.065	-0.102	0.050
-176.998	-132.950	-0.303	-0.038
-175.983	-93.191	0.106	-0.029
-174.969	-64.053	-0.296	-0.118
-173.954	760.465	0.063	0.167
-172.939	-200.000	-0.074	0.369
-171.925	-200.000	0.029	0.274
-170.910	-68.176	-0.279	0.106
-169.896	800.000	0.124	0.421
-168.881	-200.000	-0.030	-0.195
-167.866	100.718	0.040	0.045
-166.852	800.000	0.037	0.141
-165.837	800.000	-0.044	0.119
-164.823	800.000	0.036	-0.150
-163.808	-200.000	0.016	-0.135
-162.793	50.787	-0.097	0.089
-161.779	269.098	0.114	0.196
-160.764	73.692	-0.225	-0.230
-159.750	-200.000	-0.036	0.239
-158.735	800.000	0.054	0.170
-157.720	-67.777	0.254	0.097
-156.706	107.392	-0.178	-0.206
-155.691	800.000	-0.030	0.105
-154.677	800.000	0.083	-0.265
-153.662	66.391	-0.250	0.248
-152.647	-2.526	0.307	0.209
-151.633	-200.000	0.037	-0.211
-150.618	323.724	-0.053	0.099
-149.604	800.000	-0.023	-0.083
-148.589	-141.578	-0.177	0.017
-147.574	5.603	0.268	0.193
-146.560	437.079	-0.136	0.290
-145.545	-87.186	-0.224	-0.066
-144.531	-33.598	0.175	0.094
-143.516	126.840	-0.183	0.226
-142.502	-200.000	0.014	0.130
-141.487	-27.672	0.143	0.081
-140.472	-106.901	0.087	0.019
-139.458	13.330	0.223	0.169
-138.443	-18.607	-0.422	0.257
-137.429	-200.000	0.041	-0.267
-136.414	189.892	0.044	-0.064
-135.399	800.000	-0.023	0.073
-134.385	79.449	-0.124	-0.130
-133.370	800.000	-0.019	0.063
-132.356	-200.000	-0.027	-0.324
-131.341	210.724	-0.152	-0.232
-130.326	-200.000	0.005	-0.306
-129.312	454.387	-0.068	-0.147
-128.297	-75.497	-0.167	0.058
-127.283	767.593	-0.118	0.314
-126.268	-23.934	0.148	0.086
-125.253	-200.000	-0.026	0.261
-124.239	161.541	0.131	0.178
-123.224	-22.560	-0.343	-0.202
-122.210	103.619	0.148	0.169
-121.195	800.000	0.032	0.130
