DTS Sentinel unit serial number:	SN413079Multiplexer serial number:	ORYXHardware model number:	OX4-SRSoftware version number:	ORYX F/W v4.00 Oryx Data Collector v3.7.2.0data status	okinstallation	princeton_trtdifferential loss correction	single-endedforward channel	channel 2reverse channel	N/Adate	2019/09/19time	14:19:34forward acquisition time	60.00reverse acquisition time	0.00gamma	496.2192k internal	0.2325k external	0.2325temperature offset calibration	1.0019default loss term (dB/km)	0.3790temperature slope calibration	1.0000multiplexer offset coefficient	1.0000multiplexer slope coefficient	1.0000fibre end	0.00T internal ref (°C)	31.81T ext. ref 1 (°C)	1.05T ext. ref 2 (°C)	29.20length (m)	temperature (°C)	Stokes	anti-Stokes-747.200	-28.276	0.090	-0.053
-746.185	346.350	0.037	0.073
-745.171	-145.428	0.266	-0.024
-744.156	-200.000	-0.020	0.305
-743.142	-93.972	-0.078	-0.022
-742.127	193.145	-0.161	0.245
-741.112	800.000	0.176	0.524
-740.098	169.064	-0.243	0.349
-739.083	259.168	0.170	0.296
-738.069	-1.830	-0.172	0.122
-737.054	-200.000	0.024	0.108
-736.039	-74.694	-0.294	-0.107
-735.025	-52.485	0.116	-0.054
-734.010	-104.028	0.194	0.046
-732.996	800.000	-0.060	-0.199
-731.981	8.417	0.300	-0.227
-730.966	-200.000	0.038	-0.529
-729.952	-92.416	-0.211	-0.060
-728.937	-123.219	-0.102	-0.016
-727.923	800.000	0.129	-0.394
-726.908	-200.000	-0.005	0.165
-725.894	-40.287	-0.226	0.119
-724.879	43.069	-0.151	-0.139
-723.864	-101.351	0.167	0.041
-722.850	-98.477	0.106	-0.027
-721.835	-200.000	-0.074	-0.336
-720.821	-31.982	0.271	-0.153
-719.806	-131.102	-0.377	-0.051
-718.791	65.440	-0.134	0.137
-717.777	800.000	0.041	0.115
-716.762	222.163	-0.044	0.071
-715.748	146.967	0.104	0.141
-714.733	47.870	-0.417	0.393
-713.718	-2.286	-0.071	-0.050
-712.704	-200.000	0.050	0.391
-711.689	-153.942	-0.208	-0.014
-710.675	-4.345	-0.209	0.145
-709.660	161.231	-0.201	0.283
-708.645	-27.827	-0.186	0.109
-707.631	236.741	0.183	-0.305
-706.616	-200.000	0.039	0.347
-705.602	-29.775	-0.300	-0.172
-704.587	-80.818	0.392	0.131
-703.572	-200.000	0.012	0.115
-702.558	523.751	-0.129	0.307
-701.543	-133.728	0.078	0.010
-700.529	-196.590	-0.176	-0.001
-699.514	-24.896	0.230	-0.137
-698.499	69.000	-0.099	-0.102
-697.485	-200.000	0.003	-0.047
-696.470	-60.801	0.444	-0.189
-695.456	23.840	0.143	-0.119
-694.441	330.325	-0.023	0.045
-693.426	63.664	-0.073	-0.074
-692.412	-53.590	-0.422	0.194
-691.397	570.527	-0.150	-0.367
-690.383	74.901	0.122	0.129
-689.368	330.650	-0.072	0.140
-688.354	39.681	-0.255	-0.231
-687.339	-200.000	-0.051	-0.522
-686.324	396.798	-0.074	-0.156
-685.310	-108.933	0.074	0.016
-684.295	-106.893	0.171	-0.038
-683.281	73.723	0.058	0.061
-682.266	-56.641	-0.234	0.104
-681.251	-119.924	-0.273	-0.047
-680.237	-63.485	-0.034	-0.014
-679.222	151.364	-0.160	0.219
-678.208	-9.677	0.137	0.092
-677.193	-54.693	0.214	0.098
-676.178	-102.979	0.273	-0.065
-675.164	800.000	-0.089	-0.248
-674.149	-112.812	-0.250	-0.050
-673.135	-91.586	0.254	0.073
-672.120	30.345	0.188	-0.162
-671.105	-200.000	-0.059	-0.263
-670.091	-137.480	0.037	-0.004
-669.076	-59.373	0.147	0.064
-668.062	-6.327	0.126	-0.086
-667.047	77.030	-0.223	-0.239
-666.032	-200.000	-0.030	-0.181
-665.018	-46.634	-0.138	0.068
-664.003	205.079	0.056	0.088
-662.989	-57.741	0.088	0.039
-661.974	8.634	0.181	-0.137
-660.959	-60.702	0.164	0.070
-659.945	-27.835	-0.126	0.074
-658.930	-200.000	0.001	-0.179
-657.916	-200.000	0.001	-0.156
-656.901	333.323	-0.188	0.365
-655.886	203.979	-0.232	0.361
-654.872	453.360	0.064	0.142
-653.857	-89.942	-0.101	0.030
-652.843	-25.092	0.164	-0.098
-651.828	-200.000	0.013	0.165
-650.814	476.532	0.124	0.281
-649.799	-147.203	-0.448	-0.038
-648.784	-200.000	-0.067	-0.394
-647.770	800.000	-0.058	-0.191
-646.755	-78.314	-0.137	0.047
-645.741	-200.000	0.011	0.115
-644.726	211.167	0.058	-0.092
-643.711	-69.982	0.311	-0.119
-642.697	89.438	0.230	-0.258
-641.682	35.645	-0.227	-0.200
-640.668	-17.886	0.125	0.079
-639.653	109.829	-0.328	0.396
-638.638	-157.292	-0.084	-0.005
-637.624	59.786	0.062	0.062
-636.609	-200.000	-0.000	0.224
-635.595	-108.608	-0.190	-0.041
-634.580	209.237	0.128	-0.202
-633.565	800.000	0.071	0.237
-632.551	-200.000	0.023	-0.146
-631.536	-200.000	-0.004	-0.265
-630.522	-148.428	0.089	-0.007
-629.507	800.000	-0.085	0.357
-628.492	88.417	-0.070	0.078
-627.478	-200.000	-0.023	-0.256
-626.463	-104.825	-0.230	0.053
-625.449	-94.368	0.242	0.066
-624.434	-155.381	-0.329	0.021
-623.419	548.170	0.150	0.361
-622.405	-200.000	-0.016	-0.114
-621.390	-77.949	0.219	-0.076
-620.376	800.000	0.072	0.260
-619.361	-200.000	0.019	-0.236
-618.346	-93.567	0.091	0.025
-617.332	88.872	-0.196	0.219
-616.317	-19.027	-0.340	-0.212
-615.303	-200.000	0.043	0.203
-614.288	-26.654	-0.263	0.155
-613.273	-19.998	0.136	0.084
-612.259	36.875	0.260	-0.230
-611.244	-200.000	0.003	-0.150
-610.230	5.256	-0.085	-0.063
-609.215	-1.585	0.298	0.211
-608.201	775.657	-0.055	0.151
-607.186	-116.569	-0.281	0.052
-606.171	800.000	-0.078	0.274
-605.157	-148.278	-0.258	-0.021
-604.142	178.246	-0.148	0.216
-603.128	571.229	0.031	-0.076
-602.113	-200.000	-0.087	-0.388
-601.098	-200.000	-0.003	0.018
-600.084	-151.512	0.246	0.018
-599.069	-62.688	0.224	-0.093
-598.055	-11.885	0.274	-0.181
-597.040	692.304	0.100	0.262
-596.025	143.742	0.016	-0.021
-595.011	800.000	-0.106	-0.368
-593.996	15.969	-0.007	0.005
-592.982	-48.703	0.213	-0.103
-591.967	800.000	0.081	-0.230
-590.952	319.306	0.104	0.198
-589.938	-133.128	-0.109	0.014
-588.923	-156.071	-0.220	0.014
-587.909	-47.129	-0.212	-0.104
-586.894	-200.000	-0.002	0.258
-585.879	33.869	-0.197	0.172
-584.865	-121.767	-0.195	-0.032
-583.850	135.273	0.011	-0.015
-582.836	-200.000	-0.059	-0.297
-581.821	800.000	0.118	-0.405
-580.806	4.829	0.287	0.212
-579.792	-88.807	0.158	0.047
-578.777	-1.161	-0.093	-0.066
-577.763	91.721	0.195	-0.220
-576.748	83.696	0.171	0.187
-575.733	-183.067	-0.279	0.005
-574.719	70.284	-0.168	-0.174
-573.704	-200.000	-0.009	-0.261
-572.690	800.000	-0.152	-0.469
-571.675	-48.431	0.245	-0.118
-570.661	-38.833	-0.228	-0.121
-569.646	-151.017	0.105	0.008
-568.631	428.046	0.063	0.136
-567.617	284.793	0.038	-0.068
-566.602	-115.687	0.082	0.015
-565.588	-133.284	-0.315	0.040
-564.573	-156.347	-0.140	-0.009
-563.558	-63.681	-0.288	-0.118
-562.544	679.912	-0.011	0.028
-561.529	-200.000	0.015	-0.146
-560.515	3.108	-0.257	-0.187
-559.500	-104.798	-0.576	-0.133
-558.485	295.502	-0.110	-0.203
-557.471	17.819	0.261	0.209
-556.456	273.669	-0.233	-0.412
-555.442	-79.969	0.264	0.089
-554.427	-51.568	-0.091	0.042
-553.412	-200.000	-0.028	-0.225
-552.398	-200.000	-0.030	-0.175
-551.383	106.850	0.095	-0.113
-550.369	800.000	-0.077	-0.299
-549.354	-200.000	-0.001	-0.414
-548.339	-200.000	-0.011	0.073
-547.325	-28.763	-0.138	-0.079
-546.310	413.812	0.142	-0.303
-545.296	1.502	-0.010	0.007
-544.281	-200.000	-0.022	-0.174
-543.266	284.572	-0.084	0.152
-542.252	-113.487	-0.256	0.050
-541.237	67.224	0.081	-0.082
-540.223	98.510	0.080	0.093
-539.208	18.679	0.085	0.068
-538.193	46.328	0.027	0.026
-537.179	-94.843	-0.205	0.056
-536.164	189.314	-0.060	-0.090
-535.150	-117.501	-0.250	0.045
-534.135	-106.427	0.343	-0.077
-533.121	-123.464	0.290	-0.046
-532.106	-121.423	0.148	0.025
-531.091	800.000	-0.058	0.232
-530.077	-85.315	0.024	-0.008
-529.062	-59.901	-0.138	-0.059
-528.048	-110.874	0.274	0.056
-527.033	-1.078	0.173	-0.122
-526.018	44.732	-0.135	-0.125
-525.004	97.752	0.231	0.266
-523.989	1.903	-0.118	0.085
-522.975	-141.716	0.051	0.005
-521.960	226.658	-0.104	0.170
-520.945	800.000	-0.096	0.334
-519.931	-34.645	0.130	0.071
-518.916	85.799	0.056	-0.061
-517.902	-200.000	0.002	-0.102
-516.887	188.394	-0.133	0.199
-515.872	347.814	-0.155	0.306
-514.858	62.813	0.096	0.096
-513.843	-12.941	-0.083	0.054
-512.829	800.000	-0.082	-0.321
-511.814	-40.995	-0.094	0.048
-510.799	131.779	-0.128	-0.165
-509.785	-114.394	0.294	0.057
-508.770	63.894	-0.162	-0.163
-507.756	800.000	0.186	-0.577
-506.741	210.321	-0.133	-0.209
-505.726	-55.284	-0.201	-0.090
-504.712	-200.000	0.004	0.072
-503.697	62.497	0.163	0.163
-502.683	-44.371	-0.358	-0.179
-501.668	180.824	0.152	0.223
-500.653	800.000	-0.045	0.137
-499.639	-19.591	0.210	-0.130
-498.624	-200.000	0.012	0.235
-497.610	-192.015	0.522	0.005
-496.595	-137.413	0.260	-0.029
-495.581	117.095	-0.054	-0.067
-494.566	-200.000	0.001	0.264
-493.551	-142.064	0.502	0.050
-492.537	800.000	-0.041	-0.143
-491.522	-200.000	0.004	0.299
-490.508	-144.959	0.311	-0.028
-489.493	-119.670	-0.220	0.038
-488.478	-200.000	-0.039	0.312
-487.464	-111.244	-0.071	0.015
-486.449	265.553	0.083	-0.144
-485.435	-200.000	-0.002	0.377
-484.420	17.297	-0.294	0.233
-483.405	-181.204	0.583	0.012
-482.391	800.000	0.113	-0.404
-481.376	-200.000	0.010	-0.077
-480.362	159.906	0.109	-0.152
-479.347	452.644	0.098	-0.215
-478.332	-112.250	-0.323	0.065
-477.318	-42.226	0.148	0.076
-476.303	23.757	0.200	-0.165
-475.289	800.000	-0.111	-0.305
-474.274	217.403	0.136	0.216
-473.259	1.205	0.221	0.159
-472.245	364.839	-0.069	-0.139
-471.230	-188.446	0.261	0.003
-470.216	2.324	0.276	-0.200
-469.201	-83.031	0.273	-0.088
-468.186	800.000	0.144	-0.559
-467.172	800.000	0.074	0.259
-466.157	62.084	-0.014	0.014
-465.143	342.531	-0.014	-0.027
-464.128	729.275	-0.149	-0.396
-463.113	-122.559	-0.042	0.007
-462.099	116.408	0.092	0.112
-461.084	-87.502	0.059	0.018
-460.070	213.926	0.218	0.344
-459.055	19.549	0.064	0.051
-458.040	-200.000	-0.020	0.093
-457.026	77.248	-0.225	0.238
-456.011	-89.070	-0.127	0.038
-454.997	-68.100	0.129	0.050
-453.982	-45.827	0.207	-0.102
-452.968	-2.005	-0.144	0.101
-451.953	36.780	-0.151	0.133
-450.938	-73.501	0.056	-0.020
-449.924	-20.476	-0.173	-0.106
-448.909	-62.603	0.073	-0.030
-447.895	232.818	0.063	0.104
-446.880	-200.000	0.046	-0.208
-445.865	73.412	-0.204	0.213
-444.851	83.398	-0.059	0.064
-443.836	316.063	0.226	-0.425
-442.822	258.368	0.175	-0.300
-441.807	-121.069	-0.323	0.054
-440.792	38.647	-0.122	-0.109
-439.778	164.137	-0.057	-0.080
-438.763	-200.000	-0.040	-0.273
-437.749	316.807	-0.080	-0.150
-436.734	361.414	0.085	0.171
-435.719	-140.117	-0.158	-0.017
-434.705	76.773	-0.103	0.109
-433.690	-65.889	0.275	0.110
-432.676	-200.000	0.020	0.097
-431.661	-200.000	-0.004	0.165
-430.646	140.827	0.134	0.177
-429.632	85.977	0.128	0.140
-428.617	361.351	0.048	-0.096
-427.603	-200.000	0.013	-0.084
-426.588	800.000	0.050	0.176
-425.573	800.000	-0.051	0.158
-424.559	-123.690	0.080	0.013
-423.544	-31.549	0.209	-0.117
-422.530	-27.491	-0.208	0.120
-421.515	45.084	-0.222	0.204
-420.500	-94.758	0.166	0.045
-419.486	800.000	-0.049	0.182
-418.471	-149.104	-0.295	0.024
-417.457	-69.084	0.091	0.035
-416.442	72.806	-0.197	0.205
-415.428	0.805	-0.190	0.135
-414.413	-9.226	-0.243	-0.162
-413.398	-98.651	-0.255	-0.065
-412.384	-200.000	-0.004	-0.184
-411.369	187.193	-0.231	-0.343
-410.355	-119.524	0.176	0.030
-409.340	13.304	0.080	0.062
-408.325	-117.329	0.068	0.012
-407.311	-200.000	-0.036	0.278
-406.296	-38.807	-0.216	0.114
-405.282	393.088	-0.061	0.127
-404.267	-34.521	-0.164	0.089
-403.252	-54.279	-0.268	0.121
-402.238	88.462	0.120	0.132
-401.223	-163.516	0.228	0.011
-400.209	34.467	0.305	0.265
-399.194	800.000	-0.008	-0.031
-398.179	-28.240	-0.205	0.118
-397.165	96.869	-0.057	0.066
-396.150	-140.711	0.140	0.014
-395.136	-200.000	-0.010	0.142
-394.121	452.912	-0.130	-0.287
-393.106	84.834	-0.143	0.156
-392.092	-22.401	0.042	0.025
-391.077	-31.976	0.087	0.048
-390.063	-39.888	0.120	-0.062
-389.048	109.487	-0.081	0.096
-388.033	700.869	0.153	0.402
-387.019	-74.501	-0.255	-0.091
-386.004	-46.461	-0.134	0.065
-384.990	-10.220	0.255	0.168
-383.975	334.255	0.015	-0.030
-382.960	571.138	-0.065	0.156
-381.946	71.884	0.131	0.135
-380.931	40.173	-0.086	0.077
-379.917	120.436	0.053	0.066
-378.902	10.190	0.231	0.175
-377.888	62.562	0.160	-0.159
-376.873	-160.085	-0.514	-0.028
-375.858	-96.123	0.296	0.078
-374.844	-45.558	0.101	0.050
-373.829	58.972	-0.216	-0.211
-372.815	800.000	-0.053	-0.213
-371.800	307.335	-0.166	0.307
-370.785	40.673	0.067	-0.060
-369.771	180.070	0.085	0.124
-368.756	311.740	-0.083	0.155
-367.742	-65.488	0.091	0.036
-366.727	6.742	0.387	-0.287
-365.712	-47.352	-0.243	-0.118
-364.698	112.112	-0.089	-0.107
-363.683	35.495	0.215	0.188
-362.669	-200.000	-0.046	0.200
-361.654	-168.149	-0.258	-0.010
-360.639	-67.408	0.187	0.073
-359.625	96.546	0.090	-0.102
-358.610	108.810	-0.160	0.190
-357.596	162.396	-0.043	-0.059
-356.581	-29.469	0.168	0.095
-355.566	65.194	-0.135	-0.135
-354.552	250.344	-0.159	-0.268
-353.537	-200.000	-0.045	0.266
-352.523	-94.779	0.011	-0.003
-351.508	-200.000	-0.085	-0.595
-350.493	-76.901	-0.118	0.041
-349.479	-200.000	-0.018	0.130
-348.464	-131.517	0.366	0.048
-347.450	-55.698	-0.267	0.119
-346.435	-144.020	0.158	0.015
-345.420	171.003	0.143	-0.204
-344.406	-152.918	-0.128	-0.009
-343.391	-24.772	-0.074	-0.044
-342.377	-5.631	0.114	-0.078
-341.362	-200.000	0.018	-0.143
-340.348	-23.541	-0.166	0.099
-339.333	272.273	-0.129	0.226
-338.318	47.024	-0.128	0.118
-337.304	-98.725	-0.247	0.063
-336.289	-114.575	0.537	-0.102
-335.275	-0.984	0.219	-0.154
-334.260	-25.063	0.169	0.100
-333.245	-30.888	0.231	-0.130
-332.231	447.171	0.028	-0.062
-331.216	-200.000	0.003	0.093
-330.202	-200.000	0.061	0.281
-329.187	-65.162	-0.228	0.091
-328.172	-200.000	0.017	-0.251
-327.158	6.334	0.299	-0.220
-326.143	162.291	-0.200	-0.279
-325.129	42.889	0.230	0.208
-324.114	800.000	0.047	-0.137
-323.099	-78.630	0.230	-0.078
-322.085	-200.000	0.028	-0.345
-321.070	121.197	0.064	-0.079
-320.056	800.000	0.067	0.216
-319.041	-116.545	0.237	-0.043
-318.026	259.633	-0.199	-0.340
-317.012	-200.000	0.012	-0.296
-315.997	499.611	-0.064	-0.147
-314.983	-200.000	0.002	-0.130
-313.968	-86.477	0.329	-0.100
-312.953	169.960	0.075	0.106
-311.939	-20.401	-0.210	-0.128
-310.924	-9.483	-0.111	-0.074
-309.910	-200.000	0.019	0.187
-308.895	-48.726	-0.379	-0.181
-307.880	-200.000	-0.003	0.187
-306.866	93.934	0.134	-0.151
-305.851	-21.696	-0.056	-0.034
-304.837	45.496	0.270	-0.248
-303.822	800.000	0.063	0.245
-302.807	800.000	-0.097	0.345
-301.793	-101.482	0.091	-0.022
-300.778	8.898	-0.165	0.124
-299.764	800.000	-0.062	-0.243
-298.749	-181.615	-0.185	-0.004
-297.735	-200.000	0.013	0.378
-296.720	-103.957	-0.266	0.062
-295.705	-186.972	0.341	0.005
-294.691	-137.748	0.188	-0.021
-293.676	135.215	-0.088	-0.114
-292.662	-72.719	-0.141	0.051
-291.647	-200.000	-0.008	0.054
-290.632	-200.000	0.044	0.238
-289.618	-71.498	-0.137	-0.051
-288.603	149.096	0.105	0.140
-287.589	-138.507	-0.194	-0.021
-286.574	-200.000	0.008	0.184
-285.559	80.601	-0.191	-0.204
-284.545	-7.122	-0.208	-0.140
-283.530	-111.183	0.426	0.086
-282.516	-200.000	-0.021	0.161
-281.501	2.368	-0.082	0.059
-280.486	-147.203	-0.242	0.020
-279.472	-62.541	-0.186	-0.077
-278.457	-130.645	0.168	-0.022
-277.443	-81.438	0.480	0.157
-276.428	2.513	-0.252	-0.181
-275.413	-121.691	-0.129	0.021
-274.399	-174.111	0.282	-0.008
-273.384	-110.520	0.302	-0.062
-272.370	-169.112	0.129	-0.005
-271.355	643.951	0.048	0.122
-270.340	-200.000	-0.049	0.223
-269.326	-41.822	0.081	0.041
-268.311	-200.000	-0.046	0.296
-267.297	386.461	0.131	0.269
-266.282	0.779	-0.240	0.170
-265.267	-13.470	0.212	-0.136
-264.253	-46.757	-0.101	-0.049
-263.238	12.183	-0.085	0.064
-262.224	-200.000	-0.013	0.143
-261.209	228.348	0.159	0.257
-260.195	471.426	0.092	0.205
-259.180	26.697	-0.058	0.048
-258.165	-80.748	-0.540	-0.178
-257.151	257.416	0.060	0.103
-256.136	-131.834	0.376	0.049
-255.122	-119.496	-0.119	-0.020
-254.107	134.161	-0.153	0.196
-253.092	-108.948	0.104	0.022
-252.078	800.000	-0.031	0.093
-251.063	-200.000	0.038	-0.297
-250.049	-200.000	0.037	-0.176
-249.034	-2.171	0.241	0.167
-248.019	46.023	-0.111	-0.102
-247.005	-200.000	-0.000	-0.218
-245.990	414.029	0.067	0.142
-244.976	-118.285	0.311	0.055
-243.961	123.247	0.100	0.124
-242.946	315.732	-0.115	0.215
-241.932	-47.597	0.176	0.084
-240.917	-64.471	0.158	0.063
-239.903	137.409	0.100	0.130
-238.888	-200.000	-0.243	0.000
-237.873	-84.593	0.313	-0.098
-236.859	-200.000	-0.007	-0.322
-235.844	-200.000	0.016	-0.349
-234.830	477.148	0.146	-0.326
-233.815	-2.712	0.096	0.067
-232.800	468.250	-0.100	-0.222
-231.786	-120.135	-0.292	-0.049
-230.771	-102.198	0.070	-0.017
-229.757	604.828	-0.138	-0.340
-228.742	-47.111	0.140	-0.067
-227.727	800.000	0.097	-0.324
-226.713	800.000	-0.065	0.179
-225.698	800.000	0.057	-0.163
-224.684	-61.880	0.274	0.114
-223.669	281.363	0.084	0.149
-222.655	103.155	0.117	-0.136
-221.640	-104.773	-0.177	-0.040
-220.625	-200.000	0.013	0.323
-219.611	-200.000	-0.060	0.352
-218.596	666.992	0.073	0.187
-217.582	-200.000	-0.016	0.098
-216.567	139.771	0.142	-0.185
-215.552	-70.225	-0.100	0.038
-214.538	800.000	0.101	0.325
-213.523	-90.088	-0.249	-0.072
-212.509	-102.077	-0.407	-0.097
-211.494	13.359	-0.193	0.148
-210.479	298.760	0.019	0.034
-209.465	-103.845	-0.283	-0.065
-208.450	183.075	0.207	0.301
-207.436	-48.834	0.061	-0.029
-206.421	59.867	0.096	0.093
-205.406	-200.000	-0.015	0.236
-204.392	-200.000	0.018	0.277
-203.377	-64.710	-0.187	-0.075
-202.363	348.352	0.120	-0.233
-201.348	263.778	0.076	-0.130
-200.333	9.333	-0.201	0.150
-199.319	-156.261	0.153	0.009
-198.304	154.811	0.226	0.307
-197.290	255.721	0.046	0.078
-196.275	182.888	0.075	0.109
-195.260	733.673	0.112	0.296
-194.246	251.676	-0.067	0.113
-193.231	800.000	0.100	-0.292
-192.217	800.000	-0.041	-0.140
-191.202	-106.232	-0.141	-0.031
-190.187	-124.844	-0.207	0.032
-189.173	171.032	-0.167	-0.237
-188.158	-96.412	0.200	-0.052
-187.144	-38.180	-0.099	-0.052
-186.129	-200.000	-0.059	0.367
-185.114	36.189	-0.212	-0.184
-184.100	68.547	0.028	0.029
-183.085	-124.753	-0.196	0.030
-182.071	-188.714	-0.140	0.002
-181.056	-200.000	0.014	-0.096
-180.042	464.856	0.057	0.125
-179.027	-37.454	-0.098	-0.051
-178.012	-200.000	0.006	0.149
-176.998	-200.000	0.047	0.204
-175.983	-56.374	0.051	-0.022
-174.969	-200.000	-0.039	-0.514
-173.954	-180.026	-0.477	0.010
-172.939	-42.471	0.228	0.115
-171.925	-200.000	0.017	-0.171
-170.910	-144.400	-0.327	-0.030
-169.896	257.815	-0.067	-0.115
-168.881	-60.277	-0.132	-0.055
-167.866	-177.699	0.419	-0.010
-166.852	800.000	-0.082	-0.233
-165.837	23.295	-0.181	-0.147
-164.823	-64.526	-0.165	-0.066
-163.808	-21.772	-0.048	0.029
-162.793	-92.311	0.345	0.096
-161.779	-200.000	0.005	0.201
-160.764	-114.779	-0.218	0.041
-159.750	297.290	-0.251	-0.455
-158.735	-41.553	0.339	-0.172
-157.720	-200.000	0.048	0.314
-156.706	156.705	0.069	-0.095
-155.691	-110.888	-0.332	0.067
-154.677	-200.000	0.058	0.368
-153.662	135.193	-0.042	0.054
-152.647	-125.769	0.099	-0.015
-151.633	292.871	-0.012	0.022
-150.618	143.744	-0.089	0.117
-149.604	-107.368	-0.044	-0.010
-148.589	-92.382	0.362	-0.100
-147.574	800.000	0.093	0.289
-146.560	168.261	-0.117	0.164
-145.545	-120.477	0.252	-0.042
-144.531	34.180	0.111	0.096
-143.516	-102.879	-0.120	-0.028
-142.502	-200.000	0.001	-0.182
-141.487	-181.150	-0.185	-0.004
-140.472	-121.989	-0.112	0.018
-139.458	327.471	0.036	-0.068
-138.443	60.412	-0.028	-0.028
-137.429	12.548	-0.091	0.069
-136.414	-200.000	0.023	0.320
-135.399	800.000	-0.028	-0.122
-134.385	537.295	-0.055	0.129
-133.370	800.000	-0.120	-0.391
-132.356	191.082	-0.098	0.145
-131.341	-200.000	-0.004	-0.239
-130.326	68.113	-0.197	0.198
-129.312	-81.733	0.312	-0.101
-128.297	145.330	-0.043	0.057
-127.283	17.802	-0.277	-0.217
-126.268	800.000	0.062	-0.227
-125.253	43.448	-0.261	-0.235
-124.239	231.524	-0.064	0.103
-123.224	-200.000	0.042	0.350
-122.210	99.917	-0.124	-0.142
-121.195	-81.899	-0.091	0.029
