DTS Sentinel unit serial number:	SN413079Multiplexer serial number:	ORYXHardware model number:	OX4-SRSoftware version number:	ORYX F/W v4.00 Oryx Data Collector v3.7.2.0data status	okinstallation	princeton_trtdifferential loss correction	single-endedforward channel	channel 2reverse channel	N/Adate	2019/09/17time	23:35:35forward acquisition time	60.00reverse acquisition time	0.00gamma	496.2192k internal	0.2349k external	0.2349temperature offset calibration	0.9985default loss term (dB/km)	0.3790temperature slope calibration	1.0000multiplexer offset coefficient	1.0000multiplexer slope coefficient	1.0000fibre end	0.00T internal ref (°C)	24.19T ext. ref 1 (°C)	0.17T ext. ref 2 (°C)	17.55length (m)	temperature (°C)	Stokes	anti-Stokes-747.200	-1.185	0.427	-0.301
-746.185	800.000	-0.138	0.426
-745.171	313.383	-0.258	0.485
-744.156	800.000	0.090	0.367
-743.142	131.790	0.135	-0.173
-742.127	-200.000	0.001	0.321
-741.112	-88.363	0.096	0.029
-740.098	-35.719	-0.186	-0.101
-739.083	-45.373	-0.273	-0.135
-738.069	-200.000	0.028	0.163
-737.054	800.000	-0.081	-0.315
-736.039	89.104	-0.284	0.316
-735.025	-35.458	0.077	-0.042
-734.010	-200.000	-0.003	-0.087
-732.996	-200.000	0.045	0.253
-731.981	-200.000	-0.003	-0.076
-730.966	-200.000	0.016	0.198
-729.952	85.785	0.320	0.351
-728.937	-131.240	0.346	0.046
-727.923	-200.000	0.000	0.017
-726.908	800.000	-0.065	-0.182
-725.894	79.363	-0.138	-0.147
-724.879	-200.000	0.110	-0.485
-723.864	111.027	0.207	0.249
-722.850	-200.000	0.045	-0.249
-721.835	-75.065	-0.152	-0.054
-720.821	482.383	0.098	-0.223
-719.806	-200.000	0.003	-0.396
-718.791	-116.714	-0.399	-0.073
-717.777	-146.262	0.360	-0.032
-716.762	-86.814	-0.225	-0.069
-715.748	309.442	-0.087	-0.162
-714.733	45.700	-0.051	-0.047
-713.718	-200.000	-0.100	-0.454
-712.704	629.007	-0.063	0.160
-711.689	-114.466	0.145	-0.028
-710.675	-56.683	0.231	-0.102
-709.660	800.000	0.101	0.295
-708.645	-58.863	0.249	-0.107
-707.631	-11.025	0.278	-0.183
-706.616	-167.111	-0.180	0.007
-705.602	319.133	0.048	-0.091
-704.587	-60.559	-0.202	0.085
-703.572	-94.396	-0.099	0.027
-702.558	-38.733	0.304	-0.160
-701.543	-127.041	0.370	0.054
-700.529	-108.531	-0.083	-0.018
-699.514	-166.355	0.384	-0.016
-698.499	166.016	-0.209	0.295
-697.485	9.856	-0.152	-0.115
-696.470	367.211	-0.048	0.097
-695.456	35.220	0.156	0.136
-694.441	800.000	-0.063	-0.247
-693.426	800.000	-0.021	-0.069
-692.412	-200.000	-0.042	-0.206
-691.397	-11.461	-0.023	-0.015
-690.383	-106.653	-0.395	0.088
-689.368	-200.000	-0.011	0.084
-688.354	800.000	-0.075	-0.274
-687.339	-198.153	0.066	0.000
-686.324	800.000	0.029	-0.091
-685.310	267.783	-0.185	0.323
-684.295	-102.632	0.151	-0.036
-683.281	94.317	0.119	-0.135
-682.266	-40.032	0.281	-0.146
-681.251	-90.915	-0.098	0.028
-680.237	657.034	-0.083	-0.212
-679.222	-200.000	0.039	0.177
-678.208	-11.778	0.111	-0.073
-677.193	280.308	0.154	0.275
-676.178	-200.000	-0.005	-0.120
-675.164	-99.064	0.231	-0.058
-674.149	132.007	0.076	0.098
-673.135	-200.000	-0.033	0.235
-672.120	1.783	-0.336	-0.241
-671.105	-7.511	0.180	-0.121
-670.091	-58.143	0.277	-0.120
-669.076	800.000	-0.071	0.218
-668.062	67.282	0.063	0.064
-667.047	-144.861	0.125	0.011
-666.032	315.208	-0.271	-0.509
-665.018	-200.000	0.015	-0.064
-664.003	800.000	-0.002	-0.006
-662.989	113.898	0.062	0.075
-661.974	-78.541	-0.354	-0.121
-660.959	376.153	-0.169	-0.344
-659.945	196.999	-0.199	0.302
-658.930	30.729	0.175	-0.149
-657.916	-191.393	-0.158	-0.002
-656.901	-108.799	0.194	0.041
-655.886	242.525	-0.045	-0.076
-654.872	200.638	0.190	0.291
-653.857	800.000	0.084	-0.273
-652.843	338.036	-0.023	0.044
-651.828	614.647	0.126	-0.315
-650.814	-94.279	0.088	0.024
-649.799	-107.402	-0.140	-0.031
-648.784	427.933	-0.207	-0.444
-647.770	206.815	0.163	-0.253
-646.755	130.824	0.056	0.072
-645.741	-200.000	0.000	-0.195
-644.726	-23.257	-0.367	-0.220
-643.711	-77.132	0.206	-0.071
-642.697	-200.000	0.006	0.201
-641.682	-200.000	0.004	0.031
-640.668	19.320	-0.137	-0.110
-639.653	-200.000	0.029	0.234
-638.638	-134.436	0.226	-0.028
-637.624	-36.705	-0.269	-0.144
-636.609	133.564	0.108	0.138
-635.595	757.220	0.051	-0.137
-634.580	120.081	-0.092	-0.114
-633.565	-144.113	-0.277	-0.026
-632.551	71.378	-0.320	0.331
-631.536	209.980	0.101	-0.158
-630.522	-87.699	-0.330	-0.099
-629.507	338.253	0.117	-0.227
-628.492	-13.404	0.021	-0.014
-627.478	-3.326	-0.365	-0.253
-626.463	775.179	0.031	0.083
-625.449	230.876	0.194	0.315
-624.434	91.017	0.098	0.109
-623.419	-143.096	-0.109	-0.011
-622.405	-200.000	-0.006	0.209
-621.390	-70.148	-0.244	0.092
-620.376	31.569	0.261	0.223
-619.361	-200.000	-0.026	-0.295
-618.346	75.469	-0.155	-0.162
-617.332	-38.934	-0.256	-0.134
-616.317	48.722	0.167	-0.156
-615.303	-200.000	0.010	-0.278
-614.288	389.686	0.027	0.056
-613.273	46.541	0.187	0.173
-612.259	-44.362	-0.044	-0.022
-611.244	-114.498	0.230	0.044
-610.230	-14.176	-0.211	-0.135
-609.215	-117.143	0.349	0.063
-608.201	-52.741	-0.383	-0.175
-607.186	573.401	-0.089	-0.216
-606.171	532.327	-0.053	-0.125
-605.157	490.594	0.067	-0.153
-604.142	153.631	0.088	-0.120
-603.128	-41.423	-0.189	-0.097
-602.113	800.000	0.060	0.229
-601.098	-162.690	0.350	-0.017
-600.084	-200.000	-0.009	-0.150
-599.069	-200.000	0.215	-0.000
-598.055	-56.339	-0.038	0.017
-597.040	-80.899	-0.298	0.098
-596.025	611.479	0.161	-0.400
-595.011	-115.455	0.125	0.023
-593.996	505.936	0.129	-0.298
-592.982	800.000	-0.074	-0.315
-591.967	-128.317	0.226	-0.032
-590.952	187.070	-0.123	-0.182
-589.938	141.997	0.086	-0.113
-588.923	-101.889	-0.361	0.087
-587.909	60.419	0.226	0.222
-586.894	-73.661	0.048	0.017
-585.879	-200.000	-0.023	-0.140
-584.865	-200.000	0.041	0.328
-583.850	800.000	0.058	-0.186
-582.836	-5.039	-0.240	0.164
-581.821	218.005	-0.069	0.109
-580.806	-200.000	0.016	-0.094
-579.792	-135.272	0.212	0.025
-578.777	-14.404	-0.088	0.056
-577.763	-5.582	0.154	-0.105
-576.748	400.073	0.029	-0.061
-575.733	561.847	-0.012	0.030
-574.719	-81.077	-0.205	0.067
-573.704	51.415	0.171	-0.162
-572.690	-200.000	0.001	-0.032
-571.675	-200.000	0.020	0.347
-570.661	800.000	0.108	0.306
-569.646	108.595	0.088	0.104
-568.631	6.702	-0.051	-0.038
-567.617	299.358	-0.206	0.377
-566.602	444.658	-0.081	0.175
-565.588	41.308	-0.096	-0.086
-564.573	-200.000	0.068	-0.297
-563.558	41.800	0.044	0.040
-562.544	-104.729	-0.326	0.074
-561.529	84.719	-0.107	-0.117
-560.515	198.861	0.144	-0.218
-559.500	800.000	0.091	-0.282
-558.485	-13.995	0.335	0.215
-557.471	18.481	0.267	-0.212
-556.456	-200.000	-0.027	0.217
-555.442	-165.386	0.108	0.005
-554.427	-57.251	-0.113	0.049
-553.412	-66.594	-0.332	0.131
-552.398	795.188	-0.065	-0.177
-551.383	-200.000	0.022	-0.285
-550.369	-58.592	0.227	-0.097
-549.354	800.000	0.041	-0.142
-548.339	25.030	-0.174	-0.143
-547.325	800.000	-0.038	-0.144
-546.310	-142.510	-0.156	0.015
-545.296	-130.145	-0.119	-0.016
-544.281	800.000	-0.035	-0.131
-543.266	770.298	-0.083	0.225
-542.252	40.098	-0.095	-0.084
-541.237	131.113	-0.152	0.193
-540.223	253.534	0.075	-0.127
-539.208	800.000	-0.029	0.095
-538.193	-78.292	0.173	-0.059
-537.179	-200.000	0.019	0.325
-536.164	124.527	-0.092	-0.115
-535.150	-200.000	0.057	-0.395
-534.135	-200.000	-0.017	-0.278
-533.121	-96.513	0.141	-0.037
-532.106	293.155	-0.091	-0.165
-531.091	-69.948	0.067	0.025
-530.077	-3.356	-0.283	0.195
-529.062	-17.384	-0.167	-0.104
-528.048	800.000	-0.022	0.063
-527.033	-115.126	-0.151	-0.028
-526.018	43.018	-0.283	-0.256
-525.004	476.372	0.022	-0.048
-523.989	800.000	-0.090	-0.268
-522.975	-200.000	0.017	-0.431
-521.960	112.223	0.105	-0.126
-520.945	-200.000	-0.050	-0.713
-519.931	-140.065	0.109	-0.011
-518.916	299.682	-0.114	0.208
-517.902	316.243	0.052	0.097
-516.887	-141.879	0.115	-0.011
-515.872	800.000	0.042	0.134
-514.858	601.625	-0.059	-0.145
-513.843	-80.716	0.513	0.169
-512.829	299.726	-0.166	0.303
-511.814	-63.803	0.096	0.039
-510.799	187.009	-0.041	-0.060
-509.785	-117.498	-0.091	0.016
-508.770	91.223	-0.134	-0.149
-507.756	42.165	0.107	-0.096
-506.741	14.679	0.061	-0.047
-505.726	33.012	0.184	-0.158
-504.712	124.995	-0.084	-0.105
-503.697	-200.000	0.007	-0.173
-502.683	-200.000	-0.022	0.217
-501.668	-8.667	0.137	0.091
-500.653	-94.207	0.149	0.040
-499.639	98.669	-0.216	-0.246
-498.624	249.501	0.074	-0.124
-497.610	369.890	-0.150	-0.300
-496.595	-92.129	-0.180	-0.050
-495.581	800.000	-0.067	0.271
-494.566	698.617	-0.141	0.367
-493.551	-200.000	0.006	-0.111
-492.537	592.008	-0.083	0.203
-491.522	686.209	-0.058	0.149
-490.508	16.339	-0.216	-0.169
-489.493	-200.000	-0.024	-0.153
-488.478	800.000	0.047	0.127
-487.464	800.000	-0.049	0.170
-486.449	97.001	0.070	0.079
-485.435	-61.556	-0.500	0.207
-484.420	232.975	0.080	-0.130
-483.405	-33.519	0.148	0.081
-482.391	20.868	-0.232	0.186
-481.376	118.368	0.111	0.135
-480.362	800.000	0.084	-0.240
-479.347	800.000	0.058	0.218
-478.332	3.325	0.105	0.076
-477.318	190.282	0.197	0.292
-476.303	3.107	0.127	0.091
-475.289	-20.265	-0.139	0.084
-474.274	-184.767	0.248	-0.004
-473.259	177.969	-0.108	0.156
-472.245	-115.962	0.336	0.062
-471.230	800.000	-0.025	-0.095
-470.216	-80.042	-0.202	0.067
-469.201	-126.528	-0.215	-0.032
-468.186	577.052	-0.172	-0.415
-467.172	553.631	-0.081	-0.193
-466.157	272.846	-0.118	0.206
-465.143	-92.862	-0.180	0.050
-464.128	-200.000	-0.074	-0.405
-463.113	245.318	0.235	0.391
-462.099	-200.000	0.039	-0.186
-461.084	-132.788	0.200	-0.025
-460.070	152.275	-0.160	0.216
-459.055	165.302	-0.087	0.121
-458.040	-200.000	-0.052	0.264
-457.026	-141.826	-0.175	-0.017
-456.011	307.651	0.108	-0.199
-454.997	294.197	-0.047	0.085
-453.982	425.836	-0.165	0.352
-452.968	571.738	-0.183	-0.440
-451.953	800.000	0.042	0.167
-450.938	637.186	-0.085	-0.213
-449.924	800.000	-0.044	0.187
-448.909	-151.533	-0.424	-0.031
-447.895	-200.000	-0.010	0.297
-446.880	486.973	-0.022	-0.050
-445.865	800.000	-0.018	0.074
-444.851	-131.916	0.223	-0.029
-443.836	-32.759	0.067	-0.037
-442.822	-72.210	-0.320	-0.117
-441.807	-126.296	0.107	-0.016
-440.792	-164.045	0.129	-0.006
-439.778	169.335	0.118	0.166
-438.763	58.036	0.128	-0.123
-437.749	-15.260	-0.110	0.070
-436.734	507.115	0.017	-0.039
-435.719	386.509	0.022	-0.046
-434.705	39.730	-0.178	0.157
-433.690	-200.000	0.002	-0.244
-432.676	49.576	-0.095	0.088
-431.661	-116.554	-0.521	0.095
-430.646	55.367	0.117	-0.111
-429.632	787.720	0.050	0.136
-428.617	512.697	-0.081	0.186
-427.603	33.236	0.176	0.151
-426.588	0.069	0.098	0.069
-425.573	800.000	0.044	-0.160
-424.559	71.046	0.343	0.351
-423.544	90.655	0.207	-0.229
-422.530	-146.772	0.343	-0.029
-421.515	800.000	-0.061	-0.220
-420.500	-23.473	0.294	-0.174
-419.486	-161.185	0.359	-0.018
-418.471	-200.000	-0.025	-0.227
-417.457	239.150	-0.137	0.225
-416.442	-40.839	-0.264	-0.135
-415.428	-52.785	0.127	0.058
-414.413	-81.747	-0.238	-0.077
-413.398	777.770	0.073	0.197
-412.384	-139.385	0.665	-0.070
-411.369	-51.200	0.091	0.042
-410.355	249.325	0.078	-0.130
-409.340	-112.190	0.172	-0.034
-408.325	130.754	-0.135	0.170
-407.311	117.152	0.159	0.193
-406.296	114.731	-0.118	0.142
-405.282	-16.821	0.188	-0.117
-404.267	87.987	0.095	0.104
-403.252	46.405	-0.240	-0.219
-402.238	-1.969	-0.107	0.074
-401.223	-172.548	-0.159	-0.005
-400.209	18.768	-0.277	0.219
-399.194	800.000	-0.037	0.150
-398.179	-200.000	-0.035	0.399
-397.165	171.735	0.099	0.140
-396.150	167.772	-0.276	0.387
-395.136	-34.085	-0.146	0.079
-394.121	-36.226	0.256	-0.136
-393.106	141.751	0.095	0.124
-392.092	-36.835	0.153	-0.081
-391.077	-200.000	0.023	-0.261
-390.063	-200.000	-0.025	0.168
-389.048	-21.531	0.502	0.302
-388.033	-33.986	0.284	0.154
-387.019	-200.000	-0.006	-0.058
-386.004	-13.812	0.202	-0.129
-384.990	-0.719	-0.447	0.312
-383.975	16.549	-0.011	0.008
-382.960	-200.000	0.001	0.325
-381.946	-200.000	0.003	-0.161
-380.931	-106.548	0.467	-0.103
-379.917	800.000	0.055	-0.173
-378.902	-171.081	0.180	0.006
-377.888	-126.177	-0.309	-0.046
-376.873	-200.000	0.015	-0.076
-375.858	128.923	0.242	0.304
-374.844	74.562	0.356	0.368
-373.829	-84.595	-0.079	0.025
-372.815	285.842	-0.110	0.194
-371.800	149.235	0.125	-0.167
-370.785	149.019	-0.118	-0.157
-369.771	392.067	-0.032	-0.065
-368.756	159.234	0.065	0.089
-367.742	800.000	-0.022	-0.085
-366.727	-12.593	-0.215	0.138
-365.712	152.836	0.243	0.327
-364.698	171.223	-0.109	-0.154
-363.683	800.000	0.042	0.164
-362.669	-170.505	-0.236	0.008
-361.654	3.380	-0.244	-0.175
-360.639	329.710	0.121	-0.229
-359.625	20.237	0.095	0.075
-358.610	198.326	0.171	-0.257
-357.596	-40.626	0.181	0.092
-356.581	39.744	0.214	0.189
-355.566	-63.651	-0.166	-0.067
-354.552	-52.865	-0.300	-0.136
-353.537	-60.141	0.209	-0.088
-352.523	171.652	-0.047	0.066
-351.508	692.745	0.070	0.181
-350.493	-9.259	-0.035	0.023
-349.479	-31.468	0.165	0.091
-348.464	50.503	-0.178	0.165
-347.450	87.013	0.127	-0.138
-346.435	-200.000	-0.048	-0.230
-345.420	463.315	0.107	-0.235
-344.406	61.860	-0.230	0.226
-343.391	58.704	-0.221	-0.213
-342.377	-20.362	0.401	0.242
-341.362	90.675	-0.150	-0.165
-340.348	-126.289	-0.168	-0.025
-339.333	-5.068	-0.134	-0.091
-338.318	800.000	0.082	0.230
-337.304	-142.059	0.088	0.009
-336.289	164.229	0.134	-0.185
-335.275	390.283	0.103	-0.209
-334.260	800.000	0.076	0.263
-333.245	25.109	0.086	-0.070
-332.231	-94.689	0.287	-0.077
-331.216	-4.770	-0.148	0.101
-330.202	42.323	0.070	0.062
-329.187	-120.917	0.040	0.007
-328.172	800.000	-0.062	0.215
-327.158	-200.000	-0.024	-0.195
-326.143	-95.135	-0.165	0.044
-325.129	-200.000	-0.024	0.167
-324.114	53.709	0.232	-0.219
-323.099	76.086	0.111	0.116
-322.085	340.547	-0.166	-0.318
-321.070	715.392	-0.151	-0.392
-320.056	60.955	0.120	-0.117
-319.041	484.623	-0.108	0.242
-318.026	-191.235	0.080	-0.001
-317.012	16.853	0.039	-0.030
-315.997	65.050	-0.131	-0.130
-314.983	57.475	0.180	0.173
-313.968	-200.000	0.016	-0.198
-312.953	-82.584	-0.211	0.067
-311.939	165.573	0.122	-0.170
-310.924	72.577	0.236	0.242
-309.910	-56.694	-0.117	0.051
-308.895	-17.933	-0.067	-0.041
-307.880	17.946	-0.153	-0.119
-306.866	-200.000	0.034	0.214
-305.851	-200.000	0.036	-0.196
-304.837	-117.787	0.071	-0.013
-303.822	-22.101	-0.138	0.082
-302.807	-200.000	-0.001	-0.222
-301.793	321.875	0.070	-0.131
-300.778	247.384	0.096	0.159
-299.764	-200.000	-0.034	0.168
-298.749	112.582	-0.113	0.135
-297.735	-46.331	-0.211	0.102
-296.720	17.581	-0.258	0.202
-295.705	172.125	0.100	-0.141
-294.691	22.260	-0.249	0.199
-293.676	64.438	-0.048	0.047
-292.662	-106.805	0.257	0.056
-291.647	25.391	0.298	-0.243
-290.632	-192.983	0.063	-0.001
-289.618	-129.307	0.310	0.042
-288.603	-162.328	0.321	-0.016
-287.589	131.602	-0.272	-0.344
-286.574	125.026	-0.214	-0.264
-285.559	283.513	0.279	-0.492
-284.545	84.841	0.191	-0.205
-283.530	-71.807	-0.228	0.083
-282.516	-200.000	0.003	0.325
-281.501	-100.092	-0.122	-0.030
-280.486	104.030	-0.218	0.251
-279.472	227.207	0.034	0.055
-278.457	46.142	-0.077	0.070
-277.443	435.479	0.153	0.327
-276.428	160.031	-0.181	0.248
-275.413	-200.000	-0.056	0.317
-274.399	-42.686	0.216	0.108
-273.384	272.467	-0.085	-0.147
-272.370	4.709	-0.027	-0.019
-271.355	-38.238	-0.204	0.106
-270.340	-18.502	0.179	0.109
-269.326	-150.824	-0.298	-0.022
-268.311	114.542	-0.137	-0.164
-267.297	-21.660	-0.176	0.105
-266.282	75.114	0.244	0.252
-265.267	-113.985	0.357	-0.068
-264.253	-200.000	-0.055	-0.329
-263.238	-92.968	0.160	0.044
-262.224	800.000	-0.103	0.348
-261.209	-200.000	-0.006	0.049
-260.195	-114.880	0.203	-0.038
-259.180	72.481	-0.111	0.114
-258.165	220.731	-0.131	-0.206
-257.151	29.934	-0.137	0.114
-256.136	-200.000	-0.023	0.200
-255.122	139.730	0.097	0.126
-254.107	-124.825	0.253	-0.038
-253.092	17.525	-0.075	-0.058
-252.078	-65.584	0.085	0.034
-251.063	279.626	-0.038	-0.067
-250.049	-122.054	-0.123	-0.020
-249.034	18.711	-0.046	-0.036
-248.019	-11.601	-0.105	0.067
-247.005	-138.071	-0.268	0.029
-245.990	99.225	-0.015	0.017
-244.976	40.263	0.135	0.119
-243.961	16.714	0.408	0.316
-242.946	-19.629	0.046	0.028
-241.932	-28.826	0.260	-0.146
-240.917	800.000	-0.072	0.225
-239.903	665.040	0.125	0.316
-238.888	596.546	-0.013	-0.031
-237.873	-142.472	-0.068	0.007
-236.859	231.791	-0.063	-0.102
-235.844	-134.000	-0.221	-0.027
-234.830	-27.123	0.202	0.116
-233.815	-200.000	0.097	0.466
-232.800	3.338	-0.197	-0.140
-231.786	126.167	-0.276	-0.342
-230.771	192.036	0.088	0.131
-229.757	-24.303	0.116	-0.068
-228.742	-110.631	0.218	0.044
-227.727	-95.072	-0.076	0.020
-226.713	-32.518	-0.321	-0.175
-225.698	88.569	-0.196	-0.214
-224.684	-137.450	0.147	0.016
-223.669	49.976	-0.152	0.140
-222.655	800.000	-0.027	0.098
-221.640	-166.850	0.419	-0.017
-220.625	-109.912	-0.195	0.040
-219.611	170.177	0.231	0.324
-218.596	-189.201	0.146	-0.002
-217.582	732.884	-0.087	0.228
-216.567	83.804	-0.264	-0.281
-215.552	-25.289	-0.062	-0.036
-214.538	-77.800	0.224	-0.076
-213.523	-200.000	0.017	-0.175
-212.509	-5.101	-0.060	-0.040
-211.494	176.133	-0.041	0.058
-210.479	233.058	0.177	0.285
-209.465	800.000	0.111	0.310
-208.450	13.009	0.314	-0.238
-207.436	-200.000	0.017	0.382
-206.421	146.204	0.258	0.339
-205.406	118.754	-0.282	0.341
-204.392	24.465	-0.202	-0.164
-203.377	-90.397	-0.240	-0.068
-202.363	-90.725	0.267	-0.075
-201.348	-20.827	0.175	-0.105
-200.333	-142.927	-0.303	-0.029
-199.319	9.645	0.287	0.213
-198.304	-44.637	0.280	0.137
-197.290	35.037	-0.180	-0.154
-196.275	159.063	0.123	-0.167
-195.260	332.862	0.114	-0.215
-194.246	103.571	0.024	-0.027
-193.231	-62.820	0.125	-0.050
-192.217	800.000	-0.080	0.326
-191.202	-25.524	-0.296	-0.171
-190.187	341.303	-0.120	0.229
-189.173	-200.000	0.016	-0.114
-188.158	184.786	-0.132	0.191
-187.144	-25.141	0.143	-0.083
-186.129	205.797	0.119	-0.181
-185.114	21.356	-0.081	0.064
-184.100	-120.738	-0.135	-0.022
-183.085	404.233	-0.119	-0.245
-182.071	226.774	-0.075	0.119
-181.056	54.570	0.135	-0.127
-180.042	-200.000	-0.019	0.289
-179.027	-29.223	0.118	-0.066
-178.012	-118.997	-0.258	0.044
-176.998	26.879	-0.374	0.306
-175.983	-200.000	0.006	-0.103
-174.969	800.000	0.051	0.163
-173.954	-87.780	0.130	-0.038
-172.939	-200.000	0.006	0.091
-171.925	-117.437	0.073	0.013
-170.910	-59.501	-0.189	0.079
-169.896	55.148	0.181	0.171
-168.881	-200.000	0.051	-0.244
-167.866	-90.806	-0.189	-0.053
-166.852	800.000	0.156	-0.487
-165.837	-63.717	0.288	-0.115
-164.823	-85.977	-0.100	-0.030
-163.808	-48.061	-0.339	-0.160
-162.793	-68.807	0.302	-0.114
-161.779	533.895	-0.104	0.241
-160.764	604.838	0.121	0.295
-159.750	2.676	-0.110	0.078
-158.735	439.194	0.157	-0.334
-157.720	530.654	-0.090	0.206
-156.706	-200.000	-0.001	-0.288
-155.691	427.042	0.196	-0.414
-154.677	-88.727	-0.363	0.105
-153.662	-200.000	0.027	-0.181
-152.647	410.694	0.076	-0.157
-151.633	33.189	0.129	-0.109
-150.618	-143.510	-0.094	0.009
-149.604	-31.878	0.045	0.025
-148.589	-122.459	-0.337	-0.054
-147.574	-27.526	0.258	0.146
-146.560	800.000	0.101	0.278
-145.545	-66.556	-0.104	0.040
-144.531	800.000	-0.060	-0.184
-143.516	43.989	0.212	0.190
-142.502	67.960	-0.174	0.174
-141.487	306.208	-0.141	0.256
-140.472	-76.112	-0.163	-0.056
-139.458	-111.569	0.164	0.033
-138.443	-130.523	0.035	-0.005
-137.429	25.739	-0.464	0.377
-136.414	800.000	0.055	0.176
-135.399	402.936	0.112	-0.229
-134.385	-111.290	0.243	0.048
-133.370	80.783	-0.188	0.198
-132.356	291.704	0.107	0.191
-131.341	45.299	-0.161	-0.144
-130.326	177.713	0.057	0.080
-129.312	119.775	0.144	0.174
-128.297	75.804	0.195	-0.201
-127.283	-112.172	0.192	-0.038
-126.268	48.694	0.047	0.043
-125.253	-162.897	-0.205	0.010
-124.239	-200.000	-0.050	0.267
-123.224	88.193	0.218	-0.236
-122.210	338.232	0.026	-0.050
-121.195	24.292	-0.160	0.129
-120.180	219.919	-0.169	0.264
