DTS Sentinel unit serial number:	SN413079Multiplexer serial number:	ORYXHardware model number:	OX4-SRSoftware version number:	ORYX F/W v4.00 Oryx Data Collector v3.7.2.0data status	okinstallation	princeton_trtdifferential loss correction	single-endedforward channel	channel 2reverse channel	N/Adate	2019/09/11time	08:05:11forward acquisition time	60.00reverse acquisition time	0.00gamma	496.2192k internal	0.2324k external	0.2324temperature offset calibration	1.1263default loss term (dB/km)	0.3790temperature slope calibration	1.0000multiplexer offset coefficient	1.0000multiplexer slope coefficient	1.0000fibre end	0.00T internal ref (°C)	32.25T ext. ref 1 (°C)	19.83T ext. ref 2 (°C)	28.33length (m)	temperature (°C)	Stokes	anti-Stokes-747.200	-99.183	-0.288	0.074
-746.185	7.224	-0.143	-0.108
-745.171	800.000	0.035	-0.108
-744.156	-198.071	0.243	-0.001
-743.142	-200.000	0.022	0.137
-742.127	239.996	-0.103	0.173
-741.112	526.735	0.031	-0.073
-740.098	-90.485	0.225	-0.066
-739.083	-89.547	-0.202	-0.060
-738.069	-81.617	-0.273	0.090
-737.054	5.739	-0.090	-0.067
-736.039	800.000	0.058	-0.205
-735.025	-31.558	0.127	0.072
-734.010	125.870	-0.092	-0.117
-732.996	-101.592	0.111	0.027
-731.981	-46.797	-0.227	0.112
-730.966	-200.000	0.035	-0.280
-729.952	-200.000	0.056	-0.290
-728.937	-136.275	-0.263	0.031
-727.923	-200.000	-0.005	0.062
-726.908	53.005	-0.180	-0.173
-725.894	-139.665	-0.235	-0.025
-724.879	-26.136	0.230	-0.136
-723.864	-39.111	0.115	-0.061
-722.850	-78.062	0.109	0.038
-721.835	-200.000	-0.030	0.156
-720.821	-63.191	-0.375	0.156
-719.806	123.240	0.089	-0.112
-718.791	146.625	-0.226	-0.307
-717.777	-78.615	-0.389	0.134
-716.762	-126.179	-0.275	-0.041
-715.748	40.895	-0.060	0.055
-714.733	-18.725	0.188	-0.118
-713.718	-200.000	-0.008	-0.196
-712.704	15.145	0.210	-0.166
-711.689	59.194	0.255	-0.253
-710.675	-172.163	-0.062	0.002
-709.660	-126.921	0.314	0.047
-708.645	166.235	-0.114	0.162
-707.631	-81.392	0.254	-0.084
-706.616	-200.000	0.006	-0.173
-705.602	445.740	-0.177	-0.392
-704.587	53.080	-0.113	-0.109
-703.572	-123.132	0.325	0.053
-702.558	800.000	-0.149	0.425
-701.543	21.422	-0.045	-0.037
-700.529	-200.000	-0.019	0.164
-699.514	-180.676	0.257	-0.005
-698.499	-72.331	0.399	0.149
-697.485	-59.174	0.331	0.144
-696.470	391.703	0.143	-0.299
-695.456	-23.303	-0.112	0.068
-694.441	658.685	0.111	-0.289
-693.426	-200.000	-0.022	-0.110
-692.412	-110.378	-0.341	-0.071
-691.397	-200.000	-0.070	0.365
-690.383	-112.583	-0.147	0.029
-689.368	-24.531	-0.212	-0.127
-688.354	-200.000	-0.042	-0.265
-687.339	59.586	-0.019	-0.019
-686.324	27.809	-0.285	0.242
-685.310	-130.880	0.219	-0.030
-684.295	19.122	-0.256	-0.207
-683.281	289.218	-0.066	-0.121
-682.266	-27.084	0.213	0.125
-681.251	253.332	-0.099	-0.170
-680.237	-85.478	-0.232	0.073
-679.222	22.181	0.181	0.149
-678.208	13.909	-0.239	0.188
-677.193	-170.352	-0.369	-0.013
-676.178	116.538	0.054	0.066
-675.164	410.463	-0.089	0.190
-674.149	313.826	-0.094	0.177
-673.135	183.259	-0.289	-0.430
-672.120	-18.087	-0.141	-0.089
-671.105	-200.000	-0.031	-0.202
-670.091	-172.380	-0.331	-0.011
-669.076	-38.903	0.172	-0.091
-668.062	190.877	-0.125	-0.190
-667.047	-150.234	-0.092	0.007
-666.032	18.827	-0.075	0.061
-665.018	-200.000	0.031	0.190
-664.003	70.620	-0.279	0.290
-662.989	27.616	-0.203	0.172
-661.974	-200.000	0.001	-0.154
-660.959	297.405	-0.090	-0.167
-659.945	-104.183	0.146	0.034
-658.930	-135.771	-0.263	0.031
-657.916	-152.357	-0.306	-0.022
-656.901	-46.279	-0.229	0.113
-655.886	287.217	0.153	0.278
-654.872	-131.818	-0.229	0.030
-653.857	-11.050	-0.146	0.097
-652.843	78.930	0.059	-0.063
-651.828	-86.025	-0.233	-0.072
-650.814	-48.821	-0.030	-0.015
-649.799	800.000	-0.059	0.236
-648.784	33.774	-0.476	-0.417
-647.770	314.586	0.140	-0.265
-646.755	-200.000	-0.061	-0.391
-645.741	-200.000	0.023	-0.165
-644.726	-138.807	-0.220	-0.024
-643.711	-200.000	0.014	-0.076
-642.697	-200.000	-0.059	0.272
-641.682	9.793	-0.084	0.064
-640.668	-173.488	-0.344	0.010
-639.653	713.263	0.125	-0.333
-638.638	-200.000	-0.003	0.261
-637.624	544.430	-0.097	-0.232
-636.609	-47.265	-0.253	0.124
-635.595	389.357	-0.011	0.024
-634.580	-71.556	-0.128	-0.048
-633.565	94.189	0.130	-0.148
-632.551	-200.000	0.270	0.000
-631.536	-131.119	-0.132	-0.018
-630.522	-115.498	0.314	-0.059
-629.507	40.745	0.132	0.120
-628.492	319.650	-0.122	-0.232
-627.478	790.356	0.153	-0.423
-626.463	-200.000	-0.041	-0.211
-625.449	-164.204	0.165	-0.008
-624.434	-147.410	0.419	0.036
-623.419	121.797	0.311	-0.390
-622.405	-45.052	-0.234	0.117
-621.390	-39.106	0.134	0.071
-620.376	706.875	-0.098	-0.261
-619.361	-94.146	0.107	0.029
-618.346	-88.250	0.224	-0.067
-617.332	-41.958	0.122	-0.063
-616.317	173.359	0.062	-0.089
-615.303	49.365	0.329	0.311
-614.288	-65.411	0.225	-0.091
-613.273	605.293	0.083	0.208
-612.259	796.376	0.117	0.325
-611.244	-49.979	0.265	0.126
-610.230	-200.000	-0.038	0.184
-609.215	357.893	-0.104	-0.209
-608.201	-38.196	-0.265	0.141
-607.186	-200.000	-0.044	-0.365
-606.171	323.204	-0.061	0.116
-605.157	312.556	0.137	-0.258
-604.142	-144.118	-0.216	-0.020
-603.128	512.923	-0.110	-0.258
-602.113	-34.123	0.268	-0.148
-601.098	-200.000	0.023	0.162
-600.084	313.789	0.182	0.344
-599.069	64.214	0.149	-0.151
-598.055	214.372	-0.234	0.372
-597.040	-76.087	-0.149	-0.053
-596.025	-155.169	0.116	0.008
-595.011	-137.703	-0.114	-0.013
-593.996	200.933	-0.077	-0.119
-592.982	287.476	0.065	0.118
-591.967	19.210	0.325	0.262
-590.952	-138.575	-0.059	-0.006
-589.938	-200.000	-0.025	0.315
-588.923	-30.457	-0.365	0.208
-587.909	-123.378	0.455	-0.073
-586.894	-70.383	-0.233	0.089
-585.879	137.301	-0.177	-0.233
-584.865	-90.275	0.256	-0.075
-583.850	-200.000	0.022	-0.104
-582.836	-200.000	0.001	-0.293
-581.821	-77.064	0.312	-0.109
-580.806	149.998	-0.113	0.154
-579.792	277.656	0.019	0.034
-578.777	-54.256	-0.184	-0.084
-577.763	-149.973	0.145	0.011
-576.748	532.237	-0.057	0.134
-575.733	-200.000	0.039	-0.420
-574.719	104.269	-0.214	-0.253
-573.704	200.614	-0.145	0.224
-572.690	1.558	-0.212	0.153
-571.675	-1.537	-0.051	0.036
-570.661	-200.000	-0.042	0.206
-569.646	-200.000	0.002	-0.084
-568.631	800.000	0.124	-0.413
-567.617	154.520	0.059	-0.081
-566.602	-200.000	-0.014	-0.143
-565.588	-200.000	-0.002	-0.024
-564.573	69.876	0.113	0.116
-563.558	265.238	-0.005	0.009
-562.544	458.842	-0.168	-0.374
-561.529	-200.000	-0.038	-0.247
-560.515	7.221	0.232	0.173
-559.500	283.386	-0.124	0.224
-558.485	-74.563	-0.180	0.065
-557.471	800.000	0.049	0.177
-556.456	59.277	0.211	-0.208
-555.442	-116.691	-0.181	0.033
-554.427	-18.255	0.126	-0.079
-553.412	110.794	-0.156	-0.188
-552.398	-200.000	-0.018	-0.149
-551.383	-200.000	0.004	0.130
-550.369	-18.669	-0.146	-0.091
-549.354	-98.569	0.155	-0.040
-548.339	800.000	0.077	-0.249
-547.325	-146.654	0.070	-0.006
-546.310	-200.000	0.040	-0.200
-545.296	-95.190	0.255	-0.069
-544.281	800.000	0.051	-0.197
-543.266	21.211	0.047	-0.039
-542.252	403.499	-0.150	0.317
-541.237	-6.648	-0.288	0.196
-540.223	-37.359	0.042	-0.023
-539.208	-130.393	0.467	0.063
-538.193	-80.686	0.140	-0.047
-537.179	118.701	0.245	0.303
-536.164	-130.056	0.187	-0.026
-535.150	621.812	0.031	0.079
-534.135	18.451	-0.074	-0.059
-533.121	42.276	0.165	0.150
-532.106	-15.477	0.369	0.236
-531.091	-39.276	-0.199	-0.105
-530.077	-48.011	-0.397	0.192
-529.062	40.775	0.136	0.123
-528.048	-121.520	-0.181	-0.030
-527.033	-162.394	-0.104	-0.005
-526.018	-200.000	-0.024	0.301
-525.004	-200.000	-0.024	0.297
-523.989	-155.530	0.120	-0.008
-522.975	244.738	0.074	-0.124
-521.960	-168.195	0.014	0.001
-520.945	-14.480	0.173	-0.112
-519.931	-200.000	0.020	-0.087
-518.916	11.436	0.028	0.022
-517.902	-200.000	-0.011	0.051
-516.887	-200.000	0.020	-0.127
-515.872	-26.777	0.152	0.089
-514.858	459.120	-0.067	-0.148
-513.843	558.178	-0.082	0.198
-512.829	-200.000	0.008	-0.083
-511.814	11.493	0.202	-0.155
-510.799	198.839	-0.039	0.059
-509.785	-90.674	0.207	0.060
-508.770	54.179	-0.097	0.093
-507.756	-200.000	-0.005	-0.158
-506.741	125.840	-0.141	-0.179
-505.726	-152.419	-0.073	0.005
-504.712	11.490	-0.254	-0.195
-503.697	-200.000	0.037	-0.184
-502.683	200.639	0.111	0.171
-501.668	800.000	-0.018	0.079
-500.653	-71.766	-0.189	0.071
-499.639	-70.064	0.272	0.104
-498.624	218.557	-0.172	0.275
-497.610	318.918	0.051	-0.097
-496.595	400.552	-0.157	0.329
-495.581	-134.768	-0.222	-0.027
-494.566	-21.726	0.118	-0.072
-493.551	10.424	-0.118	0.090
-492.537	-200.000	0.013	-0.136
-491.522	223.049	-0.186	-0.299
-490.508	-135.795	0.237	-0.028
-489.493	800.000	-0.088	-0.346
-488.478	258.660	0.095	-0.163
-487.464	80.266	0.076	-0.081
-486.449	-175.436	0.034	0.001
-485.435	670.935	0.100	-0.258
-484.420	438.034	0.068	0.149
-483.405	-137.827	0.182	-0.020
-482.391	-82.791	0.205	0.066
-481.376	-13.488	-0.035	0.023
-480.362	39.893	-0.223	0.200
-479.347	15.161	-0.163	0.127
-478.332	67.316	-0.070	-0.072
-477.318	653.513	-0.070	-0.179
-476.303	218.995	-0.081	0.129
-475.289	-53.505	0.078	-0.036
-474.274	7.797	-0.018	-0.013
-473.259	-200.000	-0.019	0.188
-472.245	-200.000	-0.028	0.213
-471.230	138.901	0.114	0.149
-470.216	-200.000	-0.013	0.149
-469.201	477.710	0.119	-0.268
-468.186	-98.431	0.030	0.008
-467.172	100.931	0.130	-0.151
-466.157	-200.000	0.027	-0.154
-465.143	347.482	0.141	-0.277
-464.128	495.894	-0.202	-0.463
-463.113	285.006	0.033	0.060
-462.099	-47.260	0.369	-0.180
-461.084	32.243	0.157	0.135
-460.070	-47.732	0.028	0.013
-459.055	-200.000	0.014	-0.093
-458.040	-200.000	-0.023	0.137
-457.026	-200.000	-0.006	-0.029
-456.011	402.359	0.103	0.217
-454.997	185.515	0.164	0.242
-453.982	-90.270	-0.182	-0.053
-452.968	49.786	-0.065	-0.061
-451.953	35.098	-0.209	-0.183
-450.938	85.730	0.100	-0.110
-449.924	148.614	-0.062	-0.083
-448.909	-42.606	0.130	0.066
-447.895	640.907	0.010	0.025
-446.880	286.031	0.133	-0.239
-445.865	-75.522	0.149	0.053
-444.851	37.596	-0.383	-0.340
-443.836	-20.811	0.159	-0.097
-442.822	-182.036	0.176	-0.003
-441.807	-9.138	-0.169	0.113
-440.792	-137.485	-0.115	-0.013
-439.778	124.576	0.166	0.208
-438.763	104.332	0.226	0.265
-437.749	-80.481	0.055	0.018
-436.734	-121.416	-0.114	-0.019
-435.719	800.000	0.122	0.385
-434.705	-67.076	-0.117	-0.046
-433.690	800.000	-0.090	0.370
-432.676	800.000	-0.078	0.222
-431.661	-104.864	0.054	-0.012
-430.646	1.564	-0.012	-0.009
-429.632	-119.968	-0.081	-0.014
-428.617	392.505	-0.051	-0.105
-427.603	-111.251	0.158	-0.032
-426.588	-191.524	-0.199	-0.002
-425.573	-48.135	0.221	-0.106
-424.559	-48.812	0.304	0.145
-423.544	-200.000	0.006	0.395
-422.530	78.823	-0.152	-0.162
-421.515	-57.984	0.160	0.070
-420.500	-64.728	-0.338	-0.136
-419.486	-6.007	-0.310	-0.212
-418.471	114.636	0.280	0.340
-417.457	117.842	-0.209	0.257
-416.442	540.318	-0.102	0.242
-415.428	-16.720	0.086	-0.054
-414.413	-200.000	-0.017	0.112
-413.398	375.403	0.025	0.052
-412.384	-72.407	-0.151	0.056
-411.369	47.356	-0.183	0.170
-410.355	33.372	-0.129	0.112
-409.340	-200.000	0.052	0.289
-408.325	-200.000	0.014	-0.292
-407.311	-36.059	0.340	-0.183
-406.296	-50.334	0.164	0.077
-405.282	4.816	-0.044	0.032
-404.267	-91.151	-0.140	0.040
-403.252	1.335	0.238	-0.170
-402.238	-87.366	-0.116	0.035
-401.223	-53.406	0.212	0.097
-400.209	39.076	-0.087	-0.077
-399.194	-93.711	0.476	-0.131
-398.179	-86.947	-0.380	0.116
-397.165	-114.265	0.275	0.053
-396.150	-200.000	-0.011	0.068
-395.136	-51.204	-0.202	0.094
-394.121	-200.000	-0.012	0.224
-393.106	62.213	-0.299	-0.297
-392.092	105.145	0.221	0.260
-391.077	-34.974	0.217	-0.118
-390.063	-200.000	-0.053	-0.260
-389.048	183.538	-0.088	-0.129
-388.033	-33.194	0.145	-0.080
-387.019	212.005	-0.245	-0.385
-386.004	-128.721	0.317	0.044
-384.990	175.785	0.207	-0.299
-383.975	188.372	0.216	-0.322
-382.960	229.968	-0.161	0.263
-381.946	-81.766	0.127	0.041
-380.931	-200.000	0.001	0.026
-379.917	71.146	-0.220	0.227
-378.902	41.544	0.092	0.083
-377.888	17.978	0.036	-0.029
-376.873	-50.107	-0.301	-0.142
-375.858	-1.035	0.097	0.068
-374.844	13.461	0.229	0.177
-373.829	411.485	-0.171	0.362
-372.815	-200.000	-0.011	-0.142
-371.800	-200.000	-0.013	-0.280
-370.785	175.571	0.277	-0.399
-369.771	-200.000	-0.013	-0.108
-368.756	36.187	-0.208	0.183
-367.742	800.000	-0.067	0.274
-366.727	-200.000	0.042	-0.191
-365.712	483.204	-0.073	0.166
-364.698	39.160	-0.071	-0.063
-363.683	-200.000	0.035	0.297
-362.669	-99.450	0.064	-0.016
-361.654	82.911	0.240	0.259
-360.639	-38.277	-0.364	-0.192
-359.625	-90.495	-0.060	-0.017
-358.610	-87.277	-0.405	-0.122
-357.596	800.000	0.058	-0.181
-356.581	165.828	0.120	-0.169
-355.566	-190.032	-0.288	0.003
-354.552	27.063	0.169	-0.141
-353.537	800.000	0.043	-0.177
-352.523	-198.483	0.190	0.001
-351.508	-123.909	0.219	0.034
-350.493	-15.829	0.265	-0.168
-349.479	61.117	-0.248	0.245
-348.464	-200.000	-0.011	-0.508
-347.450	-58.163	-0.291	0.126
-346.435	722.465	-0.103	0.272
-345.420	-62.431	-0.336	0.139
-344.406	-69.062	-0.380	0.145
-343.391	-200.000	0.013	-0.141
-342.377	-200.000	0.018	0.202
-341.362	-22.286	0.313	0.189
-340.348	-59.851	-0.196	0.083
-339.333	641.697	-0.149	-0.378
-338.318	-68.289	0.337	0.130
-337.304	15.858	0.194	0.151
-336.289	-135.713	0.154	0.018
-335.275	-100.556	0.162	-0.040
-334.260	435.100	0.133	-0.288
-333.245	-200.000	0.007	-0.072
-332.231	56.464	-0.161	-0.155
-331.216	-1.671	-0.066	-0.046
-330.202	546.798	0.057	0.136
-329.187	182.215	-0.159	-0.233
-328.172	137.064	0.137	0.178
-327.158	-17.933	-0.212	0.132
-326.143	34.385	-0.214	-0.185
-325.129	-200.000	-0.037	-0.217
-324.114	40.794	-0.075	0.067
-323.099	-77.433	-0.418	0.144
-322.085	281.525	0.164	-0.291
-321.070	800.000	-0.086	0.258
-320.056	6.271	-0.086	-0.063
-319.041	755.791	0.099	0.267
-318.026	-162.483	-0.100	0.005
-317.012	800.000	-0.029	0.124
-315.997	800.000	-0.008	-0.025
-314.983	460.076	0.064	0.141
-313.968	-200.000	0.032	0.244
-312.953	796.175	0.081	0.220
-311.939	37.374	-0.108	0.095
-310.924	54.450	0.137	-0.131
-309.910	-9.008	0.176	-0.117
-308.895	147.066	0.142	0.190
-307.880	-200.000	0.006	0.147
-306.866	-98.705	-0.171	-0.043
-305.851	-129.156	-0.329	-0.046
-304.837	-200.000	-0.025	-0.148
-303.822	-189.827	-0.345	0.004
-302.807	9.334	-0.321	0.241
-301.793	-168.939	-0.141	0.005
-300.778	407.879	0.060	-0.126
-299.764	248.226	0.125	0.210
-298.749	-130.496	-0.418	0.056
-297.735	-200.000	-0.006	0.044
-296.720	-16.261	0.200	-0.126
-295.705	15.477	0.328	0.255
-294.691	-200.000	0.003	0.207
-293.676	206.380	0.185	-0.286
-292.662	-116.471	0.084	0.015
-291.647	800.000	0.059	0.247
-290.632	44.711	0.078	0.071
-289.618	-99.110	-0.256	-0.064
-288.603	-7.414	-0.137	0.092
-287.589	372.409	0.061	-0.122
-286.574	-132.822	0.238	0.030
-285.559	130.878	0.101	0.129
-284.545	-200.000	-0.056	0.303
-283.530	-79.938	0.149	0.050
-282.516	-200.000	-0.009	-0.331
-281.501	-76.653	-0.166	0.058
-280.486	-200.000	-0.009	-0.114
-279.472	-55.385	0.120	-0.053
-278.457	-125.832	-0.249	-0.037
-277.443	-200.000	-0.024	0.238
-276.428	-10.166	-0.326	0.214
-275.413	-200.000	0.006	0.107
-274.399	155.323	0.142	0.194
-273.384	-108.132	0.066	-0.014
-272.370	-200.000	0.040	-0.239
-271.355	800.000	0.039	0.136
-270.340	-200.000	0.009	-0.064
-269.326	207.116	-0.126	-0.194
-268.311	-126.449	0.271	-0.040
-267.297	89.774	0.178	0.197
-266.282	219.013	-0.015	-0.024
-265.267	-200.000	0.033	0.218
-264.253	-13.963	0.225	-0.144
-263.238	-98.321	0.169	0.043
-262.224	-67.012	0.210	-0.082
-261.209	800.000	0.026	0.102
-260.195	39.062	0.169	-0.150
-259.180	90.807	0.114	0.127
-258.165	-37.010	-0.291	-0.154
-257.151	-83.759	0.106	-0.033
-256.136	-131.266	-0.058	-0.008
-255.122	-200.000	-0.037	-0.257
-254.107	800.000	0.122	-0.358
-253.092	-200.000	-0.067	-0.329
-252.078	-58.844	0.196	-0.084
-251.063	-107.548	-0.113	-0.025
-250.049	4.639	-0.135	0.098
-249.034	-200.000	-0.074	0.400
-248.019	335.458	0.102	-0.197
-247.005	-200.000	-0.023	-0.194
-245.990	-43.966	0.298	-0.148
-244.976	220.542	-0.198	0.315
-243.961	-200.000	0.058	0.333
-242.946	-74.995	-0.328	-0.116
-241.932	800.000	-0.084	0.288
-240.917	150.212	0.146	-0.196
-239.903	800.000	-0.045	0.147
-238.888	58.211	-0.119	-0.115
-237.873	-118.811	-0.167	-0.029
-236.859	235.190	0.102	0.166
-235.844	-200.000	0.011	0.327
-234.830	124.765	-0.047	-0.059
-233.815	135.584	0.065	0.084
-232.800	36.913	-0.154	-0.135
-231.786	230.283	0.163	0.263
-230.771	202.714	0.256	0.391
-229.757	-200.000	-0.003	0.402
-228.742	-136.143	-0.146	0.017
-227.727	-83.162	-0.232	-0.074
-226.713	-106.424	-0.480	0.106
-225.698	-23.688	-0.258	0.153
-224.684	443.610	-0.162	0.352
-223.669	-10.776	0.217	-0.142
-222.655	800.000	-0.057	0.182
-221.640	541.824	0.049	0.114
-220.625	45.696	0.039	-0.036
-219.611	-108.881	0.155	0.033
-218.596	33.101	0.097	-0.084
-217.582	-101.973	0.176	0.042
-216.567	800.000	-0.048	-0.204
-215.552	136.746	0.103	0.133
-214.538	349.427	-0.169	0.331
-213.523	800.000	0.067	0.281
-212.509	227.814	0.110	-0.178
-211.494	444.786	0.028	-0.060
-210.479	151.590	0.010	-0.013
-209.465	477.251	-0.040	-0.089
-208.450	800.000	-0.032	-0.099
-207.436	-88.512	0.252	0.074
-206.421	444.112	0.053	0.115
-205.406	-131.938	-0.176	0.023
-204.392	-162.497	-0.172	-0.008
-203.377	338.672	-0.064	0.124
-202.363	412.238	0.070	-0.147
-201.348	219.709	-0.167	-0.264
-200.333	800.000	-0.057	-0.165
-199.319	-115.281	-0.149	0.028
-198.304	150.763	-0.090	-0.120
-197.290	-92.127	0.176	0.049
-196.275	-200.000	-0.014	-0.090
-195.260	14.082	0.175	0.135
-194.246	800.000	-0.153	-0.447
-193.231	17.092	-0.438	-0.343
-192.217	-47.775	-0.109	-0.052
-191.202	-200.000	-0.028	0.309
-190.187	88.857	0.161	0.177
-189.173	-200.000	0.024	-0.126
-188.158	112.135	-0.170	0.203
-187.144	-60.387	0.217	-0.091
-186.129	-62.090	0.113	-0.047
-185.114	-160.843	0.175	0.009
-184.100	-92.682	0.535	-0.148
-183.085	-152.109	-0.471	0.034
-182.071	111.064	0.161	0.191
-181.056	-47.785	-0.279	-0.133
-180.042	-200.000	-0.006	0.061
-179.027	-13.562	-0.257	-0.165
-178.012	-9.166	-0.099	0.065
-176.998	61.557	0.070	0.068
-175.983	-48.266	-0.429	0.204
-174.969	33.255	-0.201	-0.172
-173.954	-200.000	0.020	-0.102
-172.939	306.783	0.063	0.115
-171.925	-200.000	0.024	-0.295
-170.910	32.478	-0.157	-0.134
-169.896	800.000	0.035	-0.119
-168.881	800.000	0.053	0.177
-167.866	344.596	0.116	-0.224
-166.852	-8.125	-0.074	0.049
-165.837	50.395	-0.181	-0.169
-164.823	-200.000	-0.040	0.191
-163.808	91.866	-0.227	-0.252
-162.793	800.000	0.063	-0.240
-161.779	623.594	0.117	-0.291
-160.764	-200.000	0.023	0.202
-159.750	-61.105	0.214	0.089
-158.735	-4.466	0.089	-0.061
-157.720	800.000	-0.034	-0.096
-156.706	365.430	-0.164	0.326
-155.691	361.871	-0.066	-0.131
-154.677	-43.093	-0.068	0.034
-153.662	13.932	-0.304	-0.233
-152.647	-200.000	0.001	0.281
-151.633	800.000	0.081	0.232
-150.618	91.399	0.053	-0.059
-149.604	-30.287	0.204	0.114
-148.589	659.812	0.037	-0.094
-147.574	252.672	-0.103	0.173
-146.560	265.960	0.034	-0.059
-145.545	389.164	-0.083	0.170
-144.531	800.000	0.017	0.070
-143.516	-58.544	0.232	-0.099
-142.502	-44.624	-0.434	0.214
-141.487	-55.405	0.321	0.142
-140.472	80.792	-0.313	0.333
-139.458	-200.000	-0.012	-0.072
-138.443	337.779	0.101	-0.194
-137.429	800.000	-0.080	0.235
-136.414	-200.000	0.030	0.239
-135.399	-110.726	0.620	0.126
-134.385	800.000	-0.063	0.268
-133.370	-110.108	0.180	0.037
-132.356	-61.617	0.367	0.152
-131.341	138.222	0.178	-0.230
-130.326	800.000	0.067	-0.253
-129.312	335.912	-0.017	0.032
-128.297	-200.000	0.089	-0.402
-127.283	-38.335	0.062	-0.032
-126.268	800.000	-0.090	-0.249
-125.253	-42.573	0.119	0.060
-124.239	-68.495	0.357	-0.136
-123.224	85.200	0.013	0.014
-122.210	244.782	0.129	-0.213
-121.195	-200.000	-0.042	0.188
