DTS Sentinel unit serial number:	SN413079Multiplexer serial number:	ORYXHardware model number:	OX4-SRSoftware version number:	ORYX F/W v4.00 Oryx Data Collector v3.7.2.0data status	okinstallation	princeton_trtdifferential loss correction	single-endedforward channel	channel 2reverse channel	N/Adate	2019/09/14time	01:23:35forward acquisition time	60.00reverse acquisition time	0.00gamma	496.2192k internal	0.2338k external	0.2338temperature offset calibration	1.0123default loss term (dB/km)	0.3790temperature slope calibration	1.0000multiplexer offset coefficient	1.0000multiplexer slope coefficient	1.0000fibre end	0.00T internal ref (°C)	26.42T ext. ref 1 (°C)	3.18T ext. ref 2 (°C)	21.47length (m)	temperature (°C)	Stokes	anti-Stokes-747.200	-52.274	0.065	-0.030
-746.185	-200.000	-0.062	0.316
-745.171	-6.545	0.080	0.055
-744.156	29.367	-0.140	0.120
-743.142	-200.000	0.014	0.193
-742.127	-200.000	-0.021	0.177
-741.112	57.120	-0.129	-0.126
-740.098	-141.827	-0.546	-0.055
-739.083	-50.359	0.074	0.035
-738.069	-105.802	-0.154	-0.035
-737.054	-13.241	0.163	-0.106
-736.039	-81.411	-0.257	0.085
-735.025	-23.070	0.092	0.056
-734.010	39.717	0.042	-0.038
-732.996	-96.127	-0.229	0.061
-731.981	-107.087	-0.346	0.077
-730.966	102.517	-0.186	-0.219
-729.952	-41.426	0.027	0.014
-728.937	-103.318	-0.200	0.047
-727.923	99.864	-0.145	0.169
-726.908	-200.000	0.035	-0.215
-725.894	375.762	0.093	0.190
-724.879	43.111	0.109	0.100
-723.864	-118.135	0.226	0.040
-722.850	71.030	-0.088	0.092
-721.835	-180.454	0.377	-0.008
-720.821	-22.908	-0.284	0.172
-719.806	-200.000	-0.017	-0.125
-718.791	800.000	-0.049	-0.185
-717.777	-76.677	0.189	0.066
-716.762	-200.000	0.020	-0.101
-715.748	800.000	0.046	0.201
-714.733	-200.000	-0.281	0.000
-713.718	172.586	-0.211	-0.305
-712.704	654.222	-0.076	-0.195
-711.689	456.659	-0.044	0.098
-710.675	-112.864	-0.358	-0.071
-709.660	152.630	-0.149	0.204
-708.645	-74.590	-0.310	0.112
-707.631	-59.239	-0.031	0.013
-706.616	-194.974	-0.185	-0.001
-705.602	-43.249	0.355	-0.180
-704.587	8.815	-0.138	0.104
-703.572	-200.000	0.017	-0.208
-702.558	-116.837	-0.157	0.029
-701.543	121.633	0.235	0.294
-700.529	-21.804	0.280	-0.170
-699.514	-51.285	0.270	0.126
-698.499	8.595	-0.125	0.095
-697.485	800.000	0.093	0.282
-696.470	800.000	0.099	0.346
-695.456	-200.000	0.012	-0.134
-694.441	-200.000	0.007	-0.356
-693.426	-169.529	-0.121	-0.004
-692.412	-32.666	-0.485	0.271
-691.397	42.825	0.091	-0.083
-690.383	-125.123	-0.086	0.013
-689.368	-96.419	0.213	-0.056
-688.354	-114.124	-0.436	0.084
-687.339	-200.000	-0.020	0.173
-686.324	-200.000	-0.009	0.109
-685.310	48.077	-0.147	0.138
-684.295	37.557	0.020	-0.018
-683.281	24.290	-0.096	0.080
-682.266	-92.422	0.165	-0.046
-681.251	800.000	-0.055	0.194
-680.237	324.318	0.051	0.097
-679.222	277.045	-0.207	0.368
-678.208	-200.000	-0.002	-0.253
-677.193	82.038	-0.074	-0.080
-676.178	-6.615	0.415	0.283
-675.164	170.572	-0.085	-0.121
-674.149	66.348	0.076	0.077
-673.135	57.484	-0.098	-0.096
-672.120	79.674	-0.174	-0.187
-671.105	-86.152	-0.145	-0.045
-670.091	468.939	0.048	-0.108
-669.076	129.424	-0.066	-0.085
-668.062	-200.000	-0.040	-0.420
-667.047	-200.000	-0.005	-0.088
-666.032	-200.000	-0.201	-0.000
-665.018	8.266	0.068	-0.051
-664.003	-36.185	-0.345	-0.186
-662.989	13.444	-0.116	-0.090
-661.974	-141.973	-0.175	0.017
-660.959	800.000	-0.104	-0.303
-659.945	-129.514	0.125	-0.017
-658.930	71.229	0.086	0.090
-657.916	-200.000	-0.046	-0.223
-656.901	800.000	0.085	0.244
-655.886	-200.000	-0.022	-0.138
-654.872	-20.873	0.297	0.182
-653.857	-200.000	0.000	0.205
-652.843	-45.385	-0.201	-0.100
-651.828	-139.513	0.073	-0.008
-650.814	19.948	-0.027	0.022
-649.799	44.619	-0.206	-0.190
-648.784	-156.118	0.353	0.022
-647.770	-109.413	-0.159	0.034
-646.755	-46.174	0.047	0.023
-645.741	61.536	0.146	0.146
-644.726	27.796	-0.333	-0.281
-643.711	21.692	-0.130	0.106
-642.697	80.887	0.192	-0.207
-641.682	-105.860	0.231	-0.052
-640.668	-200.000	-0.037	0.211
-639.653	-68.385	0.017	-0.007
-638.638	-30.319	-0.176	0.100
-637.624	-79.174	0.233	0.079
-636.609	160.910	0.208	-0.290
-635.595	256.700	-0.213	-0.366
-634.580	-11.442	-0.186	-0.122
-633.565	-200.000	-0.040	-0.199
-632.551	-200.000	0.025	-0.127
-631.536	33.175	-0.265	-0.229
-630.522	-33.206	0.052	-0.029
-629.507	-0.119	0.320	0.228
-628.492	-200.000	-0.032	0.225
-627.478	34.344	0.080	-0.070
-626.463	216.817	0.149	0.237
-625.449	-39.575	0.132	0.069
-624.434	800.000	0.044	-0.176
-623.419	-41.193	-0.102	-0.053
-622.405	-167.816	0.170	0.007
-621.390	800.000	-0.071	0.208
-620.376	-50.687	0.329	0.155
-619.361	114.631	-0.122	-0.148
-618.346	1.356	0.458	-0.329
-617.332	800.000	0.045	-0.184
-616.317	-149.220	0.037	-0.003
-615.303	800.000	-0.101	-0.317
-614.288	-200.000	-0.025	0.407
-613.273	60.059	-0.040	-0.039
-612.259	-6.671	0.156	-0.106
-611.244	126.924	-0.084	0.106
-610.230	-200.000	0.006	-0.178
-609.215	-200.000	-0.004	-0.121
-608.201	-91.985	-0.206	-0.058
-607.186	-200.000	0.007	0.111
-606.171	650.635	0.073	0.188
-605.157	154.264	0.048	-0.066
-604.142	800.000	0.042	-0.164
-603.128	-90.900	-0.239	0.069
-602.113	-90.036	-0.276	-0.080
-601.098	-200.000	-0.032	0.412
-600.084	291.269	0.150	0.272
-599.069	270.281	-0.186	-0.327
-598.055	-26.028	0.139	-0.082
-597.040	140.014	-0.191	0.252
-596.025	-200.000	0.077	-0.340
-595.011	-200.000	-0.000	0.028
-593.996	-85.189	0.254	0.079
-592.982	736.962	0.021	0.055
-591.967	196.824	-0.283	-0.430
-590.952	76.740	-0.090	-0.095
-589.938	122.895	0.058	0.073
-588.923	257.375	0.170	-0.292
-587.909	-28.565	-0.251	-0.144
-586.894	557.140	0.092	0.222
-585.879	-85.519	-0.416	0.129
-584.865	-106.132	0.153	0.034
-583.850	788.501	-0.126	-0.346
-582.836	242.556	0.210	-0.351
-581.821	4.554	0.178	0.130
-580.806	15.347	-0.203	-0.159
-579.792	59.968	-0.054	0.053
-578.777	70.228	0.182	0.187
-577.763	42.614	-0.266	-0.241
-576.748	144.628	0.134	-0.179
-575.733	19.154	-0.202	0.162
-574.719	577.623	-0.085	-0.208
-573.704	-81.820	-0.298	0.097
-572.690	800.000	-0.038	0.109
-571.675	326.659	-0.103	0.198
-570.661	-15.690	0.135	-0.086
-569.646	-104.978	0.188	-0.043
-568.631	-200.000	0.035	0.161
-567.617	-92.954	-0.150	0.042
-566.602	-63.702	0.025	-0.010
-565.588	428.357	0.159	-0.341
-564.573	209.834	-0.050	-0.079
-563.558	-76.863	0.317	0.110
-562.544	-136.014	-0.166	0.019
-561.529	355.228	0.055	0.108
-560.515	-200.000	0.013	-0.183
-559.500	-108.105	-0.114	0.025
-558.485	579.327	0.059	0.144
-557.471	-138.083	-0.101	0.011
-556.456	-104.554	0.138	0.032
-555.442	800.000	-0.028	-0.082
-554.427	-16.435	0.176	-0.111
-553.412	157.622	-0.215	0.297
-552.398	-57.594	0.304	0.133
-551.383	-200.000	0.032	0.167
-550.369	-110.661	0.212	-0.044
-549.354	50.885	-0.212	-0.200
-548.339	-79.899	0.457	-0.153
-547.325	-200.000	0.003	0.100
-546.310	-74.682	0.201	0.072
-545.296	309.941	-0.118	0.220
-544.281	-128.367	-0.378	-0.054
-543.266	174.676	0.194	-0.280
-542.252	-82.451	0.065	-0.021
-541.237	-81.373	-0.133	-0.044
-540.223	51.205	0.151	0.143
-539.208	696.654	-0.010	0.026
-538.193	-2.755	-0.278	-0.193
-537.179	18.893	0.234	0.186
-536.164	-20.701	-0.037	0.023
-535.150	-35.919	-0.205	0.111
-534.135	195.328	-0.078	-0.118
-533.121	-200.000	-0.029	0.241
-532.106	-200.000	0.001	-0.144
-531.091	319.410	0.113	0.213
-530.077	800.000	0.022	-0.078
-529.062	800.000	0.049	-0.136
-528.048	288.538	-0.115	0.208
-527.033	-118.808	-0.104	-0.018
-526.018	-200.000	0.003	-0.256
-525.004	-37.160	-0.480	-0.256
-523.989	552.415	0.078	0.186
-522.975	-67.013	-0.234	0.092
-521.960	-125.193	0.047	-0.007
-520.945	143.696	-0.196	0.259
-519.931	-200.000	0.046	-0.300
-518.916	56.905	0.184	0.178
-517.902	206.368	-0.135	0.209
-516.887	601.128	-0.057	0.142
-515.872	296.077	-0.060	-0.109
-514.858	288.005	0.135	0.242
-513.843	28.529	-0.175	0.147
-512.829	262.962	0.157	0.272
-511.814	-200.000	0.008	-0.123
-510.799	-200.000	-0.043	0.189
-509.785	-200.000	-0.019	0.135
-508.770	130.732	-0.117	-0.149
-507.756	72.076	0.135	-0.139
-506.741	9.009	0.178	0.134
-505.726	-200.000	0.041	0.269
-504.712	752.574	-0.010	0.026
-503.697	-200.000	0.038	0.241
-502.683	-82.631	-0.158	0.051
-501.668	-85.354	-0.042	0.013
-500.653	-113.633	0.300	0.058
-499.639	-122.737	0.195	0.031
-498.624	449.336	-0.098	-0.215
-497.610	95.848	0.165	-0.187
-496.595	-17.794	0.111	-0.069
-495.581	-56.384	-0.219	-0.096
-494.566	26.927	-0.018	-0.015
-493.551	76.893	0.368	0.388
-492.537	100.876	0.198	0.229
-491.522	-125.981	-0.195	0.029
-490.508	40.831	0.264	-0.237
-489.493	143.449	-0.109	-0.144
-488.478	-45.088	-0.092	0.046
-487.464	-200.000	0.023	-0.103
-486.449	39.580	0.243	-0.217
-485.435	800.000	-0.162	-0.603
-484.420	-26.841	-0.097	0.057
-483.405	800.000	-0.039	0.132
-482.391	800.000	0.039	0.134
-481.376	-18.864	-0.262	0.162
-480.362	85.256	0.080	0.088
-479.347	-200.000	0.026	0.132
-478.332	-111.418	-0.056	-0.011
-477.318	-141.466	-0.277	0.028
-476.303	-122.573	-0.180	0.029
-475.289	-25.495	-0.151	-0.088
-474.274	752.900	-0.046	0.122
-473.259	-173.112	0.120	-0.004
-472.245	800.000	-0.077	-0.320
-471.230	-162.780	-0.255	0.012
-470.216	-135.631	0.124	-0.015
-469.201	-78.347	0.173	0.059
-468.186	35.726	-0.096	0.084
-467.172	-75.180	0.391	0.139
-466.157	125.841	-0.143	0.179
-465.143	26.989	0.154	-0.129
-464.128	-82.578	-0.065	0.021
-463.113	81.557	0.269	0.289
-462.099	2.677	-0.282	0.203
-461.084	-200.000	-0.009	0.215
-460.070	44.445	0.294	-0.268
-459.055	252.935	0.090	-0.153
-458.040	800.000	-0.020	-0.055
-457.026	-200.000	0.040	0.314
-456.011	-200.000	-0.022	0.119
-454.997	8.510	0.159	-0.119
-453.982	571.184	0.089	-0.215
-452.968	168.978	0.200	-0.282
-451.953	-21.095	0.087	0.053
-450.938	81.433	-0.236	0.253
-449.924	-155.340	-0.162	0.010
-448.909	117.647	0.233	0.285
-447.895	38.076	0.245	-0.217
-446.880	156.658	0.081	-0.111
-445.865	800.000	0.047	-0.158
-444.851	-79.349	0.117	-0.039
-443.836	-200.000	-0.021	0.214
-442.822	42.711	-0.159	0.143
-441.807	-101.783	0.168	0.040
-440.792	-54.448	-0.105	-0.047
-439.778	254.383	0.029	-0.050
-438.763	414.888	-0.184	-0.388
-437.749	27.626	0.081	0.068
-436.734	-91.332	0.185	-0.052
-435.719	224.250	0.176	-0.282
-434.705	-18.941	0.122	0.076
-433.690	515.974	0.076	-0.177
-432.676	-62.885	-0.113	0.046
-431.661	49.165	-0.057	0.053
-430.646	-200.000	0.004	-0.081
-429.632	150.565	-0.064	-0.086
-428.617	86.738	0.350	-0.383
-427.603	-75.718	-0.161	0.057
-426.588	14.739	0.197	0.153
-425.573	68.916	-0.194	0.198
-424.559	-14.247	-0.047	-0.030
-423.544	64.868	0.166	-0.166
-422.530	-122.910	0.296	0.047
-421.515	17.791	0.065	0.052
-420.500	-10.831	-0.142	0.093
-419.486	-164.162	-0.223	-0.010
-418.471	-156.056	0.138	0.009
-417.457	-200.000	0.060	-0.297
-416.442	14.925	0.037	0.028
-415.428	800.000	0.130	-0.399
-414.413	17.108	-0.282	0.221
-413.398	800.000	-0.047	0.202
-412.384	-200.000	-0.022	0.152
-411.369	-161.099	-0.132	0.007
-410.355	7.784	0.180	0.134
-409.340	64.006	-0.168	0.167
-408.325	-168.092	0.398	0.015
-407.311	472.619	0.030	-0.066
-406.296	-20.355	0.155	-0.094
-405.282	320.828	0.203	0.382
-404.267	341.877	0.056	-0.109
-403.252	-45.548	-0.241	0.118
-402.238	-14.256	0.107	0.068
-401.223	711.436	0.036	0.095
-400.209	800.000	0.076	-0.210
-399.194	800.000	0.015	0.051
-398.179	-172.056	-0.192	0.006
-397.165	-61.683	0.273	-0.113
-396.150	-200.000	-0.054	0.655
-395.136	-200.000	-0.026	-0.206
-394.121	800.000	-0.062	-0.266
-393.106	-200.000	-0.017	0.159
-392.092	-1.353	0.206	0.144
-391.077	64.893	0.232	0.232
-390.063	800.000	-0.062	0.205
-389.048	-176.513	-0.260	-0.007
-388.033	-91.432	0.524	0.148
-387.019	14.635	0.260	0.201
-386.004	52.257	0.099	0.093
-384.990	-50.231	0.150	-0.070
-383.975	-133.375	-0.420	0.052
-382.960	223.519	-0.187	0.299
-381.946	-171.032	0.078	-0.003
-380.931	-83.389	0.223	-0.071
-379.917	276.433	-0.014	0.025
-378.902	-102.364	-0.034	0.008
-377.888	-200.000	0.049	-0.250
-376.873	205.869	0.252	0.388
-375.858	10.727	-0.288	0.217
-374.844	-125.322	-0.327	-0.049
-373.829	-93.830	0.041	-0.011
-372.815	-136.282	-0.221	-0.025
-371.800	70.233	0.204	0.208
-370.785	538.343	0.100	-0.234
-369.771	800.000	0.047	0.159
-368.756	-200.000	-0.038	-0.334
-367.742	-200.000	-0.011	-0.057
-366.727	-121.911	-0.205	0.033
-365.712	140.592	-0.088	-0.114
-364.698	28.226	0.154	-0.129
-363.683	-138.466	-0.081	0.009
-362.669	50.478	0.326	0.305
-361.654	-200.000	-0.006	0.081
-360.639	-70.507	-0.385	-0.144
-359.625	-18.307	0.119	0.074
-358.610	800.000	0.072	0.197
-357.596	-67.531	-0.179	0.069
-356.581	505.454	-0.042	-0.096
-355.566	290.630	-0.219	-0.394
-354.552	-103.668	-0.070	-0.016
-353.537	606.201	0.181	-0.445
-352.523	-80.673	-0.228	-0.075
-351.508	176.744	0.245	-0.351
-350.493	-105.072	0.428	0.097
-349.479	35.038	-0.132	0.114
-348.464	-111.941	-0.300	-0.060
-347.450	66.397	0.100	-0.100
-346.435	17.672	0.056	-0.044
-345.420	-71.628	-0.085	-0.032
-344.406	-48.338	0.293	0.139
-343.391	252.890	-0.145	0.244
-342.377	-6.750	-0.205	-0.138
-341.362	114.184	-0.114	-0.137
-340.348	-158.276	-0.103	-0.006
-339.333	-200.000	0.011	0.352
-338.318	-25.297	-0.316	0.185
-337.304	-150.884	0.229	0.017
-336.289	-93.649	-0.270	0.074
-335.275	-121.116	-0.200	-0.033
-334.260	1.139	-0.215	0.152
-333.245	-200.000	0.069	-0.444
-332.231	187.815	0.077	-0.114
-331.216	-200.000	-0.041	-0.184
-330.202	-127.090	0.303	-0.044
-329.187	9.669	-0.132	0.099
-328.172	58.987	-0.071	-0.069
-327.158	-118.466	-0.219	-0.038
-326.143	308.603	-0.060	0.110
-325.129	-200.000	0.023	0.139
-324.114	-97.123	0.376	-0.097
-323.099	800.000	0.063	0.176
-322.085	-169.746	-0.321	0.011
-321.070	-14.056	0.095	-0.061
-320.056	-200.000	-0.047	-0.279
-319.041	82.074	0.169	0.181
-318.026	7.466	-0.002	-0.001
-317.012	647.823	-0.052	0.132
-315.997	91.069	0.222	-0.246
-314.983	-3.438	0.168	0.115
-313.968	97.978	-0.056	0.064
-312.953	-128.121	-0.041	0.006
-311.939	138.726	0.259	0.336
-310.924	800.000	-0.072	-0.237
-309.910	-105.111	-0.104	-0.023
-308.895	228.450	-0.032	0.052
-307.880	50.440	-0.102	0.096
-306.866	-111.238	-0.152	-0.031
-305.851	24.219	-0.201	-0.164
-304.837	1.725	0.162	-0.115
-303.822	-127.799	-0.117	0.017
-302.807	-16.663	-0.250	0.156
-301.793	-200.000	-0.006	0.132
-300.778	225.611	-0.042	0.067
-299.764	231.815	-0.161	-0.261
-298.749	-200.000	-0.028	0.153
-297.735	61.175	-0.172	-0.168
-296.720	18.736	0.143	-0.113
-295.705	-41.651	0.409	-0.207
-294.691	800.000	-0.137	-0.392
-293.676	118.545	-0.181	0.220
-292.662	377.004	-0.055	0.111
-291.647	651.433	-0.065	-0.164
-290.632	279.822	-0.120	-0.212
-289.618	-22.270	0.165	-0.099
-288.603	131.717	0.135	-0.172
-287.589	481.224	0.008	0.019
-286.574	-200.000	0.050	-0.305
-285.559	344.120	-0.087	-0.169
-284.545	97.961	-0.165	0.187
-283.530	-199.898	-0.295	-0.001
-282.516	116.029	-0.135	0.163
-281.501	-200.000	-0.001	-0.194
-280.486	416.559	0.085	0.178
-279.472	-5.503	-0.208	-0.141
-278.457	-7.140	0.160	-0.107
-277.443	-13.879	-0.023	-0.015
-276.428	-125.470	0.036	0.005
-275.413	93.588	0.278	0.310
-274.399	-93.090	0.099	0.027
-273.384	-41.301	-0.103	0.052
-272.370	-23.080	-0.115	-0.068
-271.355	-95.803	0.174	-0.046
-270.340	164.841	-0.161	-0.224
-269.326	140.811	0.172	0.224
-268.311	-98.058	-0.123	-0.031
-267.297	800.000	-0.025	-0.085
-266.282	736.440	-0.082	-0.216
-265.267	-59.051	0.309	0.131
-264.253	56.869	0.126	0.121
-263.238	-125.837	0.279	0.041
-262.224	-163.589	-0.355	0.017
-261.209	-40.169	0.117	-0.060
-260.195	800.000	-0.098	-0.402
-259.180	-200.000	-0.027	0.277
-258.165	-48.320	-0.206	0.098
-257.151	-199.984	-0.237	-0.001
-256.136	-200.000	-0.018	0.380
-255.122	-200.000	0.000	-0.352
-254.107	800.000	0.015	0.048
-253.092	-34.111	0.262	0.141
-252.078	156.214	-0.120	0.163
-251.063	-50.805	-0.240	-0.111
-250.049	-93.412	0.446	0.122
-249.034	-98.756	0.173	-0.043
-248.019	597.424	-0.067	-0.164
-247.005	48.824	-0.185	-0.171
-245.990	-106.005	-0.183	-0.041
-244.976	-110.015	-0.137	0.028
-243.961	-200.000	0.061	-0.318
-242.946	260.095	-0.085	0.144
-241.932	800.000	0.047	0.133
-240.917	4.779	0.297	0.215
-239.903	-56.364	-0.417	0.182
-238.888	-159.463	-0.121	-0.007
-237.873	-200.000	0.013	0.235
-236.859	80.807	-0.179	0.190
-235.844	-118.562	0.253	0.044
-234.830	-200.000	-0.009	-0.273
-233.815	-83.121	0.402	0.127
-232.800	-84.624	0.178	-0.055
-231.786	-58.031	-0.256	-0.110
-230.771	-27.702	-0.327	-0.187
-229.757	-5.620	-0.164	-0.110
-228.742	141.960	-0.018	0.024
-227.727	-146.165	-0.107	0.009
-226.713	800.000	0.085	0.353
-225.698	-27.466	-0.376	0.215
-224.684	-120.696	-0.153	0.025
-223.669	5.753	0.075	-0.055
-222.655	-59.588	0.116	-0.049
-221.640	800.000	-0.080	-0.223
-220.625	-39.241	0.318	-0.164
-219.611	-51.877	-0.500	0.229
-218.596	-200.000	0.015	0.198
-217.582	60.449	0.241	0.234
-216.567	800.000	-0.124	-0.342
-215.552	-52.888	0.135	0.061
-214.538	244.977	-0.231	-0.382
-213.523	255.595	0.036	-0.061
-212.509	-77.691	0.265	-0.090
-211.494	78.275	-0.203	-0.213
-210.479	-200.000	0.063	-0.394
-209.465	629.973	-0.076	-0.188
-208.450	-200.000	-0.054	-0.315
-207.436	369.947	-0.075	0.149
-206.421	128.810	-0.225	-0.282
-205.406	94.331	0.142	0.158
-204.392	760.075	0.039	0.103
-203.377	-200.000	-0.018	0.150
-202.363	-172.204	-0.090	0.003
-201.348	733.983	-0.127	0.333
-200.333	754.573	-0.072	-0.190
-199.319	121.558	-0.187	-0.229
-198.304	-200.000	-0.008	0.128
-197.290	-71.550	-0.268	-0.098
-196.275	58.303	0.151	-0.145
-195.260	-200.000	0.026	0.154
-194.246	-13.046	-0.201	0.128
-193.231	-125.540	0.050	0.007
-192.217	-61.012	0.138	-0.057
-191.202	316.908	0.205	0.381
-190.187	64.464	-0.153	-0.151
-189.173	-180.225	0.342	-0.007
-188.158	800.000	0.092	0.386
-187.144	127.267	0.153	0.190
-186.129	405.014	-0.086	-0.179
-185.114	-200.000	0.013	-0.162
-184.100	-200.000	0.048	0.222
-183.085	-9.953	-0.167	-0.109
-182.071	21.800	0.059	-0.047
-181.056	800.000	-0.029	-0.106
-180.042	3.998	-0.128	0.092
-179.027	-108.853	0.085	-0.018
-178.012	422.447	0.122	0.257
-176.998	672.736	0.025	0.065
-175.983	-200.000	0.008	0.145
-174.969	-200.000	-0.030	0.220
-173.954	-79.587	-0.401	-0.133
-172.939	800.000	0.028	-0.090
-171.925	428.742	0.105	0.223
-170.910	67.171	-0.156	-0.156
-169.896	-83.370	0.249	-0.078
-168.881	-141.873	-0.221	0.022
-167.866	552.172	0.117	0.276
-166.852	1.991	0.050	0.035
-165.837	-200.000	-0.002	-0.174
-164.823	-144.331	-0.154	-0.014
-163.808	-112.149	0.202	0.040
-162.793	-200.000	0.091	0.000
-161.779	574.150	0.113	0.269
-160.764	-200.000	-0.053	-0.288
-159.750	82.461	-0.146	0.155
-158.735	-200.000	-0.027	0.116
-157.720	-105.042	-0.453	-0.102
-156.706	47.781	-0.161	0.147
-155.691	-178.632	0.512	-0.012
-154.677	-155.839	0.122	-0.008
-153.662	-125.719	0.270	-0.040
-152.647	-21.220	0.025	0.015
-151.633	132.170	0.173	0.218
-150.618	-49.841	0.183	-0.085
-149.604	109.098	0.119	0.140
-148.589	-50.860	0.148	0.068
-147.574	800.000	0.070	0.259
-146.560	784.851	-0.053	0.143
-145.545	105.256	-0.223	-0.258
-144.531	-200.000	0.021	-0.218
-143.516	-194.905	-0.604	-0.005
-142.502	95.855	0.078	-0.087
-141.487	800.000	0.056	0.224
-140.472	-20.313	-0.148	0.089
-139.458	-200.000	-0.064	-0.308
-138.443	110.271	-0.113	-0.133
-137.429	800.000	0.155	0.497
-136.414	-1.902	-0.219	0.151
-135.399	800.000	-0.057	0.167
-134.385	556.799	0.075	-0.178
-133.370	-72.121	0.334	0.121
-132.356	800.000	0.087	-0.263
-131.341	-166.950	0.232	-0.009
-130.326	-160.879	0.153	0.008
-129.312	294.626	-0.066	-0.118
-128.297	-200.000	0.018	0.194
-127.283	-118.860	0.318	0.055
-126.268	93.925	-0.165	0.184
-125.253	-9.978	0.226	0.147
-124.239	-200.000	-0.018	-0.188
-123.224	-200.000	-0.118	0.548
-122.210	-200.000	-0.009	-0.042
-121.195	681.375	0.123	-0.314
-120.180	800.000	-0.158	-0.431
