DTS Sentinel unit serial number:	SN413079Multiplexer serial number:	ORYXHardware model number:	OX4-SRSoftware version number:	ORYX F/W v4.00 Oryx Data Collector v3.7.2.0data status	okinstallation	princeton_trtdifferential loss correction	single-endedforward channel	channel 2reverse channel	N/Adate	2019/09/16time	12:43:34forward acquisition time	60.00reverse acquisition time	0.00gamma	496.2192k internal	0.2302k external	0.2302temperature offset calibration	0.9947default loss term (dB/km)	0.3790temperature slope calibration	1.0000multiplexer offset coefficient	1.0000multiplexer slope coefficient	1.0000fibre end	0.00T internal ref (°C)	40.08T ext. ref 1 (°C)	13.46T ext. ref 2 (°C)	37.31length (m)	temperature (°C)	Stokes	anti-Stokes-747.200	-7.120	-0.242	0.168
-746.185	800.000	0.051	0.157
-745.171	77.928	-0.155	-0.168
-744.156	-142.998	-0.512	0.050
-743.142	-200.000	0.015	0.144
-742.127	800.000	0.185	0.628
-741.112	-121.403	-0.043	-0.007
-740.098	248.059	-0.109	0.188
-739.083	-200.000	-0.017	0.156
-738.069	-84.226	-0.234	-0.076
-737.054	164.376	0.229	0.329
-736.039	55.339	0.080	0.079
-735.025	-22.113	0.142	-0.088
-734.010	-98.893	-0.412	-0.107
-732.996	-200.000	-0.049	0.234
-731.981	-200.000	-0.007	0.105
-730.966	-58.862	-0.208	0.091
-729.952	-200.000	-0.040	0.210
-728.937	514.278	-0.104	-0.247
-727.923	-94.118	-0.311	0.087
-726.908	-135.236	0.072	0.009
-725.894	-200.000	0.030	-0.220
-724.879	138.099	-0.110	0.146
-723.864	-84.436	-0.151	-0.049
-722.850	171.220	0.105	-0.153
-721.835	-39.466	-0.257	0.137
-720.821	-32.643	-0.181	0.103
-719.806	111.281	0.168	0.206
-718.791	230.187	-0.085	-0.142
-717.777	-96.044	-0.047	-0.013
-716.762	-140.888	-0.304	0.032
-715.748	-200.000	0.025	0.266
-714.733	74.788	-0.214	-0.230
-713.718	-200.000	0.006	-0.105
-712.704	-200.000	0.057	-0.350
-711.689	142.872	0.139	-0.188
-710.675	47.563	-0.152	0.144
-709.660	75.053	0.162	0.174
-708.645	-16.177	-0.112	-0.073
-707.631	-14.045	-0.144	-0.095
-706.616	800.000	-0.092	0.291
-705.602	-186.098	-0.492	-0.007
-704.587	70.413	0.240	-0.252
-703.572	51.051	0.151	-0.146
-702.558	160.242	-0.090	0.128
-701.543	0.299	0.183	-0.133
-700.529	319.916	0.041	0.079
-699.514	-170.280	0.085	-0.003
-698.499	47.596	-0.076	0.072
-697.485	370.818	0.026	0.054
-696.470	-86.422	-0.355	0.111
-695.456	800.000	0.071	0.303
-694.441	-34.100	0.199	0.111
-693.426	-200.000	-0.009	0.244
-692.412	-34.729	-0.109	0.061
-691.397	137.663	0.134	-0.179
-690.383	13.675	-0.284	-0.225
-689.368	-38.263	0.301	0.162
-688.354	-43.733	-0.280	-0.144
-687.339	-148.938	-0.279	-0.023
-686.324	598.777	-0.078	-0.196
-685.310	-2.663	0.275	0.196
-684.295	208.060	0.149	-0.237
-683.281	24.763	-0.150	-0.126
-682.266	-151.926	-0.039	0.003
-681.251	438.097	0.119	0.265
-680.237	-17.289	0.450	0.288
-679.222	-103.783	-0.212	0.050
-678.208	-40.883	0.334	0.176
-677.193	-61.621	-0.221	-0.094
-676.178	-200.000	-0.058	-0.329
-675.164	747.471	-0.106	-0.291
-674.149	28.594	0.226	0.195
-673.135	-77.857	0.475	0.167
-672.120	356.970	0.094	-0.190
-671.105	599.194	-0.041	-0.103
-670.091	-200.000	-0.011	-0.410
-669.076	296.067	0.113	-0.210
-668.062	800.000	-0.034	-0.144
-667.047	102.030	0.169	0.200
-666.032	-172.366	0.324	0.010
-665.018	-200.000	0.052	0.313
-664.003	390.179	-0.122	-0.257
-662.989	369.907	0.054	0.111
-661.974	346.072	-0.165	0.329
-660.959	357.333	-0.066	0.134
-659.945	-200.000	-0.077	0.345
-658.930	60.340	-0.132	-0.133
-657.916	-63.667	-0.241	0.100
-656.901	170.688	0.191	-0.277
-655.886	769.100	0.026	-0.073
-654.872	238.214	-0.125	0.211
-653.857	-114.565	0.196	-0.038
-652.843	-66.490	0.176	-0.071
-651.828	-37.745	0.147	-0.079
-650.814	-137.632	0.216	0.025
-649.799	800.000	0.037	0.138
-648.784	-200.000	0.018	-0.108
-647.770	243.673	0.125	0.214
-646.755	-20.007	-0.220	0.138
-645.741	800.000	0.053	-0.210
-644.726	-108.367	-0.488	0.107
-643.711	-200.000	-0.060	-0.287
-642.697	-157.689	-0.205	-0.012
-641.682	-83.588	-0.156	-0.051
-640.668	-58.214	0.384	0.170
-639.653	-200.000	-0.025	-0.145
-638.638	375.724	-0.143	-0.296
-637.624	486.007	-0.113	-0.262
-636.609	178.457	-0.094	0.140
-635.595	51.352	0.187	0.180
-634.580	469.400	-0.065	-0.147
-633.565	-200.000	0.024	0.324
-632.551	-200.000	-0.001	0.375
-631.536	-92.185	0.369	0.106
-630.522	-118.048	0.036	0.007
-629.507	-200.000	0.083	-0.403
-628.492	-200.000	0.015	0.125
-627.478	148.718	-0.242	0.331
-626.463	284.474	-0.051	0.094
-625.449	9.243	-0.227	0.174
-624.434	330.056	0.053	0.103
-623.419	33.973	0.042	-0.037
-622.405	153.581	0.094	-0.131
-621.390	-200.000	-0.014	-0.133
-620.376	-82.363	-0.330	0.109
-619.361	44.668	0.167	0.155
-618.346	-102.261	0.122	-0.030
-617.332	-200.000	0.011	0.188
-616.317	14.980	0.051	0.040
-615.303	-145.789	0.285	0.026
-614.288	800.000	-0.037	0.141
-613.273	-145.156	0.238	0.022
-612.259	435.129	-0.105	0.231
-611.244	-88.376	-0.239	-0.072
-610.230	9.603	0.109	-0.084
-609.215	453.470	0.101	-0.226
-608.201	800.000	-0.031	0.111
-607.186	-32.877	-0.143	-0.081
-606.171	-200.000	0.043	-0.191
-605.157	-200.000	0.000	0.277
-604.142	9.612	0.116	0.089
-603.128	-52.373	-0.230	0.108
-602.113	310.718	-0.107	0.203
-601.098	800.000	-0.018	-0.070
-600.084	800.000	0.101	0.383
-599.069	377.104	-0.076	-0.157
-598.055	-83.815	-0.284	-0.092
-597.040	-121.254	-0.190	-0.032
-596.025	-68.356	-0.091	0.036
-595.011	-200.000	-0.001	-0.343
-593.996	294.373	0.126	-0.233
-592.982	800.000	-0.037	-0.109
-591.967	23.362	0.143	0.119
-590.952	-129.836	0.142	0.020
-589.938	-19.159	0.141	-0.089
-588.923	9.212	-0.307	-0.235
-587.909	96.290	-0.158	0.183
-586.894	52.832	-0.236	0.229
-585.879	-26.924	0.260	-0.154
-584.865	528.408	-0.015	-0.036
-583.850	44.077	0.132	-0.123
-582.836	-148.828	0.279	-0.023
-581.821	-191.884	0.173	-0.002
-580.806	-200.000	-0.032	-0.161
-579.792	-51.709	0.152	0.072
-578.777	31.105	-0.258	0.224
-577.763	-200.000	-0.021	-0.365
-576.748	332.548	-0.136	0.266
-575.733	800.000	0.038	0.110
-574.719	-97.222	-0.178	-0.047
-573.704	96.572	0.153	0.177
-572.690	-200.000	-0.056	0.422
-571.675	-185.954	-0.212	0.003
-570.661	354.684	-0.190	-0.382
-569.646	-126.778	-0.207	-0.031
-568.631	641.134	-0.045	-0.116
-567.617	42.150	-0.186	0.171
-566.602	268.614	-0.090	-0.159
-565.588	549.007	0.122	0.296
-564.573	102.265	-0.036	-0.043
-563.558	-80.612	-0.269	-0.091
-562.544	800.000	0.085	-0.280
-561.529	437.210	0.051	-0.112
-560.515	800.000	-0.065	-0.198
-559.500	-200.000	-0.021	-0.285
-558.485	-102.305	0.165	0.040
-557.471	-88.938	-0.107	-0.032
-556.456	18.990	-0.104	0.084
-555.442	800.000	0.083	0.286
-554.427	171.440	0.315	0.457
-553.412	-136.365	0.252	-0.030
-552.398	-21.755	-0.221	-0.136
-551.383	-200.000	0.004	0.188
-550.369	56.377	-0.115	0.113
-549.354	-118.769	0.183	0.033
-548.339	58.676	0.114	-0.113
-547.325	-31.889	-0.108	0.061
-546.310	-130.237	0.140	0.019
-545.296	189.818	-0.122	-0.186
-544.281	86.520	0.166	-0.185
-543.266	1.250	-0.291	0.212
-542.252	-67.462	0.082	0.033
-541.237	-200.000	0.055	-0.244
-540.223	201.350	0.069	0.108
-539.208	-200.000	0.040	0.330
-538.193	0.215	0.167	0.120
-537.179	223.999	-0.183	-0.299
-536.164	-200.000	-0.015	-0.070
-535.150	-1.843	-0.181	-0.129
-534.135	-137.552	0.189	-0.022
-533.121	800.000	-0.099	-0.287
-532.106	91.694	-0.119	0.136
-531.091	800.000	0.098	0.426
-530.077	-145.436	-0.162	0.015
-529.062	77.987	0.266	-0.286
-528.048	225.555	0.020	-0.032
-527.033	345.383	0.038	-0.076
-526.018	52.461	0.122	-0.117
-525.004	450.382	0.059	-0.131
-523.989	-14.594	-0.187	0.122
-522.975	135.101	0.186	-0.244
-521.960	25.130	-0.215	0.181
-520.945	-75.181	0.165	-0.060
-519.931	-107.010	-0.185	0.041
-518.916	333.221	-0.045	0.088
-517.902	-53.640	0.185	-0.085
-516.887	-29.426	0.318	-0.184
-515.872	-200.000	0.003	-0.219
-514.858	-77.788	0.242	0.085
-513.843	352.743	-0.112	0.225
-512.829	-200.000	-0.015	-0.092
-511.814	47.076	0.158	-0.148
-510.799	-91.427	-0.171	-0.049
-509.785	532.549	-0.101	0.241
-508.770	68.375	0.294	-0.304
-507.756	800.000	-0.096	-0.374
-506.741	800.000	-0.073	-0.217
-505.726	-200.000	0.031	-0.196
-504.712	64.051	-0.081	0.083
-503.697	-200.000	-0.033	0.252
-502.683	395.560	-0.065	-0.137
-501.668	198.794	0.053	-0.081
-500.653	800.000	-0.038	0.140
-499.639	-200.000	-0.020	-0.113
-498.624	402.301	-0.187	-0.397
-497.610	589.425	0.148	0.369
-496.595	800.000	0.089	-0.272
-495.581	173.093	0.086	-0.125
-494.566	225.275	0.115	-0.187
-493.551	-120.898	-0.186	0.032
-492.537	-104.473	-0.301	0.070
-491.522	-57.573	-0.110	0.049
-490.508	-132.749	0.166	-0.021
-489.493	-59.110	0.144	0.063
-488.478	114.935	-0.126	-0.155
-487.464	163.142	-0.126	0.179
-486.449	-55.008	0.062	0.028
-485.435	65.847	-0.045	0.047
-484.420	-200.000	-0.045	-0.241
-483.405	15.519	-0.087	0.069
-482.391	548.868	0.020	-0.049
-481.376	-200.000	-0.057	0.000
-480.362	800.000	-0.035	-0.104
-479.347	800.000	0.097	-0.276
-478.332	-200.000	0.082	-0.460
-477.318	-53.789	-0.107	0.049
-476.303	171.472	0.106	0.153
-475.289	800.000	-0.108	0.321
-474.274	-200.000	-0.019	0.149
-473.259	0.924	-0.133	0.096
-472.245	156.351	0.100	0.139
-471.230	4.297	0.235	-0.174
-470.216	-46.804	0.204	0.101
-469.201	13.786	-0.258	-0.202
-468.186	-147.240	-0.289	-0.025
-467.172	-197.757	-0.323	-0.002
-466.157	9.352	0.180	-0.137
-465.143	800.000	-0.093	-0.323
-464.128	-200.000	0.012	0.524
-463.113	115.863	0.197	0.243
-462.099	44.132	-0.054	-0.050
-461.084	-68.338	-0.173	-0.068
-460.070	180.230	0.296	-0.437
-459.055	-79.377	-0.110	-0.037
-458.040	-200.000	0.000	0.158
-457.026	446.777	-0.066	-0.147
-456.011	317.118	-0.055	-0.105
-454.997	800.000	0.056	-0.155
-453.982	800.000	-0.086	0.245
-452.968	-200.000	-0.028	0.157
-451.953	-200.000	0.022	-0.402
-450.938	127.037	-0.233	-0.297
-449.924	-94.114	0.064	-0.018
-448.909	800.000	0.037	-0.116
-447.895	143.740	0.159	-0.213
-446.880	-82.796	-0.049	-0.016
-445.865	693.261	0.217	0.573
-444.851	258.340	0.201	0.349
-443.836	271.323	-0.040	0.070
-442.822	-18.103	-0.201	-0.127
-441.807	-144.522	-0.095	-0.009
-440.792	615.308	0.087	-0.219
-439.778	379.236	-0.085	0.175
-438.763	-36.408	0.204	0.111
-437.749	129.568	0.209	-0.269
-436.734	375.885	0.155	-0.318
-435.719	800.000	0.083	-0.278
-434.705	-8.692	0.067	0.045
-433.690	273.583	-0.068	-0.120
-432.676	-141.533	-0.193	0.020
-431.661	81.998	-0.290	-0.316
-430.646	67.657	-0.098	0.101
-429.632	73.272	-0.275	-0.290
-428.617	24.527	0.173	0.144
-427.603	-139.173	-0.114	-0.012
-426.588	-200.000	-0.257	-0.001
-425.573	32.793	0.067	-0.059
-424.559	505.271	0.040	0.094
-423.544	122.930	0.152	-0.192
-422.530	-57.755	0.127	0.056
-421.515	-155.395	-0.156	0.010
-420.500	800.000	0.071	0.261
-419.486	-24.200	-0.204	0.122
-418.471	800.000	-0.055	-0.201
-417.457	-176.438	0.168	-0.004
-416.442	-19.244	-0.185	0.115
-415.428	-135.817	0.117	0.014
-414.413	800.000	0.062	0.216
-413.398	-51.696	-0.119	-0.056
-412.384	-145.363	0.426	0.039
-411.369	-84.225	0.112	0.036
-410.355	-200.000	0.022	-0.108
-409.340	-200.000	-0.003	-0.078
-408.325	82.435	-0.134	0.146
-407.311	-200.000	0.026	0.527
-406.296	-200.000	-0.027	0.190
-405.282	-200.000	0.001	-0.147
-404.267	-62.685	-0.294	-0.123
-403.252	-200.000	0.010	0.056
-402.238	-16.956	0.110	0.070
-401.223	124.474	0.106	-0.135
-400.209	-138.841	-0.080	-0.009
-399.194	380.624	-0.071	-0.146
-398.179	-200.000	0.004	0.178
-397.165	800.000	0.087	0.350
-396.150	-18.485	-0.103	-0.065
-395.136	-0.914	-0.070	0.050
-394.121	154.972	0.235	-0.324
-393.106	-200.000	0.029	-0.183
-392.092	20.442	-0.341	-0.277
-391.077	229.596	-0.270	-0.443
-390.063	800.000	-0.069	-0.216
-389.048	-94.572	0.149	0.041
-388.033	-99.672	-0.116	-0.029
-387.019	52.332	-0.134	-0.129
-386.004	33.307	0.079	-0.069
-384.990	-168.189	-0.299	0.012
-383.975	141.298	0.049	0.065
-382.960	-200.000	-0.037	0.183
-381.946	313.623	-0.061	-0.115
-380.931	-145.598	-0.205	-0.018
-379.917	-200.000	-0.081	0.396
-378.902	-137.302	0.174	-0.020
-377.888	-92.259	0.271	0.077
-376.873	352.141	0.095	0.189
-375.858	67.176	0.075	0.077
-374.844	275.277	-0.132	-0.236
-373.829	217.561	0.105	0.168
-372.815	28.075	0.049	-0.042
-371.800	-200.000	0.005	-0.210
-370.785	-158.825	-0.343	-0.020
-369.771	718.757	0.123	-0.329
-368.756	-80.193	-0.349	-0.117
-367.742	-84.374	-0.194	-0.062
-366.727	800.000	0.055	-0.166
-365.712	800.000	-0.050	-0.201
-364.698	-200.000	0.039	-0.342
-363.683	223.763	-0.079	0.129
-362.669	-115.134	0.067	0.013
-361.654	800.000	0.114	-0.326
-360.639	-14.928	-0.205	-0.132
-359.625	95.928	-0.109	0.125
-358.610	-134.735	0.320	0.039
-357.596	-0.081	-0.263	-0.188
-356.581	800.000	0.008	-0.022
-355.566	-17.413	0.136	0.086
-354.552	-200.000	0.004	-0.128
-353.537	121.314	0.196	0.245
-352.523	-80.038	0.278	0.093
-351.508	-18.691	-0.285	-0.178
-350.493	-200.000	0.048	-0.441
-349.479	-8.541	0.225	0.151
-348.464	-200.000	-0.004	0.129
-347.450	249.211	-0.074	0.125
-346.435	-31.042	-0.267	-0.151
-345.420	-200.000	0.028	-0.359
-344.406	-51.739	0.135	0.063
-343.391	-200.000	0.009	0.214
-342.377	-85.878	-0.014	-0.004
-341.362	-31.658	0.101	-0.057
-340.348	-104.625	0.239	-0.055
-339.333	800.000	-0.055	0.182
-338.318	-22.367	0.230	0.140
-337.304	4.451	0.201	0.148
-336.289	87.701	-0.145	0.161
-335.275	800.000	-0.087	0.305
-334.260	500.670	0.052	0.120
-333.245	800.000	0.017	-0.054
-332.231	-147.806	-0.059	-0.005
-331.216	-200.000	0.019	0.100
-330.202	-59.927	0.281	-0.120
-329.187	-46.194	-0.188	0.093
-328.172	-65.825	-0.229	0.092
-327.158	800.000	-0.059	-0.198
-326.143	-4.038	0.098	0.068
-325.129	-102.691	-0.092	0.022
-324.114	-129.326	0.338	-0.047
-323.099	40.143	0.178	0.161
-322.085	173.880	-0.117	0.170
-321.070	91.674	0.296	-0.334
-320.056	729.411	-0.088	-0.237
-319.041	-90.824	-0.413	-0.119
-318.026	87.318	-0.313	0.347
-317.012	-122.580	0.445	0.072
-315.997	225.680	0.085	-0.138
-314.983	-200.000	0.030	-0.164
-313.968	-197.644	-0.061	-0.000
-312.953	-100.529	0.166	0.041
-311.939	264.388	-0.148	-0.257
-310.924	-109.904	0.161	0.034
-309.910	-50.070	-0.344	0.163
-308.895	-200.000	0.003	0.129
-307.880	-153.331	-0.349	-0.024
-306.866	-77.151	0.187	0.065
-305.851	482.785	-0.105	0.240
-304.837	-40.785	-0.105	0.055
-303.822	-99.244	-0.169	0.043
-302.807	-72.768	-0.277	-0.102
-301.793	800.000	-0.036	0.107
-300.778	-29.918	0.342	-0.195
-299.764	53.972	-0.325	0.313
-298.749	46.441	0.278	-0.258
-297.735	243.499	0.094	-0.158
-296.720	-36.630	-0.051	0.028
-295.705	253.237	0.133	-0.228
-294.691	-37.235	-0.070	0.038
-293.676	-126.319	0.186	0.028
-292.662	37.159	-0.070	-0.062
-291.647	113.619	-0.146	0.177
-290.632	-108.410	0.254	-0.055
-289.618	390.024	0.156	0.324
-288.603	-95.082	0.015	0.004
-287.589	349.160	0.074	0.147
-286.574	5.755	-0.037	-0.028
-285.559	255.272	0.184	-0.316
-284.545	-200.000	0.058	-0.319
-283.530	800.000	0.068	0.237
-282.516	-200.000	-0.001	0.072
-281.501	622.141	0.170	-0.428
-280.486	-34.880	-0.057	0.031
-279.472	-100.337	-0.103	-0.026
-278.457	-200.000	-0.008	-0.085
-277.443	235.427	-0.111	0.184
-276.428	-58.126	-0.227	-0.099
-275.413	399.793	0.180	-0.377
-274.399	88.213	-0.019	0.021
-273.384	106.599	-0.097	-0.115
-272.370	470.064	0.076	0.170
-271.355	800.000	0.053	-0.149
-270.340	-200.000	-0.013	0.114
-269.326	-200.000	0.034	-0.161
-268.311	-161.538	-0.079	-0.004
-267.297	-8.375	0.137	0.092
-266.282	96.259	0.082	-0.094
-265.267	-200.000	0.003	-0.267
-264.253	-33.981	0.374	-0.206
-263.238	-90.612	-0.138	0.040
-262.224	-200.000	-0.145	-0.001
-261.209	14.311	-0.131	-0.102
-260.195	31.495	-0.245	0.211
-259.180	-28.695	0.268	0.154
-258.165	800.000	0.093	0.406
-257.151	-189.956	-0.138	0.002
-256.136	64.937	0.005	0.005
-255.122	-200.000	-0.052	0.246
-254.107	390.210	0.082	0.171
-253.092	-117.668	-0.226	0.041
-252.078	46.333	-0.037	-0.034
-251.063	-21.257	0.166	-0.101
-250.049	-78.118	-0.131	0.045
-249.034	598.360	0.069	0.172
-248.019	29.464	-0.034	-0.029
-247.005	-31.075	0.242	0.136
-245.990	-93.143	-0.106	-0.030
-244.976	-200.000	-0.025	-0.122
-243.961	531.684	-0.017	-0.039
-242.946	639.236	-0.121	-0.307
-241.932	430.121	0.087	-0.189
-240.917	751.004	0.034	-0.092
-239.903	-200.000	-0.014	0.098
-238.888	47.205	0.189	0.176
-237.873	-95.575	0.142	-0.038
-236.859	-200.000	-0.003	0.090
-235.844	508.377	0.070	0.162
-234.830	135.663	0.122	0.159
-233.815	230.790	0.036	-0.059
-232.800	-152.688	-0.334	0.024
-231.786	61.892	0.151	0.151
-230.771	113.373	0.254	0.307
-229.757	58.164	0.398	0.390
-228.742	800.000	-0.009	-0.028
-227.727	-76.392	0.209	-0.073
-226.713	-135.235	-0.306	-0.037
-225.698	-40.698	-0.227	-0.117
-224.684	-162.383	-0.115	-0.006
-223.669	94.384	0.303	0.343
-222.655	442.729	0.025	-0.054
-221.640	179.238	-0.125	0.183
-220.625	-20.090	-0.334	-0.206
-219.611	800.000	-0.088	-0.318
-218.596	-200.000	0.052	0.300
-217.582	-200.000	0.024	-0.108
-216.567	-20.854	0.206	0.126
-215.552	-107.447	0.267	0.059
-214.538	800.000	0.095	0.339
-213.523	13.443	-0.387	0.300
-212.509	-98.901	0.152	0.038
-211.494	-200.000	-0.065	-0.374
-210.479	61.217	0.225	0.223
-209.465	800.000	-0.060	0.192
-208.450	138.866	-0.147	0.193
-207.436	800.000	0.023	-0.090
-206.421	-105.554	-0.080	0.018
-205.406	700.439	-0.078	0.206
-204.392	-76.896	0.278	-0.097
-203.377	48.196	-0.235	-0.219
-202.363	800.000	-0.050	0.178
-201.348	-31.332	0.177	-0.099
-200.333	617.247	0.110	0.276
-199.319	-200.000	-0.020	-0.118
-198.304	-122.612	0.135	0.022
-197.290	-52.685	0.315	0.145
-196.275	285.240	-0.052	0.094
-195.260	-108.325	0.365	0.079
-194.246	800.000	0.089	0.267
-193.231	800.000	0.129	0.392
-192.217	1.169	0.065	0.047
-191.202	-60.446	0.312	0.132
-190.187	-200.000	-0.019	0.306
-189.173	-83.293	0.171	-0.055
-188.158	467.783	0.088	-0.196
-187.144	-51.844	0.128	0.060
-186.129	-118.413	0.069	0.012
-185.114	69.620	-0.318	-0.327
-184.100	-6.314	0.134	-0.091
-183.085	645.676	-0.084	-0.215
-182.071	-125.891	-0.297	0.045
-181.056	-52.190	-0.233	-0.108
-180.042	-50.203	-0.055	-0.026
-179.027	157.947	-0.160	0.221
-178.012	-154.286	-0.290	-0.020
-176.998	800.000	-0.010	-0.034
-175.983	72.809	-0.133	-0.139
-174.969	-147.880	0.174	-0.014
-173.954	115.456	-0.308	0.376
-172.939	-200.000	0.048	0.295
-171.925	139.661	0.099	0.130
-170.910	-102.512	0.185	-0.044
-169.896	-151.671	-0.076	-0.006
-168.881	-200.000	0.022	-0.133
-167.866	-31.640	0.320	-0.179
-166.852	-95.816	-0.025	-0.007
-165.837	-200.000	0.042	0.380
-164.823	31.150	-0.181	-0.155
-163.808	-67.112	0.191	-0.075
-162.793	-181.403	-0.192	-0.004
-161.779	-23.358	0.246	-0.147
-160.764	479.380	0.105	0.238
-159.750	-61.961	0.190	-0.079
-158.735	-78.659	0.188	0.064
-157.720	42.318	-0.192	-0.174
-156.706	-44.489	0.217	0.108
-155.691	-200.000	0.087	0.483
-154.677	-154.651	-0.384	0.025
-153.662	-200.000	-0.034	0.310
-152.647	800.000	-0.059	-0.175
-151.633	16.343	0.126	0.099
-150.618	-65.466	-0.259	0.103
-149.604	465.382	0.101	0.226
-148.589	151.899	0.235	-0.319
-147.574	707.896	0.186	0.488
-146.560	-29.186	-0.342	-0.195
-145.545	-46.662	-0.036	0.018
-144.531	-96.869	0.217	0.057
-143.516	38.747	0.158	-0.140
-142.502	119.601	0.103	0.127
-141.487	-98.215	-0.136	0.035
-140.472	-200.000	0.005	-0.037
-139.458	-200.000	-0.086	0.464
-138.443	118.495	-0.151	0.186
-137.429	-122.289	0.413	-0.067
-136.414	-135.439	0.146	0.017
-135.399	117.917	-0.145	0.177
-134.385	155.427	0.144	0.197
-133.370	800.000	-0.110	0.402
-132.356	206.685	0.328	-0.509
-131.341	241.840	0.116	-0.193
-130.326	6.284	-0.231	0.170
-129.312	-83.298	0.251	0.080
-128.297	-200.000	-0.069	-0.369
-127.283	-166.116	0.061	0.003
-126.268	215.821	-0.107	-0.169
-125.253	317.532	0.093	-0.174
-124.239	-200.000	-0.030	0.214
-123.224	-200.000	0.005	0.161
-122.210	577.053	0.123	-0.298
-121.195	-129.874	-0.109	0.015
