DTS Sentinel unit serial number:	SN413079Multiplexer serial number:	ORYXHardware model number:	OX4-SRSoftware version number:	ORYX F/W v4.00 Oryx Data Collector v3.7.2.0data status	okinstallation	princeton_trtdifferential loss correction	single-endedforward channel	channel 2reverse channel	N/Adate	2019/09/13time	07:35:35forward acquisition time	60.00reverse acquisition time	0.00gamma	496.2192k internal	0.2336k external	0.2336temperature offset calibration	1.0197default loss term (dB/km)	0.3790temperature slope calibration	1.0000multiplexer offset coefficient	1.0000multiplexer slope coefficient	1.0000fibre end	0.00T internal ref (°C)	26.27T ext. ref 1 (°C)	4.20T ext. ref 2 (°C)	22.18length (m)	temperature (°C)	Stokes	anti-Stokes-747.200	-80.988	0.408	0.136
-746.185	-6.847	-0.315	-0.215
-745.171	-28.999	-0.145	0.083
-744.156	124.949	0.175	0.221
-743.142	-64.463	-0.222	-0.091
-742.127	-66.144	-0.184	0.074
-741.112	-55.226	-0.264	-0.119
-740.098	314.084	0.059	-0.111
-739.083	-103.279	0.235	0.056
-738.069	800.000	0.065	0.238
-737.054	28.084	0.065	-0.055
-736.039	-200.000	-0.019	-0.135
-735.025	126.297	0.302	0.384
-734.010	-48.501	-0.307	-0.148
-732.996	-42.262	-0.234	0.120
-731.981	800.000	0.124	0.433
-730.966	622.011	-0.096	0.242
-729.952	-200.000	0.047	-0.288
-728.937	-70.673	-0.219	-0.083
-727.923	-117.453	0.382	0.069
-726.908	-200.000	-0.034	0.153
-725.894	-200.000	-0.029	-0.151
-724.879	-4.431	0.159	0.110
-723.864	482.852	0.090	0.205
-722.850	348.485	0.034	-0.067
-721.835	532.052	-0.064	0.152
-720.821	-111.465	-0.269	-0.055
-719.806	-127.296	-0.053	0.008
-718.791	-200.000	0.057	-0.390
-717.777	-122.024	0.078	0.013
-716.762	-91.950	-0.096	-0.027
-715.748	-168.318	0.323	-0.013
-714.733	141.261	0.058	0.077
-713.718	177.394	0.064	0.093
-712.704	381.360	-0.183	-0.377
-711.689	565.813	-0.084	0.203
-710.675	228.268	-0.264	0.431
-709.660	-49.682	-0.204	0.098
-708.645	-45.684	0.128	-0.064
-707.631	192.535	-0.047	-0.071
-706.616	87.086	0.065	0.072
-705.602	-44.616	-0.355	0.178
-704.587	49.234	0.101	-0.095
-703.572	-126.306	0.202	-0.030
-702.558	-32.460	0.131	-0.073
-701.543	-200.000	-0.015	0.195
-700.529	132.610	-0.217	-0.281
-699.514	385.696	-0.100	0.206
-698.499	-21.478	-0.084	-0.051
-697.485	386.858	-0.050	0.103
-696.470	-125.942	0.168	0.025
-695.456	800.000	-0.055	0.172
-694.441	51.735	-0.194	-0.185
-693.426	156.821	-0.080	0.111
-692.412	800.000	-0.042	0.126
-691.397	-200.000	-0.051	0.229
-690.383	800.000	0.022	0.079
-689.368	646.515	0.089	-0.228
-688.354	200.924	0.085	0.131
-687.339	-186.914	-0.355	-0.005
-686.324	5.064	0.036	-0.027
-685.310	138.712	0.093	-0.123
-684.295	-157.114	0.100	0.006
-683.281	-6.716	-0.308	-0.210
-682.266	-130.975	-0.164	-0.022
-681.251	-62.936	0.160	-0.066
-680.237	-34.984	0.472	-0.258
-679.222	-51.455	-0.193	-0.090
-678.208	-183.315	0.109	-0.002
-677.193	94.976	-0.122	0.139
-676.178	65.407	-0.087	-0.089
-675.164	-88.697	0.300	-0.089
-674.149	-112.774	-0.168	0.033
-673.135	800.000	0.028	0.109
-672.120	-43.367	-0.260	-0.131
-671.105	800.000	0.066	0.219
-670.091	800.000	0.043	-0.119
-669.076	-114.752	-0.297	0.057
-668.062	-38.535	0.148	0.078
-667.047	45.097	0.077	0.071
-666.032	310.505	-0.181	-0.339
-665.018	-200.000	0.024	-0.124
-664.003	139.804	-0.280	0.369
-662.989	483.541	-0.101	0.231
-661.974	40.131	-0.173	0.156
-660.959	-78.543	0.152	0.052
-659.945	-200.000	0.021	-0.156
-658.930	344.207	0.095	-0.186
-657.916	-158.149	-0.238	-0.014
-656.901	-85.715	0.150	0.047
-655.886	82.156	-0.269	-0.292
-654.872	-76.276	-0.113	-0.040
-653.857	-110.665	0.394	0.082
-652.843	-95.607	-0.212	0.057
-651.828	4.487	-0.167	-0.123
-650.814	-150.330	-0.399	0.031
-649.799	56.625	-0.162	0.158
-648.784	-143.571	-0.108	-0.010
-647.770	-54.652	-0.335	-0.152
-646.755	261.911	-0.139	-0.240
-645.741	326.515	0.088	0.168
-644.726	-89.741	0.211	0.062
-643.711	248.237	-0.183	-0.309
-642.697	252.069	-0.132	-0.226
-641.682	800.000	0.067	-0.192
-640.668	102.582	-0.072	-0.084
-639.653	-32.937	-0.317	0.176
-638.638	-74.545	0.100	0.036
-637.624	-18.530	0.123	-0.077
-636.609	-10.628	0.150	0.099
-635.595	-57.336	-0.199	-0.087
-634.580	141.604	-0.254	-0.337
-633.565	-168.387	0.038	-0.001
-632.551	237.034	0.080	0.133
-631.536	-77.181	-0.109	-0.038
-630.522	724.059	0.042	0.112
-629.507	-92.325	-0.112	0.031
-628.492	225.595	0.075	-0.122
-627.478	20.150	0.098	-0.079
-626.463	284.799	-0.019	-0.034
-625.449	100.875	0.105	0.123
-624.434	28.960	0.272	-0.230
-623.419	-200.000	0.045	-0.238
-622.405	97.884	-0.214	-0.245
-621.390	-200.000	0.039	-0.372
-620.376	-6.371	0.110	0.075
-619.361	701.596	-0.133	0.350
-618.346	800.000	-0.064	-0.219
-617.332	-50.463	0.289	-0.136
-616.317	-108.636	0.161	-0.035
-615.303	-200.000	-0.055	0.404
-614.288	110.944	0.117	-0.141
-613.273	150.343	-0.133	-0.180
-612.259	190.524	0.039	-0.059
-611.244	800.000	0.007	0.025
-610.230	-66.978	-0.207	-0.081
-609.215	-78.252	-0.179	0.061
-608.201	59.112	-0.245	0.241
-607.186	437.032	0.222	0.483
-606.171	669.387	0.158	0.407
-605.157	38.764	0.346	0.308
-604.142	-49.317	-0.276	0.131
-603.128	-0.066	-0.134	0.095
-602.113	-39.609	-0.194	0.102
-601.098	-200.000	0.028	-0.284
-600.084	87.066	-0.091	-0.100
-599.069	-156.188	0.394	0.025
-598.055	-143.601	0.457	-0.043
-597.040	496.454	0.120	-0.275
-596.025	-134.752	-0.335	-0.041
-595.011	628.858	-0.119	-0.300
-593.996	40.017	-0.028	0.025
-592.982	32.109	0.249	0.214
-591.967	-200.000	-0.002	0.086
-590.952	-13.658	0.325	-0.210
-589.938	-22.068	-0.259	-0.157
-588.923	146.709	0.107	-0.144
-587.909	-82.267	-0.217	0.070
-586.894	126.451	0.144	0.182
-585.879	-145.833	-0.120	0.011
-584.865	-34.607	-0.151	0.083
-583.850	800.000	0.034	0.142
-582.836	-57.837	0.099	0.043
-581.821	39.255	0.169	-0.151
-580.806	32.955	0.105	-0.091
-579.792	-43.240	0.277	-0.140
-578.777	-155.260	-0.406	-0.026
-577.763	-200.000	0.004	-0.034
-576.748	0.587	-0.221	0.158
-575.733	-112.464	-0.096	-0.019
-574.719	136.778	0.211	-0.274
-573.704	-200.000	0.040	0.516
-572.690	-167.239	0.287	0.012
-571.675	76.455	-0.234	0.247
-570.661	-200.000	0.029	-0.143
-569.646	268.904	-0.120	0.210
-568.631	64.956	0.106	-0.106
-567.617	-94.987	-0.082	-0.022
-566.602	800.000	0.113	0.377
-565.588	237.903	0.062	-0.103
-564.573	-128.125	0.068	-0.010
-563.558	31.365	0.113	0.097
-562.544	-200.000	0.021	0.256
-561.529	25.365	-0.222	0.184
-560.515	-30.930	0.161	-0.091
-559.500	-200.000	0.009	0.299
-558.485	800.000	-0.076	0.223
-557.471	-91.178	0.120	-0.034
-556.456	-19.428	0.366	-0.226
-555.442	-200.000	-0.087	0.487
-554.427	800.000	0.115	0.327
-553.412	227.436	-0.043	0.069
-552.398	800.000	0.036	-0.134
-551.383	121.303	-0.107	-0.132
-550.369	800.000	0.101	-0.342
-549.354	38.201	-0.166	0.147
-548.339	800.000	0.037	0.147
-547.325	-65.205	0.341	-0.137
-546.310	-200.000	-0.051	-0.361
-545.296	-119.528	-0.145	0.025
-544.281	-76.870	0.144	-0.050
-543.266	12.961	-0.162	0.125
-542.252	-180.044	0.083	-0.002
-541.237	140.957	0.151	0.198
-540.223	144.526	-0.197	-0.263
-539.208	-146.086	0.203	-0.018
-538.193	4.278	-0.058	-0.042
-537.179	460.062	0.122	-0.270
-536.164	-200.000	-0.049	-0.338
-535.150	-143.959	-0.195	-0.018
-534.135	-168.680	-0.102	0.004
-533.121	-76.970	0.400	-0.139
-532.106	65.101	-0.262	0.264
-531.091	3.871	0.062	-0.045
-530.077	-30.688	-0.091	0.051
-529.062	-166.933	0.172	-0.007
-528.048	-138.998	-0.506	0.055
-527.033	9.132	-0.190	0.143
-526.018	87.947	-0.197	0.218
-525.004	115.282	0.061	-0.074
-523.989	-16.757	-0.050	-0.032
-522.975	65.109	-0.059	-0.059
-521.960	-159.641	0.328	-0.018
-520.945	-56.642	0.417	0.184
-519.931	-75.867	0.181	0.064
-518.916	-112.674	0.305	0.060
-517.902	126.672	0.050	-0.062
-516.887	114.935	0.192	0.234
-515.872	-42.798	0.118	0.060
-514.858	-200.000	-0.012	-0.182
-513.843	102.372	0.220	0.256
-512.829	-200.000	0.034	0.288
-511.814	594.321	-0.034	0.085
-510.799	-124.354	-0.096	-0.015
-509.785	-154.491	-0.170	0.011
-508.770	59.120	0.194	0.190
-507.756	268.142	0.057	0.099
-506.741	-84.847	0.376	0.117
-505.726	-47.312	-0.160	0.078
-504.712	80.958	-0.106	-0.113
-503.697	-200.000	0.029	-0.196
-502.683	-200.000	0.030	-0.296
-501.668	62.478	0.115	-0.114
-500.653	-146.528	-0.225	-0.019
-499.639	51.409	-0.086	0.081
-498.624	403.339	0.048	-0.101
-497.610	-55.435	-0.080	-0.036
-496.595	349.058	0.069	0.135
-495.581	-139.487	0.079	-0.008
-494.566	-172.451	-0.105	-0.003
-493.551	490.733	-0.055	-0.126
-492.537	-3.869	0.286	-0.197
-491.522	240.062	0.275	0.455
-490.508	-200.000	-0.281	0.000
-489.493	-80.732	0.106	-0.035
-488.478	-130.371	-0.016	0.002
-487.464	-103.967	0.207	-0.048
-486.449	168.369	0.035	0.049
-485.435	385.890	-0.054	-0.111
-484.420	44.450	-0.329	0.301
-483.405	-116.527	0.210	0.038
-482.391	555.599	-0.056	0.133
-481.376	799.617	0.035	0.096
-480.362	-200.000	-0.038	-0.460
-479.347	632.465	0.052	-0.132
-478.332	260.949	0.079	0.137
-477.318	-47.337	0.098	0.048
-476.303	-200.000	-0.011	-0.062
-475.289	-58.657	0.159	-0.069
-474.274	-200.000	0.028	0.391
-473.259	243.076	0.175	-0.291
-472.245	-21.767	-0.391	-0.237
-471.230	-94.343	0.046	0.012
-470.216	-29.399	-0.049	0.028
-469.201	148.092	-0.315	-0.422
-468.186	618.621	-0.140	0.350
-467.172	-3.189	-0.247	0.171
-466.157	-173.630	0.196	-0.006
-465.143	44.514	-0.194	-0.177
-464.128	-4.053	0.315	0.217
-463.113	-185.482	0.273	-0.004
-462.099	-164.640	0.101	0.005
-461.084	38.186	0.067	0.060
-460.070	15.888	0.288	0.225
-459.055	800.000	-0.127	0.443
-458.040	-83.216	-0.066	-0.021
-457.026	-200.000	0.041	0.182
-456.011	-200.000	0.011	-0.060
-454.997	0.038	0.186	0.132
-453.982	-26.911	-0.117	-0.068
-452.968	-102.259	0.326	0.078
-451.953	5.786	0.164	-0.121
-450.938	800.000	0.032	0.133
-449.924	-58.273	-0.125	-0.054
-448.909	270.896	0.145	0.254
-447.895	28.460	0.068	0.057
-446.880	-113.791	-0.177	-0.034
-445.865	-4.976	-0.118	0.080
-444.851	279.661	-0.164	-0.291
-443.836	41.014	-0.234	-0.209
-442.822	-31.449	0.255	-0.142
-441.807	800.000	-0.064	-0.269
-440.792	-176.146	-0.245	0.006
-439.778	0.587	0.187	-0.132
-438.763	155.424	-0.186	0.254
-437.749	-200.000	-0.035	0.225
-436.734	800.000	-0.067	0.193
-435.719	195.140	0.086	-0.129
-434.705	-135.277	-0.130	-0.015
-433.690	173.608	-0.068	0.097
-432.676	-78.400	-0.229	0.078
-431.661	185.778	0.191	0.281
-430.646	209.088	-0.098	0.152
-429.632	-120.905	0.260	-0.043
-428.617	150.545	0.124	0.167
-427.603	-132.180	-0.213	-0.027
-426.588	-77.806	-0.331	0.113
-425.573	-200.000	-0.008	-0.317
-424.559	467.071	0.115	-0.256
-423.544	-91.953	-0.347	0.098
-422.530	-200.000	-0.016	0.134
-421.515	127.962	-0.126	0.159
-420.500	-200.000	-0.058	-0.438
-419.486	678.989	-0.089	-0.230
-418.471	422.103	-0.103	0.220
-417.457	-118.978	-0.045	-0.008
-416.442	31.948	0.296	0.252
-415.428	73.186	-0.221	-0.229
-414.413	37.744	0.175	-0.154
-413.398	800.000	-0.092	0.259
-412.384	-134.868	0.389	0.047
-411.369	-39.629	-0.129	0.067
-410.355	-28.786	-0.197	0.112
-409.340	239.133	0.035	0.058
-408.325	-35.548	-0.194	0.104
-407.311	-110.720	0.280	-0.057
-406.296	22.198	-0.147	-0.119
-405.282	42.326	0.136	0.123
-404.267	-200.000	0.031	-0.145
-403.252	-143.535	0.206	-0.019
-402.238	110.500	0.055	0.066
-401.223	49.485	-0.152	0.142
-400.209	70.475	-0.219	-0.224
-399.194	192.157	-0.109	0.163
-398.179	-98.245	0.229	-0.058
-397.165	471.790	0.093	-0.206
-396.150	-200.000	0.006	0.083
-395.136	-200.000	0.000	-0.215
-394.121	-200.000	-0.003	-0.151
-393.106	-200.000	-0.014	-0.242
-392.092	86.516	-0.103	0.113
-391.077	-94.110	-0.274	0.074
-390.063	-2.131	0.236	-0.164
-389.048	800.000	0.024	0.075
-388.033	-157.791	-0.104	0.006
-387.019	-99.251	-0.111	-0.028
-386.004	-94.090	0.085	0.023
-384.990	110.082	-0.342	-0.406
-383.975	-200.000	-0.002	-0.205
-382.960	-200.000	-0.040	-0.377
-381.946	-3.879	0.213	0.146
-380.931	-164.520	0.121	0.005
-379.917	-200.000	-0.077	0.428
-378.902	240.517	-0.071	0.117
-377.888	-200.000	0.036	0.162
-376.873	-146.809	-0.050	0.004
-375.858	187.005	0.071	-0.105
-374.844	800.000	-0.042	0.166
-373.829	387.722	-0.130	0.267
-372.815	800.000	-0.094	0.325
-371.800	-138.131	0.227	-0.025
-370.785	527.255	-0.107	0.249
-369.771	800.000	-0.091	-0.249
-368.756	737.944	-0.023	-0.061
-367.742	-200.000	-0.010	-0.063
-366.727	59.260	-0.227	0.221
-365.712	800.000	-0.087	0.322
-364.698	-82.360	-0.102	-0.033
-363.683	131.554	0.122	-0.155
-362.669	-51.822	-0.087	-0.040
-361.654	800.000	0.063	0.229
-360.639	-107.541	-0.085	-0.018
-359.625	-145.848	0.138	0.012
-358.610	-200.000	-0.000	0.178
-357.596	63.708	-0.245	0.243
-356.581	657.761	-0.079	-0.201
-355.566	-175.987	-0.124	-0.003
-354.552	-112.665	-0.206	-0.041
-353.537	-34.127	-0.301	-0.164
-352.523	354.017	0.088	0.173
-351.508	15.255	0.063	-0.049
-350.493	43.311	0.157	-0.142
-349.479	18.482	-0.378	-0.299
-348.464	800.000	0.069	-0.235
-347.450	-147.668	-0.368	0.031
-346.435	-26.912	0.196	-0.113
-345.420	28.901	-0.202	-0.169
-344.406	-200.000	0.100	-0.451
-343.391	800.000	0.081	-0.257
-342.377	-99.263	-0.069	-0.017
-341.362	-130.800	-0.377	-0.050
-340.348	-200.000	-0.011	-0.176
-339.333	92.812	0.173	-0.193
-338.318	24.123	-0.215	0.176
-337.304	323.311	0.122	0.229
-336.289	-118.544	-0.172	-0.030
-335.275	236.838	-0.061	0.100
-334.260	-41.686	0.175	-0.089
-333.245	438.789	-0.072	-0.155
-332.231	-122.837	0.271	0.043
-331.216	-103.955	0.128	-0.029
-330.202	-1.317	-0.219	-0.153
-329.187	-200.000	-0.000	-0.099
-328.172	27.610	-0.052	-0.043
-327.158	-116.428	0.424	0.077
-326.143	800.000	0.056	-0.206
-325.129	-168.367	0.125	0.005
-324.114	-67.832	0.031	-0.012
-323.099	-42.566	-0.194	0.097
-322.085	-3.735	0.046	-0.031
-321.070	40.299	-0.085	-0.076
-320.056	5.513	-0.039	-0.028
-319.041	544.125	-0.109	-0.258
-318.026	-28.137	0.132	-0.076
-317.012	800.000	0.124	-0.425
-315.997	-132.235	0.190	0.024
-314.983	183.009	-0.136	-0.198
-313.968	386.465	0.041	0.083
-312.953	800.000	0.013	-0.045
-311.939	-200.000	0.035	-0.314
-310.924	800.000	0.023	-0.081
-309.910	-200.000	-0.006	-0.199
-308.895	-84.098	0.124	-0.039
-307.880	-115.543	0.218	0.040
-306.866	-200.000	-0.008	0.318
-305.851	-200.000	0.012	-0.101
-304.837	744.632	-0.188	-0.499
-303.822	717.707	-0.102	-0.268
-302.807	-89.290	-0.343	0.100
-301.793	38.454	-0.207	0.182
-300.778	298.946	0.128	0.233
-299.764	505.499	0.047	-0.108
-298.749	-88.623	0.141	-0.042
-297.735	-200.000	-0.021	0.136
-296.720	-189.092	-0.215	0.003
-295.705	355.332	0.119	-0.233
-294.691	68.315	0.181	0.183
-293.676	55.558	-0.041	0.039
-292.662	-8.990	-0.353	-0.233
-291.647	-172.052	0.234	-0.007
-290.632	-152.901	0.143	0.010
-289.618	-65.091	0.277	-0.110
-288.603	800.000	-0.044	0.128
-287.589	404.166	-0.103	0.214
-286.574	420.086	0.013	-0.028
-285.559	241.711	0.065	-0.108
-284.545	51.652	0.160	-0.150
-283.530	-121.697	-0.483	-0.079
-282.516	-200.000	0.014	-0.164
-281.501	-122.449	-0.015	0.002
-280.486	800.000	-0.064	0.195
-279.472	-200.000	0.050	0.359
-278.457	-72.061	-0.391	-0.143
-277.443	-163.233	-0.366	0.017
-276.428	-43.492	0.243	-0.121
-275.413	35.138	0.123	0.107
-274.399	-114.704	-0.355	-0.067
-273.384	-200.000	-0.061	-0.335
-272.370	154.069	-0.147	-0.199
-271.355	-200.000	0.071	-0.580
-270.340	75.748	-0.042	-0.044
-269.326	196.497	0.129	0.194
-268.311	-200.000	0.003	0.035
-267.297	-9.820	0.135	0.088
-266.282	139.943	0.245	-0.318
-265.267	-200.000	-0.027	-0.443
-264.253	800.000	0.020	-0.083
-263.238	-68.080	0.079	0.030
-262.224	4.127	0.338	-0.243
-261.209	316.968	0.176	0.327
-260.195	541.071	-0.011	-0.026
-259.180	325.004	0.012	0.022
-258.165	-101.740	0.162	-0.039
-257.151	-47.508	0.128	0.061
-256.136	-110.014	0.148	0.031
-255.122	-200.000	0.010	0.231
-254.107	40.092	-0.106	0.094
-253.092	17.429	0.229	0.179
-252.078	-125.586	-0.286	0.043
-251.063	-111.217	0.292	0.059
-250.049	47.610	0.131	0.120
-249.034	-200.000	-0.034	0.386
-248.019	-142.325	-0.383	-0.037
-247.005	-200.000	0.053	0.259
-245.990	-200.000	0.000	0.083
-244.976	-114.156	0.170	-0.032
-243.961	-38.388	0.236	0.123
-242.946	-51.150	-0.369	0.170
-241.932	-74.944	0.191	0.067
-240.917	228.127	0.129	0.207
-239.903	-95.101	0.196	0.052
-238.888	200.872	0.085	0.129
-237.873	128.778	-0.216	0.271
-236.859	89.739	0.334	0.367
-235.844	800.000	-0.049	0.159
-234.830	-20.741	-0.202	-0.122
-233.815	3.085	0.141	-0.101
-232.800	-84.634	0.205	-0.064
-231.786	-5.924	-0.259	0.174
-230.771	119.040	0.105	0.128
-229.757	293.922	-0.073	0.130
-228.742	-13.612	-0.190	-0.121
-227.727	-200.000	-0.028	0.236
-226.713	-137.149	0.086	-0.010
-225.698	-45.053	-0.165	-0.081
-224.684	48.225	0.234	0.215
-223.669	-60.027	-0.115	-0.048
-222.655	-129.277	0.281	-0.038
-221.640	-200.000	0.042	-0.272
-220.625	99.227	0.194	-0.221
-219.611	-19.490	0.210	0.128
-218.596	-200.000	-0.003	0.093
-217.582	-11.617	0.404	-0.261
-216.567	-63.249	-0.217	0.088
-215.552	187.915	-0.082	0.120
-214.538	-84.667	-0.088	0.027
-213.523	-200.000	-0.011	0.209
-212.509	-70.378	0.435	0.162
-211.494	678.969	0.011	0.028
-210.479	349.038	0.142	-0.276
-209.465	287.203	0.132	0.235
-208.450	-59.097	-0.277	-0.117
-207.436	-200.000	-0.011	0.352
-206.421	-126.335	-0.159	0.023
-205.406	-164.753	-0.154	0.007
-204.392	-55.466	-0.144	0.063
-203.377	-56.132	0.305	-0.133
-202.363	114.642	-0.068	0.081
-201.348	-200.000	0.025	0.441
-200.333	-54.844	0.135	0.060
-199.319	686.156	-0.120	-0.308
-198.304	54.661	0.161	-0.153
-197.290	-4.863	-0.308	0.209
-196.275	222.911	-0.073	-0.116
-195.260	-169.685	-0.255	0.009
-194.246	-99.018	-0.228	0.057
-193.231	49.270	0.207	-0.191
-192.217	424.458	-0.097	-0.204
-191.202	-95.231	-0.155	-0.041
-190.187	-26.624	0.275	-0.158
-189.173	6.891	-0.097	-0.071
-188.158	37.595	-0.186	0.162
-187.144	130.750	-0.078	-0.098
-186.129	-163.200	0.142	-0.007
-185.114	-79.445	0.240	0.080
-184.100	361.576	0.072	-0.141
-183.085	219.664	-0.154	0.243
-182.071	20.297	-0.091	0.072
-181.056	-70.999	-0.275	0.102
-180.042	40.589	-0.165	-0.146
-179.027	456.722	0.114	-0.249
-178.012	66.999	0.187	0.187
-176.998	-200.000	-0.079	0.438
-175.983	-143.026	0.095	0.009
-174.969	-200.000	-0.058	-0.303
-173.954	800.000	-0.103	0.291
-172.939	-200.000	-0.008	-0.134
-171.925	-200.000	-0.006	-0.124
-170.910	148.148	0.179	-0.237
-169.896	306.039	0.068	-0.124
-168.881	-200.000	0.033	-0.306
-167.866	-113.837	0.264	-0.050
-166.852	-44.678	-0.198	-0.097
-165.837	-200.000	-0.004	-0.214
-164.823	800.000	0.024	0.073
-163.808	-57.887	-0.207	0.089
-162.793	-172.711	0.409	-0.013
-161.779	-200.000	-0.012	0.061
-160.764	-63.917	-0.272	-0.109
-159.750	39.189	-0.151	0.133
-158.735	166.361	0.089	0.124
-157.720	800.000	0.072	-0.306
-156.706	-117.318	-0.253	0.045
-155.691	-92.615	0.116	0.032
-154.677	-40.516	0.161	0.082
-153.662	140.183	-0.261	-0.338
-152.647	800.000	0.125	0.495
-151.633	-151.672	-0.608	0.044
-150.618	218.150	-0.027	0.042
-149.604	155.829	0.147	0.198
-148.589	543.936	-0.082	-0.193
-147.574	289.621	0.118	-0.209
-146.560	70.522	-0.174	-0.176
-145.545	800.000	0.029	0.084
-144.531	-70.404	-0.216	0.080
-143.516	39.635	0.068	0.060
-142.502	-154.280	0.361	0.024
-141.487	165.655	-0.046	0.064
-140.472	-115.653	-0.061	0.011
-139.458	-200.000	0.047	0.294
-138.443	-123.638	-0.318	0.049
-137.429	-132.366	-0.359	0.045
-136.414	-167.807	-0.180	-0.007
-135.399	176.011	-0.192	-0.274
-134.385	179.319	0.133	0.191
-133.370	659.327	0.105	-0.264
-132.356	198.132	-0.213	-0.320
-131.341	-77.475	0.175	0.059
-130.326	-29.166	0.371	0.209
-129.312	-200.000	-0.018	-0.143
-128.297	-13.732	-0.103	0.066
-127.283	-22.576	0.252	-0.150
-126.268	19.718	0.092	0.073
-125.253	227.890	0.130	-0.207
-124.239	800.000	-0.138	-0.427
-123.224	-45.614	0.206	0.100
-122.210	-2.900	-0.188	0.129
-121.195	178.130	0.179	0.256
