DTS Sentinel unit serial number:	SN413079Multiplexer serial number:	ORYXHardware model number:	OX4-SRSoftware version number:	ORYX F/W v4.00 Oryx Data Collector v3.7.2.0data status	okinstallation	princeton_trtdifferential loss correction	single-endedforward channel	channel 2reverse channel	N/Adate	2019/09/19time	12:51:35forward acquisition time	60.00reverse acquisition time	0.00gamma	496.2192k internal	0.2333k external	0.2333temperature offset calibration	1.0012default loss term (dB/km)	0.3790temperature slope calibration	1.0000multiplexer offset coefficient	1.0000multiplexer slope coefficient	1.0000fibre end	0.00T internal ref (°C)	28.16T ext. ref 1 (°C)	0.91T ext. ref 2 (°C)	26.37length (m)	temperature (°C)	Stokes	anti-Stokes-747.200	-85.121	0.182	0.057
-746.185	-88.655	-0.282	-0.084
-745.171	-48.337	-0.314	-0.152
-744.156	120.755	0.178	0.222
-743.142	32.307	-0.146	-0.127
-742.127	-132.798	-0.205	-0.026
-741.112	-31.160	0.313	-0.177
-740.098	-9.510	0.085	0.057
-739.083	-200.000	-0.049	-0.307
-738.069	-200.000	-0.009	-0.055
-737.054	-110.221	-0.325	-0.068
-736.039	-114.685	-0.229	-0.044
-735.025	7.751	0.119	0.090
-734.010	106.965	0.119	0.142
-732.996	70.463	-0.115	0.119
-731.981	-82.953	-0.176	-0.057
-730.966	-51.633	0.105	-0.049
-729.952	29.334	0.387	-0.331
-728.937	-200.000	-0.013	0.211
-727.923	-154.351	-0.345	0.023
-726.908	-145.335	-0.350	0.032
-725.894	53.387	0.208	0.201
-724.879	115.892	0.307	0.378
-723.864	-200.000	-0.009	-0.050
-722.850	-16.179	-0.231	-0.148
-721.835	-66.732	-0.310	-0.123
-720.821	213.268	-0.053	-0.084
-719.806	42.262	-0.096	-0.088
-718.791	192.577	0.183	-0.278
-717.777	162.211	0.166	-0.233
-716.762	-97.658	-0.166	-0.043
-715.748	-79.529	-0.212	0.072
-714.733	800.000	0.020	0.070
-713.718	109.438	-0.238	0.286
-712.704	800.000	-0.047	-0.139
-711.689	33.591	0.141	0.123
-710.675	-142.085	0.172	-0.017
-709.660	-186.416	-0.288	0.004
-708.645	-29.250	-0.044	0.025
-707.631	235.742	-0.025	0.041
-706.616	-200.000	0.029	-0.196
-705.602	130.084	0.164	-0.211
-704.587	-44.291	-0.214	0.108
-703.572	-97.862	0.267	-0.069
-702.558	186.251	-0.142	-0.212
-701.543	-58.839	-0.117	-0.051
-700.529	427.513	0.049	0.107
-699.514	-11.249	0.383	0.253
-698.499	-19.626	-0.225	0.140
-697.485	6.522	-0.115	-0.086
-696.470	-114.869	-0.486	-0.093
-695.456	-70.372	-0.223	0.085
-694.441	-39.381	0.199	-0.105
-693.426	25.281	0.292	0.244
-692.412	800.000	-0.040	-0.136
-691.397	8.356	0.047	-0.035
-690.383	-13.078	-0.196	0.128
-689.368	-153.853	0.097	-0.007
-688.354	-73.879	0.244	0.089
-687.339	352.985	-0.077	0.153
-686.324	16.535	-0.233	-0.185
-685.310	-19.671	-0.260	-0.162
-684.295	71.119	-0.212	0.220
-683.281	-200.000	0.006	-0.313
-682.266	9.908	0.079	-0.060
-681.251	-200.000	0.027	0.150
-680.237	-92.084	-0.098	0.028
-679.222	-167.297	-0.172	-0.007
-678.208	-200.000	0.060	-0.280
-677.193	-114.859	0.386	0.074
-676.178	-24.691	0.071	-0.043
-675.164	-200.000	0.004	0.341
-674.149	-200.000	0.033	0.255
-673.135	800.000	-0.058	-0.211
-672.120	800.000	0.072	-0.210
-671.105	241.338	-0.242	-0.405
-670.091	-89.982	0.193	-0.057
-669.076	-57.038	-0.312	-0.138
-668.062	22.017	-0.175	0.143
-667.047	-87.302	0.288	-0.088
-666.032	-23.352	-0.123	0.074
-665.018	-109.904	-0.249	0.052
-664.003	-200.000	0.014	-0.145
-662.989	-42.208	0.184	-0.094
-661.974	65.208	-0.081	-0.082
-660.959	783.158	-0.090	0.246
-659.945	-200.000	-0.079	-0.378
-658.930	-200.000	-0.037	-0.262
-657.916	49.870	-0.234	-0.221
-656.901	-86.241	0.254	0.078
-655.886	571.948	0.077	-0.188
-654.872	1.273	0.128	0.092
-653.857	429.244	0.073	-0.158
-652.843	251.503	-0.058	0.100
-651.828	-158.691	0.400	0.023
-650.814	-115.390	0.147	0.028
-649.799	-141.268	0.106	-0.011
-648.784	73.184	-0.126	0.132
-647.770	-1.911	-0.331	-0.233
-646.755	345.419	0.194	-0.382
-645.741	-200.000	-0.050	0.233
-644.726	-200.000	-0.001	-0.180
-643.711	-59.861	0.211	-0.090
-642.697	800.000	0.081	0.350
-641.682	-76.276	0.095	-0.034
-640.668	517.847	-0.051	0.118
-639.653	-64.153	-0.159	0.065
-638.638	-93.957	0.306	-0.084
-637.624	-84.892	-0.302	-0.095
-636.609	-200.000	0.124	0.000
-635.595	78.705	-0.124	-0.133
-634.580	-200.000	-0.062	-0.272
-633.565	-121.561	-0.288	0.048
-632.551	728.209	-0.089	-0.237
-631.536	-183.975	0.168	0.003
-630.522	74.192	-0.074	0.078
-629.507	18.448	0.074	0.059
-628.492	-200.000	-0.008	-0.100
-627.478	-81.241	-0.203	0.067
-626.463	-200.000	0.062	0.328
-625.449	15.422	-0.201	-0.158
-624.434	800.000	0.024	-0.081
-623.419	-122.792	-0.103	-0.017
-622.405	4.598	0.170	0.125
-621.390	-34.318	-0.144	-0.079
-620.376	-80.785	0.025	0.008
-619.361	458.838	0.164	0.366
-618.346	354.562	0.106	0.210
-617.332	-69.912	-0.200	0.076
-616.317	-48.777	-0.346	0.166
-615.303	7.553	-0.238	0.178
-614.288	-80.674	-0.241	0.080
-613.273	89.910	-0.089	0.099
-612.259	-94.994	0.318	-0.086
-611.244	-38.256	0.135	0.072
-610.230	-200.000	-0.003	-0.129
-609.215	-38.776	0.320	-0.169
-608.201	-134.560	0.350	-0.043
-607.186	-35.901	0.152	0.082
-606.171	517.156	0.015	-0.035
-605.157	-57.977	0.017	-0.007
-604.142	-36.473	0.107	-0.058
-603.128	-64.618	0.128	-0.052
-602.113	-179.101	0.272	-0.006
-601.098	200.082	-0.242	0.372
-600.084	-91.917	0.244	0.069
-599.069	-8.785	-0.200	-0.134
-598.055	237.519	0.132	-0.219
-597.040	433.783	-0.084	-0.182
-596.025	-200.000	-0.040	0.230
-595.011	-17.523	-0.156	-0.098
-593.996	20.621	-0.209	0.169
-592.982	-73.789	0.231	0.084
-591.967	-200.000	-0.011	-0.127
-590.952	32.053	-0.254	0.219
-589.938	-98.118	-0.339	-0.087
-588.923	-45.057	-0.267	0.133
-587.909	372.009	-0.106	0.215
-586.894	545.302	0.134	-0.319
-585.879	703.885	-0.130	-0.343
-584.865	-16.786	-0.009	-0.006
-583.850	96.520	0.350	-0.401
-582.836	195.854	-0.111	0.168
-581.821	-200.000	-0.042	-0.310
-580.806	800.000	-0.047	0.143
-579.792	114.926	0.307	0.375
-578.777	-200.000	-0.075	-0.453
-577.763	136.697	-0.021	-0.027
-576.748	800.000	-0.151	0.515
-575.733	800.000	-0.185	0.526
-574.719	-200.000	0.019	0.205
-573.704	196.295	0.244	-0.371
-572.690	738.854	-0.066	-0.176
-571.675	-100.142	-0.119	0.030
-570.661	103.382	0.098	-0.114
-569.646	800.000	0.056	-0.197
-568.631	-200.000	-0.028	0.136
-567.617	-3.675	0.337	0.234
-566.602	157.735	-0.103	0.143
-565.588	35.553	0.198	-0.174
-564.573	194.978	0.029	0.044
-563.558	172.889	-0.284	-0.409
-562.544	126.806	-0.081	0.103
-561.529	320.517	-0.122	0.231
-560.515	222.850	0.075	0.121
-559.500	-54.556	-0.059	0.027
-558.485	800.000	0.026	0.086
-557.471	-19.267	0.136	-0.084
-556.456	-155.126	-0.109	0.007
-555.442	-61.937	0.220	0.092
-554.427	800.000	-0.069	-0.193
-553.412	131.452	0.054	0.069
-552.398	800.000	0.050	-0.154
-551.383	15.229	0.027	-0.021
-550.369	55.713	-0.210	-0.204
-549.354	390.989	-0.054	-0.112
-548.339	300.359	0.190	0.350
-547.325	-186.381	-0.134	0.002
-546.310	38.085	-0.123	-0.109
-545.296	793.191	-0.092	0.252
-544.281	85.978	0.344	-0.377
-543.266	-31.732	-0.096	-0.054
-542.252	800.000	0.058	0.235
-541.237	-200.000	0.004	0.135
-540.223	410.506	-0.056	-0.119
-539.208	-200.000	-0.010	-0.137
-538.193	-200.000	-0.007	0.099
-537.179	-160.582	-0.217	0.012
-536.164	800.000	-0.084	-0.248
-535.150	-167.648	0.375	0.015
-534.135	-200.000	-0.009	-0.276
-533.121	-200.000	-0.017	0.179
-532.106	-95.390	0.272	-0.073
-531.091	150.094	-0.022	-0.030
-530.077	92.823	0.114	0.128
-529.062	20.130	0.161	0.130
-528.048	-121.705	-0.129	0.021
-527.033	-169.925	-0.170	0.006
-526.018	-51.850	-0.216	-0.100
-525.004	-156.526	0.160	-0.010
-523.989	800.000	0.046	0.165
-522.975	-19.656	0.026	0.016
-521.960	-8.259	0.291	0.195
-520.945	1.270	-0.183	0.131
-519.931	103.931	-0.245	0.287
-518.916	800.000	0.076	0.269
-517.902	74.815	0.159	-0.167
-516.887	-200.000	-0.007	-0.041
-515.872	323.611	-0.184	-0.350
-514.858	282.099	-0.044	-0.078
-513.843	800.000	0.094	-0.263
-512.829	54.131	0.127	-0.122
-511.814	25.853	-0.202	0.168
-510.799	800.000	-0.031	0.134
-509.785	28.520	0.270	-0.228
-508.770	-90.538	0.249	-0.072
-507.756	-65.421	0.439	0.176
-506.741	209.620	0.238	0.372
-505.726	-33.721	0.190	0.104
-504.712	-10.188	-0.300	-0.199
-503.697	13.966	-0.209	0.162
-502.683	-38.756	0.188	-0.099
-501.668	71.915	0.098	-0.101
-500.653	-89.270	0.445	-0.131
-499.639	-66.837	-0.133	0.053
-498.624	800.000	0.042	0.137
-497.610	140.669	-0.113	-0.149
-496.595	-200.000	0.004	0.196
-495.581	-52.177	0.254	-0.117
-494.566	51.886	0.124	0.118
-493.551	120.062	0.091	-0.112
-492.537	-11.274	0.083	-0.054
-491.522	-200.000	-0.023	-0.322
-490.508	68.621	0.011	0.011
-489.493	-56.452	-0.057	0.025
-488.478	-79.435	-0.199	-0.067
-487.464	-76.702	0.136	-0.047
-486.449	-92.113	0.180	-0.051
-485.435	-179.417	-0.359	0.008
-484.420	267.865	0.151	0.263
-483.405	463.916	-0.074	-0.164
-482.391	-28.881	-0.238	-0.136
-481.376	-200.000	-0.022	-0.393
-480.362	-100.540	-0.260	-0.064
-479.347	-161.019	0.173	0.009
-478.332	-70.854	-0.448	-0.168
-477.318	800.000	-0.117	0.331
-476.303	129.325	-0.097	-0.124
-475.289	-61.384	0.198	0.083
-474.274	-90.804	-0.227	0.065
-473.259	131.933	0.136	-0.174
-472.245	-128.423	0.150	-0.021
-471.230	492.650	-0.135	0.307
-470.216	-54.536	0.295	0.133
-469.201	10.876	-0.214	-0.163
-468.186	-40.312	0.152	-0.078
-467.172	-42.508	-0.109	0.055
-466.157	800.000	-0.109	-0.308
-465.143	50.597	0.190	-0.178
-464.128	422.641	0.067	-0.142
-463.113	-71.850	0.333	0.123
-462.099	359.160	0.049	0.098
-461.084	-76.258	0.255	0.089
-460.070	-52.334	-0.360	-0.166
-459.055	-117.166	-0.171	0.031
-458.040	86.237	0.163	-0.178
-457.026	-200.000	-0.052	-0.378
-456.011	129.741	0.161	0.205
-454.997	-200.000	0.013	0.117
-453.982	-12.080	-0.175	-0.114
-452.968	800.000	-0.050	-0.186
-451.953	84.917	-0.032	0.035
-450.938	13.237	-0.228	0.175
-449.924	-200.000	0.017	-0.136
-448.909	-148.856	-0.319	0.026
-447.895	-9.452	-0.198	-0.131
-446.880	434.483	0.102	-0.219
-445.865	-105.494	-0.042	0.009
-444.851	221.967	0.058	-0.093
-443.836	-135.188	-0.278	-0.033
-442.822	800.000	-0.040	0.112
-441.807	800.000	-0.042	-0.179
-440.792	-87.100	0.263	-0.079
-439.778	-49.642	0.091	0.043
-438.763	413.029	-0.096	-0.202
-437.749	99.086	-0.155	-0.178
-436.734	-27.992	-0.102	0.059
-435.719	800.000	0.042	0.119
-434.705	368.241	0.081	0.163
-433.690	108.555	-0.362	-0.429
-432.676	-26.866	0.127	0.074
-431.661	73.295	-0.373	-0.387
-430.646	-26.894	-0.135	-0.078
-429.632	800.000	-0.057	-0.197
-428.617	-200.000	-0.070	-0.319
-427.603	121.362	-0.189	-0.234
-426.588	-137.669	0.343	-0.038
-425.573	-15.407	0.134	0.085
-424.559	-35.026	-0.167	0.090
-423.544	-200.000	0.006	-0.229
-422.530	16.627	-0.268	-0.210
-421.515	-200.000	0.012	0.207
-420.500	800.000	-0.128	-0.407
-419.486	12.981	0.203	-0.156
-418.471	-117.207	-0.134	0.024
-417.457	-200.000	-0.008	0.056
-416.442	-200.000	0.005	-0.059
-415.428	-95.730	-0.255	-0.068
-414.413	-125.116	0.174	0.027
-413.398	-200.000	0.007	0.139
-412.384	-71.321	-0.277	0.103
-411.369	-132.156	-0.339	0.044
-410.355	-185.497	0.147	0.002
-409.340	-200.000	-0.003	0.334
-408.325	-96.934	0.104	0.027
-407.311	751.516	0.162	-0.434
-406.296	800.000	0.041	-0.155
-405.282	71.493	-0.129	0.133
-404.267	-165.158	-0.473	0.021
-403.252	-200.000	0.034	0.278
-402.238	-42.462	0.211	-0.107
-401.223	91.107	-0.044	0.049
-400.209	30.499	0.115	-0.097
-399.194	-91.295	0.221	0.063
-398.179	322.526	-0.107	0.202
-397.165	-122.408	0.302	0.049
-396.150	-200.000	0.048	0.211
-395.136	226.659	-0.104	-0.168
-394.121	36.804	0.192	0.168
-393.106	-50.055	0.239	-0.112
-392.092	800.000	-0.087	0.289
-391.077	-113.252	-0.106	0.021
-390.063	-35.901	0.066	-0.036
-389.048	24.042	0.171	-0.140
-388.033	-6.050	-0.156	0.106
-387.019	724.581	-0.074	0.195
-386.004	-200.000	0.066	-0.357
-384.990	-44.587	-0.142	0.070
-383.975	-141.474	0.126	0.013
-382.960	238.789	-0.261	0.431
-381.946	-96.632	0.194	0.051
-380.931	-61.994	0.090	0.037
-379.917	37.303	-0.022	-0.019
-378.902	84.543	-0.067	0.073
-377.888	54.094	-0.060	0.057
-376.873	6.219	0.299	-0.220
-375.858	-15.056	-0.102	-0.065
-374.844	800.000	0.018	0.060
-373.829	-168.091	-0.342	-0.013
-372.815	-4.691	-0.123	-0.084
-371.800	-157.261	-0.326	0.020
-370.785	592.509	-0.113	0.277
-369.771	-195.437	-0.244	-0.002
-368.756	18.676	-0.288	-0.228
-367.742	-23.427	0.092	0.055
-366.727	-120.535	0.165	0.028
-365.712	800.000	-0.082	-0.342
-364.698	164.829	-0.011	0.016
-363.683	17.827	-0.111	-0.087
-362.669	800.000	-0.068	-0.227
-361.654	613.231	-0.091	-0.225
-360.639	-200.000	0.009	0.337
-359.625	800.000	-0.051	-0.142
-358.610	425.107	-0.105	-0.224
-357.596	86.170	-0.182	0.198
-356.581	338.446	0.264	0.508
-355.566	144.677	-0.119	0.157
-354.552	800.000	-0.078	-0.324
-353.537	105.318	0.192	0.225
-352.523	-200.000	-0.035	0.398
-351.508	-71.123	0.294	0.109
-350.493	-131.593	-0.030	0.004
-349.479	-103.416	-0.423	-0.099
-348.464	-75.369	0.140	-0.049
-347.450	-17.422	0.062	-0.039
-346.435	-200.000	0.009	-0.047
-345.420	-38.530	0.337	-0.176
-344.406	91.674	0.075	-0.084
-343.391	57.790	0.123	-0.119
-342.377	43.010	-0.144	-0.130
-341.362	334.593	-0.054	-0.104
-340.348	395.537	0.096	0.198
-339.333	-146.268	0.217	0.019
-338.318	32.215	-0.266	0.227
-337.304	93.730	-0.043	-0.048
-336.289	-84.865	-0.245	0.076
-335.275	63.397	0.145	0.144
-334.260	-8.243	0.189	-0.126
-333.245	-138.331	0.100	-0.011
-332.231	-61.428	0.114	0.048
-331.216	191.355	-0.123	-0.184
-330.202	800.000	0.023	-0.075
-329.187	21.292	0.073	-0.058
-328.172	194.598	0.077	0.115
-327.158	-35.708	-0.431	-0.231
-326.143	-90.080	-0.275	-0.079
-325.129	-200.000	0.013	-0.180
-324.114	282.111	-0.035	0.063
-323.099	360.766	0.178	0.353
-322.085	96.778	0.213	0.242
-321.070	-101.532	-0.081	0.020
-320.056	-200.000	-0.016	0.214
-319.041	15.105	0.211	-0.164
-318.026	760.846	0.084	0.224
-317.012	93.195	-0.227	0.254
-315.997	-99.966	-0.311	0.077
-314.983	800.000	-0.068	0.245
-313.968	354.158	-0.071	0.139
-312.953	-82.122	0.262	-0.085
-311.939	-85.912	0.196	-0.060
-310.924	41.071	0.189	-0.169
-309.910	174.529	-0.045	0.064
-308.895	-122.030	-0.137	-0.022
-307.880	114.358	-0.225	-0.270
-306.866	800.000	0.147	0.503
-305.851	800.000	0.054	0.161
-304.837	-200.000	-0.016	0.206
-303.822	130.948	0.106	0.134
-302.807	-136.996	-0.291	-0.033
-301.793	10.439	0.022	0.016
-300.778	123.083	-0.178	0.220
-299.764	-87.314	-0.126	0.038
-298.749	-145.572	0.492	0.044
-297.735	-200.000	-0.054	0.304
-296.720	30.041	-0.093	0.078
-295.705	800.000	-0.051	-0.188
-294.691	-200.000	-0.049	0.326
-293.676	756.895	-0.198	0.529
-292.662	-200.000	-0.002	-0.049
-291.647	259.062	0.160	-0.273
-290.632	-200.000	-0.040	0.315
-289.618	-200.000	0.003	0.069
-288.603	-109.653	0.209	-0.043
-287.589	-83.269	-0.109	-0.035
-286.574	-200.000	0.035	0.164
-285.559	-3.764	-0.257	0.176
-284.545	47.099	-0.086	-0.079
-283.530	99.949	-0.074	0.085
-282.516	800.000	-0.030	0.127
-281.501	-200.000	0.046	-0.259
-280.486	-24.296	0.456	-0.269
-279.472	-200.000	-0.029	0.155
-278.457	-103.868	-0.107	0.025
-277.443	-169.454	0.197	-0.007
-276.428	240.676	0.084	0.138
-275.413	-141.865	-0.066	0.007
-274.399	-200.000	0.103	0.654
-273.384	-38.077	-0.398	0.208
-272.370	-200.000	0.057	-0.567
-271.355	-80.211	0.110	0.036
-270.340	40.979	0.208	0.185
-269.326	800.000	0.049	0.191
-268.311	44.550	-0.244	0.221
-267.297	800.000	0.123	-0.400
-266.282	110.404	-0.149	-0.176
-265.267	800.000	0.023	0.070
-264.253	-124.753	-0.211	-0.032
-263.238	6.936	-0.128	-0.094
-262.224	-110.196	-0.167	-0.034
-261.209	206.634	0.097	0.150
-260.195	-96.610	-0.048	0.013
-259.180	34.816	-0.071	0.061
-258.165	129.794	0.157	0.198
-257.151	-7.922	-0.052	-0.034
-256.136	800.000	0.018	-0.068
-255.122	-69.304	-0.116	0.044
-254.107	479.898	-0.097	-0.217
-253.092	-200.000	-0.014	-0.226
-252.078	-150.246	-0.076	-0.006
-251.063	222.289	0.139	-0.220
-250.049	90.708	0.100	0.110
-249.034	-105.349	0.106	0.024
-248.019	-48.701	-0.112	-0.053
-247.005	0.991	-0.321	0.227
-245.990	37.655	-0.228	-0.200
-244.976	-164.469	-0.125	-0.006
-243.961	607.097	-0.097	0.238
-242.946	37.190	0.086	0.075
-241.932	31.959	-0.102	0.087
-240.917	41.857	0.106	-0.095
-239.903	-118.126	0.180	0.032
-238.888	-200.000	0.038	0.172
-237.873	96.575	0.155	-0.175
-236.859	231.910	0.146	0.236
-235.844	-200.000	-0.028	0.127
-234.830	-150.527	-0.197	0.015
-233.815	274.147	-0.150	-0.262
-232.800	-6.738	0.292	-0.196
-231.786	25.634	-0.229	0.188
-230.771	-77.253	-0.116	0.040
-229.757	154.504	0.164	-0.222
-228.742	-102.744	-0.267	-0.063
-227.727	703.495	-0.010	0.026
-226.713	-126.044	0.195	-0.029
-225.698	-200.000	0.022	-0.136
-224.684	10.770	0.163	-0.123
-223.669	-105.737	0.287	0.064
-222.655	21.853	-0.080	-0.064
-221.640	-156.482	0.222	-0.014
-220.625	202.860	0.231	0.351
-219.611	-30.994	0.190	-0.106
-218.596	-200.000	-0.056	0.318
-217.582	386.089	0.122	0.249
-216.567	-200.000	0.008	-0.262
-215.552	-51.228	0.279	0.128
-214.538	745.234	0.089	-0.235
-213.523	12.137	0.281	-0.213
-212.509	-200.000	-0.101	-0.721
-211.494	76.989	-0.191	-0.200
-210.479	-15.757	-0.170	0.107
-209.465	-177.700	0.280	0.007
-208.450	-188.945	0.424	0.005
-207.436	-154.730	0.270	0.018
-206.421	45.687	-0.271	0.247
-205.406	-43.855	0.218	-0.108
-204.392	-200.000	0.042	0.382
-203.377	68.197	0.068	0.068
-202.363	-200.000	0.006	-0.367
-201.348	800.000	0.078	-0.216
-200.333	268.123	-0.171	-0.295
-199.319	373.141	-0.051	0.102
-198.304	193.699	-0.063	0.094
-197.290	456.125	0.111	-0.242
-196.275	60.172	0.052	0.051
-195.260	198.034	-0.167	-0.251
-194.246	54.483	-0.113	-0.108
-193.231	-11.316	0.092	0.060
-192.217	-200.000	0.057	-0.253
-191.202	-150.689	0.321	-0.024
-190.187	-61.020	-0.032	-0.013
-189.173	-134.436	-0.119	0.014
-188.158	800.000	0.141	-0.429
-187.144	-200.000	0.036	0.180
-186.129	-82.557	-0.095	-0.030
-185.114	-200.000	-0.004	-0.083
-184.100	10.421	0.279	0.209
-183.085	-200.000	0.023	0.233
-182.071	86.219	-0.090	0.097
-181.056	-105.695	-0.313	0.070
-180.042	-200.000	-0.009	0.324
-179.027	74.176	0.212	0.219
-178.012	98.886	0.088	-0.100
-176.998	-112.178	0.101	0.020
-175.983	-19.065	0.346	-0.212
-174.969	-200.000	0.029	-0.229
-173.954	800.000	0.054	-0.154
-172.939	34.200	-0.126	0.108
-171.925	18.241	-0.250	-0.196
-170.910	201.363	0.138	0.209
-169.896	-25.596	-0.059	-0.034
-168.881	-6.726	-0.185	-0.124
-167.866	93.275	-0.133	-0.148
-166.852	800.000	-0.020	0.076
-165.837	204.211	0.244	0.372
-164.823	-126.235	0.137	-0.020
-163.808	-28.174	0.234	0.133
-162.793	-200.000	-0.028	0.314
-161.779	619.449	-0.061	-0.151
-160.764	574.170	-0.141	-0.339
-159.750	626.528	-0.126	-0.312
-158.735	37.459	0.086	0.075
-157.720	263.097	-0.133	0.227
-156.706	800.000	0.053	0.195
-155.691	36.495	0.196	0.170
-154.677	356.634	0.126	0.247
-153.662	83.050	-0.130	0.139
-152.647	-47.363	0.204	-0.098
-151.633	-146.736	0.217	0.018
-150.618	70.803	-0.132	-0.134
-149.604	106.616	-0.231	-0.269
-148.589	507.051	-0.085	-0.195
-147.574	-28.886	0.308	0.174
-146.560	-50.268	0.291	-0.135
-145.545	-200.000	0.022	0.239
-144.531	-68.560	0.284	-0.108
-143.516	-78.318	-0.046	-0.015
-142.502	-108.997	0.145	-0.030
-141.487	442.500	0.048	-0.104
-140.472	-200.000	-0.034	-0.215
-139.458	-200.000	0.002	-0.269
-138.443	800.000	-0.005	0.015
-137.429	326.992	-0.078	0.147
-136.414	-98.901	-0.252	0.063
-135.399	128.228	0.152	-0.190
-134.385	183.210	0.230	-0.333
-133.370	50.786	0.083	-0.078
-132.356	43.608	-0.068	0.061
-131.341	321.449	0.237	0.442
-130.326	-60.898	0.243	-0.101
-129.312	-61.810	-0.266	-0.109
-128.297	-7.275	-0.126	-0.084
-127.283	-163.623	0.141	-0.007
-126.268	156.661	0.106	-0.144
-125.253	-200.000	0.047	-0.314
-124.239	216.542	0.146	0.228
-123.224	477.495	0.071	-0.159
-122.210	-200.000	-0.061	-0.393
-121.195	800.000	0.071	-0.273
-120.180	99.165	-0.139	-0.157
