DTS Sentinel unit serial number:	SN413079Multiplexer serial number:	ORYXHardware model number:	OX4-SRSoftware version number:	ORYX F/W v4.00 Oryx Data Collector v3.7.2.0data status	okinstallation	princeton_trtdifferential loss correction	single-endedforward channel	channel 2reverse channel	N/Adate	2019/09/11time	19:41:10forward acquisition time	60.00reverse acquisition time	0.00gamma	496.2192k internal	0.2307k external	0.2307temperature offset calibration	1.0049default loss term (dB/km)	0.3790temperature slope calibration	1.0000multiplexer offset coefficient	1.0000multiplexer slope coefficient	1.0000fibre end	0.00T internal ref (°C)	39.77T ext. ref 1 (°C)	1.34T ext. ref 2 (°C)	32.40length (m)	temperature (°C)	Stokes	anti-Stokes-747.200	525.010	0.100	-0.240
-746.185	-200.000	0.041	-0.389
-745.171	-38.157	0.233	-0.126
-744.156	-110.967	-0.312	-0.065
-743.142	-46.524	0.493	0.246
-742.127	-86.413	-0.217	0.068
-741.112	-125.339	0.105	-0.016
-740.098	280.309	-0.129	0.234
-739.083	-200.000	-0.023	-0.199
-738.069	800.000	0.087	-0.363
-737.054	-163.312	0.124	0.006
-736.039	800.000	-0.076	-0.249
-735.025	-59.764	0.236	-0.103
-734.010	-90.082	-0.147	-0.044
-732.996	246.773	-0.132	-0.226
-731.981	59.284	-0.237	0.237
-730.966	-115.970	-0.245	-0.046
-729.952	-140.573	0.183	0.019
-728.937	-36.813	-0.296	0.162
-727.923	-169.715	-0.279	-0.010
-726.908	193.124	0.215	-0.331
-725.894	-141.163	-0.289	0.030
-724.879	166.332	-0.093	-0.135
-723.864	284.325	0.194	-0.355
-722.850	73.589	0.184	0.196
-721.835	152.410	0.105	0.146
-720.821	-200.000	0.089	-0.680
-719.806	-200.000	-0.008	-0.192
-718.791	272.763	0.068	-0.122
-717.777	-35.220	0.195	0.108
-716.762	800.000	0.038	0.137
-715.748	361.422	-0.109	0.221
-714.733	-110.969	-0.190	0.040
-713.718	411.615	0.121	0.262
-712.704	326.526	-0.127	0.248
-711.689	-147.129	-0.285	0.025
-710.675	-171.236	0.231	-0.008
-709.660	-57.833	-0.135	0.060
-708.645	451.365	-0.230	0.517
-707.631	-2.754	0.074	-0.052
-706.616	-41.311	0.082	-0.043
-705.602	-200.000	0.006	-0.146
-704.587	-200.000	0.016	-0.121
-703.572	-6.796	-0.289	-0.199
-702.558	-4.134	-0.144	0.101
-701.543	265.153	0.030	0.054
-700.529	-200.000	-0.038	0.176
-699.514	-20.617	-0.524	-0.327
-698.499	-200.000	0.025	0.255
-697.485	-135.041	-0.319	-0.039
-696.470	-102.257	-0.015	0.004
-695.456	724.306	0.078	0.210
-694.441	-39.536	0.084	-0.045
-693.426	-200.000	-0.070	0.592
-692.412	-75.409	-0.281	0.102
-691.397	133.854	0.336	0.441
-690.383	533.321	0.020	0.047
-689.368	34.025	-0.055	-0.049
-688.354	98.409	-0.274	-0.320
-687.339	-200.000	-0.025	0.174
-686.324	-61.811	-0.125	0.053
-685.310	565.177	-0.111	-0.272
-684.295	-143.498	0.308	0.030
-683.281	800.000	-0.027	-0.081
-682.266	800.000	0.053	-0.168
-681.251	-37.430	-0.024	-0.013
-680.237	-157.408	0.189	0.012
-679.222	-83.167	-0.366	-0.119
-678.208	-105.733	-0.129	-0.030
-677.193	39.836	0.012	0.011
-676.178	514.652	-0.036	0.084
-675.164	43.807	-0.082	0.076
-674.149	-73.000	-0.225	0.084
-673.135	223.519	0.062	-0.101
-672.120	-58.142	0.268	0.118
-671.105	-66.559	-0.309	0.124
-670.091	106.883	0.237	0.285
-669.076	46.915	0.077	-0.073
-668.062	43.318	0.103	-0.096
-667.047	-200.000	0.010	-0.061
-666.032	204.452	-0.187	0.293
-665.018	184.409	0.121	0.182
-664.003	165.368	0.026	0.038
-662.989	20.334	0.138	0.113
-661.974	271.979	0.140	-0.250
-660.959	295.747	0.117	0.217
-659.945	-200.000	0.008	-0.151
-658.930	-200.000	-0.033	0.160
-657.916	-116.567	0.526	0.098
-656.901	14.762	0.086	-0.068
-655.886	-177.624	0.365	0.009
-654.872	-99.836	0.195	0.050
-653.857	-72.664	-0.073	0.027
-652.843	-200.000	0.020	-0.132
-651.828	-176.015	-0.096	-0.003
-650.814	-93.999	0.144	-0.040
-649.799	18.551	-0.078	-0.063
-648.784	-200.000	0.005	0.119
-647.770	54.818	-0.217	0.212
-646.755	75.277	0.262	0.280
-645.741	-200.000	-0.070	-0.522
-644.726	-74.358	0.320	-0.117
-643.711	489.457	0.023	-0.054
-642.697	800.000	0.063	-0.183
-641.682	-111.605	-0.248	-0.051
-640.668	-56.043	-0.149	-0.067
-639.653	-89.707	-0.226	-0.067
-638.638	-149.208	-0.163	0.013
-637.624	38.045	-0.242	-0.218
-636.609	-200.000	0.014	-0.154
-635.595	-91.126	-0.178	0.052
-634.580	238.217	-0.179	0.301
-633.565	-68.152	0.187	-0.074
-632.551	125.853	0.114	-0.146
-631.536	-122.232	-0.124	-0.021
-630.522	-74.801	0.150	0.055
-629.507	-200.000	0.001	-0.266
-628.492	-200.000	0.175	0.000
-627.478	102.211	-0.199	-0.235
-626.463	-57.941	-0.092	0.040
-625.449	221.768	0.143	-0.233
-624.434	-200.000	0.049	-0.262
-623.419	221.649	-0.113	0.184
-622.405	-136.068	-0.055	0.007
-621.390	-200.000	-0.015	0.205
-620.376	-200.000	-0.011	-0.207
-619.361	-103.340	0.129	-0.031
-618.346	303.740	-0.113	0.212
-617.332	157.282	-0.044	-0.061
-616.317	-89.729	0.120	-0.035
-615.303	-155.434	-0.177	-0.012
-614.288	7.252	-0.160	-0.121
-613.273	438.864	0.140	0.308
-612.259	273.041	0.026	-0.047
-611.244	-113.985	0.339	0.067
-610.230	44.171	0.070	0.065
-609.215	-200.000	0.030	-0.133
-608.201	97.360	-0.055	-0.064
-607.186	-200.000	-0.018	0.107
-606.171	-31.480	-0.142	0.081
-605.157	-78.186	0.204	0.071
-604.142	-200.000	0.052	-0.406
-603.128	-200.000	-0.020	-0.271
-602.113	-60.393	-0.361	-0.155
-601.098	166.042	-0.082	-0.118
-600.084	-200.000	0.029	-0.221
-599.069	161.193	-0.039	0.055
-598.055	800.000	-0.059	-0.178
-597.040	231.610	-0.084	-0.139
-596.025	-52.490	-0.419	-0.196
-595.011	800.000	0.053	-0.163
-593.996	-40.151	-0.199	-0.105
-592.982	7.291	0.194	-0.146
-591.967	-92.192	-0.218	0.062
-590.952	6.213	0.166	-0.124
-589.938	537.797	-0.075	0.180
-588.923	800.000	0.022	-0.087
-587.909	-191.037	0.439	-0.005
-586.894	-200.000	0.014	-0.197
-585.879	224.954	0.197	0.323
-584.865	-89.582	-0.176	-0.052
-583.850	-200.000	-0.049	-0.289
-582.836	167.440	0.183	0.263
-581.821	-184.323	-0.394	-0.007
-580.806	-52.369	-0.352	0.165
-579.792	-5.824	0.174	-0.120
-578.777	-11.219	-0.092	-0.061
-577.763	77.465	-0.073	0.078
-576.748	-58.786	-0.216	0.095
-575.733	29.538	-0.086	-0.074
-574.719	756.455	0.101	-0.276
-573.704	-25.824	-0.295	0.175
-572.690	-200.000	0.001	-0.204
-571.675	170.280	0.210	-0.304
-570.661	-200.000	0.034	-0.272
-569.646	800.000	0.063	-0.265
-568.631	154.691	0.050	0.070
-567.617	-113.822	0.179	-0.035
-566.602	176.017	0.172	-0.252
-565.588	-99.919	-0.574	0.145
-564.573	-200.000	-0.001	0.110
-563.558	-39.319	-0.248	-0.131
-562.544	-137.719	-0.100	0.011
-561.529	199.284	-0.086	-0.132
-560.515	-98.726	0.226	0.058
-559.500	233.227	0.215	0.357
-558.485	-103.783	-0.298	0.070
-557.471	12.525	-0.184	0.144
-556.456	70.343	0.204	-0.213
-555.442	800.000	0.035	-0.099
-554.427	185.086	0.193	0.289
-553.412	83.336	-0.287	0.316
-552.398	-62.207	-0.200	-0.084
-551.383	32.662	-0.075	-0.065
-550.369	617.515	0.055	0.138
-549.354	389.208	-0.206	-0.431
-548.339	185.979	-0.135	-0.202
-547.325	423.335	0.091	0.198
-546.310	-82.424	-0.353	-0.116
-545.296	-200.000	0.032	0.214
-544.281	-29.074	0.261	-0.151
-543.266	-71.868	0.103	0.039
-542.252	11.246	-0.233	0.180
-541.237	524.478	-0.053	-0.126
-540.223	143.291	-0.026	-0.035
-539.208	800.000	0.005	0.020
-538.193	-151.981	0.349	-0.026
-537.179	156.189	-0.085	0.118
-536.164	-168.770	0.145	-0.006
-535.150	-127.211	0.207	-0.031
-534.135	151.583	-0.113	0.156
-533.121	-129.340	-0.402	-0.056
-532.106	61.417	-0.077	0.077
-531.091	415.363	-0.102	-0.220
-530.077	55.745	0.086	0.084
-529.062	5.105	0.178	-0.132
-528.048	-158.924	0.084	0.005
-527.033	-16.235	0.352	0.226
-526.018	104.493	0.108	0.129
-525.004	426.084	-0.063	-0.138
-523.989	8.429	0.215	0.163
-522.975	464.008	-0.147	0.332
-521.960	-130.495	0.239	0.033
-520.945	177.024	-0.156	0.230
-519.931	57.256	-0.042	0.041
-518.916	671.392	0.095	0.249
-517.902	-140.816	0.203	-0.021
-516.887	-200.000	-0.014	-0.066
-515.872	31.166	-0.216	-0.187
-514.858	-200.000	-0.052	0.386
-513.843	719.260	-0.009	0.025
-512.829	36.339	-0.221	-0.196
-511.814	-200.000	0.007	0.068
-510.799	-155.702	0.391	-0.025
-509.785	26.665	0.158	0.134
-508.770	-63.883	0.005	-0.002
-507.756	-184.651	-0.332	-0.005
-506.741	-124.949	0.028	0.004
-505.726	-84.249	0.304	-0.097
-504.712	8.483	-0.080	-0.061
-503.697	-23.524	0.083	0.050
-502.683	-25.905	0.361	0.214
-501.668	800.000	0.111	0.363
-500.653	-18.462	0.161	-0.101
-499.639	11.359	0.087	0.067
-498.624	-102.463	0.235	0.057
-497.610	-21.689	0.180	0.110
-496.595	-171.124	0.284	-0.010
-495.581	101.681	-0.267	0.313
-494.566	800.000	0.050	0.186
-493.551	323.514	-0.098	-0.188
-492.537	-128.338	-0.194	0.028
-491.522	-200.000	0.029	0.219
-490.508	11.789	-0.077	-0.060
-489.493	800.000	0.049	0.181
-488.478	61.895	-0.142	-0.142
-487.464	-112.268	-0.258	0.052
-486.449	244.207	0.101	-0.171
-485.435	768.164	0.040	0.108
-484.420	-200.000	-0.003	0.108
-483.405	2.286	0.187	-0.136
-482.391	0.956	0.227	0.164
-481.376	800.000	0.055	0.230
-480.362	-14.108	-0.183	-0.119
-479.347	391.445	-0.088	0.183
-478.332	164.418	-0.175	-0.249
-477.318	-146.000	0.159	0.014
-476.303	357.858	0.280	0.562
-475.289	611.868	-0.053	0.134
-474.274	146.753	-0.047	-0.063
-473.259	142.691	0.012	-0.016
-472.245	336.162	0.135	0.263
-471.230	-200.000	-0.081	0.433
-470.216	55.831	0.210	-0.205
-469.201	-200.000	-0.023	0.221
-468.186	800.000	-0.076	0.274
-467.172	232.734	0.114	0.188
-466.157	99.254	0.106	0.124
-465.143	800.000	-0.086	-0.281
-464.128	-152.366	0.076	-0.006
-463.113	-200.000	0.047	-0.317
-462.099	-52.913	0.356	-0.165
-461.084	176.771	-0.134	0.196
-460.070	800.000	-0.087	-0.380
-459.055	-70.472	0.202	-0.077
-458.040	-77.153	0.297	0.104
-457.026	-79.904	-0.041	0.014
-456.011	-15.754	-0.237	-0.152
-454.997	-114.362	-0.161	0.031
-453.982	-151.934	-0.083	-0.006
-452.968	135.618	0.104	0.136
-451.953	-85.082	0.119	0.037
-450.938	-40.032	-0.065	0.034
-449.924	-66.766	0.232	0.092
-448.909	405.475	0.163	-0.345
-447.895	54.376	0.292	-0.283
-446.880	-77.658	-0.043	0.015
-445.865	-22.108	-0.113	-0.069
-444.851	281.753	-0.081	-0.145
-443.836	133.690	-0.033	0.043
-442.822	-200.000	0.078	0.351
-441.807	58.423	0.106	0.105
-440.792	44.495	-0.118	-0.109
-439.778	-50.585	-0.180	-0.085
-438.763	61.151	0.033	-0.033
-437.749	-73.738	-0.027	0.010
-436.734	105.871	0.144	-0.171
-435.719	50.241	0.043	-0.041
-434.705	800.000	-0.108	-0.378
-433.690	800.000	-0.147	0.421
-432.676	-200.000	-0.028	0.227
-431.661	-200.000	0.032	-0.280
-430.646	-28.996	-0.204	0.118
-429.632	-87.560	0.382	0.116
-428.617	-32.591	0.120	-0.067
-427.603	262.872	-0.073	-0.127
-426.588	104.075	0.144	-0.170
-425.573	-200.000	0.006	0.111
-424.559	752.758	0.140	-0.378
-423.544	67.337	0.230	-0.236
-422.530	515.760	-0.127	0.299
-421.515	-200.000	-0.031	-0.157
-420.500	-7.711	0.161	0.109
-419.486	-94.583	0.229	-0.063
-418.471	-112.791	0.306	-0.061
-417.457	34.427	-0.077	0.068
-416.442	-36.856	0.114	0.061
-415.428	-37.359	-0.228	0.122
-414.413	-200.000	0.220	0.001
-413.398	-32.689	-0.356	-0.199
-412.384	800.000	-0.072	-0.208
-411.369	-27.139	0.324	-0.190
-410.355	-200.000	0.027	0.301
-409.340	-24.944	0.137	-0.081
-408.325	-65.908	0.173	-0.070
-407.311	800.000	-0.063	0.195
-406.296	152.324	-0.124	-0.170
-405.282	-200.000	-0.001	-0.200
-404.267	-200.000	0.008	0.126
-403.252	449.435	-0.064	0.141
-402.238	276.087	-0.106	0.189
-401.223	186.582	-0.123	-0.184
-400.209	-116.279	-0.257	0.048
-399.194	630.954	-0.079	-0.200
-398.179	800.000	-0.038	0.121
-397.165	391.884	-0.171	0.357
-396.150	52.880	-0.152	0.146
-395.136	-200.000	-0.030	-0.437
-394.121	-114.317	-0.082	-0.016
-393.106	-109.770	-0.141	-0.030
-392.092	-200.000	0.021	-0.309
-391.077	-100.764	0.193	-0.048
-390.063	444.154	-0.089	-0.197
-389.048	-160.158	-0.092	0.005
-388.033	-200.000	0.030	0.311
-387.019	45.152	0.173	0.160
-386.004	-71.790	0.119	0.044
-384.990	18.391	0.218	0.175
-383.975	800.000	0.070	0.216
-382.960	-81.347	0.167	-0.055
-381.946	-122.759	0.118	0.019
-380.931	63.183	0.157	0.157
-379.917	-127.758	-0.137	-0.020
-378.902	17.341	0.021	-0.017
-377.888	217.721	0.030	-0.047
-376.873	-200.000	0.037	-0.185
-375.858	-144.423	-0.155	-0.014
-374.844	62.617	-0.082	-0.082
-373.829	185.407	-0.184	-0.274
-372.815	-200.000	-0.018	-0.231
-371.800	-200.000	-0.022	-0.229
-370.785	-85.052	-0.170	-0.053
-369.771	-84.969	0.286	-0.090
-368.756	264.551	-0.097	0.169
-367.742	-149.092	0.102	-0.008
-366.727	-200.000	-0.100	0.451
-365.712	-56.763	-0.198	-0.088
-364.698	-75.483	-0.312	-0.111
-363.683	-14.554	-0.061	0.039
-362.669	103.152	0.015	0.018
-361.654	163.032	-0.192	-0.270
-360.639	83.073	-0.077	0.084
-359.625	56.098	-0.193	-0.188
-358.610	-97.993	0.480	-0.124
-357.596	-10.871	-0.156	0.103
-356.581	33.684	-0.163	-0.142
-355.566	-145.149	-0.161	0.015
-354.552	82.439	0.112	0.122
-353.537	-149.755	-0.240	-0.019
-352.523	-161.028	0.053	0.003
-351.508	318.611	0.102	0.194
-350.493	-59.350	-0.302	-0.130
-349.479	-78.889	-0.317	0.108
-348.464	800.000	-0.044	0.131
-347.450	-88.798	0.185	0.055
-346.435	-200.000	0.018	0.090
-345.420	-12.530	-0.363	0.237
-344.406	-200.000	-0.025	0.252
-343.391	-37.910	-0.506	-0.269
-342.377	800.000	-0.117	-0.359
-341.362	-19.100	0.272	0.169
-340.348	258.463	-0.069	0.119
-339.333	109.611	-0.060	-0.072
-338.318	64.640	0.193	-0.195
-337.304	132.883	0.115	-0.149
-336.289	14.443	-0.247	0.193
-335.275	-98.717	0.148	0.038
-334.260	224.077	-0.139	-0.224
-333.245	375.905	0.128	-0.261
-332.231	-92.958	-0.089	0.025
-331.216	105.059	0.215	-0.253
-330.202	800.000	-0.075	-0.232
-329.187	800.000	0.025	-0.109
-328.172	8.298	0.244	0.183
-327.158	37.119	0.141	-0.125
-326.143	487.692	0.061	-0.140
-325.129	701.083	-0.030	0.079
-324.114	-58.702	0.221	0.096
-323.099	39.897	0.141	0.127
-322.085	-200.000	-0.013	-0.079
-321.070	-102.764	-0.140	0.033
-320.056	-66.945	0.042	-0.017
-319.041	-67.641	-0.084	0.033
-318.026	59.679	0.188	-0.185
-317.012	-200.000	-0.004	0.061
-315.997	114.247	0.042	-0.051
-314.983	522.091	-0.035	-0.083
-313.968	-200.000	-0.011	0.157
-312.953	800.000	-0.007	-0.028
-311.939	50.347	0.231	-0.218
-310.924	520.245	0.040	0.094
-309.910	275.079	-0.118	-0.209
-308.895	-52.502	0.170	0.078
-307.880	-14.550	0.074	0.047
-306.866	-71.224	-0.167	-0.063
-305.851	-200.000	-0.003	0.185
-304.837	-9.673	-0.136	-0.091
-303.822	-104.386	0.409	0.095
-302.807	-200.000	0.038	-0.223
-301.793	145.618	-0.019	0.025
-300.778	509.923	0.106	0.246
-299.764	-200.000	0.018	0.136
-298.749	285.106	-0.135	0.243
-297.735	-200.000	-0.027	0.175
-296.720	143.601	0.140	-0.186
-295.705	148.011	-0.147	-0.198
-294.691	800.000	-0.025	-0.093
-293.676	64.044	-0.327	-0.328
-292.662	175.131	0.090	0.130
-291.647	800.000	0.058	0.180
-290.632	41.672	-0.077	0.070
-289.618	34.314	0.142	-0.124
-288.603	-200.000	-0.040	0.313
-287.589	303.994	0.187	0.347
-286.574	-200.000	0.009	0.045
-285.559	-200.000	-0.094	0.632
-284.545	-101.699	0.364	-0.088
-283.530	-132.051	-0.330	-0.043
-282.516	-153.415	0.131	-0.009
-281.501	156.768	0.162	0.223
-280.486	-200.000	-0.152	-0.001
-279.472	-92.257	-0.038	0.011
-278.457	800.000	0.041	0.143
-277.443	-29.403	0.111	-0.063
-276.428	81.620	-0.134	0.145
-275.413	-140.447	0.344	-0.036
-274.399	0.758	-0.151	0.108
-273.384	40.710	-0.254	0.229
-272.370	800.000	-0.065	-0.281
-271.355	-104.712	-0.382	-0.088
-270.340	-28.548	-0.146	-0.084
-269.326	451.770	0.069	-0.151
-268.311	-200.000	-0.010	0.196
-267.297	-200.000	0.018	0.278
-266.282	471.448	-0.104	0.233
-265.267	226.857	0.036	-0.058
-264.253	-200.000	-0.025	-0.167
-263.238	367.349	0.111	-0.224
-262.224	-31.767	0.119	-0.067
-261.209	22.188	0.205	-0.167
-260.195	29.384	0.054	-0.046
-259.180	-200.000	0.010	-0.086
-258.165	41.760	-0.122	-0.111
-257.151	-159.058	-0.287	-0.016
-256.136	-70.573	-0.189	0.071
-255.122	-3.231	0.003	0.002
-254.107	-160.305	-0.250	0.013
-253.092	-52.827	0.429	0.197
-252.078	46.960	-0.246	-0.228
-251.063	800.000	-0.047	0.194
-250.049	-200.000	0.037	-0.215
-249.034	-150.337	-0.264	0.020
-248.019	800.000	0.058	0.162
-247.005	-17.173	-0.148	0.093
-245.990	-72.951	-0.141	-0.052
-244.976	-200.000	0.025	-0.312
-243.961	305.158	-0.108	-0.200
-242.946	-154.364	-0.288	-0.019
-241.932	-200.000	-0.016	0.185
-240.917	354.883	0.134	-0.266
-239.903	-73.197	-0.130	0.047
-238.888	216.093	0.210	-0.333
-237.873	111.093	0.134	0.161
-236.859	87.549	0.101	0.112
-235.844	800.000	-0.039	-0.125
-234.830	70.773	0.074	0.076
-233.815	-101.771	-0.115	0.028
-232.800	158.390	-0.129	0.179
-231.786	800.000	-0.074	-0.255
-230.771	196.613	-0.151	-0.229
-229.757	-106.358	0.008	-0.002
-228.742	-108.821	0.054	-0.011
-227.727	240.410	-0.050	0.084
-226.713	310.130	0.154	0.287
-225.698	-52.403	0.285	0.132
-224.684	253.188	-0.049	0.084
-223.669	20.342	-0.051	-0.041
-222.655	-96.029	0.083	-0.022
-221.640	-105.745	-0.520	0.117
-220.625	7.351	0.268	-0.200
-219.611	-54.332	0.104	-0.047
-218.596	-15.625	-0.175	-0.111
-217.582	219.021	0.206	0.328
-216.567	-200.000	0.034	0.165
-215.552	737.792	0.057	-0.152
-214.538	800.000	-0.083	0.338
-213.523	-200.000	-0.008	-0.048
-212.509	80.924	0.084	-0.090
-211.494	86.689	0.079	-0.087
-210.479	-93.516	-0.275	-0.076
-209.465	-34.306	0.170	0.093
-208.450	-63.434	0.214	0.088
-207.436	800.000	-0.106	0.312
-206.421	-61.586	-0.143	-0.060
-205.406	-200.000	-0.060	0.325
-204.392	27.959	-0.141	0.118
-203.377	317.703	0.044	0.084
-202.363	-7.435	0.232	0.156
-201.348	300.622	0.110	0.202
-200.333	622.838	0.095	0.238
-199.319	5.400	0.125	-0.092
-198.304	-121.213	-0.357	-0.059
-197.290	-165.815	0.451	-0.019
-196.275	-85.868	0.086	0.026
-195.260	139.566	0.015	0.020
-194.246	795.276	0.137	0.376
-193.231	57.144	-0.050	-0.049
-192.217	-164.574	0.371	0.017
-191.202	146.159	0.071	-0.094
-190.187	-65.622	-0.065	0.026
-189.173	-87.369	-0.216	0.065
-188.158	92.669	-0.232	-0.260
-187.144	-200.000	-0.034	-0.164
-186.129	78.465	-0.115	0.122
-185.114	800.000	0.120	-0.380
-184.100	170.020	0.225	0.320
-183.085	31.315	0.102	0.087
-182.071	25.860	-0.291	-0.241
-181.056	-59.425	0.165	0.071
-180.042	764.011	0.090	-0.244
-179.027	-200.000	0.044	-0.221
-178.012	-90.242	-0.326	0.094
-176.998	128.950	0.225	-0.285
-175.983	-2.082	0.165	0.115
-174.969	146.870	-0.195	0.260
-173.954	-97.261	0.286	-0.074
-172.939	31.220	0.173	0.148
-171.925	-103.706	-0.222	0.052
-170.910	-200.000	0.001	-0.392
-169.896	-138.376	-0.031	-0.003
-168.881	-200.000	0.004	-0.043
-167.866	-200.000	0.012	0.226
-166.852	-200.000	-0.008	0.264
-165.837	28.778	-0.140	-0.118
-164.823	-71.395	0.383	0.143
-163.808	-147.637	-0.156	0.013
-162.793	130.869	-0.066	-0.084
-161.779	465.024	-0.039	0.086
-160.764	-200.000	-0.029	0.239
-159.750	641.876	0.140	-0.354
-158.735	-15.572	0.322	0.204
-157.720	497.049	0.036	0.082
-156.706	-200.000	-0.004	-0.107
-155.691	-117.737	-0.188	-0.034
-154.677	122.515	0.176	0.219
-153.662	-152.105	-0.408	0.029
-152.647	800.000	0.036	-0.130
-151.633	-24.096	0.333	0.198
-150.618	-200.000	-0.031	0.243
-149.604	-44.552	-0.167	0.083
-148.589	762.214	-0.063	-0.170
-147.574	-200.000	0.101	-0.460
-146.560	607.154	-0.065	0.160
-145.545	91.830	0.029	0.032
-144.531	-81.599	-0.129	0.042
-143.516	25.540	-0.255	-0.210
-142.502	-200.000	0.059	0.271
-141.487	43.470	-0.179	-0.162
-140.472	-27.305	-0.135	-0.078
-139.458	30.213	-0.105	0.089
-138.443	372.543	0.109	0.220
-137.429	76.980	0.161	-0.169
-136.414	196.462	-0.141	-0.214
-135.399	248.362	-0.062	0.105
-134.385	-200.000	0.040	0.257
-133.370	-105.256	0.132	0.030
-132.356	-79.244	-0.087	0.029
-131.341	150.536	0.068	0.091
-130.326	-104.381	-0.251	-0.058
-129.312	-106.305	-0.124	-0.027
-128.297	800.000	-0.075	0.253
-127.283	-99.532	0.134	0.033
-126.268	47.405	0.268	-0.248
-125.253	800.000	-0.022	-0.069
-124.239	-200.000	-0.010	-0.049
-123.224	101.091	-0.115	-0.133
-122.210	-200.000	-0.018	0.412
-121.195	-67.480	0.191	0.075
