DTS Sentinel unit serial number:	SN413079Multiplexer serial number:	ORYXHardware model number:	OX4-SRSoftware version number:	ORYX F/W v4.00 Oryx Data Collector v3.7.2.0data status	okinstallation	princeton_trtdifferential loss correction	single-endedforward channel	channel 2reverse channel	N/Adate	2019/09/17time	01:35:34forward acquisition time	60.00reverse acquisition time	0.00gamma	496.2192k internal	0.2329k external	0.2329temperature offset calibration	0.9973default loss term (dB/km)	0.3790temperature slope calibration	1.0000multiplexer offset coefficient	1.0000multiplexer slope coefficient	1.0000fibre end	0.00T internal ref (°C)	29.55T ext. ref 1 (°C)	0.11T ext. ref 2 (°C)	24.47length (m)	temperature (°C)	Stokes	anti-Stokes-747.200	-141.406	-0.335	-0.034
-746.185	-200.000	-0.013	0.449
-745.171	37.373	0.165	0.147
-744.156	-71.487	0.258	-0.097
-743.142	-200.000	0.032	0.150
-742.127	534.243	-0.114	0.273
-741.112	-40.732	0.369	0.192
-740.098	-93.573	-0.236	-0.066
-739.083	-8.736	0.126	0.085
-738.069	-92.963	-0.100	-0.028
-737.054	-200.000	0.001	-0.297
-736.039	-39.930	0.146	-0.077
-735.025	72.302	-0.060	-0.063
-734.010	-123.140	-0.053	-0.009
-732.996	-47.477	-0.146	-0.071
-731.981	467.343	0.090	-0.204
-730.966	-100.569	-0.171	0.043
-729.952	635.829	0.033	-0.084
-728.937	-34.611	-0.066	-0.036
-727.923	-6.043	0.221	-0.152
-726.908	-71.861	0.111	-0.041
-725.894	-72.277	-0.335	-0.125
-724.879	197.653	-0.218	-0.336
-723.864	-200.000	0.017	0.168
-722.850	29.375	-0.138	0.118
-721.835	-95.296	-0.191	0.052
-720.821	421.953	0.133	-0.288
-719.806	91.625	0.125	-0.142
-718.791	-200.000	-0.043	0.210
-717.777	-200.000	0.015	-0.084
-716.762	-67.847	-0.099	0.039
-715.748	800.000	0.045	-0.190
-714.733	-57.848	0.104	-0.046
-713.718	186.170	-0.104	0.156
-712.704	-158.590	-0.275	0.016
-711.689	-23.599	-0.119	-0.072
-710.675	-88.274	-0.398	-0.120
-709.660	-100.496	0.198	-0.049
-708.645	-9.557	-0.109	0.073
-707.631	-37.358	0.221	-0.119
-706.616	94.028	-0.125	-0.143
-705.602	-2.549	-0.235	-0.165
-704.587	610.115	-0.021	-0.053
-703.572	71.240	0.189	0.197
-702.558	49.688	-0.125	-0.118
-701.543	212.525	0.124	0.197
-700.529	-29.705	0.088	0.051
-699.514	-57.663	0.385	-0.170
-698.499	418.479	-0.094	-0.202
-697.485	170.844	-0.145	-0.208
-696.470	800.000	-0.033	-0.145
-695.456	-144.479	0.073	0.007
-694.441	3.433	-0.079	-0.058
-693.426	-200.000	-0.035	-0.291
-692.412	-3.637	0.150	-0.105
-691.397	199.626	0.204	-0.314
-690.383	-57.398	-0.162	-0.072
-689.368	65.585	-0.166	0.169
-688.354	54.221	-0.123	0.119
-687.339	-53.909	0.213	-0.098
-686.324	-39.260	0.236	-0.125
-685.310	-149.613	0.476	-0.038
-684.295	800.000	0.044	-0.173
-683.281	-41.465	-0.247	-0.128
-682.266	800.000	0.068	-0.199
-681.251	-50.600	-0.147	0.070
-680.237	-156.216	-0.147	0.009
-679.222	-55.551	0.146	0.066
-678.208	-100.318	-0.081	0.020
-677.193	-133.181	0.107	-0.014
-676.178	-126.459	-0.196	0.029
-675.164	800.000	-0.048	0.141
-674.149	-149.672	-0.145	-0.011
-673.135	-51.626	-0.403	-0.189
-672.120	-200.000	-0.018	-0.328
-671.105	127.732	0.142	-0.181
-670.091	-200.000	0.004	0.128
-669.076	-200.000	0.030	-0.204
-668.062	116.969	-0.048	-0.059
-667.047	656.567	0.059	0.152
-666.032	-200.000	0.029	0.206
-665.018	343.084	-0.231	0.455
-664.003	24.155	0.347	-0.288
-662.989	800.000	0.097	-0.359
-661.974	-124.577	0.142	-0.022
-660.959	-65.685	-0.219	-0.088
-659.945	-130.855	-0.180	-0.024
-658.930	98.079	-0.156	-0.180
-657.916	-72.172	-0.143	0.053
-656.901	-27.389	-0.130	-0.076
-655.886	16.988	-0.310	-0.247
-654.872	380.731	-0.075	-0.155
-653.857	-100.666	0.050	0.012
-652.843	800.000	0.052	-0.194
-651.828	-121.881	-0.226	0.037
-650.814	-85.736	-0.116	-0.036
-649.799	800.000	-0.128	0.420
-648.784	-88.297	-0.234	0.070
-647.770	444.997	0.132	0.292
-646.755	-47.327	-0.358	0.175
-645.741	800.000	-0.061	0.180
-644.726	247.857	-0.128	0.217
-643.711	298.259	-0.150	-0.277
-642.697	-63.945	-0.052	0.021
-641.682	-49.979	0.143	-0.068
-640.668	-166.941	0.106	-0.004
-639.653	-86.254	-0.443	0.137
-638.638	326.205	0.094	0.181
-637.624	2.878	-0.198	-0.144
-636.609	7.827	-0.079	0.059
-635.595	-24.723	0.114	-0.068
-634.580	-153.270	-0.105	-0.007
-633.565	296.471	0.057	-0.106
-632.551	-154.148	0.298	-0.020
-631.536	-163.962	0.392	0.018
-630.522	-79.544	-0.343	0.116
-629.507	-200.000	0.082	-0.395
-628.492	-200.000	0.048	-0.292
-627.478	-140.073	-0.227	0.024
-626.463	-92.543	0.178	0.050
-625.449	19.519	0.262	0.211
-624.434	250.525	0.019	-0.033
-623.419	800.000	0.039	-0.119
-622.405	-88.439	0.346	-0.103
-621.390	504.299	0.047	-0.108
-620.376	-109.168	-0.237	-0.050
-619.361	318.255	-0.084	0.160
-618.346	-51.948	0.078	-0.036
-617.332	271.242	-0.175	-0.309
-616.317	27.330	0.291	-0.245
-615.303	305.914	0.190	-0.355
-614.288	-161.978	0.221	-0.011
-613.273	30.764	0.252	-0.216
-612.259	52.620	0.104	0.099
-611.244	-200.000	-0.029	-0.319
-610.230	-200.000	0.005	-0.184
-609.215	117.275	0.126	0.155
-608.201	-79.837	0.341	-0.115
-607.186	156.737	0.112	-0.154
-606.171	800.000	0.123	-0.342
-605.157	-136.600	-0.148	-0.017
-604.142	-57.511	0.369	-0.162
-603.128	-15.498	-0.266	-0.170
-602.113	566.751	-0.146	0.354
-601.098	49.184	-0.130	0.122
-600.084	79.360	-0.138	-0.148
-599.069	-110.135	-0.431	-0.090
-598.055	-200.000	-0.031	0.218
-597.040	-72.077	-0.208	0.077
-596.025	-111.153	0.339	-0.070
-595.011	-200.000	-0.035	0.251
-593.996	-129.381	0.216	0.030
-592.982	-169.359	-0.231	-0.009
-591.967	-200.000	0.014	-0.175
-590.952	-40.333	-0.231	0.120
-589.938	51.791	0.123	-0.117
-588.923	46.363	0.327	0.303
-587.909	-137.021	0.144	-0.017
-586.894	325.372	0.145	0.277
-585.879	157.149	-0.089	0.123
-584.865	-26.787	-0.101	0.059
-583.850	16.022	-0.074	-0.058
-582.836	18.568	-0.196	0.157
-581.821	79.594	0.120	0.129
-580.806	293.191	-0.065	0.118
-579.792	34.242	0.179	0.157
-578.777	129.406	-0.087	0.112
-577.763	255.660	-0.066	0.113
-576.748	334.924	0.188	0.364
-575.733	-39.902	-0.174	0.091
-574.719	800.000	-0.030	-0.109
-573.704	800.000	-0.102	-0.416
-572.690	240.896	-0.205	0.342
-571.675	586.712	-0.068	0.167
-570.661	-37.697	0.369	0.197
-569.646	-26.175	-0.227	0.134
-568.631	470.528	0.070	0.158
-567.617	-8.897	-0.154	0.103
-566.602	-29.275	-0.140	0.080
-565.588	327.476	0.028	-0.054
-564.573	-200.000	0.002	0.121
-563.558	19.615	0.214	-0.172
-562.544	387.909	0.146	0.302
-561.529	-94.313	-0.081	0.022
-560.515	114.697	-0.317	-0.387
-559.500	-166.933	-0.247	-0.010
-558.485	5.709	-0.105	-0.078
-557.471	124.128	-0.110	-0.138
-556.456	-169.336	-0.195	-0.007
-555.442	342.522	-0.082	0.160
-554.427	-150.970	-0.176	0.013
-553.412	-8.641	-0.202	0.135
-552.398	-200.000	0.068	-0.373
-551.383	-91.729	-0.290	0.082
-550.369	-200.000	-0.021	-0.212
-549.354	-61.362	-0.177	-0.075
-548.339	-200.000	0.004	-0.084
-547.325	454.904	0.052	0.115
-546.310	210.382	-0.162	-0.254
-545.296	33.719	-0.275	-0.239
-544.281	167.134	0.145	-0.205
-543.266	7.204	0.070	-0.052
-542.252	-91.895	0.082	0.023
-541.237	132.178	-0.183	-0.236
-540.223	67.418	0.067	-0.069
-539.208	14.446	-0.107	-0.083
-538.193	115.338	0.087	-0.107
-537.179	-138.366	-0.084	0.009
-536.164	-200.000	-0.039	-0.206
-535.150	800.000	-0.079	-0.311
-534.135	95.222	-0.125	-0.143
-533.121	-14.883	0.125	0.080
-532.106	800.000	-0.066	-0.246
-531.091	-64.605	-0.055	-0.022
-530.077	214.146	0.144	0.228
-529.062	57.058	0.228	-0.222
-528.048	111.384	0.138	-0.166
-527.033	105.162	0.188	-0.222
-526.018	-168.756	-0.214	-0.008
-525.004	-200.000	-0.039	-0.186
-523.989	-82.694	-0.511	0.165
-522.975	-200.000	0.030	0.307
-521.960	93.990	-0.187	0.211
-520.945	698.588	0.128	0.336
-519.931	647.880	0.073	-0.186
-518.916	-22.970	0.216	0.130
-517.902	-174.129	-0.145	0.004
-516.887	33.277	-0.284	0.246
-515.872	-200.000	-0.029	0.234
-514.858	800.000	-0.078	-0.225
-513.843	40.145	-0.342	-0.307
-512.829	-150.474	0.272	0.021
-511.814	-200.000	0.351	-0.002
-510.799	-3.218	-0.311	0.216
-509.785	-61.684	-0.199	0.083
-508.770	-200.000	-0.017	-0.168
-507.756	44.369	0.268	-0.245
-506.741	-200.000	0.004	-0.209
-505.726	-200.000	0.052	0.594
-504.712	800.000	-0.113	0.397
-503.697	5.861	-0.374	0.276
-502.683	77.729	-0.077	-0.082
-501.668	762.187	0.106	-0.286
-500.653	800.000	-0.114	-0.363
-499.639	48.672	0.057	-0.054
-498.624	-72.162	0.162	-0.060
-497.610	419.501	-0.110	-0.234
-496.595	-87.619	0.405	-0.122
-495.581	-84.894	-0.225	-0.070
-494.566	-19.786	-0.006	-0.004
-493.551	800.000	-0.065	0.208
-492.537	-200.000	-0.001	0.080
-491.522	220.281	-0.275	-0.439
-490.508	-23.343	-0.189	-0.114
-489.493	-200.000	-0.038	-0.413
-488.478	174.020	0.059	-0.085
-487.464	58.759	-0.126	0.124
-486.449	-93.806	0.071	0.019
-485.435	-175.871	-0.477	0.013
-484.420	195.172	-0.130	0.197
-483.405	25.749	0.158	-0.131
-482.391	204.489	0.067	-0.104
-481.376	603.771	-0.086	0.214
-480.362	-200.000	-0.040	0.318
-479.347	-12.975	-0.228	-0.148
-478.332	-181.405	-0.224	0.004
-477.318	156.918	0.144	0.199
-476.303	-200.000	-0.014	0.103
-475.289	72.722	-0.161	-0.167
-474.274	-0.664	0.271	-0.191
-473.259	-52.688	-0.149	0.069
-472.245	33.611	0.102	-0.088
-471.230	94.426	0.099	-0.112
-470.216	622.446	0.062	-0.155
-469.201	270.223	-0.128	-0.224
-468.186	141.346	-0.138	-0.182
-467.172	-123.644	0.156	-0.025
-466.157	208.295	-0.078	-0.122
-465.143	-132.296	-0.172	0.022
-464.128	-77.974	-0.108	0.037
-463.113	-75.022	-0.171	0.061
-462.099	-127.149	0.607	0.089
-461.084	-200.000	0.017	0.302
-460.070	-60.564	0.155	-0.066
-459.055	-110.649	-0.256	-0.053
-458.040	-131.593	-0.338	0.044
-457.026	-84.039	-0.286	-0.091
-456.011	-185.238	-0.359	-0.006
-454.997	-168.749	0.132	0.005
-453.982	800.000	-0.053	-0.210
-452.968	-92.290	0.285	-0.080
-451.953	-80.241	-0.168	-0.056
-450.938	800.000	-0.062	-0.254
-449.924	-200.000	0.039	0.197
-448.909	-60.131	-0.201	0.085
-447.895	-31.555	0.486	0.272
-446.880	-200.000	-0.013	-0.066
-445.865	339.690	0.021	-0.041
-444.851	-93.009	0.093	-0.026
-443.836	-200.000	-0.075	0.366
-442.822	-70.218	-0.123	0.047
-441.807	-124.587	-0.211	-0.033
-440.792	-200.000	-0.023	0.302
-439.778	-26.626	-0.242	0.141
-438.763	-135.033	-0.263	0.032
-437.749	-200.000	-0.007	0.130
-436.734	486.544	-0.080	0.183
-435.719	-114.362	0.129	0.025
-434.705	-200.000	0.007	-0.164
-433.690	800.000	0.062	-0.172
-432.676	-89.660	-0.096	0.028
-431.661	-15.679	-0.301	-0.191
-430.646	16.150	-0.090	0.070
-429.632	-57.082	0.178	-0.078
-428.617	115.868	0.211	-0.256
-427.603	-164.038	-0.390	-0.018
-426.588	-136.138	0.259	-0.030
-425.573	-84.261	-0.225	0.071
-424.559	30.417	0.170	-0.145
-423.544	-122.806	-0.451	0.072
-422.530	204.019	-0.113	-0.174
-421.515	800.000	0.050	-0.184
-420.500	-175.065	0.281	-0.008
-419.486	-65.076	0.275	-0.110
-418.471	-26.460	0.196	-0.114
-417.457	19.463	-0.186	-0.149
-416.442	-200.000	0.006	0.087
-415.428	7.830	-0.148	-0.110
-414.413	107.863	-0.068	0.081
-413.398	800.000	0.020	0.083
-412.384	-142.695	0.117	0.011
-411.369	-81.012	-0.248	-0.082
-410.355	51.001	0.281	0.265
-409.340	-16.345	0.627	-0.396
-408.325	-107.160	-0.132	-0.029
-407.311	-200.000	0.000	0.132
-406.296	800.000	0.085	0.319
-405.282	450.871	-0.121	-0.266
-404.267	800.000	-0.143	-0.592
-403.252	-62.120	0.299	-0.124
-402.238	80.880	0.140	0.150
-401.223	-200.000	-0.011	0.116
-400.209	-66.495	-0.107	0.042
-399.194	5.430	-0.043	-0.032
-398.179	-22.379	-0.168	-0.101
-397.165	-194.184	-0.172	-0.001
-396.150	-185.160	0.205	-0.003
-395.136	-177.674	-0.126	-0.003
-394.121	-76.403	0.238	0.083
-393.106	-52.755	-0.271	-0.124
-392.092	-88.269	-0.333	0.099
-391.077	-197.090	0.219	-0.001
-390.063	-20.330	0.098	-0.060
-389.048	201.426	-0.238	0.364
-388.033	800.000	0.029	-0.114
-387.019	-73.438	0.168	0.061
-386.004	-22.079	0.035	0.021
-384.990	102.386	-0.128	-0.148
-383.975	-200.000	0.015	-0.239
-382.960	146.399	-0.058	0.078
-381.946	252.821	-0.044	0.075
-380.931	-28.630	0.065	0.037
-379.917	-98.494	-0.114	-0.029
-378.902	-36.138	0.044	-0.023
-377.888	-200.000	0.003	0.218
-376.873	-0.256	0.136	-0.096
-375.858	382.858	-0.121	0.247
-374.844	-128.781	0.312	-0.044
-373.829	66.450	0.019	0.020
-372.815	-114.173	0.245	0.047
-371.800	-91.063	0.192	-0.055
-370.785	-61.969	0.321	0.133
-369.771	-200.000	0.070	0.305
-368.756	668.525	-0.080	0.205
-367.742	254.994	0.223	-0.379
-366.727	283.504	-0.125	0.223
-365.712	800.000	-0.097	-0.316
-364.698	-6.464	-0.415	-0.281
-363.683	-200.000	-0.007	-0.144
-362.669	148.696	0.246	0.329
-361.654	-200.000	-0.005	-0.333
-360.639	-157.806	-0.218	0.013
-359.625	345.368	0.188	0.366
-358.610	-141.014	0.197	-0.020
-357.596	-6.813	-0.264	-0.178
-356.581	192.097	0.070	-0.105
-355.566	41.832	0.185	-0.166
-354.552	58.278	-0.217	0.212
-353.537	614.846	0.057	0.142
-352.523	-128.791	-0.140	0.020
-351.508	-200.000	0.015	-0.155
-350.493	357.839	-0.166	0.328
-349.479	-121.759	-0.273	0.045
-348.464	124.068	0.169	-0.210
-347.450	-128.935	0.365	-0.051
-346.435	140.285	0.032	0.042
-345.420	-82.339	0.065	-0.021
-344.406	-119.239	-0.071	-0.012
-343.391	-96.324	0.228	-0.060
-342.377	800.000	-0.043	-0.137
-341.362	-187.743	0.358	-0.005
-340.348	-17.783	-0.198	-0.123
-339.333	44.125	0.235	-0.214
-338.318	-200.000	0.013	-0.202
-337.304	-48.816	0.129	0.061
-336.289	800.000	-0.052	0.166
-335.275	-200.000	-0.001	-0.106
-334.260	78.647	-0.101	0.107
-333.245	454.831	0.041	0.091
-332.231	-87.303	-0.271	-0.081
-331.216	-200.000	-0.013	-0.064
-330.202	339.854	-0.079	-0.153
-329.187	132.838	-0.072	0.092
-328.172	800.000	-0.016	-0.056
-327.158	-56.980	-0.150	-0.066
-326.143	529.721	-0.076	-0.178
-325.129	249.963	-0.060	-0.100
-324.114	-200.000	0.009	0.403
-323.099	-200.000	-0.005	0.129
-322.085	57.639	0.122	0.118
-321.070	-52.805	0.298	0.136
-320.056	800.000	0.109	0.395
-319.041	177.324	-0.106	0.153
-318.026	-95.833	-0.057	-0.015
-317.012	102.306	0.151	-0.175
-315.997	-200.000	-0.090	-0.392
-314.983	-12.162	0.131	-0.085
-313.968	17.224	0.041	0.033
-312.953	220.225	-0.165	0.261
-311.939	-200.000	-0.005	0.130
-310.924	800.000	0.127	0.501
-309.910	93.595	-0.157	0.176
-308.895	-87.702	0.190	0.057
-307.880	-200.000	0.025	0.128
-306.866	194.820	0.048	-0.072
-305.851	-93.996	0.115	-0.031
-304.837	-200.000	0.012	0.067
-303.822	79.349	0.063	0.067
-302.807	13.291	-0.200	0.153
-301.793	69.704	-0.253	-0.259
-300.778	-153.465	0.144	0.010
-299.764	739.737	-0.120	-0.319
-298.749	65.689	0.157	-0.158
-297.735	228.820	0.336	-0.542
-296.720	-137.596	0.256	-0.029
-295.705	-200.000	0.004	-0.071
-294.691	800.000	0.080	-0.251
-293.676	-138.531	-0.106	0.012
-292.662	-10.662	0.207	-0.136
-291.647	136.437	-0.225	-0.291
-290.632	-137.721	-0.227	-0.025
-289.618	800.000	0.029	-0.119
-288.603	-200.000	0.004	-0.067
-287.589	126.331	-0.170	0.213
-286.574	-187.152	0.149	0.002
-285.559	-116.925	0.320	-0.058
-284.545	142.876	-0.068	0.090
-283.530	-133.039	0.286	-0.036
-282.516	-81.861	-0.263	-0.085
-281.501	80.635	0.224	0.239
-280.486	-41.382	0.280	0.142
-279.472	202.219	0.098	-0.150
-278.457	-200.000	0.074	0.326
-277.443	-200.000	-0.039	0.479
-276.428	5.983	-0.110	0.080
-275.413	800.000	-0.042	0.118
-274.399	-164.349	-0.398	-0.018
-273.384	800.000	-0.109	-0.306
-272.370	-200.000	0.018	-0.170
-271.355	-56.988	-0.411	-0.179
-270.340	-122.900	-0.144	0.023
-269.326	68.292	-0.101	-0.102
-268.311	15.990	-0.122	-0.095
-267.297	-109.742	0.047	-0.010
-266.282	16.510	0.091	0.071
-265.267	-27.859	-0.090	-0.051
-264.253	-200.000	0.003	-0.027
-263.238	-200.000	-0.019	0.209
-262.224	-200.000	0.021	-0.202
-261.209	-6.482	0.199	-0.134
-260.195	25.104	0.187	-0.153
-259.180	-41.481	0.309	0.157
-258.165	-193.550	0.080	0.001
-257.151	527.538	0.051	0.118
-256.136	175.958	0.155	0.222
-255.122	13.200	0.300	-0.230
-254.107	800.000	0.061	-0.218
-253.092	800.000	0.137	0.399
-252.078	-25.144	0.147	-0.086
-251.063	125.674	-0.230	-0.287
-250.049	185.268	0.178	0.261
-249.034	64.516	0.210	0.209
-248.019	-53.993	0.072	-0.032
-247.005	-5.272	-0.178	0.121
-245.990	-58.177	-0.128	-0.055
-244.976	61.980	-0.262	0.258
-243.961	-37.473	0.261	-0.138
-242.946	-200.000	-0.053	-0.248
-241.932	-200.000	0.042	0.235
-240.917	-145.486	0.256	-0.023
-239.903	-200.000	0.013	-0.068
-238.888	26.433	0.200	-0.165
-237.873	-32.602	0.035	-0.019
-236.859	-132.669	0.405	0.051
-235.844	-200.000	0.000	0.218
-234.830	-200.000	-0.013	-0.216
-233.815	672.486	-0.037	-0.094
-232.800	-200.000	-0.033	-0.238
-231.786	800.000	0.046	0.172
-230.771	800.000	-0.119	0.395
-229.757	333.596	0.085	0.163
-228.742	66.714	0.065	-0.065
-227.727	726.707	0.096	-0.253
-226.713	44.694	0.150	-0.136
-225.698	-98.853	-0.100	0.025
-224.684	38.260	0.260	0.228
-223.669	800.000	-0.075	0.279
-222.655	-145.958	0.174	-0.015
-221.640	-15.225	-0.223	0.141
-220.625	21.608	0.310	0.249
-219.611	-200.000	0.017	0.166
-218.596	-85.033	0.233	0.072
-217.582	-71.850	0.235	-0.087
-216.567	-50.360	0.311	-0.145
-215.552	-3.097	-0.162	0.112
-214.538	-200.000	-0.010	0.298
-213.523	97.466	0.242	0.274
-212.509	37.728	-0.318	-0.278
-211.494	-63.923	0.138	0.056
-210.479	216.689	-0.092	0.144
-209.465	-120.115	-0.101	-0.017
-208.450	246.778	-0.154	0.257
-207.436	513.998	0.175	0.402
-206.421	800.000	-0.059	0.219
-205.406	800.000	0.034	0.116
-204.392	-124.119	-0.243	-0.038
-203.377	89.283	0.309	0.339
-202.363	85.719	-0.114	-0.124
-201.348	-200.000	0.056	-0.325
-200.333	-52.752	-0.320	0.146
-199.319	42.158	0.298	0.267
-198.304	283.015	0.114	-0.202
-197.290	-129.186	-0.256	-0.035
-196.275	-200.000	0.015	-0.385
-195.260	-189.919	-0.419	-0.005
-194.246	-50.541	-0.261	0.121
-193.231	-200.000	0.016	-0.166
-192.217	72.363	0.097	-0.100
-191.202	189.378	0.092	0.136
-190.187	-200.000	0.069	-0.388
-189.173	-21.845	0.140	-0.084
-188.158	62.844	-0.229	-0.226
-187.144	-133.477	0.347	0.043
-186.129	84.206	0.152	0.164
-185.114	-67.068	-0.321	0.125
-184.100	40.621	0.232	0.206
-183.085	-85.607	0.466	0.143
-182.071	764.662	-0.145	0.387
-181.056	98.774	0.078	-0.089
-180.042	-135.500	-0.251	0.029
-179.027	417.700	0.122	0.258
-178.012	55.782	0.043	-0.041
-176.998	29.303	0.218	0.182
-175.983	635.816	-0.017	0.042
-174.969	-129.380	-0.125	-0.017
-173.954	800.000	0.099	0.378
-172.939	394.084	0.079	-0.163
-171.925	42.881	0.199	0.178
-170.910	-138.431	-0.080	-0.009
-169.896	-15.287	-0.290	-0.183
-168.881	-55.514	0.117	-0.052
-167.866	-19.650	0.216	-0.132
-166.852	22.854	-0.242	-0.195
-165.837	148.112	0.182	0.242
-164.823	123.292	-0.147	-0.181
-163.808	-88.013	0.270	-0.080
-162.793	-94.923	-0.088	-0.023
-161.779	-39.110	-0.290	0.150
-160.764	-1.077	-0.257	0.179
-159.750	74.415	0.282	0.292
-158.735	140.626	-0.126	-0.164
-157.720	-98.671	0.390	0.098
-156.706	-31.800	0.203	-0.112
-155.691	-200.000	0.001	-0.231
-154.677	-200.000	-0.027	0.157
-153.662	27.519	-0.086	0.071
-152.647	42.244	0.170	-0.152
-151.633	800.000	-0.122	0.342
-150.618	183.661	0.201	0.293
-149.604	800.000	0.145	0.433
-148.589	90.672	-0.051	0.056
-147.574	-51.876	-0.095	-0.043
-146.560	145.316	-0.245	-0.322
-145.545	-43.366	-0.102	0.051
-144.531	-200.000	0.039	-0.215
-143.516	-59.296	0.199	0.084
-142.502	-125.868	0.331	0.049
-141.487	-129.150	0.461	-0.063
-140.472	116.324	0.194	0.234
-139.458	128.580	-0.089	0.111
-138.443	-200.000	0.008	0.045
-137.429	-200.000	0.023	0.135
-136.414	-144.517	-0.172	0.016
-135.399	-125.936	-0.203	-0.030
-134.385	-200.000	-0.009	0.208
-133.370	4.967	0.179	0.130
-132.356	-200.000	-0.038	0.573
-131.341	-118.334	-0.480	-0.084
-130.326	428.281	0.014	0.030
-129.312	564.715	0.179	-0.427
-128.297	231.110	-0.083	0.133
-127.283	-137.734	-0.190	0.021
-126.268	-132.554	0.238	-0.030
-125.253	-29.286	-0.103	0.058
-124.239	-200.000	-0.014	-0.202
-123.224	45.421	0.216	0.196
-122.210	-61.551	0.244	0.101
