DTS Sentinel unit serial number:	SN413079Multiplexer serial number:	ORYXHardware model number:	OX4-SRSoftware version number:	ORYX F/W v4.00 Oryx Data Collector v3.7.2.0data status	okinstallation	princeton_trtdifferential loss correction	single-endedforward channel	channel 2reverse channel	N/Adate	2019/09/14time	01:51:35forward acquisition time	60.00reverse acquisition time	0.00gamma	496.2192k internal	0.2337k external	0.2337temperature offset calibration	1.0129default loss term (dB/km)	0.3790temperature slope calibration	1.0000multiplexer offset coefficient	1.0000multiplexer slope coefficient	1.0000fibre end	0.00T internal ref (°C)	26.44T ext. ref 1 (°C)	3.21T ext. ref 2 (°C)	21.48length (m)	temperature (°C)	Stokes	anti-Stokes-747.200	-129.496	-0.473	0.066
-746.185	355.942	-0.046	0.091
-745.171	-0.089	0.157	-0.112
-744.156	328.334	-0.031	0.061
-743.142	-42.234	-0.140	0.072
-742.127	-53.942	-0.216	-0.099
-741.112	-149.602	0.172	-0.014
-740.098	416.862	-0.174	0.374
-739.083	-91.760	-0.287	-0.082
-738.069	-58.202	-0.329	0.144
-737.054	-26.302	-0.461	0.272
-736.039	-200.000	0.015	0.376
-735.025	-74.534	0.429	0.155
-734.010	73.185	-0.219	0.229
-732.996	332.904	-0.029	-0.057
-731.981	800.000	0.042	0.136
-730.966	259.912	-0.039	-0.067
-729.952	342.231	-0.181	0.355
-728.937	245.213	-0.076	-0.128
-727.923	136.333	0.045	0.059
-726.908	-200.000	-0.009	-0.224
-725.894	800.000	-0.096	-0.292
-724.879	-200.000	-0.390	0.002
-723.864	-200.000	-0.066	0.300
-722.850	-102.655	-0.099	-0.024
-721.835	354.682	-0.164	-0.327
-720.821	354.394	-0.066	-0.131
-719.806	496.801	0.113	0.261
-718.791	800.000	-0.036	0.153
-717.777	-67.965	0.390	-0.153
-716.762	46.369	-0.286	-0.266
-715.748	-200.000	0.011	-0.098
-714.733	800.000	0.047	-0.197
-713.718	33.105	0.188	-0.163
-712.704	-20.651	0.154	-0.095
-711.689	-38.369	0.052	-0.028
-710.675	-118.803	-0.007	-0.001
-709.660	-200.000	-0.015	0.146
-708.645	-86.131	-0.185	0.057
-707.631	-89.084	0.284	0.084
-706.616	94.910	-0.022	-0.025
-705.602	-91.837	0.277	0.079
-704.587	-133.943	0.020	0.003
-703.572	-153.140	-0.147	0.010
-702.558	-15.166	0.107	0.068
-701.543	-111.585	0.138	0.028
-700.529	282.231	-0.038	-0.068
-699.514	-200.000	0.007	0.183
-698.499	93.025	0.146	0.165
-697.485	253.998	-0.151	0.259
-696.470	-135.637	-0.324	0.039
-695.456	9.308	0.143	0.109
-694.441	-178.484	-0.262	0.006
-693.426	217.993	-0.090	-0.144
-692.412	-200.000	-0.024	0.181
-691.397	-67.346	-0.400	0.157
-690.383	-111.079	-0.629	-0.129
-689.368	40.435	0.101	-0.091
-688.354	800.000	-0.010	-0.036
-687.339	-200.000	0.000	0.096
-686.324	-124.926	0.423	-0.065
-685.310	-84.402	-0.319	0.101
-684.295	-200.000	-0.052	-0.239
-683.281	340.859	-0.133	-0.261
-682.266	161.027	-0.076	-0.106
-681.251	-16.860	0.298	-0.189
-680.237	-76.732	0.066	0.023
-679.222	46.053	-0.192	0.178
-678.208	310.215	0.079	0.148
-677.193	800.000	0.080	0.329
-676.178	345.818	-0.093	0.183
-675.164	692.224	-0.051	-0.134
-674.149	-140.632	0.159	-0.016
-673.135	-47.761	-0.224	-0.109
-672.120	-200.000	-0.017	-0.173
-671.105	794.247	-0.108	-0.297
-670.091	381.830	0.140	0.289
-669.076	800.000	0.085	0.245
-668.062	40.163	0.066	0.059
-667.047	192.013	-0.093	-0.140
-666.032	-33.877	0.205	-0.113
-665.018	151.266	-0.127	0.173
-664.003	-142.905	-0.182	-0.018
-662.989	-40.517	0.261	-0.136
-661.974	196.994	-0.124	-0.189
-660.959	-94.723	-0.278	0.076
-659.945	43.375	0.137	0.126
-658.930	232.088	0.021	0.035
-657.916	-1.638	-0.192	0.136
-656.901	-30.901	-0.148	-0.084
-655.886	-6.160	0.098	0.067
-654.872	109.421	-0.092	-0.111
-653.857	723.660	-0.029	-0.077
-652.843	-107.398	0.110	-0.024
-651.828	800.000	0.009	0.028
-650.814	381.886	0.101	-0.208
-649.799	-89.287	-0.267	-0.079
-648.784	800.000	-0.023	0.075
-647.770	-200.000	0.056	0.277
-646.755	-154.580	-0.266	0.018
-645.741	232.189	-0.113	0.185
-644.726	-52.608	-0.455	-0.210
-643.711	64.288	-0.140	-0.141
-642.697	-56.203	0.171	-0.076
-641.682	800.000	-0.099	-0.323
-640.668	314.470	-0.173	-0.326
-639.653	-73.941	0.108	0.039
-638.638	220.992	0.209	-0.336
-637.624	287.161	-0.146	-0.264
-636.609	198.682	-0.146	0.223
-635.595	248.523	-0.245	0.415
-634.580	800.000	0.026	0.097
-633.565	440.936	0.118	-0.258
-632.551	-200.000	0.005	-0.213
-631.536	39.475	-0.398	-0.357
-630.522	-65.374	0.127	-0.051
-629.507	-133.937	-0.306	0.038
-628.492	-44.742	-0.090	0.045
-627.478	23.526	-0.084	0.069
-626.463	-200.000	0.037	-0.276
-625.449	-200.000	-0.022	0.278
-624.434	800.000	-0.093	0.279
-623.419	800.000	0.055	-0.205
-622.405	-116.423	-0.101	-0.019
-621.390	-200.000	0.015	-0.117
-620.376	272.509	-0.062	-0.109
-619.361	-84.456	-0.138	-0.043
-618.346	-71.040	0.438	0.165
-617.332	24.194	0.117	-0.097
-616.317	125.297	0.157	-0.197
-615.303	156.667	-0.187	-0.258
-614.288	201.879	-0.070	0.107
-613.273	181.201	-0.228	-0.334
-612.259	-31.111	-0.353	-0.199
-611.244	-125.728	-0.197	-0.030
-610.230	322.299	-0.151	0.288
-609.215	-61.345	0.113	-0.047
-608.201	7.949	-0.339	-0.254
-607.186	-127.498	0.180	0.026
-606.171	39.493	-0.105	-0.094
-605.157	376.458	-0.078	-0.158
-604.142	-200.000	-0.003	-0.142
-603.128	397.045	0.048	0.101
-602.113	205.964	0.148	0.230
-601.098	-200.000	-0.002	0.029
-600.084	259.315	0.144	-0.247
-599.069	214.055	0.107	0.169
-598.055	-26.130	0.121	0.071
-597.040	69.179	-0.087	0.089
-596.025	-171.484	0.068	-0.002
-595.011	-200.000	0.013	0.173
-593.996	-35.356	-0.168	0.091
-592.982	-200.000	-0.246	0.000
-591.967	-74.804	0.176	-0.063
-590.952	60.243	-0.041	0.040
-589.938	-35.681	-0.091	0.049
-588.923	800.000	-0.076	0.284
-587.909	193.092	-0.267	-0.403
-586.894	50.933	-0.151	-0.143
-585.879	361.807	-0.106	0.212
-584.865	-87.424	0.260	0.078
-583.850	-200.000	0.096	-0.473
-582.836	335.040	-0.197	-0.381
-581.821	-146.061	-0.081	-0.007
-580.806	131.772	-0.095	-0.122
-579.792	400.458	-0.044	-0.092
-578.777	800.000	-0.055	-0.154
-577.763	-44.488	-0.103	-0.051
-576.748	-200.000	0.022	-0.142
-575.733	93.296	0.138	-0.156
-574.719	18.721	0.058	-0.046
-573.704	2.017	0.047	0.034
-572.690	-102.762	0.170	0.040
-571.675	398.767	0.067	0.141
-570.661	-27.804	0.152	0.088
-569.646	-45.012	-0.250	-0.124
-568.631	-43.681	-0.386	0.194
-567.617	800.000	-0.099	-0.339
-566.602	-200.000	-0.023	0.207
-565.588	800.000	0.028	-0.093
-564.573	129.410	0.101	0.129
-563.558	800.000	0.031	0.093
-562.544	-200.000	0.038	-0.255
-561.529	-200.000	-0.027	-0.285
-560.515	-200.000	0.004	-0.040
-559.500	-156.210	-0.235	-0.015
-558.485	22.396	-0.098	0.080
-557.471	227.655	0.279	-0.453
-556.456	-14.835	-0.126	-0.080
-555.442	-200.000	-0.030	-0.185
-554.427	42.837	0.101	-0.091
-553.412	413.844	0.032	-0.069
-552.398	421.055	0.093	-0.198
-551.383	164.049	0.208	-0.292
-550.369	-193.421	-0.241	-0.002
-549.354	-200.000	0.006	-0.221
-548.339	51.564	0.228	0.216
-547.325	-200.000	-0.058	0.327
-546.310	-44.419	0.191	0.095
-545.296	-20.530	0.206	-0.126
-544.281	-53.143	0.170	-0.078
-543.266	122.684	-0.127	-0.158
-542.252	-200.000	-0.054	0.364
-541.237	-132.755	0.250	-0.032
-540.223	-200.000	-0.017	-0.120
-539.208	-105.905	-0.104	0.023
-538.193	336.146	0.130	0.250
-537.179	-200.000	0.007	0.184
-536.164	-172.674	-0.180	0.006
-535.150	-200.000	0.014	0.073
-534.135	-200.000	-0.030	0.175
-533.121	-200.000	0.006	0.092
-532.106	800.000	-0.058	-0.247
-531.091	-200.000	0.047	0.291
-530.077	-75.476	-0.067	0.024
-529.062	-174.138	-0.325	0.009
-528.048	171.839	-0.158	0.226
-527.033	385.154	0.073	0.150
-526.018	-91.295	-0.044	-0.013
-525.004	552.873	-0.085	0.203
-523.989	-172.131	-0.476	-0.015
-522.975	-118.575	-0.542	-0.095
-521.960	39.290	0.136	0.122
-520.945	-200.000	0.003	-0.169
-519.931	-53.558	0.382	-0.174
-518.916	422.563	0.199	0.426
-517.902	-187.005	0.292	-0.004
-516.887	-102.449	-0.079	-0.019
-515.872	84.653	-0.119	-0.129
-514.858	709.125	0.128	-0.337
-513.843	68.048	-0.085	0.087
-512.829	-82.854	0.305	-0.098
-511.814	-30.751	-0.158	0.089
-510.799	-159.675	0.212	0.012
-509.785	249.418	-0.091	-0.154
-508.770	162.527	0.136	-0.190
-507.756	-176.038	0.062	-0.002
-506.741	-141.902	0.280	0.028
-505.726	-46.320	0.090	0.044
-504.712	-45.266	-0.055	0.027
-503.697	-38.197	-0.178	-0.094
-502.683	-200.000	0.024	-0.329
-501.668	-4.148	0.501	0.345
-500.653	-6.709	-0.113	-0.076
-499.639	-200.000	-0.009	0.117
-498.624	-200.000	-0.003	0.094
-497.610	-154.024	-0.072	-0.005
-496.595	269.880	-0.108	-0.189
-495.581	-53.841	0.155	0.070
-494.566	-123.330	-0.316	0.050
-493.551	-200.000	0.045	-0.235
-492.537	-200.000	0.016	0.232
-491.522	25.045	0.193	-0.159
-490.508	117.710	0.245	0.299
-489.493	800.000	-0.148	-0.520
-488.478	-98.026	0.262	0.067
-487.464	93.360	0.089	0.100
-486.449	57.886	-0.191	0.186
-485.435	414.998	0.144	0.306
-484.420	-200.000	-0.011	0.175
-483.405	15.178	0.155	-0.121
-482.391	24.163	-0.132	0.108
-481.376	-139.348	0.203	-0.022
-480.362	-149.089	0.208	0.017
-479.347	-200.000	-0.069	-0.338
-478.332	-21.877	-0.037	-0.023
-477.318	-137.390	0.294	-0.033
-476.303	66.929	-0.129	-0.131
-475.289	58.210	0.058	-0.057
-474.274	-124.821	-0.303	-0.046
-473.259	15.592	0.215	-0.168
-472.245	800.000	-0.050	0.165
-471.230	144.068	-0.060	0.079
-470.216	293.182	-0.107	-0.194
-469.201	-200.000	0.030	0.159
-468.186	-95.085	0.308	0.083
-467.172	430.554	0.030	-0.064
-466.157	-200.000	-0.008	0.122
-465.143	141.137	-0.184	-0.241
-464.128	-24.592	-0.104	-0.061
-463.113	223.285	-0.209	0.335
-462.099	210.778	-0.185	0.289
-461.084	15.482	-0.143	0.112
-460.070	94.328	0.266	-0.300
-459.055	-200.000	0.019	0.274
-458.040	-10.648	-0.194	-0.127
-457.026	-112.543	0.186	0.037
-456.011	-167.283	-0.145	-0.006
-454.997	-139.164	-0.253	0.027
-453.982	-35.241	0.161	-0.087
-452.968	-109.333	-0.173	0.036
-451.953	-200.000	-0.043	-0.258
-450.938	-79.334	-0.403	0.135
-449.924	-74.128	0.386	-0.139
-448.909	55.413	-0.133	-0.127
-447.895	511.503	-0.110	-0.253
-446.880	168.287	0.073	0.104
-445.865	-24.184	0.207	-0.122
-444.851	-31.217	-0.243	0.136
-443.836	-50.601	-0.285	0.133
-442.822	25.924	0.269	0.223
-441.807	-26.325	0.159	-0.093
-440.792	-128.465	0.096	-0.014
-439.778	75.021	-0.180	0.188
-438.763	800.000	0.114	0.382
-437.749	169.586	0.074	-0.105
-436.734	165.048	-0.262	0.367
-435.719	-200.000	-0.023	0.355
-434.705	-34.861	0.241	0.131
-433.690	-200.000	-0.038	0.189
-432.676	-200.000	-0.001	0.125
-431.661	-200.000	-0.021	0.533
-430.646	110.526	-0.032	0.038
-429.632	38.903	-0.273	-0.241
-428.617	98.629	0.460	-0.526
-427.603	502.299	-0.053	-0.122
-426.588	800.000	0.089	-0.311
-425.573	800.000	0.048	0.196
-424.559	37.274	0.192	0.169
-423.544	-200.000	0.004	-0.113
-422.530	-87.994	0.161	0.048
-421.515	-129.073	-0.260	0.036
-420.500	231.222	-0.113	-0.183
-419.486	-200.000	-0.042	0.256
-418.471	-176.621	0.333	-0.008
-417.457	651.939	-0.019	-0.049
-416.442	-200.000	-0.033	0.145
-415.428	28.668	-0.263	0.220
-414.413	43.994	0.219	0.199
-413.398	800.000	-0.044	-0.164
-412.384	36.917	-0.091	-0.079
-411.369	-44.045	-0.152	0.076
-410.355	-31.018	-0.193	-0.108
-409.340	-61.009	0.106	-0.044
-408.325	-89.830	0.248	-0.072
-407.311	-95.358	-0.102	-0.027
-406.296	-200.000	0.007	0.231
-405.282	71.529	0.311	-0.319
-404.267	800.000	-0.080	0.239
-403.252	96.528	0.149	-0.169
-402.238	443.198	-0.107	-0.231
-401.223	25.201	-0.008	-0.007
-400.209	800.000	0.071	0.287
-399.194	440.428	0.135	0.292
-398.179	-200.000	-0.026	0.313
-397.165	-165.445	-0.119	0.005
-396.150	-103.606	-0.217	0.050
-395.136	-8.817	-0.285	0.189
-394.121	-106.530	0.095	0.021
-393.106	228.418	-0.196	0.316
-392.092	140.861	0.100	0.130
-391.077	18.435	0.144	0.114
-390.063	800.000	-0.024	-0.072
-389.048	-200.000	0.007	0.117
-388.033	-63.897	-0.337	-0.136
-387.019	3.579	-0.202	0.146
-386.004	-32.762	0.021	0.012
-384.990	41.717	0.054	-0.049
-383.975	-115.345	0.175	-0.033
-382.960	-116.670	-0.276	-0.050
-381.946	-200.000	0.009	-0.081
-380.931	-0.095	0.407	-0.287
-379.917	-25.862	0.201	-0.117
-378.902	800.000	0.111	0.328
-377.888	541.085	-0.150	0.354
-376.873	62.628	-0.086	0.085
-375.858	800.000	0.033	0.120
-374.844	-152.117	-0.067	-0.005
-373.829	-200.000	-0.043	-0.221
-372.815	511.502	-0.078	0.179
-371.800	-200.000	-0.012	-0.135
-370.785	-27.417	-0.355	0.204
-369.771	194.918	0.129	-0.194
-368.756	-47.818	0.120	0.057
-367.742	800.000	-0.054	0.191
-366.727	-105.729	0.226	-0.050
-365.712	18.804	0.092	-0.073
-364.698	-121.465	0.268	0.044
-363.683	800.000	-0.111	-0.440
-362.669	-115.607	0.141	-0.026
-361.654	49.850	0.109	0.101
-360.639	3.197	0.179	0.129
-359.625	-200.000	-0.021	0.264
-358.610	-200.000	0.063	-0.514
-357.596	-130.325	0.257	0.035
-356.581	317.723	0.051	0.095
-355.566	-53.697	-0.149	0.067
-354.552	-200.000	-0.004	0.276
-353.537	350.143	-0.023	0.045
-352.523	-115.110	-0.243	0.046
-351.508	-138.098	-0.285	-0.031
-350.493	-92.297	-0.125	0.035
-349.479	800.000	0.033	-0.098
-348.464	6.600	0.305	-0.224
-347.450	61.665	0.169	-0.166
-346.435	365.087	0.125	0.248
-345.420	305.481	-0.163	-0.299
-344.406	-157.433	0.034	0.002
-343.391	223.747	-0.053	0.085
-342.377	12.511	-0.155	-0.118
-341.362	-135.751	0.104	-0.012
-340.348	247.781	-0.238	0.398
-339.333	-96.669	0.290	-0.075
-338.318	-83.296	-0.082	0.026
-337.304	-114.696	0.128	0.024
-336.289	-69.587	0.331	-0.125
-335.275	-117.966	0.282	0.050
-334.260	-146.741	0.120	-0.010
-333.245	-200.000	-0.123	0.000
-332.231	225.346	0.030	-0.047
-331.216	-200.000	0.017	0.165
-330.202	-200.000	0.025	0.249
-329.187	-200.000	0.039	-0.231
-328.172	265.580	0.181	0.312
-327.158	266.590	0.125	0.216
-326.143	-68.538	0.425	0.163
-325.129	-54.885	-0.173	-0.077
-324.114	-71.381	0.211	-0.078
-323.099	-110.505	-0.046	0.009
-322.085	-87.514	0.336	-0.100
-321.070	-129.621	0.268	-0.036
-320.056	-17.679	-0.149	0.092
-319.041	800.000	0.033	-0.105
-318.026	-20.159	-0.071	-0.043
-317.012	-75.157	0.505	-0.178
-315.997	242.317	0.070	-0.116
-314.983	-16.189	-0.208	0.130
-313.968	28.250	0.200	-0.167
-312.953	69.087	0.229	0.232
-311.939	747.670	-0.059	0.157
-310.924	-66.754	-0.302	-0.118
-309.910	3.564	-0.043	0.031
-308.895	40.648	-0.263	0.234
-307.880	-28.982	-0.318	0.180
-306.866	-32.126	0.270	-0.149
-305.851	-177.697	0.424	-0.010
-304.837	-142.752	-0.180	-0.017
-303.822	368.575	0.180	-0.360
-302.807	-83.265	0.214	-0.068
-301.793	297.743	0.037	0.068
-300.778	-11.536	0.341	0.221
-299.764	220.759	-0.101	0.161
-298.749	-172.214	-0.248	-0.008
-297.735	52.141	0.204	0.192
-296.720	304.365	-0.106	0.194
-295.705	-156.688	0.139	-0.008
-294.691	-80.917	-0.350	-0.114
-293.676	-83.850	-0.111	0.035
-292.662	800.000	-0.041	0.130
-291.647	-200.000	0.179	-0.001
-290.632	-37.480	-0.180	-0.094
-289.618	-73.847	0.206	0.074
-288.603	-36.997	0.236	0.125
-287.589	-100.814	-0.157	-0.038
-286.574	106.931	-0.189	0.221
-285.559	57.050	-0.260	-0.250
-284.545	129.989	0.059	0.075
-283.530	-200.000	-0.018	-0.268
-282.516	190.875	-0.225	-0.334
-281.501	20.898	0.346	0.277
-280.486	800.000	0.092	-0.308
-279.472	238.657	-0.123	0.202
-278.457	103.881	0.125	0.145
-277.443	317.913	0.091	0.169
-276.428	-200.000	-0.013	0.082
-275.413	-85.504	-0.192	0.059
-274.399	35.782	-0.305	0.264
-273.384	280.501	0.088	-0.156
-272.370	92.204	-0.061	0.068
-271.355	157.511	-0.363	-0.495
-270.340	95.048	-0.308	-0.346
-269.326	366.814	-0.061	-0.122
-268.311	438.815	-0.138	-0.296
-267.297	-168.386	-0.095	-0.004
-266.282	67.068	-0.163	-0.163
-265.267	-200.000	-0.056	0.339
-264.253	-200.000	0.014	0.123
-263.238	183.661	-0.082	-0.119
-262.224	144.085	0.066	-0.087
-261.209	-159.811	0.149	-0.008
-260.195	-200.000	-0.056	-0.273
-259.180	-62.582	-0.045	0.018
-258.165	295.862	-0.049	-0.088
-257.151	-126.993	0.024	0.004
-256.136	-200.000	0.004	0.046
-255.122	-79.691	0.204	0.068
-254.107	57.569	0.128	-0.123
-253.092	-52.170	0.190	-0.087
-252.078	790.137	-0.165	0.447
-251.063	-200.000	-0.041	-0.232
-250.049	-95.579	0.340	-0.090
-249.034	-38.383	-0.153	-0.080
-248.019	240.411	-0.102	-0.167
-247.005	-200.000	0.009	-0.146
-245.990	-200.000	0.036	0.246
-244.976	24.463	-0.149	0.122
-243.961	125.019	0.227	0.281
-242.946	-18.570	-0.290	0.178
-241.932	-147.803	-0.099	-0.008
-240.917	106.585	0.145	-0.169
-239.903	213.572	0.053	-0.082
-238.888	-99.067	0.050	-0.012
-237.873	-22.032	0.166	0.100
-236.859	-27.965	0.186	-0.106
-235.844	800.000	0.097	0.304
-234.830	-200.000	-0.028	0.173
-233.815	-12.998	0.083	-0.053
-232.800	800.000	0.026	-0.109
-231.786	-200.000	-0.010	0.113
-230.771	-200.000	-0.001	0.117
-229.757	338.734	-0.088	0.169
-228.742	-90.265	-0.367	0.105
-227.727	500.177	0.017	0.039
-226.713	800.000	0.083	-0.341
-225.698	-200.000	-0.051	-0.255
-224.684	-181.648	0.470	-0.009
-223.669	-200.000	-0.002	0.099
-222.655	285.847	-0.133	0.235
-221.640	-69.717	0.288	0.108
-220.625	-81.064	0.244	0.079
-219.611	800.000	-0.067	-0.251
-218.596	-156.065	-0.445	0.028
-217.582	-142.300	0.089	-0.009
-216.567	-128.549	0.197	0.027
-215.552	800.000	0.016	-0.054
-214.538	-169.269	-0.391	0.014
-213.523	800.000	0.026	-0.080
-212.509	102.668	-0.117	-0.134
-211.494	800.000	-0.058	-0.177
-210.479	141.878	0.113	-0.147
-209.465	800.000	0.127	-0.373
-208.450	106.821	0.052	0.061
-207.436	-114.546	-0.263	-0.050
-206.421	-39.706	0.224	-0.115
-205.406	-88.394	0.210	0.062
-204.392	-200.000	-0.030	0.390
-203.377	272.652	0.091	-0.158
-202.363	-200.000	0.053	-0.231
-201.348	-23.908	0.136	0.080
-200.333	115.249	-0.113	0.136
-199.319	43.005	-0.088	0.079
-198.304	-94.308	0.423	0.114
-197.290	800.000	-0.018	0.054
-196.275	-56.357	0.148	-0.064
-195.260	162.832	-0.135	-0.186
-194.246	-1.481	-0.246	-0.170
-193.231	-9.531	-0.044	-0.029
-192.217	108.821	-0.299	-0.351
-191.202	-26.108	-0.182	0.105
-190.187	-200.000	-0.088	-0.492
-189.173	-136.768	0.055	-0.006
-188.158	391.850	0.072	0.147
-187.144	800.000	0.096	-0.313
-186.129	800.000	0.095	0.275
-185.114	166.702	-0.081	-0.112
-184.100	-200.000	0.021	0.122
-183.085	-13.275	0.219	0.140
-182.071	489.207	-0.093	-0.209
-181.056	-136.279	-0.160	0.018
-180.042	-9.949	-0.098	0.064
-179.027	-99.129	0.287	0.071
-178.012	221.341	-0.094	-0.148
-176.998	83.247	0.113	-0.121
-175.983	-36.296	-0.203	0.107
-174.969	-27.665	0.123	0.070
-173.954	-200.000	0.001	0.149
-172.939	122.186	0.303	0.372
-171.925	1.458	0.056	-0.040
-170.910	-66.071	-0.358	-0.140
-169.896	683.140	-0.116	0.296
-168.881	173.365	0.084	0.118
-167.866	-18.996	0.016	0.010
-166.852	132.786	-0.003	-0.004
-165.837	742.600	0.123	0.325
-164.823	-123.916	-0.061	0.009
-163.808	83.905	0.339	0.363
-162.793	154.731	-0.095	0.128
-161.779	-200.000	0.013	-0.183
-160.764	-45.548	0.123	-0.060
-159.750	800.000	0.042	-0.135
-158.735	-85.014	0.091	0.028
-157.720	-200.000	-0.014	0.219
-156.706	207.986	0.022	-0.034
-155.691	-200.000	0.048	0.261
-154.677	-96.548	0.104	-0.027
-153.662	51.307	-0.249	0.232
-152.647	-36.268	-0.389	-0.206
-151.633	-180.461	0.359	-0.007
-150.618	-200.000	0.005	-0.144
-149.604	473.891	-0.079	0.175
-148.589	-27.753	0.248	0.141
-147.574	90.223	-0.216	0.236
-146.560	267.011	-0.048	0.083
-145.545	112.820	0.067	0.079
-144.531	-89.111	-0.088	-0.026
-143.516	458.821	0.116	-0.252
-142.502	-103.759	-0.346	0.079
-141.487	-123.894	-0.354	0.055
-140.472	351.230	0.080	0.154
-139.458	19.321	0.116	0.091
-138.443	176.994	0.209	-0.298
-137.429	-93.985	0.195	-0.052
-136.414	328.529	-0.161	0.303
-135.399	46.513	0.103	-0.093
-134.385	491.929	0.216	0.485
-133.370	-51.420	0.038	0.017
-132.356	198.520	0.084	-0.127
-131.341	153.368	0.053	-0.071
-130.326	31.763	0.357	0.301
-129.312	-101.289	-0.204	-0.049
-128.297	-63.468	-0.341	-0.137
-127.283	-103.850	0.293	-0.067
-126.268	27.233	-0.254	-0.209
-125.253	-200.000	-0.045	0.282
-124.239	-69.768	0.217	0.081
-123.224	-56.578	0.166	0.072
-122.210	-143.316	-0.035	-0.003
