DTS Sentinel unit serial number:	SN413079Multiplexer serial number:	ORYXHardware model number:	OX4-SRSoftware version number:	ORYX F/W v4.00 Oryx Data Collector v3.7.2.0data status	okinstallation	princeton_trtdifferential loss correction	single-endedforward channel	channel 2reverse channel	N/Adate	2019/09/15time	04:27:35forward acquisition time	60.00reverse acquisition time	0.00gamma	496.2192k internal	0.2325k external	0.2325temperature offset calibration	1.0028default loss term (dB/km)	0.3790temperature slope calibration	1.0000multiplexer offset coefficient	1.0000multiplexer slope coefficient	1.0000fibre end	0.00T internal ref (°C)	30.87T ext. ref 1 (°C)	4.65T ext. ref 2 (°C)	25.52length (m)	temperature (°C)	Stokes	anti-Stokes-747.200	604.041	0.100	-0.252
-746.185	-200.000	0.023	-0.103
-745.171	-30.086	0.160	0.092
-744.156	-13.576	0.249	0.163
-743.142	44.252	0.122	-0.113
-742.127	292.218	-0.071	0.130
-741.112	800.000	0.073	-0.242
-740.098	86.321	-0.060	0.067
-739.083	-71.637	-0.292	-0.110
-738.069	-200.000	-0.200	-0.000
-737.054	-148.715	-0.053	0.004
-736.039	279.287	-0.142	-0.255
-735.025	-33.619	0.097	0.054
-734.010	800.000	-0.062	-0.184
-732.996	-200.000	-0.064	-0.401
-731.981	-69.873	0.104	0.040
-730.966	92.203	0.161	0.183
-729.952	506.639	-0.176	-0.411
-728.937	-200.000	-0.001	-0.215
-727.923	168.861	0.150	-0.216
-726.908	256.377	-0.119	-0.206
-725.894	-176.100	-0.429	0.011
-724.879	-21.032	-0.112	0.069
-723.864	800.000	-0.051	0.176
-722.850	-90.996	-0.272	-0.079
-721.835	273.180	0.028	0.050
-720.821	85.970	-0.166	-0.185
-719.806	282.588	0.164	-0.297
-718.791	-32.205	-0.177	0.099
-717.777	-114.532	-0.109	0.021
-716.762	482.135	0.137	0.315
-715.748	-123.051	0.308	0.050
-714.733	-200.000	-0.003	0.191
-713.718	-133.256	0.426	0.054
-712.704	151.976	-0.158	-0.217
-711.689	-200.000	-0.034	-0.316
-710.675	-20.978	0.205	-0.126
-709.660	6.904	-0.219	-0.165
-708.645	477.466	-0.050	-0.115
-707.631	-174.529	-0.221	0.006
-706.616	-73.825	-0.120	-0.044
-705.602	-178.794	-0.189	-0.004
-704.587	129.916	-0.177	0.228
-703.572	309.055	0.118	-0.222
-702.558	-117.521	-0.403	-0.073
-701.543	459.546	0.039	-0.087
-700.529	-77.858	-0.180	0.063
-699.514	-81.089	0.251	0.084
-698.499	-66.060	-0.120	0.048
-697.485	32.482	0.188	-0.163
-696.470	673.516	-0.059	0.154
-695.456	41.997	-0.142	-0.130
-694.441	-20.345	0.115	-0.071
-693.426	-12.528	-0.406	0.267
-692.412	-101.363	0.069	0.017
-691.397	-156.208	-0.340	-0.022
-690.383	34.168	0.167	-0.146
-689.368	-12.747	-0.180	0.118
-688.354	-120.552	-0.178	0.030
-687.339	-55.442	-0.373	0.168
-686.324	800.000	-0.115	-0.323
-685.310	149.323	0.264	-0.359
-684.295	44.796	-0.038	0.035
-683.281	-28.817	-0.102	0.059
-682.266	38.263	0.116	-0.104
-681.251	81.219	-0.123	0.134
-680.237	54.766	0.226	0.219
-679.222	-97.355	0.268	-0.070
-678.208	23.011	-0.124	-0.102
-677.193	-95.958	-0.064	0.017
-676.178	-200.000	0.013	-0.433
-675.164	-200.000	0.035	-0.366
-674.149	119.011	-0.094	0.117
-673.135	800.000	-0.082	0.271
-672.120	-200.000	-0.020	-0.119
-671.105	-112.591	0.291	-0.058
-670.091	-21.408	-0.119	-0.073
-669.076	48.349	-0.250	-0.236
-668.062	186.057	-0.110	0.165
-667.047	133.071	0.123	0.160
-666.032	-200.000	0.002	0.016
-665.018	129.673	0.111	0.143
-664.003	18.020	-0.242	-0.194
-662.989	800.000	0.156	0.451
-661.974	-200.000	-0.016	-0.109
-660.959	-200.000	0.029	-0.355
-659.945	-191.941	0.213	-0.002
-658.930	-200.000	0.003	-0.055
-657.916	-171.585	0.067	-0.002
-656.901	-24.604	-0.257	-0.154
-655.886	280.160	-0.241	0.432
-654.872	42.126	-0.223	0.203
-653.857	800.000	0.072	0.267
-652.843	-3.454	-0.085	0.059
-651.828	-51.327	0.128	0.060
-650.814	800.000	0.101	-0.289
-649.799	-43.582	0.258	0.131
-648.784	80.493	-0.110	0.119
-647.770	73.056	0.041	-0.043
-646.755	26.748	-0.267	-0.225
-645.741	-200.000	0.007	0.273
-644.726	-136.018	0.180	0.021
-643.711	-98.345	-0.095	-0.024
-642.697	29.994	-0.066	0.057
-641.682	800.000	0.018	0.053
-640.668	-37.883	-0.106	-0.057
-639.653	-120.989	-0.291	0.049
-638.638	30.309	0.098	0.084
-637.624	-200.000	0.010	0.161
-636.609	-72.342	-0.126	0.047
-635.595	474.365	-0.112	-0.255
-634.580	-99.920	0.127	-0.032
-633.565	534.044	-0.101	-0.241
-632.551	124.341	-0.123	-0.155
-631.536	112.444	0.103	-0.125
-630.522	471.044	0.043	-0.096
-629.507	-161.988	0.164	-0.008
-628.492	52.029	0.215	0.205
-627.478	3.424	-0.212	-0.155
-626.463	-58.467	0.245	0.107
-625.449	-7.067	0.251	-0.171
-624.434	17.446	-0.204	0.163
-623.419	-164.834	-0.162	-0.007
-622.405	45.311	0.196	-0.181
-621.390	-42.853	-0.098	0.050
-620.376	-30.707	-0.142	-0.081
-619.361	105.634	0.216	0.256
-618.346	-1.857	-0.152	-0.107
-617.332	-52.510	-0.194	-0.090
-616.317	-63.013	0.229	0.095
-615.303	483.643	0.064	0.146
-614.288	-78.508	-0.101	0.035
-613.273	498.118	-0.147	-0.340
-612.259	76.101	0.034	0.037
-611.244	-65.394	-0.313	0.126
-610.230	-200.000	-0.059	0.398
-609.215	32.389	-0.156	-0.135
-608.201	800.000	0.031	-0.120
-607.186	-21.347	0.190	-0.116
-606.171	-200.000	0.012	0.223
-605.157	-24.924	-0.042	0.025
-604.142	324.141	0.161	-0.309
-603.128	-128.194	0.425	0.061
-602.113	78.690	-0.209	0.224
-601.098	148.390	-0.096	0.129
-600.084	168.799	0.070	0.100
-599.069	219.718	-0.153	0.246
-598.055	-200.000	0.039	-0.452
-597.040	159.852	-0.129	-0.180
-596.025	-117.630	0.050	0.009
-595.011	-200.000	-0.048	-0.324
-593.996	101.034	-0.098	0.115
-592.982	-132.030	-0.229	-0.030
-591.967	-145.051	0.044	-0.004
-590.952	-1.867	0.085	0.060
-589.938	153.004	0.059	-0.082
-588.923	160.547	0.080	0.112
-587.909	467.949	-0.091	-0.204
-586.894	12.138	0.093	0.072
-585.879	-113.494	0.099	0.019
-584.865	-34.861	0.229	0.126
-583.850	125.778	-0.088	0.112
-582.836	-111.360	-0.133	0.027
-581.821	587.017	-0.202	0.499
-580.806	-74.607	-0.219	0.079
-579.792	10.297	-0.192	0.146
-578.777	635.582	0.145	-0.369
-577.763	351.188	-0.081	-0.160
-576.748	286.230	-0.217	0.392
-575.733	-149.180	0.371	-0.030
-574.719	-152.128	-0.372	-0.027
-573.704	284.113	0.013	0.023
-572.690	65.335	-0.155	0.158
-571.675	206.226	0.186	0.291
-570.661	-161.349	0.057	0.003
-569.646	-200.000	0.026	0.250
-568.631	59.403	0.190	0.188
-567.617	24.680	-0.317	-0.263
-566.602	-57.261	0.112	-0.049
-565.588	464.492	-0.051	0.113
-564.573	-200.000	-0.002	-0.277
-563.558	-19.496	-0.217	0.135
-562.544	-53.703	0.065	-0.030
-561.529	-28.125	-0.221	-0.128
-560.515	287.087	-0.096	-0.175
-559.500	800.000	0.069	-0.248
-558.485	-46.333	0.165	0.081
-557.471	57.068	-0.091	-0.089
-556.456	800.000	-0.047	-0.159
-555.442	-13.545	0.165	0.107
-554.427	131.188	0.329	-0.423
-553.412	800.000	0.089	-0.299
-552.398	318.891	0.095	-0.180
-551.383	-200.000	0.046	0.235
-550.369	546.088	0.058	-0.139
-549.354	63.939	-0.105	-0.106
-548.339	-148.459	0.125	0.010
-547.325	111.186	-0.192	-0.232
-546.310	-200.000	-0.013	0.176
-545.296	-200.000	0.024	-0.261
-544.281	-51.360	-0.179	-0.084
-543.266	172.878	-0.166	-0.239
-542.252	-200.000	-0.017	-0.271
-541.237	-39.038	0.277	0.146
-540.223	800.000	0.011	0.031
-539.208	-57.577	-0.096	0.042
-538.193	-79.067	-0.266	-0.091
-537.179	-192.237	0.122	0.001
-536.164	-137.935	-0.065	-0.007
-535.150	800.000	-0.082	-0.232
-534.135	-118.516	0.068	0.012
-533.121	48.280	0.050	0.047
-532.106	-148.847	-0.191	0.015
-531.091	240.148	-0.075	0.124
-530.077	87.299	0.175	-0.194
-529.062	286.768	-0.013	-0.023
-528.048	800.000	-0.035	-0.110
-527.033	-18.877	-0.293	-0.182
-526.018	-50.627	-0.054	-0.025
-525.004	25.615	-0.308	-0.256
-523.989	52.739	0.345	0.330
-522.975	-139.768	0.511	-0.054
-521.960	433.563	0.098	-0.214
-520.945	-92.485	-0.211	0.059
-519.931	-200.000	-0.087	-0.408
-518.916	490.515	0.037	-0.084
-517.902	52.918	0.107	-0.102
-516.887	800.000	0.066	0.190
-515.872	-17.753	0.106	0.067
-514.858	774.581	0.103	-0.281
-513.843	-60.239	0.127	-0.054
-512.829	606.169	-0.046	-0.115
-511.814	-44.582	0.045	-0.023
-510.799	-42.073	0.278	0.142
-509.785	-13.975	-0.241	-0.155
-508.770	38.635	0.227	-0.202
-507.756	38.753	-0.122	-0.109
-506.741	-87.648	0.050	0.015
-505.726	-10.321	0.231	-0.153
-504.712	-76.822	0.254	-0.089
-503.697	619.838	-0.063	-0.158
-502.683	-30.943	0.463	0.261
-501.668	-59.575	-0.205	0.088
-500.653	402.032	-0.071	0.150
-499.639	462.987	-0.049	0.110
-498.624	-59.024	-0.194	-0.084
-497.610	800.000	0.069	-0.199
-496.595	-200.000	0.003	0.059
-495.581	389.482	-0.092	0.191
-494.566	800.000	-0.110	0.340
-493.551	-58.983	0.316	0.136
-492.537	-200.000	-0.015	0.237
-491.522	-200.000	0.023	0.395
-490.508	-36.612	-0.278	0.150
-489.493	-200.000	-0.004	0.121
-488.478	-130.096	-0.087	0.012
-487.464	-200.000	0.104	0.591
-486.449	379.859	-0.145	0.298
-485.435	22.596	-0.069	-0.056
-484.420	72.116	0.123	-0.127
-483.405	-197.508	0.144	-0.001
-482.391	250.996	-0.107	0.181
-481.376	347.768	0.098	0.194
-480.362	-116.282	0.148	-0.027
-479.347	-139.460	-0.235	0.025
-478.332	-183.926	0.184	0.003
-477.318	-200.000	0.013	-0.294
-476.303	231.444	0.032	-0.053
-475.289	-200.000	0.012	-0.285
-474.274	-155.444	-0.292	-0.019
-473.259	446.678	0.122	0.268
-472.245	-100.618	0.159	0.039
-471.230	65.012	-0.150	0.151
-470.216	214.829	0.125	0.198
-469.201	-200.000	-0.052	-0.324
-468.186	183.082	-0.049	-0.072
-467.172	136.255	-0.088	-0.114
-466.157	214.005	0.162	-0.255
-465.143	227.121	-0.025	-0.040
-464.128	-24.506	0.110	0.065
-463.113	260.734	0.131	0.226
-462.099	-177.377	-0.140	-0.003
-461.084	-200.000	-0.018	-0.312
-460.070	75.201	-0.073	-0.077
-459.055	26.779	0.160	-0.134
-458.040	-200.000	0.189	-0.000
-457.026	800.000	0.063	0.184
-456.011	37.963	-0.221	-0.196
-454.997	-16.267	0.075	0.048
-453.982	35.093	-0.134	0.117
-452.968	-66.320	-0.115	-0.046
-451.953	-98.954	0.275	-0.070
-450.938	213.799	0.095	-0.150
-449.924	-68.338	-0.233	-0.090
-448.909	56.161	0.104	-0.101
-447.895	-43.066	0.283	0.143
-446.880	36.298	0.113	-0.100
-445.865	461.382	-0.074	0.165
-444.851	-200.000	0.010	0.104
-443.836	-200.000	-0.007	-0.041
-442.822	-105.387	-0.165	0.037
-441.807	256.892	-0.113	-0.194
-440.792	167.896	0.116	0.164
-439.778	-167.694	0.260	-0.010
-438.763	800.000	0.038	0.130
-437.749	800.000	-0.053	-0.193
-436.734	105.862	0.030	0.035
-435.719	-200.000	-0.019	-0.349
-434.705	636.687	0.047	0.119
-433.690	800.000	-0.143	0.416
-432.676	-200.000	-0.012	0.119
-431.661	-200.000	0.022	0.113
-430.646	-38.776	-0.358	0.188
-429.632	-200.000	0.025	-0.156
-428.617	-19.575	-0.203	-0.125
-427.603	-200.000	-0.027	0.164
-426.588	-93.155	0.349	-0.097
-425.573	50.347	0.191	-0.180
-424.559	800.000	-0.119	-0.378
-423.544	-200.000	0.002	-0.493
-422.530	35.949	-0.114	0.100
-421.515	345.531	-0.159	-0.312
-420.500	85.362	0.111	0.121
-419.486	-200.000	0.022	0.132
-418.471	304.610	0.083	-0.154
-417.457	-102.777	-0.482	-0.114
-416.442	34.613	0.133	0.116
-415.428	4.811	-0.091	-0.067
-414.413	196.726	-0.053	0.081
-413.398	800.000	-0.106	-0.319
-412.384	-200.000	-0.027	0.171
-411.369	-43.377	0.283	-0.142
-410.355	118.605	-0.172	0.212
-409.340	-200.000	0.003	-0.013
-408.325	-200.000	0.006	0.340
-407.311	-200.000	-0.007	0.248
-406.296	-13.638	-0.226	0.145
-405.282	-123.620	-0.092	-0.015
-404.267	49.229	0.183	0.172
-403.252	335.818	-0.114	-0.220
-402.238	107.488	0.238	0.282
-401.223	-200.000	-0.010	0.067
-400.209	528.638	0.049	-0.116
-399.194	-200.000	-0.001	0.037
-398.179	-200.000	0.032	-0.243
-397.165	800.000	0.033	-0.099
-396.150	-60.734	0.324	0.136
-395.136	800.000	0.103	-0.290
-394.121	17.945	0.215	-0.171
-393.106	-104.939	0.139	-0.032
-392.092	-200.000	-0.023	-0.190
-391.077	-43.898	0.123	-0.062
-390.063	-56.836	0.280	0.123
-389.048	121.778	0.129	-0.160
-388.033	-0.582	0.059	-0.041
-387.019	-200.000	0.001	-0.164
-386.004	-51.246	0.161	0.075
-384.990	-96.135	-0.170	-0.045
-383.975	112.418	-0.110	-0.133
-382.960	577.355	0.098	0.237
-381.946	228.615	0.125	0.203
-380.931	491.343	0.157	-0.357
-379.917	-200.000	0.057	0.293
-378.902	3.697	0.189	0.137
-377.888	-62.456	0.131	0.054
-376.873	-186.430	0.429	-0.006
-375.858	25.883	-0.377	0.312
-374.844	548.577	0.009	-0.022
-373.829	-107.202	-0.132	-0.029
-372.815	191.187	0.055	0.083
-371.800	-200.000	-0.013	-0.280
-370.785	800.000	0.104	-0.338
-369.771	-200.000	0.010	-0.057
-368.756	14.263	0.167	0.129
-367.742	106.432	0.089	-0.105
-366.727	146.480	-0.100	0.133
-365.712	460.419	0.201	-0.446
-364.698	89.297	0.049	-0.055
-363.683	-56.011	-0.336	0.149
-362.669	-200.000	0.015	-0.326
-361.654	10.515	-0.045	0.034
-360.639	251.926	-0.028	-0.048
-359.625	-25.539	-0.248	-0.146
-358.610	599.970	-0.147	-0.363
-357.596	-91.077	-0.272	0.078
-356.581	22.104	0.126	0.102
-355.566	800.000	0.018	-0.069
-354.552	-15.895	-0.127	0.080
-353.537	-200.000	-0.047	0.290
-352.523	584.724	0.098	-0.240
-351.508	743.101	-0.053	0.142
-350.493	191.662	-0.185	-0.276
-349.479	93.806	-0.189	-0.213
-348.464	82.398	-0.069	0.075
-347.450	-88.192	0.345	0.103
-346.435	-200.000	0.014	-0.063
-345.420	-200.000	0.003	0.268
-344.406	-135.239	0.078	0.009
-343.391	95.366	-0.180	0.204
-342.377	800.000	0.050	0.142
-341.362	394.140	-0.211	-0.437
-340.348	95.634	-0.160	0.181
-339.333	-200.000	-0.015	-0.154
-338.318	-127.211	-0.269	0.039
-337.304	-65.591	0.259	-0.103
-336.289	334.043	0.110	0.211
-335.275	-100.408	-0.222	0.054
-334.260	488.062	0.106	-0.240
-333.245	-31.627	0.174	-0.097
-332.231	-200.000	0.061	-0.303
-331.216	-200.000	-0.051	-0.254
-330.202	-56.081	0.290	0.128
-329.187	448.320	-0.033	0.072
-328.172	-200.000	-0.042	-0.228
-327.158	66.301	-0.169	0.171
-326.143	285.652	-0.085	0.153
-325.129	-21.369	-0.255	-0.155
-324.114	-200.000	-0.000	-0.157
-323.099	411.427	-0.048	0.102
-322.085	-132.912	0.369	-0.047
-321.070	-200.000	0.056	0.259
-320.056	800.000	0.047	0.188
-319.041	-200.000	0.049	0.311
-318.026	-64.867	-0.299	-0.120
-317.012	70.631	0.134	-0.137
-315.997	413.461	-0.148	-0.313
-314.983	-97.132	0.381	0.099
-313.968	-200.000	-0.004	-0.195
-312.953	452.638	-0.098	0.214
-311.939	800.000	-0.068	0.273
-310.924	-15.206	-0.080	0.051
-309.910	468.025	0.081	0.181
-308.895	-16.333	-0.072	0.046
-307.880	-100.275	-0.322	0.079
-306.866	202.792	0.212	0.325
-305.851	-200.000	-0.030	0.257
-304.837	165.489	-0.047	-0.066
-303.822	126.418	-0.080	0.100
-302.807	-131.041	0.344	0.045
-301.793	-200.000	-0.002	0.020
-300.778	-25.502	0.031	0.018
-299.764	-106.228	-0.246	0.055
-298.749	-17.459	-0.274	-0.171
-297.735	9.046	0.143	-0.107
-296.720	-63.785	0.181	-0.074
-295.705	163.850	0.052	0.072
-294.691	800.000	0.053	-0.162
-293.676	-36.005	0.203	-0.109
-292.662	91.516	0.278	-0.309
-291.647	-25.025	-0.133	-0.078
-290.632	-50.848	-0.527	-0.245
-289.618	-151.715	0.224	0.016
-288.603	80.252	-0.146	0.156
-287.589	117.195	-0.009	-0.011
-286.574	37.576	0.057	0.050
-285.559	-108.493	0.293	-0.062
-284.545	-62.010	0.212	-0.088
-283.530	-114.605	-0.247	-0.047
-282.516	800.000	0.089	0.275
-281.501	-95.866	0.120	0.032
-280.486	188.832	-0.079	0.117
-279.472	589.703	0.175	0.426
-278.457	-60.030	0.259	0.109
-277.443	-28.760	-0.055	0.032
-276.428	-115.020	-0.090	-0.017
-275.413	-156.682	-0.225	0.014
-274.399	612.769	-0.065	0.162
-273.384	-200.000	-0.044	0.306
-272.370	321.384	0.114	0.215
-271.355	125.107	0.211	0.263
-270.340	17.027	-0.127	0.099
-269.326	-132.827	0.216	-0.027
-268.311	-139.329	-0.063	0.007
-267.297	-121.018	-0.277	-0.046
-266.282	-200.000	-0.003	-0.305
-265.267	534.223	0.107	-0.252
-264.253	4.055	-0.265	-0.192
-263.238	-22.385	-0.148	-0.089
-262.224	110.977	-0.134	0.160
-261.209	-101.053	0.254	0.062
-260.195	149.135	-0.164	0.219
-259.180	800.000	0.145	0.403
-258.165	-7.701	-0.033	0.022
-257.151	-53.870	0.265	0.119
-256.136	-200.000	0.010	0.073
-255.122	64.855	-0.104	0.103
-254.107	-200.000	0.015	0.151
-253.092	-200.000	0.028	0.143
-252.078	800.000	0.060	-0.191
-251.063	800.000	-0.098	0.390
-250.049	-93.921	-0.122	-0.033
-249.034	-35.048	-0.214	-0.116
-248.019	3.318	0.164	0.118
-247.005	75.609	0.348	0.364
-245.990	289.984	-0.211	-0.380
-244.976	-96.320	-0.381	0.100
-243.961	498.047	-0.078	0.177
-242.946	-112.766	-0.023	-0.004
-241.932	-52.290	0.157	-0.072
-240.917	-200.000	-0.027	0.264
-239.903	-120.840	-0.078	0.013
-238.888	-200.000	-0.016	-0.322
-237.873	680.115	-0.056	0.143
-236.859	221.288	-0.149	0.237
-235.844	-97.294	0.160	-0.041
-234.830	-200.000	-0.005	-0.252
-233.815	119.148	0.203	0.248
-232.800	-67.725	0.157	0.061
-231.786	-44.462	0.245	0.121
-230.771	-78.249	0.236	0.080
-229.757	541.246	0.101	-0.238
-228.742	33.455	0.117	-0.100
-227.727	324.372	-0.056	0.106
-226.713	-78.911	0.060	-0.020
-225.698	-200.000	-0.014	0.159
-224.684	36.982	-0.121	-0.106
-223.669	-200.000	-0.006	-0.310
-222.655	368.376	-0.081	-0.162
-221.640	94.536	-0.071	0.080
-220.625	272.172	0.149	0.259
-219.611	303.458	-0.162	0.296
-218.596	800.000	-0.031	0.087
-217.582	-46.921	-0.182	-0.088
-216.567	-16.394	0.156	0.098
-215.552	-161.231	0.231	0.012
-214.538	563.232	0.073	0.176
-213.523	-200.000	0.044	-0.209
-212.509	-92.018	-0.398	0.111
-211.494	-164.578	0.308	-0.014
-210.479	171.632	0.152	-0.216
-209.465	-200.000	0.062	-0.270
-208.450	-18.676	-0.156	0.096
-207.436	617.656	-0.047	0.116
-206.421	-37.770	-0.491	0.258
-205.406	458.872	-0.082	0.181
-204.392	-156.755	-0.136	0.008
-203.377	279.835	-0.039	-0.068
-202.363	11.152	-0.201	0.152
-201.348	280.386	0.043	-0.077
-200.333	241.331	-0.058	-0.096
-199.319	128.518	-0.034	-0.043
-198.304	231.648	-0.065	-0.105
-197.290	-11.246	0.196	-0.127
-196.275	800.000	-0.085	0.274
-195.260	800.000	-0.019	0.054
-194.246	-76.123	-0.259	0.090
-193.231	-178.888	0.073	-0.002
-192.217	800.000	0.059	-0.252
-191.202	-1.594	0.020	-0.014
-190.187	-155.661	0.227	0.014
-189.173	-16.339	-0.172	0.108
-188.158	-88.433	-0.097	-0.029
-187.144	-64.694	-0.122	0.049
-186.129	391.898	-0.043	0.088
-185.114	127.313	-0.090	-0.113
-184.100	34.055	0.158	-0.136
-183.085	-88.764	-0.305	-0.090
-182.071	-52.629	0.239	0.109
-181.056	-79.032	0.109	-0.037
-180.042	-73.772	0.174	-0.063
-179.027	-160.606	-0.116	-0.006
-178.012	-200.000	0.012	0.078
-176.998	-120.045	0.176	0.030
-175.983	-68.741	0.233	-0.089
-174.969	800.000	-0.133	-0.465
-173.954	185.417	-0.063	0.093
-172.939	-2.446	-0.263	-0.181
-171.925	800.000	-0.091	0.267
-170.910	-120.029	0.026	0.004
-169.896	-18.289	-0.156	-0.096
-168.881	-200.000	0.030	0.191
-167.866	1.203	-0.097	0.069
-166.852	-123.804	0.042	0.007
-165.837	-183.663	-0.257	-0.004
-164.823	79.144	-0.158	-0.167
-163.808	-139.211	-0.245	-0.026
-162.793	-68.884	-0.219	-0.083
-161.779	-58.321	0.264	-0.113
-160.764	-200.000	-0.063	0.290
-159.750	-200.000	-0.002	0.181
-158.735	800.000	0.133	-0.441
-157.720	145.083	-0.047	-0.062
-156.706	483.962	-0.163	0.367
-155.691	-110.233	0.239	0.049
-154.677	-150.517	0.090	-0.007
-153.662	800.000	-0.090	-0.279
-152.647	-71.913	0.506	0.186
-151.633	389.863	-0.112	0.229
-150.618	-159.968	-0.215	0.012
-149.604	-200.000	-0.005	0.128
-148.589	-9.629	-0.109	-0.072
-147.574	-113.748	0.323	-0.062
-146.560	-200.000	-0.015	-0.223
-145.545	-63.522	-0.060	-0.024
-144.531	-4.041	-0.219	-0.150
-143.516	-155.927	0.283	-0.018
-142.502	-168.022	-0.398	-0.015
-141.487	-144.729	-0.185	0.017
-140.472	17.599	0.106	0.083
-139.458	800.000	0.033	0.107
-138.443	-71.619	0.177	0.065
-137.429	42.439	-0.279	0.250
-136.414	329.521	0.109	0.207
-135.399	51.013	-0.087	0.081
-134.385	387.208	0.164	0.333
-133.370	-53.774	-0.306	0.137
-132.356	0.313	-0.109	0.077
-131.341	88.407	-0.010	-0.011
-130.326	228.738	-0.106	0.170
-129.312	46.894	-0.309	0.283
-128.297	177.909	-0.174	0.249
-127.283	11.515	-0.247	-0.187
-126.268	494.574	-0.056	0.127
-125.253	-160.800	0.182	0.009
-124.239	-30.420	-0.046	-0.026
-123.224	-200.000	-0.295	-0.001
-122.210	-36.615	-0.059	0.031
-121.195	40.316	0.149	0.132
