DTS Sentinel unit serial number:	SN413079Multiplexer serial number:	ORYXHardware model number:	OX4-SRSoftware version number:	ORYX F/W v4.00 Oryx Data Collector v3.7.2.0data status	okinstallation	princeton_trtdifferential loss correction	single-endedforward channel	channel 2reverse channel	N/Adate	2019/09/15time	17:03:35forward acquisition time	60.00reverse acquisition time	0.00gamma	496.2192k internal	0.2284k external	0.2284temperature offset calibration	0.9931default loss term (dB/km)	0.3790temperature slope calibration	1.0000multiplexer offset coefficient	1.0000multiplexer slope coefficient	1.0000fibre end	0.00T internal ref (°C)	44.55T ext. ref 1 (°C)	5.88T ext. ref 2 (°C)	40.98length (m)	temperature (°C)	Stokes	anti-Stokes-747.200	800.000	0.030	0.110
-746.185	113.517	0.229	0.285
-745.171	-200.000	-0.052	0.263
-744.156	-175.000	0.088	-0.003
-743.142	-26.207	-0.274	0.166
-742.127	-200.000	-0.031	0.262
-741.112	-43.572	0.439	-0.227
-740.098	-200.000	0.045	0.293
-739.083	93.267	-0.352	0.409
-738.069	-130.537	-0.354	-0.049
-737.054	-31.384	0.102	0.059
-736.039	-200.000	-0.051	0.387
-735.025	-200.000	0.010	-0.253
-734.010	182.947	-0.073	-0.110
-732.996	103.899	-0.109	0.131
-731.981	15.014	-0.216	-0.173
-730.966	350.703	-0.159	0.322
-729.952	-95.447	0.206	0.057
-728.937	-200.000	0.080	-0.551
-727.923	439.335	0.102	0.229
-726.908	205.437	-0.093	0.148
-725.894	-110.403	-0.317	-0.068
-724.879	235.854	-0.174	-0.295
-723.864	505.875	-0.117	-0.277
-722.850	-180.301	-0.055	0.001
-721.835	14.636	-0.056	-0.045
-720.821	201.189	0.182	-0.287
-719.806	272.954	0.099	-0.179
-718.791	-107.658	0.290	-0.065
-717.777	142.898	0.071	-0.097
-716.762	-1.991	-0.256	0.185
-715.748	51.670	-0.123	-0.120
-714.733	-113.815	-0.282	-0.056
-713.718	159.901	-0.220	-0.314
-712.704	800.000	-0.067	-0.253
-711.689	-148.499	-0.483	-0.041
-710.675	332.233	0.057	0.114
-709.660	35.033	0.045	0.040
-708.645	-80.228	-0.102	-0.035
-707.631	-50.285	0.366	-0.178
-706.616	-91.143	-0.060	-0.018
-705.602	-200.000	0.014	-0.230
-704.587	326.985	-0.110	0.215
-703.572	110.373	-0.096	-0.118
-702.558	72.965	-0.165	0.177
-701.543	-1.154	-0.292	-0.212
-700.529	39.616	-0.064	-0.059
-699.514	-140.243	-0.211	-0.023
-698.499	-52.222	0.217	-0.103
-697.485	12.092	0.168	-0.132
-696.470	800.000	-0.037	-0.107
-695.456	800.000	0.059	0.263
-694.441	-7.771	-0.178	0.123
-693.426	800.000	-0.111	-0.327
-692.412	-200.000	0.017	0.137
-691.397	-17.207	0.155	-0.100
-690.383	-6.712	-0.216	0.151
-689.368	-34.169	-0.240	-0.135
-688.354	642.565	-0.107	-0.280
-687.339	-140.033	-0.066	-0.007
-686.324	800.000	-0.033	0.138
-685.310	-200.000	0.023	0.142
-684.295	276.972	-0.140	-0.255
-683.281	284.254	0.066	0.121
-682.266	-200.000	0.007	-0.275
-681.251	-84.608	0.239	0.077
-680.237	74.794	-0.265	-0.286
-679.222	10.779	-0.189	0.148
-678.208	-71.165	0.071	-0.027
-677.193	-94.895	0.260	-0.072
-676.178	111.957	-0.030	-0.037
-675.164	32.062	0.081	0.071
-674.149	-86.769	-0.147	0.046
-673.135	-200.000	-0.004	-0.116
-672.120	49.136	-0.149	0.143
-671.105	272.877	-0.148	0.269
-670.091	322.783	-0.258	0.504
-669.076	447.389	-0.088	-0.198
-668.062	-200.000	0.054	0.257
-667.047	180.053	0.043	0.064
-666.032	10.841	-0.065	0.051
-665.018	-117.413	-0.103	0.019
-664.003	-200.000	0.000	0.008
-662.989	-157.352	-0.060	0.004
-661.974	-200.000	-0.013	-0.095
-660.959	-51.399	-0.132	-0.063
-659.945	-119.549	0.148	-0.026
-658.930	-200.000	-0.026	0.298
-657.916	-27.418	0.159	-0.095
-656.901	105.165	0.117	0.141
-655.886	-200.000	0.039	-0.270
-654.872	-200.000	0.026	-0.382
-653.857	72.430	-0.060	0.065
-652.843	-98.636	0.099	-0.026
-651.828	146.102	0.204	-0.280
-650.814	-200.000	-0.049	-0.387
-649.799	7.984	-0.164	0.126
-648.784	125.887	-0.220	0.284
-647.770	-200.000	0.008	-0.132
-646.755	-73.988	-0.314	-0.116
-645.741	-54.933	0.020	-0.009
-644.726	-52.525	0.210	-0.099
-643.711	197.125	0.007	0.011
-642.697	53.054	-0.103	0.101
-641.682	-85.207	-0.269	0.086
-640.668	139.164	-0.237	0.319
-639.653	-115.221	-0.346	-0.067
-638.638	-21.304	-0.416	-0.260
-637.624	51.150	-0.254	0.246
-636.609	198.131	0.210	-0.328
-635.595	196.007	0.131	0.203
-634.580	341.104	-0.045	0.089
-633.565	221.087	-0.090	-0.148
-632.551	-13.143	-0.286	-0.190
-631.536	91.172	0.043	-0.049
-630.522	-50.397	0.290	0.140
-629.507	92.849	0.132	0.152
-628.492	-160.251	0.150	0.008
-627.478	-30.717	0.339	-0.196
-626.463	-160.050	-0.128	0.007
-625.449	41.318	0.089	0.082
-624.434	-74.302	-0.160	0.059
-623.419	-34.945	-0.210	-0.117
-622.405	150.573	0.182	-0.252
-621.390	102.877	-0.080	0.096
-620.376	227.324	-0.037	0.061
-619.361	576.640	0.086	0.214
-618.346	723.401	-0.162	-0.441
-617.332	-200.000	0.009	-0.250
-616.317	32.854	-0.206	-0.182
-615.303	227.136	-0.137	-0.227
-614.288	-18.565	0.011	0.007
-613.273	800.000	0.076	-0.226
-612.259	63.584	0.031	-0.032
-611.244	69.887	-0.287	0.303
-610.230	-61.428	-0.227	0.098
-609.215	25.070	-0.099	0.084
-608.201	-118.125	-0.282	-0.051
-607.186	364.063	0.145	0.298
-606.171	17.375	0.192	0.156
-605.157	-78.774	0.478	0.167
-604.142	481.277	0.070	-0.162
-603.128	300.920	-0.159	0.299
-602.113	112.377	-0.087	-0.108
-601.098	62.585	-0.060	-0.061
-600.084	762.508	-0.155	-0.430
-599.069	-200.000	-0.018	-0.119
-598.055	-29.958	0.064	-0.037
-597.040	256.923	-0.121	-0.213
-596.025	-175.592	-0.177	0.005
-595.011	-72.029	0.123	0.047
-593.996	97.700	0.081	-0.096
-592.982	-130.708	-0.203	0.028
-591.967	491.680	-0.116	0.272
-590.952	-87.530	0.421	-0.130
-589.938	478.288	0.053	-0.123
-588.923	-41.791	-0.088	0.046
-587.909	197.692	0.105	0.163
-586.894	-200.000	0.051	0.235
-585.879	396.774	0.060	0.128
-584.865	800.000	0.041	0.163
-583.850	41.482	-0.219	0.202
-582.836	-200.000	0.017	0.212
-581.821	-131.558	-0.278	-0.037
-580.806	95.610	0.206	0.240
-579.792	5.559	0.140	-0.105
-578.777	-200.000	0.024	-0.128
-577.763	88.486	-0.253	-0.286
-576.748	-154.282	0.263	0.018
-575.733	24.364	-0.319	0.269
-574.719	62.983	0.163	-0.167
-573.704	-200.000	-0.034	-0.277
-572.690	-200.000	-0.010	-0.122
-571.675	-200.000	0.010	0.214
-570.661	-173.208	-0.228	0.007
-569.646	-143.582	0.189	0.018
-568.631	-200.000	0.005	-0.090
-567.617	800.000	-0.080	-0.251
-566.602	174.730	0.182	-0.268
-565.588	-42.347	-0.201	-0.105
-564.573	-12.890	-0.232	0.154
-563.558	-122.651	0.148	0.024
-562.544	-10.094	-0.280	0.189
-561.529	126.507	0.192	0.248
-560.515	-119.576	0.297	-0.053
-559.500	382.962	0.089	-0.187
-558.485	-99.759	0.168	0.043
-557.471	-200.000	0.034	0.337
-556.456	-115.139	-0.397	0.077
-555.442	66.707	-0.280	0.291
-554.427	800.000	-0.060	-0.192
-553.412	291.530	-0.075	-0.140
-552.398	123.144	0.120	0.153
-551.383	-200.000	0.029	0.167
-550.369	800.000	0.020	0.087
-549.354	-200.000	0.020	-0.101
-548.339	800.000	0.036	0.147
-547.325	174.719	-0.046	-0.068
-546.310	502.650	-0.102	0.240
-545.296	402.325	0.092	0.198
-544.281	-79.833	-0.126	0.043
-543.266	-76.362	0.371	-0.133
-542.252	-200.000	0.009	-0.116
-541.237	-130.124	0.178	0.025
-540.223	-90.939	-0.282	-0.083
-539.208	800.000	0.072	-0.248
-538.193	-79.515	0.163	-0.056
-537.179	5.694	-0.216	-0.163
-536.164	-200.000	0.001	0.236
-535.150	28.207	-0.137	0.118
-534.135	-37.411	0.212	-0.116
-533.121	-125.455	-0.253	0.039
-532.106	-45.632	-0.299	0.151
-531.091	200.691	-0.046	-0.073
-530.077	-99.796	0.455	-0.116
-529.062	-165.394	0.163	-0.007
-528.048	-200.000	-0.003	-0.023
-527.033	-200.000	0.011	-0.228
-526.018	-108.242	0.106	-0.023
-525.004	-46.604	0.142	-0.071
-523.989	201.952	-0.083	-0.130
-522.975	-110.993	0.164	0.034
-521.960	-57.571	-0.181	-0.081
-520.945	-200.000	-0.005	-0.147
-519.931	88.165	0.154	0.174
-518.916	170.051	0.154	-0.224
-517.902	-147.509	0.224	0.019
-516.887	-27.796	0.121	-0.071
-515.872	309.009	-0.126	0.240
-514.858	-200.000	0.050	0.326
-513.843	-114.386	-0.133	-0.026
-512.829	185.297	0.298	-0.450
-511.814	107.996	0.124	0.151
-510.799	333.350	-0.077	0.151
-509.785	-144.167	0.143	0.014
-508.770	-42.013	0.377	0.196
-507.756	-42.964	-0.173	-0.089
-506.741	225.015	0.299	-0.492
-505.726	192.791	0.022	-0.034
-504.712	-200.000	0.030	-0.192
-503.697	703.450	0.096	0.258
-502.683	55.456	-0.353	-0.347
-501.668	-124.869	0.106	0.017
-500.653	-107.014	-0.450	0.101
-499.639	800.000	-0.057	0.174
-498.624	-139.075	-0.178	0.020
-497.610	800.000	0.021	0.071
-496.595	-96.808	-0.356	-0.095
-495.581	-200.000	0.044	-0.346
-494.566	-14.851	0.029	-0.019
-493.551	-85.572	-0.031	0.010
-492.537	-14.656	-0.175	-0.114
-491.522	98.897	-0.064	-0.075
-490.508	-200.000	-0.029	0.246
-489.493	800.000	-0.060	0.193
-488.478	165.257	0.153	-0.220
-487.464	266.299	0.123	0.218
-486.449	-134.892	0.087	-0.011
-485.435	199.937	0.133	-0.208
-484.420	358.669	0.050	0.101
-483.405	175.585	-0.153	-0.225
-482.391	-176.800	0.200	0.005
-481.376	208.425	-0.219	0.348
-480.362	166.471	-0.188	-0.271
-479.347	-159.916	-0.080	-0.004
-478.332	-124.762	0.261	-0.041
-477.318	-140.682	-0.092	0.010
-476.303	-122.471	-0.130	-0.022
-475.289	277.678	0.147	0.267
-474.274	800.000	-0.118	-0.477
-473.259	168.207	0.063	0.091
-472.245	-77.888	-0.249	0.087
-471.230	-200.000	0.044	-0.319
-470.216	-96.206	0.214	0.058
-469.201	-65.705	-0.166	-0.067
-468.186	-134.733	-0.204	-0.025
-467.172	115.612	-0.112	-0.139
-466.157	-66.718	0.076	-0.031
-465.143	-39.059	0.142	-0.076
-464.128	118.358	0.133	-0.166
-463.113	63.072	0.142	-0.144
-462.099	-37.107	-0.114	0.062
-461.084	-200.000	0.018	0.304
-460.070	25.724	0.138	-0.117
-459.055	-102.035	0.120	0.029
-458.040	265.096	0.155	-0.275
-457.026	-51.779	-0.510	-0.241
-456.011	800.000	-0.020	0.062
-454.997	153.374	-0.120	-0.167
-453.982	580.794	0.101	-0.251
-452.968	-113.962	-0.089	0.017
-451.953	-200.000	0.044	0.211
-450.938	-85.974	-0.324	-0.102
-449.924	56.321	0.187	0.184
-448.909	70.495	0.115	0.121
-447.895	43.981	0.148	-0.138
-446.880	-39.161	0.123	-0.066
-445.865	-132.988	-0.168	-0.022
-444.851	-42.246	-0.061	0.031
-443.836	-102.842	0.308	-0.074
-442.822	-26.719	0.197	0.117
-441.807	800.000	-0.036	-0.135
-440.792	316.248	0.097	-0.185
-439.778	141.527	-0.142	0.191
-438.763	-167.359	-0.138	-0.006
-437.749	108.526	-0.244	-0.295
-436.734	138.901	-0.066	-0.089
-435.719	130.452	-0.101	0.131
-434.705	554.922	-0.032	-0.079
-433.690	0.558	0.112	-0.081
-432.676	-40.381	0.026	-0.014
-431.661	744.159	0.099	0.270
-430.646	800.000	-0.058	-0.178
-429.632	-94.264	0.159	-0.044
-428.617	58.881	-0.204	-0.203
-427.603	348.850	-0.129	-0.258
-426.588	-132.406	-0.252	0.033
-425.573	91.268	0.113	-0.128
-424.559	-156.261	0.272	-0.017
-423.544	-125.292	-0.215	-0.033
-422.530	215.388	-0.076	0.123
-421.515	88.586	-0.064	0.072
-420.500	-6.211	-0.273	-0.189
-419.486	404.243	0.047	0.101
-418.471	289.402	-0.068	0.125
-417.457	57.877	0.269	0.267
-416.442	747.302	-0.080	-0.218
-415.428	-200.000	-0.016	-0.148
-414.413	800.000	-0.059	-0.242
-413.398	-93.586	0.139	0.039
-412.384	-78.297	-0.254	-0.088
-411.369	284.890	-0.060	0.110
-410.355	-111.790	0.265	-0.054
-409.340	5.433	0.311	0.233
-408.325	357.831	0.067	-0.135
-407.311	800.000	-0.077	-0.218
-406.296	-102.190	-0.189	0.046
-405.282	109.263	0.168	-0.204
-404.267	800.000	0.067	0.243
-403.252	580.297	-0.044	-0.110
-402.238	209.367	0.148	-0.235
-401.223	-63.109	-0.312	0.131
-400.209	-91.736	-0.291	0.084
-399.194	374.944	0.068	-0.140
-398.179	-103.826	-0.130	0.031
-397.165	800.000	0.056	-0.193
-396.150	800.000	0.027	-0.120
-395.136	89.315	0.072	-0.081
-394.121	-183.998	-0.209	0.004
-393.106	240.091	0.065	0.110
-392.092	-11.900	0.100	0.066
-391.077	159.001	-0.148	0.209
-390.063	-200.000	0.076	0.344
-389.048	-43.378	0.267	-0.137
-388.033	800.000	-0.075	-0.277
-387.019	-66.506	0.571	-0.230
-386.004	131.994	-0.146	-0.190
-384.990	-92.409	0.312	-0.089
-383.975	5.746	0.173	0.130
-382.960	60.978	0.216	0.217
-381.946	-129.910	0.202	-0.028
-380.931	-170.130	-0.492	-0.018
-379.917	-29.150	0.231	0.134
-378.902	100.318	-0.291	-0.342
-377.888	-56.892	-0.160	0.071
-376.873	-99.128	-0.157	0.040
-375.858	-93.498	-0.274	0.077
-374.844	290.828	0.121	-0.223
-373.829	-17.646	0.370	0.235
-372.815	-200.000	-0.019	0.264
-371.800	800.000	0.058	-0.172
-370.785	-200.000	0.023	0.262
-369.771	-200.000	-0.031	0.144
-368.756	-200.000	0.013	0.418
-367.742	68.918	-0.275	-0.286
-366.727	-34.113	-0.283	-0.158
-365.712	-84.086	-0.134	-0.043
-364.698	225.066	-0.123	0.201
-363.683	-200.000	0.019	-0.101
-362.669	-104.143	0.311	0.073
-361.654	800.000	-0.040	-0.161
-360.639	-200.000	0.008	0.337
-359.625	18.724	-0.300	0.243
-358.610	-200.000	-0.063	-0.294
-357.596	528.625	-0.086	-0.206
-356.581	87.535	-0.205	0.229
-355.566	-156.798	0.491	-0.031
-354.552	-153.357	-0.130	0.009
-353.537	-36.984	-0.173	-0.094
-352.523	-12.185	-0.237	0.157
-351.508	520.770	-0.167	-0.397
-350.493	2.818	0.265	-0.195
-349.479	-80.743	0.262	-0.088
-348.464	-119.475	0.317	0.056
-347.450	3.615	0.099	-0.073
-346.435	97.462	-0.146	0.169
-345.420	85.305	-0.315	-0.350
-344.406	666.931	0.068	-0.179
-343.391	-58.859	-0.333	-0.146
-342.377	800.000	-0.073	-0.268
-341.362	-47.608	-0.174	-0.086
-340.348	378.440	0.153	0.316
-339.333	152.906	-0.145	0.200
-338.318	298.702	-0.088	0.163
-337.304	-143.080	-0.350	-0.034
-336.289	-200.000	0.006	-0.121
-335.275	800.000	0.028	0.121
-334.260	495.247	-0.091	0.212
-333.245	-22.240	0.064	0.039
-332.231	-116.899	-0.071	-0.013
-331.216	800.000	0.014	-0.046
-330.202	51.646	-0.183	-0.176
-329.187	128.031	0.221	-0.284
-328.172	39.834	-0.059	-0.054
-327.158	171.635	0.047	0.068
-326.143	-35.116	0.288	0.158
-325.129	268.891	0.041	0.072
-324.114	152.363	0.217	0.299
-323.099	13.824	0.092	-0.072
-322.085	-200.000	-0.009	0.149
-321.070	29.814	0.227	0.195
-320.056	231.592	-0.200	0.331
-319.041	447.203	0.175	0.388
-318.026	171.842	0.195	0.283
-317.012	-135.206	0.268	-0.032
-315.997	58.853	-0.256	0.254
-314.983	764.944	0.075	-0.205
-313.968	34.791	0.293	-0.259
-312.953	-200.000	0.020	0.192
-311.939	800.000	-0.031	0.112
-310.924	57.149	0.013	0.013
-309.910	-61.045	0.185	0.079
-308.895	132.207	0.096	-0.125
-307.880	-31.406	-0.135	-0.077
-306.866	-18.119	0.216	0.136
-305.851	104.847	0.228	-0.271
-304.837	57.095	-0.074	0.073
-303.822	-100.487	-0.435	-0.109
-302.807	-6.240	0.196	-0.135
-301.793	59.454	0.195	-0.194
-300.778	99.434	-0.036	-0.042
-299.764	-200.000	0.022	-0.166
-298.749	255.744	-0.104	0.180
-297.735	-200.000	-0.046	0.242
-296.720	-200.000	0.011	-0.312
-295.705	-135.775	-0.177	-0.021
-294.691	627.856	-0.052	-0.133
-293.676	127.422	-0.089	0.115
-292.662	-59.777	-0.130	0.056
-291.647	628.142	0.116	0.295
-290.632	186.933	-0.078	0.118
-289.618	304.411	0.075	0.140
-288.603	-109.489	0.415	0.089
-287.589	-121.342	0.186	0.031
-286.574	-114.753	0.141	0.027
-285.559	81.136	-0.119	0.129
-284.545	85.171	0.076	0.084
-283.530	-103.131	-0.334	0.080
-282.516	188.987	-0.193	-0.291
-281.501	43.182	0.046	-0.042
-280.486	546.481	-0.016	0.038
-279.472	-170.955	0.142	0.005
-278.457	-107.864	0.197	0.043
-277.443	-98.477	0.163	0.042
-276.428	-200.000	0.035	-0.218
-275.413	-128.708	-0.149	-0.021
-274.399	33.762	-0.058	0.051
-273.384	640.750	-0.068	0.174
-272.370	-139.617	-0.241	0.026
-271.355	-200.000	0.010	-0.154
-270.340	-161.275	-0.178	0.009
-269.326	-200.000	-0.007	0.055
-268.311	51.476	0.100	0.096
-267.297	38.347	0.103	0.093
-266.282	150.742	0.048	0.066
-265.267	800.000	-0.118	-0.360
-264.253	-145.084	0.380	-0.035
-263.238	60.849	-0.091	-0.091
-262.224	0.588	-0.112	0.081
-261.209	-180.514	0.485	-0.010
-260.195	212.381	-0.190	-0.303
-259.180	-50.560	-0.200	-0.095
-258.165	201.545	-0.100	0.156
-257.151	58.560	-0.033	0.032
-256.136	-114.041	0.162	-0.032
-255.122	-174.635	0.228	-0.007
-254.107	327.949	0.091	0.176
-253.092	-200.000	0.009	0.245
-252.078	153.244	-0.039	-0.053
-251.063	45.703	-0.251	0.233
-250.049	-200.000	0.041	-0.245
-249.034	-18.469	-0.308	0.194
-248.019	92.929	0.062	-0.071
-247.005	163.574	0.265	-0.376
-245.990	-32.696	-0.094	-0.053
-244.976	148.060	0.201	-0.273
-243.961	57.515	0.235	-0.232
-242.946	-101.502	-0.082	-0.020
-241.932	-14.632	0.247	0.160
-240.917	314.104	0.035	0.066
-239.903	239.065	0.089	-0.149
-238.888	81.985	0.126	-0.137
-237.873	-200.000	-0.029	-0.180
-236.859	89.023	0.401	-0.450
-235.844	-54.249	-0.377	-0.172
-234.830	-200.000	-0.011	-0.066
-233.815	-138.602	-0.158	0.017
-232.800	33.333	-0.273	0.239
-231.786	-160.542	0.097	-0.005
-230.771	-160.538	0.086	-0.005
-229.757	593.650	0.110	-0.275
-228.742	-53.542	-0.113	0.052
-227.727	-112.387	-0.155	0.031
-226.713	-161.857	-0.392	0.020
-225.698	100.820	-0.215	0.251
-224.684	-144.734	-0.399	0.037
-223.669	33.804	0.321	0.281
-222.655	-200.000	-0.004	0.021
-221.640	-107.701	0.230	-0.051
-220.625	38.096	0.045	0.040
-219.611	312.697	-0.208	-0.394
-218.596	-36.137	-0.285	0.155
-217.582	-61.039	0.462	-0.197
-216.567	-134.934	0.371	-0.045
-215.552	-35.287	-0.329	0.180
-214.538	-8.928	0.182	-0.123
-213.523	769.446	0.094	0.256
-212.509	27.969	0.086	0.073
-211.494	112.829	-0.082	0.100
-210.479	-87.094	-0.185	0.056
-209.465	66.524	0.175	-0.179
-208.450	-127.114	0.073	0.011
-207.436	-70.138	-0.394	0.151
-206.421	-70.896	-0.128	0.049
-205.406	225.817	-0.062	0.100
-204.392	14.320	-0.378	0.297
-203.377	-160.777	-0.134	0.007
-202.363	-200.000	0.041	-0.289
-201.348	-200.000	0.027	-0.280
-200.333	-200.000	0.002	0.124
-199.319	-200.000	0.056	-0.276
-198.304	-80.923	0.265	0.088
-197.290	800.000	0.068	0.289
-196.275	52.794	-0.165	0.159
-195.260	800.000	0.036	-0.130
-194.246	-27.748	0.468	0.273
-193.231	800.000	0.015	-0.049
-192.217	800.000	-0.120	0.405
-191.202	182.712	0.165	0.245
-190.187	694.883	0.126	0.333
-189.173	40.577	0.211	0.191
-188.158	175.351	0.211	-0.308
-187.144	313.961	-0.165	0.313
-186.129	800.000	0.071	-0.211
-185.114	72.810	-0.115	0.121
-184.100	-34.138	-0.153	0.084
-183.085	-89.441	-0.122	-0.036
-182.071	633.202	0.123	0.314
-181.056	222.417	-0.118	0.191
-180.042	800.000	0.082	-0.330
-179.027	452.897	0.164	0.365
-178.012	800.000	0.028	0.092
-176.998	18.602	-0.081	-0.065
-175.983	-200.000	0.056	-0.296
-174.969	-200.000	0.037	-0.166
-173.954	29.361	-0.168	0.144
-172.939	-78.939	0.166	-0.057
-171.925	299.447	0.097	0.180
-170.910	-24.312	0.162	0.097
-169.896	-62.599	0.382	0.159
-168.881	-100.097	0.241	-0.060
-167.866	129.398	0.250	0.320
-166.852	-50.479	0.174	0.082
-165.837	441.225	0.100	0.219
-164.823	-44.673	-0.127	-0.063
-163.808	75.862	-0.086	0.091
-162.793	-138.676	0.143	-0.016
-161.779	-56.639	-0.138	-0.061
-160.764	12.092	0.099	0.077
-159.750	-200.000	0.058	0.415
-158.735	-200.000	0.060	0.284
-157.720	369.096	-0.154	0.313
-156.706	578.212	-0.067	-0.165
-155.691	-200.000	-0.034	-0.199
-154.677	44.940	0.167	0.154
-153.662	-200.000	-0.007	-0.084
-152.647	800.000	0.033	0.105
-151.633	-6.128	0.124	-0.085
-150.618	-154.827	-0.190	-0.013
-149.604	800.000	-0.039	0.149
-148.589	222.827	0.207	-0.335
-147.574	-125.582	-0.139	0.021
-146.560	800.000	-0.047	0.175
-145.545	-3.345	0.071	0.050
-144.531	-200.000	-0.020	-0.270
-143.516	-1.768	-0.153	0.108
-142.502	192.949	0.065	0.099
-141.487	-22.177	0.225	-0.137
-140.472	136.986	0.102	0.134
-139.458	-73.952	0.293	0.107
-138.443	800.000	0.034	-0.140
-137.429	-25.603	0.171	0.101
-136.414	-128.604	0.023	-0.003
-135.399	-137.179	-0.192	0.022
-134.385	335.020	-0.035	0.068
-133.370	200.679	-0.232	0.357
-132.356	8.005	0.268	-0.201
-131.341	-74.743	0.428	-0.154
-130.326	263.858	0.055	-0.096
-129.312	52.866	-0.110	0.105
-128.297	365.394	-0.028	-0.056
-127.283	-33.340	0.167	-0.093
-126.268	-11.190	0.201	0.133
-125.253	558.859	-0.038	0.093
-124.239	-93.620	-0.144	0.040
-123.224	-200.000	-0.022	0.221
-122.210	-5.420	0.246	-0.169
-121.195	-28.779	0.237	0.136
-120.180	101.522	-0.078	-0.091
