DTS Sentinel unit serial number:	SN413079Multiplexer serial number:	ORYXHardware model number:	OX4-SRSoftware version number:	ORYX F/W v4.00 Oryx Data Collector v3.7.2.0data status	okinstallation	princeton_trtdifferential loss correction	single-endedforward channel	channel 2reverse channel	N/Adate	2019/09/16time	18:03:34forward acquisition time	60.00reverse acquisition time	0.00gamma	496.2192k internal	0.2316k external	0.2316temperature offset calibration	0.9946default loss term (dB/km)	0.3790temperature slope calibration	1.0000multiplexer offset coefficient	1.0000multiplexer slope coefficient	1.0000fibre end	0.00T internal ref (°C)	37.52T ext. ref 1 (°C)	15.66T ext. ref 2 (°C)	31.24length (m)	temperature (°C)	Stokes	anti-Stokes-747.200	800.000	-0.080	-0.258
-746.185	-200.000	-0.002	-0.151
-745.171	-72.574	0.032	-0.012
-744.156	-200.000	-0.101	0.526
-743.142	-127.822	-0.089	0.013
-742.127	-5.533	0.248	-0.173
-741.112	34.565	0.074	0.065
-740.098	201.521	0.157	0.245
-739.083	-98.916	-0.230	0.059
-738.069	800.000	-0.077	0.295
-737.054	-0.416	0.121	0.087
-736.039	-3.072	-0.288	0.203
-735.025	-200.000	0.022	-0.128
-734.010	59.154	-0.199	0.198
-732.996	-64.012	0.061	-0.025
-731.981	-106.468	0.237	-0.054
-730.966	342.942	-0.118	0.234
-729.952	-200.000	-0.000	0.090
-728.937	148.623	-0.102	-0.140
-727.923	139.368	-0.187	-0.249
-726.908	-200.000	-0.010	0.129
-725.894	-200.000	-0.012	-0.199
-724.879	-151.031	0.073	-0.006
-723.864	-145.404	0.254	-0.023
-722.850	32.705	-0.213	0.187
-721.835	-100.471	-0.198	0.050
-720.821	-200.000	-0.002	-0.085
-719.806	800.000	0.041	0.160
-718.791	98.280	0.117	-0.136
-717.777	97.902	-0.170	0.198
-716.762	322.466	-0.094	-0.181
-715.748	-89.958	-0.150	-0.044
-714.733	261.471	0.224	-0.393
-713.718	83.245	-0.219	-0.242
-712.704	142.847	0.177	0.238
-711.689	-99.985	0.202	0.051
-710.675	164.326	-0.110	0.157
-709.660	-91.534	-0.125	-0.036
-708.645	179.283	-0.117	-0.173
-707.631	-146.704	0.293	-0.026
-706.616	-79.178	-0.309	-0.106
-705.602	800.000	-0.075	0.247
-704.587	-2.634	-0.126	0.090
-703.572	-62.087	-0.377	-0.159
-702.558	-33.878	-0.044	-0.025
-701.543	-76.308	-0.242	0.086
-700.529	800.000	-0.080	-0.248
-699.514	95.605	-0.054	-0.063
-698.499	-195.289	0.227	0.002
-697.485	-80.963	-0.296	-0.099
-696.470	-88.778	0.524	-0.157
-695.456	-78.786	-0.075	0.026
-694.441	-131.300	-0.177	0.024
-693.426	-32.965	-0.265	-0.148
-692.412	-200.000	0.038	-0.230
-691.397	-6.676	0.114	0.078
-690.383	-200.000	-0.010	0.294
-689.368	-200.000	-0.032	0.315
-688.354	362.847	0.162	-0.329
-687.339	800.000	0.101	-0.340
-686.324	500.398	0.062	-0.145
-685.310	5.991	0.323	-0.241
-684.295	-155.838	-0.418	-0.027
-683.281	362.653	0.117	-0.237
-682.266	230.290	-0.099	-0.163
-681.251	7.018	-0.062	-0.047
-680.237	106.331	-0.258	-0.308
-679.222	413.062	0.124	-0.266
-678.208	160.281	0.176	0.248
-677.193	111.696	0.109	0.133
-676.178	-99.137	-0.482	-0.123
-675.164	-200.000	0.005	-0.117
-674.149	800.000	-0.072	-0.299
-673.135	-200.000	0.008	0.057
-672.120	-200.000	-0.022	0.155
-671.105	102.414	-0.037	0.044
-670.091	-57.372	0.287	-0.127
-669.076	792.297	-0.099	0.274
-668.062	355.836	-0.157	0.316
-667.047	-56.519	-0.336	0.150
-666.032	644.892	0.053	0.135
-665.018	109.728	-0.123	0.149
-664.003	-68.521	0.481	-0.188
-662.989	256.736	0.116	-0.202
-661.974	-200.000	0.057	-0.329
-660.959	-200.000	-0.002	-0.116
-659.945	12.695	-0.135	0.106
-658.930	129.366	-0.056	-0.073
-657.916	465.221	-0.050	0.112
-656.901	71.537	-0.123	-0.129
-655.886	633.744	0.076	0.195
-654.872	526.798	0.049	-0.116
-653.857	331.465	-0.111	0.216
-652.843	-101.881	0.085	0.021
-651.828	800.000	0.080	-0.342
-650.814	-118.797	-0.348	-0.062
-649.799	-51.041	-0.229	-0.108
-648.784	-66.633	-0.123	0.049
-647.770	-121.069	-0.210	-0.036
-646.755	17.326	0.207	0.166
-645.741	-68.489	-0.439	0.172
-644.726	-78.499	-0.276	0.095
-643.711	10.449	0.009	-0.007
-642.697	-18.864	-0.183	-0.115
-641.682	-17.266	0.186	0.118
-640.668	-131.796	0.131	-0.017
-639.653	-200.000	-0.011	-0.076
-638.638	761.499	-0.121	0.331
-637.624	-200.000	-0.010	-0.208
-636.609	-200.000	-0.016	-0.075
-635.595	113.654	0.100	-0.122
-634.580	-9.060	0.068	-0.046
-633.565	-0.095	-0.046	-0.033
-632.551	219.398	-0.093	0.151
-631.536	-93.220	-0.123	0.034
-630.522	7.090	0.056	-0.042
-629.507	-71.857	0.451	0.169
-628.492	-10.379	0.037	-0.025
-627.478	800.000	0.149	-0.482
-626.463	175.301	-0.219	-0.320
-625.449	-200.000	-0.064	-0.284
-624.434	-200.000	-0.018	-0.238
-623.419	-200.000	0.049	-0.238
-622.405	-118.897	0.080	-0.014
-621.390	-76.486	0.277	-0.098
-620.376	-31.538	0.212	-0.120
-619.361	-162.916	0.102	0.005
-618.346	-200.000	-0.031	-0.216
-617.332	272.546	0.131	0.233
-616.317	-90.388	0.190	-0.055
-615.303	209.615	-0.099	-0.156
-614.288	-200.000	-0.012	0.303
-613.273	131.388	-0.163	0.211
-612.259	-200.000	-0.068	0.409
-611.244	121.409	-0.135	0.170
-610.230	-14.723	0.240	0.156
-609.215	262.945	0.155	0.272
-608.201	31.235	-0.131	-0.114
-607.186	65.879	-0.198	-0.203
-606.171	-200.000	-0.029	0.221
-605.157	800.000	0.061	-0.176
-604.142	42.035	0.031	0.029
-603.128	-200.000	-0.019	0.143
-602.113	-8.598	-0.134	-0.091
-601.098	77.871	-0.120	-0.129
-600.084	110.011	0.104	0.126
-599.069	442.801	-0.108	0.238
-598.055	-119.764	-0.080	0.014
-597.040	-98.381	0.128	-0.033
-596.025	-155.382	-0.277	-0.018
-595.011	-118.483	-0.111	0.020
-593.996	-200.000	-0.064	0.300
-592.982	-36.718	0.129	0.070
-591.967	-11.513	-0.041	-0.027
-590.952	149.161	-0.215	-0.293
-589.938	-43.718	0.377	0.191
-588.923	-149.127	0.124	0.010
-587.909	-151.126	-0.212	-0.016
-586.894	-39.897	0.055	0.029
-585.879	-123.856	0.113	-0.018
-584.865	126.570	0.113	0.144
-583.850	-200.000	0.015	0.196
-582.836	-200.000	0.011	-0.243
-581.821	-200.000	0.033	-0.337
-580.806	472.590	-0.035	-0.080
-579.792	-131.142	0.170	0.023
-578.777	-12.410	0.464	-0.305
-577.763	242.369	0.041	0.069
-576.748	800.000	0.064	0.246
-575.733	126.167	-0.115	-0.147
-574.719	-200.000	0.046	-0.201
-573.704	-200.000	-0.031	0.485
-572.690	-177.294	-0.247	-0.006
-571.675	-200.000	0.002	0.183
-570.661	-200.000	0.016	0.365
-569.646	-200.000	-0.025	0.324
-568.631	-72.885	-0.247	0.091
-567.617	457.362	0.041	-0.091
-566.602	-200.000	0.003	0.080
-565.588	108.136	-0.295	-0.354
-564.573	207.261	0.111	0.174
-563.558	367.744	0.059	0.121
-562.544	-64.600	-0.315	-0.128
-561.529	299.226	0.058	-0.108
-560.515	465.864	0.073	-0.165
-559.500	-200.000	-0.008	0.294
-558.485	-90.535	-0.322	-0.094
-557.471	62.863	-0.203	0.204
-556.456	-50.250	0.342	0.163
-555.442	-164.470	-0.282	0.013
-554.427	-29.150	-0.079	0.045
-553.412	204.480	0.128	-0.200
-552.398	-157.385	-0.376	-0.023
-551.383	-22.213	0.095	0.058
-550.369	-16.081	-0.031	0.020
-549.354	-200.000	-0.003	0.356
-548.339	800.000	-0.072	-0.281
-547.325	-102.634	0.200	-0.048
-546.310	148.416	0.330	0.447
-545.296	-200.000	0.030	0.265
-544.281	-137.520	0.160	-0.018
-543.266	-111.460	-0.152	0.031
-542.252	-70.596	0.182	0.069
-541.237	25.156	-0.209	-0.175
-540.223	4.296	-0.213	-0.157
-539.208	8.263	-0.260	-0.196
-538.193	-110.263	0.240	0.050
-537.179	-45.847	0.120	-0.060
-536.164	37.186	0.224	-0.199
-535.150	-104.328	0.112	0.026
-534.135	536.492	-0.027	-0.065
-533.121	-200.000	0.041	0.238
-532.106	-145.966	0.476	-0.042
-531.091	330.055	-0.148	-0.286
-530.077	339.291	-0.129	-0.253
-529.062	123.822	0.122	0.153
-528.048	-186.095	-0.266	-0.004
-527.033	9.952	0.151	-0.115
-526.018	608.392	0.051	-0.129
-525.004	-116.674	-0.070	0.013
-523.989	-200.000	-0.047	-0.209
-522.975	-126.985	0.253	0.037
-521.960	-200.000	-0.010	-0.092
-520.945	-68.726	-0.249	0.097
-519.931	118.724	0.072	0.089
-518.916	5.997	0.111	0.083
-517.902	800.000	-0.115	-0.328
-516.887	-200.000	-0.022	-0.379
-515.872	-135.995	-0.150	-0.018
-514.858	-20.563	-0.048	-0.030
-513.843	-135.696	0.300	-0.036
-512.829	67.468	-0.147	0.150
-511.814	86.716	0.118	-0.130
-510.799	-141.246	-0.287	-0.029
-509.785	-112.659	-0.067	-0.013
-508.770	376.370	-0.140	-0.286
-507.756	450.040	0.061	0.134
-506.741	-55.020	0.102	0.046
-505.726	-200.000	0.017	0.192
-504.712	-188.393	-0.223	-0.003
-503.697	520.916	0.165	0.388
-502.683	703.123	0.066	-0.175
-501.668	-97.964	-0.296	-0.077
-500.653	-200.000	0.005	-0.124
-499.639	800.000	0.089	-0.352
-498.624	-86.080	0.220	0.068
-497.610	-81.369	-0.332	-0.110
-496.595	143.181	-0.233	-0.311
-495.581	-80.457	-0.056	-0.019
-494.566	-200.000	0.071	-0.000
-493.551	-124.945	-0.150	-0.023
-492.537	-200.000	-0.041	0.214
-491.522	64.189	-0.202	0.204
-490.508	-69.993	0.135	0.052
-489.493	-39.706	-0.365	0.192
-488.478	112.109	0.046	-0.056
-487.464	-86.023	-0.378	-0.117
-486.449	-200.000	-0.011	-0.099
-485.435	-200.000	0.031	0.235
-484.420	-112.043	-0.121	0.024
-483.405	-111.866	0.117	-0.024
-482.391	780.830	-0.065	-0.178
-481.376	649.452	-0.059	-0.151
-480.362	-2.319	-0.140	0.098
-479.347	-200.000	-0.058	-0.337
-478.332	-194.017	-0.109	0.001
-477.318	-109.725	0.096	-0.020
-476.303	37.593	0.314	-0.279
-475.289	-195.052	-0.244	0.002
-474.274	-73.338	0.192	-0.070
-473.259	43.494	-0.303	0.278
-472.245	800.000	0.033	0.112
-471.230	-76.768	-0.365	-0.128
-470.216	-109.612	0.096	-0.020
-469.201	-200.000	0.055	-0.319
-468.186	-60.193	-0.141	-0.060
-467.172	527.349	0.083	0.196
-466.157	-155.373	0.171	-0.011
-465.143	-84.792	0.273	0.086
-464.128	-124.395	-0.279	0.044
-463.113	-200.000	0.033	-0.151
-462.099	-58.313	0.229	-0.100
-461.084	12.029	0.337	0.260
-460.070	-121.014	-0.303	0.051
-459.055	7.989	0.161	-0.121
-458.040	800.000	-0.044	0.130
-457.026	-200.000	-0.013	-0.271
-456.011	-126.326	-0.108	-0.016
-454.997	-67.161	-0.354	-0.139
-453.982	325.674	0.152	-0.292
-452.968	-151.271	0.330	0.025
-451.953	-124.031	-0.043	0.007
-450.938	-200.000	0.027	-0.138
-449.924	150.837	0.100	-0.136
-448.909	137.915	0.126	0.166
-447.895	439.262	0.140	-0.306
-446.880	-80.286	-0.297	-0.099
-445.865	-200.000	-0.026	0.123
-444.851	10.816	0.241	0.184
-443.836	-200.000	-0.022	-0.111
-442.822	-200.000	-0.004	-0.120
-441.807	-181.873	-0.178	-0.003
-440.792	800.000	-0.107	-0.341
-439.778	-47.401	-0.214	-0.104
-438.763	-200.000	0.327	-0.001
-437.749	701.713	0.176	0.464
-436.734	129.195	-0.136	-0.174
-435.719	-7.542	0.151	-0.102
-434.705	-200.000	0.030	-0.149
-433.690	-12.159	-0.150	-0.098
-432.676	800.000	0.055	0.193
-431.661	709.723	0.073	0.192
-430.646	-200.000	-0.005	-0.038
-429.632	-118.664	-0.160	-0.028
-428.617	-200.000	0.010	-0.163
-427.603	12.523	0.185	-0.143
-426.588	-200.000	0.053	0.239
-425.573	43.847	-0.287	0.263
-424.559	-72.739	-0.182	-0.067
-423.544	86.353	-0.183	0.202
-422.530	179.346	-0.148	-0.217
-421.515	173.449	0.108	-0.156
-420.500	120.959	0.178	0.221
-419.486	528.214	0.070	-0.165
-418.471	800.000	-0.035	0.140
-417.457	-57.034	-0.043	-0.019
-416.442	-77.720	0.337	-0.116
-415.428	-140.091	0.103	-0.011
-414.413	288.922	0.083	0.151
-413.398	-32.143	0.131	0.073
-412.384	414.884	0.069	-0.147
-411.369	372.583	0.070	0.141
-410.355	-131.900	-0.072	0.009
-409.340	211.263	0.145	0.228
-408.325	138.141	0.153	-0.200
-407.311	-200.000	-0.057	0.303
-406.296	-81.548	-0.117	0.038
-405.282	800.000	-0.044	0.123
-404.267	-15.304	0.166	0.106
-403.252	328.991	-0.039	-0.074
-402.238	-133.373	0.274	0.034
-401.223	50.235	-0.242	0.229
-400.209	-66.441	0.171	0.068
-399.194	141.080	0.054	-0.072
-398.179	-200.000	-0.016	0.158
-397.165	800.000	0.025	0.100
-396.150	283.414	-0.131	-0.235
-395.136	-48.887	-0.165	-0.079
-394.121	-200.000	-0.023	0.253
-393.106	-167.422	-0.466	-0.019
-392.092	472.900	0.082	-0.184
-391.077	77.628	-0.147	-0.156
-390.063	78.483	-0.010	0.011
-389.048	494.651	0.094	0.215
-388.033	365.924	0.070	0.142
-387.019	21.873	0.093	-0.075
-386.004	-24.357	-0.331	-0.197
-384.990	-200.000	-0.042	-0.337
-383.975	-50.434	0.377	-0.178
-382.960	-72.979	0.253	-0.093
-381.946	-27.578	0.327	-0.190
-380.931	76.511	0.269	0.284
-379.917	-126.465	0.358	0.053
-378.902	60.594	-0.010	0.010
-377.888	210.843	-0.126	-0.197
-376.873	-166.946	0.308	0.013
-375.858	-200.000	-0.004	-0.196
-374.844	-149.193	0.225	0.018
-373.829	-74.767	0.116	-0.042
-372.815	-99.505	0.179	0.045
-371.800	-200.000	-0.028	0.153
-370.785	-84.318	-0.192	0.061
-369.771	192.949	0.032	-0.048
-368.756	-186.261	-0.206	0.003
-367.742	81.176	0.130	0.141
-366.727	159.206	0.152	0.211
-365.712	311.462	0.184	0.344
-364.698	-101.701	0.212	0.051
-363.683	-123.371	-0.269	0.043
-362.669	86.735	-0.189	0.209
-361.654	157.979	-0.035	0.049
-360.639	800.000	0.090	0.278
-359.625	-200.000	0.030	0.154
-358.610	-123.147	0.083	-0.013
-357.596	800.000	-0.089	-0.258
-356.581	-200.000	0.025	-0.310
-355.566	362.271	-0.159	0.318
-354.552	-97.343	0.256	0.067
-353.537	37.302	0.250	0.221
-352.523	800.000	0.097	-0.342
-351.508	45.546	0.142	0.131
-350.493	68.258	0.067	-0.068
-349.479	84.054	-0.093	0.101
-348.464	-105.967	0.086	0.019
-347.450	778.576	-0.096	0.261
-346.435	190.284	0.206	-0.308
-345.420	-10.419	-0.155	0.102
-344.406	800.000	-0.013	-0.047
-343.391	-0.128	0.220	-0.156
-342.377	-77.319	-0.180	0.062
-341.362	77.639	0.025	0.027
-340.348	-46.151	-0.191	0.094
-339.333	-200.000	0.005	-0.257
-338.318	331.449	0.178	-0.343
-337.304	538.119	-0.044	-0.105
-336.289	-158.569	0.152	-0.009
-335.275	58.279	-0.074	-0.073
-334.260	-200.000	0.001	-0.123
-333.245	51.447	-0.232	0.220
-332.231	9.519	0.143	-0.108
-331.216	-74.716	0.338	-0.121
-330.202	217.753	0.292	-0.464
-329.187	-178.633	-0.229	-0.005
-328.172	-41.002	-0.129	-0.066
-327.158	-61.416	0.096	-0.040
-326.143	-200.000	0.083	0.454
-325.129	519.947	0.129	0.302
-324.114	-200.000	-0.027	-0.188
-323.099	-60.332	0.067	-0.028
-322.085	-35.421	-0.327	-0.177
-321.070	-200.000	0.027	0.183
-320.056	-200.000	0.019	-0.229
-319.041	399.348	0.142	-0.297
-318.026	-200.000	0.010	-0.314
-317.012	188.171	-0.192	-0.285
-315.997	-112.444	-0.188	-0.037
-314.983	800.000	0.134	0.412
-313.968	-107.685	0.416	0.090
-312.953	618.012	-0.110	-0.276
-311.939	-76.500	0.214	-0.075
-310.924	-16.761	0.189	-0.119
-309.910	329.911	0.064	0.123
-308.895	51.457	-0.182	-0.172
-307.880	39.727	0.166	-0.148
-306.866	-74.598	0.121	0.044
-305.851	-200.000	-0.031	0.183
-304.837	169.945	0.388	0.552
-303.822	797.313	-0.008	0.023
-302.807	-16.090	0.186	-0.118
-301.793	-107.659	0.204	0.044
-300.778	-47.133	0.200	-0.097
-299.764	479.275	0.039	0.087
-298.749	-200.000	0.053	0.333
-297.735	800.000	-0.184	0.596
-296.720	766.001	-0.051	0.139
-295.705	11.962	0.267	-0.204
-294.691	731.218	-0.084	-0.223
-293.676	800.000	0.033	-0.125
-292.662	-128.842	-0.087	-0.012
-291.647	256.920	0.082	0.140
-290.632	47.892	-0.116	0.108
-289.618	-133.260	0.144	0.018
-288.603	-200.000	-0.029	-0.286
-287.589	-73.516	-0.212	-0.077
-286.574	-5.445	-0.210	0.143
-285.559	533.918	0.093	-0.219
-284.545	-102.841	0.170	-0.040
-283.530	-69.265	-0.134	0.051
-282.516	-14.087	-0.150	0.096
-281.501	-12.123	-0.153	-0.099
-280.486	372.148	-0.020	-0.041
-279.472	715.967	-0.065	-0.171
-278.457	-11.658	-0.248	0.162
-277.443	-99.745	-0.221	-0.055
-276.428	-183.291	0.327	-0.006
-275.413	21.901	0.226	-0.184
-274.399	-200.000	0.002	-0.129
-273.384	60.191	-0.068	0.067
-272.370	800.000	-0.038	0.116
-271.355	278.054	-0.068	0.120
-270.340	797.895	-0.042	0.115
-269.326	800.000	-0.037	-0.118
-268.311	800.000	-0.058	0.198
-267.297	398.100	0.035	0.072
-266.282	800.000	-0.129	0.396
-265.267	-138.502	-0.157	-0.017
-264.253	-73.046	-0.145	-0.053
-263.238	15.167	-0.072	0.056
-262.224	-108.212	0.207	0.045
-261.209	137.846	-0.057	0.074
-260.195	800.000	0.067	-0.190
-259.180	-5.325	-0.186	0.127
-258.165	800.000	0.080	0.239
-257.151	-118.847	0.245	0.043
-256.136	58.993	-0.231	0.225
-255.122	-119.410	0.449	0.078
-254.107	103.931	-0.254	0.296
-253.092	466.321	-0.054	0.119
-252.078	-69.306	-0.115	-0.044
-251.063	-66.391	0.180	0.071
-250.049	317.042	0.128	0.241
-249.034	-103.172	-0.288	-0.068
-248.019	800.000	-0.016	-0.052
-247.005	-80.347	0.150	-0.050
-245.990	124.139	-0.089	-0.112
-244.976	-162.451	-0.428	-0.021
-243.961	800.000	0.058	0.192
-242.946	150.871	-0.069	-0.093
-241.932	800.000	-0.064	0.201
-240.917	800.000	-0.113	0.333
-239.903	41.973	0.082	0.074
-238.888	-200.000	0.014	-0.094
-237.873	401.100	-0.144	-0.300
-236.859	-200.000	0.004	0.420
-235.844	-156.156	0.497	0.031
-234.830	-82.666	-0.269	0.086
-233.815	-12.944	-0.228	0.147
-232.800	-148.423	-0.293	0.024
-231.786	345.713	-0.097	-0.190
-230.771	320.374	0.119	-0.225
-229.757	-82.910	-0.301	0.096
-228.742	800.000	0.069	-0.274
-227.727	-39.464	-0.247	0.128
-226.713	-200.000	0.034	-0.376
-225.698	-82.022	0.338	0.110
-224.684	-200.000	0.056	0.330
-223.669	-43.463	0.162	-0.081
-222.655	-150.514	0.171	-0.013
-221.640	-155.560	-0.303	-0.019
-220.625	460.259	-0.163	-0.361
-219.611	-8.699	-0.300	-0.200
-218.596	359.412	0.273	-0.542
-217.582	235.714	-0.200	-0.328
-216.567	-200.000	-0.050	0.259
-215.552	-121.335	0.293	-0.049
-214.538	353.439	-0.055	0.108
-213.523	-147.891	-0.105	0.009
-212.509	557.529	0.159	-0.380
-211.494	800.000	-0.056	-0.198
-210.479	-21.317	0.284	0.172
-209.465	-10.031	0.197	0.130
-208.450	309.652	-0.096	-0.177
-207.436	-194.245	-0.137	-0.001
-206.421	-200.000	0.005	0.141
-205.406	-200.000	0.025	0.261
-204.392	-105.812	0.285	-0.064
-203.377	-117.914	0.070	-0.013
-202.363	-89.908	-0.364	-0.106
-201.348	-92.140	0.134	-0.037
-200.333	-3.546	-0.258	0.178
-199.319	457.949	-0.102	0.224
-198.304	-200.000	-0.017	-0.251
-197.290	-159.204	-0.217	0.012
-196.275	-32.996	0.048	-0.027
-195.260	-167.482	-0.174	-0.007
-194.246	800.000	-0.043	0.183
-193.231	183.547	-0.081	-0.118
-192.217	-5.080	-0.071	-0.048
-191.202	800.000	0.049	0.208
-190.187	800.000	-0.064	0.268
-189.173	110.632	0.139	-0.166
-188.158	-200.000	0.020	-0.255
-187.144	244.347	0.095	-0.158
-186.129	75.099	0.073	0.076
-185.114	800.000	0.088	0.305
-184.100	-200.000	0.016	0.553
-183.085	-200.000	0.051	0.232
-182.071	-7.777	-0.093	0.062
-181.056	-79.791	-0.303	0.101
-180.042	440.730	-0.090	0.194
-179.027	-200.000	-0.084	0.398
-178.012	-151.100	0.287	-0.021
-176.998	-39.445	0.031	0.016
-175.983	-121.632	0.173	0.028
-174.969	-137.960	-0.188	-0.021
-173.954	-200.000	0.029	-0.284
-172.939	132.100	0.075	0.096
-171.925	-62.901	0.117	0.048
-170.910	800.000	0.045	-0.168
-169.896	439.287	-0.055	-0.119
-168.881	-125.991	-0.290	0.043
-167.866	-12.840	0.221	0.142
-166.852	-200.000	-0.072	-0.469
-165.837	-65.581	0.075	-0.030
-164.823	-46.398	0.222	0.108
-163.808	-149.520	-0.223	0.018
-162.793	51.623	-0.140	0.131
-161.779	48.054	-0.306	-0.283
-160.764	251.551	-0.170	-0.286
-159.750	-4.020	-0.192	-0.132
-158.735	-183.463	0.194	-0.003
-157.720	75.508	-0.110	0.115
-156.706	-123.776	0.149	-0.023
-155.691	-149.734	0.233	0.018
-154.677	-152.727	-0.100	-0.007
-153.662	-39.196	-0.035	0.018
-152.647	-77.829	0.120	0.041
-151.633	174.306	-0.088	0.125
-150.618	45.325	-0.225	0.205
-149.604	161.324	0.020	0.028
-148.589	363.703	0.118	0.235
-147.574	-27.888	0.160	0.092
-146.560	-95.492	-0.275	0.073
-145.545	356.760	-0.182	-0.360
-144.531	56.962	0.040	0.038
-143.516	-168.439	0.200	0.008
-142.502	11.042	0.032	-0.024
-141.487	-200.000	-0.010	-0.049
-140.472	483.944	0.104	0.235
-139.458	11.073	-0.317	-0.240
-138.443	-25.450	0.143	-0.083
-137.429	-25.928	-0.208	0.121
-136.414	-72.122	-0.083	-0.030
-135.399	-149.826	0.365	-0.028
-134.385	18.675	0.203	0.161
-133.370	626.777	-0.037	0.091
-132.356	434.745	0.016	-0.034
-131.341	470.310	-0.123	-0.273
-130.326	-102.516	0.030	0.007
-129.312	570.547	0.051	-0.122
-128.297	-54.642	0.174	-0.078
-127.283	-50.907	0.065	0.030
-126.268	194.697	-0.153	0.229
-125.253	-50.695	-0.109	0.051
-124.239	-200.000	-0.016	-0.427
-123.224	-7.056	0.289	-0.194
