DTS Sentinel unit serial number:	SN413079Multiplexer serial number:	ORYXHardware model number:	OX4-SRSoftware version number:	ORYX F/W v4.00 Oryx Data Collector v3.7.2.0data status	okinstallation	princeton_trtdifferential loss correction	single-endedforward channel	channel 2reverse channel	N/Adate	2019/09/12time	10:21:10forward acquisition time	60.00reverse acquisition time	0.00gamma	496.2192k internal	0.2312k external	0.2312temperature offset calibration	1.0067default loss term (dB/km)	0.3790temperature slope calibration	1.0000multiplexer offset coefficient	1.0000multiplexer slope coefficient	1.0000fibre end	0.00T internal ref (°C)	36.75T ext. ref 1 (°C)	1.88T ext. ref 2 (°C)	34.85length (m)	temperature (°C)	Stokes	anti-Stokes-747.200	353.427	-0.117	0.236
-746.185	218.398	-0.266	0.432
-745.171	-25.259	0.300	0.180
-744.156	224.370	0.171	0.281
-743.142	-200.000	-0.001	-0.225
-742.127	-200.000	0.045	0.290
-741.112	-78.906	0.101	0.035
-740.098	-74.752	-0.460	0.168
-739.083	101.185	0.425	0.502
-738.069	-107.267	-0.103	0.023
-737.054	104.055	0.119	0.142
-736.039	-178.938	-0.272	0.006
-735.025	-156.740	-0.181	-0.011
-734.010	-200.000	-0.009	-0.071
-732.996	-200.000	0.003	-0.159
-731.981	256.445	-0.265	-0.461
-730.966	-200.000	-0.006	-0.164
-729.952	-128.079	-0.128	-0.019
-728.937	158.084	-0.051	-0.072
-727.923	409.107	-0.100	-0.215
-726.908	-77.775	0.260	0.091
-725.894	-99.252	0.009	-0.002
-724.879	-55.237	-0.155	0.071
-723.864	64.899	-0.229	0.234
-722.850	17.273	0.032	-0.025
-721.835	630.987	-0.125	-0.320
-720.821	800.000	-0.052	-0.176
-719.806	-82.010	0.168	-0.056
-718.791	383.432	0.069	-0.144
-717.777	-139.802	0.215	0.023
-716.762	-200.000	0.005	-0.106
-715.748	800.000	-0.115	-0.490
-714.733	800.000	-0.047	-0.198
-713.718	-67.669	-0.275	-0.109
-712.704	-74.220	-0.309	0.113
-711.689	-70.492	-0.051	0.020
-710.675	196.479	-0.198	-0.306
-709.660	-90.138	-0.194	0.057
-708.645	-120.200	0.262	-0.045
-707.631	-9.992	0.086	0.058
-706.616	-200.000	0.017	-0.120
-705.602	-200.000	0.031	-0.292
-704.587	800.000	-0.066	-0.213
-703.572	294.305	-0.106	0.197
-702.558	-127.004	0.073	0.011
-701.543	-200.000	-0.017	-0.138
-700.529	53.610	0.306	-0.297
-699.514	-149.940	0.349	0.028
-698.499	-36.731	-0.223	0.121
-697.485	439.484	-0.121	0.269
-696.470	138.026	0.219	-0.291
-695.456	89.177	-0.220	0.249
-694.441	-57.898	-0.257	-0.114
-693.426	-64.608	0.080	-0.033
-692.412	167.326	-0.247	-0.355
-691.397	-52.838	0.150	0.070
-690.383	-53.367	-0.284	0.132
-689.368	-152.195	-0.105	-0.008
-688.354	-111.635	-0.208	-0.043
-687.339	-184.954	0.417	-0.007
-686.324	-200.000	0.082	0.366
-685.310	-118.184	-0.228	0.041
-684.295	43.604	-0.074	-0.069
-683.281	168.172	0.033	-0.048
-682.266	59.960	-0.100	-0.100
-681.251	-195.666	0.143	0.001
-680.237	-200.000	-0.085	-0.486
-679.222	32.165	0.453	-0.395
-678.208	201.422	-0.042	-0.065
-677.193	-149.589	-0.148	-0.012
-676.178	-94.323	0.419	-0.116
-675.164	-116.305	-0.257	-0.048
-674.149	680.405	0.074	-0.194
-673.135	169.946	-0.064	0.093
-672.120	70.453	-0.161	-0.168
-671.105	-62.220	-0.139	-0.059
-670.091	26.517	-0.126	0.106
-669.076	-100.880	0.128	-0.032
-668.062	90.119	-0.248	0.280
-667.047	388.833	0.190	0.397
-666.032	-60.366	-0.441	0.190
-665.018	-194.811	0.300	-0.002
-664.003	-124.727	-0.140	0.022
-662.989	-161.611	0.224	0.012
-661.974	61.242	-0.090	-0.090
-660.959	-188.845	-0.338	0.004
-659.945	-99.228	-0.354	-0.091
-658.930	800.000	0.028	-0.120
-657.916	123.889	-0.185	0.235
-656.901	364.096	0.149	0.304
-655.886	13.803	0.057	0.045
-654.872	800.000	-0.078	-0.340
-653.857	12.358	0.173	0.135
-652.843	-74.789	0.167	-0.061
-651.828	-138.305	0.221	0.025
-650.814	-200.000	0.061	-0.279
-649.799	-12.001	0.131	0.087
-648.784	140.252	0.277	-0.370
-647.770	477.673	0.086	0.197
-646.755	388.738	-0.074	-0.155
-645.741	122.185	-0.097	-0.122
-644.726	95.815	-0.098	0.113
-643.711	-133.784	0.182	-0.023
-642.697	800.000	0.085	0.326
-641.682	-168.489	-0.332	-0.013
-640.668	90.353	0.169	-0.191
-639.653	-2.398	-0.177	-0.126
-638.638	800.000	-0.061	-0.251
-637.624	-98.950	0.289	0.074
-636.609	-200.000	-0.060	0.297
-635.595	800.000	0.142	0.445
-634.580	64.355	0.144	0.146
-633.565	-7.482	-0.145	0.099
-632.551	-24.017	-0.247	-0.149
-631.536	646.894	-0.077	-0.198
-630.522	-62.603	-0.129	0.054
-629.507	-26.645	-0.294	0.174
-628.492	-65.304	0.128	0.052
-627.478	-200.000	-0.037	0.379
-626.463	-180.592	-0.285	-0.006
-625.449	-200.000	-0.027	0.244
-624.434	-200.000	-0.025	-0.151
-623.419	-95.845	-0.235	0.063
-622.405	-14.098	0.149	-0.097
-621.390	-91.486	0.171	0.049
-620.376	-180.123	-0.112	0.002
-619.361	800.000	-0.079	-0.308
-618.346	-200.000	-0.054	-0.272
-617.332	-193.854	0.220	-0.002
-616.317	-200.000	-0.074	-0.594
-615.303	-39.575	-0.231	0.122
-614.288	-100.941	-0.200	-0.050
-613.273	137.521	0.151	-0.200
-612.259	16.169	-0.163	0.130
-611.244	-117.092	-0.183	-0.034
-610.230	130.461	-0.127	-0.164
-609.215	-200.000	0.032	-0.204
-608.201	24.394	-0.103	-0.086
-607.186	-163.788	-0.427	0.020
-606.171	54.469	-0.198	-0.192
-605.157	328.009	0.033	0.064
-604.142	-200.000	-0.016	-0.075
-603.128	-8.514	0.117	0.079
-602.113	-200.000	0.018	-0.231
-601.098	-143.549	-0.184	0.018
-600.084	-31.848	0.127	0.072
-599.069	173.488	-0.075	-0.108
-598.055	-123.451	-0.100	0.016
-597.040	-130.348	0.267	0.037
-596.025	76.556	-0.186	0.199
-595.011	212.316	0.145	-0.230
-593.996	194.548	0.139	0.213
-592.982	-1.376	-0.144	-0.102
-591.967	12.951	-0.184	0.143
-590.952	246.300	-0.111	0.188
-589.938	800.000	-0.025	0.088
-588.923	-107.591	0.155	-0.034
-587.909	357.427	0.037	0.073
-586.894	-101.986	0.339	-0.082
-585.879	-9.773	0.031	0.021
-584.865	221.653	0.115	-0.186
-583.850	-200.000	-0.006	0.066
-582.836	800.000	-0.054	-0.227
-581.821	599.406	-0.026	-0.064
-580.806	183.790	0.135	0.201
-579.792	543.155	-0.099	0.239
-578.777	243.204	0.035	-0.060
-577.763	83.233	0.032	-0.035
-576.748	258.968	0.040	-0.069
-575.733	-34.848	-0.317	-0.175
-574.719	120.778	0.204	-0.255
-573.704	16.628	-0.332	0.264
-572.690	-132.915	-0.081	0.010
-571.675	58.214	0.013	0.012
-570.661	95.024	-0.046	-0.053
-569.646	-200.000	-0.033	0.174
-568.631	-200.000	0.017	-0.135
-567.617	96.039	-0.119	-0.137
-566.602	-59.301	-0.212	-0.092
-565.588	13.695	-0.231	-0.181
-564.573	-85.657	0.335	0.105
-563.558	125.659	0.035	0.044
-562.544	243.312	-0.128	-0.216
-561.529	-200.000	0.002	-0.180
-560.515	451.861	-0.035	0.079
-559.500	-111.173	0.302	0.062
-558.485	455.709	0.051	0.114
-557.471	48.673	-0.069	0.065
-556.456	-11.317	-0.052	-0.035
-555.442	115.351	0.128	-0.157
-554.427	-55.564	-0.386	0.174
-553.412	733.536	0.024	0.066
-552.398	-106.750	-0.269	0.060
-551.383	800.000	-0.056	0.172
-550.369	-47.476	-0.249	-0.122
-549.354	-200.000	-0.010	-0.118
-548.339	167.096	-0.072	-0.103
-547.325	-51.560	-0.113	0.053
-546.310	-62.275	-0.039	-0.016
-545.296	-13.677	0.212	-0.138
-544.281	35.646	-0.066	0.058
-543.266	33.894	-0.032	-0.028
-542.252	-100.399	0.046	0.011
-541.237	124.254	-0.093	-0.117
-540.223	491.851	0.107	-0.246
-539.208	-200.000	-0.028	-0.242
-538.193	222.875	-0.136	-0.220
-537.179	-144.178	0.183	-0.017
-536.164	75.760	0.283	0.301
-535.150	268.595	-0.232	-0.409
-534.135	800.000	0.092	-0.278
-533.121	-16.367	-0.159	-0.102
-532.106	-200.000	-0.010	0.155
-531.091	132.918	-0.228	-0.296
-530.077	-92.115	-0.135	0.038
-529.062	-79.172	-0.137	0.047
-528.048	89.783	0.129	0.145
-527.033	82.772	0.297	0.325
-526.018	56.743	-0.188	-0.184
-525.004	-49.516	0.340	-0.163
-523.989	189.212	-0.093	0.140
-522.975	510.652	-0.049	-0.116
-521.960	-161.352	0.178	-0.009
-520.945	230.701	-0.171	-0.281
-519.931	-147.465	-0.394	-0.033
-518.916	-163.959	-0.272	-0.013
-517.902	-105.623	0.300	-0.068
-516.887	-154.035	0.195	-0.013
-515.872	-6.292	-0.121	0.083
-514.858	39.743	-0.071	-0.064
-513.843	-72.763	-0.102	0.038
-512.829	-200.000	-0.043	-0.304
-511.814	108.459	0.199	0.239
-510.799	-6.785	-0.188	-0.129
-509.785	800.000	0.108	-0.451
-508.770	800.000	0.046	-0.174
-507.756	-118.678	0.012	-0.002
-506.741	135.737	-0.070	-0.091
-505.726	120.167	0.109	-0.136
-504.712	-113.107	0.082	0.016
-503.697	-200.000	0.015	0.109
-502.683	800.000	-0.062	-0.199
-501.668	-6.477	0.120	0.083
-500.653	25.018	0.181	0.151
-499.639	162.953	0.142	0.201
-498.624	52.358	-0.272	0.261
-497.610	261.087	-0.114	0.199
-496.595	-89.786	-0.413	-0.121
-495.581	-61.482	0.123	-0.052
-494.566	-200.000	0.005	0.114
-493.551	-120.679	-0.105	-0.018
-492.537	-189.679	0.192	-0.002
-491.522	-98.521	0.259	0.066
-490.508	-97.880	-0.382	0.099
-489.493	42.587	0.293	-0.268
-488.478	-200.000	-0.028	-0.337
-487.464	162.469	-0.141	-0.199
-486.449	800.000	0.123	0.386
-485.435	800.000	-0.049	0.173
-484.420	545.063	0.073	0.176
-483.405	-131.183	-0.267	0.036
-482.391	800.000	0.012	-0.044
-481.376	800.000	0.079	-0.328
-480.362	-200.000	-0.005	-0.332
-479.347	96.887	0.142	-0.163
-478.332	-161.516	0.379	0.020
-477.318	-85.027	0.120	-0.038
-476.303	-200.000	-0.010	0.164
-475.289	81.940	0.032	0.035
-474.274	371.261	-0.046	0.094
-473.259	-21.376	0.173	0.106
-472.245	-142.851	0.276	-0.027
-471.230	-148.981	-0.019	0.002
-470.216	23.661	-0.282	0.233
-469.201	-52.359	0.056	0.026
-468.186	-79.883	0.152	-0.051
-467.172	-124.705	-0.354	-0.055
-466.157	17.416	-0.288	-0.230
-465.143	16.479	-0.255	-0.203
-464.128	155.728	-0.140	0.194
-463.113	124.439	0.074	0.093
-462.099	-105.092	-0.207	-0.047
-461.084	-3.132	-0.190	-0.133
-460.070	800.000	-0.053	0.221
-459.055	-200.000	-0.051	-0.394
-458.040	185.475	0.144	-0.215
-457.026	-140.703	0.122	0.013
-456.011	10.005	0.164	0.125
-454.997	800.000	-0.046	-0.143
-453.982	800.000	-0.049	0.138
-452.968	416.296	-0.056	0.120
-451.953	149.224	0.068	-0.092
-450.938	128.391	0.086	0.110
-449.924	-20.327	0.128	0.079
-448.909	241.858	0.112	0.188
-447.895	-124.784	0.254	0.039
-446.880	-200.000	-0.010	0.173
-445.865	-166.222	-0.150	-0.006
-444.851	145.190	0.213	-0.286
-443.836	18.939	-0.159	-0.128
-442.822	728.029	-0.087	-0.232
-441.807	91.284	0.100	-0.113
-440.792	-166.289	-0.300	-0.013
-439.778	381.078	-0.006	-0.012
-438.763	15.170	0.138	0.108
-437.749	-4.461	-0.208	0.144
-436.734	-29.761	0.210	-0.120
-435.719	800.000	0.099	0.318
-434.705	-111.937	0.167	-0.034
-433.690	291.615	0.032	0.059
-432.676	-62.045	0.159	-0.066
-431.661	73.494	0.300	0.315
-430.646	246.009	0.015	0.026
-429.632	623.426	-0.139	-0.352
-428.617	32.370	0.179	-0.155
-427.603	357.588	-0.132	0.265
-426.588	-96.653	0.117	-0.031
-425.573	112.077	0.114	0.138
-424.559	187.234	-0.143	0.214
-423.544	800.000	-0.047	-0.154
-422.530	661.913	-0.130	0.336
-421.515	570.249	-0.088	-0.215
-420.500	-150.489	-0.354	-0.027
-419.486	-61.539	0.165	-0.069
-418.471	-33.047	0.499	0.277
-417.457	354.536	0.116	0.232
-416.442	-200.000	-0.022	-0.182
-415.428	-44.164	0.163	-0.082
-414.413	-200.000	0.007	0.129
-413.398	-2.070	-0.224	-0.157
-412.384	318.290	0.043	-0.081
-411.369	-119.119	-0.320	-0.056
-410.355	106.106	0.100	0.118
-409.340	800.000	-0.021	-0.079
-408.325	-113.464	0.205	-0.040
-407.311	-200.000	-0.019	0.126
-406.296	-172.642	-0.248	-0.008
-405.282	800.000	-0.019	0.054
-404.267	-200.000	0.008	0.060
-403.252	427.843	-0.077	-0.165
-402.238	-96.114	-0.290	0.077
-401.223	-10.949	-0.339	-0.224
-400.209	1.330	0.250	-0.180
-399.194	377.488	-0.167	0.341
-398.179	-155.079	0.103	0.007
-397.165	226.851	-0.091	-0.148
-396.150	-200.000	-0.040	-0.257
-395.136	-154.873	-0.298	-0.020
-394.121	800.000	0.093	-0.377
-393.106	33.282	-0.086	-0.074
-392.092	-73.206	-0.170	0.062
-391.077	651.476	-0.016	0.041
-390.063	-52.102	0.091	0.042
-389.048	182.493	0.141	-0.207
-388.033	800.000	0.055	0.195
-387.019	259.212	0.125	0.215
-386.004	-200.000	-0.022	-0.099
-384.990	-12.712	-0.327	-0.213
-383.975	105.055	0.128	0.151
-382.960	-161.113	0.139	0.007
-381.946	453.714	-0.158	0.349
-380.931	7.067	-0.156	0.117
-379.917	-111.215	-0.305	0.062
-378.902	-119.377	0.145	-0.025
-377.888	800.000	0.079	0.330
-376.873	-85.467	-0.016	-0.005
-375.858	131.715	0.139	-0.179
-374.844	61.220	0.208	-0.207
-373.829	-92.845	-0.132	0.037
-372.815	-139.171	0.191	-0.021
-371.800	-200.000	-0.031	0.283
-370.785	-200.000	-0.036	0.214
-369.771	800.000	-0.067	0.221
-368.756	37.816	0.148	-0.131
-367.742	-200.000	0.026	0.157
-366.727	800.000	0.033	0.105
-365.712	380.011	-0.273	-0.559
-364.698	56.618	0.158	0.153
-363.683	113.708	-0.278	-0.337
-362.669	-31.678	-0.383	-0.215
-361.654	-105.266	-0.183	0.042
-360.639	468.599	0.114	0.256
-359.625	-200.000	-0.017	0.370
-358.610	15.922	0.227	-0.179
-357.596	191.910	0.079	0.120
-356.581	45.677	0.081	0.075
-355.566	-200.000	-0.009	0.060
-354.552	-200.000	-0.007	0.145
-353.537	-125.948	0.167	0.025
-352.523	316.582	-0.051	0.096
-351.508	-64.691	-0.366	0.148
-350.493	-200.000	0.035	-0.371
-349.479	-89.452	0.186	0.055
-348.464	303.193	0.013	0.024
-347.450	-200.000	-0.006	-0.034
-346.435	-135.133	-0.125	-0.015
-345.420	-106.139	-0.588	0.132
-344.406	-188.242	0.174	-0.002
-343.391	114.416	-0.135	0.165
-342.377	74.675	-0.094	-0.098
-341.362	551.282	-0.055	0.132
-340.348	-114.469	0.260	-0.050
-339.333	34.674	-0.224	0.196
-338.318	45.790	0.306	0.282
-337.304	221.102	0.099	0.159
-336.289	-200.000	-0.023	0.408
-335.275	-92.763	-0.316	0.088
-334.260	-200.000	-0.003	-0.427
-333.245	-107.579	-0.092	-0.020
-332.231	601.879	0.129	-0.319
-331.216	250.611	0.087	0.147
-330.202	-105.575	0.128	0.029
-329.187	-21.587	0.155	-0.094
-328.172	-68.038	-0.212	-0.083
-327.158	348.744	-0.144	-0.283
-326.143	-200.000	-0.066	0.418
-325.129	70.917	-0.056	-0.058
-324.114	302.498	0.119	-0.221
-323.099	164.235	0.038	-0.053
-322.085	-31.337	0.282	0.159
-321.070	-100.701	0.141	-0.035
-320.056	-82.287	-0.140	-0.045
-319.041	-44.331	-0.384	-0.192
-318.026	93.054	0.042	-0.047
-317.012	-200.000	-0.035	0.196
-315.997	248.764	0.062	0.105
-314.983	-74.816	-0.040	-0.014
-313.968	-200.000	0.067	0.318
-312.953	800.000	0.093	-0.280
-311.939	-110.825	0.364	0.075
-310.924	197.108	0.072	0.110
-309.910	-127.015	0.170	-0.025
-308.895	-200.000	-0.015	-0.447
-307.880	-53.644	-0.174	0.079
-306.866	241.714	0.127	0.212
-305.851	-200.000	-0.023	0.354
-304.837	-200.000	0.026	-0.267
-303.822	-156.545	0.280	-0.017
-302.807	223.898	0.108	0.173
-301.793	347.595	0.122	0.239
-300.778	-200.000	0.002	0.054
-299.764	-200.000	-0.038	0.275
-298.749	-44.749	-0.255	-0.127
-297.735	79.775	-0.132	0.142
-296.720	321.769	0.018	0.033
-295.705	-56.727	0.258	-0.114
-294.691	-21.061	0.144	-0.088
-293.676	-200.000	-0.020	-0.092
-292.662	-200.000	0.002	0.265
-291.647	-156.259	-0.246	-0.015
-290.632	-200.000	-0.025	-0.114
-289.618	372.396	0.125	0.253
-288.603	-59.372	0.339	-0.145
-287.589	256.011	0.059	0.101
-286.574	-88.684	0.288	-0.086
-285.559	-4.654	-0.107	-0.074
-284.545	40.746	-0.100	-0.090
-283.530	-142.447	-0.410	0.040
-282.516	800.000	0.086	0.330
-281.501	-200.000	0.030	0.179
-280.486	800.000	0.038	0.139
-279.472	116.141	-0.097	0.119
-278.457	-200.000	-0.034	-0.227
-277.443	800.000	0.074	-0.279
-276.428	27.222	0.129	0.108
-275.413	-15.502	0.152	0.097
-274.399	800.000	0.010	0.035
-273.384	-76.677	0.228	0.080
-272.370	-30.637	0.111	-0.063
-271.355	-116.138	-0.196	0.036
-270.340	800.000	0.025	-0.069
-269.326	233.739	-0.019	-0.032
-268.311	-93.688	0.272	-0.075
-267.297	-200.000	0.071	0.424
-266.282	37.475	-0.095	-0.084
-265.267	-121.912	-0.143	-0.023
-264.253	35.121	-0.033	0.029
-263.238	255.651	-0.187	0.318
-262.224	-190.917	0.562	-0.006
-261.209	-105.593	0.193	-0.044
-260.195	-113.184	0.239	0.047
-259.180	-200.000	-0.029	0.155
-258.165	-126.497	0.128	-0.019
-257.151	8.513	0.112	-0.084
-256.136	-32.037	0.165	0.092
-255.122	-200.000	-0.052	-0.244
-254.107	19.908	-0.044	-0.036
-253.092	41.084	-0.116	-0.104
-252.078	-114.037	0.257	-0.050
-251.063	-63.250	0.257	-0.106
-250.049	221.066	0.179	-0.286
-249.034	18.427	0.139	0.110
-248.019	-176.400	-0.209	0.005
-247.005	510.866	-0.112	0.258
-245.990	-71.790	-0.190	-0.070
-244.976	538.608	-0.016	-0.039
-243.961	40.295	-0.114	0.102
-242.946	800.000	0.096	0.282
-241.932	-42.405	-0.460	-0.233
-240.917	9.263	-0.451	0.339
-239.903	-137.587	0.149	-0.017
-238.888	103.591	0.065	0.076
-237.873	-77.234	0.205	-0.071
-236.859	-15.942	0.179	-0.113
-235.844	-92.660	0.266	0.074
-234.830	505.334	-0.091	-0.209
-233.815	-77.691	-0.186	0.064
-232.800	747.049	-0.098	-0.263
-231.786	-200.000	-0.043	0.443
-230.771	99.563	0.135	-0.155
-229.757	-39.029	-0.482	0.252
-228.742	-83.340	0.215	-0.069
-227.727	800.000	0.104	0.336
-226.713	293.340	0.044	0.080
-225.698	-148.802	-0.158	-0.013
-224.684	800.000	-0.066	0.187
-223.669	190.294	-0.031	-0.047
-222.655	-20.991	0.282	0.172
-221.640	225.296	-0.117	-0.188
-220.625	-86.250	-0.123	0.038
-219.611	12.714	0.082	0.063
-218.596	777.606	-0.027	-0.073
-217.582	-72.211	-0.150	-0.055
-216.567	-153.322	-0.135	0.009
-215.552	800.000	0.021	0.059
-214.538	-59.701	0.274	0.117
-213.523	455.987	-0.173	-0.380
-212.509	800.000	0.037	0.129
-211.494	-200.000	-0.008	-0.204
-210.479	-27.157	-0.236	0.137
-209.465	138.808	0.085	0.110
-208.450	800.000	0.048	0.184
-207.436	-56.964	0.325	0.142
-206.421	233.080	0.234	-0.383
-205.406	121.396	0.140	-0.173
-204.392	-200.000	-0.008	-0.265
-203.377	9.059	-0.150	-0.112
-202.363	-31.365	-0.117	0.066
-201.348	-200.000	0.038	0.244
-200.333	-22.795	-0.244	-0.146
-199.319	465.893	0.145	-0.323
-198.304	156.204	-0.153	-0.209
-197.290	-116.170	0.507	0.093
-196.275	-4.572	0.067	0.046
-195.260	-16.713	-0.191	0.120
-194.246	170.927	0.095	0.135
-193.231	-63.389	-0.093	-0.038
-192.217	-200.000	0.004	-0.093
-191.202	323.352	0.125	-0.237
-190.187	-200.000	-0.027	-0.484
-189.173	-80.946	-0.103	-0.034
-188.158	-169.244	0.271	-0.010
-187.144	-171.007	-0.257	-0.009
-186.129	693.561	-0.093	0.243
-185.114	-107.858	0.331	-0.072
-184.100	-10.817	0.135	0.088
-183.085	-200.000	-0.016	-0.206
-182.071	-200.000	0.058	-0.255
-181.056	-158.805	-0.221	-0.013
-180.042	121.196	0.026	-0.032
-179.027	-1.232	-0.377	-0.264
-178.012	-109.238	0.263	-0.055
-176.998	51.512	0.075	-0.070
-175.983	-200.000	0.041	-0.205
-174.969	76.127	-0.174	0.182
-173.954	-43.293	0.215	-0.108
-172.939	800.000	-0.041	0.131
-171.925	-95.057	0.038	-0.010
-170.910	800.000	0.023	-0.091
-169.896	-41.962	0.228	0.116
-168.881	-147.987	0.021	0.002
-167.866	-43.860	0.442	0.221
-166.852	800.000	0.029	0.088
-165.837	656.922	-0.069	0.176
-164.823	-81.105	0.079	-0.026
-163.808	-157.428	0.218	-0.013
-162.793	-162.544	0.071	0.003
-161.779	-112.818	-0.204	0.040
-160.764	-200.000	0.083	0.478
-159.750	18.342	0.092	0.073
-158.735	224.151	-0.070	0.112
-157.720	800.000	0.069	0.252
-156.706	800.000	0.053	0.185
-155.691	228.365	0.099	-0.160
-154.677	115.767	0.209	0.254
-153.662	-39.284	-0.150	0.078
-152.647	-97.930	0.231	0.059
-151.633	31.430	0.224	0.191
-150.618	-44.097	0.036	-0.018
-149.604	53.426	-0.146	-0.139
-148.589	-200.000	-0.012	0.080
-147.574	-113.219	-0.312	0.061
-146.560	-200.000	0.007	0.128
-145.545	-165.760	0.108	0.005
-144.531	-125.972	0.171	0.026
-143.516	369.665	0.127	-0.254
-142.502	8.709	-0.008	-0.006
-141.487	-21.778	0.097	0.059
-140.472	31.621	0.033	-0.028
-139.458	-86.157	-0.204	0.062
-138.443	-200.000	-0.010	0.113
-137.429	800.000	-0.085	-0.257
-136.414	-200.000	-0.558	0.002
-135.399	-131.909	0.218	-0.028
-134.385	-35.097	0.357	-0.193
-133.370	-16.551	0.296	-0.186
-132.356	-44.810	0.175	-0.086
-131.341	-64.560	0.142	0.057
-130.326	-89.168	-0.216	0.063
-129.312	-100.019	0.292	-0.072
-128.297	-200.000	0.042	-0.215
-127.283	-112.821	-0.154	-0.030
-126.268	30.445	0.159	-0.135
-125.253	-117.429	0.191	-0.034
-124.239	-200.000	-0.006	-0.071
-123.224	-200.000	0.014	-0.183
-122.210	108.369	0.113	0.133
