DTS Sentinel unit serial number:	SN413079Multiplexer serial number:	ORYXHardware model number:	OX4-SRSoftware version number:	ORYX F/W v4.00 Oryx Data Collector v3.7.2.0data status	okinstallation	princeton_trtdifferential loss correction	single-endedforward channel	channel 2reverse channel	N/Adate	2019/09/18time	18:47:34forward acquisition time	60.00reverse acquisition time	0.00gamma	496.2192k internal	0.2318k external	0.2318temperature offset calibration	1.0025default loss term (dB/km)	0.3790temperature slope calibration	1.0000multiplexer offset coefficient	1.0000multiplexer slope coefficient	1.0000fibre end	0.00T internal ref (°C)	37.30T ext. ref 1 (°C)	0.93T ext. ref 2 (°C)	27.45length (m)	temperature (°C)	Stokes	anti-Stokes-747.200	-126.072	-0.158	0.024
-746.185	18.783	0.064	0.052
-745.171	-48.337	-0.150	0.073
-744.156	-177.990	-0.193	0.005
-743.142	-72.240	-0.143	-0.054
-742.127	108.739	-0.164	0.198
-741.112	-200.000	0.063	-0.282
-740.098	-12.969	-0.151	0.099
-739.083	315.472	-0.057	0.109
-738.069	100.358	-0.313	0.367
-737.054	800.000	-0.054	0.182
-736.039	109.075	0.080	-0.097
-735.025	165.705	0.286	0.410
-734.010	528.023	-0.117	0.279
-732.996	-200.000	-0.078	-0.448
-731.981	-126.944	0.207	0.031
-730.966	-141.263	0.099	0.010
-729.952	76.784	-0.175	-0.188
-728.937	-109.610	-0.332	-0.071
-727.923	193.091	-0.167	-0.255
-726.908	-92.317	-0.074	-0.021
-725.894	-200.000	0.061	-0.283
-724.879	2.436	-0.340	-0.249
-723.864	-200.000	0.012	0.063
-722.850	-14.775	0.155	0.101
-721.835	742.084	0.063	-0.172
-720.821	-97.491	-0.252	0.066
-719.806	100.435	0.269	-0.316
-718.791	15.989	-0.343	0.273
-717.777	67.908	0.196	0.203
-716.762	-129.183	0.075	0.011
-715.748	37.522	-0.205	0.184
-714.733	-200.000	0.013	0.062
-713.718	-78.999	-0.254	-0.087
-712.704	-96.886	-0.354	0.094
-711.689	-86.536	-0.341	-0.106
-710.675	-94.992	0.438	0.120
-709.660	-200.000	0.026	-0.238
-708.645	800.000	0.053	-0.165
-707.631	323.508	0.073	-0.141
-706.616	-125.434	0.138	0.021
-705.602	-118.883	-0.161	-0.029
-704.587	-122.819	-0.149	0.024
-703.572	-92.761	-0.138	-0.039
-702.558	-26.454	0.050	-0.029
-701.543	397.399	-0.127	0.268
-700.529	-111.468	0.104	-0.021
-699.514	800.000	0.068	0.269
-698.499	473.256	-0.176	0.400
-697.485	95.711	-0.115	-0.132
-696.470	304.948	0.080	0.151
-695.456	87.421	-0.232	0.260
-694.441	-13.531	-0.299	-0.196
-693.426	-200.000	0.009	-0.350
-692.412	333.862	0.097	0.189
-691.397	800.000	-0.081	0.230
-690.383	46.080	-0.031	-0.029
-689.368	-30.862	-0.162	0.092
-688.354	307.273	0.104	0.196
-687.339	-4.290	-0.166	-0.116
-686.324	119.159	0.181	-0.226
-685.310	91.286	-0.260	-0.295
-684.295	-157.625	0.503	-0.030
-683.281	62.449	-0.126	0.127
-682.266	-42.834	-0.070	0.036
-681.251	373.964	-0.180	-0.370
-680.237	518.131	-0.053	0.126
-679.222	117.211	0.113	-0.140
-678.208	105.359	-0.121	0.144
-677.193	-38.729	0.299	0.159
-676.178	164.809	-0.035	0.050
-675.164	647.740	-0.049	-0.126
-674.149	-200.000	0.001	-0.347
-673.135	-51.452	-0.145	0.068
-672.120	-85.090	-0.282	0.089
-671.105	-43.747	0.287	0.146
-670.091	-200.000	-0.042	-0.271
-669.076	-90.897	0.234	-0.068
-668.062	142.948	-0.120	0.161
-667.047	90.666	0.014	0.016
-666.032	202.071	-0.224	-0.348
-665.018	7.015	0.120	-0.090
-664.003	800.000	-0.056	-0.180
-662.989	162.056	-0.291	-0.411
-661.974	-200.000	0.073	0.360
-660.959	800.000	-0.023	0.074
-659.945	800.000	-0.025	-0.071
-658.930	-157.441	-0.334	0.020
-657.916	-7.632	0.079	-0.054
-656.901	-200.000	0.030	-0.158
-655.886	473.190	-0.186	-0.423
-654.872	-141.148	-0.260	-0.027
-653.857	-200.000	0.021	0.263
-652.843	800.000	0.047	-0.156
-651.828	-94.698	0.341	0.093
-650.814	-181.459	-0.040	0.001
-649.799	-7.438	-0.074	0.051
-648.784	702.215	-0.123	-0.327
-647.770	-200.000	-0.032	-0.175
-646.755	-38.837	-0.207	0.110
-645.741	220.240	0.147	0.237
-644.726	42.303	0.121	0.111
-643.711	62.248	0.087	-0.088
-642.697	-4.948	-0.070	-0.049
-641.682	-99.368	0.097	0.025
-640.668	-200.000	0.033	-0.152
-639.653	356.992	0.025	-0.050
-638.638	-56.653	0.236	0.105
-637.624	-106.335	-0.137	-0.031
-636.609	-114.262	0.120	0.023
-635.595	-9.911	0.151	0.101
-634.580	-2.854	0.268	-0.189
-633.565	800.000	-0.048	0.157
-632.551	-71.451	0.330	-0.125
-631.536	-87.452	0.117	0.036
-630.522	-200.000	0.241	-0.001
-629.507	800.000	0.072	-0.224
-628.492	-200.000	0.014	-0.256
-627.478	-4.516	0.208	0.145
-626.463	181.337	0.100	0.147
-625.449	-139.775	-0.203	-0.022
-624.434	24.574	0.071	-0.059
-623.419	17.077	-0.207	-0.165
-622.405	40.552	-0.270	-0.245
-621.390	52.579	0.095	-0.092
-620.376	433.648	-0.135	0.295
-619.361	-156.453	0.231	0.014
-618.346	36.944	-0.204	-0.182
-617.332	800.000	-0.103	-0.360
-616.317	-115.890	0.264	-0.050
-615.303	240.445	0.202	0.339
-614.288	-200.000	-0.004	-0.079
-613.273	800.000	-0.049	0.139
-612.259	-54.132	0.294	0.135
-611.244	-200.000	-0.002	0.066
-610.230	-85.324	0.262	0.082
-609.215	488.818	-0.180	-0.414
-608.201	800.000	-0.039	0.155
-607.186	-20.713	-0.054	0.033
-606.171	36.273	-0.236	-0.209
-605.157	58.779	0.128	-0.127
-604.142	-200.000	0.005	0.064
-603.128	424.122	-0.065	0.140
-602.113	-33.712	0.189	0.105
-601.098	800.000	0.110	-0.322
-600.084	508.796	-0.070	0.164
-599.069	-200.000	-0.011	0.215
-598.055	3.537	-0.240	0.176
-597.040	-200.000	-0.014	0.079
-596.025	-200.000	0.058	-0.297
-595.011	-200.000	-0.283	0.001
-593.996	-101.396	0.240	-0.059
-592.982	-81.401	-0.105	0.035
-591.967	-120.692	0.359	0.061
-590.952	-128.920	-0.364	0.051
-589.938	-158.068	0.554	-0.033
-588.923	-200.000	-0.028	0.457
-587.909	-121.046	-0.093	0.016
-586.894	361.545	-0.047	-0.095
-585.879	800.000	-0.129	-0.412
-584.865	175.457	0.069	0.101
-583.850	-200.000	-0.002	-0.027
-582.836	-200.000	-0.050	-0.311
-581.821	-200.000	-0.029	0.164
-580.806	11.475	0.230	0.177
-579.792	800.000	-0.093	0.278
-578.777	47.654	0.147	-0.138
-577.763	-66.181	-0.073	-0.029
-576.748	-57.651	-0.184	0.081
-575.733	38.341	-0.115	-0.103
-574.719	120.827	0.201	-0.251
-573.704	114.523	0.100	-0.123
-572.690	210.345	-0.160	-0.252
-571.675	5.096	-0.017	0.013
-570.661	-200.000	0.020	0.164
-569.646	-105.056	-0.180	-0.041
-568.631	47.204	0.063	-0.059
-567.617	48.662	-0.202	-0.190
-566.602	247.889	-0.076	-0.130
-565.588	-200.000	-0.026	-0.330
-564.573	263.827	-0.233	-0.406
-563.558	-70.233	-0.161	0.062
-562.544	158.201	0.093	-0.130
-561.529	-110.223	-0.106	0.022
-560.515	-115.999	-0.125	0.023
-559.500	629.736	0.138	-0.352
-558.485	-92.049	-0.193	0.055
-557.471	333.333	0.122	-0.237
-556.456	-200.000	0.020	0.120
-555.442	-200.000	-0.044	0.256
-554.427	-96.247	-0.233	-0.062
-553.412	800.000	-0.091	-0.308
-552.398	-200.000	-0.004	0.174
-551.383	497.906	0.107	-0.247
-550.369	692.534	0.061	-0.160
-549.354	219.760	-0.129	-0.208
-548.339	181.246	-0.147	0.217
-547.325	-14.731	-0.229	0.147
-546.310	-200.000	-0.023	-0.121
-545.296	136.194	0.084	0.110
-544.281	700.635	0.121	-0.320
-543.266	117.213	-0.114	-0.140
-542.252	-36.144	-0.199	-0.108
-541.237	55.319	0.150	0.146
-540.223	796.448	-0.083	-0.229
-539.208	-69.184	-0.042	-0.016
-538.193	4.130	0.288	0.211
-537.179	-86.569	-0.320	0.098
-536.164	-200.000	-0.064	0.333
-535.150	-103.314	-0.053	0.013
-534.135	48.327	-0.016	-0.015
-533.121	72.503	-0.016	0.017
-532.106	800.000	0.050	0.184
-531.091	115.095	0.304	-0.372
-530.077	386.305	0.072	0.149
-529.062	531.890	-0.107	0.255
-528.048	56.113	0.169	-0.165
-527.033	-188.428	-0.208	-0.003
-526.018	287.762	0.182	-0.330
-525.004	10.004	-0.335	0.255
-523.989	165.720	0.093	-0.131
-522.975	-200.000	0.053	-0.555
-521.960	-158.455	0.259	-0.015
-520.945	-75.868	0.113	-0.040
-519.931	-65.841	-0.095	0.038
-518.916	-200.000	-0.027	0.148
-517.902	256.550	0.055	-0.094
-516.887	-30.190	0.359	-0.204
-515.872	-200.000	0.027	0.165
-514.858	-2.947	0.045	0.032
-513.843	292.901	-0.033	0.059
-512.829	-124.741	-0.426	-0.066
-511.814	39.602	0.177	-0.159
-510.799	83.800	0.067	0.074
-509.785	-31.142	0.331	-0.187
-508.770	800.000	-0.190	-0.534
-507.756	800.000	0.069	0.208
-506.741	800.000	-0.069	0.208
-505.726	800.000	0.026	-0.094
-504.712	193.653	0.085	0.129
-503.697	-17.772	-0.216	-0.136
-502.683	243.853	-0.097	-0.163
-501.668	28.345	0.200	0.169
-500.653	-192.292	0.131	0.001
-499.639	-42.471	-0.447	0.229
-498.624	-168.974	0.137	-0.005
-497.610	728.148	-0.042	0.112
-496.595	609.289	-0.049	-0.122
-495.581	9.940	-0.206	-0.157
-494.566	113.341	-0.137	0.166
-493.551	-200.000	0.003	0.168
-492.537	-47.949	0.278	0.135
-491.522	-200.000	-0.014	0.219
-490.508	148.752	0.095	-0.129
-489.493	-106.642	0.284	-0.063
-488.478	-112.959	0.462	0.092
-487.464	-42.384	0.078	-0.040
-486.449	-200.000	0.019	0.238
-485.435	800.000	-0.034	0.136
-484.420	278.024	0.131	0.234
-483.405	43.139	0.110	-0.100
-482.391	155.991	-0.083	0.115
-481.376	800.000	-0.074	0.295
-480.362	-99.153	0.329	-0.083
-479.347	31.819	0.195	0.168
-478.332	35.903	0.113	-0.100
-477.318	-200.000	-0.001	0.346
-476.303	52.782	0.157	0.150
-475.289	-200.000	0.002	-0.089
-474.274	-62.606	-0.214	0.089
-473.259	43.855	-0.171	-0.157
-472.245	-118.732	0.316	0.056
-471.230	-98.633	-0.318	0.081
-470.216	-140.170	-0.163	-0.017
-469.201	-9.737	0.107	-0.071
-468.186	126.659	-0.218	-0.276
-467.172	-28.067	-0.017	0.010
-466.157	-141.009	0.154	0.016
-465.143	93.273	0.295	-0.334
-464.128	-200.000	-0.033	0.227
-463.113	337.911	0.095	0.186
-462.099	-53.447	0.203	-0.093
-461.084	113.832	-0.083	0.101
-460.070	800.000	0.151	0.427
-459.055	172.472	-0.115	-0.166
-458.040	30.730	-0.259	-0.222
-457.026	-130.777	-0.109	-0.015
-456.011	707.312	-0.072	-0.191
-454.997	-200.000	0.007	-0.176
-453.982	-62.071	0.347	-0.145
-452.968	443.082	-0.092	-0.201
-451.953	137.713	-0.207	0.271
-450.938	800.000	-0.030	-0.085
-449.924	-200.000	-0.015	0.131
-448.909	-16.577	0.110	-0.070
-447.895	-50.349	-0.144	-0.068
-446.880	-152.577	0.129	-0.009
-445.865	-59.003	0.036	0.015
-444.851	48.273	-0.188	0.176
-443.836	-143.870	0.056	-0.005
-442.822	426.830	-0.082	-0.176
-441.807	46.784	0.262	-0.243
-440.792	-200.000	-0.026	-0.185
-439.778	-122.299	0.250	-0.041
-438.763	-200.000	-0.008	0.099
-437.749	-154.817	-0.237	-0.016
-436.734	800.000	-0.077	-0.237
-435.719	-21.202	-0.291	0.178
-434.705	-97.144	-0.308	0.080
-433.690	-200.000	0.032	-0.255
-432.676	-58.532	0.063	-0.027
-431.661	-56.141	-0.165	0.074
-430.646	-175.817	-0.290	-0.008
-429.632	-17.322	-0.082	0.052
-428.617	800.000	0.034	0.129
-427.603	-123.602	-0.065	0.010
-426.588	-163.414	-0.130	0.006
-425.573	-200.000	0.025	0.116
-424.559	800.000	0.065	-0.210
-423.544	-79.920	-0.254	-0.085
-422.530	-134.370	-0.102	-0.013
-421.515	50.350	0.149	-0.141
-420.500	-41.032	0.058	-0.030
-419.486	-65.583	0.153	0.061
-418.471	-200.000	0.037	-0.179
-417.457	800.000	0.063	0.252
-416.442	84.069	0.045	0.049
-415.428	-174.486	-0.038	0.001
-414.413	-200.000	0.021	-0.244
-413.398	737.364	-0.063	-0.170
-412.384	220.317	-0.041	0.066
-411.369	285.154	-0.090	-0.162
-410.355	96.126	-0.088	-0.101
-409.340	190.793	0.165	0.247
-408.325	8.518	-0.051	-0.038
-407.311	-51.591	-0.261	0.122
-406.296	-200.000	0.046	0.290
-405.282	-200.000	0.016	-0.185
-404.267	208.659	-0.122	0.190
-403.252	-92.834	0.235	-0.066
-402.238	-123.779	0.425	-0.067
-401.223	254.807	-0.019	-0.032
-400.209	-200.000	-0.003	0.201
-399.194	116.836	-0.250	-0.307
-398.179	325.104	-0.054	0.104
-397.165	-118.476	-0.249	-0.044
-396.150	-200.000	-0.034	-0.324
-395.136	88.347	-0.126	-0.140
-394.121	-200.000	0.010	-0.114
-393.106	-24.967	-0.343	-0.203
-392.092	793.731	-0.050	-0.137
-391.077	-55.308	-0.204	0.092
-390.063	208.728	-0.035	0.055
-389.048	731.643	0.103	0.275
-388.033	-200.000	0.010	0.271
-387.019	303.873	0.055	0.103
-386.004	-200.000	-0.003	-0.051
-384.990	-161.509	0.022	-0.001
-383.975	-14.486	-0.293	0.188
-382.960	495.118	-0.041	0.093
-381.946	12.819	0.083	-0.064
-380.931	-66.711	-0.204	0.081
-379.917	-200.000	-0.023	-0.308
-378.902	344.578	0.077	0.150
-377.888	49.567	0.132	0.124
-376.873	-93.981	-0.333	0.091
-375.858	-51.114	-0.041	0.019
-374.844	441.848	0.078	-0.170
-373.829	652.190	-0.164	-0.419
-372.815	-20.870	0.118	0.072
-371.800	-132.522	-0.050	-0.006
-370.785	-27.879	-0.240	0.138
-369.771	-21.765	-0.423	0.257
-368.756	800.000	0.046	0.153
-367.742	-96.727	-0.068	0.018
-366.727	-26.474	-0.126	0.074
-365.712	25.798	0.140	0.117
-364.698	-200.000	0.045	-0.245
-363.683	257.938	0.150	-0.257
-362.669	223.700	0.089	-0.143
-361.654	-55.247	0.154	0.069
-360.639	-188.477	-0.243	0.003
-359.625	125.138	-0.041	0.051
-358.610	-33.789	-0.363	0.199
-357.596	-158.485	-0.164	0.009
-356.581	232.102	-0.133	-0.218
-355.566	-200.000	-0.007	0.137
-354.552	800.000	0.064	0.218
-353.537	11.259	-0.119	-0.091
-352.523	19.340	-0.327	-0.262
-351.508	-46.584	0.309	0.151
-350.493	-200.000	0.062	-0.419
-349.479	-70.982	0.134	0.050
-348.464	-11.079	0.207	-0.136
-347.450	95.895	0.084	0.095
-346.435	-117.022	-0.192	0.035
-345.420	800.000	0.095	-0.290
-344.406	197.519	0.242	-0.368
-343.391	209.736	-0.046	-0.072
-342.377	500.227	-0.117	0.269
-341.362	60.765	-0.080	-0.079
-340.348	46.329	-0.135	-0.125
-339.333	-164.573	0.211	-0.010
-338.318	-4.424	-0.234	0.161
-337.304	429.936	0.183	0.395
-336.289	-107.747	-0.345	0.075
-335.275	36.479	-0.128	-0.113
-334.260	-46.679	0.285	0.139
-333.245	800.000	-0.027	-0.085
-332.231	-5.603	-0.118	0.080
-331.216	-130.800	-0.336	0.045
-330.202	74.011	0.095	0.100
-329.187	-200.000	-0.005	0.133
-328.172	80.909	-0.115	-0.123
-327.158	58.489	-0.286	0.279
-326.143	669.127	0.084	0.217
-325.129	-135.999	0.215	-0.025
-324.114	-148.636	0.143	0.012
-323.099	-25.902	0.239	0.140
-322.085	17.151	0.255	0.201
-321.070	-134.498	0.074	-0.009
-320.056	82.908	-0.087	-0.094
-319.041	-200.000	0.024	0.312
-318.026	-48.839	0.160	0.076
-317.012	51.934	0.151	-0.144
-315.997	665.622	-0.010	-0.026
-314.983	800.000	-0.027	0.087
-313.968	8.443	0.108	0.080
-312.953	-40.088	0.206	0.107
-311.939	-200.000	0.031	-0.181
-310.924	-55.231	0.219	-0.098
-309.910	646.124	0.137	0.349
-308.895	-191.366	-0.200	0.002
-307.880	800.000	-0.106	0.401
-306.866	-42.365	-0.196	0.100
-305.851	-91.881	-0.338	0.095
-304.837	274.547	-0.068	-0.120
-303.822	132.958	-0.287	0.369
-302.807	-200.000	-0.005	-0.188
-301.793	361.827	-0.120	0.239
-300.778	-193.333	-0.433	-0.004
-299.764	-21.837	0.133	-0.081
-298.749	800.000	0.124	0.349
-297.735	165.486	-0.154	0.217
-296.720	24.456	-0.154	0.127
-295.705	-21.076	0.312	0.190
-294.691	70.203	-0.151	-0.155
-293.676	107.865	0.105	-0.124
-292.662	-67.879	0.176	-0.068
-291.647	-108.152	0.085	-0.018
-290.632	16.008	0.036	0.028
-289.618	-200.000	0.032	0.225
-288.603	-154.462	-0.258	0.017
-287.589	-200.000	-0.021	-0.314
-286.574	-62.742	-0.246	-0.101
-285.559	178.350	-0.078	-0.114
-284.545	-200.000	0.051	0.245
-283.530	-200.000	-0.011	0.133
-282.516	-200.000	-0.012	-0.095
-281.501	162.634	-0.348	0.485
-280.486	-200.000	-0.002	0.232
-279.472	1.459	-0.049	0.035
-278.457	-9.022	-0.273	-0.182
-277.443	800.000	-0.061	0.235
-276.428	800.000	-0.051	-0.141
-275.413	800.000	-0.052	-0.179
-274.399	88.902	0.209	-0.231
-273.384	800.000	-0.109	-0.357
-272.370	92.329	0.163	-0.182
-271.355	-200.000	0.054	-0.756
-270.340	538.109	-0.012	-0.027
-269.326	-175.190	-0.219	-0.006
-268.311	-85.549	0.252	0.078
-267.297	-60.707	0.135	0.057
-266.282	800.000	-0.061	-0.192
-265.267	800.000	0.049	-0.201
-264.253	-103.648	0.109	0.025
-263.238	-145.434	0.128	0.011
-262.224	-89.359	-0.402	0.117
-261.209	-52.323	-0.202	-0.093
-260.195	178.452	0.204	0.295
-259.180	-120.454	0.121	-0.020
-258.165	-35.531	0.047	-0.025
-257.151	-93.560	0.047	0.013
-256.136	800.000	-0.050	-0.201
-255.122	191.760	-0.069	-0.104
-254.107	-200.000	-0.000	0.348
-253.092	54.234	-0.133	0.127
-252.078	-200.000	0.021	-0.200
-251.063	94.543	-0.069	-0.078
-250.049	-200.000	-0.041	-0.196
-249.034	-37.089	-0.187	0.100
-248.019	-65.012	-0.238	-0.095
-247.005	-72.464	0.127	-0.047
-245.990	-200.000	-0.068	0.343
-244.976	199.680	0.056	0.085
-243.961	-7.447	0.197	-0.133
-242.946	176.872	-0.048	0.069
-241.932	800.000	-0.047	0.192
-240.917	257.004	-0.152	-0.260
-239.903	-143.767	0.287	0.027
-238.888	-164.511	-0.258	0.012
-237.873	-95.500	0.218	0.058
-236.859	800.000	-0.072	0.225
-235.844	-37.718	0.051	0.027
-234.830	-79.281	-0.115	-0.039
-233.815	-51.213	0.186	0.086
-232.800	800.000	0.011	0.034
-231.786	-141.813	0.173	0.017
-230.771	213.637	0.104	-0.163
-229.757	180.883	0.081	-0.118
-228.742	-183.067	0.334	-0.006
-227.727	55.274	0.281	-0.269
-226.713	-26.283	0.239	0.139
-225.698	37.535	-0.213	0.187
-224.684	33.670	0.131	0.113
-223.669	-60.742	-0.089	-0.038
-222.655	800.000	-0.077	0.300
-221.640	-200.000	0.054	0.259
-220.625	-200.000	-0.015	0.109
-219.611	85.861	0.083	-0.090
-218.596	88.379	-0.228	0.251
-217.582	108.368	0.110	0.130
-216.567	114.114	0.330	-0.398
-215.552	100.149	0.084	0.097
-214.538	328.064	-0.096	0.183
-213.523	253.637	0.130	0.220
-212.509	800.000	0.060	0.226
-211.494	-86.960	-0.300	-0.091
-210.479	800.000	-0.062	0.263
-209.465	129.047	0.180	-0.228
-208.450	228.147	-0.073	-0.118
-207.436	543.763	0.113	0.267
-206.421	-25.700	-0.137	-0.080
-205.406	639.976	-0.036	-0.091
-204.392	800.000	0.076	0.222
-203.377	800.000	0.037	0.137
-202.363	324.613	0.139	0.264
-201.348	-63.060	0.175	0.072
-200.333	-200.000	0.000	-0.191
-199.319	-122.275	-0.222	0.036
-198.304	36.072	0.190	-0.166
-197.290	-53.374	-0.185	-0.084
-196.275	800.000	-0.080	0.251
-195.260	-9.331	-0.361	-0.239
-194.246	800.000	-0.013	-0.043
-193.231	-127.230	0.166	0.024
-192.217	250.753	0.170	0.287
-191.202	-97.265	0.159	0.041
-190.187	135.013	0.045	-0.058
-189.173	-200.000	-0.010	0.220
-188.158	-48.781	0.404	-0.192
-187.144	608.039	-0.167	-0.412
-186.129	800.000	-0.061	-0.214
-185.114	-198.973	0.037	-0.000
-184.100	-125.198	0.441	-0.067
-183.085	-130.991	-0.061	-0.008
-182.071	532.485	0.096	-0.224
-181.056	-35.448	0.143	-0.077
-180.042	30.915	0.353	-0.299
-179.027	-200.000	-0.065	-0.381
-178.012	-135.221	0.217	0.026
-176.998	-149.895	0.212	-0.016
-175.983	-113.147	0.185	-0.036
-174.969	184.740	-0.105	-0.154
-173.954	278.786	-0.156	0.275
-172.939	360.383	-0.093	-0.184
-171.925	-200.000	0.023	0.115
-170.910	181.316	-0.204	0.297
-169.896	-200.000	-0.000	-0.044
-168.881	607.997	-0.039	-0.097
-167.866	-200.000	0.018	0.348
-166.852	707.881	0.084	0.219
-165.837	104.048	-0.056	0.066
-164.823	800.000	0.095	0.390
-163.808	-200.000	-0.059	-0.314
-162.793	417.896	0.073	0.154
-161.779	800.000	-0.067	0.288
-160.764	110.880	0.128	0.152
-159.750	-191.275	-0.185	-0.002
-158.735	202.190	0.062	0.095
-157.720	590.853	-0.157	-0.384
-156.706	-200.000	0.015	-0.252
-155.691	-176.096	0.076	0.002
-154.677	223.450	0.177	0.283
-153.662	34.904	0.292	0.253
-152.647	-113.930	0.122	-0.023
-151.633	-200.000	0.021	0.337
-150.618	538.413	-0.053	-0.126
-149.604	149.377	-0.043	-0.058
-148.589	-134.069	-0.160	0.020
-147.574	373.192	0.166	-0.334
-146.560	-200.000	-0.036	0.175
-145.545	30.949	-0.375	0.317
-144.531	-200.000	-0.011	-0.204
-143.516	256.817	-0.098	-0.167
-142.502	222.368	0.197	-0.314
-141.487	128.954	0.217	-0.273
-140.472	-51.221	0.086	-0.040
-139.458	-10.772	-0.200	-0.131
-138.443	-106.186	0.249	0.055
-137.429	-82.413	0.115	0.037
-136.414	-200.000	0.039	0.176
-135.399	-200.000	-0.001	0.171
-134.385	24.177	-0.228	0.186
-133.370	800.000	-0.085	-0.242
-132.356	200.532	0.040	-0.061
-131.341	-183.488	0.246	0.004
-130.326	-30.991	0.234	-0.130
-129.312	88.259	0.069	-0.076
-128.297	-44.508	-0.110	0.054
-127.283	800.000	-0.066	-0.254
-126.268	-44.450	0.093	-0.046
-125.253	-30.557	0.238	0.133
-124.239	-122.273	0.018	-0.003
-123.224	-115.321	-0.264	0.049
-122.210	-138.592	0.317	0.034
