DTS Sentinel unit serial number:	SN413079Multiplexer serial number:	ORYXHardware model number:	OX4-SRSoftware version number:	ORYX F/W v4.00 Oryx Data Collector v3.7.2.0data status	okinstallation	princeton_trtdifferential loss correction	single-endedforward channel	channel 2reverse channel	N/Adate	2019/09/15time	17:07:35forward acquisition time	60.00reverse acquisition time	0.00gamma	496.2192k internal	0.2284k external	0.2284temperature offset calibration	0.9927default loss term (dB/km)	0.3790temperature slope calibration	1.0000multiplexer offset coefficient	1.0000multiplexer slope coefficient	1.0000fibre end	0.00T internal ref (°C)	44.62T ext. ref 1 (°C)	5.94T ext. ref 2 (°C)	40.42length (m)	temperature (°C)	Stokes	anti-Stokes-747.200	43.374	0.092	0.086
-746.185	60.464	0.275	0.280
-745.171	-80.789	0.035	0.012
-744.156	-26.048	0.271	-0.164
-743.142	-8.245	0.177	-0.122
-742.127	-64.458	0.193	0.080
-741.112	24.843	0.025	0.021
-740.098	-147.875	0.254	0.022
-739.083	-200.000	-0.045	-0.273
-738.069	-5.391	0.094	0.066
-737.054	345.061	-0.116	-0.234
-736.039	-200.000	0.007	-0.260
-735.025	117.643	0.147	0.186
-734.010	36.760	0.097	0.088
-732.996	-32.583	-0.206	-0.118
-731.981	-70.192	0.111	-0.043
-730.966	57.734	0.280	-0.281
-729.952	-200.000	-0.001	0.262
-728.937	259.339	-0.117	-0.207
-727.923	209.841	0.061	0.098
-726.908	139.837	-0.146	-0.197
-725.894	242.247	0.056	0.095
-724.879	63.017	0.107	0.110
-723.864	71.680	-0.179	-0.191
-722.850	-59.585	-0.197	-0.087
-721.835	45.291	-0.234	0.222
-720.821	284.222	0.070	0.129
-719.806	42.279	-0.221	0.206
-718.791	-192.028	0.377	-0.004
-717.777	167.901	0.096	-0.140
-716.762	104.989	-0.084	0.102
-715.748	-200.000	-0.019	-0.207
-714.733	-141.571	-0.137	0.014
-713.718	148.517	-0.122	0.169
-712.704	171.331	0.060	0.088
-711.689	-200.000	0.063	-0.349
-710.675	151.537	-0.095	0.132
-709.660	-80.238	0.373	0.128
-708.645	-200.000	0.033	0.175
-707.631	-84.194	-0.337	0.110
-706.616	-46.535	-0.149	-0.075
-705.602	800.000	0.117	-0.394
-704.587	128.587	-0.188	0.246
-703.572	-200.000	-0.032	-0.175
-702.558	-54.174	0.142	-0.066
-701.543	-88.632	-0.414	0.126
-700.529	800.000	-0.048	0.203
-699.514	-44.488	-0.393	-0.202
-698.499	171.292	-0.246	-0.361
-697.485	-28.710	-0.209	-0.123
-696.470	46.550	-0.174	-0.166
-695.456	-97.954	0.186	-0.049
-694.441	-18.817	0.024	-0.015
-693.426	72.868	0.108	-0.116
-692.412	336.725	-0.149	-0.297
-691.397	154.184	-0.068	-0.095
-690.383	22.712	-0.243	-0.204
-689.368	404.421	-0.078	-0.169
-688.354	-127.372	0.280	-0.042
-687.339	-134.022	-0.284	-0.036
-686.324	-74.476	-0.209	0.077
-685.310	281.530	0.107	0.197
-684.295	-57.269	0.044	0.020
-683.281	-0.300	0.191	-0.139
-682.266	-85.351	-0.188	0.060
-681.251	-44.896	-0.080	0.041
-680.237	464.066	0.118	-0.270
-679.222	-91.132	0.229	-0.067
-678.208	190.696	0.178	0.275
-677.193	225.592	-0.054	0.090
-676.178	272.604	0.082	0.148
-675.164	141.448	0.046	-0.062
-674.149	-200.000	-0.059	-0.272
-673.135	13.430	0.180	-0.143
-672.120	38.589	-0.048	-0.044
-671.105	-112.996	-0.149	-0.030
-670.091	197.122	-0.127	-0.199
-669.076	-163.525	0.394	-0.019
-668.062	682.257	-0.133	0.356
-667.047	127.300	0.152	-0.197
-666.032	-35.385	-0.400	0.223
-665.018	-45.127	0.143	-0.073
-664.003	50.195	-0.108	-0.104
-662.989	-76.597	0.269	-0.097
-661.974	-120.942	-0.346	-0.059
-660.959	25.648	-0.067	-0.057
-659.945	53.975	-0.079	0.078
-658.930	121.686	0.064	0.082
-657.916	323.542	-0.020	-0.039
-656.901	-200.000	-0.022	-0.214
-655.886	-200.000	-0.030	0.237
-654.872	800.000	-0.049	0.159
-653.857	151.018	-0.250	0.348
-652.843	-200.000	-0.002	-0.025
-651.828	25.916	0.115	0.098
-650.814	-82.378	0.185	0.062
-649.799	11.461	0.249	0.195
-648.784	800.000	-0.020	-0.083
-647.770	23.669	0.119	0.100
-646.755	-36.655	0.048	0.027
-645.741	398.612	-0.114	0.245
-644.726	-8.533	-0.048	-0.033
-643.711	321.096	0.057	-0.111
-642.697	-163.207	0.081	0.004
-641.682	-48.797	0.204	0.100
-640.668	-200.000	0.008	0.094
-639.653	107.806	-0.018	0.022
-638.638	-200.000	-0.005	-0.116
-637.624	661.473	-0.021	-0.056
-636.609	53.424	-0.066	0.064
-635.595	104.315	-0.269	-0.323
-634.580	-2.329	0.136	-0.098
-633.565	-200.000	0.010	-0.241
-632.551	-69.614	-0.213	0.083
-631.536	-200.000	0.019	-0.361
-630.522	-98.703	-0.124	0.032
-629.507	137.001	-0.106	0.142
-628.492	-200.000	-0.018	0.203
-627.478	459.171	0.113	-0.257
-626.463	155.525	-0.085	-0.120
-625.449	-103.435	0.297	-0.072
-624.434	-158.005	-0.155	-0.009
-623.419	128.276	-0.204	-0.265
-622.405	-51.894	-0.196	-0.093
-621.390	800.000	0.079	-0.313
-620.376	36.394	-0.153	0.138
-619.361	800.000	-0.082	0.340
-618.346	-74.307	-0.144	-0.053
-617.332	135.456	-0.190	0.253
-616.317	23.220	-0.331	0.278
-615.303	800.000	0.058	-0.224
-614.288	-137.545	0.018	-0.002
-613.273	-200.000	-0.009	-0.125
-612.259	-200.000	-0.019	-0.300
-611.244	7.659	0.155	-0.118
-610.230	697.962	0.071	0.191
-609.215	328.731	-0.037	-0.073
-608.201	-55.384	-0.087	-0.040
-607.186	440.005	-0.061	0.137
-606.171	800.000	0.055	-0.161
-605.157	72.549	0.183	-0.195
-604.142	-200.000	0.025	-0.513
-603.128	-23.044	-0.139	-0.085
-602.113	-200.000	0.006	-0.324
-601.098	-66.357	-0.292	-0.119
-600.084	-200.000	-0.006	0.117
-599.069	46.115	-0.172	-0.163
-598.055	-164.874	-0.350	-0.016
-597.040	769.153	0.050	0.139
-596.025	374.142	-0.158	0.328
-595.011	-147.135	-0.254	-0.022
-593.996	44.446	0.221	0.207
-592.982	-200.000	0.063	0.357
-591.967	-200.000	-0.033	0.353
-590.952	-55.821	-0.283	-0.129
-589.938	-43.949	-0.153	0.078
-588.923	-35.445	-0.260	0.144
-587.909	-69.297	-0.219	-0.086
-586.894	-139.729	-0.201	-0.022
-585.879	669.413	0.161	-0.426
-584.865	-99.312	-0.190	0.049
-583.850	-200.000	-0.020	0.291
-582.836	800.000	0.064	0.252
-581.821	183.746	0.201	-0.303
-580.806	-69.508	-0.097	-0.038
-579.792	-110.999	-0.257	-0.054
-578.777	203.747	0.032	0.051
-577.763	-200.000	0.007	0.280
-576.748	-82.227	0.105	-0.035
-575.733	-200.000	-0.009	0.120
-574.719	-200.000	-0.073	0.389
-573.704	-200.000	0.010	0.207
-572.690	625.403	0.018	-0.046
-571.675	-88.809	-0.074	0.022
-570.661	-1.141	0.148	-0.107
-569.646	245.475	0.076	-0.131
-568.631	-89.179	0.200	-0.060
-567.617	-89.712	0.375	-0.112
-566.602	-200.000	-0.019	-0.116
-565.588	-130.550	-0.167	0.023
-564.573	14.279	-0.263	0.209
-563.558	-55.123	0.236	0.108
-562.544	-1.804	-0.193	-0.138
-561.529	-194.629	0.129	-0.001
-560.515	-27.071	-0.114	0.068
-559.500	-46.023	-0.291	-0.146
-558.485	-34.079	-0.135	0.076
-557.471	64.954	0.328	-0.338
-556.456	-11.798	0.058	0.039
-555.442	93.968	0.132	0.153
-554.427	800.000	-0.110	0.474
-553.412	-9.337	0.377	-0.257
-552.398	22.467	-0.229	-0.191
-551.383	45.880	-0.061	0.058
-550.369	129.804	0.157	0.205
-549.354	225.287	-0.002	-0.004
-548.339	114.391	-0.141	-0.175
-547.325	141.377	-0.128	-0.173
-546.310	525.106	-0.076	-0.182
-545.296	800.000	-0.007	0.023
-544.281	-135.764	0.133	-0.016
-543.266	-200.000	-0.029	0.178
-542.252	46.944	0.041	-0.039
-541.237	374.416	0.065	-0.136
-540.223	372.664	-0.144	-0.299
-539.208	114.746	0.073	-0.090
-538.193	-15.079	0.087	-0.057
-537.179	-43.291	-0.060	-0.031
-536.164	-200.000	0.048	-0.342
-535.150	365.684	0.185	-0.381
-534.135	499.921	-0.093	-0.218
-533.121	800.000	-0.028	0.097
-532.106	-152.119	-0.002	0.000
-531.091	369.201	0.046	0.095
-530.077	4.153	0.175	0.131
-529.062	97.936	-0.145	-0.170
-528.048	-14.229	0.181	0.119
-527.033	-74.202	0.285	0.105
-526.018	37.659	0.159	0.144
-525.004	-200.000	0.037	0.179
-523.989	-66.018	-0.165	0.067
-522.975	-200.000	0.005	0.116
-521.960	-75.595	0.122	0.044
-520.945	482.028	-0.211	0.488
-519.931	55.561	-0.211	-0.208
-518.916	207.289	-0.031	-0.049
-517.902	-43.083	0.151	-0.078
-516.887	-169.460	0.287	-0.011
-515.872	-119.765	-0.140	0.025
-514.858	55.025	-0.085	-0.083
-513.843	-82.962	0.365	0.120
-512.829	331.969	-0.116	0.228
-511.814	97.881	-0.117	-0.137
-510.799	115.323	-0.015	0.019
-509.785	-26.430	-0.091	0.055
-508.770	-35.621	0.123	0.068
-507.756	53.649	0.185	0.181
-506.741	536.123	-0.149	-0.360
-505.726	-29.009	0.093	-0.054
-504.712	-200.000	-0.021	-0.122
-503.697	-64.783	0.286	-0.118
-502.683	-30.931	0.183	-0.105
-501.668	-65.424	0.196	0.080
-500.653	-53.558	-0.257	0.120
-499.639	800.000	-0.068	-0.213
-498.624	-98.386	0.436	0.114
-497.610	-104.991	0.102	0.024
-496.595	130.164	0.181	0.236
-495.581	-68.050	-0.152	0.060
-494.566	800.000	0.084	-0.262
-493.551	236.012	-0.041	-0.068
-492.537	-200.000	-0.003	-0.237
-491.522	-167.017	0.190	-0.008
-490.508	-200.000	0.006	-0.140
-489.493	-22.363	-0.137	-0.085
-488.478	-68.375	-0.240	-0.095
-487.464	576.324	0.034	-0.084
-486.449	-18.750	-0.146	0.093
-485.435	-28.852	0.185	0.108
-484.420	-105.078	-0.257	0.060
-483.405	-200.000	-0.024	0.168
-482.391	40.936	0.204	0.187
-481.376	25.081	-0.070	0.059
-480.362	-200.000	-0.004	-0.355
-479.347	-28.734	0.203	-0.119
-478.332	228.621	-0.033	-0.055
-477.318	11.038	0.125	0.097
-476.303	-200.000	0.034	0.261
-475.289	129.420	-0.154	-0.200
-474.274	-96.450	-0.197	0.053
-473.259	120.651	0.095	0.120
-472.245	-7.496	-0.315	-0.216
-471.230	-95.729	0.107	0.029
-470.216	73.722	-0.095	0.101
-469.201	-67.330	-0.141	-0.057
-468.186	527.145	-0.118	-0.283
-467.172	800.000	0.065	0.216
-466.157	-77.070	-0.278	0.099
-465.143	-18.152	-0.275	0.175
-464.128	-145.904	-0.130	-0.012
-463.113	-200.000	0.056	-0.285
-462.099	-26.290	0.164	-0.098
-461.084	49.572	0.151	-0.145
-460.070	-97.962	-0.292	-0.077
-459.055	800.000	-0.038	0.143
-458.040	-200.000	0.010	0.048
-457.026	91.046	-0.233	0.265
-456.011	135.564	-0.240	0.317
-454.997	-200.000	0.041	-0.339
-453.982	575.195	0.150	0.371
-452.968	-63.319	0.311	0.130
-451.953	-135.699	-0.213	0.026
-450.938	-116.513	-0.064	0.012
-449.924	25.229	-0.072	-0.061
-448.909	-143.773	-0.341	0.033
-447.895	37.151	-0.202	0.181
-446.880	-200.000	0.046	0.258
-445.865	286.653	-0.222	-0.408
-444.851	263.214	0.187	0.329
-443.836	231.390	-0.042	0.070
-442.822	800.000	0.043	-0.130
-441.807	800.000	0.050	0.186
-440.792	256.110	0.087	-0.152
-439.778	-200.000	-0.022	0.123
-438.763	-200.000	-0.204	0.000
-437.749	141.000	-0.116	0.155
-436.734	-94.149	-0.063	-0.018
-435.719	-82.592	0.083	-0.027
-434.705	-35.500	0.225	0.124
-433.690	595.027	0.119	0.298
-432.676	-164.485	0.169	0.008
-431.661	-13.121	-0.123	-0.081
-430.646	-38.190	0.238	0.128
-429.632	800.000	-0.067	0.225
-428.617	776.932	-0.054	-0.150
-427.603	-200.000	0.001	0.073
-426.588	385.248	0.042	-0.087
-425.573	-4.361	0.187	-0.131
-424.559	-129.035	-0.130	0.018
-423.544	-115.587	0.234	-0.045
-422.530	-49.521	-0.145	-0.070
-421.515	646.943	0.014	-0.035
-420.500	-38.092	0.207	-0.112
-419.486	213.868	0.046	-0.074
-418.471	-12.174	0.201	0.133
-417.457	800.000	-0.110	0.320
-416.442	-70.056	0.104	-0.040
-415.428	-110.008	0.233	-0.049
-414.413	-182.736	-0.337	0.006
-413.398	-200.000	-0.010	0.057
-412.384	-61.980	-0.050	0.021
-411.369	19.658	0.167	0.136
-410.355	-19.774	0.280	-0.176
-409.340	-21.238	-0.135	0.084
-408.325	-108.087	0.111	0.024
-407.311	32.567	-0.216	0.189
-406.296	354.695	-0.062	0.124
-405.282	-78.222	-0.025	-0.009
-404.267	14.509	-0.302	0.239
-403.252	-135.001	0.252	-0.031
-402.238	-25.570	-0.167	0.100
-401.223	-111.441	0.113	-0.023
-400.209	309.603	-0.194	-0.367
-399.194	-200.000	-0.019	-0.190
-398.179	-46.252	0.104	-0.052
-397.165	31.918	-0.273	-0.239
-396.150	154.368	0.055	0.077
-395.136	800.000	0.030	0.119
-394.121	-51.139	0.441	-0.209
-393.106	-22.524	0.162	0.099
-392.092	-200.000	-0.084	0.433
-391.077	127.211	-0.204	-0.262
-390.063	449.320	-0.032	-0.072
-389.048	-88.605	0.052	-0.016
-388.033	-75.668	0.261	-0.094
-387.019	-25.361	-0.302	-0.181
-386.004	6.774	-0.318	0.240
-384.990	-25.357	-0.202	-0.121
-383.975	-20.622	-0.273	0.170
-382.960	-45.367	-0.046	-0.023
-381.946	-83.408	-0.201	-0.065
-380.931	800.000	0.109	-0.345
-379.917	292.479	0.096	0.178
-378.902	-122.905	0.145	0.024
-377.888	-26.542	-0.268	0.159
-376.873	192.620	0.120	-0.184
-375.858	-60.764	-0.265	0.114
-374.844	-200.000	0.002	0.216
-373.829	728.588	-0.057	0.155
-372.815	-123.298	0.062	-0.010
-371.800	82.880	0.425	0.467
-370.785	698.328	-0.075	-0.200
-369.771	-200.000	-0.005	0.181
-368.756	360.059	-0.005	0.011
-367.742	800.000	-0.072	-0.317
-366.727	-200.000	0.023	0.201
-365.712	-200.000	0.030	0.165
-364.698	-25.704	-0.281	-0.168
-363.683	527.589	-0.127	0.304
-362.669	-74.674	0.328	0.119
-361.654	-110.755	-0.133	0.028
-360.639	-184.949	-0.158	-0.003
-359.625	71.685	-0.208	-0.218
-358.610	-200.000	-0.009	0.294
-357.596	-200.000	-0.007	-0.253
-356.581	800.000	0.112	-0.407
-355.566	800.000	0.132	-0.393
-354.552	-131.541	0.198	-0.026
-353.537	-19.115	-0.223	0.140
-352.523	108.092	0.016	0.020
-351.508	-38.414	-0.108	0.058
-350.493	-64.511	0.307	0.126
-349.479	622.930	-0.024	-0.061
-348.464	-200.000	-0.034	-0.255
-347.450	-15.041	-0.206	-0.133
-346.435	393.783	0.162	0.340
-345.420	-54.101	-0.171	0.079
-344.406	-200.000	0.072	0.391
-343.391	723.077	0.134	0.361
-342.377	800.000	-0.058	-0.189
-341.362	-61.370	0.375	0.160
-340.348	800.000	0.063	0.232
-339.333	118.034	-0.165	-0.205
-338.318	-148.956	0.298	-0.024
-337.304	-96.976	-0.363	0.096
-336.289	83.122	-0.310	0.341
-335.275	216.415	-0.121	-0.195
-334.260	-48.493	0.101	0.049
-333.245	391.565	0.108	0.227
-332.231	10.912	-0.153	0.118
-331.216	-200.000	0.032	0.223
-330.202	30.927	-0.155	0.135
-329.187	-81.041	-0.102	-0.034
-328.172	-89.417	0.292	-0.087
-327.158	199.482	-0.082	0.127
-326.143	800.000	-0.035	-0.126
-325.129	-72.921	-0.154	-0.057
-324.114	53.860	-0.170	-0.165
-323.099	295.090	0.101	-0.187
-322.085	-14.030	0.157	-0.102
-321.070	-200.000	-0.007	-0.216
-320.056	-139.131	0.181	0.020
-319.041	123.978	-0.088	-0.112
-318.026	-200.000	-0.016	-0.190
-317.012	65.764	0.157	0.161
-315.997	-18.698	0.125	-0.079
-314.983	2.237	0.202	-0.147
-313.968	-200.000	-0.030	0.178
-312.953	-28.921	-0.127	0.074
-311.939	145.400	-0.092	-0.124
-310.924	548.171	0.119	0.287
-309.910	-9.617	0.138	0.093
-308.895	-130.243	0.239	-0.033
-307.880	660.312	-0.083	-0.215
-306.866	34.565	0.177	-0.156
-305.851	798.467	-0.037	0.103
-304.837	70.220	-0.137	0.143
-303.822	237.497	0.059	0.099
-302.807	-102.849	-0.139	-0.033
-301.793	-200.000	-0.025	-0.159
-300.778	67.377	-0.222	-0.229
-299.764	-200.000	-0.025	-0.112
-298.749	65.409	-0.090	-0.092
-297.735	277.972	-0.078	0.140
-296.720	-53.217	0.196	-0.091
-295.705	229.262	0.073	-0.121
-294.691	74.019	-0.196	-0.208
-293.676	-200.000	-0.016	0.172
-292.662	-95.840	0.305	-0.082
-291.647	-150.898	0.186	0.014
-290.632	93.776	-0.040	0.045
-289.618	-97.400	-0.110	-0.029
-288.603	47.844	-0.099	0.093
-287.589	119.678	0.181	-0.226
-286.574	299.894	0.153	-0.285
-285.559	391.671	0.126	0.264
-284.545	102.213	-0.133	0.157
-283.530	-138.127	0.098	0.011
-282.516	0.131	0.112	0.080
-281.501	-50.158	-0.292	0.139
-280.486	385.031	0.038	0.079
-279.472	698.118	-0.134	0.355
-278.457	206.692	-0.106	-0.166
-277.443	-24.928	0.112	-0.067
-276.428	-121.845	0.096	-0.016
-275.413	-4.321	0.273	-0.190
-274.399	800.000	-0.038	-0.136
-273.384	-77.552	0.234	-0.082
-272.370	51.117	-0.031	-0.029
-271.355	800.000	0.121	-0.357
-270.340	130.989	0.115	-0.148
-269.326	-50.623	0.212	-0.101
-268.311	-99.147	0.259	0.066
-267.297	-134.974	-0.123	-0.015
-266.282	-16.258	0.103	0.066
-265.267	120.560	0.058	-0.073
-264.253	-57.862	-0.073	-0.032
-263.238	-56.174	0.175	0.079
-262.224	-178.093	0.390	0.009
-261.209	437.028	-0.042	0.093
-260.195	115.471	-0.138	-0.170
-259.180	-50.110	-0.462	0.221
-258.165	12.960	-0.204	-0.159
-257.151	2.366	0.077	-0.056
-256.136	800.000	0.085	-0.362
-255.122	-39.619	-0.304	-0.161
-254.107	-46.164	-0.276	-0.137
-253.092	-113.920	-0.311	0.061
-252.078	-200.000	0.013	-0.073
-251.063	-200.000	-0.057	-0.435
-250.049	800.000	-0.054	0.154
-249.034	800.000	0.061	0.171
-248.019	-43.762	0.379	-0.192
-247.005	-65.426	-0.157	-0.064
-245.990	-90.023	-0.219	-0.064
-244.976	215.720	0.030	0.048
-243.961	346.117	0.096	0.190
-242.946	476.256	0.044	0.100
-241.932	-129.605	0.275	0.038
-240.917	-106.765	-0.071	-0.016
-239.903	135.703	-0.022	0.028
-238.888	-104.883	-0.239	-0.055
-237.873	-104.875	0.449	0.104
-236.859	174.575	0.076	0.110
-235.844	-97.633	0.459	-0.120
-234.830	-200.000	0.007	-0.187
-233.815	800.000	-0.030	-0.105
-232.800	-32.886	-0.345	-0.193
-231.786	800.000	-0.041	-0.116
-230.771	-132.104	-0.110	0.014
-229.757	-66.024	0.392	0.158
-228.742	200.227	-0.158	0.245
-227.727	-90.562	-0.506	-0.147
-226.713	59.452	0.194	0.193
-225.698	-59.008	0.187	0.081
-224.684	620.494	0.009	-0.023
-223.669	62.563	0.065	-0.066
-222.655	-200.000	0.076	0.383
-221.640	171.331	0.128	0.184
-220.625	190.436	0.098	0.149
-219.611	134.371	0.154	-0.201
-218.596	178.889	0.197	-0.290
-217.582	52.767	0.076	-0.073
-216.567	114.705	0.207	-0.253
-215.552	-98.919	-0.275	-0.070
-214.538	-64.013	0.035	0.015
-213.523	380.268	-0.054	-0.111
-212.509	193.063	0.089	0.136
-211.494	246.475	0.157	0.266
-210.479	2.566	0.302	-0.220
-209.465	-2.593	0.092	0.065
-208.450	326.063	-0.048	0.092
-207.436	-73.489	-0.102	0.038
-206.421	800.000	0.014	0.059
-205.406	-45.038	-0.372	0.186
-204.392	464.841	0.064	-0.143
-203.377	118.892	0.160	-0.199
-202.363	71.982	0.358	0.374
-201.348	75.617	-0.118	0.126
-200.333	-31.204	-0.248	0.140
-199.319	20.953	-0.039	-0.032
-198.304	-54.766	0.193	0.088
-197.290	-88.341	-0.075	-0.022
-196.275	702.330	0.128	-0.338
-195.260	245.393	-0.136	0.230
-194.246	274.414	-0.223	0.396
-193.231	-71.492	0.357	-0.134
-192.217	200.112	-0.057	-0.088
-191.202	-33.359	-0.174	0.096
-190.187	-200.000	-0.012	0.113
-189.173	-130.266	-0.159	-0.022
-188.158	155.541	0.140	-0.194
-187.144	-37.428	0.185	0.099
-186.129	-200.000	-0.050	-0.329
-185.114	-200.000	0.021	0.179
-184.100	47.649	0.236	0.221
-183.085	350.091	-0.050	0.099
-182.071	-200.000	0.088	-0.455
-181.056	-7.888	0.403	0.274
-180.042	-37.800	0.158	0.084
-179.027	-135.310	-0.339	0.041
-178.012	749.529	-0.083	-0.224
-176.998	-113.761	0.301	0.059
-175.983	131.650	0.175	0.226
-174.969	-56.727	-0.401	-0.178
-173.954	-200.000	0.016	-0.123
-172.939	199.011	-0.136	0.209
-171.925	-28.067	-0.096	0.056
-170.910	-115.202	-0.134	0.025
-169.896	-21.479	0.065	0.040
-168.881	18.137	0.027	0.021
-167.866	-173.140	0.087	-0.003
-166.852	-90.041	0.100	-0.029
-165.837	11.445	-0.123	0.094
-164.823	-91.246	0.283	-0.081
-163.808	88.090	0.081	0.091
-162.793	158.109	0.079	0.111
-161.779	-6.864	0.057	0.039
-160.764	56.272	0.228	0.222
-159.750	-40.234	0.186	0.097
-158.735	800.000	-0.073	0.301
-157.720	-51.154	-0.087	-0.041
-156.706	66.121	-0.166	-0.169
-155.691	800.000	0.052	-0.167
-154.677	139.031	-0.108	-0.143
-153.662	62.790	0.058	0.058
-152.647	800.000	0.092	-0.324
-151.633	125.260	-0.080	-0.101
-150.618	-10.118	0.091	0.060
-149.604	-83.488	0.252	-0.081
-148.589	-119.507	0.165	-0.029
-147.574	-66.046	-0.192	0.077
-146.560	-200.000	0.008	0.260
-145.545	107.350	-0.127	-0.152
-144.531	800.000	0.092	-0.277
-143.516	130.967	0.056	0.072
-142.502	5.018	0.087	-0.064
-141.487	-134.976	0.316	0.038
-140.472	-200.000	-0.166	-0.001
-139.458	352.860	-0.183	0.364
-138.443	129.439	-0.091	-0.116
-137.429	525.356	-0.193	-0.456
-136.414	800.000	-0.064	-0.185
-135.399	147.638	0.190	-0.257
-134.385	-28.909	0.150	0.086
-133.370	242.278	-0.164	-0.276
-132.356	231.203	0.149	0.245
-131.341	-200.000	-0.000	0.025
-130.326	800.000	-0.059	0.227
-129.312	-29.510	0.015	-0.008
-128.297	-55.011	0.125	0.056
-127.283	-82.835	0.118	0.038
-126.268	697.525	-0.077	-0.202
-125.253	-200.000	-0.056	-0.265
-124.239	-65.010	-0.071	-0.029
-123.224	-21.813	0.232	0.142
-122.210	172.874	0.241	-0.348
-121.195	-200.000	-0.022	0.131
-120.180	-24.672	0.268	-0.160
