DTS Sentinel unit serial number:	SN413079Multiplexer serial number:	ORYXHardware model number:	OX4-SRSoftware version number:	ORYX F/W v4.00 Oryx Data Collector v3.7.2.0data status	okinstallation	princeton_trtdifferential loss correction	single-endedforward channel	channel 2reverse channel	N/Adate	2019/09/12time	22:47:35forward acquisition time	60.00reverse acquisition time	0.00gamma	496.2192k internal	0.2331k external	0.2331temperature offset calibration	1.0178default loss term (dB/km)	0.3790temperature slope calibration	1.0000multiplexer offset coefficient	1.0000multiplexer slope coefficient	1.0000fibre end	0.00T internal ref (°C)	29.48T ext. ref 1 (°C)	3.74T ext. ref 2 (°C)	24.08length (m)	temperature (°C)	Stokes	anti-Stokes-747.200	-118.036	0.321	0.058
-746.185	-73.233	-0.176	-0.065
-745.171	-97.136	0.241	0.063
-744.156	-101.804	-0.076	0.019
-743.142	-200.000	0.028	-0.131
-742.127	800.000	0.041	0.178
-741.112	-50.831	-0.161	0.076
-740.098	248.536	0.119	-0.202
-739.083	-200.000	0.002	-0.034
-738.069	-30.254	0.142	0.081
-737.054	238.601	-0.171	0.286
-736.039	261.815	-0.067	0.117
-735.025	251.548	0.201	0.343
-734.010	-124.317	0.188	0.030
-732.996	-48.853	-0.259	-0.125
-731.981	-13.898	0.190	0.124
-730.966	800.000	-0.051	0.178
-729.952	800.000	-0.085	0.257
-728.937	299.039	0.053	-0.097
-727.923	-135.553	0.291	-0.035
-726.908	-25.364	-0.142	-0.084
-725.894	-90.783	-0.109	-0.032
-724.879	760.999	0.044	0.120
-723.864	800.000	0.091	0.399
-722.850	234.990	0.136	-0.226
-721.835	-66.053	-0.224	-0.090
-720.821	86.838	-0.254	-0.282
-719.806	-48.290	-0.099	0.048
-718.791	194.444	-0.239	-0.365
-717.777	800.000	-0.074	-0.294
-716.762	-200.000	0.003	-0.238
-715.748	604.614	-0.061	0.153
-714.733	-191.588	-0.162	-0.002
-713.718	-200.000	-0.028	0.213
-712.704	-11.710	-0.178	0.118
-711.689	-59.525	-0.117	-0.050
-710.675	6.037	-0.141	0.105
-709.660	-117.380	-0.199	0.036
-708.645	-200.000	-0.029	0.312
-707.631	207.695	-0.035	0.055
-706.616	467.997	-0.116	0.262
-705.602	-200.000	-0.055	0.432
-704.587	-96.523	-0.235	0.062
-703.572	279.303	0.070	-0.126
-702.558	56.916	-0.096	-0.094
-701.543	800.000	-0.021	0.063
-700.529	138.888	0.173	-0.228
-699.514	-37.478	0.281	-0.151
-698.499	17.852	-0.152	-0.122
-697.485	-156.363	0.201	0.013
-696.470	-64.769	0.058	-0.023
-695.456	-200.000	-0.024	0.202
-694.441	-86.471	0.086	-0.027
-693.426	-4.849	-0.080	-0.055
-692.412	62.923	-0.098	0.098
-691.397	800.000	0.124	0.359
-690.383	-200.000	0.025	-0.113
-689.368	-49.880	-0.154	0.073
-688.354	-200.000	-0.027	-0.236
-687.339	-200.000	0.480	0.000
-686.324	765.818	-0.091	-0.247
-685.310	-10.511	-0.283	-0.188
-684.295	19.545	0.301	-0.243
-683.281	671.546	0.091	-0.236
-682.266	-3.770	0.184	0.128
-681.251	-49.799	-0.049	0.024
-680.237	277.379	0.092	-0.164
-679.222	-1.626	0.097	-0.069
-678.208	278.080	0.072	0.128
-677.193	800.000	0.054	-0.170
-676.178	74.101	-0.212	0.223
-675.164	482.401	0.076	-0.173
-674.149	-200.000	0.012	-0.246
-673.135	-66.496	-0.051	0.020
-672.120	-137.502	0.364	-0.041
-671.105	371.346	-0.070	0.142
-670.091	111.610	-0.087	-0.105
-669.076	-90.154	-0.080	-0.023
-668.062	717.159	0.104	-0.278
-667.047	-80.077	-0.048	-0.016
-666.032	230.109	-0.023	-0.037
-665.018	46.858	0.161	-0.150
-664.003	-200.000	0.010	-0.071
-662.989	-154.865	0.173	0.011
-661.974	-41.906	0.304	-0.156
-660.959	-162.962	-0.204	-0.010
-659.945	83.817	-0.104	0.114
-658.930	148.203	0.054	0.073
-657.916	483.778	0.077	0.176
-656.901	64.819	0.095	0.097
-655.886	9.203	-0.086	0.065
-654.872	39.855	-0.255	-0.230
-653.857	-200.000	0.025	0.222
-652.843	-200.000	0.008	-0.127
-651.828	-72.671	0.212	0.078
-650.814	28.952	0.166	0.141
-649.799	-139.211	-0.231	0.025
-648.784	-115.277	0.223	0.042
-647.770	-200.000	0.021	-0.320
-646.755	-200.000	0.014	0.297
-645.741	145.274	-0.228	-0.306
-644.726	-75.566	-0.445	0.159
-643.711	327.322	0.064	0.123
-642.697	137.465	0.200	0.262
-641.682	168.086	0.224	-0.320
-640.668	800.000	0.087	0.241
-639.653	800.000	-0.135	0.384
-638.638	-122.762	0.190	0.031
-637.624	449.920	-0.095	-0.210
-636.609	-200.000	-0.004	-0.431
-635.595	-111.406	0.123	-0.025
-634.580	178.170	0.040	-0.058
-633.565	85.727	0.111	-0.122
-632.551	0.832	0.045	0.032
-631.536	800.000	0.065	-0.282
-630.522	-33.361	-0.040	0.022
-629.507	-65.236	0.093	-0.038
-628.492	293.730	-0.091	-0.167
-627.478	88.118	-0.171	-0.190
-626.463	-108.289	0.106	0.023
-625.449	435.706	0.220	-0.480
-624.434	-200.000	0.019	-0.381
-623.419	-200.000	0.009	-0.141
-622.405	-102.073	-0.248	0.060
-621.390	50.513	0.259	0.245
-620.376	7.595	-0.021	-0.016
-619.361	87.881	-0.170	-0.189
-618.346	707.114	0.023	-0.060
-617.332	-42.470	-0.137	0.070
-616.317	-51.871	0.220	0.102
-615.303	800.000	-0.040	-0.174
-614.288	-112.165	-0.129	0.026
-613.273	-56.521	-0.060	-0.027
-612.259	81.170	0.294	0.318
-611.244	-83.013	0.357	-0.115
-610.230	-7.410	0.200	-0.135
-609.215	164.087	0.049	-0.070
-608.201	64.946	0.094	0.095
-607.186	-200.000	-0.025	-0.164
-606.171	-200.000	-0.031	-0.211
-605.157	-66.266	-0.119	-0.048
-604.142	413.691	0.090	0.192
-603.128	71.964	-0.127	-0.133
-602.113	-46.274	0.245	0.121
-601.098	-40.444	-0.095	-0.049
-600.084	-48.933	0.208	-0.100
-599.069	-200.000	0.021	0.425
-598.055	-200.000	0.004	0.298
-597.040	-200.000	0.025	0.480
-596.025	89.702	0.193	0.215
-595.011	-47.496	-0.240	-0.117
-593.996	-70.129	0.217	0.083
-592.982	-7.527	-0.413	-0.279
-591.967	132.494	0.080	-0.103
-590.952	-99.783	0.219	-0.055
-589.938	26.022	-0.091	-0.076
-588.923	167.078	-0.122	0.173
-587.909	-200.000	-0.001	0.025
-586.894	-97.586	0.073	0.019
-585.879	-30.972	-0.222	0.125
-584.865	-138.155	0.257	0.028
-583.850	-36.582	-0.373	0.201
-582.836	66.909	-0.059	-0.060
-581.821	544.187	0.074	0.177
-580.806	266.233	-0.077	0.135
-579.792	-95.245	-0.286	-0.077
-578.777	-75.593	0.181	-0.064
-577.763	56.961	0.099	0.097
-576.748	-200.000	-0.034	-0.200
-575.733	-158.542	0.303	-0.017
-574.719	-136.887	0.096	-0.011
-573.704	2.902	0.083	0.061
-572.690	-16.096	0.173	0.110
-571.675	-44.528	-0.153	0.077
-570.661	-98.588	-0.288	-0.073
-569.646	-162.030	-0.256	-0.013
-568.631	-163.727	-0.202	-0.009
-567.617	34.304	0.084	0.073
-566.602	214.643	0.100	0.158
-565.588	-140.671	0.224	-0.023
-564.573	-93.922	0.151	0.042
-563.558	-200.000	-0.010	0.213
-562.544	567.265	-0.131	0.318
-561.529	245.001	-0.085	0.143
-560.515	-34.228	0.283	-0.155
-559.500	-52.952	-0.194	0.089
-558.485	-43.961	0.458	0.230
-557.471	-174.567	-0.462	-0.013
-556.456	-200.000	0.016	0.106
-555.442	-140.124	0.246	-0.026
-554.427	-23.744	0.491	-0.294
-553.412	-146.479	0.123	0.011
-552.398	-11.242	0.319	0.210
-551.383	-81.488	-0.470	-0.154
-550.369	-200.000	-0.021	-0.396
-549.354	-74.303	-0.151	-0.055
-548.339	49.782	-0.047	0.044
-547.325	-167.460	-0.546	0.022
-546.310	-200.000	0.014	-0.376
-545.296	19.145	-0.049	-0.039
-544.281	-200.000	0.102	-0.494
-543.266	145.646	0.015	-0.020
-542.252	-200.000	0.014	-0.103
-541.237	-80.890	0.150	-0.050
-540.223	59.202	-0.074	0.073
-539.208	118.890	-0.135	-0.166
-538.193	-86.113	-0.244	-0.075
-537.179	125.831	0.084	0.106
-536.164	-57.566	0.188	0.082
-535.150	218.676	-0.074	-0.119
-534.135	733.607	0.066	-0.176
-533.121	-11.378	0.248	-0.163
-532.106	712.185	0.049	-0.129
-531.091	327.480	0.178	0.342
-530.077	-43.897	-0.237	-0.119
-529.062	-45.043	-0.116	0.057
-528.048	387.732	-0.060	0.124
-527.033	-93.824	0.045	-0.012
-526.018	461.772	-0.079	0.177
-525.004	800.000	-0.065	-0.190
-523.989	739.425	-0.101	-0.270
-522.975	39.463	0.207	-0.185
-521.960	-31.241	-0.095	0.053
-520.945	572.175	0.020	-0.049
-519.931	795.082	0.051	0.140
-518.916	-138.854	-0.116	-0.013
-517.902	800.000	0.053	0.170
-516.887	618.892	-0.093	0.234
-515.872	24.362	-0.260	-0.214
-514.858	321.941	0.110	0.209
-513.843	-7.453	-0.145	-0.098
-512.829	473.035	0.143	-0.321
-511.814	-31.480	-0.154	-0.087
-510.799	-200.000	0.008	0.127
-509.785	292.623	0.149	-0.271
-508.770	110.402	0.236	0.283
-507.756	-18.962	0.397	0.246
-506.741	800.000	-0.060	-0.262
-505.726	-200.000	0.016	0.153
-504.712	84.064	-0.241	-0.262
-503.697	800.000	0.076	-0.270
-502.683	-185.213	-0.356	0.006
-501.668	-154.510	-0.507	-0.034
-500.653	-200.000	0.000	-0.085
-499.639	-143.393	0.155	-0.015
-498.624	-24.620	0.171	0.102
-497.610	235.650	0.108	0.177
-496.595	-200.000	0.047	0.450
-495.581	-137.049	-0.221	-0.025
-494.566	-46.413	0.154	0.075
-493.551	238.828	0.023	-0.038
-492.537	-192.185	-0.232	-0.002
-491.522	12.321	0.288	-0.221
-490.508	-200.000	-0.014	0.333
-489.493	-135.416	0.347	0.041
-488.478	-11.181	0.065	-0.042
-487.464	-200.000	0.000	0.048
-486.449	-200.000	-0.022	-0.125
-485.435	800.000	0.122	0.344
-484.420	-74.810	0.206	-0.074
-483.405	-56.046	-0.248	0.110
-482.391	513.864	0.062	-0.143
-481.376	-150.412	0.258	0.020
-480.362	-17.680	-0.148	-0.092
-479.347	-160.598	-0.165	0.009
-478.332	-200.000	0.008	0.093
-477.318	-155.988	0.073	0.005
-476.303	100.404	0.153	-0.177
-475.289	195.467	0.152	0.229
-474.274	-62.628	0.273	-0.113
-473.259	-94.821	0.094	-0.025
-472.245	800.000	0.078	0.256
-471.230	-69.409	0.183	0.070
-470.216	229.492	-0.136	-0.221
-469.201	509.481	-0.047	-0.109
-468.186	107.252	-0.044	-0.052
-467.172	-99.134	0.128	-0.032
-466.157	-105.893	-0.086	0.019
-465.143	800.000	0.038	-0.162
-464.128	-41.361	0.084	-0.043
-463.113	-75.413	-0.222	0.079
-462.099	8.405	0.105	-0.078
-461.084	-200.000	0.014	0.091
-460.070	76.484	-0.277	-0.292
-459.055	22.433	0.075	-0.061
-458.040	-200.000	0.013	0.123
-457.026	440.541	0.065	0.142
-456.011	134.862	0.147	0.190
-454.997	-6.295	-0.019	0.013
-453.982	-121.404	-0.157	-0.026
-452.968	189.472	-0.145	-0.216
-451.953	-200.000	-0.015	-0.089
-450.938	800.000	-0.029	-0.103
-449.924	800.000	0.037	0.113
-448.909	676.319	-0.064	-0.165
-447.895	-5.916	0.277	-0.188
-446.880	-136.415	-0.145	-0.017
-445.865	37.618	0.245	-0.216
-444.851	-123.906	-0.165	-0.026
-443.836	-27.449	0.159	0.092
-442.822	-200.000	-0.026	0.194
-441.807	-183.895	-0.116	0.002
-440.792	315.345	-0.040	-0.074
-439.778	2.297	0.059	-0.043
-438.763	-111.163	-0.342	0.070
-437.749	-178.490	0.200	0.005
-436.734	800.000	-0.077	0.277
-435.719	-200.000	-0.045	-0.226
-434.705	-68.957	-0.249	0.096
-433.690	800.000	0.043	0.143
-432.676	800.000	-0.014	-0.053
-431.661	-200.000	0.002	-0.025
-430.646	-126.958	-0.211	-0.031
-429.632	176.438	0.052	0.075
-428.617	54.079	0.263	0.252
-427.603	36.907	-0.219	-0.192
-426.588	79.136	0.050	-0.053
-425.573	800.000	-0.016	-0.055
-424.559	122.226	-0.284	0.352
-423.544	-23.578	-0.183	0.109
-422.530	800.000	0.056	-0.165
-421.515	121.177	0.052	0.064
-420.500	151.107	0.131	0.177
-419.486	-200.000	-0.006	0.204
-418.471	212.712	-0.133	-0.208
-417.457	-200.000	-0.006	0.031
-416.442	-34.853	-0.084	-0.046
-415.428	50.251	-0.281	-0.264
-414.413	-118.259	0.102	0.018
-413.398	-47.468	-0.345	-0.167
-412.384	-48.670	0.144	0.069
-411.369	-200.000	0.025	-0.208
-410.355	-200.000	-0.075	-0.335
-409.340	16.356	-0.087	-0.068
-408.325	800.000	-0.023	0.096
-407.311	717.677	0.123	0.323
-406.296	-120.561	0.253	-0.043
-405.282	-63.561	-0.154	-0.063
-404.267	-147.737	0.203	0.017
-403.252	298.744	0.106	-0.194
-402.238	-132.341	0.045	0.006
-401.223	-32.645	-0.207	-0.114
-400.209	-200.000	0.014	-0.152
-399.194	278.245	-0.073	-0.130
-398.179	111.323	0.112	0.134
-397.165	143.804	0.124	-0.164
-396.150	31.165	-0.198	-0.168
-395.136	800.000	0.057	0.168
-394.121	235.283	0.093	0.153
-393.106	541.362	-0.110	-0.260
-392.092	18.420	-0.036	0.028
-391.077	74.232	-0.092	-0.096
-390.063	8.950	0.062	0.046
-389.048	-13.870	-0.298	0.191
-388.033	-200.000	0.009	-0.056
-387.019	475.535	-0.088	0.197
-386.004	-161.985	0.095	-0.005
-384.990	-1.449	-0.162	0.113
-383.975	-27.221	0.194	-0.112
-382.960	-200.000	0.383	-0.000
-381.946	-200.000	-0.014	0.067
-380.931	-104.570	-0.119	0.027
-379.917	304.842	0.080	0.148
-378.902	-200.000	-0.004	0.054
-377.888	79.505	0.085	-0.090
-376.873	-102.524	-0.229	-0.054
-375.858	-200.000	0.022	-0.271
-374.844	-138.771	0.431	-0.047
-373.829	-200.000	-0.012	0.378
-372.815	-21.256	-0.062	0.038
-371.800	83.832	-0.277	0.299
-370.785	93.823	-0.089	0.100
-369.771	-0.833	0.267	0.188
-368.756	168.235	-0.104	-0.147
-367.742	-200.000	-0.062	-0.317
-366.727	-39.392	0.268	-0.140
-365.712	800.000	0.039	-0.163
-364.698	-44.221	-0.183	-0.091
-363.683	-142.492	-0.110	0.011
-362.669	-22.896	-0.203	-0.121
-361.654	415.399	-0.018	0.038
-360.639	-11.919	-0.200	-0.130
-359.625	-56.581	0.216	0.095
-358.610	-8.120	0.214	-0.143
-357.596	181.821	0.049	0.071
-356.581	-52.583	-0.266	0.122
-355.566	-55.861	0.295	0.130
-354.552	-59.386	-0.081	0.034
-353.537	246.502	-0.032	0.053
-352.523	800.000	-0.070	0.265
-351.508	498.371	-0.016	-0.037
-350.493	-10.931	0.013	0.009
-349.479	-200.000	-0.010	-0.261
-348.464	534.081	0.090	-0.211
-347.450	800.000	0.114	-0.329
-346.435	-91.052	0.159	0.045
-345.420	-200.000	-0.008	-0.153
-344.406	121.042	0.108	0.133
-343.391	-200.000	-0.041	0.190
-342.377	533.571	-0.130	-0.305
-341.362	-128.271	-0.125	0.018
-340.348	92.470	-0.143	-0.160
-339.333	542.608	0.020	-0.047
-338.318	800.000	0.033	-0.143
-337.304	-177.754	0.211	-0.005
-336.289	-141.584	-0.166	0.017
-335.275	403.874	-0.127	0.265
-334.260	-200.000	-0.010	0.314
-333.245	205.639	0.142	0.219
-332.231	3.072	-0.320	-0.230
-331.216	98.352	-0.058	-0.066
-330.202	59.060	0.208	0.202
-329.187	-100.357	0.303	-0.074
-328.172	153.693	-0.293	-0.398
-327.158	-13.275	0.333	0.214
-326.143	-157.287	-0.102	0.006
-325.129	-200.000	0.002	-0.366
-324.114	-200.000	0.017	-0.183
-323.099	-15.453	0.126	0.080
-322.085	277.019	0.057	-0.101
-321.070	529.568	-0.175	0.410
-320.056	618.158	0.139	-0.347
-319.041	-18.095	-0.196	0.121
-318.026	-200.000	-0.059	-0.257
-317.012	5.753	-0.063	0.046
-315.997	800.000	-0.021	0.078
-314.983	800.000	-0.098	0.357
-313.968	26.577	-0.222	-0.184
-312.953	-142.087	0.241	0.024
-311.939	-200.000	0.008	0.042
-310.924	-160.128	-0.168	-0.009
-309.910	-77.095	0.323	0.112
-308.895	50.084	0.039	0.036
-307.880	-200.000	0.002	-0.017
-306.866	-4.271	0.308	0.211
-305.851	233.059	0.197	-0.320
-304.837	139.173	-0.165	-0.215
-303.822	77.092	-0.112	0.118
-302.807	800.000	-0.026	-0.074
-301.793	-19.117	-0.046	-0.028
-300.778	800.000	-0.074	0.216
-299.764	36.114	-0.133	-0.116
-298.749	800.000	-0.031	-0.124
-297.735	800.000	-0.078	-0.261
-296.720	800.000	-0.089	-0.242
-295.705	118.907	0.097	0.118
-294.691	-136.463	-0.310	-0.036
-293.676	-160.874	0.122	-0.006
-292.662	288.868	-0.146	0.262
-291.647	36.749	-0.055	-0.048
-290.632	-200.000	-0.004	-0.168
-289.618	-200.000	-0.046	0.475
-288.603	84.286	0.211	-0.228
-287.589	800.000	0.056	-0.165
-286.574	-200.000	-0.002	0.160
-285.559	285.285	0.161	0.286
-284.545	70.595	0.369	0.378
-283.530	-200.000	0.007	-0.442
-282.516	-200.000	0.068	0.000
-281.501	-128.623	0.277	0.039
-280.486	584.982	0.128	0.311
-279.472	297.853	-0.229	0.415
-278.457	51.452	-0.137	-0.129
-277.443	-169.151	-0.126	0.005
-276.428	-104.414	-0.144	-0.033
-275.413	-138.310	-0.185	0.020
-274.399	-95.792	0.093	-0.024
-273.384	-16.231	0.174	-0.109
-272.370	21.740	-0.067	-0.054
-271.355	800.000	0.036	0.151
-270.340	-200.000	0.007	0.160
-269.326	-162.097	0.577	0.029
-268.311	-20.665	-0.107	-0.065
-267.297	-54.782	0.269	0.120
-266.282	-200.000	-0.002	0.058
-265.267	735.686	0.061	0.161
-264.253	-200.000	-0.069	0.301
-263.238	95.071	-0.233	-0.262
-262.224	546.289	-0.133	-0.314
-261.209	-53.090	-0.009	-0.004
-260.195	-200.000	0.025	0.243
-259.180	48.449	0.073	0.068
-258.165	516.267	-0.202	-0.466
-257.151	-117.796	-0.156	-0.028
-256.136	-67.022	-0.176	0.069
-255.122	43.052	-0.150	0.135
-254.107	800.000	-0.056	0.207
-253.092	-200.000	0.033	0.162
-252.078	-200.000	0.065	-0.308
-251.063	80.587	0.179	-0.190
-250.049	-148.712	0.035	0.003
-249.034	147.608	0.213	-0.283
-248.019	506.692	0.057	0.130
-247.005	85.250	-0.215	0.233
-245.990	743.649	-0.092	0.244
-244.976	71.984	0.088	0.090
-243.961	-200.000	-0.064	0.459
-242.946	800.000	0.065	-0.187
-241.932	-200.000	0.009	-0.446
-240.917	-200.000	-0.056	-0.414
-239.903	-76.343	-0.277	0.096
-238.888	507.504	-0.209	0.479
-237.873	-200.000	0.050	-0.296
-236.859	-134.323	-0.254	-0.031
-235.844	107.558	-0.036	0.042
-234.830	-28.059	0.148	-0.085
-233.815	-120.358	-0.250	-0.042
-232.800	-76.282	0.200	-0.069
-231.786	-119.967	-0.410	0.069
-230.771	-145.591	-0.286	0.025
-229.757	405.772	-0.093	0.194
-228.742	-200.000	-0.022	0.125
-227.727	623.861	0.063	-0.157
-226.713	-57.731	-0.327	0.141
-225.698	-200.000	-0.032	0.418
-224.684	-151.441	-0.224	-0.016
-223.669	800.000	-0.107	-0.332
-222.655	-28.212	-0.520	-0.296
-221.640	-82.553	0.215	0.069
-220.625	-87.175	0.101	-0.030
-219.611	-85.875	0.302	0.092
-218.596	764.625	-0.041	0.109
-217.582	-200.000	0.007	0.122
-216.567	121.791	0.183	0.225
-215.552	22.072	-0.109	0.087
-214.538	-115.220	0.147	0.027
-213.523	-200.000	-0.035	0.313
-212.509	-34.583	-0.088	-0.048
-211.494	800.000	-0.043	-0.119
-210.479	174.740	0.100	-0.143
-209.465	525.467	0.116	0.269
-208.450	-76.290	0.023	-0.008
-207.436	28.871	-0.134	0.112
-206.421	-72.835	0.526	0.191
-205.406	-172.358	0.222	0.007
-204.392	73.319	-0.083	-0.086
-203.377	77.135	0.024	-0.025
-202.363	97.286	-0.081	-0.091
-201.348	-14.544	0.186	-0.118
-200.333	800.000	-0.076	0.238
-199.319	41.058	-0.088	0.078
-198.304	215.080	-0.095	0.148
-197.290	-193.018	-0.051	0.000
-196.275	354.708	0.094	0.183
-195.260	26.387	-0.170	0.140
-194.246	167.232	0.053	0.074
-193.231	536.321	-0.028	-0.064
-192.217	114.642	0.275	0.330
-191.202	-200.000	0.008	0.159
-190.187	-62.153	-0.183	-0.075
-189.173	-200.000	0.009	-0.127
-188.158	-54.576	-0.294	0.131
-187.144	-140.435	-0.389	0.040
-186.129	-14.340	0.271	-0.172
-185.114	26.992	0.233	-0.193
-184.100	-38.450	0.296	0.154
-183.085	96.118	-0.048	0.054
-182.071	123.561	0.180	0.222
-181.056	-21.002	0.119	-0.072
-180.042	551.988	-0.182	0.431
-179.027	-66.256	-0.070	0.027
-178.012	146.917	0.135	0.178
-176.998	-200.000	-0.018	0.093
-175.983	800.000	-0.024	0.077
-174.969	435.336	-0.078	-0.167
-173.954	232.762	0.078	-0.127
-172.939	-143.445	0.293	-0.028
-171.925	34.856	-0.147	0.126
-170.910	117.784	-0.193	0.234
-169.896	49.820	0.101	-0.094
-168.881	800.000	-0.087	-0.262
-167.866	33.787	0.258	-0.221
-166.852	195.496	-0.075	0.112
-165.837	15.691	0.243	0.188
-164.823	-200.000	0.033	0.191
-163.808	27.911	0.114	0.094
-162.793	-140.228	-0.400	-0.041
-161.779	-200.000	-0.013	-0.245
-160.764	-71.281	-0.031	-0.011
-159.750	205.449	-0.182	-0.278
-158.735	-44.794	-0.208	0.102
-157.720	-65.250	0.252	-0.100
-156.706	-108.062	0.261	0.056
-155.691	-51.575	-0.089	0.041
-154.677	-200.000	-0.018	-0.081
-153.662	-77.147	0.215	-0.074
-152.647	-200.000	-0.013	-0.160
-151.633	-56.907	-0.167	-0.072
-150.618	41.362	0.272	-0.242
-149.604	800.000	0.066	-0.270
-148.589	-94.068	-0.085	-0.023
-147.574	-32.052	-0.362	-0.199
-146.560	407.803	0.084	-0.174
-145.545	-200.000	0.010	0.133
-144.531	800.000	0.043	-0.154
-143.516	41.220	0.169	-0.151
-142.502	15.750	0.076	0.059
-141.487	66.153	-0.234	-0.234
-140.472	-136.105	0.069	-0.008
-139.458	49.652	-0.227	0.210
-138.443	162.244	-0.296	-0.408
-137.429	-118.727	0.286	0.050
-136.414	-200.000	-0.337	0.001
-135.399	-86.019	0.423	0.128
-134.385	312.935	-0.188	0.348
-133.370	-60.865	0.458	0.191
-132.356	301.095	0.060	-0.110
-131.341	800.000	-0.191	-0.533
-130.326	29.274	-0.091	-0.076
-129.312	-25.998	0.209	-0.121
-128.297	-161.790	0.148	0.007
-127.283	-69.419	-0.189	0.071
-126.268	799.050	-0.045	-0.122
-125.253	129.188	-0.203	-0.254
-124.239	734.454	-0.036	0.096
-123.224	-4.555	0.147	0.100
-122.210	-109.910	-0.375	-0.077
-121.195	-63.268	0.260	0.105
