DTS Sentinel unit serial number:	SN413079Multiplexer serial number:	ORYXHardware model number:	OX4-SRSoftware version number:	ORYX F/W v4.00 Oryx Data Collector v3.7.2.0data status	okinstallation	princeton_trtdifferential loss correction	single-endedforward channel	channel 2reverse channel	N/Adate	2019/09/16time	00:03:35forward acquisition time	60.00reverse acquisition time	0.00gamma	496.2192k internal	0.2336k external	0.2336temperature offset calibration	0.9959default loss term (dB/km)	0.3790temperature slope calibration	1.0000multiplexer offset coefficient	1.0000multiplexer slope coefficient	1.0000fibre end	0.00T internal ref (°C)	27.81T ext. ref 1 (°C)	9.40T ext. ref 2 (°C)	21.78length (m)	temperature (°C)	Stokes	anti-Stokes-747.200	-188.760	-0.463	0.006
-746.185	-200.000	-0.076	0.417
-745.171	-120.914	0.120	0.020
-744.156	195.163	-0.061	-0.093
-743.142	380.099	-0.052	-0.107
-742.127	90.016	0.213	0.239
-741.112	147.938	-0.248	0.336
-740.098	46.939	0.172	0.161
-739.083	-128.449	-0.201	-0.029
-738.069	-69.709	0.327	-0.125
-737.054	140.328	0.194	-0.257
-736.039	-86.833	-0.314	0.096
-735.025	-118.581	0.360	-0.064
-734.010	-115.319	0.262	-0.050
-732.996	-95.034	-0.193	-0.052
-731.981	-111.304	-0.339	0.069
-730.966	800.000	-0.044	-0.157
-729.952	800.000	0.100	-0.336
-728.937	-121.980	-0.172	-0.028
-727.923	-13.953	0.159	-0.103
-726.908	282.123	0.038	0.068
-725.894	-200.000	-0.007	0.102
-724.879	-128.193	-0.267	0.038
-723.864	-95.597	0.249	0.067
-722.850	-88.294	-0.274	0.082
-721.835	-200.000	0.004	0.091
-720.821	-14.212	0.142	0.092
-719.806	-46.886	0.189	0.093
-718.791	144.285	-0.030	-0.041
-717.777	800.000	0.067	-0.188
-716.762	-118.878	0.200	0.035
-715.748	-55.451	-0.229	0.103
-714.733	800.000	-0.073	-0.217
-713.718	684.802	-0.127	-0.332
-712.704	-121.098	-0.081	-0.014
-711.689	800.000	-0.065	-0.192
-710.675	14.048	-0.294	-0.229
-709.660	-200.000	-0.029	0.152
-708.645	-146.388	-0.245	-0.021
-707.631	800.000	-0.054	-0.208
-706.616	411.352	-0.068	-0.144
-705.602	800.000	0.032	0.089
-704.587	170.648	-0.164	-0.235
-703.572	359.301	-0.108	-0.217
-702.558	130.010	-0.158	0.202
-701.543	-200.000	-0.025	-0.320
-700.529	-97.377	-0.153	0.040
-699.514	249.012	0.166	-0.282
-698.499	114.880	-0.060	-0.073
-697.485	-200.000	0.004	-0.232
-696.470	-200.000	0.011	-0.198
-695.456	36.151	0.186	-0.165
-694.441	800.000	-0.112	-0.329
-693.426	141.959	-0.169	0.225
-692.412	455.677	-0.046	-0.101
-691.397	-101.953	-0.245	0.059
-690.383	-200.000	0.009	-0.368
-689.368	-200.000	0.060	-0.383
-688.354	-23.480	-0.206	0.124
-687.339	-113.223	-0.306	-0.060
-686.324	-47.578	-0.140	0.068
-685.310	-139.292	-0.070	-0.008
-684.295	544.595	0.137	-0.328
-683.281	800.000	-0.114	-0.375
-682.266	-200.000	0.026	0.248
-681.251	141.199	-0.069	-0.091
-680.237	148.299	0.091	0.123
-679.222	-100.219	-0.311	-0.078
-678.208	-116.013	-0.271	0.051
-677.193	46.071	0.172	0.159
-676.178	356.937	0.091	-0.181
-675.164	243.974	0.077	0.129
-674.149	-191.163	-0.207	0.002
-673.135	800.000	0.076	-0.215
-672.120	98.187	0.143	-0.165
-671.105	-152.724	0.390	-0.028
-670.091	534.855	-0.096	-0.228
-669.076	-200.000	-0.027	0.234
-668.062	-156.705	-0.453	-0.028
-667.047	800.000	0.148	-0.472
-666.032	-200.000	0.020	0.307
-665.018	31.666	-0.106	-0.091
-664.003	-120.129	0.156	0.027
-662.989	-200.000	0.014	-0.114
-661.974	64.977	0.156	0.158
-660.959	42.137	-0.259	0.236
-659.945	-11.422	0.281	0.185
-658.930	-200.000	0.008	-0.066
-657.916	-200.000	0.001	-0.023
-656.901	-82.830	-0.260	-0.084
-655.886	539.029	-0.088	0.209
-654.872	14.454	0.148	0.116
-653.857	-6.837	-0.235	0.160
-652.843	-78.054	0.320	0.110
-651.828	-66.849	-0.257	-0.102
-650.814	769.468	0.076	0.207
-649.799	-70.182	0.118	-0.045
-648.784	-200.000	0.012	0.305
-647.770	189.337	-0.056	0.084
-646.755	664.434	-0.115	0.296
-645.741	-200.000	-0.025	-0.423
-644.726	-200.000	-0.070	-0.393
-643.711	-111.057	-0.316	0.065
-642.697	101.300	0.131	-0.152
-641.682	86.467	0.160	0.176
-640.668	-6.761	0.114	0.078
-639.653	-200.000	0.004	-0.248
-638.638	324.478	0.164	0.313
-637.624	800.000	0.031	0.130
-636.609	487.538	0.148	0.337
-635.595	110.002	-0.217	-0.261
-634.580	-179.609	0.267	-0.006
-633.565	-68.756	-0.153	0.059
-632.551	320.442	0.052	-0.098
-631.536	281.165	-0.060	-0.107
-630.522	800.000	0.072	0.244
-629.507	-138.014	0.057	-0.006
-628.492	-148.468	0.270	-0.022
-627.478	-117.075	0.162	-0.029
-626.463	184.128	-0.303	0.448
-625.449	171.847	-0.130	0.186
-624.434	-13.134	0.214	-0.139
-623.419	243.996	0.152	-0.255
-622.405	-165.829	-0.214	-0.009
-621.390	69.324	-0.138	0.142
-620.376	28.170	-0.277	0.234
-619.361	-71.948	-0.134	0.050
-618.346	-63.393	-0.149	-0.061
-617.332	-110.383	0.350	0.073
-616.317	79.123	-0.059	0.063
-615.303	40.698	-0.049	0.044
-614.288	-150.061	0.380	0.030
-613.273	-30.332	-0.259	-0.147
-612.259	347.299	0.070	0.137
-611.244	467.540	0.098	-0.219
-610.230	381.110	0.171	-0.351
-609.215	148.162	0.172	-0.231
-608.201	-200.000	0.000	-0.290
-607.186	-184.235	-0.285	-0.005
-606.171	226.819	-0.126	-0.204
-605.157	-200.000	-0.011	-0.089
-604.142	-200.000	0.018	0.432
-603.128	175.700	-0.380	-0.550
-602.113	-109.819	0.258	-0.054
-601.098	-200.000	-0.001	-0.259
-600.084	-18.940	0.312	-0.194
-599.069	-77.096	-0.103	0.036
-598.055	-10.476	-0.230	0.152
-597.040	358.563	-0.156	0.310
-596.025	-200.000	-0.006	0.374
-595.011	-124.419	-0.167	0.026
-593.996	-40.597	-0.308	0.159
-592.982	31.332	-0.157	0.134
-591.967	-114.158	-0.339	-0.065
-590.952	800.000	0.045	0.129
-589.938	51.894	0.251	-0.238
-588.923	-127.604	-0.225	-0.032
-587.909	82.389	0.143	-0.155
-586.894	800.000	-0.048	0.188
-585.879	-128.722	-0.222	-0.031
-584.865	-200.000	0.020	-0.091
-583.850	-200.000	0.004	0.037
-582.836	154.935	-0.205	-0.281
-581.821	-200.000	0.043	-0.494
-580.806	-74.679	0.272	0.098
-579.792	-52.418	-0.135	-0.062
-578.777	-200.000	-0.007	-0.162
-577.763	273.792	-0.076	0.134
-576.748	11.419	-0.065	0.050
-575.733	-18.334	0.179	-0.112
-574.719	-117.749	-0.274	-0.049
-573.704	800.000	-0.078	0.251
-572.690	111.372	-0.107	0.129
-571.675	-13.685	-0.032	-0.021
-570.661	-105.721	-0.117	0.026
-569.646	326.726	0.082	-0.157
-568.631	697.906	-0.029	0.077
-567.617	-125.485	0.238	-0.036
-566.602	-145.579	-0.124	0.011
-565.588	74.401	-0.127	0.133
-564.573	-139.756	0.113	0.012
-563.558	-200.000	0.052	-0.282
-562.544	39.317	0.277	0.248
-561.529	-130.553	-0.212	0.029
-560.515	123.155	0.213	0.266
-559.500	396.236	-0.026	-0.054
-558.485	-200.000	-0.017	0.207
-557.471	4.177	-0.114	0.083
-556.456	-55.609	-0.140	0.063
-555.442	-68.760	0.142	-0.055
-554.427	-29.504	-0.130	0.074
-553.412	-133.236	0.284	-0.036
-552.398	233.375	0.092	0.151
-551.383	-14.726	0.086	-0.055
-550.369	640.581	0.041	0.104
-549.354	75.269	-0.323	0.340
-548.339	149.450	-0.152	0.205
-547.325	109.446	-0.078	-0.093
-546.310	88.679	0.148	-0.164
-545.296	-200.000	0.023	-0.176
-544.281	42.576	-0.261	0.236
-543.266	110.216	-0.257	0.308
-542.252	-96.789	-0.105	-0.027
-541.237	20.302	0.134	0.108
-540.223	-111.941	-0.122	-0.025
-539.208	138.931	0.235	0.308
-538.193	-200.000	0.007	0.200
-537.179	11.979	0.202	-0.154
-536.164	315.946	-0.102	0.192
-535.150	-200.000	-0.067	0.330
-534.135	393.876	0.140	0.290
-533.121	-76.885	0.278	0.097
-532.106	627.304	0.109	-0.274
-531.091	-125.160	-0.258	0.039
-530.077	230.539	-0.056	-0.092
-529.062	-186.558	0.106	-0.001
-528.048	800.000	0.109	0.326
-527.033	-200.000	0.070	0.498
-526.018	-61.275	-0.263	0.110
-525.004	-41.264	-0.320	-0.164
-523.989	800.000	-0.069	0.261
-522.975	43.681	0.179	0.163
-521.960	-8.054	-0.315	0.212
-520.945	-33.510	-0.027	0.015
-519.931	474.101	-0.089	0.200
-518.916	30.269	-0.093	0.079
-517.902	-160.613	-0.203	0.011
-516.887	-37.233	-0.100	-0.053
-515.872	-200.000	-0.009	-0.156
-514.858	800.000	-0.016	-0.043
-513.843	151.531	-0.077	0.105
-512.829	-56.692	0.104	-0.046
-511.814	417.935	0.014	-0.030
-510.799	9.046	0.111	-0.083
-509.785	-16.336	-0.342	0.216
-508.770	-82.482	0.033	-0.011
-507.756	-200.000	0.036	-0.254
-506.741	3.303	0.113	-0.082
-505.726	166.578	0.031	0.043
-504.712	-33.803	0.141	0.077
-503.697	327.221	0.175	-0.333
-502.683	800.000	-0.024	0.102
-501.668	-165.581	0.277	-0.012
-500.653	-85.144	0.213	0.066
-499.639	800.000	-0.087	-0.290
-498.624	-51.193	-0.281	-0.131
-497.610	376.768	0.090	0.182
-496.595	-81.407	-0.402	-0.132
-495.581	-4.472	0.231	-0.159
-494.566	-38.226	0.282	0.148
-493.551	-17.310	0.129	-0.081
-492.537	16.982	-0.241	-0.189
-491.522	-200.000	0.096	0.498
-490.508	-90.120	0.289	-0.084
-489.493	-136.348	-0.231	0.027
-488.478	-46.085	0.320	-0.157
-487.464	-116.023	-0.322	-0.060
-486.449	-200.000	0.011	-0.206
-485.435	-178.126	0.358	-0.008
-484.420	-200.000	0.022	0.259
-483.405	-83.983	-0.150	-0.047
-482.391	87.632	-0.146	-0.161
-481.376	-161.059	-0.039	-0.002
-480.362	-200.000	0.019	-0.144
-479.347	-68.608	0.441	0.170
-478.332	-200.000	0.012	0.161
-477.318	-163.756	-0.240	0.011
-476.303	-152.114	0.339	0.024
-475.289	-100.417	0.110	-0.027
-474.274	242.754	-0.149	-0.248
-473.259	-200.000	-0.368	-0.002
-472.245	-1.976	-0.262	0.183
-471.230	800.000	-0.142	0.422
-470.216	-200.000	0.008	-0.042
-469.201	399.745	-0.087	-0.182
-468.186	-200.000	0.017	-0.193
-467.172	-200.000	0.039	0.396
-466.157	-200.000	-0.023	-0.141
-465.143	2.305	0.109	0.079
-464.128	-50.622	0.089	0.042
-463.113	42.610	-0.065	0.058
-462.099	-23.974	0.104	-0.062
-461.084	151.022	-0.112	-0.151
-460.070	56.601	0.045	0.043
-459.055	110.743	-0.155	0.185
-458.040	38.022	0.252	0.222
-457.026	-200.000	-0.051	0.225
-456.011	800.000	0.096	0.281
-454.997	69.077	-0.117	0.120
-453.982	-200.000	0.059	0.328
-452.968	-200.000	-0.010	-0.101
-451.953	-143.743	-0.191	-0.018
-450.938	-109.608	-0.117	0.025
-449.924	-70.554	-0.178	0.067
-448.909	-200.000	-0.002	0.177
-447.895	-106.328	-0.385	0.086
-446.880	-30.022	0.180	0.102
-445.865	-33.793	0.177	-0.097
-444.851	-151.489	-0.145	-0.011
-443.836	-200.000	0.016	0.084
-442.822	800.000	0.023	-0.068
-441.807	9.790	0.106	-0.080
-440.792	32.503	-0.166	0.143
-439.778	-82.280	-0.252	-0.082
-438.763	15.537	0.132	0.103
-437.749	62.406	0.212	-0.210
-436.734	144.113	0.389	-0.516
-435.719	-72.686	0.277	-0.101
-434.705	55.258	0.253	-0.243
-433.690	800.000	-0.041	0.137
-432.676	148.377	0.109	-0.146
-431.661	-200.000	-0.016	0.193
-430.646	-149.267	-0.237	0.019
-429.632	112.828	0.155	-0.187
-428.617	-200.000	0.033	-0.295
-427.603	-27.108	0.156	-0.090
-426.588	-65.050	0.269	-0.108
-425.573	15.111	-0.433	0.336
-424.559	-200.000	0.041	-0.320
-423.544	11.033	0.273	-0.207
-422.530	800.000	0.031	-0.108
-421.515	334.689	-0.112	0.215
-420.500	684.961	0.072	-0.187
-419.486	31.778	0.286	-0.244
-418.471	-200.000	0.018	-0.262
-417.457	-200.000	-0.022	-0.206
-416.442	-113.140	0.227	-0.044
-415.428	800.000	0.086	0.355
-414.413	-200.000	0.037	-0.195
-413.398	-17.985	-0.384	-0.239
-412.384	-101.018	-0.116	-0.028
-411.369	-200.000	0.005	0.100
-410.355	145.933	-0.192	-0.256
-409.340	29.210	0.137	-0.115
-408.325	84.838	0.245	-0.266
-407.311	-200.000	-0.024	0.157
-406.296	-55.684	0.346	0.153
-405.282	-200.000	-0.003	-0.219
-404.267	35.646	0.100	-0.087
-403.252	-200.000	0.010	0.074
-402.238	443.212	0.125	0.272
-401.223	800.000	-0.042	-0.120
-400.209	-104.742	0.154	-0.035
-399.194	-200.000	-0.007	0.098
-398.179	-37.589	-0.345	0.182
-397.165	-200.000	0.038	-0.277
-396.150	-200.000	0.009	-0.248
-395.136	86.222	-0.291	-0.317
-394.121	-148.209	0.021	0.002
-393.106	339.766	0.009	-0.018
-392.092	432.099	-0.103	-0.222
-391.077	-4.549	0.111	-0.076
-390.063	-59.027	0.065	-0.028
-389.048	37.415	-0.150	0.131
-388.033	171.698	0.028	0.039
-387.019	-200.000	0.004	-0.028
-386.004	-142.568	-0.266	-0.026
-384.990	-200.000	-0.003	0.118
-383.975	68.728	-0.066	0.067
-382.960	-95.564	-0.034	0.009
-381.946	-13.743	0.191	0.122
-380.931	-77.555	-0.045	0.015
-379.917	-144.837	0.443	0.040
-378.902	-33.169	-0.255	0.140
-377.888	800.000	0.022	-0.074
-376.873	138.482	-0.158	-0.206
-375.858	38.785	-0.121	0.107
-374.844	-145.504	-0.259	0.023
-373.829	-104.693	-0.171	-0.039
-372.815	140.681	0.296	-0.387
-371.800	16.495	-0.193	-0.151
-370.785	-200.000	-0.037	-0.264
-369.771	418.228	0.122	0.258
-368.756	-32.528	0.107	-0.059
-367.742	800.000	-0.210	0.623
-366.727	73.055	0.064	0.067
-365.712	37.356	-0.155	-0.136
-364.698	267.918	-0.109	-0.188
-363.683	-200.000	0.085	0.000
-362.669	-112.242	0.028	0.006
-361.654	195.136	-0.077	0.115
-360.639	363.466	-0.233	0.463
-359.625	113.322	0.139	0.167
-358.610	-200.000	0.074	0.353
-357.596	-190.245	-0.196	0.002
-356.581	-66.981	-0.518	-0.202
-355.566	-200.000	0.023	-0.302
-354.552	800.000	-0.097	-0.385
-353.537	338.498	0.110	0.212
-352.523	171.518	-0.043	-0.061
-351.508	-15.444	-0.139	-0.088
-350.493	-133.703	0.136	0.017
-349.479	-173.768	0.199	0.006
-348.464	800.000	0.100	-0.426
-347.450	288.888	0.118	-0.211
-346.435	234.694	-0.114	-0.186
-345.420	547.462	-0.098	-0.232
-344.406	-49.364	-0.081	-0.038
-343.391	107.178	0.095	-0.111
-342.377	113.775	-0.116	-0.139
-341.362	201.642	0.137	-0.209
-340.348	-164.697	0.360	-0.016
-339.333	196.433	0.153	0.230
-338.318	800.000	-0.160	-0.481
-337.304	45.497	-0.135	-0.123
-336.289	12.566	0.094	-0.072
-335.275	200.869	-0.157	0.238
-334.260	-26.023	0.026	-0.015
-333.245	119.267	0.084	-0.103
-332.231	-200.000	0.039	-0.201
-331.216	70.361	0.259	-0.264
-330.202	-85.971	-0.249	-0.076
-329.187	216.833	0.222	-0.349
-328.172	-115.086	0.251	-0.047
-327.158	110.881	-0.012	-0.014
-326.143	-105.842	0.095	-0.021
-325.129	49.959	0.088	0.082
-324.114	-52.554	0.082	0.038
-323.099	140.894	0.236	0.309
-322.085	116.818	-0.159	0.192
-321.070	726.626	-0.034	0.089
-320.056	-200.000	0.024	-0.134
-319.041	177.529	0.142	0.205
-318.026	-143.687	-0.083	-0.008
-317.012	78.729	0.060	-0.064
-315.997	-79.502	0.162	-0.054
-314.983	-91.944	0.271	0.076
-313.968	611.189	0.098	-0.242
-312.953	-200.000	0.109	-0.522
-311.939	-97.640	-0.241	0.062
-310.924	11.888	-0.280	0.212
-309.910	800.000	-0.025	-0.098
-308.895	-200.000	-0.012	-0.210
-307.880	273.135	-0.024	-0.041
-306.866	-200.000	-0.020	0.124
-305.851	-31.752	-0.115	0.064
-304.837	725.507	0.048	-0.126
-303.822	5.806	0.180	-0.131
-302.807	-200.000	-0.003	0.207
-301.793	385.720	-0.046	0.093
-300.778	-1.470	0.263	0.183
-299.764	-200.000	-0.005	-0.124
-298.749	800.000	0.071	0.282
-297.735	-200.000	-0.031	0.196
-296.720	85.805	0.268	0.291
-295.705	21.334	-0.055	0.044
-294.691	-141.679	-0.052	-0.005
-293.676	-200.000	0.007	0.331
-292.662	-200.000	-0.036	-0.172
-291.647	-157.120	0.151	-0.009
-290.632	22.006	-0.088	-0.071
-289.618	-200.000	0.054	0.322
-288.603	109.067	-0.071	0.084
-287.589	-200.000	0.033	0.280
-286.574	-200.000	-0.006	0.326
-285.559	-200.000	0.005	0.115
-284.545	706.501	0.027	-0.070
-283.530	261.097	0.038	0.065
-282.516	180.203	-0.093	-0.134
-281.501	15.313	0.018	0.014
-280.486	-27.603	0.268	0.154
-279.472	-108.276	-0.450	-0.096
-278.457	800.000	-0.060	0.252
-277.443	8.371	-0.235	0.174
-276.428	-74.658	-0.300	0.106
-275.413	55.711	0.230	0.220
-274.399	-200.000	-0.031	0.169
-273.384	-107.454	0.109	0.024
-272.370	-200.000	-0.005	-0.136
-271.355	-80.769	-0.145	0.048
-270.340	-64.864	0.111	-0.044
-269.326	127.219	-0.182	-0.228
-268.311	210.765	-0.074	-0.115
-267.297	800.000	0.022	0.075
-266.282	800.000	0.097	-0.391
-265.267	-67.211	-0.132	-0.051
-264.253	5.885	-0.151	0.110
-263.238	-23.659	-0.177	-0.104
-262.224	-200.000	0.008	-0.157
-261.209	800.000	0.021	0.067
-260.195	-111.591	0.428	0.086
-259.180	800.000	0.071	-0.210
-258.165	-113.947	0.378	-0.072
-257.151	800.000	0.025	0.077
-256.136	-81.177	-0.247	0.081
-255.122	12.560	0.402	0.306
-254.107	800.000	-0.035	-0.138
-253.092	800.000	0.063	-0.195
-252.078	-171.762	0.145	-0.005
-251.063	800.000	-0.059	0.214
-250.049	-200.000	0.013	0.306
-249.034	-9.252	0.322	0.212
-248.019	-57.126	-0.254	-0.110
-247.005	160.236	-0.096	0.132
-245.990	21.892	0.341	0.274
-244.976	167.929	-0.190	-0.266
-243.961	47.933	0.038	-0.035
-242.946	-147.244	0.365	0.031
-241.932	800.000	0.119	0.395
-240.917	800.000	-0.087	0.370
-239.903	-73.061	0.112	0.040
-238.888	-147.736	-0.241	-0.020
-237.873	-45.442	0.264	-0.129
-236.859	-106.837	-0.194	-0.042
-235.844	-200.000	0.008	0.081
-234.830	-50.285	0.092	-0.043
-233.815	-44.897	0.317	-0.155
-232.800	-68.620	0.157	0.060
-231.786	182.609	-0.082	-0.119
-230.771	-53.315	-0.382	0.173
-229.757	-200.000	-0.019	-0.105
-228.742	479.058	0.249	-0.555
-227.727	-200.000	0.003	0.035
-226.713	-125.139	0.178	0.027
-225.698	48.861	0.163	-0.151
-224.684	-12.929	0.066	-0.042
-223.669	-200.000	-0.041	-0.323
-222.655	68.493	-0.071	-0.072
-221.640	-76.711	-0.208	0.072
-220.625	-161.738	-0.189	0.009
-219.611	15.222	-0.250	-0.193
-218.596	50.247	-0.132	-0.123
-217.582	-200.000	-0.010	0.163
-216.567	-200.000	-0.012	0.130
-215.552	696.046	-0.043	0.111
-214.538	-200.000	0.019	0.350
-213.523	-103.047	-0.216	-0.050
-212.509	-17.334	0.311	0.192
-211.494	-200.000	-0.021	0.202
-210.479	800.000	-0.065	-0.211
-209.465	-56.983	0.138	-0.060
-208.450	187.073	-0.097	-0.142
-207.436	1.267	0.141	-0.100
-206.421	170.878	0.153	-0.216
-205.406	800.000	-0.018	-0.073
-204.392	800.000	-0.007	-0.029
-203.377	-200.000	0.035	0.240
-202.363	114.486	0.245	0.293
-201.348	2.804	-0.352	-0.251
-200.333	800.000	-0.070	-0.211
-199.319	-8.207	0.204	0.135
-198.304	-200.000	-0.065	0.307
-197.290	321.907	-0.149	-0.278
-196.275	113.823	0.078	0.094
-195.260	8.632	0.098	-0.073
-194.246	39.858	0.149	0.132
-193.231	40.065	0.177	-0.156
-192.217	164.728	-0.057	-0.078
-191.202	20.784	-0.137	0.109
-190.187	340.660	0.126	-0.242
-189.173	34.638	-0.078	-0.067
-188.158	-23.235	-0.182	-0.108
-187.144	-200.000	-0.017	0.209
-186.129	-28.716	0.279	-0.158
-185.114	800.000	0.018	0.063
-184.100	132.519	0.135	0.171
-183.085	-69.873	-0.254	-0.095
-182.071	-80.853	-0.173	-0.056
-181.056	69.917	0.387	0.392
-180.042	-200.000	-0.058	-0.431
-179.027	-84.958	0.112	0.034
-178.012	-134.799	-0.196	0.023
-176.998	-70.207	-0.318	-0.119
-175.983	-67.109	0.038	0.015
-174.969	518.861	-0.126	0.291
-173.954	-200.000	-0.002	0.112
-172.939	-22.482	-0.320	-0.190
-171.925	-73.257	0.136	0.049
-170.910	800.000	0.028	0.093
-169.896	-106.758	-0.292	-0.064
-168.881	800.000	0.076	-0.208
-167.866	250.979	0.103	0.173
-166.852	-98.327	0.226	0.057
-165.837	800.000	-0.063	0.173
-164.823	241.847	-0.172	-0.282
-163.808	516.265	-0.063	-0.144
-162.793	-128.778	0.375	-0.052
-161.779	223.356	-0.094	-0.149
-160.764	49.147	-0.315	0.291
-159.750	364.551	0.061	0.121
-158.735	-3.442	0.486	-0.332
-157.720	-135.618	-0.256	0.030
-156.706	264.899	-0.188	-0.321
-155.691	-162.225	0.200	0.010
-154.677	72.563	-0.021	0.021
-153.662	-55.651	-0.056	0.025
-152.647	-200.000	0.019	-0.239
-151.633	-139.655	-0.175	-0.018
-150.618	42.206	0.131	-0.117
-149.604	-111.846	-0.359	-0.071
-148.589	150.385	-0.127	0.169
-147.574	199.115	0.202	0.304
-146.560	64.354	0.090	-0.089
-145.545	-145.237	0.202	-0.018
-144.531	474.752	0.094	-0.209
-143.516	-8.815	0.292	0.192
-142.502	-200.000	-0.021	0.096
-141.487	-200.000	-0.015	-0.130
-140.472	-37.758	0.306	0.160
-139.458	-200.000	0.024	-0.141
-138.443	-200.000	0.010	-0.244
-137.429	-200.000	-0.059	-0.386
-136.414	-200.000	-0.074	-0.000
-135.399	-79.721	0.321	0.106
-134.385	-89.029	-0.116	0.034
-133.370	203.426	0.039	-0.059
-132.356	489.947	-0.096	0.216
-131.341	-20.424	-0.196	-0.118
-130.326	559.211	0.033	0.077
-129.312	-200.000	0.029	-0.139
-128.297	-143.752	-0.399	-0.037
-127.283	-123.049	0.059	-0.009
-126.268	35.574	0.071	0.061
-125.253	127.552	0.032	-0.039
-124.239	800.000	-0.041	0.156
-123.224	405.758	-0.031	0.064
-122.210	25.132	-0.067	-0.055
