DTS Sentinel unit serial number:	SN413079Multiplexer serial number:	ORYXHardware model number:	OX4-SRSoftware version number:	ORYX F/W v4.00 Oryx Data Collector v3.7.2.0data status	okinstallation	princeton_trtdifferential loss correction	single-endedforward channel	channel 4reverse channel	N/Adate	2019/09/12time	01:31:11forward acquisition time	60.00reverse acquisition time	0.00gamma	496.2192k internal	0.2309k external	0.2309temperature offset calibration	1.0092default loss term (dB/km)	0.3790temperature slope calibration	1.0000multiplexer offset coefficient	1.0000multiplexer slope coefficient	1.0000fibre end	0.00T internal ref (°C)	32.94T ext. ref 1 (°C)	2.08T ext. ref 2 (°C)	27.82length (m)	temperature (°C)	Stokes	anti-Stokes-747.200	-39.369	0.047	0.025
-746.185	207.562	-0.222	0.353
-745.171	-118.314	-0.068	0.012
-744.156	116.669	0.273	0.340
-743.142	103.892	-0.120	0.144
-742.127	21.388	-0.060	0.049
-741.112	-200.000	0.012	0.137
-740.098	800.000	-0.045	-0.142
-739.083	466.626	-0.204	-0.465
-738.069	293.247	-0.201	0.373
-737.054	800.000	0.069	-0.248
-736.039	-50.552	-0.177	0.085
-735.025	-85.131	0.274	0.087
-734.010	-200.000	0.011	0.260
-732.996	96.629	-0.213	-0.248
-731.981	221.550	0.115	0.188
-730.966	-200.000	0.025	0.230
-729.952	-122.853	-0.234	0.038
-728.937	55.553	-0.252	-0.248
-727.923	-29.927	-0.522	0.302
-726.908	155.674	0.064	-0.090
-725.894	-0.099	-0.268	-0.194
-724.879	-88.347	0.130	-0.039
-723.864	110.991	0.110	0.134
-722.850	255.974	0.159	-0.277
-721.835	58.994	0.076	-0.076
-720.821	-0.443	-0.159	0.114
-719.806	-200.000	-0.077	-0.473
-718.791	94.937	-0.124	-0.143
-717.777	-67.098	0.393	0.157
-716.762	800.000	-0.054	0.154
-715.748	-57.404	0.360	-0.161
-714.733	-200.000	0.041	0.269
-713.718	46.643	-0.078	0.073
-712.704	472.914	-0.143	0.327
-711.689	135.804	-0.092	-0.122
-710.675	137.437	0.144	0.191
-709.660	-107.265	-0.169	-0.038
-708.645	-168.882	-0.220	-0.008
-707.631	-73.708	0.189	-0.070
-706.616	17.332	0.176	-0.141
-705.602	-200.000	-0.067	-0.472
-704.587	140.676	-0.043	-0.058
-703.572	139.347	0.193	-0.257
-702.558	-96.842	0.188	-0.050
-701.543	-9.085	-0.076	-0.052
-700.529	56.398	0.144	-0.142
-699.514	-106.233	0.275	0.063
-698.499	-140.815	0.223	-0.023
-697.485	-163.209	0.283	-0.014
-696.470	146.381	0.135	-0.183
-695.456	800.000	-0.048	-0.165
-694.441	-200.000	-0.018	0.116
-693.426	125.045	0.165	-0.211
-692.412	267.270	0.168	0.297
-691.397	-28.133	0.163	0.095
-690.383	-80.585	-0.140	0.047
-689.368	-74.531	-0.472	0.172
-688.354	-153.015	0.107	-0.008
-687.339	316.675	-0.159	-0.305
-686.324	-27.136	-0.327	-0.194
-685.310	-125.875	0.092	-0.014
-684.295	232.895	-0.122	0.203
-683.281	-109.498	0.270	-0.058
-682.266	58.938	-0.154	-0.154
-681.251	86.690	-0.201	-0.225
-680.237	800.000	-0.132	-0.463
-679.222	74.520	-0.105	-0.112
-678.208	-31.770	0.150	-0.085
-677.193	-192.626	0.125	-0.001
-676.178	50.617	0.111	0.106
-675.164	281.656	-0.052	0.094
-674.149	-97.101	0.245	-0.065
-673.135	-20.114	-0.222	-0.139
-672.120	-65.326	0.046	0.019
-671.105	14.316	0.211	0.167
-670.091	-200.000	-0.028	-0.129
-669.076	800.000	-0.067	-0.210
-668.062	-116.222	-0.153	-0.029
-667.047	177.328	-0.164	-0.241
-666.032	172.277	0.032	0.046
-665.018	-161.998	-0.208	-0.011
-664.003	800.000	-0.036	-0.140
-662.989	800.000	-0.028	-0.119
-661.974	800.000	0.129	-0.454
-660.959	35.649	-0.127	0.113
-659.945	800.000	0.055	0.219
-658.930	-135.577	-0.297	-0.036
-657.916	-153.227	-0.304	0.022
-656.901	190.014	-0.158	-0.241
-655.886	-200.000	0.016	-0.158
-654.872	-63.718	-0.258	0.107
-653.857	19.493	-0.212	-0.172
-652.843	-200.000	0.044	-0.321
-651.828	800.000	-0.040	-0.116
-650.814	-173.245	-0.153	-0.005
-649.799	-10.394	-0.241	-0.162
-648.784	793.613	-0.059	-0.165
-647.770	-37.611	-0.042	-0.022
-646.755	-52.236	0.220	0.103
-645.741	800.000	0.022	-0.077
-644.726	800.000	0.089	0.340
-643.711	21.715	0.194	0.160
-642.697	-24.829	0.072	0.043
-641.682	-200.000	0.019	-0.136
-640.668	-200.000	0.009	-0.090
-639.653	85.664	-0.052	0.058
-638.638	-161.274	-0.251	0.013
-637.624	68.628	0.103	0.106
-636.609	308.910	-0.036	-0.069
-635.595	-77.721	0.289	0.101
-634.580	-200.000	-0.007	-0.051
-633.565	210.728	0.048	0.076
-632.551	669.033	0.122	0.320
-631.536	-9.649	-0.273	-0.184
-630.522	800.000	-0.074	-0.265
-629.507	30.326	0.313	-0.271
-628.492	-28.626	0.101	-0.059
-627.478	155.573	-0.111	0.154
-626.463	115.741	0.137	0.170
-625.449	107.518	0.218	0.262
-624.434	283.611	-0.074	0.135
-623.419	-156.441	0.201	-0.013
-622.405	47.897	-0.125	-0.118
-621.390	190.840	-0.144	0.218
-620.376	-200.000	-0.066	0.370
-619.361	-27.388	-0.029	0.017
-618.346	-182.857	-0.162	-0.003
-617.332	-4.339	-0.079	0.055
-616.317	214.802	0.145	-0.232
-615.303	-138.513	0.234	-0.026
-614.288	451.024	0.101	0.226
-613.273	162.011	-0.071	0.100
-612.259	-200.000	-0.032	-0.165
-611.244	-107.417	-0.329	0.073
-610.230	-200.000	-0.006	-0.065
-609.215	-32.906	-0.263	0.148
-608.201	-150.304	-0.224	-0.017
-607.186	72.520	0.427	0.450
-606.171	-124.046	0.174	-0.028
-605.157	-200.000	0.043	-0.229
-604.142	7.722	-0.139	-0.105
-603.128	-200.000	0.067	-0.527
-602.113	428.630	0.101	-0.220
-601.098	-29.890	-0.255	0.147
-600.084	205.321	0.162	-0.255
-599.069	-120.118	0.285	-0.049
-598.055	-52.351	-0.336	-0.157
-597.040	262.601	0.204	-0.358
-596.025	-32.399	0.181	-0.102
-595.011	-81.365	-0.156	-0.052
-593.996	-182.621	0.323	0.006
-592.982	197.521	-0.036	-0.055
-591.967	52.778	-0.242	0.234
-590.952	-5.095	0.046	0.032
-589.938	800.000	-0.067	-0.288
-588.923	87.918	-0.163	-0.183
-587.909	73.057	-0.140	-0.148
-586.894	-95.512	-0.325	0.088
-585.879	-5.616	0.087	-0.060
-584.865	80.450	0.250	-0.272
-583.850	86.903	-0.204	-0.228
-582.836	565.592	-0.031	-0.076
-581.821	180.522	0.145	0.215
-580.806	237.603	-0.140	-0.234
-579.792	473.759	0.128	0.290
-578.777	99.007	-0.300	0.349
-577.763	133.512	0.141	0.184
-576.748	303.328	-0.159	-0.298
-575.733	-200.000	0.040	0.208
-574.719	-71.574	-0.205	0.077
-573.704	-133.983	0.349	-0.044
-572.690	-9.427	0.266	0.179
-571.675	107.730	-0.127	-0.153
-570.661	-39.251	-0.237	0.126
-569.646	-89.191	0.102	-0.030
-568.631	-200.000	0.013	-0.145
-567.617	-142.117	-0.087	-0.009
-566.602	-200.000	-0.002	-0.326
-565.588	50.671	0.167	-0.160
-564.573	-158.453	-0.161	-0.009
-563.558	-67.289	-0.233	-0.093
-562.544	21.063	0.108	-0.089
-561.529	800.000	-0.050	-0.167
-560.515	36.165	-0.188	-0.167
-559.500	242.804	-0.033	0.056
-558.485	-68.586	-0.305	0.119
-557.471	141.050	-0.070	0.093
-556.456	-160.888	-0.090	0.005
-555.442	-11.916	0.052	-0.034
-554.427	-37.260	-0.220	-0.118
-553.412	-23.160	-0.122	0.074
-552.398	800.000	-0.066	0.246
-551.383	-15.169	-0.165	-0.106
-550.369	-116.476	0.082	-0.015
-549.354	-95.028	0.148	-0.040
-548.339	64.263	-0.424	0.430
-547.325	-125.325	0.464	0.071
-546.310	285.332	-0.170	-0.309
-545.296	800.000	-0.055	-0.241
-544.281	-33.367	-0.123	-0.069
-543.266	-127.155	-0.365	-0.054
-542.252	46.193	-0.174	-0.162
-541.237	-134.172	0.205	-0.025
-540.223	-200.000	-0.028	0.605
-539.208	83.906	-0.311	0.342
-538.193	800.000	-0.077	0.269
-537.179	82.827	-0.175	0.191
-536.164	-83.717	-0.226	-0.073
-535.150	-134.215	0.227	0.028
-534.135	-200.000	0.000	0.108
-533.121	-200.000	-0.011	-0.174
-532.106	-178.484	-0.175	-0.004
-531.091	-200.000	0.035	-0.209
-530.077	-200.000	0.015	-0.081
-529.062	-200.000	-0.003	0.253
-528.048	-200.000	-0.026	0.150
-527.033	174.358	0.166	0.242
-526.018	95.539	0.174	0.200
-525.004	781.793	0.056	-0.154
-523.989	142.273	-0.191	0.255
-522.975	800.000	0.050	-0.209
-521.960	47.323	0.066	0.062
-520.945	-64.949	-0.111	-0.045
-519.931	-151.072	-0.222	-0.017
-518.916	40.852	0.136	0.123
-517.902	800.000	0.129	0.370
-516.887	43.006	0.081	0.074
-515.872	-56.070	-0.067	0.030
-514.858	690.873	0.116	0.307
-513.843	-31.529	0.366	0.207
-512.829	-200.000	0.040	0.233
-511.814	-21.810	-0.096	-0.059
-510.799	-200.000	-0.025	0.343
-509.785	-88.264	0.142	-0.043
-508.770	66.055	0.091	-0.093
-507.756	43.174	-0.215	-0.197
-506.741	-45.059	0.265	-0.133
-505.726	-89.068	-0.263	-0.078
-504.712	800.000	-0.128	0.398
-503.697	43.092	-0.084	0.078
-502.683	687.913	0.111	-0.291
-501.668	-115.678	0.224	0.042
-500.653	276.499	0.181	-0.323
-499.639	299.501	-0.067	-0.125
-498.624	24.914	0.174	0.145
-497.610	-200.000	0.001	0.034
-496.595	-10.055	-0.393	0.263
-495.581	-200.000	-0.010	0.240
-494.566	-200.000	0.001	-0.048
-493.551	18.283	0.253	0.203
-492.537	-61.490	0.172	-0.073
-491.522	-200.000	0.003	-0.170
-490.508	-49.918	0.034	0.016
-489.493	286.312	-0.180	-0.326
-488.478	-200.000	0.041	0.246
-487.464	-200.000	-0.013	0.126
-486.449	-117.663	0.331	0.060
-485.435	-200.000	0.020	-0.102
-484.420	-195.918	0.309	-0.002
-483.405	-5.462	0.251	-0.173
-482.391	71.957	0.046	0.049
-481.376	173.987	0.213	0.310
-480.362	-91.141	-0.180	-0.052
-479.347	397.563	0.028	-0.059
-478.332	93.766	0.138	-0.158
-477.318	-179.210	-0.050	-0.001
-476.303	482.859	0.137	-0.313
-475.289	129.185	0.071	0.092
-474.274	-23.581	-0.294	-0.177
-473.259	-200.000	0.023	0.223
-472.245	102.632	0.135	-0.159
-471.230	38.004	0.174	0.156
-470.216	-4.697	0.267	0.185
-469.201	326.786	-0.093	0.180
-468.186	-68.860	-0.191	-0.074
-467.172	-21.483	0.119	-0.073
-466.157	394.875	-0.182	-0.381
-465.143	192.210	-0.087	0.133
-464.128	800.000	-0.113	-0.366
-463.113	450.309	-0.084	-0.187
-462.099	188.338	-0.121	0.181
-461.084	181.340	-0.203	0.300
-460.070	-92.814	0.123	0.035
-459.055	800.000	-0.050	0.200
-458.040	210.775	0.123	0.195
-457.026	126.192	0.178	0.226
-456.011	-200.000	-0.035	0.205
-454.997	38.271	0.249	0.222
-453.982	-106.932	0.189	0.042
-452.968	374.861	-0.034	-0.069
-451.953	-160.364	-0.110	0.006
-450.938	800.000	-0.084	-0.265
-449.924	23.536	0.216	0.178
-448.909	-192.672	-0.151	0.001
-447.895	207.226	-0.123	0.192
-446.880	528.332	-0.131	0.310
-445.865	-115.492	-0.273	0.052
-444.851	46.293	0.085	0.079
-443.836	799.126	-0.140	0.388
-442.822	800.000	0.114	-0.395
-441.807	32.455	-0.044	-0.038
-440.792	-3.774	-0.198	0.138
-439.778	268.321	0.202	-0.355
-438.763	-200.000	-0.000	-0.063
-437.749	-133.406	0.094	-0.012
-436.734	203.146	0.051	-0.079
-435.719	565.784	-0.106	-0.258
-434.705	263.703	-0.132	-0.230
-433.690	-133.173	-0.314	-0.040
-432.676	-200.000	-0.058	-0.409
-431.661	800.000	-0.028	-0.096
-430.646	800.000	-0.087	-0.277
-429.632	-200.000	-0.003	-0.299
-428.617	163.215	-0.137	-0.193
-427.603	211.229	0.162	0.255
-426.588	257.823	0.098	-0.168
-425.573	-16.210	0.104	0.067
-424.559	-113.722	-0.251	-0.049
-423.544	800.000	0.088	-0.332
-422.530	633.724	0.043	0.110
-421.515	-200.000	-0.052	0.305
-420.500	-87.803	0.082	-0.025
-419.486	-46.664	-0.190	-0.093
-418.471	221.323	0.084	0.136
-417.457	-84.447	-0.054	0.017
-416.442	-76.841	0.057	0.020
-415.428	-200.000	0.024	0.282
-414.413	-5.088	-0.108	-0.075
-413.398	23.967	-0.107	0.088
-412.384	-191.568	0.067	-0.001
-411.369	289.019	-0.096	0.174
-410.355	-93.373	-0.258	-0.072
-409.340	-95.627	0.262	-0.070
-408.325	519.195	-0.078	0.183
-407.311	-15.711	-0.259	-0.166
-406.296	352.068	0.175	-0.348
-405.282	-31.712	-0.325	-0.183
-404.267	-99.275	-0.133	-0.034
-403.252	209.395	0.142	-0.223
-402.238	-187.012	0.124	-0.002
-401.223	83.647	0.151	-0.165
-400.209	69.624	0.101	0.104
-399.194	-200.000	-0.009	-0.267
-398.179	-63.795	0.231	0.095
-397.165	-200.000	-0.009	-0.083
-396.150	-62.759	-0.116	-0.048
-395.136	9.528	0.235	-0.179
-394.121	-34.693	0.376	-0.206
-393.106	668.940	0.157	0.408
-392.092	48.875	0.133	-0.125
-391.077	-200.000	-0.068	-0.340
-390.063	-200.000	0.008	-0.229
-389.048	800.000	-0.077	-0.242
-388.033	-125.222	-0.192	0.029
-387.019	-86.985	-0.418	0.128
-386.004	-119.037	0.032	0.006
-384.990	-168.180	-0.305	-0.012
-383.975	-119.537	-0.344	0.060
-382.960	536.202	0.090	0.215
-381.946	21.174	0.296	-0.241
-380.931	800.000	0.076	-0.228
-379.917	-75.966	0.109	-0.039
-378.902	-167.529	0.290	0.012
-377.888	291.279	0.068	0.124
-376.873	186.839	0.029	-0.044
-375.858	451.294	-0.172	-0.381
-374.844	-166.392	-0.105	-0.004
-373.829	-23.437	-0.077	-0.046
-372.815	-76.117	-0.200	-0.071
-371.800	575.763	-0.050	-0.122
-370.785	-200.000	0.066	0.346
-369.771	-101.230	-0.449	-0.110
-368.756	133.848	-0.239	-0.310
-367.742	800.000	0.072	-0.277
-366.727	135.574	0.105	0.137
-365.712	-144.385	0.133	0.012
-364.698	-20.772	0.275	0.169
-363.683	323.938	0.086	0.164
-362.669	346.634	-0.215	-0.423
-361.654	40.132	0.309	0.278
-360.639	-104.495	0.125	-0.029
-359.625	-85.229	0.298	0.093
-358.610	-148.380	-0.195	-0.016
-357.596	261.443	0.109	0.189
-356.581	131.868	0.286	-0.369
-355.566	800.000	0.131	-0.363
-354.552	800.000	-0.110	0.430
-353.537	230.955	0.091	0.150
-352.523	-69.348	-0.156	0.060
-351.508	-150.810	-0.163	0.012
-350.493	-50.787	0.211	0.099
-349.479	-73.750	0.128	0.046
-348.464	438.259	0.167	0.363
-347.450	-200.000	-0.039	0.248
-346.435	-70.919	-0.068	0.026
-345.420	-141.282	0.171	0.017
-344.406	672.485	0.033	0.085
-343.391	238.829	-0.120	0.200
-342.377	266.809	-0.030	0.052
-341.362	800.000	-0.032	-0.127
-340.348	-50.495	-0.230	0.108
-339.333	484.840	-0.096	0.219
-338.318	619.822	0.119	0.298
-337.304	-106.008	0.369	0.083
-336.289	142.541	-0.255	-0.338
-335.275	-55.960	0.396	-0.176
-334.260	44.562	-0.164	-0.151
-333.245	-54.340	-0.198	-0.090
-332.231	129.236	-0.100	-0.128
-331.216	18.936	-0.366	-0.294
-330.202	-75.717	0.260	-0.092
-329.187	800.000	0.027	0.077
-328.172	122.338	0.150	-0.187
-327.158	292.317	0.083	0.151
-326.143	109.456	0.269	0.322
-325.129	-54.254	0.198	0.090
-324.114	-64.089	0.295	-0.120
-323.099	-153.007	0.138	-0.010
-322.085	-67.753	-0.130	-0.051
-321.070	327.650	0.039	-0.074
-320.056	64.261	-0.425	0.428
-319.041	-146.423	0.424	-0.037
-318.026	137.165	0.074	0.096
-317.012	-179.849	0.149	-0.003
-315.997	25.483	0.047	0.039
-314.983	-26.757	0.141	-0.082
-313.968	109.670	-0.102	-0.123
-312.953	71.278	-0.043	0.044
-311.939	800.000	0.069	-0.303
-310.924	231.867	0.098	-0.161
-309.910	-11.200	-0.356	0.235
-308.895	-68.627	0.349	-0.135
-307.880	800.000	0.199	-0.569
-306.866	-150.278	0.284	-0.022
-305.851	-141.982	-0.097	-0.010
-304.837	-130.202	-0.284	-0.039
-303.822	-12.611	-0.158	-0.103
-302.807	-158.984	-0.226	0.013
-301.793	592.346	-0.083	0.206
-300.778	96.402	-0.211	-0.241
-299.764	-21.050	0.247	-0.151
-298.749	800.000	0.047	-0.172
-297.735	-25.187	0.295	-0.175
-296.720	-117.910	0.347	0.062
-295.705	-46.856	0.437	0.213
-294.691	-161.253	0.113	0.006
-293.676	-35.721	-0.234	0.127
-292.662	-110.550	0.156	-0.032
-291.647	283.648	-0.030	0.054
-290.632	800.000	-0.091	0.313
-289.618	14.229	-0.084	-0.065
-288.603	-200.000	0.047	-0.215
-287.589	-126.748	-0.189	0.028
-286.574	411.615	0.035	0.075
-285.559	270.214	-0.037	-0.066
-284.545	199.636	0.095	0.145
-283.530	-57.827	-0.255	0.111
-282.516	-117.234	-0.210	0.038
-281.501	800.000	-0.121	-0.384
-280.486	-43.471	-0.148	0.074
-279.472	15.253	0.147	-0.115
-278.457	89.535	-0.097	-0.108
-277.443	39.739	-0.166	0.148
-276.428	-119.045	-0.131	-0.023
-275.413	800.000	-0.050	-0.179
-274.399	313.298	-0.124	-0.233
-273.384	-200.000	-0.004	-0.209
-272.370	-89.091	0.142	-0.042
-271.355	-176.714	-0.129	0.003
-270.340	-132.034	-0.148	0.019
-269.326	-200.000	0.027	0.252
-268.311	-200.000	0.011	-0.062
-267.297	544.090	0.038	0.092
-266.282	2.932	0.099	-0.072
-265.267	-146.496	-0.060	0.005
-264.253	234.447	0.023	-0.038
-263.238	-116.207	-0.317	0.059
-262.224	60.392	-0.174	-0.172
-261.209	226.144	0.198	0.321
-260.195	76.032	-0.075	-0.079
-259.180	-200.000	-0.007	0.126
-258.165	-69.267	0.172	0.066
-257.151	800.000	0.076	-0.289
-256.136	-39.263	0.094	0.049
-255.122	-91.116	-0.284	0.081
-254.107	273.734	0.278	-0.490
-253.092	68.459	-0.066	0.067
-252.078	-116.631	0.358	0.066
-251.063	-200.000	0.036	0.177
-250.049	102.843	0.129	0.151
-249.034	-144.874	0.245	-0.022
-248.019	331.623	0.049	-0.094
-247.005	-200.000	-0.021	-0.123
-245.990	-95.738	0.306	0.081
-244.976	-62.558	-0.378	0.157
-243.961	290.322	0.058	-0.105
-242.946	55.270	0.083	0.080
-241.932	-80.908	-0.155	-0.051
-240.917	-95.322	0.195	-0.052
-239.903	-67.773	-0.112	-0.044
-238.888	-21.627	-0.243	0.148
-237.873	-89.341	0.065	0.019
-236.859	-82.783	-0.088	0.028
-235.844	66.030	0.103	0.104
-234.830	-200.000	0.025	-0.249
-233.815	59.059	0.166	-0.163
-232.800	48.062	-0.182	-0.169
-231.786	-65.467	0.353	-0.141
-230.771	-122.374	-0.206	0.033
-229.757	-124.620	-0.218	-0.034
-228.742	-200.000	-0.002	-0.122
-227.727	800.000	0.021	0.058
-226.713	102.803	0.082	0.095
-225.698	12.275	0.236	0.181
-224.684	-107.864	0.342	0.074
-223.669	800.000	0.101	-0.300
-222.655	-84.815	0.296	-0.092
-221.640	-116.670	-0.341	-0.062
-220.625	145.514	0.057	0.076
-219.611	800.000	-0.035	0.127
-218.596	-55.959	-0.192	-0.085
-217.582	800.000	-0.030	0.104
-216.567	-52.519	-0.246	-0.113
-215.552	-112.543	0.304	-0.060
-214.538	-102.834	-0.170	-0.040
-213.523	-153.840	-0.173	-0.012
-212.509	-60.228	0.135	-0.057
-211.494	-164.294	-0.452	0.021
-210.479	-86.233	-0.098	-0.030
-209.465	-24.622	0.265	0.157
-208.450	182.908	0.167	0.245
-207.436	-200.000	-0.002	-0.096
-206.421	4.469	0.204	0.149
-205.406	-200.000	-0.032	-0.252
-204.392	-12.407	0.068	0.044
-203.377	14.695	-0.278	-0.216
-202.363	-69.737	-0.198	-0.075
-201.348	-108.976	-0.074	0.016
-200.333	1.428	0.086	-0.061
-199.319	-28.179	-0.080	-0.046
-198.304	-50.596	0.301	-0.141
-197.290	35.630	0.172	-0.150
-196.275	-200.000	0.017	0.255
-195.260	14.554	0.306	0.237
-194.246	-200.000	-0.020	0.180
-193.231	34.437	-0.238	0.206
-192.217	154.299	-0.233	-0.318
-191.202	468.833	0.081	0.181
-190.187	-112.741	0.278	0.055
-189.173	-45.944	-0.170	-0.084
-188.158	800.000	-0.015	-0.060
-187.144	-56.951	0.146	0.064
-186.129	-18.637	0.062	0.039
-185.114	800.000	-0.092	0.310
-184.100	-15.233	0.077	-0.049
-183.085	-67.679	-0.197	0.077
-182.071	-89.039	-0.475	-0.140
-181.056	322.268	-0.170	0.323
-180.042	181.289	0.059	0.086
-179.027	-37.226	-0.120	-0.064
-178.012	800.000	-0.043	0.153
-176.998	-200.000	0.013	0.448
-175.983	-77.183	0.142	0.049
-174.969	800.000	0.121	0.416
-173.954	800.000	0.107	-0.396
-172.939	212.181	-0.146	-0.229
-171.925	-200.000	0.001	0.067
-170.910	-103.645	-0.079	0.018
-169.896	-200.000	-0.010	0.092
-168.881	-22.115	0.104	-0.062
-167.866	-78.744	0.154	0.052
-166.852	-109.019	-0.326	-0.069
-165.837	100.620	-0.145	-0.167
-164.823	-200.000	-0.015	-0.178
-163.808	30.181	0.211	0.179
-162.793	32.065	0.136	0.116
-161.779	-33.087	-0.331	0.182
-160.764	203.205	0.110	-0.169
-159.750	-80.756	0.312	-0.103
-158.735	-68.173	-0.143	0.055
-157.720	22.878	-0.172	0.140
-156.706	-200.000	-0.042	0.197
-155.691	-200.000	0.007	0.287
-154.677	-49.995	-0.038	0.018
-153.662	-37.259	-0.243	-0.129
-152.647	-200.000	-0.007	0.371
-151.633	-200.000	0.071	0.640
-150.618	-104.421	0.198	0.046
-149.604	-172.059	-0.074	0.002
-148.589	-200.000	-0.008	0.126
-147.574	800.000	0.060	0.200
-146.560	-84.089	0.137	-0.043
-145.545	670.094	-0.139	-0.358
-144.531	282.631	-0.133	-0.237
-143.516	40.168	0.113	-0.100
-142.502	-177.658	0.447	-0.011
-141.487	198.981	-0.013	-0.020
-140.472	-5.926	-0.240	-0.163
-139.458	-200.000	-0.031	-0.156
-138.443	41.934	0.082	-0.074
-137.429	-59.447	0.196	0.083
-136.414	-11.016	-0.203	0.133
-135.399	-87.438	-0.138	-0.041
-134.385	128.709	-0.120	0.151
-133.370	-200.000	0.027	0.513
-132.356	152.511	0.241	0.326
-131.341	-105.191	-0.211	-0.048
-130.326	-107.696	-0.239	-0.052
-129.312	1.354	0.190	-0.136
-128.297	-64.596	0.436	0.175
-127.283	800.000	-0.103	-0.329
-126.268	-20.303	-0.084	-0.051
-125.253	61.754	0.128	-0.127
-124.239	-200.000	-0.017	0.305
-123.224	-200.000	0.011	0.071
-122.210	96.100	0.039	0.045
