DTS Sentinel unit serial number:	SN413079Multiplexer serial number:	ORYXHardware model number:	OX4-SRSoftware version number:	ORYX F/W v4.00 Oryx Data Collector v3.7.2.0data status	okinstallation	princeton_trtdifferential loss correction	single-endedforward channel	channel 4reverse channel	N/Adate	2019/09/12time	07:23:11forward acquisition time	60.00reverse acquisition time	0.00gamma	496.2192k internal	0.2306k external	0.2306temperature offset calibration	1.0062default loss term (dB/km)	0.3790temperature slope calibration	1.0000multiplexer offset coefficient	1.0000multiplexer slope coefficient	1.0000fibre end	0.00T internal ref (°C)	32.36T ext. ref 1 (°C)	1.61T ext. ref 2 (°C)	28.78length (m)	temperature (°C)	Stokes	anti-Stokes-747.200	315.922	-0.125	0.241
-746.185	-200.000	0.037	0.378
-745.171	-112.861	-0.135	0.027
-744.156	-39.440	0.073	0.039
-743.142	569.947	0.131	0.325
-742.127	489.243	-0.078	0.182
-741.112	-153.046	-0.182	0.013
-740.098	-200.000	0.031	0.498
-739.083	-77.651	0.263	0.093
-738.069	-200.000	0.022	0.123
-737.054	-171.727	-0.359	0.012
-736.039	-200.000	-0.025	0.215
-735.025	37.649	0.263	0.237
-734.010	800.000	0.091	-0.299
-732.996	-43.258	-0.347	-0.178
-731.981	178.117	-0.144	-0.214
-730.966	268.409	-0.232	-0.413
-729.952	-200.000	0.009	0.044
-728.937	146.244	-0.018	-0.025
-727.923	639.831	0.072	-0.186
-726.908	399.191	0.081	-0.172
-725.894	-200.000	0.022	0.137
-724.879	800.000	-0.043	0.171
-723.864	592.489	-0.076	0.192
-722.850	139.903	-0.061	0.081
-721.835	800.000	-0.075	-0.281
-720.821	-200.000	-0.027	-0.202
-719.806	561.733	-0.038	0.094
-718.791	96.657	0.141	0.164
-717.777	-109.488	0.277	-0.060
-716.762	19.350	-0.201	-0.164
-715.748	357.724	0.124	-0.252
-714.733	729.472	-0.102	-0.278
-713.718	31.151	0.125	0.109
-712.704	-144.374	-0.176	0.017
-711.689	800.000	-0.091	-0.320
-710.675	798.096	0.057	-0.161
-709.660	438.636	-0.186	-0.411
-708.645	85.411	-0.083	-0.092
-707.631	-3.991	0.277	0.195
-706.616	492.413	-0.152	0.353
-705.602	800.000	0.138	0.542
-704.587	-182.336	-0.117	0.002
-703.572	-86.626	0.174	0.054
-702.558	-200.000	-0.002	0.104
-701.543	-54.009	-0.280	0.129
-700.529	-111.924	0.131	0.027
-699.514	800.000	-0.030	-0.094
-698.499	-200.000	-0.120	-0.000
-697.485	-200.000	0.010	0.066
-696.470	298.501	0.106	-0.198
-695.456	119.251	0.228	0.286
-694.441	74.652	-0.164	-0.175
-693.426	-200.000	-0.020	-0.269
-692.412	649.042	-0.099	-0.256
-691.397	136.779	-0.066	-0.087
-690.383	656.955	-0.053	0.139
-689.368	-100.758	-0.260	0.065
-688.354	171.728	-0.168	0.245
-687.339	-17.809	-0.409	-0.261
-686.324	-200.000	-0.048	-0.290
-685.310	800.000	-0.080	0.325
-684.295	32.237	0.121	-0.106
-683.281	125.494	-0.162	-0.207
-682.266	163.318	-0.283	-0.404
-681.251	55.475	0.065	0.064
-680.237	-110.147	0.207	-0.044
-679.222	-32.220	0.041	0.023
-678.208	-200.000	0.147	-0.682
-677.193	-200.000	0.052	-0.521
-676.178	800.000	0.089	-0.310
-675.164	12.465	0.046	0.036
-674.149	254.916	-0.148	-0.257
-673.135	-200.000	-0.026	-0.142
-672.120	-200.000	-0.018	0.169
-671.105	-129.640	-0.188	0.026
-670.091	51.154	0.093	0.089
-669.076	-200.000	-0.055	0.288
-668.062	19.158	-0.364	-0.296
-667.047	8.173	-0.103	-0.079
-666.032	102.736	-0.104	-0.124
-665.018	64.520	0.243	-0.248
-664.003	-53.633	-0.068	-0.031
-662.989	116.526	-0.106	0.131
-661.974	800.000	0.060	0.241
-660.959	-200.000	-0.044	-0.277
-659.945	-200.000	-0.005	0.374
-658.930	-51.471	0.122	0.058
-657.916	800.000	0.009	0.029
-656.901	109.130	-0.110	0.133
-655.886	-122.033	-0.197	-0.033
-654.872	-65.662	0.123	-0.050
-653.857	800.000	-0.076	0.249
-652.843	270.473	0.094	0.168
-651.828	-200.000	0.006	-0.110
-650.814	-140.757	0.257	-0.027
-649.799	-59.881	0.234	0.101
-648.784	-77.998	-0.222	-0.078
-647.770	59.717	-0.168	0.168
-646.755	-40.073	0.046	0.025
-645.741	-200.000	-0.016	-0.095
-644.726	67.974	0.066	0.068
-643.711	800.000	-0.070	0.266
-642.697	-200.000	0.035	-0.306
-641.682	-200.000	0.007	-0.377
-640.668	-37.174	0.025	-0.013
-639.653	-145.330	-0.138	0.013
-638.638	481.109	0.036	-0.084
-637.624	85.807	-0.124	0.138
-636.609	56.430	0.044	-0.044
-635.595	-33.074	-0.238	0.134
-634.580	-8.875	0.301	-0.204
-633.565	138.637	0.153	0.204
-632.551	-69.488	-0.095	-0.037
-631.536	-61.090	0.101	0.043
-630.522	-9.066	-0.260	-0.176
-629.507	800.000	0.123	-0.467
-628.492	-200.000	0.002	-0.022
-627.478	279.862	0.122	0.220
-626.463	107.279	0.083	0.100
-625.449	-200.000	-0.017	0.115
-624.434	-21.131	-0.184	0.114
-623.419	-112.273	0.177	0.036
-622.405	-113.132	-0.078	0.016
-621.390	195.977	0.058	0.089
-620.376	201.105	-0.050	0.078
-619.361	-200.000	-0.002	-0.069
-618.346	-121.495	0.222	0.037
-617.332	-58.767	-0.172	-0.075
-616.317	800.000	0.141	0.409
-615.303	359.477	-0.107	0.216
-614.288	-163.749	-0.307	0.015
-613.273	800.000	0.166	-0.516
-612.259	237.342	0.079	0.132
-611.244	-10.545	0.165	0.110
-610.230	18.982	0.194	0.157
-609.215	91.610	0.098	-0.111
-608.201	64.608	0.169	0.173
-607.186	-16.218	0.224	-0.144
-606.171	-200.000	-0.004	0.155
-605.157	-24.894	0.092	0.055
-604.142	115.403	0.165	-0.204
-603.128	-39.255	-0.046	-0.025
-602.113	-7.593	0.166	0.114
-601.098	-186.236	0.102	-0.002
-600.084	800.000	-0.063	0.267
-599.069	441.301	-0.155	-0.343
-598.055	-168.934	-0.107	0.004
-597.040	-200.000	0.023	0.323
-596.025	800.000	0.056	0.215
-595.011	125.100	0.061	-0.078
-593.996	237.895	-0.022	-0.037
-592.982	-82.406	-0.109	-0.036
-591.967	416.090	-0.055	0.119
-590.952	-97.365	0.424	0.112
-589.938	20.466	-0.085	-0.069
-588.923	53.016	-0.257	0.248
-587.909	-20.157	-0.045	0.028
-586.894	195.606	0.098	-0.151
-585.879	-54.477	-0.088	-0.040
-584.865	800.000	-0.009	-0.026
-583.850	96.003	0.064	-0.074
-582.836	-95.647	-0.122	0.033
-581.821	130.473	-0.055	0.072
-580.806	-106.026	0.259	0.059
-579.792	-24.451	0.100	0.060
-578.777	-3.132	0.178	0.125
-577.763	-200.000	0.013	-0.238
-576.748	-200.000	0.011	0.094
-575.733	718.662	0.024	-0.064
-574.719	56.713	-0.090	0.089
-573.704	14.923	0.168	-0.133
-572.690	800.000	0.044	-0.175
-571.675	800.000	-0.083	-0.263
-570.661	800.000	-0.066	0.244
-569.646	-200.000	-0.035	-0.162
-568.631	-186.930	-0.107	-0.002
-567.617	-71.139	-0.392	0.149
-566.602	-6.705	0.047	0.032
-565.588	800.000	0.042	-0.130
-564.573	-71.281	-0.014	0.005
-563.558	118.335	-0.116	0.144
-562.544	29.145	0.203	-0.174
-561.529	800.000	-0.053	-0.197
-560.515	28.538	-0.148	0.127
-559.500	-80.589	0.180	0.060
-558.485	-200.000	0.014	-0.321
-557.471	123.703	0.092	0.116
-556.456	-128.288	0.204	0.029
-555.442	-81.371	-0.206	-0.069
-554.427	-60.777	-0.253	-0.108
-553.412	12.309	0.187	0.146
-552.398	-200.000	-0.009	-0.341
-551.383	66.028	-0.180	-0.184
-550.369	514.572	-0.115	-0.270
-549.354	319.618	0.173	-0.331
-548.339	91.862	-0.064	-0.072
-547.325	800.000	0.103	0.306
-546.310	-200.000	-0.043	0.239
-545.296	-111.208	-0.218	-0.045
-544.281	-31.611	0.377	0.214
-543.266	-200.000	0.012	-0.522
-542.252	168.122	0.018	0.026
-541.237	-108.463	-0.291	-0.063
-540.223	-200.000	0.035	-0.233
-539.208	92.494	-0.351	-0.400
-538.193	-119.811	-0.239	0.041
-537.179	-123.539	-0.159	0.026
-536.164	40.634	-0.248	-0.226
-535.150	-142.128	-0.258	0.026
-534.135	-200.000	0.008	-0.165
-533.121	-102.613	0.280	-0.068
-532.106	-135.034	0.119	0.015
-531.091	-200.000	0.024	0.120
-530.077	-200.000	-0.010	-0.169
-529.062	150.816	0.157	-0.216
-528.048	-200.000	-0.025	-0.437
-527.033	265.177	-0.150	-0.263
-526.018	-200.000	0.008	0.104
-525.004	-200.000	0.015	-0.098
-523.989	746.282	-0.072	-0.194
-522.975	-200.000	0.015	0.125
-521.960	4.594	0.179	-0.132
-520.945	-5.850	-0.205	0.141
-519.931	218.834	0.035	-0.057
-518.916	-143.621	0.250	0.024
-517.902	800.000	-0.072	-0.228
-516.887	75.087	-0.236	-0.250
-515.872	-84.852	-0.207	-0.066
-514.858	721.005	-0.079	-0.211
-513.843	160.189	0.177	-0.248
-512.829	-56.459	0.286	-0.128
-511.814	-149.265	0.172	-0.014
-510.799	-15.493	0.059	-0.038
-509.785	-149.305	-0.288	0.023
-508.770	391.942	0.058	0.122
-507.756	35.234	0.221	0.195
-506.741	800.000	0.018	-0.075
-505.726	-1.502	-0.240	0.170
-504.712	-200.000	-0.024	-0.543
-503.697	61.378	0.213	-0.213
-502.683	-100.240	-0.234	0.059
-501.668	-200.000	-0.034	0.251
-500.653	-92.523	0.203	0.058
-499.639	800.000	0.074	-0.312
-498.624	-200.000	0.029	0.374
-497.610	800.000	0.087	-0.338
-496.595	45.300	-0.072	-0.067
-495.581	800.000	0.050	0.217
-494.566	588.671	0.094	0.234
-493.551	-200.000	0.011	0.212
-492.537	-200.000	-0.053	-0.323
-491.522	388.472	-0.021	-0.043
-490.508	-31.954	0.203	0.115
-489.493	-34.432	0.183	0.101
-488.478	-56.832	-0.213	-0.095
-487.464	70.171	-0.068	-0.071
-486.449	140.049	-0.171	0.227
-485.435	-52.275	-0.080	0.037
-484.420	57.265	-0.160	0.157
-483.405	138.033	0.115	-0.152
-482.391	-200.000	0.006	-0.107
-481.376	-200.000	-0.015	-0.176
-480.362	111.105	0.070	-0.085
-479.347	102.744	-0.219	0.258
-478.332	-200.000	0.003	-0.360
-477.318	28.046	-0.095	0.081
-476.303	-59.621	0.141	-0.061
-475.289	21.065	0.051	0.042
-474.274	260.975	-0.182	0.317
-473.259	228.208	-0.103	-0.169
-472.245	-200.000	0.000	0.166
-471.230	800.000	-0.023	-0.063
-470.216	43.385	0.129	0.118
-469.201	-106.873	0.070	-0.016
-468.186	86.999	0.138	0.154
-467.172	3.656	-0.086	-0.063
-466.157	173.755	0.129	-0.187
-465.143	-200.000	0.039	-0.207
-464.128	-115.417	-0.141	-0.027
-463.113	-9.966	0.313	-0.210
-462.099	-117.384	0.169	0.031
-461.084	212.509	0.177	0.281
-460.070	-50.111	-0.325	0.155
-459.055	-62.654	-0.311	0.130
-458.040	-134.214	-0.167	0.021
-457.026	800.000	0.114	-0.382
-456.011	218.864	-0.022	0.035
-454.997	-91.382	0.304	0.087
-453.982	800.000	0.068	-0.216
-452.968	58.519	0.037	-0.037
-451.953	-189.037	-0.130	-0.002
-450.938	800.000	-0.074	0.254
-449.924	-38.612	-0.109	0.058
-448.909	-54.709	0.076	0.035
-447.895	67.096	0.258	-0.264
-446.880	-129.121	0.288	-0.040
-445.865	800.000	-0.029	0.105
-444.851	595.573	0.026	0.064
-443.836	-12.028	0.081	0.053
-442.822	-70.974	-0.253	0.096
-441.807	-81.163	0.155	-0.052
-440.792	800.000	-0.049	-0.181
-439.778	86.511	0.122	-0.135
-438.763	800.000	0.055	0.197
-437.749	-20.192	-0.353	0.219
-436.734	-9.377	0.428	0.287
-435.719	201.997	0.200	-0.310
-434.705	-116.105	-0.329	0.061
-433.690	800.000	0.033	-0.101
-432.676	-29.893	-0.237	-0.136
-431.661	800.000	-0.079	0.286
-430.646	-200.000	0.050	0.322
-429.632	221.845	0.097	-0.157
-428.617	-2.226	0.123	0.087
-427.603	-200.000	-0.023	0.270
-426.588	-155.289	0.213	0.014
-425.573	352.913	0.143	0.285
-424.559	-180.035	0.036	-0.001
-423.544	-59.440	0.298	0.129
-422.530	-17.918	-0.245	-0.154
-421.515	575.688	0.109	0.268
-420.500	-84.129	0.074	0.024
-419.486	-200.000	-0.005	-0.084
-418.471	-200.000	-0.105	0.615
-417.457	800.000	-0.046	0.177
-416.442	-37.112	-0.400	-0.215
-415.428	435.310	-0.054	-0.117
-414.413	800.000	-0.105	0.301
-413.398	96.854	-0.173	0.199
-412.384	-75.888	-0.081	-0.029
-411.369	-72.000	-0.297	0.111
-410.355	88.598	0.116	0.129
-409.340	-120.280	-0.137	-0.024
-408.325	800.000	0.071	0.214
-407.311	-200.000	-0.001	0.193
-406.296	74.819	0.304	-0.321
-405.282	-127.637	0.237	0.034
-404.267	758.094	0.105	-0.285
-403.252	800.000	-0.017	-0.049
-402.238	34.827	-0.066	-0.058
-401.223	486.793	0.089	-0.203
-400.209	567.394	-0.165	0.402
-399.194	-200.000	-0.019	0.311
-398.179	162.433	-0.181	-0.255
-397.165	730.106	0.044	0.117
-396.150	800.000	0.079	0.270
-395.136	537.640	-0.055	-0.132
-394.121	144.443	-0.204	-0.273
-393.106	-139.841	0.119	-0.013
-392.092	-65.631	-0.262	-0.106
-391.077	286.759	-0.043	-0.078
-390.063	107.629	-0.089	0.106
-389.048	-15.921	-0.328	0.210
-388.033	-142.730	-0.268	-0.026
-387.019	800.000	-0.095	0.315
-386.004	800.000	0.050	-0.210
-384.990	-200.000	0.027	-0.308
-383.975	800.000	-0.036	0.135
-382.960	-200.000	0.044	-0.295
-381.946	59.403	0.224	0.221
-380.931	-200.000	-0.043	-0.268
-379.917	800.000	-0.024	-0.080
-378.902	247.111	0.197	0.334
-377.888	-26.162	-0.250	0.147
-376.873	800.000	0.034	-0.142
-375.858	571.484	-0.142	0.348
-374.844	-53.100	-0.250	0.115
-373.829	-38.682	0.076	-0.040
-372.815	228.663	0.108	0.176
-371.800	-200.000	0.008	-0.075
-370.785	26.777	-0.424	0.356
-369.771	-200.000	-0.023	0.273
-368.756	244.641	0.046	0.077
-367.742	36.690	0.198	-0.176
-366.727	94.672	-0.097	-0.111
-365.712	-77.696	-0.054	-0.019
-364.698	466.168	-0.136	-0.305
-363.683	-200.000	-0.005	0.166
-362.669	-200.000	0.024	-0.349
-361.654	229.686	0.151	-0.246
-360.639	-106.663	-0.180	0.040
-359.625	-200.000	-0.035	0.211
-358.610	107.038	0.115	0.136
-357.596	602.188	0.082	0.203
-356.581	102.675	0.146	-0.172
-355.566	800.000	-0.080	0.321
-354.552	356.714	-0.215	0.429
-353.537	-200.000	-0.022	0.154
-352.523	-60.768	0.058	0.025
-351.508	390.398	-0.087	-0.180
-350.493	90.792	0.115	0.129
-349.479	-200.000	-0.034	-0.197
-348.464	398.832	0.206	-0.432
-347.450	-60.563	-0.211	0.090
-346.435	52.771	0.153	0.146
-345.420	421.106	0.094	-0.202
-344.406	133.159	-0.099	0.128
-343.391	-34.185	0.173	-0.095
-342.377	-200.000	-0.046	-0.273
-341.362	-158.701	0.465	-0.027
-340.348	-56.186	0.380	-0.170
-339.333	167.466	-0.202	-0.288
-338.318	82.692	-0.121	-0.131
-337.304	68.205	-0.130	0.133
-336.289	-200.000	-0.013	0.272
-335.275	-200.000	-0.094	0.475
-334.260	-73.788	-0.026	0.010
-333.245	1.742	0.226	-0.163
-332.231	-200.000	0.047	0.214
-331.216	346.156	-0.138	-0.271
-330.202	800.000	-0.056	-0.202
-329.187	206.070	0.186	0.289
-328.172	237.370	0.049	0.081
-327.158	55.252	0.163	-0.157
-326.143	5.279	0.122	0.090
-325.129	-86.256	-0.290	0.089
-324.114	-200.000	0.017	-0.232
-323.099	-145.362	-0.153	-0.014
-322.085	20.410	-0.069	0.055
-321.070	-84.380	-0.285	-0.090
-320.056	253.583	-0.062	0.107
-319.041	282.239	-0.117	0.210
-318.026	-115.598	0.126	0.024
-317.012	-200.000	0.050	0.414
-315.997	-200.000	0.045	0.307
-314.983	-200.000	0.012	0.173
-313.968	-48.591	-0.327	-0.157
-312.953	-200.000	-0.030	0.147
-311.939	10.158	0.272	0.207
-310.924	136.319	0.084	-0.110
-309.910	-7.313	-0.258	-0.175
-308.895	23.443	-0.267	0.220
-307.880	287.330	0.041	-0.073
-306.866	792.196	-0.079	0.216
-305.851	308.794	0.139	-0.259
-304.837	36.111	-0.186	0.164
-303.822	-200.000	0.010	0.213
-302.807	-28.991	0.322	0.185
-301.793	-115.219	-0.198	0.038
-300.778	56.845	-0.100	-0.097
-299.764	-200.000	0.011	-0.192
-298.749	565.732	-0.079	0.193
-297.735	149.759	0.229	0.310
-296.720	166.729	0.075	-0.107
-295.705	-53.462	-0.207	0.095
-294.691	800.000	0.064	-0.195
-293.676	-188.023	0.168	-0.002
-292.662	518.801	0.101	-0.237
-291.647	-118.722	-0.228	0.040
-290.632	800.000	0.073	0.223
-289.618	-102.892	0.387	-0.092
-288.603	-200.000	-0.012	-0.091
-287.589	481.784	0.081	-0.184
-286.574	-200.000	-0.029	0.311
-285.559	-69.546	0.325	-0.124
-284.545	104.728	0.191	0.225
-283.530	38.118	0.039	-0.035
-282.516	486.322	-0.070	-0.159
-281.501	-33.291	-0.194	0.107
-280.486	104.663	0.219	-0.258
-279.472	179.969	0.063	0.093
-278.457	-200.000	-0.019	-0.193
-277.443	-91.202	-0.319	-0.091
-276.428	-0.144	-0.189	0.134
-275.413	640.659	0.093	-0.236
-274.399	177.706	0.076	0.111
-273.384	68.274	0.093	-0.095
-272.370	113.538	0.070	0.085
-271.355	800.000	0.106	-0.297
-270.340	-200.000	0.019	-0.271
-269.326	800.000	-0.069	0.296
-268.311	62.614	0.180	-0.180
-267.297	-200.000	-0.048	-0.271
-266.282	28.280	0.315	-0.265
-265.267	46.524	0.189	0.175
-264.253	584.212	-0.052	-0.127
-263.238	293.315	-0.074	-0.135
-262.224	50.315	0.048	0.046
-261.209	62.141	0.167	0.166
-260.195	51.733	0.069	0.066
-259.180	-110.616	-0.073	-0.015
-258.165	-95.318	-0.447	-0.120
-257.151	13.149	0.264	0.204
-256.136	415.801	-0.076	0.161
-255.122	724.502	-0.094	-0.249
-254.107	-21.019	0.163	-0.099
-253.092	-114.376	-0.127	-0.024
-252.078	-130.034	-0.227	-0.031
-251.063	131.374	-0.229	-0.293
-250.049	-63.727	-0.278	0.114
-249.034	104.236	-0.142	-0.167
-248.019	-182.416	-0.210	-0.004
-247.005	-15.803	0.068	-0.043
-245.990	-94.077	-0.078	-0.021
-244.976	593.764	-0.048	0.118
-243.961	800.000	0.108	-0.319
-242.946	-51.122	0.125	0.058
-241.932	38.030	0.117	-0.104
-240.917	732.095	-0.054	-0.143
-239.903	800.000	-0.153	0.570
-238.888	-59.817	-0.306	-0.131
-237.873	78.667	-0.239	-0.255
-236.859	188.662	-0.140	-0.209
-235.844	-200.000	-0.008	-0.065
-234.830	9.642	0.332	-0.251
-233.815	260.043	-0.032	0.055
-232.800	800.000	-0.097	-0.299
-231.786	47.692	0.088	-0.082
-230.771	-126.672	-0.481	-0.071
-229.757	-141.325	0.091	-0.009
-228.742	800.000	-0.080	0.226
-227.727	-33.446	-0.210	0.116
-226.713	205.571	0.077	0.120
-225.698	161.502	0.194	0.270
-224.684	24.705	-0.189	-0.156
-223.669	-42.371	0.225	0.114
-222.655	-135.201	-0.151	-0.018
-221.640	-3.437	0.218	-0.151
-220.625	747.397	0.058	0.156
-219.611	464.998	-0.036	0.080
-218.596	-161.399	-0.324	0.017
-217.582	800.000	0.108	-0.436
-216.567	-98.682	0.433	0.110
-215.552	-200.000	0.047	0.238
-214.538	-46.672	0.159	0.077
-213.523	9.759	0.106	0.080
-212.509	-85.761	-0.427	0.132
-211.494	800.000	-0.134	0.450
-210.479	14.933	0.112	0.088
-209.465	579.323	-0.033	-0.081
-208.450	37.070	-0.154	0.135
-207.436	7.552	-0.189	-0.141
-206.421	46.092	-0.156	0.144
-205.406	170.194	-0.139	-0.197
-204.392	-200.000	0.010	-0.521
-203.377	5.857	-0.249	-0.184
-202.363	-200.000	-0.014	-0.067
-201.348	-32.519	-0.144	0.080
-200.333	272.134	0.095	0.167
-199.319	800.000	-0.054	-0.168
-198.304	-143.926	0.296	-0.028
-197.290	367.856	-0.034	-0.069
-196.275	-102.927	0.452	-0.107
-195.260	225.094	0.190	0.306
-194.246	-200.000	-0.012	0.101
-193.231	117.916	-0.228	0.279
-192.217	-93.270	0.215	0.059
-191.202	510.997	-0.070	-0.162
-190.187	-65.174	0.392	-0.157
-189.173	-200.000	0.004	-0.324
-188.158	205.464	-0.075	0.116
-187.144	-200.000	0.035	0.231
-186.129	-200.000	-0.053	-0.332
-185.114	-58.861	0.088	-0.038
-184.100	-51.989	0.133	-0.061
-183.085	-71.209	0.081	0.030
-182.071	-200.000	0.039	-0.178
-181.056	196.212	0.159	-0.241
-180.042	-200.000	0.030	0.327
-179.027	-84.295	0.191	0.060
-178.012	-200.000	-0.010	0.280
-176.998	48.562	-0.138	0.128
-175.983	800.000	-0.092	0.333
-174.969	629.647	-0.118	-0.298
-173.954	404.325	-0.077	0.161
-172.939	69.116	0.186	0.190
-171.925	-200.000	0.011	0.406
-170.910	800.000	-0.075	0.267
-169.896	187.523	-0.057	0.084
-168.881	113.057	-0.071	0.085
-167.866	-157.068	-0.168	-0.010
-166.852	-47.796	0.233	0.112
-165.837	14.857	0.276	-0.214
-164.823	487.461	-0.110	-0.251
-163.808	602.420	0.121	0.298
-162.793	-124.838	-0.096	-0.015
-161.779	45.736	0.095	0.087
-160.764	-42.314	-0.087	0.044
-159.750	-36.231	0.106	-0.057
-158.735	800.000	-0.061	-0.213
-157.720	-200.000	0.029	0.179
-156.706	581.538	0.108	-0.263
-155.691	-98.264	0.287	-0.073
-154.677	19.953	0.214	-0.172
-153.662	734.552	-0.100	0.266
-152.647	-50.766	0.133	-0.062
-151.633	-200.000	-0.028	0.153
-150.618	-200.000	-0.100	0.510
-149.604	-66.051	0.279	-0.111
-148.589	-200.000	-0.017	0.146
-147.574	-107.904	0.141	0.030
-146.560	-76.455	-0.067	0.024
-145.545	-119.834	0.135	0.023
-144.531	-30.111	0.166	-0.094
-143.516	-200.000	0.002	0.054
-142.502	-200.000	0.008	0.065
-141.487	9.576	0.136	-0.102
-140.472	-91.704	-0.144	0.041
-139.458	130.518	0.183	-0.233
-138.443	-143.421	0.331	-0.031
-137.429	-75.569	-0.124	-0.044
-136.414	-14.383	-0.180	-0.115
-135.399	-16.609	-0.341	-0.215
-134.385	-41.941	-0.224	0.114
-133.370	384.839	0.073	-0.149
-132.356	260.097	-0.084	0.144
-131.341	-153.974	0.233	-0.016
-130.326	800.000	0.043	-0.161
-129.312	-28.006	0.304	-0.175
-128.297	534.814	0.162	0.382
-127.283	284.513	0.112	0.200
-126.268	-53.015	0.404	-0.185
-125.253	-200.000	-0.039	0.232
-124.239	-13.351	-0.271	0.175
-123.224	15.482	0.229	0.178
-122.210	-200.000	0.010	0.180
-121.195	-200.000	-0.039	0.347
