DTS Sentinel unit serial number:	SN413079Multiplexer serial number:	ORYXHardware model number:	OX4-SRSoftware version number:	ORYX F/W v4.00 Oryx Data Collector v3.7.2.0data status	okinstallation	princeton_trtdifferential loss correction	single-endedforward channel	channel 4reverse channel	N/Adate	2019/09/10time	21:31:11forward acquisition time	60.00reverse acquisition time	0.00gamma	496.2192k internal	0.2314k external	0.2314temperature offset calibration	0.9946default loss term (dB/km)	0.3790temperature slope calibration	1.0000multiplexer offset coefficient	1.0000multiplexer slope coefficient	1.0000fibre end	0.00T internal ref (°C)	31.12T ext. ref 1 (°C)	-0.32T ext. ref 2 (°C)	24.34length (m)	temperature (°C)	Stokes	anti-Stokes-747.200	84.039	0.050	0.055
-746.185	103.475	0.196	0.233
-745.171	283.033	-0.091	-0.165
-744.156	-92.953	-0.056	0.016
-743.142	-23.602	0.069	0.042
-742.127	144.205	-0.075	0.102
-741.112	-62.604	-0.328	-0.138
-740.098	-200.000	0.010	-0.119
-739.083	800.000	-0.077	-0.297
-738.069	-200.000	0.001	-0.059
-737.054	-148.325	-0.159	-0.013
-736.039	800.000	-0.116	-0.450
-735.025	106.690	0.243	0.292
-734.010	130.633	-0.111	-0.145
-732.996	-106.793	0.364	0.082
-731.981	-20.200	-0.262	0.163
-730.966	151.440	0.162	-0.223
-729.952	394.184	0.044	-0.094
-728.937	-100.949	-0.461	0.115
-727.923	-200.000	0.004	-0.134
-726.908	454.923	-0.168	-0.377
-725.894	47.789	-0.059	0.056
-724.879	417.160	0.125	-0.271
-723.864	-74.267	0.176	-0.065
-722.850	-59.094	-0.291	-0.127
-721.835	479.274	-0.094	-0.215
-720.821	109.132	0.136	-0.165
-719.806	-142.211	0.081	0.008
-718.791	-121.193	-0.062	0.010
-717.777	7.078	-0.445	-0.337
-716.762	-200.000	0.026	0.411
-715.748	800.000	0.082	-0.268
-714.733	2.692	-0.071	0.052
-713.718	689.609	-0.090	-0.239
-712.704	167.733	0.099	0.143
-711.689	-104.802	0.112	-0.026
-710.675	22.876	-0.112	-0.093
-709.660	800.000	0.066	-0.264
-708.645	-40.103	-0.072	0.038
-707.631	-200.000	0.006	0.313
-706.616	-77.924	0.157	-0.055
-705.602	-38.415	0.409	-0.219
-704.587	75.377	-0.100	-0.107
-703.572	-51.596	0.253	0.119
-702.558	-200.000	-0.012	0.109
-701.543	31.508	0.229	-0.199
-700.529	170.540	-0.094	0.137
-699.514	701.961	-0.073	-0.196
-698.499	-6.739	-0.073	-0.050
-697.485	-39.664	-0.116	-0.061
-696.470	54.966	-0.105	-0.103
-695.456	-14.521	-0.134	0.087
-694.441	775.616	-0.044	0.122
-693.426	-137.186	0.549	0.063
-692.412	-34.690	0.067	0.037
-691.397	-167.209	0.346	0.014
-690.383	64.491	0.172	-0.175
-689.368	171.777	0.141	-0.205
-688.354	-1.326	0.056	-0.040
-687.339	316.330	-0.022	0.042
-686.324	-143.950	-0.284	0.027
-685.310	-200.000	-0.009	0.072
-684.295	800.000	0.062	0.218
-683.281	22.972	-0.136	-0.113
-682.266	166.834	-0.128	-0.184
-681.251	-142.879	-0.271	0.027
-680.237	45.582	0.178	0.167
-679.222	84.269	-0.116	-0.128
-678.208	-110.201	-0.228	-0.048
-677.193	-200.000	0.058	-0.320
-676.178	-138.475	0.173	0.019
-675.164	-143.809	-0.167	-0.016
-674.149	-200.000	-0.021	0.231
-673.135	-78.311	0.063	-0.022
-672.120	800.000	0.016	-0.069
-671.105	-23.843	0.199	-0.121
-670.091	800.000	0.086	-0.326
-669.076	104.206	0.082	-0.097
-668.062	95.369	0.101	-0.117
-667.047	41.284	-0.013	0.012
-666.032	-46.533	-0.210	-0.104
-665.018	-117.258	-0.251	0.046
-664.003	8.338	0.203	-0.154
-662.989	1.520	0.179	0.130
-661.974	-2.027	-0.091	-0.065
-660.959	-141.015	-0.393	-0.041
-659.945	8.659	-0.102	0.078
-658.930	96.536	0.121	-0.140
-657.916	-109.229	-0.187	-0.040
-656.901	-200.000	-0.071	-0.364
-655.886	-30.460	-0.081	-0.046
-654.872	541.070	0.062	0.149
-653.857	-77.082	-0.415	-0.146
-652.843	-0.891	0.141	-0.101
-651.828	-50.532	0.122	-0.058
-650.814	-200.000	-0.016	-0.246
-649.799	76.212	0.143	-0.152
-648.784	-200.000	0.092	0.519
-647.770	-47.806	0.305	0.149
-646.755	-68.706	-0.271	-0.106
-645.741	-28.942	0.135	-0.079
-644.726	-200.000	0.037	-0.198
-643.711	136.382	0.036	0.047
-642.697	113.864	-0.189	0.232
-641.682	144.266	-0.148	-0.199
-640.668	38.149	-0.069	-0.062
-639.653	264.083	-0.096	0.169
-638.638	309.848	0.127	-0.239
-637.624	3.054	0.145	-0.106
-636.609	20.903	0.237	-0.194
-635.595	25.731	0.048	-0.040
-634.580	-158.300	-0.117	-0.007
-633.565	-168.294	-0.055	-0.002
-632.551	732.222	0.042	0.112
-631.536	800.000	0.094	-0.393
-630.522	81.289	-0.106	0.115
-629.507	164.979	-0.146	0.208
-628.492	-117.851	0.240	0.044
-627.478	106.531	-0.189	0.226
-626.463	197.207	0.255	-0.393
-625.449	138.083	-0.010	0.013
-624.434	-109.535	-0.195	-0.041
-623.419	-18.075	0.277	-0.175
-622.405	173.691	0.154	0.225
-621.390	-68.381	-0.121	0.047
-620.376	-200.000	0.070	-0.343
-619.361	-58.890	-0.349	-0.152
-618.346	77.648	0.116	-0.125
-617.332	-130.214	-0.336	-0.046
-616.317	10.709	0.180	-0.139
-615.303	-200.000	0.025	-0.132
-614.288	-133.033	0.163	-0.021
-613.273	-54.069	-0.046	0.021
-612.259	800.000	0.037	-0.137
-611.244	22.750	0.054	0.044
-610.230	121.896	0.173	0.218
-609.215	-200.000	-0.039	-0.204
-608.201	318.067	0.045	0.087
-607.186	644.431	0.089	-0.229
-606.171	-50.903	-0.173	0.082
-605.157	-63.752	0.088	-0.036
-604.142	225.020	-0.191	-0.311
-603.128	-200.000	0.025	-0.392
-602.113	-39.177	-0.149	0.079
-601.098	102.112	0.140	-0.165
-600.084	-60.371	0.114	-0.049
-599.069	-52.015	0.058	-0.027
-598.055	-172.703	-0.260	0.008
-597.040	169.898	-0.196	0.283
-596.025	-72.724	-0.287	-0.107
-595.011	-121.461	0.223	-0.037
-593.996	-25.680	-0.062	-0.037
-592.982	29.482	0.098	0.084
-591.967	800.000	0.065	-0.228
-590.952	-200.000	0.002	0.059
-589.938	-41.954	-0.200	-0.103
-588.923	-200.000	-0.062	-0.339
-587.909	-200.000	-0.004	-0.075
-586.894	11.848	0.078	-0.061
-585.879	-46.613	-0.281	0.139
-584.865	460.134	0.087	-0.195
-583.850	-55.249	-0.255	0.115
-582.836	14.692	-0.101	-0.080
-581.821	-83.668	-0.379	0.122
-580.806	-81.633	0.367	-0.121
-579.792	-200.000	0.030	-0.268
-578.777	-49.145	-0.303	-0.146
-577.763	259.948	0.095	-0.165
-576.748	18.195	0.194	-0.156
-575.733	120.727	-0.094	-0.118
-574.719	-115.030	-0.253	0.048
-573.704	-147.698	0.320	0.027
-572.690	800.000	0.080	-0.298
-571.675	-3.091	-0.270	-0.190
-570.661	220.069	0.086	0.138
-569.646	10.157	0.042	0.032
-568.631	298.654	0.059	0.109
-567.617	10.508	-0.153	0.118
-566.602	-12.976	-0.014	0.009
-565.588	-19.895	-0.289	0.179
-564.573	714.213	-0.142	0.379
-563.558	254.731	-0.117	0.202
-562.544	-132.921	-0.240	0.031
-561.529	134.723	-0.121	-0.158
-560.515	35.109	-0.367	-0.324
-559.500	239.943	0.104	0.175
-558.485	23.341	0.298	0.247
-557.471	800.000	0.073	0.247
-556.456	67.237	-0.251	-0.258
-555.442	55.141	0.293	0.285
-554.427	-2.180	0.060	-0.042
-553.412	-172.672	0.322	-0.010
-552.398	-95.435	-0.164	0.044
-551.383	-15.288	-0.209	-0.135
-550.369	283.366	0.099	-0.180
-549.354	800.000	-0.048	-0.187
-548.339	-169.256	-0.185	-0.007
-547.325	-4.335	-0.378	-0.263
-546.310	-151.792	0.252	0.019
-545.296	800.000	-0.063	0.240
-544.281	-73.442	0.317	-0.117
-543.266	-10.308	0.227	-0.151
-542.252	-12.299	-0.230	0.151
-541.237	368.265	0.204	-0.416
-540.223	-29.066	-0.056	-0.032
-539.208	33.058	0.133	-0.116
-538.193	11.889	-0.105	0.081
-537.179	-200.000	-0.283	-0.001
-536.164	20.848	0.045	0.037
-535.150	-77.863	-0.056	-0.019
-534.135	-200.000	0.040	0.458
-533.121	-51.740	-0.170	-0.079
-532.106	342.391	0.104	0.204
-531.091	-83.975	0.174	0.056
-530.077	-4.046	-0.115	0.080
-529.062	143.320	0.215	0.288
-528.048	800.000	-0.137	0.498
-527.033	-109.702	0.206	-0.044
-526.018	188.257	0.116	0.174
-525.004	251.567	-0.058	0.099
-523.989	530.529	0.024	-0.057
-522.975	-200.000	-0.024	-0.310
-521.960	-13.021	0.121	0.079
-520.945	228.231	-0.090	0.147
-519.931	308.358	0.125	-0.235
-518.916	-200.000	0.053	-0.241
-517.902	-200.000	-0.035	0.255
-516.887	-136.444	0.070	0.008
-515.872	152.764	0.180	-0.247
-514.858	-200.000	0.023	-0.165
-513.843	98.083	-0.134	-0.155
-512.829	-64.431	0.341	0.139
-511.814	-180.260	-0.235	-0.005
-510.799	-79.998	0.242	0.082
-509.785	122.235	-0.266	0.334
-508.770	800.000	0.029	0.114
-507.756	-59.386	-0.279	-0.121
-506.741	-95.104	0.070	0.019
-505.726	1.925	0.221	0.160
-504.712	504.685	0.016	0.037
-503.697	-14.631	-0.065	-0.042
-502.683	502.017	-0.106	0.246
-501.668	242.485	-0.080	0.134
-500.653	-99.047	0.228	0.058
-499.639	-24.253	-0.256	0.153
-498.624	-17.351	0.133	-0.084
-497.610	366.317	-0.104	0.210
-496.595	-200.000	0.019	0.175
-495.581	-64.123	0.443	-0.182
-494.566	-200.000	0.007	0.065
-493.551	-167.781	0.331	-0.013
-492.537	137.497	-0.128	0.169
-491.522	-24.057	0.128	-0.077
-490.508	-200.000	-0.005	0.078
-489.493	800.000	0.118	-0.477
-488.478	800.000	-0.142	-0.503
-487.464	303.029	0.238	-0.442
-486.449	58.810	-0.302	0.298
-485.435	-137.910	0.359	0.040
-484.420	317.012	0.151	0.287
-483.405	318.863	-0.090	-0.171
-482.391	-189.887	-0.137	-0.002
-481.376	35.829	-0.121	0.107
-480.362	24.151	0.227	0.188
-479.347	79.156	0.207	0.223
-478.332	496.023	-0.053	0.122
-477.318	173.820	0.082	-0.119
-476.303	145.124	-0.097	0.131
-475.289	-54.927	-0.071	0.032
-474.274	381.632	0.221	-0.456
-473.259	-83.816	0.428	-0.137
-472.245	800.000	0.054	-0.160
-471.230	112.589	-0.190	0.230
-470.216	96.392	0.199	0.229
-469.201	-127.347	0.155	0.023
-468.186	-74.085	-0.315	0.114
-467.172	-75.117	0.156	0.056
-466.157	-60.962	0.179	-0.076
-465.143	-86.903	-0.188	0.058
-464.128	-101.885	-0.294	0.071
-463.113	208.111	-0.124	-0.195
-462.099	-82.788	-0.327	0.106
-461.084	-123.898	0.148	0.023
-460.070	800.000	-0.043	-0.182
-459.055	146.748	0.091	0.122
-458.040	-30.093	-0.267	-0.152
-457.026	112.979	-0.158	-0.192
-456.011	-107.746	0.465	0.102
-454.997	320.634	0.043	-0.082
-453.982	-84.622	0.267	0.084
-452.968	434.972	0.033	0.071
-451.953	63.371	0.148	0.149
-450.938	800.000	0.070	0.203
-449.924	28.109	0.057	0.049
-448.909	444.002	-0.140	0.308
-447.895	800.000	-0.030	0.093
-446.880	20.370	0.146	0.118
-445.865	-20.824	-0.098	-0.060
-444.851	800.000	-0.027	-0.085
-443.836	106.842	0.218	-0.259
-442.822	800.000	0.033	-0.103
-441.807	-93.797	-0.467	-0.129
-440.792	426.677	-0.192	0.414
-439.778	-76.966	-0.052	0.018
-438.763	-99.581	0.309	-0.078
-437.749	-135.981	0.174	-0.021
-436.734	-34.635	0.069	0.038
-435.719	-13.802	0.115	0.075
-434.705	-132.553	-0.145	-0.019
-433.690	-20.578	0.112	0.069
-432.676	-9.463	0.202	0.135
-431.661	175.063	-0.057	-0.082
-430.646	-16.597	-0.119	-0.075
-429.632	-200.000	-0.038	-0.186
-428.617	-200.000	0.034	-0.267
-427.603	249.026	-0.043	-0.073
-426.588	-15.402	-0.082	0.052
-425.573	536.021	0.078	-0.187
-424.559	-103.394	0.352	-0.083
-423.544	-200.000	0.047	-0.377
-422.530	-149.746	-0.325	-0.026
-421.515	-124.849	0.104	-0.016
-420.500	-49.719	0.085	0.040
-419.486	-132.236	0.118	0.015
-418.471	166.785	-0.105	-0.149
-417.457	42.640	0.247	0.225
-416.442	-62.570	-0.317	-0.132
-415.428	56.849	-0.300	0.293
-414.413	6.043	-0.149	-0.111
-413.398	-130.206	-0.414	0.056
-412.384	-78.435	-0.286	-0.098
-411.369	557.580	0.066	0.160
-410.355	-131.803	0.166	-0.022
-409.340	800.000	-0.053	-0.162
-408.325	800.000	-0.082	-0.256
-407.311	-200.000	0.002	-0.135
-406.296	5.365	-0.131	-0.097
-405.282	-28.268	0.046	-0.026
-404.267	27.562	0.155	0.130
-403.252	249.448	0.013	-0.022
-402.238	24.867	0.032	-0.027
-401.223	800.000	-0.060	-0.178
-400.209	-146.923	0.418	-0.036
-399.194	691.739	-0.143	0.374
-398.179	93.270	-0.172	0.194
-397.165	-175.657	-0.091	0.002
-396.150	-200.000	-0.015	0.106
-395.136	800.000	-0.046	-0.179
-394.121	36.118	-0.030	0.026
-393.106	800.000	0.037	-0.157
-392.092	-34.675	0.152	0.083
-391.077	176.189	0.153	-0.223
-390.063	800.000	0.048	-0.166
-389.048	-46.218	0.020	-0.010
-388.033	142.333	-0.077	-0.102
-387.019	78.893	-0.170	-0.182
-386.004	-200.000	-0.027	0.165
-384.990	-68.764	-0.282	-0.109
-383.975	-101.705	-0.405	-0.098
-382.960	353.036	-0.135	-0.269
-381.946	104.204	-0.116	0.137
-380.931	-111.452	0.169	-0.034
-379.917	-121.128	0.157	-0.026
-378.902	-24.540	0.196	-0.116
-377.888	-42.423	-0.344	0.176
-376.873	338.395	-0.129	-0.250
-375.858	3.211	-0.286	0.208
-374.844	-88.601	0.077	-0.023
-373.829	285.497	0.083	-0.150
-372.815	800.000	0.052	0.214
-371.800	609.436	-0.070	0.175
-370.785	-200.000	-0.015	0.087
-369.771	-200.000	0.004	-0.406
-368.756	-136.404	0.072	-0.008
-367.742	-27.552	-0.145	-0.084
-366.727	124.182	-0.095	0.119
-365.712	-125.297	-0.300	0.046
-364.698	-36.679	-0.284	0.152
-363.683	64.242	0.256	-0.257
-362.669	94.559	0.041	-0.047
-361.654	-24.086	0.063	-0.038
-360.639	-17.685	-0.299	-0.188
-359.625	318.906	0.054	-0.102
-358.610	-148.428	-0.178	-0.015
-357.596	93.976	-0.247	0.280
-356.581	-133.981	-0.134	0.017
-355.566	-200.000	0.038	0.386
-354.552	-119.550	-0.048	-0.008
-353.537	390.625	0.137	0.284
-352.523	-91.490	0.364	-0.104
-351.508	-172.378	-0.296	-0.009
-350.493	-175.563	-0.293	-0.008
-349.479	-42.112	0.287	0.147
-348.464	-100.566	0.253	0.063
-347.450	800.000	0.043	0.126
-346.435	54.299	-0.162	0.156
-345.420	448.954	0.094	0.208
-344.406	800.000	0.071	0.199
-343.391	111.257	-0.144	-0.173
-342.377	206.778	0.105	0.164
-341.362	521.826	0.049	-0.114
-340.348	432.882	-0.032	0.069
-339.333	246.739	-0.155	0.260
-338.318	-200.000	-0.032	0.257
-337.304	-166.179	-0.153	0.006
-336.289	647.238	0.024	-0.061
-335.275	-118.058	-0.392	0.070
-334.260	-67.571	0.138	-0.054
-333.245	-184.551	-0.289	-0.005
-332.231	-200.000	0.002	0.019
-331.216	-36.191	-0.268	-0.145
-330.202	65.002	-0.108	-0.109
-329.187	-10.092	-0.188	-0.125
-328.172	-41.410	-0.463	-0.238
-327.158	800.000	-0.011	-0.037
-326.143	-29.349	-0.153	0.087
-325.129	-36.182	0.149	-0.080
-324.114	413.675	-0.043	-0.092
-323.099	-200.000	0.073	-0.321
-322.085	668.891	-0.111	0.286
-321.070	-68.612	0.201	-0.078
-320.056	-28.418	-0.153	0.088
-319.041	-91.557	-0.493	0.140
-318.026	-64.971	0.173	0.070
-317.012	80.313	-0.063	0.068
-315.997	486.731	0.141	-0.322
-314.983	800.000	0.072	-0.222
-313.968	-200.000	0.269	0.001
-312.953	-31.219	-0.334	0.188
-311.939	367.724	0.013	-0.026
-310.924	-154.999	-0.103	-0.007
-309.910	18.263	0.309	0.246
-308.895	242.337	-0.152	0.253
-307.880	251.046	-0.028	-0.048
-306.866	231.387	-0.143	-0.234
-305.851	-27.061	-0.243	-0.141
-304.837	-76.866	-0.134	0.047
-303.822	439.594	0.032	-0.070
-302.807	-66.593	0.393	-0.155
-301.793	800.000	0.081	0.238
-300.778	688.116	-0.112	-0.291
-299.764	-92.045	0.467	0.132
-298.749	800.000	0.088	-0.272
-297.735	-200.000	0.032	0.218
-296.720	-200.000	0.039	-0.364
-295.705	67.316	0.120	0.122
-294.691	-200.000	0.009	0.041
-293.676	122.894	0.210	-0.262
-292.662	-0.631	0.055	0.039
-291.647	-154.978	0.348	-0.023
-290.632	800.000	-0.117	0.326
-289.618	660.529	0.017	0.045
-288.603	-200.000	0.013	-0.123
-287.589	487.324	-0.059	-0.134
-286.574	800.000	0.018	-0.062
-285.559	2.651	-0.161	-0.116
-284.545	-16.237	0.131	0.083
-283.530	129.131	-0.100	0.127
-282.516	-200.000	-0.032	0.441
-281.501	-200.000	0.001	-0.026
-280.486	-100.354	0.096	-0.024
-279.472	-17.597	-0.119	-0.075
-278.457	-200.000	-0.048	0.239
-277.443	426.042	-0.067	0.144
-276.428	-200.000	-0.035	0.193
-275.413	-200.000	-0.061	0.386
-274.399	-34.874	-0.090	0.049
-273.384	119.679	0.195	0.241
-272.370	44.961	-0.288	-0.264
-271.355	-200.000	0.022	-0.122
-270.340	-80.435	0.312	-0.104
-269.326	-50.935	-0.052	-0.024
-268.311	-44.858	-0.050	-0.025
-267.297	8.501	-0.293	-0.219
-266.282	81.061	-0.098	0.105
-265.267	-95.150	0.330	-0.088
-264.253	130.402	-0.059	0.076
-263.238	800.000	0.120	0.462
-262.224	225.264	0.159	0.257
-261.209	-200.000	-0.025	0.161
-260.195	-200.000	0.035	0.268
-259.180	800.000	-0.043	-0.138
-258.165	114.300	-0.030	0.036
-257.151	800.000	0.096	0.278
-256.136	70.476	0.234	0.240
-255.122	149.505	0.186	0.251
-254.107	-104.792	0.068	0.016
-253.092	-43.999	0.096	-0.048
-252.078	99.881	0.223	0.257
-251.063	800.000	0.052	-0.224
-250.049	111.756	-0.072	-0.087
-249.034	82.887	-0.200	0.216
-248.019	151.282	0.235	0.318
-247.005	114.741	-0.061	-0.073
-245.990	-86.709	-0.259	0.079
-244.976	99.883	0.115	0.133
-243.961	201.950	-0.102	-0.156
-242.946	-200.000	-0.020	0.169
-241.932	121.986	-0.260	-0.323
-240.917	-16.694	-0.196	-0.123
-239.903	21.154	0.071	0.057
-238.888	29.478	-0.277	-0.234
-237.873	-200.000	-0.031	-0.433
-236.859	-200.000	-0.044	0.194
-235.844	75.694	-0.077	-0.081
-234.830	800.000	-0.045	-0.168
-233.815	693.505	0.022	-0.058
-232.800	800.000	0.110	-0.448
-231.786	-52.856	-0.294	0.135
-230.771	-126.894	0.405	0.059
-229.757	-46.471	-0.239	0.117
-228.742	-200.000	-0.020	-0.194
-227.727	231.628	-0.187	-0.305
-226.713	100.933	-0.194	-0.224
-225.698	-200.000	-0.025	-0.117
-224.684	-170.228	0.252	0.009
-223.669	-64.325	0.179	0.072
-222.655	4.466	0.323	0.235
-221.640	115.714	0.137	0.166
-220.625	497.351	0.134	-0.307
-219.611	-72.501	0.166	0.061
-218.596	-71.133	-0.344	0.128
-217.582	-200.000	-0.022	0.332
-216.567	228.301	-0.042	-0.069
-215.552	-71.260	-0.185	0.069
-214.538	27.260	0.189	0.157
-213.523	53.867	0.165	0.158
-212.509	-200.000	0.026	-0.177
-211.494	-13.521	0.153	0.098
-210.479	388.491	0.076	0.155
-209.465	800.000	0.162	0.533
-208.450	-200.000	0.017	-0.216
-207.436	-27.946	0.282	-0.162
-206.421	-200.000	0.031	0.397
-205.406	-200.000	0.334	0.001
-204.392	-91.415	-0.143	0.040
-203.377	248.414	0.173	-0.290
-202.363	395.687	0.063	0.130
-201.348	-46.990	-0.120	-0.058
-200.333	80.816	-0.247	0.265
-199.319	-50.230	0.201	0.094
-198.304	221.113	0.031	-0.049
-197.290	82.142	-0.090	0.097
-196.275	-62.196	0.232	0.096
-195.260	112.987	-0.225	-0.271
-194.246	-200.000	0.006	0.099
-193.231	-200.000	0.060	-0.269
-192.217	12.612	0.249	0.191
-191.202	-200.000	0.080	0.362
-190.187	111.310	-0.102	0.122
-189.173	-166.336	-0.282	-0.012
-188.158	14.106	0.181	0.140
-187.144	134.427	0.174	0.224
-186.129	214.004	-0.125	-0.196
-185.114	-200.000	0.003	-0.080
-184.100	344.374	-0.089	-0.173
-183.085	-63.233	0.110	0.045
-182.071	249.289	0.094	-0.159
-181.056	-17.497	0.397	-0.248
-180.042	-142.369	-0.152	-0.015
-179.027	-82.870	0.219	0.070
-178.012	-141.221	0.588	-0.059
-176.998	128.552	-0.124	0.157
-175.983	84.787	-0.194	0.210
-174.969	157.378	-0.114	-0.156
-173.954	800.000	-0.038	0.149
-172.939	800.000	-0.069	0.224
-171.925	-172.773	-0.069	0.002
-170.910	-69.094	0.272	-0.104
-169.896	-200.000	-0.045	-0.227
-168.881	800.000	-0.042	-0.150
-167.866	125.268	-0.102	0.128
-166.852	800.000	-0.056	0.169
-165.837	-97.773	-0.207	0.053
-164.823	-16.918	0.365	-0.229
-163.808	167.885	-0.208	0.293
-162.793	-0.658	0.352	-0.247
-161.779	-21.535	0.130	-0.079
-160.764	1.162	0.298	-0.212
-159.750	800.000	-0.113	-0.382
-158.735	-31.298	-0.290	0.162
-157.720	-200.000	0.007	0.135
-156.706	-22.949	0.228	0.136
-155.691	800.000	-0.048	-0.163
-154.677	133.597	0.099	-0.127
-153.662	-95.606	-0.046	0.012
-152.647	242.589	-0.109	0.181
-151.633	-47.856	0.192	0.092
-150.618	88.559	-0.163	-0.179
-149.604	800.000	0.020	-0.062
-148.589	-200.000	-0.018	-0.222
-147.574	-67.764	-0.198	0.077
-146.560	-38.453	0.134	-0.070
-145.545	248.745	0.102	0.172
-144.531	-200.000	-0.010	0.113
-143.516	-164.208	0.249	0.011
-142.502	39.311	-0.198	-0.175
-141.487	-71.526	0.260	-0.096
-140.472	-26.427	-0.263	-0.153
-139.458	334.459	0.136	-0.261
-138.443	420.469	0.137	-0.290
-137.429	800.000	0.036	-0.140
-136.414	-28.631	-0.184	0.105
-135.399	501.301	0.113	-0.259
-134.385	59.026	-0.307	0.299
-133.370	-148.176	0.222	-0.018
-132.356	39.548	-0.138	-0.123
-131.341	218.648	0.051	-0.080
-130.326	-68.472	0.084	0.032
-129.312	-200.000	0.029	0.177
-128.297	-170.978	0.231	-0.008
-127.283	-200.000	0.002	-0.013
-126.268	519.292	-0.025	0.058
-125.253	629.680	-0.040	0.101
-124.239	800.000	-0.075	0.224
-123.224	112.920	-0.204	0.244
-122.210	800.000	0.090	0.373
-121.195	146.638	0.068	0.090
-120.180	-149.128	0.180	-0.014
