DTS Sentinel unit serial number:	SN413079Multiplexer serial number:	ORYXHardware model number:	OX4-SRSoftware version number:	ORYX F/W v4.00 Oryx Data Collector v3.7.2.0data status	okinstallation	princeton_trtdifferential loss correction	single-endedforward channel	channel 4reverse channel	N/Adate	2019/09/10time	18:11:11forward acquisition time	60.00reverse acquisition time	0.00gamma	496.2192k internal	0.2299k external	0.2299temperature offset calibration	0.9938default loss term (dB/km)	0.3790temperature slope calibration	1.0000multiplexer offset coefficient	1.0000multiplexer slope coefficient	1.0000fibre end	0.00T internal ref (°C)	36.72T ext. ref 1 (°C)	-0.43T ext. ref 2 (°C)	28.91length (m)	temperature (°C)	Stokes	anti-Stokes-747.200	69.733	0.137	0.144
-746.185	800.000	-0.071	0.254
-745.171	-200.000	0.051	0.364
-744.156	-88.180	0.217	0.066
-743.142	-200.000	-0.007	0.052
-742.127	747.803	-0.048	0.133
-741.112	-200.000	0.255	0.001
-740.098	10.866	-0.059	-0.046
-739.083	86.589	0.040	-0.045
-738.069	800.000	0.083	0.324
-737.054	19.223	-0.180	-0.148
-736.039	146.091	-0.073	0.099
-735.025	-200.000	0.021	0.214
-734.010	-94.798	0.094	0.026
-732.996	-0.623	0.249	-0.180
-731.981	-90.291	-0.164	-0.049
-730.966	-200.000	0.063	-0.294
-729.952	800.000	-0.126	-0.442
-728.937	-72.701	0.225	0.084
-727.923	-99.509	0.222	0.057
-726.908	-151.867	-0.074	0.006
-725.894	-191.149	-0.112	-0.001
-724.879	264.643	-0.051	0.090
-723.864	-200.000	0.053	0.304
-722.850	3.061	0.141	-0.105
-721.835	107.844	0.122	-0.148
-720.821	446.958	0.073	0.164
-719.806	130.890	-0.151	-0.197
-718.791	-55.487	-0.370	-0.169
-717.777	-6.296	0.183	0.127
-716.762	-200.000	-0.002	0.183
-715.748	290.475	0.225	-0.417
-714.733	411.890	0.143	0.310
-713.718	42.338	-0.123	-0.114
-712.704	-159.719	-0.376	-0.021
-711.689	-78.812	0.306	0.106
-710.675	-146.693	-0.161	-0.014
-709.660	-40.905	-0.189	0.100
-708.645	649.446	-0.053	-0.139
-707.631	-1.127	-0.261	-0.188
-706.616	273.251	0.076	-0.136
-705.602	34.313	-0.031	-0.027
-704.587	204.942	-0.028	-0.045
-703.572	18.435	-0.259	-0.210
-702.558	524.612	-0.037	-0.089
-701.543	-52.474	0.129	0.061
-700.529	503.129	0.040	0.095
-699.514	115.941	0.147	0.183
-698.499	4.772	-0.236	0.177
-697.485	-140.294	0.242	0.026
-696.470	-92.460	-0.217	0.062
-695.456	-2.656	0.180	0.128
-694.441	-200.000	0.025	-0.258
-693.426	-96.301	0.365	-0.098
-692.412	-124.679	0.398	-0.063
-691.397	800.000	-0.056	0.223
-690.383	58.572	-0.049	-0.049
-689.368	265.652	-0.044	-0.077
-688.354	29.847	0.071	-0.062
-687.339	-63.654	-0.066	0.028
-686.324	254.654	-0.048	0.084
-685.310	50.345	-0.133	-0.128
-684.295	-43.805	0.254	-0.130
-683.281	6.439	0.323	0.244
-682.266	800.000	-0.051	-0.151
-681.251	-200.000	0.015	-0.269
-680.237	-56.578	-0.227	-0.102
-679.222	-199.548	-0.478	-0.003
-678.208	800.000	-0.032	-0.138
-677.193	-18.092	0.215	0.137
-676.178	-43.460	0.059	-0.030
-675.164	-200.000	0.022	-0.176
-674.149	-59.701	0.124	-0.054
-673.135	-200.000	-0.052	-0.263
-672.120	-78.138	-0.286	0.100
-671.105	-200.000	-0.030	0.227
-670.091	-54.549	-0.270	0.124
-669.076	448.376	0.070	-0.156
-668.062	-200.000	0.025	-0.212
-667.047	-162.588	0.219	0.011
-666.032	167.041	-0.033	-0.048
-665.018	-154.559	-0.109	0.007
-664.003	-200.000	-0.053	-0.474
-662.989	53.855	0.219	-0.214
-661.974	-35.653	-0.048	-0.027
-660.959	-200.000	-0.024	-0.270
-659.945	625.980	-0.055	-0.141
-658.930	403.260	0.065	-0.139
-657.916	-200.000	0.001	0.039
-656.901	693.335	-0.063	-0.169
-655.886	43.259	-0.076	0.071
-654.872	-200.000	0.004	-0.389
-653.857	70.297	-0.032	-0.034
-652.843	607.785	0.144	-0.366
-651.828	-92.057	-0.175	0.050
-650.814	-200.000	-0.001	0.230
-649.799	-200.000	0.010	0.046
-648.784	369.258	-0.117	0.240
-647.770	-99.738	0.193	-0.049
-646.755	-200.000	0.042	-0.273
-645.741	-88.715	-0.410	-0.124
-644.726	86.226	-0.160	0.179
-643.711	-125.459	0.240	0.037
-642.697	-200.000	-0.032	0.248
-641.682	69.233	-0.191	0.199
-640.668	233.882	0.152	-0.254
-639.653	-108.870	0.116	0.025
-638.638	425.887	-0.117	-0.256
-637.624	-114.016	0.123	-0.024
-636.609	292.552	-0.049	0.090
-635.595	81.553	-0.041	0.045
-634.580	153.149	0.130	-0.181
-633.565	800.000	0.091	-0.332
-632.551	147.219	0.116	-0.158
-631.536	107.753	-0.138	-0.167
-630.522	-74.159	0.025	-0.009
-629.507	-1.938	-0.144	0.103
-628.492	-200.000	-0.002	-0.144
-627.478	382.678	-0.127	-0.265
-626.463	-200.000	-0.044	0.198
-625.449	427.073	-0.063	0.139
-624.434	-140.409	-0.200	-0.021
-623.419	87.135	0.089	0.100
-622.405	-95.884	0.151	0.041
-621.390	-137.047	-0.339	0.039
-620.376	53.562	-0.133	-0.129
-619.361	118.538	-0.244	0.306
-618.346	255.675	-0.136	0.237
-617.332	-99.650	-0.378	-0.096
-616.317	-42.622	-0.402	-0.208
-615.303	50.640	-0.390	0.375
-614.288	-132.779	-0.294	-0.038
-613.273	-86.733	-0.563	-0.175
-612.259	-52.331	-0.124	-0.058
-611.244	2.704	-0.152	-0.112
-610.230	800.000	0.078	0.238
-609.215	376.113	-0.063	-0.130
-608.201	104.380	-0.059	-0.070
-607.186	-142.448	0.058	0.006
-606.171	110.377	-0.165	0.201
-605.157	-34.732	0.193	-0.107
-604.142	-155.886	0.312	-0.020
-603.128	-70.716	-0.348	-0.133
-602.113	800.000	0.099	0.336
-601.098	800.000	0.058	-0.241
-600.084	-58.049	0.236	-0.105
-599.069	-200.000	-0.022	-0.151
-598.055	-61.131	-0.219	-0.094
-597.040	223.355	0.075	-0.123
-596.025	-200.000	-0.051	0.347
-595.011	412.782	-0.106	0.228
-593.996	-159.050	-0.059	-0.003
-592.982	-62.158	0.176	0.075
-591.967	35.668	0.145	-0.129
-590.952	8.188	-0.074	-0.056
-589.938	-75.136	0.249	0.090
-588.923	-200.000	0.013	-0.084
-587.909	549.000	-0.080	0.195
-586.894	-24.772	-0.173	-0.104
-585.879	-16.992	0.109	-0.070
-584.865	-116.525	-0.235	-0.044
-583.850	-160.086	-0.239	0.013
-582.836	800.000	0.068	0.249
-581.821	38.318	-0.218	-0.197
-580.806	-200.000	0.003	-0.180
-579.792	-3.971	-0.083	-0.058
-578.777	54.017	0.026	-0.026
-577.763	-152.250	0.204	-0.015
-576.748	-85.831	-0.518	-0.163
-575.733	-54.671	-0.194	0.089
-574.719	-17.410	-0.359	0.229
-573.704	800.000	0.030	-0.126
-572.690	-200.000	-0.003	0.104
-571.675	-200.000	0.012	-0.224
-570.661	-128.034	0.235	-0.034
-569.646	-130.848	0.254	0.035
-568.631	163.003	0.133	-0.190
-567.617	-39.817	-0.031	0.016
-566.602	-200.000	-0.012	-0.246
-565.588	-68.054	0.167	-0.066
-564.573	-126.043	-0.086	0.013
-563.558	187.884	-0.074	-0.112
-562.544	-41.532	-0.062	-0.032
-561.529	233.521	0.117	-0.194
-560.515	492.856	-0.168	-0.391
-559.500	-54.032	-0.185	-0.085
-558.485	-200.000	0.000	-0.150
-557.471	-200.000	-0.009	0.065
-556.456	800.000	0.062	0.262
-555.442	-145.819	-0.360	-0.032
-554.427	497.797	-0.129	-0.301
-553.412	-200.000	-0.046	0.273
-552.398	7.862	0.293	0.222
-551.383	279.919	0.079	0.143
-550.369	80.283	0.089	0.097
-549.354	-85.182	-0.124	0.039
-548.339	-200.000	-0.027	0.317
-547.325	353.300	0.131	0.264
-546.310	102.231	0.230	-0.272
-545.296	1.607	0.261	0.190
-544.281	-30.515	-0.313	-0.180
-543.266	272.386	0.169	-0.302
-542.252	182.330	-0.148	-0.221
-541.237	-26.638	0.263	-0.156
-540.223	-200.000	0.011	0.272
-539.208	800.000	-0.085	-0.350
-538.193	540.823	-0.052	0.126
-537.179	-149.466	-0.139	-0.011
-536.164	305.537	0.096	-0.181
-535.150	-8.612	-0.256	-0.174
-534.135	-112.421	-0.057	0.011
-533.121	-94.584	0.268	-0.074
-532.106	-96.012	-0.196	-0.053
-531.091	15.695	0.147	-0.117
-530.077	-21.284	0.297	0.184
-529.062	-23.165	-0.421	0.257
-528.048	179.513	-0.044	0.065
-527.033	-33.826	-0.075	0.042
-526.018	800.000	-0.010	0.044
-525.004	23.547	0.138	-0.115
-523.989	-99.444	-0.119	0.030
-522.975	-200.000	-0.019	-0.214
-521.960	-47.386	0.169	-0.083
-520.945	800.000	-0.042	-0.120
-519.931	429.091	-0.160	0.350
-518.916	-200.000	0.029	0.391
-517.902	199.367	0.039	-0.061
-516.887	596.254	0.080	0.200
-515.872	501.017	0.062	-0.144
-514.858	189.287	-0.074	-0.112
-513.843	-43.815	0.155	-0.079
-512.829	101.837	0.297	0.351
-511.814	160.448	0.121	0.171
-510.799	-74.751	-0.035	0.013
-509.785	-62.910	0.154	0.064
-508.770	800.000	-0.103	-0.399
-507.756	-44.706	-0.181	-0.091
-506.741	-138.372	-0.315	0.035
-505.726	233.785	-0.118	-0.197
-504.712	488.175	0.135	-0.312
-503.697	-200.000	-0.015	0.255
-502.683	-77.712	0.096	0.034
-501.668	34.100	0.113	0.100
-500.653	-200.000	-0.018	-0.288
-499.639	-116.782	-0.121	0.022
-498.624	45.894	0.021	0.020
-497.610	-177.021	0.425	-0.011
-496.595	-200.000	0.013	-0.168
-495.581	-200.000	-0.068	-0.432
-494.566	-111.235	0.271	0.056
-493.551	-117.705	0.362	0.066
-492.537	-200.000	0.103	0.531
-491.522	-124.198	0.488	0.077
-490.508	-200.000	-0.063	-0.364
-489.493	8.606	-0.197	-0.150
-488.478	-58.923	0.081	-0.035
-487.464	-101.546	0.215	-0.053
-486.449	800.000	0.053	-0.149
-485.435	-123.721	-0.052	0.008
-484.420	163.575	-0.036	0.051
-483.405	-96.857	-0.181	-0.048
-482.391	-172.662	-0.042	0.001
-481.376	-200.000	0.002	-0.300
-480.362	-143.253	0.093	-0.009
-479.347	-22.958	0.122	-0.074
-478.332	-99.365	0.200	0.051
-477.318	232.023	-0.248	-0.411
-476.303	17.888	-0.142	0.114
-475.289	-67.491	-0.204	0.081
-474.274	135.398	-0.180	-0.236
-473.259	-200.000	0.063	-0.412
-472.245	-200.000	0.026	-0.207
-471.230	-52.244	-0.207	0.097
-470.216	63.402	0.090	-0.091
-469.201	1.695	0.156	-0.114
-468.186	11.964	-0.131	-0.102
-467.172	88.549	-0.244	0.274
-466.157	-90.023	0.282	0.083
-465.143	-200.000	-0.025	-0.142
-464.128	107.003	0.129	0.154
-463.113	-101.629	0.167	0.041
-462.099	72.404	0.096	-0.101
-461.084	800.000	-0.052	0.153
-460.070	-200.000	0.003	0.166
-459.055	559.056	0.112	-0.273
-458.040	-134.878	0.211	0.026
-457.026	-200.000	0.009	-0.191
-456.011	-200.000	0.011	0.147
-454.997	97.988	0.186	0.216
-453.982	-134.028	-0.347	-0.043
-452.968	203.026	-0.081	0.127
-451.953	469.428	-0.041	0.093
-450.938	-13.285	0.319	0.209
-449.924	-76.152	-0.333	0.119
-448.909	-43.351	-0.086	0.044
-447.895	-200.000	-0.085	0.450
-446.880	-83.500	0.437	-0.141
-445.865	-137.696	-0.364	0.041
-444.851	22.083	0.192	-0.158
-443.836	97.840	-0.212	0.246
-442.822	129.467	0.113	-0.146
-441.807	-200.000	0.015	-0.205
-440.792	-105.157	-0.098	0.023
-439.778	286.609	0.049	-0.090
-438.763	128.434	-0.275	0.353
-437.749	800.000	0.038	0.154
-436.734	800.000	-0.072	0.260
-435.719	120.220	0.125	-0.156
-434.705	-87.812	0.168	0.051
-433.690	323.832	-0.118	0.228
-432.676	-40.978	-0.202	-0.105
-431.661	9.933	0.299	-0.229
-430.646	6.314	0.199	0.149
-429.632	-200.000	0.002	-0.301
-428.617	-23.208	-0.202	0.122
-427.603	-12.645	-0.244	0.160
-426.588	-200.000	-0.052	0.243
-425.573	599.239	0.123	0.306
-424.559	114.815	0.067	0.083
-423.544	800.000	0.053	-0.164
-422.530	-200.000	0.036	-0.235
-421.515	-84.223	0.221	-0.071
-420.500	-200.000	0.036	0.493
-419.486	-200.000	-0.060	-0.331
-418.471	-200.000	0.003	-0.063
-417.457	184.631	0.141	0.211
-416.442	-200.000	0.053	0.304
-415.428	5.168	0.187	-0.139
-414.413	56.491	-0.213	-0.209
-413.398	-50.462	-0.096	-0.046
-412.384	-128.799	-0.166	-0.024
-411.369	583.076	0.106	-0.261
-410.355	47.391	0.199	-0.187
-409.340	-97.896	0.103	0.027
-408.325	-200.000	-0.000	0.129
-407.311	800.000	0.042	0.144
-406.296	800.000	0.077	0.330
-405.282	-80.469	0.130	0.044
-404.267	5.646	0.146	0.109
-403.252	-53.305	0.014	-0.007
-402.238	-99.575	-0.127	0.032
-401.223	27.405	0.068	0.057
-400.209	-125.273	0.310	-0.048
-399.194	-200.000	0.029	-0.365
-398.179	-167.709	0.235	0.009
-397.165	-101.197	-0.254	-0.063
-396.150	-124.732	-0.285	0.044
-395.136	-102.103	-0.338	0.082
-394.121	256.327	-0.035	0.060
-393.106	-111.861	0.040	-0.008
-392.092	0.935	-0.150	-0.108
-391.077	-32.746	-0.155	0.087
-390.063	-112.127	0.139	0.028
-389.048	-135.012	-0.147	-0.018
-388.033	-200.000	0.011	0.255
-387.019	800.000	0.018	0.066
-386.004	36.186	-0.151	-0.133
-384.990	-200.000	-0.036	-0.399
-383.975	31.967	0.233	0.202
-382.960	800.000	-0.069	0.290
-381.946	-77.978	0.232	0.081
-380.931	-200.000	-0.084	0.404
-379.917	315.737	0.053	0.100
-378.902	-200.000	0.010	-0.095
-377.888	101.679	-0.204	0.240
-376.873	178.477	-0.114	0.167
-375.858	294.763	0.132	0.242
-374.844	46.762	0.175	-0.163
-373.829	-52.658	0.342	-0.159
-372.815	27.145	0.172	-0.145
-371.800	-9.509	0.219	0.147
-370.785	-173.257	-0.072	-0.002
-369.771	5.815	0.373	0.277
-368.756	-88.877	0.034	-0.010
-367.742	-84.573	0.168	-0.053
-366.727	-7.865	0.263	-0.179
-365.712	223.506	0.167	-0.271
-364.698	800.000	-0.055	-0.183
-363.683	-200.000	-0.019	-0.209
-362.669	-60.200	-0.259	0.111
-361.654	-23.045	0.328	-0.198
-360.639	-200.000	0.029	0.161
-359.625	-200.000	-0.030	0.324
-358.610	600.863	0.067	0.167
-357.596	800.000	-0.044	-0.184
-356.581	-82.769	0.168	0.054
-355.566	-82.901	-0.273	0.088
-354.552	-100.897	0.139	0.034
-353.537	-104.278	0.056	0.013
-352.523	800.000	0.050	-0.144
-351.508	-78.846	0.202	0.069
-350.493	-109.754	0.238	-0.050
-349.479	-58.112	0.267	-0.117
-348.464	-6.750	-0.247	0.169
-347.450	234.748	-0.157	0.260
-346.435	-200.000	-0.020	0.337
-345.420	-22.898	0.218	-0.132
-344.406	-105.680	-0.205	-0.047
-343.391	77.207	-0.105	-0.112
-342.377	108.337	0.178	0.214
-341.362	-155.185	0.312	-0.020
-340.348	-65.065	0.177	0.072
-339.333	-142.458	-0.090	-0.009
-338.318	-62.442	0.266	-0.111
-337.304	-200.000	0.010	0.246
-336.289	-200.000	-0.004	0.282
-335.275	-97.093	0.192	-0.050
-334.260	65.459	0.052	-0.053
-333.245	766.045	-0.101	0.274
-332.231	-200.000	-0.015	0.229
-331.216	101.363	0.175	-0.205
-330.202	82.286	-0.102	0.111
-329.187	557.875	-0.216	-0.524
-328.172	48.709	-0.040	0.038
-327.158	36.941	-0.150	-0.133
-326.143	800.000	0.085	-0.255
-325.129	142.372	0.047	-0.063
-324.114	-38.786	-0.051	-0.027
-323.099	-200.000	0.045	-0.628
-322.085	-97.183	0.173	0.045
-321.070	-125.263	-0.286	-0.044
-320.056	-200.000	-0.009	-0.140
-319.041	590.645	0.023	-0.058
-318.026	752.463	0.088	0.237
-317.012	-200.000	0.006	-0.197
-315.997	17.128	-0.170	0.135
-314.983	283.958	-0.166	-0.300
-313.968	22.253	-0.038	0.031
-312.953	-200.000	0.033	-0.210
-311.939	51.559	0.315	0.301
-310.924	-200.000	-0.004	-0.106
-309.910	-200.000	0.306	0.001
-308.895	340.500	0.184	-0.361
-307.880	800.000	-0.037	-0.133
-306.866	-24.961	-0.264	-0.157
-305.851	-200.000	0.059	-0.350
-304.837	-117.470	0.372	-0.067
-303.822	119.771	0.174	0.216
-302.807	-146.722	0.236	0.021
-301.793	-135.912	0.307	-0.036
-300.778	403.601	-0.106	0.224
-299.764	-107.358	-0.221	0.049
-298.749	-28.361	-0.194	0.112
-297.735	488.747	0.060	-0.138
-296.720	-80.313	-0.246	-0.082
-295.705	-102.423	-0.288	-0.069
-294.691	-74.813	0.240	0.087
-293.676	76.856	0.230	-0.244
-292.662	-200.000	0.019	0.231
-291.647	-200.000	0.005	-0.068
-290.632	-143.446	-0.194	0.019
-289.618	-87.788	0.050	-0.015
-288.603	122.159	0.226	0.283
-287.589	711.409	-0.142	0.377
-286.574	-200.000	0.003	0.147
-285.559	-26.848	-0.393	0.230
-284.545	-200.000	-0.013	0.210
-283.530	154.853	-0.066	0.090
-282.516	166.158	0.233	0.330
-281.501	399.755	-0.039	-0.082
-280.486	499.124	0.108	0.250
-279.472	388.737	-0.143	-0.297
-278.457	-3.641	0.262	0.183
-277.443	-200.000	0.043	0.336
-276.428	-42.782	-0.408	0.208
-275.413	-82.481	-0.066	0.021
-274.399	-83.128	0.222	-0.071
-273.384	78.762	0.072	-0.077
-272.370	278.034	0.147	0.263
-271.355	-77.781	0.072	-0.025
-270.340	-103.155	-0.207	0.049
-269.326	-31.121	-0.232	0.131
-268.311	-200.000	-0.020	0.172
-267.297	-56.894	-0.178	-0.079
-266.282	15.432	-0.272	-0.214
-265.267	-200.000	-0.033	0.335
-264.253	502.390	0.086	0.199
-263.238	-200.000	-0.019	-0.246
-262.224	800.000	0.009	0.032
-261.209	-2.850	-0.191	-0.134
-260.195	-32.821	-0.228	-0.127
-259.180	-33.012	-0.172	0.096
-258.165	-41.079	-0.198	-0.102
-257.151	433.674	0.089	0.194
-256.136	-200.000	-0.017	-0.163
-255.122	800.000	0.072	0.217
-254.107	80.768	-0.070	0.075
-253.092	-182.969	0.273	-0.005
-252.078	61.427	0.031	0.031
-251.063	-39.878	-0.154	-0.080
-250.049	258.900	0.138	-0.239
-249.034	-77.281	0.371	-0.129
-248.019	139.378	-0.055	-0.073
-247.005	158.946	-0.022	-0.031
-245.990	405.185	0.097	-0.205
-244.976	-50.068	0.205	0.097
-243.961	-200.000	0.034	-0.152
-242.946	162.870	-0.088	-0.124
-241.932	434.073	-0.236	-0.514
-240.917	-200.000	-0.055	-0.266
-239.903	249.785	-0.162	0.274
-238.888	-200.000	-0.006	0.207
-237.873	524.454	0.100	-0.236
-236.859	150.552	-0.149	-0.203
-235.844	800.000	-0.075	-0.289
-234.830	161.892	0.064	-0.090
-233.815	-142.876	0.430	-0.042
-232.800	-76.483	-0.269	0.095
-231.786	98.938	-0.109	-0.126
-230.771	-115.495	-0.308	0.058
-229.757	271.368	0.027	0.047
-228.742	-96.692	-0.375	0.099
-227.727	-3.128	0.236	-0.165
-226.713	-0.441	0.216	-0.153
-225.698	-78.978	-0.174	-0.059
-224.684	145.660	-0.191	-0.256
-223.669	40.264	0.051	-0.046
-222.655	58.952	-0.302	-0.297
-221.640	33.187	0.224	0.195
-220.625	-200.000	-0.440	0.001
-219.611	131.661	0.034	-0.044
-218.596	-59.565	-0.210	-0.090
-217.582	134.652	-0.091	0.119
-216.567	-70.278	-0.185	-0.070
-215.552	800.000	-0.035	0.105
-214.538	492.013	-0.049	-0.112
-213.523	-115.563	-0.109	0.021
-212.509	404.231	0.138	0.290
-211.494	74.393	-0.081	0.085
-210.479	551.002	-0.073	-0.175
-209.465	-45.547	0.098	0.049
-208.450	-185.928	0.211	0.003
-207.436	-163.847	0.094	-0.004
-206.421	-173.338	0.254	0.008
-205.406	-103.660	0.223	0.052
-204.392	-67.391	0.169	0.066
-203.377	-200.000	0.009	0.402
-202.363	303.732	0.138	0.256
-201.348	439.773	-0.061	0.132
-200.333	85.087	0.280	0.307
-199.319	-200.000	-0.035	0.243
-198.304	800.000	0.175	-0.497
-197.290	338.014	-0.110	-0.214
-196.275	-200.000	-0.012	-0.190
-195.260	-85.546	-0.172	-0.054
-194.246	-123.123	-0.075	0.012
-193.231	-114.870	-0.239	0.045
-192.217	-200.000	-0.018	-0.333
-191.202	-63.576	-0.304	0.125
-190.187	-200.000	-0.003	-0.032
-189.173	-200.000	-0.013	-0.211
-188.158	29.135	-0.067	0.057
-187.144	-200.000	-0.003	-0.045
-186.129	658.971	0.073	0.187
-185.114	116.227	0.355	0.435
-184.100	95.578	-0.154	0.175
-183.085	800.000	-0.056	0.163
-182.071	-200.000	0.019	0.137
-181.056	-52.800	0.080	-0.037
-180.042	529.272	0.049	-0.116
-179.027	149.835	-0.093	0.126
-178.012	-200.000	0.063	-0.436
-176.998	-93.014	0.313	0.087
-175.983	-200.000	-0.011	0.288
-174.969	126.375	0.250	-0.316
-173.954	117.715	0.126	-0.154
-172.939	122.639	-0.144	0.180
-171.925	83.669	0.164	0.179
-170.910	-200.000	0.045	-0.442
-169.896	18.093	0.158	0.126
-168.881	31.169	-0.086	0.074
-167.866	31.059	0.098	0.084
-166.852	-131.841	0.131	0.017
-165.837	-51.539	0.185	0.086
-164.823	35.359	-0.318	0.278
-163.808	-32.514	0.050	0.028
-162.793	-75.679	-0.289	0.102
-161.779	-200.000	0.105	0.000
-160.764	-200.000	-0.059	0.302
-159.750	-90.953	-0.127	-0.036
-158.735	-33.678	0.168	-0.093
-157.720	-122.609	0.132	0.021
-156.706	-188.159	-0.096	0.001
-155.691	121.048	-0.078	0.097
-154.677	439.104	0.102	-0.223
-153.662	-200.000	0.002	-0.012
-152.647	-200.000	-0.040	0.393
-151.633	87.535	0.061	0.068
-150.618	-18.759	-0.232	0.144
-149.604	199.788	-0.060	-0.093
-148.589	-3.791	-0.239	0.166
-147.574	800.000	-0.023	-0.073
-146.560	800.000	-0.066	-0.212
-145.545	-80.708	-0.293	-0.097
-144.531	98.142	-0.212	-0.243
-143.516	91.627	0.126	-0.142
-142.502	-77.287	-0.428	0.149
-141.487	281.393	0.181	0.323
-140.472	-30.964	-0.069	-0.039
-139.458	-86.720	-0.141	-0.043
-138.443	274.608	0.124	-0.219
-137.429	-90.608	0.506	0.146
-136.414	300.853	-0.176	-0.325
-135.399	-59.687	0.095	0.041
-134.385	-105.729	0.278	-0.063
-133.370	-100.336	0.187	0.046
-132.356	-144.952	0.382	0.035
-131.341	4.790	-0.181	0.133
-130.326	505.497	0.160	-0.370
-129.312	-107.863	-0.086	-0.019
-128.297	-37.925	-0.153	-0.081
-127.283	-200.000	0.091	0.443
-126.268	-200.000	-0.013	-0.433
-125.253	105.338	0.107	-0.125
-124.239	13.162	-0.173	0.133
-123.224	-195.681	0.040	-0.000
-122.210	-120.898	-0.187	-0.031
