DTS Sentinel unit serial number:	SN413079Multiplexer serial number:	ORYXHardware model number:	OX4-SRSoftware version number:	ORYX F/W v4.00 Oryx Data Collector v3.7.2.0data status	okinstallation	princeton_trtdifferential loss correction	single-endedforward channel	channel 4reverse channel	N/Adate	2019/09/11time	22:27:10forward acquisition time	60.00reverse acquisition time	0.00gamma	496.2192k internal	0.2307k external	0.2307temperature offset calibration	1.0076default loss term (dB/km)	0.3790temperature slope calibration	1.0000multiplexer offset coefficient	1.0000multiplexer slope coefficient	1.0000fibre end	0.00T internal ref (°C)	35.12T ext. ref 1 (°C)	1.77T ext. ref 2 (°C)	29.48length (m)	temperature (°C)	Stokes	anti-Stokes-747.200	800.000	0.046	-0.131
-746.185	189.531	0.141	0.215
-745.171	-114.422	0.167	0.033
-744.156	-175.885	-0.264	0.007
-743.142	101.199	0.115	0.136
-742.127	-200.000	-0.001	0.109
-741.112	-200.000	0.020	-0.315
-740.098	-200.000	0.031	-0.150
-739.083	302.463	-0.054	-0.102
-738.069	-175.011	-0.327	-0.009
-737.054	800.000	-0.103	0.370
-736.039	4.592	-0.132	-0.098
-735.025	159.718	-0.049	-0.070
-734.010	61.229	0.101	-0.102
-732.996	-200.000	-0.050	0.328
-731.981	264.079	-0.140	0.247
-730.966	-113.800	0.177	-0.035
-729.952	99.068	-0.006	0.007
-728.937	-136.142	-0.330	-0.039
-727.923	-142.099	0.207	-0.021
-726.908	-106.855	-0.180	0.040
-725.894	-200.000	0.033	-0.257
-724.879	-88.444	-0.079	-0.024
-723.864	694.503	-0.016	0.043
-722.850	-123.757	-0.262	0.042
-721.835	-73.544	-0.188	-0.070
-720.821	-64.279	-0.067	-0.028
-719.806	-200.000	-0.302	-0.000
-718.791	-61.094	0.246	0.106
-717.777	-96.113	-0.497	-0.134
-716.762	-21.538	0.305	-0.189
-715.748	-153.441	0.193	-0.014
-714.733	41.882	0.196	0.181
-713.718	-96.137	-0.108	-0.029
-712.704	-200.000	0.013	-0.460
-711.689	800.000	-0.052	-0.174
-710.675	-41.768	-0.206	0.107
-709.660	-117.718	0.149	-0.027
-708.645	-85.420	-0.121	-0.038
-707.631	-102.192	-0.106	0.026
-706.616	73.311	0.143	-0.152
-705.602	-52.496	0.128	-0.060
-704.587	583.934	0.090	-0.225
-703.572	-42.041	-0.099	-0.051
-702.558	-170.238	0.059	-0.002
-701.543	-118.552	-0.079	0.014
-700.529	800.000	0.093	0.408
-699.514	97.870	0.158	-0.185
-698.499	-117.287	-0.240	0.044
-697.485	-200.000	-0.015	-0.156
-696.470	-28.660	0.152	-0.089
-695.456	84.127	-0.265	-0.294
-694.441	1.890	-0.103	-0.075
-693.426	-177.606	0.262	-0.006
-692.412	-200.000	-0.017	-0.298
-691.397	-85.690	-0.168	0.053
-690.383	-200.000	0.031	-0.220
-689.368	-27.660	0.129	-0.076
-688.354	157.250	0.127	-0.178
-687.339	800.000	-0.098	0.277
-686.324	-112.355	-0.310	-0.063
-685.310	-69.573	-0.070	0.027
-684.295	-137.606	0.093	0.011
-683.281	800.000	0.018	-0.051
-682.266	-200.000	-0.025	0.215
-681.251	13.880	-0.337	-0.266
-680.237	-200.000	0.035	-0.333
-679.222	800.000	-0.086	0.376
-678.208	79.414	0.221	-0.241
-677.193	101.386	-0.045	0.053
-676.178	538.885	-0.080	-0.193
-675.164	535.090	-0.077	-0.185
-674.149	800.000	0.017	0.064
-673.135	-200.000	-0.033	-0.222
-672.120	162.135	-0.200	-0.284
-671.105	89.302	0.035	-0.040
-670.091	800.000	-0.019	-0.075
-669.076	254.563	-0.141	0.245
-668.062	-200.000	0.032	-0.175
-667.047	-60.348	-0.085	0.037
-666.032	-72.173	-0.042	0.016
-665.018	83.989	0.231	-0.256
-664.003	129.677	0.120	0.156
-662.989	-172.470	-0.366	0.012
-661.974	-32.897	0.123	-0.069
-660.959	800.000	-0.061	-0.188
-659.945	800.000	-0.056	-0.228
-658.930	-157.429	0.093	0.006
-657.916	-26.247	0.123	-0.073
-656.901	-106.775	0.445	0.100
-655.886	109.564	-0.236	0.286
-654.872	54.149	0.090	-0.088
-653.857	-66.815	0.145	-0.058
-652.843	654.428	-0.072	-0.189
-651.828	408.675	-0.061	-0.131
-650.814	800.000	-0.028	-0.119
-649.799	215.926	-0.128	0.206
-648.784	-54.661	-0.095	-0.044
-647.770	-11.850	0.269	-0.179
-646.755	105.626	0.147	0.176
-645.741	-200.000	-0.013	-0.148
-644.726	-77.461	-0.364	-0.128
-643.711	-123.737	-0.130	-0.021
-642.697	51.398	-0.120	0.115
-641.682	-200.000	0.000	0.254
-640.668	558.795	0.101	-0.248
-639.653	800.000	-0.100	-0.329
-638.638	19.300	-0.099	-0.080
-637.624	-42.244	-0.160	-0.083
-636.609	601.564	-0.093	-0.235
-635.595	477.957	-0.161	-0.369
-634.580	-200.000	0.069	0.327
-633.565	186.462	0.044	-0.066
-632.551	-42.493	-0.393	-0.203
-631.536	-116.438	-0.241	-0.045
-630.522	-200.000	0.002	0.017
-629.507	-200.000	-0.014	0.167
-628.492	800.000	0.050	0.154
-627.478	-200.000	-0.017	-0.209
-626.463	563.185	-0.068	0.166
-625.449	-200.000	-0.059	0.326
-624.434	301.340	0.083	-0.156
-623.419	718.346	0.044	0.120
-622.405	-48.100	-0.233	-0.114
-621.390	4.107	-0.242	-0.179
-620.376	-200.000	0.001	0.035
-619.361	31.455	0.306	-0.266
-618.346	150.815	-0.103	-0.142
-617.332	-102.574	0.265	0.064
-616.317	683.024	-0.051	-0.136
-615.303	-75.616	-0.227	0.082
-614.288	2.053	-0.161	0.118
-613.273	131.925	0.086	0.112
-612.259	-200.000	-0.022	-0.183
-611.244	-71.348	-0.197	0.075
-610.230	-9.748	-0.132	-0.089
-609.215	-88.553	0.354	-0.107
-608.201	296.357	-0.098	0.183
-607.186	73.948	-0.278	-0.295
-606.171	-200.000	-0.021	-0.301
-605.157	800.000	0.059	0.217
-604.142	35.094	-0.288	0.255
-603.128	-80.649	0.174	0.059
-602.113	-91.016	-0.341	0.099
-601.098	210.053	0.084	0.133
-600.084	-115.754	-0.286	-0.054
-599.069	800.000	-0.076	0.289
-598.055	-66.636	0.284	-0.114
-597.040	-80.788	0.384	0.129
-596.025	800.000	0.025	-0.079
-595.011	27.071	0.228	-0.193
-593.996	204.602	-0.023	0.035
-592.982	89.495	0.077	-0.087
-591.967	77.258	-0.116	-0.125
-590.952	800.000	-0.055	0.164
-589.938	122.661	-0.121	-0.153
-588.923	800.000	-0.047	-0.144
-587.909	689.121	0.096	-0.255
-586.894	-200.000	-0.001	-0.346
-585.879	800.000	-0.052	-0.173
-584.865	23.774	0.119	0.099
-583.850	-81.890	-0.037	0.012
-582.836	-54.790	0.147	-0.067
-581.821	1.765	0.162	0.118
-580.806	-200.000	0.011	0.135
-579.792	-144.949	0.264	0.024
-578.777	-3.278	0.131	0.092
-577.763	-200.000	0.004	0.083
-576.748	-86.147	0.406	-0.127
-575.733	-200.000	0.044	0.315
-574.719	-200.000	-0.028	0.304
-573.704	99.702	0.097	0.114
-572.690	800.000	-0.037	0.127
-571.675	800.000	-0.058	-0.183
-570.661	44.267	0.171	0.158
-569.646	-25.493	-0.436	0.260
-568.631	-200.000	-0.075	-0.397
-567.617	104.828	0.101	0.120
-566.602	-21.479	-0.138	-0.085
-565.588	-99.915	0.288	-0.073
-564.573	36.122	0.053	0.047
-563.558	-200.000	-0.012	0.108
-562.544	800.000	-0.083	-0.250
-561.529	237.035	0.135	0.225
-560.515	95.058	-0.240	-0.276
-559.500	10.960	0.107	-0.083
-558.485	579.905	-0.078	-0.193
-557.471	-111.763	0.246	-0.050
-556.456	-112.815	-0.213	0.043
-555.442	175.158	0.061	0.089
-554.427	800.000	-0.037	-0.150
-553.412	180.251	-0.214	-0.317
-552.398	132.478	0.345	-0.448
-551.383	135.404	-0.117	0.154
-550.369	181.476	-0.044	-0.066
-549.354	-200.000	0.045	-0.269
-548.339	-115.671	-0.165	-0.031
-547.325	165.793	0.258	0.368
-546.310	-29.564	0.154	-0.089
-545.296	-200.000	0.011	0.132
-544.281	800.000	-0.056	0.213
-543.266	-200.000	0.026	-0.253
-542.252	-67.718	0.296	0.117
-541.237	-117.263	-0.131	0.024
-540.223	104.252	-0.327	-0.388
-539.208	-92.623	-0.202	0.057
-538.193	14.083	-0.081	-0.063
-537.179	-200.000	-0.003	0.088
-536.164	-153.801	0.190	0.013
-535.150	-56.291	0.069	0.031
-534.135	-98.261	0.125	0.032
-533.121	-172.280	-0.585	0.019
-532.106	296.126	0.089	-0.164
-531.091	-200.000	-0.045	-0.305
-530.077	26.098	0.274	-0.231
-529.062	146.512	0.073	0.099
-528.048	305.819	-0.211	0.396
-527.033	-200.000	0.012	-0.101
-526.018	-41.677	0.239	-0.124
-525.004	-82.472	-0.206	-0.068
-523.989	-94.974	0.242	-0.066
-522.975	661.110	0.088	0.228
-521.960	78.704	-0.061	-0.066
-520.945	-196.697	0.213	-0.001
-519.931	-176.275	0.089	0.002
-518.916	-200.000	-0.021	-0.107
-517.902	255.389	0.108	0.186
-516.887	-86.631	-0.213	-0.066
-515.872	-50.394	0.135	-0.064
-514.858	21.880	0.257	-0.211
-513.843	-200.000	0.017	-0.078
-512.829	-144.092	-0.244	0.023
-511.814	-200.000	0.052	0.359
-510.799	82.309	-0.108	-0.118
-509.785	-65.187	-0.184	0.075
-508.770	-200.000	0.041	0.381
-507.756	-14.898	0.152	0.098
-506.741	-200.000	0.016	0.230
-505.726	800.000	0.091	0.262
-504.712	336.666	-0.053	0.104
-503.697	275.048	0.153	0.273
-502.683	-133.532	0.179	-0.023
-501.668	800.000	0.017	0.047
-500.653	-115.898	0.304	0.057
-499.639	800.000	-0.089	0.322
-498.624	-61.138	-0.072	0.031
-497.610	800.000	-0.088	-0.293
-496.595	368.745	-0.017	0.035
-495.581	-200.000	-0.016	0.116
-494.566	58.208	-0.258	0.254
-493.551	198.360	-0.125	-0.192
-492.537	-58.604	0.373	0.163
-491.522	112.358	0.023	-0.027
-490.508	-200.000	0.025	0.171
-489.493	-200.000	0.029	-0.224
-488.478	28.377	-0.241	0.205
-487.464	109.368	-0.224	0.270
-486.449	-98.435	-0.172	-0.044
-485.435	-51.732	0.195	0.092
-484.420	-200.000	-0.002	0.034
-483.405	-200.000	0.002	0.066
-482.391	-200.000	0.001	-0.086
-481.376	29.389	0.220	0.188
-480.362	-200.000	0.000	-0.250
-479.347	-44.320	0.323	0.163
-478.332	9.146	0.154	-0.117
-477.318	-200.000	-0.018	0.243
-476.303	800.000	-0.131	0.476
-475.289	37.959	0.148	-0.132
-474.274	23.009	0.229	0.189
-473.259	-200.000	0.011	-0.460
-472.245	-75.930	-0.215	-0.076
-471.230	51.508	-0.269	-0.257
-470.216	-200.000	-0.003	-0.306
-469.201	-74.086	-0.147	0.053
-468.186	-133.427	-0.209	-0.026
-467.172	12.881	-0.141	0.110
-466.157	-200.000	0.001	-0.111
-465.143	225.952	0.132	-0.215
-464.128	-80.165	-0.280	0.094
-463.113	777.722	-0.019	0.053
-462.099	30.641	0.113	0.097
-461.084	11.682	-0.223	-0.172
-460.070	-200.000	0.035	-0.322
-459.055	24.183	-0.160	-0.133
-458.040	-26.534	0.173	-0.102
-457.026	117.688	0.207	0.256
-456.011	-20.865	0.222	0.137
-454.997	-200.000	-0.002	0.143
-453.982	800.000	-0.045	0.179
-452.968	-61.582	-0.111	-0.047
-451.953	354.488	-0.103	-0.205
-450.938	3.545	-0.236	0.173
-449.924	-139.676	-0.268	-0.029
-448.909	-200.000	0.286	0.000
-447.895	800.000	0.081	-0.353
-446.880	-42.849	-0.067	-0.034
-445.865	108.824	0.137	0.165
-444.851	334.682	-0.124	-0.241
-443.836	800.000	0.096	0.283
-442.822	-11.020	-0.102	-0.068
-441.807	410.814	0.132	0.282
-440.792	195.536	0.049	-0.075
-439.778	-200.000	0.020	-0.089
-438.763	-52.135	-0.146	0.068
-437.749	-200.000	-0.045	-0.241
-436.734	102.984	0.302	0.356
-435.719	-68.094	-0.255	0.100
-434.705	-200.000	-0.003	-0.422
-433.690	-144.653	-0.049	-0.005
-432.676	-200.000	0.015	-0.074
-431.661	-56.708	-0.252	-0.112
-430.646	-100.360	0.040	0.010
-429.632	-158.658	0.228	-0.013
-428.617	-37.919	-0.047	0.025
-427.603	-200.000	-0.027	-0.224
-426.588	-56.785	-0.272	0.121
-425.573	-65.348	-0.203	0.082
-424.559	-200.000	-0.000	0.063
-423.544	251.143	0.071	0.122
-422.530	-185.234	0.055	0.001
-421.515	203.212	-0.143	-0.222
-420.500	145.427	0.281	-0.377
-419.486	-9.332	-0.184	0.124
-418.471	-49.871	0.290	0.138
-417.457	-200.000	-0.025	0.168
-416.442	151.655	-0.099	-0.135
-415.428	-25.418	-0.179	0.106
-414.413	-168.996	0.114	0.004
-413.398	-200.000	0.031	0.349
-412.384	800.000	0.016	0.069
-411.369	-169.462	-0.248	0.009
-410.355	-63.117	0.303	0.125
-409.340	-90.979	-0.212	-0.061
-408.325	800.000	0.035	-0.147
-407.311	-14.297	0.263	0.170
-406.296	293.418	0.240	0.440
-405.282	11.909	-0.165	-0.128
-404.267	173.170	-0.061	-0.089
-403.252	-81.126	-0.129	-0.043
-402.238	-19.792	0.154	0.095
-401.223	260.676	0.031	0.054
-400.209	-101.074	-0.311	0.076
-399.194	-84.877	-0.092	0.029
-398.179	-200.000	0.024	0.285
-397.165	252.919	-0.148	0.253
-396.150	120.658	-0.050	0.062
-395.136	67.800	0.231	-0.237
-394.121	-188.052	0.158	0.002
-393.106	267.826	-0.090	0.159
-392.092	-35.766	-0.341	0.185
-391.077	-200.000	0.019	0.110
-390.063	701.247	0.121	0.319
-389.048	386.692	0.053	0.109
-388.033	-128.033	-0.125	-0.018
-387.019	-94.827	0.410	-0.111
-386.004	130.869	-0.194	-0.250
-384.990	65.601	0.168	0.170
-383.975	369.551	-0.059	0.120
-382.960	461.396	0.049	-0.109
-381.946	150.782	0.144	-0.196
-380.931	-200.000	-0.010	0.180
-379.917	93.328	-0.231	0.262
-378.902	-45.125	0.154	0.077
-377.888	244.606	-0.130	0.219
-376.873	-200.000	-0.009	-0.061
-375.858	-130.469	0.072	0.010
-374.844	-49.463	0.044	0.021
-373.829	133.364	0.142	-0.185
-372.815	-104.242	-0.352	-0.082
-371.800	310.097	0.023	-0.042
-370.785	-12.735	-0.135	0.088
-369.771	45.799	-0.037	0.034
-368.756	-19.120	-0.099	-0.061
-367.742	86.155	0.106	-0.117
-366.727	43.109	0.089	0.082
-365.712	148.720	-0.095	0.128
-364.698	-116.649	0.062	-0.011
-363.683	585.961	-0.078	0.191
-362.669	800.000	0.075	0.287
-361.654	-120.206	-0.290	-0.050
-360.639	-50.518	0.088	-0.042
-359.625	-98.548	0.175	0.045
-358.610	146.141	-0.167	0.225
-357.596	-108.482	-0.148	0.032
-356.581	159.985	0.071	-0.100
-355.566	-200.000	0.001	-0.177
-354.552	647.559	0.132	-0.337
-353.537	-24.267	-0.141	-0.084
-352.523	-200.000	-0.037	-0.247
-351.508	178.629	0.119	0.175
-350.493	-12.405	0.075	0.049
-349.479	2.176	-0.075	0.054
-348.464	-11.658	0.038	0.025
-347.450	-200.000	-0.051	0.234
-346.435	-49.720	0.359	0.171
-345.420	-183.349	-0.024	0.000
-344.406	-86.856	-0.141	0.043
-343.391	800.000	0.173	-0.478
-342.377	385.049	-0.105	0.217
-341.362	-102.372	0.222	0.053
-340.348	204.314	0.122	-0.189
-339.333	-200.000	0.021	0.341
-338.318	-140.646	0.205	0.021
-337.304	-121.363	-0.078	-0.013
-336.289	-200.000	-0.006	0.417
-335.275	-95.053	0.247	-0.067
-334.260	800.000	0.082	-0.282
-333.245	-60.776	-0.152	-0.065
-332.231	51.663	0.295	-0.280
-331.216	129.853	0.187	0.240
-330.202	46.804	-0.377	0.350
-329.187	-101.831	-0.350	0.085
-328.172	-200.000	-0.034	-0.368
-327.158	350.462	0.131	0.260
-326.143	-43.514	0.245	0.124
-325.129	-200.000	0.025	-0.269
-324.114	800.000	0.118	0.346
-323.099	124.482	-0.164	0.206
-322.085	689.446	-0.054	-0.142
-321.070	-78.796	-0.107	-0.036
-320.056	145.544	0.041	0.055
-319.041	20.382	0.239	-0.193
-318.026	150.569	-0.033	0.045
-317.012	555.619	0.091	0.218
-315.997	-30.971	-0.270	0.153
-314.983	69.818	-0.191	0.197
-313.968	-200.000	-0.044	-0.198
-312.953	-10.193	-0.278	-0.184
-311.939	-200.000	-0.012	0.113
-310.924	307.811	0.083	0.154
-309.910	367.474	-0.026	0.052
-308.895	800.000	0.074	-0.213
-307.880	-200.000	0.047	-0.305
-306.866	-200.000	-0.026	-0.233
-305.851	-37.541	0.313	0.167
-304.837	-89.604	0.082	-0.024
-303.822	-155.538	0.162	0.010
-302.807	-138.985	0.062	-0.007
-301.793	-162.739	-0.110	0.005
-300.778	195.050	0.163	-0.247
-299.764	800.000	0.046	-0.153
-298.749	-200.000	0.009	-0.107
-297.735	800.000	0.052	-0.190
-296.720	65.277	0.030	-0.031
-295.705	156.408	-0.017	-0.024
-294.691	-200.000	-0.012	0.344
-293.676	586.737	0.036	0.088
-292.662	432.560	-0.110	-0.239
-291.647	-106.596	-0.169	-0.038
-290.632	-200.000	-0.002	0.163
-289.618	654.363	-0.155	-0.398
-288.603	-200.000	-0.001	-0.202
-287.589	800.000	0.011	-0.032
-286.574	-200.000	0.026	0.255
-285.559	481.114	-0.096	-0.217
-284.545	579.604	0.030	0.073
-283.530	-79.670	0.163	0.055
-282.516	7.665	0.276	-0.207
-281.501	99.290	-0.127	-0.147
-280.486	800.000	0.016	0.047
-279.472	109.759	0.044	0.053
-278.457	325.439	-0.093	-0.177
-277.443	-200.000	0.043	0.470
-276.428	-142.310	0.183	0.018
-275.413	-200.000	0.004	-0.088
-274.399	-14.750	-0.134	0.086
-273.384	-54.187	-0.353	-0.160
-272.370	-200.000	0.029	-0.143
-271.355	30.832	0.213	0.182
-270.340	-200.000	-0.044	0.505
-269.326	-65.254	0.137	-0.055
-268.311	-83.896	-0.283	-0.090
-267.297	800.000	0.084	0.234
-266.282	383.800	-0.111	0.228
-265.267	-48.981	0.181	-0.086
-264.253	-200.000	0.013	-0.168
-263.238	-154.497	-0.192	-0.013
-262.224	-47.621	-0.153	0.074
-261.209	-132.855	0.383	-0.049
-260.195	-80.584	0.167	-0.055
-259.180	800.000	-0.062	0.195
-258.165	271.950	0.070	-0.123
-257.151	-61.206	-0.348	-0.146
-256.136	18.316	-0.145	0.116
-255.122	117.812	-0.127	-0.156
-254.107	-63.326	-0.245	-0.101
-253.092	-95.076	0.240	-0.065
-252.078	-74.289	-0.161	0.058
-251.063	-163.550	0.172	-0.008
-250.049	-200.000	-0.021	0.259
-249.034	-88.600	-0.087	-0.026
-248.019	-200.000	-0.037	-0.310
-247.005	-200.000	-0.002	-0.317
-245.990	148.938	0.170	-0.229
-244.976	227.419	0.179	-0.290
-243.961	-163.067	-0.075	-0.004
-242.946	-2.079	0.258	-0.180
-241.932	800.000	0.048	0.182
-240.917	-95.996	0.073	0.019
-239.903	175.900	0.115	0.167
-238.888	199.886	-0.069	-0.106
-237.873	-117.244	0.073	0.013
-236.859	800.000	0.012	0.043
-235.844	-106.087	-0.275	-0.062
-234.830	-200.000	0.004	-0.104
-233.815	-35.979	0.117	0.063
-232.800	-7.193	-0.217	-0.147
-231.786	268.237	0.140	-0.245
-230.771	108.183	0.124	-0.147
-229.757	-200.000	0.005	-0.167
-228.742	-127.786	-0.388	0.056
-227.727	800.000	-0.128	0.425
-226.713	176.019	-0.109	0.157
-225.698	-163.715	0.219	-0.010
-224.684	138.244	-0.101	-0.132
-223.669	-200.000	0.034	0.176
-222.655	626.002	0.052	0.132
-221.640	-60.542	-0.220	0.093
-220.625	-200.000	0.002	0.082
-219.611	-93.344	0.008	-0.002
-218.596	-141.568	0.281	-0.028
-217.582	800.000	-0.039	-0.131
-216.567	800.000	-0.040	-0.172
-215.552	86.631	-0.188	-0.207
-214.538	-29.352	0.374	-0.213
-213.523	93.816	-0.199	0.225
-212.509	-151.439	0.186	-0.014
-211.494	635.861	0.130	-0.328
-210.479	-124.133	-0.040	-0.006
-209.465	-38.260	0.444	0.234
-208.450	53.256	-0.093	0.088
-207.436	-94.997	-0.224	0.060
-206.421	79.560	-0.153	-0.163
-205.406	800.000	0.069	0.248
-204.392	-78.955	0.143	-0.049
-203.377	104.672	-0.112	-0.131
-202.363	138.652	0.197	0.258
-201.348	800.000	-0.036	-0.132
-200.333	-158.230	-0.303	-0.018
-199.319	-82.475	-0.115	0.037
-198.304	181.473	-0.034	0.050
-197.290	77.634	-0.053	-0.056
-196.275	-105.431	-0.154	0.035
-195.260	-77.164	0.452	-0.157
-194.246	161.729	0.154	-0.215
-193.231	-200.000	-0.030	0.186
-192.217	170.618	0.052	-0.074
-191.202	800.000	-0.042	-0.125
-190.187	-200.000	-0.020	-0.136
-189.173	800.000	-0.073	-0.231
-188.158	800.000	-0.049	0.176
-187.144	-200.000	0.007	-0.269
-186.129	-116.902	0.132	-0.024
-185.114	-72.362	-0.314	-0.116
-184.100	-111.062	0.270	-0.055
-183.085	800.000	-0.065	0.182
-182.071	-144.550	0.102	0.009
-181.056	54.223	-0.362	0.346
-180.042	800.000	-0.049	0.135
-179.027	-66.265	0.126	0.050
-178.012	-74.634	0.256	0.092
-176.998	800.000	-0.078	-0.297
-175.983	-200.000	0.109	-0.482
-174.969	800.000	-0.046	0.192
-173.954	-79.161	0.107	0.036
-172.939	-10.594	-0.050	0.033
-171.925	52.160	-0.047	-0.044
-170.910	225.749	-0.192	0.309
-169.896	-200.000	0.005	0.034
-168.881	-94.156	-0.159	-0.043
-167.866	-181.504	0.255	0.005
-166.852	-89.634	-0.330	0.096
-165.837	-60.319	0.037	0.016
-164.823	303.576	-0.082	-0.152
-163.808	106.423	0.273	0.322
-162.793	154.951	0.149	0.203
-161.779	-200.000	0.011	0.168
-160.764	486.980	0.074	0.168
-159.750	-141.030	0.167	-0.017
-158.735	-200.000	-0.006	-0.101
-157.720	800.000	0.061	0.175
-156.706	219.804	0.258	-0.410
-155.691	-122.509	0.348	-0.056
-154.677	70.963	-0.248	-0.255
-153.662	-60.336	0.192	0.081
-152.647	-200.000	-0.009	-0.081
-151.633	-161.366	-0.296	-0.015
-150.618	-87.119	-0.331	-0.100
-149.604	-57.597	0.434	0.189
-148.589	-161.016	0.275	0.014
-147.574	-52.795	0.246	-0.113
-146.560	242.667	-0.215	-0.357
-145.545	429.686	0.185	-0.397
-144.531	126.133	0.096	-0.120
-143.516	84.477	0.114	0.123
-142.502	-200.000	0.016	-0.074
-141.487	-117.484	0.143	-0.026
-140.472	-166.177	-0.142	-0.006
-139.458	13.032	-0.178	0.137
-138.443	316.988	-0.025	0.048
-137.429	488.125	-0.069	-0.157
-136.414	-200.000	-0.021	0.523
-135.399	577.265	-0.059	0.143
-134.385	418.017	-0.090	-0.192
-133.370	-66.698	-0.234	0.092
-132.356	36.250	0.150	0.131
-131.341	-67.775	0.253	-0.098
-130.326	-200.000	-0.023	0.226
-129.312	800.000	-0.046	0.130
-128.297	236.859	0.030	-0.049
-127.283	-58.575	-0.118	0.051
-126.268	216.719	-0.199	0.314
-125.253	-28.760	-0.154	0.088
-124.239	109.410	0.098	-0.116
-123.224	-93.351	0.265	0.073
