DTS Sentinel unit serial number:	SN413079Multiplexer serial number:	ORYXHardware model number:	OX4-SRSoftware version number:	ORYX F/W v4.00 Oryx Data Collector v3.7.2.0data status	okinstallation	princeton_trtdifferential loss correction	single-endedforward channel	channel 4reverse channel	N/Adate	2019/09/10time	15:35:11forward acquisition time	60.00reverse acquisition time	0.00gamma	496.2192k internal	0.2293k external	0.2293temperature offset calibration	0.9939default loss term (dB/km)	0.3790temperature slope calibration	1.0000multiplexer offset coefficient	1.0000multiplexer slope coefficient	1.0000fibre end	0.00T internal ref (°C)	37.94T ext. ref 1 (°C)	-0.29T ext. ref 2 (°C)	32.24length (m)	temperature (°C)	Stokes	anti-Stokes-747.200	4.781	-0.268	0.202
-746.185	339.079	0.135	0.268
-745.171	-4.835	0.286	-0.202
-744.156	172.849	-0.128	0.189
-743.142	225.162	-0.065	-0.107
-742.127	-51.098	0.111	0.053
-741.112	-72.167	-0.179	0.068
-740.098	-24.858	-0.087	-0.053
-739.083	301.241	0.085	0.161
-738.069	481.836	0.204	0.475
-737.054	76.622	0.146	0.158
-736.039	60.483	-0.169	-0.171
-735.025	-54.093	0.107	-0.050
-734.010	-18.534	-0.101	0.065
-732.996	308.347	-0.192	-0.367
-731.981	-200.000	0.004	0.040
-730.966	186.525	0.128	0.195
-729.952	-59.594	0.057	0.025
-728.937	-200.000	-0.030	0.149
-727.923	-64.243	-0.385	0.160
-726.908	285.639	-0.171	-0.315
-725.894	-200.000	0.008	0.318
-724.879	93.810	-0.228	0.265
-723.864	32.489	0.275	0.243
-722.850	800.000	-0.082	-0.263
-721.835	-48.788	-0.365	-0.179
-720.821	-139.026	0.101	-0.011
-719.806	-155.712	-0.373	-0.024
-718.791	241.684	-0.005	-0.008
-717.777	532.589	-0.061	0.148
-716.762	-62.862	-0.076	0.032
-715.748	212.785	0.177	-0.285
-714.733	287.190	0.129	0.239
-713.718	405.726	0.146	-0.315
-712.704	-116.210	0.364	-0.069
-711.689	53.519	0.115	0.113
-710.675	-200.000	0.013	-0.389
-709.660	131.085	-0.133	-0.174
-708.645	-67.890	-0.211	-0.084
-707.631	619.938	0.046	-0.119
-706.616	90.754	-0.032	-0.036
-705.602	84.874	0.121	-0.135
-704.587	800.000	0.092	-0.284
-703.572	-200.000	0.049	-0.288
-702.558	-183.159	0.097	0.002
-701.543	-5.944	0.287	0.201
-700.529	47.508	-0.116	0.111
-699.514	-200.000	-0.014	-0.064
-698.499	800.000	-0.090	-0.391
-697.485	-17.641	0.055	0.035
-696.470	800.000	-0.012	0.039
-695.456	108.079	-0.051	-0.062
-694.441	-18.204	-0.205	0.131
-693.426	-200.000	0.039	-0.225
-692.412	-88.874	0.187	-0.056
-691.397	-101.388	0.260	0.065
-690.383	198.675	0.050	-0.078
-689.368	800.000	-0.020	-0.078
-688.354	-98.755	0.168	-0.044
-687.339	134.284	0.147	0.194
-686.324	-71.251	0.438	0.168
-685.310	-200.000	0.082	0.387
-684.295	744.745	-0.064	-0.175
-683.281	128.452	0.137	0.178
-682.266	277.526	0.232	-0.422
-681.251	-98.082	-0.399	-0.105
-680.237	-200.000	0.031	0.232
-679.222	-4.755	0.320	-0.225
-678.208	800.000	-0.131	-0.404
-677.193	-46.265	-0.051	-0.025
-676.178	-66.611	-0.190	-0.077
-675.164	-82.358	0.067	-0.022
-674.149	-57.598	-0.205	0.092
-673.135	800.000	0.067	0.256
-672.120	-70.011	-0.128	0.050
-671.105	-69.930	-0.352	-0.137
-670.091	-200.000	-0.023	-0.264
-669.076	-66.736	0.330	-0.133
-668.062	-109.930	-0.029	-0.006
-667.047	-63.959	-0.242	-0.101
-666.032	-82.684	0.161	0.053
-665.018	58.871	0.183	-0.183
-664.003	89.231	0.198	-0.225
-662.989	50.865	0.046	0.044
-661.974	310.554	-0.163	-0.311
-660.959	229.432	-0.189	0.315
-659.945	-156.262	0.338	-0.022
-658.930	-93.608	-0.132	-0.037
-657.916	137.564	0.174	-0.232
-656.901	3.988	-0.189	-0.141
-655.886	800.000	-0.020	0.083
-654.872	210.988	-0.120	0.193
-653.857	-126.174	0.059	-0.009
-652.843	-158.689	0.130	0.008
-651.828	-93.235	-0.329	-0.093
-650.814	137.322	0.141	-0.188
-649.799	800.000	-0.026	-0.086
-648.784	-200.000	0.009	-0.066
-647.770	-113.548	-0.160	-0.032
-646.755	52.196	-0.170	-0.165
-645.741	127.406	0.089	-0.115
-644.726	-51.215	-0.303	-0.145
-643.711	-4.168	0.167	-0.118
-642.697	88.101	0.191	0.216
-641.682	-81.700	-0.059	0.020
-640.668	-141.398	-0.217	0.022
-639.653	345.122	0.136	-0.273
-638.638	-200.000	0.001	0.013
-637.624	-100.938	0.317	-0.079
-636.609	-92.459	0.172	0.049
-635.595	-80.203	0.089	-0.030
-634.580	-200.000	0.003	-0.171
-633.565	51.971	0.335	-0.325
-632.551	310.975	0.162	0.310
-631.536	-200.000	0.046	0.205
-630.522	-38.724	-0.162	0.087
-629.507	157.718	0.006	0.009
-628.492	13.519	-0.248	0.196
-627.478	52.578	-0.274	0.266
-626.463	-68.914	-0.278	0.109
-625.449	-73.289	-0.251	0.093
-624.434	-123.049	-0.221	-0.036
-623.419	122.458	-0.213	0.271
-622.405	342.726	0.155	0.309
-621.390	-153.230	-0.167	-0.012
-620.376	474.135	0.087	-0.199
-619.361	92.558	0.176	0.202
-618.346	-200.000	0.001	0.101
-617.332	800.000	-0.081	-0.324
-616.317	198.924	0.051	-0.080
-615.303	-48.202	0.273	0.134
-614.288	191.001	0.087	0.133
-613.273	-117.896	-0.229	0.042
-612.259	633.440	-0.008	0.020
-611.244	-200.000	-0.013	0.086
-610.230	166.380	-0.153	-0.220
-609.215	800.000	-0.080	0.256
-608.201	-200.000	0.006	-0.195
-607.186	-200.000	-0.004	0.020
-606.171	56.632	-0.079	0.078
-605.157	-200.000	0.003	-0.222
-604.142	148.200	-0.076	-0.104
-603.128	74.422	0.265	0.284
-602.113	-200.000	-0.005	-0.048
-601.098	402.458	-0.032	-0.068
-600.084	800.000	-0.034	-0.139
-599.069	800.000	-0.042	-0.159
-598.055	-93.696	0.272	0.076
-597.040	209.111	0.199	-0.317
-596.025	27.945	-0.215	0.184
-595.011	-113.941	-0.279	0.055
-593.996	-200.000	0.052	0.234
-592.982	-68.525	-0.459	0.181
-591.967	364.077	-0.114	-0.234
-590.952	-200.000	0.018	0.081
-589.938	-133.967	-0.070	0.009
-588.923	-50.108	0.267	-0.129
-587.909	150.159	0.164	-0.226
-586.894	800.000	-0.092	-0.398
-585.879	147.701	-0.143	0.196
-584.865	-200.000	-0.003	0.109
-583.850	-200.000	-0.015	0.237
-582.836	-18.320	0.174	-0.111
-581.821	-51.699	-0.294	-0.139
-580.806	-200.000	-0.029	0.160
-579.792	-73.183	0.227	0.085
-578.777	285.641	0.129	-0.236
-577.763	-173.127	0.284	-0.009
-576.748	14.054	-0.097	-0.077
-575.733	38.974	0.248	0.225
-574.719	-133.067	0.198	-0.026
-573.704	136.068	-0.139	-0.184
-572.690	5.474	-0.077	0.058
-571.675	-103.606	0.237	-0.056
-570.661	36.374	0.137	0.123
-569.646	-127.781	-0.195	-0.029
-568.631	30.776	0.101	-0.088
-567.617	-2.126	0.142	-0.101
-566.602	-43.576	-0.354	0.181
-565.588	800.000	-0.025	-0.074
-564.573	1.804	-0.039	0.029
-563.558	-200.000	0.059	-0.464
-562.544	800.000	-0.130	-0.471
-561.529	34.087	-0.144	-0.127
-560.515	71.547	-0.180	-0.190
-559.500	133.401	0.253	0.332
-558.485	-135.227	-0.329	0.040
-557.471	-151.301	0.168	0.013
-556.456	354.868	0.129	-0.260
-555.442	-200.000	0.031	0.385
-554.427	-64.179	-0.145	0.060
-553.412	-200.000	0.041	-0.319
-552.398	-109.752	-0.329	-0.070
-551.383	27.144	-0.304	-0.259
-550.369	-16.812	0.288	-0.185
-549.354	629.621	-0.090	-0.230
-548.339	-44.827	-0.040	0.020
-547.325	453.939	0.041	-0.092
-546.310	-41.338	-0.246	0.128
-545.296	-52.468	-0.097	0.046
-544.281	-58.899	-0.471	-0.207
-543.266	120.735	-0.136	-0.171
-542.252	89.064	-0.152	-0.172
-541.237	634.676	0.052	-0.135
-540.223	-194.000	-0.138	0.001
-539.208	54.740	-0.096	-0.094
-538.193	-71.059	0.469	0.179
-537.179	19.379	0.215	0.176
-536.164	590.839	0.037	-0.093
-535.150	800.000	-0.068	-0.230
-534.135	-62.730	-0.180	0.076
-533.121	-166.085	0.216	-0.009
-532.106	338.777	-0.085	0.168
-531.091	-87.604	-0.140	0.043
-530.077	24.109	-0.185	0.155
-529.062	800.000	0.127	0.396
-528.048	132.111	-0.099	0.129
-527.033	160.687	0.082	0.116
-526.018	-200.000	-0.012	-0.161
-525.004	381.776	-0.018	-0.037
-523.989	-200.000	0.008	0.037
-522.975	185.020	-0.056	-0.084
-521.960	800.000	-0.044	-0.178
-520.945	-90.695	0.244	0.071
-519.931	20.222	0.338	-0.277
-518.916	249.990	-0.101	-0.175
-517.902	-112.817	0.236	0.047
-516.887	-200.000	-0.055	0.304
-515.872	358.383	0.091	0.185
-514.858	438.734	-0.079	-0.174
-513.843	91.572	-0.070	0.079
-512.829	126.150	0.015	-0.020
-511.814	38.919	-0.106	0.096
-510.799	800.000	0.063	0.180
-509.785	-109.779	0.115	0.024
-508.770	9.350	-0.238	-0.183
-507.756	86.056	0.326	-0.363
-506.741	101.510	0.104	0.122
-505.726	1.873	-0.126	0.092
-504.712	-32.181	-0.163	0.092
-503.697	-155.858	-0.127	-0.008
-502.683	252.974	0.102	0.177
-501.668	-139.301	0.040	-0.004
-500.653	-39.740	0.234	-0.124
-499.639	-200.000	-0.023	-0.169
-498.624	-200.000	0.039	-0.299
-497.610	-83.903	-0.325	0.105
-496.595	800.000	-0.089	-0.389
-495.581	-156.049	-0.134	-0.009
-494.566	-200.000	0.022	-0.198
-493.551	476.958	0.046	-0.105
-492.537	-87.359	-0.266	-0.082
-491.522	586.134	0.036	-0.090
-490.508	-200.000	0.004	-0.034
-489.493	0.323	-0.162	0.117
-488.478	-54.137	0.113	0.052
-487.464	-172.688	-0.215	-0.007
-486.449	363.432	0.189	0.384
-485.435	73.198	0.116	0.123
-484.420	-113.272	-0.160	0.032
-483.405	237.401	0.166	-0.279
-482.391	-113.106	-0.211	0.042
-481.376	-187.580	-0.101	-0.001
-480.362	-200.000	0.034	-0.260
-479.347	800.000	0.088	-0.365
-478.332	182.186	-0.060	-0.089
-477.318	-90.449	-0.067	0.020
-476.303	800.000	-0.066	0.255
-475.289	-200.000	-0.049	0.257
-474.274	0.064	0.262	0.189
-473.259	-5.371	-0.083	-0.058
-472.245	-123.651	-0.257	0.041
-471.230	641.750	0.121	0.312
-470.216	-200.000	-0.011	0.137
-469.201	-200.000	-0.022	-0.125
-468.186	155.342	0.071	-0.099
-467.172	-200.000	0.025	-0.178
-466.157	13.050	-0.184	-0.144
-465.143	83.882	-0.090	0.099
-464.128	467.150	0.114	0.259
-463.113	184.870	-0.225	0.337
-462.099	87.659	0.161	-0.181
-461.084	-41.015	0.125	-0.066
-460.070	-25.616	-0.285	-0.170
-459.055	-139.722	-0.201	-0.022
-458.040	45.262	-0.088	-0.082
-457.026	81.970	0.292	0.320
-456.011	-25.493	-0.248	0.148
-454.997	-98.187	-0.390	0.102
-453.982	556.590	0.104	-0.254
-452.968	92.862	-0.028	0.032
-451.953	52.429	-0.155	0.149
-450.938	130.291	0.025	0.033
-449.924	-200.000	-0.082	-0.521
-448.909	-18.386	0.194	0.123
-447.895	-20.829	0.188	-0.117
-446.880	-77.552	-0.104	-0.036
-445.865	-19.917	-0.259	-0.162
-444.851	162.393	-0.123	-0.175
-443.836	669.749	0.003	0.009
-442.822	-200.000	-0.014	-0.215
-441.807	-112.613	-0.074	0.015
-440.792	-71.589	-0.146	0.055
-439.778	86.085	0.192	0.214
-438.763	-124.430	-0.343	0.054
-437.749	-25.673	0.049	0.029
-436.734	-100.102	0.169	-0.043
-435.719	224.973	-0.137	-0.225
-434.705	49.068	0.064	0.061
-433.690	800.000	0.060	-0.260
-432.676	-144.815	-0.346	-0.032
-431.661	-200.000	-0.014	0.169
-430.646	263.568	0.129	0.227
-429.632	726.123	-0.072	0.195
-428.617	101.247	0.136	-0.161
-427.603	800.000	-0.076	0.220
-426.588	-60.273	-0.119	0.051
-425.573	148.778	0.102	-0.140
-424.559	245.060	0.147	0.250
-423.544	228.230	-0.134	0.220
-422.530	19.763	0.147	-0.120
-421.515	-161.713	-0.331	0.017
-420.500	-53.892	0.324	0.149
-419.486	88.845	-0.115	0.129
-418.471	800.000	0.043	0.127
-417.457	351.782	-0.102	0.204
-416.442	5.736	-0.208	0.155
-415.428	-106.288	-0.124	0.028
-414.413	65.758	0.275	-0.281
-413.398	800.000	0.093	-0.296
-412.384	-64.782	0.619	0.253
-411.369	800.000	0.061	0.243
-410.355	617.242	0.055	0.138
-409.340	184.603	0.108	-0.162
-408.325	22.294	0.051	-0.042
-407.311	219.618	0.160	-0.259
-406.296	-32.031	0.222	-0.125
-405.282	255.415	-0.097	0.168
-404.267	33.720	-0.248	0.218
-403.252	390.552	-0.209	0.439
-402.238	-82.278	0.149	0.049
-401.223	-30.650	0.294	-0.168
-400.209	171.527	0.103	-0.149
-399.194	-200.000	0.014	0.351
-398.179	-157.391	-0.069	-0.004
-397.165	-154.055	0.145	0.010
-396.150	-81.652	0.202	-0.067
-395.136	-27.260	-0.214	0.126
-394.121	-200.000	-0.053	0.243
-393.106	-200.000	0.003	-0.182
-392.092	-67.634	0.073	-0.029
-391.077	800.000	-0.070	0.272
-390.063	65.861	-0.204	0.209
-389.048	-200.000	0.000	-0.134
-388.033	-89.171	0.302	0.090
-387.019	97.422	-0.106	0.123
-386.004	-200.000	-0.006	-0.069
-384.990	-27.634	0.187	0.109
-383.975	-200.000	0.034	-0.175
-382.960	-75.315	0.211	0.076
-381.946	800.000	-0.076	0.243
-380.931	154.452	0.135	0.188
-379.917	775.623	0.104	0.285
-378.902	-200.000	-0.020	-0.096
-377.888	59.340	0.012	-0.012
-376.873	-77.462	0.196	-0.068
-375.858	-200.000	0.058	-0.390
-374.844	-146.889	0.230	-0.020
-373.829	-94.195	0.136	-0.038
-372.815	-200.000	-0.006	-0.086
-371.800	32.251	-0.059	0.051
-370.785	-50.204	0.101	0.048
-369.771	317.223	-0.120	0.228
-368.756	-161.353	-0.167	-0.009
-367.742	97.939	-0.069	-0.081
-366.727	-21.195	0.189	0.117
-365.712	-137.134	-0.289	-0.033
-364.698	84.123	-0.073	0.080
-363.683	800.000	0.036	-0.129
-362.669	2.857	-0.090	-0.066
-361.654	-116.254	0.133	-0.025
-360.639	59.611	-0.064	-0.063
-359.625	-51.658	0.238	-0.112
-358.610	25.835	0.253	-0.213
-357.596	204.417	-0.178	-0.278
-356.581	330.612	-0.150	0.291
-355.566	-92.635	-0.258	-0.073
-354.552	22.624	0.178	-0.147
-353.537	460.645	0.057	-0.127
-352.523	-143.000	0.342	-0.033
-351.508	259.488	0.085	0.149
-350.493	800.000	-0.033	-0.094
-349.479	-135.177	0.226	-0.027
-348.464	-200.000	-0.016	0.294
-347.450	-200.000	-0.003	-0.242
-346.435	-48.188	-0.188	0.092
-345.420	800.000	-0.105	-0.449
-344.406	358.963	0.080	0.161
-343.391	-47.706	-0.263	-0.128
-342.377	335.281	-0.028	-0.054
-341.362	800.000	-0.112	0.341
-340.348	119.760	-0.005	0.007
-339.333	-137.115	0.227	0.026
-338.318	348.573	0.054	0.108
-337.304	-93.316	0.287	-0.080
-336.289	-96.003	0.243	-0.065
-335.275	-53.608	-0.304	-0.140
-334.260	58.924	-0.254	0.252
-333.245	253.061	-0.149	0.256
-332.231	800.000	-0.068	0.216
-331.216	75.408	-0.149	0.158
-330.202	-200.000	0.048	0.228
-329.187	-98.772	-0.317	-0.081
-328.172	-200.000	0.028	-0.350
-327.158	-17.353	0.281	0.178
-326.143	800.000	-0.062	-0.250
-325.129	-75.711	0.165	0.059
-324.114	-82.408	0.291	0.095
-323.099	-115.505	0.287	-0.054
-322.085	-142.673	-0.371	0.036
-321.070	261.020	0.088	-0.153
-320.056	-103.991	-0.135	-0.032
-319.041	-62.017	-0.042	0.017
-318.026	4.786	0.069	-0.051
-317.012	800.000	-0.022	-0.063
-315.997	54.150	-0.177	0.171
-314.983	-103.081	-0.271	-0.065
-313.968	-61.153	-0.129	0.055
-312.953	-134.234	0.210	0.026
-311.939	-66.713	-0.229	-0.091
-310.924	-103.953	-0.247	0.058
-309.910	176.478	0.070	-0.102
-308.895	94.309	0.086	-0.098
-307.880	50.245	-0.141	-0.134
-306.866	-200.000	0.018	0.224
-305.851	48.384	-0.120	0.113
-304.837	-139.873	0.092	-0.010
-303.822	-200.000	-0.077	-0.427
-302.807	-150.765	0.322	-0.025
-301.793	800.000	-0.067	0.199
-300.778	-83.286	-0.131	0.042
-299.764	411.863	0.060	-0.128
-298.749	-81.979	-0.365	0.120
-297.735	-200.000	-0.002	0.019
-296.720	-90.783	0.385	-0.111
-295.705	-76.062	0.217	0.077
-294.691	53.287	-0.214	-0.206
-293.676	-200.000	0.075	0.332
-292.662	-84.814	-0.241	0.076
-291.647	185.558	-0.037	-0.055
-290.632	75.392	-0.129	0.136
-289.618	-7.349	0.151	-0.103
-288.603	-19.704	-0.190	0.118
-287.589	-24.668	-0.248	-0.148
-286.574	194.723	-0.095	-0.144
-285.559	18.120	0.379	0.304
-284.545	198.511	0.034	-0.052
-283.530	-200.000	0.034	-0.346
-282.516	-10.262	0.075	0.050
-281.501	336.568	0.073	0.142
-280.486	75.358	0.107	-0.114
-279.472	-73.056	-0.227	-0.084
-278.457	170.137	0.050	-0.072
-277.443	283.662	-0.096	-0.173
-276.428	-200.000	-0.007	-0.259
-275.413	-175.405	-0.136	0.004
-274.399	207.405	0.188	0.295
-273.384	-76.097	0.235	-0.083
-272.370	-27.676	0.146	-0.085
-271.355	-200.000	0.022	-0.213
-270.340	-31.930	-0.152	0.086
-269.326	800.000	-0.104	-0.299
-268.311	522.123	0.050	-0.118
-267.297	-35.884	0.139	0.076
-266.282	-200.000	0.007	-0.034
-265.267	56.529	0.060	0.058
-264.253	-41.682	0.188	-0.097
-263.238	41.831	0.023	-0.021
-262.224	136.386	-0.093	0.122
-261.209	-49.352	0.124	-0.059
-260.195	-73.036	-0.317	-0.117
-259.180	-9.039	0.059	-0.039
-258.165	-89.370	0.272	-0.081
-257.151	-200.000	0.008	0.250
-256.136	-121.716	-0.242	0.040
-255.122	800.000	0.039	0.143
-254.107	-34.422	-0.095	-0.052
-253.092	-84.508	-0.125	-0.040
-252.078	-93.105	0.301	0.084
-251.063	-111.264	-0.160	0.033
-250.049	-61.236	0.471	-0.199
-249.034	-58.795	0.206	0.089
-248.019	303.150	-0.112	-0.207
-247.005	78.584	-0.102	0.109
-245.990	133.184	0.183	-0.238
-244.976	-200.000	0.019	0.128
-243.961	-140.108	0.203	-0.021
-242.946	107.523	-0.088	0.105
-241.932	-114.571	-0.326	-0.063
-240.917	-120.790	0.290	0.049
-239.903	-200.000	-0.002	0.165
-238.888	101.086	0.157	-0.183
-237.873	26.250	0.322	0.269
-236.859	-200.000	0.071	-0.396
-235.844	-200.000	-0.037	-0.350
-234.830	-200.000	0.004	-0.114
-233.815	63.842	0.192	0.194
-232.800	-65.013	-0.150	-0.061
-231.786	-200.000	-0.013	-0.137
-230.771	253.215	0.048	0.082
-229.757	536.100	0.066	0.156
-228.742	-130.155	0.361	0.049
-227.727	-179.499	0.296	0.006
-226.713	58.553	0.144	0.142
-225.698	-80.977	0.173	-0.058
-224.684	-9.523	0.174	-0.116
-223.669	366.343	0.085	0.172
-222.655	88.944	0.089	0.099
-221.640	-36.537	-0.212	0.114
-220.625	800.000	0.111	-0.432
-219.611	800.000	-0.031	0.118
-218.596	138.690	0.110	-0.144
-217.582	24.915	0.089	0.074
-216.567	90.850	-0.095	0.106
-215.552	-200.000	-0.015	-0.159
-214.538	685.740	-0.059	-0.155
-213.523	31.798	0.083	0.072
-212.509	-175.061	0.128	0.004
-211.494	9.938	-0.307	-0.233
-210.479	-200.000	-0.043	0.227
-209.465	140.419	-0.089	0.118
-208.450	246.054	-0.256	0.432
-207.436	-86.490	0.221	0.068
-206.421	-145.821	0.095	0.008
-205.406	800.000	0.032	-0.129
-204.392	-200.000	-0.015	0.123
-203.377	346.261	-0.032	-0.062
-202.363	54.201	-0.120	0.115
-201.348	-1.144	-0.161	0.114
-200.333	40.808	0.105	0.095
-199.319	326.537	-0.089	0.170
-198.304	-200.000	-0.014	0.205
-197.290	800.000	-0.093	0.341
-196.275	-144.416	0.254	0.024
-195.260	-126.057	-0.323	0.049
-194.246	-200.000	0.075	0.431
-193.231	-13.097	0.218	-0.142
-192.217	-162.855	-0.382	-0.019
-191.202	256.569	0.034	-0.058
-190.187	-59.904	0.204	0.087
-189.173	433.218	0.072	0.155
-188.158	-33.164	-0.092	0.051
-187.144	359.427	-0.049	-0.099
-186.129	57.660	-0.039	-0.038
-185.114	364.052	0.142	0.285
-184.100	-169.949	0.173	-0.006
-183.085	41.344	0.087	0.079
-182.071	12.422	0.070	0.054
-181.056	198.043	0.076	0.116
-180.042	-200.000	-0.041	-0.187
-179.027	9.716	0.243	0.185
-178.012	-200.000	-0.042	-0.438
-176.998	800.000	0.033	0.115
-175.983	-53.394	-0.294	0.135
-174.969	-200.000	0.014	0.197
-173.954	-17.204	0.337	-0.212
-172.939	70.021	-0.169	-0.174
-171.925	800.000	-0.097	0.367
-170.910	-63.859	-0.255	0.104
-169.896	800.000	0.109	-0.306
-168.881	48.697	0.157	0.148
-167.866	800.000	-0.041	0.157
-166.852	-149.198	0.281	0.023
-165.837	15.802	0.272	0.214
-164.823	-12.242	-0.100	-0.065
-163.808	158.227	-0.165	0.229
-162.793	-200.000	0.024	0.253
-161.779	-126.176	0.274	-0.041
-160.764	29.092	-0.116	-0.098
-159.750	-26.627	-0.164	-0.096
-158.735	-176.497	0.196	-0.005
-157.720	-200.000	0.000	-0.109
-156.706	102.814	-0.194	0.227
-155.691	194.706	-0.082	-0.124
-154.677	-200.000	-0.016	-0.263
-153.662	800.000	-0.041	-0.180
-152.647	-130.550	-0.240	0.032
-151.633	502.294	-0.193	-0.447
-150.618	-101.572	0.188	-0.046
-149.604	-68.562	-0.163	-0.063
-148.589	800.000	-0.126	-0.385
-147.574	800.000	0.034	-0.122
-146.560	-107.847	-0.129	-0.028
-145.545	-200.000	-0.001	0.105
-144.531	165.824	0.089	-0.126
-143.516	-115.636	0.299	-0.056
-142.502	-200.000	-0.054	0.422
-141.487	73.705	0.150	0.157
-140.472	-137.500	0.324	0.037
-139.458	-79.254	0.100	0.034
-138.443	-57.781	-0.240	-0.105
-137.429	-100.190	0.022	0.006
-136.414	38.279	0.248	0.221
-135.399	158.108	-0.205	0.284
-134.385	-28.014	-0.178	0.103
-133.370	117.160	-0.085	0.104
-132.356	162.343	0.053	-0.075
-131.341	-83.318	0.309	0.099
-130.326	-142.891	-0.133	0.013
-129.312	592.165	-0.120	-0.295
-128.297	-85.898	0.293	0.091
-127.283	-161.994	0.423	-0.021
-126.268	53.101	0.285	-0.273
-125.253	-66.399	-0.303	-0.120
-124.239	800.000	-0.075	0.286
-123.224	26.089	0.076	0.063
-122.210	-200.000	0.016	0.134
-121.195	-55.510	0.223	0.100
-120.180	-107.598	0.115	-0.025
