DTS Sentinel unit serial number:	SN413079Multiplexer serial number:	ORYXHardware model number:	OX4-SRSoftware version number:	ORYX F/W v4.00 Oryx Data Collector v3.7.2.0data status	okinstallation	princeton_trtdifferential loss correction	single-endedforward channel	channel 4reverse channel	N/Adate	2019/09/10time	21:07:11forward acquisition time	60.00reverse acquisition time	0.00gamma	496.2192k internal	0.2313k external	0.2313temperature offset calibration	0.9946default loss term (dB/km)	0.3790temperature slope calibration	1.0000multiplexer offset coefficient	1.0000multiplexer slope coefficient	1.0000fibre end	0.00T internal ref (°C)	31.50T ext. ref 1 (°C)	-0.31T ext. ref 2 (°C)	24.60length (m)	temperature (°C)	Stokes	anti-Stokes-747.200	-150.901	0.163	0.012
-746.185	-200.000	-0.023	0.231
-745.171	-152.562	0.164	0.012
-744.156	-188.565	0.256	-0.003
-743.142	291.945	-0.070	0.130
-742.127	492.777	-0.073	0.169
-741.112	-113.747	0.180	0.036
-740.098	-200.000	-0.040	0.352
-739.083	124.010	-0.042	0.054
-738.069	15.380	-0.129	0.103
-737.054	102.494	0.113	-0.134
-736.039	-13.952	-0.098	0.064
-735.025	-200.000	0.043	0.337
-734.010	-1.241	0.263	0.188
-732.996	-49.792	-0.529	0.255
-731.981	-200.000	0.076	-0.343
-730.966	-200.000	-0.011	0.246
-729.952	289.121	-0.068	-0.125
-728.937	402.573	-0.034	0.073
-727.923	54.399	-0.099	-0.096
-726.908	27.345	-0.164	0.140
-725.894	-139.298	0.236	-0.026
-724.879	-200.000	0.049	-0.289
-723.864	-70.657	-0.177	-0.068
-722.850	256.391	-0.117	-0.203
-721.835	-79.338	-0.218	0.075
-720.821	-200.000	-0.057	0.253
-719.806	-103.330	-0.228	-0.054
-718.791	800.000	0.033	-0.142
-717.777	-95.315	0.251	0.068
-716.762	-200.000	0.019	0.403
-715.748	10.089	0.072	0.055
-714.733	-10.922	0.233	-0.156
-713.718	-200.000	0.006	0.136
-712.704	64.566	-0.203	-0.207
-711.689	-22.538	-0.227	0.139
-710.675	-73.457	0.182	-0.067
-709.660	800.000	-0.078	-0.225
-708.645	39.047	0.132	-0.120
-707.631	-141.557	-0.426	-0.044
-706.616	-79.704	0.070	0.024
-705.602	55.681	-0.156	-0.153
-704.587	-200.000	-0.030	-0.458
-703.572	-44.661	-0.064	-0.032
-702.558	70.909	0.124	-0.130
-701.543	-117.116	0.153	0.028
-700.529	800.000	0.035	0.100
-699.514	800.000	0.065	0.213
-698.499	-110.615	0.095	-0.020
-697.485	31.164	-0.187	0.162
-696.470	292.520	-0.192	0.355
-695.456	65.773	-0.167	-0.172
-694.441	335.471	0.053	-0.105
-693.426	-127.072	-0.164	0.024
-692.412	389.343	0.038	-0.079
-691.397	127.189	-0.278	-0.357
-690.383	86.543	0.121	-0.135
-689.368	-29.052	0.020	-0.012
-688.354	-159.195	0.242	-0.014
-687.339	-200.000	0.010	-0.254
-686.324	194.656	0.187	-0.286
-685.310	-43.853	0.095	-0.048
-684.295	-200.000	0.021	0.233
-683.281	59.436	-0.309	-0.308
-682.266	-200.000	-0.029	0.132
-681.251	325.902	0.121	0.234
-680.237	-23.803	0.081	0.049
-679.222	-200.000	0.046	0.223
-678.208	-80.552	-0.248	-0.084
-677.193	-200.000	-0.004	-0.402
-676.178	440.064	0.053	-0.118
-675.164	18.087	0.056	-0.045
-674.149	91.410	-0.160	0.182
-673.135	-200.000	-0.050	0.283
-672.120	-88.616	-0.347	-0.105
-671.105	-36.523	0.199	-0.108
-670.091	-147.074	-0.099	-0.009
-669.076	-49.763	-0.153	-0.074
-668.062	16.629	-0.238	-0.190
-667.047	195.580	-0.100	-0.153
-666.032	800.000	0.007	-0.025
-665.018	-138.346	0.563	-0.063
-664.003	-200.000	-0.014	0.178
-662.989	-106.393	-0.147	0.033
-661.974	800.000	-0.053	0.173
-660.959	290.108	-0.114	0.210
-659.945	156.426	0.151	0.211
-658.930	68.945	0.157	0.163
-657.916	-200.000	0.010	0.225
-656.901	-17.668	0.258	0.164
-655.886	-200.000	-0.032	-0.296
-654.872	800.000	-0.077	0.341
-653.857	-161.332	0.369	0.019
-652.843	-158.144	-0.105	-0.006
-651.828	-82.885	-0.458	0.150
-650.814	-200.000	-0.040	-0.449
-649.799	-200.000	0.010	-0.614
-648.784	67.840	0.129	0.133
-647.770	28.495	-0.116	0.099
-646.755	-62.397	-0.101	0.043
-645.741	8.905	-0.112	0.085
-644.726	-112.763	-0.224	0.045
-643.711	-200.000	0.042	0.286
-642.697	-200.000	-0.006	0.084
-641.682	-200.000	0.027	-0.167
-640.668	479.539	0.089	-0.203
-639.653	-200.000	-0.027	-0.392
-638.638	64.860	0.089	0.091
-637.624	800.000	-0.050	0.164
-636.609	144.920	0.176	-0.237
-635.595	136.101	-0.090	-0.118
-634.580	-20.688	0.265	-0.165
-633.565	306.477	-0.081	0.152
-632.551	292.222	0.167	-0.307
-631.536	-200.000	0.005	-0.347
-630.522	33.071	0.267	-0.234
-629.507	247.044	0.214	0.365
-628.492	-95.821	-0.026	0.007
-627.478	-80.917	0.257	-0.086
-626.463	-21.530	0.244	0.151
-625.449	8.742	0.288	-0.219
-624.434	-200.000	-0.029	-0.166
-623.419	-12.193	-0.465	0.307
-622.405	-200.000	-0.025	-0.229
-621.390	72.242	0.198	-0.209
-620.376	-200.000	0.002	-0.117
-619.361	29.999	0.080	0.069
-618.346	114.304	0.090	-0.111
-617.332	15.850	-0.246	0.196
-616.317	-152.768	0.102	0.007
-615.303	65.216	0.176	0.179
-614.288	35.822	0.063	-0.056
-613.273	-8.009	-0.117	0.080
-612.259	-126.600	0.702	-0.105
-611.244	321.143	-0.021	0.040
-610.230	125.021	0.272	-0.346
-609.215	-200.000	-0.076	0.360
-608.201	98.603	0.175	0.203
-607.186	-200.000	-0.043	-0.372
-606.171	-200.000	0.040	-0.210
-605.157	-115.786	0.163	-0.031
-604.142	-143.449	0.121	0.012
-603.128	800.000	0.041	0.153
-602.113	-162.448	-0.363	0.018
-601.098	799.992	0.100	-0.279
-600.084	175.504	-0.196	0.287
-599.069	4.471	-0.051	-0.038
-598.055	48.749	-0.073	-0.069
-597.040	-200.000	0.008	-0.315
-596.025	-24.947	-0.152	0.091
-595.011	-177.141	-0.105	-0.003
-593.996	800.000	-0.005	-0.015
-592.982	-200.000	-0.006	-0.096
-591.967	98.778	-0.108	0.125
-590.952	377.496	-0.128	0.265
-589.938	282.963	-0.163	-0.294
-588.923	-0.502	-0.259	0.185
-587.909	182.672	-0.231	-0.344
-586.894	-42.088	-0.293	0.151
-585.879	-99.552	0.162	0.041
-584.865	-200.000	0.032	-0.204
-583.850	-48.355	-0.208	0.101
-582.836	149.247	-0.076	-0.103
-581.821	-102.083	-0.182	0.044
-580.806	42.191	-0.059	0.054
-579.792	101.200	-0.218	0.255
-578.777	-99.088	0.316	0.081
-577.763	-5.847	-0.301	-0.208
-576.748	239.361	-0.054	0.091
-575.733	412.559	0.025	-0.053
-574.719	-147.479	0.237	-0.020
-573.704	369.436	-0.258	-0.526
-572.690	399.123	0.069	-0.147
-571.675	17.563	-0.321	0.257
-570.661	-83.176	-0.201	-0.065
-569.646	130.299	-0.139	-0.179
-568.631	63.931	0.254	-0.257
-567.617	-67.832	-0.092	0.036
-566.602	-135.468	-0.207	-0.025
-565.588	-57.569	-0.332	-0.147
-564.573	-143.839	0.143	-0.014
-563.558	-112.052	-0.697	-0.141
-562.544	81.577	-0.121	-0.132
-561.529	800.000	0.032	0.091
-560.515	-151.276	0.092	-0.007
-559.500	-200.000	-0.003	-0.110
-558.485	105.790	0.081	0.096
-557.471	-189.278	-0.084	-0.001
-556.456	-200.000	-0.009	0.048
-555.442	-1.834	0.317	0.225
-554.427	-115.864	0.341	-0.064
-553.412	615.876	-0.065	0.163
-552.398	-128.427	-0.037	-0.005
-551.383	-14.407	0.130	-0.084
-550.369	-49.493	-0.400	0.192
-549.354	-135.314	0.149	0.018
-548.339	-13.779	0.098	0.064
-547.325	-200.000	-0.043	0.372
-546.310	90.472	0.239	-0.269
-545.296	162.665	-0.075	-0.106
-544.281	800.000	-0.012	-0.042
-543.266	545.054	0.062	0.149
-542.252	443.589	-0.046	-0.102
-541.237	143.621	-0.029	-0.039
-540.223	335.835	-0.199	0.389
-539.208	485.621	-0.017	-0.039
-538.193	334.134	0.176	-0.342
-537.179	-86.911	0.121	0.037
-536.164	800.000	-0.055	0.209
-535.150	-97.005	-0.160	-0.042
-534.135	-19.951	0.218	0.135
-533.121	-118.748	0.316	-0.056
-532.106	-97.413	0.231	0.061
-531.091	609.773	0.154	-0.386
-530.077	122.749	0.096	-0.121
-529.062	-90.575	-0.244	0.071
-528.048	-77.600	0.136	-0.047
-527.033	-151.020	-0.067	0.005
-526.018	543.743	0.064	0.153
-525.004	589.921	0.037	0.091
-523.989	-56.783	0.107	0.048
-522.975	-16.612	0.134	-0.085
-521.960	-25.738	-0.214	-0.127
-520.945	-17.793	-0.107	0.068
-519.931	-85.205	0.064	-0.020
-518.916	-20.428	-0.142	0.088
-517.902	-159.285	-0.400	0.023
-516.887	800.000	-0.075	-0.321
-515.872	800.000	-0.058	0.218
-514.858	800.000	0.063	0.202
-513.843	369.764	-0.152	0.309
-512.829	-200.000	0.009	-0.342
-511.814	67.668	0.103	-0.106
-510.799	800.000	0.035	-0.131
-509.785	141.455	0.164	0.219
-508.770	-114.810	0.159	0.030
-507.756	800.000	0.105	0.294
-506.741	19.609	0.279	0.226
-505.726	368.568	-0.146	0.296
-504.712	-200.000	0.007	-0.545
-503.697	488.325	-0.032	-0.074
-502.683	800.000	0.051	-0.166
-501.668	-59.997	-0.147	0.063
-500.653	-140.134	-0.300	0.032
-499.639	93.559	-0.184	0.209
-498.624	-82.586	0.056	0.018
-497.610	-47.853	-0.228	0.111
-496.595	296.787	0.023	0.043
-495.581	41.884	0.135	0.123
-494.566	-154.989	0.044	-0.003
-493.551	43.048	0.190	0.174
-492.537	-63.726	-0.293	-0.121
-491.522	800.000	-0.073	-0.286
-490.508	-32.768	-0.218	0.122
-489.493	215.642	0.030	-0.048
-488.478	73.940	-0.204	-0.215
-487.464	-80.737	0.261	0.087
-486.449	800.000	0.039	-0.130
-485.435	-57.468	0.079	0.035
-484.420	-164.732	0.130	-0.006
-483.405	-53.115	0.057	0.026
-482.391	85.041	-0.112	-0.124
-481.376	-200.000	-0.058	-0.273
-480.362	92.959	-0.204	0.232
-479.347	-77.752	-0.326	0.113
-478.332	537.490	-0.074	-0.176
-477.318	123.353	0.279	0.351
-476.303	-33.027	0.136	0.076
-475.289	80.265	0.100	-0.108
-474.274	-125.052	-0.339	-0.052
-473.259	70.887	0.142	-0.148
-472.245	-200.000	-0.026	-0.132
-471.230	45.628	-0.168	0.156
-470.216	189.906	0.114	-0.172
-469.201	121.466	-0.159	-0.199
-468.186	-10.293	0.157	0.104
-467.172	-66.872	0.279	-0.111
-466.157	-8.660	0.177	-0.119
-465.143	-200.000	0.004	-0.180
-464.128	462.532	0.085	0.191
-463.113	725.918	-0.005	-0.013
-462.099	-41.464	0.397	-0.205
-461.084	641.347	-0.013	-0.033
-460.070	-62.559	-0.069	-0.029
-459.055	168.479	0.119	0.170
-458.040	-200.000	-0.005	0.183
-457.026	-116.718	-0.185	0.034
-456.011	-116.822	-0.137	0.025
-454.997	0.341	0.474	0.340
-453.982	14.791	0.182	0.142
-452.968	-9.490	0.327	0.219
-451.953	-85.382	-0.258	0.081
-450.938	399.042	-0.083	-0.175
-449.924	-104.651	-0.570	0.132
-448.909	-81.176	0.060	-0.020
-447.895	-79.516	-0.154	-0.052
-446.880	61.891	0.172	-0.172
-445.865	416.471	0.129	0.277
-444.851	-195.130	0.310	-0.002
-443.836	800.000	-0.091	-0.261
-442.822	220.443	-0.147	0.237
-441.807	-158.151	-0.250	-0.015
-440.792	800.000	0.112	-0.417
-439.778	-45.087	-0.196	0.098
-438.763	170.518	-0.056	0.081
-437.749	-75.167	0.242	0.087
-436.734	-200.000	-0.007	-0.260
-435.719	768.310	-0.110	0.299
-434.705	800.000	0.110	0.388
-433.690	800.000	-0.091	0.348
-432.676	-14.756	-0.051	-0.033
-431.661	-200.000	-0.054	0.257
-430.646	37.234	0.049	-0.044
-429.632	217.933	-0.166	0.265
-428.617	-48.469	0.138	0.066
-427.603	-155.232	-0.360	0.023
-426.588	-200.000	-0.033	-0.288
-425.573	-148.427	0.073	0.006
-424.559	-200.000	-0.017	0.133
-423.544	-76.708	-0.192	-0.067
-422.530	-195.292	-0.057	-0.000
-421.515	33.782	0.061	-0.053
-420.500	-13.390	-0.175	0.114
-419.486	-170.944	0.288	0.010
-418.471	-101.787	-0.204	-0.049
-417.457	-200.000	0.036	0.291
-416.442	-28.879	0.173	-0.099
-415.428	205.565	-0.241	0.375
-414.413	-200.000	-0.009	0.042
-413.398	-200.000	0.261	0.000
-412.384	800.000	-0.038	-0.147
-411.369	-175.389	-0.132	0.004
-410.355	14.695	0.287	-0.225
-409.340	274.484	0.131	0.232
-408.325	-104.022	-0.223	0.052
-407.311	-200.000	0.003	-0.138
-406.296	-117.966	-0.059	0.011
-405.282	-126.343	0.133	-0.020
-404.267	15.256	-0.084	0.066
-403.252	146.428	0.297	0.399
-402.238	89.789	-0.150	-0.168
-401.223	145.434	0.211	0.283
-400.209	326.453	-0.021	-0.040
-399.194	347.073	0.056	-0.111
-398.179	-67.831	0.207	-0.081
-397.165	-85.818	0.159	0.049
-396.150	-194.760	0.283	-0.002
-395.136	218.719	-0.194	0.309
-394.121	58.466	-0.097	-0.095
-393.106	100.896	-0.147	-0.170
-392.092	800.000	0.050	0.161
-391.077	-200.000	-0.057	0.303
-390.063	-163.413	0.511	0.024
-389.048	392.225	-0.018	-0.038
-388.033	-46.262	0.059	-0.029
-387.019	6.832	-0.153	-0.114
-386.004	127.499	0.210	0.267
-384.990	-27.227	0.142	0.083
-383.975	74.544	-0.026	-0.027
-382.960	666.346	0.047	-0.121
-381.946	-200.000	-0.001	0.141
-380.931	167.753	-0.100	-0.142
-379.917	-4.088	-0.175	-0.122
-378.902	262.689	0.155	-0.269
-377.888	-194.226	-0.457	0.004
-376.873	-200.000	0.005	-0.044
-375.858	16.528	0.263	-0.208
-374.844	73.266	0.273	-0.286
-373.829	562.158	0.092	0.223
-372.815	-52.385	0.185	-0.086
-371.800	800.000	-0.036	-0.117
-370.785	190.107	-0.130	-0.195
-369.771	100.904	0.131	0.152
-368.756	800.000	-0.020	0.066
-367.742	-86.265	-0.237	-0.073
-366.727	87.430	0.161	-0.178
-365.712	-63.918	-0.133	0.054
-364.698	-178.562	-0.236	-0.005
-363.683	-40.327	-0.154	-0.080
-362.669	-38.251	0.113	-0.060
-361.654	65.144	0.285	0.288
-360.639	117.914	-0.159	0.196
-359.625	198.383	0.151	0.231
-358.610	-76.545	0.233	-0.082
-357.596	800.000	-0.050	-0.141
-356.581	-154.082	0.183	-0.012
-355.566	11.233	0.146	-0.111
-354.552	245.844	-0.171	0.287
-353.537	141.191	-0.223	-0.295
-352.523	320.293	-0.117	0.222
-351.508	179.608	-0.126	0.184
-350.493	800.000	-0.049	-0.153
-349.479	-98.249	-0.154	0.039
-348.464	-59.152	-0.199	0.086
-347.450	33.337	0.115	-0.100
-346.435	-25.498	0.148	-0.088
-345.420	-175.548	-0.395	0.011
-344.406	-116.519	0.135	0.025
-343.391	800.000	-0.055	-0.211
-342.377	90.659	0.120	0.134
-341.362	155.337	-0.286	-0.392
-340.348	396.117	-0.083	0.174
-339.333	-200.000	-0.001	0.116
-338.318	-200.000	-0.020	0.106
-337.304	260.719	-0.045	0.078
-336.289	-180.305	0.240	-0.005
-335.275	5.690	-0.025	0.018
-334.260	22.807	-0.254	-0.208
-333.245	362.260	0.082	-0.164
-332.231	-68.921	0.290	-0.112
-331.216	58.749	-0.152	-0.149
-330.202	97.748	0.235	0.270
-329.187	-140.806	-0.212	0.022
-328.172	-200.000	0.009	-0.306
-327.158	-200.000	-0.004	0.089
-326.143	-200.000	0.030	0.288
-325.129	-14.909	-0.152	-0.097
-324.114	-200.000	-0.028	-0.273
-323.099	-120.435	0.277	-0.047
-322.085	388.956	0.076	-0.156
-321.070	34.103	-0.235	0.204
-320.056	-39.046	-0.236	-0.124
-319.041	486.871	-0.070	0.160
-318.026	-200.000	-0.003	0.086
-317.012	-200.000	-0.073	0.347
-315.997	346.481	-0.112	0.220
-314.983	-122.218	0.510	-0.083
-313.968	109.006	-0.207	-0.247
-312.953	-150.221	-0.271	-0.021
-311.939	-200.000	0.013	0.098
-310.924	80.512	0.119	-0.128
-309.910	81.781	0.080	0.086
-308.895	-178.342	0.146	-0.003
-307.880	-128.983	-0.108	-0.015
-306.866	-25.901	-0.118	0.069
-305.851	146.043	0.159	-0.213
-304.837	-32.034	-0.273	-0.152
-303.822	692.673	-0.023	0.060
-302.807	496.879	-0.039	-0.088
-301.793	-58.849	-0.086	0.037
-300.778	13.301	0.127	-0.098
-299.764	-24.964	-0.149	0.088
-298.749	19.084	-0.160	-0.128
-297.735	-10.954	-0.183	-0.121
-296.720	6.035	-0.259	0.191
-295.705	800.000	0.059	0.200
-294.691	-200.000	-0.027	-0.259
-293.676	544.407	0.078	0.185
-292.662	-9.251	0.235	0.157
-291.647	54.047	0.291	-0.278
-290.632	-131.154	-0.025	0.003
-289.618	-200.000	0.064	-0.508
-288.603	309.257	-0.112	0.208
-287.589	800.000	0.084	0.235
-286.574	-200.000	0.019	0.141
-285.559	10.730	0.083	0.063
-284.545	-51.067	-0.189	-0.088
-283.530	-200.000	-0.002	0.384
-282.516	393.493	-0.041	-0.085
-281.501	-29.976	-0.149	-0.085
-280.486	147.417	0.044	-0.059
-279.472	-13.907	-0.310	-0.200
-278.457	67.607	0.135	-0.137
-277.443	-143.826	-0.127	0.012
-276.428	-66.873	0.168	-0.066
-275.413	581.420	0.072	0.177
-274.399	-114.137	-0.225	-0.043
-273.384	718.967	-0.057	0.151
-272.370	2.889	-0.256	-0.185
-271.355	215.284	-0.028	0.044
-270.340	-76.373	0.361	-0.126
-269.326	-200.000	-0.017	0.211
-268.311	77.841	-0.258	-0.274
-267.297	-54.506	0.201	-0.091
-266.282	-200.000	-0.096	0.454
-265.267	90.975	0.223	0.249
-264.253	25.661	0.512	-0.424
-263.238	-200.000	-0.012	-0.212
-262.224	800.000	-0.082	-0.337
-261.209	173.915	0.218	-0.313
-260.195	-50.804	0.250	-0.117
-259.180	-200.000	-0.039	-0.216
-258.165	-160.110	0.129	0.007
-257.151	88.034	0.109	-0.120
-256.136	-200.000	-0.013	0.127
-255.122	38.296	0.109	0.096
-254.107	-44.870	-0.331	-0.164
-253.092	56.294	0.028	0.027
-252.078	800.000	-0.135	-0.391
-251.063	800.000	0.079	-0.300
-250.049	-10.446	-0.083	0.054
-249.034	-45.482	-0.411	-0.203
-248.019	-200.000	-0.021	0.233
-247.005	377.140	0.121	0.246
-245.990	-169.419	-0.253	0.009
-244.976	-33.503	0.396	0.218
-243.961	-200.000	0.011	-0.066
-242.946	57.875	-0.251	0.245
-241.932	-110.275	0.241	0.050
-240.917	-72.009	-0.248	0.092
-239.903	-19.957	-0.402	0.247
-238.888	-155.173	-0.190	0.012
-237.873	273.496	0.079	0.138
-236.859	800.000	-0.067	0.224
-235.844	19.445	0.174	0.139
-234.830	181.377	0.147	0.215
-233.815	-60.177	-0.277	-0.117
-232.800	-200.000	0.007	-0.115
-231.786	-86.793	-0.262	-0.080
-230.771	-63.134	-0.142	0.058
-229.757	191.631	0.098	0.146
-228.742	113.309	0.311	-0.375
-227.727	108.654	0.123	0.146
-226.713	367.335	0.240	0.483
-225.698	-65.803	-0.349	0.139
-224.684	-200.000	0.001	-0.016
-223.669	-139.749	0.386	-0.041
-222.655	-171.207	0.149	-0.005
-221.640	235.368	-0.083	0.136
-220.625	-93.972	0.062	-0.017
-219.611	-121.874	-0.082	-0.013
-218.596	-200.000	0.028	0.408
-217.582	-200.000	0.018	-0.206
-216.567	-200.000	0.054	-0.337
-215.552	326.676	-0.098	-0.187
-214.538	-16.546	-0.191	0.121
-213.523	6.136	-0.159	0.117
-212.509	205.802	0.173	-0.267
-211.494	658.383	0.047	-0.121
-210.479	-133.332	0.363	0.045
-209.465	-200.000	-0.020	-0.115
-208.450	227.522	0.183	-0.295
-207.436	800.000	-0.067	-0.250
-206.421	14.124	-0.046	-0.036
-205.406	142.639	-0.108	-0.143
-204.392	-63.250	0.260	0.106
-203.377	-200.000	-0.011	-0.082
-202.363	-82.290	-0.065	-0.021
-201.348	97.421	0.083	-0.095
-200.333	800.000	0.088	0.372
-199.319	432.240	0.227	0.489
-198.304	-86.402	-0.111	-0.034
-197.290	800.000	0.086	0.293
-196.275	-200.000	-0.058	-0.335
-195.260	-79.565	0.450	-0.151
-194.246	562.534	-0.073	-0.174
-193.231	-123.790	0.245	-0.038
-192.217	800.000	0.065	0.216
-191.202	431.831	0.062	-0.134
-190.187	15.941	-0.374	0.293
-189.173	-20.906	-0.193	0.117
-188.158	800.000	-0.028	0.088
-187.144	64.668	-0.366	0.367
-186.129	244.120	0.148	0.246
-185.114	-72.104	-0.350	0.129
-184.100	-125.375	0.279	0.042
-183.085	800.000	0.042	-0.173
-182.071	390.139	-0.083	0.172
-181.056	-132.229	-0.296	0.038
-180.042	800.000	0.017	0.057
-179.027	224.387	0.090	0.145
-178.012	-200.000	-0.005	0.340
-176.998	-120.698	0.392	0.066
-175.983	800.000	0.026	0.074
-174.969	51.403	-0.066	0.062
-173.954	578.576	0.057	-0.139
-172.939	-135.409	0.346	-0.041
-171.925	800.000	-0.096	-0.288
-170.910	452.028	-0.038	-0.083
-169.896	-200.000	-0.008	-0.330
-168.881	-95.270	-0.132	0.035
-167.866	-94.703	0.123	-0.033
-166.852	2.157	0.139	-0.100
-165.837	-200.000	-0.045	-0.243
-164.823	80.769	0.135	-0.144
-163.808	-200.000	0.003	-0.185
-162.793	-107.714	-0.226	0.049
-161.779	191.010	0.053	-0.080
-160.764	57.595	0.244	0.236
-159.750	664.394	-0.128	0.328
-158.735	-143.541	0.138	0.013
-157.720	281.810	-0.151	0.268
-156.706	-200.000	0.009	0.161
-155.691	111.451	0.085	-0.102
-154.677	-91.797	-0.284	-0.080
-153.662	-167.348	0.183	0.007
-152.647	192.413	0.090	0.135
-151.633	615.853	-0.043	0.107
-150.618	-16.484	0.340	0.214
-149.604	278.330	-0.070	-0.123
-148.589	16.474	-0.027	0.021
-147.574	800.000	0.061	0.257
-146.560	-86.624	-0.200	-0.061
-145.545	-13.231	0.189	-0.122
-144.531	-105.357	-0.051	-0.011
-143.516	6.530	0.083	-0.061
-142.502	16.663	0.118	0.092
-141.487	31.410	-0.215	0.183
-140.472	622.834	-0.056	0.140
-139.458	800.000	-0.061	-0.179
-138.443	337.621	0.177	-0.342
-137.429	172.193	0.079	-0.113
-136.414	165.644	0.017	-0.024
-135.399	118.745	0.086	0.105
-134.385	-200.000	-0.027	0.129
-133.370	-87.711	-0.088	0.026
-132.356	-107.058	0.148	-0.032
-131.341	142.450	0.088	-0.115
-130.326	-29.344	-0.130	-0.074
-129.312	80.621	0.058	-0.062
-128.297	99.377	-0.095	0.109
-127.283	-41.853	-0.127	0.064
-126.268	54.069	0.071	0.068
-125.253	192.081	-0.159	-0.237
-124.239	-21.067	0.275	0.167
-123.224	88.537	0.095	-0.105
-122.210	-39.172	0.285	-0.148
-121.195	5.909	0.278	0.204
