DTS Sentinel unit serial number:	SN413079Multiplexer serial number:	ORYXHardware model number:	OX4-SRSoftware version number:	ORYX F/W v4.00 Oryx Data Collector v3.7.2.0data status	okinstallation	princeton_trtdifferential loss correction	single-endedforward channel	channel 4reverse channel	N/Adate	2019/09/11time	19:51:11forward acquisition time	60.00reverse acquisition time	0.00gamma	496.2192k internal	0.2299k external	0.2299temperature offset calibration	1.0043default loss term (dB/km)	0.3790temperature slope calibration	1.0000multiplexer offset coefficient	1.0000multiplexer slope coefficient	1.0000fibre end	0.00T internal ref (°C)	39.25T ext. ref 1 (°C)	1.36T ext. ref 2 (°C)	32.12length (m)	temperature (°C)	Stokes	anti-Stokes-747.200	-154.354	0.288	0.020
-746.185	-48.474	-0.274	0.135
-745.171	-200.000	-0.034	0.409
-744.156	58.955	-0.076	0.077
-743.142	613.771	-0.084	0.214
-742.127	-200.000	0.042	0.320
-741.112	-101.712	-0.332	0.082
-740.098	-200.000	-0.002	0.151
-739.083	-43.001	-0.377	0.195
-738.069	129.530	-0.269	0.351
-737.054	39.978	-0.115	-0.105
-736.039	-200.000	0.024	-0.109
-735.025	-64.417	0.189	-0.078
-734.010	111.398	-0.202	0.249
-732.996	-14.080	-0.413	-0.272
-731.981	800.000	-0.067	-0.294
-730.966	800.000	-0.120	-0.349
-729.952	-92.669	0.141	-0.040
-728.937	60.540	0.142	0.143
-727.923	-62.860	-0.469	0.198
-726.908	-200.000	-0.033	-0.314
-725.894	-127.957	0.122	-0.018
-724.879	-200.000	0.018	-0.180
-723.864	159.783	0.176	-0.250
-722.850	800.000	-0.043	0.158
-721.835	-1.065	-0.252	-0.182
-720.821	-200.000	0.007	-0.192
-719.806	-95.621	0.085	-0.023
-718.791	-48.966	-0.034	0.017
-717.777	58.668	-0.100	0.100
-716.762	-200.000	-0.010	-0.131
-715.748	757.125	0.054	-0.149
-714.733	-200.000	-0.013	0.066
-713.718	5.255	-0.221	0.166
-712.704	-2.619	-0.126	-0.090
-711.689	-62.096	0.074	0.031
-710.675	11.736	-0.147	-0.115
-709.660	120.305	-0.106	-0.134
-708.645	-95.240	-0.322	-0.088
-707.631	10.034	-0.323	-0.250
-706.616	-163.117	-0.409	0.020
-705.602	-200.000	0.013	-0.143
-704.587	-47.115	-0.227	-0.113
-703.572	-9.940	0.034	0.023
-702.558	-124.325	0.301	0.048
-701.543	44.514	0.149	0.139
-700.529	540.689	0.114	-0.277
-699.514	-168.183	0.316	-0.012
-698.499	-142.261	-0.046	-0.005
-697.485	-86.194	0.257	-0.081
-696.470	-200.000	-0.031	-0.276
-695.456	48.084	-0.233	0.222
-694.441	-107.369	-0.017	-0.004
-693.426	33.077	-0.287	0.254
-692.412	162.921	0.047	0.067
-691.397	-33.202	-0.281	0.159
-690.383	-200.000	0.016	-0.103
-689.368	-200.000	0.063	-0.299
-688.354	457.153	0.057	0.129
-687.339	-19.796	-0.367	-0.231
-686.324	800.000	-0.040	-0.116
-685.310	58.608	0.070	0.070
-684.295	-200.000	0.031	-0.152
-683.281	48.248	0.250	-0.238
-682.266	163.056	-0.259	0.370
-681.251	800.000	0.075	0.275
-680.237	800.000	0.081	-0.265
-679.222	-200.000	-0.073	0.402
-678.208	-81.786	-0.089	-0.030
-677.193	-157.082	-0.409	-0.025
-676.178	-30.811	0.234	-0.135
-675.164	800.000	-0.068	-0.289
-674.149	-106.942	-0.307	-0.069
-673.135	800.000	-0.133	0.573
-672.120	-69.213	-0.352	0.138
-671.105	-168.440	-0.319	0.012
-670.091	-81.065	-0.079	-0.027
-669.076	800.000	0.041	-0.161
-668.062	32.609	0.166	0.146
-667.047	-32.432	-0.084	0.048
-666.032	-106.988	-0.377	0.085
-665.018	183.541	-0.117	-0.177
-664.003	-56.535	0.050	0.022
-662.989	-200.000	0.009	-0.257
-661.974	-57.952	-0.176	-0.078
-660.959	695.471	0.090	0.240
-659.945	-9.817	0.299	-0.202
-658.930	800.000	-0.059	-0.177
-657.916	334.590	-0.127	-0.250
-656.901	-28.177	-0.217	0.127
-655.886	247.361	0.057	0.097
-654.872	-200.000	-0.025	0.240
-653.857	800.000	-0.041	0.133
-652.843	-200.000	0.024	-0.171
-651.828	27.678	-0.112	-0.096
-650.814	-12.520	0.078	-0.051
-649.799	125.100	0.135	0.173
-648.784	-200.000	-0.004	0.271
-647.770	630.733	-0.042	0.109
-646.755	800.000	-0.042	-0.166
-645.741	668.876	0.088	-0.231
-644.726	-17.322	-0.141	0.091
-643.711	-33.823	0.065	0.037
-642.697	-199.166	0.350	0.002
-641.682	-200.000	0.050	0.367
-640.668	13.124	-0.126	0.099
-639.653	800.000	0.069	-0.289
-638.638	-82.673	-0.064	-0.021
-637.624	21.126	-0.221	0.182
-636.609	-55.786	0.181	0.082
-635.595	-8.558	-0.074	0.051
-634.580	-53.860	-0.182	0.084
-633.565	800.000	-0.034	-0.100
-632.551	17.159	-0.172	-0.138
-631.536	-168.322	0.278	-0.011
-630.522	-40.933	0.345	-0.181
-629.507	-137.476	0.314	-0.036
-628.492	-200.000	-0.004	-0.413
-627.478	108.540	-0.146	-0.178
-626.463	-96.353	0.193	0.052
-625.449	28.054	0.078	-0.067
-624.434	328.152	-0.169	-0.329
-623.419	117.481	-0.241	0.301
-622.405	-200.000	0.045	0.367
-621.390	252.612	0.044	0.076
-620.376	-102.613	0.288	0.070
-619.361	-15.843	0.197	-0.127
-618.346	800.000	-0.080	0.284
-617.332	-77.744	0.339	-0.119
-616.317	-44.697	-0.125	0.063
-615.303	115.702	-0.170	0.211
-614.288	-85.888	0.324	-0.102
-613.273	-142.761	-0.209	-0.021
-612.259	113.013	-0.220	-0.271
-611.244	-200.000	0.020	-0.226
-610.230	432.248	0.041	-0.091
-609.215	-165.466	-0.229	0.010
-608.201	74.082	0.139	-0.148
-607.186	107.325	-0.296	-0.357
-606.171	-67.011	0.482	0.193
-605.157	187.194	-0.012	0.018
-604.142	14.993	-0.146	-0.116
-603.128	24.390	-0.074	-0.062
-602.113	120.036	-0.028	-0.035
-601.098	-136.010	-0.090	-0.011
-600.084	-77.695	0.235	-0.082
-599.069	-21.776	0.293	-0.181
-598.055	-120.110	-0.320	0.056
-597.040	-115.366	-0.047	-0.009
-596.025	-200.000	-0.016	-0.136
-595.011	-164.653	0.228	-0.010
-593.996	-19.264	0.081	-0.051
-592.982	-137.165	0.226	-0.026
-591.967	186.698	0.131	-0.199
-590.952	117.607	0.359	-0.448
-589.938	178.985	-0.202	-0.299
-588.923	-50.943	0.150	0.072
-587.909	-39.706	0.288	-0.153
-586.894	-200.000	-0.023	-0.128
-585.879	-74.612	-0.191	-0.070
-584.865	98.223	0.185	0.216
-583.850	-32.972	-0.305	0.171
-582.836	570.261	0.063	-0.154
-581.821	-200.000	0.025	0.601
-580.806	225.994	0.020	-0.033
-579.792	343.634	-0.256	-0.508
-578.777	-41.785	-0.149	0.077
-577.763	800.000	-0.085	0.345
-576.748	-76.348	0.148	-0.053
-575.733	-150.833	-0.380	0.029
-574.719	-200.000	0.039	0.195
-573.704	-11.127	-0.092	-0.062
-572.690	-33.405	0.219	-0.123
-571.675	-166.920	0.111	-0.005
-570.661	56.003	-0.205	0.202
-569.646	-200.000	0.048	0.273
-568.631	-43.391	0.085	0.044
-567.617	-20.313	-0.087	0.054
-566.602	12.064	-0.169	-0.131
-565.588	-183.867	0.163	0.003
-564.573	-110.080	-0.128	0.027
-563.558	102.680	-0.163	0.194
-562.544	800.000	-0.074	-0.288
-561.529	361.303	0.169	-0.343
-560.515	-200.000	-0.047	-0.404
-559.500	-16.238	0.190	0.122
-558.485	-200.000	0.010	-0.142
-557.471	-111.504	0.285	-0.059
-556.456	272.412	0.054	0.096
-555.442	-93.668	-0.461	0.129
-554.427	95.468	-0.173	-0.200
-553.412	49.592	-0.427	-0.407
-552.398	-136.902	-0.223	-0.026
-551.383	-142.591	0.011	-0.001
-550.369	-62.978	-0.176	-0.074
-549.354	114.504	-0.191	0.235
-548.339	249.788	-0.250	0.430
-547.325	75.701	-0.136	-0.145
-546.310	210.855	0.177	0.281
-545.296	215.431	-0.240	0.386
-544.281	379.449	-0.024	0.050
-543.266	249.021	-0.188	0.322
-542.252	29.339	-0.135	-0.116
-541.237	109.802	0.059	0.072
-540.223	521.138	0.022	-0.052
-539.208	-200.000	-0.016	0.130
-538.193	687.276	-0.027	-0.071
-537.179	800.000	0.043	-0.190
-536.164	-200.000	-0.009	-0.151
-535.150	-134.840	-0.169	0.021
-534.135	138.838	-0.204	-0.271
-533.121	-200.000	-0.004	0.087
-532.106	132.157	0.237	-0.309
-531.091	14.417	-0.145	0.115
-530.077	-200.000	-0.355	0.000
-529.062	-100.844	-0.085	-0.021
-528.048	-200.000	0.007	0.242
-527.033	-26.580	-0.023	0.014
-526.018	170.384	0.174	-0.252
-525.004	453.265	-0.127	-0.285
-523.989	800.000	0.075	0.235
-522.975	-200.000	0.090	-0.434
-521.960	800.000	0.012	-0.038
-520.945	-36.937	-0.078	0.042
-519.931	628.419	0.140	-0.358
-518.916	22.053	-0.080	-0.066
-517.902	-4.840	0.108	-0.076
-516.887	117.810	0.054	-0.067
-515.872	92.272	0.118	0.135
-514.858	69.366	-0.095	-0.099
-513.843	56.281	-0.049	0.049
-512.829	249.823	0.161	0.276
-511.814	-106.244	-0.244	-0.055
-510.799	-49.158	-0.133	-0.064
-509.785	-41.753	-0.229	0.119
-508.770	742.100	-0.018	0.049
-507.756	-196.776	0.054	0.000
-506.741	451.014	-0.254	-0.568
-505.726	32.468	-0.263	-0.230
-504.712	800.000	-0.034	0.137
-503.697	-82.537	-0.078	-0.026
-502.683	-32.549	0.111	-0.062
-501.668	318.343	0.152	-0.291
-500.653	14.432	-0.121	0.095
-499.639	0.067	0.096	0.069
-498.624	69.676	-0.124	0.130
-497.610	-147.301	-0.180	0.015
-496.595	800.000	-0.067	0.205
-495.581	41.510	-0.064	0.059
-494.566	-200.000	0.021	-0.100
-493.551	210.986	0.093	-0.148
-492.537	800.000	0.047	0.171
-491.522	16.117	0.077	-0.062
-490.508	242.746	0.149	-0.252
-489.493	-200.000	-0.015	0.318
-488.478	-46.063	-0.115	0.057
-487.464	86.217	-0.083	0.092
-486.449	72.047	0.089	0.094
-485.435	-4.580	0.260	0.181
-484.420	297.139	-0.030	0.055
-483.405	21.202	0.041	0.034
-482.391	-200.000	-0.001	-0.041
-481.376	-65.939	-0.309	0.125
-480.362	107.171	-0.113	-0.136
-479.347	800.000	0.059	0.223
-478.332	-137.280	-0.323	0.037
-477.318	-107.206	-0.171	-0.038
-476.303	800.000	0.057	-0.201
-475.289	170.939	-0.134	0.194
-474.274	14.529	-0.117	0.092
-473.259	-153.736	-0.085	-0.006
-472.245	465.991	-0.110	0.249
-471.230	-83.884	-0.458	-0.147
-470.216	-200.000	0.031	-0.380
-469.201	-70.629	0.226	-0.086
-468.186	123.769	0.165	0.209
-467.172	800.000	-0.035	-0.137
-466.157	-141.803	0.391	0.040
-465.143	380.867	0.042	-0.086
-464.128	-200.000	-0.066	0.427
-463.113	-89.471	0.164	-0.049
-462.099	-200.000	0.058	0.278
-461.084	-38.933	-0.136	-0.072
-460.070	-107.724	-0.439	-0.097
-459.055	-200.000	-0.014	0.392
-458.040	-72.851	0.074	-0.027
-457.026	800.000	-0.078	-0.305
-456.011	-200.000	-0.000	-0.245
-454.997	421.228	-0.056	-0.122
-453.982	67.000	-0.192	-0.197
-452.968	582.909	0.163	-0.405
-451.953	-32.806	0.138	-0.077
-450.938	741.978	0.038	0.103
-449.924	-14.853	0.206	-0.133
-448.909	-130.470	0.221	0.030
-447.895	374.096	0.111	0.227
-446.880	-28.972	-0.082	0.047
-445.865	-91.195	-0.113	-0.033
-444.851	-200.000	-0.013	0.121
-443.836	800.000	-0.126	-0.390
-442.822	258.103	0.092	0.160
-441.807	77.435	-0.130	0.139
-440.792	-43.349	0.368	-0.188
-439.778	-54.356	-0.058	0.027
-438.763	-51.909	-0.142	0.067
-437.749	-100.574	-0.064	-0.016
-436.734	-200.000	-0.027	0.297
-435.719	79.240	-0.081	0.087
-434.705	50.645	0.192	-0.183
-433.690	117.676	0.039	0.049
-432.676	-86.950	-0.107	0.033
-431.661	50.100	-0.058	-0.055
-430.646	-53.043	-0.104	-0.048
-429.632	800.000	-0.040	-0.118
-428.617	-160.908	-0.239	-0.013
-427.603	203.283	0.169	0.263
-426.588	-200.000	-0.004	0.102
-425.573	-200.000	0.014	-0.154
-424.559	-66.327	-0.367	-0.147
-423.544	-122.712	-0.224	-0.036
-422.530	483.524	0.085	-0.196
-421.515	132.879	-0.224	-0.292
-420.500	301.862	-0.151	-0.282
-419.486	38.135	0.225	-0.202
-418.471	-129.455	0.011	0.002
-417.457	800.000	0.092	0.269
-416.442	-101.535	0.418	-0.102
-415.428	-88.735	-0.196	-0.059
-414.413	141.056	-0.072	0.096
-413.398	-14.365	-0.352	0.228
-412.384	-188.950	0.165	-0.002
-411.369	-188.671	0.154	0.002
-410.355	694.139	-0.072	-0.190
-409.340	-200.000	-0.231	-0.001
-408.325	-35.333	0.126	0.069
-407.311	418.016	-0.050	0.108
-406.296	-200.000	0.038	0.325
-405.282	-200.000	-0.017	0.268
-404.267	800.000	-0.089	-0.252
-403.252	-7.117	-0.129	-0.088
-402.238	249.584	-0.139	-0.238
-401.223	239.438	-0.074	0.123
-400.209	-34.727	-0.315	0.173
-399.194	5.803	-0.140	0.104
-398.179	800.000	-0.048	0.178
-397.165	-153.352	-0.127	0.009
-396.150	-200.000	-0.008	-0.275
-395.136	-200.000	0.025	0.198
-394.121	800.000	0.080	0.342
-393.106	216.969	0.128	-0.205
-392.092	61.721	0.124	-0.125
-391.077	110.311	0.177	0.214
-390.063	-200.000	0.010	-0.222
-389.048	-200.000	0.019	-0.095
-388.033	-158.901	0.247	-0.014
-387.019	800.000	0.064	0.204
-386.004	180.859	-0.199	0.294
-384.990	-140.566	-0.051	-0.005
-383.975	-153.614	0.251	0.017
-382.960	800.000	0.080	0.225
-381.946	5.632	0.052	-0.038
-380.931	89.964	0.136	-0.153
-379.917	-200.000	-0.007	0.221
-378.902	-200.000	-0.063	-0.291
-377.888	-96.987	-0.337	0.089
-376.873	-13.631	0.166	0.108
-375.858	-200.000	-0.074	0.418
-374.844	275.037	-0.117	0.209
-373.829	-200.000	0.041	-0.279
-372.815	-95.564	0.399	-0.108
-371.800	-136.196	-0.110	-0.013
-370.785	-94.662	-0.055	-0.015
-369.771	334.062	0.091	0.177
-368.756	-72.762	0.241	0.089
-367.742	-200.000	-0.045	0.234
-366.727	88.401	-0.147	-0.165
-365.712	271.255	-0.130	0.230
-364.698	-35.931	0.111	0.060
-363.683	800.000	-0.021	0.093
-362.669	-83.202	0.226	0.073
-361.654	-48.056	0.078	0.038
-360.639	-3.237	-0.383	0.268
-359.625	-62.845	-0.173	0.072
-358.610	122.923	0.064	0.081
-357.596	800.000	0.006	-0.022
-356.581	-200.000	-0.009	-0.330
-355.566	-6.312	0.165	-0.113
-354.552	232.007	-0.055	0.090
-353.537	157.568	0.120	-0.167
-352.523	800.000	-0.054	-0.191
-351.508	33.507	0.045	0.039
-350.493	215.546	0.177	-0.283
-349.479	-119.826	0.562	-0.097
-348.464	800.000	-0.099	0.363
-347.450	-5.339	0.138	-0.096
-346.435	-21.953	0.130	-0.079
-345.420	50.119	0.122	0.116
-344.406	2.979	0.172	0.125
-343.391	-115.356	-0.215	0.041
-342.377	-200.000	0.016	-0.080
-341.362	-86.287	0.128	0.040
-340.348	70.314	0.290	-0.301
-339.333	800.000	0.041	0.155
-338.318	-99.885	0.120	0.030
-337.304	-45.823	0.371	-0.184
-336.289	649.441	0.106	0.271
-335.275	800.000	0.104	-0.299
-334.260	-200.000	-0.007	-0.105
-333.245	14.626	-0.220	0.173
-332.231	-200.000	0.023	-0.259
-331.216	141.996	-0.302	-0.402
-330.202	800.000	-0.049	-0.206
-329.187	-32.202	-0.059	-0.033
-328.172	-198.868	0.165	-0.001
-327.158	-108.905	0.265	-0.057
-326.143	38.351	0.208	-0.186
-325.129	800.000	0.032	-0.127
-324.114	275.716	0.141	-0.252
-323.099	267.974	-0.110	0.193
-322.085	796.862	-0.095	0.262
-321.070	-200.000	-0.003	-0.258
-320.056	-200.000	-0.025	0.367
-319.041	126.710	-0.067	0.085
-318.026	-3.044	-0.190	0.133
-317.012	-54.414	-0.257	-0.117
-315.997	58.155	0.310	-0.305
-314.983	-0.108	0.213	0.152
-313.968	-81.898	-0.135	-0.044
-312.953	473.789	0.076	0.172
-311.939	114.462	-0.127	0.156
-310.924	-200.000	-0.002	-0.051
-309.910	-67.979	0.084	-0.033
-308.895	-71.990	-0.077	0.029
-307.880	419.076	-0.070	0.150
-306.866	800.000	0.088	0.370
-305.851	-89.930	-0.041	0.012
-304.837	62.427	0.055	0.055
-303.822	-129.156	-0.243	0.034
-302.807	-83.808	-0.192	0.061
-301.793	250.529	-0.075	-0.128
-300.778	-29.270	-0.194	-0.111
-299.764	-84.153	0.285	-0.091
-298.749	127.387	-0.178	0.226
-297.735	-200.000	-0.015	0.231
-296.720	-200.000	0.089	0.440
-295.705	-118.902	-0.187	0.033
-294.691	-58.713	-0.078	0.034
-293.676	-153.167	0.171	-0.012
-292.662	-58.552	0.207	-0.090
-291.647	35.250	0.302	-0.266
-290.632	412.598	0.045	-0.097
-289.618	712.303	0.082	-0.218
-288.603	800.000	-0.068	-0.242
-287.589	-7.254	0.083	0.056
-286.574	65.855	0.198	0.202
-285.559	238.641	0.173	-0.289
-284.545	-118.104	-0.208	-0.037
-283.530	-52.182	-0.417	-0.194
-282.516	424.305	0.104	0.223
-281.501	-84.298	-0.060	-0.019
-280.486	-200.000	0.052	-0.256
-279.472	-148.214	-0.116	0.010
-278.457	-144.731	0.178	0.016
-277.443	-190.433	0.257	0.003
-276.428	113.893	-0.093	0.113
-275.413	-159.748	-0.163	0.009
-274.399	800.000	0.056	0.178
-273.384	722.608	0.194	0.518
-272.370	-200.000	-0.005	-0.026
-271.355	-200.000	-0.100	0.473
-270.340	50.230	-0.087	-0.083
-269.326	-93.769	-0.334	-0.092
-268.311	214.230	-0.208	0.330
-267.297	160.057	0.243	0.340
-266.282	610.925	-0.094	0.236
-265.267	800.000	-0.113	0.365
-264.253	-136.566	-0.181	-0.021
-263.238	-62.267	0.162	0.068
-262.224	180.435	-0.234	-0.344
-261.209	399.907	-0.114	-0.239
-260.195	-76.537	-0.152	-0.053
-259.180	-58.052	0.207	-0.091
-258.165	58.194	-0.062	0.061
-257.151	-200.000	0.033	-0.165
-256.136	661.050	0.078	0.201
-255.122	-200.000	-0.069	-0.328
-254.107	78.070	-0.131	0.140
-253.092	19.063	-0.133	-0.107
-252.078	136.131	0.177	-0.231
-251.063	-134.073	0.309	-0.038
-250.049	136.548	-0.083	-0.108
-249.034	750.477	0.028	0.076
-248.019	166.947	-0.120	-0.171
-247.005	-57.910	-0.245	0.107
-245.990	176.874	0.152	0.221
-244.976	648.679	0.188	0.482
-243.961	-111.078	0.104	0.021
-242.946	-52.780	0.160	0.074
-241.932	-83.507	0.178	-0.057
-240.917	-200.000	-0.001	-0.042
-239.903	-200.000	0.066	0.372
-238.888	-157.636	0.214	-0.013
-237.873	47.623	0.096	-0.090
-236.859	-24.585	0.242	-0.144
-235.844	151.832	0.074	0.100
-234.830	-155.104	-0.296	0.019
-233.815	139.335	0.171	-0.226
-232.800	-52.499	0.087	0.040
-231.786	63.489	0.190	0.191
-230.771	-177.623	0.318	-0.008
-229.757	74.275	-0.100	0.105
-228.742	-200.000	-0.038	0.231
-227.727	78.871	-0.243	-0.260
-226.713	-200.000	0.006	0.205
-225.698	-90.327	-0.112	-0.033
-224.684	-18.749	0.122	-0.076
-223.669	-78.589	0.129	0.044
-222.655	55.541	0.209	-0.202
-221.640	-58.051	0.152	0.066
-220.625	43.285	0.250	-0.229
-219.611	-200.000	-0.052	-0.359
-218.596	444.291	-0.031	0.069
-217.582	23.073	-0.217	-0.178
-216.567	-87.040	0.091	0.028
-215.552	274.745	0.089	0.157
-214.538	-200.000	-0.021	-0.338
-213.523	-11.235	0.032	0.021
-212.509	739.138	0.098	-0.264
-211.494	800.000	-0.106	0.299
-210.479	-200.000	-0.054	0.374
-209.465	-30.008	0.134	0.076
-208.450	-200.000	0.030	-0.341
-207.436	-200.000	-0.001	-0.286
-206.421	-200.000	0.018	0.111
-205.406	456.853	-0.185	0.411
-204.392	-174.294	-0.154	-0.004
-203.377	800.000	0.083	-0.277
-202.363	469.224	0.050	0.112
-201.348	-200.000	-0.005	0.059
-200.333	-7.050	-0.170	0.115
-199.319	800.000	-0.085	0.301
-198.304	3.314	-0.219	-0.159
-197.290	157.393	-0.133	-0.183
-196.275	-143.061	0.134	-0.013
-195.260	800.000	-0.099	0.315
-194.246	-50.652	0.125	-0.059
-193.231	469.878	-0.128	-0.286
-192.217	-107.834	0.069	-0.015
-191.202	305.480	0.150	0.278
-190.187	61.350	0.278	-0.276
-189.173	800.000	-0.025	0.104
-188.158	246.362	0.111	0.187
-187.144	66.117	0.186	-0.188
-186.129	36.370	0.170	-0.149
-185.114	-200.000	0.010	0.103
-184.100	-200.000	0.007	0.331
-183.085	227.243	0.134	0.218
-182.071	800.000	-0.029	0.119
-181.056	-200.000	0.006	-0.027
-180.042	-10.251	-0.124	-0.082
-179.027	58.139	-0.161	0.157
-178.012	146.625	-0.054	-0.072
-176.998	-84.781	0.143	0.045
-175.983	-57.298	-0.194	-0.085
-174.969	-98.357	-0.301	-0.077
-173.954	590.426	0.062	0.153
-172.939	144.921	0.173	-0.231
-171.925	-200.000	-0.002	0.320
-170.910	2.533	0.357	0.258
-169.896	-124.799	0.267	-0.041
-168.881	-172.199	0.381	0.012
-167.866	23.582	0.132	-0.108
-166.852	744.182	-0.018	0.048
-165.837	-200.000	-0.012	0.204
-164.823	-87.687	0.357	0.108
-163.808	-114.603	-0.437	0.084
-162.793	559.557	-0.044	-0.106
-161.779	-200.000	0.039	-0.252
-160.764	612.129	-0.099	0.246
-159.750	-200.000	0.031	-0.186
-158.735	25.983	-0.329	-0.273
-157.720	-0.487	-0.148	0.105
-156.706	238.041	-0.033	-0.055
-155.691	-21.651	0.227	-0.138
-154.677	-31.499	-0.026	-0.014
-153.662	471.636	0.081	0.181
-152.647	-62.261	-0.056	-0.023
-151.633	157.766	-0.103	-0.143
-150.618	174.355	-0.062	-0.089
-149.604	-37.111	-0.163	-0.087
-148.589	-164.053	0.409	-0.019
-147.574	-200.000	-0.049	0.417
-146.560	-30.146	0.024	-0.013
-145.545	-113.131	0.197	0.039
-144.531	-56.472	0.415	-0.184
-143.516	-35.372	0.199	0.108
-142.502	-200.000	-0.031	0.185
-141.487	5.723	-0.076	0.056
-140.472	-200.000	-0.032	0.253
-139.458	800.000	0.052	0.202
-138.443	5.453	-0.208	0.153
-137.429	-129.538	0.145	0.020
-136.414	-69.656	-0.195	-0.074
-135.399	-116.177	-0.145	-0.027
-134.385	800.000	0.067	-0.236
-133.370	-148.936	-0.198	-0.016
-132.356	-38.371	0.142	-0.075
-131.341	-34.280	-0.317	-0.173
-130.326	-99.518	-0.175	0.044
-129.312	215.610	-0.125	0.198
-128.297	-130.138	-0.227	0.031
-127.283	800.000	0.028	0.091
-126.268	-23.715	-0.273	0.163
-125.253	-200.000	-0.090	-0.432
-124.239	-158.953	0.303	-0.017
-123.224	168.431	0.043	-0.060
-122.210	-13.363	-0.159	-0.103
