DTS Sentinel unit serial number:	SN413079Multiplexer serial number:	ORYXHardware model number:	OX4-SRSoftware version number:	ORYX F/W v4.00 Oryx Data Collector v3.7.2.0data status	okinstallation	princeton_trtdifferential loss correction	single-endedforward channel	channel 4reverse channel	N/Adate	2019/09/11time	22:39:11forward acquisition time	60.00reverse acquisition time	0.00gamma	496.2192k internal	0.2308k external	0.2308temperature offset calibration	1.0073default loss term (dB/km)	0.3790temperature slope calibration	1.0000multiplexer offset coefficient	1.0000multiplexer slope coefficient	1.0000fibre end	0.00T internal ref (°C)	34.94T ext. ref 1 (°C)	1.77T ext. ref 2 (°C)	28.65length (m)	temperature (°C)	Stokes	anti-Stokes-747.200	-38.222	0.236	-0.127
-746.185	-141.364	0.169	0.017
-745.171	-98.053	0.207	-0.054
-744.156	90.341	0.219	0.249
-743.142	800.000	0.039	-0.118
-742.127	-67.041	-0.230	0.092
-741.112	348.654	0.146	0.292
-740.098	748.642	0.048	-0.132
-739.083	139.339	-0.152	0.203
-738.069	-21.450	-0.277	0.171
-737.054	389.067	-0.123	-0.259
-736.039	20.871	-0.095	0.078
-735.025	-200.000	0.019	0.305
-734.010	800.000	-0.034	-0.122
-732.996	-199.562	-0.204	-0.001
-731.981	195.594	-0.080	0.124
-730.966	186.386	-0.100	-0.151
-729.952	-166.743	-0.234	-0.010
-728.937	171.506	-0.168	0.245
-727.923	-200.000	0.019	-0.195
-726.908	-152.385	-0.107	0.008
-725.894	204.093	-0.185	-0.291
-724.879	-122.217	0.165	0.027
-723.864	57.974	0.186	0.185
-722.850	-200.000	0.000	0.113
-721.835	254.738	0.036	-0.062
-720.821	-56.390	-0.285	0.128
-719.806	409.395	-0.125	-0.270
-718.791	445.030	0.076	-0.169
-717.777	36.975	0.130	0.116
-716.762	97.077	0.150	-0.174
-715.748	173.563	0.140	-0.206
-714.733	-23.035	0.181	-0.111
-713.718	-23.793	-0.115	-0.070
-712.704	173.527	0.087	-0.127
-711.689	5.175	0.049	-0.037
-710.675	-91.582	-0.343	-0.099
-709.660	150.590	-0.199	-0.275
-708.645	-130.590	0.180	-0.025
-707.631	-125.833	0.407	-0.062
-706.616	-200.000	-0.036	-0.196
-705.602	56.151	-0.120	0.118
-704.587	554.817	-0.113	-0.276
-703.572	-15.907	0.191	-0.123
-702.558	-200.000	-0.011	-0.193
-701.543	-40.377	-0.148	0.078
-700.529	-200.000	-0.025	0.371
-699.514	660.208	-0.088	0.229
-698.499	370.059	-0.096	-0.198
-697.485	439.100	0.046	-0.102
-696.470	-156.333	-0.231	-0.015
-695.456	-18.699	0.159	-0.101
-694.441	-11.105	-0.070	-0.047
-693.426	800.000	0.084	-0.351
-692.412	224.294	-0.023	-0.038
-691.397	-53.625	0.037	0.017
-690.383	219.064	0.051	0.083
-689.368	800.000	-0.055	-0.163
-688.354	-200.000	-0.014	-0.187
-687.339	122.379	0.195	-0.248
-686.324	-39.020	0.247	-0.132
-685.310	94.617	0.260	0.300
-684.295	-200.000	-0.009	-0.353
-683.281	0.343	-0.583	-0.422
-682.266	97.454	0.250	-0.291
-681.251	-200.000	0.029	0.266
-680.237	-191.175	0.273	-0.003
-679.222	-152.717	-0.221	0.016
-678.208	2.632	0.148	0.109
-677.193	96.017	-0.121	-0.140
-676.178	240.579	0.051	-0.086
-675.164	-200.000	0.024	-0.318
-674.149	800.000	-0.077	0.224
-673.135	9.063	0.293	-0.225
-672.120	133.181	0.113	0.148
-671.105	-107.751	-0.040	-0.009
-670.091	-103.296	-0.182	-0.044
-669.076	-40.415	-0.178	0.094
-668.062	-66.957	0.149	0.060
-667.047	-48.798	-0.166	-0.081
-666.032	202.082	-0.089	-0.138
-665.018	611.299	0.102	-0.259
-664.003	-200.000	0.001	0.169
-662.989	-51.681	-0.472	0.223
-661.974	800.000	0.062	-0.216
-660.959	19.551	-0.252	-0.205
-659.945	-71.106	-0.280	-0.106
-658.930	-97.273	0.080	-0.021
-657.916	414.658	-0.051	-0.110
-656.901	27.433	-0.215	-0.183
-655.886	28.150	0.347	0.297
-654.872	-102.223	-0.123	0.030
-653.857	60.333	-0.139	-0.139
-652.843	-53.401	-0.175	0.081
-651.828	551.008	0.096	-0.234
-650.814	800.000	-0.057	0.249
-649.799	4.867	-0.232	0.173
-648.784	556.672	-0.077	-0.188
-647.770	112.473	-0.111	-0.136
-646.755	-200.000	0.050	0.229
-645.741	113.477	0.089	-0.110
-644.726	-38.959	-0.314	-0.167
-643.711	-131.921	-0.084	-0.011
-642.697	-200.000	0.034	0.297
-641.682	231.082	-0.139	0.230
-640.668	-147.914	0.112	0.009
-639.653	-138.388	-0.243	-0.027
-638.638	-131.021	-0.101	-0.014
-637.624	-29.858	-0.161	0.093
-636.609	-67.510	-0.146	-0.058
-635.595	-56.446	0.033	0.015
-634.580	-17.403	-0.085	0.054
-633.565	-200.000	0.123	0.000
-632.551	61.958	0.080	-0.080
-631.536	-200.000	0.028	0.128
-630.522	-34.536	0.124	0.069
-629.507	-90.363	-0.284	-0.083
-628.492	209.201	-0.057	-0.091
-627.478	134.738	-0.064	-0.084
-626.463	-91.429	-0.193	-0.056
-625.449	-200.000	0.016	-0.296
-624.434	-65.811	-0.200	-0.081
-623.419	114.347	0.219	0.270
-622.405	218.049	0.135	-0.218
-621.390	-200.000	-0.039	-0.244
-620.376	229.171	0.191	-0.315
-619.361	-47.278	-0.148	-0.073
-618.346	61.839	-0.136	-0.137
-617.332	68.010	-0.177	0.183
-616.317	-61.276	0.169	0.072
-615.303	-46.254	0.303	0.151
-614.288	-142.346	-0.260	-0.026
-613.273	-150.175	0.364	-0.028
-612.259	192.974	-0.111	0.170
-611.244	-73.739	-0.370	0.136
-610.230	16.571	-0.205	-0.164
-609.215	800.000	0.027	-0.109
-608.201	-200.000	0.010	-0.221
-607.186	-2.449	-0.211	-0.149
-606.171	-200.000	0.029	-0.412
-605.157	-200.000	-0.030	0.169
-604.142	-172.173	-0.245	0.008
-603.128	-134.107	-0.463	-0.058
-602.113	-200.000	-0.201	0.000
-601.098	-72.391	-0.268	-0.100
-600.084	-152.191	-0.420	-0.031
-599.069	9.635	0.219	0.168
-598.055	-103.628	-0.250	0.059
-597.040	282.821	0.173	-0.315
-596.025	-88.958	0.078	0.023
-595.011	41.045	-0.317	-0.290
-593.996	800.000	0.067	0.267
-592.982	-124.795	0.138	-0.022
-591.967	578.171	-0.103	-0.254
-590.952	-200.000	-0.020	-0.096
-589.938	105.003	-0.160	0.191
-588.923	435.297	0.165	0.363
-587.909	-66.562	-0.035	-0.014
-586.894	194.229	-0.142	0.217
-585.879	800.000	0.092	0.273
-584.865	-200.000	-0.027	-0.230
-583.850	-51.169	-0.219	-0.104
-582.836	141.760	-0.013	-0.017
-581.821	81.067	-0.098	-0.107
-580.806	58.323	-0.098	0.097
-579.792	-200.000	-0.045	-0.228
-578.777	-60.626	-0.148	-0.063
-577.763	-107.141	0.185	-0.041
-576.748	-65.824	0.161	0.065
-575.733	96.542	0.175	0.202
-574.719	-161.397	-0.190	0.010
-573.704	189.910	-0.115	-0.175
-572.690	-200.000	0.040	0.240
-571.675	-104.622	0.389	0.091
-570.661	-41.179	-0.217	-0.113
-569.646	800.000	-0.033	0.113
-568.631	123.011	-0.083	0.106
-567.617	-142.602	-0.331	0.033
-566.602	-129.669	-0.436	0.061
-565.588	-200.000	-0.013	0.077
-564.573	-134.471	0.219	0.027
-563.558	-200.000	-0.010	-0.238
-562.544	-97.409	0.214	0.056
-561.529	-88.681	0.213	0.064
-560.515	-48.177	-0.316	0.154
-559.500	-53.482	-0.248	-0.115
-558.485	69.410	-0.102	0.106
-557.471	-104.338	-0.227	0.053
-556.456	183.656	0.303	-0.452
-555.442	-200.000	0.024	-0.337
-554.427	-129.178	-0.162	0.023
-553.412	-200.000	0.003	0.232
-552.398	-49.823	-0.131	-0.063
-551.383	-200.000	-0.030	-0.379
-550.369	566.951	-0.020	-0.049
-549.354	495.058	-0.016	0.038
-548.339	-200.000	0.005	-0.121
-547.325	-156.567	0.132	0.008
-546.310	341.291	-0.132	-0.260
-545.296	-78.344	0.157	0.054
-544.281	12.853	-0.050	-0.039
-543.266	-124.109	-0.130	-0.021
-542.252	800.000	0.046	-0.164
-541.237	-30.041	0.239	0.137
-540.223	-91.711	-0.068	0.019
-539.208	-139.125	0.228	0.025
-538.193	134.207	-0.152	-0.199
-537.179	297.212	0.083	-0.153
-536.164	-27.200	-0.110	0.064
-535.150	-13.010	-0.367	0.241
-534.135	192.952	-0.020	-0.030
-533.121	-111.661	-0.224	0.046
-532.106	63.535	0.218	-0.221
-531.091	-200.000	0.007	-0.202
-530.077	-200.000	0.003	0.018
-529.062	195.301	0.082	-0.126
-528.048	660.830	-0.031	-0.080
-527.033	82.408	0.183	-0.200
-526.018	-157.083	0.630	-0.039
-525.004	-200.000	0.002	-0.041
-523.989	183.498	0.038	-0.057
-522.975	236.327	-0.281	0.468
-521.960	16.165	0.343	0.273
-520.945	-200.000	-0.054	0.254
-519.931	-200.000	0.018	-0.174
-518.916	228.009	0.100	0.163
-517.902	-200.000	0.028	-0.203
-516.887	128.703	0.222	-0.285
-515.872	158.417	-0.158	-0.220
-514.858	-37.648	0.214	-0.115
-513.843	156.232	-0.282	-0.392
-512.829	-56.384	0.184	-0.082
-511.814	-14.050	-0.131	0.085
-510.799	263.507	0.111	0.194
-509.785	-88.655	0.327	-0.098
-508.770	-200.000	-0.033	0.266
-507.756	-74.025	-0.288	0.105
-506.741	-19.842	0.205	-0.128
-505.726	672.140	-0.037	-0.096
-504.712	-200.000	-0.021	0.183
-503.697	400.651	-0.154	-0.325
-502.683	-200.000	0.177	-0.001
-501.668	496.733	0.056	-0.130
-500.653	69.059	-0.121	0.125
-499.639	-66.876	0.288	-0.115
-498.624	-200.000	-0.004	0.022
-497.610	78.646	0.211	0.227
-496.595	-200.000	0.001	0.018
-495.581	66.589	-0.098	0.100
-494.566	-130.668	-0.286	-0.039
-493.551	-93.322	-0.154	0.043
-492.537	-115.798	0.404	0.076
-491.522	69.588	0.298	0.309
-490.508	792.822	-0.027	-0.074
-489.493	-139.778	0.011	0.001
-488.478	-59.524	0.354	-0.153
-487.464	258.734	0.073	0.127
-486.449	359.388	0.211	0.425
-485.435	800.000	-0.050	0.155
-484.420	62.000	-0.258	0.259
-483.405	800.000	0.083	0.272
-482.391	-78.047	-0.332	0.115
-481.376	-109.590	-0.122	-0.026
-480.362	-30.357	0.174	-0.100
-479.347	-200.000	0.023	0.127
-478.332	-64.953	-0.176	-0.071
-477.318	-200.000	-0.014	0.177
-476.303	800.000	-0.050	-0.191
-475.289	-42.943	0.159	0.081
-474.274	-74.208	0.069	-0.025
-473.259	-123.696	-0.462	-0.074
-472.245	71.096	-0.179	0.186
-471.230	800.000	0.071	0.252
-470.216	-75.801	-0.178	0.064
-469.201	133.017	-0.134	0.174
-468.186	620.096	-0.086	0.217
-467.172	-200.000	0.006	-0.079
-466.157	-97.038	-0.309	0.081
-465.143	-108.555	0.272	0.059
-464.128	-72.161	0.241	-0.090
-463.113	65.548	0.234	-0.239
-462.099	32.857	0.108	-0.094
-461.084	151.434	-0.131	-0.179
-460.070	-200.000	0.031	-0.265
-459.055	800.000	-0.060	0.261
-458.040	-38.996	-0.179	-0.095
-457.026	657.628	-0.041	-0.107
-456.011	-41.755	-0.220	0.113
-454.997	115.997	0.016	0.020
-453.982	-200.000	0.008	0.350
-452.968	176.106	-0.141	0.206
-451.953	-78.682	-0.427	-0.147
-450.938	85.893	0.100	-0.111
-449.924	-32.820	-0.146	0.081
-448.909	-76.258	0.272	0.096
-447.895	646.744	-0.113	-0.289
-446.880	-73.629	0.169	-0.062
-445.865	800.000	0.034	0.139
-444.851	41.985	-0.152	-0.139
-443.836	-63.692	-0.302	-0.124
-442.822	-200.000	-0.016	0.075
-441.807	-55.489	-0.030	0.013
-440.792	-25.141	0.084	-0.050
-439.778	-46.620	-0.116	0.057
-438.763	244.173	0.297	-0.500
-437.749	-103.629	0.288	-0.068
-436.734	-114.395	-0.250	0.048
-435.719	-82.172	0.280	0.092
-434.705	1.426	-0.089	0.064
-433.690	274.565	0.139	0.247
-432.676	-59.279	0.151	-0.065
-431.661	58.355	0.140	-0.138
-430.646	43.682	0.197	-0.181
-429.632	120.549	0.129	-0.161
-428.617	102.870	0.253	-0.298
-427.603	-200.000	0.023	-0.456
-426.588	23.783	0.105	-0.087
-425.573	-135.537	-0.275	-0.033
-424.559	-200.000	0.049	-0.327
-423.544	-153.067	-0.171	-0.012
-422.530	350.581	-0.073	0.145
-421.515	800.000	-0.081	-0.234
-420.500	-144.887	0.155	0.014
-419.486	-81.883	0.454	0.149
-418.471	60.815	0.128	0.128
-417.457	800.000	0.027	-0.078
-416.442	-40.210	0.131	0.068
-415.428	-181.211	-0.375	-0.007
-414.413	227.969	0.082	0.134
-413.398	704.684	-0.065	-0.171
-412.384	272.729	0.176	0.311
-411.369	-46.255	-0.088	-0.043
-410.355	-200.000	0.011	-0.082
-409.340	-43.730	-0.216	0.109
-408.325	398.325	0.089	0.188
-407.311	800.000	0.051	0.210
-406.296	551.344	0.034	-0.082
-405.282	339.620	-0.010	0.020
-404.267	156.522	0.150	0.208
-403.252	-200.000	-0.016	0.160
-402.238	-86.133	-0.219	0.068
-401.223	652.424	-0.025	0.063
-400.209	-95.110	0.133	0.036
-399.194	800.000	0.015	0.055
-398.179	210.224	0.232	-0.365
-397.165	-200.000	0.032	-0.205
-396.150	748.098	-0.085	-0.229
-395.136	-101.868	-0.205	0.050
-394.121	-125.943	0.276	-0.042
-393.106	37.053	0.177	-0.157
-392.092	90.202	0.085	-0.095
-391.077	520.478	-0.070	0.164
-390.063	-15.455	0.191	0.122
-389.048	-123.161	-0.133	-0.021
-388.033	-73.607	-0.260	-0.095
-387.019	-38.429	0.083	-0.044
-386.004	90.284	-0.034	-0.039
-384.990	759.396	0.053	0.144
-383.975	800.000	-0.087	0.253
-382.960	-200.000	0.008	-0.064
-381.946	800.000	-0.009	0.029
-380.931	-51.411	-0.031	0.014
-379.917	136.796	0.027	0.035
-378.902	62.728	-0.207	-0.208
-377.888	-0.781	-0.306	-0.217
-376.873	-16.431	0.238	-0.151
-375.858	250.199	-0.157	-0.267
-374.844	442.098	0.115	-0.252
-373.829	492.608	0.086	0.196
-372.815	-200.000	-0.008	-0.134
-371.800	313.028	-0.243	-0.457
-370.785	-81.811	0.428	0.140
-369.771	800.000	0.067	0.210
-368.756	-89.089	-0.156	0.046
-367.742	170.630	0.109	-0.157
-366.727	-117.433	0.178	0.032
-365.712	-200.000	0.017	0.111
-364.698	-106.225	0.162	-0.036
-363.683	183.334	0.056	0.082
-362.669	87.193	0.019	-0.021
-361.654	-74.993	-0.391	-0.140
-360.639	81.943	0.125	-0.136
-359.625	-56.170	0.151	-0.067
-358.610	-128.252	0.400	0.057
-357.596	-34.713	-0.321	-0.176
-356.581	-61.522	0.202	0.085
-355.566	-200.000	-0.023	0.113
-354.552	-200.000	-0.016	0.442
-353.537	-158.837	0.187	-0.011
-352.523	152.600	-0.247	0.338
-351.508	358.708	0.095	0.191
-350.493	437.652	0.246	-0.536
-349.479	100.258	0.284	0.330
-348.464	-81.769	-0.342	-0.112
-347.450	-31.814	0.150	0.084
-346.435	-180.269	-0.082	0.002
-345.420	-12.680	0.452	-0.295
-344.406	-55.421	0.072	0.032
-343.391	-68.089	0.159	-0.062
-342.377	-8.447	0.088	-0.059
-341.362	-76.795	-0.126	0.044
-340.348	147.281	-0.090	-0.121
-339.333	351.743	-0.056	-0.110
-338.318	-200.000	0.067	0.431
-337.304	-95.996	-0.221	0.059
-336.289	755.397	0.030	-0.081
-335.275	-11.550	0.270	-0.178
-334.260	-50.109	-0.144	0.068
-333.245	-200.000	0.293	-0.000
-332.231	-200.000	-0.001	0.117
-331.216	389.146	-0.088	0.182
-330.202	-200.000	0.063	0.358
-329.187	14.710	-0.241	0.188
-328.172	-200.000	-0.009	0.352
-327.158	800.000	0.102	-0.308
-326.143	-200.000	0.037	-0.203
-325.129	-108.011	-0.415	-0.090
-324.114	-131.073	0.530	-0.071
-323.099	800.000	-0.073	0.291
-322.085	60.375	-0.213	-0.211
-321.070	-200.000	-0.004	-0.084
-320.056	-154.693	-0.051	0.003
-319.041	364.413	-0.086	0.173
-318.026	18.487	0.210	-0.168
-317.012	-23.931	-0.300	0.179
-315.997	-65.133	0.226	0.091
-314.983	-200.000	-0.040	-0.192
-313.968	173.456	0.343	-0.494
-312.953	800.000	-0.043	0.135
-311.939	368.015	-0.120	0.243
-310.924	228.748	-0.126	0.205
-309.910	800.000	-0.113	0.323
-308.895	-61.046	-0.225	-0.095
-307.880	-58.532	0.374	0.162
-306.866	109.711	0.065	-0.077
-305.851	222.623	0.117	-0.189
-304.837	66.337	-0.046	0.047
-303.822	17.121	0.167	-0.132
-302.807	-0.727	-0.353	0.250
-301.793	800.000	-0.062	-0.209
-300.778	-72.586	-0.232	-0.086
-299.764	-112.254	-0.110	-0.022
-298.749	10.216	0.196	0.149
-297.735	-200.000	0.068	-0.385
-296.720	370.006	-0.089	-0.181
-295.705	-84.316	0.074	-0.023
-294.691	777.253	0.059	0.161
-293.676	-58.368	-0.188	-0.082
-292.662	98.348	-0.110	0.126
-291.647	-200.000	0.022	0.256
-290.632	318.265	0.020	0.039
-289.618	770.563	-0.101	-0.276
-288.603	231.894	0.065	-0.107
-287.589	-127.364	0.163	0.024
-286.574	317.681	0.048	-0.090
-285.559	224.077	0.167	0.269
-284.545	-134.328	0.308	0.038
-283.530	-86.893	0.250	-0.076
-282.516	800.000	0.108	0.360
-281.501	98.513	0.148	0.171
-280.486	93.042	-0.076	-0.086
-279.472	-200.000	0.009	-0.527
-278.457	-76.899	0.128	0.045
-277.443	45.311	-0.155	0.142
-276.428	41.507	-0.109	-0.098
-275.413	-200.000	0.009	0.092
-274.399	-49.157	0.222	0.106
-273.384	302.695	0.169	0.313
-272.370	-126.330	0.159	-0.024
-271.355	-200.000	-0.027	-0.232
-270.340	-200.000	-0.003	-0.033
-269.326	160.389	-0.084	0.117
-268.311	-17.176	0.132	0.083
-267.297	800.000	0.018	-0.055
-266.282	-122.230	0.221	0.036
-265.267	-62.749	-0.206	-0.085
-264.253	-200.000	-0.009	0.294
-263.238	499.665	0.078	0.179
-262.224	-29.308	-0.066	0.038
-261.209	-39.949	-0.196	-0.102
-260.195	15.657	0.165	-0.129
-259.180	-77.784	0.254	0.088
-258.165	-33.509	0.046	0.025
-257.151	14.776	-0.245	-0.191
-256.136	800.000	-0.067	-0.279
-255.122	-200.000	-0.323	0.000
-254.107	-200.000	-0.014	0.113
-253.092	120.558	-0.404	0.500
-252.078	-144.292	-0.260	-0.024
-251.063	-200.000	0.054	0.279
-250.049	495.628	-0.061	0.140
-249.034	-16.788	0.376	-0.237
-248.019	252.183	0.207	-0.352
-247.005	27.617	0.086	0.072
-245.990	-200.000	0.008	-0.274
-244.976	-200.000	0.027	0.235
-243.961	800.000	0.080	-0.318
-242.946	-82.842	0.038	0.012
-241.932	23.374	-0.168	0.138
-240.917	498.151	-0.073	0.167
-239.903	-200.000	-0.015	-0.088
-238.888	-200.000	0.003	0.021
-237.873	-107.744	0.235	-0.051
-236.859	-32.853	0.354	0.196
-235.844	51.910	-0.222	-0.211
-234.830	-200.000	0.039	0.306
-233.815	-139.345	-0.097	0.010
-232.800	-177.592	0.167	-0.004
-231.786	244.469	0.063	-0.105
-230.771	70.969	0.072	-0.074
-229.757	130.851	-0.168	0.215
-228.742	-200.000	0.020	0.152
-227.727	800.000	0.111	-0.318
-226.713	-97.124	0.433	-0.113
-225.698	-122.849	-0.274	-0.044
-224.684	239.964	0.096	0.159
-223.669	800.000	-0.061	0.186
-222.655	90.663	-0.168	0.188
-221.640	-200.000	-0.043	0.443
-220.625	753.565	0.102	-0.275
-219.611	92.461	0.208	0.234
-218.596	-0.717	-0.283	-0.200
-217.582	-123.150	0.204	0.033
-216.567	393.506	0.031	0.065
-215.552	594.486	-0.134	0.330
-214.538	12.316	-0.156	0.119
-213.523	3.651	0.273	0.198
-212.509	-41.498	-0.310	0.159
-211.494	188.950	0.089	-0.132
-210.479	-87.169	0.189	0.057
-209.465	-2.480	-0.134	0.093
-208.450	92.545	0.117	-0.131
-207.436	-117.339	0.439	-0.079
-206.421	435.096	0.080	0.172
-205.406	207.488	0.047	0.073
-204.392	-11.909	-0.139	0.091
-203.377	-7.141	0.225	-0.152
-202.363	25.852	-0.228	-0.189
-201.348	329.603	-0.152	-0.291
-200.333	514.540	0.065	0.151
-199.319	3.754	-0.209	-0.152
-198.304	16.865	0.106	-0.084
-197.290	586.318	-0.096	0.234
-196.275	-69.187	0.112	-0.043
-195.260	566.533	-0.098	0.237
-194.246	-41.300	-0.008	-0.004
-193.231	-153.206	0.238	0.017
-192.217	-200.000	0.031	0.496
-191.202	800.000	0.094	0.326
-190.187	-89.853	-0.191	0.056
-189.173	800.000	0.039	-0.138
-188.158	-2.310	-0.063	-0.044
-187.144	-200.000	-0.020	-0.308
-186.129	729.634	0.146	-0.389
-185.114	800.000	-0.085	-0.322
-184.100	800.000	-0.027	-0.114
-183.085	-41.242	0.577	0.296
-182.071	-31.406	-0.338	0.189
-181.056	192.930	-0.283	0.425
-180.042	-3.537	-0.260	0.180
-179.027	-101.825	-0.185	0.044
-178.012	-87.906	0.258	0.077
-176.998	47.156	0.059	-0.055
-175.983	-96.203	-0.113	-0.030
-174.969	54.888	0.298	0.286
-173.954	-29.638	-0.051	-0.029
-172.939	48.777	-0.200	0.187
-171.925	-82.702	0.007	-0.002
-170.910	119.853	-0.110	0.136
-169.896	152.129	-0.038	0.052
-168.881	691.590	0.056	0.145
-167.866	256.539	0.126	-0.215
-166.852	-22.922	-0.014	0.008
-165.837	-129.738	0.264	0.036
-164.823	800.000	0.045	-0.182
-163.808	-200.000	0.021	0.390
-162.793	-74.534	-0.151	0.054
-161.779	-8.872	0.338	-0.225
-160.764	338.399	-0.164	-0.317
-159.750	-200.000	-0.063	-0.313
-158.735	-200.000	0.057	0.263
-157.720	-164.350	0.083	-0.004
-156.706	-98.758	-0.051	0.013
-155.691	-33.999	-0.243	-0.133
-154.677	-200.000	0.039	-0.217
-153.662	86.722	-0.068	-0.074
-152.647	-4.944	-0.127	0.087
-151.633	800.000	0.090	-0.276
-150.618	541.814	-0.083	0.197
-149.604	-153.466	-0.384	-0.026
-148.589	-88.891	-0.098	0.029
-147.574	-142.626	0.204	0.020
-146.560	-35.129	-0.127	-0.069
-145.545	-49.094	-0.195	-0.093
-144.531	201.145	0.283	-0.432
-143.516	357.107	0.056	0.111
-142.502	800.000	0.047	0.170
-141.487	275.312	0.100	-0.176
-140.472	800.000	-0.052	-0.183
-139.458	158.970	0.146	0.201
-138.443	-197.150	0.192	-0.001
-137.429	179.187	-0.129	-0.188
-136.414	-200.000	0.009	0.150
-135.399	310.091	0.069	-0.127
-134.385	800.000	0.065	-0.181
-133.370	-200.000	0.047	-0.327
-132.356	-200.000	0.064	-0.307
-131.341	-57.262	0.256	-0.112
-130.326	-200.000	-0.017	-0.128
-129.312	20.415	0.358	0.287
-128.297	-36.199	0.200	0.107
-127.283	777.838	-0.072	-0.195
-126.268	-72.309	-0.278	0.102
-125.253	113.822	0.142	0.171
-124.239	-112.398	0.243	-0.048
-123.224	-18.435	-0.187	-0.116
-122.210	532.759	-0.157	0.368
