DTS Sentinel unit serial number:	SN413079Multiplexer serial number:	ORYXHardware model number:	OX4-SRSoftware version number:	ORYX F/W v4.00 Oryx Data Collector v3.7.2.0data status	okinstallation	princeton_trtdifferential loss correction	single-endedforward channel	channel 4reverse channel	N/Adate	2019/09/11time	03:23:11forward acquisition time	60.00reverse acquisition time	0.00gamma	496.2192k internal	0.2316k external	0.2316temperature offset calibration	0.9947default loss term (dB/km)	0.3790temperature slope calibration	1.0000multiplexer offset coefficient	1.0000multiplexer slope coefficient	1.0000fibre end	0.00T internal ref (°C)	29.42T ext. ref 1 (°C)	-0.29T ext. ref 2 (°C)	24.17length (m)	temperature (°C)	Stokes	anti-Stokes-747.200	-0.938	0.040	0.029
-746.185	260.900	-0.023	0.041
-745.171	71.240	-0.333	0.350
-744.156	800.000	0.061	0.181
-743.142	118.664	0.225	0.281
-742.127	-200.000	0.007	0.149
-741.112	-62.393	0.194	0.082
-740.098	-57.198	-0.293	0.131
-739.083	-200.000	-0.017	-0.076
-738.069	-109.223	-0.190	-0.041
-737.054	695.521	-0.080	0.214
-736.039	195.600	-0.070	0.107
-735.025	7.174	0.308	-0.233
-734.010	-48.654	0.077	-0.037
-732.996	-94.061	-0.126	-0.035
-731.981	-67.569	-0.154	-0.061
-730.966	-152.550	-0.183	-0.013
-729.952	-85.609	-0.443	0.139
-728.937	-46.967	0.180	-0.089
-727.923	-62.048	-0.066	0.028
-726.908	627.436	-0.094	0.241
-725.894	-123.456	0.346	-0.056
-724.879	-200.000	-0.007	-0.166
-723.864	-5.260	0.177	-0.123
-722.850	33.272	-0.079	-0.069
-721.835	-147.900	-0.310	-0.026
-720.821	-68.398	-0.391	-0.153
-719.806	29.860	-0.058	-0.050
-718.791	51.064	-0.078	0.075
-717.777	-13.847	-0.298	-0.195
-716.762	-112.602	-0.033	0.007
-715.748	-200.000	-0.023	-0.275
-714.733	14.194	-0.125	0.098
-713.718	-200.000	-0.062	-0.287
-712.704	-200.000	0.003	0.190
-711.689	800.000	-0.024	-0.108
-710.675	86.370	-0.219	0.244
-709.660	-75.198	-0.218	0.079
-708.645	-200.000	-0.039	0.214
-707.631	61.226	0.235	-0.236
-706.616	244.549	0.152	0.258
-705.602	79.946	-0.292	0.318
-704.587	-200.000	-0.012	-0.108
-703.572	63.012	-0.087	-0.088
-702.558	-15.818	0.180	0.116
-701.543	-111.105	-0.176	-0.036
-700.529	-101.535	0.322	0.079
-699.514	13.682	0.235	0.185
-698.499	-100.579	-0.197	0.049
-697.485	289.993	-0.132	0.242
-696.470	150.850	-0.234	0.321
-695.456	-186.847	0.185	0.003
-694.441	-200.000	0.016	-0.095
-693.426	-200.000	-0.021	-0.112
-692.412	-174.180	-0.523	0.015
-691.397	693.368	-0.050	-0.132
-690.383	-122.268	-0.175	0.029
-689.368	333.575	0.118	0.231
-688.354	-200.000	0.021	0.205
-687.339	30.304	-0.084	0.072
-686.324	-172.053	0.182	-0.006
-685.310	125.297	-0.146	-0.186
-684.295	70.907	0.061	-0.064
-683.281	-85.803	0.264	-0.083
-682.266	-94.820	0.108	-0.030
-681.251	-98.644	-0.317	0.082
-680.237	800.000	0.071	0.249
-679.222	-200.000	0.069	-0.359
-678.208	-28.851	0.166	0.096
-677.193	-93.836	-0.120	0.033
-676.178	-47.527	-0.221	-0.108
-675.164	117.769	0.158	-0.197
-674.149	-68.229	-0.230	-0.090
-673.135	-4.957	0.173	-0.120
-672.120	264.702	0.135	0.238
-671.105	800.000	-0.114	0.342
-670.091	-110.305	0.142	0.030
-669.076	-16.953	-0.140	0.089
-668.062	-111.584	-0.102	0.021
-667.047	132.873	-0.229	0.299
-666.032	-68.674	-0.283	0.111
-665.018	-57.345	0.175	0.078
-664.003	162.829	-0.044	0.062
-662.989	424.478	-0.191	0.414
-661.974	3.790	0.102	0.075
-660.959	-147.593	-0.194	-0.017
-659.945	422.876	-0.140	0.303
-658.930	746.137	0.051	0.139
-657.916	199.616	-0.123	-0.191
-656.901	117.780	-0.048	0.060
-655.886	-200.000	0.001	0.084
-654.872	500.243	-0.219	0.509
-653.857	-104.288	0.277	-0.065
-652.843	-200.000	0.047	-0.312
-651.828	21.959	-0.096	-0.079
-650.814	-189.309	-0.230	-0.003
-649.799	-18.971	-0.118	-0.074
-648.784	195.211	0.169	-0.258
-647.770	-114.387	0.113	0.022
-646.755	-85.143	-0.109	-0.034
-645.741	458.791	-0.156	0.350
-644.726	458.316	0.024	-0.054
-643.711	107.051	0.095	-0.114
-642.697	-159.170	0.187	0.011
-641.682	155.179	-0.154	-0.214
-640.668	457.413	-0.214	-0.479
-639.653	144.956	-0.074	0.100
-638.638	-28.778	-0.297	-0.172
-637.624	-200.000	0.016	-0.077
-636.609	-150.884	0.147	0.011
-635.595	800.000	0.076	0.225
-634.580	-73.065	0.161	0.060
-633.565	800.000	-0.080	0.242
-632.551	264.463	-0.153	-0.268
-631.536	-43.542	-0.293	0.149
-630.522	565.470	0.063	-0.154
-629.507	-106.996	0.255	-0.057
-628.492	-63.081	0.133	0.056
-627.478	-80.657	0.284	0.095
-626.463	39.263	-0.291	0.262
-625.449	386.005	-0.201	0.419
-624.434	800.000	-0.020	-0.056
-623.419	800.000	0.104	-0.299
-622.405	0.574	0.057	-0.041
-621.390	800.000	0.078	0.225
-620.376	-38.311	-0.054	-0.029
-619.361	71.161	0.154	0.161
-618.346	-34.301	0.249	-0.137
-617.332	13.285	-0.394	-0.308
-616.317	494.428	-0.090	-0.208
-615.303	800.000	0.059	-0.165
-614.288	-64.538	-0.110	-0.045
-613.273	375.052	-0.074	0.152
-612.259	167.246	-0.169	-0.241
-611.244	-200.000	-0.071	-0.351
-610.230	-8.718	-0.215	0.145
-609.215	698.456	0.129	-0.342
-608.201	-104.591	0.019	-0.005
-607.186	-200.000	0.016	-0.113
-606.171	-177.853	-0.457	0.011
-605.157	30.457	-0.142	-0.122
-604.142	-183.184	0.213	0.004
-603.128	-13.040	-0.252	-0.165
-602.113	-28.491	-0.192	-0.111
-601.098	-91.373	-0.218	0.063
-600.084	-200.000	-0.010	-0.142
-599.069	-140.460	0.377	0.040
-598.055	67.489	0.035	0.036
-597.040	107.014	-0.131	-0.157
-596.025	-186.767	0.204	-0.003
-595.011	800.000	0.033	-0.107
-593.996	-119.938	-0.192	0.033
-592.982	410.740	-0.230	-0.491
-591.967	-47.376	0.110	-0.054
-590.952	18.199	-0.047	-0.037
-589.938	-200.000	-0.025	0.180
-588.923	-124.849	-0.301	-0.047
-587.909	-14.836	-0.332	-0.215
-586.894	-51.472	0.034	0.016
-585.879	-68.964	0.233	-0.090
-584.865	182.284	-0.164	0.243
-583.850	-152.863	0.124	0.009
-582.836	-61.451	0.253	-0.107
-581.821	-100.620	-0.405	-0.101
-580.806	-67.334	-0.255	0.101
-579.792	26.491	-0.265	0.223
-578.777	199.491	-0.099	0.152
-577.763	800.000	-0.080	-0.234
-576.748	800.000	-0.097	-0.336
-575.733	-115.685	-0.154	-0.029
-574.719	661.153	0.108	0.281
-573.704	135.435	-0.043	0.057
-572.690	732.459	0.072	-0.193
-571.675	-37.295	0.128	-0.069
-570.661	-76.211	-0.070	0.025
-569.646	-200.000	-0.032	0.231
-568.631	-47.421	0.230	0.112
-567.617	237.963	-0.079	0.132
-566.602	-200.000	-0.003	0.070
-565.588	-92.040	0.167	-0.047
-564.573	-200.000	0.053	0.272
-563.558	-2.244	0.097	0.069
-562.544	91.024	-0.060	-0.068
-561.529	-200.000	0.048	0.281
-560.515	85.808	0.113	0.125
-559.500	314.919	0.101	-0.191
-558.485	-32.302	-0.246	0.138
-557.471	75.941	-0.116	0.123
-556.456	-7.215	0.199	-0.136
-555.442	800.000	0.070	0.270
-554.427	-11.218	0.176	0.116
-553.412	800.000	-0.044	-0.192
-552.398	-34.849	-0.090	-0.049
-551.383	800.000	0.055	0.230
-550.369	-120.481	0.167	0.029
-549.354	225.276	-0.048	-0.078
-548.339	-112.756	-0.062	-0.012
-547.325	79.918	0.140	0.151
-546.310	706.501	-0.090	0.239
-545.296	-200.000	-0.101	0.457
-544.281	-200.000	-0.036	0.337
-543.266	-33.088	0.216	-0.120
-542.252	-29.193	0.290	-0.167
-541.237	239.281	-0.031	0.053
-540.223	363.168	0.090	-0.182
-539.208	412.232	0.123	0.263
-538.193	127.611	0.126	-0.160
-537.179	9.280	0.130	-0.099
-536.164	-48.893	-0.284	0.137
-535.150	-200.000	0.062	-0.285
-534.135	92.829	0.130	-0.148
-533.121	-200.000	0.133	0.000
-532.106	247.029	0.076	0.129
-531.091	360.261	0.080	0.162
-530.077	-200.000	0.023	0.183
-529.062	-200.000	-0.034	0.177
-528.048	210.852	-0.026	-0.041
-527.033	800.000	-0.022	-0.096
-526.018	-53.113	-0.176	0.081
-525.004	71.718	0.253	0.265
-523.989	-113.050	-0.252	0.050
-522.975	374.648	0.041	-0.085
-521.960	800.000	-0.056	-0.238
-520.945	45.392	0.142	-0.132
-519.931	-103.089	0.218	0.052
-518.916	4.642	-0.068	-0.050
-517.902	-13.159	0.169	-0.110
-516.887	-86.406	0.092	0.028
-515.872	65.751	-0.045	-0.046
-514.858	-15.604	0.292	-0.187
-513.843	-33.048	-0.127	0.071
-512.829	-119.152	0.147	-0.026
-511.814	800.000	0.094	-0.350
-510.799	-26.086	-0.205	-0.121
-509.785	-106.693	0.014	0.003
-508.770	-200.000	0.045	-0.226
-507.756	95.399	0.156	0.179
-506.741	800.000	-0.108	-0.308
-505.726	84.781	-0.010	0.011
-504.712	-92.942	0.209	0.058
-503.697	234.952	-0.151	0.250
-502.683	-117.637	0.236	-0.043
-501.668	151.297	-0.073	-0.100
-500.653	376.931	0.084	0.172
-499.639	188.740	0.032	-0.048
-498.624	70.157	0.201	-0.208
-497.610	-125.811	0.383	-0.058
-496.595	196.552	0.238	-0.363
-495.581	-133.624	-0.217	-0.027
-494.566	181.578	-0.224	-0.331
-493.551	800.000	0.028	0.096
-492.537	241.202	0.141	-0.237
-491.522	2.360	0.203	0.147
-490.508	-96.407	0.455	0.121
-489.493	-35.833	-0.168	-0.091
-488.478	-105.636	-0.062	-0.014
-487.464	12.229	0.086	-0.066
-486.449	-55.555	0.016	0.007
-485.435	-56.034	-0.079	0.035
-484.420	-200.000	-0.042	-0.356
-483.405	-33.273	-0.229	-0.127
-482.391	-117.137	0.090	-0.016
-481.376	-200.000	0.042	0.331
-480.362	-11.219	0.126	-0.084
-479.347	800.000	-0.083	0.255
-478.332	-78.838	0.367	0.125
-477.318	-4.418	-0.370	-0.256
-476.303	194.424	0.137	-0.208
-475.289	-200.000	-0.009	0.136
-474.274	-11.699	0.169	0.111
-473.259	611.613	0.104	-0.260
-472.245	800.000	0.078	0.234
-471.230	-100.368	0.290	-0.072
-470.216	164.318	-0.066	0.093
-469.201	113.241	0.210	0.255
-468.186	-200.000	0.013	0.128
-467.172	714.089	0.019	-0.050
-466.157	-70.069	0.193	0.074
-465.143	-200.000	-0.035	-0.273
-464.128	-48.870	0.312	0.150
-463.113	545.204	0.103	0.248
-462.099	-60.082	-0.423	0.181
-461.084	-10.925	-0.271	-0.179
-460.070	-105.656	-0.578	-0.131
-459.055	800.000	0.043	0.187
-458.040	-200.000	-0.007	-0.110
-457.026	633.535	0.141	0.357
-456.011	229.438	0.119	0.195
-454.997	288.189	0.070	-0.127
-453.982	250.341	-0.152	0.259
-452.968	800.000	0.052	0.160
-451.953	114.865	0.053	-0.064
-450.938	-78.964	0.222	0.076
-449.924	-61.226	-0.260	-0.110
-448.909	-66.389	-0.202	-0.081
-447.895	71.021	-0.045	0.047
-446.880	-200.000	0.300	-0.000
-445.865	-0.731	-0.143	-0.101
-444.851	-12.637	0.326	0.213
-443.836	800.000	-0.075	0.215
-442.822	-145.310	0.232	-0.021
-441.807	-200.000	0.032	0.183
-440.792	-200.000	-0.001	-0.013
-439.778	-200.000	-0.032	0.140
-438.763	-200.000	-0.025	0.124
-437.749	-66.069	0.069	-0.028
-436.734	-98.188	-0.238	-0.061
-435.719	638.697	0.069	0.176
-434.705	800.000	0.057	-0.232
-433.690	-9.426	0.212	-0.142
-432.676	-68.908	-0.148	0.057
-431.661	-200.000	0.009	0.560
-430.646	-28.945	0.299	-0.172
-429.632	50.291	0.107	-0.101
-428.617	-147.992	0.447	0.037
-427.603	-106.876	0.088	-0.019
-426.588	800.000	0.031	-0.129
-425.573	252.209	0.198	-0.337
-424.559	-18.733	-0.065	-0.041
-423.544	110.296	-0.047	0.056
-422.530	800.000	-0.074	0.247
-421.515	570.588	0.080	-0.195
-420.500	-101.570	0.128	-0.031
-419.486	-136.712	0.375	0.043
-418.471	-54.882	0.105	0.048
-417.457	800.000	-0.045	-0.136
-416.442	-148.881	0.210	-0.017
-415.428	800.000	-0.154	0.485
-414.413	68.130	0.234	-0.240
-413.398	800.000	0.003	-0.008
-412.384	148.594	0.145	-0.195
-411.369	-147.909	0.255	0.021
-410.355	262.539	-0.106	0.184
-409.340	141.931	0.262	0.348
-408.325	408.409	0.082	-0.173
-407.311	-71.409	0.218	0.082
-406.296	-58.685	-0.219	-0.095
-405.282	-54.737	-0.394	-0.178
-404.267	-89.010	0.259	-0.077
-403.252	71.514	-0.162	-0.168
-402.238	68.816	-0.041	-0.042
-401.223	-135.245	-0.239	0.029
-400.209	-148.995	-0.412	0.033
-399.194	-200.000	-0.022	-0.145
-398.179	42.708	0.132	0.120
-397.165	-82.641	0.123	0.040
-396.150	-200.000	0.044	0.249
-395.136	-64.039	-0.213	0.087
-394.121	310.364	-0.141	-0.264
-393.106	-75.763	0.395	0.140
-392.092	221.989	-0.117	0.188
-391.077	106.934	-0.217	-0.257
-390.063	160.310	0.072	-0.100
-389.048	-81.277	0.240	0.079
-388.033	-77.525	-0.043	0.015
-387.019	-119.854	0.172	0.030
-386.004	-19.180	0.186	0.115
-384.990	-19.513	0.316	0.195
-383.975	-24.881	-0.106	0.063
-382.960	-102.129	0.259	-0.062
-381.946	-100.023	0.265	0.066
-380.931	-200.000	-0.050	0.354
-379.917	233.094	0.112	0.184
-378.902	-200.000	0.026	-0.142
-377.888	-70.760	-0.202	-0.076
-376.873	-200.000	0.043	0.206
-375.858	220.964	-0.064	-0.103
-374.844	-140.072	-0.126	-0.013
-373.829	-200.000	-0.066	0.368
-372.815	-53.533	0.091	-0.041
-371.800	-200.000	0.010	0.116
-370.785	-171.555	-0.221	-0.007
-369.771	-40.426	0.238	-0.123
-368.756	40.610	0.216	-0.194
-367.742	-62.578	-0.308	0.127
-366.727	57.320	-0.153	-0.149
-365.712	-126.497	0.227	-0.034
-364.698	-200.000	-0.004	0.046
-363.683	310.971	-0.042	0.079
-362.669	-130.067	0.155	0.021
-361.654	287.434	0.123	0.223
-360.639	722.460	-0.071	-0.187
-359.625	27.471	-0.197	0.166
-358.610	-45.296	-0.217	0.108
-357.596	-200.000	-0.004	0.169
-356.581	-200.000	-0.003	0.251
-355.566	-45.422	-0.253	0.125
-354.552	147.440	-0.275	0.369
-353.537	-82.979	-0.334	-0.107
-352.523	285.422	-0.088	0.159
-351.508	-40.418	-0.132	0.068
-350.493	-200.000	0.015	0.151
-349.479	-200.000	0.045	-0.244
-348.464	357.341	-0.091	-0.182
-347.450	-88.559	-0.360	0.107
-346.435	5.540	-0.157	-0.116
-345.420	-26.325	0.100	0.059
-344.406	-59.941	-0.056	0.024
-343.391	94.608	0.140	0.158
-342.377	266.589	0.195	-0.340
-341.362	-101.232	-0.410	-0.100
-340.348	-200.000	-0.040	0.284
-339.333	312.668	-0.038	-0.071
-338.318	35.035	0.054	-0.047
-337.304	800.000	0.017	0.049
-336.289	-32.222	-0.290	-0.162
-335.275	-105.798	-0.585	-0.132
-334.260	163.408	0.137	0.192
-333.245	-74.384	0.453	-0.163
-332.231	263.676	0.116	0.201
-331.216	482.644	-0.078	0.176
-330.202	-81.047	-0.338	-0.111
-329.187	28.517	0.267	-0.225
-328.172	168.246	-0.091	-0.130
-327.158	-87.911	-0.232	0.069
-326.143	115.068	0.211	0.257
-325.129	180.080	0.091	-0.134
-324.114	331.419	-0.043	0.082
-323.099	-60.932	-0.443	-0.187
-322.085	270.910	-0.124	0.218
-321.070	-96.669	-0.084	0.022
-320.056	-164.476	-0.257	0.012
-319.041	497.576	-0.048	-0.109
-318.026	-200.000	-0.031	-0.152
-317.012	-200.000	-0.018	0.219
-315.997	693.988	-0.019	-0.049
-314.983	-200.000	0.035	0.183
-313.968	800.000	-0.066	0.256
-312.953	-39.839	-0.171	0.089
-311.939	-54.803	0.231	0.104
-310.924	-183.287	0.147	-0.003
-309.910	800.000	-0.062	0.172
-308.895	4.480	-0.083	0.061
-307.880	-101.135	0.264	0.064
-306.866	540.878	-0.073	0.173
-305.851	-200.000	0.029	0.415
-304.837	-53.419	0.191	0.087
-303.822	-200.000	0.072	-0.408
-302.807	-134.313	0.165	-0.020
-301.793	-47.554	-0.462	0.223
-300.778	-46.048	0.169	-0.083
-299.764	800.000	0.027	0.117
-298.749	18.618	0.105	-0.084
-297.735	288.707	0.054	0.097
-296.720	18.786	-0.252	-0.201
-295.705	-200.000	0.041	-0.193
-294.691	27.697	-0.212	-0.178
-293.676	323.822	-0.095	-0.180
-292.662	0.905	0.243	0.173
-291.647	36.496	-0.182	-0.160
-290.632	55.257	-0.154	0.148
-289.618	36.960	-0.058	-0.051
-288.603	-25.268	0.304	-0.179
-287.589	16.566	0.195	-0.153
-286.574	-200.000	0.029	-0.163
-285.559	109.962	-0.129	0.154
-284.545	-151.343	0.262	-0.019
-283.530	-90.999	-0.191	0.055
-282.516	154.272	0.063	0.086
-281.501	215.186	-0.071	0.113
-280.486	-200.000	-0.012	0.075
-279.472	-61.481	0.257	0.108
-278.457	-200.000	-0.040	-0.231
-277.443	7.245	0.191	-0.142
-276.428	-45.976	0.105	-0.051
-275.413	17.610	-0.226	0.178
-274.399	800.000	-0.030	-0.124
-273.384	800.000	-0.061	-0.172
-272.370	-67.320	0.180	-0.070
-271.355	82.913	-0.183	-0.198
-270.340	140.471	0.135	0.177
-269.326	-141.231	0.320	-0.032
-268.311	-139.539	0.238	-0.025
-267.297	555.199	-0.042	0.101
-266.282	53.510	0.318	-0.303
-265.267	-20.690	-0.102	-0.062
-264.253	82.214	-0.059	-0.064
-263.238	-94.658	-0.483	-0.130
-262.224	800.000	-0.059	-0.193
-261.209	-147.153	0.422	-0.036
-260.195	-163.928	-0.212	-0.010
-259.180	-200.000	-0.025	0.148
-258.165	-70.057	-0.244	-0.092
-257.151	-126.848	0.186	0.027
-256.136	-40.002	-0.152	0.079
-255.122	-115.362	-0.245	0.046
-254.107	-200.000	-0.074	0.452
-253.092	19.630	-0.060	-0.048
-252.078	-200.000	0.003	0.237
-251.063	179.200	-0.172	-0.251
-250.049	-81.694	-0.200	0.065
-249.034	-109.117	-0.227	0.048
-248.019	145.866	-0.231	-0.308
-247.005	213.111	-0.109	-0.170
-245.990	-103.236	0.215	0.050
-244.976	-112.943	-0.242	-0.047
-243.961	498.048	-0.059	0.136
-242.946	-125.469	0.187	-0.028
-241.932	728.277	0.009	0.023
-240.917	-22.912	-0.219	0.131
-239.903	800.000	0.072	-0.218
-238.888	478.852	-0.216	-0.486
-237.873	143.215	0.279	-0.368
-236.859	95.487	-0.180	-0.203
-235.844	-21.532	0.166	-0.100
-234.830	-18.468	-0.237	0.147
-233.815	-60.677	0.323	-0.136
-232.800	71.759	0.128	-0.132
-231.786	62.337	0.070	0.070
-230.771	-134.981	-0.071	-0.009
-229.757	-43.913	-0.457	-0.228
-228.742	-156.582	0.321	0.020
-227.727	-131.877	-0.201	0.026
-226.713	-21.521	0.391	-0.237
-225.698	-133.150	-0.361	-0.045
-224.684	-200.000	0.011	-0.158
-223.669	-135.251	0.121	0.014
-222.655	-121.509	0.241	0.040
-221.640	-12.640	0.098	0.064
-220.625	-200.000	-0.023	-0.188
-219.611	86.880	0.087	-0.095
-218.596	37.287	0.105	0.092
-217.582	-200.000	-0.040	0.233
-216.567	-80.298	0.157	0.052
-215.552	800.000	-0.008	-0.026
-214.538	-161.931	-0.022	-0.001
-213.523	-200.000	0.024	0.198
-212.509	-0.534	-0.194	-0.137
-211.494	-116.034	-0.246	-0.045
-210.479	46.912	-0.138	0.127
-209.465	-79.615	-0.257	-0.086
-208.450	-200.000	-0.007	0.055
-207.436	-200.000	-0.001	-0.113
-206.421	800.000	-0.056	0.199
-205.406	398.228	0.113	-0.235
-204.392	102.446	-0.187	-0.217
-203.377	60.444	0.115	0.113
-202.363	-120.024	-0.091	-0.015
-201.348	379.106	-0.114	-0.231
-200.333	-111.241	0.329	-0.067
-199.319	-200.000	0.085	-0.397
-198.304	12.268	0.325	-0.248
-197.290	-58.866	0.309	0.133
-196.275	-49.808	-0.308	0.145
-195.260	357.672	-0.150	0.296
-194.246	56.217	0.189	0.182
-193.231	465.345	0.051	-0.113
-192.217	101.560	0.097	0.112
-191.202	319.332	0.144	0.271
-190.187	-65.631	0.278	0.111
-189.173	-200.000	0.033	-0.363
-188.158	-58.447	-0.193	-0.083
-187.144	-12.932	-0.268	0.173
-186.129	-36.333	-0.149	-0.080
-185.114	-38.740	0.063	0.033
-184.100	2.429	-0.322	0.231
-183.085	-92.028	0.139	0.039
-182.071	28.431	-0.254	0.213
-181.056	30.619	0.060	-0.051
-180.042	-200.000	-0.003	-0.056
-179.027	-115.154	0.263	-0.049
-178.012	-68.365	0.502	0.193
-176.998	-123.404	0.151	0.024
-175.983	-200.000	-0.035	-0.509
-174.969	33.576	0.063	-0.054
-173.954	10.469	0.108	-0.081
-172.939	10.644	0.056	0.043
-171.925	268.470	0.040	0.069
-170.910	97.780	-0.242	-0.275
-169.896	-13.435	-0.164	0.105
-168.881	-47.790	-0.160	0.077
-167.866	-63.349	-0.270	-0.110
-166.852	325.676	-0.042	-0.079
-165.837	-103.871	-0.061	0.014
-164.823	800.000	0.023	0.066
-163.808	-113.378	-0.062	-0.012
-162.793	-42.904	-0.123	-0.062
-161.779	75.776	-0.059	0.062
-160.764	-200.000	0.015	-0.167
-159.750	-200.000	-0.005	-0.144
-158.735	-200.000	0.026	0.170
-157.720	-200.000	0.066	0.337
-156.706	631.213	0.088	0.220
-155.691	275.367	0.102	0.180
-154.677	-200.000	0.018	0.262
-153.662	34.655	-0.296	0.256
-152.647	-105.089	-0.265	0.060
-151.633	-152.958	-0.107	-0.007
-150.618	260.370	0.143	0.245
-149.604	-200.000	0.021	0.110
-148.589	-125.918	0.250	0.037
-147.574	800.000	-0.090	-0.316
-146.560	-44.535	0.077	0.038
-145.545	-200.000	-0.010	-0.378
-144.531	-200.000	0.008	-0.148
-143.516	-88.690	0.190	0.056
-142.502	-46.869	-0.443	-0.214
-141.487	-74.611	0.203	-0.072
-140.472	-200.000	-0.029	-0.134
-139.458	-94.920	-0.226	0.060
-138.443	-170.295	0.280	0.010
-137.429	-200.000	-0.025	-0.119
-136.414	-59.598	0.295	-0.125
-135.399	-64.851	0.429	-0.172
-134.385	111.847	-0.153	0.183
-133.370	800.000	0.040	-0.117
-132.356	-115.281	-0.148	0.028
-131.341	-200.000	0.016	-0.171
-130.326	800.000	0.056	-0.196
-129.312	-85.286	0.314	0.097
-128.297	23.199	-0.096	0.078
-127.283	398.419	-0.078	0.161
-126.268	-46.430	0.237	-0.115
-125.253	11.213	-0.025	-0.019
-124.239	210.626	0.092	0.142
-123.224	-168.701	0.169	0.006
-122.210	212.165	-0.025	0.039
