DTS Sentinel unit serial number:	SN413079Multiplexer serial number:	ORYXHardware model number:	OX4-SRSoftware version number:	ORYX F/W v4.00 Oryx Data Collector v3.7.2.0data status	okinstallation	princeton_trtdifferential loss correction	single-endedforward channel	channel 4reverse channel	N/Adate	2019/09/12time	01:43:10forward acquisition time	60.00reverse acquisition time	0.00gamma	496.2192k internal	0.2309k external	0.2309temperature offset calibration	1.0093default loss term (dB/km)	0.3790temperature slope calibration	1.0000multiplexer offset coefficient	1.0000multiplexer slope coefficient	1.0000fibre end	0.00T internal ref (°C)	32.87T ext. ref 1 (°C)	2.07T ext. ref 2 (°C)	27.52length (m)	temperature (°C)	Stokes	anti-Stokes-747.200	-200.000	-0.028	-0.186
-746.185	-200.000	-0.044	0.311
-745.171	-200.000	0.007	0.053
-744.156	-18.332	-0.277	0.176
-743.142	2.845	0.196	-0.145
-742.127	235.404	-0.037	-0.062
-741.112	-25.048	-0.174	-0.105
-740.098	151.115	0.208	0.288
-739.083	113.313	-0.181	0.224
-738.069	-30.490	-0.303	0.175
-737.054	123.246	0.167	0.213
-736.039	-112.288	-0.232	0.047
-735.025	-200.000	-0.010	0.062
-734.010	414.607	0.048	0.104
-732.996	-35.510	-0.129	-0.071
-731.981	189.344	0.102	0.156
-730.966	279.651	0.096	-0.174
-729.952	-71.075	0.171	0.065
-728.937	377.325	-0.096	-0.199
-727.923	-140.837	-0.292	0.031
-726.908	129.839	0.176	-0.229
-725.894	-12.607	0.230	-0.152
-724.879	-91.895	-0.179	-0.051
-723.864	-37.279	-0.420	-0.228
-722.850	-73.570	-0.350	-0.129
-721.835	12.850	-0.336	-0.264
-720.821	63.724	-0.088	0.090
-719.806	-200.000	-0.026	0.433
-718.791	-9.803	0.223	-0.151
-717.777	262.285	-0.141	0.248
-716.762	-55.928	-0.123	-0.056
-715.748	800.000	0.020	0.060
-714.733	-200.000	-0.019	-0.127
-713.718	-29.149	-0.234	0.136
-712.704	203.070	0.141	0.221
-711.689	711.098	-0.031	-0.084
-710.675	206.082	-0.048	-0.076
-709.660	324.728	-0.112	-0.217
-708.645	-200.000	-0.028	-0.206
-707.631	-28.763	0.305	0.178
-706.616	-200.000	0.054	0.294
-705.602	-200.000	-0.040	-0.227
-704.587	-200.000	-0.014	0.112
-703.572	70.023	-0.308	0.323
-702.558	128.416	0.053	0.068
-701.543	-45.694	0.227	-0.114
-700.529	91.530	-0.173	0.198
-699.514	-200.000	-0.026	0.227
-698.499	-42.776	0.095	0.049
-697.485	-42.699	0.202	0.104
-696.470	-133.606	-0.343	-0.044
-695.456	800.000	0.093	0.295
-694.441	800.000	0.092	0.364
-693.426	-99.884	0.137	-0.035
-692.412	38.601	0.088	0.080
-691.397	49.199	0.303	-0.289
-690.383	800.000	0.063	-0.207
-689.368	262.768	0.089	0.157
-688.354	-24.901	-0.222	-0.133
-687.339	-31.734	-0.126	-0.072
-686.324	-167.349	-0.131	0.005
-685.310	-37.535	-0.253	0.137
-684.295	-200.000	0.003	-0.031
-683.281	-18.230	0.241	0.153
-682.266	800.000	0.039	0.161
-681.251	-174.971	-0.016	0.000
-680.237	-200.000	0.002	-0.196
-679.222	-89.876	0.112	0.033
-678.208	3.911	0.186	0.138
-677.193	497.350	0.078	0.181
-676.178	78.791	-0.135	-0.147
-675.164	-200.000	0.015	-0.155
-674.149	-165.806	0.173	-0.008
-673.135	800.000	0.110	0.364
-672.120	800.000	-0.066	0.288
-671.105	-97.959	-0.303	0.079
-670.091	-58.363	-0.324	-0.143
-669.076	-41.144	-0.101	-0.053
-668.062	350.520	-0.024	0.048
-667.047	683.745	0.083	-0.220
-666.032	-74.401	-0.151	0.055
-665.018	100.621	-0.096	-0.113
-664.003	60.577	0.139	-0.140
-662.989	90.807	-0.119	0.135
-661.974	-151.157	-0.285	-0.022
-660.959	-200.000	-0.007	-0.042
-659.945	30.012	0.093	-0.080
-658.930	52.899	-0.200	0.194
-657.916	800.000	-0.078	0.285
-656.901	-121.562	0.162	0.027
-655.886	-35.968	-0.168	0.092
-654.872	297.769	-0.047	0.088
-653.857	-200.000	0.051	0.289
-652.843	-85.273	-0.372	-0.118
-651.828	-46.076	0.189	0.094
-650.814	-31.280	0.160	-0.091
-649.799	800.000	-0.034	0.129
-648.784	-16.564	-0.180	-0.115
-647.770	-200.000	0.056	-0.350
-646.755	-49.223	0.226	-0.110
-645.741	-113.397	0.159	-0.032
-644.726	-200.000	0.007	-0.059
-643.711	-200.000	0.032	-0.189
-642.697	-29.630	0.238	-0.137
-641.682	134.359	-0.124	-0.162
-640.668	6.424	-0.095	-0.071
-639.653	-165.046	-0.184	0.008
-638.638	-53.700	0.132	0.061
-637.624	-200.000	-0.024	0.246
-636.609	42.635	0.088	-0.081
-635.595	-65.269	-0.377	-0.153
-634.580	543.100	-0.090	-0.217
-633.565	-94.992	-0.122	-0.034
-632.551	32.787	0.092	0.081
-631.536	-35.366	-0.198	0.109
-630.522	-116.121	-0.114	0.021
-629.507	800.000	0.097	0.298
-628.492	-122.524	-0.253	-0.042
-627.478	-159.654	-0.228	0.013
-626.463	192.994	0.220	-0.337
-625.449	-45.849	0.096	-0.048
-624.434	-200.000	-0.010	-0.405
-623.419	-200.000	0.007	-0.075
-622.405	-61.778	-0.391	-0.166
-621.390	7.686	-0.045	-0.034
-620.376	-47.384	0.216	0.106
-619.361	-18.647	0.056	0.035
-618.346	-52.773	-0.064	0.030
-617.332	747.137	-0.016	-0.043
-616.317	13.369	-0.098	-0.077
-615.303	-97.516	0.083	-0.022
-614.288	157.240	0.056	-0.079
-613.273	239.552	-0.116	-0.195
-612.259	41.845	0.367	0.337
-611.244	-200.000	0.025	-0.311
-610.230	800.000	0.077	-0.297
-609.215	-50.827	0.332	-0.158
-608.201	-200.000	-0.003	-0.208
-607.186	27.049	-0.209	-0.177
-606.171	184.725	-0.110	-0.166
-605.157	-200.000	-0.023	0.293
-604.142	-76.991	-0.033	0.012
-603.128	-165.790	-0.075	-0.003
-602.113	-117.701	0.188	0.034
-601.098	83.780	0.143	0.158
-600.084	-100.091	0.129	0.032
-599.069	800.000	0.053	0.214
-598.055	466.603	-0.154	-0.349
-597.040	182.762	-0.036	-0.054
-596.025	59.524	-0.059	-0.058
-595.011	-44.371	-0.286	-0.145
-593.996	-119.054	-0.319	0.056
-592.982	-142.017	-0.424	0.043
-591.967	275.136	-0.279	-0.499
-590.952	800.000	-0.079	-0.302
-589.938	145.734	0.105	0.142
-588.923	-200.000	-0.048	-0.279
-587.909	800.000	-0.062	-0.208
-586.894	-35.735	0.174	0.095
-585.879	330.949	0.092	-0.178
-584.865	-200.000	-0.043	0.399
-583.850	46.842	0.225	0.211
-582.836	-62.813	0.277	0.116
-581.821	-200.000	-0.015	-0.327
-580.806	208.675	0.107	-0.169
-579.792	-42.002	-0.128	-0.066
-578.777	131.194	-0.058	0.075
-577.763	-200.000	0.052	0.281
-576.748	67.077	0.155	0.159
-575.733	-108.373	-0.238	-0.052
-574.719	-29.486	-0.266	0.153
-573.704	606.631	-0.101	0.254
-572.690	16.773	-0.114	0.091
-571.675	800.000	0.071	-0.241
-570.661	-135.244	0.190	-0.023
-569.646	217.602	-0.159	0.255
-568.631	-20.767	0.182	0.113
-567.617	-73.798	-0.180	-0.066
-566.602	-165.811	-0.191	0.008
-565.588	183.549	0.058	0.087
-564.573	-62.718	0.112	0.047
-563.558	800.000	0.025	-0.103
-562.544	3.255	0.222	-0.163
-561.529	-122.053	0.083	-0.014
-560.515	21.801	-0.292	-0.240
-559.500	60.833	-0.136	-0.136
-558.485	-134.090	-0.409	0.051
-557.471	-200.000	-0.003	-0.324
-556.456	218.718	-0.089	0.144
-555.442	107.328	0.223	0.268
-554.427	-105.117	-0.143	-0.033
-553.412	-34.245	0.128	-0.071
-552.398	169.207	0.084	0.121
-551.383	800.000	-0.087	0.375
-550.369	23.019	0.490	0.405
-549.354	-1.308	-0.205	0.146
-548.339	156.844	0.111	-0.154
-547.325	800.000	0.109	0.318
-546.310	-200.000	0.090	0.415
-545.296	227.535	-0.019	-0.032
-544.281	19.383	-0.222	-0.180
-543.266	97.188	-0.262	0.304
-542.252	-130.991	0.298	-0.040
-541.237	-200.000	0.039	-0.484
-540.223	47.226	0.132	-0.124
-539.208	195.243	-0.221	0.338
-538.193	-102.626	-0.152	0.036
-537.179	29.471	0.069	0.059
-536.164	800.000	0.084	-0.304
-535.150	4.879	-0.096	0.071
-534.135	-8.967	0.365	-0.247
-533.121	94.384	0.193	0.221
-532.106	495.053	-0.070	0.162
-531.091	-67.967	0.147	0.058
-530.077	176.716	0.152	-0.223
-529.062	-200.000	0.045	0.226
-528.048	31.672	-0.088	0.076
-527.033	-65.421	-0.139	-0.056
-526.018	70.735	0.021	0.022
-525.004	66.582	0.116	-0.119
-523.989	-200.000	0.003	-0.234
-522.975	800.000	-0.053	0.192
-521.960	800.000	-0.086	-0.258
-520.945	77.653	-0.280	-0.300
-519.931	-21.241	0.151	0.093
-518.916	-200.000	-0.063	-0.355
-517.902	175.353	-0.170	-0.248
-516.887	297.694	-0.097	0.179
-515.872	800.000	0.083	-0.366
-514.858	-200.000	0.000	0.022
-513.843	-200.000	0.000	0.027
-512.829	127.869	0.166	-0.213
-511.814	-81.308	-0.127	-0.042
-510.799	-200.000	0.029	-0.422
-509.785	-138.801	-0.369	0.040
-508.770	-86.180	0.199	-0.062
-507.756	-200.000	0.075	-0.399
-506.741	-155.973	-0.457	0.029
-505.726	-23.942	-0.268	-0.161
-504.712	-102.753	0.048	-0.011
-503.697	-200.000	-0.003	-0.079
-502.683	318.764	0.096	-0.184
-501.668	-129.247	0.411	-0.058
-500.653	26.897	-0.236	0.199
-499.639	-200.000	0.037	0.170
-498.624	800.000	-0.025	-0.103
-497.610	800.000	-0.030	-0.105
-496.595	-200.000	-0.005	0.255
-495.581	85.881	-0.153	0.170
-494.566	-156.916	0.101	-0.006
-493.551	-131.912	-0.147	0.019
-492.537	-97.243	-0.254	-0.067
-491.522	293.579	-0.137	-0.251
-490.508	-200.000	-0.062	-0.477
-489.493	-64.340	-0.239	0.098
-488.478	-110.567	0.056	-0.012
-487.464	155.732	-0.130	-0.180
-486.449	295.784	0.103	-0.190
-485.435	-151.757	-0.191	-0.014
-484.420	-62.105	0.159	-0.067
-483.405	-40.461	-0.369	0.193
-482.391	570.020	0.120	-0.293
-481.376	17.131	0.072	-0.057
-480.362	800.000	0.066	-0.269
-479.347	112.611	-0.170	-0.206
-478.332	540.985	0.050	-0.119
-477.318	12.385	-0.071	0.055
-476.303	234.294	-0.030	0.049
-475.289	-76.693	0.163	0.058
-474.274	-62.289	-0.310	-0.130
-473.259	17.452	-0.291	0.233
-472.245	-47.500	0.239	-0.117
-471.230	446.020	-0.040	-0.088
-470.216	208.029	-0.215	0.338
-469.201	-200.000	0.094	-0.439
-468.186	-200.000	-0.010	0.127
-467.172	32.037	0.106	0.092
-466.157	281.068	0.150	-0.270
-465.143	-200.000	0.013	0.142
-464.128	236.531	-0.102	-0.169
-463.113	-65.014	0.108	-0.044
-462.099	218.941	-0.151	-0.242
-461.084	24.023	0.230	0.190
-460.070	-84.517	0.278	-0.088
-459.055	110.448	-0.069	-0.083
-458.040	-49.631	0.219	0.105
-457.026	800.000	0.059	0.220
-456.011	-9.171	0.441	0.296
-454.997	-33.698	-0.256	0.142
-453.982	-200.000	0.006	-0.080
-452.968	-121.955	-0.127	-0.021
-451.953	117.739	-0.227	-0.281
-450.938	-8.224	-0.038	0.026
-449.924	800.000	0.038	0.142
-448.909	-126.729	-0.124	-0.018
-447.895	166.603	0.060	0.085
-446.880	-75.448	-0.298	0.106
-445.865	164.665	0.059	0.084
-444.851	-54.560	0.099	-0.045
-443.836	-126.756	-0.198	-0.029
-442.822	8.845	-0.108	0.082
-441.807	-97.066	0.113	0.030
-440.792	-120.704	-0.073	-0.012
-439.778	15.256	-0.193	0.152
-438.763	800.000	-0.102	0.316
-437.749	-200.000	0.009	0.197
-436.734	-36.586	0.102	-0.055
-435.719	-200.000	0.004	0.129
-434.705	-161.213	0.145	-0.008
-433.690	390.804	0.065	-0.136
-432.676	800.000	-0.085	-0.358
-431.661	-51.720	0.140	-0.065
-430.646	-5.429	0.245	-0.169
-429.632	310.696	0.124	-0.233
-428.617	-96.874	0.205	-0.054
-427.603	800.000	0.107	-0.314
-426.588	335.949	-0.128	0.248
-425.573	-154.665	-0.237	-0.016
-424.559	204.194	-0.118	-0.184
-423.544	6.478	0.235	0.175
-422.530	70.609	0.316	-0.328
-421.515	800.000	-0.093	0.270
-420.500	-68.253	0.232	-0.091
-419.486	800.000	-0.039	-0.157
-418.471	-161.465	0.227	-0.012
-417.457	415.512	0.176	-0.377
-416.442	560.335	0.080	-0.193
-415.428	-133.887	-0.161	0.020
-414.413	21.705	0.095	0.077
-413.398	84.235	-0.255	0.279
-412.384	437.655	0.128	-0.280
-411.369	151.948	-0.129	0.176
-410.355	-23.627	-0.272	0.164
-409.340	95.259	0.176	0.201
-408.325	-85.901	0.030	0.009
-407.311	55.086	0.213	0.206
-406.296	-200.000	-0.014	0.178
-405.282	-200.000	-0.038	-0.180
-404.267	-36.563	0.092	0.050
-403.252	54.842	0.095	-0.092
-402.238	-200.000	-0.002	-0.023
-401.223	340.726	0.053	0.103
-400.209	-101.875	0.253	0.061
-399.194	-96.223	-0.264	0.070
-398.179	-200.000	-0.024	0.181
-397.165	167.157	-0.048	-0.068
-396.150	-62.519	-0.084	-0.035
-395.136	-50.624	0.322	0.152
-394.121	-35.229	0.257	0.140
-393.106	132.208	-0.043	-0.056
-392.092	-95.993	-0.134	0.036
-391.077	-37.159	0.257	0.138
-390.063	800.000	0.064	-0.178
-389.048	-103.206	-0.101	-0.024
-388.033	-154.671	0.265	-0.018
-387.019	800.000	0.073	0.216
-386.004	-10.848	-0.158	0.104
-384.990	259.541	-0.113	-0.196
-383.975	-88.348	-0.084	0.025
-382.960	735.526	-0.051	0.136
-381.946	-200.000	-0.089	0.405
-380.931	106.264	0.123	0.145
-379.917	64.240	-0.067	-0.067
-378.902	-112.438	-0.288	-0.058
-377.888	-200.000	0.043	0.226
-376.873	-22.859	0.120	0.072
-375.858	-34.066	-0.346	0.190
-374.844	-104.373	-0.543	-0.126
-373.829	-49.323	0.097	-0.046
-372.815	13.573	-0.041	0.032
-371.800	350.315	0.078	0.155
-370.785	-165.964	0.232	0.010
-369.771	-90.814	-0.206	0.059
-368.756	6.875	0.073	-0.055
-367.742	-69.749	0.147	-0.056
-366.727	-156.145	0.535	-0.034
-365.712	51.052	0.067	-0.063
-364.698	-200.000	0.032	-0.206
-363.683	-70.456	0.101	0.038
-362.669	53.522	-0.072	0.069
-361.654	249.735	0.102	-0.174
-360.639	-200.000	-0.024	0.210
-359.625	-67.242	0.299	0.118
-358.610	110.312	0.161	0.193
-357.596	101.836	-0.137	-0.160
-356.581	90.738	-0.236	-0.265
-355.566	-200.000	0.074	0.344
-354.552	11.244	-0.256	-0.196
-353.537	25.920	-0.278	-0.232
-352.523	-200.000	0.008	-0.162
-351.508	83.026	-0.107	-0.116
-350.493	186.633	-0.149	0.223
-349.479	-55.727	0.205	-0.092
-348.464	180.466	-0.316	-0.465
-347.450	-200.000	0.056	0.251
-346.435	113.585	-0.089	0.108
-345.420	-6.957	0.242	0.164
-344.406	9.923	-0.259	-0.197
-343.391	-25.171	-0.138	-0.082
-342.377	175.786	-0.066	-0.096
-341.362	-18.059	0.052	-0.033
-340.348	800.000	0.017	-0.063
-339.333	-200.000	-0.053	-0.284
-338.318	-133.841	-0.074	-0.009
-337.304	639.786	0.052	-0.131
-336.289	-69.142	0.252	0.097
-335.275	120.713	-0.101	-0.126
-334.260	-36.674	0.314	0.169
-333.245	-76.300	0.337	0.119
-332.231	-12.047	0.117	-0.076
-331.216	72.101	0.168	-0.175
-330.202	-4.127	-0.338	0.234
-329.187	-162.855	0.380	-0.019
-328.172	-200.000	0.024	0.143
-327.158	800.000	0.065	0.187
-326.143	-17.309	0.313	-0.197
-325.129	67.643	-0.187	0.191
-324.114	-166.755	-0.161	-0.007
-323.099	-153.131	0.222	0.016
-322.085	88.989	0.026	0.029
-321.070	-200.000	-0.064	-0.000
-320.056	187.872	-0.171	0.255
-319.041	-200.000	0.074	-0.430
-318.026	-20.740	0.349	0.214
-317.012	787.138	0.019	0.051
-315.997	58.726	0.079	-0.077
-314.983	119.849	-0.073	0.090
-313.968	-80.116	0.289	-0.097
-312.953	-200.000	0.046	-0.436
-311.939	25.423	-0.076	-0.063
-310.924	-187.259	0.328	0.004
-309.910	39.293	-0.212	0.190
-308.895	483.934	-0.094	0.214
-307.880	256.333	0.050	0.086
-306.866	110.099	-0.082	0.099
-305.851	800.000	-0.072	-0.266
-304.837	796.656	-0.026	0.070
-303.822	800.000	0.042	0.163
-302.807	-104.651	-0.229	-0.053
-301.793	-200.000	0.007	-0.098
-300.778	-80.993	-0.338	0.112
-299.764	-109.553	-0.243	-0.051
-298.749	-200.000	0.017	-0.240
-297.735	800.000	0.147	-0.436
-296.720	-200.000	0.020	-0.236
-295.705	81.283	0.108	-0.116
-294.691	78.585	-0.147	0.157
-293.676	501.832	0.112	0.258
-292.662	-148.763	-0.046	-0.004
-291.647	275.223	-0.156	0.277
-290.632	800.000	-0.015	-0.046
-289.618	156.903	0.170	0.234
-288.603	-142.321	-0.149	0.015
-287.589	-65.474	0.221	0.089
-286.574	-0.992	-0.026	-0.018
-285.559	-200.000	-0.039	-0.216
-284.545	114.979	-0.079	0.097
-283.530	291.721	0.141	0.257
-282.516	21.690	-0.194	0.158
-281.501	-114.289	-0.225	0.043
-280.486	167.611	0.123	0.174
-279.472	-132.231	0.102	-0.013
-278.457	-147.332	0.224	-0.019
-277.443	32.992	0.109	-0.094
-276.428	-38.017	-0.178	0.094
-275.413	139.453	0.076	0.100
-274.399	-72.307	-0.203	-0.075
-273.384	-200.000	-0.040	0.214
-272.370	-98.528	0.145	-0.037
-271.355	-29.404	-0.079	-0.045
-270.340	-70.813	-0.262	-0.099
-269.326	39.329	0.131	-0.117
-268.311	-108.433	-0.266	0.057
-267.297	-200.000	0.389	0.002
-266.282	-63.108	0.174	0.072
-265.267	-149.983	0.151	0.012
-264.253	34.173	-0.194	0.169
-263.238	-45.714	-0.343	0.169
-262.224	125.703	0.217	-0.274
-261.209	129.812	-0.184	0.235
-260.195	-200.000	0.001	0.278
-259.180	-200.000	-0.004	0.077
-258.165	800.000	-0.070	0.256
-257.151	-200.000	0.028	0.167
-256.136	-95.408	0.335	-0.090
-255.122	84.952	-0.193	-0.210
-254.107	800.000	-0.082	-0.297
-253.092	154.178	-0.219	0.299
-252.078	-200.000	0.010	0.166
-251.063	-200.000	0.030	0.142
-250.049	-72.894	0.270	-0.099
-249.034	11.339	0.077	-0.059
-248.019	18.928	0.021	-0.017
-247.005	-114.621	0.237	0.045
-245.990	10.828	-0.039	0.029
-244.976	299.115	0.085	0.156
-243.961	-96.723	0.094	0.025
-242.946	158.776	0.255	0.353
-241.932	38.567	0.114	0.102
-240.917	-154.673	-0.217	0.014
-239.903	267.668	-0.114	-0.198
-238.888	-200.000	-0.005	-0.136
-237.873	-122.821	0.075	-0.012
-236.859	800.000	0.073	-0.202
-235.844	-65.379	0.170	-0.068
-234.830	107.464	0.116	-0.137
-233.815	-131.028	-0.265	0.035
-232.800	-55.952	0.175	0.078
-231.786	129.183	-0.374	-0.475
-230.771	243.574	-0.004	0.007
-229.757	-200.000	0.020	0.266
-228.742	-158.837	-0.212	0.012
-227.727	-26.889	0.224	-0.130
-226.713	800.000	-0.021	-0.083
-225.698	800.000	-0.042	0.126
-224.684	292.756	0.010	-0.018
-223.669	800.000	-0.021	0.080
-222.655	800.000	0.066	0.187
-221.640	140.840	-0.149	0.196
-220.625	-54.074	-0.310	0.141
-219.611	-116.276	0.288	0.053
-218.596	-86.859	0.342	-0.104
-217.582	33.692	-0.208	-0.180
-216.567	-49.959	0.339	0.160
-215.552	-98.068	-0.327	0.084
-214.538	-31.055	-0.133	0.075
-213.523	-31.367	-0.060	0.034
-212.509	-200.000	0.043	-0.379
-211.494	-200.000	-0.022	-0.239
-210.479	147.407	-0.227	0.304
-209.465	-94.979	0.236	0.064
-208.450	83.995	0.033	-0.036
-207.436	89.369	0.032	-0.035
-206.421	283.383	-0.050	0.089
-205.406	-6.905	-0.207	-0.140
-204.392	56.287	-0.179	0.173
-203.377	9.050	0.076	0.057
-202.363	-200.000	0.011	-0.082
-201.348	-200.000	0.026	-0.150
-200.333	800.000	0.123	0.347
-199.319	22.899	0.128	0.104
-198.304	800.000	0.051	-0.143
-197.290	198.143	-0.223	0.339
-196.275	-162.258	0.385	-0.019
-195.260	157.051	0.145	0.200
-194.246	98.609	-0.232	0.266
-193.231	-200.000	-0.002	0.270
-192.217	-200.000	0.045	0.591
-191.202	125.382	0.131	0.165
-190.187	59.359	-0.192	0.188
-189.173	113.015	0.122	0.147
-188.158	409.333	0.080	-0.167
-187.144	-200.000	-0.001	0.128
-186.129	-116.952	-0.200	-0.036
-185.114	-193.018	-0.101	-0.001
-184.100	800.000	-0.033	0.101
-183.085	-96.860	0.175	0.046
-182.071	-142.608	-0.200	0.019
-181.056	372.144	0.146	-0.295
-180.042	84.568	0.201	-0.219
-179.027	496.145	-0.148	0.337
-178.012	168.448	-0.188	0.266
-176.998	-153.125	0.127	0.009
-175.983	800.000	-0.023	0.087
-174.969	800.000	0.130	0.475
-173.954	45.680	-0.089	0.082
-172.939	-82.470	0.123	-0.040
-171.925	249.511	0.048	-0.081
-170.910	-68.667	0.307	0.118
-169.896	800.000	-0.015	0.061
-168.881	800.000	0.100	-0.282
-167.866	-200.000	0.000	0.153
-166.852	51.496	0.161	0.152
-165.837	222.984	0.047	-0.075
-164.823	-157.436	0.211	0.013
-163.808	245.729	0.119	0.198
-162.793	255.084	0.087	0.148
-161.779	-200.000	0.006	-0.157
-160.764	41.274	-0.184	0.165
-159.750	321.313	-0.096	-0.181
-158.735	-95.764	0.393	-0.104
-157.720	-118.197	-0.189	-0.033
-156.706	-123.182	-0.185	-0.030
-155.691	624.522	0.094	0.235
-154.677	800.000	0.016	-0.063
-153.662	20.671	0.161	0.130
-152.647	-70.904	-0.227	0.085
-151.633	-156.601	-0.135	0.008
-150.618	50.386	-0.024	-0.023
-149.604	23.993	0.078	-0.064
-148.589	11.174	0.193	0.146
-147.574	-186.207	0.214	-0.003
-146.560	-200.000	-0.015	-0.190
-145.545	249.743	-0.038	0.064
-144.531	177.283	0.232	-0.336
-143.516	275.495	0.066	-0.116
-142.502	-200.000	0.034	0.300
-141.487	370.874	0.162	-0.326
-140.472	-200.000	0.044	-0.489
-139.458	165.020	-0.092	0.128
-138.443	99.144	0.175	-0.201
-137.429	-66.588	-0.090	-0.035
-136.414	24.071	-0.307	-0.251
-135.399	-200.000	0.088	0.399
-134.385	255.487	-0.117	0.198
-133.370	-141.156	0.066	0.007
-132.356	-163.499	-0.136	-0.006
-131.341	-200.000	0.001	-0.266
-130.326	369.482	0.079	-0.160
-129.312	-200.000	0.063	0.322
-128.297	-200.000	0.031	-0.371
-127.283	203.820	0.070	0.107
-126.268	-118.143	0.307	-0.054
-125.253	143.935	-0.192	-0.254
-124.239	362.575	-0.223	0.443
-123.224	-186.016	-0.204	0.003
-122.210	-200.000	-0.019	0.099
-121.195	-197.389	0.289	0.002
-120.180	188.672	-0.108	0.160
