DTS Sentinel unit serial number:	SN413079Multiplexer serial number:	ORYXHardware model number:	OX4-SRSoftware version number:	ORYX F/W v4.00 Oryx Data Collector v3.7.2.0data status	okinstallation	princeton_trtdifferential loss correction	single-endedforward channel	channel 4reverse channel	N/Adate	2019/09/11time	00:31:11forward acquisition time	60.00reverse acquisition time	0.00gamma	496.2192k internal	0.2318k external	0.2318temperature offset calibration	0.9950default loss term (dB/km)	0.3790temperature slope calibration	1.0000multiplexer offset coefficient	1.0000multiplexer slope coefficient	1.0000fibre end	0.00T internal ref (°C)	29.25T ext. ref 1 (°C)	-0.31T ext. ref 2 (°C)	22.96length (m)	temperature (°C)	Stokes	anti-Stokes-747.200	123.227	-0.269	0.341
-746.185	-200.000	-0.031	0.276
-745.171	-54.813	0.225	-0.103
-744.156	800.000	-0.129	0.454
-743.142	-0.332	0.314	0.226
-742.127	-79.125	-0.201	0.069
-741.112	-48.905	-0.309	0.150
-740.098	130.704	-0.188	0.244
-739.083	-200.000	0.004	0.054
-738.069	50.559	0.098	0.094
-737.054	-200.000	-0.021	0.236
-736.039	-200.000	0.023	0.206
-735.025	9.759	-0.076	0.058
-734.010	649.403	-0.194	-0.503
-732.996	800.000	0.041	0.132
-731.981	-11.876	-0.336	0.223
-730.966	-20.357	-0.241	0.150
-729.952	311.782	-0.163	-0.308
-728.937	-103.205	-0.124	-0.030
-727.923	-136.496	-0.140	0.016
-726.908	98.929	-0.133	-0.155
-725.894	800.000	0.024	-0.079
-724.879	-27.450	0.198	-0.116
-723.864	-95.214	0.275	0.075
-722.850	-124.280	-0.237	-0.038
-721.835	732.737	0.088	0.239
-720.821	92.466	-0.225	0.256
-719.806	327.221	-0.076	-0.146
-718.791	-174.281	0.359	0.011
-717.777	-164.308	-0.045	0.002
-716.762	-42.023	-0.407	0.211
-715.748	800.000	0.044	-0.158
-714.733	-200.000	-0.012	-0.091
-713.718	-70.408	-0.093	0.036
-712.704	59.174	0.125	0.124
-711.689	65.263	-0.219	0.224
-710.675	619.413	0.172	-0.436
-709.660	-14.009	-0.126	-0.082
-708.645	-64.433	-0.240	-0.099
-707.631	-152.842	0.089	0.006
-706.616	-63.499	0.329	0.137
-705.602	6.516	-0.205	-0.154
-704.587	104.985	0.204	0.243
-703.572	-200.000	-0.006	0.375
-702.558	292.510	0.023	-0.043
-701.543	65.178	-0.210	-0.214
-700.529	-200.000	0.027	-0.123
-699.514	198.774	0.125	-0.193
-698.499	-184.661	-0.393	-0.006
-697.485	7.754	-0.352	0.266
-696.470	-200.000	0.036	0.347
-695.456	-200.000	0.008	0.092
-694.441	502.913	-0.103	-0.242
-693.426	269.544	0.111	0.196
-692.412	-87.457	-0.186	-0.057
-691.397	-200.000	-0.010	0.314
-690.383	800.000	-0.034	0.113
-689.368	-168.677	-0.237	0.009
-688.354	166.123	-0.175	0.250
-687.339	-200.000	0.015	-0.322
-686.324	-64.785	-0.261	0.107
-685.310	-150.547	-0.135	0.010
-684.295	-100.060	-0.166	-0.042
-683.281	-200.000	0.002	0.037
-682.266	110.053	0.089	-0.108
-681.251	4.733	0.414	-0.307
-680.237	4.296	0.189	-0.140
-679.222	800.000	0.005	-0.018
-678.208	-160.761	-0.471	0.025
-677.193	191.354	0.078	-0.119
-676.178	131.852	-0.047	-0.061
-675.164	-117.993	0.084	-0.015
-674.149	-200.000	-0.019	0.199
-673.135	800.000	0.035	-0.143
-672.120	5.174	0.353	0.262
-671.105	-200.000	-0.017	-0.157
-670.091	-102.468	-0.178	-0.043
-669.076	565.419	-0.028	-0.068
-668.062	-4.534	-0.310	-0.216
-667.047	199.626	-0.164	0.254
-666.032	663.691	-0.092	0.238
-665.018	-51.275	0.153	0.072
-664.003	412.863	-0.044	0.094
-662.989	26.238	0.273	0.230
-661.974	-153.677	-0.233	-0.016
-660.959	800.000	-0.108	-0.344
-659.945	89.566	-0.255	-0.287
-658.930	-200.000	-0.021	0.248
-657.916	278.265	-0.221	0.397
-656.901	238.088	0.119	-0.200
-655.886	406.092	-0.094	0.201
-654.872	-39.243	-0.225	-0.119
-653.857	59.150	0.043	0.043
-652.843	-44.154	-0.145	0.073
-651.828	52.692	0.062	0.059
-650.814	137.228	-0.042	0.055
-649.799	107.036	-0.141	0.168
-648.784	-95.024	-0.341	-0.093
-647.770	-42.151	-0.238	-0.123
-646.755	-31.923	0.106	0.060
-645.741	-200.000	-0.004	0.040
-644.726	-141.504	0.096	-0.010
-643.711	800.000	0.102	0.387
-642.697	198.340	0.185	-0.286
-641.682	-125.196	-0.053	-0.008
-640.668	-200.000	-0.002	0.420
-639.653	-200.000	0.008	0.044
-638.638	-103.969	0.064	0.015
-637.624	410.555	-0.081	0.173
-636.609	224.216	-0.172	-0.280
-635.595	72.958	0.255	0.268
-634.580	-200.000	0.035	-0.221
-633.565	265.206	0.108	0.190
-632.551	-42.343	0.093	-0.048
-631.536	12.001	-0.147	0.114
-630.522	-200.000	0.031	-0.152
-629.507	-143.576	0.191	0.018
-628.492	112.442	-0.112	-0.136
-627.478	-129.743	0.221	-0.031
-626.463	-172.354	-0.061	0.002
-625.449	179.624	-0.017	-0.026
-624.434	-100.129	0.299	0.075
-623.419	429.894	-0.150	0.326
-622.405	-108.801	-0.121	-0.026
-621.390	-200.000	0.029	-0.272
-620.376	-112.637	0.368	0.074
-619.361	-55.800	-0.256	0.115
-618.346	89.932	-0.240	-0.270
-617.332	800.000	-0.116	0.348
-616.317	493.366	-0.138	0.319
-615.303	-47.946	0.202	-0.099
-614.288	10.207	0.108	0.083
-613.273	-147.134	0.045	0.004
-612.259	138.033	0.120	-0.159
-611.244	-80.201	-0.229	-0.077
-610.230	115.226	0.071	-0.088
-609.215	-115.842	-0.102	-0.019
-608.201	141.755	-0.096	-0.127
-607.186	-200.000	0.002	0.061
-606.171	-200.000	-0.005	0.053
-605.157	0.245	-0.234	-0.168
-604.142	-200.000	0.030	0.208
-603.128	339.975	-0.109	-0.214
-602.113	8.138	-0.037	-0.028
-601.098	666.536	-0.076	0.198
-600.084	-65.490	-0.145	-0.059
-599.069	391.008	-0.230	-0.480
-598.055	-120.569	0.283	-0.048
-597.040	234.883	-0.060	-0.100
-596.025	49.919	-0.266	0.252
-595.011	93.733	0.110	-0.126
-593.996	752.845	-0.027	-0.074
-592.982	51.969	0.146	0.140
-591.967	-138.756	0.072	0.008
-590.952	124.466	0.229	-0.290
-589.938	-131.040	-0.468	-0.063
-588.923	-200.000	0.008	0.155
-587.909	-120.842	0.375	0.064
-586.894	800.000	0.047	-0.160
-585.879	19.232	-0.376	-0.304
-584.865	37.454	0.096	0.086
-583.850	646.670	-0.028	0.071
-582.836	-47.601	0.286	0.140
-581.821	-101.447	-0.114	0.028
-580.806	-200.000	0.017	-0.163
-579.792	-44.783	-0.314	-0.157
-578.777	-200.000	0.023	0.151
-577.763	347.535	-0.164	-0.325
-576.748	6.857	-0.247	-0.185
-575.733	549.682	-0.135	0.326
-574.719	-200.000	-0.048	0.262
-573.704	800.000	0.054	-0.171
-572.690	-64.166	-0.138	-0.057
-571.675	-69.392	0.287	-0.111
-570.661	96.714	-0.048	-0.055
-569.646	800.000	-0.062	0.263
-568.631	140.743	-0.054	-0.071
-567.617	-200.000	0.026	0.183
-566.602	-105.261	-0.254	-0.058
-565.588	150.408	-0.204	0.278
-564.573	-165.538	-0.231	-0.010
-563.558	-26.573	0.267	0.157
-562.544	-138.062	-0.304	-0.034
-561.529	91.334	-0.236	0.266
-560.515	800.000	0.054	-0.199
-559.500	-168.256	0.459	0.018
-558.485	356.407	-0.153	0.306
-557.471	-200.000	0.013	0.219
-556.456	-200.000	-0.017	-0.099
-555.442	800.000	0.104	-0.452
-554.427	60.192	-0.208	0.207
-553.412	-200.000	-0.038	-0.252
-552.398	240.172	-0.153	-0.256
-551.383	-93.381	0.119	0.033
-550.369	7.215	0.258	-0.194
-549.354	128.554	-0.207	-0.265
-548.339	504.520	0.021	-0.050
-547.325	-5.825	-0.056	0.038
-546.310	6.611	0.144	0.108
-545.296	800.000	-0.038	0.108
-544.281	248.224	-0.081	0.137
-543.266	-200.000	-0.039	0.174
-542.252	800.000	-0.069	0.198
-541.237	5.720	0.100	-0.074
-540.223	-200.000	0.024	0.179
-539.208	98.502	-0.146	-0.169
-538.193	-0.703	-0.251	0.179
-537.179	-138.141	-0.258	-0.029
-536.164	-39.533	0.173	-0.091
-535.150	58.459	-0.072	0.071
-534.135	-65.132	0.058	-0.024
-533.121	-86.198	0.175	0.054
-532.106	800.000	-0.081	0.238
-531.091	-65.253	0.153	0.062
-530.077	-173.634	-0.202	0.006
-529.062	-180.695	0.312	0.006
-528.048	-10.186	-0.351	0.234
-527.033	-180.808	0.391	-0.008
-526.018	-175.717	0.544	-0.015
-525.004	-77.671	-0.336	0.117
-523.989	-200.000	0.019	0.193
-522.975	-200.000	-0.054	-0.270
-521.960	-200.000	0.029	-0.371
-520.945	-118.838	-0.119	0.021
-519.931	605.158	-0.048	-0.119
-518.916	-200.000	0.015	-0.259
-517.902	-200.000	0.030	0.311
-516.887	98.567	-0.166	0.192
-515.872	-150.602	-0.184	-0.014
-514.858	301.045	0.047	0.087
-513.843	-26.775	0.060	-0.035
-512.829	217.469	-0.254	-0.405
-511.814	-194.662	-0.340	-0.003
-510.799	334.146	0.040	0.077
-509.785	617.707	-0.089	-0.224
-508.770	-117.684	-0.158	-0.029
-507.756	-65.296	0.252	0.102
-506.741	224.688	0.019	-0.031
-505.726	800.000	0.060	-0.184
-504.712	448.545	-0.047	-0.105
-503.697	95.272	-0.080	-0.092
-502.683	-114.497	0.339	-0.065
-501.668	-76.258	0.282	-0.100
-500.653	-18.625	-0.206	-0.129
-499.639	800.000	-0.092	0.265
-498.624	217.750	0.202	-0.324
-497.610	-113.228	-0.016	-0.003
-496.595	73.660	0.114	0.120
-495.581	800.000	0.021	0.089
-494.566	-87.885	0.081	0.024
-493.551	1.731	-0.170	0.123
-492.537	-156.909	-0.108	-0.007
-491.522	-200.000	0.000	0.052
-490.508	184.325	-0.164	-0.244
-489.493	-200.000	-0.066	0.294
-488.478	-151.972	0.159	0.012
-487.464	-39.055	-0.081	0.043
-486.449	-162.347	-0.188	0.009
-485.435	800.000	0.104	0.367
-484.420	414.906	0.160	-0.341
-483.405	-67.193	-0.237	0.094
-482.391	563.770	0.057	-0.139
-481.376	532.486	-0.111	0.263
-480.362	109.927	0.131	0.157
-479.347	-150.862	-0.158	0.012
-478.332	-27.975	-0.171	0.099
-477.318	-69.170	0.056	0.021
-476.303	800.000	-0.049	0.200
-475.289	-78.353	0.317	0.109
-474.274	439.636	0.111	0.242
-473.259	800.000	-0.180	-0.536
-472.245	-73.886	-0.104	-0.038
-471.230	-12.599	0.232	-0.152
-470.216	-200.000	-0.076	-0.417
-469.201	218.845	-0.037	0.059
-468.186	-200.000	-0.024	0.230
-467.172	800.000	-0.071	0.202
-466.157	-200.000	0.026	0.443
-465.143	-149.425	0.095	-0.008
-464.128	-99.716	-0.334	0.084
-463.113	173.793	-0.122	0.177
-462.099	-92.603	-0.363	0.102
-461.084	103.490	0.117	-0.138
-460.070	-24.001	-0.154	-0.092
-459.055	73.326	-0.301	0.315
-458.040	-200.000	-0.055	-0.331
-457.026	377.344	-0.096	-0.196
-456.011	60.190	0.176	0.174
-454.997	197.166	-0.206	-0.314
-453.982	-150.353	0.093	0.007
-452.968	-134.846	-0.144	-0.018
-451.953	-55.022	-0.167	-0.075
-450.938	-200.000	0.020	-0.147
-449.924	-28.667	0.244	0.140
-448.909	-108.187	0.107	0.023
-447.895	-88.434	0.272	-0.081
-446.880	-145.112	0.176	-0.016
-445.865	800.000	-0.039	0.140
-444.851	-86.360	0.167	-0.051
-443.836	38.513	-0.285	-0.254
-442.822	-32.608	0.206	0.115
-441.807	-114.999	-0.185	-0.035
-440.792	132.470	-0.214	-0.276
-439.778	-72.062	0.195	-0.072
-438.763	279.502	-0.207	0.370
-437.749	800.000	-0.050	0.152
-436.734	-200.000	0.012	-0.080
-435.719	-62.125	0.242	-0.101
-434.705	503.752	0.058	-0.135
-433.690	130.912	-0.154	0.197
-432.676	-95.900	-0.108	-0.029
-431.661	-74.431	0.356	-0.128
-430.646	774.497	-0.032	-0.086
-429.632	-59.198	-0.246	-0.106
-428.617	11.674	0.225	-0.173
-427.603	61.679	0.313	0.312
-426.588	499.057	-0.146	-0.336
-425.573	-51.840	-0.305	0.142
-424.559	775.465	-0.074	0.201
-423.544	69.688	-0.293	-0.301
-422.530	79.273	0.146	-0.156
-421.515	14.724	-0.296	-0.231
-420.500	-200.000	-0.016	0.113
-419.486	-114.746	-0.113	-0.022
-418.471	800.000	-0.119	-0.384
-417.457	-49.588	0.437	0.208
-416.442	-72.871	-0.345	0.127
-415.428	56.232	-0.250	-0.243
-414.413	-102.450	0.098	0.023
-413.398	800.000	0.060	0.181
-412.384	-122.797	-0.185	-0.030
-411.369	409.099	-0.067	-0.141
-410.355	-59.922	-0.171	0.073
-409.340	-200.000	0.021	0.263
-408.325	-200.000	0.010	0.174
-407.311	800.000	0.115	0.403
-406.296	-124.552	-0.046	-0.007
-405.282	-88.949	0.119	-0.035
-404.267	456.847	-0.135	-0.299
-403.252	270.116	-0.204	0.357
-402.238	-87.110	0.031	-0.010
-401.223	-118.824	0.283	0.050
-400.209	-200.000	0.050	0.303
-399.194	-200.000	0.022	0.331
-398.179	-109.475	0.297	-0.063
-397.165	-200.000	0.033	-0.218
-396.150	57.780	0.032	0.032
-395.136	185.954	0.195	-0.289
-394.121	-77.674	0.116	0.040
-393.106	328.886	-0.182	-0.350
-392.092	-94.340	0.117	0.032
-391.077	21.865	0.077	0.062
-390.063	554.626	0.080	-0.192
-389.048	159.476	-0.085	-0.119
-388.033	64.216	0.098	-0.098
-387.019	214.641	-0.097	0.153
-386.004	63.204	-0.071	-0.071
-384.990	312.172	0.208	-0.391
-383.975	11.930	-0.227	0.174
-382.960	-200.000	-0.027	-0.425
-381.946	-146.951	0.060	0.005
-380.931	39.374	-0.206	-0.184
-379.917	169.277	-0.096	-0.136
-378.902	-100.811	-0.146	-0.036
-377.888	182.816	-0.114	0.167
-376.873	-47.052	0.250	-0.122
-375.858	-66.872	-0.313	-0.123
-374.844	86.653	0.145	0.160
-373.829	-82.651	0.137	0.044
-372.815	8.569	-0.132	0.099
-371.800	-143.317	0.249	0.024
-370.785	-34.025	0.157	-0.086
-369.771	-200.000	0.037	-0.320
-368.756	167.754	0.131	0.186
-367.742	407.895	0.155	-0.328
-366.727	-148.636	-0.282	-0.023
-365.712	132.159	0.267	0.343
-364.698	-37.027	0.130	0.069
-363.683	-200.000	0.008	0.080
-362.669	-62.075	0.423	-0.176
-361.654	-20.849	-0.262	-0.160
-360.639	-69.044	0.247	0.095
-359.625	-200.000	-0.007	0.119
-358.610	-141.936	0.386	0.038
-357.596	-58.638	0.133	-0.058
-356.581	-54.936	-0.203	0.091
-355.566	325.311	0.201	0.383
-354.552	426.450	0.072	-0.156
-353.537	800.000	0.019	-0.081
-352.523	-176.717	0.036	0.001
-351.508	-200.000	-0.020	-0.246
-350.493	-17.947	-0.122	-0.076
-349.479	-15.826	-0.090	-0.057
-348.464	152.309	-0.109	-0.148
-347.450	-200.000	0.043	0.251
-346.435	-150.505	0.140	0.011
-345.420	-86.464	-0.160	0.049
-344.406	-200.000	0.005	0.056
-343.391	-94.082	0.205	-0.056
-342.377	-200.000	-0.013	0.120
-341.362	800.000	0.071	-0.197
-340.348	-150.946	-0.134	0.010
-339.333	-200.000	0.012	-0.098
-338.318	-200.000	-0.055	-0.270
-337.304	75.582	0.186	-0.195
-336.289	7.752	0.191	-0.143
-335.275	800.000	-0.055	-0.215
-334.260	-52.902	-0.156	-0.071
-333.245	-200.000	-0.085	0.408
-332.231	-178.157	-0.285	0.007
-331.216	-54.729	-0.142	-0.064
-330.202	61.264	0.301	0.298
-329.187	17.739	-0.179	-0.142
-328.172	-59.299	0.359	0.154
-327.158	128.785	-0.185	0.235
-326.143	213.157	-0.207	0.326
-325.129	-43.096	-0.178	-0.090
-324.114	-34.378	-0.361	-0.197
-323.099	15.725	0.115	0.090
-322.085	-27.146	-0.099	0.057
-321.070	81.302	0.051	0.055
-320.056	-51.939	0.457	-0.212
-319.041	-200.000	-0.009	0.343
-318.026	-149.948	0.301	-0.023
-317.012	-200.000	0.012	-0.118
-315.997	484.710	-0.145	0.329
-314.983	28.757	-0.055	0.046
-313.968	-3.885	-0.245	0.169
-312.953	1.781	0.251	-0.180
-311.939	-111.953	0.224	0.045
-310.924	10.961	0.171	0.130
-309.910	94.339	-0.073	-0.083
-308.895	-200.000	-0.016	-0.228
-307.880	-200.000	0.004	0.361
-306.866	-150.386	0.046	0.004
-305.851	114.616	0.280	0.340
-304.837	294.115	-0.123	0.223
-303.822	800.000	0.044	0.134
-302.807	-200.000	0.053	0.280
-301.793	303.124	0.041	-0.075
-300.778	-200.000	0.020	-0.162
-299.764	366.827	0.148	0.296
-298.749	347.076	0.031	-0.062
-297.735	-22.430	-0.313	-0.188
-296.720	205.101	0.084	-0.130
-295.705	-115.506	0.419	0.078
-294.691	-37.472	-0.305	-0.162
-293.676	-37.293	0.261	0.139
-292.662	-114.732	-0.237	0.045
-291.647	315.531	-0.032	-0.061
-290.632	-73.444	0.314	-0.114
-289.618	84.741	0.162	-0.176
-288.603	-111.597	-0.176	0.036
-287.589	800.000	-0.110	0.408
-286.574	-164.435	-0.128	-0.006
-285.559	3.464	0.112	-0.081
-284.545	-190.056	0.255	-0.003
-283.530	-200.000	0.024	-0.377
-282.516	123.734	0.067	-0.084
-281.501	-38.933	-0.154	0.081
-280.486	-61.931	0.320	-0.133
-279.472	30.073	-0.272	0.231
-278.457	-200.000	0.024	-0.140
-277.443	-12.298	-0.204	-0.133
-276.428	-76.331	0.285	0.100
-275.413	-45.968	0.045	-0.022
-274.399	43.562	-0.190	0.173
-273.384	16.267	0.291	0.228
-272.370	573.085	-0.113	0.273
-271.355	165.045	-0.176	0.247
-270.340	800.000	-0.061	0.223
-269.326	0.138	0.154	0.109
-268.311	108.410	0.267	-0.317
-267.297	-200.000	-0.005	-0.263
-266.282	38.411	0.090	-0.080
-265.267	-200.000	0.024	-0.193
-264.253	-87.139	0.076	0.023
-263.238	39.141	0.156	0.138
-262.224	81.903	0.236	0.254
-261.209	-83.758	0.161	0.051
-260.195	-29.745	0.124	-0.070
-259.180	198.348	0.089	0.135
-258.165	-129.823	0.223	-0.030
-257.151	-4.344	-0.030	-0.021
-256.136	-43.343	-0.388	-0.195
-255.122	-2.908	-0.136	-0.095
-254.107	199.619	-0.068	-0.104
-253.092	1.439	-0.076	0.054
-252.078	800.000	-0.086	0.282
-251.063	221.172	0.170	-0.271
-250.049	134.675	0.165	0.213
-249.034	-18.247	0.094	0.059
-248.019	-107.219	0.192	-0.042
-247.005	-185.991	-0.346	0.005
-245.990	666.472	0.057	0.146
-244.976	-200.000	-0.004	0.066
-243.961	-136.002	-0.091	0.011
-242.946	-18.766	-0.093	0.058
-241.932	90.829	-0.199	-0.222
-240.917	-26.602	0.139	-0.081
-239.903	98.131	0.153	-0.175
-238.888	0.744	-0.135	-0.096
-237.873	-127.179	0.107	-0.016
-236.859	-35.288	-0.056	-0.030
-235.844	-200.000	0.029	0.380
-234.830	800.000	-0.087	0.280
-233.815	57.973	0.113	-0.110
-232.800	89.563	-0.113	-0.125
-231.786	61.814	0.261	-0.257
-230.771	-84.212	0.228	-0.072
-229.757	-112.108	0.264	-0.053
-228.742	133.149	-0.220	0.283
-227.727	-200.000	-0.014	-0.147
-226.713	174.686	-0.122	0.175
-225.698	-38.301	0.105	0.055
-224.684	308.631	-0.106	-0.197
-223.669	-200.000	0.003	0.074
-222.655	-91.303	-0.210	-0.060
-221.640	-200.000	-0.004	-0.101
-220.625	-200.000	0.001	0.335
-219.611	116.601	-0.195	0.237
-218.596	-144.970	0.502	-0.045
-217.582	-27.913	-0.255	0.146
-216.567	71.094	-0.103	-0.106
-215.552	165.824	-0.049	-0.068
-214.538	72.329	0.165	0.170
-213.523	800.000	-0.075	-0.292
-212.509	51.579	-0.259	-0.244
-211.494	5.820	-0.108	-0.079
-210.479	76.292	0.075	-0.079
-209.465	-165.857	-0.170	0.007
-208.450	800.000	-0.115	-0.409
-207.436	-140.266	-0.394	0.041
-206.421	217.433	0.064	0.102
-205.406	-200.000	-0.036	0.343
-204.392	-97.385	0.211	-0.055
-203.377	8.613	0.141	-0.105
-202.363	-99.724	0.326	0.081
-201.348	41.043	0.341	0.305
-200.333	800.000	0.042	0.173
-199.319	73.207	-0.144	-0.149
-198.304	410.268	-0.133	-0.279
-197.290	800.000	0.150	-0.438
-196.275	2.115	-0.210	0.150
-195.260	-22.318	0.128	0.077
-194.246	-47.689	-0.205	0.099
-193.231	-81.058	0.469	0.154
-192.217	-65.029	-0.074	-0.030
-191.202	-77.825	0.246	0.084
-190.187	89.738	0.066	-0.073
-189.173	-22.012	0.404	0.243
-188.158	284.727	0.184	0.327
-187.144	92.698	-0.155	-0.173
-186.129	257.895	-0.152	0.259
-185.114	800.000	0.045	0.176
-184.100	-84.636	0.216	-0.067
-183.085	107.075	0.462	-0.544
-182.071	33.291	-0.058	0.050
-181.056	-9.796	-0.097	-0.064
-180.042	204.791	0.121	-0.187
-179.027	320.993	0.175	-0.330
-178.012	213.511	0.111	0.174
-176.998	-124.030	0.402	0.063
-175.983	42.242	-0.123	0.110
-174.969	800.000	0.008	0.028
-173.954	-200.000	-0.037	0.255
-172.939	-143.469	0.191	0.018
-171.925	-104.655	-0.114	0.026
-170.910	800.000	-0.052	0.154
-169.896	72.884	0.078	0.081
-168.881	156.065	-0.135	-0.184
-167.866	-61.469	0.354	0.147
-166.852	88.335	-0.158	-0.173
-165.837	185.193	-0.155	-0.228
-164.823	-200.000	0.017	0.225
-163.808	-14.854	0.172	-0.109
-162.793	-46.071	-0.497	-0.242
-161.779	-65.762	-0.391	0.155
-160.764	-19.161	0.311	0.191
-159.750	65.406	-0.045	-0.045
-158.735	-64.764	0.252	-0.101
-157.720	-200.000	0.041	-0.322
-156.706	-66.727	-0.137	-0.054
-155.691	311.239	-0.094	0.175
-154.677	-200.000	0.013	-0.113
-153.662	-58.058	-0.220	-0.095
-152.647	-81.096	-0.372	-0.122
-151.633	495.944	-0.133	-0.302
-150.618	-62.171	0.068	0.028
-149.604	-84.565	-0.157	-0.049
-148.589	-68.713	-0.213	0.081
-147.574	24.973	-0.099	-0.081
-146.560	272.614	-0.130	-0.227
-145.545	118.026	0.054	-0.066
-144.531	-39.905	0.254	-0.131
-143.516	-83.246	0.073	-0.023
-142.502	2.364	0.040	-0.029
-141.487	-80.514	-0.364	0.120
-140.472	-131.701	-0.118	0.015
-139.458	-162.703	0.216	-0.010
-138.443	800.000	0.129	0.353
-137.429	485.573	-0.054	-0.122
-136.414	-200.000	-0.030	-0.146
-135.399	-200.000	0.028	0.183
-134.385	-200.000	-0.001	-0.024
-133.370	-200.000	0.050	0.517
-132.356	256.991	-0.076	0.129
-131.341	48.966	-0.192	-0.178
-130.326	-132.729	0.134	0.017
-129.312	-86.338	0.252	0.077
-128.297	456.963	-0.254	0.558
-127.283	96.129	-0.074	0.084
-126.268	-200.000	0.027	-0.122
-125.253	415.735	-0.085	-0.178
-124.239	-153.890	0.303	-0.020
-123.224	-76.337	0.423	0.147
-122.210	393.979	0.184	0.378
-121.195	123.498	-0.127	0.157
