DTS Sentinel unit serial number:	SN413079Multiplexer serial number:	ORYXHardware model number:	OX4-SRSoftware version number:	ORYX F/W v4.00 Oryx Data Collector v3.7.2.0data status	okinstallation	princeton_trtdifferential loss correction	single-endedforward channel	channel 4reverse channel	N/Adate	2019/09/11time	11:47:11forward acquisition time	60.00reverse acquisition time	0.00gamma	496.2192k internal	0.2289k external	0.2289temperature offset calibration	0.9966default loss term (dB/km)	0.3790temperature slope calibration	1.0000multiplexer offset coefficient	1.0000multiplexer slope coefficient	1.0000fibre end	0.00T internal ref (°C)	38.69T ext. ref 1 (°C)	0.17T ext. ref 2 (°C)	36.68length (m)	temperature (°C)	Stokes	anti-Stokes-747.200	-200.000	0.054	0.249
-746.185	-138.741	0.139	-0.016
-745.171	221.770	0.080	-0.131
-744.156	800.000	0.154	0.444
-743.142	647.866	0.075	0.198
-742.127	-179.448	-0.357	-0.008
-741.112	-200.000	0.006	-0.101
-740.098	205.193	-0.311	0.495
-739.083	12.329	-0.205	0.162
-738.069	-113.470	0.194	0.039
-737.054	83.173	0.072	-0.080
-736.039	117.886	-0.150	-0.189
-735.025	116.326	0.170	0.213
-734.010	166.050	-0.107	0.155
-732.996	-73.300	-0.121	-0.045
-731.981	17.060	-0.054	-0.044
-730.966	141.580	0.069	0.093
-729.952	-111.888	-0.183	0.038
-728.937	-19.147	-0.194	-0.124
-727.923	190.444	-0.170	0.262
-726.908	87.925	-0.065	0.073
-725.894	-22.677	0.114	-0.071
-724.879	-113.721	-0.140	0.028
-723.864	33.854	-0.265	0.236
-722.850	-200.000	0.025	-0.260
-721.835	46.618	0.173	0.164
-720.821	-200.000	0.008	-0.300
-719.806	-106.507	0.358	-0.082
-718.791	-200.000	0.020	-0.188
-717.777	-27.562	-0.207	0.123
-716.762	111.242	-0.206	0.254
-715.748	-200.000	-0.020	0.174
-714.733	800.000	0.084	0.354
-713.718	-88.901	0.146	-0.044
-712.704	15.599	-0.314	0.252
-711.689	-91.833	-0.199	-0.058
-710.675	-200.000	-0.010	0.047
-709.660	123.074	0.146	0.187
-708.645	-200.000	0.021	-0.276
-707.631	-79.012	-0.294	0.102
-706.616	-118.894	-0.194	0.035
-705.602	508.314	-0.034	-0.080
-704.587	-200.000	0.021	-0.149
-703.572	-16.085	-0.102	-0.066
-702.558	-200.000	0.045	-0.233
-701.543	-167.099	0.306	0.013
-700.529	-53.658	0.204	-0.095
-699.514	149.567	-0.086	-0.119
-698.499	-48.835	-0.263	-0.129
-697.485	28.083	0.101	-0.087
-696.470	-200.000	-0.029	0.248
-695.456	-131.538	0.254	0.034
-694.441	-200.000	-0.037	-0.225
-693.426	-200.000	0.012	-0.143
-692.412	-94.375	0.317	0.089
-691.397	-51.081	-0.089	-0.043
-690.383	34.222	-0.167	-0.149
-689.368	-196.178	0.247	0.002
-688.354	-102.817	-0.303	-0.074
-687.339	-51.592	-0.193	-0.092
-686.324	-130.000	0.084	0.012
-685.310	403.582	-0.199	-0.429
-684.295	-75.708	-0.203	0.074
-683.281	-200.000	-0.034	-0.231
-682.266	-200.000	0.024	-0.147
-681.251	156.620	0.305	0.431
-680.237	-200.000	-0.350	0.001
-679.222	75.369	-0.415	0.447
-678.208	-173.764	-0.057	-0.002
-677.193	30.342	-0.221	-0.193
-676.178	266.202	0.160	0.286
-675.164	-118.785	0.575	0.103
-674.149	-200.000	-0.026	-0.144
-673.135	46.237	-0.293	-0.278
-672.120	-18.810	-0.393	-0.250
-671.105	33.757	0.281	0.250
-670.091	-48.932	0.175	0.086
-669.076	54.681	-0.068	-0.067
-668.062	-108.465	-0.100	-0.022
-667.047	800.000	0.040	-0.124
-666.032	110.085	-0.128	0.157
-665.018	-72.612	0.062	0.024
-664.003	-124.393	0.118	0.019
-662.989	-48.454	0.302	-0.149
-661.974	299.418	0.157	-0.295
-660.959	-122.227	-0.121	-0.020
-659.945	14.575	-0.113	0.090
-658.930	800.000	-0.056	-0.210
-657.916	414.102	0.127	-0.276
-656.901	-98.228	0.033	0.009
-655.886	224.998	0.231	0.382
-654.872	607.989	-0.097	0.246
-653.857	-143.510	0.168	0.016
-652.843	448.932	0.080	-0.180
-651.828	-98.716	0.192	-0.050
-650.814	-200.000	0.062	0.285
-649.799	-155.743	0.169	-0.011
-648.784	-100.708	-0.103	-0.026
-647.770	144.915	0.055	-0.075
-646.755	-37.602	0.319	0.174
-645.741	-200.000	-0.019	0.315
-644.726	-95.742	-0.169	-0.046
-643.711	176.892	0.106	-0.158
-642.697	-200.000	-0.085	-0.405
-641.682	-155.383	0.376	-0.025
-640.668	4.312	0.288	0.215
-639.653	15.833	-0.198	-0.159
-638.638	-136.844	0.346	0.041
-637.624	-200.000	0.006	-0.074
-636.609	225.725	0.067	-0.110
-635.595	-127.978	0.142	-0.021
-634.580	63.786	-0.055	-0.057
-633.565	-180.636	0.246	-0.005
-632.551	-200.000	0.002	0.103
-631.536	-109.860	-0.276	0.059
-630.522	44.272	0.147	-0.138
-629.507	154.386	-0.130	-0.182
-628.492	525.211	-0.056	0.135
-627.478	-200.000	-0.002	-0.114
-626.463	-200.000	-0.047	0.239
-625.449	484.856	0.190	-0.441
-624.434	-200.000	0.025	-0.198
-623.419	135.775	0.162	0.215
-622.405	-200.000	-0.035	0.207
-621.390	-132.348	-0.144	-0.019
-620.376	63.898	-0.048	0.049
-619.361	323.743	-0.086	0.167
-618.346	679.512	-0.108	-0.287
-617.332	-79.793	-0.188	0.064
-616.317	-30.168	-0.094	0.054
-615.303	-86.838	-0.179	-0.056
-614.288	58.915	0.048	-0.048
-613.273	135.778	-0.123	0.163
-612.259	262.496	0.072	0.127
-611.244	800.000	-0.093	-0.270
-610.230	315.930	0.028	-0.054
-609.215	-74.370	-0.118	-0.043
-608.201	800.000	-0.086	-0.256
-607.186	-107.622	-0.043	-0.010
-606.171	-80.778	0.326	-0.110
-605.157	110.624	-0.147	0.180
-604.142	-128.231	-0.025	0.004
-603.128	-49.320	-0.237	-0.115
-602.113	120.477	-0.170	0.215
-601.098	-182.062	-0.183	-0.004
-600.084	-8.622	0.320	0.219
-599.069	-5.327	-0.164	-0.115
-598.055	-108.365	-0.343	0.075
-597.040	13.970	0.122	0.097
-596.025	202.765	-0.233	0.366
-595.011	-34.487	0.336	0.187
-593.996	-47.304	0.108	0.053
-592.982	-84.516	0.181	0.058
-591.967	3.841	0.178	-0.132
-590.952	409.268	0.100	-0.215
-589.938	316.389	0.113	0.217
-588.923	2.295	-0.184	-0.136
-587.909	800.000	-0.063	-0.184
-586.894	-116.499	0.117	-0.022
-585.879	-45.843	0.319	-0.160
-584.865	-200.000	-0.020	-0.122
-583.850	-107.884	-0.141	-0.031
-582.836	-112.921	-0.114	0.023
-581.821	175.022	0.158	-0.233
-580.806	1.786	-0.012	0.009
-579.792	-35.546	-0.192	0.106
-578.777	-173.253	-0.237	-0.007
-577.763	-61.421	-0.269	-0.115
-576.748	-2.573	0.038	-0.027
-575.733	-102.272	0.135	0.033
-574.719	-133.104	0.178	-0.023
-573.704	64.726	0.194	0.199
-572.690	-32.901	-0.113	0.064
-571.675	800.000	0.046	-0.154
-570.661	-150.510	-0.271	0.021
-569.646	56.439	0.050	0.050
-568.631	-104.315	-0.164	0.039
-567.617	-200.000	-0.012	-0.084
-566.602	709.685	-0.032	0.087
-565.588	-200.000	-0.005	0.056
-564.573	97.874	-0.132	-0.154
-563.558	-51.008	0.128	0.061
-562.544	223.090	0.050	0.081
-561.529	369.248	0.081	-0.167
-560.515	-123.583	0.363	-0.059
-559.500	-81.380	-0.170	0.057
-558.485	-99.644	0.183	0.047
-557.471	-200.000	-0.011	0.191
-556.456	-97.245	-0.291	-0.077
-555.442	-200.000	-0.012	0.180
-554.427	339.832	-0.072	-0.142
-553.412	399.234	-0.106	-0.226
-552.398	800.000	0.039	-0.143
-551.383	630.513	-0.058	0.150
-550.369	-40.808	0.079	-0.042
-549.354	-200.000	0.007	0.289
-548.339	-41.455	0.153	-0.080
-547.325	1.240	0.115	-0.084
-546.310	82.469	0.169	-0.187
-545.296	40.409	0.183	0.168
-544.281	-200.000	0.031	-0.419
-543.266	-3.897	0.157	-0.111
-542.252	-200.000	-0.054	0.289
-541.237	-88.554	0.052	0.016
-540.223	800.000	0.095	0.362
-539.208	545.860	0.115	-0.279
-538.193	-200.000	-0.013	-0.108
-537.179	53.010	-0.076	0.074
-536.164	587.806	0.027	-0.067
-535.150	39.948	0.042	0.038
-534.135	332.459	0.221	-0.434
-533.121	83.067	0.186	-0.205
-532.106	155.168	0.170	-0.238
-531.091	12.630	-0.291	-0.228
-530.077	800.000	0.037	-0.111
-529.062	-181.738	0.115	-0.002
-528.048	18.227	0.238	0.193
-527.033	-67.634	-0.270	-0.107
-526.018	467.805	0.057	0.129
-525.004	168.499	0.034	0.050
-523.989	-118.962	0.165	-0.029
-522.975	9.607	-0.360	-0.277
-521.960	-118.223	0.160	-0.029
-520.945	-153.341	-0.120	-0.008
-519.931	-22.788	0.353	-0.216
-518.916	144.398	-0.125	0.170
-517.902	341.142	-0.097	0.193
-516.887	-2.254	-0.078	-0.056
-515.872	800.000	-0.058	-0.209
-514.858	800.000	-0.066	-0.236
-513.843	52.404	0.257	-0.249
-512.829	800.000	-0.083	0.345
-511.814	-46.837	-0.174	0.086
-510.799	-110.417	0.277	0.058
-509.785	-64.011	0.105	-0.044
-508.770	-200.000	0.001	-0.028
-507.756	800.000	0.047	-0.140
-506.741	207.704	0.060	-0.096
-505.726	141.952	-0.111	0.150
-504.712	-102.900	0.266	-0.064
-503.697	-38.704	0.144	0.077
-502.683	170.166	-0.128	-0.186
-501.668	800.000	0.035	-0.099
-500.653	39.919	-0.272	0.248
-499.639	13.993	-0.244	-0.193
-498.624	-43.054	0.226	-0.116
-497.610	205.764	-0.060	0.094
-496.595	173.401	-0.369	-0.540
-495.581	-9.300	-0.063	-0.043
-494.566	204.797	-0.121	-0.191
-493.551	-200.000	-0.014	-0.312
-492.537	-35.690	0.127	-0.070
-491.522	240.848	0.005	-0.009
-490.508	-200.000	0.065	-0.342
-489.493	56.183	-0.026	-0.025
-488.478	29.769	-0.026	0.023
-487.464	-89.432	-0.581	-0.173
-486.449	800.000	-0.086	-0.250
-485.435	-33.990	0.058	0.033
-484.420	127.046	-0.109	-0.141
-483.405	-200.000	0.011	0.095
-482.391	-121.044	-0.539	0.092
-481.376	121.068	-0.014	-0.018
-480.362	695.399	-0.071	0.188
-479.347	179.722	-0.017	-0.025
-478.332	275.318	-0.210	0.378
-477.318	-198.516	-0.429	-0.002
-476.303	-58.018	0.100	-0.044
-475.289	560.529	-0.032	-0.079
-474.274	-200.000	0.004	0.130
-473.259	429.072	-0.088	0.193
-472.245	800.000	-0.061	0.182
-471.230	493.115	-0.088	0.205
-470.216	274.512	-0.136	0.244
-469.201	-143.659	-0.265	0.026
-468.186	125.093	-0.133	0.171
-467.172	42.715	-0.171	-0.158
-466.157	800.000	0.072	0.239
-465.143	-108.716	-0.321	-0.070
-464.128	-200.000	-0.002	0.160
-463.113	48.039	0.137	0.130
-462.099	562.041	0.067	-0.164
-461.084	-200.000	0.036	0.419
-460.070	592.011	-0.198	-0.496
-459.055	-81.885	0.178	-0.059
-458.040	-62.739	-0.152	0.064
-457.026	70.137	0.156	-0.163
-456.011	88.645	-0.150	-0.169
-454.997	90.196	0.168	-0.190
-453.982	-18.398	0.285	-0.180
-452.968	104.422	0.079	-0.094
-451.953	-95.046	0.255	-0.070
-450.938	-200.000	0.024	0.373
-449.924	-87.802	-0.117	0.036
-448.909	-200.000	-0.007	0.184
-447.895	800.000	-0.004	0.015
-446.880	345.298	-0.163	0.325
-445.865	319.232	0.048	-0.092
-444.851	-68.297	0.469	0.185
-443.836	64.955	-0.194	0.199
-442.822	396.745	0.152	-0.322
-441.807	800.000	0.096	0.287
-440.792	30.064	0.340	-0.294
-439.778	-91.342	-0.079	-0.023
-438.763	570.707	0.071	0.174
-437.749	-200.000	0.022	-0.188
-436.734	239.664	0.154	0.260
-435.719	-30.626	0.092	-0.053
-434.705	800.000	-0.038	-0.129
-433.690	-54.339	-0.071	0.033
-432.676	225.347	-0.209	0.342
-431.661	-14.988	0.155	-0.100
-430.646	-173.352	-0.161	0.005
-429.632	287.559	-0.039	0.072
-428.617	-112.921	0.377	0.076
-427.603	-200.000	0.025	-0.200
-426.588	-200.000	0.037	0.201
-425.573	79.168	0.033	0.035
-424.559	-111.714	0.079	-0.016
-423.544	-25.350	-0.306	0.183
-422.530	-138.828	0.316	0.035
-421.515	34.996	-0.195	0.173
-420.500	-91.485	-0.164	0.048
-419.486	-14.885	0.193	-0.125
-418.471	-38.374	-0.117	-0.063
-417.457	119.624	-0.127	-0.159
-416.442	-200.000	-0.090	0.583
-415.428	-23.305	0.121	0.073
-414.413	74.919	0.196	-0.209
-413.398	-109.187	-0.332	0.071
-412.384	-140.184	-0.111	0.012
-411.369	-10.891	-0.243	0.162
-410.355	-123.868	-0.351	-0.056
-409.340	-92.189	0.100	-0.029
-408.325	207.513	0.141	-0.223
-407.311	50.526	-0.105	-0.100
-406.296	-6.181	0.113	0.078
-405.282	-200.000	-0.000	0.094
-404.267	-74.789	0.470	0.171
-403.252	-174.276	-0.171	0.005
-402.238	37.589	0.037	0.033
-401.223	54.775	0.217	0.212
-400.209	120.798	0.113	-0.142
-399.194	-137.235	0.222	-0.026
-398.179	286.102	0.190	0.347
-397.165	173.141	0.132	-0.192
-396.150	57.862	0.078	0.077
-395.136	-200.000	0.042	0.199
-394.121	-200.000	-0.016	-0.129
-393.106	-3.790	0.049	-0.034
-392.092	-111.604	-0.075	0.015
-391.077	800.000	0.061	-0.181
-390.063	-25.909	-0.187	0.111
-389.048	-37.499	-0.043	-0.023
-388.033	9.800	0.133	-0.102
-387.019	-89.649	0.150	-0.044
-386.004	-43.387	-0.221	0.113
-384.990	-200.000	0.014	-0.228
-383.975	-200.000	0.038	0.176
-382.960	0.410	0.195	-0.141
-381.946	17.216	0.156	-0.125
-380.931	-80.800	0.334	0.112
-379.917	678.425	-0.117	-0.307
-378.902	195.040	-0.124	-0.191
-377.888	146.127	0.172	-0.233
-376.873	120.735	-0.161	-0.202
-375.858	-86.443	-0.315	0.098
-374.844	42.707	-0.125	-0.115
-373.829	-13.354	0.171	-0.112
-372.815	-38.245	-0.176	0.094
-371.800	65.462	-0.123	-0.126
-370.785	3.106	0.042	0.031
-369.771	-20.631	-0.319	-0.198
-368.756	-75.291	-0.153	0.055
-367.742	800.000	0.127	0.396
-366.727	800.000	0.039	0.132
-365.712	-200.000	0.023	0.333
-364.698	-200.000	0.024	0.308
-363.683	-200.000	-0.043	0.245
-362.669	-0.802	0.364	0.260
-361.654	293.032	0.207	0.382
-360.639	-29.632	-0.323	0.186
-359.625	-56.092	0.244	-0.110
-358.610	-131.187	0.145	-0.019
-357.596	76.037	0.232	-0.248
-356.581	205.897	0.171	-0.268
-355.566	800.000	-0.018	-0.074
-354.552	800.000	-0.069	0.196
-353.537	-93.368	-0.351	0.098
-352.523	-123.017	0.176	0.029
-351.508	283.944	0.107	-0.195
-350.493	400.709	0.042	-0.090
-349.479	-3.292	0.163	-0.115
-348.464	9.794	0.237	0.181
-347.450	166.788	0.156	0.223
-346.435	109.874	0.174	0.210
-345.420	800.000	-0.078	0.244
-344.406	-134.194	0.161	0.020
-343.391	-9.035	-0.133	-0.090
-342.377	35.598	0.097	0.086
-341.362	-47.554	0.218	0.107
-340.348	539.806	-0.086	-0.207
-339.333	-200.000	-0.035	-0.241
-338.318	-39.311	-0.311	-0.164
-337.304	-104.188	-0.398	-0.093
-336.289	568.696	0.162	-0.398
-335.275	-200.000	-0.010	0.205
-334.260	30.004	-0.158	0.136
-333.245	-117.064	-0.482	-0.089
-332.231	-74.745	0.113	-0.041
-331.216	-91.858	0.235	-0.067
-330.202	-103.039	-0.318	-0.076
-329.187	-89.158	0.298	-0.089
-328.172	77.990	0.134	-0.144
-327.158	-9.074	-0.179	-0.121
-326.143	-12.808	-0.060	-0.040
-325.129	800.000	0.022	0.078
-324.114	-91.016	-0.478	-0.138
-323.099	243.718	-0.108	-0.183
-322.085	130.055	0.171	-0.221
-321.070	10.017	0.125	-0.096
-320.056	-152.994	-0.340	0.024
-319.041	-148.748	-0.343	0.028
-318.026	-50.459	0.185	0.088
-317.012	78.508	-0.187	0.201
-315.997	221.012	-0.052	0.084
-314.983	15.151	-0.232	0.183
-313.968	610.449	-0.024	0.062
-312.953	-63.004	-0.136	-0.056
-311.939	101.935	0.060	-0.070
-310.924	90.271	-0.283	0.319
-309.910	-130.686	0.057	0.008
-308.895	197.298	-0.177	0.272
-307.880	-24.500	0.208	-0.125
-306.866	16.899	0.278	-0.222
-305.851	-72.996	-0.152	-0.056
-304.837	59.907	0.214	-0.213
-303.822	-100.479	-0.191	0.048
-302.807	-75.956	-0.098	0.035
-301.793	-124.135	0.323	-0.051
-300.778	726.281	-0.083	0.224
-299.764	72.889	-0.189	-0.199
-298.749	8.812	-0.138	-0.105
-297.735	634.902	-0.075	-0.191
-296.720	27.584	-0.131	-0.111
-295.705	-79.722	-0.213	0.072
-294.691	-156.766	-0.076	-0.005
-293.676	-163.016	0.115	0.006
-292.662	-139.670	-0.346	0.037
-291.647	412.968	0.054	-0.116
-290.632	441.312	-0.075	0.166
-289.618	174.439	-0.055	0.080
-288.603	-73.679	0.131	-0.048
-287.589	-200.000	-0.016	0.121
-286.574	40.701	-0.243	-0.221
-285.559	-151.259	0.112	0.008
-284.545	52.353	0.152	0.146
-283.530	800.000	0.077	0.300
-282.516	-200.000	-0.016	0.166
-281.501	151.271	-0.036	-0.049
-280.486	90.853	0.244	-0.275
-279.472	-200.000	0.002	0.066
-278.457	-134.014	-0.228	-0.028
-277.443	213.115	0.118	0.188
-276.428	800.000	0.088	-0.325
-275.413	-200.000	-0.027	0.428
-274.399	-41.888	0.285	0.147
-273.384	15.043	0.116	-0.091
-272.370	800.000	-0.019	0.056
-271.355	314.232	0.183	-0.346
-270.340	-37.445	-0.197	-0.106
-269.326	388.804	0.013	0.027
-268.311	318.008	0.064	0.122
-267.297	192.996	0.214	0.326
-266.282	618.834	-0.043	0.109
-265.267	800.000	0.148	0.534
-264.253	46.711	-0.015	0.014
-263.238	-200.000	0.011	-0.073
-262.224	-116.828	-0.340	-0.063
-261.209	-49.349	0.170	-0.082
-260.195	-79.888	-0.061	-0.021
-259.180	20.687	-0.226	-0.184
-258.165	800.000	-0.031	-0.111
-257.151	-42.135	-0.119	0.061
-256.136	-128.456	-0.279	0.040
-255.122	-51.546	-0.287	-0.135
-254.107	86.962	0.127	-0.141
-253.092	-200.000	0.055	-0.422
-252.078	58.975	0.140	0.138
-251.063	-84.838	-0.225	-0.071
-250.049	-200.000	-0.003	-0.024
-249.034	-200.000	0.021	0.234
-248.019	-23.193	-0.474	0.287
-247.005	-165.615	-0.227	0.010
-245.990	-146.776	0.370	-0.032
-244.976	800.000	-0.051	0.192
-243.961	638.824	0.080	-0.204
-242.946	59.367	-0.039	-0.038
-241.932	24.167	0.271	0.225
-240.917	-77.765	-0.189	0.066
-239.903	493.546	0.161	-0.372
-238.888	-47.892	-0.331	-0.161
-237.873	-155.786	-0.309	-0.020
-236.859	-200.000	0.047	0.213
-235.844	-200.000	0.018	0.110
-234.830	293.347	0.093	-0.171
-233.815	-200.000	-0.025	-0.146
-232.800	-180.038	0.013	0.000
-231.786	800.000	-0.077	0.253
-230.771	-51.540	0.238	0.112
-229.757	-141.913	-0.407	-0.041
-228.742	-178.734	0.137	-0.003
-227.727	-154.705	0.292	0.019
-226.713	138.659	-0.070	0.093
-225.698	90.282	-0.075	0.084
-224.684	221.860	0.192	-0.311
-223.669	101.333	-0.123	0.144
-222.655	-150.639	-0.225	-0.017
-221.640	-91.784	-0.455	-0.130
-220.625	0.726	-0.086	0.062
-219.611	-105.607	-0.167	0.038
-218.596	448.066	0.071	-0.156
-217.582	208.947	0.149	-0.234
-216.567	-157.936	-0.323	-0.019
-215.552	10.613	-0.289	0.222
-214.538	-31.266	0.143	-0.081
-213.523	-90.708	0.202	-0.059
-212.509	14.032	0.118	0.093
-211.494	-200.000	-0.026	-0.122
-210.479	-75.507	0.458	-0.164
-209.465	87.013	0.310	-0.344
-208.450	-200.000	0.067	0.296
-207.436	-134.995	0.146	0.018
-206.421	-17.431	0.342	-0.216
-205.406	-135.792	0.050	0.006
-204.392	-52.843	-0.162	-0.075
-203.377	-150.670	0.162	-0.012
-202.363	-83.571	0.198	0.064
-201.348	276.130	0.186	0.332
-200.333	-91.769	-0.113	-0.032
-199.319	-200.000	0.038	-0.224
-198.304	357.956	0.070	0.139
-197.290	-131.381	0.121	-0.016
-196.275	612.327	-0.127	0.319
-195.260	301.545	0.121	0.224
-194.246	-69.487	0.032	-0.012
-193.231	-178.770	0.231	-0.005
-192.217	800.000	0.040	0.112
-191.202	161.970	0.033	-0.046
-190.187	-93.875	-0.234	0.064
-189.173	-42.466	0.317	-0.162
-188.158	426.984	-0.118	0.254
-187.144	800.000	-0.168	0.501
-186.129	-83.668	0.283	0.091
-185.114	32.390	0.346	0.300
-184.100	-200.000	0.008	0.218
-183.085	-48.910	0.319	-0.153
-182.071	119.585	0.142	0.176
-181.056	-200.000	0.015	0.401
-180.042	3.978	-0.196	-0.144
-179.027	460.931	0.126	-0.283
-178.012	-160.128	0.115	-0.006
-176.998	-106.428	0.127	0.029
-175.983	-183.955	0.016	0.000
-174.969	-40.728	-0.105	0.055
-173.954	-200.000	-0.013	-0.157
-172.939	800.000	0.048	0.198
-171.925	-57.722	-0.039	-0.017
-170.910	745.979	-0.052	0.140
-169.896	10.501	0.253	-0.194
-168.881	-63.508	-0.185	-0.076
-167.866	104.967	0.130	-0.154
-166.852	-115.595	-0.300	-0.056
-165.837	128.095	-0.164	0.209
-164.823	264.893	0.101	0.175
-163.808	-63.208	-0.097	0.040
-162.793	-20.632	-0.197	0.121
-161.779	-171.955	0.146	-0.005
-160.764	11.100	0.103	0.079
-159.750	78.305	-0.132	0.141
-158.735	-200.000	-0.006	-0.240
-157.720	800.000	-0.073	-0.292
-156.706	251.865	-0.122	-0.208
-155.691	-200.000	-0.053	0.256
-154.677	-200.000	-0.001	-0.097
-153.662	-2.603	0.222	0.156
-152.647	307.055	-0.024	0.045
-151.633	-104.494	0.115	-0.027
-150.618	-35.364	0.241	-0.131
-149.604	103.086	0.077	0.090
-148.589	-162.109	0.096	-0.005
-147.574	577.914	-0.074	0.181
-146.560	105.477	-0.064	-0.076
-145.545	69.010	0.167	0.172
-144.531	800.000	-0.146	0.450
-143.516	168.471	0.086	-0.123
-142.502	240.724	0.110	0.183
-141.487	123.830	-0.185	0.232
-140.472	230.461	0.243	0.397
-139.458	800.000	-0.047	0.141
-138.443	383.163	0.030	-0.062
-137.429	-60.050	0.184	-0.078
-136.414	-145.259	-0.064	0.006
-135.399	359.159	0.113	-0.227
-134.385	-134.011	0.503	0.062
-133.370	-11.993	-0.164	0.107
-132.356	-200.000	-0.089	-0.441
-131.341	-74.359	-0.286	0.103
-130.326	644.344	-0.082	-0.209
-129.312	88.485	0.069	-0.077
-128.297	75.557	-0.105	0.111
-127.283	-153.628	-0.331	0.023
-126.268	-200.000	0.046	0.208
-125.253	74.526	-0.177	0.187
-124.239	-200.000	0.013	-0.255
-123.224	-69.369	0.232	0.089
-122.210	-164.555	-0.262	0.012
-121.195	-200.000	0.019	0.194
