DTS Sentinel unit serial number:	SN413079Multiplexer serial number:	ORYXHardware model number:	OX4-SRSoftware version number:	ORYX F/W v4.00 Oryx Data Collector v3.7.2.0data status	okinstallation	princeton_trtdifferential loss correction	single-endedforward channel	channel 4reverse channel	N/Adate	2019/09/11time	18:19:11forward acquisition time	60.00reverse acquisition time	0.00gamma	496.2192k internal	0.2275k external	0.2275temperature offset calibration	1.0024default loss term (dB/km)	0.3790temperature slope calibration	1.0000multiplexer offset coefficient	1.0000multiplexer slope coefficient	1.0000fibre end	0.00T internal ref (°C)	44.00T ext. ref 1 (°C)	1.17T ext. ref 2 (°C)	38.94length (m)	temperature (°C)	Stokes	anti-Stokes-747.200	-200.000	0.025	0.128
-746.185	32.964	0.179	0.160
-745.171	-15.641	-0.184	0.121
-744.156	-54.157	0.249	-0.117
-743.142	155.581	0.185	-0.263
-742.127	-33.708	0.274	0.156
-741.112	137.599	-0.138	-0.186
-740.098	-46.447	-0.191	0.096
-739.083	800.000	-0.125	-0.413
-738.069	-46.415	-0.066	-0.034
-737.054	28.876	-0.138	-0.121
-736.039	768.247	0.048	-0.135
-735.025	800.000	0.038	0.128
-734.010	-112.266	-0.220	-0.045
-732.996	-200.000	-0.063	0.309
-731.981	321.232	0.124	-0.243
-730.966	-135.538	-0.168	-0.021
-729.952	-31.349	-0.114	0.066
-728.937	-119.002	-0.589	-0.106
-727.923	-200.000	0.039	-0.538
-726.908	602.855	-0.111	-0.285
-725.894	800.000	-0.081	0.318
-724.879	118.517	0.265	0.336
-723.864	75.564	-0.160	0.174
-722.850	22.414	-0.075	-0.063
-721.835	401.930	-0.172	-0.372
-720.821	-136.085	-0.195	0.024
-719.806	489.719	0.117	-0.276
-718.791	-76.993	-0.195	0.070
-717.777	25.272	0.195	-0.167
-716.762	-32.928	0.313	0.179
-715.748	14.410	0.180	0.144
-714.733	47.414	0.112	0.107
-713.718	-123.216	0.239	0.039
-712.704	-82.308	-0.273	0.092
-711.689	800.000	-0.098	-0.304
-710.675	-180.240	-0.364	-0.008
-709.660	502.550	0.007	-0.016
-708.645	-21.279	0.109	0.069
-707.631	-90.675	-0.225	-0.067
-706.616	800.000	-0.079	-0.231
-705.602	493.115	0.140	-0.331
-704.587	545.121	-0.065	-0.160
-703.572	-200.000	-0.013	-0.354
-702.558	-109.808	-0.084	0.018
-701.543	-138.134	0.224	-0.026
-700.529	184.840	0.219	0.335
-699.514	-73.490	0.314	-0.118
-698.499	-200.000	0.028	0.328
-697.485	-63.902	0.235	-0.099
-696.470	-200.000	-0.026	0.140
-695.456	-47.008	0.061	-0.031
-694.441	800.000	0.050	0.146
-693.426	800.000	0.078	-0.250
-692.412	337.700	0.084	-0.168
-691.397	239.733	0.021	-0.036
-690.383	12.833	-0.332	-0.264
-689.368	-27.676	-0.342	-0.204
-688.354	73.433	-0.212	-0.229
-687.339	-185.176	0.140	0.002
-686.324	-79.467	0.393	-0.137
-685.310	4.545	0.189	-0.143
-684.295	167.195	-0.065	-0.095
-683.281	-200.000	-0.013	-0.134
-682.266	169.881	0.062	0.092
-681.251	-188.010	0.447	-0.006
-680.237	-27.477	0.194	-0.116
-679.222	-169.282	0.231	0.009
-678.208	34.120	-0.160	-0.143
-677.193	800.000	-0.053	-0.235
-676.178	-2.920	-0.148	-0.106
-675.164	179.645	-0.090	0.135
-674.149	-50.567	0.163	0.079
-673.135	-140.967	-0.020	0.002
-672.120	-88.535	-0.195	-0.060
-671.105	-120.723	-0.246	-0.043
-670.091	293.057	-0.010	-0.019
-669.076	800.000	-0.070	-0.296
-668.062	-161.987	-0.432	-0.022
-667.047	-120.759	-0.308	0.053
-666.032	-200.000	0.409	-0.001
-665.018	-190.253	-0.235	-0.003
-664.003	-200.000	-0.002	-0.249
-662.989	211.733	0.142	-0.230
-661.974	12.583	0.227	-0.180
-660.959	98.112	0.086	0.102
-659.945	71.188	-0.061	-0.065
-658.930	263.421	0.079	-0.142
-657.916	-75.916	0.164	-0.060
-656.901	-13.325	-0.069	-0.046
-655.886	274.826	-0.267	0.486
-654.872	450.196	0.045	0.103
-653.857	-64.021	0.094	0.039
-652.843	-200.000	-0.061	-0.354
-651.828	-28.254	-0.179	-0.106
-650.814	-200.000	0.025	0.255
-649.799	50.228	-0.110	0.107
-648.784	-166.930	-0.180	0.008
-647.770	114.071	0.311	-0.389
-646.755	-200.000	-0.055	0.281
-645.741	-5.338	-0.026	-0.018
-644.726	800.000	-0.009	0.030
-643.711	-200.000	-0.038	0.217
-642.697	800.000	-0.090	0.400
-641.682	77.712	0.307	0.336
-640.668	179.134	-0.170	-0.256
-639.653	800.000	0.056	0.222
-638.638	236.862	-0.112	0.190
-637.624	176.654	-0.259	-0.386
-636.609	800.000	-0.038	-0.130
-635.595	-200.000	-0.019	-0.097
-634.580	-148.588	-0.220	0.018
-633.565	800.000	-0.052	-0.159
-632.551	193.455	-0.069	-0.107
-631.536	-200.000	-0.014	-0.185
-630.522	-200.000	-0.003	-0.126
-629.507	-18.357	-0.320	-0.205
-628.492	9.047	-0.228	-0.177
-627.478	140.872	-0.020	0.027
-626.463	-28.654	0.174	0.103
-625.449	-80.466	-0.349	0.119
-624.434	-79.180	0.119	-0.042
-623.419	-104.938	0.162	-0.038
-622.405	-200.000	0.024	-0.308
-621.390	399.386	0.113	0.243
-620.376	-35.125	0.082	-0.046
-619.361	-76.590	0.100	-0.036
-618.346	228.058	-0.159	-0.265
-617.332	793.651	-0.037	-0.105
-616.317	18.016	0.050	0.041
-615.303	70.553	-0.107	0.113
-614.288	-100.732	0.246	-0.062
-613.273	-150.301	0.386	0.031
-612.259	-200.000	-0.008	-0.202
-611.244	-140.865	0.315	-0.033
-610.230	71.734	-0.167	-0.178
-609.215	-200.000	-0.028	0.133
-608.201	-85.208	-0.487	0.156
-607.186	-200.000	-0.001	0.020
-606.171	-200.000	0.029	0.206
-605.157	17.101	0.201	-0.163
-604.142	357.035	0.084	-0.172
-603.128	527.151	0.094	-0.227
-602.113	85.204	0.252	0.283
-601.098	119.382	0.148	0.188
-600.084	76.257	0.298	-0.323
-599.069	348.709	-0.131	0.266
-598.055	122.379	0.136	-0.174
-597.040	412.954	0.176	-0.383
-596.025	-200.000	-0.037	0.241
-595.011	423.954	0.090	0.199
-593.996	-200.000	-0.008	-0.037
-592.982	-57.740	0.185	-0.083
-591.967	199.890	-0.244	-0.384
-590.952	159.744	-0.256	-0.365
-589.938	800.000	-0.109	-0.313
-588.923	46.628	0.044	0.042
-587.909	229.779	0.006	-0.010
-586.894	800.000	0.073	0.241
-585.879	94.728	0.061	0.071
-584.865	100.608	0.132	-0.157
-583.850	-1.298	0.196	0.142
-582.836	-200.000	0.003	-0.041
-581.821	-200.000	-0.003	0.086
-580.806	237.514	-0.019	-0.031
-579.792	-200.000	0.067	-0.332
-578.777	258.849	-0.040	0.071
-577.763	-2.972	-0.248	-0.178
-576.748	-94.630	-0.268	0.075
-575.733	8.973	-0.124	0.096
-574.719	-200.000	-0.033	-0.327
-573.704	114.338	-0.110	-0.138
-572.690	-139.917	-0.175	-0.019
-571.675	44.449	-0.166	-0.156
-570.661	-76.366	0.029	-0.011
-569.646	35.469	0.201	0.180
-568.631	-195.972	-0.306	0.002
-567.617	-114.028	-0.419	0.083
-566.602	-180.370	-0.098	-0.002
-565.588	-200.000	0.007	-0.267
-564.573	57.952	0.176	-0.177
-563.558	1.594	0.059	-0.044
-562.544	113.740	-0.031	-0.038
-561.529	-43.530	0.080	-0.041
-560.515	232.562	0.132	0.222
-559.500	-34.242	-0.092	0.052
-558.485	170.992	-0.136	-0.199
-557.471	280.201	0.112	-0.205
-556.456	-200.000	0.011	0.052
-555.442	-33.706	-0.122	-0.069
-554.427	-200.000	-0.000	-0.091
-553.412	800.000	-0.026	0.098
-552.398	641.324	-0.134	-0.350
-551.383	1.398	0.166	-0.122
-550.369	-85.594	0.037	0.012
-549.354	-77.440	-0.180	0.064
-548.339	-135.950	0.031	-0.004
-547.325	800.000	-0.086	-0.281
-546.310	800.000	-0.054	0.243
-545.296	-200.000	0.008	0.234
-544.281	11.580	-0.489	-0.384
-543.266	-83.686	-0.248	-0.081
-542.252	270.780	0.089	0.161
-541.237	-175.693	-0.253	-0.007
-540.223	800.000	0.050	-0.154
-539.208	-157.327	-0.365	0.023
-538.193	800.000	-0.046	-0.142
-537.179	155.778	0.274	0.386
-536.164	-142.860	-0.275	-0.027
-535.150	-177.354	-0.188	-0.005
-534.135	-200.000	-0.071	0.430
-533.121	261.454	0.195	0.345
-532.106	-186.179	-0.039	0.001
-531.091	800.000	-0.043	-0.128
-530.077	-78.260	-0.310	0.109
-529.062	352.114	0.088	0.178
-528.048	-200.000	0.012	-0.059
-527.033	800.000	0.081	0.303
-526.018	-200.000	0.022	0.146
-525.004	-75.621	-0.062	-0.023
-523.989	474.783	-0.022	-0.051
-522.975	-200.000	0.001	0.069
-521.960	-8.550	-0.230	0.158
-520.945	-200.000	0.038	0.361
-519.931	-200.000	-0.051	-0.297
-518.916	337.639	-0.102	-0.202
-517.902	-200.000	0.020	0.246
-516.887	8.587	0.219	0.168
-515.872	-88.925	0.149	-0.045
-514.858	800.000	0.039	-0.114
-513.843	254.592	-0.157	-0.274
-512.829	45.713	-0.177	-0.167
-511.814	-172.758	-0.204	0.007
-510.799	-167.302	-0.119	-0.005
-509.785	44.804	-0.113	-0.107
-508.770	39.518	0.096	0.088
-507.756	-34.672	-0.076	0.042
-506.741	-49.813	-0.112	0.054
-505.726	-115.384	0.097	-0.019
-504.712	116.643	-0.092	0.115
-503.697	-200.000	0.015	0.148
-502.683	14.043	0.214	-0.170
-501.668	143.874	-0.102	0.139
-500.653	211.609	-0.083	0.134
-499.639	4.198	0.124	-0.092
-498.624	-200.000	-0.056	0.360
-497.610	190.565	0.187	-0.286
-496.595	-97.000	-0.174	0.046
-495.581	-200.000	0.005	-0.162
-494.566	-200.000	-0.167	0.001
-493.551	800.000	-0.073	0.250
-492.537	665.946	-0.051	0.134
-491.522	-74.942	0.176	-0.064
-490.508	125.548	0.097	-0.125
-489.493	-51.865	-0.295	0.140
-488.478	-14.154	0.178	0.117
-487.464	800.000	0.053	0.201
-486.449	62.013	0.078	0.079
-485.435	-80.793	-0.251	0.085
-484.420	-117.904	-0.334	-0.061
-483.405	800.000	0.163	-0.505
-482.391	93.580	-0.231	0.267
-481.376	-200.000	-0.008	0.114
-480.362	206.039	-0.103	0.163
-479.347	-200.000	0.018	0.211
-478.332	-200.000	-0.011	-0.051
-477.318	-174.072	0.259	-0.008
-476.303	-176.296	0.106	0.003
-475.289	-1.011	0.060	-0.043
-474.274	-200.000	0.019	-0.171
-473.259	-200.000	0.004	-0.369
-472.245	100.356	-0.115	-0.136
-471.230	119.418	0.170	-0.215
-470.216	109.763	-0.094	0.115
-469.201	-26.988	0.084	0.050
-468.186	-78.394	0.239	0.084
-467.172	-200.000	0.065	-0.353
-466.157	19.648	0.115	-0.094
-465.143	-0.924	0.199	0.144
-464.128	589.920	-0.089	0.224
-463.113	-27.397	-0.023	-0.013
-462.099	-183.138	-0.140	0.003
-461.084	92.929	-0.146	0.169
-460.070	-147.418	0.246	-0.021
-459.055	-29.013	-0.118	-0.069
-458.040	-86.907	-0.190	0.059
-457.026	383.105	-0.058	-0.123
-456.011	-40.975	-0.287	-0.151
-454.997	63.025	-0.150	-0.153
-453.982	296.343	0.038	-0.071
-452.968	-200.000	0.017	-0.196
-451.953	84.720	0.098	-0.110
-450.938	-31.297	-0.399	0.229
-449.924	109.817	-0.264	-0.323
-448.909	-200.000	0.040	-0.205
-447.895	384.500	0.029	0.061
-446.880	-91.953	-0.144	-0.042
-445.865	-61.769	-0.136	0.058
-444.851	722.447	-0.035	0.096
-443.836	350.308	-0.107	0.215
-442.822	86.638	-0.074	-0.084
-441.807	-200.000	0.050	0.284
-440.792	233.343	-0.093	-0.156
-439.778	800.000	0.061	-0.262
-438.763	-200.000	0.014	-0.118
-437.749	389.439	0.151	0.320
-436.734	-93.464	-0.183	0.052
-435.719	46.775	0.257	0.243
-434.705	-104.671	0.193	0.045
-433.690	-131.977	0.321	-0.043
-432.676	170.071	0.109	-0.159
-431.661	90.168	0.145	-0.166
-430.646	-127.159	-0.467	0.070
-429.632	-116.119	-0.092	0.017
-428.617	-94.157	-0.102	-0.028
-427.603	-159.845	0.448	-0.025
-426.588	255.391	-0.105	-0.182
-425.573	-3.914	-0.267	-0.189
-424.559	49.386	0.160	0.153
-423.544	-200.000	0.054	-0.247
-422.530	100.937	0.238	-0.282
-421.515	192.261	-0.187	-0.287
-420.500	197.015	-0.183	0.284
-419.486	-114.753	-0.399	0.078
-418.471	-86.116	0.186	-0.058
-417.457	-189.040	-0.230	-0.003
-416.442	-56.467	0.392	0.177
-415.428	800.000	-0.053	-0.213
-414.413	98.112	-0.087	-0.102
-413.398	355.168	0.164	-0.332
-412.384	102.555	-0.115	-0.137
-411.369	-200.000	0.046	-0.252
-410.355	-200.000	0.029	0.142
-409.340	-200.000	0.006	0.077
-408.325	-60.914	-0.127	0.055
-407.311	-200.000	-0.013	-0.178
-406.296	-13.427	-0.241	0.159
-405.282	-17.932	0.188	-0.120
-404.267	-26.868	0.234	-0.139
-403.252	-165.611	-0.114	-0.005
-402.238	-90.634	0.346	-0.102
-401.223	526.046	-0.079	0.190
-400.209	227.561	0.040	-0.066
-399.194	-29.784	-0.131	0.076
-398.179	-160.130	0.100	-0.006
-397.165	-111.388	-0.072	0.015
-396.150	-161.339	-0.113	-0.006
-395.136	109.960	-0.172	0.210
-394.121	19.162	0.179	0.146
-393.106	-200.000	-0.015	0.143
-392.092	175.516	0.072	0.106
-391.077	196.843	0.014	-0.022
-390.063	1.988	0.337	-0.247
-389.048	-90.048	0.286	-0.085
-388.033	-140.086	0.190	-0.020
-387.019	-200.000	-0.035	-0.316
-386.004	-50.716	0.248	0.119
-384.990	-123.844	0.098	0.016
-383.975	194.291	-0.193	-0.297
-382.960	429.415	0.107	-0.236
-381.946	800.000	-0.082	0.292
-380.931	-116.571	0.259	-0.049
-379.917	383.933	-0.167	0.351
-378.902	683.217	0.049	-0.130
-377.888	478.781	0.131	0.302
-376.873	-200.000	0.028	0.174
-375.858	-200.000	0.045	0.230
-374.844	-101.946	-0.366	0.090
-373.829	159.234	0.127	0.179
-372.815	-20.774	0.178	-0.111
-371.800	35.383	0.178	-0.159
-370.785	-72.441	0.223	-0.084
-369.771	313.249	0.077	-0.146
-368.756	-200.000	0.012	0.265
-367.742	-126.036	-0.168	-0.026
-366.727	-19.691	0.083	-0.052
-365.712	-200.000	0.009	0.174
-364.698	211.850	0.120	0.193
-363.683	800.000	0.050	-0.167
-362.669	-10.508	-0.121	-0.082
-361.654	-31.249	0.144	0.083
-360.639	323.908	0.045	0.087
-359.625	113.461	-0.103	-0.127
-358.610	-200.000	-0.014	-0.222
-357.596	-100.210	-0.214	-0.054
-356.581	-200.000	-0.016	0.153
-355.566	-46.719	0.083	-0.041
-354.552	-131.130	-0.425	-0.057
-353.537	800.000	-0.040	0.166
-352.523	-36.692	0.241	0.131
-351.508	-110.884	-0.291	-0.061
-350.493	100.932	0.039	-0.046
-349.479	5.885	-0.237	-0.178
-348.464	-200.000	0.014	0.183
-347.450	224.182	-0.148	-0.243
-346.435	-67.052	0.133	-0.053
-345.420	70.252	-0.244	0.256
-344.406	-140.369	-0.137	-0.015
-343.391	-21.596	0.322	0.199
-342.377	-75.458	-0.378	0.137
-341.362	168.151	-0.179	0.259
-340.348	-141.182	0.380	-0.039
-339.333	379.410	-0.048	-0.099
-338.318	-162.061	0.288	0.015
-337.304	221.033	-0.108	0.175
-336.289	-20.044	0.240	0.150
-335.275	-34.017	-0.314	-0.175
-334.260	-200.000	0.004	-0.326
-333.245	9.812	0.119	-0.092
-332.231	-24.152	-0.077	0.047
-331.216	-91.744	-0.055	-0.016
-330.202	-7.967	-0.220	0.151
-329.187	7.963	0.153	-0.116
-328.172	15.452	0.126	0.100
-327.158	-45.029	0.197	-0.099
-326.143	67.824	0.237	0.245
-325.129	-14.077	0.163	0.107
-324.114	150.962	-0.116	0.160
-323.099	-102.786	0.065	-0.016
-322.085	-42.523	-0.325	0.168
-321.070	-200.000	0.023	-0.359
-320.056	194.126	0.151	0.232
-319.041	-9.232	0.142	0.096
-318.026	93.176	0.167	-0.192
-317.012	-121.409	-0.234	-0.039
-315.997	79.691	0.256	0.279
-314.983	23.259	0.312	-0.260
-313.968	243.920	-0.073	-0.124
-312.953	34.010	-0.160	0.141
-311.939	-128.298	0.215	0.031
-310.924	96.371	-0.056	0.065
-309.910	317.670	0.046	0.088
-308.895	133.345	-0.118	0.155
-307.880	800.000	0.051	-0.198
-306.866	-40.915	-0.065	-0.034
-305.851	800.000	0.028	-0.115
-304.837	107.061	0.200	0.240
-303.822	-200.000	0.024	-0.315
-302.807	119.970	0.134	0.168
-301.793	-67.145	0.147	0.059
-300.778	800.000	-0.108	-0.323
-299.764	162.413	-0.296	0.421
-298.749	-200.000	-0.025	-0.326
-297.735	380.970	-0.113	0.235
-296.720	403.454	-0.071	0.151
-295.705	190.001	0.056	-0.085
-294.691	20.125	0.124	-0.102
-293.676	-200.000	-0.003	0.266
-292.662	767.783	0.085	0.234
-291.647	800.000	0.015	0.045
-290.632	302.152	0.098	0.184
-289.618	-93.648	-0.394	-0.110
-288.603	-86.437	-0.145	0.045
-287.589	35.307	0.018	0.016
-286.574	377.263	-0.146	0.301
-285.559	-60.895	0.255	-0.109
-284.545	-200.000	0.004	0.113
-283.530	-200.000	0.027	0.159
-282.516	-123.409	-0.313	-0.050
-281.501	-12.733	-0.182	0.120
-280.486	-200.000	-0.014	0.201
-279.472	-148.998	0.218	0.018
-278.457	-200.000	-0.046	-0.260
-277.443	118.838	-0.144	0.180
-276.428	10.193	0.084	0.065
-275.413	-72.673	-0.056	-0.021
-274.399	-200.000	0.000	-0.296
-273.384	-200.000	0.002	-0.156
-272.370	47.501	-0.174	-0.164
-271.355	-200.000	0.040	-0.375
-270.340	4.765	0.120	0.089
-269.326	-200.000	0.006	0.218
-268.311	-40.021	-0.336	0.177
-267.297	-200.000	-0.023	0.291
-266.282	273.764	0.182	0.325
-265.267	159.487	0.074	0.104
-264.253	-200.000	-0.001	0.125
-263.238	-113.082	-0.107	0.021
-262.224	51.420	0.188	0.181
-261.209	800.000	-0.066	0.225
-260.195	280.136	0.130	0.234
-259.180	24.724	0.323	0.271
-258.165	-200.000	0.018	-0.142
-257.151	103.615	-0.147	-0.174
-256.136	134.029	0.041	0.054
-255.122	800.000	-0.031	0.100
-254.107	767.893	-0.098	-0.269
-253.092	572.564	0.040	0.098
-252.078	-128.188	0.559	-0.081
-251.063	-113.212	0.524	-0.104
-250.049	-22.637	0.182	0.111
-249.034	-72.465	-0.266	0.099
-248.019	176.267	-0.063	-0.093
-247.005	-53.460	0.071	0.033
-245.990	-33.747	-0.029	-0.016
-244.976	-11.637	0.256	-0.170
-243.961	-30.672	-0.175	-0.100
-242.946	107.014	0.096	0.115
-241.932	-83.562	-0.304	0.098
-240.917	-200.000	-0.001	-0.057
-239.903	5.029	0.115	0.086
-238.888	-200.000	0.076	-0.372
-237.873	-200.000	-0.009	-0.218
-236.859	-200.000	0.008	0.383
-235.844	800.000	0.045	0.135
-234.830	52.682	0.282	-0.272
-233.815	292.730	-0.163	0.300
-232.800	-9.872	-0.488	-0.328
-231.786	-70.772	0.049	-0.019
-230.771	-51.786	-0.205	0.097
-229.757	78.971	0.058	-0.062
-228.742	-32.285	-0.108	-0.061
-227.727	-10.764	-0.185	-0.124
-226.713	-200.000	0.022	-0.240
-225.698	44.586	0.217	0.202
-224.684	44.194	0.107	0.099
-223.669	-67.910	0.223	0.088
-222.655	229.870	0.094	-0.155
-221.640	-92.058	0.248	0.071
-220.625	239.010	0.089	-0.149
-219.611	-97.459	0.310	-0.081
-218.596	443.610	0.030	-0.066
-217.582	-131.743	-0.121	0.016
-216.567	-123.190	0.168	-0.027
-215.552	231.082	0.244	0.404
-214.538	-200.000	0.063	0.291
-213.523	-200.000	-0.003	0.058
-212.509	309.995	-0.093	-0.177
-211.494	-200.000	0.009	0.152
-210.479	-157.348	0.338	-0.021
-209.465	119.904	0.125	0.156
-208.450	-26.102	-0.176	0.104
-207.436	11.236	0.068	-0.053
-206.421	178.155	0.076	0.112
-205.406	50.079	0.152	0.145
-204.392	-200.000	-0.034	-0.240
-203.377	642.067	0.058	-0.149
-202.363	-28.036	0.173	0.101
-201.348	7.211	-0.330	0.248
-200.333	-7.741	0.133	-0.091
-199.319	-139.077	0.333	0.036
-198.304	-119.372	0.211	0.037
-197.290	-47.258	0.270	0.133
-196.275	-28.797	0.254	-0.147
-195.260	800.000	-0.091	-0.328
-194.246	20.141	-0.048	0.039
-193.231	140.614	0.096	0.128
-192.217	-96.710	0.055	-0.015
-191.202	-108.541	-0.136	0.030
-190.187	390.835	0.050	0.104
-189.173	670.611	-0.201	0.526
-188.158	180.210	-0.266	0.393
-187.144	-36.947	0.332	-0.179
-186.129	-200.000	0.032	-0.413
-185.114	193.176	0.162	0.248
-184.100	-50.793	0.174	0.082
-183.085	229.998	0.220	0.363
-182.071	-34.486	-0.307	-0.169
-181.056	60.143	0.114	-0.114
-180.042	-200.000	-0.007	0.324
-179.027	-73.386	-0.105	0.039
-178.012	318.506	0.067	0.128
-176.998	-100.985	-0.286	0.071
-175.983	19.758	-0.123	-0.100
-174.969	-142.255	-0.216	0.021
-173.954	800.000	-0.073	-0.243
-172.939	739.583	-0.101	-0.275
-171.925	-96.058	-0.318	-0.085
-170.910	155.816	0.177	0.246
-169.896	-70.454	-0.103	-0.039
-168.881	-136.440	-0.190	-0.022
-167.866	-20.904	0.317	-0.196
-166.852	-60.601	-0.313	0.134
-165.837	254.661	-0.025	0.042
-164.823	800.000	-0.075	-0.257
-163.808	-177.361	0.305	0.008
-162.793	-34.263	0.334	-0.185
-161.779	800.000	0.072	0.282
-160.764	-200.000	-0.012	-0.246
-159.750	-46.664	-0.255	-0.126
-158.735	-46.552	-0.061	-0.030
-157.720	89.533	0.117	-0.132
-156.706	-193.969	-0.409	-0.003
-155.691	-200.000	0.035	-0.160
-154.677	315.666	-0.065	-0.124
-153.662	-93.243	0.445	-0.124
-152.647	-26.340	0.268	-0.159
-151.633	-200.000	0.012	0.311
-150.618	9.672	0.065	0.050
-149.604	39.808	-0.279	-0.252
-148.589	-97.204	-0.247	0.065
-147.574	185.082	-0.220	-0.329
-146.560	-103.533	-0.097	-0.023
-145.545	800.000	0.012	-0.040
-144.531	106.685	-0.106	0.127
-143.516	114.140	0.084	0.103
-142.502	76.641	0.282	-0.302
-141.487	-118.165	0.482	-0.087
-140.472	-78.239	-0.191	0.066
-139.458	-200.000	0.077	0.403
-138.443	-65.195	-0.404	0.164
-137.429	124.793	0.267	-0.339
-136.414	-124.989	0.366	0.057
-135.399	800.000	-0.093	0.259
-134.385	-55.764	0.336	0.151
-133.370	453.185	0.139	0.310
-132.356	-111.485	-0.227	-0.047
-131.341	-200.000	-0.001	-0.027
-130.326	35.565	0.030	-0.026
-129.312	296.796	-0.120	-0.221
-128.297	-200.000	-0.032	0.202
-127.283	-15.408	-0.328	0.211
-126.268	3.962	-0.360	-0.265
-125.253	402.722	-0.127	-0.268
-124.239	-200.000	0.021	-0.254
-123.224	-7.155	0.253	-0.173
-122.210	800.000	-0.062	0.190
