DTS Sentinel unit serial number:	SN413079Multiplexer serial number:	ORYXHardware model number:	OX4-SRSoftware version number:	ORYX F/W v4.00 Oryx Data Collector v3.7.2.0data status	okinstallation	princeton_trtdifferential loss correction	single-endedforward channel	channel 4reverse channel	N/Adate	2019/09/11time	10:47:11forward acquisition time	60.00reverse acquisition time	0.00gamma	496.2192k internal	0.2294k external	0.2294temperature offset calibration	0.9971default loss term (dB/km)	0.3790temperature slope calibration	1.0000multiplexer offset coefficient	1.0000multiplexer slope coefficient	1.0000fibre end	0.00T internal ref (°C)	36.86T ext. ref 1 (°C)	0.17T ext. ref 2 (°C)	33.64length (m)	temperature (°C)	Stokes	anti-Stokes-747.200	690.612	-0.066	-0.178
-746.185	48.803	0.066	0.063
-745.171	-181.525	-0.244	-0.005
-744.156	-89.038	-0.074	0.022
-743.142	-111.237	-0.306	-0.064
-742.127	-81.668	0.213	0.071
-741.112	-158.288	0.284	0.017
-740.098	-200.000	0.049	0.276
-739.083	-91.360	0.308	-0.090
-738.069	20.845	-0.222	-0.184
-737.054	-200.000	0.002	0.274
-736.039	42.105	-0.248	0.231
-735.025	527.696	0.192	0.462
-734.010	-200.000	0.016	-0.190
-732.996	75.863	-0.033	-0.035
-731.981	21.585	-0.084	-0.070
-730.966	-86.303	-0.147	-0.046
-729.952	-92.450	-0.193	0.055
-728.937	-84.158	-0.434	-0.141
-727.923	-153.420	0.308	0.022
-726.908	-24.261	-0.174	-0.106
-725.894	-125.965	-0.431	0.066
-724.879	-105.563	-0.146	-0.034
-723.864	-53.181	0.115	-0.054
-722.850	5.376	-0.163	-0.123
-721.835	198.926	0.025	-0.040
-720.821	-200.000	-0.488	-0.002
-719.806	-176.453	0.093	0.002
-718.791	-120.545	0.200	-0.035
-717.777	-71.995	0.394	0.150
-716.762	-200.000	-0.040	0.238
-715.748	-5.466	-0.148	-0.103
-714.733	-64.023	0.146	-0.061
-713.718	355.710	0.109	0.221
-712.704	11.792	-0.025	0.019
-711.689	-6.501	0.223	0.155
-710.675	515.413	-0.132	0.316
-709.660	-94.444	-0.255	0.071
-708.645	-105.679	-0.096	-0.022
-707.631	109.604	0.060	0.074
-706.616	2.301	-0.092	0.068
-705.602	112.495	-0.218	-0.269
-704.587	227.128	-0.162	0.270
-703.572	173.113	-0.201	0.296
-702.558	800.000	0.086	0.244
-701.543	-200.000	0.010	-0.049
-700.529	250.056	0.109	0.189
-699.514	800.000	-0.045	-0.198
-698.499	-85.950	0.171	-0.054
-697.485	147.130	-0.128	0.176
-696.470	-3.196	-0.134	-0.096
-695.456	193.809	0.173	0.268
-694.441	-200.000	0.018	-0.250
-693.426	-200.000	0.029	-0.158
-692.412	506.236	0.140	0.331
-691.397	735.137	0.060	-0.165
-690.383	-200.000	0.002	0.118
-689.368	-200.000	-0.015	-0.094
-688.354	-52.750	-0.390	-0.184
-687.339	800.000	0.033	-0.123
-686.324	609.646	0.154	-0.392
-685.310	479.995	-0.103	0.238
-684.295	800.000	0.081	0.271
-683.281	6.290	-0.421	0.319
-682.266	-118.075	0.176	0.032
-681.251	-200.000	0.003	0.104
-680.237	137.299	0.178	-0.238
-679.222	-94.086	-0.183	0.051
-678.208	301.706	-0.051	0.097
-677.193	-105.382	-0.098	0.023
-676.178	288.694	0.069	0.128
-675.164	-200.000	0.030	-0.139
-674.149	-200.000	-0.028	0.204
-673.135	-60.716	0.218	0.094
-672.120	5.116	-0.088	0.066
-671.105	160.229	0.224	0.319
-670.091	-96.175	0.545	-0.148
-669.076	-3.419	-0.314	-0.223
-668.062	67.787	0.170	-0.178
-667.047	438.626	0.111	0.247
-666.032	-92.977	0.074	-0.021
-665.018	-200.000	0.004	0.292
-664.003	14.426	0.205	0.163
-662.989	724.406	0.075	0.203
-661.974	-14.744	0.152	-0.100
-660.959	-38.075	0.091	-0.049
-659.945	50.046	0.121	0.116
-658.930	-156.073	-0.291	0.019
-657.916	-62.456	0.128	0.054
-656.901	-92.764	0.199	0.057
-655.886	-77.910	-0.228	-0.080
-654.872	42.669	-0.208	-0.193
-653.857	106.246	0.255	0.307
-652.843	-157.330	0.259	-0.016
-651.828	-200.000	0.039	0.226
-650.814	22.907	-0.124	0.104
-649.799	-181.400	-0.332	-0.007
-648.784	-82.599	-0.117	-0.038
-647.770	-98.602	-0.381	0.099
-646.755	-153.176	0.277	-0.020
-645.741	117.041	0.114	-0.142
-644.726	-94.345	0.186	0.052
-643.711	-184.714	-0.320	0.005
-642.697	592.436	-0.121	0.306
-641.682	114.826	0.127	-0.157
-640.668	147.650	-0.166	-0.228
-639.653	-200.000	0.019	-0.179
-638.638	33.767	0.108	-0.096
-637.624	-184.446	0.270	0.004
-636.609	94.584	0.140	-0.162
-635.595	-200.000	0.002	-0.210
-634.580	179.568	0.150	-0.224
-633.565	-77.003	-0.364	-0.129
-632.551	128.463	-0.081	-0.106
-631.536	-114.495	0.232	-0.045
-630.522	52.962	-0.103	0.101
-629.507	-198.938	0.138	0.001
-628.492	-200.000	0.007	0.105
-627.478	5.178	-0.079	-0.059
-626.463	800.000	0.056	0.168
-625.449	10.199	-0.103	-0.080
-624.434	-200.000	0.020	-0.271
-623.419	122.513	-0.164	-0.209
-622.405	-200.000	0.022	0.284
-621.390	173.799	0.143	0.211
-620.376	80.975	-0.350	0.384
-619.361	-177.612	-0.265	0.007
-618.346	118.923	-0.069	0.087
-617.332	-110.680	-0.444	-0.093
-616.317	148.049	0.079	-0.109
-615.303	800.000	-0.026	0.108
-614.288	800.000	-0.086	0.270
-613.273	178.001	-0.069	0.102
-612.259	-200.000	0.004	0.068
-611.244	-36.400	0.353	-0.194
-610.230	-200.000	-0.005	-0.380
-609.215	535.068	-0.057	0.138
-608.201	41.806	0.137	0.127
-607.186	76.885	0.215	0.232
-606.171	39.509	0.244	-0.222
-605.157	-200.000	0.010	0.115
-604.142	-118.970	0.169	-0.030
-603.128	154.573	0.096	0.134
-602.113	-119.493	-0.178	-0.031
-601.098	125.562	0.101	-0.129
-600.084	-141.443	0.382	-0.039
-599.069	534.185	0.115	-0.276
-598.055	165.342	0.094	-0.135
-597.040	-200.000	-0.056	0.380
-596.025	800.000	0.064	0.277
-595.011	-98.465	-0.112	0.029
-593.996	-175.056	0.023	-0.001
-592.982	-200.000	0.008	-0.067
-591.967	-106.441	-0.102	-0.023
-590.952	99.959	0.137	-0.162
-589.938	-123.411	-0.203	-0.033
-588.923	18.313	-0.039	-0.031
-587.909	-56.329	0.199	-0.090
-586.894	800.000	0.022	-0.082
-585.879	-113.199	-0.412	-0.082
-584.865	-157.685	0.015	0.001
-583.850	46.918	-0.367	-0.347
-582.836	800.000	0.005	-0.022
-581.821	-20.623	-0.066	0.041
-580.806	130.785	-0.207	-0.270
-579.792	-35.759	-0.035	0.019
-578.777	-79.608	0.178	0.061
-577.763	660.599	-0.080	0.210
-576.748	89.188	0.117	-0.132
-575.733	-105.448	-0.124	-0.029
-574.719	-200.000	0.022	-0.174
-573.704	-200.000	-0.005	0.262
-572.690	625.195	0.038	-0.098
-571.675	222.627	-0.111	-0.181
-570.661	800.000	0.062	-0.263
-569.646	-41.422	0.263	-0.137
-568.631	162.474	0.268	0.382
-567.617	-80.323	-0.499	0.169
-566.602	687.377	-0.042	0.113
-565.588	-52.389	-0.225	-0.106
-564.573	-200.000	0.004	-0.262
-563.558	-100.086	-0.138	-0.035
-562.544	204.579	0.082	0.130
-561.529	800.000	-0.038	0.166
-560.515	122.097	-0.099	-0.125
-559.500	225.628	0.158	-0.260
-558.485	166.969	-0.266	0.383
-557.471	-200.000	0.072	0.358
-556.456	435.943	0.174	0.385
-555.442	-173.385	-0.113	-0.003
-554.427	-152.982	0.226	0.016
-553.412	-102.145	-0.149	-0.036
-552.398	-130.332	-0.307	-0.042
-551.383	-104.377	-0.132	-0.031
-550.369	26.434	0.129	-0.109
-549.354	800.000	0.062	0.207
-548.339	206.274	-0.020	0.032
-547.325	-114.814	-0.368	0.071
-546.310	-200.000	0.336	-0.000
-545.296	-41.898	0.175	0.091
-544.281	60.656	0.229	-0.231
-543.266	474.709	-0.118	0.270
-542.252	-60.392	0.160	0.069
-541.237	179.508	0.117	-0.174
-540.223	-200.000	-0.090	0.459
-539.208	-51.088	-0.136	0.065
-538.193	-34.904	0.328	0.182
-537.179	-44.032	0.140	-0.071
-536.164	-70.118	0.215	-0.083
-535.150	-184.594	0.358	0.006
-534.135	642.583	-0.049	-0.128
-533.121	800.000	0.077	-0.247
-532.106	-112.985	-0.246	0.049
-531.091	-84.033	-0.181	-0.058
-530.077	-104.479	0.355	0.083
-529.062	522.157	-0.105	-0.250
-528.048	-129.505	-0.028	-0.004
-527.033	142.385	-0.132	0.178
-526.018	155.409	-0.196	-0.274
-525.004	-200.000	0.018	0.255
-523.989	105.746	0.153	0.183
-522.975	-200.000	-0.056	0.424
-521.960	-144.059	-0.163	-0.016
-520.945	800.000	-0.087	0.245
-519.931	-109.926	-0.055	0.012
-518.916	-159.787	-0.352	-0.020
-517.902	592.855	0.096	0.239
-516.887	-44.072	0.330	0.168
-515.872	-200.000	-0.031	-0.167
-514.858	-113.152	-0.105	0.021
-513.843	-173.303	0.091	-0.003
-512.829	-117.773	0.259	0.047
-511.814	768.083	-0.083	-0.228
-510.799	800.000	0.061	0.215
-509.785	-12.181	-0.121	0.080
-508.770	-78.552	0.335	-0.116
-507.756	292.390	-0.156	-0.288
-506.741	47.723	-0.090	0.085
-505.726	618.261	0.032	0.080
-504.712	-34.129	-0.265	-0.148
-503.697	-105.714	-0.321	-0.074
-502.683	-200.000	-0.003	-0.039
-501.668	-155.499	-0.236	0.015
-500.653	-136.197	0.186	-0.022
-499.639	-200.000	-0.039	0.485
-498.624	-101.399	0.158	0.039
-497.610	-200.000	0.018	-0.138
-496.595	182.031	-0.109	-0.163
-495.581	-200.000	0.022	0.374
-494.566	141.194	-0.147	0.197
-493.551	-53.654	-0.487	-0.225
-492.537	68.388	-0.195	-0.202
-491.522	-200.000	0.045	0.298
-490.508	73.619	-0.141	0.150
-489.493	800.000	-0.110	0.326
-488.478	-60.070	0.147	-0.064
-487.464	-200.000	0.001	-0.064
-486.449	-18.125	0.239	0.152
-485.435	-200.000	0.003	-0.121
-484.420	454.009	0.146	-0.327
-483.405	-200.000	-0.032	-0.199
-482.391	414.111	0.025	0.055
-481.376	-67.894	0.157	0.062
-480.362	-136.694	0.362	-0.042
-479.347	-166.453	0.377	-0.016
-478.332	115.666	0.091	-0.113
-477.318	70.702	0.178	0.187
-476.303	201.276	-0.298	-0.465
-475.289	382.215	-0.114	0.237
-474.274	125.933	-0.077	-0.099
-473.259	-200.000	0.041	-0.440
-472.245	800.000	-0.056	-0.218
-471.230	-200.000	-0.003	0.115
-470.216	-91.047	0.339	0.099
-469.201	-161.787	-0.253	-0.013
-468.186	18.271	-0.289	-0.233
-467.172	800.000	-0.060	0.182
-466.157	-105.564	-0.100	0.023
-465.143	288.589	-0.049	-0.089
-464.128	132.121	0.188	-0.246
-463.113	72.176	0.195	0.205
-462.099	-200.000	0.047	-0.272
-461.084	-200.000	-0.017	-0.537
-460.070	55.936	0.198	-0.194
-459.055	-200.000	-0.121	0.000
-458.040	800.000	0.023	0.074
-457.026	403.902	0.126	0.269
-456.011	74.263	-0.152	-0.162
-454.997	-101.191	-0.073	0.018
-453.982	223.519	-0.134	-0.219
-452.968	-102.537	0.274	-0.066
-451.953	-200.000	-0.011	-0.220
-450.938	-98.772	0.277	-0.071
-449.924	-200.000	0.017	-0.187
-448.909	800.000	0.116	0.335
-447.895	-166.645	0.097	-0.004
-446.880	-200.000	0.013	0.198
-445.865	-126.531	-0.135	0.020
-444.851	-54.936	-0.046	0.021
-443.836	-51.658	-0.256	-0.121
-442.822	-19.486	-0.129	-0.081
-441.807	-26.960	0.182	0.108
-440.792	-200.000	0.013	-0.074
-439.778	-43.764	-0.272	-0.139
-438.763	-81.479	-0.099	-0.033
-437.749	42.928	-0.183	-0.169
-436.734	-129.809	-0.082	-0.011
-435.719	-90.953	-0.445	-0.129
-434.705	281.604	-0.109	0.198
-433.690	-200.000	-0.019	-0.113
-432.676	-171.362	0.184	-0.006
-431.661	521.661	-0.046	0.109
-430.646	102.031	0.226	0.266
-429.632	-200.000	0.014	-0.153
-428.617	-200.000	-0.044	0.211
-427.603	-13.268	-0.265	-0.174
-426.588	85.736	0.181	-0.201
-425.573	-129.494	0.191	0.027
-424.559	-114.551	0.151	-0.029
-423.544	-117.035	0.179	0.033
-422.530	-67.927	-0.273	0.108
-421.515	-200.000	-0.008	0.162
-420.500	800.000	-0.046	-0.163
-419.486	-70.941	0.316	0.120
-418.471	69.237	0.092	0.096
-417.457	-95.621	-0.171	-0.046
-416.442	-200.000	-0.058	-0.324
-415.428	45.222	0.122	0.114
-414.413	800.000	-0.035	-0.153
-413.398	-200.000	-0.039	0.178
-412.384	-53.007	-0.036	-0.017
-411.369	170.727	0.037	-0.053
-410.355	800.000	-0.040	-0.112
-409.340	265.508	0.114	0.200
-408.325	800.000	-0.077	-0.306
-407.311	-200.000	-0.026	0.130
-406.296	7.223	-0.186	-0.140
-405.282	800.000	-0.113	0.389
-404.267	-95.356	0.241	0.065
-403.252	-4.893	0.132	0.091
-402.238	800.000	-0.169	-0.479
-401.223	26.896	-0.168	-0.142
-400.209	65.768	-0.025	-0.026
-399.194	-124.724	0.172	0.027
-398.179	-118.802	-0.275	0.049
-397.165	-137.812	0.321	-0.036
-396.150	57.847	0.178	-0.176
-395.136	420.840	0.161	0.348
-394.121	334.166	-0.200	0.391
-393.106	-200.000	0.083	-0.381
-392.092	0.572	0.145	-0.105
-391.077	-70.694	-0.190	0.072
-390.063	-125.727	0.145	-0.022
-389.048	14.375	-0.162	-0.128
-388.033	131.879	0.112	0.145
-387.019	-37.503	-0.188	0.101
-386.004	800.000	0.056	0.248
-384.990	146.080	0.129	-0.175
-383.975	308.281	-0.108	0.203
-382.960	18.013	-0.188	-0.151
-381.946	289.202	0.114	-0.209
-380.931	800.000	0.023	-0.064
-379.917	800.000	0.034	0.133
-378.902	264.306	-0.091	-0.160
-377.888	39.477	0.189	-0.171
-376.873	-2.496	0.197	0.139
-375.858	596.204	-0.122	-0.305
-374.844	45.810	0.166	0.155
-373.829	800.000	0.050	0.180
-372.815	-200.000	0.063	0.345
-371.800	-150.777	0.079	-0.006
-370.785	39.150	-0.060	-0.055
-369.771	39.121	0.072	0.065
-368.756	-200.000	-0.000	-0.079
-367.742	800.000	-0.041	0.130
-366.727	-152.639	0.343	-0.025
-365.712	-103.577	-0.330	-0.078
-364.698	-35.167	-0.271	0.149
-363.683	-130.109	-0.343	-0.047
-362.669	-67.992	-0.126	0.049
-361.654	47.917	0.059	-0.055
-360.639	-23.087	0.174	-0.106
-359.625	-188.296	-0.375	0.005
-358.610	-164.973	-0.081	-0.004
-357.596	-111.294	0.123	-0.025
-356.581	-200.000	-0.021	0.422
-355.566	-101.943	-0.191	-0.047
-354.552	-200.000	-0.046	0.265
-353.537	483.559	-0.207	0.473
-352.523	-76.212	0.275	-0.098
-351.508	-121.806	0.201	-0.034
-350.493	9.241	-0.056	-0.043
-349.479	800.000	0.025	-0.087
-348.464	-200.000	-0.006	0.359
-347.450	-31.628	-0.162	0.092
-346.435	381.096	0.154	-0.319
-345.420	800.000	-0.089	-0.290
-344.406	-168.889	0.100	-0.004
-343.391	-37.784	-0.148	0.079
-342.377	58.894	-0.175	0.174
-341.362	-200.000	0.021	-0.305
-340.348	800.000	0.083	-0.312
-339.333	49.601	-0.155	-0.147
-338.318	-82.368	0.117	-0.038
-337.304	-26.578	0.396	-0.233
-336.289	520.022	0.097	0.228
-335.275	93.987	-0.064	-0.073
-334.260	-169.651	0.165	0.006
-333.245	-78.635	-0.109	-0.038
-332.231	216.493	-0.073	0.117
-331.216	-23.238	0.388	0.235
-330.202	57.812	0.010	-0.010
-329.187	-200.000	-0.038	0.236
-328.172	-200.000	0.012	-0.058
-327.158	-116.625	0.060	-0.011
-326.143	-84.555	0.226	0.072
-325.129	-199.589	-0.091	0.000
-324.114	14.824	0.046	0.036
-323.099	176.685	-0.071	0.104
-322.085	178.595	-0.051	-0.074
-321.070	-200.000	0.045	0.290
-320.056	-44.750	0.247	0.124
-319.041	-171.641	-0.251	0.008
-318.026	-200.000	0.051	-0.240
-317.012	23.594	0.218	0.180
-315.997	-200.000	-0.016	-0.091
-314.983	-105.263	-0.140	-0.032
-313.968	149.725	0.163	-0.223
-312.953	-19.475	-0.102	-0.063
-311.939	119.834	-0.150	-0.187
-310.924	-200.000	-0.002	0.016
-309.910	-56.853	-0.163	0.072
-308.895	-51.908	0.144	0.067
-307.880	-200.000	0.002	-0.052
-306.866	800.000	0.047	-0.150
-305.851	800.000	0.095	0.266
-304.837	800.000	-0.053	-0.158
-303.822	49.406	-0.049	0.047
-302.807	-200.000	-0.019	0.298
-301.793	32.182	-0.055	0.047
-300.778	538.831	-0.054	-0.130
-299.764	44.982	0.152	0.140
-298.749	-76.788	-0.004	0.002
-297.735	-54.674	0.136	0.062
-296.720	-89.883	0.208	-0.061
-295.705	580.392	0.107	0.264
-294.691	285.130	0.035	-0.064
-293.676	583.864	0.133	0.328
-292.662	107.301	-0.137	-0.164
-291.647	-111.450	0.464	-0.095
-290.632	-200.000	-0.015	0.141
-289.618	169.296	-0.177	0.253
-288.603	-64.927	0.057	-0.023
-287.589	-37.761	0.439	0.235
-286.574	-23.943	-0.229	0.138
-285.559	-144.869	-0.267	-0.025
-284.545	-200.000	-0.046	-0.208
-283.530	-180.573	0.047	0.001
-282.516	-73.886	0.244	-0.089
-281.501	141.982	-0.145	0.194
-280.486	59.594	0.257	-0.255
-279.472	3.533	0.285	0.209
-278.457	-74.381	0.064	0.023
-277.443	-125.095	-0.286	-0.044
-276.428	-16.319	0.112	0.072
-275.413	-82.740	-0.121	0.039
-274.399	-200.000	0.019	-0.320
-273.384	-81.187	0.118	0.039
-272.370	-146.962	-0.265	-0.023
-271.355	-200.000	-0.028	-0.295
-270.340	-131.965	-0.240	-0.031
-269.326	-111.426	0.271	-0.055
-268.311	225.450	-0.194	-0.316
-267.297	-200.000	0.020	-0.108
-266.282	-61.572	0.151	-0.063
-265.267	-100.412	-0.211	0.052
-264.253	-200.000	0.007	0.148
-263.238	-136.809	-0.231	0.027
-262.224	800.000	0.028	0.096
-261.209	-195.390	-0.168	-0.001
-260.195	800.000	-0.051	0.190
-259.180	-152.336	-0.052	-0.004
-258.165	-200.000	-0.009	0.225
-257.151	197.018	0.147	-0.225
-256.136	140.540	0.088	-0.117
-255.122	-111.191	-0.472	0.097
-254.107	-129.729	-0.056	-0.008
-253.092	42.902	-0.117	-0.107
-252.078	800.000	0.064	-0.185
-251.063	93.572	-0.103	-0.118
-250.049	-77.873	-0.159	0.055
-249.034	83.614	0.141	0.154
-248.019	30.294	0.076	-0.065
-247.005	44.120	0.139	-0.128
-245.990	57.154	-0.260	0.254
-244.976	-200.000	0.001	0.089
-243.961	-0.417	0.166	0.118
-242.946	-69.278	0.200	-0.077
-241.932	212.845	-0.116	-0.184
-240.917	-113.427	0.200	0.039
-239.903	-79.814	0.042	0.014
-238.888	-95.049	-0.410	-0.111
-237.873	106.577	0.088	0.104
-236.859	-106.561	-0.122	0.027
-235.844	122.625	-0.186	0.233
-234.830	-17.358	0.151	-0.095
-233.815	-20.551	-0.048	0.030
-232.800	-97.858	-0.319	0.083
-231.786	-14.121	-0.215	-0.139
-230.771	-10.616	-0.272	0.181
-229.757	118.757	-0.130	0.161
-228.742	-200.000	-0.025	0.182
-227.727	-200.000	-0.001	0.049
-226.713	-200.000	-0.001	-0.045
-225.698	645.750	0.130	0.333
-224.684	147.679	-0.101	-0.137
-223.669	-155.447	-0.140	0.009
-222.655	89.762	0.072	-0.081
-221.640	145.656	0.159	0.213
-220.625	155.799	0.120	0.166
-219.611	367.222	0.082	-0.165
-218.596	800.000	0.034	-0.097
-217.582	-200.000	0.023	-0.165
-216.567	-200.000	0.047	-0.291
-215.552	-200.000	-0.003	-0.089
-214.538	109.528	-0.260	0.312
-213.523	-200.000	0.012	0.642
-212.509	-47.147	0.107	-0.052
-211.494	91.923	-0.046	-0.052
-210.479	153.391	0.045	0.062
-209.465	-61.721	0.283	-0.119
-208.450	692.624	-0.039	-0.103
-207.436	83.745	0.344	-0.376
-206.421	-118.917	0.200	-0.035
-205.406	800.000	0.052	0.172
-204.392	800.000	0.051	-0.147
-203.377	-148.880	-0.196	-0.016
-202.363	-200.000	-0.041	-0.180
-201.348	-200.000	-0.118	-0.001
-200.333	-51.577	-0.141	0.066
-199.319	-113.839	-0.247	-0.048
-198.304	-148.344	-0.161	-0.013
-197.290	-139.666	0.381	-0.041
-196.275	-200.000	-0.006	-0.171
-195.260	0.417	-0.384	0.274
-194.246	448.919	0.140	0.309
-193.231	-108.009	0.242	-0.052
-192.217	35.280	0.198	-0.174
-191.202	108.589	-0.120	-0.143
-190.187	-109.708	-0.157	0.033
-189.173	63.582	-0.198	0.199
-188.158	-37.547	-0.065	-0.034
-187.144	800.000	0.097	-0.423
-186.129	411.085	0.076	-0.162
-185.114	-134.458	-0.166	-0.020
-184.100	3.794	0.250	-0.183
-183.085	800.000	0.024	0.095
-182.071	153.044	0.263	0.359
-181.056	317.183	0.145	0.274
-180.042	46.288	-0.139	0.129
-179.027	-67.736	0.181	-0.071
-178.012	-152.604	0.161	-0.011
-176.998	-62.069	-0.079	0.033
-175.983	-81.454	-0.120	0.040
-174.969	33.468	-0.243	-0.211
-173.954	780.394	0.092	0.251
-172.939	402.302	0.219	0.461
-171.925	1.152	0.108	0.077
-170.910	-200.000	0.006	-0.102
-169.896	-41.386	-0.095	-0.049
-168.881	-17.184	-0.029	-0.019
-167.866	505.559	0.085	-0.197
-166.852	51.203	-0.211	0.200
-165.837	-159.487	0.233	-0.013
-164.823	-61.393	0.224	0.094
-163.808	-179.947	-0.143	0.003
-162.793	16.495	0.292	-0.231
-161.779	800.000	-0.038	0.133
-160.764	197.425	0.040	0.062
-159.750	-41.507	-0.179	-0.092
-158.735	-120.510	0.353	0.060
-157.720	-14.261	0.193	0.124
-156.706	28.477	0.259	0.219
-155.691	-68.309	0.162	-0.063
-154.677	800.000	-0.067	-0.269
-153.662	-58.544	-0.326	-0.142
-152.647	686.843	0.190	-0.495
-151.633	568.412	-0.115	-0.280
-150.618	328.663	0.057	0.110
-149.604	-91.010	-0.331	0.095
-148.589	-200.000	0.005	-0.284
-147.574	353.057	-0.188	0.372
-146.560	-200.000	0.007	0.206
-145.545	-152.176	-0.390	-0.028
-144.531	-120.974	0.139	0.023
-143.516	-200.000	-0.019	-0.209
-142.502	800.000	0.087	0.323
-141.487	-200.000	0.020	0.214
-140.472	-59.660	-0.244	-0.105
-139.458	800.000	0.028	-0.116
-138.443	-200.000	0.030	0.261
-137.429	-85.618	0.111	-0.034
-136.414	-183.279	-0.103	0.002
-135.399	-14.565	0.148	0.095
-134.385	-55.695	0.075	0.033
-133.370	71.861	0.016	0.016
-132.356	800.000	0.087	0.253
-131.341	18.101	0.088	-0.070
-130.326	800.000	-0.013	-0.037
-129.312	-3.967	0.124	0.086
-128.297	-64.016	0.124	-0.051
-127.283	-0.868	-0.090	0.064
-126.268	-200.000	-0.010	0.152
-125.253	-56.409	0.080	0.036
-124.239	-200.000	-0.033	-0.150
-123.224	21.401	-0.032	-0.026
-122.210	37.724	0.096	-0.085
