DTS Sentinel unit serial number:	SN413079Multiplexer serial number:	ORYXHardware model number:	OX4-SRSoftware version number:	ORYX F/W v4.00 Oryx Data Collector v3.7.2.0data status	okinstallation	princeton_trtdifferential loss correction	single-endedforward channel	channel 4reverse channel	N/Adate	2019/09/11time	23:39:10forward acquisition time	60.00reverse acquisition time	0.00gamma	496.2192k internal	0.2309k external	0.2309temperature offset calibration	1.0076default loss term (dB/km)	0.3790temperature slope calibration	1.0000multiplexer offset coefficient	1.0000multiplexer slope coefficient	1.0000fibre end	0.00T internal ref (°C)	34.12T ext. ref 1 (°C)	1.88T ext. ref 2 (°C)	28.53length (m)	temperature (°C)	Stokes	anti-Stokes-747.200	-200.000	-0.076	0.353
-746.185	-22.664	-0.207	0.127
-745.171	78.892	-0.217	0.236
-744.156	-110.973	0.384	0.080
-743.142	4.646	0.186	-0.139
-742.127	-200.000	0.005	0.066
-741.112	-200.000	-0.011	0.214
-740.098	-200.000	-0.025	0.552
-739.083	9.010	0.066	0.050
-738.069	800.000	-0.053	0.212
-737.054	800.000	-0.089	-0.350
-736.039	529.088	-0.040	-0.096
-735.025	61.838	0.122	0.123
-734.010	-98.984	-0.400	0.103
-732.996	-173.198	-0.204	0.006
-731.981	461.726	0.099	0.224
-730.966	119.169	-0.184	0.231
-729.952	110.330	-0.127	-0.155
-728.937	60.410	0.060	-0.060
-727.923	-200.000	-0.011	-0.248
-726.908	-15.489	-0.200	0.129
-725.894	-52.002	-0.147	-0.069
-724.879	163.860	-0.152	-0.218
-723.864	17.669	0.027	-0.021
-722.850	-200.000	-0.016	-0.239
-721.835	39.624	-0.024	0.022
-720.821	800.000	-0.039	-0.165
-719.806	259.517	0.110	0.194
-718.791	405.438	-0.061	0.131
-717.777	-0.228	0.204	-0.148
-716.762	800.000	0.067	-0.199
-715.748	51.406	-0.259	-0.249
-714.733	21.652	-0.088	-0.072
-713.718	77.781	-0.312	0.338
-712.704	9.816	-0.325	-0.250
-711.689	-19.467	0.208	0.131
-710.675	-200.000	0.012	-0.183
-709.660	469.415	-0.143	0.327
-708.645	800.000	-0.171	-0.539
-707.631	-200.000	0.019	0.254
-706.616	-163.385	-0.104	0.005
-705.602	253.763	-0.083	0.144
-704.587	73.198	-0.014	0.015
-703.572	5.220	-0.362	0.270
-702.558	324.363	-0.065	-0.127
-701.543	75.964	-0.226	-0.243
-700.529	-200.000	0.005	0.088
-699.514	257.537	0.151	-0.263
-698.499	-200.000	0.005	-0.344
-697.485	-105.519	0.368	-0.085
-696.470	207.107	0.014	0.022
-695.456	2.922	0.169	0.124
-694.441	49.247	0.258	-0.246
-693.426	747.643	-0.044	0.119
-692.412	75.372	-0.064	-0.069
-691.397	800.000	-0.076	-0.309
-690.383	-95.386	-0.106	0.029
-689.368	83.255	-0.140	0.155
-688.354	800.000	0.118	-0.396
-687.339	-200.000	0.077	-0.403
-686.324	158.800	-0.227	-0.320
-685.310	-94.383	0.136	-0.038
-684.295	800.000	-0.037	-0.104
-683.281	358.446	-0.090	0.181
-682.266	-154.360	-0.446	0.030
-681.251	800.000	-0.147	-0.464
-680.237	-200.000	0.033	-0.232
-679.222	39.093	-0.286	0.259
-678.208	-127.635	-0.295	0.043
-677.193	-121.516	0.370	0.062
-676.178	800.000	-0.107	-0.329
-675.164	-120.909	0.466	0.079
-674.149	-134.071	-0.104	0.013
-673.135	-97.481	-0.038	0.010
-672.120	-200.000	-0.023	-0.170
-671.105	316.230	-0.068	0.131
-670.091	-8.347	-0.185	-0.126
-669.076	-6.438	0.180	-0.125
-668.062	326.982	0.123	0.239
-667.047	-52.272	-0.217	0.102
-666.032	-24.773	-0.033	-0.020
-665.018	800.000	0.023	0.092
-664.003	48.055	0.202	0.191
-662.989	7.399	0.194	0.147
-661.974	292.396	-0.085	-0.157
-660.959	373.011	-0.120	-0.246
-659.945	800.000	-0.057	0.165
-658.930	-85.859	-0.139	0.044
-657.916	-200.000	-0.006	-0.051
-656.901	34.946	-0.112	0.099
-655.886	51.960	0.108	-0.104
-654.872	-34.047	-0.568	-0.316
-653.857	-23.801	0.529	0.321
-652.843	-200.000	-0.048	0.303
-651.828	-80.218	-0.221	-0.075
-650.814	65.421	0.051	-0.053
-649.799	-200.000	-0.061	-0.312
-648.784	800.000	0.047	0.163
-647.770	-84.516	-0.391	-0.125
-646.755	51.878	0.169	-0.163
-645.741	-200.000	0.006	0.123
-644.726	-23.383	-0.096	0.059
-643.711	355.611	0.103	-0.208
-642.697	-200.000	-0.003	-0.335
-641.682	-17.570	-0.222	0.141
-640.668	-200.000	0.025	0.313
-639.653	186.672	0.178	-0.269
-638.638	54.884	0.317	-0.310
-637.624	800.000	-0.069	0.208
-636.609	-143.502	0.172	-0.017
-635.595	16.183	0.238	-0.190
-634.580	800.000	0.101	-0.295
-633.565	57.355	0.149	0.147
-632.551	238.814	0.060	0.102
-631.536	800.000	0.055	-0.158
-630.522	9.998	0.223	-0.171
-629.507	-102.458	-0.060	0.014
-628.492	800.000	-0.129	-0.463
-627.478	800.000	0.057	-0.161
-626.463	-200.000	0.028	0.225
-625.449	-50.244	0.284	-0.136
-624.434	-26.251	-0.302	0.179
-623.419	3.625	-0.121	-0.089
-622.405	3.439	0.145	0.107
-621.390	-37.114	0.259	0.140
-620.376	-15.814	-0.218	0.140
-619.361	146.252	-0.176	0.239
-618.346	23.924	-0.229	0.191
-617.332	31.382	-0.114	-0.099
-616.317	182.759	0.218	0.324
-615.303	-200.000	-0.047	-0.387
-614.288	-200.000	0.028	0.439
-613.273	-19.734	0.150	0.094
-612.259	800.000	0.153	-0.443
-611.244	-152.802	-0.391	-0.028
-610.230	-85.980	0.157	0.049
-609.215	-153.378	0.073	0.005
-608.201	-9.885	0.177	-0.119
-607.186	-200.000	0.529	-0.002
-606.171	-200.000	-0.013	-0.171
-605.157	-15.945	-0.346	-0.223
-604.142	145.924	-0.077	0.104
-603.128	28.751	-0.168	0.143
-602.113	-200.000	-0.065	-0.385
-601.098	-35.266	-0.168	0.092
-600.084	-200.000	-0.010	-0.120
-599.069	557.126	-0.066	0.162
-598.055	-9.043	-0.119	0.080
-597.040	414.879	-0.038	-0.083
-596.025	9.074	-0.068	0.052
-595.011	96.792	-0.100	-0.116
-593.996	-200.000	-0.025	-0.195
-592.982	800.000	0.050	0.160
-591.967	-200.000	0.025	-0.341
-590.952	82.910	-0.205	-0.226
-589.938	117.888	0.110	-0.136
-588.923	118.345	-0.106	-0.132
-587.909	-182.723	-0.040	-0.001
-586.894	25.234	-0.254	-0.213
-585.879	-200.000	-0.045	-0.205
-584.865	-78.182	0.051	0.018
-583.850	-92.486	0.265	0.075
-582.836	-198.446	-0.133	-0.001
-581.821	205.713	-0.053	-0.083
-580.806	-200.000	0.010	0.222
-579.792	33.036	-0.228	-0.200
-578.777	446.676	-0.076	-0.169
-577.763	-143.362	0.288	-0.028
-576.748	-200.000	-0.046	-0.307
-575.733	-27.187	0.130	0.077
-574.719	69.742	-0.051	0.053
-573.704	12.345	-0.300	-0.233
-572.690	-61.233	-0.035	-0.015
-571.675	583.925	0.041	0.101
-570.661	-23.994	0.207	-0.125
-569.646	-200.000	0.022	-0.294
-568.631	83.268	-0.219	-0.241
-567.617	-77.292	0.188	0.066
-566.602	-115.383	-0.175	0.033
-565.588	7.973	0.161	-0.122
-564.573	678.930	0.023	0.061
-563.558	-78.624	-0.029	0.010
-562.544	82.609	-0.099	0.108
-561.529	133.184	-0.071	-0.092
-560.515	-158.234	-0.260	-0.015
-559.500	9.842	0.183	0.140
-558.485	-152.728	0.299	0.021
-557.471	800.000	-0.028	-0.108
-556.456	206.937	0.097	0.152
-555.442	-99.804	0.244	-0.062
-554.427	266.705	0.076	-0.134
-553.412	-126.362	0.143	-0.021
-552.398	-200.000	-0.015	0.174
-551.383	118.126	-0.281	0.349
-550.369	50.487	0.247	0.236
-549.354	800.000	0.049	0.156
-548.339	352.437	-0.127	0.253
-547.325	90.510	-0.295	-0.333
-546.310	-89.039	-0.220	0.065
-545.296	-164.207	-0.141	0.007
-544.281	238.271	-0.098	0.164
-543.266	798.285	0.025	0.069
-542.252	-200.000	-0.011	-0.237
-541.237	179.437	-0.131	-0.193
-540.223	-174.259	0.138	-0.004
-539.208	-66.836	-0.185	0.074
-538.193	452.919	0.117	0.261
-537.179	23.188	0.107	-0.089
-536.164	-140.666	0.349	0.036
-535.150	511.313	0.113	-0.265
-534.135	150.360	0.098	0.134
-533.121	-32.691	0.019	0.011
-532.106	-162.344	-0.416	0.021
-531.091	42.082	-0.267	0.244
-530.077	800.000	0.079	0.289
-529.062	-187.183	-0.454	0.006
-528.048	-22.008	-0.207	-0.126
-527.033	800.000	-0.033	-0.111
-526.018	-58.793	0.048	-0.021
-525.004	448.306	0.039	0.088
-523.989	-162.885	-0.282	-0.014
-522.975	678.419	-0.011	-0.029
-521.960	-2.476	-0.191	-0.135
-520.945	800.000	-0.021	-0.069
-519.931	-157.809	0.119	0.007
-518.916	-200.000	-0.042	-0.190
-517.902	-200.000	0.080	-0.443
-516.887	228.830	0.035	0.058
-515.872	-152.049	0.153	0.011
-514.858	-14.124	-0.404	0.263
-513.843	243.948	-0.069	0.117
-512.829	116.085	0.139	0.172
-511.814	-200.000	-0.018	-0.160
-510.799	-144.771	-0.180	0.017
-509.785	-148.007	-0.292	0.024
-508.770	-200.000	0.060	0.306
-507.756	172.040	-0.084	0.122
-506.741	-177.881	0.085	-0.002
-505.726	139.889	0.082	0.109
-504.712	119.042	-0.148	0.184
-503.697	-39.509	-0.231	-0.122
-502.683	57.969	0.107	-0.106
-501.668	800.000	-0.132	0.375
-500.653	-29.900	-0.233	0.133
-499.639	-141.744	0.101	0.010
-498.624	49.710	0.059	-0.056
-497.610	-200.000	-0.029	-0.229
-496.595	96.110	0.266	-0.306
-495.581	153.093	0.155	0.213
-494.566	-54.238	-0.359	0.164
-493.551	-151.068	0.145	-0.011
-492.537	-200.000	-0.045	-0.208
-491.522	-167.840	0.629	-0.025
-490.508	190.008	0.093	-0.141
-489.493	631.738	0.069	0.176
-488.478	-200.000	-0.024	0.501
-487.464	-102.422	-0.097	0.023
-486.449	-200.000	-0.037	0.193
-485.435	800.000	-0.012	-0.039
-484.420	-116.049	0.083	0.016
-483.405	-75.121	0.202	-0.073
-482.391	71.856	-0.266	-0.278
-481.376	-33.278	-0.194	0.108
-480.362	-124.526	0.354	0.055
-479.347	27.842	0.173	-0.146
-478.332	-33.053	0.284	0.159
-477.318	-87.446	0.217	0.066
-476.303	-40.122	0.214	0.112
-475.289	27.361	0.131	0.111
-474.274	10.155	0.227	0.174
-473.259	-50.208	-0.147	0.070
-472.245	267.803	0.017	-0.030
-471.230	-84.680	-0.273	-0.086
-470.216	-111.963	-0.129	0.026
-469.201	362.769	0.125	0.253
-468.186	-84.976	0.139	-0.044
-467.172	-200.000	0.003	-0.155
-466.157	774.124	-0.072	0.197
-465.143	-107.791	-0.068	-0.015
-464.128	-100.241	-0.152	-0.038
-463.113	800.000	0.133	-0.391
-462.099	774.794	-0.105	0.288
-461.084	501.772	0.065	-0.150
-460.070	-200.000	0.001	-0.025
-459.055	646.993	0.092	-0.236
-458.040	-149.375	0.264	0.021
-457.026	-115.722	-0.470	-0.089
-456.011	-200.000	-0.018	-0.145
-454.997	-200.000	0.067	0.319
-453.982	-200.000	-0.030	0.269
-452.968	-82.881	-0.475	0.154
-451.953	800.000	0.119	-0.346
-450.938	800.000	0.107	-0.339
-449.924	-200.000	0.010	0.129
-448.909	-78.378	0.193	-0.067
-447.895	348.283	-0.101	-0.200
-446.880	800.000	-0.076	0.308
-445.865	231.706	0.165	-0.272
-444.851	108.342	0.123	-0.147
-443.836	-200.000	-0.045	0.253
-442.822	628.487	0.127	-0.323
-441.807	31.840	0.066	0.057
-440.792	114.021	-0.162	-0.198
-439.778	121.563	-0.206	0.258
-438.763	800.000	-0.092	0.347
-437.749	-103.932	0.087	0.020
-436.734	-200.000	0.112	0.501
-435.719	-37.148	-0.228	0.122
-434.705	479.535	-0.119	-0.270
-433.690	-92.400	-0.139	-0.039
-432.676	44.667	-0.082	-0.076
-431.661	-200.000	-0.020	0.161
-430.646	-200.000	-0.200	0.001
-429.632	-5.171	-0.087	-0.060
-428.617	593.194	0.055	0.138
-427.603	-200.000	-0.036	0.371
-426.588	191.355	0.075	-0.114
-425.573	10.535	-0.022	-0.017
-424.559	331.365	-0.011	-0.020
-423.544	-200.000	0.006	0.199
-422.530	76.313	0.106	0.112
-421.515	-147.856	0.057	0.005
-420.500	753.283	0.191	-0.519
-419.486	41.618	-0.365	-0.332
-418.471	-200.000	0.008	0.111
-417.457	35.253	-0.240	-0.211
-416.442	354.913	0.085	-0.170
-415.428	129.874	-0.171	0.220
-414.413	-200.000	-0.064	0.315
-413.398	800.000	0.090	0.322
-412.384	800.000	-0.098	0.369
-411.369	-20.896	-0.383	0.235
-410.355	393.968	-0.079	0.164
-409.340	296.866	-0.116	-0.214
-408.325	271.363	-0.100	-0.177
-407.311	99.659	0.164	0.190
-406.296	-200.000	-0.032	0.202
-405.282	149.275	0.260	0.352
-404.267	613.350	0.108	-0.271
-403.252	53.416	0.235	0.226
-402.238	-16.356	-0.219	0.139
-401.223	800.000	-0.041	-0.136
-400.209	-63.604	0.038	-0.016
-399.194	89.835	-0.294	-0.330
-398.179	-131.752	0.273	-0.036
-397.165	66.708	-0.212	0.216
-396.150	-200.000	0.034	-0.264
-395.136	92.469	-0.194	0.219
-394.121	-99.655	-0.159	0.040
-393.106	-112.013	-0.089	-0.018
-392.092	28.647	0.224	0.190
-391.077	800.000	0.042	-0.147
-390.063	308.893	0.068	-0.128
-389.048	96.003	-0.034	-0.039
-388.033	800.000	0.008	0.031
-387.019	-200.000	0.038	0.197
-386.004	515.763	0.093	0.218
-384.990	97.066	-0.125	-0.144
-383.975	-1.428	-0.193	-0.136
-382.960	-124.307	-0.299	0.047
-381.946	119.189	0.303	0.376
-380.931	114.568	0.220	0.269
-379.917	121.713	0.102	0.128
-378.902	-80.958	0.216	0.072
-377.888	112.673	0.059	-0.071
-376.873	-200.000	0.002	0.090
-375.858	227.216	-0.131	0.214
-374.844	201.531	-0.176	-0.272
-373.829	-200.000	0.043	-0.214
-372.815	800.000	0.005	-0.020
-371.800	-200.000	0.021	0.127
-370.785	72.825	-0.147	-0.154
-369.771	-57.522	-0.170	-0.075
-368.756	246.473	-0.038	-0.064
-367.742	-122.676	-0.237	0.039
-366.727	-86.565	0.105	-0.032
-365.712	-200.000	-0.061	-0.270
-364.698	380.181	-0.093	0.191
-363.683	-42.018	0.185	-0.095
-362.669	196.285	-0.221	-0.336
-361.654	-141.753	-0.195	-0.020
-360.639	-28.748	-0.080	-0.046
-359.625	800.000	0.045	-0.159
-358.610	-81.331	0.251	-0.083
-357.596	-179.625	-0.110	-0.002
-356.581	253.893	0.036	-0.061
-355.566	754.860	0.042	0.114
-354.552	14.768	-0.213	0.167
-353.537	-110.395	0.153	-0.032
-352.523	45.385	0.104	-0.096
-351.508	660.912	0.145	-0.374
-350.493	2.730	-0.195	-0.142
-349.479	38.362	0.085	-0.075
-348.464	234.127	-0.182	0.300
-347.450	-71.349	0.173	-0.065
-346.435	-200.000	-0.032	0.168
-345.420	-200.000	0.031	-0.443
-344.406	-145.047	0.205	0.019
-343.391	-68.418	-0.065	0.025
-342.377	-54.282	-0.135	0.061
-341.362	341.554	0.061	0.119
-340.348	-63.637	0.307	0.126
-339.333	-64.056	0.297	0.121
-338.318	88.000	0.172	-0.191
-337.304	41.975	0.081	0.073
-336.289	-20.830	-0.221	0.135
-335.275	800.000	0.008	0.027
-334.260	251.273	0.180	-0.306
-333.245	-86.836	-0.244	0.074
-332.231	163.228	0.129	-0.182
-331.216	-200.000	-0.014	-0.096
-330.202	-190.002	0.065	-0.001
-329.187	129.020	-0.138	-0.177
-328.172	-200.000	0.055	-0.247
-327.158	161.523	-0.296	0.413
-326.143	-45.534	-0.345	-0.171
-325.129	110.301	-0.104	0.125
-324.114	-108.325	0.145	-0.031
-323.099	53.650	-0.200	-0.192
-322.085	194.054	-0.107	0.163
-321.070	-24.280	-0.021	0.013
-320.056	-200.000	-0.028	-0.188
-319.041	-17.991	0.058	-0.036
-318.026	800.000	-0.087	-0.242
-317.012	-200.000	0.048	-0.223
-315.997	-178.472	0.289	0.007
-314.983	-200.000	-0.010	-0.114
-313.968	1.395	0.057	0.041
-312.953	24.738	0.139	-0.115
-311.939	-95.353	0.159	-0.043
-310.924	-200.000	0.082	-0.378
-309.910	-37.559	-0.092	0.049
-308.895	88.930	0.217	0.241
-307.880	34.362	-0.103	-0.089
-306.866	-200.000	-0.022	-0.232
-305.851	-120.229	0.104	0.018
-304.837	-137.220	0.132	-0.015
-303.822	383.541	0.112	-0.231
-302.807	15.978	0.296	0.233
-301.793	-94.702	0.227	-0.061
-300.778	-87.306	-0.244	0.074
-299.764	-93.020	-0.042	0.012
-298.749	265.515	-0.121	-0.211
-297.735	56.897	-0.113	-0.110
-296.720	-200.000	0.067	0.354
-295.705	-71.725	-0.129	-0.048
-294.691	800.000	-0.104	0.439
-293.676	54.623	0.220	-0.212
-292.662	311.471	-0.042	-0.079
-291.647	80.508	-0.227	0.244
-290.632	146.699	-0.024	-0.032
-289.618	-200.000	-0.067	0.336
-288.603	-86.599	-0.098	0.030
-287.589	-123.345	0.498	-0.079
-286.574	64.151	0.193	0.194
-285.559	40.688	0.133	0.120
-284.545	-200.000	-0.035	-0.480
-283.530	1.534	0.181	0.130
-282.516	-62.517	0.105	0.044
-281.501	-47.730	-0.164	-0.080
-280.486	-200.000	-0.001	-0.046
-279.472	410.454	0.165	-0.350
-278.457	-67.125	0.119	0.047
-277.443	132.041	-0.280	0.360
-276.428	-200.000	-0.012	-0.054
-275.413	800.000	-0.166	0.460
-274.399	-119.988	0.438	0.075
-273.384	-59.016	-0.238	0.102
-272.370	-56.770	0.124	-0.055
-271.355	-200.000	0.009	0.334
-270.340	-147.713	-0.221	0.019
-269.326	44.795	-0.104	-0.095
-268.311	-200.000	0.044	0.309
-267.297	-140.592	0.265	0.027
-266.282	-200.000	-0.034	0.196
-265.267	-33.897	0.294	0.161
-264.253	800.000	-0.033	-0.118
-263.238	-133.405	-0.203	0.026
-262.224	-71.485	0.303	0.113
-261.209	188.154	0.168	-0.250
-260.195	47.691	-0.080	-0.075
-259.180	-23.489	0.405	-0.242
-258.165	-200.000	0.017	0.207
-257.151	-131.073	-0.290	-0.039
-256.136	-63.066	-0.235	-0.097
-255.122	203.292	-0.164	-0.253
-254.107	-52.978	0.415	-0.190
-253.092	-18.124	0.306	-0.191
-252.078	-66.824	0.129	-0.051
-251.063	-200.000	-0.002	0.441
-250.049	-53.466	-0.168	0.077
-249.034	-187.971	0.240	-0.003
-248.019	-47.650	-0.147	-0.071
-247.005	-200.000	0.047	0.222
-245.990	-200.000	0.010	-0.133
-244.976	800.000	0.051	0.146
-243.961	-95.056	-0.210	-0.057
-242.946	86.664	0.094	0.103
-241.932	-126.373	0.229	-0.034
-240.917	131.675	0.073	0.093
-239.903	19.792	-0.119	0.096
-238.888	102.839	0.243	0.283
-237.873	162.042	0.142	0.198
-236.859	-52.944	0.111	0.051
-235.844	-28.117	0.235	0.136
-234.830	-200.000	-0.043	-0.208
-233.815	-200.000	0.016	-0.124
-232.800	143.738	-0.025	0.033
-231.786	-161.895	-0.170	0.009
-230.771	88.544	-0.135	0.150
-229.757	-82.071	-0.375	0.122
-228.742	-52.732	0.066	0.030
-227.727	167.764	-0.094	0.134
-226.713	-59.168	-0.230	0.099
-225.698	800.000	-0.118	0.336
-224.684	-129.309	0.094	-0.013
-223.669	-132.260	-0.333	0.043
-222.655	-200.000	0.048	0.246
-221.640	-169.607	-0.089	0.003
-220.625	66.497	0.083	0.084
-219.611	148.040	-0.068	-0.091
-218.596	-100.203	0.117	0.029
-217.582	-97.477	0.138	-0.036
-216.567	-200.000	-0.031	-0.244
-215.552	207.684	-0.159	0.248
-214.538	660.415	0.060	-0.153
-213.523	-5.228	0.023	0.016
-212.509	-191.220	-0.147	0.001
-211.494	-138.711	0.172	-0.019
-210.479	57.249	-0.111	-0.108
-209.465	-187.606	0.204	-0.003
-208.450	-34.389	-0.172	-0.094
-207.436	-200.000	0.020	0.299
-206.421	490.758	-0.047	-0.107
-205.406	15.131	0.194	0.151
-204.392	800.000	-0.044	-0.128
-203.377	-63.437	0.343	0.140
-202.363	-83.980	0.174	-0.055
-201.348	46.891	0.094	-0.087
-200.333	149.610	0.106	0.143
-199.319	-92.392	0.419	-0.117
-198.304	41.173	0.200	0.180
-197.290	800.000	-0.045	-0.178
-196.275	-54.742	-0.187	-0.084
-195.260	-200.000	-0.024	0.113
-194.246	-89.711	-0.551	-0.161
-193.231	406.313	-0.075	-0.158
-192.217	-115.585	0.327	-0.061
-191.202	159.887	-0.023	0.031
-190.187	-113.784	-0.158	-0.031
-189.173	800.000	-0.037	-0.110
-188.158	-22.681	-0.065	0.039
-187.144	37.900	-0.035	0.031
-186.129	800.000	0.078	-0.217
-185.114	134.895	0.189	0.244
-184.100	-99.738	-0.207	0.051
-183.085	262.264	-0.039	0.067
-182.071	201.763	-0.065	-0.099
-181.056	-200.000	-0.023	-0.115
-180.042	207.212	-0.096	-0.149
-179.027	156.354	0.183	0.252
-178.012	-44.567	0.176	-0.088
-176.998	-88.520	-0.135	-0.040
-175.983	-29.350	0.202	0.115
-174.969	-39.586	0.130	0.068
-173.954	14.639	-0.189	0.147
-172.939	34.224	-0.104	-0.090
-171.925	-31.780	-0.118	-0.066
-170.910	-108.424	-0.228	0.049
-169.896	23.411	-0.181	-0.148
-168.881	-200.000	0.014	-0.117
-167.866	338.754	-0.023	0.044
-166.852	-95.001	-0.250	0.067
-165.837	-12.561	0.304	-0.197
-164.823	800.000	0.053	-0.208
-163.808	-58.116	-0.194	0.084
-162.793	232.036	0.219	-0.358
-161.779	-130.652	0.136	0.018
-160.764	800.000	-0.118	-0.323
-159.750	178.382	0.064	-0.093
-158.735	-200.000	0.013	0.099
-157.720	-115.736	0.259	-0.048
-156.706	-200.000	0.029	0.402
-155.691	49.664	-0.139	0.130
-154.677	800.000	0.013	0.046
-153.662	800.000	0.033	-0.139
-152.647	-200.000	-0.055	0.308
-151.633	-130.365	0.393	-0.053
-150.618	329.615	0.064	-0.122
-149.604	-86.652	0.088	0.027
-148.589	34.314	-0.080	-0.070
-147.574	800.000	-0.084	0.295
-146.560	-115.203	0.416	0.078
-145.545	-155.927	0.303	0.019
-144.531	33.713	-0.067	0.058
-143.516	24.174	0.212	-0.174
-142.502	567.880	0.120	0.289
-141.487	-71.650	-0.086	-0.032
-140.472	61.307	0.100	0.099
-139.458	105.170	0.115	-0.134
-138.443	-91.841	0.280	-0.079
-137.429	800.000	-0.060	-0.212
-136.414	-85.065	-0.279	-0.087
-135.399	-86.384	-0.180	0.055
-134.385	98.045	-0.179	0.205
-133.370	-6.764	0.299	0.202
-132.356	800.000	0.019	-0.074
-131.341	800.000	0.030	0.108
-130.326	-45.300	0.232	-0.114
-129.312	-200.000	0.032	0.162
-128.297	-200.000	0.003	-0.461
-127.283	-103.902	-0.301	-0.070
-126.268	-119.904	-0.250	-0.043
-125.253	-107.147	0.055	-0.012
-124.239	29.842	-0.138	0.116
-123.224	-200.000	-0.008	-0.096
-122.210	-110.980	0.118	0.024
-121.195	42.018	-0.100	0.090
