DTS Sentinel unit serial number:	SN413079Multiplexer serial number:	ORYXHardware model number:	OX4-SRSoftware version number:	ORYX F/W v4.00 Oryx Data Collector v3.7.2.0data status	okinstallation	princeton_trtdifferential loss correction	single-endedforward channel	channel 4reverse channel	N/Adate	2019/09/10time	23:03:11forward acquisition time	60.00reverse acquisition time	0.00gamma	496.2192k internal	0.2317k external	0.2317temperature offset calibration	0.9952default loss term (dB/km)	0.3790temperature slope calibration	1.0000multiplexer offset coefficient	1.0000multiplexer slope coefficient	1.0000fibre end	0.00T internal ref (°C)	30.00T ext. ref 1 (°C)	-0.31T ext. ref 2 (°C)	23.55length (m)	temperature (°C)	Stokes	anti-Stokes-747.200	226.609	-0.100	-0.164
-746.185	-113.188	0.299	0.060
-745.171	8.276	0.255	0.194
-744.156	-200.000	0.011	-0.208
-743.142	255.039	-0.029	0.051
-742.127	131.476	-0.294	0.382
-741.112	51.775	-0.083	-0.080
-740.098	-143.688	-0.065	-0.006
-739.083	454.318	0.156	0.349
-738.069	-200.000	-0.009	0.171
-737.054	-200.000	-0.069	-0.318
-736.039	-83.725	-0.178	-0.057
-735.025	150.437	0.243	0.335
-734.010	-175.878	-0.230	-0.006
-732.996	-93.201	-0.508	0.143
-731.981	-77.454	-0.164	0.058
-730.966	13.636	0.119	0.093
-729.952	-145.057	-0.143	0.013
-728.937	27.058	-0.248	0.211
-727.923	80.185	0.025	0.027
-726.908	800.000	0.031	-0.121
-725.894	76.149	-0.211	0.226
-724.879	657.590	-0.036	-0.094
-723.864	-47.130	-0.455	-0.225
-722.850	133.358	0.171	-0.224
-721.835	-116.537	-0.169	-0.032
-720.821	280.689	-0.118	-0.213
-719.806	-200.000	-0.024	-0.386
-718.791	-77.276	0.289	0.102
-717.777	800.000	-0.202	-0.740
-716.762	277.222	-0.222	-0.400
-715.748	3.247	-0.163	-0.120
-714.733	553.914	0.076	-0.185
-713.718	-24.569	-0.176	0.106
-712.704	-38.221	0.112	0.060
-711.689	-200.000	0.011	-0.158
-710.675	-61.202	0.033	-0.014
-709.660	126.729	0.235	-0.301
-708.645	19.509	0.174	-0.142
-707.631	-200.000	0.053	-0.259
-706.616	-108.068	0.424	-0.093
-705.602	-136.348	-0.469	-0.055
-704.587	-200.000	-0.023	0.184
-703.572	19.698	-0.088	-0.072
-702.558	-98.681	-0.005	0.001
-701.543	-64.086	0.166	-0.068
-700.529	800.000	-0.015	-0.060
-699.514	-88.010	-0.209	-0.064
-698.499	25.341	0.233	-0.195
-697.485	-200.000	0.017	0.424
-696.470	614.046	-0.081	-0.205
-695.456	-11.829	-0.071	0.047
-694.441	59.194	-0.135	-0.135
-693.426	-200.000	-0.006	0.025
-692.412	408.398	0.165	0.353
-691.397	74.292	-0.198	-0.210
-690.383	72.956	0.110	0.117
-689.368	-104.914	0.093	-0.022
-688.354	36.446	-0.074	0.066
-687.339	-107.083	-0.027	0.006
-686.324	-200.000	-0.033	-0.147
-685.310	757.027	0.071	0.194
-684.295	-163.950	-0.281	0.013
-683.281	-55.993	0.176	-0.079
-682.266	111.388	0.229	-0.279
-681.251	-176.277	-0.353	-0.009
-680.237	-28.252	0.128	0.075
-679.222	-200.000	0.044	0.280
-678.208	319.009	0.148	-0.283
-677.193	-113.290	0.228	0.045
-676.178	-200.000	0.017	0.122
-675.164	-68.886	0.167	-0.065
-674.149	156.987	-0.087	-0.122
-673.135	30.538	-0.121	0.105
-672.120	-71.585	-0.228	-0.086
-671.105	-173.650	-0.083	-0.003
-670.091	370.715	0.150	0.308
-669.076	800.000	0.049	0.144
-668.062	-138.231	-0.131	-0.015
-667.047	-38.777	-0.466	-0.248
-666.032	89.195	0.035	0.039
-665.018	-128.767	0.411	0.058
-664.003	-112.660	0.195	-0.039
-662.989	53.658	0.269	0.261
-661.974	242.056	0.127	0.214
-660.959	5.623	-0.194	0.145
-659.945	-43.642	-0.179	0.091
-658.930	561.550	0.172	0.420
-657.916	-55.467	-0.346	-0.157
-656.901	-200.000	0.065	-0.382
-655.886	-17.615	0.233	0.148
-654.872	-185.805	0.237	0.004
-653.857	555.702	-0.176	-0.427
-652.843	-68.027	0.110	-0.043
-651.828	-88.933	0.227	0.068
-650.814	-200.000	-0.015	-0.069
-649.799	-89.249	0.254	-0.076
-648.784	112.084	0.137	0.167
-647.770	-113.413	-0.068	-0.013
-646.755	800.000	-0.061	-0.218
-645.741	800.000	0.049	-0.202
-644.726	172.581	-0.154	-0.224
-643.711	-105.682	-0.195	-0.044
-642.697	-102.072	0.399	-0.097
-641.682	-63.567	0.248	-0.103
-640.668	20.477	0.107	-0.087
-639.653	274.087	0.079	-0.140
-638.638	31.575	-0.252	-0.218
-637.624	280.132	-0.128	-0.231
-636.609	-36.862	-0.500	-0.271
-635.595	50.772	0.137	-0.131
-634.580	800.000	-0.062	0.184
-633.565	-167.583	-0.362	0.015
-632.551	45.027	0.136	0.126
-631.536	-108.356	0.042	-0.009
-630.522	-200.000	-0.014	0.385
-629.507	-159.344	0.076	0.004
-628.492	312.597	-0.141	-0.267
-627.478	327.135	-0.061	-0.119
-626.463	-65.437	-0.267	-0.108
-625.449	-132.258	-0.077	-0.010
-624.434	800.000	-0.045	-0.151
-623.419	-159.205	0.079	0.004
-622.405	-71.852	-0.129	0.048
-621.390	700.462	-0.053	0.142
-620.376	98.552	0.175	0.204
-619.361	660.666	-0.160	0.415
-618.346	39.609	0.080	0.073
-617.332	728.296	-0.123	-0.330
-616.317	-88.054	-0.150	0.045
-615.303	-74.530	0.246	0.089
-614.288	-82.037	-0.167	0.055
-613.273	-128.619	0.421	0.060
-612.259	51.341	-0.098	0.093
-611.244	-61.265	0.107	0.046
-610.230	-172.149	0.147	0.005
-609.215	55.884	0.133	-0.130
-608.201	-100.321	0.157	0.039
-607.186	52.561	-0.149	0.144
-606.171	800.000	0.018	0.056
-605.157	-10.720	0.143	-0.095
-604.142	-94.247	-0.135	0.037
-603.128	-200.000	-0.016	0.124
-602.113	-33.991	-0.265	-0.147
-601.098	136.450	-0.229	-0.301
-600.084	-90.995	-0.047	0.013
-599.069	-89.457	0.279	-0.083
-598.055	-28.647	-0.115	-0.066
-597.040	-200.000	0.016	-0.330
-596.025	96.526	-0.150	-0.173
-595.011	70.487	0.121	0.126
-593.996	800.000	0.071	0.201
-592.982	-94.324	0.220	0.060
-591.967	-200.000	0.038	-0.275
-590.952	-200.000	-0.075	-0.424
-589.938	92.156	-0.060	-0.068
-588.923	-19.438	-0.306	-0.191
-587.909	-23.839	0.206	-0.124
-586.894	68.144	0.236	0.243
-585.879	711.445	0.137	0.366
-584.865	-43.706	-0.251	-0.127
-583.850	-73.983	0.124	0.045
-582.836	-46.444	0.143	0.070
-581.821	-67.534	-0.267	-0.105
-580.806	-200.000	-0.009	-0.213
-579.792	-79.200	-0.090	0.031
-578.777	-122.934	-0.166	-0.027
-577.763	211.289	-0.105	0.166
-576.748	-98.275	0.303	-0.078
-575.733	-106.603	-0.165	-0.037
-574.719	442.259	-0.039	-0.085
-573.704	59.140	0.142	-0.141
-572.690	-37.163	0.211	-0.114
-571.675	364.852	0.143	-0.290
-570.661	213.147	-0.151	-0.240
-569.646	800.000	0.027	-0.114
-568.631	91.305	0.199	-0.224
-567.617	196.675	-0.116	-0.178
-566.602	-108.155	0.118	-0.026
-565.588	-5.201	0.155	-0.107
-564.573	-50.276	-0.203	0.097
-563.558	228.703	0.020	-0.033
-562.544	-200.000	0.012	-0.091
-561.529	-200.000	0.004	-0.206
-560.515	-88.811	0.047	-0.014
-559.500	-147.605	0.468	0.040
-558.485	-96.321	-0.252	-0.067
-557.471	-79.164	-0.064	-0.022
-556.456	261.468	-0.152	-0.265
-555.442	196.487	-0.086	0.132
-554.427	-44.232	0.149	-0.075
-553.412	-83.753	-0.107	0.034
-552.398	-200.000	-0.010	0.202
-551.383	30.623	-0.272	-0.233
-550.369	-103.837	-0.335	-0.079
-549.354	-200.000	-0.004	0.034
-548.339	137.566	-0.015	0.020
-547.325	-144.895	0.123	0.011
-546.310	413.126	-0.138	-0.294
-545.296	800.000	0.046	-0.130
-544.281	-200.000	-0.018	-0.355
-543.266	-122.599	0.291	-0.047
-542.252	-124.854	-0.291	-0.045
-541.237	-147.606	-0.219	-0.019
-540.223	306.686	-0.051	-0.096
-539.208	800.000	0.105	-0.444
-538.193	428.605	0.158	-0.343
-537.179	-15.806	-0.121	-0.078
-536.164	-74.561	-0.249	-0.090
-535.150	240.385	-0.093	0.157
-534.135	800.000	-0.119	-0.345
-533.121	800.000	-0.047	0.179
-532.106	-200.000	0.010	-0.145
-531.091	-43.002	-0.207	0.106
-530.077	43.778	0.262	-0.241
-529.062	-149.876	0.259	0.020
-528.048	167.618	0.182	-0.259
-527.033	74.987	0.204	-0.216
-526.018	103.343	0.109	0.128
-525.004	204.729	0.059	0.092
-523.989	32.670	0.247	0.215
-522.975	707.799	0.105	0.280
-521.960	177.241	0.119	0.174
-520.945	-19.323	0.102	0.063
-519.931	800.000	0.060	-0.206
-518.916	-200.000	-0.037	0.205
-517.902	97.432	0.115	0.133
-516.887	-200.000	0.023	0.172
-515.872	-62.689	0.105	-0.044
-514.858	7.909	-0.029	-0.021
-513.843	-200.000	-0.010	-0.239
-512.829	-200.000	-0.002	0.090
-511.814	800.000	-0.072	-0.287
-510.799	800.000	-0.155	-0.521
-509.785	120.756	0.215	-0.268
-508.770	-107.295	0.087	0.019
-507.756	-166.490	0.379	0.016
-506.741	-87.967	-0.075	0.023
-505.726	110.926	0.252	0.305
-504.712	304.591	-0.154	0.287
-503.697	-200.000	0.013	-0.083
-502.683	-70.125	0.380	0.145
-501.668	-22.300	-0.038	-0.023
-500.653	-69.510	0.217	0.083
-499.639	79.494	0.121	-0.131
-498.624	675.788	0.127	-0.330
-497.610	-200.000	0.004	-0.226
-496.595	-107.407	0.049	0.011
-495.581	-200.000	-0.004	-0.115
-494.566	153.369	-0.148	0.204
-493.551	129.377	-0.123	-0.158
-492.537	-78.935	0.109	0.037
-491.522	220.133	-0.119	0.191
-490.508	-132.975	0.128	-0.016
-489.493	563.536	-0.044	0.107
-488.478	-52.874	0.253	0.117
-487.464	151.916	-0.178	0.244
-486.449	-44.871	0.375	-0.187
-485.435	-148.463	-0.106	-0.009
-484.420	103.622	-0.201	0.236
-483.405	39.226	0.296	-0.266
-482.391	371.557	0.049	0.099
-481.376	-77.447	0.239	0.083
-480.362	-29.207	0.092	-0.053
-479.347	800.000	0.097	-0.364
-478.332	237.281	-0.137	-0.228
-477.318	-200.000	0.003	-0.022
-476.303	-200.000	0.000	-0.110
-475.289	343.263	0.106	-0.207
-474.274	-46.504	0.326	-0.160
-473.259	-71.687	0.045	-0.017
-472.245	-16.207	0.187	-0.119
-471.230	-44.195	-0.209	-0.105
-470.216	-92.839	-0.345	-0.097
-469.201	-200.000	-0.012	0.266
-468.186	-200.000	-0.032	-0.196
-467.172	58.007	0.097	0.095
-466.157	-138.681	-0.306	-0.033
-465.143	-41.924	-0.338	0.174
-464.128	72.959	0.025	0.026
-463.113	-200.000	-0.058	-0.280
-462.099	90.307	-0.345	-0.386
-461.084	39.291	0.083	-0.074
-460.070	-61.941	0.295	0.123
-459.055	59.562	-0.218	0.216
-458.040	-200.000	0.009	0.149
-457.026	70.864	0.149	-0.155
-456.011	747.123	-0.020	0.053
-454.997	-114.924	-0.104	0.020
-453.982	-79.775	0.176	-0.059
-452.968	-200.000	0.038	-0.192
-451.953	-0.603	-0.174	0.124
-450.938	-200.000	0.007	0.061
-449.924	800.000	0.131	0.449
-448.909	-176.892	0.135	0.003
-447.895	-124.243	-0.089	0.014
-446.880	-45.007	-0.285	-0.142
-445.865	-83.850	0.094	-0.030
-444.851	327.384	-0.123	-0.237
-443.836	-200.000	0.032	-0.191
-442.822	-200.000	0.036	0.259
-441.807	264.870	-0.012	0.020
-440.792	-165.855	0.166	0.007
-439.778	-130.949	0.194	-0.026
-438.763	-95.472	-0.260	-0.070
-437.749	-200.000	0.011	-0.380
-436.734	-57.841	0.255	0.112
-435.719	24.444	-0.153	-0.126
-434.705	172.933	0.205	0.296
-433.690	-126.426	-0.187	-0.028
-432.676	57.692	-0.145	0.142
-431.661	76.814	-0.155	0.164
-430.646	170.725	0.119	0.171
-429.632	-11.223	-0.132	0.087
-428.617	253.569	-0.179	-0.306
-427.603	-143.774	0.374	0.035
-426.588	649.390	-0.096	0.246
-425.573	-200.000	-0.005	0.246
-424.559	-119.604	-0.522	-0.090
-423.544	-94.912	-0.107	-0.029
-422.530	-200.000	0.010	0.318
-421.515	-200.000	0.001	0.207
-420.500	-45.561	-0.202	0.100
-419.486	-28.521	-0.299	0.172
-418.471	35.420	-0.149	-0.131
-417.457	-105.419	0.411	0.094
-416.442	-200.000	-0.033	0.218
-415.428	356.734	0.153	0.306
-414.413	-200.000	-0.032	-0.153
-413.398	80.661	0.095	-0.102
-412.384	800.000	-0.046	-0.189
-411.369	-16.760	0.095	-0.060
-410.355	-51.067	0.192	-0.090
-409.340	48.655	0.097	0.091
-408.325	31.693	-0.186	-0.160
-407.311	30.016	-0.156	0.133
-406.296	-200.000	-0.054	-0.287
-405.282	108.534	-0.174	0.208
-404.267	120.227	-0.117	0.145
-403.252	-200.000	0.084	0.371
-402.238	-200.000	-0.003	-0.140
-401.223	552.987	-0.053	-0.127
-400.209	235.155	0.262	0.432
-399.194	-200.000	0.017	0.260
-398.179	110.492	0.289	-0.347
-397.165	-200.000	0.048	-0.316
-396.150	-200.000	0.034	0.260
-395.136	582.523	-0.083	0.204
-394.121	-102.850	-0.306	0.073
-393.106	-200.000	-0.021	-0.168
-392.092	-200.000	-0.034	0.211
-391.077	244.989	0.076	-0.127
-390.063	473.446	-0.093	0.210
-389.048	-104.993	-0.299	-0.068
-388.033	63.180	-0.136	0.136
-387.019	-200.000	0.072	-0.398
-386.004	29.014	0.065	-0.055
-384.990	-200.000	-0.042	0.419
-383.975	349.445	0.064	0.125
-382.960	-146.992	-0.332	-0.028
-381.946	-110.257	-0.313	0.065
-380.931	410.765	0.144	-0.305
-379.917	-51.660	-0.117	-0.055
-378.902	335.162	-0.128	-0.248
-377.888	-30.417	0.150	-0.085
-376.873	-43.078	-0.190	0.096
-375.858	141.226	-0.215	-0.284
-374.844	800.000	-0.116	-0.423
-373.829	-0.168	-0.248	-0.176
-372.815	800.000	0.092	0.335
-371.800	33.459	-0.126	-0.110
-370.785	-200.000	0.038	-0.193
-369.771	-24.966	0.137	0.081
-368.756	-124.650	-0.166	0.026
-367.742	-200.000	-0.028	-0.199
-366.727	-68.318	-0.182	0.071
-365.712	-94.771	-0.220	-0.060
-364.698	99.050	-0.138	-0.159
-363.683	485.112	-0.176	0.400
-362.669	-174.104	0.223	-0.007
-361.654	-114.355	0.090	-0.017
-360.639	182.336	-0.126	-0.185
-359.625	-55.913	0.033	0.015
-358.610	485.629	0.098	-0.222
-357.596	691.508	0.119	0.312
-356.581	800.000	-0.179	0.533
-355.566	-72.035	-0.331	0.123
-354.552	-138.587	0.343	0.038
-353.537	-163.598	-0.312	0.015
-352.523	-72.090	-0.277	0.103
-351.508	-104.790	-0.172	0.039
-350.493	-200.000	-0.006	-0.170
-349.479	487.793	0.232	-0.529
-348.464	-146.553	0.385	0.033
-347.450	2.198	-0.302	0.217
-346.435	-200.000	0.019	0.597
-345.420	800.000	0.127	0.416
-344.406	201.590	-0.066	-0.101
-343.391	21.565	-0.066	0.054
-342.377	800.000	0.083	-0.284
-341.362	-17.235	0.166	0.104
-340.348	-200.000	0.006	0.077
-339.333	800.000	0.078	0.277
-338.318	-200.000	0.025	0.131
-337.304	19.317	-0.284	0.227
-336.289	-200.000	0.033	-0.183
-335.275	158.634	0.032	0.045
-334.260	265.042	-0.055	-0.095
-333.245	-89.542	-0.212	0.062
-332.231	-74.086	-0.117	0.042
-331.216	-138.021	-0.041	-0.005
-330.202	-200.000	0.059	-0.378
-329.187	389.425	0.082	-0.169
-328.172	-102.390	-0.378	0.090
-327.158	458.327	0.163	0.361
-326.143	-200.000	-0.018	-0.091
-325.129	-132.250	-0.148	-0.019
-324.114	-151.730	-0.200	-0.015
-323.099	-119.697	-0.480	0.083
-322.085	446.926	-0.084	-0.185
-321.070	-42.323	-0.198	0.101
-320.056	-200.000	0.019	-0.171
-319.041	-158.530	0.523	0.030
-318.026	-200.000	0.015	-0.290
-317.012	-199.446	0.111	-0.001
-315.997	44.404	-0.138	-0.126
-314.983	72.879	0.069	0.071
-313.968	-100.343	0.300	0.074
-312.953	-155.570	-0.046	-0.003
-311.939	749.163	0.060	-0.162
-310.924	245.840	0.071	-0.119
-309.910	-200.000	0.009	0.228
-308.895	249.655	0.177	0.298
-307.880	-69.977	-0.333	0.126
-306.866	91.344	-0.033	-0.037
-305.851	-137.744	0.566	-0.063
-304.837	158.836	-0.159	-0.219
-303.822	682.373	0.073	0.189
-302.807	-110.734	-0.347	0.071
-301.793	208.665	0.102	-0.159
-300.778	-200.000	-0.007	-0.099
-299.764	104.749	-0.144	0.169
-298.749	-200.000	0.022	0.251
-297.735	-107.768	0.338	0.073
-296.720	16.213	0.199	-0.156
-295.705	122.810	0.145	0.180
-294.691	-143.524	-0.119	0.011
-293.676	-200.000	-0.051	-0.249
-292.662	-94.654	0.130	-0.035
-291.647	-40.335	-0.169	0.087
-290.632	739.041	0.104	-0.277
-289.618	-200.000	-0.024	0.278
-288.603	-34.865	-0.118	0.064
-287.589	-200.000	0.008	-0.203
-286.574	171.806	-0.080	0.115
-285.559	-199.875	0.329	0.002
-284.545	800.000	-0.053	-0.180
-283.530	315.484	-0.121	0.227
-282.516	-50.405	0.113	0.053
-281.501	-10.389	-0.246	-0.162
-280.486	-163.576	0.435	0.020
-279.472	29.656	0.248	-0.210
-278.457	229.693	0.137	0.222
-277.443	800.000	-0.019	0.073
-276.428	-84.082	-0.155	0.049
-275.413	800.000	-0.027	-0.117
-274.399	-146.037	-0.354	0.031
-273.384	583.786	0.087	0.213
-272.370	-200.000	-0.022	0.145
-271.355	-143.655	0.399	-0.038
-270.340	676.486	0.130	-0.336
-269.326	-200.000	0.009	-0.168
-268.311	472.500	0.069	-0.154
-267.297	-200.000	0.029	-0.145
-266.282	-38.260	-0.127	0.067
-265.267	91.203	-0.129	-0.143
-264.253	-68.933	-0.129	-0.050
-263.238	408.115	-0.026	-0.054
-262.224	-200.000	-0.023	0.149
-261.209	-200.000	0.070	0.343
-260.195	-115.330	0.154	0.029
-259.180	45.842	0.021	-0.019
-258.165	82.288	0.123	0.132
-257.151	-200.000	0.028	0.368
-256.136	-0.027	-0.246	0.174
-255.122	-200.000	-0.012	-0.146
-254.107	73.527	-0.083	0.087
-253.092	-200.000	0.036	-0.174
-252.078	-121.158	0.214	-0.036
-251.063	11.847	0.179	0.136
-250.049	82.029	0.146	-0.157
-249.034	-111.200	0.240	-0.049
-248.019	191.281	0.009	0.013
-247.005	-64.943	-0.330	0.132
-245.990	96.334	-0.276	0.314
-244.976	-107.480	-0.290	-0.063
-243.961	65.328	0.275	-0.276
-242.946	269.117	-0.065	0.114
-241.932	-82.003	-0.285	0.092
-240.917	112.608	-0.125	0.150
-239.903	-158.644	0.117	-0.007
-238.888	-72.941	0.149	-0.055
-237.873	-12.085	0.210	0.136
-236.859	-108.156	0.092	-0.020
-235.844	227.989	-0.117	-0.188
-234.830	-195.599	-0.388	-0.003
-233.815	720.292	0.081	0.213
-232.800	-94.240	-0.188	0.051
-231.786	800.000	-0.028	0.097
-230.771	47.272	-0.103	0.095
-229.757	-100.530	0.268	-0.066
-228.742	-200.000	0.030	0.202
-227.727	-60.882	0.213	-0.089
-226.713	-200.000	-0.032	0.230
-225.698	-200.000	0.012	0.342
-224.684	-121.946	-0.207	-0.034
-223.669	112.592	0.050	-0.060
-222.655	-112.229	0.123	-0.024
-221.640	-110.559	0.167	0.034
-220.625	-200.000	0.059	0.373
-219.611	768.415	0.127	0.342
-218.596	800.000	0.042	0.143
-217.582	147.015	0.285	0.380
-216.567	-200.000	0.020	0.356
-215.552	-85.362	0.151	0.047
-214.538	-18.308	0.249	0.154
-213.523	-200.000	-0.004	0.213
-212.509	-106.688	0.206	0.046
-211.494	-179.816	-0.159	-0.003
-210.479	197.038	-0.143	0.216
-209.465	120.956	0.078	-0.096
-208.450	73.862	-0.176	-0.183
-207.436	-88.787	0.107	0.032
-206.421	800.000	-0.042	0.121
-205.406	163.674	0.194	0.271
-204.392	161.797	0.214	0.297
-203.377	-101.216	-0.082	-0.020
-202.363	-33.636	0.183	-0.100
-201.348	800.000	-0.030	0.103
-200.333	-66.033	0.135	0.053
-199.319	199.222	0.050	-0.076
-198.304	-200.000	-0.002	-0.185
-197.290	327.787	-0.095	-0.181
-196.275	-51.919	-0.206	0.095
-195.260	-54.484	0.331	-0.149
-194.246	800.000	-0.078	-0.241
-193.231	-65.204	0.183	-0.073
-192.217	-200.000	-0.005	0.238
-191.202	-76.127	-0.376	0.131
-190.187	-65.329	-0.136	-0.054
-189.173	800.000	-0.052	0.208
-188.158	-200.000	-0.004	-0.034
-187.144	-104.588	0.040	0.009
-186.129	800.000	-0.008	-0.022
-185.114	-145.247	0.117	-0.011
-184.100	-200.000	0.034	-0.397
-183.085	-200.000	0.011	-0.082
-182.071	-94.955	0.234	0.063
-181.056	230.721	0.164	0.266
-180.042	800.000	-0.069	0.231
-179.027	-38.017	-0.270	0.142
-178.012	75.623	0.233	0.244
-176.998	453.721	0.087	0.190
-175.983	-200.000	0.001	-0.188
-174.969	800.000	-0.102	0.331
-173.954	-65.661	-0.293	-0.116
-172.939	95.879	0.151	0.171
-171.925	-92.530	-0.209	0.058
-170.910	-200.000	0.005	0.370
-169.896	800.000	0.030	-0.113
-168.881	53.461	-0.139	0.132
-167.866	50.619	0.288	0.269
-166.852	-200.000	-0.016	0.086
-165.837	-100.553	-0.129	0.032
-164.823	-38.886	-0.099	0.051
-163.808	97.394	-0.165	0.188
-162.793	89.596	-0.147	0.162
-161.779	308.344	0.080	0.147
-160.764	486.568	0.158	-0.358
-159.750	-119.645	0.051	-0.009
-158.735	266.744	0.128	0.222
-157.720	-51.355	0.208	0.097
-156.706	-31.319	0.080	0.044
-155.691	-200.000	0.033	-0.362
-154.677	-116.535	0.216	-0.039
-153.662	-80.847	-0.159	-0.052
-152.647	-68.824	-0.358	0.137
-151.633	-200.000	0.019	-0.539
-150.618	-143.722	0.623	0.058
-149.604	-200.000	-0.071	-0.350
-148.589	-131.955	-0.431	-0.056
-147.574	-116.000	0.178	-0.033
-146.560	-200.000	0.000	0.214
-145.545	-124.615	-0.294	-0.045
-144.531	322.884	0.172	-0.325
-143.516	151.641	-0.039	-0.052
-142.502	-200.000	0.076	0.363
-141.487	83.165	-0.231	0.249
-140.472	-68.486	-0.055	0.021
-139.458	-61.070	-0.296	-0.124
-138.443	144.059	0.096	-0.127
-137.429	794.739	0.085	-0.232
-136.414	53.082	-0.260	-0.246
-135.399	-12.053	0.123	-0.079
-134.385	-156.011	0.161	-0.010
-133.370	-118.119	-0.360	-0.064
-132.356	247.981	-0.135	0.226
-131.341	-71.732	0.384	-0.142
-130.326	-40.597	-0.158	-0.081
-129.312	18.668	0.083	0.066
-128.297	-200.000	0.016	-0.476
-127.283	-85.620	-0.183	-0.056
-126.268	334.672	0.240	0.459
-125.253	-134.921	0.125	0.015
-124.239	462.631	-0.009	0.019
-123.224	-200.000	0.013	-0.304
