DTS Sentinel unit serial number:	SN413079Multiplexer serial number:	ORYXHardware model number:	OX4-SRSoftware version number:	ORYX F/W v4.00 Oryx Data Collector v3.7.2.0data status	okinstallation	princeton_trtdifferential loss correction	single-endedforward channel	channel 4reverse channel	N/Adate	2019/09/11time	13:39:11forward acquisition time	60.00reverse acquisition time	0.00gamma	496.2192k internal	0.2283k external	0.2283temperature offset calibration	1.0004default loss term (dB/km)	0.3790temperature slope calibration	1.0000multiplexer offset coefficient	1.0000multiplexer slope coefficient	1.0000fibre end	0.00T internal ref (°C)	41.92T ext. ref 1 (°C)	0.83T ext. ref 2 (°C)	35.83length (m)	temperature (°C)	Stokes	anti-Stokes-747.200	583.844	-0.213	0.537
-746.185	121.013	0.087	-0.111
-745.171	115.688	-0.183	-0.230
-744.156	359.897	-0.096	-0.198
-743.142	16.185	0.070	0.056
-742.127	-92.011	0.153	0.044
-741.112	268.244	0.141	-0.254
-740.098	33.215	-0.177	-0.157
-739.083	-200.000	0.050	0.305
-738.069	-193.703	-0.036	-0.000
-737.054	-200.000	-0.061	-0.315
-736.039	-110.263	-0.353	0.075
-735.025	-108.007	0.144	-0.032
-734.010	800.000	-0.068	-0.270
-732.996	6.630	-0.088	-0.067
-731.981	175.105	-0.139	-0.207
-730.966	109.537	-0.201	0.247
-729.952	-53.277	-0.306	-0.144
-728.937	-157.183	-0.410	-0.026
-727.923	431.680	0.205	0.456
-726.908	349.255	-0.217	0.441
-725.894	-22.925	0.090	-0.055
-724.879	62.904	-0.109	-0.112
-723.864	-200.000	-0.048	0.256
-722.850	44.567	-0.108	0.102
-721.835	-44.489	-0.111	-0.057
-720.821	-200.000	-0.045	-0.285
-719.806	-200.000	-0.006	0.211
-718.791	549.372	-0.074	-0.182
-717.777	-200.000	0.012	-0.208
-716.762	-121.997	-0.170	-0.029
-715.748	278.811	-0.339	0.620
-714.733	516.132	-0.081	0.194
-713.718	-200.000	-0.023	0.305
-712.704	-35.591	-0.256	-0.143
-711.689	-200.000	-0.032	0.176
-710.675	-199.581	0.286	-0.002
-709.660	-200.000	0.049	-0.385
-708.645	-100.307	0.168	0.043
-707.631	277.740	-0.137	-0.251
-706.616	-200.000	0.000	-0.165
-705.602	800.000	-0.052	0.210
-704.587	-12.019	0.246	0.165
-703.572	264.540	0.156	0.279
-702.558	-18.937	0.088	-0.056
-701.543	800.000	-0.179	-0.552
-700.529	132.526	-0.160	-0.211
-699.514	-200.000	-0.027	-0.241
-698.499	-144.095	-0.118	0.011
-697.485	-200.000	-0.000	0.058
-696.470	-42.589	0.158	-0.082
-695.456	-180.739	-0.178	-0.004
-694.441	-90.874	0.164	-0.049
-693.426	179.173	-0.090	0.135
-692.412	55.112	0.095	-0.094
-691.397	800.000	0.069	-0.211
-690.383	54.731	0.221	0.219
-689.368	-200.000	-0.033	-0.223
-688.354	4.629	-0.070	0.052
-687.339	111.650	0.184	0.228
-686.324	652.129	-0.075	-0.196
-685.310	-36.828	-0.087	0.048
-684.295	9.364	0.133	-0.103
-683.281	528.007	0.151	0.365
-682.266	800.000	-0.182	0.534
-681.251	-86.337	-0.161	-0.051
-680.237	-200.000	-0.259	0.001
-679.222	-112.411	-0.370	0.076
-678.208	115.899	0.089	0.111
-677.193	54.495	-0.131	0.129
-676.178	-78.283	-0.068	0.024
-675.164	370.193	0.113	-0.234
-674.149	-129.073	-0.101	-0.014
-673.135	259.469	0.062	0.109
-672.120	772.607	0.099	0.277
-671.105	-129.142	0.370	-0.053
-670.091	104.699	0.154	-0.186
-669.076	11.704	-0.135	0.106
-668.062	301.510	0.077	-0.146
-667.047	-116.588	-0.178	-0.034
-666.032	-164.176	-0.046	0.002
-665.018	170.362	0.321	0.470
-664.003	289.054	-0.067	-0.124
-662.989	501.299	-0.061	0.143
-661.974	47.131	0.058	0.055
-660.959	-151.364	0.123	-0.009
-659.945	174.796	-0.135	-0.201
-658.930	282.390	0.103	-0.189
-657.916	742.818	0.100	-0.274
-656.901	-200.000	-0.015	0.178
-655.886	388.995	0.118	0.250
-654.872	496.567	-0.136	0.319
-653.857	-200.000	-0.042	0.433
-652.843	-200.000	0.002	0.492
-651.828	-21.019	-0.159	0.100
-650.814	-14.329	-0.227	0.150
-649.799	148.860	-0.242	0.335
-648.784	-200.000	-0.004	0.149
-647.770	722.435	-0.082	-0.224
-646.755	-15.833	0.145	-0.094
-645.741	49.421	0.096	-0.092
-644.726	149.302	0.072	0.100
-643.711	154.094	0.124	-0.174
-642.697	-104.262	-0.087	-0.021
-641.682	-106.332	-0.197	0.045
-640.668	303.372	0.146	-0.276
-639.653	-200.000	0.002	0.025
-638.638	209.469	0.128	0.205
-637.624	-200.000	0.019	-0.220
-636.609	-101.395	0.031	0.008
-635.595	-129.854	-0.409	-0.057
-634.580	-156.950	0.149	-0.009
-633.565	-46.484	0.126	0.063
-632.551	-92.979	-0.092	0.026
-631.536	-67.860	0.215	0.086
-630.522	-55.779	-0.197	0.090
-629.507	-50.565	0.094	-0.046
-628.492	-94.242	0.045	-0.013
-627.478	-39.132	-0.172	-0.092
-626.463	51.490	-0.184	0.179
-625.449	-150.028	0.115	0.009
-624.434	-87.040	-0.424	0.132
-623.419	800.000	-0.043	-0.173
-622.405	191.550	0.089	0.137
-621.390	132.060	0.217	0.285
-620.376	471.855	-0.091	-0.208
-619.361	154.384	-0.059	-0.083
-618.346	42.442	-0.097	0.090
-617.332	-200.000	-0.064	-0.420
-616.317	5.898	-0.087	0.066
-615.303	-200.000	-0.065	-0.293
-614.288	152.856	-0.267	0.374
-613.273	-200.000	-0.017	0.217
-612.259	-63.969	0.224	0.094
-611.244	-200.000	0.040	-0.292
-610.230	-99.165	0.219	-0.057
-609.215	-118.925	0.157	0.028
-608.201	-87.566	-0.279	-0.086
-607.186	-125.123	-0.159	-0.025
-606.171	-18.977	0.205	0.130
-605.157	-200.000	-0.071	-0.401
-604.142	472.256	0.005	-0.012
-603.128	-130.789	-0.232	0.032
-602.113	664.593	0.075	0.198
-601.098	-183.741	-0.283	-0.005
-600.084	50.517	0.169	0.163
-599.069	-162.505	0.358	0.018
-598.055	-200.000	-0.018	0.326
-597.040	800.000	-0.076	-0.284
-596.025	-200.000	0.055	-0.271
-595.011	-12.829	-0.088	-0.059
-593.996	415.478	-0.040	-0.086
-592.982	-183.970	0.232	0.004
-591.967	668.811	-0.021	0.057
-590.952	800.000	0.080	-0.232
-589.938	106.461	0.092	-0.112
-588.923	800.000	-0.085	-0.256
-587.909	800.000	-0.100	-0.291
-586.894	392.191	0.066	0.141
-585.879	-165.656	-0.365	0.016
-584.865	-113.535	0.282	0.056
-583.850	-200.000	0.036	-0.268
-582.836	10.318	0.154	0.119
-581.821	-88.209	-0.327	0.100
-580.806	-11.859	0.206	-0.138
-579.792	800.000	0.052	0.207
-578.777	-200.000	0.033	-0.158
-577.763	800.000	0.023	-0.100
-576.748	-74.501	-0.254	-0.093
-575.733	-174.025	0.188	0.006
-574.719	-26.123	-0.402	0.241
-573.704	-3.909	-0.197	0.139
-572.690	-21.914	0.081	0.050
-571.675	800.000	-0.080	-0.268
-570.661	-200.000	-0.022	0.149
-569.646	-36.667	-0.229	0.126
-568.631	-77.022	0.120	-0.043
-567.617	115.848	-0.134	-0.167
-566.602	800.000	-0.105	-0.399
-565.588	534.395	-0.058	0.140
-564.573	800.000	-0.013	0.047
-563.558	-102.417	-0.123	-0.030
-562.544	-143.951	-0.431	-0.041
-561.529	308.343	-0.046	0.088
-560.515	253.588	-0.078	0.136
-559.500	683.027	0.055	0.146
-558.485	-2.480	-0.161	0.115
-557.471	452.968	-0.131	-0.295
-556.456	-63.530	0.149	0.062
-555.442	118.573	0.093	-0.117
-554.427	164.825	0.164	-0.237
-553.412	-200.000	0.001	0.088
-552.398	395.579	-0.066	0.140
-551.383	-200.000	0.000	-0.066
-550.369	129.216	-0.110	-0.143
-549.354	154.916	-0.122	0.171
-548.339	-147.956	-0.270	0.023
-547.325	-128.168	-0.108	-0.016
-546.310	169.447	0.095	-0.139
-545.296	800.000	0.102	-0.290
-544.281	800.000	0.046	-0.143
-543.266	-87.280	-0.129	-0.040
-542.252	-23.024	0.190	-0.117
-541.237	230.465	-0.053	-0.088
-540.223	-17.700	0.229	0.147
-539.208	46.148	-0.185	-0.175
-538.193	53.898	0.240	0.235
-537.179	-87.274	-0.375	-0.116
-536.164	7.357	-0.324	-0.247
-535.150	800.000	-0.096	0.306
-534.135	-200.000	0.008	0.108
-533.121	39.023	0.223	-0.203
-532.106	55.790	-0.313	-0.310
-531.091	24.121	-0.089	-0.075
-530.077	800.000	-0.103	-0.408
-529.062	800.000	0.068	-0.254
-528.048	-200.000	0.069	0.341
-527.033	800.000	0.051	0.182
-526.018	800.000	0.020	0.066
-525.004	-49.798	-0.161	-0.078
-523.989	-147.201	0.204	-0.018
-522.975	297.363	0.022	0.041
-521.960	524.975	-0.073	-0.175
-520.945	43.117	0.166	-0.154
-519.931	149.845	0.042	0.058
-518.916	800.000	-0.139	0.441
-517.902	239.036	-0.025	-0.042
-516.887	800.000	0.037	-0.118
-515.872	289.435	0.092	-0.170
-514.858	25.056	0.256	-0.217
-513.843	403.799	-0.094	0.201
-512.829	527.074	-0.034	0.081
-511.814	71.466	0.060	-0.064
-510.799	-200.000	0.032	0.278
-509.785	347.398	-0.063	-0.127
-508.770	6.060	0.129	0.098
-507.756	-70.245	-0.184	-0.071
-506.741	161.905	0.208	0.297
-505.726	23.942	-0.252	-0.211
-504.712	-110.986	-0.047	0.010
-503.697	-86.496	-0.095	-0.030
-502.683	800.000	0.026	-0.081
-501.668	89.610	0.034	-0.039
-500.653	-200.000	0.006	0.174
-499.639	-150.886	-0.358	0.028
-498.624	385.570	-0.190	0.398
-497.610	-64.837	-0.238	-0.098
-496.595	-200.000	0.057	0.303
-495.581	800.000	-0.012	0.043
-494.566	-101.646	-0.211	0.052
-493.551	795.498	0.064	-0.180
-492.537	-71.919	0.115	-0.043
-491.522	-5.081	-0.246	-0.172
-490.508	800.000	-0.032	0.099
-489.493	254.419	0.079	0.138
-488.478	365.961	0.064	-0.131
-487.464	-176.052	-0.332	-0.009
-486.449	287.481	0.139	-0.255
-485.435	-197.763	-0.245	-0.002
-484.420	800.000	-0.103	-0.322
-483.405	203.432	0.108	0.170
-482.391	-0.014	-0.109	0.079
-481.376	-125.423	0.415	-0.064
-480.362	223.666	0.086	-0.141
-479.347	-26.548	0.186	-0.111
-478.332	-200.000	-0.018	-0.158
-477.318	-200.000	0.048	0.219
-476.303	422.410	-0.079	0.172
-475.289	-98.084	0.121	0.032
-474.274	-110.857	-0.052	-0.011
-473.259	-134.786	-0.212	-0.026
-472.245	197.495	0.027	-0.042
-471.230	185.615	-0.061	-0.093
-470.216	427.911	-0.046	-0.101
-469.201	-14.979	-0.136	-0.089
-468.186	354.268	0.090	-0.182
-467.172	117.319	-0.094	0.118
-466.157	89.378	-0.056	0.063
-465.143	420.283	-0.103	0.224
-464.128	-200.000	-0.001	0.144
-463.113	-37.361	0.141	0.077
-462.099	-200.000	0.084	0.411
-461.084	301.098	0.149	-0.279
-460.070	-200.000	-0.009	0.160
-459.055	-30.230	0.220	-0.127
-458.040	-42.035	-0.195	0.101
-457.026	43.483	-0.045	-0.042
-456.011	-20.646	-0.041	-0.026
-454.997	-71.869	-0.178	-0.067
-453.982	-200.000	-0.028	-0.168
-452.968	78.400	0.179	0.194
-451.953	-141.748	0.128	0.013
-450.938	278.485	-0.134	-0.243
-449.924	800.000	0.071	0.214
-448.909	345.416	-0.120	-0.238
-447.895	800.000	0.077	0.250
-446.880	-151.102	-0.420	-0.032
-445.865	-135.864	0.291	0.035
-444.851	384.277	-0.097	0.202
-443.836	-64.853	0.238	-0.098
-442.822	800.000	0.070	0.244
-441.807	-112.637	0.184	-0.037
-440.792	-97.247	0.189	0.050
-439.778	800.000	0.055	-0.244
-438.763	-170.446	-0.216	0.008
-437.749	-200.000	0.032	0.173
-436.734	491.023	0.019	0.044
-435.719	738.029	0.117	-0.318
-434.705	2.193	-0.039	-0.028
-433.690	-71.206	0.128	0.049
-432.676	322.961	-0.054	-0.104
-431.661	800.000	0.042	-0.144
-430.646	-12.992	-0.144	0.095
-429.632	-133.702	0.390	0.049
-428.617	275.160	0.063	0.113
-427.603	-89.965	0.084	-0.025
-426.588	177.693	0.163	-0.240
-425.573	87.696	-0.016	0.017
-424.559	86.795	-0.201	0.225
-423.544	-10.695	-0.310	-0.208
-422.530	218.971	0.319	0.518
-421.515	-71.437	0.273	0.104
-420.500	-200.000	-0.024	-0.250
-419.486	56.248	0.144	-0.141
-418.471	-89.554	0.235	0.070
-417.457	-102.714	0.278	0.067
-416.442	-24.081	-0.244	0.148
-415.428	83.481	-0.208	-0.230
-414.413	376.665	0.086	-0.178
-413.398	-43.086	0.252	-0.130
-412.384	769.989	0.027	-0.075
-411.369	195.222	-0.017	0.026
-410.355	800.000	0.055	-0.159
-409.340	159.736	-0.066	-0.094
-408.325	800.000	-0.154	-0.435
-407.311	-200.000	-0.006	-0.028
-406.296	-200.000	-0.047	0.444
-405.282	310.345	0.194	0.368
-404.267	-88.804	-0.016	-0.005
-403.252	-183.101	-0.379	0.007
-402.238	79.456	0.051	-0.056
-401.223	-77.501	0.289	-0.102
-400.209	800.000	0.145	0.518
-399.194	-200.000	-0.042	-0.336
-398.179	48.663	0.180	0.171
-397.165	-50.896	0.042	0.020
-396.150	575.941	-0.078	-0.193
-395.136	-117.479	-0.242	-0.044
-394.121	-152.893	-0.169	0.012
-393.106	607.983	0.039	0.100
-392.092	254.951	0.111	-0.193
-391.077	800.000	-0.065	0.191
-390.063	191.869	0.071	-0.109
-389.048	27.777	-0.239	0.204
-388.033	800.000	0.021	-0.069
-387.019	276.659	-0.091	0.163
-386.004	136.331	0.089	-0.118
-384.990	-126.873	0.436	-0.065
-383.975	-171.512	0.184	0.006
-382.960	800.000	0.032	0.124
-381.946	108.210	-0.107	0.130
-380.931	-147.090	-0.265	0.023
-379.917	-73.327	-0.244	0.090
-378.902	-72.434	-0.238	0.089
-377.888	51.825	-0.110	-0.106
-376.873	82.603	-0.083	-0.092
-375.858	-25.740	-0.233	0.139
-374.844	100.092	0.087	0.102
-373.829	-50.300	-0.308	0.147
-372.815	-189.498	0.102	-0.001
-371.800	-200.000	0.026	-0.135
-370.785	179.201	-0.042	-0.062
-369.771	-200.000	-0.033	0.218
-368.756	537.164	-0.115	-0.276
-367.742	398.971	0.179	-0.379
-366.727	-200.000	-0.046	0.307
-365.712	-28.201	0.125	-0.073
-364.698	457.815	-0.095	0.214
-363.683	-189.420	-0.185	0.002
-362.669	-73.321	-0.272	-0.101
-361.654	-57.061	-0.346	-0.154
-360.639	295.184	0.114	-0.210
-359.625	-68.865	-0.139	0.054
-358.610	-144.641	0.100	0.009
-357.596	275.265	-0.161	-0.288
-356.581	-105.657	0.134	0.031
-355.566	53.850	-0.193	0.188
-354.552	-200.000	-0.021	0.119
-353.537	-171.485	0.204	-0.007
-352.523	-83.033	-0.251	0.082
-351.508	58.673	-0.196	0.194
-350.493	144.523	0.093	-0.125
-349.479	123.959	0.108	0.137
-348.464	-110.145	0.152	-0.032
-347.450	800.000	-0.046	0.150
-346.435	-60.825	0.168	-0.072
-345.420	-133.770	0.186	0.023
-344.406	18.306	0.237	-0.191
-343.391	49.664	0.119	-0.113
-342.377	-85.162	0.239	-0.075
-341.362	800.000	-0.030	-0.125
-340.348	-200.000	-0.008	-0.131
-339.333	2.514	0.171	0.125
-338.318	1.762	0.313	0.228
-337.304	-171.341	-0.207	-0.007
-336.289	618.259	0.153	0.388
-335.275	-67.024	0.328	0.131
-334.260	-47.994	0.215	-0.105
-333.245	-200.000	-0.007	0.066
-332.231	420.189	-0.154	-0.334
-331.216	-47.039	0.245	0.121
-330.202	-87.730	0.178	0.054
-329.187	133.662	-0.118	-0.154
-328.172	-9.992	-0.136	0.091
-327.158	322.294	0.012	0.024
-326.143	143.587	0.208	0.280
-325.129	800.000	0.063	0.246
-324.114	-95.101	0.061	0.017
-323.099	-43.513	0.098	0.050
-322.085	59.332	-0.026	-0.026
-321.070	800.000	0.140	0.413
-320.056	-200.000	0.036	0.223
-319.041	-200.000	0.071	-0.383
-318.026	-52.778	-0.233	0.108
-317.012	109.412	-0.234	-0.283
-315.997	-105.357	0.322	0.074
-314.983	121.537	-0.140	-0.176
-313.968	107.261	0.147	-0.176
-312.953	-91.389	0.031	-0.009
-311.939	-62.571	0.273	-0.115
-310.924	800.000	-0.036	0.146
-309.910	96.533	0.203	0.234
-308.895	316.354	-0.153	-0.293
-307.880	-200.000	-0.007	-0.115
-306.866	-101.503	0.176	-0.043
-305.851	46.924	-0.160	-0.150
-304.837	5.048	0.149	0.111
-303.822	-196.934	-0.200	0.001
-302.807	-31.856	-0.079	0.045
-301.793	-200.000	-0.046	-0.268
-300.778	-81.186	0.103	-0.034
-299.764	-200.000	-0.062	-0.311
-298.749	-69.150	0.583	-0.227
-297.735	22.205	-0.143	0.118
-296.720	-200.000	0.022	0.155
-295.705	-60.475	-0.074	0.032
-294.691	-50.829	-0.069	0.033
-293.676	-49.237	-0.216	-0.104
-292.662	800.000	0.053	-0.149
-291.647	-200.000	-0.043	-0.220
-290.632	-10.006	0.173	0.116
-289.618	800.000	-0.064	0.186
-288.603	8.139	0.358	0.271
-287.589	321.687	-0.169	-0.324
-286.574	-157.963	0.204	0.012
-285.559	-200.000	0.004	0.046
-284.545	209.319	-0.136	0.215
-283.530	-200.000	0.016	0.163
-282.516	419.849	0.064	0.139
-281.501	-200.000	-0.001	0.180
-280.486	-200.000	0.034	-0.299
-279.472	61.626	0.028	0.028
-278.457	178.560	0.072	-0.107
-277.443	-41.701	-0.235	-0.122
-276.428	709.355	0.063	0.167
-275.413	68.974	0.398	-0.413
-274.399	320.493	-0.137	-0.263
-273.384	-82.642	-0.237	-0.077
-272.370	124.093	0.288	0.365
-271.355	-24.774	0.298	-0.179
-270.340	249.883	-0.068	-0.117
-269.326	72.953	0.060	0.063
-268.311	-169.971	-0.499	-0.018
-267.297	-97.611	-0.088	-0.023
-266.282	-200.000	0.011	0.062
-265.267	800.000	-0.025	-0.095
-264.253	-200.000	0.038	-0.312
-263.238	96.701	0.098	-0.113
-262.224	800.000	-0.027	-0.104
-261.209	232.949	0.131	0.217
-260.195	800.000	-0.101	-0.339
-259.180	800.000	-0.040	-0.171
-258.165	-57.776	-0.139	-0.061
-257.151	-200.000	0.026	-0.146
-256.136	-200.000	0.020	0.199
-255.122	30.882	0.118	0.102
-254.107	80.315	-0.167	0.181
-253.092	3.019	-0.118	0.086
-252.078	-71.358	0.044	0.017
-251.063	-200.000	-0.022	-0.309
-250.049	119.611	0.028	-0.034
-249.034	15.790	-0.305	0.242
-248.019	209.763	0.193	0.304
-247.005	-200.000	0.029	0.156
-245.990	95.425	-0.133	0.153
-244.976	-127.107	-0.085	0.013
-243.961	-117.646	0.212	-0.039
-242.946	147.829	-0.127	0.173
-241.932	115.914	-0.157	0.194
-240.917	-200.000	0.005	-0.056
-239.903	-16.202	0.157	0.100
-238.888	-54.356	0.272	-0.124
-237.873	-57.293	-0.210	0.093
-236.859	102.165	0.264	0.311
-235.844	-16.044	-0.196	0.126
-234.830	-32.794	-0.327	-0.183
-233.815	17.577	-0.243	0.194
-232.800	-200.000	-0.000	0.187
-231.786	49.746	0.140	0.133
-230.771	74.963	-0.156	0.166
-229.757	-200.000	-0.024	-0.169
-228.742	41.725	-0.130	-0.119
-227.727	185.152	0.173	0.259
-226.713	191.313	0.110	0.167
-225.698	800.000	0.042	0.160
-224.684	26.384	-0.154	0.130
-223.669	-173.890	0.193	0.006
-222.655	-113.006	-0.071	0.014
-221.640	-200.000	0.149	-0.000
-220.625	-33.703	-0.082	0.045
-219.611	8.006	0.400	0.302
-218.596	12.451	0.038	-0.030
-217.582	-44.684	0.362	0.182
-216.567	-112.045	-0.173	-0.035
-215.552	-98.184	-0.172	0.044
-214.538	800.000	0.029	0.091
-213.523	75.604	-0.064	-0.068
-212.509	-108.032	0.251	-0.055
-211.494	231.643	-0.049	0.080
-210.479	-40.149	-0.307	0.161
-209.465	800.000	-0.093	0.276
-208.450	-142.995	0.240	0.023
-207.436	-143.605	0.325	0.031
-206.421	20.938	0.243	-0.198
-205.406	800.000	0.051	0.221
-204.392	-200.000	0.013	-0.230
-203.377	-200.000	0.064	-0.285
-202.363	-184.144	0.327	0.005
-201.348	152.622	0.248	0.341
-200.333	172.906	0.065	0.094
-199.319	-200.000	0.011	-0.155
-198.304	-148.205	0.214	-0.018
-197.290	284.365	-0.093	0.168
-196.275	-200.000	-0.016	0.076
-195.260	-108.648	-0.195	-0.042
-194.246	142.371	0.252	-0.336
-193.231	-169.960	0.087	-0.003
-192.217	-200.000	-0.049	-0.267
-191.202	159.207	0.102	-0.143
-190.187	800.000	0.024	0.068
-189.173	-200.000	-0.037	0.329
-188.158	717.805	-0.114	0.306
-187.144	800.000	0.088	0.246
-186.129	-200.000	-0.028	-0.180
-185.114	-122.875	0.157	-0.025
-184.100	564.245	-0.021	-0.051
-183.085	-200.000	-0.030	-0.351
-182.071	3.007	-0.066	0.048
-181.056	235.691	-0.122	-0.202
-180.042	-194.409	-0.255	0.002
-179.027	384.246	0.095	-0.198
-178.012	259.405	-0.158	0.274
-176.998	800.000	0.072	0.238
-175.983	800.000	0.077	0.219
-174.969	138.338	0.210	0.277
-173.954	51.309	0.155	-0.148
-172.939	-109.199	0.373	0.080
-171.925	338.111	-0.065	-0.127
-170.910	-200.000	-0.014	-0.203
-169.896	43.752	-0.241	-0.222
-168.881	-126.768	0.185	-0.027
-167.866	229.386	-0.090	-0.148
-166.852	-200.000	-0.026	-0.143
-165.837	355.646	0.025	-0.050
-164.823	-151.519	-0.219	0.016
-163.808	-30.745	-0.245	-0.139
-162.793	628.163	0.017	0.043
-161.779	-152.481	-0.166	0.012
-160.764	-45.389	-0.172	0.086
-159.750	-200.000	0.019	-0.090
-158.735	-200.000	0.038	0.311
-157.720	-177.251	-0.113	0.003
-156.706	114.247	0.289	0.354
-155.691	106.104	0.111	0.132
-154.677	-19.080	-0.080	-0.050
-153.662	800.000	-0.025	-0.086
-152.647	-30.100	-0.087	0.050
-151.633	-200.000	-0.006	-0.094
-150.618	149.692	0.147	-0.200
-149.604	-200.000	-0.019	0.286
-148.589	-132.199	-0.182	0.024
-147.574	26.609	-0.077	-0.065
-146.560	-150.183	-0.380	-0.030
-145.545	-149.802	-0.420	-0.033
-144.531	-120.320	0.117	0.020
-143.516	-83.727	-0.203	-0.065
-142.502	-23.746	-0.311	0.187
-141.487	86.769	0.073	0.080
-140.472	-200.000	-0.008	-0.152
-139.458	-106.393	-0.472	0.106
-138.443	250.236	0.105	0.178
-137.429	142.338	0.228	-0.304
-136.414	117.988	-0.075	0.093
-135.399	-96.816	0.170	0.045
-134.385	800.000	-0.051	0.218
-133.370	207.912	0.165	-0.258
-132.356	-92.190	-0.030	-0.008
-131.341	298.585	0.128	0.236
-130.326	127.817	-0.092	0.117
-129.312	-65.966	-0.288	-0.115
-128.297	-200.000	0.025	0.249
-127.283	800.000	-0.029	0.084
-126.268	-200.000	-0.002	-0.032
-125.253	-148.475	0.164	0.013
-124.239	495.172	-0.017	0.040
-123.224	31.455	-0.161	0.139
-122.210	-128.208	0.256	-0.037
