DTS Sentinel unit serial number:	SN413079Multiplexer serial number:	ORYXHardware model number:	OX4-SRSoftware version number:	ORYX F/W v4.00 Oryx Data Collector v3.7.2.0data status	okinstallation	princeton_trtdifferential loss correction	single-endedforward channel	channel 4reverse channel	N/Adate	2019/09/11time	09:11:11forward acquisition time	60.00reverse acquisition time	0.00gamma	496.2192k internal	0.2300k external	0.2300temperature offset calibration	0.9972default loss term (dB/km)	0.3790temperature slope calibration	1.0000multiplexer offset coefficient	1.0000multiplexer slope coefficient	1.0000fibre end	0.00T internal ref (°C)	34.31T ext. ref 1 (°C)	0.13T ext. ref 2 (°C)	29.96length (m)	temperature (°C)	Stokes	anti-Stokes-747.200	43.453	0.019	0.018
-746.185	8.782	0.233	0.179
-745.171	467.979	0.038	0.087
-744.156	200.557	-0.174	0.274
-743.142	800.000	-0.018	0.073
-742.127	-200.000	-0.003	0.110
-741.112	-144.568	0.291	0.027
-740.098	800.000	0.117	0.421
-739.083	-0.679	-0.209	-0.151
-738.069	148.622	-0.339	0.467
-737.054	-200.000	0.046	0.409
-736.039	84.512	-0.250	-0.279
-735.025	11.097	0.248	0.193
-734.010	-142.340	-0.145	0.015
-732.996	138.926	-0.232	-0.311
-731.981	266.396	0.081	-0.144
-730.966	-14.496	0.155	0.102
-729.952	-200.000	-0.018	0.091
-728.937	-121.787	-0.173	0.029
-727.923	-159.702	-0.349	0.020
-726.908	-180.254	-0.408	0.009
-725.894	-200.000	-0.243	-0.001
-724.879	-200.000	0.039	-0.186
-723.864	-47.536	-0.078	0.038
-722.850	-79.754	-0.201	-0.069
-721.835	-134.244	-0.121	-0.015
-720.821	244.912	-0.038	-0.065
-719.806	-200.000	-0.050	-0.245
-718.791	-22.541	-0.194	-0.119
-717.777	77.589	0.139	-0.151
-716.762	673.727	0.068	-0.180
-715.748	81.103	0.072	0.079
-714.733	800.000	-0.084	0.346
-713.718	87.837	0.113	0.128
-712.704	-200.000	-0.004	-0.127
-711.689	65.820	0.262	-0.270
-710.675	-102.133	-0.223	0.055
-709.660	-200.000	-0.054	-0.393
-708.645	-8.759	-0.264	-0.181
-707.631	100.686	0.119	-0.141
-706.616	-164.357	-0.123	0.006
-705.602	22.482	-0.030	-0.025
-704.587	58.534	0.076	-0.076
-703.572	-200.000	-0.035	0.181
-702.558	-117.536	-0.240	0.044
-701.543	250.778	-0.028	-0.048
-700.529	108.316	-0.240	-0.292
-699.514	11.321	0.335	-0.261
-698.499	-200.000	0.015	0.106
-697.485	-100.603	-0.397	0.100
-696.470	128.288	0.139	-0.181
-695.456	800.000	0.045	0.141
-694.441	342.534	0.101	0.201
-693.426	355.890	-0.207	-0.419
-692.412	-200.000	-0.030	-0.248
-691.397	45.915	-0.177	0.167
-690.383	-123.675	-0.152	-0.025
-689.368	242.484	-0.027	-0.046
-688.354	-116.259	0.233	0.044
-687.339	-32.156	-0.110	-0.062
-686.324	-200.000	-0.060	-0.298
-685.310	-85.703	-0.056	-0.018
-684.295	-124.497	0.527	-0.083
-683.281	-200.000	-0.009	-0.164
-682.266	-13.473	-0.059	-0.039
-681.251	-155.966	0.111	0.007
-680.237	-200.000	0.014	-0.265
-679.222	800.000	-0.058	-0.186
-678.208	-102.933	-0.219	-0.053
-677.193	196.893	-0.137	-0.213
-676.178	800.000	0.022	-0.070
-675.164	-200.000	-0.015	-0.093
-674.149	146.547	0.226	0.309
-673.135	-148.695	-0.252	0.021
-672.120	176.181	0.146	0.215
-671.105	800.000	0.041	-0.141
-670.091	-123.918	0.058	-0.009
-669.076	-0.654	-0.141	-0.102
-668.062	800.000	-0.092	-0.291
-667.047	97.026	-0.281	-0.327
-666.032	-156.662	0.416	-0.026
-665.018	-200.000	0.005	0.243
-664.003	211.325	-0.139	-0.223
-662.989	-200.000	-0.024	-0.124
-661.974	-100.926	-0.448	-0.112
-660.959	37.733	-0.077	-0.070
-659.945	-41.595	-0.174	-0.091
-658.930	800.000	0.059	-0.227
-657.916	-200.000	-0.009	-0.386
-656.901	50.579	0.286	-0.275
-655.886	172.039	0.137	-0.200
-654.872	800.000	-0.035	-0.129
-653.857	-54.334	-0.262	-0.121
-652.843	-152.241	-0.076	-0.006
-651.828	-60.143	-0.519	0.225
-650.814	-200.000	0.001	-0.106
-649.799	-181.483	0.047	-0.001
-648.784	180.033	-0.183	0.272
-647.770	800.000	-0.009	-0.030
-646.755	34.548	0.159	0.141
-645.741	-200.000	-0.114	-0.508
-644.726	-9.179	0.184	-0.125
-643.711	-121.314	0.019	-0.003
-642.697	22.225	-0.307	0.255
-641.682	-134.372	0.172	-0.021
-640.668	-156.055	-0.322	-0.021
-639.653	-200.000	0.026	0.166
-638.638	-78.707	0.108	-0.037
-637.624	-200.000	-0.038	0.248
-636.609	756.249	0.057	-0.156
-635.595	566.885	-0.095	-0.235
-634.580	-127.120	0.048	0.007
-633.565	693.442	0.100	-0.265
-632.551	-200.000	-0.014	-0.102
-631.536	-61.213	-0.157	0.067
-630.522	800.000	-0.065	-0.202
-629.507	-63.239	-0.158	-0.066
-628.492	-200.000	0.015	0.187
-627.478	-99.987	-0.224	0.057
-626.463	-200.000	-0.060	-0.309
-625.449	800.000	0.125	-0.356
-624.434	800.000	-0.068	-0.205
-623.419	150.766	-0.088	0.121
-622.405	-81.963	0.189	-0.063
-621.390	116.491	-0.107	0.134
-620.376	2.251	-0.160	0.117
-619.361	473.797	-0.076	0.173
-618.346	-200.000	-0.011	-0.120
-617.332	-200.000	0.006	-0.116
-616.317	800.000	-0.053	-0.186
-615.303	602.314	0.066	0.166
-614.288	0.405	-0.284	0.206
-613.273	217.750	0.086	-0.139
-612.259	-109.024	0.070	-0.015
-611.244	-170.918	0.187	0.006
-610.230	-117.207	-0.316	-0.058
-609.215	-43.028	-0.137	-0.070
-608.201	159.528	-0.117	-0.165
-607.186	-149.965	-0.203	-0.016
-606.171	-90.265	0.306	0.090
-605.157	-200.000	0.017	0.094
-604.142	313.556	-0.062	0.119
-603.128	-200.000	-0.021	-0.296
-602.113	-120.395	-0.104	-0.018
-601.098	-14.834	-0.257	-0.167
-600.084	-200.000	0.001	0.140
-599.069	-11.699	-0.175	0.117
-598.055	83.453	0.129	0.143
-597.040	-27.256	-0.062	-0.037
-596.025	-21.372	-0.318	0.197
-595.011	800.000	0.049	-0.144
-593.996	3.643	0.149	0.110
-592.982	14.193	0.136	0.107
-591.967	33.102	0.159	0.140
-590.952	-43.600	-0.212	-0.109
-589.938	-175.539	0.148	0.004
-588.923	678.731	0.057	-0.151
-587.909	-200.000	0.009	-0.209
-586.894	-165.627	-0.170	-0.007
-585.879	336.902	0.104	-0.204
-584.865	-28.927	0.191	-0.111
-583.850	25.032	-0.101	-0.085
-582.836	-142.911	0.225	-0.022
-581.821	800.000	0.072	0.208
-580.806	238.436	-0.113	-0.190
-579.792	1.075	-0.098	0.071
-578.777	79.101	-0.104	0.113
-577.763	345.538	0.023	-0.046
-576.748	-142.662	-0.082	0.008
-575.733	-165.055	-0.186	0.008
-574.719	-200.000	-0.068	0.374
-573.704	800.000	-0.035	-0.113
-572.690	-200.000	-0.007	-0.089
-571.675	-200.000	-0.034	0.177
-570.661	235.106	-0.046	0.077
-569.646	-2.948	0.189	0.133
-568.631	-14.522	0.403	-0.262
-567.617	-200.000	-0.005	0.081
-566.602	25.989	-0.108	-0.091
-565.588	-124.839	-0.245	0.038
-564.573	516.219	0.102	-0.243
-563.558	111.389	0.252	-0.308
-562.544	780.229	0.078	-0.215
-561.529	800.000	-0.025	0.081
-560.515	-140.942	0.075	-0.008
-559.500	-200.000	0.067	0.371
-558.485	319.097	-0.286	0.548
-557.471	-2.541	0.124	0.088
-556.456	-200.000	0.010	0.082
-555.442	800.000	-0.048	-0.155
-554.427	-116.195	-0.086	0.016
-553.412	30.171	-0.242	-0.209
-552.398	800.000	-0.048	-0.135
-551.383	-30.553	-0.274	-0.157
-550.369	-200.000	-0.044	-0.290
-549.354	25.730	-0.074	-0.063
-548.339	-159.171	-0.344	-0.020
-547.325	-169.658	-0.107	-0.004
-546.310	-34.607	0.195	-0.108
-545.296	35.346	0.108	0.096
-544.281	-184.895	-0.188	-0.003
-543.266	-159.357	-0.062	0.003
-542.252	189.624	0.140	0.213
-541.237	-102.950	0.323	-0.078
-540.223	329.796	-0.154	-0.300
-539.208	-6.069	0.142	0.098
-538.193	-105.468	-0.123	0.028
-537.179	-135.437	0.100	-0.012
-536.164	-23.771	0.123	0.075
-535.150	96.005	0.235	0.271
-534.135	44.969	-0.051	-0.047
-533.121	76.493	-0.128	0.137
-532.106	156.931	-0.215	0.300
-531.091	-200.000	-0.058	-0.363
-530.077	0.702	0.251	0.182
-529.062	-194.851	0.066	-0.001
-528.048	-152.001	0.115	-0.009
-527.033	-42.941	0.382	-0.196
-526.018	-8.707	-0.137	0.093
-525.004	-46.858	-0.465	-0.230
-523.989	86.776	0.125	0.140
-522.975	276.346	0.136	-0.245
-521.960	669.414	0.062	0.163
-520.945	-168.176	0.180	-0.007
-519.931	50.513	-0.100	-0.095
-518.916	112.973	-0.213	-0.261
-517.902	800.000	0.049	-0.175
-516.887	177.838	-0.225	0.332
-515.872	120.504	0.094	0.118
-514.858	-117.211	-0.238	-0.044
-513.843	-159.820	-0.102	-0.006
-512.829	169.964	-0.189	-0.274
-511.814	310.200	0.182	-0.344
-510.799	-200.000	0.070	0.383
-509.785	-34.326	-0.205	-0.114
-508.770	800.000	0.074	0.283
-507.756	-142.034	-0.141	0.014
-506.741	33.717	-0.063	-0.056
-505.726	-16.521	0.028	0.018
-504.712	-187.364	-0.256	0.003
-503.697	208.501	-0.072	-0.113
-502.683	-100.876	0.261	-0.065
-501.668	-16.551	-0.098	-0.063
-500.653	32.268	-0.184	0.160
-499.639	-80.781	0.234	0.078
-498.624	69.120	-0.067	0.070
-497.610	-104.518	-0.189	0.044
-496.595	30.308	0.022	-0.019
-495.581	-136.963	-0.036	0.004
-494.566	-200.000	0.024	0.220
-493.551	-35.547	-0.177	-0.097
-492.537	-167.553	0.175	-0.007
-491.522	378.082	0.098	-0.203
-490.508	-129.962	0.372	0.051
-489.493	-150.314	-0.398	0.031
-488.478	-32.336	-0.144	-0.081
-487.464	-103.277	0.203	-0.048
-486.449	-118.604	-0.118	0.021
-485.435	-190.298	0.405	-0.004
-484.420	-67.077	0.104	0.041
-483.405	153.857	0.120	0.165
-482.391	220.625	0.193	-0.313
-481.376	800.000	0.055	0.214
-480.362	-82.879	-0.286	0.093
-479.347	98.484	0.072	-0.084
-478.332	255.270	0.124	0.215
-477.318	-137.263	-0.260	-0.030
-476.303	282.104	0.043	-0.078
-475.289	-27.909	0.047	-0.027
-474.274	-200.000	0.001	0.041
-473.259	800.000	-0.069	0.289
-472.245	-154.334	0.132	-0.009
-471.230	-200.000	0.019	0.158
-470.216	26.939	-0.114	-0.097
-469.201	162.849	-0.052	0.074
-468.186	107.687	0.098	-0.118
-467.172	296.980	-0.206	0.381
-466.157	-79.934	0.215	0.073
-465.143	308.140	0.091	-0.171
-464.128	-200.000	-0.076	-0.352
-463.113	-77.375	-0.127	-0.045
-462.099	-129.323	0.137	0.019
-461.084	422.190	0.075	0.163
-460.070	-200.000	-0.011	-0.611
-459.055	800.000	-0.055	0.221
-458.040	-31.174	-0.261	0.148
-457.026	-57.106	0.155	-0.069
-456.011	800.000	-0.073	-0.215
-454.997	707.269	-0.038	-0.102
-453.982	-200.000	0.017	-0.179
-452.968	330.931	0.064	-0.125
-451.953	-48.178	0.276	-0.134
-450.938	-200.000	-0.044	-0.589
-449.924	95.987	0.187	-0.215
-448.909	-75.201	-0.219	-0.079
-447.895	510.828	-0.108	0.254
-446.880	800.000	0.034	-0.129
-445.865	-24.022	-0.067	0.040
-444.851	-107.721	0.242	0.053
-443.836	800.000	-0.038	0.137
-442.822	4.436	-0.328	-0.242
-441.807	548.965	-0.126	-0.304
-440.792	-94.907	-0.276	0.075
-439.778	396.553	0.052	-0.109
-438.763	534.012	-0.028	-0.066
-437.749	79.391	-0.151	-0.164
-436.734	800.000	0.034	-0.102
-435.719	-102.746	0.292	0.070
-434.705	-49.253	-0.164	0.079
-433.690	30.976	0.073	0.063
-432.676	-11.109	0.063	0.042
-431.661	800.000	0.047	0.153
-430.646	-1.748	-0.226	0.160
-429.632	800.000	-0.114	-0.351
-428.617	-200.000	0.014	-0.411
-427.603	-120.659	-0.045	-0.008
-426.588	168.702	0.143	0.206
-425.573	-4.735	-0.076	-0.053
-424.559	191.579	0.162	0.247
-423.544	-6.966	0.086	0.059
-422.530	-7.948	-0.169	0.115
-421.515	-97.972	-0.099	0.026
-420.500	-17.059	-0.274	-0.174
-419.486	-87.438	0.240	0.073
-418.471	800.000	0.113	0.333
-417.457	-93.830	0.094	0.026
-416.442	292.821	0.110	-0.202
-415.428	800.000	-0.031	-0.104
-414.413	473.205	-0.037	-0.085
-413.398	197.375	0.111	-0.171
-412.384	51.728	0.185	0.178
-411.369	32.120	-0.281	-0.244
-410.355	800.000	-0.044	0.193
-409.340	-135.954	-0.212	-0.025
-408.325	-200.000	-0.023	-0.123
-407.311	-46.037	-0.216	0.107
-406.296	-87.780	0.288	0.087
-405.282	778.265	-0.113	-0.312
-404.267	-200.000	-0.038	-0.328
-403.252	377.001	-0.134	0.275
-402.238	577.613	-0.099	0.243
-401.223	-200.000	-0.019	-0.253
-400.209	521.593	-0.139	-0.329
-399.194	234.888	0.081	0.134
-398.179	182.151	-0.018	-0.027
-397.165	526.334	-0.119	-0.282
-396.150	584.817	0.127	0.314
-395.136	-95.033	-0.145	-0.040
-394.121	140.933	-0.209	-0.278
-393.106	479.271	-0.152	0.348
-392.092	218.254	-0.198	0.318
-391.077	-112.536	0.240	-0.048
-390.063	800.000	-0.116	0.355
-389.048	124.210	0.099	0.125
-388.033	-55.164	0.215	0.097
-387.019	22.910	-0.288	0.237
-386.004	-45.198	-0.027	-0.013
-384.990	791.634	0.133	-0.368
-383.975	-200.000	0.036	-0.341
-382.960	-65.367	0.096	0.039
-381.946	-115.893	-0.252	-0.047
-380.931	-72.614	-0.015	0.006
-379.917	-200.000	0.054	-0.263
-378.902	728.156	-0.084	-0.224
-377.888	-127.373	0.097	-0.014
-376.873	78.650	-0.155	-0.167
-375.858	-145.683	0.213	0.019
-374.844	33.501	0.267	0.233
-373.829	-20.378	0.125	0.077
-372.815	-200.000	-0.048	0.262
-371.800	29.175	-0.116	-0.099
-370.785	-2.450	0.052	-0.037
-369.771	522.790	0.055	0.131
-368.756	-26.630	0.170	-0.100
-367.742	-98.832	-0.431	0.110
-366.727	-71.459	-0.318	0.120
-365.712	66.006	-0.047	0.047
-364.698	83.466	0.035	0.039
-363.683	50.217	-0.106	-0.101
-362.669	-200.000	-0.004	0.113
-361.654	-81.124	0.358	-0.119
-360.639	224.367	-0.114	0.184
-359.625	-17.492	0.104	0.066
-358.610	30.478	0.070	-0.060
-357.596	-53.628	0.240	-0.110
-356.581	-89.268	0.043	-0.013
-355.566	-200.000	-0.052	-0.241
-354.552	42.938	0.207	0.190
-353.537	-200.000	-0.019	-0.143
-352.523	-178.841	-0.101	0.002
-351.508	-200.000	0.036	0.184
-350.493	-142.041	0.445	0.044
-349.479	-115.457	-0.195	0.037
-348.464	-66.193	-0.231	-0.093
-347.450	188.281	-0.197	-0.296
-346.435	-86.697	-0.110	-0.034
-345.420	381.584	-0.019	-0.040
-344.406	266.692	-0.063	-0.110
-343.391	-200.000	0.279	-0.001
-342.377	-119.556	-0.497	-0.086
-341.362	-92.092	-0.070	0.020
-340.348	-200.000	0.060	0.295
-339.333	-200.000	0.059	0.337
-338.318	105.646	0.092	-0.109
-337.304	-58.654	0.233	-0.102
-336.289	800.000	0.040	0.162
-335.275	800.000	0.130	0.382
-334.260	88.839	0.227	0.253
-333.245	-95.113	0.113	0.031
-332.231	-200.000	-0.069	0.384
-331.216	-74.074	-0.185	0.067
-330.202	-58.626	-0.242	0.105
-329.187	-200.000	-0.025	0.158
-328.172	-97.640	0.276	-0.072
-327.158	245.334	-0.133	0.225
-326.143	1.748	-0.082	0.059
-325.129	-21.037	0.194	-0.119
-324.114	-162.751	-0.150	-0.007
-323.099	437.096	-0.036	0.079
-322.085	202.461	0.060	0.092
-321.070	-200.000	-0.074	-0.395
-320.056	-200.000	0.012	0.180
-319.041	-134.255	0.221	0.027
-318.026	-11.002	-0.369	0.244
-317.012	179.491	0.066	-0.096
-315.997	36.493	-0.266	-0.235
-314.983	238.220	-0.121	0.201
-313.968	-200.000	0.027	0.193
-312.953	-23.704	-0.097	0.059
-311.939	-48.385	-0.305	-0.147
-310.924	140.549	-0.179	-0.237
-309.910	-200.000	0.009	0.057
-308.895	71.564	0.238	-0.248
-307.880	-65.464	-0.310	0.125
-306.866	-200.000	0.005	0.378
-305.851	706.602	0.076	-0.200
-304.837	-95.353	0.082	0.022
-303.822	233.475	0.115	-0.189
-302.807	800.000	0.148	-0.569
-301.793	-200.000	0.028	-0.294
-300.778	-17.676	0.038	0.024
-299.764	468.267	-0.037	-0.082
-298.749	51.281	-0.263	0.251
-297.735	-142.304	0.463	0.046
-296.720	275.773	-0.044	0.078
-295.705	-94.703	-0.167	-0.045
-294.691	-200.000	0.009	0.142
-293.676	126.637	-0.120	0.153
-292.662	84.390	-0.222	-0.243
-291.647	-80.417	0.230	-0.077
-290.632	106.441	0.101	0.120
-289.618	-149.265	0.155	-0.012
-288.603	-164.597	-0.419	-0.019
-287.589	-200.000	-0.007	0.176
-286.574	16.439	0.039	-0.030
-285.559	79.296	0.186	-0.199
-284.545	141.922	0.110	0.146
-283.530	147.014	0.072	0.098
-282.516	-27.411	-0.229	0.133
-281.501	19.688	0.141	0.113
-280.486	119.963	0.191	-0.237
-279.472	-85.938	-0.160	-0.050
-278.457	800.000	0.052	0.203
-277.443	-200.000	-0.018	-0.128
-276.428	41.704	0.183	0.166
-275.413	-174.383	-0.095	0.003
-274.399	-22.102	0.371	0.226
-273.384	800.000	0.079	0.330
-272.370	-184.577	-0.103	-0.002
-271.355	625.346	-0.065	0.165
-270.340	128.337	-0.138	-0.175
-269.326	98.228	0.237	-0.273
-268.311	294.678	-0.111	-0.204
-267.297	13.917	0.443	0.345
-266.282	-61.536	-0.068	-0.029
-265.267	-200.000	0.038	-0.288
-264.253	-200.000	0.033	-0.435
-263.238	-69.827	0.178	0.068
-262.224	800.000	-0.010	-0.043
-261.209	-19.321	-0.267	-0.166
-260.195	-128.163	-0.133	0.019
-259.180	255.460	0.146	-0.251
-258.165	-200.000	0.006	0.133
-257.151	-71.161	-0.119	0.045
-256.136	-86.100	-0.039	0.012
-255.122	394.834	-0.151	-0.314
-254.107	49.233	-0.220	0.207
-253.092	-139.306	0.106	-0.011
-252.078	152.354	0.056	-0.077
-251.063	800.000	-0.089	0.285
-250.049	168.695	0.092	0.131
-249.034	-56.904	0.174	0.077
-248.019	389.072	-0.108	0.224
-247.005	-26.467	0.082	-0.048
-245.990	103.342	0.156	-0.183
-244.976	-19.614	-0.194	0.120
-243.961	-89.779	-0.366	0.107
-242.946	-94.234	0.376	0.103
-241.932	-168.919	0.088	-0.003
-240.917	41.448	-0.065	0.059
-239.903	800.000	-0.039	-0.131
-238.888	-131.373	0.063	-0.008
-237.873	-97.103	0.140	0.037
-236.859	-59.003	-0.249	0.108
-235.844	214.496	0.104	0.164
-234.830	321.855	0.082	-0.155
-233.815	47.501	-0.179	0.167
-232.800	40.752	-0.137	0.123
-231.786	30.983	0.328	0.281
-230.771	800.000	0.018	0.059
-229.757	37.281	-0.134	-0.119
-228.742	8.043	-0.288	0.216
-227.727	149.793	0.185	-0.250
-226.713	-200.000	-0.035	0.218
-225.698	-125.608	-0.190	0.029
-224.684	553.273	0.073	0.175
-223.669	-113.544	0.266	-0.052
-222.655	-130.527	0.209	0.028
-221.640	-73.541	0.268	-0.098
-220.625	-84.028	0.259	0.082
-219.611	-109.607	0.168	0.035
-218.596	216.464	0.132	-0.210
-217.582	800.000	0.097	0.364
-216.567	-200.000	-0.038	0.179
-215.552	800.000	-0.052	-0.150
-214.538	-184.403	0.159	0.003
-213.523	400.234	0.071	-0.148
-212.509	-140.565	0.284	-0.029
-211.494	-10.328	0.288	0.191
-210.479	171.190	0.031	0.044
-209.465	-179.905	0.328	-0.007
-208.450	134.537	0.040	0.052
-207.436	489.584	0.209	0.478
-206.421	150.822	0.117	-0.159
-205.406	800.000	-0.044	0.149
-204.392	186.838	-0.174	-0.260
-203.377	-155.410	-0.118	-0.008
-202.363	-54.717	-0.212	-0.096
-201.348	378.555	-0.058	-0.119
-200.333	-72.687	0.134	-0.050
-199.319	647.715	-0.097	0.247
-198.304	158.087	0.118	0.163
-197.290	-13.499	0.096	-0.062
-196.275	65.323	-0.157	-0.158
-195.260	286.139	0.082	0.147
-194.246	-200.000	-0.008	0.283
-193.231	-52.791	0.041	0.019
-192.217	800.000	-0.085	0.280
-191.202	21.025	0.135	0.110
-190.187	-111.157	0.434	0.089
-189.173	800.000	0.072	-0.218
-188.158	-114.822	0.354	0.067
-187.144	30.197	0.091	-0.078
-186.129	293.409	-0.095	-0.174
-185.114	-45.679	0.127	0.063
-184.100	-188.150	0.239	-0.003
-183.085	416.432	-0.109	0.231
-182.071	17.925	0.231	-0.184
-181.056	218.551	-0.149	-0.238
-180.042	-9.617	0.145	-0.096
-179.027	-118.042	-0.262	-0.047
-178.012	-84.891	0.218	-0.068
-176.998	-108.291	0.303	-0.065
-175.983	-79.759	-0.084	-0.028
-174.969	800.000	0.060	-0.201
-173.954	152.857	0.148	-0.202
-172.939	158.453	0.371	0.513
-171.925	800.000	-0.028	0.105
-170.910	-106.527	0.073	0.016
-169.896	97.097	0.053	0.061
-168.881	126.284	0.082	-0.104
-167.866	800.000	0.055	0.198
-166.852	-200.000	0.008	-0.254
-165.837	176.257	-0.059	-0.086
-164.823	58.343	0.058	0.057
-163.808	502.576	0.024	-0.056
-162.793	-198.690	0.393	0.002
-161.779	-200.000	-0.028	-0.215
-160.764	800.000	0.009	-0.038
-159.750	30.127	-0.202	0.172
-158.735	-93.589	0.129	-0.036
-157.720	-125.301	-0.196	0.030
-156.706	254.723	-0.058	0.099
-155.691	-65.974	-0.270	0.107
-154.677	20.897	-0.099	0.080
-153.662	-24.229	-0.069	0.041
-152.647	184.049	-0.178	0.262
-151.633	-100.821	-0.252	0.062
-150.618	265.015	-0.062	0.108
-149.604	91.274	0.179	0.200
-148.589	-99.937	-0.317	-0.079
-147.574	-200.000	-0.010	0.061
-146.560	-200.000	-0.002	0.135
-145.545	-83.071	0.129	-0.041
-144.531	-69.525	0.251	-0.096
-143.516	-53.062	0.189	-0.087
-142.502	-160.418	0.345	-0.018
-141.487	0.225	-0.263	0.187
-140.472	-200.000	-0.005	-0.134
-139.458	-200.000	0.231	-0.001
-138.443	458.959	-0.104	-0.230
-137.429	800.000	-0.042	0.146
-136.414	-120.008	-0.012	-0.002
-135.399	-98.834	0.113	0.029
-134.385	348.257	0.058	0.114
-133.370	415.099	0.045	-0.094
-132.356	-200.000	-0.023	0.145
-131.341	800.000	-0.055	0.221
-130.326	800.000	-0.025	-0.068
-129.312	-200.000	-0.026	0.166
-128.297	-112.267	-0.289	-0.058
-127.283	-38.313	0.038	-0.020
-126.268	165.305	-0.028	0.040
-125.253	680.785	-0.147	0.381
-124.239	497.808	-0.032	-0.072
-123.224	510.755	-0.099	0.230
-122.210	-12.950	-0.221	0.143
