DTS Sentinel unit serial number:	SN413079Multiplexer serial number:	ORYXHardware model number:	OX4-SRSoftware version number:	ORYX F/W v4.00 Oryx Data Collector v3.7.2.0data status	okinstallation	princeton_trtdifferential loss correction	single-endedforward channel	channel 4reverse channel	N/Adate	2019/09/10time	19:47:11forward acquisition time	60.00reverse acquisition time	0.00gamma	496.2192k internal	0.2310k external	0.2310temperature offset calibration	0.9947default loss term (dB/km)	0.3790temperature slope calibration	1.0000multiplexer offset coefficient	1.0000multiplexer slope coefficient	1.0000fibre end	0.00T internal ref (°C)	33.00T ext. ref 1 (°C)	-0.30T ext. ref 2 (°C)	25.69length (m)	temperature (°C)	Stokes	anti-Stokes-747.200	-161.507	-0.140	0.007
-746.185	-133.580	0.049	0.006
-745.171	632.067	-0.025	0.065
-744.156	62.490	-0.238	0.241
-743.142	46.135	0.368	-0.346
-742.127	-200.000	0.028	0.365
-741.112	-89.441	0.085	0.025
-740.098	92.346	0.294	0.336
-739.083	39.880	-0.049	0.044
-738.069	134.361	0.172	-0.227
-737.054	-130.868	-0.186	-0.025
-736.039	327.793	0.078	0.152
-735.025	-92.485	0.271	0.077
-734.010	89.048	-0.077	0.086
-732.996	-19.292	-0.204	-0.128
-731.981	166.911	0.056	-0.080
-730.966	-34.729	0.125	-0.069
-729.952	613.457	-0.061	-0.155
-728.937	150.434	-0.210	-0.289
-727.923	800.000	-0.063	-0.202
-726.908	-200.000	0.086	-0.447
-725.894	800.000	0.145	0.452
-724.879	-94.212	0.245	0.068
-723.864	-200.000	0.065	-0.484
-722.850	-200.000	0.028	-0.238
-721.835	-113.727	-0.140	0.028
-720.821	-89.558	-0.306	-0.091
-719.806	666.071	0.068	0.177
-718.791	-200.000	0.026	-0.276
-717.777	-51.889	0.280	0.132
-716.762	-73.074	-0.105	0.039
-715.748	-146.981	0.116	0.010
-714.733	226.738	-0.187	-0.308
-713.718	800.000	-0.020	0.070
-712.704	209.365	-0.021	-0.033
-711.689	613.731	-0.067	0.171
-710.675	63.363	0.306	-0.311
-709.660	96.559	0.250	0.290
-708.645	22.729	0.149	-0.123
-707.631	-200.000	0.006	-0.128
-706.616	70.509	-0.033	0.035
-705.602	371.332	-0.049	0.102
-704.587	-68.438	-0.281	0.110
-703.572	-47.796	0.089	-0.044
-702.558	162.595	-0.163	-0.231
-701.543	-200.000	0.108	0.000
-700.529	126.959	0.283	0.363
-699.514	6.726	0.123	-0.092
-698.499	410.852	0.162	-0.347
-697.485	246.282	-0.127	0.216
-696.470	-69.769	-0.071	0.028
-695.456	72.652	0.218	0.230
-694.441	27.058	-0.234	0.199
-693.426	586.878	-0.064	-0.159
-692.412	-111.990	0.128	0.026
-691.397	-132.022	0.407	-0.054
-690.383	182.124	0.186	0.278
-689.368	-162.225	-0.394	-0.020
-688.354	-200.000	0.011	0.073
-687.339	-200.000	0.005	-0.127
-686.324	-51.607	0.329	-0.156
-685.310	-66.018	-0.048	0.020
-684.295	-15.068	-0.083	0.054
-683.281	800.000	-0.049	0.208
-682.266	1.077	-0.178	-0.130
-681.251	366.033	-0.065	-0.132
-680.237	800.000	-0.083	0.243
-679.222	69.756	0.302	-0.316
-678.208	-68.200	-0.122	0.048
-677.193	284.619	-0.083	-0.151
-676.178	-200.000	-0.013	-0.259
-675.164	119.293	-0.167	-0.210
-674.149	-10.880	-0.211	-0.141
-673.135	292.302	-0.075	0.139
-672.120	59.295	0.107	-0.106
-671.105	48.813	-0.025	-0.024
-670.091	176.941	-0.072	-0.106
-669.076	800.000	0.086	0.255
-668.062	243.523	0.105	-0.178
-667.047	-200.000	-0.014	-0.332
-666.032	174.721	0.140	-0.205
-665.018	800.000	-0.094	-0.287
-664.003	-200.000	-0.019	-0.381
-662.989	800.000	-0.065	-0.187
-661.974	-200.000	-0.001	-0.112
-660.959	-9.805	-0.212	0.143
-659.945	593.553	0.097	0.243
-658.930	8.280	0.080	0.061
-657.916	-52.440	0.420	-0.197
-656.901	-124.739	-0.299	-0.047
-655.886	123.279	-0.159	-0.202
-654.872	-11.206	0.071	-0.048
-653.857	111.837	-0.199	0.243
-652.843	85.870	-0.209	-0.233
-651.828	-200.000	-0.046	-0.296
-650.814	6.055	-0.180	-0.135
-649.799	-143.162	0.137	0.013
-648.784	800.000	-0.052	-0.192
-647.770	286.963	0.085	-0.155
-646.755	97.636	0.195	0.226
-645.741	-71.926	-0.337	-0.127
-644.726	60.772	-0.113	0.114
-643.711	-124.157	0.164	-0.026
-642.697	14.631	-0.178	0.141
-641.682	800.000	-0.084	-0.237
-640.668	-112.233	-0.137	0.028
-639.653	-127.937	0.230	0.033
-638.638	499.756	-0.095	0.221
-637.624	-31.253	0.216	0.123
-636.609	67.799	-0.161	-0.166
-635.595	602.875	-0.074	0.187
-634.580	24.702	-0.132	-0.110
-633.565	-99.551	-0.091	0.023
-632.551	-146.456	0.126	-0.011
-631.536	99.165	-0.157	-0.183
-630.522	-35.242	-0.268	0.147
-629.507	52.606	-0.189	-0.182
-628.492	-200.000	0.034	0.156
-627.478	724.608	-0.072	-0.194
-626.463	376.501	-0.080	0.164
-625.449	-92.981	-0.152	0.043
-624.434	-76.412	0.103	-0.037
-623.419	22.968	-0.236	0.196
-622.405	448.428	-0.104	-0.231
-621.390	-200.000	0.323	-0.001
-620.376	-200.000	0.028	0.409
-619.361	85.094	0.107	-0.119
-618.346	-43.490	0.163	-0.083
-617.332	-9.749	-0.475	0.319
-616.317	800.000	-0.036	-0.103
-615.303	61.248	0.189	0.190
-614.288	44.710	-0.217	0.202
-613.273	118.881	0.076	-0.095
-612.259	-200.000	0.014	0.273
-611.244	-200.000	-0.025	0.301
-610.230	-71.671	-0.117	-0.044
-609.215	-72.167	0.208	-0.078
-608.201	155.023	-0.028	0.039
-607.186	-200.000	0.013	-0.434
-606.171	-165.682	0.185	-0.008
-605.157	-116.956	-0.347	0.064
-604.142	-200.000	0.005	-0.207
-603.128	-200.000	0.001	-0.030
-602.113	46.128	-0.086	-0.080
-601.098	9.883	-0.152	-0.116
-600.084	102.205	0.092	0.109
-599.069	123.961	0.291	0.369
-598.055	205.309	0.069	-0.109
-597.040	359.802	0.026	-0.053
-596.025	428.425	-0.063	0.138
-595.011	-41.559	-0.050	-0.026
-593.996	-10.062	-0.079	0.053
-592.982	268.389	-0.171	0.302
-591.967	7.434	0.221	0.167
-590.952	-200.000	-0.040	-0.179
-589.938	-200.000	0.056	-0.407
-588.923	1.979	-0.298	-0.217
-587.909	185.647	0.152	-0.228
-586.894	58.580	0.212	0.210
-585.879	-6.260	0.038	0.026
-584.865	14.580	0.255	0.201
-583.850	150.712	0.161	-0.221
-582.836	-98.417	-0.084	-0.022
-581.821	800.000	-0.053	0.203
-580.806	-74.212	-0.141	-0.052
-579.792	-17.216	-0.294	0.187
-578.777	800.000	0.050	-0.143
-577.763	-200.000	0.009	0.175
-576.748	-66.248	-0.426	0.171
-575.733	23.860	-0.118	0.098
-574.719	-32.356	0.190	0.107
-573.704	333.455	0.105	-0.204
-572.690	32.867	0.158	0.138
-571.675	-200.000	-0.030	0.152
-570.661	111.869	-0.133	-0.162
-569.646	-46.825	-0.339	0.167
-568.631	6.685	0.126	-0.094
-567.617	421.427	0.104	-0.224
-566.602	-200.000	0.016	-0.195
-565.588	515.061	-0.071	0.167
-564.573	800.000	0.076	-0.274
-563.558	212.851	-0.246	-0.392
-562.544	-200.000	0.029	-0.176
-561.529	-151.239	0.424	-0.032
-560.515	800.000	-0.090	0.367
-559.500	-89.287	-0.267	0.079
-558.485	-85.964	0.365	0.114
-557.471	800.000	0.022	0.070
-556.456	-200.000	-0.005	-0.033
-555.442	-200.000	-0.009	-0.097
-554.427	800.000	0.012	-0.047
-553.412	-114.949	0.171	-0.033
-552.398	-164.293	-0.347	0.016
-551.383	-72.638	0.348	-0.129
-550.369	-76.705	0.394	-0.139
-549.354	-4.132	0.145	0.101
-548.339	-147.909	0.257	-0.022
-547.325	85.424	0.358	0.397
-546.310	134.177	-0.116	0.151
-545.296	-17.836	-0.278	0.176
-544.281	-110.056	0.157	0.033
-543.266	800.000	0.071	0.214
-542.252	-115.387	-0.189	0.036
-541.237	800.000	0.043	0.120
-540.223	313.462	-0.059	-0.112
-539.208	-134.310	0.186	0.023
-538.193	800.000	-0.053	-0.180
-537.179	-106.554	0.163	-0.037
-536.164	136.799	0.227	-0.299
-535.150	-143.075	-0.240	-0.023
-534.135	35.717	0.095	-0.084
-533.121	-196.646	0.059	-0.000
-532.106	-200.000	-0.012	-0.143
-531.091	-200.000	-0.032	-0.210
-530.077	-69.412	0.113	0.043
-529.062	-110.169	-0.045	-0.009
-528.048	-200.000	0.020	-0.299
-527.033	1.839	-0.307	0.223
-526.018	-17.766	-0.068	0.043
-525.004	-200.000	0.009	0.119
-523.989	800.000	-0.060	-0.225
-522.975	10.144	0.008	-0.006
-521.960	82.392	0.127	-0.139
-520.945	-83.697	-0.165	-0.053
-519.931	68.911	-0.153	0.158
-518.916	6.495	-0.152	-0.114
-517.902	-200.000	0.022	-0.266
-516.887	800.000	0.088	-0.317
-515.872	-200.000	0.040	-0.240
-514.858	-83.490	-0.067	-0.022
-513.843	351.932	-0.149	0.297
-512.829	238.171	0.095	-0.159
-511.814	371.293	0.120	-0.245
-510.799	57.192	-0.206	-0.202
-509.785	-200.000	-0.027	-0.121
-508.770	106.687	0.104	-0.124
-507.756	800.000	0.051	-0.215
-506.741	80.603	-0.316	-0.343
-505.726	-200.000	-0.017	-0.154
-504.712	-25.390	0.092	0.055
-503.697	-86.738	-0.215	0.066
-502.683	-100.927	0.430	0.106
-501.668	1.541	0.097	-0.070
-500.653	-200.000	0.017	-0.101
-499.639	-66.026	-0.161	-0.065
-498.624	-57.737	0.037	0.017
-497.610	800.000	-0.060	-0.201
-496.595	-137.871	-0.190	0.021
-495.581	-83.170	-0.106	0.034
-494.566	-46.265	-0.184	0.091
-493.551	-0.399	-0.128	0.091
-492.537	-87.367	0.315	-0.096
-491.522	-25.228	0.080	0.048
-490.508	-63.877	-0.236	-0.097
-489.493	-200.000	-0.027	0.328
-488.478	23.433	0.289	-0.239
-487.464	174.588	0.106	-0.154
-486.449	779.580	-0.086	-0.237
-485.435	103.549	-0.163	-0.192
-484.420	-200.000	0.436	-0.001
-483.405	172.794	0.051	-0.074
-482.391	-103.031	-0.334	0.080
-481.376	-18.144	-0.165	-0.104
-480.362	-141.593	-0.202	0.021
-479.347	-200.000	0.011	-0.056
-478.332	114.881	0.083	-0.102
-477.318	-76.467	0.074	0.026
-476.303	50.558	-0.237	0.225
-475.289	-200.000	0.001	0.068
-474.274	-3.323	0.110	0.077
-473.259	800.000	0.039	0.128
-472.245	-155.476	0.135	0.009
-471.230	-108.314	-0.243	-0.053
-470.216	177.248	-0.109	0.159
-469.201	-57.609	-0.101	0.045
-468.186	-54.833	-0.357	0.162
-467.172	26.682	0.198	-0.166
-466.157	-78.288	-0.377	0.130
-465.143	104.900	0.101	-0.120
-464.128	102.522	0.137	0.161
-463.113	292.237	0.295	0.539
-462.099	512.438	0.015	0.035
-461.084	-163.021	0.099	0.005
-460.070	79.990	0.228	0.247
-459.055	-200.000	-0.036	0.191
-458.040	715.693	0.100	0.267
-457.026	-107.504	0.226	0.050
-456.011	190.282	0.148	-0.223
-454.997	159.807	0.106	-0.148
-453.982	-48.856	-0.071	-0.034
-452.968	249.251	0.059	0.100
-451.953	-200.000	-0.021	-0.137
-450.938	28.677	-0.128	-0.109
-449.924	-68.984	-0.212	-0.082
-448.909	-200.000	0.017	0.111
-447.895	-43.035	0.119	-0.061
-446.880	-121.557	-0.257	-0.043
-445.865	-35.714	-0.270	-0.147
-444.851	-68.864	-0.301	-0.117
-443.836	-200.000	-0.040	0.345
-442.822	101.027	-0.209	-0.244
-441.807	800.000	-0.046	-0.184
-440.792	70.063	0.258	-0.267
-439.778	113.654	-0.208	-0.253
-438.763	-73.967	-0.158	-0.058
-437.749	-129.016	-0.194	0.027
-436.734	137.999	-0.172	-0.227
-435.719	-36.987	0.027	0.015
-434.705	69.139	0.212	0.218
-433.690	800.000	0.090	0.257
-432.676	-151.036	-0.077	0.006
-431.661	27.812	-0.051	0.043
-430.646	800.000	0.009	0.027
-429.632	74.212	0.083	-0.087
-428.617	72.220	-0.385	0.403
-427.603	39.503	0.077	0.069
-426.588	18.819	0.074	0.059
-425.573	384.833	-0.065	-0.134
-424.559	92.729	-0.211	0.239
-423.544	-60.900	-0.116	0.049
-422.530	299.579	0.056	-0.103
-421.515	-69.975	0.157	-0.060
-420.500	-200.000	0.091	0.454
-419.486	165.495	-0.095	0.134
-418.471	-21.110	-0.219	-0.134
-417.457	283.933	-0.150	-0.270
-416.442	-45.146	-0.237	-0.118
-415.428	800.000	-0.082	-0.280
-414.413	-6.855	-0.113	-0.077
-413.398	104.152	-0.082	0.097
-412.384	207.530	0.117	0.182
-411.369	-68.908	0.254	0.098
-410.355	-94.166	0.125	0.034
-409.340	-77.626	-0.140	-0.049
-408.325	-1.815	-0.388	0.274
-407.311	-110.111	0.486	-0.102
-406.296	296.695	0.116	0.213
-405.282	-200.000	-0.056	-0.424
-404.267	-0.984	0.336	-0.238
-403.252	-176.771	-0.225	-0.006
-402.238	-123.058	-0.198	-0.032
-401.223	-200.000	-0.033	-0.169
-400.209	-102.507	0.083	-0.020
-399.194	-33.746	0.169	0.094
-398.179	-65.246	0.185	-0.075
-397.165	-145.136	0.127	-0.012
-396.150	-200.000	-0.006	0.165
-395.136	140.416	-0.140	0.184
-394.121	-44.777	-0.155	0.077
-393.106	-200.000	0.034	-0.155
-392.092	149.426	0.171	0.231
-391.077	119.187	-0.174	0.215
-390.063	800.000	0.130	0.423
-389.048	-63.804	-0.110	0.045
-388.033	-85.064	-0.346	-0.108
-387.019	800.000	-0.038	-0.138
-386.004	-38.786	-0.345	-0.182
-384.990	146.876	-0.193	0.260
-383.975	-200.000	0.026	-0.244
-382.960	55.159	-0.209	-0.202
-381.946	455.810	-0.100	-0.222
-380.931	74.860	0.345	-0.364
-379.917	-135.203	-0.210	-0.025
-378.902	-0.350	-0.242	-0.172
-377.888	-189.084	-0.129	0.002
-376.873	184.312	0.134	0.199
-375.858	79.677	-0.133	0.143
-374.844	90.997	0.123	-0.138
-373.829	800.000	-0.036	-0.130
-372.815	538.417	-0.133	-0.317
-371.800	-123.863	-0.084	-0.013
-370.785	-200.000	-0.067	-0.395
-369.771	-200.000	0.021	-0.209
-368.756	156.448	-0.026	-0.036
-367.742	-143.470	0.233	0.022
-366.727	533.933	-0.090	0.213
-365.712	480.703	-0.098	0.223
-364.698	13.537	-0.194	0.151
-363.683	-200.000	-0.035	0.316
-362.669	363.905	-0.069	-0.139
-361.654	-36.780	0.022	0.012
-360.639	-152.601	-0.092	0.007
-359.625	-100.620	-0.281	0.069
-358.610	65.291	0.216	-0.219
-357.596	800.000	0.120	0.369
-356.581	-200.000	0.037	0.175
-355.566	776.597	0.087	0.237
-354.552	663.531	-0.157	0.404
-353.537	800.000	0.052	0.207
-352.523	-200.000	-0.015	0.284
-351.508	800.000	-0.100	0.304
-350.493	531.989	0.070	0.167
-349.479	50.260	-0.083	0.078
-348.464	-135.572	0.259	-0.031
-347.450	-5.743	0.114	0.078
-346.435	70.549	-0.232	0.240
-345.420	-200.000	0.008	-0.223
-344.406	195.055	0.067	0.101
-343.391	39.961	0.118	0.106
-342.377	-105.947	0.089	0.020
-341.362	-200.000	0.021	0.170
-340.348	-98.738	0.379	-0.097
-339.333	-200.000	0.014	0.102
-338.318	-200.000	-0.016	-0.158
-337.304	-105.217	-0.252	0.057
-336.289	-142.242	0.354	0.035
-335.275	10.145	0.099	-0.075
-334.260	-63.749	0.066	0.027
-333.245	-36.990	0.215	0.115
-332.231	62.771	-0.221	0.221
-331.216	-44.371	-0.065	0.032
-330.202	251.226	0.039	-0.066
-329.187	128.664	0.159	-0.202
-328.172	62.101	0.088	-0.088
-327.158	-200.000	0.007	0.132
-326.143	-151.341	-0.155	-0.012
-325.129	-196.747	0.282	-0.002
-324.114	-88.288	0.320	-0.096
-323.099	-41.825	0.164	0.084
-322.085	163.755	-0.077	0.108
-321.070	-103.629	0.123	0.029
-320.056	340.404	0.085	-0.165
-319.041	35.221	-0.245	-0.214
-318.026	409.332	0.178	0.376
-317.012	-103.409	0.333	-0.078
-315.997	800.000	-0.016	0.061
-314.983	-200.000	0.026	0.145
-313.968	-103.162	0.252	-0.060
-312.953	216.914	0.037	-0.059
-311.939	198.920	-0.069	0.106
-310.924	-67.453	0.196	-0.077
-309.910	-91.743	-0.189	-0.054
-308.895	-122.603	0.295	0.048
-307.880	-67.801	-0.168	-0.066
-306.866	800.000	0.014	0.050
-305.851	-200.000	0.021	0.346
-304.837	18.346	-0.080	-0.064
-303.822	49.581	0.190	-0.179
-302.807	227.266	0.022	-0.036
-301.793	-51.987	-0.116	0.054
-300.778	202.881	-0.137	0.211
-299.764	-200.000	-0.033	0.417
-298.749	-153.524	0.134	-0.009
-297.735	-126.159	0.214	-0.032
-296.720	275.126	0.192	-0.340
-295.705	-99.608	0.167	0.042
-294.691	33.955	-0.139	-0.121
-293.676	-81.089	0.132	-0.044
-292.662	121.111	-0.129	-0.160
-291.647	-131.276	0.242	0.032
-290.632	-82.685	0.292	0.094
-289.618	800.000	-0.051	0.146
-288.603	-129.241	0.290	0.040
-287.589	255.505	-0.072	-0.123
-286.574	-200.000	0.063	-0.398
-285.559	66.357	0.210	-0.213
-284.545	264.698	0.075	0.130
-283.530	-137.730	-0.366	-0.041
-282.516	-200.000	-0.009	0.216
-281.501	-200.000	-0.018	0.373
-280.486	-200.000	-0.012	0.124
-279.472	-200.000	0.037	-0.176
-278.457	-32.816	0.053	-0.029
-277.443	590.758	0.164	0.402
-276.428	98.223	0.253	-0.290
-275.413	267.210	-0.035	0.061
-274.399	-200.000	0.046	0.296
-273.384	187.102	0.155	0.230
-272.370	-83.197	0.356	-0.114
-271.355	580.923	-0.084	-0.205
-270.340	-63.786	-0.375	-0.153
-269.326	127.973	0.066	-0.084
-268.311	198.162	0.027	-0.041
-267.297	-200.000	-0.047	-0.417
-266.282	-200.000	-0.029	0.188
-265.267	144.350	-0.044	0.059
-264.253	-200.000	-0.030	0.232
-263.238	-200.000	-0.042	-0.200
-262.224	372.247	0.016	-0.032
-261.209	262.994	-0.152	0.263
-260.195	-190.474	-0.074	0.001
-259.180	-62.024	-0.187	0.078
-258.165	800.000	0.117	-0.333
-257.151	-56.971	0.042	-0.019
-256.136	-133.726	0.316	-0.039
-255.122	437.165	-0.088	-0.191
-254.107	-25.901	-0.107	0.063
-253.092	179.569	-0.094	0.138
-252.078	-200.000	-0.009	-0.169
-251.063	130.314	-0.147	0.188
-250.049	261.999	-0.213	0.368
-249.034	-91.896	-0.081	-0.023
-248.019	-0.454	-0.206	-0.145
-247.005	110.734	-0.244	0.293
-245.990	-200.000	0.022	-0.188
-244.976	60.390	-0.138	-0.136
-243.961	800.000	-0.061	0.198
-242.946	123.966	0.135	0.169
-241.932	-200.000	0.012	-0.107
-240.917	-150.208	0.084	-0.006
-239.903	-200.000	0.064	0.388
-238.888	-69.112	0.103	0.039
-237.873	209.252	0.205	-0.320
-236.859	-123.311	0.206	-0.033
-235.844	-2.292	-0.350	-0.245
-234.830	-88.181	-0.231	-0.069
-233.815	-139.997	-0.210	-0.022
-232.800	236.433	0.119	0.196
-231.786	-60.170	-0.217	-0.092
-230.771	-200.000	0.033	-0.195
-229.757	83.917	0.148	-0.160
-228.742	-83.394	0.048	-0.015
-227.727	-76.618	0.252	0.088
-226.713	-127.277	0.228	-0.033
-225.698	-184.571	0.310	-0.005
-224.684	-147.949	-0.131	0.011
-223.669	-90.546	-0.123	0.035
-222.655	-123.758	-0.210	-0.033
-221.640	800.000	-0.073	-0.248
-220.625	716.763	0.124	-0.329
-219.611	100.572	-0.221	0.256
-218.596	-89.621	0.468	-0.136
-217.582	-200.000	-0.001	-0.015
-216.567	202.069	0.070	0.107
-215.552	-52.571	0.132	-0.061
-214.538	82.465	-0.154	-0.166
-213.523	128.160	-0.084	-0.106
-212.509	-200.000	-0.011	0.170
-211.494	-200.000	-0.061	0.282
-210.479	-200.000	0.002	0.029
-209.465	800.000	-0.122	0.367
-208.450	23.241	0.144	0.117
-207.436	-126.845	-0.224	-0.033
-206.421	365.201	-0.024	-0.048
-205.406	-200.000	-0.017	-0.163
-204.392	-86.957	0.188	-0.057
-203.377	-14.587	0.255	0.163
-202.363	-46.271	0.464	-0.227
-201.348	-86.769	-0.231	0.070
-200.333	-15.980	0.208	-0.131
-199.319	94.737	0.113	-0.127
-198.304	-160.775	0.236	-0.012
-197.290	-45.747	-0.345	0.170
-196.275	77.643	0.100	0.106
-195.260	49.910	0.076	-0.071
-194.246	10.781	0.021	0.016
-193.231	166.661	0.056	0.079
-192.217	27.323	0.186	0.155
-191.202	-129.118	-0.329	0.046
-190.187	50.183	-0.139	0.130
-189.173	170.590	-0.096	-0.137
-188.158	-58.464	-0.297	0.128
-187.144	200.199	0.146	0.223
-186.129	123.955	0.228	0.285
-185.114	91.412	0.129	0.144
-184.100	-138.492	-0.082	0.009
-183.085	329.353	-0.086	-0.165
-182.071	441.557	0.042	-0.091
-181.056	-49.989	-0.084	0.039
-180.042	535.435	0.094	-0.221
-179.027	-34.991	0.215	0.117
-178.012	44.296	-0.232	-0.212
-176.998	1.933	0.198	0.142
-175.983	-168.239	0.071	0.003
-174.969	-200.000	-0.001	0.088
-173.954	-190.689	0.177	-0.002
-172.939	-76.239	0.246	-0.086
-171.925	-155.282	-0.150	0.010
-170.910	-200.000	-0.001	0.047
-169.896	624.900	-0.054	-0.136
-168.881	800.000	0.086	-0.365
-167.866	53.997	0.235	-0.224
-166.852	-114.128	-0.146	0.028
-165.837	-200.000	0.021	-0.101
-164.823	111.100	-0.053	0.063
-163.808	-200.000	-0.030	-0.266
-162.793	-120.206	0.247	-0.042
-161.779	-97.850	-0.052	0.013
-160.764	800.000	0.091	0.288
-159.750	-66.448	0.222	0.088
-158.735	501.479	0.029	0.067
-157.720	29.220	-0.444	0.374
-156.706	-41.545	0.163	-0.083
-155.691	36.320	-0.173	-0.152
-154.677	170.780	-0.188	-0.267
-153.662	376.880	-0.232	-0.471
-152.647	-4.797	0.183	-0.125
-151.633	56.094	0.081	-0.078
-150.618	126.481	-0.013	-0.017
-149.604	-30.689	0.348	-0.195
-148.589	-200.000	0.041	-0.207
-147.574	800.000	0.043	0.184
-146.560	40.907	-0.088	0.079
-145.545	-200.000	-0.007	0.169
-144.531	-196.305	-0.100	-0.001
-143.516	-90.405	0.483	0.139
-142.502	-42.227	0.105	-0.053
-141.487	-48.110	-0.194	-0.093
-140.472	9.688	-0.149	0.112
-139.458	-134.540	0.050	-0.006
-138.443	7.189	0.060	-0.045
-137.429	558.884	-0.105	0.251
-136.414	47.120	0.113	0.105
-135.399	-200.000	-0.029	-0.127
-134.385	-113.203	-0.103	0.020
-133.370	149.211	-0.073	-0.098
-132.356	-200.000	-0.019	-0.112
-131.341	-5.585	-0.215	0.146
-130.326	800.000	0.046	-0.141
-129.312	453.467	-0.050	0.111
-128.297	524.223	-0.031	-0.072
-127.283	486.039	0.087	0.197
-126.268	-94.572	-0.099	-0.027
-125.253	107.076	-0.052	-0.061
-124.239	121.841	0.167	0.206
-123.224	433.463	0.261	0.561
-122.210	314.130	0.071	0.133
-121.195	-200.000	-0.016	0.086
