DTS Sentinel unit serial number:	SN413079Multiplexer serial number:	ORYXHardware model number:	OX4-SRSoftware version number:	ORYX F/W v4.00 Oryx Data Collector v3.7.2.0data status	okinstallation	princeton_trtdifferential loss correction	single-endedforward channel	channel 4reverse channel	N/Adate	2019/09/12time	04:23:10forward acquisition time	60.00reverse acquisition time	0.00gamma	496.2192k internal	0.2311k external	0.2311temperature offset calibration	1.0098default loss term (dB/km)	0.3790temperature slope calibration	1.0000multiplexer offset coefficient	1.0000multiplexer slope coefficient	1.0000fibre end	0.00T internal ref (°C)	31.70T ext. ref 1 (°C)	2.24T ext. ref 2 (°C)	25.47length (m)	temperature (°C)	Stokes	anti-Stokes-747.200	508.539	-0.081	-0.192
-746.185	-34.862	-0.214	-0.119
-745.171	-200.000	-0.015	0.582
-744.156	119.404	0.316	0.398
-743.142	305.203	0.080	0.151
-742.127	25.536	-0.230	0.195
-741.112	-30.312	0.129	0.074
-740.098	-125.957	-0.243	-0.037
-739.083	-200.000	-0.049	0.263
-738.069	-154.702	-0.110	0.007
-737.054	-139.295	0.143	0.016
-736.039	-2.366	0.203	-0.145
-735.025	-200.000	0.038	0.370
-734.010	23.986	-0.200	0.167
-732.996	-200.000	-0.024	-0.154
-731.981	-75.577	0.203	0.073
-730.966	83.443	-0.249	0.275
-729.952	351.465	0.125	-0.251
-728.937	800.000	-0.049	0.180
-727.923	800.000	-0.073	0.208
-726.908	58.225	0.059	-0.059
-725.894	19.838	0.125	0.102
-724.879	-102.331	-0.195	-0.047
-723.864	800.000	0.053	0.182
-722.850	567.253	0.091	0.224
-721.835	127.592	-0.155	-0.200
-720.821	199.134	-0.106	0.164
-719.806	-200.000	0.064	0.382
-718.791	-24.213	0.225	-0.136
-717.777	31.746	-0.155	-0.135
-716.762	171.579	0.089	-0.130
-715.748	133.905	-0.169	0.222
-714.733	-82.498	-0.087	0.029
-713.718	-39.099	-0.106	0.056
-712.704	84.906	0.026	-0.029
-711.689	-31.236	-0.140	-0.080
-710.675	800.000	-0.065	-0.206
-709.660	203.642	0.048	-0.076
-708.645	-71.053	-0.044	-0.017
-707.631	-105.535	0.415	-0.095
-706.616	356.377	0.116	-0.234
-705.602	-114.717	-0.037	0.007
-704.587	-56.801	0.048	-0.022
-703.572	-91.334	0.349	-0.101
-702.558	255.894	0.218	0.379
-701.543	-136.823	-0.305	-0.036
-700.529	-61.695	-0.175	-0.074
-699.514	-177.048	-0.327	0.008
-698.499	-122.698	-0.291	0.048
-697.485	61.196	0.105	0.106
-696.470	29.883	-0.256	-0.221
-695.456	-200.000	-0.025	-0.305
-694.441	-200.000	0.014	0.076
-693.426	619.886	-0.107	0.273
-692.412	-200.000	-0.019	-0.095
-691.397	-200.000	0.001	0.189
-690.383	-153.227	-0.162	-0.011
-689.368	-62.988	0.317	0.133
-688.354	263.588	0.082	-0.145
-687.339	-32.913	0.234	-0.132
-686.324	-200.000	0.015	0.095
-685.310	800.000	-0.052	0.203
-684.295	800.000	0.056	0.167
-683.281	-200.000	0.057	-0.339
-682.266	-81.984	-0.320	-0.106
-681.251	641.740	-0.162	-0.417
-680.237	-140.258	0.240	0.025
-679.222	-13.192	-0.141	0.092
-678.208	-75.110	0.131	0.047
-677.193	-65.246	0.138	-0.056
-676.178	-200.000	-0.036	-0.197
-675.164	-200.000	0.051	-0.358
-674.149	-88.869	0.221	0.066
-673.135	800.000	0.043	-0.170
-672.120	-10.910	0.124	-0.083
-671.105	-200.000	-0.084	0.000
-670.091	800.000	0.050	-0.141
-669.076	800.000	-0.067	-0.224
-668.062	33.669	0.164	0.145
-667.047	-200.000	0.060	-0.293
-666.032	-55.508	-0.306	-0.139
-665.018	607.735	-0.066	-0.166
-664.003	433.655	-0.173	-0.381
-662.989	-7.478	-0.135	-0.092
-661.974	-92.227	-0.146	0.042
-660.959	-34.189	0.229	-0.127
-659.945	125.215	-0.115	0.146
-658.930	-133.282	0.180	0.023
-657.916	-145.435	0.113	0.010
-656.901	290.733	0.153	-0.282
-655.886	-71.168	0.233	-0.088
-654.872	531.710	-0.134	-0.321
-653.857	-11.829	-0.147	0.097
-652.843	-200.000	0.024	0.253
-651.828	-144.304	0.325	0.031
-650.814	-200.000	0.013	0.142
-649.799	-200.000	-0.017	0.296
-648.784	146.059	-0.117	-0.159
-647.770	31.354	-0.117	0.102
-646.755	800.000	0.064	-0.275
-645.741	16.756	0.111	-0.089
-644.726	284.687	-0.153	0.278
-643.711	-200.000	-0.057	-0.296
-642.697	649.555	0.170	-0.441
-641.682	-62.572	-0.117	0.049
-640.668	703.102	-0.060	0.159
-639.653	-18.709	-0.055	-0.035
-638.638	426.678	0.051	-0.112
-637.624	-17.573	-0.107	-0.068
-636.609	-46.465	-0.364	-0.181
-635.595	800.000	-0.120	-0.522
-634.580	-60.123	0.322	-0.139
-633.565	199.455	-0.242	0.376
-632.551	-49.667	0.206	-0.099
-631.536	197.364	-0.228	0.352
-630.522	-200.000	0.090	0.429
-629.507	-13.784	0.039	0.026
-628.492	660.381	0.058	-0.151
-627.478	-28.792	-0.162	-0.094
-626.463	-28.736	-0.223	-0.129
-625.449	78.932	-0.109	-0.118
-624.434	-165.594	-0.284	-0.012
-623.419	165.404	-0.081	0.116
-622.405	800.000	-0.152	-0.486
-621.390	-191.907	0.261	-0.003
-620.376	-200.000	0.006	0.222
-619.361	183.742	0.040	-0.059
-618.346	258.028	0.117	-0.203
-617.332	-100.064	-0.046	0.012
-616.317	-176.034	-0.216	-0.006
-615.303	-200.000	0.021	-0.159
-614.288	100.326	0.044	0.051
-613.273	288.615	-0.213	0.390
-612.259	-25.792	0.363	0.216
-611.244	-200.000	0.011	-0.219
-610.230	682.244	0.162	0.427
-609.215	13.806	0.153	0.120
-608.201	-200.000	0.071	-0.494
-607.186	-102.347	-0.113	0.027
-606.171	95.060	0.157	0.181
-605.157	800.000	-0.017	-0.066
-604.142	-129.422	0.103	0.014
-603.128	-133.337	-0.133	-0.017
-602.113	-64.980	-0.406	-0.166
-601.098	54.482	0.152	0.148
-600.084	-7.470	-0.160	0.109
-599.069	-200.000	0.007	0.064
-598.055	-200.000	0.039	0.285
-597.040	-87.882	-0.053	0.016
-596.025	-154.158	0.223	0.015
-595.011	-3.848	-0.051	0.036
-593.996	-105.451	0.321	0.074
-592.982	-200.000	0.001	-0.183
-591.967	344.778	0.113	-0.224
-590.952	-200.000	-0.017	-0.192
-589.938	-6.882	-0.100	0.068
-588.923	-59.571	0.088	0.038
-587.909	53.153	-0.200	-0.193
-586.894	800.000	0.051	0.161
-585.879	84.131	-0.153	0.168
-584.865	800.000	0.017	0.052
-583.850	-101.609	0.195	0.048
-582.836	82.941	-0.133	-0.146
-581.821	55.983	-0.053	0.052
-580.806	124.919	0.089	-0.113
-579.792	70.230	0.183	-0.191
-578.777	-17.931	-0.106	-0.067
-577.763	614.933	0.128	-0.323
-576.748	2.302	-0.314	-0.229
-575.733	60.909	0.214	-0.214
-574.719	-130.209	0.282	0.039
-573.704	800.000	-0.072	-0.217
-572.690	162.617	-0.170	-0.241
-571.675	-200.000	-0.096	0.000
-570.661	202.977	-0.110	-0.172
-569.646	407.632	0.076	0.162
-568.631	-117.099	0.167	-0.031
-567.617	-200.000	0.014	0.138
-566.602	-200.000	0.041	-0.303
-565.588	-86.621	0.094	-0.029
-564.573	134.267	-0.271	-0.354
-563.558	195.454	0.128	0.196
-562.544	248.378	-0.189	0.323
-561.529	160.631	0.092	0.130
-560.515	388.059	0.138	-0.287
-559.500	610.061	0.155	-0.389
-558.485	-132.634	-0.077	-0.010
-557.471	-34.786	-0.366	0.202
-556.456	-17.795	0.119	-0.075
-555.442	-75.830	0.207	-0.074
-554.427	-200.000	-0.003	-0.110
-553.412	175.015	0.177	0.259
-552.398	-200.000	0.016	0.282
-551.383	25.279	0.080	0.067
-550.369	-200.000	0.024	0.122
-549.354	88.329	-0.093	0.104
-548.339	-25.242	0.097	0.058
-547.325	429.378	-0.031	0.068
-546.310	89.329	-0.174	0.196
-545.296	476.861	-0.112	0.255
-544.281	87.451	-0.151	-0.169
-543.266	300.574	0.078	-0.145
-542.252	223.459	0.168	0.273
-541.237	800.000	0.009	0.035
-540.223	-127.288	-0.134	0.020
-539.208	-165.075	-0.229	-0.010
-538.193	-100.746	0.121	0.030
-537.179	-66.463	-0.110	-0.044
-536.164	-113.582	-0.360	-0.071
-535.150	708.299	-0.028	-0.073
-534.135	253.452	0.146	-0.251
-533.121	800.000	0.104	-0.417
-532.106	-95.104	-0.225	0.061
-531.091	75.411	0.318	0.337
-530.077	-91.639	0.100	0.029
-529.062	12.227	-0.126	-0.097
-528.048	-200.000	0.009	-0.098
-527.033	543.387	-0.113	-0.271
-526.018	40.484	0.109	0.099
-525.004	637.466	0.130	-0.331
-523.989	175.425	-0.160	0.233
-522.975	182.596	0.404	0.600
-521.960	-200.000	0.039	0.298
-520.945	-70.200	0.190	0.073
-519.931	800.000	-0.040	-0.161
-518.916	-162.752	0.054	0.003
-517.902	-146.578	0.045	-0.004
-516.887	-120.525	0.113	0.019
-515.872	-200.000	0.033	-0.161
-514.858	800.000	-0.066	0.221
-513.843	170.816	0.132	0.190
-512.829	2.726	-0.109	0.079
-511.814	46.548	0.118	0.110
-510.799	496.422	0.062	-0.143
-509.785	-6.227	0.312	-0.214
-508.770	-50.966	-0.154	0.073
-507.756	222.879	0.151	0.244
-506.741	-200.000	-0.012	0.100
-505.726	-86.990	0.283	-0.087
-504.712	-152.386	0.229	0.017
-503.697	90.927	0.016	0.018
-502.683	-71.509	-0.133	0.050
-501.668	-200.000	-0.017	-0.081
-500.653	-120.263	-0.273	0.047
-499.639	-13.715	-0.123	0.080
-498.624	-80.626	0.206	0.069
-497.610	307.742	0.231	0.433
-496.595	7.653	-0.282	0.212
-495.581	267.836	-0.154	-0.271
-494.566	800.000	-0.050	0.205
-493.551	-48.993	-0.132	0.064
-492.537	64.049	0.209	0.211
-491.522	225.288	-0.129	0.209
-490.508	152.380	-0.175	0.240
-489.493	26.958	0.114	-0.096
-488.478	-134.984	-0.401	0.049
-487.464	68.725	0.212	0.219
-486.449	43.083	0.111	0.102
-485.435	800.000	0.058	0.214
-484.420	70.239	0.178	-0.185
-483.405	-66.263	-0.201	-0.080
-482.391	-85.842	0.286	0.089
-481.376	800.000	-0.035	-0.120
-480.362	800.000	-0.034	-0.130
-479.347	136.534	-0.328	-0.430
-478.332	282.357	0.113	-0.203
-477.318	169.524	0.129	-0.185
-476.303	-77.375	0.305	0.106
-475.289	-72.939	-0.406	0.150
-474.274	105.852	-0.074	0.088
-473.259	-166.485	0.139	-0.006
-472.245	-154.523	0.190	-0.013
-471.230	221.777	0.129	0.208
-470.216	-86.359	0.253	0.078
-469.201	77.015	-0.098	-0.104
-468.186	-21.373	0.104	-0.064
-467.172	187.997	-0.067	0.101
-466.157	-100.716	0.201	-0.050
-465.143	-200.000	-0.033	-0.311
-464.128	800.000	-0.060	-0.232
-463.113	-4.180	-0.425	-0.296
-462.099	-9.767	0.163	-0.109
-461.084	-50.242	0.337	0.160
-460.070	-200.000	-0.026	-0.160
-459.055	-73.227	-0.101	-0.037
-458.040	-38.774	-0.207	0.110
-457.026	180.344	0.156	0.230
-456.011	-73.103	0.205	0.076
-454.997	260.964	-0.128	-0.222
-453.982	-128.494	-0.302	0.043
-452.968	-78.037	-0.251	-0.087
-451.953	202.184	-0.103	-0.160
-450.938	-200.000	0.028	-0.185
-449.924	36.515	-0.272	-0.241
-448.909	800.000	-0.083	-0.307
-447.895	152.272	-0.112	0.154
-446.880	26.709	0.224	-0.188
-445.865	-200.000	0.023	0.278
-444.851	324.215	0.254	0.487
-443.836	-200.000	-0.010	-0.176
-442.822	53.085	-0.049	-0.047
-441.807	208.221	0.097	-0.152
-440.792	572.365	-0.027	0.067
-439.778	41.191	0.105	-0.095
-438.763	-73.446	-0.288	0.106
-437.749	54.893	-0.083	0.080
-436.734	-24.042	-0.136	0.082
-435.719	800.000	0.085	0.337
-434.705	132.542	0.213	0.276
-433.690	32.484	-0.095	-0.082
-432.676	800.000	-0.135	-0.391
-431.661	-200.000	0.021	-0.151
-430.646	287.332	0.188	-0.341
-429.632	-23.689	0.241	0.145
-428.617	-200.000	0.014	-0.104
-427.603	29.902	0.203	-0.173
-426.588	-23.050	0.174	-0.105
-425.573	-24.099	-0.273	-0.163
-424.559	-200.000	0.062	-0.335
-423.544	800.000	0.012	0.035
-422.530	239.144	0.048	0.080
-421.515	-128.867	-0.328	-0.046
-420.500	-62.037	-0.029	-0.012
-419.486	628.842	0.080	-0.203
-418.471	-137.368	0.358	-0.041
-417.457	20.157	0.152	0.123
-416.442	82.999	0.127	0.138
-415.428	21.550	-0.107	0.087
-414.413	22.750	-0.100	-0.082
-413.398	-135.971	0.210	-0.025
-412.384	800.000	0.086	0.318
-411.369	800.000	0.093	0.278
-410.355	-20.117	0.105	-0.065
-409.340	608.586	0.125	-0.313
-408.325	-200.000	0.033	-0.226
-407.311	162.149	-0.085	-0.119
-406.296	206.295	0.090	0.141
-405.282	800.000	-0.126	0.406
-404.267	-175.067	0.332	-0.009
-403.252	-39.453	-0.184	-0.097
-402.238	800.000	-0.052	0.160
-401.223	-87.899	0.346	0.104
-400.209	252.961	-0.129	0.220
-399.194	-47.308	-0.411	-0.200
-398.179	-156.989	-0.260	0.016
-397.165	176.829	0.113	-0.164
-396.150	-101.221	0.115	0.028
-395.136	-200.000	0.011	-0.219
-394.121	-200.000	-0.060	-0.336
-393.106	-77.684	0.284	0.098
-392.092	302.129	-0.192	-0.356
-391.077	-63.349	0.187	-0.077
-390.063	196.643	-0.182	-0.277
-389.048	327.867	0.058	-0.111
-388.033	-21.147	0.220	0.135
-387.019	-102.892	0.285	0.068
-386.004	170.606	-0.129	-0.185
-384.990	-56.446	-0.276	0.123
-383.975	33.886	0.112	-0.098
-382.960	-200.000	-0.004	-0.297
-381.946	-200.000	0.007	0.315
-380.931	-155.345	-0.208	0.013
-379.917	-88.668	0.158	-0.047
-378.902	33.011	0.106	-0.092
-377.888	-200.000	-0.042	-0.343
-376.873	-200.000	-0.019	-0.139
-375.858	-12.356	-0.323	0.211
-374.844	130.173	0.123	-0.158
-373.829	-116.171	0.524	-0.097
-372.815	-132.087	-0.302	-0.039
-371.800	-100.301	0.070	0.017
-370.785	78.539	-0.097	-0.104
-369.771	705.853	0.019	-0.050
-368.756	599.233	-0.078	0.194
-367.742	-47.972	0.211	-0.102
-366.727	-29.070	-0.372	0.214
-365.712	-70.809	-0.177	0.067
-364.698	15.973	-0.232	-0.183
-363.683	-200.000	0.008	-0.127
-362.669	112.882	-0.106	-0.128
-361.654	-102.036	0.147	0.035
-360.639	174.016	0.103	0.149
-359.625	-43.966	0.317	0.159
-358.610	-200.000	0.041	-0.385
-357.596	800.000	0.116	-0.360
-356.581	-59.981	0.337	-0.144
-355.566	-200.000	-0.038	-0.366
-354.552	-73.549	-0.204	0.074
-353.537	800.000	0.056	0.156
-352.523	54.324	-0.157	0.151
-351.508	-33.823	0.170	0.094
-350.493	37.729	-0.349	-0.310
-349.479	-200.000	0.004	0.081
-348.464	-200.000	-0.042	0.211
-347.450	614.959	0.109	0.274
-346.435	-200.000	-0.022	0.258
-345.420	324.887	-0.132	0.252
-344.406	-184.092	-0.285	0.005
-343.391	-3.003	-0.250	-0.174
-342.377	-1.922	0.335	-0.235
-341.362	-109.139	-0.224	-0.048
-340.348	-108.599	-0.104	-0.022
-339.333	409.118	0.109	0.232
-338.318	93.349	0.027	-0.030
-337.304	-79.644	0.072	0.024
-336.289	-16.671	0.484	-0.306
-335.275	11.066	0.361	0.276
-334.260	-200.000	-0.008	0.101
-333.245	379.437	0.149	0.304
-332.231	800.000	0.066	0.254
-331.216	-7.541	0.336	-0.227
-330.202	-3.121	0.168	-0.117
-329.187	65.275	-0.163	-0.164
-328.172	50.159	-0.085	0.080
-327.158	-21.651	-0.180	0.109
-326.143	-200.000	0.002	0.316
-325.129	88.572	-0.111	-0.123
-324.114	-200.000	-0.068	-0.389
-323.099	-88.499	-0.151	-0.045
-322.085	-60.549	0.222	0.094
-321.070	-200.000	0.042	-0.191
-320.056	239.505	-0.065	0.107
-319.041	25.866	-0.155	0.129
-318.026	121.870	0.141	0.176
-317.012	-115.799	0.179	-0.033
-315.997	-130.647	0.092	-0.012
-314.983	709.909	-0.116	0.307
-313.968	308.321	0.072	0.135
-312.953	-72.287	-0.015	-0.005
-311.939	143.263	0.122	0.162
-310.924	-200.000	-0.012	0.372
-309.910	-47.613	-0.118	0.057
-308.895	-28.564	0.219	-0.126
-307.880	121.746	0.040	0.050
-306.866	114.997	-0.225	0.274
-305.851	-200.000	-0.070	-0.373
-304.837	-86.079	0.262	0.081
-303.822	-200.000	0.024	-0.270
-302.807	45.117	0.120	-0.110
-301.793	38.471	-0.318	0.283
-300.778	-105.499	0.214	0.048
-299.764	-200.000	0.009	0.295
-298.749	-51.431	-0.174	0.081
-297.735	-120.395	-0.212	-0.036
-296.720	-200.000	-0.030	-0.297
-295.705	-169.210	-0.265	0.010
-294.691	137.355	0.254	0.332
-293.676	28.290	-0.225	-0.189
-292.662	166.086	-0.204	-0.289
-291.647	-140.643	-0.324	0.033
-290.632	-200.000	-0.006	0.189
-289.618	-200.000	-0.001	-0.140
-288.603	91.278	-0.340	-0.380
-287.589	605.868	-0.025	0.063
-286.574	-51.078	0.201	0.094
-285.559	284.895	-0.005	-0.009
-284.545	204.873	-0.172	0.265
-283.530	287.893	0.088	0.159
-282.516	50.565	0.076	0.071
-281.501	-200.000	0.012	-0.083
-280.486	35.362	0.053	-0.047
-279.472	-80.619	0.347	0.115
-278.457	-49.130	0.312	-0.149
-277.443	-75.136	0.136	0.049
-276.428	-200.000	0.020	0.265
-275.413	-34.272	-0.367	-0.201
-274.399	-78.741	-0.107	-0.036
-273.384	482.485	0.053	-0.121
-272.370	-200.000	0.036	-0.178
-271.355	232.878	-0.124	0.203
-270.340	-91.561	0.245	-0.070
-269.326	-88.983	0.073	0.021
-268.311	-200.000	0.010	0.234
-267.297	52.506	-0.465	0.442
-266.282	-67.676	-0.194	0.076
-265.267	249.246	0.143	0.242
-264.253	-48.713	0.218	0.104
-263.238	536.552	-0.169	0.399
-262.224	-200.000	0.010	0.406
-261.209	57.575	-0.217	0.211
-260.195	-200.000	-0.001	0.156
-259.180	800.000	0.065	-0.228
-258.165	-68.838	0.350	-0.135
-257.151	79.189	-0.241	0.257
-256.136	140.044	0.079	-0.104
-255.122	126.313	-0.203	0.255
-254.107	296.617	0.017	-0.031
-253.092	-27.860	-0.061	0.035
-252.078	-17.194	-0.236	-0.148
-251.063	94.385	0.325	-0.367
-250.049	-40.303	-0.134	-0.069
-249.034	147.575	-0.058	-0.078
-248.019	197.129	0.138	-0.209
-247.005	300.036	-0.114	0.209
-245.990	-101.041	-0.244	0.060
-244.976	166.453	0.103	0.145
-243.961	-26.791	-0.311	0.181
-242.946	-154.581	0.342	0.023
-241.932	144.316	-0.218	0.289
-240.917	133.976	-0.045	-0.058
-239.903	-200.000	-0.016	0.080
-238.888	800.000	-0.022	0.076
-237.873	-105.481	0.138	0.031
-236.859	-129.435	0.420	0.058
-235.844	-31.960	0.349	-0.194
-234.830	85.662	0.153	-0.167
-233.815	11.949	0.345	0.264
-232.800	-200.000	-0.004	0.067
-231.786	70.602	0.035	0.036
-230.771	-161.190	-0.277	-0.014
-229.757	-78.797	-0.122	-0.041
-228.742	231.681	-0.111	0.181
-227.727	87.851	0.131	0.145
-226.713	-29.411	-0.246	0.140
-225.698	182.162	-0.058	0.085
-224.684	-187.307	-0.121	0.002
-223.669	553.476	0.023	-0.054
-222.655	-26.035	-0.290	0.170
-221.640	455.950	0.158	-0.349
-220.625	112.353	0.079	0.095
-219.611	-159.124	0.212	-0.012
-218.596	-138.295	-0.124	0.014
-217.582	152.974	0.034	0.046
-216.567	-132.646	-0.138	-0.018
-215.552	-200.000	-0.013	0.180
-214.538	-200.000	-0.006	0.339
-213.523	-200.000	0.002	-0.068
-212.509	-75.600	0.093	0.033
-211.494	93.545	0.167	-0.188
-210.479	678.491	0.210	0.544
-209.465	-143.785	-0.137	0.013
-208.450	-81.768	-0.222	0.072
-207.436	800.000	0.046	0.169
-206.421	-64.040	0.186	0.076
-205.406	-32.088	0.315	0.175
-204.392	-39.037	0.267	-0.139
-203.377	-200.000	-0.013	-0.092
-202.363	-200.000	0.022	-0.288
-201.348	128.671	-0.228	0.288
-200.333	392.723	-0.090	0.187
-199.319	-80.994	0.340	0.112
-198.304	-200.000	-0.026	0.151
-197.290	-26.977	-0.150	0.087
-196.275	-200.000	-0.014	-0.250
-195.260	-132.438	-0.267	0.034
-194.246	-27.909	-0.250	-0.144
-193.231	-30.043	-0.185	-0.105
-192.217	11.875	0.220	-0.168
-191.202	382.237	-0.038	-0.078
-190.187	50.611	-0.138	0.129
-189.173	-200.000	-0.024	0.111
-188.158	18.913	-0.077	0.061
-187.144	388.647	-0.248	0.509
-186.129	-23.266	0.068	-0.041
-185.114	554.209	-0.001	-0.003
-184.100	14.409	0.143	-0.111
-183.085	-7.679	-0.157	-0.105
-182.071	-200.000	0.017	-0.166
-181.056	50.832	-0.252	-0.237
-180.042	48.757	-0.230	-0.214
-179.027	35.203	-0.208	0.181
-178.012	-29.849	-0.131	0.074
-176.998	475.715	-0.120	-0.268
-175.983	-91.115	0.221	0.063
-174.969	-200.000	0.019	0.136
-173.954	-124.438	-0.112	-0.017
-172.939	-63.538	-0.144	0.059
-171.925	800.000	-0.061	-0.167
-170.910	-200.000	0.034	-0.426
-169.896	198.175	-0.071	0.108
-168.881	-166.026	-0.090	0.004
-167.866	-5.936	0.193	-0.131
-166.852	478.964	0.065	-0.145
-165.837	-200.000	0.093	-0.526
-164.823	800.000	0.095	0.376
-163.808	779.634	-0.031	0.084
-162.793	-200.000	-0.043	0.225
-161.779	-200.000	-0.003	-0.265
-160.764	-122.253	0.171	0.028
-159.750	-200.000	-0.056	0.256
-158.735	-42.756	-0.238	-0.120
-157.720	-82.334	0.141	-0.046
-156.706	-200.000	-0.048	-0.219
-155.691	800.000	-0.138	-0.465
-154.677	800.000	-0.110	-0.306
-153.662	-123.348	0.271	0.043
-152.647	25.519	0.071	0.059
-151.633	190.896	-0.107	-0.160
-150.618	293.346	-0.071	0.129
-149.604	-200.000	0.005	-0.157
-148.589	286.218	0.083	-0.149
-147.574	-200.000	-0.032	0.228
-146.560	-16.433	-0.241	-0.152
-145.545	301.464	-0.164	-0.301
-144.531	55.186	0.062	-0.059
-143.516	27.339	-0.110	0.092
-142.502	-89.732	0.408	-0.118
-141.487	0.908	-0.036	0.025
-140.472	-8.225	-0.082	-0.055
-139.458	-43.660	0.172	0.086
-138.443	-2.128	-0.303	0.211
-137.429	800.000	-0.067	-0.185
-136.414	-115.945	-0.166	0.031
-135.399	-140.246	0.193	-0.020
-134.385	760.671	-0.100	-0.269
-133.370	686.253	-0.050	-0.131
-132.356	-12.103	-0.198	0.128
-131.341	-3.961	0.173	-0.119
-130.326	-200.000	-0.021	-0.149
-129.312	-138.908	0.499	-0.054
-128.297	12.033	-0.163	0.124
-127.283	-64.430	0.157	0.063
-126.268	800.000	-0.092	0.286
-125.253	-15.021	0.174	0.111
-124.239	-200.000	-0.011	-0.126
-123.224	-48.282	0.165	-0.079
-122.210	-121.352	0.121	-0.020
-121.195	14.645	0.157	0.122
