DTS Sentinel unit serial number:	SN413079Multiplexer serial number:	ORYXHardware model number:	OX4-SRSoftware version number:	ORYX F/W v4.00 Oryx Data Collector v3.7.2.0data status	okinstallation	princeton_trtdifferential loss correction	single-endedforward channel	channel 4reverse channel	N/Adate	2019/09/11time	16:31:11forward acquisition time	60.00reverse acquisition time	0.00gamma	496.2192k internal	0.2274k external	0.2274temperature offset calibration	1.0020default loss term (dB/km)	0.3790temperature slope calibration	1.0000multiplexer offset coefficient	1.0000multiplexer slope coefficient	1.0000fibre end	0.00T internal ref (°C)	43.69T ext. ref 1 (°C)	1.10T ext. ref 2 (°C)	39.63length (m)	temperature (°C)	Stokes	anti-Stokes-747.200	-142.586	0.378	0.038
-746.185	-105.006	0.186	0.044
-745.171	-200.000	0.007	-0.155
-744.156	-200.000	-0.022	0.303
-743.142	118.978	-0.162	0.207
-742.127	269.905	-0.069	0.126
-741.112	-160.921	0.070	0.004
-740.098	226.286	0.061	0.102
-739.083	-62.754	-0.100	0.043
-738.069	-43.445	-0.162	-0.084
-737.054	35.606	-0.188	0.170
-736.039	-200.000	-0.007	0.062
-735.025	-115.882	0.036	-0.007
-734.010	-89.545	-0.226	0.068
-732.996	223.589	-0.036	0.061
-731.981	-100.291	-0.275	0.070
-730.966	-200.000	0.013	0.127
-729.952	30.701	0.307	0.271
-728.937	-61.217	-0.152	-0.066
-727.923	-31.821	-0.246	0.142
-726.908	-60.944	-0.269	-0.117
-725.894	-200.000	0.019	-0.340
-724.879	-200.000	-0.034	-0.298
-723.864	-4.623	0.080	0.057
-722.850	-46.392	-0.203	0.103
-721.835	-68.912	0.241	-0.096
-720.821	461.174	0.050	-0.114
-719.806	-50.678	-0.245	0.119
-718.791	-94.350	-0.108	0.030
-717.777	81.657	-0.207	-0.231
-716.762	206.013	-0.167	-0.268
-715.748	14.730	-0.135	-0.109
-714.733	-200.000	0.005	-0.059
-713.718	181.084	0.117	0.177
-712.704	-22.071	0.272	0.170
-711.689	-200.000	-0.035	-0.264
-710.675	77.352	-0.140	0.153
-709.660	32.296	0.054	0.048
-708.645	195.262	0.215	-0.336
-707.631	223.379	-0.105	0.174
-706.616	-200.000	-0.016	-0.106
-705.602	152.411	-0.205	0.288
-704.587	-88.324	0.036	0.011
-703.572	800.000	0.149	-0.437
-702.558	69.928	-0.274	-0.291
-701.543	-114.077	-0.173	0.035
-700.529	-88.734	0.273	-0.083
-699.514	-24.425	-0.421	0.258
-698.499	-200.000	-0.082	-0.402
-697.485	-41.496	-0.179	-0.095
-696.470	-84.178	-0.428	0.140
-695.456	-200.000	-0.010	-0.070
-694.441	-49.445	0.218	-0.107
-693.426	175.682	0.148	0.221
-692.412	-105.266	-0.128	-0.030
-691.397	-86.280	-0.095	0.030
-690.383	473.995	-0.085	0.198
-689.368	-140.497	0.259	-0.028
-688.354	84.313	-0.085	-0.096
-687.339	800.000	0.023	0.087
-686.324	-200.000	0.017	0.399
-685.310	-4.179	0.132	-0.094
-684.295	243.256	-0.057	-0.098
-683.281	255.479	0.100	0.177
-682.266	-114.396	0.223	0.044
-681.251	-41.799	-0.203	0.107
-680.237	-117.228	-0.179	-0.034
-679.222	163.124	0.067	-0.097
-678.208	800.000	0.025	-0.094
-677.193	-200.000	-0.020	-0.209
-676.178	-127.419	0.223	0.033
-675.164	507.604	-0.007	-0.016
-674.149	-135.897	0.349	-0.042
-673.135	111.566	-0.095	0.118
-672.120	-60.243	0.234	0.103
-671.105	105.827	-0.265	-0.322
-670.091	88.015	-0.006	-0.007
-669.076	-134.258	-0.180	0.023
-668.062	293.295	-0.083	0.155
-667.047	800.000	0.055	-0.174
-666.032	53.531	0.169	-0.167
-665.018	5.577	-0.255	-0.194
-664.003	408.751	0.065	-0.142
-662.989	-74.790	-0.191	-0.071
-661.974	-128.697	0.267	0.039
-660.959	-156.286	-0.248	-0.016
-659.945	-59.120	-0.153	0.068
-658.930	-200.000	-0.094	0.000
-657.916	39.239	0.307	0.283
-656.901	274.569	0.106	0.192
-655.886	800.000	0.066	-0.260
-654.872	-200.000	-0.008	-0.170
-653.857	463.006	0.086	-0.197
-652.843	800.000	-0.073	-0.224
-651.828	654.494	-0.046	0.121
-650.814	-200.000	-0.011	0.236
-649.799	800.000	-0.060	0.262
-648.784	55.994	-0.077	0.076
-647.770	197.170	-0.114	-0.178
-646.755	-119.597	0.075	-0.013
-645.741	6.572	0.051	-0.039
-644.726	-200.000	0.084	0.425
-643.711	-36.193	0.202	-0.112
-642.697	607.437	-0.099	-0.253
-641.682	7.001	-0.288	-0.220
-640.668	112.072	-0.266	-0.330
-639.653	218.825	0.051	0.083
-638.638	-48.578	0.302	0.149
-637.624	-63.971	0.120	0.050
-636.609	462.432	-0.027	0.062
-635.595	218.641	-0.206	-0.338
-634.580	645.974	-0.054	-0.142
-633.565	-78.792	-0.104	-0.037
-632.551	800.000	0.042	-0.158
-631.536	101.403	-0.218	-0.261
-630.522	-106.547	0.186	-0.043
-629.507	-142.844	-0.180	-0.018
-628.492	800.000	-0.064	-0.209
-627.478	-123.992	0.245	0.040
-626.463	-165.912	0.260	-0.011
-625.449	142.446	-0.085	0.115
-624.434	-180.547	-0.223	0.005
-623.419	-82.254	-0.142	-0.047
-622.405	408.876	0.072	0.156
-621.390	444.127	-0.116	-0.262
-620.376	-193.121	0.164	-0.001
-619.361	-31.066	-0.145	0.084
-618.346	-71.140	0.059	-0.023
-617.332	-200.000	-0.012	-0.305
-616.317	-200.000	-0.066	0.420
-615.303	341.787	0.132	-0.264
-614.288	-200.000	0.067	-0.386
-613.273	488.081	-0.160	-0.375
-612.259	800.000	0.042	0.137
-611.244	-200.000	0.040	-0.205
-610.230	128.607	-0.093	0.122
-609.215	460.656	-0.099	-0.227
-608.201	800.000	-0.071	-0.224
-607.186	502.127	-0.114	0.271
-606.171	-79.513	-0.053	0.019
-605.157	-65.249	-0.268	-0.111
-604.142	-200.000	0.030	0.344
-603.128	800.000	-0.087	-0.290
-602.113	146.837	-0.242	-0.334
-601.098	-81.925	0.280	0.094
-600.084	384.692	0.224	0.473
-599.069	87.380	-0.151	0.172
-598.055	-25.402	0.207	-0.126
-597.040	-60.524	-0.141	-0.061
-596.025	-48.614	-0.185	0.091
-595.011	377.197	0.095	0.200
-593.996	-152.631	-0.288	-0.021
-592.982	-200.000	0.002	-0.009
-591.967	-200.000	0.016	-0.279
-590.952	-200.000	0.020	0.120
-589.938	157.289	-0.075	0.106
-588.923	-200.000	0.038	0.489
-587.909	-132.077	-0.283	0.038
-586.894	299.599	-0.163	-0.307
-585.879	91.833	0.010	-0.012
-584.865	13.671	-0.232	0.184
-583.850	237.057	-0.155	0.263
-582.836	167.779	0.228	0.332
-581.821	193.305	-0.011	0.017
-580.806	-111.820	0.143	-0.030
-579.792	101.400	-0.187	-0.223
-578.777	-0.758	-0.299	-0.217
-577.763	-200.000	-0.029	-0.406
-576.748	-82.870	0.217	0.072
-575.733	-9.521	-0.096	0.066
-574.719	-39.721	-0.173	-0.093
-573.704	-92.877	0.130	0.037
-572.690	-79.611	0.101	0.035
-571.675	-23.009	-0.101	0.062
-570.661	-200.000	-0.000	-0.147
-569.646	-111.948	0.155	-0.032
-568.631	161.084	0.239	0.343
-567.617	347.004	0.009	-0.017
-566.602	164.449	0.087	0.126
-565.588	-84.169	0.358	-0.116
-564.573	245.681	-0.154	0.266
-563.558	-37.059	0.172	-0.094
-562.544	-200.000	0.022	0.190
-561.529	-1.766	0.203	-0.146
-560.515	-183.090	-0.152	0.003
-559.500	109.161	0.192	-0.235
-558.485	-94.513	-0.289	-0.081
-557.471	234.049	0.126	0.212
-556.456	-200.000	-0.001	0.078
-555.442	78.402	-0.112	-0.122
-554.427	-65.072	0.189	-0.078
-553.412	-103.605	-0.316	0.076
-552.398	642.268	-0.039	-0.102
-551.383	800.000	0.085	-0.264
-550.369	108.476	-0.081	-0.099
-549.354	-191.772	-0.148	-0.001
-548.339	20.073	-0.178	0.147
-547.325	-48.349	0.247	-0.122
-546.310	800.000	-0.029	0.127
-545.296	173.268	-0.213	-0.314
-544.281	-132.114	-0.215	0.029
-543.266	-53.945	0.139	-0.065
-542.252	-1.607	-0.171	0.123
-541.237	256.043	0.022	-0.039
-540.223	-154.665	0.116	-0.008
-539.208	-52.315	0.235	-0.111
-538.193	-200.000	0.033	0.272
-537.179	533.344	-0.069	0.166
-536.164	697.620	-0.060	-0.162
-535.150	-133.173	0.244	-0.032
-534.135	-200.000	-0.032	0.212
-533.121	139.381	0.034	-0.046
-532.106	-76.655	-0.075	0.027
-531.091	800.000	-0.080	-0.319
-530.077	10.346	0.189	0.147
-529.062	-200.000	0.033	0.323
-528.048	66.329	0.057	0.059
-527.033	-200.000	0.014	0.127
-526.018	-200.000	0.035	0.183
-525.004	800.000	-0.084	0.287
-523.989	-200.000	0.036	-0.241
-522.975	-73.207	-0.278	0.104
-521.960	800.000	-0.068	0.275
-520.945	652.542	-0.089	-0.234
-519.931	-101.514	-0.255	-0.063
-518.916	41.026	0.138	-0.127
-517.902	-24.524	0.220	0.134
-516.887	313.298	-0.104	0.201
-515.872	164.360	0.101	0.146
-514.858	93.661	-0.180	-0.208
-513.843	59.264	0.102	-0.103
-512.829	-200.000	0.012	-0.423
-511.814	142.192	-0.091	0.124
-510.799	-200.000	0.004	-0.049
-509.785	148.990	-0.146	0.202
-508.770	63.869	-0.123	0.126
-507.756	-200.000	0.014	0.237
-506.741	128.823	-0.100	-0.130
-505.726	-14.157	-0.121	0.080
-504.712	520.677	-0.077	0.186
-503.697	800.000	-0.054	0.229
-502.683	-200.000	-0.015	-0.311
-501.668	800.000	-0.043	-0.181
-500.653	-127.025	-0.089	-0.013
-499.639	-200.000	-0.082	-0.384
-498.624	64.192	0.264	0.272
-497.610	-151.872	0.213	-0.016
-496.595	7.545	0.076	0.058
-495.581	-135.932	-0.177	-0.021
-494.566	800.000	0.061	-0.254
-493.551	-137.040	0.465	0.054
-492.537	-27.435	0.296	-0.176
-491.522	88.932	0.118	-0.134
-490.508	800.000	0.042	0.173
-489.493	-200.000	0.008	0.344
-488.478	800.000	0.074	0.253
-487.464	123.081	0.048	-0.062
-486.449	-61.739	-0.310	-0.132
-485.435	-6.669	-0.182	-0.127
-484.420	-68.843	-0.112	-0.044
-483.405	182.103	-0.124	-0.187
-482.391	86.825	0.220	0.247
-481.376	178.413	-0.130	0.194
-480.362	111.207	-0.077	0.095
-479.347	409.268	0.029	0.062
-478.332	800.000	0.048	0.174
-477.318	143.888	-0.074	0.100
-476.303	-200.000	-0.022	0.140
-475.289	800.000	0.060	0.267
-474.274	800.000	-0.081	0.317
-473.259	104.530	0.241	0.290
-472.245	324.198	0.205	0.399
-471.230	-85.977	0.180	-0.057
-470.216	-200.000	-0.059	0.303
-469.201	-156.200	0.201	-0.013
-468.186	-162.659	0.251	0.013
-467.172	23.040	0.210	-0.175
-466.157	201.567	-0.092	0.145
-465.143	16.086	-0.020	-0.016
-464.128	337.135	-0.135	0.267
-463.113	95.433	-0.180	-0.209
-462.099	800.000	0.049	-0.181
-461.084	35.174	0.107	-0.095
-460.070	-18.889	-0.334	0.212
-459.055	163.931	0.047	-0.068
-458.040	739.276	-0.040	-0.110
-457.026	-154.220	-0.212	0.015
-456.011	-200.000	0.010	0.074
-454.997	139.911	0.082	-0.110
-453.982	50.108	0.122	0.117
-452.968	-200.000	-0.014	-0.157
-451.953	134.108	0.167	-0.220
-450.938	271.255	0.157	0.283
-449.924	777.327	-0.049	-0.137
-448.909	-95.602	0.206	-0.056
-447.895	25.271	0.293	0.248
-446.880	236.944	-0.129	0.219
-445.865	54.188	0.067	0.066
-444.851	241.328	-0.115	0.196
-443.836	-124.789	0.206	0.032
-442.822	156.059	-0.131	-0.184
-441.807	20.688	-0.226	-0.186
-440.792	800.000	0.077	0.271
-439.778	110.255	0.086	0.105
-438.763	615.711	0.099	0.252
-437.749	800.000	-0.067	-0.192
-436.734	-95.154	0.365	0.100
-435.719	-0.939	-0.225	0.162
-434.705	-51.724	-0.152	-0.072
-433.690	-200.000	-0.002	-0.015
-432.676	-66.038	-0.415	0.169
-431.661	-19.887	-0.147	0.092
-430.646	268.985	-0.118	0.212
-429.632	800.000	0.015	0.055
-428.617	716.124	0.034	0.091
-427.603	-200.000	0.006	-0.159
-426.588	-76.169	0.208	0.075
-425.573	200.278	-0.159	-0.248
-424.559	349.004	0.045	0.091
-423.544	800.000	-0.049	-0.152
-422.530	-42.379	-0.216	-0.112
-421.515	674.035	0.026	-0.068
-420.500	-2.205	0.021	-0.015
-419.486	800.000	0.021	0.075
-418.471	171.411	-0.100	-0.146
-417.457	49.237	0.100	0.095
-416.442	-200.000	-0.047	-0.248
-415.428	94.690	0.180	-0.208
-414.413	9.486	0.039	-0.030
-413.398	540.187	0.099	0.240
-412.384	443.078	0.121	0.270
-411.369	800.000	0.077	-0.226
-410.355	89.858	0.082	-0.093
-409.340	-72.521	-0.195	0.073
-408.325	800.000	-0.064	-0.182
-407.311	-200.000	0.008	0.075
-406.296	800.000	-0.115	-0.331
-405.282	-190.980	0.085	-0.001
-404.267	671.470	0.086	0.227
-403.252	-79.964	0.156	-0.053
-402.238	41.331	0.178	-0.164
-401.223	38.679	0.185	-0.168
-400.209	-128.050	-0.168	-0.024
-399.194	-60.281	0.300	0.130
-398.179	800.000	0.055	-0.233
-397.165	524.466	-0.022	-0.052
-396.150	74.612	-0.039	0.042
-395.136	23.921	0.188	-0.158
-394.121	210.165	-0.142	-0.227
-393.106	67.885	-0.178	-0.186
-392.092	182.224	-0.222	0.332
-391.077	149.332	0.020	-0.028
-390.063	354.606	-0.066	-0.134
-389.048	-62.217	-0.343	-0.145
-388.033	-65.828	-0.239	-0.097
-387.019	-6.664	-0.021	0.015
-386.004	-47.760	0.195	0.096
-384.990	-110.136	-0.195	-0.041
-383.975	800.000	0.036	-0.147
-382.960	405.221	0.046	0.099
-381.946	48.291	-0.217	0.206
-380.931	-200.000	0.056	0.348
-379.917	183.871	-0.168	-0.252
-378.902	-200.000	-0.004	0.031
-377.888	139.989	0.167	-0.224
-376.873	697.864	0.057	-0.153
-375.858	597.046	0.075	-0.188
-374.844	-152.130	0.364	-0.027
-373.829	800.000	-0.025	0.089
-372.815	-200.000	0.012	-0.248
-371.800	-200.000	-0.008	-0.162
-370.785	72.737	0.154	0.163
-369.771	158.771	0.183	0.259
-368.756	-29.365	0.245	-0.143
-367.742	-137.123	-0.431	0.050
-366.727	-142.451	0.114	0.011
-365.712	-128.831	0.505	0.072
-364.698	-154.121	-0.288	-0.020
-363.683	800.000	-0.064	0.180
-362.669	5.046	-0.194	-0.145
-361.654	-53.958	0.319	-0.148
-360.639	10.036	-0.147	-0.114
-359.625	-200.000	-0.015	-0.388
-358.610	50.014	-0.246	0.236
-357.596	-154.396	-0.281	-0.019
-356.581	-66.987	0.128	0.051
-355.566	-147.655	0.056	-0.005
-354.552	-160.389	0.279	0.015
-353.537	62.547	0.380	-0.385
-352.523	-200.000	0.025	-0.231
-351.508	-22.232	0.193	0.119
-350.493	389.729	0.152	0.320
-349.479	140.974	0.073	0.099
-348.464	43.611	-0.057	-0.053
-347.450	80.205	0.243	-0.265
-346.435	515.473	-0.111	-0.263
-345.420	-200.000	0.053	0.330
-344.406	143.760	-0.061	-0.082
-343.391	94.704	-0.143	-0.165
-342.377	-41.249	-0.039	0.020
-341.362	72.113	0.114	0.121
-340.348	-1.620	-0.268	0.192
-339.333	114.738	0.199	0.247
-338.318	399.427	-0.118	0.251
-337.304	599.376	-0.075	0.190
-336.289	-200.000	0.037	-0.192
-335.275	2.834	-0.204	-0.150
-334.260	315.904	-0.052	-0.100
-333.245	65.685	0.203	-0.208
-332.231	31.489	-0.088	0.076
-331.216	393.650	0.107	-0.227
-330.202	-112.168	-0.244	-0.050
-329.187	102.541	0.333	0.395
-328.172	176.565	-0.107	-0.159
-327.158	-200.000	-0.048	0.481
-326.143	-101.773	0.130	0.032
-325.129	98.475	0.268	-0.313
-324.114	248.799	0.124	-0.213
-323.099	-131.247	-0.234	0.032
-322.085	86.716	0.060	-0.067
-321.070	-98.235	-0.075	0.020
-320.056	-124.152	0.039	-0.006
-319.041	-173.709	-0.276	-0.008
-318.026	32.947	-0.284	-0.249
-317.012	-90.583	-0.066	-0.019
-315.997	-97.881	-0.083	-0.022
-314.983	-164.446	-0.194	0.009
-313.968	-120.852	-0.140	0.024
-312.953	242.430	0.147	0.249
-311.939	-87.106	-0.243	0.075
-310.924	-152.651	-0.155	0.011
-309.910	-32.192	-0.237	-0.135
-308.895	-154.004	0.110	-0.008
-307.880	105.811	-0.133	-0.159
-306.866	800.000	-0.075	-0.325
-305.851	125.004	0.097	-0.124
-304.837	-200.000	0.025	0.254
-303.822	-126.503	-0.252	0.038
-302.807	340.779	-0.153	-0.303
-301.793	-200.000	0.026	-0.244
-300.778	108.903	-0.176	0.213
-299.764	-11.927	0.188	-0.125
-298.749	-14.680	-0.127	-0.082
-297.735	-113.205	-0.075	-0.015
-296.720	251.720	0.204	0.353
-295.705	222.364	0.200	0.327
-294.691	86.159	0.193	0.215
-293.676	207.403	-0.036	-0.058
-292.662	396.813	-0.074	-0.158
-291.647	15.803	0.093	0.074
-290.632	768.707	0.039	-0.108
-289.618	-63.824	0.033	-0.013
-288.603	800.000	-0.139	0.394
-287.589	800.000	-0.063	0.211
-286.574	-200.000	0.038	-0.193
-285.559	-200.000	0.037	0.335
-284.545	-127.159	0.185	-0.027
-283.530	132.941	-0.031	0.041
-282.516	167.912	-0.141	0.203
-281.501	800.000	0.044	0.163
-280.486	-200.000	-0.009	0.107
-279.472	-79.148	0.072	0.025
-278.457	106.315	0.019	-0.023
-277.443	-114.135	-0.127	0.025
-276.428	-12.052	0.052	0.035
-275.413	-150.251	-0.233	0.018
-274.399	229.534	0.212	0.351
-273.384	-147.761	0.122	0.010
-272.370	-60.659	0.259	0.111
-271.355	-96.768	-0.281	-0.075
-270.340	-84.337	-0.214	0.069
-269.326	-76.113	-0.083	-0.030
-268.311	-142.845	0.209	0.021
-267.297	-200.000	0.020	-0.321
-266.282	-93.605	-0.261	-0.073
-265.267	452.500	0.122	-0.274
-264.253	-22.838	-0.072	0.044
-263.238	20.425	-0.107	-0.088
-262.224	-200.000	0.002	-0.032
-261.209	-200.000	-0.030	-0.171
-260.195	-100.466	-0.342	-0.086
-259.180	800.000	0.094	0.306
-258.165	-39.177	-0.117	-0.062
-257.151	-200.000	-0.014	0.084
-256.136	-200.000	-0.034	-0.259
-255.122	249.518	-0.145	0.250
-254.107	146.510	-0.121	-0.164
-253.092	97.077	-0.083	-0.096
-252.078	-196.990	-0.376	0.002
-251.063	-38.878	0.074	0.040
-250.049	800.000	-0.072	-0.245
-249.034	-141.502	-0.182	0.019
-248.019	34.025	0.052	-0.046
-247.005	-63.441	0.241	0.100
-245.990	26.850	-0.085	0.072
-244.976	-29.824	-0.281	-0.162
-243.961	173.479	0.115	-0.168
-242.946	365.196	-0.044	0.090
-241.932	-139.628	0.157	-0.017
-240.917	721.864	0.083	0.223
-239.903	-200.000	0.005	-0.610
-238.888	-65.261	-0.133	-0.054
-237.873	-1.463	0.160	-0.114
-236.859	800.000	0.064	-0.274
-235.844	-107.576	0.128	-0.028
-234.830	180.398	-0.208	0.309
-233.815	243.077	-0.174	0.295
-232.800	-137.806	-0.144	0.016
-231.786	-123.963	0.325	-0.052
-230.771	-118.022	0.212	-0.038
-229.757	-96.436	0.168	0.045
-228.742	-200.000	0.004	0.164
-227.727	361.848	-0.134	-0.273
-226.713	35.698	-0.104	0.092
-225.698	-4.692	0.193	-0.135
-224.684	14.336	0.147	0.116
-223.669	333.473	0.016	0.031
-222.655	456.651	0.071	0.159
-221.640	489.621	0.050	-0.116
-220.625	197.920	-0.127	-0.196
-219.611	-59.481	0.391	-0.170
-218.596	-40.972	0.115	-0.060
-217.582	-75.631	0.320	-0.115
-216.567	-43.287	-0.062	0.032
-215.552	-200.000	0.043	0.312
-214.538	-56.145	0.154	0.069
-213.523	-107.313	-0.226	-0.050
-212.509	343.000	0.082	-0.163
-211.494	199.911	0.208	0.323
-210.479	-200.000	-0.008	0.235
-209.465	-200.000	-0.002	-0.181
-208.450	126.605	0.273	0.349
-207.436	-69.429	0.516	-0.200
-206.421	-29.461	0.180	0.104
-205.406	800.000	-0.045	0.138
-204.392	107.802	-0.247	-0.297
-203.377	-38.414	-0.108	0.058
-202.363	-164.571	0.213	0.010
-201.348	-74.793	0.095	-0.034
-200.333	-27.903	-0.275	0.161
-199.319	-200.000	-0.004	-0.275
-198.304	41.058	0.194	0.177
-197.290	-200.000	-0.036	0.162
-196.275	-59.669	0.383	0.166
-195.260	39.590	-0.103	-0.093
-194.246	503.316	0.053	-0.124
-193.231	-30.833	0.430	-0.245
-192.217	800.000	-0.053	-0.186
-191.202	-57.018	-0.126	0.056
-190.187	-77.970	0.078	0.027
-189.173	800.000	-0.071	0.251
-188.158	243.727	-0.032	-0.054
-187.144	20.312	0.019	-0.015
-186.129	-124.652	-0.123	-0.019
-185.114	34.158	-0.130	-0.115
-184.100	-88.398	0.044	-0.013
-183.085	-51.333	-0.315	-0.149
-182.071	-17.976	0.197	0.124
-181.056	520.946	0.142	0.336
-180.042	-52.934	-0.113	-0.052
-179.027	-200.000	0.015	-0.097
-178.012	-53.055	-0.037	-0.017
-176.998	467.823	0.172	-0.389
-175.983	-9.072	0.223	-0.151
-174.969	631.117	-0.077	0.196
-173.954	4.227	0.142	-0.105
-172.939	61.413	0.082	-0.082
-171.925	72.519	-0.119	0.125
-170.910	800.000	0.082	0.304
-169.896	-133.393	0.478	-0.061
-168.881	81.262	-0.123	-0.134
-167.866	800.000	-0.110	0.374
-166.852	-135.150	-0.146	-0.018
-165.837	-200.000	0.038	-0.269
-164.823	599.444	-0.132	-0.331
-163.808	204.937	-0.164	0.257
-162.793	-69.229	0.376	0.146
-161.779	800.000	0.060	-0.169
-160.764	800.000	-0.081	0.262
-159.750	129.368	-0.088	-0.113
-158.735	-3.178	-0.261	0.184
-157.720	300.605	0.082	0.152
-156.706	107.446	0.065	-0.078
-155.691	96.093	0.058	-0.067
-154.677	-28.145	0.132	-0.077
-153.662	-45.026	-0.400	-0.201
-152.647	800.000	0.006	-0.027
-151.633	461.813	0.213	0.479
-150.618	-95.326	0.392	0.106
-149.604	440.280	-0.045	0.100
-148.589	-107.947	0.368	-0.081
-147.574	-200.000	0.009	0.345
-146.560	81.419	-0.187	0.203
-145.545	25.012	-0.296	-0.247
-144.531	-139.134	-0.286	-0.031
-143.516	-200.000	-0.029	-0.147
-142.502	415.613	-0.118	0.252
-141.487	800.000	0.042	0.132
-140.472	78.473	-0.060	-0.065
-139.458	24.471	-0.082	0.068
-138.443	89.228	0.281	0.315
-137.429	-57.980	0.130	0.057
-136.414	-16.719	0.142	0.091
-135.399	-128.063	-0.314	0.045
-134.385	-102.696	0.238	-0.057
-133.370	-45.265	0.290	0.145
-132.356	75.722	-0.403	0.429
-131.341	296.224	-0.013	0.025
-130.326	40.013	0.221	0.200
-129.312	-110.470	-0.077	0.016
-128.297	-100.220	0.125	0.031
-127.283	800.000	0.035	-0.126
-126.268	0.134	0.321	-0.230
-125.253	128.995	-0.130	-0.166
-124.239	800.000	0.074	-0.249
-123.224	227.778	-0.099	0.162
-122.210	319.316	-0.218	-0.416
-121.195	-200.000	-0.034	-0.164
