DTS Sentinel unit serial number:	SN413079Multiplexer serial number:	ORYXHardware model number:	OX4-SRSoftware version number:	ORYX F/W v4.00 Oryx Data Collector v3.7.2.0data status	okinstallation	princeton_trtdifferential loss correction	single-endedforward channel	channel 4reverse channel	N/Adate	2019/09/11time	10:27:10forward acquisition time	60.00reverse acquisition time	0.00gamma	496.2192k internal	0.2294k external	0.2294temperature offset calibration	0.9972default loss term (dB/km)	0.3790temperature slope calibration	1.0000multiplexer offset coefficient	1.0000multiplexer slope coefficient	1.0000fibre end	0.00T internal ref (°C)	36.30T ext. ref 1 (°C)	0.16T ext. ref 2 (°C)	32.42length (m)	temperature (°C)	Stokes	anti-Stokes-747.200	474.062	0.034	-0.079
-746.185	-200.000	0.021	0.119
-745.171	800.000	0.132	0.397
-744.156	-200.000	-0.012	0.276
-743.142	45.536	-0.226	0.214
-742.127	264.640	-0.087	0.154
-741.112	43.629	-0.071	-0.066
-740.098	800.000	-0.073	0.219
-739.083	-94.163	-0.203	0.057
-738.069	140.446	-0.159	0.214
-737.054	-200.000	-0.041	0.260
-736.039	2.162	-0.272	-0.201
-735.025	-127.517	0.248	0.037
-734.010	-49.221	0.075	-0.037
-732.996	-200.000	-0.007	-0.493
-731.981	-74.470	-0.139	-0.051
-730.966	-54.497	-0.152	-0.071
-729.952	67.728	-0.356	0.371
-728.937	-166.322	0.366	0.016
-727.923	-33.565	-0.057	0.032
-726.908	121.992	-0.035	0.045
-725.894	6.265	-0.140	-0.106
-724.879	-200.000	-0.041	-0.336
-723.864	365.778	-0.087	-0.180
-722.850	-42.336	-0.312	-0.163
-721.835	800.000	-0.054	-0.174
-720.821	-85.971	-0.169	-0.053
-719.806	-63.470	0.055	0.023
-718.791	-85.687	0.091	-0.029
-717.777	28.280	-0.161	-0.139
-716.762	-58.981	0.070	-0.031
-715.748	196.667	0.100	0.155
-714.733	24.567	0.040	0.033
-713.718	-131.904	0.278	-0.037
-712.704	-163.762	0.237	-0.011
-711.689	536.888	-0.053	0.129
-710.675	-200.000	0.014	0.063
-709.660	-91.035	0.179	-0.052
-708.645	300.459	0.031	-0.059
-707.631	-103.332	-0.169	-0.041
-706.616	800.000	0.071	0.282
-705.602	17.820	-0.227	-0.184
-704.587	-89.701	0.225	0.067
-703.572	266.657	0.193	0.344
-702.558	-200.000	0.027	0.215
-701.543	-71.957	-0.153	-0.058
-700.529	19.543	0.501	-0.411
-699.514	800.000	0.034	-0.122
-698.499	-155.603	0.109	0.007
-697.485	514.357	-0.112	0.267
-696.470	-160.743	-0.177	-0.010
-695.456	270.770	-0.148	-0.265
-694.441	-90.886	0.066	0.019
-693.426	-137.951	0.226	0.026
-692.412	496.909	0.172	-0.403
-691.397	138.264	-0.327	-0.437
-690.383	53.784	0.268	-0.263
-689.368	80.735	-0.305	-0.335
-688.354	800.000	-0.055	-0.245
-687.339	84.717	-0.216	0.241
-686.324	215.161	0.028	0.045
-685.310	-200.000	-0.048	0.235
-684.295	216.789	-0.137	-0.222
-683.281	800.000	-0.147	-0.428
-682.266	46.494	-0.246	-0.233
-681.251	-124.509	0.254	-0.040
-680.237	86.395	-0.238	-0.267
-679.222	-200.000	0.003	-0.068
-678.208	-200.000	0.021	-0.135
-677.193	432.494	-0.031	0.068
-676.178	11.936	-0.265	-0.207
-675.164	-173.896	-0.109	-0.003
-674.149	-184.223	-0.117	0.002
-673.135	-12.842	-0.206	0.137
-672.120	-57.240	0.415	0.186
-671.105	32.489	0.106	0.093
-670.091	-185.535	0.408	-0.006
-669.076	-65.425	0.146	-0.060
-668.062	-103.490	-0.225	0.054
-667.047	-73.362	0.321	0.120
-666.032	800.000	-0.057	0.161
-665.018	-143.820	-0.438	0.042
-664.003	187.246	-0.223	-0.340
-662.989	-64.465	-0.096	-0.040
-661.974	-14.101	-0.065	0.043
-660.959	-30.423	-0.430	-0.249
-659.945	-137.081	0.112	-0.013
-658.930	-178.198	0.172	0.004
-657.916	-21.787	-0.109	0.068
-656.901	-80.184	0.198	0.068
-655.886	28.709	-0.082	-0.071
-654.872	800.000	-0.037	-0.118
-653.857	-48.396	-0.343	-0.168
-652.843	-200.000	0.008	-0.199
-651.828	116.769	0.037	-0.046
-650.814	-43.968	0.187	0.096
-649.799	-200.000	0.030	-0.214
-648.784	-53.270	0.201	-0.094
-647.770	-34.121	-0.601	0.337
-646.755	-82.086	-0.316	0.105
-645.741	3.522	0.193	0.143
-644.726	800.000	-0.098	0.324
-643.711	-143.902	-0.478	-0.046
-642.697	-81.907	-0.224	0.075
-641.682	-200.000	0.025	-0.138
-640.668	800.000	-0.062	0.198
-639.653	88.775	0.289	0.327
-638.638	535.607	-0.137	0.332
-637.624	99.382	-0.178	0.210
-636.609	-200.000	0.040	0.230
-635.595	294.580	-0.147	-0.274
-634.580	-105.370	0.198	-0.046
-633.565	-71.836	0.053	-0.020
-632.551	-200.000	-0.059	-0.308
-631.536	-200.000	0.042	-0.244
-630.522	800.000	-0.118	0.335
-629.507	-94.739	0.203	0.056
-628.492	-0.350	0.214	-0.155
-627.478	-200.000	0.037	-0.182
-626.463	566.516	0.100	-0.247
-625.449	800.000	0.070	0.215
-624.434	-119.460	0.039	0.007
-623.419	104.550	0.157	-0.188
-622.405	800.000	0.045	-0.173
-621.390	-83.869	-0.282	-0.091
-620.376	-21.187	0.122	0.076
-619.361	-13.828	0.195	-0.128
-618.346	647.766	-0.008	0.022
-617.332	7.163	-0.073	0.055
-616.317	-177.769	0.241	0.006
-615.303	-147.374	0.178	-0.015
-614.288	-155.128	0.323	-0.022
-613.273	-88.615	-0.103	-0.031
-612.259	-169.355	0.178	0.007
-611.244	228.720	-0.127	-0.210
-610.230	27.705	0.082	0.070
-609.215	-200.000	-0.014	0.117
-608.201	-51.939	0.222	0.105
-607.186	107.743	0.192	0.233
-606.171	-200.000	-0.005	-0.236
-605.157	-200.000	-0.014	0.120
-604.142	800.000	-0.042	-0.147
-603.128	-200.000	0.029	-0.178
-602.113	-139.435	0.101	-0.011
-601.098	233.763	0.132	0.221
-600.084	-81.855	-0.226	-0.075
-599.069	-110.892	0.199	0.042
-598.055	753.444	0.090	-0.246
-597.040	-152.191	-0.231	-0.017
-596.025	104.660	0.117	-0.140
-595.011	356.153	0.056	-0.114
-593.996	85.209	-0.235	-0.262
-592.982	68.471	0.308	0.321
-591.967	-34.091	-0.022	-0.012
-590.952	-200.000	0.024	-0.332
-589.938	-200.000	-0.027	-0.173
-588.923	220.405	-0.119	0.193
-587.909	614.267	-0.126	0.321
-586.894	36.999	-0.091	0.082
-585.879	178.655	-0.241	-0.357
-584.865	-146.782	-0.241	-0.021
-583.850	87.254	-0.218	-0.245
-582.836	800.000	-0.007	0.021
-581.821	-150.042	-0.221	0.017
-580.806	-82.212	-0.204	0.067
-579.792	-64.401	-0.164	-0.068
-578.777	102.129	-0.096	-0.113
-577.763	-180.029	-0.200	-0.004
-576.748	-166.874	-0.353	0.015
-575.733	140.185	-0.341	0.457
-574.719	-63.406	-0.258	-0.108
-573.704	-33.225	-0.031	-0.017
-572.690	-14.982	0.214	0.140
-571.675	-114.331	-0.072	0.014
-570.661	-18.621	0.109	0.069
-569.646	-200.000	0.014	-0.119
-568.631	800.000	-0.023	-0.066
-567.617	57.803	-0.046	-0.046
-566.602	-200.000	0.020	-0.223
-565.588	87.155	0.068	0.076
-564.573	-3.577	-0.188	0.133
-563.558	3.141	0.250	0.185
-562.544	-44.634	-0.147	0.074
-561.529	53.573	-0.254	0.248
-560.515	-29.858	0.058	0.034
-559.500	374.307	0.141	0.292
-558.485	211.368	0.128	0.205
-557.471	207.613	-0.059	-0.093
-556.456	301.324	-0.017	-0.032
-555.442	492.554	0.136	0.316
-554.427	522.063	-0.035	0.084
-553.412	-27.636	-0.133	-0.078
-552.398	154.216	0.174	-0.242
-551.383	-142.848	0.266	0.026
-550.369	-53.068	-0.281	-0.131
-549.354	-82.387	0.281	-0.093
-548.339	-98.293	0.346	0.090
-547.325	677.530	0.044	-0.115
-546.310	-42.518	-0.099	-0.051
-545.296	480.268	-0.089	0.205
-544.281	47.585	0.125	0.118
-543.266	209.468	-0.114	0.181
-542.252	99.254	0.058	-0.068
-541.237	-200.000	0.040	0.204
-540.223	-110.190	0.222	-0.047
-539.208	102.959	-0.227	-0.269
-538.193	-200.000	0.026	-0.323
-537.179	-200.000	-0.051	-0.231
-536.164	800.000	0.039	0.171
-535.150	800.000	0.098	-0.426
-534.135	800.000	0.055	0.167
-533.121	-86.892	0.372	0.115
-532.106	800.000	0.100	0.291
-531.091	-24.172	-0.292	-0.177
-530.077	-78.572	0.242	0.084
-529.062	505.940	-0.088	0.208
-528.048	38.411	-0.292	-0.264
-527.033	-200.000	0.007	-0.311
-526.018	800.000	-0.045	-0.132
-525.004	0.677	0.115	0.083
-523.989	121.344	-0.065	0.082
-522.975	328.865	0.111	-0.216
-521.960	-19.022	0.164	-0.103
-520.945	-84.739	0.207	0.066
-519.931	108.953	-0.163	-0.198
-518.916	-200.000	0.004	-0.151
-517.902	-91.218	-0.307	-0.089
-516.887	-187.302	-0.141	-0.002
-515.872	215.803	-0.167	0.269
-514.858	-80.787	0.117	0.039
-513.843	-138.725	0.149	0.017
-512.829	-200.000	0.055	-0.308
-511.814	182.643	-0.187	-0.279
-510.799	-200.000	0.051	-0.331
-509.785	71.941	-0.035	0.037
-508.770	-124.528	-0.474	-0.075
-507.756	-200.000	0.005	0.188
-506.741	93.847	0.069	-0.079
-505.726	-116.951	0.306	0.057
-504.712	800.000	0.059	-0.195
-503.697	-25.701	-0.362	-0.217
-502.683	-60.625	0.050	-0.022
-501.668	37.884	-0.052	0.047
-500.653	-161.330	-0.175	-0.009
-499.639	210.809	-0.170	0.270
-498.624	-174.724	-0.366	0.011
-497.610	800.000	0.026	-0.092
-496.595	-34.818	0.298	0.165
-495.581	-101.255	-0.328	-0.081
-494.566	-93.835	0.280	0.078
-493.551	19.773	-0.141	-0.115
-492.537	-31.167	-0.177	0.101
-491.522	197.618	0.120	0.185
-490.508	-200.000	0.010	0.137
-489.493	-12.919	-0.077	-0.051
-488.478	-51.905	-0.095	0.045
-487.464	-61.141	-0.266	0.114
-486.449	-200.000	-0.078	-0.405
-485.435	553.318	0.176	0.429
-484.420	179.946	-0.192	0.285
-483.405	60.459	-0.084	-0.084
-482.391	25.705	-0.118	-0.099
-481.376	-156.869	-0.301	0.019
-480.362	38.171	-0.127	0.115
-479.347	-93.654	0.540	-0.151
-478.332	-74.933	-0.285	0.103
-477.318	335.898	0.067	-0.131
-476.303	-16.185	-0.231	-0.148
-475.289	-114.149	0.382	-0.075
-474.274	-200.000	-0.006	-0.180
-473.259	-95.636	0.114	-0.031
-472.245	729.166	-0.087	0.236
-471.230	146.279	-0.131	0.178
-470.216	-194.559	0.146	0.001
-469.201	800.000	0.033	-0.107
-468.186	800.000	0.088	-0.336
-467.172	105.475	0.214	0.256
-466.157	-99.874	-0.401	-0.101
-465.143	-9.532	-0.240	-0.162
-464.128	378.477	-0.104	0.215
-463.113	-32.114	-0.320	0.181
-462.099	13.643	0.153	0.120
-461.084	718.450	-0.029	0.079
-460.070	800.000	0.047	-0.163
-459.055	-200.000	0.035	-0.207
-458.040	-200.000	0.007	0.443
-457.026	-121.789	-0.132	0.022
-456.011	-200.000	-0.016	0.110
-454.997	-37.343	-0.083	-0.045
-453.982	-139.511	-0.259	-0.028
-452.968	699.301	0.047	0.124
-451.953	276.449	0.071	-0.127
-450.938	-103.178	-0.121	-0.029
-449.924	-99.767	-0.131	-0.033
-448.909	62.500	0.135	-0.136
-447.895	-68.710	0.189	0.074
-446.880	-200.000	-0.081	0.362
-445.865	162.778	-0.082	0.116
-444.851	-200.000	0.078	0.351
-443.836	147.055	-0.031	0.042
-442.822	-61.178	0.425	-0.181
-441.807	203.230	-0.133	0.208
-440.792	78.807	0.093	-0.101
-439.778	295.015	-0.154	-0.285
-438.763	27.824	-0.296	0.252
-437.749	44.270	0.175	-0.162
-436.734	-200.000	-0.004	-0.248
-435.719	-4.658	0.128	-0.089
-434.705	-200.000	0.017	-0.163
-433.690	122.789	0.176	0.222
-432.676	-200.000	0.001	-0.565
-431.661	763.140	0.117	-0.321
-430.646	-44.198	0.067	0.034
-429.632	-46.801	0.117	0.058
-428.617	-104.281	0.067	0.016
-427.603	-200.000	0.006	0.384
-426.588	425.068	0.169	0.368
-425.573	800.000	-0.133	0.419
-424.559	-200.000	-0.009	0.203
-423.544	-200.000	0.025	-0.153
-422.530	39.413	-0.062	0.056
-421.515	63.217	-0.172	-0.174
-420.500	110.630	-0.066	-0.080
-419.486	-113.151	-0.231	0.046
-418.471	-200.000	-0.012	0.075
-417.457	-77.156	-0.366	0.129
-416.442	715.037	0.033	-0.088
-415.428	800.000	-0.101	0.301
-414.413	-55.268	0.028	-0.013
-413.398	-83.903	0.203	0.065
-412.384	-156.027	0.149	0.010
-411.369	-123.351	-0.069	-0.011
-410.355	-52.151	-0.039	0.018
-409.340	-70.897	-0.129	0.049
-408.325	145.862	-0.086	0.116
-407.311	-161.632	-0.431	-0.022
-406.296	-200.000	-0.013	0.148
-405.282	-50.082	0.425	-0.203
-404.267	84.546	-0.099	0.110
-403.252	-109.529	-0.137	-0.029
-402.238	80.529	0.097	-0.106
-401.223	26.789	-0.084	-0.071
-400.209	617.121	-0.082	-0.207
-399.194	1.366	0.035	-0.025
-398.179	-125.883	0.114	0.017
-397.165	-23.809	0.267	-0.161
-396.150	800.000	-0.013	-0.046
-395.136	-96.112	0.339	0.091
-394.121	800.000	0.073	-0.217
-393.106	-17.537	-0.235	-0.149
-392.092	149.440	0.071	0.097
-391.077	126.092	0.072	-0.091
-390.063	87.071	-0.088	0.098
-389.048	-200.000	-0.021	-0.189
-388.033	-128.927	0.305	-0.043
-387.019	800.000	-0.041	-0.119
-386.004	59.169	-0.122	0.121
-384.990	190.580	0.141	-0.214
-383.975	-64.232	0.082	-0.034
-382.960	-8.674	0.300	0.203
-381.946	283.442	0.150	-0.271
-380.931	-200.000	-0.031	0.221
-379.917	-18.592	0.227	0.143
-378.902	360.673	0.158	-0.318
-377.888	-68.139	-0.175	-0.069
-376.873	454.552	0.053	0.118
-375.858	-200.000	-0.019	-0.225
-374.844	158.072	0.069	-0.097
-373.829	-154.796	-0.199	0.013
-372.815	800.000	0.106	0.325
-371.800	38.518	0.171	0.154
-370.785	-200.000	-0.056	0.254
-369.771	323.062	0.061	-0.117
-368.756	-53.749	-0.135	-0.062
-367.742	76.486	-0.072	-0.077
-366.727	-200.000	0.030	0.146
-365.712	676.071	0.051	-0.134
-364.698	-21.928	-0.257	-0.157
-363.683	-121.525	0.240	0.040
-362.669	329.383	0.052	0.100
-361.654	16.986	-0.288	0.230
-360.639	-106.160	-0.363	-0.082
-359.625	24.177	-0.160	0.133
-358.610	-136.806	-0.212	0.025
-357.596	800.000	-0.043	0.161
-356.581	-106.313	-0.127	0.029
-355.566	162.615	-0.249	-0.352
-354.552	-52.058	-0.207	-0.097
-353.537	198.389	-0.098	0.150
-352.523	800.000	-0.059	0.233
-351.508	129.153	0.105	0.135
-350.493	340.287	0.088	-0.173
-349.479	-200.000	0.027	0.376
-348.464	138.660	0.096	-0.127
-347.450	800.000	-0.079	-0.286
-346.435	-73.786	0.126	-0.046
-345.420	-108.215	0.125	0.027
-344.406	800.000	-0.099	-0.417
-343.391	-74.377	0.130	-0.047
-342.377	242.109	-0.125	0.210
-341.362	-29.549	0.333	0.192
-340.348	233.656	0.223	-0.369
-339.333	108.966	0.037	-0.045
-338.318	-140.053	0.154	0.016
-337.304	-25.248	-0.121	-0.072
-336.289	-159.373	0.327	-0.018
-335.275	416.853	-0.088	-0.189
-334.260	-35.852	-0.134	0.073
-333.245	-200.000	0.041	-0.512
-332.231	-4.154	0.109	0.076
-331.216	-13.627	0.066	-0.043
-330.202	249.127	0.254	-0.433
-329.187	234.829	-0.094	0.156
-328.172	-10.994	0.050	-0.033
-327.158	26.818	0.195	-0.165
-326.143	-200.000	0.046	-0.215
-325.129	-200.000	-0.005	0.115
-324.114	16.778	-0.162	0.129
-323.099	-85.963	0.179	-0.056
-322.085	52.102	0.175	-0.167
-321.070	629.908	-0.121	-0.309
-320.056	-61.390	-0.248	-0.105
-319.041	-66.883	-0.090	-0.036
-318.026	-200.000	-0.043	0.303
-317.012	-26.055	-0.240	-0.142
-315.997	800.000	0.107	-0.357
-314.983	-64.881	-0.217	-0.088
-313.968	-152.979	0.261	-0.019
-312.953	362.283	-0.038	0.076
-311.939	800.000	-0.034	-0.133
-310.924	17.038	-0.157	0.125
-309.910	-30.431	-0.410	-0.234
-308.895	232.465	0.022	-0.037
-307.880	208.362	-0.204	0.321
-306.866	-60.510	0.100	0.043
-305.851	-200.000	0.017	0.096
-304.837	218.546	0.078	-0.125
-303.822	424.177	-0.128	-0.277
-302.807	102.023	0.057	-0.067
-301.793	-200.000	0.013	0.238
-300.778	-99.206	-0.349	0.089
-299.764	-113.650	-0.114	-0.022
-298.749	-97.110	-0.452	0.119
-297.735	-53.145	-0.153	0.071
-296.720	636.300	0.151	-0.386
-295.705	-200.000	-0.003	0.202
-294.691	42.794	0.274	0.251
-293.676	181.132	-0.138	-0.203
-292.662	71.795	0.069	0.072
-291.647	-200.000	-0.003	-0.022
-290.632	41.535	-0.172	0.157
-289.618	175.481	0.105	-0.152
-288.603	-72.216	0.316	0.118
-287.589	-55.034	0.100	0.045
-286.574	800.000	-0.068	-0.228
-285.559	-200.000	-0.004	0.142
-284.545	218.994	-0.135	-0.217
-283.530	-50.573	-0.414	0.196
-282.516	178.045	0.092	0.134
-281.501	230.437	0.086	0.142
-280.486	372.056	0.080	0.163
-279.472	-93.109	0.252	-0.071
-278.457	-75.529	0.230	0.082
-277.443	-200.000	0.060	0.293
-276.428	-87.553	-0.084	-0.025
-275.413	92.659	0.235	0.266
-274.399	800.000	0.051	-0.161
-273.384	-49.110	0.175	-0.084
-272.370	198.405	-0.046	-0.070
-271.355	-51.317	0.183	-0.086
-270.340	106.187	-0.117	-0.139
-269.326	350.640	-0.073	0.145
-268.311	-200.000	0.049	-0.229
-267.297	-44.069	0.522	0.263
-266.282	608.764	-0.037	0.093
-265.267	-12.357	-0.141	0.092
-264.253	-120.608	-0.213	0.036
-263.238	-144.406	-0.100	-0.009
-262.224	-2.156	-0.180	0.127
-261.209	147.867	0.125	-0.169
-260.195	-200.000	-0.075	-0.516
-259.180	290.535	-0.066	-0.121
-258.165	14.240	0.204	0.160
-257.151	7.726	0.222	0.167
-256.136	800.000	0.045	-0.150
-255.122	800.000	0.037	-0.142
-254.107	-200.000	-0.013	0.180
-253.092	-118.432	-0.261	-0.046
-252.078	301.862	0.137	-0.254
-251.063	-190.349	0.109	-0.001
-250.049	-139.737	-0.372	-0.040
-249.034	-200.000	0.009	0.056
-248.019	-200.000	-0.035	0.253
-247.005	800.000	-0.122	0.358
-245.990	-143.670	-0.030	0.003
-244.976	-117.899	0.299	-0.054
-243.961	-94.328	0.173	0.047
-242.946	286.973	0.127	-0.229
-241.932	-78.210	0.063	0.022
-240.917	124.006	0.141	0.178
-239.903	40.716	0.181	0.164
-238.888	-40.925	-0.159	0.082
-237.873	-140.075	-0.183	0.019
-236.859	-89.586	0.118	0.035
-235.844	-40.076	0.329	0.172
-234.830	314.876	-0.066	-0.124
-233.815	-150.532	0.429	0.033
-232.800	472.329	0.124	0.280
-231.786	524.915	-0.040	0.094
-230.771	-171.654	0.153	-0.005
-229.757	-200.000	0.006	-0.091
-228.742	316.789	0.053	-0.100
-227.727	-200.000	0.008	-0.235
-226.713	-148.058	0.246	-0.020
-225.698	-125.447	0.270	-0.041
-224.684	800.000	0.033	-0.093
-223.669	-31.398	0.047	0.026
-222.655	58.631	0.201	-0.198
-221.640	-59.415	0.085	0.037
-220.625	243.199	0.113	-0.190
-219.611	-57.932	0.230	0.101
-218.596	487.189	0.183	-0.419
-217.582	-73.524	-0.135	-0.049
-216.567	-99.506	-0.081	-0.020
-215.552	-23.150	0.353	-0.213
-214.538	-56.203	-0.268	0.119
-213.523	61.089	0.106	-0.105
-212.509	-79.746	-0.156	0.053
-211.494	173.636	0.055	-0.079
-210.479	-71.654	0.290	-0.109
-209.465	-110.270	-0.078	0.016
-208.450	355.181	0.032	-0.064
-207.436	-28.189	0.151	0.087
-206.421	-163.092	-0.209	-0.010
-205.406	-102.286	0.124	-0.030
-204.392	-10.841	-0.280	0.185
-203.377	-37.085	0.179	0.096
-202.363	197.454	-0.171	0.262
-201.348	-127.759	0.217	0.031
-200.333	-8.904	0.167	0.112
-199.319	800.000	0.061	-0.262
-198.304	-76.176	-0.559	0.197
-197.290	-54.318	-0.087	0.039
-196.275	397.794	0.075	-0.157
-195.260	230.251	-0.176	-0.288
-194.246	800.000	-0.101	0.393
-193.231	792.180	0.076	-0.210
-192.217	-200.000	0.022	0.226
-191.202	800.000	-0.043	-0.174
-190.187	-34.818	0.016	-0.009
-189.173	130.310	-0.191	0.245
-188.158	-143.670	0.217	0.021
-187.144	97.639	-0.173	-0.199
-186.129	-200.000	0.006	0.220
-185.114	-200.000	-0.050	0.326
-184.100	-35.267	0.197	0.107
-183.085	-114.252	0.095	-0.018
-182.071	-52.457	0.151	-0.070
-181.056	184.867	-0.074	0.110
-180.042	-158.449	0.092	0.005
-179.027	-76.614	0.195	0.068
-178.012	14.653	0.129	-0.101
-176.998	-102.317	-0.267	0.064
-175.983	260.249	0.152	-0.263
-174.969	-183.558	0.399	0.007
-173.954	274.749	-0.070	-0.124
-172.939	-7.301	-0.171	-0.116
-171.925	-117.994	0.307	-0.055
-170.910	-200.000	0.018	0.356
-169.896	-183.178	0.085	-0.001
-168.881	-4.935	-0.114	0.079
-167.866	-97.229	-0.039	0.010
-166.852	-3.540	-0.281	0.195
-165.837	-200.000	0.014	-0.107
-164.823	-200.000	0.043	0.280
-163.808	-189.833	0.156	0.002
-162.793	14.603	0.321	-0.250
-161.779	-79.463	-0.308	0.104
-160.764	-82.992	0.238	0.077
-159.750	-92.987	-0.262	0.073
-158.735	-68.121	-0.475	0.185
-157.720	710.139	-0.160	0.423
-156.706	-19.802	-0.192	0.119
-155.691	-78.617	0.213	0.073
-154.677	19.147	0.096	-0.077
-153.662	39.451	0.237	-0.213
-152.647	238.481	-0.117	0.195
-151.633	19.636	0.312	0.251
-150.618	800.000	0.063	-0.237
-149.604	-25.405	0.347	-0.205
-148.589	126.275	0.106	-0.134
-147.574	87.921	-0.103	-0.114
-146.560	-200.000	-0.002	-0.133
-145.545	175.165	0.131	-0.190
-144.531	800.000	0.041	0.135
-143.516	279.723	0.084	-0.150
-142.502	327.163	0.100	-0.192
-141.487	-149.535	-0.075	0.006
-140.472	-200.000	-0.007	0.116
-139.458	800.000	-0.017	0.049
-138.443	-102.796	-0.204	-0.049
-137.429	-43.737	-0.278	0.140
-136.414	-77.550	-0.333	-0.115
-135.399	91.774	-0.100	0.112
-134.385	199.230	0.123	-0.189
-133.370	55.502	-0.142	-0.137
-132.356	-133.962	0.301	0.037
-131.341	112.397	0.072	-0.087
-130.326	41.691	-0.191	0.173
-129.312	70.041	0.088	0.091
-128.297	-108.031	0.140	-0.030
-127.283	-200.000	-0.052	0.277
-126.268	800.000	-0.041	-0.179
-125.253	-113.471	-0.111	-0.022
-124.239	-1.529	-0.106	0.074
-123.224	187.506	0.240	-0.357
-122.210	683.124	0.036	-0.094
-121.195	-166.117	-0.346	-0.015
