DTS Sentinel unit serial number:	SN413079Multiplexer serial number:	ORYXHardware model number:	OX4-SRSoftware version number:	ORYX F/W v4.00 Oryx Data Collector v3.7.2.0data status	okinstallation	princeton_trtdifferential loss correction	single-endedforward channel	channel 4reverse channel	N/Adate	2019/09/10time	18:39:11forward acquisition time	60.00reverse acquisition time	0.00gamma	496.2192k internal	0.2301k external	0.2301temperature offset calibration	0.9944default loss term (dB/km)	0.3790temperature slope calibration	1.0000multiplexer offset coefficient	1.0000multiplexer slope coefficient	1.0000fibre end	0.00T internal ref (°C)	35.45T ext. ref 1 (°C)	-0.35T ext. ref 2 (°C)	27.40length (m)	temperature (°C)	Stokes	anti-Stokes-747.200	-159.872	0.351	0.020
-746.185	336.140	0.060	0.118
-745.171	-68.844	0.339	-0.134
-744.156	-45.662	0.185	-0.093
-743.142	-200.000	-0.009	-0.099
-742.127	-54.752	-0.367	0.169
-741.112	800.000	0.105	-0.325
-740.098	192.386	-0.154	-0.238
-739.083	-0.302	-0.021	0.015
-738.069	-200.000	0.068	0.323
-737.054	-144.844	-0.203	-0.019
-736.039	-167.823	0.125	0.005
-735.025	-200.000	-0.007	0.212
-734.010	-200.000	-0.050	-0.295
-732.996	-54.334	-0.158	-0.073
-731.981	-59.506	-0.487	-0.213
-730.966	431.653	-0.159	-0.351
-729.952	115.743	-0.282	-0.351
-728.937	-58.437	-0.197	-0.087
-727.923	397.173	0.101	-0.214
-726.908	-7.754	0.268	-0.185
-725.894	0.389	-0.221	-0.161
-724.879	139.048	0.145	-0.195
-723.864	-200.000	0.001	-0.243
-722.850	12.361	0.071	-0.056
-721.835	291.550	-0.064	-0.119
-720.821	-93.667	-0.214	-0.060
-719.806	64.534	0.226	-0.232
-718.791	51.455	-0.201	-0.195
-717.777	-13.759	-0.212	-0.140
-716.762	119.787	0.076	-0.096
-715.748	-93.627	-0.293	0.082
-714.733	438.413	0.021	0.046
-713.718	86.284	-0.091	-0.102
-712.704	441.009	0.127	-0.283
-711.689	77.391	-0.090	0.098
-710.675	166.493	0.146	0.210
-709.660	88.018	0.026	0.030
-708.645	800.000	0.080	0.243
-707.631	24.226	0.246	0.207
-706.616	-7.761	-0.358	-0.246
-705.602	-22.375	0.064	-0.039
-704.587	-0.472	0.367	-0.265
-703.572	-200.000	-0.022	-0.341
-702.558	-144.853	0.138	-0.013
-701.543	88.869	0.299	0.339
-700.529	800.000	0.102	-0.404
-699.514	102.682	0.136	-0.162
-698.499	327.517	0.044	0.085
-697.485	-48.670	-0.232	-0.113
-696.470	-200.000	-0.002	-0.030
-695.456	538.520	0.027	0.064
-694.441	-109.890	0.180	-0.038
-693.426	43.998	-0.051	0.048
-692.412	-200.000	-0.029	-0.372
-691.397	100.458	0.026	-0.030
-690.383	-62.809	-0.148	-0.062
-689.368	153.351	-0.074	0.103
-688.354	620.152	0.074	-0.189
-687.339	132.556	-0.104	0.137
-686.324	611.828	-0.058	-0.148
-685.310	-152.862	-0.181	0.013
-684.295	-28.918	0.109	-0.064
-683.281	29.969	-0.116	-0.101
-682.266	-107.746	-0.131	-0.029
-681.251	-22.983	0.113	0.069
-680.237	-135.186	-0.120	0.015
-679.222	73.453	-0.055	-0.059
-678.208	39.520	0.286	-0.261
-677.193	152.038	-0.130	-0.180
-676.178	150.628	0.219	-0.303
-675.164	-41.114	-0.078	0.041
-674.149	218.171	-0.246	-0.399
-673.135	-62.835	0.056	0.024
-672.120	-158.403	0.175	-0.010
-671.105	-200.000	-0.010	-0.070
-670.091	-200.000	0.024	0.200
-669.076	11.365	-0.240	-0.187
-668.062	-148.097	0.258	-0.022
-667.047	765.440	-0.116	-0.321
-666.032	-45.613	-0.017	-0.008
-665.018	-107.505	0.497	-0.111
-664.003	17.107	0.077	-0.062
-662.989	-69.979	-0.175	-0.068
-661.974	800.000	-0.062	-0.182
-660.959	6.436	0.052	-0.039
-659.945	800.000	-0.007	0.027
-658.930	-14.286	-0.429	-0.281
-657.916	48.805	0.305	-0.291
-656.901	-89.182	0.086	0.026
-655.886	-5.431	0.113	-0.079
-654.872	800.000	-0.029	0.128
-653.857	-133.152	0.351	-0.045
-652.843	-39.254	0.115	-0.061
-651.828	43.847	-0.210	-0.196
-650.814	232.479	0.064	0.107
-649.799	-200.000	-0.001	0.133
-648.784	800.000	-0.090	0.267
-647.770	800.000	-0.081	0.303
-646.755	634.316	0.033	0.086
-645.741	-161.791	-0.120	-0.006
-644.726	208.774	0.194	-0.308
-643.711	-64.001	-0.147	0.061
-642.697	19.748	0.201	0.165
-641.682	-200.000	-0.011	0.249
-640.668	-44.799	0.193	-0.098
-639.653	-157.083	0.350	0.022
-638.638	-6.598	-0.060	0.041
-637.624	-170.989	0.217	-0.008
-636.609	-95.359	0.250	0.068
-635.595	-200.000	0.047	0.225
-634.580	202.895	-0.133	-0.209
-633.565	-12.627	0.190	0.126
-632.551	800.000	-0.105	0.452
-631.536	65.474	0.144	-0.148
-630.522	-39.699	0.144	0.076
-629.507	-82.306	0.256	-0.085
-628.492	680.476	-0.123	-0.324
-627.478	326.212	-0.103	-0.201
-626.463	-20.623	-0.150	0.093
-625.449	27.941	-0.179	0.153
-624.434	-133.070	-0.056	0.007
-623.419	800.000	-0.050	0.211
-622.405	-18.222	-0.210	0.134
-621.390	-94.317	0.198	0.055
-620.376	11.124	-0.114	-0.089
-619.361	559.333	0.077	0.187
-618.346	-42.284	0.249	-0.129
-617.332	-200.000	-0.051	0.303
-616.317	64.110	-0.072	-0.073
-615.303	-89.696	0.133	0.040
-614.288	145.805	-0.138	-0.188
-613.273	-98.530	-0.178	-0.046
-612.259	-117.947	-0.052	0.009
-611.244	118.486	0.133	-0.167
-610.230	296.134	-0.139	-0.258
-609.215	49.128	-0.321	-0.305
-608.201	-154.716	-0.336	0.023
-607.186	-52.853	0.051	-0.024
-606.171	161.950	0.161	0.229
-605.157	-200.000	0.031	0.141
-604.142	183.465	0.138	-0.207
-603.128	-156.800	-0.309	0.019
-602.113	800.000	-0.117	-0.389
-601.098	-200.000	-0.006	0.101
-600.084	-200.000	0.045	-0.315
-599.069	74.249	-0.049	0.053
-598.055	322.401	-0.060	-0.117
-597.040	-200.000	0.003	-0.152
-596.025	67.142	-0.268	-0.276
-595.011	548.942	-0.132	-0.320
-593.996	-200.000	0.001	-0.008
-592.982	377.630	-0.113	0.235
-591.967	-54.734	-0.068	-0.031
-590.952	12.114	-0.248	-0.193
-589.938	29.745	-0.312	-0.269
-588.923	-200.000	-0.100	0.474
-587.909	306.735	0.100	0.189
-586.894	-63.988	-0.423	0.175
-585.879	5.067	0.095	-0.071
-584.865	-132.132	0.075	-0.010
-583.850	41.127	-0.138	-0.127
-582.836	-200.000	0.004	0.218
-581.821	404.222	-0.033	-0.070
-580.806	-200.000	0.053	-0.268
-579.792	89.426	0.093	0.105
-578.777	-88.882	-0.272	-0.082
-577.763	304.764	0.147	0.277
-576.748	-190.544	0.221	0.002
-575.733	393.326	-0.246	0.518
-574.719	113.229	-0.063	0.078
-573.704	-200.000	0.023	-0.124
-572.690	29.434	-0.192	-0.165
-571.675	700.483	0.113	0.302
-570.661	-170.564	-0.294	-0.010
-569.646	-200.000	-0.041	-0.283
-568.631	15.649	-0.215	-0.171
-567.617	-200.000	-0.035	0.291
-566.602	-7.428	-0.438	0.300
-565.588	-143.244	0.282	-0.027
-564.573	-142.969	0.192	-0.019
-563.558	256.584	-0.267	0.463
-562.544	5.446	-0.244	0.182
-561.529	746.994	-0.069	-0.187
-560.515	-43.306	-0.202	-0.103
-559.500	-19.369	0.255	0.160
-558.485	-200.000	-0.037	-0.277
-557.471	50.614	-0.051	0.048
-556.456	88.050	0.096	-0.108
-555.442	-200.000	0.007	0.194
-554.427	800.000	0.057	-0.170
-553.412	153.671	-0.116	-0.161
-552.398	-75.093	-0.168	-0.061
-551.383	-127.155	-0.302	-0.045
-550.369	-155.400	-0.140	-0.009
-549.354	89.493	0.134	0.151
-548.339	211.164	-0.062	-0.099
-547.325	800.000	0.079	0.252
-546.310	-81.559	0.145	0.048
-545.296	800.000	0.016	0.061
-544.281	-155.469	-0.287	-0.019
-543.266	800.000	0.028	0.082
-542.252	33.961	0.178	-0.157
-541.237	-150.868	0.147	0.011
-540.223	286.917	-0.074	0.135
-539.208	502.103	-0.012	-0.028
-538.193	-200.000	-0.028	0.127
-537.179	-181.123	-0.226	0.005
-536.164	800.000	-0.089	-0.273
-535.150	-131.948	0.120	-0.016
-534.135	-200.000	0.047	0.289
-533.121	616.318	-0.071	0.180
-532.106	108.407	-0.048	0.058
-531.091	-200.000	-0.016	0.187
-530.077	-170.667	-0.402	-0.014
-529.062	-43.805	0.204	-0.104
-528.048	-26.907	0.093	-0.055
-527.033	-200.000	0.050	0.440
-526.018	-97.468	0.242	-0.064
-525.004	800.000	0.092	0.382
-523.989	484.409	-0.074	-0.169
-522.975	-84.803	-0.388	-0.123
-521.960	800.000	-0.025	0.097
-520.945	-200.000	-0.021	-0.167
-519.931	-40.643	-0.116	-0.061
-518.916	-8.490	0.096	-0.065
-517.902	2.498	-0.397	0.291
-516.887	-156.101	0.017	-0.001
-515.872	54.688	-0.180	-0.176
-514.858	-35.643	0.242	-0.133
-513.843	220.186	-0.095	0.154
-512.829	-81.987	-0.138	0.045
-511.814	-64.437	-0.106	-0.043
-510.799	38.926	-0.067	-0.060
-509.785	-162.416	-0.265	-0.013
-508.770	-200.000	0.058	-0.309
-507.756	-31.844	0.274	-0.155
-506.741	-162.362	-0.209	0.010
-505.726	-46.693	0.259	0.128
-504.712	293.381	0.132	0.243
-503.697	40.203	0.032	0.029
-502.683	195.609	0.146	0.225
-501.668	12.883	-0.139	0.108
-500.653	52.706	0.116	-0.112
-499.639	-90.755	-0.108	0.031
-498.624	-200.000	-0.046	0.574
-497.610	-93.717	0.083	-0.023
-496.595	2.962	0.068	-0.050
-495.581	-200.000	-0.030	0.407
-494.566	-132.266	0.071	0.009
-493.551	348.677	-0.032	-0.063
-492.537	208.396	-0.141	0.222
-491.522	-200.000	-0.011	0.217
-490.508	-200.000	0.007	-0.034
-489.493	104.384	-0.140	0.166
-488.478	-2.762	-0.076	0.053
-487.464	128.476	0.158	0.203
-486.449	-45.482	-0.324	0.162
-485.435	164.561	-0.081	-0.115
-484.420	-200.000	0.010	-0.105
-483.405	-200.000	0.003	-0.143
-482.391	212.885	0.098	0.156
-481.376	32.960	0.287	0.251
-480.362	-200.000	0.044	0.362
-479.347	-200.000	-0.012	0.262
-478.332	-200.000	-0.000	-0.108
-477.318	-200.000	-0.045	0.285
-476.303	-18.434	-0.228	-0.144
-475.289	-70.177	0.218	-0.084
-474.274	800.000	0.021	-0.084
-473.259	-111.011	-0.245	-0.051
-472.245	15.492	0.075	-0.059
-471.230	-88.726	-0.222	-0.067
-470.216	-200.000	-0.006	0.192
-469.201	-200.000	-0.007	-0.128
-468.186	-89.864	-0.173	0.051
-467.172	0.278	-0.174	0.125
-466.157	211.537	0.049	-0.077
-465.143	205.346	-0.147	0.230
-464.128	-200.000	-0.049	-0.284
-463.113	-5.842	0.115	-0.079
-462.099	-70.777	-0.488	-0.186
-461.084	-200.000	-0.005	-0.156
-460.070	394.334	-0.126	0.264
-459.055	-17.066	0.339	0.215
-458.040	67.842	0.160	0.164
-457.026	-200.000	0.023	0.131
-456.011	102.330	-0.136	-0.160
-454.997	-90.829	-0.172	0.050
-453.982	-17.339	0.136	-0.086
-452.968	-146.120	0.183	-0.016
-451.953	129.929	-0.063	-0.082
-450.938	-73.790	0.186	-0.068
-449.924	-169.550	0.322	0.012
-448.909	-200.000	0.008	-0.167
-447.895	-154.251	0.226	0.015
-446.880	391.479	-0.087	-0.181
-445.865	-200.000	0.044	-0.298
-444.851	-6.221	0.205	0.141
-443.836	430.042	0.053	0.116
-442.822	800.000	-0.086	-0.254
-441.807	-179.848	0.173	-0.004
-440.792	-25.441	0.261	-0.155
-439.778	175.893	-0.094	-0.137
-438.763	244.620	-0.123	0.208
-437.749	800.000	0.145	-0.481
-436.734	-44.153	-0.268	0.136
-435.719	-108.140	-0.165	-0.036
-434.705	87.364	0.071	-0.079
-433.690	545.929	0.047	0.112
-432.676	38.246	0.160	-0.143
-431.661	-51.494	0.098	-0.046
-430.646	-76.229	-0.157	0.056
-429.632	680.934	0.042	-0.110
-428.617	-143.145	0.087	0.008
-427.603	800.000	-0.064	-0.212
-426.588	-200.000	0.046	-0.282
-425.573	376.688	0.023	-0.048
-424.559	-117.980	0.468	-0.084
-423.544	-157.975	-0.215	-0.013
-422.530	-51.397	-0.140	-0.066
-421.515	-78.656	-0.168	0.058
-420.500	-200.000	0.026	0.176
-419.486	-200.000	-0.067	-0.299
-418.471	-30.998	-0.282	-0.160
-417.457	77.727	-0.234	-0.251
-416.442	133.329	-0.116	-0.151
-415.428	-200.000	0.045	0.340
-414.413	-49.788	-0.171	-0.082
-413.398	196.855	0.076	-0.117
-412.384	-55.945	0.233	-0.105
-411.369	-44.467	0.078	-0.039
-410.355	496.630	0.057	-0.132
-409.340	169.043	-0.082	0.117
-408.325	800.000	-0.049	0.137
-407.311	-117.496	0.186	-0.034
-406.296	-7.880	0.172	-0.116
-405.282	221.514	0.133	0.215
-404.267	-93.943	0.192	0.053
-403.252	-25.643	0.228	0.135
-402.238	112.162	0.326	-0.396
-401.223	-200.000	0.041	-0.253
-400.209	800.000	0.074	-0.283
-399.194	5.766	-0.178	0.132
-398.179	118.905	-0.125	-0.155
-397.165	-171.033	0.317	-0.011
-396.150	-200.000	0.007	0.203
-395.136	-84.645	0.174	-0.055
-394.121	-123.305	0.129	0.021
-393.106	47.356	-0.078	0.073
-392.092	289.320	-0.038	-0.069
-391.077	-200.000	0.034	0.181
-390.063	-134.631	-0.388	-0.048
-389.048	252.522	-0.222	0.380
-388.033	800.000	-0.164	-0.540
-387.019	-94.307	0.033	-0.009
-386.004	27.666	-0.108	0.092
-384.990	-200.000	0.004	-0.191
-383.975	800.000	0.066	0.250
-382.960	800.000	-0.050	0.206
-381.946	543.274	-0.075	-0.180
-380.931	38.389	-0.180	-0.161
-379.917	142.263	0.049	-0.065
-378.902	80.186	-0.217	-0.235
-377.888	165.566	-0.109	0.155
-376.873	593.279	0.093	0.232
-375.858	800.000	0.068	0.215
-374.844	-5.755	0.125	0.086
-373.829	-193.889	-0.234	0.002
-372.815	530.962	0.125	-0.296
-371.800	-74.176	-0.199	0.073
-370.785	-62.463	0.104	0.043
-369.771	-200.000	0.022	0.263
-368.756	389.871	-0.171	0.357
-367.742	-200.000	0.014	-0.107
-366.727	0.666	-0.156	0.112
-365.712	-55.252	0.239	0.108
-364.698	140.577	0.087	-0.116
-363.683	349.238	0.062	0.122
-362.669	184.902	-0.150	-0.224
-361.654	-200.000	-0.029	0.256
-360.639	514.848	-0.053	0.123
-359.625	-200.000	0.011	-0.103
-358.610	-200.000	-0.041	0.298
-357.596	-145.667	-0.239	-0.021
-356.581	-53.065	0.190	-0.087
-355.566	-200.000	0.036	-0.373
-354.552	94.499	-0.109	-0.125
-353.537	-140.647	-0.278	-0.029
-352.523	291.912	-0.026	-0.048
-351.508	-200.000	-0.044	-0.209
-350.493	-101.853	0.118	-0.029
-349.479	800.000	0.034	-0.120
-348.464	31.000	-0.050	-0.043
-347.450	-115.178	0.528	-0.100
-346.435	-33.484	-0.285	0.158
-345.420	-143.128	-0.255	-0.025
-344.406	88.836	-0.104	-0.116
-343.391	800.000	0.067	-0.193
-342.377	300.582	0.023	0.042
-341.362	-61.064	0.167	-0.071
-340.348	47.352	0.098	0.091
-339.333	-155.279	0.250	0.016
-338.318	134.743	-0.282	-0.368
-337.304	178.817	0.033	0.049
-336.289	58.196	0.309	0.304
-335.275	-111.782	-0.116	-0.024
-334.260	-86.402	-0.199	0.061
-333.245	-200.000	0.025	0.358
-332.231	428.151	0.093	0.202
-331.216	800.000	-0.050	0.173
-330.202	-109.421	-0.101	-0.022
-329.187	-133.790	0.438	-0.055
-328.172	-130.585	0.370	0.050
-327.158	800.000	-0.041	0.149
-326.143	-16.028	-0.161	-0.103
-325.129	-100.048	0.250	0.063
-324.114	296.816	0.108	-0.200
-323.099	-41.949	0.347	0.178
-322.085	116.872	0.069	0.085
-321.070	101.359	-0.041	-0.048
-320.056	-200.000	0.018	-0.113
-319.041	-139.457	0.139	-0.015
-318.026	-200.000	0.046	-0.343
-317.012	-70.571	-0.217	0.082
-315.997	69.254	-0.107	0.111
-314.983	800.000	0.031	0.130
-313.968	-167.390	0.244	-0.010
-312.953	-58.948	-0.120	0.052
-311.939	-21.677	0.048	0.029
-310.924	-86.363	0.262	-0.081
-309.910	-137.448	0.160	-0.018
-308.895	239.428	0.166	-0.277
-307.880	-200.000	-0.010	0.214
-306.866	-104.611	-0.151	-0.035
-305.851	294.848	0.050	-0.091
-304.837	562.930	0.070	-0.170
-303.822	800.000	-0.086	-0.262
-302.807	401.663	-0.065	0.137
-301.793	106.200	-0.125	0.148
-300.778	-200.000	-0.091	-0.554
-299.764	140.005	0.179	0.237
-298.749	-60.982	-0.240	-0.102
-297.735	-58.559	0.296	-0.129
-296.720	-130.724	-0.284	0.038
-295.705	-54.539	0.162	-0.073
-294.691	668.368	-0.064	-0.166
-293.676	458.516	-0.041	0.092
-292.662	-200.000	0.009	-0.164
-291.647	-124.242	-0.232	0.036
-290.632	-103.738	0.305	-0.072
-289.618	800.000	-0.078	-0.232
-288.603	-173.158	-0.105	-0.003
-287.589	101.725	0.037	0.043
-286.574	800.000	0.047	0.143
-285.559	-132.326	0.231	0.030
-284.545	116.686	-0.221	-0.271
-283.530	-172.697	0.065	0.002
-282.516	13.351	-0.233	-0.181
-281.501	690.072	-0.080	0.210
-280.486	-32.073	0.076	-0.042
-279.472	77.668	0.068	-0.073
-278.457	-93.629	0.326	-0.090
-277.443	800.000	0.075	-0.260
-276.428	-200.000	-0.024	-0.142
-275.413	788.864	-0.044	0.120
-274.399	-200.000	-0.066	-0.291
-273.384	800.000	0.090	-0.359
-272.370	-186.915	0.163	0.002
-271.355	133.132	-0.108	-0.139
-270.340	-70.141	0.225	-0.086
-269.326	-133.626	-0.170	0.021
-268.311	43.267	-0.351	-0.320
-267.297	800.000	0.041	-0.135
-266.282	-158.695	0.114	0.007
-265.267	11.405	0.112	0.086
-264.253	-46.829	0.276	0.135
-263.238	800.000	-0.058	0.180
-262.224	-141.769	-0.257	0.026
-261.209	-3.976	-0.058	0.040
-260.195	-29.736	0.353	-0.202
-259.180	-174.738	-0.184	-0.005
-258.165	294.540	0.087	0.160
-257.151	151.890	-0.094	0.128
-256.136	54.372	0.236	-0.227
-255.122	-167.888	0.376	0.015
-254.107	-23.085	0.124	-0.075
-253.092	7.044	0.144	0.107
-252.078	-94.077	-0.059	0.016
-251.063	800.000	0.070	0.222
-250.049	-91.383	-0.253	0.072
-249.034	356.037	0.070	-0.140
-248.019	-59.373	-0.171	0.073
-247.005	123.030	0.078	-0.098
-245.990	130.462	0.197	-0.253
-244.976	136.307	-0.058	-0.075
-243.961	-22.637	-0.314	-0.190
-242.946	-65.994	-0.311	-0.124
-241.932	800.000	0.028	-0.111
-240.917	751.068	0.014	-0.037
-239.903	229.689	0.107	0.175
-238.888	-129.425	-0.473	0.066
-237.873	-200.000	0.011	0.420
-236.859	24.221	0.148	-0.122
-235.844	99.849	0.063	0.073
-234.830	126.001	-0.058	-0.073
-233.815	-62.086	-0.221	0.092
-232.800	87.861	-0.059	-0.066
-231.786	-200.000	-0.011	-0.089
-230.771	-61.871	-0.174	-0.073
-229.757	-200.000	-0.018	0.121
-228.742	-162.018	0.566	-0.028
-227.727	-83.671	0.267	-0.085
-226.713	-200.000	0.023	0.456
-225.698	68.279	-0.121	-0.123
-224.684	322.791	-0.172	0.326
-223.669	117.824	0.052	0.064
-222.655	87.232	-0.121	-0.133
-221.640	181.012	-0.066	0.097
-220.625	246.095	0.143	-0.240
-219.611	-141.302	0.520	0.053
-218.596	18.349	-0.303	0.242
-217.582	-38.534	0.262	0.138
-216.567	-120.251	-0.122	0.021
-215.552	502.062	0.070	-0.161
-214.538	-151.697	0.197	0.014
-213.523	800.000	0.004	0.017
-212.509	-78.571	0.179	0.061
-211.494	67.967	0.246	-0.252
-210.479	185.779	0.198	0.294
-209.465	-200.000	0.010	0.108
-208.450	-122.666	-0.092	0.015
-207.436	800.000	-0.039	0.168
-206.421	-36.964	0.279	0.149
-205.406	-132.573	0.341	-0.044
-204.392	408.381	0.059	-0.125
-203.377	-46.380	0.151	-0.074
-202.363	-40.047	-0.030	0.016
-201.348	-122.466	0.200	0.032
-200.333	-70.580	-0.350	-0.132
-199.319	346.566	0.110	0.215
-198.304	-200.000	-0.074	-0.453
-197.290	4.458	0.122	-0.089
-196.275	543.132	-0.102	-0.244
-195.260	-61.259	-0.127	-0.053
-194.246	800.000	-0.040	0.123
-193.231	99.906	-0.106	0.122
-192.217	-123.131	-0.130	-0.021
-191.202	-41.784	0.015	0.007
-190.187	800.000	-0.033	0.109
-189.173	34.487	0.442	0.385
-188.158	800.000	0.054	0.196
-187.144	222.831	0.037	-0.060
-186.129	800.000	-0.053	-0.160
-185.114	800.000	-0.072	0.217
-184.100	34.572	-0.255	-0.222
-183.085	144.505	0.139	0.186
-182.071	-102.533	0.373	0.089
-181.056	-40.432	-0.286	-0.148
-180.042	95.564	0.259	0.294
-179.027	56.068	-0.009	-0.009
-178.012	-72.523	0.442	-0.163
-176.998	-70.886	-0.312	-0.117
-175.983	-104.622	0.416	0.096
-174.969	50.914	-0.107	-0.101
-173.954	-92.426	0.250	-0.070
-172.939	-111.844	0.205	-0.041
-171.925	-200.000	-0.002	-0.172
-170.910	-22.866	0.217	0.131
-169.896	345.593	0.162	-0.317
-168.881	-200.000	-0.014	0.376
-167.866	-200.000	-0.066	-0.430
-166.852	-148.982	0.266	0.021
-165.837	-117.043	-0.323	0.059
-164.823	-200.000	-0.002	0.057
-163.808	-71.644	-0.372	0.139
-162.793	-200.000	-0.002	0.232
-161.779	-200.000	0.001	-0.206
-160.764	-38.658	-0.130	-0.068
-159.750	351.795	0.009	0.018
-158.735	556.014	0.022	0.052
-157.720	800.000	-0.057	0.238
-156.706	7.066	0.035	-0.026
-155.691	782.775	0.125	-0.342
-154.677	-200.000	-0.002	0.071
-153.662	-93.208	0.142	-0.039
-152.647	-120.646	-0.123	-0.021
-151.633	147.149	-0.160	0.215
-150.618	-71.670	-0.231	0.086
-149.604	800.000	0.035	0.124
-148.589	-1.324	-0.202	0.142
-147.574	-164.682	-0.322	0.014
-146.560	94.825	-0.045	0.051
-145.545	-200.000	0.030	-0.270
-144.531	187.465	-0.118	0.176
-143.516	800.000	-0.048	-0.172
-142.502	-38.632	-0.206	-0.108
-141.487	-200.000	-0.000	-0.114
-140.472	315.704	-0.125	-0.235
-139.458	-164.179	-0.427	-0.020
-138.443	6.796	-0.013	0.010
-137.429	-85.392	0.134	-0.042
-136.414	-93.271	0.451	-0.125
-135.399	-20.409	0.269	0.165
-134.385	-27.981	-0.030	0.017
-133.370	-19.429	0.071	-0.044
-132.356	84.051	-0.115	0.125
-131.341	-61.304	0.225	0.094
-130.326	800.000	-0.033	-0.091
-129.312	80.387	0.091	0.098
-128.297	-183.390	-0.071	0.001
-127.283	559.829	0.186	0.447
-126.268	-200.000	0.007	-0.077
-125.253	-59.029	-0.062	0.027
-124.239	-95.844	0.287	0.076
-123.224	-200.000	0.019	0.231
-122.210	800.000	-0.090	0.251
