DTS Sentinel unit serial number:	SN413079Multiplexer serial number:	ORYXHardware model number:	OX4-SRSoftware version number:	ORYX F/W v4.00 Oryx Data Collector v3.7.2.0data status	okinstallation	princeton_trtdifferential loss correction	single-endedforward channel	channel 4reverse channel	N/Adate	2019/09/11time	20:47:11forward acquisition time	60.00reverse acquisition time	0.00gamma	496.2192k internal	0.2304k external	0.2304temperature offset calibration	1.0060default loss term (dB/km)	0.3790temperature slope calibration	1.0000multiplexer offset coefficient	1.0000multiplexer slope coefficient	1.0000fibre end	0.00T internal ref (°C)	37.06T ext. ref 1 (°C)	1.55T ext. ref 2 (°C)	30.71length (m)	temperature (°C)	Stokes	anti-Stokes-747.200	236.563	-0.115	0.194
-746.185	-200.000	-0.005	0.207
-745.171	-200.000	0.012	0.331
-744.156	800.000	-0.075	-0.235
-743.142	545.332	-0.070	0.170
-742.127	-200.000	0.010	0.184
-741.112	274.376	-0.142	0.256
-740.098	-52.002	-0.133	0.063
-739.083	-12.774	-0.104	-0.069
-738.069	-96.473	0.231	-0.062
-737.054	381.903	0.046	0.096
-736.039	-61.813	-0.076	-0.032
-735.025	-13.479	0.083	-0.055
-734.010	341.574	-0.114	-0.226
-732.996	-200.000	-0.013	0.343
-731.981	-104.717	-0.092	0.022
-730.966	800.000	0.033	-0.113
-729.952	712.627	0.033	-0.089
-728.937	-200.000	-0.028	-0.156
-727.923	542.728	0.113	-0.274
-726.908	-150.771	-0.435	0.034
-725.894	122.345	0.207	0.263
-724.879	321.484	-0.125	0.241
-723.864	-46.644	-0.277	0.138
-722.850	-139.144	-0.235	-0.026
-721.835	-71.533	-0.149	0.057
-720.821	-200.000	0.003	0.229
-719.806	-126.186	0.240	-0.037
-718.791	-110.318	0.239	0.051
-717.777	275.097	0.149	-0.269
-716.762	-200.000	-0.012	-0.120
-715.748	800.000	0.100	-0.357
-714.733	-121.092	0.216	0.037
-713.718	-12.233	-0.202	-0.134
-712.704	6.365	-0.024	0.018
-711.689	-200.000	-0.013	0.294
-710.675	-200.000	-0.015	0.375
-709.660	17.109	-0.330	-0.266
-708.645	171.839	0.045	0.066
-707.631	-137.565	-0.215	0.025
-706.616	-168.761	0.394	-0.015
-705.602	-110.122	-0.438	-0.093
-704.587	-157.561	-0.304	0.019
-703.572	-200.000	-0.001	-0.024
-702.558	-99.955	-0.216	-0.055
-701.543	-200.000	-0.025	-0.150
-700.529	-79.488	0.198	0.068
-699.514	243.604	-0.137	0.234
-698.499	-200.000	-0.000	-0.258
-697.485	-200.000	-0.016	0.169
-696.470	-80.390	0.183	-0.062
-695.456	5.811	0.151	-0.113
-694.441	19.840	0.187	-0.153
-693.426	-126.980	0.447	0.067
-692.412	-90.079	-0.467	-0.138
-691.397	-200.000	0.017	-0.080
-690.383	15.466	-0.096	-0.077
-689.368	800.000	-0.062	-0.249
-688.354	388.871	-0.145	-0.306
-687.339	401.612	-0.110	-0.234
-686.324	-200.000	-0.010	0.110
-685.310	473.970	0.046	0.105
-684.295	373.366	-0.017	0.036
-683.281	-62.781	0.034	0.014
-682.266	-137.495	0.303	0.035
-681.251	-140.134	-0.252	-0.027
-680.237	-148.080	0.399	0.034
-679.222	-108.281	0.106	0.023
-678.208	283.301	0.153	0.280
-677.193	-145.787	0.306	-0.028
-676.178	-24.832	-0.266	-0.161
-675.164	-200.000	-0.093	0.456
-674.149	-200.000	-0.042	0.248
-673.135	-110.152	-0.403	-0.085
-672.120	196.968	0.085	0.131
-671.105	800.000	0.081	0.284
-670.091	-51.395	-0.126	-0.060
-669.076	-109.711	0.127	-0.027
-668.062	732.358	0.088	-0.239
-667.047	800.000	0.040	0.172
-666.032	390.867	-0.023	0.049
-665.018	-200.000	0.032	-0.225
-664.003	408.353	0.104	-0.223
-662.989	800.000	0.054	0.183
-661.974	189.818	0.082	0.125
-660.959	15.984	-0.264	-0.211
-659.945	649.968	-0.016	-0.042
-658.930	-200.000	-0.035	0.332
-657.916	319.422	-0.121	0.232
-656.901	800.000	-0.090	0.256
-655.886	-200.000	0.042	-0.314
-654.872	-187.885	-0.160	0.002
-653.857	-0.438	-0.096	-0.069
-652.843	243.761	0.176	-0.299
-651.828	-200.000	0.013	-0.108
-650.814	152.072	-0.153	0.211
-649.799	445.839	0.087	-0.194
-648.784	-171.130	-0.128	-0.004
-647.770	800.000	-0.036	0.147
-646.755	29.281	0.130	0.112
-645.741	-31.575	-0.197	-0.113
-644.726	-148.477	0.333	-0.028
-643.711	119.501	0.296	-0.372
-642.697	514.868	0.031	-0.073
-641.682	32.670	-0.196	-0.172
-640.668	-200.000	0.011	-0.144
-639.653	-103.129	0.309	-0.074
-638.638	-200.000	-0.008	-0.238
-637.624	60.564	0.108	-0.108
-636.609	-200.000	0.032	0.240
-635.595	800.000	0.064	0.260
-634.580	-122.010	-0.313	0.052
-633.565	-60.420	-0.153	-0.066
-632.551	-200.000	0.008	-0.155
-631.536	-33.593	0.167	-0.093
-630.522	566.052	-0.012	0.031
-629.507	-176.125	-0.339	-0.009
-628.492	15.775	0.076	-0.060
-627.478	39.345	-0.207	0.188
-626.463	325.193	0.025	-0.049
-625.449	594.631	-0.091	-0.229
-624.434	-90.257	-0.109	-0.032
-623.419	520.128	-0.029	0.069
-622.405	800.000	-0.058	-0.172
-621.390	-12.771	-0.195	-0.129
-620.376	620.295	0.023	0.059
-619.361	84.544	-0.246	0.273
-618.346	-40.148	-0.348	-0.184
-617.332	120.221	-0.134	0.169
-616.317	-200.000	0.022	-0.127
-615.303	538.619	-0.043	-0.103
-614.288	-189.118	0.034	-0.000
-613.273	10.789	0.090	0.069
-612.259	-142.985	0.012	0.001
-611.244	-175.496	0.134	0.004
-610.230	-200.000	0.036	-0.213
-609.215	-200.000	0.003	0.096
-608.201	-143.876	0.274	-0.026
-607.186	-138.823	-0.253	-0.028
-606.171	800.000	-0.062	-0.214
-605.157	-30.947	0.281	-0.161
-604.142	91.207	-0.146	0.166
-603.128	800.000	0.090	0.298
-602.113	136.775	0.067	0.088
-601.098	221.295	-0.133	0.217
-600.084	281.265	-0.088	-0.159
-599.069	-122.757	0.229	-0.038
-598.055	-23.834	-0.258	-0.156
-597.040	97.213	-0.118	0.137
-596.025	-168.370	-0.180	0.007
-595.011	-133.603	0.184	0.023
-593.996	233.099	-0.112	-0.186
-592.982	16.325	-0.254	0.203
-591.967	438.609	0.006	0.014
-590.952	199.441	0.132	-0.205
-589.938	-200.000	-0.065	0.345
-588.923	800.000	0.104	-0.401
-587.909	220.064	0.186	-0.302
-586.894	-161.626	0.395	-0.020
-585.879	-143.829	-0.155	0.015
-584.865	94.967	-0.317	-0.366
-583.850	35.044	0.071	0.063
-582.836	-23.269	-0.052	-0.032
-581.821	-95.968	-0.235	-0.063
-580.806	-200.000	-0.009	-0.272
-579.792	157.848	0.169	0.237
-578.777	-9.968	0.281	-0.189
-577.763	25.936	0.200	0.169
-576.748	-63.811	0.092	0.038
-575.733	241.319	-0.148	0.250
-574.719	-200.000	-0.004	-0.173
-573.704	-19.320	0.213	-0.134
-572.690	-21.872	0.080	-0.049
-571.675	-35.020	-0.064	-0.035
-570.661	-200.000	0.008	-0.115
-569.646	1.155	0.253	0.184
-568.631	800.000	-0.090	-0.260
-567.617	-49.458	-0.204	0.098
-566.602	-89.243	0.156	-0.047
-565.588	-92.126	0.310	0.089
-564.573	285.648	-0.040	-0.074
-563.558	-27.307	-0.126	0.074
-562.544	16.883	0.163	-0.130
-561.529	-41.503	-0.253	0.132
-560.515	-56.949	-0.305	0.136
-559.500	15.439	-0.087	-0.069
-558.485	-152.991	-0.562	-0.040
-557.471	57.229	0.069	-0.068
-556.456	-200.000	0.024	0.195
-555.442	-200.000	0.024	-0.225
-554.427	-10.065	-0.169	-0.114
-553.412	800.000	0.038	-0.138
-552.398	188.684	0.062	0.094
-551.383	-200.000	-0.015	-0.093
-550.369	-0.732	0.144	0.103
-549.354	318.030	-0.110	-0.211
-548.339	151.331	-0.033	0.045
-547.325	160.084	-0.101	-0.143
-546.310	504.161	0.076	0.178
-545.296	161.165	0.127	-0.180
-544.281	800.000	0.094	-0.315
-543.266	800.000	-0.068	-0.254
-542.252	444.474	0.237	0.526
-541.237	-70.913	-0.221	0.084
-540.223	71.581	0.042	0.044
-539.208	-110.344	0.217	-0.046
-538.193	-5.257	-0.335	0.233
-537.179	-125.620	0.390	-0.060
-536.164	-200.000	0.013	-0.149
-535.150	-25.459	0.192	0.114
-534.135	-37.211	-0.193	0.104
-533.121	800.000	-0.103	-0.381
-532.106	161.376	-0.112	-0.158
-531.091	-127.631	0.051	-0.008
-530.077	396.470	0.112	-0.237
-529.062	-39.082	-0.171	0.091
-528.048	106.109	-0.089	0.107
-527.033	6.685	-0.318	-0.239
-526.018	523.857	0.052	-0.123
-525.004	125.166	-0.035	-0.045
-523.989	228.617	0.083	0.136
-522.975	-49.210	0.213	-0.103
-521.960	-59.405	-0.067	0.029
-520.945	312.646	-0.077	-0.146
-519.931	-116.932	-0.259	0.048
-518.916	280.205	0.107	0.192
-517.902	-98.209	-0.401	0.104
-516.887	-200.000	0.052	-0.270
-515.872	-200.000	0.051	-0.291
-514.858	-69.434	-0.355	0.137
-513.843	722.907	-0.056	0.151
-512.829	75.966	-0.045	0.048
-511.814	84.151	-0.101	-0.111
-510.799	800.000	0.053	-0.167
-509.785	800.000	0.116	-0.335
-508.770	-82.940	-0.469	-0.153
-507.756	494.624	0.059	0.137
-506.741	58.068	0.236	0.233
-505.726	-105.567	-0.282	0.065
-504.712	-108.638	0.130	0.028
-503.697	-31.319	0.079	0.045
-502.683	229.476	0.217	-0.358
-501.668	417.848	-0.061	-0.131
-500.653	271.745	-0.068	-0.121
-499.639	800.000	-0.095	-0.366
-498.624	800.000	-0.080	-0.284
-497.610	191.503	0.186	0.282
-496.595	-200.000	0.033	0.168
-495.581	58.902	-0.177	0.175
-494.566	-27.459	-0.158	-0.092
-493.551	86.469	-0.175	0.194
-492.537	201.559	-0.108	0.168
-491.522	-200.000	-0.022	-0.311
-490.508	-84.530	-0.219	0.070
-489.493	175.634	-0.202	-0.295
-488.478	4.420	-0.383	-0.283
-487.464	144.833	-0.119	0.160
-486.449	-200.000	-0.063	-0.286
-485.435	194.824	-0.112	-0.171
-484.420	-25.165	0.145	0.087
-483.405	800.000	-0.028	0.082
-482.391	6.761	0.161	0.121
-481.376	-200.000	-0.079	0.662
-480.362	-200.000	-0.035	0.168
-479.347	70.041	-0.099	0.103
-478.332	-74.848	0.154	-0.056
-477.318	-200.000	0.005	-0.213
-476.303	-200.000	0.010	-0.201
-475.289	-200.000	-0.007	0.300
-474.274	-80.540	0.124	-0.042
-473.259	-79.768	0.104	-0.035
-472.245	400.789	0.118	0.250
-471.230	278.536	0.146	0.263
-470.216	595.565	-0.120	0.299
-469.201	-200.000	-0.000	-0.232
-468.186	142.064	-0.213	0.285
-467.172	68.134	-0.047	0.048
-466.157	-200.000	0.068	0.402
-465.143	-157.494	0.061	-0.004
-464.128	275.583	0.189	0.337
-463.113	800.000	0.079	0.308
-462.099	-200.000	0.001	-0.050
-461.084	5.017	0.208	-0.154
-460.070	-87.449	-0.042	0.013
-459.055	142.380	0.240	0.321
-458.040	-152.024	0.134	0.010
-457.026	99.941	-0.118	0.138
-456.011	367.293	0.149	0.303
-454.997	-40.989	0.254	0.132
-453.982	-200.000	0.018	0.142
-452.968	-200.000	0.010	-0.125
-451.953	-200.000	-0.034	-0.158
-450.938	-147.157	0.307	0.026
-449.924	-70.096	-0.133	0.051
-448.909	79.214	-0.213	-0.230
-447.895	-120.621	-0.409	-0.070
-446.880	-69.315	0.051	-0.020
-445.865	-200.000	0.020	0.137
-444.851	-114.943	0.215	-0.041
-443.836	-200.000	0.033	0.252
-442.822	-23.943	-0.355	0.214
-441.807	800.000	-0.068	0.267
-440.792	4.442	-0.144	-0.106
-439.778	-200.000	-0.011	-0.181
-438.763	550.934	-0.136	-0.329
-437.749	-8.910	-0.176	-0.119
-436.734	-200.000	-0.026	0.190
-435.719	384.324	-0.097	0.201
-434.705	-127.840	0.313	-0.045
-433.690	800.000	-0.050	-0.182
-432.676	-57.827	-0.083	-0.036
-431.661	309.643	0.150	0.281
-430.646	-46.990	0.330	0.162
-429.632	195.676	0.061	0.093
-428.617	-200.000	-0.018	0.087
-427.603	-85.510	0.074	0.023
-426.588	-200.000	0.029	0.159
-425.573	800.000	-0.014	0.057
-424.559	149.124	-0.246	-0.335
-423.544	-74.545	0.200	-0.073
-422.530	-164.256	-0.135	-0.006
-421.515	-83.437	-0.140	-0.045
-420.500	356.644	0.095	-0.191
-419.486	161.441	0.165	0.231
-418.471	69.045	0.197	0.203
-417.457	-73.358	0.257	0.094
-416.442	-200.000	-0.031	0.557
-415.428	800.000	0.046	0.190
-414.413	31.154	-0.120	0.103
-413.398	-200.000	0.042	0.246
-412.384	800.000	-0.095	-0.340
-411.369	-77.573	0.217	0.075
-410.355	211.904	0.059	0.093
-409.340	-94.629	-0.121	0.033
-408.325	-200.000	-0.052	0.278
-407.311	135.675	0.100	-0.131
-406.296	-108.241	0.141	0.031
-405.282	93.156	-0.299	0.339
-404.267	-25.095	0.189	-0.113
-403.252	26.729	0.051	-0.043
-402.238	800.000	-0.258	0.770
-401.223	81.237	-0.090	-0.098
-400.209	-200.000	-0.056	-0.371
-399.194	21.436	-0.113	0.092
-398.179	7.268	0.336	-0.252
-397.165	-26.297	-0.244	0.144
-396.150	-200.000	-0.011	-0.122
-395.136	56.813	0.459	-0.449
-394.121	-12.962	0.237	0.155
-393.106	-83.702	0.079	0.025
-392.092	-63.547	-0.127	0.052
-391.077	-50.818	-0.071	-0.033
-390.063	431.855	-0.066	-0.144
-389.048	-153.316	0.249	-0.017
-388.033	198.342	-0.160	-0.246
-387.019	-45.208	-0.091	-0.045
-386.004	626.150	0.140	-0.354
-384.990	-94.716	0.144	0.039
-383.975	-157.571	0.079	-0.005
-382.960	-200.000	0.055	0.440
-381.946	-189.550	0.254	0.003
-380.931	800.000	0.006	-0.020
-379.917	800.000	-0.099	0.305
-378.902	89.623	0.117	-0.131
-377.888	324.366	0.131	-0.252
-376.873	105.535	0.090	-0.107
-375.858	-49.555	0.211	-0.101
-374.844	180.173	0.212	0.312
-373.829	-81.298	-0.324	-0.107
-372.815	259.859	-0.189	0.327
-371.800	148.924	0.228	0.309
-370.785	-134.841	-0.273	0.033
-369.771	-200.000	-0.055	-0.551
-368.756	6.948	-0.268	-0.200
-367.742	142.676	-0.124	0.165
-366.727	264.159	0.043	-0.076
-365.712	-66.293	-0.389	0.155
-364.698	-55.347	-0.150	-0.068
-363.683	20.959	-0.281	-0.229
-362.669	-55.744	0.188	-0.084
-361.654	800.000	-0.060	0.204
-360.639	56.472	0.295	0.287
-359.625	-21.807	-0.153	-0.093
-358.610	-183.109	0.086	0.002
-357.596	74.584	-0.113	-0.120
-356.581	126.891	-0.255	0.324
-355.566	328.746	0.103	-0.198
-354.552	-21.950	0.235	-0.143
-353.537	59.471	0.102	0.101
-352.523	28.978	-0.261	-0.222
-351.508	-200.000	0.032	-0.211
-350.493	800.000	0.054	0.198
-349.479	-154.496	-0.124	-0.008
-348.464	800.000	0.052	0.148
-347.450	-50.228	0.061	0.029
-346.435	-100.629	0.358	0.089
-345.420	800.000	-0.036	-0.140
-344.406	-77.102	0.089	-0.031
-343.391	-24.949	-0.287	0.171
-342.377	800.000	-0.069	-0.204
-341.362	62.945	-0.131	-0.132
-340.348	-10.547	-0.428	-0.284
-339.333	800.000	0.074	0.229
-338.318	350.163	-0.070	-0.138
-337.304	24.145	0.223	-0.185
-336.289	7.030	-0.021	0.016
-335.275	-200.000	0.027	0.168
-334.260	70.371	-0.245	-0.254
-333.245	45.450	0.332	0.307
-332.231	-200.000	-0.004	-0.036
-331.216	800.000	0.075	-0.232
-330.202	276.088	0.098	0.175
-329.187	-65.590	-0.234	0.094
-328.172	192.812	-0.188	0.285
-327.158	-108.441	0.570	-0.123
-326.143	-200.000	-0.002	0.311
-325.129	-200.000	0.004	0.126
-324.114	-91.557	0.102	-0.029
-323.099	-12.816	0.214	-0.139
-322.085	-58.544	-0.374	0.162
-321.070	30.496	0.315	0.270
-320.056	-81.289	0.158	0.052
-319.041	-121.133	0.083	-0.014
-318.026	138.679	0.075	0.099
-317.012	-200.000	-0.012	0.295
-315.997	-100.368	-0.084	-0.021
-314.983	-131.324	-0.173	-0.023
-313.968	-139.086	0.079	-0.009
-312.953	99.219	-0.064	0.074
-311.939	86.289	-0.097	0.107
-310.924	-149.398	0.104	-0.008
-309.910	279.951	-0.052	-0.093
-308.895	-1.286	-0.232	0.164
-307.880	-200.000	0.009	0.120
-306.866	-47.875	-0.169	-0.082
-305.851	318.315	0.217	0.411
-304.837	-200.000	-0.026	0.316
-303.822	344.371	0.087	-0.171
-302.807	356.860	0.225	-0.449
-301.793	-3.600	0.082	0.057
-300.778	99.609	0.150	0.174
-299.764	42.213	0.171	0.155
-298.749	800.000	-0.070	-0.296
-297.735	773.979	-0.119	-0.326
-296.720	-119.417	-0.164	-0.028
-295.705	242.946	-0.057	-0.095
-294.691	-200.000	0.149	0.000
-293.676	-105.788	-0.076	0.017
-292.662	-48.384	0.163	-0.079
-291.647	-187.847	-0.156	-0.002
-290.632	800.000	0.125	-0.486
-289.618	-50.343	0.189	-0.089
-288.603	-130.999	-0.327	-0.044
-287.589	16.620	-0.116	0.092
-286.574	295.775	0.190	0.347
-285.559	39.899	-0.116	-0.105
-284.545	15.925	-0.218	0.172
-283.530	-13.706	0.023	-0.015
-282.516	362.690	0.139	-0.279
-281.501	61.956	0.105	-0.105
-280.486	-158.218	0.226	-0.013
-279.472	-200.000	0.001	-0.062
-278.457	75.888	0.049	0.052
-277.443	-200.000	0.033	-0.210
-276.428	-33.817	0.149	-0.082
-275.413	-200.000	-0.004	-0.102
-274.399	205.786	-0.068	-0.106
-273.384	-200.000	0.088	-0.000
-272.370	171.019	0.197	0.283
-271.355	-124.528	-0.305	0.047
-270.340	7.805	0.238	-0.178
-269.326	-7.888	0.075	-0.051
-268.311	238.281	0.147	0.244
-267.297	176.861	-0.112	0.164
-266.282	-64.063	0.218	0.089
-265.267	547.975	0.158	0.377
-264.253	-131.363	0.101	0.013
-263.238	-200.000	-0.010	-0.102
-262.224	45.884	-0.190	0.176
-261.209	80.237	-0.095	0.103
-260.195	800.000	-0.030	0.110
-259.180	162.271	-0.007	0.010
-258.165	-200.000	0.006	-0.070
-257.151	-61.319	0.242	-0.102
-256.136	49.350	-0.227	0.213
-255.122	-143.664	-0.084	-0.008
-254.107	235.256	0.171	-0.281
-253.092	420.700	0.199	0.426
-252.078	800.000	-0.088	0.313
-251.063	121.944	-0.159	0.198
-250.049	-200.000	0.006	-0.052
-249.034	-6.366	0.326	-0.222
-248.019	-200.000	-0.054	-0.299
-247.005	-75.860	0.157	-0.056
-245.990	105.382	-0.228	0.269
-244.976	50.176	-0.156	-0.147
-243.961	800.000	-0.028	0.100
-242.946	26.964	0.061	0.051
-241.932	468.637	0.023	-0.051
-240.917	601.851	0.122	-0.304
-239.903	-64.843	-0.172	-0.070
-238.888	-200.000	-0.016	0.357
-237.873	186.263	0.103	-0.153
-236.859	9.013	0.184	-0.138
-235.844	-200.000	0.034	-0.184
-234.830	-90.316	0.087	-0.025
-233.815	684.291	-0.071	0.185
-232.800	395.593	-0.098	0.204
-231.786	284.819	0.174	0.312
-230.771	-200.000	-0.065	-0.426
-229.757	-141.430	-0.207	0.021
-228.742	185.005	-0.163	-0.241
-227.727	141.963	-0.172	0.227
-226.713	524.645	0.190	0.446
-225.698	207.861	-0.110	0.171
-224.684	90.247	0.102	0.114
-223.669	-58.843	0.315	0.136
-222.655	-85.554	0.271	-0.084
-221.640	-93.101	-0.269	0.075
-220.625	133.055	-0.142	-0.183
-219.611	80.090	0.151	-0.162
-218.596	80.365	-0.252	0.270
-217.582	3.541	-0.042	-0.031
-216.567	320.328	0.055	-0.105
-215.552	800.000	0.072	0.234
-214.538	-132.099	0.044	0.006
-213.523	800.000	0.054	-0.222
-212.509	800.000	-0.145	-0.516
-211.494	160.571	0.241	-0.335
-210.479	-200.000	-0.013	-0.164
-209.465	800.000	-0.030	0.115
-208.450	-43.710	-0.108	0.054
-207.436	-151.690	-0.073	-0.005
-206.421	-200.000	-0.060	-0.402
-205.406	272.799	0.068	-0.121
-204.392	-200.000	0.020	-0.271
-203.377	-116.337	0.242	0.045
-202.363	50.250	-0.136	0.128
-201.348	800.000	-0.062	0.232
-200.333	90.618	0.087	0.097
-199.319	-200.000	-0.004	-0.085
-198.304	-200.000	0.057	0.290
-197.290	546.360	-0.110	-0.263
-196.275	-116.023	0.175	0.032
-195.260	76.898	0.230	0.243
-194.246	-200.000	0.036	0.263
-193.231	-151.134	0.198	-0.015
-192.217	-90.204	-0.075	-0.022
-191.202	800.000	0.059	-0.166
-190.187	-104.531	-0.211	0.049
-189.173	13.993	-0.163	-0.126
-188.158	626.122	0.067	-0.169
-187.144	-173.772	-0.101	-0.003
-186.129	334.334	0.096	0.184
-185.114	-47.728	0.143	-0.069
-184.100	800.000	0.059	-0.175
-183.085	-81.327	0.078	-0.026
-182.071	247.025	-0.080	-0.135
-181.056	-200.000	-0.078	0.370
-180.042	800.000	-0.019	-0.063
-179.027	-39.613	-0.024	-0.013
-178.012	800.000	0.031	-0.121
-176.998	-23.691	-0.138	-0.082
-175.983	-29.279	-0.265	-0.151
-174.969	-151.195	-0.320	0.024
-173.954	149.007	0.098	-0.132
-172.939	139.466	-0.114	-0.149
-171.925	800.000	-0.137	-0.380
-170.910	-14.486	0.300	0.192
-169.896	-87.840	0.252	0.076
-168.881	-200.000	0.004	0.148
-167.866	800.000	0.086	-0.356
-166.852	-118.372	0.217	-0.038
-165.837	-61.245	-0.229	0.096
-164.823	-200.000	0.056	0.360
-163.808	44.494	0.230	0.211
-162.793	800.000	-0.097	-0.406
-161.779	-190.118	0.218	0.002
-160.764	-200.000	0.027	-0.198
-159.750	800.000	0.126	0.416
-158.735	-200.000	0.013	0.064
-157.720	-78.031	-0.057	0.019
-156.706	-200.000	-0.010	0.106
-155.691	429.487	0.050	0.107
-154.677	-76.280	-0.386	-0.135
-153.662	-90.586	0.088	0.025
-152.647	138.302	0.004	-0.005
-151.633	-200.000	0.036	-0.241
-150.618	128.896	-0.102	-0.129
-149.604	-180.854	0.421	0.008
-148.589	-200.000	-0.003	-0.079
-147.574	-17.275	0.209	-0.131
-146.560	-200.000	0.032	0.155
-145.545	117.610	-0.137	0.167
-144.531	-64.616	0.259	0.104
-143.516	-127.236	-0.149	-0.022
-142.502	53.962	-0.185	-0.177
-141.487	-200.000	0.013	0.126
-140.472	176.905	-0.030	-0.043
-139.458	67.738	-0.126	-0.128
-138.443	800.000	-0.075	-0.221
-137.429	34.112	-0.073	0.063
-136.414	-37.202	0.137	0.073
-135.399	-58.032	-0.245	0.106
-134.385	800.000	0.043	0.170
-133.370	242.777	-0.151	-0.252
-132.356	-141.109	-0.481	-0.049
-131.341	106.758	-0.038	0.045
-130.326	-101.143	0.312	0.076
-129.312	-38.003	0.311	0.164
-128.297	44.385	-0.080	-0.073
-127.283	31.613	-0.060	0.051
-126.268	-107.411	-0.056	0.012
-125.253	641.391	-0.081	-0.205
-124.239	-104.235	-0.175	-0.040
-123.224	-139.558	0.565	-0.060
-122.210	28.366	0.351	0.295
