DTS Sentinel unit serial number:	SN413079Multiplexer serial number:	ORYXHardware model number:	OX4-SRSoftware version number:	ORYX F/W v4.00 Oryx Data Collector v3.7.2.0data status	okinstallation	princeton_trtdifferential loss correction	single-endedforward channel	channel 4reverse channel	N/Adate	2019/09/11time	00:59:11forward acquisition time	60.00reverse acquisition time	0.00gamma	496.2192k internal	0.2318k external	0.2318temperature offset calibration	0.9948default loss term (dB/km)	0.3790temperature slope calibration	1.0000multiplexer offset coefficient	1.0000multiplexer slope coefficient	1.0000fibre end	0.00T internal ref (°C)	29.14T ext. ref 1 (°C)	-0.31T ext. ref 2 (°C)	22.92length (m)	temperature (°C)	Stokes	anti-Stokes-747.200	-23.248	-0.141	0.086
-746.185	234.000	0.206	0.344
-745.171	800.000	-0.061	0.224
-744.156	-200.000	-0.039	0.583
-743.142	186.875	0.162	0.244
-742.127	-200.000	0.001	0.117
-741.112	83.298	-0.373	-0.411
-740.098	45.004	0.196	-0.182
-739.083	-23.747	0.174	0.105
-738.069	28.565	-0.240	0.206
-737.054	-111.926	-0.308	-0.063
-736.039	-29.614	-0.180	-0.104
-735.025	-200.000	-0.033	0.184
-734.010	132.347	0.250	-0.326
-732.996	31.529	0.114	-0.099
-731.981	27.360	-0.053	0.045
-730.966	800.000	0.054	0.202
-729.952	-200.000	-0.025	-0.394
-728.937	-200.000	-0.028	-0.185
-727.923	-144.141	-0.519	-0.049
-726.908	-43.888	-0.439	-0.223
-725.894	-67.374	-0.411	0.163
-724.879	-200.000	-0.002	-0.141
-723.864	-200.000	-0.037	0.413
-722.850	256.119	-0.052	0.090
-721.835	-113.057	-0.307	-0.061
-720.821	-108.441	-0.489	-0.106
-719.806	276.790	-0.034	0.061
-718.791	-200.000	-0.008	-0.097
-717.777	-145.315	-0.339	0.031
-716.762	-107.904	-0.221	-0.049
-715.748	-91.971	0.155	0.044
-714.733	-127.199	0.324	-0.048
-713.718	4.470	-0.303	-0.224
-712.704	-200.000	-0.005	-0.210
-711.689	159.843	-0.030	0.042
-710.675	67.384	-0.174	-0.180
-709.660	-22.622	0.197	0.120
-708.645	43.014	0.167	-0.154
-707.631	-168.309	0.178	0.007
-706.616	-127.863	0.067	0.010
-705.602	-6.362	-0.096	0.066
-704.587	-40.740	-0.144	0.075
-703.572	200.040	-0.195	0.302
-702.558	-57.922	-0.180	-0.080
-701.543	-21.757	-0.115	-0.071
-700.529	169.943	0.099	-0.143
-699.514	19.321	0.100	-0.081
-698.499	170.349	0.066	-0.095
-697.485	-153.176	-0.127	0.009
-696.470	-200.000	0.009	-0.060
-695.456	342.457	-0.125	0.247
-694.441	256.238	0.129	-0.224
-693.426	198.216	0.056	-0.087
-692.412	-200.000	-0.004	0.156
-691.397	-135.180	0.099	0.012
-690.383	800.000	-0.034	-0.101
-689.368	0.045	-0.054	-0.039
-688.354	303.561	0.121	-0.227
-687.339	-26.658	0.204	-0.121
-686.324	335.638	0.099	-0.194
-685.310	6.408	-0.202	-0.152
-684.295	319.359	-0.173	0.331
-683.281	-120.726	-0.148	0.025
-682.266	-86.017	0.281	-0.088
-681.251	-99.327	0.295	0.075
-680.237	300.879	-0.076	0.142
-679.222	-16.607	0.371	-0.237
-678.208	-43.272	0.161	0.082
-677.193	183.736	0.192	-0.287
-676.178	7.821	0.041	-0.031
-675.164	-128.422	-0.519	-0.074
-674.149	-16.391	-0.191	0.122
-673.135	-144.491	0.165	-0.015
-672.120	52.083	-0.197	0.189
-671.105	254.633	-0.094	-0.162
-670.091	49.461	0.080	0.076
-669.076	-200.000	0.012	-0.223
-668.062	-10.276	0.123	-0.082
-667.047	-28.523	0.067	0.039
-666.032	298.736	-0.096	0.179
-665.018	-200.000	-0.059	-0.364
-664.003	-45.006	0.208	-0.104
-662.989	-118.519	-0.021	-0.004
-661.974	-200.000	0.030	-0.161
-660.959	11.951	0.217	-0.168
-659.945	-64.638	-0.139	0.057
-658.930	136.205	0.108	-0.142
-657.916	59.895	0.117	0.116
-656.901	99.112	-0.354	-0.413
-655.886	348.005	0.245	-0.488
-654.872	-200.000	0.023	-0.127
-653.857	295.917	-0.089	-0.164
-652.843	-200.000	-0.028	0.161
-651.828	-200.000	-0.032	0.166
-650.814	602.183	0.081	0.203
-649.799	-155.412	-0.382	-0.025
-648.784	-200.000	-0.014	-0.076
-647.770	240.490	0.080	0.134
-646.755	-63.807	-0.175	0.072
-645.741	35.223	0.300	0.265
-644.726	-96.379	0.264	-0.070
-643.711	-124.296	-0.257	0.041
-642.697	654.206	-0.168	0.435
-641.682	-64.344	0.042	0.017
-640.668	245.857	-0.165	-0.280
-639.653	-182.600	-0.149	0.003
-638.638	58.240	-0.136	-0.134
-637.624	-21.112	0.074	-0.046
-636.609	-113.490	0.246	0.049
-635.595	213.013	-0.029	0.046
-634.580	153.736	-0.168	-0.232
-633.565	800.000	0.048	-0.181
-632.551	800.000	0.056	-0.168
-631.536	700.665	0.082	-0.216
-630.522	300.674	-0.089	-0.165
-629.507	800.000	0.102	0.380
-628.492	800.000	-0.031	0.114
-627.478	538.551	-0.140	0.335
-626.463	422.694	-0.056	0.121
-625.449	22.971	-0.284	0.235
-624.434	-55.247	-0.308	-0.140
-623.419	355.677	-0.081	0.162
-622.405	79.583	0.210	0.227
-621.390	-47.077	0.283	0.139
-620.376	624.748	0.008	0.020
-619.361	-156.716	-0.468	-0.029
-618.346	152.200	0.132	-0.181
-617.332	71.549	-0.048	-0.051
-616.317	-142.143	-0.248	-0.025
-615.303	17.044	0.101	0.081
-614.288	-23.465	0.191	-0.115
-613.273	49.589	-0.286	-0.271
-612.259	21.865	0.107	-0.088
-611.244	-11.701	-0.087	-0.057
-610.230	-127.350	0.151	-0.022
-609.215	-84.243	-0.195	0.062
-608.201	490.198	0.070	-0.162
-607.186	-66.666	0.402	-0.160
-606.171	-198.585	-0.188	-0.001
-605.157	-46.092	0.139	-0.069
-604.142	-122.264	-0.108	0.018
-603.128	-200.000	-0.037	-0.203
-602.113	466.139	-0.046	0.103
-601.098	379.677	-0.132	-0.273
-600.084	800.000	-0.096	0.359
-599.069	127.495	-0.049	-0.062
-598.055	-200.000	-0.008	-0.296
-597.040	80.799	-0.273	-0.296
-596.025	251.524	0.032	0.056
-595.011	-75.925	-0.316	-0.112
-593.996	800.000	-0.060	-0.253
-592.982	-80.984	-0.316	-0.105
-591.967	676.275	0.173	0.453
-590.952	590.636	-0.106	0.264
-589.938	-76.593	0.302	-0.107
-588.923	426.270	-0.075	0.162
-587.909	33.330	-0.362	-0.316
-586.894	-200.000	0.071	-0.392
-585.879	-200.000	0.005	-0.111
-584.865	759.998	-0.063	0.172
-583.850	800.000	0.081	0.257
-582.836	48.387	0.165	0.156
-581.821	-114.239	0.265	0.051
-580.806	629.414	0.047	0.120
-579.792	-95.947	0.601	-0.161
-578.777	800.000	-0.065	-0.227
-577.763	800.000	0.026	-0.104
-576.748	-177.311	-0.158	-0.004
-575.733	-30.957	-0.339	0.193
-574.719	61.601	-0.043	0.043
-573.704	30.409	0.219	0.188
-572.690	91.173	-0.132	0.149
-571.675	-200.000	0.032	0.148
-570.661	800.000	0.096	0.353
-569.646	58.795	-0.268	-0.264
-568.631	283.074	-0.018	0.033
-567.617	-119.443	0.303	-0.053
-566.602	-200.000	-0.089	-0.514
-565.588	-151.779	-0.267	-0.020
-564.573	-109.592	-0.069	-0.015
-563.558	-18.163	-0.162	-0.102
-562.544	89.025	0.095	0.106
-561.529	706.506	-0.129	0.341
-560.515	800.000	0.048	0.144
-559.500	303.039	-0.213	-0.397
-558.485	59.619	0.152	-0.151
-557.471	32.564	0.047	-0.041
-556.456	374.535	-0.143	-0.293
-555.442	205.525	0.070	0.110
-554.427	534.000	-0.083	-0.198
-553.412	-166.567	-0.169	0.007
-552.398	362.439	0.031	0.063
-551.383	86.846	0.284	-0.315
-550.369	686.825	0.222	-0.583
-549.354	56.204	-0.387	-0.378
-548.339	-200.000	-0.011	-0.087
-547.325	135.889	-0.114	0.150
-546.310	100.384	-0.183	-0.214
-545.296	-158.928	0.145	0.008
-544.281	96.191	-0.203	-0.233
-543.266	-58.866	-0.186	-0.081
-542.252	-200.000	-0.058	-0.326
-541.237	-200.000	0.016	-0.261
-540.223	22.698	0.156	-0.128
-539.208	301.905	0.135	0.251
-538.193	4.719	-0.034	-0.025
-537.179	219.121	-0.077	-0.123
-536.164	800.000	-0.049	0.150
-535.150	384.517	-0.116	0.240
-534.135	-63.889	0.270	-0.111
-533.121	-76.308	-0.189	-0.067
-532.106	158.727	0.119	-0.166
-531.091	37.871	-0.043	0.038
-530.077	332.771	-0.057	0.110
-529.062	800.000	-0.027	-0.103
-528.048	-182.087	-0.168	-0.003
-527.033	608.163	0.037	-0.093
-526.018	-192.743	-0.394	-0.004
-525.004	72.012	0.057	0.059
-523.989	-121.281	0.313	-0.052
-522.975	-200.000	-0.022	-0.102
-521.960	-81.322	-0.155	0.051
-520.945	39.029	0.100	-0.090
-519.931	-200.000	0.011	-0.076
-518.916	191.296	-0.123	-0.186
-517.902	-200.000	-0.040	-0.294
-516.887	-26.396	0.244	-0.143
-515.872	-200.000	-0.300	-0.001
-514.858	-200.000	-0.022	-0.181
-513.843	-86.651	0.158	-0.048
-512.829	-200.000	-0.022	-0.237
-511.814	140.283	-0.165	-0.218
-510.799	89.293	0.021	0.024
-509.785	-15.662	0.317	0.203
-508.770	-200.000	-0.061	0.316
-507.756	800.000	0.078	0.217
-506.741	-59.530	-0.237	-0.102
-505.726	800.000	-0.029	-0.122
-504.712	-91.010	-0.236	-0.068
-503.697	98.250	-0.179	-0.207
-502.683	-144.792	-0.173	-0.016
-501.668	800.000	-0.092	-0.322
-500.653	-142.005	-0.382	-0.038
-499.639	-32.711	0.371	-0.207
-498.624	-44.535	-0.255	-0.128
-497.610	-56.321	0.261	0.116
-496.595	232.852	0.087	0.143
-495.581	800.000	-0.091	-0.269
-494.566	554.174	-0.067	0.162
-493.551	-200.000	0.040	-0.181
-492.537	-125.041	-0.507	-0.078
-491.522	800.000	-0.029	-0.084
-490.508	235.850	-0.156	0.258
-489.493	208.783	-0.120	0.187
-488.478	740.748	0.173	-0.466
-487.464	138.087	0.049	0.065
-486.449	-171.087	0.167	-0.006
-485.435	-79.405	0.313	-0.106
-484.420	-85.285	-0.108	0.034
-483.405	800.000	-0.024	0.084
-482.391	-6.298	0.188	0.128
-481.376	800.000	0.101	-0.311
-480.362	287.037	-0.103	0.186
-479.347	170.599	0.032	0.046
-478.332	-200.000	-0.046	0.300
-477.318	55.741	0.147	0.143
-476.303	-140.499	0.118	0.012
-475.289	28.325	-0.212	0.179
-474.274	173.580	-0.039	0.056
-473.259	800.000	0.081	0.306
-472.245	-200.000	0.063	0.391
-471.230	-48.414	0.292	-0.141
-470.216	676.597	0.098	0.256
-469.201	706.702	0.042	-0.112
-468.186	-53.615	-0.253	-0.116
-467.172	-200.000	0.023	-0.304
-466.157	24.662	-0.174	0.144
-465.143	800.000	0.091	-0.283
-464.128	132.608	-0.182	-0.235
-463.113	-23.212	0.280	-0.169
-462.099	-130.204	-0.086	0.012
-461.084	-182.706	-0.217	0.004
-460.070	-200.000	0.033	-0.219
-459.055	78.859	-0.244	0.262
-458.040	122.885	0.102	-0.127
-457.026	-58.815	-0.079	-0.034
-456.011	25.621	-0.040	-0.033
-454.997	-200.000	-0.026	0.120
-453.982	45.237	0.059	-0.054
-452.968	-148.481	-0.359	0.029
-451.953	224.346	0.044	-0.070
-450.938	-200.000	-0.045	-0.204
-449.924	-25.331	0.061	-0.036
-448.909	-200.000	-0.000	0.241
-447.895	-76.258	0.156	-0.055
-446.880	-46.372	-0.474	0.233
-445.865	361.629	-0.114	0.228
-444.851	-180.705	0.338	0.007
-443.836	-93.377	-0.391	-0.109
-442.822	367.163	0.203	0.411
-441.807	-106.683	0.271	-0.060
-440.792	38.566	-0.384	0.343
-439.778	800.000	-0.108	-0.300
-438.763	-200.000	0.011	0.084
-437.749	65.688	-0.030	0.031
-436.734	-200.000	0.073	-0.389
-435.719	-200.000	0.016	-0.119
-434.705	-111.715	-0.133	-0.027
-433.690	155.660	0.161	-0.221
-432.676	-25.037	0.083	0.049
-431.661	189.450	0.179	-0.268
-430.646	-200.000	-0.279	-0.001
-429.632	-173.952	-0.115	0.003
-428.617	29.313	-0.137	0.117
-427.603	454.264	-0.059	0.131
-426.588	800.000	0.043	0.134
-425.573	-8.316	-0.087	-0.058
-424.559	-72.323	-0.197	-0.073
-423.544	-89.484	0.514	-0.151
-422.530	-200.000	-0.014	-0.152
-421.515	6.883	-0.064	-0.047
-420.500	136.064	0.106	0.139
-419.486	-159.837	0.205	0.011
-418.471	-57.495	-0.173	-0.076
-417.457	-200.000	0.012	-0.081
-416.442	-45.990	0.089	-0.044
-415.428	130.723	0.080	0.103
-414.413	-26.000	-0.148	0.087
-413.398	-33.844	0.091	0.050
-412.384	800.000	0.068	0.227
-411.369	-57.999	0.084	-0.037
-410.355	-86.478	0.700	-0.215
-409.340	81.362	0.117	0.126
-408.325	-26.270	0.050	0.029
-407.311	800.000	-0.042	0.144
-406.296	548.368	-0.126	-0.302
-405.282	-56.464	0.331	-0.146
-404.267	-26.742	0.280	-0.163
-403.252	691.178	-0.049	0.129
-402.238	126.840	-0.078	-0.098
-401.223	-183.100	0.250	0.004
-400.209	-168.535	-0.344	-0.013
-399.194	-191.820	0.239	0.002
-398.179	-95.863	-0.240	0.064
-397.165	-200.000	0.057	0.350
-396.150	734.771	-0.043	0.115
-395.136	456.116	-0.121	-0.268
-394.121	-106.951	-0.063	-0.014
-393.106	-200.000	-0.117	0.579
-392.092	23.744	-0.143	0.117
-391.077	-122.608	-0.185	0.030
-390.063	-35.360	-0.154	0.084
-389.048	-35.600	0.021	-0.011
-388.033	50.510	0.209	0.198
-387.019	430.492	-0.101	-0.217
-386.004	-200.000	-0.340	0.001
-384.990	138.797	-0.122	-0.160
-383.975	349.600	-0.058	-0.115
-382.960	-74.696	0.259	0.093
-381.946	540.064	-0.100	0.237
-380.931	-200.000	0.004	0.023
-379.917	343.981	0.020	-0.038
-378.902	-107.261	0.465	-0.102
-377.888	-86.565	0.294	0.090
-376.873	111.894	0.133	-0.160
-375.858	-200.000	-0.005	0.079
-374.844	11.710	0.166	0.127
-373.829	-96.548	-0.115	0.030
-372.815	184.940	-0.098	-0.145
-371.800	-98.393	0.180	0.046
-370.785	-10.835	-0.078	0.051
-369.771	800.000	0.064	-0.218
-368.756	-200.000	-0.077	-0.338
-367.742	-200.000	-0.006	0.312
-366.727	-193.638	0.292	0.002
-365.712	452.765	0.111	-0.245
-364.698	186.725	-0.136	-0.202
-363.683	238.144	0.120	0.198
-362.669	26.765	-0.254	0.212
-361.654	372.132	-0.094	0.190
-360.639	-39.493	0.309	0.162
-359.625	37.748	0.047	-0.041
-358.610	289.876	0.079	0.142
-357.596	-59.200	0.239	-0.102
-356.581	800.000	0.047	-0.129
-355.566	-200.000	0.000	-0.235
-354.552	178.871	0.007	-0.011
-353.537	374.702	-0.188	-0.381
-352.523	79.377	-0.174	0.186
-351.508	16.323	0.109	0.086
-350.493	-65.598	-0.212	0.085
-349.479	207.581	0.214	-0.332
-348.464	-78.479	0.307	0.105
-347.450	111.525	0.188	-0.226
-346.435	-200.000	0.041	-0.437
-345.420	-7.419	0.206	0.139
-344.406	-200.000	0.014	-0.173
-343.391	104.697	0.101	-0.119
-342.377	-18.019	0.098	0.061
-341.362	-200.000	-0.003	-0.342
-340.348	800.000	0.055	-0.225
-339.333	-149.578	-0.212	-0.017
-338.318	124.182	0.234	-0.293
-337.304	-200.000	-0.026	0.174
-336.289	-99.261	0.175	0.044
-335.275	-200.000	-0.035	-0.163
-334.260	800.000	0.092	-0.319
-333.245	800.000	0.061	-0.187
-332.231	-119.981	-0.006	-0.001
-331.216	-31.203	0.061	-0.034
-330.202	-200.000	0.030	0.346
-329.187	-48.244	-0.353	0.170
-328.172	-200.000	0.032	-0.184
-327.158	-49.404	0.099	0.047
-326.143	-200.000	-0.019	-0.139
-325.129	41.445	-0.087	0.078
-324.114	-110.518	0.182	0.038
-323.099	136.738	0.090	0.117
-322.085	-154.514	0.161	-0.011
-321.070	-90.011	0.113	-0.033
-320.056	-1.188	-0.208	0.146
-319.041	6.923	-0.239	0.177
-318.026	-200.000	-0.002	0.072
-317.012	-91.406	-0.028	-0.008
-315.997	-200.000	-0.006	-0.115
-314.983	112.051	-0.144	-0.173
-313.968	-200.000	-0.015	0.474
-312.953	-95.857	-0.250	-0.066
-311.939	668.590	0.076	0.195
-310.924	149.092	0.107	-0.144
-309.910	424.084	0.106	0.227
-308.895	-95.119	0.357	0.096
-307.880	-200.000	0.002	0.192
-306.866	594.054	-0.106	0.260
-305.851	134.898	0.049	0.064
-304.837	377.824	0.189	0.385
-303.822	-62.134	-0.287	0.119
-302.807	615.548	-0.064	-0.159
-301.793	-134.569	-0.061	0.007
-300.778	-82.981	-0.116	0.037
-299.764	-108.849	0.225	-0.048
-298.749	-20.022	0.033	-0.021
-297.735	-164.153	0.220	-0.010
-296.720	-102.951	-0.292	-0.069
-295.705	-8.995	0.156	0.104
-294.691	85.371	-0.414	0.452
-293.676	-81.004	0.378	0.124
-292.662	800.000	-0.035	-0.142
-291.647	82.752	0.094	0.101
-290.632	800.000	-0.064	0.236
-289.618	-200.000	0.017	0.262
-288.603	707.857	0.202	0.529
-287.589	-200.000	0.037	0.185
-286.574	-200.000	0.035	-0.233
-285.559	-93.437	-0.343	0.095
-284.545	401.856	0.152	0.317
-283.530	569.290	0.052	0.126
-282.516	-200.000	0.019	-0.303
-281.501	683.507	0.094	-0.243
-280.486	-9.882	-0.122	0.080
-279.472	275.451	-0.101	0.178
-278.457	1.046	-0.240	0.171
-277.443	196.121	-0.154	-0.232
-276.428	569.262	0.018	0.044
-275.413	-200.000	0.002	0.137
-274.399	-20.573	0.272	0.166
-273.384	-200.000	0.039	0.176
-272.370	0.592	0.238	0.169
-271.355	800.000	-0.035	0.123
-270.340	74.167	-0.110	0.115
-269.326	-106.407	-0.315	0.070
-268.311	-200.000	0.005	0.026
-267.297	18.689	0.126	-0.100
-266.282	-71.166	0.389	0.145
-265.267	-27.173	0.102	0.059
-264.253	-44.965	-0.270	-0.134
-263.238	22.475	-0.071	-0.058
-262.224	-153.888	0.335	-0.023
-261.209	-140.348	-0.138	0.014
-260.195	154.758	-0.065	0.088
-259.180	-86.640	-0.059	-0.018
-258.165	-49.991	0.345	-0.163
-257.151	35.618	-0.361	-0.315
-256.136	76.468	0.045	-0.047
-255.122	316.940	0.198	0.372
-254.107	-200.000	0.052	0.302
-253.092	15.019	-0.060	-0.047
-252.078	-17.953	-0.173	-0.108
-251.063	800.000	-0.081	0.285
-250.049	800.000	-0.040	0.159
-249.034	-138.790	-0.170	-0.018
-248.019	800.000	0.049	0.166
-247.005	-200.000	0.040	-0.418
-245.990	-167.969	0.494	-0.019
-244.976	67.909	-0.291	0.295
-243.961	12.213	0.034	-0.026
-242.946	153.130	0.063	-0.086
-241.932	-109.205	-0.213	0.045
-240.917	-113.875	-0.096	-0.019
-239.903	226.966	-0.029	-0.046
-238.888	123.964	0.065	-0.081
-237.873	-75.190	-0.170	-0.060
-236.859	1.673	0.180	-0.129
-235.844	148.895	0.192	-0.257
-234.830	48.206	0.104	-0.097
-233.815	-168.746	-0.334	-0.013
-232.800	-31.608	-0.200	0.112
-231.786	72.668	-0.190	-0.197
-230.771	800.000	-0.072	-0.230
-229.757	-200.000	0.001	0.273
-228.742	-104.382	-0.278	-0.064
-227.727	-62.610	-0.089	0.037
-226.713	-6.725	0.252	0.170
-225.698	800.000	0.064	-0.241
-224.684	-48.578	-0.297	0.142
-223.669	623.017	-0.066	0.165
-222.655	352.311	-0.103	-0.203
-221.640	411.901	0.124	-0.261
-220.625	800.000	-0.034	0.094
-219.611	120.114	-0.216	-0.265
-218.596	12.816	0.125	0.096
-217.582	35.082	0.152	-0.132
-216.567	-44.342	0.276	-0.137
-215.552	35.661	0.143	0.124
-214.538	43.264	-0.050	-0.045
-213.523	-47.832	0.428	0.206
-212.509	800.000	0.014	0.048
-211.494	55.332	0.097	0.093
-210.479	77.152	-0.063	0.066
-209.465	717.126	0.155	0.407
-208.450	800.000	0.095	0.362
-207.436	96.144	0.052	0.059
-206.421	182.291	0.068	0.099
-205.406	-9.085	0.082	-0.055
-204.392	15.681	-0.093	0.072
-203.377	375.082	0.156	0.314
-202.363	176.063	-0.102	0.147
-201.348	-115.293	0.339	0.064
-200.333	110.475	-0.211	0.251
-199.319	22.472	-0.123	-0.099
-198.304	-200.000	0.022	0.182
-197.290	-143.343	-0.290	-0.027
-196.275	-200.000	-0.003	0.016
-195.260	-141.251	0.361	-0.036
-194.246	503.551	-0.090	-0.205
-193.231	-50.692	0.208	0.097
-192.217	177.209	0.110	0.159
-191.202	-200.000	-0.021	0.204
-190.187	-101.224	0.350	0.085
-189.173	-67.689	0.209	0.081
-188.158	-145.370	0.123	-0.011
-187.144	-8.595	-0.193	-0.128
-186.129	61.484	0.128	0.126
-185.114	-200.000	0.020	0.094
-184.100	-134.326	-0.359	-0.044
-183.085	314.868	0.110	0.205
-182.071	-29.006	0.179	0.102
-181.056	800.000	0.005	-0.019
-180.042	-190.775	-0.195	0.002
-179.027	-163.428	0.162	-0.008
-178.012	-109.171	0.152	-0.032
-176.998	798.462	-0.019	0.052
-175.983	800.000	-0.047	0.165
-174.969	-185.644	-0.173	-0.003
-173.954	-200.000	0.027	0.310
-172.939	-200.000	0.482	0.002
-171.925	-200.000	-0.011	-0.102
-170.910	164.174	-0.155	-0.215
-169.896	491.446	0.139	-0.315
-168.881	756.710	0.142	0.380
-167.866	-86.191	0.077	-0.024
-166.852	-48.181	0.177	0.085
-165.837	-24.083	-0.086	0.051
-164.823	-65.514	-0.217	-0.086
-163.808	113.684	0.070	0.085
-162.793	-52.466	0.146	-0.067
-161.779	132.647	-0.064	-0.082
-160.764	-14.513	0.321	-0.204
-159.750	800.000	0.050	-0.161
-158.735	-200.000	0.001	0.255
-157.720	274.744	-0.015	-0.026
-156.706	-160.115	-0.206	0.011
-155.691	44.341	0.194	-0.177
-154.677	103.288	-0.127	0.148
-153.662	126.153	-0.087	0.108
-152.647	71.693	0.096	0.099
-151.633	-111.096	-0.192	-0.039
-150.618	800.000	0.135	-0.491
-149.604	72.162	-0.168	0.173
-148.589	-200.000	0.064	0.342
-147.574	-200.000	0.064	0.291
-146.560	-200.000	-0.021	-0.124
-145.545	466.726	-0.156	-0.346
-144.531	609.292	0.180	-0.444
-143.516	-54.513	-0.284	-0.127
-142.502	196.174	0.147	0.221
-141.487	-185.442	-0.184	0.003
-140.472	-200.000	-0.011	0.124
-139.458	-1.127	0.051	-0.035
-138.443	105.500	-0.158	0.185
-137.429	38.999	0.102	0.090
-136.414	-88.537	0.157	-0.046
-135.399	86.284	0.147	0.160
-134.385	-197.211	-0.108	0.001
-133.370	-95.823	0.168	0.044
-132.356	-61.520	-0.424	0.176
-131.341	800.000	-0.061	0.214
-130.326	-200.000	0.005	-0.217
-129.312	396.958	0.102	-0.211
-128.297	11.123	0.194	0.147
-127.283	238.594	-0.068	0.111
-126.268	-200.000	-0.102	0.564
-125.253	96.651	-0.126	0.143
-124.239	-147.170	0.126	-0.011
-123.224	141.066	0.210	0.275
-122.210	371.248	0.049	-0.097
-121.195	7.807	-0.216	0.160
