DTS Sentinel unit serial number:	SN413079Multiplexer serial number:	ORYXHardware model number:	OX4-SRSoftware version number:	ORYX F/W v4.00 Oryx Data Collector v3.7.2.0data status	okinstallation	princeton_trtdifferential loss correction	single-endedforward channel	channel 4reverse channel	N/Adate	2019/09/11time	09:39:11forward acquisition time	60.00reverse acquisition time	0.00gamma	496.2192k internal	0.2297k external	0.2297temperature offset calibration	0.9974default loss term (dB/km)	0.3790temperature slope calibration	1.0000multiplexer offset coefficient	1.0000multiplexer slope coefficient	1.0000fibre end	0.00T internal ref (°C)	34.83T ext. ref 1 (°C)	0.12T ext. ref 2 (°C)	31.46length (m)	temperature (°C)	Stokes	anti-Stokes-747.200	-62.697	0.181	-0.077
-746.185	-200.000	0.029	0.210
-745.171	-25.986	-0.149	-0.089
-744.156	-200.000	0.069	0.485
-743.142	-200.000	-0.015	-0.135
-742.127	-148.724	0.185	0.015
-741.112	250.932	-0.163	0.282
-740.098	177.918	-0.101	0.150
-739.083	800.000	0.010	-0.039
-738.069	-200.000	0.035	0.186
-737.054	367.215	0.165	-0.340
-736.039	189.887	-0.141	-0.216
-735.025	439.721	0.028	-0.062
-734.010	167.331	-0.098	-0.142
-732.996	-200.000	-0.115	-0.001
-731.981	-145.453	-0.366	0.034
-730.966	-140.795	-0.326	-0.034
-729.952	352.020	0.149	-0.301
-728.937	268.470	0.074	-0.132
-727.923	-20.485	-0.039	-0.024
-726.908	-156.501	-0.160	-0.010
-725.894	6.913	0.198	-0.150
-724.879	-98.416	0.274	0.072
-723.864	-32.963	0.322	-0.183
-722.850	-83.944	-0.038	0.012
-721.835	-198.032	0.040	0.000
-720.821	800.000	-0.085	-0.240
-719.806	-122.488	-0.378	-0.063
-718.791	120.913	-0.151	0.191
-717.777	134.841	0.111	0.146
-716.762	-19.080	-0.388	-0.246
-715.748	267.145	0.049	-0.088
-714.733	800.000	-0.053	-0.178
-713.718	211.181	-0.139	0.224
-712.704	85.945	-0.033	0.037
-711.689	-200.000	0.006	0.412
-710.675	556.169	-0.142	-0.348
-709.660	-73.245	0.077	-0.029
-708.645	61.257	0.098	-0.099
-707.631	54.940	0.231	0.228
-706.616	292.533	-0.144	-0.268
-705.602	17.761	0.064	0.052
-704.587	-200.000	-0.002	0.214
-703.572	565.225	0.074	-0.183
-702.558	-200.000	0.016	0.181
-701.543	-200.000	0.002	0.097
-700.529	-54.334	0.229	0.106
-699.514	-40.719	0.078	0.041
-698.499	255.278	-0.191	-0.334
-697.485	-112.302	0.053	0.011
-696.470	-179.786	-0.226	0.005
-695.456	18.272	-0.182	0.148
-694.441	800.000	-0.083	0.344
-693.426	491.674	0.060	-0.139
-692.412	800.000	0.020	0.064
-691.397	-107.962	-0.259	-0.057
-690.383	-43.942	-0.172	0.088
-689.368	-108.618	-0.063	0.014
-688.354	-74.631	0.087	0.032
-687.339	30.835	0.176	0.153
-686.324	517.237	-0.108	0.256
-685.310	200.124	0.053	-0.082
-684.295	-118.388	-0.321	-0.058
-683.281	-17.869	-0.239	-0.153
-682.266	-53.421	-0.102	-0.048
-681.251	-9.712	-0.017	0.012
-680.237	-200.000	-0.000	-0.090
-679.222	800.000	0.062	-0.233
-678.208	-200.000	-0.011	-0.129
-677.193	0.419	0.160	0.117
-676.178	-137.141	0.425	0.049
-675.164	-200.000	-0.043	-0.205
-674.149	507.182	-0.015	-0.036
-673.135	52.280	-0.071	0.069
-672.120	513.518	-0.082	-0.194
-671.105	125.600	-0.304	-0.390
-670.091	242.378	0.168	-0.286
-669.076	-86.660	-0.148	-0.046
-668.062	-200.000	0.019	0.236
-667.047	-73.157	0.057	0.021
-666.032	-63.054	0.334	0.140
-665.018	800.000	0.051	0.216
-664.003	128.751	0.084	-0.109
-662.989	352.496	0.059	-0.119
-661.974	88.018	-0.157	0.177
-660.959	-171.383	0.147	0.005
-659.945	-36.840	-0.057	-0.031
-658.930	505.040	0.106	0.249
-657.916	-47.714	0.170	0.084
-656.901	800.000	-0.042	-0.159
-655.886	-200.000	-0.013	-0.189
-654.872	19.747	0.242	0.198
-653.857	369.183	0.110	-0.226
-652.843	103.031	-0.110	0.131
-651.828	247.608	-0.114	0.196
-650.814	127.096	-0.158	-0.204
-649.799	800.000	-0.040	-0.136
-648.784	-200.000	-0.025	-0.295
-647.770	-200.000	0.013	0.226
-646.755	69.935	-0.175	0.183
-645.741	-27.043	-0.397	0.236
-644.726	57.885	0.165	0.164
-643.711	309.409	-0.084	-0.160
-642.697	98.519	-0.102	0.120
-641.682	-135.749	-0.430	0.052
-640.668	800.000	-0.059	-0.203
-639.653	-103.473	0.106	-0.025
-638.638	-96.002	0.240	0.065
-637.624	267.755	0.101	-0.179
-636.609	121.165	0.062	0.078
-635.595	-43.264	-0.136	-0.070
-634.580	756.527	-0.142	0.390
-633.565	296.896	-0.052	-0.097
-632.551	-200.000	0.000	0.043
-631.536	41.815	-0.087	-0.080
-630.522	207.088	0.082	-0.130
-629.507	41.650	-0.127	0.117
-628.492	-178.534	-0.204	-0.005
-627.478	-118.571	0.348	0.063
-626.463	-131.329	-0.141	-0.019
-625.449	-200.000	0.017	-0.082
-624.434	-72.106	0.298	0.112
-623.419	-200.000	0.001	0.107
-622.405	411.000	-0.090	0.194
-621.390	498.499	0.157	-0.368
-620.376	375.266	0.096	-0.198
-619.361	-19.326	0.159	0.100
-618.346	-200.000	-0.058	-0.323
-617.332	-122.352	0.103	-0.017
-616.317	5.636	-0.144	0.108
-615.303	214.923	0.148	-0.238
-614.288	149.912	0.093	0.128
-613.273	114.505	0.045	-0.055
-612.259	59.035	-0.265	-0.265
-611.244	16.413	0.033	-0.027
-610.230	800.000	0.063	-0.248
-609.215	800.000	0.095	-0.327
-608.201	-45.696	0.118	0.059
-607.186	-92.993	-0.286	-0.081
-606.171	168.706	0.147	0.212
-605.157	147.247	-0.130	0.178
-604.142	-43.418	0.309	-0.159
-603.128	-101.135	-0.166	-0.041
-602.113	-49.593	0.366	-0.177
-601.098	-103.107	-0.233	-0.056
-600.084	-200.000	0.012	0.274
-599.069	431.414	0.034	0.075
-598.055	-37.502	0.181	0.098
-597.040	35.955	-0.272	-0.243
-596.025	-64.766	-0.376	-0.155
-595.011	303.717	-0.157	-0.295
-593.996	-15.836	0.180	-0.117
-592.982	-122.440	0.175	-0.029
-591.967	410.346	-0.073	-0.156
-590.952	237.478	0.017	0.028
-589.938	-136.619	-0.379	-0.045
-588.923	28.096	0.105	0.090
-587.909	-185.192	0.119	0.002
-586.894	-32.535	-0.201	0.114
-585.879	56.559	-0.035	-0.035
-584.865	146.952	-0.039	0.053
-583.850	143.327	-0.251	0.339
-582.836	-200.000	-0.001	-0.053
-581.821	23.171	0.101	-0.085
-580.806	96.244	0.122	-0.141
-579.792	-10.819	-0.128	0.086
-578.777	800.000	0.044	0.162
-577.763	373.068	-0.162	-0.335
-576.748	52.814	-0.038	0.037
-575.733	104.413	-0.085	-0.102
-574.719	155.194	0.167	0.233
-573.704	135.399	0.083	0.110
-572.690	-200.000	0.011	-0.110
-571.675	3.311	0.231	0.171
-570.661	192.517	0.109	-0.167
-569.646	800.000	0.074	-0.255
-568.631	-200.000	-0.022	-0.125
-567.617	20.997	-0.144	-0.119
-566.602	28.833	-0.105	-0.090
-565.588	-123.832	-0.157	0.025
-564.573	-101.744	-0.416	0.102
-563.558	-25.032	-0.221	0.133
-562.544	-72.480	-0.190	0.071
-561.529	143.361	0.113	0.153
-560.515	-47.428	0.126	-0.062
-559.500	186.307	-0.061	0.092
-558.485	99.224	0.051	0.059
-557.471	800.000	0.018	0.077
-556.456	-200.000	-0.032	0.350
-555.442	800.000	-0.027	0.087
-554.427	-63.399	-0.082	-0.034
-553.412	754.669	-0.027	0.073
-552.398	-175.547	-0.019	-0.001
-551.383	-48.955	-0.116	-0.056
-550.369	376.027	0.168	-0.348
-549.354	-53.054	-0.107	0.050
-548.339	-200.000	0.002	-0.146
-547.325	-162.017	0.179	0.009
-546.310	150.203	0.070	-0.097
-545.296	62.742	-0.224	0.227
-544.281	-85.034	0.163	-0.052
-543.266	250.729	-0.210	-0.362
-542.252	-136.441	0.176	-0.021
-541.237	-36.046	0.107	0.059
-540.223	-200.000	0.015	-0.153
-539.208	-122.196	0.199	0.033
-538.193	-200.000	-0.005	0.230
-537.179	454.269	0.182	0.409
-536.164	173.468	0.062	-0.090
-535.150	674.766	0.202	0.532
-534.135	-82.031	0.162	-0.054
-533.121	-60.840	0.154	0.066
-532.106	-75.500	0.450	-0.162
-531.091	-81.289	0.274	0.092
-530.077	-193.069	-0.156	-0.001
-529.062	-200.000	-0.027	0.209
-528.048	-12.455	-0.138	0.091
-527.033	-16.332	-0.122	-0.079
-526.018	800.000	0.060	-0.189
-525.004	800.000	-0.091	-0.344
-523.989	-144.878	-0.385	0.036
-522.975	-134.324	0.386	0.048
-521.960	-110.002	-0.103	-0.022
-520.945	-200.000	-0.040	0.246
-519.931	-59.320	-0.415	-0.181
-518.916	-58.624	-0.136	0.060
-517.902	-5.117	0.309	0.215
-516.887	-109.692	-0.153	-0.033
-515.872	253.967	-0.093	0.161
-514.858	-23.227	-0.173	0.105
-513.843	155.011	-0.113	0.157
-512.829	-169.237	0.545	0.020
-511.814	51.886	0.211	0.204
-510.799	119.019	-0.019	-0.024
-509.785	102.846	0.082	-0.097
-508.770	-70.831	-0.284	-0.109
-507.756	-200.000	0.059	0.338
-506.741	37.613	-0.241	-0.216
-505.726	407.748	-0.052	-0.112
-504.712	-200.000	-0.007	0.071
-503.697	-200.000	0.081	-0.457
-502.683	-22.623	-0.081	-0.050
-501.668	-28.514	0.105	0.061
-500.653	323.979	0.121	-0.235
-499.639	527.999	0.111	-0.264
-498.624	-200.000	-0.015	-0.285
-497.610	65.131	0.172	0.176
-496.595	-71.341	0.415	-0.157
-495.581	-200.000	0.014	0.088
-494.566	-154.162	-0.084	0.006
-493.551	-124.042	-0.151	0.024
-492.537	-200.000	-0.025	0.126
-491.522	41.143	-0.144	0.131
-490.508	-115.741	-0.298	-0.056
-489.493	453.140	0.136	0.303
-488.478	-126.605	0.420	0.063
-487.464	-74.566	-0.020	-0.007
-486.449	28.072	0.258	-0.220
-485.435	306.641	-0.103	-0.194
-484.420	204.816	-0.178	-0.280
-483.405	-200.000	0.001	-0.122
-482.391	113.120	-0.144	0.176
-481.376	-5.132	-0.174	-0.121
-480.362	584.502	0.036	-0.090
-479.347	800.000	0.058	0.256
-478.332	-144.613	-0.211	0.020
-477.318	23.529	-0.297	0.247
-476.303	50.523	0.101	0.096
-475.289	-200.000	-0.064	0.353
-474.274	-59.350	0.314	0.136
-473.259	-138.309	0.200	0.022
-472.245	800.000	0.072	-0.261
-471.230	800.000	0.029	-0.102
-470.216	219.897	-0.121	-0.196
-469.201	-49.007	0.076	-0.037
-468.186	225.880	0.068	-0.111
-467.172	-12.892	-0.054	-0.036
-466.157	277.134	0.054	-0.097
-465.143	-4.077	0.279	0.195
-464.128	386.443	-0.050	0.104
-463.113	-47.166	0.154	0.076
-462.099	-200.000	-0.018	0.104
-461.084	450.349	-0.028	-0.062
-460.070	154.769	-0.065	-0.090
-459.055	-27.346	-0.094	-0.056
-458.040	-200.000	0.059	0.290
-457.026	-200.000	0.001	0.099
-456.011	3.284	-0.179	-0.132
-454.997	-108.529	0.110	0.024
-453.982	-200.000	-0.068	0.343
-452.968	800.000	0.098	0.281
-451.953	-85.215	0.285	-0.090
-450.938	-104.377	-0.149	-0.035
-449.924	-134.190	0.339	0.042
-448.909	-200.000	0.026	0.273
-447.895	-83.112	0.097	0.032
-446.880	-13.048	0.101	-0.066
-445.865	-200.000	-0.013	0.143
-444.851	-31.951	-0.204	0.116
-443.836	103.890	-0.081	-0.096
-442.822	355.846	-0.099	-0.198
-441.807	-48.990	0.248	-0.120
-440.792	467.660	-0.137	-0.310
-439.778	664.145	0.134	0.349
-438.763	-26.664	-0.104	0.061
-437.749	601.651	0.095	0.238
-436.734	-200.000	-0.010	0.337
-435.719	-200.000	-0.017	0.429
-434.705	-72.506	0.069	-0.026
-433.690	297.200	0.070	-0.129
-432.676	-200.000	0.006	0.266
-431.661	726.242	0.017	0.045
-430.646	271.211	0.092	-0.164
-429.632	-200.000	-0.028	-0.144
-428.617	-19.443	0.017	-0.010
-427.603	-38.073	0.147	-0.079
-426.588	163.282	0.101	0.143
-425.573	-200.000	-0.004	0.107
-424.559	800.000	-0.092	0.362
-423.544	-32.893	0.045	0.025
-422.530	38.410	-0.162	-0.145
-421.515	136.367	0.124	-0.163
-420.500	-200.000	0.027	-0.287
-419.486	-83.250	-0.149	0.048
-418.471	-200.000	0.006	0.096
-417.457	142.344	-0.036	-0.048
-416.442	-200.000	0.015	-0.350
-415.428	800.000	-0.116	-0.357
-414.413	800.000	-0.018	-0.076
-413.398	65.214	0.270	-0.275
-412.384	-38.871	0.200	0.106
-411.369	217.202	-0.254	-0.408
-410.355	247.006	0.094	0.160
-409.340	782.322	-0.039	0.107
-408.325	-140.117	0.294	0.031
-407.311	800.000	-0.106	-0.422
-406.296	654.575	0.058	0.151
-405.282	326.351	-0.106	0.204
-404.267	-139.134	-0.108	0.012
-403.252	84.865	0.118	0.131
-402.238	-200.000	-0.385	0.000
-401.223	-184.695	0.022	-0.000
-400.209	-75.278	0.201	0.072
-399.194	76.211	0.155	-0.165
-398.179	-124.771	0.190	0.030
-397.165	-200.000	0.023	-0.245
-396.150	400.042	0.082	0.173
-395.136	105.371	0.078	-0.093
-394.121	762.660	-0.017	0.046
-393.106	532.500	-0.047	0.112
-392.092	35.212	0.171	-0.151
-391.077	55.437	0.125	-0.121
-390.063	-170.750	-0.305	0.011
-389.048	-200.000	-0.006	0.140
-388.033	-200.000	0.081	0.421
-387.019	-200.000	-0.010	-0.278
-386.004	420.564	0.084	-0.180
-384.990	376.376	0.090	0.184
-383.975	-200.000	0.061	-0.285
-382.960	-200.000	-0.025	-0.192
-381.946	-67.724	-0.139	-0.055
-380.931	-5.197	0.362	-0.251
-379.917	-200.000	0.016	0.140
-378.902	-11.139	-0.222	0.147
-377.888	-160.597	-0.225	-0.012
-376.873	-200.000	0.031	0.192
-375.858	502.173	0.108	0.251
-374.844	310.721	-0.036	0.069
-373.829	-83.941	0.208	-0.067
-372.815	-200.000	-0.020	-0.136
-371.800	-50.014	0.145	-0.069
-370.785	18.877	0.047	0.038
-369.771	462.273	0.086	0.192
-368.756	-74.306	0.085	0.031
-367.742	-14.881	-0.292	-0.189
-366.727	445.582	0.086	0.191
-365.712	131.472	0.018	0.023
-364.698	-200.000	-0.012	-0.393
-363.683	-1.292	0.148	-0.105
-362.669	-200.000	0.028	-0.231
-361.654	-200.000	-0.026	0.338
-360.639	-200.000	0.005	-0.078
-359.625	-100.620	-0.074	-0.018
-358.610	800.000	-0.123	-0.415
-357.596	-129.529	0.170	-0.024
-356.581	800.000	-0.132	-0.441
-355.566	-132.986	-0.136	-0.017
-354.552	-140.110	-0.180	0.019
-353.537	342.279	-0.027	0.053
-352.523	800.000	0.030	0.101
-351.508	800.000	0.083	-0.275
-350.493	800.000	0.023	-0.074
-349.479	800.000	-0.025	-0.075
-348.464	-76.203	-0.166	0.059
-347.450	-172.162	-0.245	-0.008
-346.435	-200.000	-0.001	-0.033
-345.420	-86.669	-0.125	-0.039
-344.406	-40.346	0.182	0.095
-343.391	-42.817	-0.169	-0.086
-342.377	-200.000	-0.003	-0.088
-341.362	412.553	0.060	0.128
-340.348	-200.000	-0.104	0.538
-339.333	-127.052	-0.206	-0.030
-338.318	375.457	-0.090	0.184
-337.304	376.274	0.148	0.303
-336.289	-140.290	0.260	-0.027
-335.275	-6.141	-0.273	-0.188
-334.260	-155.464	-0.523	-0.034
-333.245	327.991	-0.085	-0.164
-332.231	28.779	-0.168	0.143
-331.216	-92.737	-0.362	-0.102
-330.202	-200.000	-0.013	0.078
-329.187	800.000	0.009	0.037
-328.172	-200.000	-0.130	0.001
-327.158	-176.031	-0.098	-0.003
-326.143	29.846	0.098	-0.084
-325.129	-48.440	0.508	0.246
-324.114	-68.799	0.171	0.066
-323.099	-10.101	0.148	0.099
-322.085	446.428	0.076	0.167
-321.070	1.012	-0.097	-0.070
-320.056	273.627	0.101	0.179
-319.041	-24.187	0.074	-0.044
-318.026	234.226	0.066	-0.110
-317.012	-134.159	0.309	0.038
-315.997	-144.577	-0.458	-0.042
-314.983	-138.719	0.195	-0.021
-313.968	-0.116	0.077	-0.055
-312.953	800.000	0.140	0.393
-311.939	-74.428	-0.146	0.053
-310.924	84.316	0.077	0.084
-309.910	-17.259	-0.277	-0.175
-308.895	-85.398	0.059	-0.018
-307.880	238.126	-0.041	0.069
-306.866	390.976	-0.067	0.141
-305.851	303.434	-0.031	0.057
-304.837	-114.954	0.198	-0.038
-303.822	256.034	0.130	0.224
-302.807	-105.800	0.413	0.094
-301.793	-102.369	-0.221	0.053
-300.778	-162.333	0.254	0.013
-299.764	-200.000	0.021	-0.147
-298.749	-152.752	-0.325	0.023
-297.735	-18.633	0.161	-0.101
-296.720	199.233	-0.059	-0.091
-295.705	-200.000	-0.034	-0.170
-294.691	177.636	-0.302	-0.442
-293.676	203.353	-0.095	0.147
-292.662	-56.937	-0.113	-0.050
-291.647	-120.921	0.100	-0.017
-290.632	-1.420	0.252	0.178
-289.618	99.479	0.132	0.153
-288.603	-200.000	0.053	0.267
-287.589	-149.093	-0.257	0.021
-286.574	244.082	-0.162	0.272
-285.559	-37.841	0.200	-0.106
-284.545	-22.089	-0.103	0.062
-283.530	800.000	0.029	-0.090
-282.516	24.401	-0.213	0.177
-281.501	-194.116	-0.276	-0.002
-280.486	-101.590	-0.187	-0.046
-279.472	-103.768	-0.254	0.060
-278.457	-20.800	0.250	0.154
-277.443	-98.999	0.516	0.131
-276.428	333.700	-0.073	0.142
-275.413	800.000	0.042	-0.136
-274.399	-200.000	-0.051	-0.386
-273.384	-169.262	0.131	0.005
-272.370	-122.020	0.214	0.035
-271.355	631.027	-0.130	0.330
-270.340	121.920	0.179	-0.224
-269.326	800.000	-0.050	0.170
-268.311	-95.380	0.193	0.052
-267.297	20.618	0.069	0.056
-266.282	26.225	-0.039	0.033
-265.267	800.000	-0.098	0.293
-264.253	-32.065	-0.370	-0.207
-263.238	-200.000	-0.013	0.125
-262.224	-200.000	-0.010	-0.058
-261.209	-5.291	-0.160	-0.110
-260.195	255.258	0.118	0.203
-259.180	-200.000	0.017	-0.200
-258.165	-138.748	0.322	-0.035
-257.151	-67.556	0.233	0.092
-256.136	800.000	-0.071	0.213
-255.122	-80.480	-0.281	0.094
-254.107	-200.000	-0.090	-0.487
-253.092	296.294	-0.070	0.128
-252.078	-77.059	0.245	0.085
-251.063	-113.414	-0.113	-0.022
-250.049	-6.608	-0.132	-0.090
-249.034	-0.734	-0.228	0.162
-248.019	-41.029	0.060	0.031
-247.005	111.636	0.071	-0.086
-245.990	800.000	0.007	-0.025
-244.976	505.227	0.058	-0.134
-243.961	377.530	0.022	0.045
-242.946	56.344	-0.148	0.144
-241.932	-116.369	-0.140	-0.026
-240.917	13.160	-0.226	-0.175
-239.903	-200.000	-0.042	-0.362
-238.888	245.526	0.080	-0.135
-237.873	3.410	0.088	0.064
-236.859	545.807	-0.082	-0.196
-235.844	-61.494	-0.236	0.099
-234.830	27.599	0.288	0.242
-233.815	-46.312	0.082	-0.040
-232.800	-200.000	-0.066	0.291
-231.786	-53.682	0.105	-0.048
-230.771	800.000	-0.054	0.210
-229.757	206.247	0.115	-0.180
-228.742	373.980	0.046	0.093
-227.727	-200.000	0.009	0.116
-226.713	-111.660	-0.047	0.010
-225.698	-127.509	0.093	-0.014
-224.684	96.132	0.177	0.203
-223.669	-200.000	-0.025	-0.215
-222.655	56.357	-0.092	-0.089
-221.640	90.025	0.219	-0.245
-220.625	-200.000	-0.021	0.159
-219.611	106.616	-0.261	0.310
-218.596	-89.525	-0.067	-0.020
-217.582	-200.000	-0.000	0.487
-216.567	-162.857	0.434	0.021
-215.552	90.538	-0.103	0.115
-214.538	-167.837	-0.216	-0.009
-213.523	217.969	0.099	-0.158
-212.509	143.670	-0.219	-0.292
-211.494	-74.005	-0.219	0.080
-210.479	430.276	-0.019	-0.042
-209.465	800.000	-0.133	-0.472
-208.450	-75.824	-0.177	-0.063
-207.436	69.311	-0.063	-0.065
-206.421	-27.646	0.351	-0.204
-205.406	-99.564	-0.083	-0.021
-204.392	-164.021	0.349	-0.016
-203.377	-200.000	0.029	-0.142
-202.363	-177.984	-0.253	0.006
-201.348	-200.000	-0.047	-0.221
-200.333	729.743	0.063	0.167
-199.319	-28.059	0.081	-0.047
-198.304	156.433	-0.034	-0.046
-197.290	-65.054	-0.128	-0.052
-196.275	155.338	0.107	0.147
-195.260	75.184	0.200	0.211
-194.246	64.811	-0.279	0.281
-193.231	-3.767	0.056	-0.039
-192.217	-121.381	-0.170	-0.028
-191.202	11.909	-0.232	-0.178
-190.187	-166.806	-0.225	0.009
-189.173	-36.520	0.112	-0.060
-188.158	24.511	0.324	0.268
-187.144	-200.000	-0.010	-0.154
-186.129	201.546	0.098	-0.151
-185.114	168.303	-0.164	0.234
-184.100	177.618	0.149	0.217
-183.085	-25.200	0.063	-0.037
-182.071	139.772	0.047	0.062
-181.056	-60.638	0.056	-0.024
-180.042	-200.000	-0.034	0.160
-179.027	-68.038	-0.079	-0.031
-178.012	-200.000	0.102	-0.536
-176.998	800.000	0.036	0.126
-175.983	-144.096	0.138	-0.013
-174.969	800.000	0.030	-0.090
-173.954	344.259	0.028	-0.055
-172.939	-36.067	-0.041	0.022
-171.925	432.304	-0.113	-0.244
-170.910	200.915	0.158	0.242
-169.896	-90.687	-0.288	0.083
-168.881	-200.000	-0.007	0.193
-167.866	-200.000	-0.071	-0.373
-166.852	290.241	-0.219	-0.397
-165.837	-60.386	0.152	-0.065
-164.823	-54.474	0.310	0.140
-163.808	-6.505	-0.201	-0.137
-162.793	-92.471	-0.182	-0.051
-161.779	163.568	-0.111	-0.156
-160.764	103.997	-0.169	0.198
-159.750	20.183	-0.291	-0.235
-158.735	335.058	-0.114	-0.221
-157.720	589.533	0.195	0.480
-156.706	-200.000	-0.021	-0.125
-155.691	-63.513	-0.141	0.058
-154.677	-126.370	0.332	0.049
-153.662	-96.563	0.120	0.032
-152.647	-14.997	0.168	0.107
-151.633	-62.879	0.195	-0.081
-150.618	-200.000	-0.051	0.337
-149.604	136.865	0.171	-0.223
-148.589	-108.560	0.277	-0.059
-147.574	800.000	-0.077	0.261
-146.560	17.276	0.049	0.038
-145.545	-36.480	-0.298	0.160
-144.531	230.081	-0.113	0.184
-143.516	-200.000	-0.015	0.128
-142.502	-105.542	-0.173	0.039
-141.487	-7.491	-0.139	-0.094
-140.472	-200.000	-0.020	0.158
-139.458	-148.765	0.319	-0.026
-138.443	79.695	-0.158	-0.169
-137.429	-81.462	0.198	-0.065
-136.414	-200.000	-0.029	-0.191
-135.399	-113.132	-0.391	-0.077
-134.385	-0.516	-0.081	-0.057
-133.370	522.248	-0.172	0.404
-132.356	-58.844	-0.234	0.101
-131.341	-78.633	0.169	0.057
-130.326	-144.481	-0.405	0.037
-129.312	-25.605	-0.141	0.083
-128.297	-101.375	0.217	-0.053
-127.283	196.700	-0.082	0.124
-126.268	-71.289	0.223	-0.083
-125.253	-189.648	0.263	-0.003
-124.239	215.856	-0.160	-0.253
-123.224	-115.443	-0.084	-0.016
