DTS Sentinel unit serial number:	SN413079Multiplexer serial number:	ORYXHardware model number:	OX4-SRSoftware version number:	ORYX F/W v4.00 Oryx Data Collector v3.7.2.0data status	okinstallation	princeton_trtdifferential loss correction	single-endedforward channel	channel 4reverse channel	N/Adate	2019/09/12time	01:23:11forward acquisition time	60.00reverse acquisition time	0.00gamma	496.2192k internal	0.2309k external	0.2309temperature offset calibration	1.0091default loss term (dB/km)	0.3790temperature slope calibration	1.0000multiplexer offset coefficient	1.0000multiplexer slope coefficient	1.0000fibre end	0.00T internal ref (°C)	32.98T ext. ref 1 (°C)	2.08T ext. ref 2 (°C)	27.84length (m)	temperature (°C)	Stokes	anti-Stokes-747.200	-36.626	-0.297	0.162
-746.185	800.000	0.061	0.241
-745.171	-91.884	0.213	0.061
-744.156	-200.000	-0.026	-0.182
-743.142	-79.316	0.119	-0.041
-742.127	-104.485	0.332	-0.078
-741.112	34.015	-0.096	-0.085
-740.098	-119.448	0.130	-0.023
-739.083	800.000	-0.067	0.280
-738.069	-101.735	0.447	0.110
-737.054	-200.000	0.012	-0.116
-736.039	-16.149	-0.307	0.198
-735.025	140.980	0.246	0.331
-734.010	-200.000	0.013	-0.081
-732.996	-130.394	-0.340	0.047
-731.981	-24.778	0.422	-0.254
-730.966	-135.879	-0.251	0.030
-729.952	-200.000	-0.013	-0.077
-728.937	-3.233	0.083	0.058
-727.923	-76.638	-0.191	-0.068
-726.908	-26.701	-0.208	-0.123
-725.894	-100.941	-0.183	0.046
-724.879	-94.093	-0.040	-0.011
-723.864	-200.000	-0.002	-0.190
-722.850	3.406	-0.130	-0.096
-721.835	-19.117	0.264	0.166
-720.821	800.000	-0.041	-0.142
-719.806	-200.000	-0.012	0.085
-718.791	-40.483	0.022	-0.012
-717.777	-5.990	-0.267	0.185
-716.762	-200.000	-0.099	0.460
-715.748	-56.377	0.214	-0.097
-714.733	800.000	0.117	0.348
-713.718	-22.638	-0.258	-0.158
-712.704	90.475	0.206	-0.234
-711.689	800.000	0.060	0.204
-710.675	12.662	-0.366	0.287
-709.660	545.412	0.073	-0.176
-708.645	112.739	-0.227	0.279
-707.631	116.684	0.158	-0.196
-706.616	11.061	-0.357	0.277
-705.602	-161.692	0.227	-0.012
-704.587	-16.552	0.055	-0.035
-703.572	-80.747	-0.249	-0.084
-702.558	-121.010	0.147	-0.025
-701.543	200.137	0.109	-0.169
-700.529	338.873	-0.118	-0.233
-699.514	-162.093	-0.103	-0.005
-698.499	-63.526	0.196	0.082
-697.485	-60.962	-0.099	-0.042
-696.470	-160.660	-0.088	-0.005
-695.456	-200.000	-0.312	-0.001
-694.441	800.000	-0.105	0.415
-693.426	-106.048	0.331	0.076
-692.412	-200.000	-0.044	-0.287
-691.397	481.190	-0.070	-0.161
-690.383	66.816	-0.105	-0.108
-689.368	-107.762	0.282	-0.062
-688.354	165.008	0.113	-0.161
-687.339	69.567	0.223	-0.232
-686.324	761.248	0.042	-0.116
-685.310	-132.735	0.069	0.009
-684.295	-119.531	-0.201	0.035
-683.281	30.824	-0.251	0.218
-682.266	327.308	0.038	-0.075
-681.251	16.545	0.107	0.085
-680.237	-107.302	0.152	0.034
-679.222	187.099	0.127	-0.192
-678.208	-2.128	0.434	-0.309
-677.193	-91.492	0.259	0.075
-676.178	458.797	0.122	0.274
-675.164	-200.000	0.009	-0.079
-674.149	45.681	0.062	0.058
-673.135	-105.881	0.206	0.047
-672.120	313.990	-0.099	0.189
-671.105	-78.822	-0.238	0.082
-670.091	37.428	-0.096	0.087
-669.076	-123.827	-0.188	-0.030
-668.062	10.662	-0.207	-0.160
-667.047	800.000	-0.105	-0.359
-666.032	7.211	-0.342	0.258
-665.018	800.000	0.066	0.191
-664.003	800.000	-0.112	0.346
-662.989	95.331	0.057	-0.066
-661.974	800.000	0.051	0.188
-660.959	-200.000	0.040	-0.218
-659.945	-200.000	0.006	-0.039
-658.930	59.727	0.359	-0.359
-657.916	800.000	0.056	0.205
-656.901	18.982	0.156	-0.127
-655.886	143.442	-0.201	0.271
-654.872	-54.907	0.150	0.068
-653.857	167.041	0.098	0.141
-652.843	-200.000	-0.011	0.321
-651.828	595.197	0.139	0.348
-650.814	24.081	-0.076	0.063
-649.799	-75.093	0.040	0.015
-648.784	173.346	-0.114	-0.167
-647.770	-55.206	0.038	-0.017
-646.755	-14.943	0.115	0.075
-645.741	800.000	0.088	-0.261
-644.726	-104.638	0.354	0.083
-643.711	-129.224	0.277	-0.039
-642.697	136.728	0.097	-0.128
-641.682	-99.989	-0.142	-0.036
-640.668	29.649	0.124	0.107
-639.653	114.485	0.251	-0.310
-638.638	800.000	-0.042	-0.141
-637.624	-107.842	-0.130	0.029
-636.609	-200.000	-0.043	-0.343
-635.595	-135.946	0.563	0.067
-634.580	496.924	0.020	-0.047
-633.565	66.893	0.169	0.174
-632.551	-102.469	0.117	-0.028
-631.536	-36.369	0.119	0.065
-630.522	-129.706	-0.457	-0.064
-629.507	104.811	0.103	0.122
-628.492	31.734	0.267	0.232
-627.478	580.688	-0.092	0.229
-626.463	-151.029	0.126	0.010
-625.449	518.217	-0.103	-0.244
-624.434	594.462	0.077	0.193
-623.419	-5.695	-0.074	-0.051
-622.405	-200.000	-0.033	-0.290
-621.390	-200.000	0.035	-0.164
-620.376	-200.000	0.164	0.001
-619.361	-200.000	-0.003	-0.173
-618.346	-65.615	-0.149	-0.061
-617.332	54.233	0.092	-0.090
-616.317	518.196	-0.044	0.105
-615.303	150.950	0.289	-0.397
-614.288	84.107	0.209	-0.231
-613.273	-76.951	0.327	-0.116
-612.259	-200.000	0.000	0.116
-611.244	-52.031	0.218	0.102
-610.230	-114.822	0.398	-0.077
-609.215	709.618	0.048	0.127
-608.201	385.112	0.049	0.102
-607.186	-80.098	-0.527	0.178
-606.171	-200.000	0.037	-0.269
-605.157	31.468	-0.353	-0.306
-604.142	-163.178	-0.222	0.011
-603.128	-28.996	-0.192	0.112
-602.113	-200.000	0.024	0.139
-601.098	-0.322	0.079	0.057
-600.084	-96.193	0.222	-0.059
-599.069	7.033	0.114	0.086
-598.055	800.000	-0.099	0.345
-597.040	126.254	0.179	0.229
-596.025	-69.974	0.239	-0.092
-595.011	-35.791	0.260	0.142
-593.996	-172.120	0.167	0.005
-592.982	-200.000	-0.057	0.352
-591.967	-22.853	-0.105	0.064
-590.952	-194.819	0.133	0.001
-589.938	59.201	0.138	0.138
-588.923	3.731	0.214	0.158
-587.909	-32.681	-0.240	-0.135
-586.894	-144.090	-0.168	0.016
-585.879	-115.104	0.212	-0.041
-584.865	-28.945	-0.529	0.307
-583.850	36.231	0.129	-0.114
-582.836	-65.376	0.260	-0.106
-581.821	-12.193	-0.081	-0.054
-580.806	537.442	0.037	0.089
-579.792	-200.000	0.005	-0.030
-578.777	299.284	0.114	-0.212
-577.763	-200.000	0.029	-0.146
-576.748	800.000	-0.036	0.116
-575.733	280.459	0.146	-0.263
-574.719	49.428	-0.124	0.118
-573.704	99.594	-0.092	-0.108
-572.690	-80.079	0.166	-0.056
-571.675	283.024	0.147	0.266
-570.661	-60.382	-0.145	0.062
-569.646	800.000	-0.021	-0.076
-568.631	800.000	-0.047	0.158
-567.617	-44.134	0.398	-0.201
-566.602	-200.000	0.038	-0.215
-565.588	13.844	-0.148	-0.116
-564.573	-200.000	0.042	0.192
-563.558	-200.000	0.021	-0.121
-562.544	293.040	-0.062	0.115
-561.529	-40.094	0.428	-0.225
-560.515	47.730	0.103	-0.097
-559.500	-16.942	-0.213	-0.136
-558.485	-150.314	-0.471	-0.037
-557.471	184.697	0.114	-0.171
-556.456	259.413	-0.146	0.255
-555.442	800.000	0.094	-0.335
-554.427	-200.000	0.010	-0.096
-553.412	-62.733	-0.166	-0.070
-552.398	-145.412	0.344	0.031
-551.383	42.009	0.132	-0.121
-550.369	-30.273	0.102	0.059
-549.354	-131.043	-0.274	0.037
-548.339	-3.568	-0.104	-0.073
-547.325	-8.551	0.182	-0.123
-546.310	-200.000	-0.027	-0.298
-545.296	492.706	-0.146	-0.338
-544.281	-28.472	-0.323	-0.188
-543.266	-200.000	0.079	0.651
-542.252	-134.384	-0.266	0.033
-541.237	331.535	0.147	0.285
-540.223	86.288	0.113	0.126
-539.208	112.701	-0.242	-0.295
-538.193	-200.000	-0.016	-0.166
-537.179	261.484	-0.052	-0.091
-536.164	-85.754	-0.403	0.126
-535.150	-118.534	0.029	-0.005
-534.135	563.637	0.131	-0.321
-533.121	800.000	-0.064	-0.215
-532.106	322.356	0.063	-0.121
-531.091	800.000	-0.149	-0.444
-530.077	278.205	0.083	-0.149
-529.062	-64.828	-0.194	-0.079
-528.048	800.000	-0.053	0.167
-527.033	442.725	-0.072	0.159
-526.018	800.000	-0.039	-0.170
-525.004	-200.000	-0.027	-0.190
-523.989	4.032	-0.138	0.102
-522.975	-200.000	-0.053	0.246
-521.960	-10.545	0.091	0.061
-520.945	297.404	0.121	0.223
-519.931	-97.899	-0.155	0.040
-518.916	-169.534	-0.265	0.010
-517.902	-41.554	-0.129	0.067
-516.887	800.000	0.035	-0.101
-515.872	800.000	-0.033	-0.113
-514.858	640.793	-0.075	0.193
-513.843	-200.000	0.012	0.070
-512.829	800.000	-0.021	-0.087
-511.814	77.546	-0.202	0.217
-510.799	108.556	0.014	0.016
-509.785	800.000	-0.067	-0.226
-508.770	800.000	0.062	-0.239
-507.756	343.149	0.181	-0.358
-506.741	-155.954	0.370	0.024
-505.726	546.223	0.044	-0.106
-504.712	-108.767	-0.041	0.009
-503.697	-71.431	-0.266	0.100
-502.683	-126.251	0.182	-0.027
-501.668	-200.000	-0.073	-0.327
-500.653	-200.000	-0.062	0.315
-499.639	248.003	0.084	0.142
-498.624	-98.591	-0.195	-0.050
-497.610	-105.650	0.278	-0.063
-496.595	245.363	-0.058	-0.099
-495.581	166.713	-0.104	-0.149
-494.566	-30.677	-0.184	-0.105
-493.551	240.908	0.068	-0.114
-492.537	-5.619	0.134	-0.093
-491.522	-200.000	0.007	0.177
-490.508	7.673	-0.243	0.183
-489.493	-63.151	-0.120	-0.050
-488.478	-200.000	0.004	0.319
-487.464	209.230	0.108	0.170
-486.449	241.542	-0.162	0.272
-485.435	464.373	0.008	-0.018
-484.420	285.032	0.119	-0.215
-483.405	-200.000	0.010	0.051
-482.391	-24.003	0.053	-0.032
-481.376	-60.925	-0.089	-0.038
-480.362	384.982	0.037	-0.077
-479.347	27.953	-0.184	0.156
-478.332	36.477	-0.070	0.062
-477.318	-16.515	-0.099	0.063
-476.303	-81.426	0.221	0.073
-475.289	8.334	-0.105	-0.079
-474.274	-200.000	0.032	0.360
-473.259	-108.589	-0.391	-0.084
-472.245	152.826	0.063	-0.086
-471.230	-43.185	-0.112	-0.057
-470.216	24.216	-0.225	-0.187
-469.201	-57.116	-0.090	0.040
-468.186	-200.000	-0.058	0.260
-467.172	-150.926	-0.185	0.014
-466.157	800.000	-0.092	0.263
-465.143	-80.635	0.059	0.020
-464.128	4.206	-0.233	0.171
-463.113	60.453	0.108	0.107
-462.099	-200.000	-0.023	0.102
-461.084	-88.783	0.158	0.047
-460.070	-75.256	-0.273	-0.098
-459.055	-48.678	0.529	-0.256
-458.040	-61.780	0.197	-0.083
-457.026	104.641	-0.094	0.112
-456.011	-77.188	-0.012	-0.004
-454.997	-79.002	-0.272	0.093
-453.982	381.318	-0.133	0.274
-452.968	-162.646	-0.096	-0.005
-451.953	8.745	0.136	0.103
-450.938	22.023	0.077	0.063
-449.924	-144.610	0.347	0.032
-448.909	386.423	0.043	0.089
-447.895	46.207	0.161	-0.150
-446.880	-138.753	-0.457	-0.050
-445.865	800.000	0.076	0.276
-444.851	164.984	0.049	-0.070
-443.836	-48.055	-0.183	-0.089
-442.822	-200.000	0.015	-0.211
-441.807	-200.000	0.020	-0.148
-440.792	-108.163	-0.183	0.040
-439.778	-102.116	0.053	-0.013
-438.763	-153.061	-0.357	-0.025
-437.749	800.000	-0.105	0.310
-436.734	32.800	-0.192	0.167
-435.719	800.000	0.109	-0.345
-434.705	150.522	0.123	-0.167
-433.690	-64.194	-0.112	-0.046
-432.676	21.485	0.086	0.070
-431.661	-200.000	0.083	0.479
-430.646	311.068	0.354	0.665
-429.632	48.662	-0.379	0.357
-428.617	-66.998	-0.074	-0.029
-427.603	25.519	-0.040	0.033
-426.588	72.850	-0.139	-0.145
-425.573	129.523	0.188	0.242
-424.559	219.997	0.291	0.468
-423.544	-155.286	-0.251	0.016
-422.530	-88.871	-0.050	-0.015
-421.515	-44.040	-0.179	-0.090
-420.500	31.364	0.051	-0.044
-419.486	140.704	0.069	-0.091
-418.471	37.729	-0.101	-0.090
-417.457	73.697	-0.170	0.179
-416.442	-161.223	0.224	-0.012
-415.428	9.258	-0.158	-0.120
-414.413	299.227	-0.130	0.240
-413.398	325.199	-0.065	0.125
-412.384	800.000	0.069	-0.204
-411.369	-200.000	-0.007	0.064
-410.355	-91.339	-0.184	-0.053
-409.340	-28.999	0.140	-0.080
-408.325	445.683	-0.138	-0.305
-407.311	-65.560	0.116	-0.047
-406.296	153.062	0.088	-0.121
-405.282	800.000	0.021	-0.060
-404.267	-96.636	0.079	-0.021
-403.252	800.000	-0.106	0.341
-402.238	-140.828	0.098	-0.010
-401.223	363.917	0.115	-0.232
-400.209	-31.180	-0.427	-0.241
-399.194	68.751	-0.332	0.342
-398.179	800.000	0.016	0.052
-397.165	36.878	-0.026	0.023
-396.150	49.966	-0.150	0.142
-395.136	-200.000	-0.067	-0.360
-394.121	239.343	-0.114	0.191
-393.106	-63.144	-0.302	0.125
-392.092	536.453	0.128	0.304
-391.077	-200.000	0.005	-0.112
-390.063	306.423	-0.185	-0.345
-389.048	-86.529	0.181	0.056
-388.033	-22.886	-0.240	-0.145
-387.019	-30.522	0.206	0.117
-386.004	119.060	-0.281	-0.348
-384.990	426.867	0.133	0.288
-383.975	-116.426	0.119	-0.022
-382.960	60.002	-0.163	0.161
-381.946	-70.983	-0.215	0.081
-380.931	-24.789	-0.181	0.108
-379.917	-2.167	-0.167	-0.117
-378.902	15.799	-0.170	-0.134
-377.888	627.009	0.037	0.093
-376.873	184.503	0.045	0.067
-375.858	87.726	-0.046	-0.051
-374.844	-183.467	-0.228	0.004
-373.829	-150.850	-0.115	0.009
-372.815	57.991	0.127	-0.125
-371.800	185.727	-0.274	-0.408
-370.785	-126.542	-0.079	0.012
-369.771	-200.000	-0.001	0.182
-368.756	-120.027	-0.231	-0.040
-367.742	-125.689	-0.326	-0.049
-366.727	-200.000	0.032	0.304
-365.712	-83.557	0.145	0.047
-364.698	-146.016	0.458	-0.041
-363.683	340.930	0.091	-0.178
-362.669	218.964	0.035	-0.056
-361.654	800.000	0.032	-0.127
-360.639	-67.297	0.269	-0.106
-359.625	574.735	0.166	-0.406
-358.610	119.372	0.304	-0.377
-357.596	-156.885	0.248	-0.015
-356.581	-200.000	0.000	0.028
-355.566	-59.374	-0.209	0.090
-354.552	800.000	0.069	-0.285
-353.537	-101.224	-0.219	0.054
-352.523	74.798	0.194	0.204
-351.508	-200.000	0.017	0.099
-350.493	140.214	0.059	-0.078
-349.479	-200.000	0.010	0.206
-348.464	-4.211	0.375	0.260
-347.450	75.637	0.092	0.098
-346.435	83.847	0.209	0.229
-345.420	800.000	-0.131	0.418
-344.406	-111.891	-0.247	-0.050
-343.391	-200.000	-0.003	-0.176
-342.377	4.066	-0.110	-0.081
-341.362	59.562	-0.120	0.118
-340.348	473.882	0.100	0.226
-339.333	800.000	0.059	0.224
-338.318	432.913	-0.093	-0.202
-337.304	646.543	-0.156	-0.399
-336.289	800.000	-0.079	0.237
-335.275	306.105	0.066	-0.123
-334.260	800.000	0.097	-0.369
-333.245	300.016	-0.078	0.143
-332.231	800.000	-0.021	0.070
-331.216	-200.000	-0.011	-0.239
-330.202	-200.000	0.011	-0.078
-329.187	83.176	0.150	0.163
-328.172	800.000	-0.078	-0.266
-327.158	-200.000	-0.022	-0.104
-326.143	117.493	-0.193	-0.238
-325.129	47.953	-0.218	-0.204
-324.114	-56.633	-0.146	-0.065
-323.099	567.491	-0.084	0.204
-322.085	-156.157	-0.189	-0.012
-321.070	-194.755	0.324	0.003
-320.056	350.540	-0.053	-0.105
-319.041	190.135	-0.102	-0.152
-318.026	800.000	-0.019	0.069
-317.012	-86.780	0.229	-0.070
-315.997	800.000	0.043	0.189
-314.983	89.216	0.223	0.248
-313.968	-174.278	-0.260	0.008
-312.953	-109.040	-0.166	0.035
-311.939	-154.166	0.218	-0.015
-310.924	-113.334	0.363	0.071
-309.910	24.213	0.155	-0.128
-308.895	102.003	-0.187	0.218
-307.880	800.000	-0.064	0.186
-306.866	-174.407	0.056	-0.002
-305.851	88.319	-0.196	0.217
-304.837	149.364	0.203	0.274
-303.822	800.000	-0.070	-0.209
-302.807	-6.038	0.121	-0.083
-301.793	-55.449	-0.139	0.062
-300.778	-94.889	0.123	-0.033
-299.764	48.678	-0.203	0.190
-298.749	-94.320	-0.106	-0.029
-297.735	-98.324	0.201	0.052
-296.720	-3.021	-0.175	0.122
-295.705	-122.908	0.364	-0.059
-294.691	-200.000	0.071	0.453
-293.676	-32.258	-0.079	0.044
-292.662	102.774	0.230	-0.269
-291.647	-26.868	-0.152	-0.089
-290.632	-132.972	0.183	-0.023
-289.618	773.956	0.105	0.285
-288.603	800.000	0.076	0.241
-287.589	73.911	0.135	0.142
-286.574	800.000	-0.017	-0.051
-285.559	-37.524	0.031	0.016
-284.545	-200.000	-0.022	0.216
-283.530	-91.748	0.210	-0.059
-282.516	-103.692	0.123	0.029
-281.501	-130.830	-0.469	-0.063
-280.486	800.000	-0.035	0.125
-279.472	296.970	0.095	-0.175
-278.457	11.478	-0.226	0.173
-277.443	-124.487	-0.125	-0.019
-276.428	800.000	-0.132	0.400
-275.413	-39.967	-0.078	0.040
-274.399	-97.911	0.227	-0.059
-273.384	-65.575	-0.182	0.073
-272.370	800.000	-0.009	-0.035
-271.355	3.526	-0.378	-0.275
-270.340	-200.000	-0.005	-0.153
-269.326	800.000	0.109	0.380
-268.311	-200.000	-0.038	-0.175
-267.297	-105.747	-0.081	-0.018
-266.282	292.126	0.169	-0.307
-265.267	-40.322	-0.190	-0.099
-264.253	-172.134	0.125	0.004
-263.238	18.618	0.068	-0.054
-262.224	-98.825	-0.120	-0.030
-261.209	-46.062	0.327	-0.161
-260.195	67.061	-0.156	-0.158
-259.180	-12.645	0.318	0.207
-258.165	210.737	0.140	-0.219
-257.151	800.000	0.024	-0.101
-256.136	617.854	0.059	-0.146
-255.122	800.000	0.076	-0.300
-254.107	800.000	-0.095	0.275
-253.092	-85.608	0.074	0.023
-252.078	14.093	0.305	0.237
-251.063	615.208	-0.045	0.113
-250.049	650.507	-0.027	0.070
-249.034	-40.530	-0.252	-0.130
-248.019	-81.912	0.078	0.026
-247.005	-147.524	-0.105	0.009
-245.990	100.781	0.067	0.077
-244.976	53.471	0.261	0.250
-243.961	-110.044	-0.157	0.033
-242.946	800.000	0.111	-0.446
-241.932	27.425	0.080	-0.067
-240.917	56.601	0.204	0.198
-239.903	39.041	-0.106	-0.094
-238.888	-88.051	-0.158	-0.047
-237.873	-56.775	-0.165	0.072
-236.859	110.659	-0.130	0.156
-235.844	-0.223	0.254	-0.180
-234.830	-118.635	-0.202	0.036
-233.815	-200.000	-0.022	-0.146
-232.800	561.994	0.033	-0.080
-231.786	-200.000	0.016	0.176
-230.771	800.000	0.021	-0.077
-229.757	800.000	-0.054	0.233
-228.742	800.000	0.047	0.163
-227.727	-27.654	0.169	0.097
-226.713	-123.069	-0.244	0.039
-225.698	93.449	0.132	0.149
-224.684	-104.394	-0.084	0.019
-223.669	-124.453	0.210	-0.033
-222.655	-15.910	0.231	0.147
-221.640	-144.511	-0.048	0.004
-220.625	-68.121	-0.301	-0.117
-219.611	800.000	-0.114	-0.373
-218.596	-156.150	0.245	0.015
-217.582	-113.386	0.347	-0.068
-216.567	-104.723	-0.089	0.020
-215.552	-2.742	-0.077	0.054
-214.538	-138.013	0.132	0.015
-213.523	-62.700	-0.071	-0.029
-212.509	-88.348	-0.137	0.041
-211.494	611.210	0.131	0.327
-210.479	-138.455	0.106	-0.012
-209.465	-200.000	-0.018	0.164
-208.450	-200.000	0.072	0.432
-207.436	787.351	-0.040	-0.111
-206.421	-59.004	-0.155	-0.067
-205.406	72.216	-0.093	-0.097
-204.392	800.000	0.121	-0.356
-203.377	97.469	0.244	-0.278
-202.363	800.000	0.032	0.137
-201.348	-18.930	0.237	0.147
-200.333	31.384	-0.299	-0.255
-199.319	-200.000	-0.020	0.244
-198.304	529.793	-0.125	-0.294
-197.290	48.693	-0.038	0.035
-196.275	83.341	-0.172	0.187
-195.260	-200.000	-0.006	0.092
-194.246	361.996	-0.118	0.236
-193.231	-200.000	-0.025	-0.155
-192.217	-54.089	0.158	0.071
-191.202	180.212	0.208	-0.303
-190.187	48.765	-0.086	0.080
-189.173	62.400	0.200	0.199
-188.158	-200.000	-0.008	-0.209
-187.144	-151.724	0.211	-0.015
-186.129	-91.194	0.341	0.097
-185.114	49.912	0.320	-0.300
-184.100	-200.000	-0.020	-0.150
-183.085	134.817	0.170	0.219
-182.071	386.433	-0.126	-0.258
-181.056	-1.251	-0.115	-0.081
-180.042	325.055	-0.111	0.211
-179.027	800.000	-0.108	-0.379
-178.012	-200.000	-0.007	0.109
-176.998	-200.000	0.014	0.422
-175.983	-200.000	-0.029	0.301
-174.969	-46.793	-0.317	0.154
-173.954	800.000	0.067	-0.204
-172.939	-83.935	-0.015	-0.005
-171.925	800.000	0.027	0.108
-170.910	699.029	-0.023	-0.060
-169.896	-77.012	-0.416	0.144
-168.881	800.000	0.057	-0.229
-167.866	486.408	-0.138	-0.313
-166.852	-134.628	-0.158	-0.019
-165.837	24.777	0.193	-0.159
-164.823	-106.240	0.041	-0.009
-163.808	-37.570	0.154	0.081
-162.793	-39.034	-0.163	-0.085
-161.779	87.433	0.221	-0.242
-160.764	-147.668	0.099	-0.008
-159.750	-21.820	0.110	-0.066
-158.735	149.029	0.071	0.095
-157.720	-57.583	0.232	0.101
-156.706	-124.146	0.054	-0.008
-155.691	800.000	-0.033	0.127
-154.677	-49.624	0.296	-0.140
-153.662	6.085	-0.229	0.168
-152.647	158.793	-0.065	0.090
-151.633	9.530	0.125	-0.094
-150.618	-104.379	0.232	0.053
-149.604	72.701	0.304	0.315
-148.589	-200.000	-0.043	0.245
-147.574	-200.000	-0.011	0.163
-146.560	800.000	-0.085	0.329
-145.545	-96.347	0.278	-0.073
-144.531	-87.217	0.267	-0.080
-143.516	476.410	0.075	-0.169
-142.502	-200.000	0.058	0.257
-141.487	34.778	0.067	-0.058
-140.472	145.105	0.129	-0.171
-139.458	47.808	-0.152	0.140
-138.443	-164.226	-0.344	-0.016
-137.429	-3.018	0.414	-0.287
-136.414	-99.514	0.191	0.048
-135.399	800.000	-0.039	0.158
-134.385	115.277	-0.139	-0.169
-133.370	-42.368	0.221	-0.112
-132.356	-200.000	0.073	-0.417
-131.341	-86.959	-0.110	-0.033
-130.326	39.786	-0.077	0.069
-129.312	-40.918	-0.196	0.101
-128.297	-40.029	0.091	-0.047
-127.283	800.000	0.034	-0.141
-126.268	29.073	0.106	0.089
-125.253	61.128	0.056	-0.055
-124.239	464.178	-0.060	0.133
-123.224	-3.855	0.325	0.224
-122.210	800.000	0.107	0.315
-121.195	335.098	-0.091	0.175
-120.180	-200.000	0.043	0.217
