DTS Sentinel unit serial number:	SN413079Multiplexer serial number:	ORYXHardware model number:	OX4-SRSoftware version number:	ORYX F/W v4.00 Oryx Data Collector v3.7.2.0data status	okinstallation	princeton_trtdifferential loss correction	single-endedforward channel	channel 4reverse channel	N/Adate	2019/09/10time	17:43:11forward acquisition time	60.00reverse acquisition time	0.00gamma	496.2192k internal	0.2296k external	0.2296temperature offset calibration	0.9942default loss term (dB/km)	0.3790temperature slope calibration	1.0000multiplexer offset coefficient	1.0000multiplexer slope coefficient	1.0000fibre end	0.00T internal ref (°C)	37.56T ext. ref 1 (°C)	-0.34T ext. ref 2 (°C)	30.84length (m)	temperature (°C)	Stokes	anti-Stokes-747.200	137.751	0.094	-0.126
-746.185	6.738	0.343	-0.261
-745.171	-64.018	-0.183	-0.076
-744.156	-66.412	-0.212	0.086
-743.142	-157.461	-0.063	0.004
-742.127	706.445	-0.168	0.453
-741.112	256.985	0.142	-0.249
-740.098	800.000	-0.102	0.413
-739.083	-144.730	0.283	0.027
-738.069	800.000	-0.018	-0.054
-737.054	390.787	0.099	0.209
-736.039	-88.260	0.202	-0.062
-735.025	92.019	-0.117	0.134
-734.010	144.358	0.193	-0.264
-732.996	-130.370	-0.378	0.052
-731.981	-200.000	0.034	-0.166
-730.966	-21.956	-0.027	-0.017
-729.952	-165.833	0.143	0.006
-728.937	-120.390	-0.167	0.029
-727.923	-94.480	0.335	0.093
-726.908	93.214	0.189	0.219
-725.894	78.879	-0.119	0.130
-724.879	160.053	0.103	-0.147
-723.864	-200.000	-0.001	-0.197
-722.850	-33.160	0.213	-0.121
-721.835	524.994	-0.094	0.225
-720.821	-92.182	0.235	0.068
-719.806	-104.961	-0.151	-0.035
-718.791	-1.658	-0.117	0.084
-717.777	-169.549	0.146	-0.005
-716.762	295.821	0.125	-0.233
-715.748	211.567	-0.064	0.102
-714.733	30.663	-0.094	0.082
-713.718	-6.451	-0.186	0.129
-712.704	800.000	0.042	-0.167
-711.689	-200.000	0.023	-0.192
-710.675	-200.000	0.011	-0.128
-709.660	504.430	0.089	-0.210
-708.645	-100.568	-0.419	-0.106
-707.631	-12.515	0.170	0.113
-706.616	409.642	-0.093	0.200
-705.602	-107.437	0.492	0.110
-704.587	386.318	0.161	-0.339
-703.572	-54.453	0.237	-0.110
-702.558	800.000	-0.064	-0.263
-701.543	-200.000	0.053	0.243
-700.529	-104.269	0.249	-0.059
-699.514	91.305	-0.088	0.101
-698.499	800.000	-0.093	-0.402
-697.485	43.139	-0.187	-0.174
-696.470	-82.233	-0.241	-0.080
-695.456	800.000	0.037	-0.126
-694.441	232.644	0.186	0.311
-693.426	-140.122	0.221	0.024
-692.412	-200.000	-0.015	0.210
-691.397	152.417	-0.179	0.249
-690.383	-200.000	0.008	0.097
-689.368	-98.842	-0.217	-0.056
-688.354	-37.305	0.198	-0.108
-687.339	-200.000	-0.031	0.226
-686.324	128.213	0.117	0.152
-685.310	351.821	0.030	0.060
-684.295	25.793	0.148	-0.125
-683.281	140.101	-0.036	-0.049
-682.266	323.398	0.151	0.294
-681.251	800.000	0.063	0.243
-680.237	128.515	-0.059	-0.077
-679.222	800.000	0.066	-0.238
-678.208	-51.946	-0.096	0.045
-677.193	-200.000	0.028	0.400
-676.178	-83.877	0.326	-0.106
-675.164	-92.526	-0.258	0.074
-674.149	-127.289	-0.319	0.047
-673.135	-50.405	-0.448	-0.215
-672.120	147.776	-0.205	-0.282
-671.105	-5.563	0.184	0.129
-670.091	36.413	-0.172	0.155
-669.076	383.197	-0.129	0.270
-668.062	-90.577	-0.122	-0.036
-667.047	50.965	-0.110	-0.106
-666.032	165.125	-0.037	0.053
-665.018	-200.000	-0.004	-0.079
-664.003	-200.000	-0.019	-0.317
-662.989	378.892	-0.033	0.070
-661.974	97.015	0.121	0.141
-660.959	582.111	0.101	-0.251
-659.945	-14.686	-0.226	0.148
-658.930	6.929	0.178	-0.135
-657.916	-22.229	-0.177	0.109
-656.901	782.870	-0.037	0.104
-655.886	93.560	0.089	0.102
-654.872	-200.000	0.041	-0.355
-653.857	115.819	-0.198	-0.247
-652.843	-84.870	-0.272	0.087
-651.828	800.000	-0.063	-0.270
-650.814	-86.435	-0.114	-0.036
-649.799	-129.250	-0.069	-0.010
-648.784	316.393	-0.101	-0.193
-647.770	674.721	-0.043	-0.113
-646.755	77.031	0.107	-0.116
-645.741	-200.000	-0.015	-0.091
-644.726	301.057	-0.189	-0.354
-643.711	51.912	-0.167	0.162
-642.697	173.505	-0.129	0.189
-641.682	8.081	0.154	-0.118
-640.668	18.399	0.133	-0.108
-639.653	-7.906	-0.050	-0.034
-638.638	50.602	-0.190	-0.182
-637.624	54.582	0.121	0.118
-636.609	-72.838	0.277	0.104
-635.595	-122.944	0.146	0.024
-634.580	800.000	-0.020	0.070
-633.565	-111.417	0.065	0.014
-632.551	-72.487	0.121	-0.045
-631.536	87.326	-0.128	-0.144
-630.522	83.892	0.217	0.241
-629.507	-200.000	-0.010	-0.145
-628.492	-143.153	0.128	0.013
-627.478	800.000	0.018	-0.068
-626.463	-200.000	-0.006	-0.142
-625.449	-12.758	-0.123	-0.082
-624.434	68.468	-0.144	0.150
-623.419	-200.000	-0.001	-0.345
-622.405	83.454	-0.165	-0.183
-621.390	640.241	0.012	-0.032
-620.376	-19.823	0.234	-0.147
-619.361	5.791	-0.092	0.069
-618.346	-82.901	-0.252	-0.083
-617.332	11.820	-0.092	-0.072
-616.317	68.107	0.244	0.253
-615.303	-200.000	0.002	0.289
-614.288	-4.565	0.129	-0.090
-613.273	-145.469	0.407	-0.037
-612.259	17.337	-0.137	-0.111
-611.244	-6.677	0.069	-0.048
-610.230	-2.223	-0.136	0.097
-609.215	224.037	-0.060	0.098
-608.201	388.368	0.106	-0.224
-607.186	-98.769	-0.019	0.005
-606.171	210.498	-0.089	0.142
-605.157	-120.281	-0.311	-0.054
-604.142	-88.868	-0.063	-0.019
-603.128	-27.645	-0.198	0.117
-602.113	-107.849	-0.368	-0.081
-601.098	-18.428	0.177	0.112
-600.084	-1.032	0.174	0.125
-599.069	-200.000	0.188	0.001
-598.055	-200.000	0.041	-0.203
-597.040	-101.788	0.151	-0.037
-596.025	-53.038	-0.207	-0.097
-595.011	-200.000	0.005	-0.076
-593.996	-109.669	-0.181	-0.039
-592.982	-43.682	-0.181	0.093
-591.967	40.533	-0.132	0.121
-590.952	-200.000	0.019	-0.254
-589.938	331.463	-0.131	0.257
-588.923	548.413	-0.057	0.137
-587.909	313.224	0.114	0.218
-586.894	140.912	0.175	0.235
-585.879	-200.000	-0.005	0.096
-584.865	24.626	0.191	-0.160
-583.850	-159.919	0.340	0.019
-582.836	85.355	-0.308	-0.343
-581.821	-200.000	0.006	0.271
-580.806	-200.000	-0.005	-0.046
-579.792	19.556	0.199	0.162
-578.777	196.171	0.023	0.035
-577.763	682.126	-0.057	0.150
-576.748	91.369	-0.180	0.205
-575.733	654.521	-0.021	-0.054
-574.719	-75.855	-0.076	0.027
-573.704	-104.288	-0.188	-0.044
-572.690	306.811	0.142	-0.269
-571.675	-200.000	-0.039	0.250
-570.661	-180.077	-0.174	0.004
-569.646	-98.654	-0.139	-0.036
-568.631	86.983	-0.136	-0.152
-567.617	297.332	0.067	-0.125
-566.602	52.032	-0.222	0.214
-565.588	167.624	-0.037	0.053
-564.573	-200.000	-0.044	-0.321
-563.558	-48.036	0.098	-0.048
-562.544	-200.000	-0.034	-0.269
-561.529	230.223	-0.137	0.227
-560.515	35.361	0.256	0.228
-559.500	-36.573	-0.082	0.045
-558.485	-19.695	0.160	0.100
-557.471	3.469	-0.124	-0.091
-556.456	-32.256	-0.202	0.114
-555.442	-200.000	0.026	0.252
-554.427	-57.742	0.167	-0.074
-553.412	784.372	-0.027	-0.075
-552.398	29.489	0.236	-0.203
-551.383	-4.230	0.266	-0.187
-550.369	99.661	0.220	0.258
-549.354	156.719	0.206	-0.289
-548.339	-95.643	-0.321	-0.087
-547.325	225.100	0.040	0.065
-546.310	-39.075	0.082	0.043
-545.296	-83.609	-0.109	-0.035
-544.281	29.615	0.052	-0.045
-543.266	-18.213	0.017	-0.011
-542.252	-40.882	-0.117	-0.061
-541.237	800.000	-0.070	-0.236
-540.223	-200.000	0.007	0.205
-539.208	-81.901	0.235	-0.078
-538.193	96.596	-0.124	-0.143
-537.179	-123.899	-0.136	-0.022
-536.164	-73.036	0.102	-0.038
-535.150	592.037	0.140	-0.350
-534.135	697.792	0.130	-0.347
-533.121	-131.745	-0.064	-0.009
-532.106	-200.000	-0.039	0.284
-531.091	-200.000	-0.016	0.124
-530.077	454.665	0.099	0.222
-529.062	-56.043	-0.306	-0.138
-528.048	-200.000	0.019	-0.092
-527.033	-117.990	-0.281	-0.051
-526.018	119.739	-0.186	-0.234
-525.004	241.346	0.118	0.200
-523.989	10.137	0.230	-0.177
-522.975	334.757	-0.066	0.129
-521.960	16.461	0.133	0.106
-520.945	415.960	-0.047	-0.103
-519.931	602.373	0.094	0.237
-518.916	-55.864	0.183	0.083
-517.902	-200.000	-0.003	0.274
-516.887	-30.527	0.090	-0.051
-515.872	228.430	-0.253	-0.417
-514.858	-200.000	0.013	-0.096
-513.843	66.454	0.046	-0.047
-512.829	-51.582	-0.168	0.079
-511.814	-63.336	-0.152	-0.063
-510.799	800.000	-0.019	-0.056
-509.785	-8.040	-0.410	0.280
-508.770	93.732	0.146	-0.167
-507.756	-120.006	-0.105	0.018
-506.741	-11.529	0.056	0.037
-505.726	-116.533	-0.092	0.017
-504.712	800.000	-0.003	0.010
-503.697	-18.420	-0.176	0.111
-502.683	-200.000	0.005	0.028
-501.668	800.000	0.044	-0.153
-500.653	-150.636	0.233	-0.018
-499.639	800.000	-0.093	-0.269
-498.624	-42.515	0.105	0.054
-497.610	-41.135	0.131	0.069
-496.595	101.756	0.106	-0.125
-495.581	-108.858	-0.363	-0.078
-494.566	209.678	0.196	0.312
-493.551	27.014	-0.210	0.178
-492.537	-197.054	0.149	-0.001
-491.522	800.000	0.066	-0.247
-490.508	27.683	-0.137	-0.116
-489.493	-43.988	-0.039	-0.020
-488.478	-200.000	-0.420	-0.001
-487.464	800.000	-0.096	-0.415
-486.449	610.340	-0.101	-0.256
-485.435	58.064	0.110	-0.109
-484.420	-200.000	-0.034	-0.431
-483.405	272.216	-0.101	0.180
-482.391	720.173	-0.065	0.174
-481.376	-116.839	-0.105	-0.019
-480.362	231.989	0.176	-0.292
-479.347	-5.780	-0.188	0.130
-478.332	-200.000	-0.050	0.292
-477.318	192.820	-0.046	-0.071
-476.303	34.427	0.066	0.058
-475.289	-200.000	-0.010	0.120
-474.274	800.000	-0.028	-0.088
-473.259	-200.000	0.005	0.129
-472.245	44.625	-0.306	0.284
-471.230	-61.445	0.195	0.083
-470.216	42.598	-0.114	0.105
-469.201	24.567	0.137	0.115
-468.186	-200.000	-0.044	0.326
-467.172	179.519	0.175	0.259
-466.157	-31.163	-0.197	-0.112
-465.143	-83.676	0.253	-0.082
-464.128	240.314	0.104	-0.175
-463.113	-200.000	-0.009	-0.222
-462.099	137.310	0.224	0.296
-461.084	-60.086	0.168	0.072
-460.070	800.000	0.062	-0.212
-459.055	96.779	0.243	-0.281
-458.040	-49.378	-0.148	-0.072
-457.026	-69.345	0.304	0.118
-456.011	152.517	-0.086	0.119
-454.997	-22.285	0.233	-0.143
-453.982	800.000	-0.062	-0.244
-452.968	-200.000	0.009	-0.182
-451.953	54.667	-0.153	0.149
-450.938	-200.000	-0.022	0.130
-449.924	-86.179	-0.121	-0.038
-448.909	288.523	-0.043	0.078
-447.895	-200.000	0.004	-0.218
-446.880	-200.000	0.008	0.091
-445.865	-23.750	-0.305	0.184
-444.851	190.075	-0.141	-0.214
-443.836	-76.136	-0.264	0.094
-442.822	-67.004	-0.281	-0.112
-441.807	-200.000	0.068	-0.447
-440.792	800.000	-0.076	0.289
-439.778	414.797	0.039	0.084
-438.763	-148.522	-0.246	0.020
-437.749	26.021	-0.095	0.080
-436.734	-200.000	0.025	0.193
-435.719	-200.000	0.030	-0.155
-434.705	480.237	-0.104	0.237
-433.690	-200.000	0.002	-0.102
-432.676	-82.959	-0.339	-0.110
-431.661	800.000	-0.054	0.193
-430.646	214.580	0.027	-0.042
-429.632	27.036	0.194	-0.164
-428.617	103.563	0.326	0.386
-427.603	-160.919	0.350	-0.019
-426.588	-60.725	0.181	0.077
-425.573	43.881	-0.080	-0.073
-424.559	-42.545	-0.230	-0.118
-423.544	54.140	0.400	-0.388
-422.530	68.892	-0.089	-0.092
-421.515	-200.000	-0.035	0.280
-420.500	-200.000	-0.020	-0.099
-419.486	800.000	-0.095	0.416
-418.471	-200.000	-0.015	-0.066
-417.457	-0.027	-0.072	-0.052
-416.442	-200.000	0.046	-0.215
-415.428	101.880	0.021	-0.024
-414.413	-113.369	-0.224	0.044
-413.398	22.897	-0.172	-0.142
-412.384	-199.731	-0.371	-0.002
-411.369	625.563	0.067	0.171
-410.355	63.778	-0.011	0.011
-409.340	-18.499	-0.337	-0.212
-408.325	-200.000	0.016	-0.275
-407.311	-200.000	0.050	-0.296
-406.296	6.430	-0.200	-0.150
-405.282	-183.219	-0.188	-0.003
-404.267	334.898	0.077	0.151
-403.252	257.786	0.172	-0.299
-402.238	-68.669	0.155	-0.060
-401.223	-112.641	-0.226	0.045
-400.209	-19.133	0.150	-0.094
-399.194	-186.598	-0.389	0.006
-398.179	-200.000	-0.018	-0.315
-397.165	-99.178	-0.012	0.003
-396.150	-111.444	-0.489	-0.100
-395.136	-200.000	0.001	-0.267
-394.121	-76.376	0.169	0.060
-393.106	800.000	-0.051	-0.207
-392.092	-39.393	-0.121	-0.064
-391.077	-182.026	0.121	-0.002
-390.063	-160.108	-0.263	0.014
-389.048	-200.000	-0.010	0.231
-388.033	800.000	0.064	0.277
-387.019	-78.525	-0.023	-0.008
-386.004	20.835	-0.101	-0.083
-384.990	129.292	0.242	0.311
-383.975	39.429	0.211	0.190
-382.960	-92.097	-0.081	-0.023
-381.946	-42.219	-0.098	-0.050
-380.931	320.213	-0.066	0.126
-379.917	-28.460	-0.105	0.061
-378.902	-154.374	0.152	-0.010
-377.888	212.753	-0.054	-0.086
-376.873	31.508	0.119	-0.103
-375.858	19.940	0.139	-0.113
-374.844	-44.369	0.105	0.053
-373.829	117.990	0.346	0.429
-372.815	-55.888	0.254	-0.114
-371.800	-110.703	-0.356	0.074
-370.785	44.017	0.135	-0.125
-369.771	15.082	0.145	0.114
-368.756	800.000	0.065	0.208
-367.742	550.691	-0.078	0.190
-366.727	-200.000	-0.012	-0.200
-365.712	800.000	-0.063	0.219
-364.698	-71.294	0.353	-0.133
-363.683	130.143	-0.236	-0.304
-362.669	-53.014	-0.316	-0.146
-361.654	105.499	-0.078	-0.093
-360.639	800.000	-0.049	-0.147
-359.625	115.792	0.119	0.146
-358.610	-152.068	0.116	0.009
-357.596	36.490	0.208	-0.184
-356.581	80.057	-0.136	0.147
-355.566	-149.914	-0.166	0.013
-354.552	800.000	-0.045	-0.154
-353.537	-200.000	0.014	0.262
-352.523	730.229	0.020	0.054
-351.508	-48.262	0.153	0.074
-350.493	11.296	0.327	0.252
-349.479	-103.200	0.056	-0.013
-348.464	243.879	0.210	0.355
-347.450	223.965	-0.215	-0.349
-346.435	-43.224	-0.273	-0.139
-345.420	707.084	0.156	0.413
-344.406	-21.825	-0.319	0.195
-343.391	-62.795	-0.096	-0.040
-342.377	-81.878	0.418	-0.138
-341.362	-156.988	-0.181	0.011
-340.348	110.267	0.167	0.202
-339.333	800.000	0.018	-0.072
-338.318	203.435	-0.089	0.138
-337.304	483.919	0.048	-0.109
-336.289	-69.743	-0.048	-0.018
-335.275	800.000	-0.043	-0.139
-334.260	-17.950	-0.213	-0.134
-333.245	-159.557	0.441	0.025
-332.231	-113.426	-0.169	-0.033
-331.216	53.308	-0.162	0.156
-330.202	292.446	-0.137	0.250
-329.187	-0.585	0.299	0.213
-328.172	404.252	0.026	0.056
-327.158	396.528	-0.056	-0.117
-326.143	73.728	-0.096	-0.101
-325.129	800.000	-0.020	-0.059
-324.114	-155.382	-0.299	-0.020
-323.099	800.000	0.026	-0.074
-322.085	-200.000	0.027	-0.143
-321.070	800.000	0.021	0.062
-320.056	800.000	-0.029	0.114
-319.041	266.152	0.086	0.151
-318.026	-200.000	-0.002	0.357
-317.012	524.855	0.078	-0.183
-315.997	-149.922	-0.326	-0.026
-314.983	-139.998	0.036	-0.004
-313.968	-54.692	0.123	0.056
-312.953	15.834	-0.077	-0.061
-311.939	-66.480	0.344	-0.137
-310.924	174.567	-0.268	0.390
-309.910	-91.395	-0.146	0.042
-308.895	-200.000	-0.023	0.105
-307.880	20.082	0.171	0.139
-306.866	123.250	0.106	-0.134
-305.851	777.784	-0.149	-0.409
-304.837	-110.481	0.291	-0.061
-303.822	738.175	-0.102	0.274
-302.807	3.973	0.105	0.077
-301.793	-80.935	0.255	0.085
-300.778	800.000	0.077	-0.259
-299.764	16.282	0.144	0.114
-298.749	-200.000	0.054	0.419
-297.735	5.355	0.097	0.072
-296.720	201.311	-0.223	0.345
-295.705	-80.756	0.111	0.037
-294.691	-92.506	0.345	-0.097
-293.676	-17.570	0.308	-0.195
-292.662	800.000	-0.039	0.146
-291.647	76.814	0.222	0.236
-290.632	95.914	0.216	-0.247
-289.618	45.432	0.246	-0.228
-288.603	-27.644	0.261	0.152
-287.589	-200.000	0.001	-0.084
-286.574	115.716	0.079	0.097
-285.559	-200.000	0.054	0.441
-284.545	-84.109	0.134	-0.043
-283.530	119.033	-0.169	0.210
-282.516	-71.850	-0.401	-0.150
-281.501	62.486	-0.216	-0.216
-280.486	175.493	-0.049	-0.071
-279.472	-151.262	-0.242	-0.018
-278.457	39.491	0.122	-0.109
-277.443	699.383	0.039	-0.103
-276.428	49.133	0.151	0.143
-275.413	64.362	-0.048	-0.049
-274.399	800.000	-0.050	0.214
-273.384	437.195	-0.161	-0.351
-272.370	-73.727	0.445	0.162
-271.355	504.311	-0.043	-0.101
-270.340	800.000	-0.017	-0.063
-269.326	-74.165	0.263	0.095
-268.311	800.000	-0.053	-0.164
-267.297	143.197	0.171	0.228
-266.282	136.638	0.156	-0.204
-265.267	137.385	0.144	0.189
-264.253	248.083	0.105	0.178
-263.238	-200.000	0.038	0.200
-262.224	112.700	-0.267	0.325
-261.209	-146.743	-0.042	-0.004
-260.195	77.748	-0.121	-0.130
-259.180	800.000	-0.036	0.138
-258.165	132.501	-0.109	-0.141
-257.151	121.031	-0.163	0.203
-256.136	463.086	0.143	-0.321
-255.122	-192.572	-0.312	-0.003
-254.107	216.030	-0.157	0.250
-253.092	789.817	-0.046	-0.127
-252.078	60.326	0.241	0.239
-251.063	-200.000	-0.046	-0.463
-250.049	156.622	0.162	0.224
-249.034	-45.614	0.140	-0.069
-248.019	-200.000	0.034	-0.442
-247.005	-200.000	-0.004	-0.056
-245.990	-119.243	0.411	-0.072
-244.976	800.000	-0.068	-0.227
-243.961	-18.813	-0.228	-0.142
-242.946	542.503	-0.077	-0.183
-241.932	-107.983	-0.298	-0.065
-240.917	125.989	-0.046	0.058
-239.903	46.304	-0.145	0.135
-238.888	74.983	0.139	0.146
-237.873	36.213	0.142	0.125
-236.859	-200.000	0.041	-0.228
-235.844	-37.544	-0.192	0.102
-234.830	-200.000	-0.038	0.173
-233.815	-127.473	-0.174	0.025
-232.800	-200.000	0.012	-0.332
-231.786	650.582	0.056	-0.144
-230.771	-200.000	0.039	0.247
-229.757	-200.000	0.054	0.292
-228.742	227.328	-0.090	0.146
-227.727	48.358	-0.207	-0.194
-226.713	277.734	0.135	0.240
-225.698	242.809	0.022	-0.037
-224.684	712.452	0.093	-0.247
-223.669	163.878	0.130	-0.184
-222.655	240.503	0.195	0.326
-221.640	-200.000	-0.016	0.155
-220.625	16.760	0.101	-0.080
-219.611	-79.446	0.152	0.051
-218.596	800.000	0.073	0.246
-217.582	-200.000	0.000	-0.326
-216.567	-14.603	0.405	-0.261
-215.552	69.373	0.233	-0.240
-214.538	194.185	0.111	0.168
-213.523	-57.031	0.332	0.146
-212.509	163.628	-0.275	-0.387
-211.494	127.250	-0.059	-0.075
-210.479	-108.952	0.095	0.020
-209.465	-200.000	0.013	0.250
-208.450	-200.000	0.003	-0.108
-207.436	349.073	0.195	0.385
-206.421	-119.121	-0.272	-0.048
-205.406	-150.296	-0.242	0.019
-204.392	-82.954	0.099	0.032
-203.377	457.688	0.058	0.128
-202.363	0.539	0.314	0.225
-201.348	26.141	0.107	-0.089
-200.333	-91.858	-0.232	0.066
-199.319	3.260	-0.201	0.146
-198.304	139.356	0.246	-0.324
-197.290	6.178	0.066	-0.049
-196.275	79.279	0.282	0.302
-195.260	-200.000	0.023	0.146
-194.246	800.000	-0.015	-0.063
-193.231	-118.006	0.244	-0.044
-192.217	-80.230	-0.087	0.029
-191.202	-200.000	-0.034	0.331
-190.187	43.140	0.270	0.246
-189.173	-154.121	0.142	-0.010
-188.158	708.420	-0.099	0.261
-187.144	265.695	0.036	0.063
-186.129	-75.772	-0.227	0.080
-185.114	-150.910	0.282	-0.021
-184.100	-62.530	0.220	0.091
-183.085	800.000	-0.102	-0.290
-182.071	255.071	-0.035	-0.060
-181.056	-79.152	-0.145	-0.049
-180.042	-92.322	0.260	-0.073
-179.027	-68.743	0.171	-0.066
-178.012	-39.862	-0.186	-0.097
-176.998	-200.000	0.010	-0.121
-175.983	-114.683	-0.211	0.040
-174.969	0.134	0.085	0.061
-173.954	-200.000	-0.007	-0.263
-172.939	-63.073	-0.398	0.164
-171.925	800.000	-0.050	-0.147
-170.910	-200.000	-0.047	-0.271
-169.896	39.822	-0.035	0.032
-168.881	-23.299	0.109	0.066
-167.866	16.568	0.473	0.374
-166.852	-12.290	0.292	-0.191
-165.837	457.419	-0.092	-0.205
-164.823	326.098	0.021	-0.041
-163.808	115.536	0.226	0.276
-162.793	21.949	-0.222	0.181
-161.779	-145.414	-0.418	-0.038
-160.764	430.933	-0.086	0.187
-159.750	-112.889	-0.231	0.046
-158.735	65.972	0.028	0.028
-157.720	3.254	0.378	0.275
-156.706	800.000	0.031	-0.097
-155.691	-200.000	-0.015	0.099
-154.677	157.792	-0.184	-0.255
-153.662	114.733	-0.192	-0.234
-152.647	34.002	-0.213	0.185
-151.633	-7.832	-0.156	0.105
-150.618	-70.842	0.233	-0.088
-149.604	10.134	0.185	-0.141
-148.589	-200.000	-0.004	0.218
-147.574	467.170	-0.144	0.323
-146.560	-200.000	0.013	-0.432
-145.545	800.000	0.105	-0.298
-144.531	113.602	0.173	-0.209
-143.516	-200.000	-0.036	-0.317
-142.502	-89.799	0.068	-0.020
-141.487	169.322	0.072	0.103
-140.472	471.466	0.131	-0.295
-139.458	19.886	-0.243	0.195
-138.443	800.000	-0.032	0.091
-137.429	-125.551	-0.131	-0.020
-136.414	105.511	0.138	0.163
-135.399	28.457	-0.264	-0.223
-134.385	467.571	-0.099	0.222
-133.370	-107.484	-0.029	0.006
-132.356	800.000	-0.048	0.150
-131.341	-90.632	0.043	-0.012
-130.326	-200.000	-0.004	0.218
-129.312	-34.917	0.248	-0.135
-128.297	800.000	0.089	0.279
-127.283	-112.050	-0.116	0.023
-126.268	4.894	-0.372	-0.273
-125.253	-148.309	0.492	0.040
-124.239	-200.000	0.009	-0.066
-123.224	-45.682	0.192	-0.095
-122.210	-105.698	0.347	0.078
-121.195	-200.000	-0.012	0.071
