DTS Sentinel unit serial number:	SN413079Multiplexer serial number:	ORYXHardware model number:	OX4-SRSoftware version number:	ORYX F/W v4.00 Oryx Data Collector v3.7.2.0data status	okinstallation	princeton_trtdifferential loss correction	single-endedforward channel	channel 4reverse channel	N/Adate	2019/09/11time	11:43:11forward acquisition time	60.00reverse acquisition time	0.00gamma	496.2192k internal	0.2290k external	0.2290temperature offset calibration	0.9967default loss term (dB/km)	0.3790temperature slope calibration	1.0000multiplexer offset coefficient	1.0000multiplexer slope coefficient	1.0000fibre end	0.00T internal ref (°C)	38.56T ext. ref 1 (°C)	0.18T ext. ref 2 (°C)	36.31length (m)	temperature (°C)	Stokes	anti-Stokes-747.200	141.328	-0.016	0.022
-746.185	-200.000	-0.038	-0.184
-745.171	125.343	0.127	-0.164
-744.156	800.000	0.061	0.197
-743.142	-112.049	-0.196	-0.040
-742.127	794.179	-0.034	0.095
-741.112	-149.037	-0.446	0.037
-740.098	14.311	0.170	-0.136
-739.083	800.000	0.077	0.227
-738.069	-50.667	0.138	-0.067
-737.054	-200.000	0.021	-0.227
-736.039	-200.000	0.007	0.134
-735.025	-200.000	0.054	0.274
-734.010	-111.050	0.173	-0.036
-732.996	92.203	-0.217	0.250
-731.981	-147.913	-0.201	0.017
-730.966	35.305	0.210	-0.188
-729.952	-200.000	-0.046	-0.346
-728.937	-200.000	-0.014	-0.220
-727.923	604.718	0.155	-0.396
-726.908	-41.104	-0.101	0.053
-725.894	-200.000	-0.110	-0.000
-724.879	208.015	0.161	-0.257
-723.864	2.517	0.101	-0.075
-722.850	-12.700	0.060	-0.040
-721.835	-67.961	-0.153	-0.061
-720.821	378.742	-0.017	-0.035
-719.806	69.976	-0.187	-0.197
-718.791	-44.591	-0.205	0.105
-717.777	161.845	0.098	-0.140
-716.762	-114.747	-0.150	-0.029
-715.748	-48.688	-0.178	0.088
-714.733	-51.788	-0.252	-0.120
-713.718	322.862	0.103	0.200
-712.704	-9.865	-0.202	-0.137
-711.689	180.122	-0.061	0.091
-710.675	149.008	-0.074	-0.102
-709.660	1.190	0.075	-0.055
-708.645	-111.428	-0.262	0.055
-707.631	-200.000	-0.004	-0.281
-706.616	-200.000	0.038	0.342
-705.602	-200.000	0.021	-0.111
-704.587	-15.151	0.170	0.111
-703.572	-122.824	0.274	0.045
-702.558	-189.250	0.253	0.003
-701.543	-200.000	-0.004	-0.091
-700.529	224.126	0.055	0.091
-699.514	61.424	-0.199	0.202
-698.499	149.999	-0.154	-0.213
-697.485	79.408	0.089	-0.098
-696.470	170.570	-0.082	-0.121
-695.456	10.675	0.127	-0.099
-694.441	-145.282	-0.145	-0.013
-693.426	-67.394	0.232	0.093
-692.412	-200.000	0.001	0.047
-691.397	250.811	-0.192	0.334
-690.383	164.601	-0.023	0.033
-689.368	-3.449	0.121	0.086
-688.354	65.979	0.080	0.083
-687.339	-152.075	-0.502	-0.037
-686.324	130.962	-0.069	0.090
-685.310	-65.055	-0.231	-0.095
-684.295	118.722	0.180	0.227
-683.281	-77.154	0.280	-0.100
-682.266	36.183	-0.131	0.118
-681.251	800.000	-0.030	-0.114
-680.237	-200.000	0.011	-0.288
-679.222	800.000	0.069	-0.292
-678.208	800.000	-0.116	-0.425
-677.193	2.437	-0.312	-0.231
-676.178	67.214	-0.371	0.387
-675.164	162.147	0.134	-0.192
-674.149	-99.823	0.203	0.052
-673.135	225.831	-0.043	-0.072
-672.120	800.000	-0.110	0.350
-671.105	281.307	-0.106	-0.194
-670.091	-55.410	0.270	-0.124
-669.076	-83.871	0.147	0.048
-668.062	-84.553	0.069	-0.022
-667.047	-200.000	0.014	-0.220
-666.032	-178.680	-0.200	0.005
-665.018	260.578	-0.053	0.094
-664.003	800.000	0.021	0.066
-662.989	299.137	-0.252	0.474
-661.974	800.000	0.017	0.067
-660.959	-148.019	-0.229	-0.019
-659.945	-17.655	-0.124	0.080
-658.930	-136.633	-0.075	0.009
-657.916	711.414	-0.132	0.357
-656.901	-78.222	0.077	0.027
-655.886	-41.055	0.049	-0.026
-654.872	-98.197	-0.377	-0.099
-653.857	-5.992	-0.033	-0.023
-652.843	-130.803	-0.069	0.009
-651.828	-169.788	-0.160	0.006
-650.814	111.958	-0.073	-0.090
-649.799	49.462	0.050	-0.048
-648.784	-200.000	0.008	0.079
-647.770	-200.000	0.012	0.125
-646.755	260.128	-0.069	0.121
-645.741	16.947	0.147	0.119
-644.726	-20.862	0.133	-0.083
-643.711	-96.030	0.293	0.080
-642.697	-56.168	-0.209	0.095
-641.682	-200.000	-0.063	-0.295
-640.668	800.000	-0.082	-0.254
-639.653	67.286	0.104	-0.109
-638.638	51.798	-0.083	-0.080
-637.624	-200.000	0.025	-0.256
-636.609	800.000	-0.040	0.134
-635.595	753.419	-0.164	-0.453
-634.580	-174.662	-0.266	0.008
-633.565	-163.964	-0.217	0.010
-632.551	55.018	0.351	0.346
-631.536	-136.158	-0.105	-0.013
-630.522	-119.039	0.224	-0.040
-629.507	111.134	-0.282	0.347
-628.492	58.080	-0.196	0.196
-627.478	38.735	-0.421	0.384
-626.463	-46.291	-0.140	-0.070
-625.449	-200.000	-0.007	-0.538
-624.434	417.718	-0.067	-0.145
-623.419	365.480	-0.125	0.257
-622.405	-126.891	-0.155	-0.023
-621.390	-121.081	0.204	-0.035
-620.376	17.492	0.302	-0.245
-619.361	-3.353	-0.038	0.027
-618.346	43.310	-0.067	0.063
-617.332	-200.000	0.037	-0.272
-616.317	-162.419	-0.299	-0.015
-615.303	-84.875	0.092	-0.029
-614.288	800.000	0.106	-0.460
-613.273	-66.143	0.191	0.078
-612.259	-143.916	-0.303	0.029
-611.244	-200.000	0.019	-0.103
-610.230	-63.292	-0.371	0.156
-609.215	16.855	0.171	-0.138
-608.201	163.498	0.057	0.082
-607.186	-35.563	0.251	-0.139
-606.171	800.000	-0.044	-0.161
-605.157	800.000	-0.084	-0.267
-604.142	-121.396	0.328	0.056
-603.128	-104.111	0.204	-0.048
-602.113	6.791	-0.307	-0.233
-601.098	-39.109	-0.167	-0.089
-600.084	-200.000	0.039	-0.253
-599.069	-35.703	-0.323	0.179
-598.055	24.120	0.207	0.174
-597.040	-11.829	-0.121	0.081
-596.025	-200.000	0.013	-0.143
-595.011	-104.682	-0.113	-0.027
-593.996	800.000	-0.054	-0.207
-592.982	578.155	0.199	0.495
-591.967	-102.831	0.176	-0.043
-590.952	107.260	-0.062	-0.075
-589.938	287.743	0.124	-0.229
-588.923	-45.239	-0.184	-0.093
-587.909	-42.881	-0.236	-0.122
-586.894	-54.309	0.062	-0.029
-585.879	-200.000	0.003	0.250
-584.865	-200.000	-0.037	0.274
-583.850	157.103	-0.117	0.165
-582.836	-200.000	0.008	0.043
-581.821	63.420	0.204	0.209
-580.806	184.896	0.102	0.154
-579.792	-200.000	-0.003	0.027
-578.777	800.000	-0.051	-0.202
-577.763	-25.873	-0.185	0.111
-576.748	-200.000	0.006	-0.430
-575.733	-154.362	0.076	0.005
-574.719	-200.000	-0.004	-0.028
-573.704	-200.000	-0.003	-0.151
-572.690	50.995	-0.164	-0.158
-571.675	-20.438	-0.058	-0.036
-570.661	-13.522	0.083	-0.055
-569.646	274.098	0.062	-0.112
-568.631	-30.205	-0.133	-0.077
-567.617	652.913	-0.042	-0.110
-566.602	26.738	0.360	-0.307
-565.588	-200.000	-0.021	-0.231
-564.573	58.067	-0.075	0.074
-563.558	170.913	-0.108	-0.157
-562.544	-117.528	0.308	-0.057
-561.529	-200.000	0.036	-0.214
-560.515	-84.085	0.458	0.148
-559.500	-200.000	-0.034	-0.225
-558.485	-168.281	-0.292	-0.011
-557.471	-200.000	0.042	0.277
-556.456	-91.859	0.452	0.131
-555.442	92.202	0.115	0.132
-554.427	-84.429	-0.287	-0.092
-553.412	800.000	-0.060	-0.218
-552.398	-111.789	-0.199	0.041
-551.383	296.897	0.141	-0.263
-550.369	-169.813	-0.030	-0.001
-549.354	-90.396	-0.190	0.056
-548.339	28.200	0.289	-0.248
-547.325	800.000	0.104	-0.319
-546.310	560.368	0.094	-0.230
-545.296	-200.000	-0.038	0.183
-544.281	-31.546	-0.218	0.125
-543.266	-33.444	0.262	0.147
-542.252	43.850	0.161	0.150
-541.237	549.458	0.122	-0.297
-540.223	124.927	-0.092	0.118
-539.208	42.337	-0.100	-0.092
-538.193	-23.576	0.334	0.204
-537.179	499.327	0.133	0.313
-536.164	-60.125	-0.190	0.082
-535.150	65.885	-0.282	0.291
-534.135	-200.000	-0.001	0.098
-533.121	-77.922	-0.215	0.075
-532.106	104.721	-0.399	0.477
-531.091	40.361	0.253	0.231
-530.077	-69.242	-0.109	-0.043
-529.062	311.457	0.041	0.079
-528.048	78.646	0.006	-0.007
-527.033	46.112	-0.191	-0.179
-526.018	284.048	0.183	0.334
-525.004	340.736	0.120	-0.239
-523.989	-74.478	0.235	-0.086
-522.975	-102.644	-0.293	0.071
-521.960	74.850	0.126	0.135
-520.945	-39.207	-0.238	-0.127
-519.931	146.992	0.081	-0.111
-518.916	117.705	0.042	-0.052
-517.902	284.191	0.084	-0.153
-516.887	-74.249	0.281	0.103
-515.872	-126.957	0.104	0.016
-514.858	-17.683	-0.075	-0.048
-513.843	-176.621	-0.019	-0.000
-512.829	26.738	0.190	0.162
-511.814	117.791	-0.094	-0.118
-510.799	114.879	0.161	0.199
-509.785	-138.919	0.324	-0.036
-508.770	-200.000	0.022	0.134
-507.756	800.000	-0.067	0.240
-506.741	-117.355	-0.095	0.017
-505.726	48.389	0.158	0.150
-504.712	57.886	0.128	-0.128
-503.697	-25.725	-0.041	0.025
-502.683	800.000	0.081	-0.334
-501.668	34.178	0.225	0.199
-500.653	199.263	0.248	0.386
-499.639	182.685	0.143	0.213
-498.624	113.040	-0.118	0.146
-497.610	-200.000	0.030	0.212
-496.595	-139.687	0.150	0.016
-495.581	14.265	-0.122	0.097
-494.566	38.334	-0.136	0.123
-493.551	337.249	-0.023	-0.046
-492.537	200.739	-0.130	0.203
-491.522	-99.717	0.346	-0.088
-490.508	-22.856	-0.222	-0.136
-489.493	-200.000	-0.021	0.095
-488.478	-3.817	-0.170	-0.120
-487.464	-115.986	-0.077	0.014
-486.449	17.340	-0.276	-0.223
-485.435	-58.527	0.136	0.060
-484.420	-66.300	0.096	0.039
-483.405	-140.910	-0.377	-0.039
-482.391	-47.315	-0.227	-0.112
-481.376	75.831	0.368	-0.395
-480.362	-13.235	-0.342	-0.225
-479.347	-154.356	-0.205	-0.014
-478.332	-77.569	0.408	-0.143
-477.318	-200.000	0.014	0.195
-476.303	800.000	0.062	0.220
-475.289	162.045	-0.227	0.323
-474.274	356.461	0.131	-0.265
-473.259	-200.000	0.001	0.061
-472.245	308.856	-0.126	-0.239
-471.230	-176.758	0.151	-0.004
-470.216	-139.333	0.343	-0.037
-469.201	-138.523	-0.579	-0.065
-468.186	2.742	0.080	-0.059
-467.172	173.168	0.279	-0.407
-466.157	-200.000	0.027	-0.193
-465.143	-11.688	-0.132	0.088
-464.128	-161.846	-0.081	-0.004
-463.113	-200.000	-0.004	-0.129
-462.099	800.000	0.081	-0.248
-461.084	107.890	0.124	-0.149
-460.070	-200.000	0.099	0.516
-459.055	-88.726	0.172	0.052
-458.040	-32.269	-0.128	-0.072
-457.026	-131.026	-0.083	0.011
-456.011	-200.000	0.023	0.103
-454.997	800.000	-0.063	-0.236
-453.982	-200.000	-0.076	0.430
-452.968	-200.000	0.004	0.251
-451.953	-200.000	-0.014	0.379
-450.938	165.443	-0.149	-0.213
-449.924	-5.953	0.199	0.138
-448.909	-46.811	-0.174	-0.086
-447.895	-127.025	-0.183	-0.027
-446.880	92.582	0.179	0.204
-445.865	238.808	0.007	0.011
-444.851	-200.000	-0.003	0.126
-443.836	-115.203	-0.187	-0.036
-442.822	800.000	0.052	-0.223
-441.807	-85.717	-0.104	-0.033
-440.792	593.600	0.064	0.160
-439.778	800.000	-0.041	-0.179
-438.763	20.786	0.218	-0.179
-437.749	800.000	0.053	0.230
-436.734	-200.000	-0.007	-0.294
-435.719	374.137	0.087	0.179
-434.705	5.420	-0.265	0.198
-433.690	-23.813	0.254	-0.154
-432.676	696.388	-0.096	0.255
-431.661	-70.527	0.213	0.082
-430.646	-6.563	-0.181	0.125
-429.632	-43.175	0.249	0.128
-428.617	-113.798	-0.054	-0.011
-427.603	-35.175	0.150	0.083
-426.588	-108.344	0.259	-0.057
-425.573	-153.954	-0.170	0.012
-424.559	-186.537	-0.150	0.002
-423.544	-96.311	-0.313	0.084
-422.530	-111.301	-0.115	0.024
-421.515	-200.000	0.052	-0.232
-420.500	-54.277	-0.231	0.106
-419.486	-2.668	0.300	0.212
-418.471	97.504	-0.072	-0.084
-417.457	-15.294	0.259	-0.168
-416.442	-139.854	0.100	-0.011
-415.428	-200.000	0.152	-0.000
-414.413	-40.495	0.121	-0.064
-413.398	800.000	-0.013	0.038
-412.384	-118.324	0.330	-0.059
-411.369	-200.000	-0.015	0.376
-410.355	-200.000	-0.019	0.126
-409.340	219.539	0.229	-0.371
-408.325	800.000	0.064	-0.266
-407.311	-200.000	0.016	-0.208
-406.296	127.698	-0.217	0.279
-405.282	-200.000	-0.007	-0.091
-404.267	96.222	-0.223	0.257
-403.252	-124.387	-0.157	0.025
-402.238	800.000	-0.078	-0.285
-401.223	134.846	-0.105	-0.138
-400.209	-24.492	0.061	0.037
-399.194	-174.790	-0.275	-0.008
-398.179	800.000	0.048	0.186
-397.165	-20.229	0.099	-0.062
-396.150	-200.000	-0.066	-0.308
-395.136	800.000	0.025	-0.104
-394.121	22.438	-0.262	0.216
-393.106	-186.710	-0.135	-0.002
-392.092	-200.000	0.019	-0.236
-391.077	-200.000	0.091	-0.450
-390.063	123.425	0.082	-0.104
-389.048	-176.282	-0.185	-0.005
-388.033	-200.000	-0.005	0.394
-387.019	-49.217	0.111	-0.054
-386.004	13.975	-0.109	-0.086
-384.990	800.000	-0.047	0.199
-383.975	-77.335	-0.057	0.020
-382.960	-55.071	0.114	0.052
-381.946	304.126	-0.143	0.269
-380.931	-200.000	0.048	0.234
-379.917	147.452	0.064	-0.087
-378.902	-51.141	-0.352	0.167
-377.888	173.518	0.178	-0.259
-376.873	-101.214	0.475	0.117
-375.858	14.917	0.271	0.214
-374.844	-78.560	-0.247	-0.085
-373.829	435.894	0.256	-0.562
-372.815	460.038	-0.067	-0.151
-371.800	367.757	-0.085	0.173
-370.785	70.255	-0.220	0.229
-369.771	167.813	0.034	-0.048
-368.756	800.000	-0.032	0.103
-367.742	-100.307	0.313	0.078
-366.727	7.786	0.194	0.147
-365.712	167.103	-0.141	0.203
-364.698	-200.000	0.006	-0.239
-363.683	-133.716	0.086	-0.011
-362.669	-113.520	-0.040	-0.008
-361.654	-117.133	0.269	-0.049
-360.639	-200.000	0.016	0.263
-359.625	-29.913	-0.166	0.095
-358.610	4.142	-0.084	0.062
-357.596	166.758	0.065	0.093
-356.581	-200.000	0.005	-0.043
-355.566	800.000	-0.043	0.190
-354.552	-7.139	-0.236	0.162
-353.537	-200.000	-0.000	-0.213
-352.523	-200.000	0.034	-0.259
-351.508	209.906	0.208	-0.329
-350.493	69.254	0.131	0.135
-349.479	-76.680	-0.602	0.213
-348.464	84.354	0.013	0.015
-347.450	525.080	-0.105	-0.250
-346.435	213.585	-0.044	0.070
-345.420	-85.016	-0.139	-0.044
-344.406	429.001	0.097	0.211
-343.391	-7.971	-0.139	-0.095
-342.377	-200.000	0.036	-0.258
-341.362	-200.000	-0.032	-0.161
-340.348	-36.790	-0.093	-0.050
-339.333	800.000	0.062	0.231
-338.318	-105.531	0.417	-0.095
-337.304	-44.348	0.184	0.093
-336.289	-200.000	0.047	-0.248
-335.275	-125.198	0.227	0.035
-334.260	-24.836	0.245	-0.146
-333.245	800.000	0.102	-0.380
-332.231	-84.877	0.233	0.074
-331.216	-70.392	-0.504	0.193
-330.202	-155.808	0.290	-0.019
-329.187	-64.690	-0.389	0.159
-328.172	579.956	-0.039	-0.096
-327.158	687.540	-0.031	0.083
-326.143	-109.254	0.188	0.040
-325.129	-98.576	-0.231	0.060
-324.114	-184.050	0.352	-0.006
-323.099	-103.296	0.177	0.042
-322.085	-200.000	0.102	-0.000
-321.070	-200.000	-0.001	0.199
-320.056	-36.382	0.230	0.125
-319.041	-87.089	-0.255	0.078
-318.026	-200.000	0.006	0.108
-317.012	-200.000	-0.004	-0.108
-315.997	-70.038	0.030	0.011
-314.983	417.215	-0.036	0.078
-313.968	800.000	0.028	0.120
-312.953	-27.521	-0.127	-0.074
-311.939	58.069	-0.092	0.091
-310.924	-38.219	0.330	-0.176
-309.910	267.003	0.095	0.167
-308.895	-200.000	0.030	-0.145
-307.880	-172.394	-0.490	0.016
-306.866	624.656	0.094	-0.238
-305.851	-144.073	-0.067	-0.006
-304.837	666.807	0.127	-0.330
-303.822	12.212	-0.161	-0.125
-302.807	-82.957	-0.165	0.053
-301.793	-137.231	-0.047	0.005
-300.778	-33.146	0.288	0.161
-299.764	38.935	-0.110	-0.099
-298.749	31.137	-0.355	-0.306
-297.735	308.599	0.112	0.210
-296.720	41.647	-0.065	0.060
-295.705	-200.000	0.041	0.363
-294.691	139.033	-0.088	0.117
-293.676	-42.459	-0.317	-0.163
-292.662	-139.720	0.242	-0.026
-291.647	52.995	-0.138	-0.133
-290.632	27.806	-0.049	0.041
-289.618	-13.540	-0.179	-0.116
-288.603	9.224	-0.187	-0.142
-287.589	-77.521	0.436	-0.152
-286.574	98.337	0.230	0.267
-285.559	-34.116	-0.421	-0.233
-284.545	-36.104	-0.058	-0.032
-283.530	634.044	-0.162	-0.414
-282.516	732.143	-0.028	0.074
-281.501	-61.883	-0.306	-0.129
-280.486	268.124	0.012	-0.022
-279.472	-200.000	-0.034	0.221
-278.457	131.973	0.077	-0.099
-277.443	-149.603	-0.364	-0.029
-276.428	38.269	0.229	-0.205
-275.413	800.000	0.222	0.623
-274.399	33.434	-0.084	-0.074
-273.384	43.815	-0.023	-0.021
-272.370	243.007	-0.045	0.076
-271.355	-74.363	-0.177	0.064
-270.340	-200.000	0.014	0.205
-269.326	-200.000	0.001	0.158
-268.311	22.762	0.140	0.116
-267.297	187.111	-0.242	0.363
-266.282	-200.000	-0.024	-0.226
-265.267	1.124	0.107	-0.078
-264.253	-75.395	-0.219	-0.078
-263.238	800.000	0.100	0.415
-262.224	-57.148	-0.094	0.041
-261.209	-200.000	-0.023	-0.221
-260.195	-200.000	-0.014	-0.142
-259.180	-96.499	0.164	-0.043
-258.165	22.906	-0.148	0.122
-257.151	-145.669	0.272	-0.024
-256.136	-38.427	-0.095	0.051
-255.122	-200.000	0.048	-0.301
-254.107	99.939	0.166	-0.194
-253.092	-12.783	0.144	-0.094
-252.078	-129.765	0.094	0.013
-251.063	31.806	-0.219	-0.190
-250.049	-126.905	0.268	0.040
-249.034	-200.000	-0.010	-0.101
-248.019	-3.737	0.158	-0.110
-247.005	-178.048	-0.280	0.007
-245.990	458.921	-0.096	0.214
-244.976	168.657	0.156	-0.223
-243.961	-200.000	0.025	-0.296
-242.946	-200.000	0.007	0.324
-241.932	-96.723	-0.347	0.092
-240.917	-134.939	-0.063	0.008
-239.903	23.846	0.351	-0.290
-238.888	616.114	0.113	0.286
-237.873	-43.912	-0.098	0.049
-236.859	-140.176	0.332	-0.035
-235.844	481.193	-0.034	0.077
-234.830	-172.082	0.320	-0.010
-233.815	215.966	-0.106	0.168
-232.800	-18.346	-0.229	-0.143
-231.786	800.000	-0.040	-0.122
-230.771	-200.000	-0.033	0.350
-229.757	64.137	-0.060	0.061
-228.742	-200.000	-0.022	-0.111
-227.727	-135.150	-0.248	-0.030
-226.713	110.842	0.149	-0.180
-225.698	-40.977	-0.206	0.107
-224.684	-36.077	-0.209	0.114
-223.669	-84.240	-0.114	-0.036
-222.655	-4.691	0.119	0.082
-221.640	13.680	0.128	0.100
-220.625	-200.000	0.007	-0.068
-219.611	71.131	0.269	-0.280
-218.596	299.041	0.062	-0.114
-217.582	800.000	0.086	0.249
-216.567	347.530	0.119	-0.236
-215.552	-28.771	0.365	0.211
-214.538	-8.601	0.375	0.253
-213.523	77.333	0.158	-0.169
-212.509	-200.000	-0.000	-0.307
-211.494	24.516	0.206	-0.171
-210.479	-200.000	0.068	-0.384
-209.465	-97.488	0.299	0.078
-208.450	-52.933	0.182	-0.084
-207.436	-161.570	-0.145	-0.007
-206.421	-65.994	-0.311	0.125
-205.406	-111.021	-0.146	-0.030
-204.392	-157.154	-0.340	0.021
-203.377	-114.104	0.345	-0.067
-202.363	-168.058	-0.489	0.019
-201.348	136.581	-0.036	0.047
-200.333	175.222	0.084	-0.122
-199.319	-3.956	-0.345	0.240
-198.304	6.715	0.129	0.097
-197.290	-200.000	0.030	-0.345
-196.275	218.846	-0.111	-0.177
-195.260	89.728	0.179	0.200
-194.246	-200.000	0.014	0.102
-193.231	2.054	-0.071	0.051
-192.217	11.872	-0.137	0.106
-191.202	45.884	0.123	0.114
-190.187	-145.142	-0.068	-0.006
-189.173	38.943	0.139	0.125
-188.158	287.609	0.071	0.129
-187.144	-200.000	0.005	-0.182
-186.129	-67.130	0.380	-0.150
-185.114	45.525	0.138	-0.128
-184.100	-200.000	-0.017	-0.378
-183.085	-174.070	-0.194	-0.006
-182.071	-89.645	-0.156	-0.046
-181.056	800.000	0.018	-0.077
-180.042	119.771	0.077	0.096
-179.027	-112.521	0.328	0.066
-178.012	568.031	0.031	0.076
-176.998	390.067	0.117	0.243
-175.983	-87.811	0.218	0.066
-174.969	8.586	-0.096	-0.072
-173.954	800.000	0.048	0.135
-172.939	68.202	-0.167	0.171
-171.925	-200.000	0.038	0.364
-170.910	-200.000	0.007	-0.054
-169.896	800.000	0.057	0.238
-168.881	581.013	-0.029	-0.070
-167.866	317.759	0.057	0.109
-166.852	-200.000	0.023	-0.161
-165.837	75.379	0.061	-0.064
-164.823	-76.916	-0.318	0.111
-163.808	2.278	-0.230	0.166
-162.793	649.845	0.044	0.112
-161.779	800.000	0.090	-0.374
-160.764	-200.000	-0.027	-0.126
-159.750	82.455	0.157	0.171
-158.735	46.056	-0.140	0.129
-157.720	800.000	-0.049	0.206
-156.706	149.849	-0.189	0.257
-155.691	159.893	-0.205	0.286
-154.677	400.491	0.168	0.353
-153.662	800.000	-0.080	0.276
-152.647	-150.504	-0.576	-0.044
-151.633	18.204	-0.199	-0.159
-150.618	-103.024	-0.085	-0.020
-149.604	-23.455	0.147	0.088
-148.589	612.215	-0.151	0.379
-147.574	25.013	-0.184	0.153
-146.560	-44.000	0.214	0.108
-145.545	-1.356	-0.161	0.114
-144.531	-92.795	0.274	-0.077
-143.516	-200.000	0.011	0.240
-142.502	554.240	0.041	0.099
-141.487	388.890	-0.145	-0.300
-140.472	624.701	0.053	0.133
-139.458	16.989	-0.180	0.142
-138.443	-196.176	-0.221	-0.002
-137.429	-25.342	-0.189	-0.112
-136.414	-82.789	-0.181	-0.058
-135.399	-0.652	0.186	0.132
-134.385	342.519	-0.155	0.304
-133.370	18.739	-0.080	-0.064
-132.356	29.996	0.129	-0.110
-131.341	-200.000	-0.038	-0.425
-130.326	-69.316	-0.430	-0.165
-129.312	-126.735	0.166	0.025
-128.297	117.112	0.129	0.158
-127.283	61.139	0.016	-0.016
-126.268	82.330	-0.084	0.091
-125.253	-22.714	0.149	0.090
-124.239	-96.662	0.111	-0.029
-123.224	800.000	0.121	-0.360
-122.210	-200.000	0.010	0.186
-121.195	-7.450	0.056	0.038
