DTS Sentinel unit serial number:	SN413079Multiplexer serial number:	ORYXHardware model number:	OX4-SRSoftware version number:	ORYX F/W v4.00 Oryx Data Collector v3.7.2.0data status	okinstallation	princeton_trtdifferential loss correction	single-endedforward channel	channel 4reverse channel	N/Adate	2019/09/11time	13:35:10forward acquisition time	60.00reverse acquisition time	0.00gamma	496.2192k internal	0.2283k external	0.2283temperature offset calibration	1.0003default loss term (dB/km)	0.3790temperature slope calibration	1.0000multiplexer offset coefficient	1.0000multiplexer slope coefficient	1.0000fibre end	0.00T internal ref (°C)	41.97T ext. ref 1 (°C)	0.83T ext. ref 2 (°C)	35.49length (m)	temperature (°C)	Stokes	anti-Stokes-747.200	-77.005	0.156	-0.056
-746.185	402.837	0.126	0.273
-745.171	1.306	0.134	-0.099
-744.156	72.841	0.116	0.124
-743.142	-200.000	0.020	0.380
-742.127	-87.143	-0.211	0.066
-741.112	-200.000	-0.017	-0.258
-740.098	-200.000	0.006	0.401
-739.083	-172.603	-0.219	0.007
-738.069	-18.948	0.005	0.003
-737.054	329.836	-0.041	0.081
-736.039	85.681	0.136	0.154
-735.025	49.916	0.107	0.103
-734.010	28.501	0.045	0.039
-732.996	48.004	-0.264	-0.253
-731.981	-23.565	-0.089	-0.055
-730.966	15.642	-0.219	-0.177
-729.952	653.439	0.078	0.206
-728.937	-200.000	0.011	-0.310
-727.923	64.997	0.101	-0.105
-726.908	-150.495	0.225	0.018
-725.894	225.010	-0.144	-0.240
-724.879	-133.625	-0.074	-0.009
-723.864	-62.438	-0.134	-0.057
-722.850	286.497	0.095	-0.175
-721.835	188.360	-0.145	-0.223
-720.821	-40.070	-0.219	-0.117
-719.806	-200.000	-0.005	-0.250
-718.791	-101.931	-0.094	0.023
-717.777	-200.000	-0.014	-0.220
-716.762	409.204	-0.086	-0.187
-715.748	800.000	0.066	-0.208
-714.733	-200.000	0.033	0.213
-713.718	104.983	-0.199	0.241
-712.704	25.043	-0.063	-0.054
-711.689	800.000	-0.090	-0.274
-710.675	125.872	-0.085	-0.110
-709.660	-200.000	0.051	0.272
-708.645	-69.191	-0.092	-0.036
-707.631	8.140	-0.079	-0.061
-706.616	-200.000	0.052	0.472
-705.602	-3.768	0.095	0.068
-704.587	-35.948	0.129	0.071
-703.572	-78.519	-0.219	0.077
-702.558	64.809	-0.300	-0.311
-701.543	89.889	0.057	-0.066
-700.529	141.940	0.257	-0.349
-699.514	-76.994	0.419	0.150
-698.499	30.813	0.119	0.104
-697.485	43.802	0.303	-0.284
-696.470	-79.253	0.176	0.061
-695.456	-157.512	0.149	-0.009
-694.441	-200.000	-0.001	0.159
-693.426	-82.550	0.195	-0.065
-692.412	244.592	0.108	-0.187
-691.397	-108.429	-0.230	-0.051
-690.383	443.588	-0.109	-0.245
-689.368	800.000	0.065	-0.257
-688.354	-146.012	0.217	0.020
-687.339	-135.850	0.107	-0.013
-686.324	-200.000	-0.056	-0.366
-685.310	-24.272	-0.127	0.078
-684.295	-200.000	0.055	-0.355
-683.281	-200.000	0.054	0.311
-682.266	71.974	-0.083	0.088
-681.251	-200.000	0.040	0.226
-680.237	800.000	-0.091	-0.290
-679.222	800.000	-0.065	0.187
-678.208	-200.000	0.314	0.001
-677.193	-37.052	0.173	0.095
-676.178	21.039	0.207	0.172
-675.164	-96.460	0.438	-0.119
-674.149	23.896	0.130	-0.110
-673.135	800.000	0.079	0.348
-672.120	-200.000	-0.341	-0.001
-671.105	-200.000	0.026	0.422
-670.091	-111.434	-0.213	0.044
-669.076	-169.346	-0.184	-0.007
-668.062	-92.441	-0.209	-0.060
-667.047	23.501	-0.106	0.089
-666.032	-200.000	0.012	0.209
-665.018	79.767	-0.243	0.268
-664.003	109.921	-0.068	-0.083
-662.989	-200.000	-0.035	0.599
-661.974	-40.856	-0.108	-0.057
-660.959	327.665	0.046	-0.090
-659.945	-44.545	0.154	-0.079
-658.930	677.338	-0.177	-0.472
-657.916	-74.547	-0.114	-0.042
-656.901	144.894	0.155	-0.212
-655.886	565.262	0.068	0.168
-654.872	-200.000	0.048	-0.250
-653.857	-194.078	0.178	-0.002
-652.843	-65.140	0.265	0.109
-651.828	-51.513	-0.307	0.147
-650.814	625.443	0.143	0.369
-649.799	269.259	-0.114	-0.205
-648.784	-37.568	0.138	0.075
-647.770	444.529	0.110	-0.248
-646.755	-19.900	0.251	-0.158
-645.741	-8.334	0.306	0.211
-644.726	9.175	-0.183	0.142
-643.711	-200.000	-0.031	-0.199
-642.697	-24.017	-0.102	-0.062
-641.682	104.353	-0.123	-0.149
-640.668	-200.000	-0.149	-0.001
-639.653	-73.509	-0.218	-0.081
-638.638	770.920	0.070	0.196
-637.624	-13.190	0.130	-0.087
-636.609	204.349	-0.114	-0.181
-635.595	-172.042	-0.169	0.006
-634.580	-27.599	0.392	0.233
-633.565	-25.133	0.089	-0.054
-632.551	-70.446	-0.156	-0.061
-631.536	-200.000	-0.082	0.498
-630.522	2.279	-0.256	0.189
-629.507	-200.000	0.008	0.056
-628.492	-200.000	-0.011	0.427
-627.478	-36.293	-0.142	0.078
-626.463	-200.000	-0.009	0.120
-625.449	-200.000	0.006	-0.057
-624.434	370.098	0.153	-0.316
-623.419	-76.329	0.111	0.040
-622.405	375.007	-0.066	-0.138
-621.390	-31.280	0.117	-0.067
-620.376	-200.000	0.013	-0.287
-619.361	-149.578	-0.346	0.028
-618.346	479.934	-0.100	0.232
-617.332	800.000	0.092	-0.347
-616.317	21.366	-0.106	-0.088
-615.303	800.000	0.021	-0.060
-614.288	369.954	0.150	0.310
-613.273	-200.000	-0.013	0.138
-612.259	466.841	0.018	0.041
-611.244	-23.656	0.188	-0.115
-610.230	-48.143	-0.279	-0.138
-609.215	216.637	0.131	0.214
-608.201	-200.000	-0.009	-0.050
-607.186	-200.000	-0.084	-0.420
-606.171	-37.129	-0.141	0.077
-605.157	-200.000	0.019	-0.253
-604.142	-200.000	-0.080	0.413
-603.128	-137.886	0.095	-0.011
-602.113	70.804	0.124	-0.131
-601.098	-72.677	-0.263	-0.099
-600.084	-132.156	-0.120	0.016
-599.069	413.134	0.036	-0.079
-598.055	-123.051	-0.175	-0.029
-597.040	-116.439	-0.385	-0.073
-596.025	126.591	-0.079	0.103
-595.011	-200.000	-0.031	0.292
-593.996	-188.109	-0.088	-0.001
-592.982	-37.246	-0.083	0.046
-591.967	800.000	0.065	-0.221
-590.952	404.014	-0.030	-0.065
-589.938	800.000	-0.079	0.340
-588.923	800.000	-0.043	-0.186
-587.909	39.141	0.109	-0.099
-586.894	-200.000	-0.031	-0.166
-585.879	122.753	-0.147	-0.188
-584.865	-90.890	-0.421	0.124
-583.850	-5.039	0.281	-0.198
-582.836	112.273	-0.110	-0.136
-581.821	-200.000	0.000	-0.334
-580.806	284.806	0.196	-0.361
-579.792	291.848	-0.067	-0.124
-578.777	513.518	0.148	-0.352
-577.763	-17.063	-0.022	-0.014
-576.748	-200.000	0.041	-0.196
-575.733	301.747	0.162	-0.305
-574.719	52.628	0.043	-0.042
-573.704	-108.653	-0.267	-0.058
-572.690	-110.277	-0.147	-0.031
-571.675	294.522	0.123	0.229
-570.661	107.831	0.202	-0.245
-569.646	-200.000	0.028	-0.501
-568.631	234.709	-0.040	0.067
-567.617	-136.070	0.112	0.013
-566.602	-8.688	0.205	0.140
-565.588	-124.574	-0.085	0.014
-564.573	141.347	-0.127	0.172
-563.558	-200.000	-0.027	-0.254
-562.544	183.782	-0.252	0.380
-561.529	-200.000	0.017	-0.115
-560.515	-52.333	0.374	-0.177
-559.500	-200.000	0.007	-0.221
-558.485	800.000	-0.064	0.233
-557.471	-1.730	0.128	-0.092
-556.456	-62.225	0.093	0.039
-555.442	-149.153	0.264	-0.022
-554.427	30.837	-0.315	-0.276
-553.412	303.641	-0.106	0.199
-552.398	338.444	-0.062	-0.122
-551.383	499.107	-0.093	-0.219
-550.369	-65.031	-0.116	0.048
-549.354	45.009	0.133	-0.125
-548.339	77.974	-0.128	0.139
-547.325	101.124	0.094	0.112
-546.310	475.300	0.110	0.254
-545.296	800.000	0.044	-0.170
-544.281	-100.150	0.222	-0.056
-543.266	800.000	-0.046	0.185
-542.252	-91.197	-0.391	0.114
-541.237	-113.791	-0.126	0.025
-540.223	33.173	-0.166	0.146
-539.208	351.114	-0.181	0.365
-538.193	-200.000	-0.018	-0.224
-537.179	473.696	-0.179	0.411
-536.164	800.000	-0.046	0.177
-535.150	80.835	0.118	0.129
-534.135	551.687	-0.115	-0.282
-533.121	596.308	0.092	-0.231
-532.106	25.353	0.270	-0.229
-531.091	337.584	-0.060	-0.118
-530.077	-105.937	-0.117	0.027
-529.062	-181.061	-0.122	-0.002
-528.048	-77.332	-0.125	-0.044
-527.033	-200.000	0.014	0.199
-526.018	800.000	-0.088	0.290
-525.004	442.003	-0.184	-0.409
-523.989	-23.604	0.092	0.056
-522.975	58.260	0.059	-0.059
-521.960	-200.000	0.010	0.063
-520.945	299.900	-0.094	-0.176
-519.931	155.508	0.029	-0.041
-518.916	800.000	0.096	0.320
-517.902	49.375	-0.271	0.260
-516.887	211.418	0.108	0.173
-515.872	800.000	0.083	-0.331
-514.858	800.000	-0.051	-0.191
-513.843	-200.000	0.008	-0.142
-512.829	-45.005	0.380	-0.193
-511.814	-14.925	-0.107	0.070
-510.799	-124.431	0.193	0.031
-509.785	-121.167	-0.142	0.024
-508.770	176.274	0.117	-0.173
-507.756	-41.666	0.249	-0.130
-506.741	530.080	0.062	0.148
-505.726	-124.825	0.233	0.037
-504.712	800.000	0.032	-0.097
-503.697	800.000	-0.039	0.169
-502.683	-23.352	0.150	-0.092
-501.668	9.990	0.089	-0.069
-500.653	-30.653	0.288	0.166
-499.639	-169.143	0.153	-0.006
-498.624	187.626	0.138	0.210
-497.610	-200.000	0.038	-0.475
-496.595	-95.132	0.268	0.073
-495.581	-200.000	-0.062	0.278
-494.566	800.000	-0.076	-0.284
-493.551	4.630	-0.158	0.118
-492.537	-16.510	0.251	0.162
-491.522	535.351	0.093	0.224
-490.508	331.342	0.050	-0.097
-489.493	244.365	-0.167	0.285
-488.478	-34.395	-0.339	0.189
-487.464	107.270	0.109	-0.132
-486.449	320.441	-0.244	0.471
-485.435	606.616	-0.107	0.272
-484.420	-89.358	-0.315	0.094
-483.405	-19.727	-0.169	-0.106
-482.391	311.686	-0.084	-0.161
-481.376	64.640	-0.153	-0.157
-480.362	-17.306	0.162	-0.104
-479.347	-115.338	-0.376	0.072
-478.332	-87.342	0.092	0.028
-477.318	555.242	0.100	0.245
-476.303	-200.000	0.059	0.281
-475.289	-56.342	0.091	-0.041
-474.274	-135.323	-0.100	0.012
-473.259	-97.485	0.223	0.059
-472.245	67.649	-0.156	0.162
-471.230	-26.745	0.077	-0.046
-470.216	-46.466	-0.225	-0.112
-469.201	85.356	-0.085	-0.095
-468.186	81.106	-0.195	0.214
-467.172	-134.739	0.214	-0.026
-466.157	-184.995	0.091	-0.001
-465.143	-200.000	0.003	0.282
-464.128	-101.360	-0.169	0.042
-463.113	46.110	0.200	0.188
-462.099	-126.625	0.311	-0.047
-461.084	-139.892	0.144	0.016
-460.070	-129.199	0.187	0.027
-459.055	258.841	-0.103	-0.180
-458.040	-39.940	-0.181	-0.096
-457.026	-0.821	0.117	-0.084
-456.011	-200.000	-0.007	0.043
-454.997	-109.084	-0.027	-0.006
-453.982	142.219	0.055	0.075
-452.968	-72.977	0.102	0.038
-451.953	800.000	-0.072	-0.249
-450.938	101.166	0.227	-0.269
-449.924	16.768	0.237	-0.191
-448.909	-102.917	-0.241	-0.058
-447.895	60.858	-0.193	0.194
-446.880	-200.000	-0.080	0.425
-445.865	-136.319	-0.251	-0.030
-444.851	329.110	-0.050	-0.098
-443.836	-13.125	0.135	-0.089
-442.822	-73.195	-0.343	-0.128
-441.807	234.425	0.081	-0.135
-440.792	-200.000	-0.031	0.335
-439.778	25.070	-0.075	0.063
-438.763	265.466	-0.131	-0.232
-437.749	201.579	-0.040	-0.062
-436.734	-200.000	-0.034	-0.185
-435.719	-89.439	0.062	0.019
-434.705	-159.483	0.382	0.022
-433.690	44.610	-0.130	-0.122
-432.676	-8.878	0.297	-0.202
-431.661	-91.135	-0.285	-0.083
-430.646	-109.901	-0.178	-0.038
-429.632	135.337	-0.158	-0.208
-428.617	-200.000	0.037	-0.182
-427.603	248.656	0.243	-0.417
-426.588	10.221	-0.155	-0.120
-425.573	31.201	0.069	0.060
-424.559	167.398	0.111	0.159
-423.544	-200.000	-0.001	0.075
-422.530	-200.000	0.006	-0.231
-421.515	-147.106	-0.126	-0.011
-420.500	113.735	0.076	0.094
-419.486	-66.424	-0.359	0.145
-418.471	18.426	-0.114	0.092
-417.457	-115.776	0.153	-0.029
-416.442	-200.000	-0.008	-0.177
-415.428	0.125	-0.055	0.040
-414.413	76.613	0.105	0.113
-413.398	-43.256	-0.216	0.111
-412.384	230.217	-0.117	-0.193
-411.369	180.533	0.080	-0.119
-410.355	-0.330	-0.323	-0.233
-409.340	194.708	0.026	0.040
-408.325	139.317	-0.213	0.284
-407.311	-37.201	0.203	0.110
-406.296	-200.000	-0.011	-0.075
-405.282	-200.000	-0.023	-0.122
-404.267	216.655	0.101	0.162
-403.252	45.333	-0.173	0.162
-402.238	-31.129	-0.179	0.102
-401.223	2.635	0.007	-0.005
-400.209	-200.000	-0.005	0.123
-399.194	800.000	-0.037	0.142
-398.179	-129.765	0.223	0.031
-397.165	-200.000	-0.014	-0.113
-396.150	-70.507	0.086	0.033
-395.136	24.608	0.315	0.265
-394.121	311.321	-0.152	0.288
-393.106	82.793	0.138	0.152
-392.092	29.994	-0.359	-0.310
-391.077	158.643	-0.168	-0.236
-390.063	448.070	-0.045	-0.100
-389.048	46.828	0.213	0.201
-388.033	201.840	-0.165	-0.258
-387.019	-83.396	0.178	0.058
-386.004	577.008	-0.112	0.278
-384.990	-156.327	0.210	0.013
-383.975	146.095	0.065	0.089
-382.960	366.891	0.102	0.208
-381.946	83.679	0.169	0.186
-380.931	-200.000	-0.003	-0.114
-379.917	-128.349	0.184	0.026
-378.902	108.957	-0.243	-0.294
-377.888	-79.276	0.150	-0.051
-376.873	222.863	-0.011	0.018
-375.858	-73.407	0.205	-0.076
-374.844	-143.945	-0.347	0.033
-373.829	-200.000	-0.047	0.227
-372.815	-200.000	-0.007	0.110
-371.800	561.893	-0.063	0.155
-370.785	-200.000	-0.015	0.217
-369.771	-89.620	0.133	-0.040
-368.756	-200.000	-0.023	0.175
-367.742	-152.918	0.134	0.010
-366.727	800.000	0.036	0.154
-365.712	-69.428	-0.148	-0.057
-364.698	71.376	-0.253	0.266
-363.683	-174.457	0.154	-0.004
-362.669	-122.304	0.200	0.033
-361.654	51.859	0.253	0.244
-360.639	-132.394	0.427	0.056
-359.625	-119.876	0.151	-0.026
-358.610	-124.099	-0.417	-0.066
-357.596	-5.452	-0.310	0.215
-356.581	-200.000	-0.289	0.000
-355.566	-177.488	-0.160	0.004
-354.552	-31.630	-0.211	0.120
-353.537	251.590	0.074	-0.128
-352.523	-73.122	-0.122	0.045
-351.508	-200.000	-0.034	0.425
-350.493	-200.000	0.016	0.144
-349.479	-106.260	0.136	0.031
-348.464	611.291	-0.066	-0.167
-347.450	-200.000	-0.053	-0.316
-346.435	-200.000	0.050	0.291
-345.420	-200.000	-0.012	0.081
-344.406	690.594	-0.030	-0.079
-343.391	800.000	0.042	0.123
-342.377	-200.000	-0.027	-0.335
-341.362	-55.181	-0.143	-0.065
-340.348	552.272	-0.097	-0.236
-339.333	-97.746	-0.204	-0.053
-338.318	405.834	0.114	-0.244
-337.304	-53.461	-0.344	0.159
-336.289	687.514	-0.110	0.290
-335.275	800.000	0.058	-0.182
-334.260	191.462	0.089	0.136
-333.245	161.863	-0.121	-0.172
-332.231	-200.000	-0.047	-0.235
-331.216	-70.410	0.404	-0.155
-330.202	-200.000	0.018	-0.152
-329.187	237.491	-0.053	0.089
-328.172	232.594	0.027	-0.044
-327.158	-165.609	-0.340	0.015
-326.143	-85.988	0.339	-0.106
-325.129	110.248	0.329	0.399
-324.114	-63.980	0.296	0.122
-323.099	-70.244	-0.079	0.030
-322.085	-74.146	0.200	-0.073
-321.070	-2.290	0.247	0.175
-320.056	-61.723	-0.260	0.110
-319.041	-200.000	-0.001	-0.038
-318.026	305.026	0.181	0.340
-317.012	-70.587	0.439	-0.168
-315.997	-11.742	0.124	-0.082
-314.983	-86.590	0.234	0.072
-313.968	-81.358	-0.207	-0.069
-312.953	355.717	0.070	0.140
-311.939	120.400	-0.211	-0.264
-310.924	-128.431	0.177	0.025
-309.910	15.250	-0.229	-0.181
-308.895	220.747	0.175	-0.284
-307.880	5.672	0.141	-0.105
-306.866	-85.728	0.451	-0.141
-305.851	-200.000	-0.016	-0.145
-304.837	800.000	0.076	-0.225
-303.822	-147.963	0.246	-0.021
-302.807	-23.555	0.148	0.090
-301.793	800.000	0.065	0.232
-300.778	-143.690	0.125	-0.012
-299.764	407.425	-0.076	0.162
-298.749	4.377	-0.089	0.066
-297.735	-51.282	-0.287	-0.136
-296.720	244.493	-0.174	-0.295
-295.705	-115.937	0.090	-0.017
-294.691	-53.131	0.439	-0.204
-293.676	-200.000	0.024	-0.362
-292.662	-29.514	-0.145	-0.084
-291.647	299.811	-0.083	-0.155
-290.632	475.445	-0.086	-0.197
-289.618	478.553	-0.051	-0.117
-288.603	67.128	0.102	-0.105
-287.589	-111.612	0.076	-0.016
-286.574	180.127	0.012	0.018
-285.559	477.535	-0.078	-0.178
-284.545	-178.952	0.215	-0.005
-283.530	-200.000	0.032	0.161
-282.516	-200.000	-0.014	0.151
-281.501	800.000	-0.078	0.298
-280.486	237.516	0.113	0.189
-279.472	45.402	0.194	0.180
-278.457	6.277	-0.118	-0.088
-277.443	86.728	0.140	-0.156
-276.428	-74.705	0.207	0.075
-275.413	35.861	-0.084	-0.074
-274.399	522.653	0.071	0.169
-273.384	-200.000	0.017	0.227
-272.370	86.624	-0.160	0.179
-271.355	-80.536	0.111	0.037
-270.340	-32.747	-0.268	-0.150
-269.326	68.628	-0.109	0.113
-268.311	-36.879	-0.321	0.174
-267.297	-62.512	0.408	0.171
-266.282	-7.170	-0.234	-0.160
-265.267	48.628	-0.088	0.083
-264.253	-200.000	-0.005	0.247
-263.238	800.000	0.049	0.204
-262.224	103.182	-0.169	-0.200
-261.209	-73.704	0.151	0.056
-260.195	364.099	-0.072	0.146
-259.180	-1.137	0.259	-0.185
-258.165	-101.431	0.290	-0.071
-257.151	40.139	0.052	0.047
-256.136	-83.823	0.184	-0.059
-255.122	-73.773	-0.301	0.110
-254.107	230.233	-0.180	-0.297
-253.092	-144.098	0.294	-0.028
-252.078	-200.000	0.026	-0.163
-251.063	-200.000	0.027	-0.292
-250.049	96.238	-0.055	0.063
-249.034	53.563	-0.161	-0.155
-248.019	-3.664	-0.178	0.125
-247.005	-179.952	-0.387	0.008
-245.990	31.277	-0.147	0.127
-244.976	47.274	0.101	0.095
-243.961	-121.737	-0.443	0.074
-242.946	-43.966	0.115	0.058
-241.932	-77.882	-0.195	-0.068
-240.917	-37.673	-0.159	-0.086
-239.903	291.093	0.047	0.087
-238.888	17.866	0.023	0.019
-237.873	-19.762	-0.244	0.152
-236.859	-87.997	0.381	-0.115
-235.844	-54.788	0.119	0.054
-234.830	-132.534	0.161	-0.021
-233.815	350.094	-0.096	-0.192
-232.800	37.762	0.030	-0.027
-231.786	-17.143	0.129	0.082
-230.771	-131.399	0.172	-0.023
-229.757	-81.885	-0.094	-0.031
-228.742	43.810	-0.111	0.102
-227.727	38.936	0.031	-0.028
-226.713	112.127	0.093	0.113
-225.698	162.102	0.245	0.346
-224.684	214.210	0.074	-0.118
-223.669	2.613	0.212	0.154
-222.655	430.444	0.066	0.143
-221.640	87.623	0.086	0.096
-220.625	187.666	0.206	0.310
-219.611	-200.000	-0.017	0.448
-218.596	-30.976	-0.118	-0.067
-217.582	-103.510	0.136	0.032
-216.567	422.209	-0.067	-0.144
-215.552	298.301	-0.235	-0.435
-214.538	-32.536	-0.268	0.150
-213.523	-73.636	-0.210	-0.077
-212.509	-84.104	-0.176	-0.056
-211.494	-124.984	0.520	0.081
-210.479	600.443	0.103	0.257
-209.465	-3.998	-0.223	-0.156
-208.450	65.524	0.123	-0.125
-207.436	-129.628	0.409	-0.057
-206.421	-172.096	-0.095	-0.003
-205.406	-41.089	-0.266	0.138
-204.392	-77.578	-0.322	-0.112
-203.377	-54.687	0.265	-0.121
-202.363	584.826	0.090	0.223
-201.348	-117.376	-0.184	-0.033
-200.333	800.000	-0.032	0.093
-199.319	-200.000	-0.012	-0.130
-198.304	517.626	0.183	-0.431
-197.290	1.471	0.126	-0.091
-196.275	222.977	0.069	0.112
-195.260	800.000	0.072	0.303
-194.246	-200.000	-0.008	-0.179
-193.231	22.698	0.189	-0.155
-192.217	70.787	-0.159	-0.166
-191.202	-200.000	-0.036	-0.163
-190.187	-115.282	-0.294	0.056
-189.173	726.538	0.035	0.095
-188.158	-100.591	-0.058	-0.014
-187.144	-200.000	-0.025	0.202
-186.129	92.905	0.131	0.149
-185.114	298.069	-0.150	0.278
-184.100	55.775	-0.115	-0.112
-183.085	334.024	-0.019	-0.038
-182.071	-90.122	-0.452	0.132
-181.056	-200.000	-0.007	-0.059
-180.042	-200.000	-0.020	0.149
-179.027	303.094	0.123	0.228
-178.012	-185.749	-0.277	0.004
-176.998	281.588	-0.083	0.150
-175.983	257.717	0.105	0.182
-174.969	-122.571	0.324	0.053
-173.954	607.963	0.137	-0.344
-172.939	-146.628	0.112	0.010
-171.925	-200.000	-0.034	0.314
-170.910	160.803	0.087	0.121
-169.896	-124.517	0.279	0.044
-168.881	108.344	-0.079	-0.094
-167.866	-109.105	-0.082	-0.018
-166.852	800.000	0.060	0.229
-165.837	315.200	0.101	0.191
-164.823	-17.286	-0.147	0.093
-163.808	278.392	-0.117	-0.210
-162.793	162.168	0.153	-0.215
-161.779	-145.968	0.278	0.025
-160.764	27.363	-0.078	0.066
-159.750	123.268	0.149	0.187
-158.735	-92.806	-0.158	-0.044
-157.720	0.699	-0.239	-0.172
-156.706	-200.000	0.163	-0.001
-155.691	-121.533	0.118	-0.020
-154.677	-89.480	0.305	-0.090
-153.662	46.276	0.276	-0.257
-152.647	-101.445	-0.283	-0.069
-151.633	271.842	0.091	-0.162
-150.618	-200.000	0.029	0.263
-149.604	800.000	0.105	0.312
-148.589	-11.064	0.125	0.083
-147.574	-200.000	0.016	-0.240
-146.560	65.096	0.154	-0.156
-145.545	24.133	0.168	0.139
-144.531	-88.678	-0.319	0.095
-143.516	91.353	0.209	-0.236
-142.502	-20.747	0.149	0.092
-141.487	800.000	0.048	-0.165
-140.472	800.000	-0.010	0.041
-139.458	800.000	-0.049	-0.154
-138.443	-200.000	-0.017	0.323
-137.429	-200.000	0.025	0.397
-136.414	340.686	-0.038	0.074
-135.399	-200.000	0.010	0.367
-134.385	-63.175	0.284	0.117
-133.370	-145.658	0.065	0.006
-132.356	177.826	0.142	0.207
-131.341	129.513	-0.125	0.161
-130.326	541.506	0.091	0.218
-129.312	122.040	-0.153	-0.191
-128.297	8.087	-0.326	-0.246
-127.283	-102.219	0.255	0.061
-126.268	263.030	-0.181	0.315
-125.253	-140.348	-0.265	-0.028
-124.239	81.519	-0.195	0.211
-123.224	672.066	0.118	-0.306
-122.210	-135.296	0.513	0.062
-121.195	87.057	-0.121	-0.134
