DTS Sentinel unit serial number:	SN413079Multiplexer serial number:	ORYXHardware model number:	OX4-SRSoftware version number:	ORYX F/W v4.00 Oryx Data Collector v3.7.2.0data status	okinstallation	princeton_trtdifferential loss correction	single-endedforward channel	channel 4reverse channel	N/Adate	2019/09/11time	03:11:10forward acquisition time	60.00reverse acquisition time	0.00gamma	496.2192k internal	0.2316k external	0.2316temperature offset calibration	0.9946default loss term (dB/km)	0.3790temperature slope calibration	1.0000multiplexer offset coefficient	1.0000multiplexer slope coefficient	1.0000fibre end	0.00T internal ref (°C)	29.31T ext. ref 1 (°C)	-0.31T ext. ref 2 (°C)	24.04length (m)	temperature (°C)	Stokes	anti-Stokes-747.200	700.630	0.083	-0.221
-746.185	-200.000	-0.156	-0.000
-745.171	312.816	-0.074	0.141
-744.156	172.989	0.130	0.190
-743.142	-157.733	0.106	0.006
-742.127	211.656	-0.079	0.125
-741.112	-86.938	-0.162	0.050
-740.098	-10.356	-0.133	0.089
-739.083	290.644	-0.069	0.127
-738.069	-128.945	-0.286	0.041
-737.054	-157.702	0.185	0.011
-736.039	800.000	-0.106	-0.309
-735.025	-11.796	0.122	-0.081
-734.010	-27.452	-0.333	0.196
-732.996	198.184	-0.061	0.095
-731.981	-153.026	-0.106	-0.008
-730.966	172.730	0.031	0.045
-729.952	329.577	-0.073	0.143
-728.937	-33.278	0.278	-0.156
-727.923	104.963	0.037	0.044
-726.908	263.305	-0.273	0.480
-725.894	-37.221	-0.076	-0.041
-724.879	800.000	0.051	0.205
-723.864	511.590	0.055	-0.131
-722.850	-143.511	0.215	-0.021
-721.835	-28.201	-0.234	-0.137
-720.821	-165.625	-0.310	-0.014
-719.806	46.903	0.188	-0.177
-718.791	447.724	0.033	0.074
-717.777	149.764	-0.182	0.249
-716.762	-30.112	0.195	-0.112
-715.748	34.590	0.193	-0.171
-714.733	-116.026	-0.092	-0.017
-713.718	644.826	0.086	-0.221
-712.704	-200.000	0.002	-0.138
-711.689	-122.026	0.137	-0.023
-710.675	144.384	-0.171	0.231
-709.660	86.507	0.238	-0.265
-708.645	690.547	0.087	-0.230
-707.631	-200.000	0.002	0.107
-706.616	-123.815	-0.446	-0.071
-705.602	9.898	0.051	0.039
-704.587	800.000	0.077	-0.269
-703.572	-98.391	-0.404	-0.105
-702.558	188.669	-0.124	0.188
-701.543	-55.944	0.413	-0.186
-700.529	-20.934	0.206	-0.128
-699.514	434.823	-0.021	-0.047
-698.499	800.000	-0.021	-0.059
-697.485	58.490	0.098	0.097
-696.470	800.000	-0.071	0.219
-695.456	800.000	-0.109	0.382
-694.441	-172.889	-0.117	-0.004
-693.426	327.948	0.058	-0.113
-692.412	-200.000	0.054	0.275
-691.397	111.571	-0.208	-0.253
-690.383	76.027	-0.101	0.108
-689.368	703.322	-0.114	-0.303
-688.354	-113.287	-0.244	0.049
-687.339	-172.296	0.147	0.005
-686.324	-200.000	-0.005	-0.307
-685.310	142.481	-0.045	0.060
-684.295	258.813	-0.107	-0.186
-683.281	-200.000	-0.021	-0.422
-682.266	35.852	-0.083	0.074
-681.251	-115.034	-0.053	0.010
-680.237	118.618	-0.096	0.120
-679.222	234.557	0.086	-0.143
-678.208	-19.056	-0.119	-0.075
-677.193	-200.000	-0.002	0.147
-676.178	1.577	0.295	-0.214
-675.164	-132.447	0.232	-0.030
-674.149	-120.818	-0.246	0.042
-673.135	29.525	-0.043	0.037
-672.120	-200.000	-0.021	-0.177
-671.105	672.671	0.132	-0.346
-670.091	-128.375	-0.170	0.024
-669.076	-19.935	0.308	-0.192
-668.062	160.597	-0.122	0.172
-667.047	-126.642	0.243	0.036
-666.032	-200.000	-0.025	-0.313
-665.018	-200.000	0.007	-0.268
-664.003	-72.059	-0.239	0.090
-662.989	87.538	-0.166	0.185
-661.974	8.330	0.127	-0.096
-660.959	800.000	-0.069	0.274
-659.945	800.000	-0.064	0.186
-658.930	0.949	-0.133	-0.096
-657.916	-170.500	0.212	0.007
-656.901	-133.898	0.455	-0.057
-655.886	56.886	-0.470	-0.462
-654.872	-157.977	-0.110	0.007
-653.857	363.458	-0.012	0.024
-652.843	-200.000	0.005	0.099
-651.828	118.602	0.240	-0.300
-650.814	-62.560	0.340	0.142
-649.799	-125.654	-0.285	0.044
-648.784	42.972	-0.029	-0.027
-647.770	75.721	-0.327	-0.349
-646.755	-116.309	0.207	0.039
-645.741	150.217	-0.167	0.228
-644.726	100.619	0.133	0.156
-643.711	131.474	-0.060	-0.078
-642.697	-200.000	-0.006	-0.130
-641.682	-200.000	-0.001	0.043
-640.668	123.673	0.061	0.077
-639.653	-200.000	0.003	-0.075
-638.638	-42.534	-0.151	-0.077
-637.624	436.633	-0.078	-0.172
-636.609	-46.265	-0.365	-0.181
-635.595	11.746	-0.314	0.243
-634.580	181.411	-0.036	-0.053
-633.565	123.653	0.038	0.048
-632.551	36.349	-0.099	-0.088
-631.536	286.312	-0.141	0.257
-630.522	214.000	0.077	0.123
-629.507	34.520	-0.197	0.173
-628.492	-172.022	-0.363	0.012
-627.478	-51.124	0.112	-0.053
-626.463	-101.939	-0.198	-0.048
-625.449	-52.208	0.329	-0.154
-624.434	800.000	-0.003	0.013
-623.419	536.149	0.074	-0.177
-622.405	-200.000	-0.012	-0.323
-621.390	460.777	0.071	0.158
-620.376	-23.325	0.389	-0.236
-619.361	406.894	0.125	0.265
-618.346	-200.000	0.029	0.406
-617.332	-63.256	-0.154	0.064
-616.317	173.464	-0.177	0.257
-615.303	92.120	-0.117	-0.133
-614.288	-200.000	-0.017	-0.327
-613.273	191.479	-0.152	-0.231
-612.259	-44.643	0.466	-0.235
-611.244	-2.076	-0.085	-0.060
-610.230	-126.546	-0.119	0.018
-609.215	-50.540	-0.037	-0.017
-608.201	-139.916	0.146	-0.016
-607.186	800.000	-0.018	0.066
-606.171	-35.348	-0.657	-0.360
-605.157	-103.044	0.256	-0.061
-604.142	-200.000	-0.003	-0.125
-603.128	-69.026	-0.417	0.162
-602.113	-200.000	0.033	0.263
-601.098	-200.000	0.028	-0.262
-600.084	-109.908	0.275	0.058
-599.069	215.451	-0.121	-0.193
-598.055	-200.000	-0.030	-0.386
-597.040	-17.931	0.241	-0.152
-596.025	141.235	-0.147	0.195
-595.011	-200.000	-0.007	-0.057
-593.996	-146.522	0.262	0.023
-592.982	327.773	0.172	-0.332
-591.967	94.114	0.148	-0.169
-590.952	800.000	0.033	-0.093
-589.938	-70.206	-0.162	-0.062
-588.923	-28.045	-0.230	0.134
-587.909	95.209	0.215	0.247
-586.894	800.000	-0.054	-0.150
-585.879	7.784	-0.194	-0.147
-584.865	-28.661	-0.252	-0.146
-583.850	32.502	-0.091	0.079
-582.836	800.000	0.034	-0.134
-581.821	-64.307	0.222	0.091
-580.806	-42.010	0.109	0.056
-579.792	349.343	-0.003	0.006
-578.777	155.324	-0.102	-0.142
-577.763	-57.837	0.228	-0.100
-576.748	233.594	0.172	-0.285
-575.733	361.506	0.143	0.288
-574.719	-43.111	-0.237	0.121
-573.704	-14.287	0.114	0.074
-572.690	-101.443	0.076	0.019
-571.675	-200.000	0.035	0.218
-570.661	800.000	0.010	-0.035
-569.646	-189.192	-0.272	-0.003
-568.631	-96.584	-0.301	0.080
-567.617	66.784	0.061	0.062
-566.602	-123.355	-0.195	0.031
-565.588	38.169	-0.313	-0.280
-564.573	379.504	0.133	-0.273
-563.558	131.792	0.173	-0.224
-562.544	-114.500	-0.367	-0.071
-561.529	800.000	-0.079	-0.249
-560.515	-127.862	0.367	0.053
-559.500	-173.348	-0.165	-0.005
-558.485	-21.354	0.255	-0.157
-557.471	-200.000	0.006	0.121
-556.456	52.353	0.184	0.177
-555.442	47.817	0.168	-0.157
-554.427	-77.083	0.062	0.022
-553.412	-70.660	0.284	-0.108
-552.398	170.920	-0.141	0.203
-551.383	-143.760	0.084	0.008
-550.369	-24.128	-0.234	0.140
-549.354	800.000	0.037	-0.117
-548.339	-56.740	0.153	0.068
-547.325	-7.278	0.270	-0.184
-546.310	-200.000	-0.056	0.361
-545.296	-70.854	0.185	0.070
-544.281	-200.000	-0.001	0.063
-543.266	-78.514	-0.126	-0.043
-542.252	-2.885	-0.070	0.049
-541.237	800.000	-0.029	-0.101
-540.223	217.414	0.087	0.139
-539.208	58.758	0.177	-0.175
-538.193	93.852	0.247	-0.281
-537.179	-30.293	-0.137	-0.078
-536.164	-46.073	0.112	0.055
-535.150	-200.000	0.018	-0.212
-534.135	275.025	-0.104	0.184
-533.121	27.441	0.125	0.106
-532.106	-23.467	0.197	-0.119
-531.091	-200.000	0.022	0.280
-530.077	157.746	0.058	0.080
-529.062	-175.571	-0.218	0.006
-528.048	17.269	-0.056	-0.045
-527.033	122.398	-0.026	-0.032
-526.018	-169.278	0.301	0.011
-525.004	88.097	-0.116	-0.129
-523.989	-30.916	0.243	-0.138
-522.975	264.641	-0.046	-0.080
-521.960	118.659	-0.212	-0.263
-520.945	305.807	0.172	0.321
-519.931	17.090	-0.248	-0.197
-518.916	-200.000	0.030	-0.199
-517.902	495.042	-0.073	0.168
-516.887	-200.000	0.006	0.078
-515.872	347.903	0.087	0.173
-514.858	-131.497	-0.448	0.059
-513.843	-200.000	0.027	-0.134
-512.829	-200.000	-0.024	0.241
-511.814	800.000	0.069	-0.231
-510.799	55.189	-0.147	-0.143
-509.785	-81.790	0.049	0.016
-508.770	-9.147	-0.207	0.139
-507.756	172.675	0.048	0.069
-506.741	1.171	-0.177	0.127
-505.726	-200.000	0.023	0.115
-504.712	782.456	0.028	-0.076
-503.697	-19.260	-0.229	0.143
-502.683	800.000	-0.072	0.286
-501.668	-101.984	-0.418	0.101
-500.653	-33.664	0.204	-0.113
-499.639	-61.536	0.124	-0.052
-498.624	-94.588	-0.335	-0.091
-497.610	-200.000	-0.052	-0.322
-496.595	56.087	-0.222	0.216
-495.581	-158.057	0.164	0.010
-494.566	-188.747	-0.182	0.002
-493.551	149.461	0.055	0.074
-492.537	28.614	-0.091	0.077
-491.522	702.442	0.084	-0.222
-490.508	-87.145	0.301	0.092
-489.493	94.383	0.073	0.083
-488.478	-200.000	0.034	-0.156
-487.464	-137.062	0.463	-0.053
-486.449	43.004	0.106	0.097
-485.435	-97.311	0.207	-0.054
-484.420	476.884	-0.109	0.248
-483.405	-200.000	-0.031	0.470
-482.391	-53.012	-0.154	-0.071
-481.376	-200.000	-0.012	-0.084
-480.362	800.000	0.103	-0.358
-479.347	648.322	0.057	0.145
-478.332	-97.757	-0.204	0.053
-477.318	-79.425	-0.522	0.177
-476.303	-103.348	0.157	0.037
-475.289	-62.635	0.150	0.062
-474.274	-200.000	0.051	-0.229
-473.259	-29.282	-0.495	-0.284
-472.245	183.029	0.119	0.176
-471.230	-63.826	-0.341	-0.140
-470.216	800.000	0.043	-0.167
-469.201	800.000	0.091	-0.326
-468.186	800.000	0.127	0.465
-467.172	285.674	0.027	0.048
-466.157	77.125	-0.017	-0.018
-465.143	-27.751	0.053	0.031
-464.128	-200.000	-0.034	0.283
-463.113	-173.522	0.279	-0.008
-462.099	642.845	-0.086	0.220
-461.084	157.980	-0.135	-0.188
-460.070	32.778	0.118	0.102
-459.055	13.334	-0.125	0.097
-458.040	45.349	0.168	0.155
-457.026	413.891	-0.025	-0.053
-456.011	310.309	0.200	-0.376
-454.997	-61.475	-0.114	0.048
-453.982	-200.000	0.012	-0.369
-452.968	154.063	0.168	-0.230
-451.953	178.427	0.062	0.091
-450.938	118.083	-0.127	0.157
-449.924	-175.362	0.237	-0.007
-448.909	-200.000	-0.013	-0.400
-447.895	673.457	-0.074	-0.192
-446.880	45.544	0.137	0.127
-445.865	800.000	-0.050	-0.143
-444.851	755.865	-0.072	0.195
-443.836	18.213	0.107	-0.086
-442.822	800.000	-0.050	-0.168
-441.807	-200.000	-0.251	0.001
-440.792	207.594	-0.089	0.139
-439.778	380.529	-0.036	0.074
-438.763	204.141	-0.067	-0.104
-437.749	-130.953	0.163	-0.022
-436.734	-200.000	-0.028	-0.180
-435.719	9.772	-0.193	0.146
-434.705	13.926	0.043	0.033
-433.690	41.659	-0.194	-0.176
-432.676	148.893	-0.261	-0.353
-431.661	29.230	-0.125	-0.106
-430.646	-200.000	-0.012	0.145
-429.632	103.864	-0.033	0.039
-428.617	19.270	0.308	-0.248
-427.603	61.900	0.107	-0.107
-426.588	-28.009	0.179	-0.104
-425.573	278.396	0.084	0.149
-424.559	-140.544	-0.057	0.006
-423.544	800.000	-0.088	0.246
-422.530	116.722	0.112	-0.138
-421.515	-200.000	-0.069	0.446
-420.500	-60.722	0.118	0.050
-419.486	-200.000	0.034	0.173
-418.471	-43.449	-0.050	0.025
-417.457	800.000	-0.040	0.135
-416.442	-41.145	-0.067	0.034
-415.428	800.000	0.022	0.084
-414.413	-200.000	-0.026	-0.176
-413.398	-200.000	-0.002	-0.155
-412.384	-0.516	0.264	0.187
-411.369	-200.000	-0.045	0.303
-410.355	-200.000	-0.006	-0.096
-409.340	-200.000	-0.026	-0.316
-408.325	-156.946	0.187	0.011
-407.311	-51.881	-0.296	0.137
-406.296	522.607	-0.193	0.454
-405.282	-107.204	0.104	0.023
-404.267	-200.000	-0.089	0.621
-403.252	169.904	0.213	0.304
-402.238	95.266	0.203	-0.231
-401.223	-58.032	-0.161	-0.070
-400.209	-53.126	0.111	0.051
-399.194	-196.602	-0.264	-0.002
-398.179	-66.522	0.112	0.044
-397.165	514.351	-0.043	-0.100
-396.150	36.547	-0.185	0.163
-395.136	360.297	-0.235	0.471
-394.121	-16.034	0.236	-0.150
-393.106	-55.985	-0.206	-0.092
-392.092	-126.613	-0.100	-0.015
-391.077	-74.119	0.096	0.035
-390.063	403.815	-0.086	-0.182
-389.048	800.000	-0.067	-0.203
-388.033	148.670	-0.133	-0.179
-387.019	-77.932	-0.302	-0.104
-386.004	-156.468	-0.078	-0.005
-384.990	-156.874	0.215	0.013
-383.975	-61.053	0.157	-0.066
-382.960	54.348	0.067	-0.064
-381.946	162.282	0.033	-0.046
-380.931	38.628	0.113	-0.101
-379.917	263.509	0.015	-0.027
-378.902	-200.000	0.006	0.340
-377.888	104.594	-0.103	-0.122
-376.873	1.761	0.214	-0.154
-375.858	-56.701	-0.525	0.232
-374.844	-24.552	0.205	0.122
-373.829	-200.000	-0.011	0.243
-372.815	-68.602	-0.285	0.110
-371.800	800.000	0.071	-0.208
-370.785	-112.099	0.156	0.031
-369.771	-1.437	-0.369	0.260
-368.756	-187.419	-0.232	-0.003
-367.742	-64.897	-0.142	0.057
-366.727	87.608	0.091	-0.101
-365.712	132.192	0.135	0.173
-364.698	-4.692	0.258	-0.177
-363.683	-35.874	0.328	0.177
-362.669	-137.983	0.271	0.030
-361.654	800.000	-0.028	0.095
-360.639	529.430	0.145	-0.342
-359.625	345.335	0.135	0.265
-358.610	99.102	0.390	0.450
-357.596	83.594	0.103	0.113
-356.581	765.496	-0.086	-0.233
-355.566	-177.609	0.451	-0.011
-354.552	295.726	-0.162	0.296
-353.537	66.645	0.191	-0.194
-352.523	456.853	0.037	-0.082
-351.508	-107.366	0.082	-0.018
-350.493	201.466	-0.198	-0.303
-349.479	-200.000	-0.012	-0.057
-348.464	800.000	0.131	-0.367
-347.450	-143.341	0.207	0.020
-346.435	116.885	0.192	0.235
-345.420	-90.716	0.299	0.086
-344.406	-103.637	-0.091	0.021
-343.391	70.040	0.158	-0.162
-342.377	351.452	0.060	0.118
-341.362	-92.172	0.311	0.088
-340.348	-200.000	0.011	0.211
-339.333	-126.271	-0.182	0.027
-338.318	-81.840	-0.149	-0.049
-337.304	-22.354	-0.147	-0.089
-336.289	-32.130	0.401	-0.223
-335.275	-43.891	-0.129	0.065
-334.260	-173.650	-0.239	0.007
-333.245	320.974	-0.085	0.161
-332.231	-108.924	-0.201	0.043
-331.216	301.458	-0.147	-0.272
-330.202	800.000	0.072	-0.302
-329.187	-108.941	0.381	0.081
-328.172	703.478	-0.151	-0.397
-327.158	436.248	0.109	-0.235
-326.143	238.393	-0.055	0.090
-325.129	-102.520	0.078	-0.019
-324.114	-40.528	0.150	-0.077
-323.099	-68.551	-0.355	-0.137
-322.085	800.000	-0.109	-0.309
-321.070	-25.957	-0.169	-0.099
-320.056	290.320	0.074	-0.133
-319.041	-58.211	-0.234	-0.102
-318.026	-5.144	-0.088	0.060
-317.012	800.000	-0.025	-0.075
-315.997	-76.888	0.121	-0.042
-314.983	-9.974	-0.204	-0.135
-313.968	-80.961	0.230	-0.076
-312.953	-75.970	-0.364	-0.128
-311.939	-83.547	-0.235	0.075
-310.924	-88.891	-0.165	0.049
-309.910	-200.000	0.041	-0.211
-308.895	198.048	0.143	0.218
-307.880	702.488	0.027	-0.071
-306.866	-83.655	-0.291	0.093
-305.851	-127.790	-0.170	-0.024
-304.837	800.000	-0.087	0.257
-303.822	33.375	0.131	-0.114
-302.807	800.000	0.045	-0.128
-301.793	-50.217	0.202	0.095
-300.778	-116.665	0.150	0.027
-299.764	-60.951	-0.134	-0.056
-298.749	-55.684	0.161	0.071
-297.735	45.790	-0.176	0.162
-296.720	555.021	0.027	-0.064
-295.705	370.651	0.148	-0.298
-294.691	601.833	-0.058	-0.143
-293.676	800.000	0.045	-0.192
-292.662	800.000	-0.022	-0.082
-291.647	142.825	0.157	-0.207
-290.632	-78.612	0.119	-0.040
-289.618	-200.000	0.041	0.342
-288.603	71.226	-0.131	0.136
-287.589	-56.031	-0.384	0.170
-286.574	-93.946	-0.006	0.002
-285.559	-12.833	0.188	0.122
-284.545	-9.689	0.324	-0.214
-283.530	-68.084	-0.167	-0.065
-282.516	-125.378	0.092	0.014
-281.501	-140.728	-0.053	0.005
-280.486	-168.713	-0.113	-0.004
-279.472	-82.883	-0.128	-0.041
-278.457	-200.000	-0.092	0.449
-277.443	-105.881	-0.342	-0.077
-276.428	-123.710	0.201	-0.032
-275.413	-182.611	-0.375	-0.007
-274.399	207.364	-0.157	0.244
-273.384	-200.000	0.024	0.189
-272.370	352.917	0.084	0.165
-271.355	675.220	0.090	0.231
-270.340	67.319	-0.071	-0.072
-269.326	-96.582	0.219	0.058
-268.311	-139.056	0.190	0.020
-267.297	39.518	0.220	-0.196
-266.282	261.656	0.104	-0.178
-265.267	435.458	0.081	0.175
-264.253	-140.018	-0.186	-0.020
-263.238	800.000	-0.071	-0.285
-262.224	70.174	-0.086	0.088
-261.209	-184.323	-0.128	0.002
-260.195	296.950	0.072	-0.131
-259.180	542.096	0.064	0.151
-258.165	229.912	-0.176	0.286
-257.151	-200.000	-0.034	-0.154
-256.136	697.785	0.133	0.348
-255.122	325.899	0.127	0.242
-254.107	235.802	-0.043	0.070
-253.092	595.504	-0.099	-0.244
-252.078	-117.615	-0.044	0.008
-251.063	-134.084	-0.317	-0.039
-250.049	-147.732	-0.098	0.008
-249.034	-200.000	0.009	0.072
-248.019	-103.852	0.160	-0.037
-247.005	-1.761	-0.061	-0.043
-245.990	152.560	0.260	0.353
-244.976	800.000	-0.089	0.264
-243.961	-200.000	0.009	-0.048
-242.946	23.867	-0.273	0.223
-241.932	459.153	0.088	-0.195
-240.917	-72.065	-0.107	-0.040
-239.903	-42.337	-0.201	-0.102
-238.888	-200.000	0.009	0.268
-237.873	-163.539	0.088	-0.004
-236.859	412.493	0.176	-0.372
-235.844	-169.674	-0.013	0.000
-234.830	-200.000	0.056	0.321
-233.815	-87.343	-0.172	0.052
-232.800	104.548	0.209	0.245
-231.786	-44.296	0.135	0.067
-230.771	-200.000	-0.053	-0.408
-229.757	251.799	-0.076	-0.128
-228.742	-116.489	0.201	-0.037
-227.727	294.495	0.026	0.048
-226.713	-77.678	-0.142	-0.049
-225.698	-200.000	0.019	0.193
-224.684	179.310	0.088	0.128
-223.669	-200.000	0.001	0.266
-222.655	20.426	0.346	0.278
-221.640	208.031	-0.187	0.290
-220.625	800.000	-0.022	0.092
-219.611	80.798	0.411	0.440
-218.596	-200.000	0.026	0.211
-217.582	-200.000	0.019	-0.128
-216.567	34.932	0.077	-0.067
-215.552	800.000	0.138	-0.448
-214.538	-200.000	0.014	0.101
-213.523	-122.672	-0.079	-0.013
-212.509	103.077	-0.163	0.189
-211.494	476.685	0.120	-0.269
-210.479	-200.000	0.072	-0.364
-209.465	179.400	-0.056	0.081
-208.450	-149.740	-0.091	0.007
-207.436	595.073	0.123	0.301
-206.421	58.020	-0.126	0.122
-205.406	31.828	0.093	-0.079
-204.392	-200.000	-0.002	-0.142
-203.377	730.018	-0.097	-0.258
-202.363	-200.000	0.062	-0.000
-201.348	59.643	0.033	0.032
-200.333	-185.349	0.108	0.002
-199.319	-104.531	0.139	-0.032
-198.304	-78.939	-0.314	-0.106
-197.290	140.267	-0.208	0.272
-196.275	-200.000	-0.017	-0.108
-195.260	33.409	0.327	0.282
-194.246	-75.940	0.129	-0.045
-193.231	-23.474	0.160	0.095
-192.217	116.772	0.031	0.038
-191.202	-200.000	0.035	-0.475
-190.187	-23.531	0.302	0.179
-189.173	-200.000	0.029	0.180
-188.158	-95.177	-0.162	-0.043
-187.144	196.259	-0.091	0.137
-186.129	390.097	0.167	0.342
-185.114	144.603	-0.103	0.137
-184.100	-62.282	0.205	0.085
-183.085	26.490	-0.159	-0.132
-182.071	800.000	0.044	-0.139
-181.056	-48.824	-0.133	0.063
-180.042	36.110	0.091	0.079
-179.027	-200.000	0.005	-0.066
-178.012	14.453	-0.029	-0.022
-176.998	-20.873	0.342	0.208
-175.983	-50.568	0.227	0.106
-174.969	800.000	0.108	-0.463
-173.954	-98.463	0.218	0.055
-172.939	-44.285	0.090	-0.045
-171.925	19.925	0.161	0.129
-170.910	413.131	-0.111	-0.233
-169.896	-102.018	-0.235	-0.056
-168.881	-34.435	-0.044	-0.024
-167.866	-13.574	-0.116	0.074
-166.852	10.049	0.167	-0.126
-165.837	-69.388	0.595	0.226
-164.823	86.126	0.134	0.146
-163.808	-64.115	-0.341	-0.138
-162.793	121.356	0.197	-0.243
-161.779	-125.834	-0.239	-0.036
-160.764	800.000	-0.053	0.181
-159.750	-5.451	-0.235	0.160
-158.735	800.000	-0.074	0.279
-157.720	-29.753	0.152	-0.086
-156.706	-200.000	0.027	0.249
-155.691	152.186	0.150	0.203
-154.677	-26.390	-0.449	-0.261
-153.662	800.000	0.013	-0.050
-152.647	-145.885	0.111	-0.010
-151.633	-200.000	0.021	-0.339
-150.618	-66.163	0.127	-0.050
-149.604	-200.000	0.007	0.123
-148.589	-11.214	0.140	0.091
-147.574	481.179	-0.059	-0.132
-146.560	-200.000	0.042	0.488
-145.545	315.925	0.139	0.259
-144.531	-43.524	-0.166	-0.083
-143.516	-200.000	0.054	0.280
-142.502	-100.089	-0.095	0.023
-141.487	214.364	-0.084	0.132
-140.472	-73.778	-0.117	-0.042
-139.458	521.875	-0.103	0.239
-138.443	-130.370	0.176	-0.024
-137.429	-79.482	0.370	0.124
-136.414	2.076	-0.201	-0.144
-135.399	25.432	-0.073	-0.060
-134.385	800.000	0.053	0.219
-133.370	744.665	-0.030	-0.079
-132.356	-84.835	0.119	0.037
-131.341	88.155	-0.333	0.366
-130.326	546.984	0.093	0.219
-129.312	-56.482	0.176	0.077
-128.297	98.932	-0.112	-0.128
-127.283	-116.194	0.065	0.012
-126.268	-24.369	-0.167	0.098
-125.253	96.387	0.123	0.139
-124.239	263.720	-0.117	-0.200
-123.224	717.801	0.087	0.228
-122.210	800.000	-0.039	0.151
-121.195	-76.390	-0.173	0.060
