DTS Sentinel unit serial number:	SN413079Multiplexer serial number:	ORYXHardware model number:	OX4-SRSoftware version number:	ORYX F/W v4.00 Oryx Data Collector v3.7.2.0data status	okinstallation	princeton_trtdifferential loss correction	single-endedforward channel	channel 4reverse channel	N/Adate	2019/09/12time	02:23:11forward acquisition time	60.00reverse acquisition time	0.00gamma	496.2192k internal	0.2309k external	0.2309temperature offset calibration	1.0090default loss term (dB/km)	0.3790temperature slope calibration	1.0000multiplexer offset coefficient	1.0000multiplexer slope coefficient	1.0000fibre end	0.00T internal ref (°C)	32.53T ext. ref 1 (°C)	2.07T ext. ref 2 (°C)	26.91length (m)	temperature (°C)	Stokes	anti-Stokes-747.200	800.000	0.072	-0.208
-746.185	324.487	0.107	0.208
-745.171	-200.000	-0.018	0.255
-744.156	380.587	-0.086	-0.180
-743.142	-140.537	0.305	0.032
-742.127	140.106	0.061	0.081
-741.112	52.676	0.121	0.117
-740.098	-200.000	0.009	0.175
-739.083	-200.000	0.018	0.248
-738.069	-92.528	-0.269	-0.077
-737.054	800.000	0.109	0.346
-736.039	58.276	0.086	-0.086
-735.025	-65.395	0.162	-0.066
-734.010	-66.489	0.026	-0.010
-732.996	669.508	0.223	-0.585
-731.981	800.000	-0.039	-0.132
-730.966	-200.000	-0.041	-0.312
-729.952	-73.091	-0.148	0.055
-728.937	59.282	-0.058	-0.058
-727.923	-74.427	-0.423	0.155
-726.908	82.545	-0.306	0.338
-725.894	800.000	0.130	-0.463
-724.879	-77.869	-0.357	-0.125
-723.864	800.000	0.054	0.236
-722.850	-191.784	0.160	-0.002
-721.835	-6.758	-0.112	-0.078
-720.821	1.304	-0.129	-0.094
-719.806	-108.537	0.019	0.004
-718.791	-200.000	0.052	-0.338
-717.777	-200.000	-0.054	-0.376
-716.762	18.152	0.078	-0.063
-715.748	555.461	-0.002	-0.004
-714.733	-103.740	0.024	-0.006
-713.718	-25.953	-0.325	-0.194
-712.704	156.487	-0.164	-0.230
-711.689	-29.826	0.108	-0.062
-710.675	-74.268	-0.119	-0.044
-709.660	119.547	0.070	0.087
-708.645	251.136	-0.131	-0.226
-707.631	-200.000	-0.043	-0.262
-706.616	55.257	0.132	0.130
-705.602	-200.000	0.094	-0.453
-704.587	-109.627	0.075	-0.016
-703.572	-176.215	-0.220	0.006
-702.558	-39.845	-0.306	0.162
-701.543	342.884	-0.056	0.112
-700.529	-200.000	-0.026	-0.223
-699.514	-90.340	-0.099	-0.029
-698.499	-129.025	-0.192	0.027
-697.485	54.676	-0.125	0.122
-696.470	236.291	-0.048	0.081
-695.456	800.000	0.021	-0.087
-694.441	-138.060	-0.292	-0.033
-693.426	-200.000	0.018	0.118
-692.412	-200.000	0.065	0.453
-691.397	-200.000	-0.020	0.154
-690.383	-119.306	-0.376	-0.066
-689.368	800.000	-0.076	0.245
-688.354	146.099	0.152	0.207
-687.339	-94.520	0.212	-0.059
-686.324	-12.948	-0.261	-0.172
-685.310	48.770	-0.239	0.228
-684.295	-200.000	0.004	-0.102
-683.281	-200.000	0.069	-0.355
-682.266	-86.625	0.058	-0.018
-681.251	238.413	-0.103	0.174
-680.237	-159.694	-0.164	-0.009
-679.222	-79.872	-0.261	-0.089
-678.208	151.712	-0.108	0.149
-677.193	-119.066	0.456	-0.081
-676.178	706.308	0.088	-0.235
-675.164	29.543	-0.203	-0.175
-674.149	-200.000	0.014	-0.469
-673.135	800.000	0.043	0.135
-672.120	-35.430	-0.126	-0.069
-671.105	1.415	-0.124	0.090
-670.091	-63.918	0.105	-0.044
-669.076	-200.000	0.011	-0.305
-668.062	90.110	-0.140	-0.159
-667.047	197.403	-0.157	0.242
-666.032	36.493	0.234	0.209
-665.018	7.269	-0.070	-0.053
-664.003	235.339	0.006	0.010
-662.989	-75.005	0.136	-0.049
-661.974	800.000	-0.062	0.215
-660.959	800.000	0.046	0.141
-659.945	-75.902	-0.387	0.139
-658.930	-110.346	0.025	0.005
-657.916	291.894	-0.060	-0.112
-656.901	-200.000	0.001	0.184
-655.886	-200.000	0.015	0.552
-654.872	26.970	0.250	0.212
-653.857	-32.588	-0.116	-0.065
-652.843	138.634	-0.041	0.054
-651.828	592.710	-0.070	-0.175
-650.814	-200.000	0.057	-0.261
-649.799	-32.821	0.303	-0.170
-648.784	800.000	0.077	0.277
-647.770	-40.773	0.209	0.110
-646.755	218.588	0.115	0.186
-645.741	385.878	-0.028	0.058
-644.726	-124.002	0.092	0.015
-643.711	-120.133	0.225	0.039
-642.697	527.989	-0.090	0.215
-641.682	-200.000	-0.021	-0.182
-640.668	95.739	-0.260	0.300
-639.653	275.402	0.156	0.279
-638.638	-36.208	0.128	-0.070
-637.624	-128.724	0.295	0.042
-636.609	800.000	0.017	-0.056
-635.595	-117.702	-0.432	-0.079
-634.580	-7.355	-0.121	0.083
-633.565	-134.395	0.178	0.022
-632.551	-92.141	-0.160	-0.046
-631.536	282.320	-0.113	0.204
-630.522	-200.000	0.030	-0.139
-629.507	314.281	0.034	0.065
-628.492	-52.770	-0.316	-0.147
-627.478	70.451	-0.060	0.063
-626.463	-100.217	-0.127	0.032
-625.449	16.160	-0.109	0.087
-624.434	-54.493	-0.279	0.128
-623.419	-137.564	-0.091	0.010
-622.405	-79.233	-0.322	-0.110
-621.390	-38.229	0.199	-0.107
-620.376	-200.000	0.016	-0.258
-619.361	28.914	0.058	0.050
-618.346	-140.088	0.138	-0.015
-617.332	21.689	0.141	0.116
-616.317	21.228	0.415	-0.341
-615.303	-83.991	-0.176	-0.056
-614.288	-33.997	-0.115	-0.064
-613.273	433.524	-0.058	-0.128
-612.259	16.050	0.228	-0.182
-611.244	-9.799	-0.200	0.135
-610.230	14.163	0.088	0.069
-609.215	-13.149	-0.179	-0.118
-608.201	45.581	-0.177	-0.165
-607.186	-162.697	-0.269	-0.013
-606.171	0.076	0.041	0.029
-605.157	116.736	0.047	-0.059
-604.142	48.523	0.290	-0.275
-603.128	-64.099	-0.249	-0.103
-602.113	-112.541	0.373	-0.075
-601.098	-132.983	-0.275	-0.035
-600.084	-200.000	-0.005	-0.089
-599.069	-121.803	0.030	0.005
-598.055	-135.500	0.183	0.022
-597.040	286.376	0.039	0.071
-596.025	375.592	-0.203	-0.419
-595.011	113.718	0.179	-0.219
-593.996	68.241	-0.145	-0.150
-592.982	-127.757	-0.128	0.019
-591.967	16.384	-0.286	-0.228
-590.952	-200.000	0.017	-0.314
-589.938	800.000	0.039	0.119
-588.923	800.000	0.062	-0.226
-587.909	-51.456	-0.205	0.097
-586.894	800.000	0.076	-0.234
-585.879	311.981	0.147	0.279
-584.865	300.460	0.147	0.274
-583.850	-57.319	-0.546	0.242
-582.836	62.468	-0.193	-0.195
-581.821	186.111	-0.135	-0.202
-580.806	800.000	0.072	0.233
-579.792	-93.066	0.141	-0.040
-578.777	-200.000	0.021	-0.187
-577.763	-55.359	-0.218	-0.099
-576.748	247.962	-0.077	0.131
-575.733	-200.000	-0.009	0.189
-574.719	88.727	-0.292	-0.328
-573.704	-200.000	-0.003	-0.089
-572.690	118.062	-0.095	0.118
-571.675	-172.926	0.174	-0.005
-570.661	-60.014	0.088	-0.038
-569.646	-200.000	0.019	-0.168
-568.631	-200.000	-0.037	-0.177
-567.617	-55.946	-0.072	-0.033
-566.602	800.000	-0.081	-0.240
-565.588	-200.000	-0.005	0.084
-564.573	101.162	0.089	0.105
-563.558	-61.175	0.117	0.050
-562.544	156.376	0.175	0.243
-561.529	-200.000	0.025	-0.134
-560.515	11.450	0.169	-0.131
-559.500	79.396	0.081	-0.087
-558.485	-200.000	-0.039	-0.194
-557.471	-31.705	-0.203	0.115
-556.456	280.497	-0.116	0.210
-555.442	-200.000	-0.039	0.206
-554.427	177.809	-0.062	0.092
-553.412	85.555	-0.213	-0.236
-552.398	249.821	0.093	-0.158
-551.383	-147.050	0.138	0.012
-550.369	-111.282	-0.076	0.016
-549.354	-62.092	0.159	-0.067
-548.339	253.321	-0.064	-0.110
-547.325	-35.887	-0.109	0.059
-546.310	55.090	-0.183	-0.178
-545.296	-26.148	-0.054	0.032
-544.281	-200.000	-0.037	-0.195
-543.266	241.987	-0.141	0.237
-542.252	-29.050	0.383	0.222
-541.237	-129.168	0.146	-0.021
-540.223	341.438	0.115	-0.227
-539.208	-200.000	0.010	-0.181
-538.193	121.529	0.124	0.156
-537.179	62.695	0.142	0.143
-536.164	-82.410	0.357	0.117
-535.150	-200.000	0.022	0.168
-534.135	-146.094	-0.095	0.008
-533.121	-98.556	-0.193	-0.050
-532.106	173.923	0.105	-0.153
-531.091	51.225	0.211	-0.202
-530.077	-111.987	-0.186	0.038
-529.062	-54.579	-0.082	-0.037
-528.048	-120.496	0.159	0.027
-527.033	-146.658	0.298	-0.026
-526.018	-200.000	-0.010	-0.073
-525.004	-95.455	-0.187	0.050
-523.989	800.000	-0.051	0.208
-522.975	-52.088	0.162	-0.076
-521.960	570.956	0.073	0.178
-520.945	800.000	0.020	-0.065
-519.931	-118.469	-0.191	-0.034
-518.916	-102.405	-0.248	0.060
-517.902	-96.014	-0.186	0.050
-516.887	350.741	0.100	-0.199
-515.872	800.000	-0.023	0.077
-514.858	259.174	-0.078	0.135
-513.843	174.577	-0.090	-0.131
-512.829	463.548	0.128	-0.287
-511.814	-185.166	-0.055	-0.001
-510.799	-105.682	0.167	-0.038
-509.785	800.000	-0.090	-0.251
-508.770	24.436	-0.002	0.002
-507.756	208.403	0.171	0.269
-506.741	-67.073	0.254	0.101
-505.726	-200.000	-0.001	-0.154
-504.712	19.060	0.165	0.133
-503.697	412.242	0.062	-0.132
-502.683	94.555	-0.116	0.133
-501.668	-122.491	-0.334	0.055
-500.653	-200.000	0.013	-0.205
-499.639	27.898	0.234	0.198
-498.624	-140.796	-0.237	-0.025
-497.610	-3.628	-0.258	0.181
-496.595	-200.000	0.000	-0.227
-495.581	800.000	-0.010	-0.044
-494.566	-85.572	0.167	0.052
-493.551	-28.243	-0.352	0.204
-492.537	-39.394	-0.217	0.115
-491.522	-200.000	0.007	-0.177
-490.508	-47.277	0.109	-0.053
-489.493	-200.000	-0.009	-0.086
-488.478	-200.000	-0.000	0.224
-487.464	-141.823	0.305	0.031
-486.449	800.000	0.072	0.258
-485.435	-99.525	-0.250	-0.063
-484.420	-200.000	0.017	0.094
-483.405	-83.457	0.302	0.097
-482.391	-92.335	0.151	0.043
-481.376	-200.000	-0.056	-0.257
-480.362	800.000	0.047	-0.168
-479.347	683.922	0.059	-0.156
-478.332	-114.566	-0.242	0.047
-477.318	506.790	-0.085	0.198
-476.303	-141.485	-0.179	0.018
-475.289	40.417	0.101	-0.091
-474.274	-200.000	-0.038	0.222
-473.259	68.433	0.208	-0.214
-472.245	-200.000	0.015	0.093
-471.230	1.284	0.088	-0.064
-470.216	800.000	0.039	-0.160
-469.201	-200.000	0.034	0.210
-468.186	-38.850	-0.052	0.028
-467.172	-97.639	-0.144	0.038
-466.157	800.000	-0.024	0.085
-465.143	-200.000	0.012	-0.192
-464.128	800.000	-0.040	-0.165
-463.113	-5.834	-0.256	0.176
-462.099	106.085	-0.194	0.231
-461.084	24.752	-0.160	0.133
-460.070	-127.561	-0.141	0.021
-459.055	-44.339	0.119	0.060
-458.040	218.846	-0.042	0.068
-457.026	800.000	0.044	-0.171
-456.011	-200.000	0.008	-0.201
-454.997	-200.000	-0.005	-0.129
-453.982	453.234	-0.124	0.276
-452.968	499.309	0.008	-0.019
-451.953	176.855	0.200	-0.292
-450.938	67.120	-0.181	-0.186
-449.924	48.513	0.207	-0.195
-448.909	800.000	-0.122	-0.394
-447.895	234.381	0.040	0.067
-446.880	-114.200	-0.180	-0.035
-445.865	122.233	0.254	-0.318
-444.851	238.669	0.137	-0.228
-443.836	-33.861	0.207	-0.114
-442.822	-200.000	-0.017	0.242
-441.807	133.779	0.100	0.130
-440.792	-31.458	0.382	0.216
-439.778	-48.597	0.211	0.102
-438.763	357.824	-0.051	-0.103
-437.749	-200.000	0.063	0.332
-436.734	-52.381	0.234	0.109
-435.719	161.853	0.081	0.114
-434.705	-20.419	-0.155	-0.095
-433.690	137.527	-0.167	-0.220
-432.676	-121.559	0.212	0.035
-431.661	34.686	0.234	0.205
-430.646	800.000	-0.017	0.063
-429.632	30.710	0.197	0.169
-428.617	-200.000	-0.004	-0.050
-427.603	-89.607	0.134	-0.039
-426.588	513.094	0.134	-0.313
-425.573	215.925	-0.198	-0.316
-424.559	-200.000	0.015	-0.252
-423.544	148.613	0.243	0.329
-422.530	198.096	0.170	-0.260
-421.515	-123.809	-0.358	0.057
-420.500	-99.543	0.395	-0.100
-419.486	179.016	0.184	-0.269
-418.471	-138.558	0.085	0.009
-417.457	-28.560	0.111	-0.064
-416.442	134.064	0.207	-0.269
-415.428	-74.495	0.019	0.007
-414.413	321.818	-0.052	0.100
-413.398	800.000	-0.014	0.053
-412.384	207.228	0.113	0.177
-411.369	246.646	0.079	0.134
-410.355	-29.670	0.163	-0.093
-409.340	-200.000	-0.017	-0.139
-408.325	148.480	-0.132	0.178
-407.311	598.889	-0.030	-0.073
-406.296	800.000	0.096	0.315
-405.282	14.814	0.297	0.233
-404.267	-16.255	0.142	0.091
-403.252	-200.000	0.007	-0.125
-402.238	194.209	-0.234	0.355
-401.223	800.000	-0.101	-0.285
-400.209	800.000	-0.086	0.312
-399.194	-148.777	-0.147	-0.012
-398.179	13.613	0.204	0.159
-397.165	-71.346	-0.101	-0.038
-396.150	-102.371	-0.418	-0.100
-395.136	-79.301	-0.288	-0.098
-394.121	-200.000	0.013	-0.165
-393.106	-20.554	-0.027	-0.017
-392.092	56.347	-0.125	-0.121
-391.077	-9.582	0.135	0.090
-390.063	291.842	0.101	0.185
-389.048	20.165	-0.205	-0.166
-388.033	-49.018	0.138	0.066
-387.019	-200.000	-0.015	-0.164
-386.004	-112.824	-0.388	0.077
-384.990	0.768	0.060	0.043
-383.975	800.000	-0.027	-0.099
-382.960	-134.169	-0.110	0.014
-381.946	63.867	-0.142	0.143
-380.931	-61.407	-0.087	0.037
-379.917	279.170	-0.156	0.278
-378.902	-200.000	0.018	0.099
-377.888	736.583	0.053	0.143
-376.873	-7.905	-0.202	-0.136
-375.858	-0.945	-0.064	-0.046
-374.844	-21.308	0.162	-0.099
-373.829	-78.869	-0.087	0.030
-372.815	204.151	0.069	0.107
-371.800	41.304	-0.126	0.114
-370.785	29.420	-0.139	0.118
-369.771	800.000	0.084	-0.290
-368.756	121.685	-0.104	0.130
-367.742	-131.027	-0.373	0.050
-366.727	8.705	-0.026	0.019
-365.712	-114.148	0.293	0.057
-364.698	-136.727	-0.444	0.051
-363.683	195.084	-0.192	-0.291
-362.669	-92.831	0.252	-0.070
-361.654	-200.000	0.039	0.319
-360.639	45.386	-0.171	-0.158
-359.625	-114.338	-0.244	0.047
-358.610	296.285	-0.060	0.111
-357.596	-54.399	-0.201	0.091
-356.581	-200.000	0.060	-0.451
-355.566	-200.000	-0.002	0.145
-354.552	800.000	0.015	-0.049
-353.537	44.083	-0.161	0.147
-352.523	-130.735	-0.210	0.028
-351.508	123.143	-0.079	0.099
-350.493	-108.227	-0.124	-0.027
-349.479	83.319	0.038	0.042
-348.464	48.637	0.478	0.448
-347.450	-5.912	0.087	0.060
-346.435	82.435	0.048	-0.052
-345.420	-43.541	-0.242	-0.122
-344.406	132.062	0.224	0.289
-343.391	191.521	-0.132	-0.198
-342.377	-146.091	0.198	-0.017
-341.362	361.766	0.064	-0.129
-340.348	-109.704	0.349	0.073
-339.333	-1.702	0.045	0.032
-338.318	-41.234	0.010	-0.005
-337.304	-109.925	-0.321	0.067
-336.289	-57.972	0.083	0.036
-335.275	143.404	0.155	0.206
-334.260	-80.088	-0.265	-0.089
-333.245	-103.449	0.172	0.041
-332.231	-28.444	-0.237	0.137
-331.216	-89.314	-0.162	0.048
-330.202	3.489	-0.163	0.118
-329.187	-16.645	-0.145	-0.092
-328.172	-200.000	-0.027	0.120
-327.158	184.757	-0.207	0.307
-326.143	47.076	-0.198	0.184
-325.129	190.912	-0.123	-0.185
-324.114	-200.000	-0.022	-0.190
-323.099	717.040	-0.031	0.083
-322.085	257.069	0.124	0.214
-321.070	-174.049	-0.186	-0.005
-320.056	800.000	0.090	0.299
-319.041	448.185	0.048	-0.106
-318.026	554.397	0.057	0.136
-317.012	-200.000	0.027	-0.130
-315.997	800.000	-0.085	-0.287
-314.983	21.766	0.145	-0.118
-313.968	280.398	-0.144	0.257
-312.953	-15.101	0.131	-0.084
-311.939	-200.000	0.070	-0.445
-310.924	239.043	0.109	0.180
-309.910	-200.000	-0.003	-0.072
-308.895	-18.187	0.129	0.081
-307.880	-26.497	-0.136	0.080
-306.866	-146.887	0.048	-0.004
-305.851	-194.597	-0.552	0.004
-304.837	-77.360	0.265	-0.092
-303.822	-198.711	0.202	-0.001
-302.807	-160.633	-0.352	0.019
-301.793	-33.069	-0.102	-0.057
-300.778	-138.360	-0.175	-0.019
-299.764	-49.790	0.063	-0.030
-298.749	331.463	-0.125	-0.240
-297.735	-52.696	0.352	-0.162
-296.720	-200.000	-0.058	0.341
-295.705	-200.000	-0.020	0.213
-294.691	-80.181	-0.083	-0.028
-293.676	-46.660	0.293	0.143
-292.662	12.670	-0.183	-0.141
-291.647	-113.854	-0.249	0.048
-290.632	-121.114	0.325	-0.054
-289.618	38.686	-0.137	-0.122
-288.603	9.280	-0.109	0.082
-287.589	-28.912	0.117	0.067
-286.574	377.345	0.053	0.107
-285.559	-95.803	-0.207	-0.055
-284.545	201.405	-0.032	0.050
-283.530	90.711	-0.216	0.241
-282.516	-75.605	0.124	0.044
-281.501	46.249	0.347	0.321
-280.486	-129.151	-0.074	0.010
-279.472	107.561	-0.131	0.156
-278.457	381.489	0.101	0.207
-277.443	-148.786	0.102	0.008
-276.428	-200.000	-0.041	0.220
-275.413	659.261	-0.127	0.326
-274.399	-127.665	-0.174	0.025
-273.384	-148.459	0.395	0.032
-272.370	32.737	-0.028	-0.024
-271.355	-4.739	-0.386	0.266
-270.340	537.500	-0.059	0.141
-269.326	-48.057	-0.233	-0.112
-268.311	-200.000	0.001	-0.106
-267.297	140.236	-0.041	-0.054
-266.282	800.000	-0.034	0.127
-265.267	-200.000	-0.000	-0.098
-264.253	585.178	0.172	-0.421
-263.238	-200.000	-0.002	0.242
-262.224	-145.122	0.273	-0.025
-261.209	765.231	0.027	0.074
-260.195	-200.000	-0.057	0.301
-259.180	61.846	0.201	-0.200
-258.165	-200.000	-0.054	-0.322
-257.151	62.354	0.205	0.204
-256.136	108.683	0.262	0.312
-255.122	-107.749	0.354	0.077
-254.107	100.515	0.081	-0.093
-253.092	101.450	0.133	-0.155
-252.078	729.456	0.154	0.410
-251.063	21.449	0.132	-0.107
-250.049	-3.097	0.479	0.333
-249.034	-0.189	0.064	-0.045
-248.019	-200.000	-0.040	0.260
-247.005	78.108	0.067	0.071
-245.990	255.520	-0.042	0.071
-244.976	753.828	-0.070	-0.188
-243.961	-200.000	0.069	0.328
-242.946	-200.000	-0.057	0.351
-241.932	-200.000	-0.018	-0.104
-240.917	-200.000	-0.029	-0.284
-239.903	-102.206	0.420	0.101
-238.888	-43.712	0.142	0.071
-237.873	-65.964	-0.302	-0.120
-236.859	800.000	-0.102	0.292
-235.844	58.499	-0.092	-0.090
-234.830	794.023	0.093	0.254
-233.815	302.480	-0.053	-0.097
-232.800	-200.000	-0.011	-0.053
-231.786	-92.836	-0.248	0.069
-230.771	-109.754	0.085	0.018
-229.757	14.428	0.218	0.169
-228.742	309.052	-0.129	0.240
-227.727	418.375	0.060	0.127
-226.713	-200.000	0.042	-0.223
-225.698	-77.392	0.318	-0.110
-224.684	-69.531	-0.098	0.037
-223.669	800.000	-0.033	-0.095
-222.655	-106.884	0.173	0.038
-221.640	154.548	0.314	-0.430
-220.625	-170.006	0.103	-0.004
-219.611	-158.442	0.348	0.020
-218.596	64.241	-0.056	-0.056
-217.582	-44.831	0.191	0.095
-216.567	-153.498	-0.036	-0.002
-215.552	-172.361	-0.485	-0.015
-214.538	-28.132	0.047	-0.027
-213.523	459.345	0.102	-0.226
-212.509	36.301	0.030	0.026
-211.494	520.524	0.155	-0.361
-210.479	368.955	-0.007	0.014
-209.465	188.513	0.019	-0.028
-208.450	-120.824	0.174	-0.029
-207.436	216.260	-0.150	0.238
-206.421	155.892	-0.080	-0.110
-205.406	340.523	0.035	-0.067
-204.392	271.034	-0.109	-0.190
-203.377	-102.180	-0.196	0.047
-202.363	-44.028	-0.175	-0.088
-201.348	-78.495	0.104	-0.035
-200.333	-101.867	-0.134	-0.032
-199.319	218.604	-0.100	-0.159
-198.304	-5.107	0.145	-0.099
-197.290	800.000	0.085	-0.305
-196.275	-35.718	-0.378	-0.204
-195.260	-39.970	0.120	-0.062
-194.246	-17.682	-0.056	0.035
-193.231	-1.306	-0.183	0.128
-192.217	-108.060	-0.529	0.114
-191.202	-167.190	0.266	0.011
-190.187	-2.582	0.430	-0.299
-189.173	65.310	0.126	-0.126
-188.158	-102.869	0.208	-0.049
-187.144	48.990	0.185	0.172
-186.129	136.622	0.049	-0.064
-185.114	-200.000	-0.045	-0.330
-184.100	666.486	-0.169	-0.435
-183.085	-11.230	-0.164	0.107
-182.071	-90.104	-0.183	-0.053
-181.056	-7.848	-0.352	-0.236
-180.042	78.867	0.198	-0.210
-179.027	-60.494	-0.248	0.105
-178.012	139.328	0.229	0.300
-176.998	-89.301	0.131	-0.038
-175.983	9.727	-0.063	-0.048
-174.969	-22.659	0.220	0.132
-173.954	-174.663	-0.229	-0.006
-172.939	417.619	-0.069	0.146
-171.925	790.846	0.073	0.200
-170.910	97.108	0.208	0.238
-169.896	150.369	-0.028	0.038
-168.881	156.109	-0.131	0.179
-167.866	-200.000	-0.007	0.034
-166.852	-200.000	-0.026	-0.253
-165.837	237.152	-0.074	0.122
-164.823	-2.530	0.214	-0.149
-163.808	-200.000	0.040	-0.221
-162.793	28.831	0.072	0.061
-161.779	-33.032	0.189	-0.104
-160.764	86.535	0.040	-0.044
-159.750	-49.172	0.146	-0.069
-158.735	400.372	-0.069	-0.143
-157.720	716.014	0.121	-0.318
-156.706	233.042	-0.185	-0.301
-155.691	-95.653	0.216	0.057
-154.677	-200.000	-0.043	0.263
-153.662	-200.000	0.012	0.187
-152.647	-200.000	0.019	0.127
-151.633	-25.581	-0.265	0.156
-150.618	295.738	0.104	0.190
-149.604	800.000	0.095	-0.268
-148.589	-200.000	0.011	0.173
-147.574	588.537	-0.031	-0.076
-146.560	5.246	0.066	0.048
-145.545	9.726	0.212	-0.159
-144.531	-200.000	-0.053	-0.297
-143.516	-148.145	0.483	0.040
-142.502	158.325	-0.183	0.252
-141.487	800.000	-0.044	-0.162
-140.472	-200.000	-0.023	0.139
-139.458	-200.000	-0.004	0.090
-138.443	9.372	-0.227	-0.171
-137.429	19.230	-0.152	0.121
-136.414	-72.496	0.445	-0.163
-135.399	425.474	-0.138	-0.295
-134.385	65.462	0.212	-0.212
-133.370	42.546	-0.133	-0.120
-132.356	-126.084	-0.512	-0.076
-131.341	23.484	-0.331	0.270
-130.326	63.089	-0.181	-0.180
-129.312	94.105	-0.138	-0.156
-128.297	108.273	0.144	0.171
-127.283	33.156	0.173	-0.149
-126.268	800.000	-0.126	-0.396
-125.253	145.714	0.025	0.033
-124.239	73.976	-0.038	0.040
-123.224	421.147	0.144	0.306
-122.210	800.000	-0.051	0.174
-121.195	800.000	-0.087	0.245
