DTS Sentinel unit serial number:	SN413079Multiplexer serial number:	ORYXHardware model number:	OX4-SRSoftware version number:	ORYX F/W v4.00 Oryx Data Collector v3.7.2.0data status	okinstallation	princeton_trtdifferential loss correction	single-endedforward channel	channel 4reverse channel	N/Adate	2019/09/12time	03:03:11forward acquisition time	60.00reverse acquisition time	0.00gamma	496.2192k internal	0.2310k external	0.2310temperature offset calibration	1.0091default loss term (dB/km)	0.3790temperature slope calibration	1.0000multiplexer offset coefficient	1.0000multiplexer slope coefficient	1.0000fibre end	0.00T internal ref (°C)	32.31T ext. ref 1 (°C)	2.10T ext. ref 2 (°C)	27.31length (m)	temperature (°C)	Stokes	anti-Stokes-747.200	10.164	-0.215	-0.166
-746.185	73.697	-0.048	0.051
-745.171	68.236	0.123	0.128
-744.156	-200.000	0.047	0.438
-743.142	-100.738	0.207	-0.052
-742.127	-182.355	-0.571	-0.011
-741.112	-53.940	-0.175	0.081
-740.098	-62.144	-0.142	-0.060
-739.083	83.831	0.138	-0.153
-738.069	-26.224	0.258	-0.154
-737.054	-100.344	-0.182	-0.046
-736.039	-60.243	-0.179	0.077
-735.025	255.312	0.187	0.326
-734.010	20.955	-0.160	-0.131
-732.996	-200.000	0.012	0.237
-731.981	69.503	-0.212	0.222
-730.966	-200.000	-0.033	0.255
-729.952	-200.000	0.036	-0.163
-728.937	-101.005	-0.183	0.046
-727.923	-200.000	0.008	0.062
-726.908	325.907	-0.103	0.199
-725.894	-1.532	0.205	-0.146
-724.879	728.369	0.073	-0.198
-723.864	-54.922	-0.245	-0.112
-722.850	5.630	-0.113	0.085
-721.835	-4.331	0.208	-0.146
-720.821	-7.726	-0.531	0.364
-719.806	52.445	-0.147	0.142
-718.791	-200.000	-0.027	-0.186
-717.777	223.213	0.044	0.072
-716.762	-111.414	0.085	0.018
-715.748	122.088	-0.123	-0.156
-714.733	800.000	0.087	0.320
-713.718	-127.352	0.475	-0.070
-712.704	643.230	0.008	-0.020
-711.689	88.962	-0.283	0.319
-710.675	-29.807	-0.316	0.183
-709.660	-55.784	-0.023	-0.011
-708.645	-75.579	0.460	0.166
-707.631	211.393	0.036	-0.058
-706.616	-26.029	0.192	-0.115
-705.602	-200.000	-0.042	-0.306
-704.587	87.272	0.177	-0.198
-703.572	97.535	-0.255	0.297
-702.558	-200.000	0.044	-0.197
-701.543	-200.000	0.034	-0.219
-700.529	267.763	0.100	0.177
-699.514	-70.743	0.094	-0.036
-698.499	310.174	-0.056	0.106
-697.485	-43.842	-0.075	0.039
-696.470	800.000	0.068	-0.254
-695.456	98.049	0.064	0.075
-694.441	-104.055	-0.042	0.010
-693.426	-200.000	0.013	0.300
-692.412	-75.133	-0.344	0.125
-691.397	-200.000	-0.031	-0.388
-690.383	-148.092	0.125	0.010
-689.368	-36.032	-0.064	0.035
-688.354	703.630	-0.005	0.014
-687.339	-143.267	-0.062	-0.006
-686.324	-35.343	-0.123	-0.068
-685.310	156.322	0.158	-0.221
-684.295	-77.013	-0.301	-0.106
-683.281	34.670	0.104	-0.092
-682.266	435.841	0.048	-0.105
-681.251	-15.071	-0.369	-0.239
-680.237	573.445	0.101	-0.248
-679.222	-200.000	0.002	-0.014
-678.208	800.000	-0.054	-0.222
-677.193	121.687	-0.065	0.082
-676.178	800.000	-0.111	0.319
-675.164	88.697	-0.025	0.028
-674.149	-90.507	0.114	0.033
-673.135	-200.000	0.034	0.197
-672.120	-200.000	-0.040	0.182
-671.105	800.000	0.040	0.143
-670.091	43.102	0.192	-0.177
-669.076	10.204	-0.209	-0.161
-668.062	-63.921	0.207	-0.086
-667.047	80.355	0.101	0.110
-666.032	49.600	-0.123	-0.117
-665.018	-200.000	-0.008	0.355
-664.003	-166.092	0.340	0.015
-662.989	-59.775	0.071	0.031
-661.974	529.997	-0.053	0.126
-660.959	800.000	0.067	0.244
-659.945	-64.457	0.273	-0.112
-658.930	800.000	-0.088	0.346
-657.916	177.586	0.061	-0.090
-656.901	23.386	0.264	0.220
-655.886	-200.000	-0.019	-0.163
-654.872	-97.070	-0.053	-0.014
-653.857	800.000	0.077	0.288
-652.843	-168.104	0.465	-0.018
-651.828	624.280	0.119	-0.304
-650.814	-163.060	-0.098	-0.005
-649.799	-200.000	-0.016	-0.242
-648.784	57.426	0.291	-0.288
-647.770	68.927	0.092	0.096
-646.755	-58.344	-0.227	-0.100
-645.741	800.000	0.081	0.232
-644.726	-147.482	-0.253	-0.022
-643.711	-119.288	0.096	-0.017
-642.697	321.652	0.048	-0.092
-641.682	-150.581	-0.163	0.013
-640.668	-200.000	-0.006	-0.093
-639.653	-200.000	-0.062	-0.428
-638.638	87.277	-0.032	-0.036
-637.624	-200.000	-0.029	-0.361
-636.609	35.801	-0.117	-0.104
-635.595	800.000	-0.073	-0.317
-634.580	54.489	0.052	0.050
-633.565	-25.033	0.339	-0.203
-632.551	68.887	-0.142	0.147
-631.536	432.867	0.046	-0.100
-630.522	-53.550	0.044	0.020
-629.507	182.731	0.216	0.322
-628.492	-200.000	-0.054	-0.372
-627.478	-200.000	-0.016	-0.155
-626.463	-177.820	-0.143	-0.003
-625.449	113.417	-0.099	0.121
-624.434	-200.000	-0.004	-0.235
-623.419	61.804	-0.173	0.174
-622.405	-63.302	-0.148	0.062
-621.390	36.714	-0.244	0.218
-620.376	-200.000	0.024	-0.171
-619.361	214.816	0.036	0.058
-618.346	134.838	-0.151	0.198
-617.332	-154.478	-0.116	0.008
-616.317	800.000	0.171	-0.481
-615.303	-45.166	0.135	0.068
-614.288	76.839	-0.198	0.212
-613.273	-100.672	-0.146	-0.036
-612.259	-33.202	0.070	-0.039
-611.244	320.133	-0.100	-0.192
-610.230	21.798	0.228	0.188
-609.215	286.084	0.140	0.255
-608.201	81.562	-0.080	-0.087
-607.186	-111.005	-0.366	-0.076
-606.171	-153.216	-0.255	-0.018
-605.157	-84.506	0.254	0.081
-604.142	462.051	0.129	-0.291
-603.128	-80.214	0.404	0.136
-602.113	12.754	0.280	-0.219
-601.098	-200.000	-0.020	0.139
-600.084	-108.116	0.308	0.067
-599.069	42.966	-0.122	0.112
-598.055	-127.036	-0.209	0.031
-597.040	153.262	-0.066	-0.091
-596.025	627.723	-0.079	0.201
-595.011	800.000	-0.022	0.092
-593.996	-147.785	0.426	0.036
-592.982	139.854	0.118	-0.156
-591.967	-200.000	-0.031	-0.140
-590.952	37.933	0.366	0.328
-589.938	653.235	0.081	0.209
-588.923	3.306	-0.198	0.145
-587.909	800.000	-0.087	0.246
-586.894	-92.756	-0.122	0.035
-585.879	509.642	0.067	0.158
-584.865	-48.361	0.147	-0.071
-583.850	-59.539	-0.537	0.233
-582.836	570.467	-0.142	-0.348
-581.821	-136.820	-0.489	-0.057
-580.806	-149.765	0.371	-0.029
-579.792	506.893	-0.047	-0.109
-578.777	-200.000	-0.010	0.102
-577.763	-41.996	0.193	-0.099
-576.748	-43.418	-0.253	0.129
-575.733	-27.307	-0.316	-0.186
-574.719	-86.390	0.195	0.060
-573.704	-34.933	-0.152	0.083
-572.690	-65.663	0.061	0.025
-571.675	-106.938	-0.268	-0.060
-570.661	-136.994	-0.244	-0.028
-569.646	176.019	-0.138	-0.202
-568.631	-35.440	0.184	-0.101
-567.617	-146.339	0.209	0.018
-566.602	-200.000	-0.082	0.386
-565.588	256.446	0.100	0.174
-564.573	129.636	-0.134	-0.172
-563.558	20.142	-0.084	0.068
-562.544	35.920	0.068	0.060
-561.529	303.782	0.224	-0.418
-560.515	343.299	0.084	0.167
-559.500	102.605	-0.164	-0.194
-558.485	-9.980	0.352	-0.236
-557.471	800.000	-0.163	-0.486
-556.456	-147.529	-0.296	0.025
-555.442	190.385	0.203	0.307
-554.427	-130.217	-0.204	-0.028
-553.412	-200.000	-0.015	0.122
-552.398	-200.000	-0.015	-0.197
-551.383	33.401	0.124	-0.108
-550.369	-87.067	0.293	-0.090
-549.354	800.000	0.033	0.135
-548.339	698.216	0.071	0.189
-547.325	182.180	-0.070	-0.104
-546.310	800.000	0.013	-0.045
-545.296	-200.000	-0.042	0.340
-544.281	-155.758	0.174	0.011
-543.266	-97.707	0.235	0.061
-542.252	-200.000	0.023	-0.509
-541.237	93.751	-0.257	0.294
-540.223	425.515	0.088	0.191
-539.208	-200.000	-0.001	0.084
-538.193	595.011	0.082	-0.205
-537.179	-200.000	0.035	0.216
-536.164	-15.984	-0.081	0.052
-535.150	800.000	-0.023	0.101
-534.135	682.813	-0.084	0.220
-533.121	-115.506	-0.071	0.013
-532.106	-38.382	0.229	-0.122
-531.091	-200.000	-0.052	-0.249
-530.077	-200.000	-0.022	-0.322
-529.062	220.931	-0.145	0.234
-528.048	246.470	0.127	-0.216
-527.033	153.132	0.179	0.247
-526.018	-70.382	0.225	-0.086
-525.004	800.000	0.031	-0.132
-523.989	302.940	0.044	0.081
-522.975	-159.804	-0.261	-0.014
-521.960	9.319	-0.070	-0.053
-520.945	9.196	-0.086	0.065
-519.931	222.491	0.161	-0.262
-518.916	-200.000	0.007	-0.201
-517.902	107.318	0.242	0.290
-516.887	-146.446	-0.263	-0.023
-515.872	-106.745	0.222	-0.050
-514.858	716.505	-0.084	-0.225
-513.843	-103.096	-0.283	-0.067
-512.829	-200.000	-0.034	0.201
-511.814	-86.142	-0.040	0.012
-510.799	101.683	0.150	-0.176
-509.785	-200.000	-0.009	-0.207
-508.770	800.000	-0.061	0.216
-507.756	-18.803	-0.181	-0.113
-506.741	-200.000	0.044	-0.388
-505.726	-91.696	-0.135	-0.039
-504.712	173.962	0.234	0.340
-503.697	-156.641	0.223	0.014
-502.683	-138.871	-0.159	-0.017
-501.668	800.000	0.120	-0.392
-500.653	723.993	-0.027	-0.073
-499.639	-27.928	0.139	0.081
-498.624	-12.946	-0.234	0.153
-497.610	70.232	0.036	0.037
-496.595	-159.081	-0.275	0.016
-495.581	-46.474	-0.168	-0.083
-494.566	800.000	-0.070	0.212
-493.551	396.736	0.056	0.118
-492.537	-49.473	0.225	-0.108
-491.522	-88.174	-0.571	-0.172
-490.508	58.115	0.180	0.177
-489.493	-145.139	-0.129	-0.012
-488.478	453.311	0.122	-0.272
-487.464	59.538	-0.130	-0.129
-486.449	-25.891	-0.109	-0.064
-485.435	800.000	0.091	-0.381
-484.420	198.633	0.076	-0.117
-483.405	-81.836	0.086	0.028
-482.391	-130.838	-0.051	-0.007
-481.376	800.000	-0.055	-0.164
-480.362	-75.194	-0.059	-0.021
-479.347	-122.666	0.187	0.031
-478.332	154.902	0.052	0.072
-477.318	-31.857	-0.130	0.073
-476.303	-200.000	0.008	-0.114
-475.289	-200.000	-0.020	0.126
-474.274	-28.183	0.184	0.107
-473.259	800.000	0.021	-0.092
-472.245	273.313	-0.138	0.246
-471.230	1.696	-0.262	-0.190
-470.216	154.618	0.164	0.227
-469.201	-149.294	0.240	0.019
-468.186	-74.085	0.316	-0.115
-467.172	-200.000	-0.033	-0.180
-466.157	-103.067	0.051	-0.012
-465.143	-200.000	-0.005	-0.285
-464.128	346.619	0.047	-0.092
-463.113	800.000	0.038	0.143
-462.099	203.033	0.131	-0.203
-461.084	381.422	0.112	0.231
-460.070	-95.283	-0.253	-0.068
-459.055	-5.581	0.151	0.104
-458.040	-63.276	-0.143	-0.059
-457.026	62.051	0.047	0.047
-456.011	-129.253	0.407	-0.057
-454.997	-200.000	-0.028	0.230
-453.982	112.337	0.094	0.114
-452.968	-36.326	-0.278	0.150
-451.953	380.416	-0.101	0.208
-450.938	316.846	-0.053	0.101
-449.924	303.012	0.153	0.285
-448.909	16.752	0.280	-0.222
-447.895	-200.000	-0.005	0.084
-446.880	-200.000	-0.028	0.500
-445.865	-97.948	0.232	-0.060
-444.851	159.886	0.067	0.093
-443.836	160.958	0.176	-0.247
-442.822	-73.866	0.002	0.001
-441.807	-61.723	0.279	0.117
-440.792	-37.252	-0.319	-0.171
-439.778	545.348	-0.046	-0.111
-438.763	-200.000	-0.012	0.185
-437.749	-94.434	0.129	0.035
-436.734	257.989	-0.196	0.339
-435.719	-139.344	0.196	0.021
-434.705	-110.583	-0.343	-0.071
-433.690	78.979	0.144	-0.155
-432.676	-116.815	-0.091	-0.017
-431.661	-23.591	-0.142	-0.086
-430.646	-110.830	0.270	0.056
-429.632	-200.000	0.011	-0.091
-428.617	-200.000	0.005	-0.075
-427.603	-200.000	-0.030	0.219
-426.588	-21.571	-0.268	-0.164
-425.573	-135.946	-0.119	-0.014
-424.559	127.239	-0.172	-0.218
-423.544	54.481	0.221	0.213
-422.530	340.742	0.128	0.251
-421.515	-119.536	0.233	-0.041
-420.500	-44.202	-0.356	-0.179
-419.486	409.970	0.141	0.299
-418.471	-63.882	0.090	0.037
-417.457	-125.095	0.325	-0.050
-416.442	-91.968	-0.220	0.063
-415.428	124.435	0.352	-0.444
-414.413	169.862	-0.134	-0.193
-413.398	20.630	-0.209	0.169
-412.384	-200.000	0.026	-0.137
-411.369	-16.788	-0.191	0.121
-410.355	-200.000	0.037	0.185
-409.340	193.914	-0.163	-0.248
-408.325	-110.043	-0.116	-0.024
-407.311	800.000	0.006	-0.020
-406.296	800.000	0.119	-0.393
-405.282	-36.794	0.129	-0.070
-404.267	87.196	-0.058	0.064
-403.252	31.817	-0.115	-0.099
-402.238	160.392	-0.128	0.179
-401.223	800.000	0.046	0.160
-400.209	-48.626	0.311	0.150
-399.194	16.808	0.085	0.068
-398.179	-121.099	0.176	0.029
-397.165	-31.069	0.179	-0.101
-396.150	170.165	-0.208	0.298
-395.136	-200.000	0.092	0.529
-394.121	-94.086	0.296	-0.081
-393.106	800.000	-0.061	-0.252
-392.092	76.245	-0.084	-0.089
-391.077	318.574	-0.053	0.101
-390.063	-200.000	-0.026	-0.277
-389.048	-58.988	-0.236	-0.102
-388.033	-29.908	0.199	0.113
-387.019	124.023	0.033	0.041
-386.004	800.000	-0.023	-0.092
-384.990	-200.000	0.084	0.393
-383.975	-115.865	0.275	-0.051
-382.960	-138.911	0.062	0.007
-381.946	-200.000	0.029	0.226
-380.931	-35.944	-0.134	0.073
-379.917	-76.269	0.444	-0.157
-378.902	305.968	-0.108	-0.201
-377.888	-200.000	0.024	0.143
-376.873	-14.792	-0.328	0.211
-375.858	181.410	0.047	0.069
-374.844	98.117	0.074	-0.085
-373.829	0.432	0.054	-0.039
-372.815	-24.785	-0.252	-0.150
-371.800	-91.337	0.290	0.083
-370.785	-48.505	-0.084	-0.040
-369.771	176.188	0.058	-0.085
-368.756	-37.553	-0.056	0.030
-367.742	-82.025	0.225	0.073
-366.727	35.052	0.250	-0.219
-365.712	-157.302	-0.138	-0.008
-364.698	29.612	-0.092	-0.078
-363.683	189.318	0.066	-0.099
-362.669	83.604	-0.102	-0.112
-361.654	282.544	0.036	0.065
-360.639	-160.945	0.103	0.005
-359.625	-200.000	0.054	-0.296
-358.610	225.855	0.055	-0.089
-357.596	-169.801	0.096	-0.003
-356.581	-200.000	0.021	-0.205
-355.566	-200.000	0.003	-0.052
-354.552	-41.545	-0.224	0.115
-353.537	-200.000	0.016	-0.205
-352.523	800.000	-0.032	0.121
-351.508	2.508	-0.233	-0.169
-350.493	223.409	0.108	0.174
-349.479	-64.425	-0.200	-0.081
-348.464	41.381	0.190	-0.172
-347.450	800.000	-0.076	0.243
-346.435	409.075	-0.014	-0.030
-345.420	-26.246	0.129	-0.076
-344.406	27.994	-0.085	-0.072
-343.391	-125.431	-0.205	0.031
-342.377	-52.456	0.355	0.164
-341.362	800.000	-0.062	-0.186
-340.348	-134.075	-0.267	0.033
-339.333	582.379	-0.044	0.108
-338.318	-159.511	0.079	0.004
-337.304	-157.511	-0.230	0.014
-336.289	83.554	-0.101	-0.110
-335.275	-130.997	0.316	-0.042
-334.260	-85.776	-0.062	-0.019
-333.245	-131.429	-0.190	0.025
-332.231	-200.000	-0.008	0.155
-331.216	-168.554	0.256	0.010
-330.202	-200.000	0.011	0.170
-329.187	-200.000	0.015	-0.136
-328.172	123.514	0.115	0.144
-327.158	4.294	0.147	0.108
-326.143	-29.654	-0.132	0.075
-325.129	279.863	-0.030	-0.053
-324.114	-200.000	0.031	0.291
-323.099	591.380	-0.107	0.264
-322.085	161.046	-0.123	-0.171
-321.070	53.145	-0.243	0.233
-320.056	-200.000	0.031	0.251
-319.041	800.000	-0.067	-0.201
-318.026	-200.000	0.020	-0.236
-317.012	-200.000	0.082	-0.372
-315.997	-87.931	0.141	-0.042
-314.983	-128.382	0.231	-0.033
-313.968	-200.000	-0.040	0.186
-312.953	-80.624	0.172	0.057
-311.939	800.000	-0.071	-0.264
-310.924	-101.876	-0.298	0.072
-309.910	-200.000	0.041	0.235
-308.895	-46.115	-0.247	0.121
-307.880	-25.510	-0.326	0.193
-306.866	800.000	0.067	-0.253
-305.851	-200.000	-0.024	-0.300
-304.837	167.174	0.186	0.263
-303.822	79.232	-0.080	-0.086
-302.807	287.110	0.023	0.041
-301.793	-104.836	-0.193	0.044
-300.778	-54.844	-0.206	0.093
-299.764	253.291	0.146	0.249
-298.749	-24.283	0.367	0.218
-297.735	176.045	-0.154	0.223
-296.720	-146.958	-0.328	0.028
-295.705	-78.807	-0.339	0.115
-294.691	770.726	-0.098	0.266
-293.676	240.987	0.193	-0.321
-292.662	-107.437	-0.410	-0.090
-291.647	-200.000	0.052	0.269
-290.632	-200.000	-0.022	0.244
-289.618	224.111	0.009	0.015
-288.603	-37.375	0.131	-0.070
-287.589	502.481	-0.101	-0.232
-286.574	251.660	-0.032	-0.054
-285.559	-151.651	-0.181	0.013
-284.545	29.248	-0.313	-0.265
-283.530	-111.885	-0.122	0.025
-282.516	-200.000	-0.043	0.230
-281.501	-200.000	0.064	-0.427
-280.486	-7.469	0.173	0.117
-279.472	755.874	0.089	-0.241
-278.457	571.565	-0.063	-0.152
-277.443	50.308	-0.232	-0.219
-276.428	-124.894	-0.334	-0.051
-275.413	704.634	-0.061	0.160
-274.399	-200.000	0.024	0.157
-273.384	8.124	0.237	0.178
-272.370	-200.000	-0.032	0.167
-271.355	75.141	0.238	-0.251
-270.340	18.279	0.283	0.225
-269.326	-12.756	-0.412	-0.268
-268.311	800.000	0.005	-0.015
-267.297	176.592	0.011	-0.015
-266.282	-200.000	-0.003	0.206
-265.267	-24.775	0.193	0.114
-264.253	43.416	0.103	0.093
-263.238	48.157	-0.189	0.176
-262.224	-172.784	-0.094	0.003
-261.209	-200.000	0.015	-0.112
-260.195	-200.000	-0.001	0.005
-259.180	9.656	0.170	-0.129
-258.165	-2.142	0.109	-0.076
-257.151	-84.251	-0.031	0.010
-256.136	-200.000	0.015	0.094
-255.122	-84.625	-0.073	-0.023
-254.107	-61.682	-0.396	-0.165
-253.092	-161.994	0.483	0.024
-252.078	-55.447	-0.298	-0.133
-251.063	-69.640	0.260	0.099
-250.049	-132.977	-0.262	-0.033
-249.034	-68.720	-0.316	-0.122
-248.019	385.391	-0.094	-0.194
-247.005	-200.000	0.067	-0.486
-245.990	-66.584	0.648	-0.256
-244.976	12.061	0.131	0.100
-243.961	40.454	-0.128	0.115
-242.946	-200.000	0.048	0.338
-241.932	41.705	0.138	0.124
-240.917	-200.000	-0.096	-0.524
-239.903	43.966	0.082	0.075
-238.888	64.438	0.226	0.227
-237.873	-75.054	0.256	-0.091
-236.859	-87.880	-0.266	-0.080
-235.844	800.000	-0.041	0.113
-234.830	673.204	-0.072	0.186
-233.815	-45.695	-0.206	-0.102
-232.800	497.866	0.044	-0.100
-231.786	37.632	-0.113	0.100
-230.771	621.031	-0.171	0.429
-229.757	-192.254	0.153	0.001
-228.742	-171.529	0.496	-0.016
-227.727	17.151	0.110	0.087
-226.713	-108.507	0.410	0.088
-225.698	13.753	0.082	0.064
-224.684	-200.000	0.008	-0.048
-223.669	-9.131	-0.233	0.155
-222.655	-120.799	0.160	0.027
-221.640	-23.888	-0.274	0.163
-220.625	-200.000	0.009	0.156
-219.611	163.083	0.033	0.046
-218.596	-200.000	0.006	-0.091
-217.582	66.708	0.184	0.187
-216.567	-122.297	-0.145	0.024
-215.552	800.000	-0.114	0.346
-214.538	84.774	-0.203	-0.221
-213.523	126.885	-0.113	-0.143
-212.509	-96.938	-0.050	0.013
-211.494	-116.215	0.364	-0.067
-210.479	-200.000	0.036	-0.195
-209.465	-200.000	-0.009	-0.191
-208.450	-176.716	-0.003	0.000
-207.436	800.000	-0.022	-0.067
-206.421	800.000	0.141	-0.393
-205.406	-47.758	-0.171	0.082
-204.392	158.555	-0.209	-0.289
-203.377	17.090	0.233	0.184
-202.363	-11.165	-0.334	-0.219
-201.348	-92.152	0.167	-0.047
-200.333	-104.091	0.181	-0.042
-199.319	749.577	0.076	-0.203
-198.304	363.470	-0.137	0.274
-197.290	-13.590	0.172	-0.111
-196.275	19.655	0.156	0.125
-195.260	-157.206	0.255	0.015
-194.246	63.396	0.252	-0.251
-193.231	-170.756	-0.374	-0.013
-192.217	95.928	0.273	0.310
-191.202	800.000	-0.043	0.184
-190.187	79.854	0.352	0.376
-189.173	144.366	-0.074	0.098
-188.158	612.766	-0.134	0.333
-187.144	262.764	0.108	-0.186
-186.129	800.000	-0.066	0.258
-185.114	6.193	0.188	0.138
-184.100	-126.857	-0.044	-0.006
-183.085	-72.095	-0.278	0.103
-182.071	73.254	-0.060	-0.062
-181.056	40.408	0.006	-0.005
-180.042	73.356	-0.306	0.319
-179.027	13.710	-0.137	-0.106
-178.012	-70.527	-0.014	-0.005
-176.998	-200.000	0.002	0.215
-175.983	-90.871	-0.151	0.043
-174.969	-24.258	-0.156	-0.092
-173.954	-105.381	-0.094	0.021
-172.939	30.592	0.037	-0.031
-171.925	-156.622	0.170	-0.010
-170.910	-85.512	-0.168	-0.052
-169.896	98.036	-0.202	-0.231
-168.881	208.333	-0.074	0.115
-167.866	-104.073	0.125	0.029
-166.852	-129.247	0.312	0.043
-165.837	-126.894	-0.222	-0.032
-164.823	-200.000	-0.033	0.354
-163.808	70.370	0.131	0.135
-162.793	194.401	-0.089	-0.134
-161.779	269.049	0.054	0.093
-160.764	800.000	-0.032	0.112
-159.750	307.574	-0.086	0.160
-158.735	68.272	-0.158	0.161
-157.720	82.970	-0.136	-0.146
-156.706	-82.500	-0.201	0.065
-155.691	-46.420	0.268	0.131
-154.677	-200.000	0.008	-0.060
-153.662	-188.017	0.585	-0.007
-152.647	76.407	0.227	-0.239
-151.633	-192.947	-0.323	-0.003
-150.618	-108.942	0.250	0.053
-149.604	-85.345	0.038	-0.012
-148.589	82.647	0.205	0.220
-147.574	-87.586	-0.039	-0.012
-146.560	9.525	-0.126	-0.094
-145.545	-200.000	0.029	-0.366
-144.531	0.062	-0.155	-0.109
-143.516	-139.951	-0.093	-0.010
-142.502	-27.874	0.145	-0.083
-141.487	-200.000	-0.001	0.052
-140.472	342.408	0.148	0.288
-139.458	99.748	-0.133	0.152
-138.443	-72.428	-0.130	-0.048
-137.429	800.000	-0.064	-0.265
-136.414	-200.000	0.076	-0.391
-135.399	-130.504	0.047	0.006
-134.385	11.817	0.180	0.137
-133.370	274.394	-0.081	-0.142
-132.356	-200.000	0.060	-0.285
-131.341	-78.430	-0.305	0.104
-130.326	-152.145	-0.301	0.022
-129.312	-120.481	0.188	-0.032
-128.297	131.580	-0.081	0.103
-127.283	280.742	-0.183	0.325
-126.268	-81.373	0.135	0.044
-125.253	-115.486	-0.342	0.064
-124.239	-23.770	0.179	-0.106
-123.224	-200.000	-0.033	0.153
-122.210	82.694	0.187	-0.201
-121.195	99.629	-0.129	0.148
