DTS Sentinel unit serial number:	SN413079Multiplexer serial number:	ORYXHardware model number:	OX4-SRSoftware version number:	ORYX F/W v4.00 Oryx Data Collector v3.7.2.0data status	okinstallation	princeton_trtdifferential loss correction	single-endedforward channel	channel 4reverse channel	N/Adate	2019/09/11time	14:59:11forward acquisition time	60.00reverse acquisition time	0.00gamma	496.2192k internal	0.2278k external	0.2278temperature offset calibration	1.0008default loss term (dB/km)	0.3790temperature slope calibration	1.0000multiplexer offset coefficient	1.0000multiplexer slope coefficient	1.0000fibre end	0.00T internal ref (°C)	42.81T ext. ref 1 (°C)	0.93T ext. ref 2 (°C)	37.76length (m)	temperature (°C)	Stokes	anti-Stokes-747.200	66.952	0.177	-0.185
-746.185	800.000	-0.090	0.259
-745.171	362.342	0.166	-0.342
-744.156	109.780	0.332	0.410
-743.142	312.954	0.114	-0.221
-742.127	306.894	0.082	-0.158
-741.112	-200.000	0.021	-0.149
-740.098	334.355	-0.226	0.451
-739.083	392.319	-0.140	0.299
-738.069	800.000	0.109	0.390
-737.054	-9.590	0.265	0.182
-736.039	-64.958	0.211	0.088
-735.025	-200.000	0.006	-0.045
-734.010	123.246	-0.119	-0.153
-732.996	1.701	0.095	-0.071
-731.981	233.343	-0.085	0.144
-730.966	-80.444	0.157	-0.054
-729.952	32.040	0.198	-0.176
-728.937	67.687	0.251	-0.264
-727.923	107.042	0.101	-0.123
-726.908	800.000	-0.094	-0.383
-725.894	57.563	0.216	-0.217
-724.879	-80.282	-0.253	0.087
-723.864	-113.107	-0.162	0.033
-722.850	800.000	0.137	-0.432
-721.835	23.529	0.106	-0.090
-720.821	154.469	0.079	0.111
-719.806	-38.464	-0.283	0.154
-718.791	-62.378	-0.343	-0.147
-717.777	800.000	-0.097	-0.284
-716.762	-47.576	-0.351	-0.175
-715.748	-66.315	0.224	0.092
-714.733	-153.623	-0.176	-0.012
-713.718	190.528	0.174	-0.269
-712.704	117.158	0.224	0.283
-711.689	-200.000	0.065	-0.302
-710.675	-200.000	0.066	-0.370
-709.660	1.119	-0.151	-0.111
-708.645	-129.996	-0.233	-0.033
-707.631	486.864	0.086	0.202
-706.616	-86.829	-0.341	0.107
-705.602	-113.418	0.219	-0.044
-704.587	63.933	-0.070	-0.072
-703.572	-200.000	0.006	-0.223
-702.558	312.584	-0.033	0.063
-701.543	-144.440	0.215	-0.021
-700.529	-151.737	0.336	0.025
-699.514	800.000	-0.030	-0.100
-698.499	-136.739	-0.143	-0.017
-697.485	32.418	-0.200	0.178
-696.470	274.447	0.091	0.166
-695.456	595.921	-0.105	-0.267
-694.441	338.206	-0.167	-0.333
-693.426	342.354	-0.031	-0.063
-692.412	-106.440	0.085	0.019
-691.397	-99.257	0.329	0.085
-690.383	-90.714	-0.181	0.054
-689.368	-6.819	-0.188	-0.131
-688.354	-200.000	0.001	-0.184
-687.339	-107.564	-0.162	0.037
-686.324	-200.000	0.002	-0.035
-685.310	222.226	-0.075	-0.124
-684.295	-26.835	-0.336	0.202
-683.281	-154.322	0.179	-0.012
-682.266	84.309	-0.107	-0.120
-681.251	-94.613	0.255	0.071
-680.237	-79.172	-0.124	-0.043
-679.222	-200.000	-0.024	-0.515
-678.208	-112.254	0.167	-0.034
-677.193	-53.380	-0.210	0.099
-676.178	800.000	-0.187	-0.560
-675.164	180.649	-0.219	-0.331
-674.149	-32.183	-0.259	0.149
-673.135	-194.272	-0.115	-0.001
-672.120	758.833	-0.141	0.391
-671.105	-112.090	0.154	-0.032
-670.091	140.896	-0.117	0.159
-669.076	13.132	0.154	-0.123
-668.062	-200.000	0.029	-0.307
-667.047	-140.440	-0.168	0.018
-666.032	-181.166	0.046	-0.001
-665.018	-65.962	0.054	-0.022
-664.003	184.823	-0.211	0.322
-662.989	141.321	-0.232	0.315
-661.974	-37.427	-0.077	-0.042
-660.959	105.413	-0.137	-0.166
-659.945	5.089	-0.158	0.119
-658.930	-62.196	-0.205	0.088
-657.916	-34.264	-0.379	-0.214
-656.901	-126.665	0.263	-0.040
-655.886	800.000	-0.013	-0.046
-654.872	-103.585	-0.288	0.069
-653.857	-106.963	-0.214	0.049
-652.843	706.111	0.105	-0.285
-651.828	38.879	0.094	0.086
-650.814	10.451	-0.254	0.198
-649.799	-98.258	-0.437	0.115
-648.784	-108.016	0.274	0.061
-647.770	148.046	0.035	-0.048
-646.755	-121.231	-0.128	0.022
-645.741	-98.713	-0.373	0.098
-644.726	157.544	-0.238	0.338
-643.711	633.966	0.082	0.214
-642.697	121.841	-0.098	-0.125
-641.682	-200.000	0.034	-0.288
-640.668	800.000	0.044	0.169
-639.653	312.643	-0.138	-0.267
-638.638	-15.380	0.153	0.100
-637.624	90.771	0.202	0.232
-636.609	800.000	-0.149	0.454
-635.595	-200.000	0.013	0.160
-634.580	-79.794	-0.268	-0.092
-633.565	276.423	-0.047	0.086
-632.551	-200.000	0.003	0.015
-631.536	-27.062	0.186	0.111
-630.522	-23.469	-0.132	0.082
-629.507	800.000	0.061	0.243
-628.492	-63.520	-0.304	-0.128
-627.478	800.000	-0.135	-0.394
-626.463	142.124	0.129	-0.175
-625.449	-52.263	0.074	-0.035
-624.434	60.424	-0.434	-0.440
-623.419	-79.590	-0.201	-0.070
-622.405	273.366	0.104	0.189
-621.390	37.142	0.289	-0.262
-620.376	-48.680	-0.225	-0.111
-619.361	-150.704	0.209	-0.016
-618.346	-110.706	-0.227	0.048
-617.332	-200.000	-0.014	-0.384
-616.317	321.482	0.042	-0.082
-615.303	-11.125	-0.260	-0.176
-614.288	207.798	-0.125	-0.201
-613.273	-104.073	0.296	-0.071
-612.259	-8.941	-0.284	0.195
-611.244	-47.808	-0.168	0.083
-610.230	-200.000	-0.020	0.151
-609.215	558.817	0.134	0.331
-608.201	-75.063	0.260	0.095
-607.186	186.638	-0.122	0.186
-606.171	-137.686	0.317	0.037
-605.157	-33.615	-0.210	0.119
-604.142	118.059	-0.139	0.176
-603.128	-73.123	-0.108	-0.041
-602.113	-62.630	0.181	-0.077
-601.098	77.232	0.265	0.289
-600.084	-200.000	0.007	-0.068
-599.069	-108.520	0.264	0.058
-598.055	-200.000	0.020	0.109
-597.040	43.447	-0.171	0.160
-596.025	-200.000	-0.019	-0.368
-595.011	-189.890	0.055	-0.001
-593.996	-135.501	-0.453	0.055
-592.982	11.448	-0.051	0.040
-591.967	-34.799	-0.147	0.082
-590.952	-200.000	-0.070	0.371
-589.938	-200.000	0.008	0.072
-588.923	-29.154	-0.283	0.166
-587.909	221.934	0.163	0.269
-586.894	-20.785	0.257	-0.161
-585.879	-2.258	-0.184	-0.132
-584.865	-81.319	0.087	0.029
-583.850	790.538	0.115	-0.324
-582.836	-49.987	0.202	-0.098
-581.821	-155.005	-0.138	-0.009
-580.806	800.000	-0.042	0.152
-579.792	-54.132	0.113	0.052
-578.777	361.052	0.169	0.346
-577.763	601.186	-0.054	-0.138
-576.748	-42.014	-0.307	-0.161
-575.733	-200.000	-0.009	-0.167
-574.719	-117.469	0.213	0.039
-573.704	-63.243	-0.247	0.104
-572.690	800.000	0.017	-0.070
-571.675	-117.993	-0.116	0.021
-570.661	-200.000	0.028	-0.187
-569.646	-33.007	0.184	-0.104
-568.631	-200.000	0.004	-0.049
-567.617	267.447	-0.167	-0.300
-566.602	-200.000	-0.008	0.122
-565.588	137.528	0.051	-0.069
-564.573	-78.931	-0.194	-0.068
-563.558	-200.000	0.018	0.105
-562.544	97.357	0.150	-0.176
-561.529	-67.430	-0.304	0.122
-560.515	-57.810	-0.066	0.030
-559.500	45.018	-0.244	-0.229
-558.485	-0.007	0.110	0.080
-557.471	800.000	0.078	0.341
-556.456	-200.000	0.014	-0.083
-555.442	-58.005	0.054	0.024
-554.427	94.205	-0.134	-0.155
-553.412	151.347	0.148	-0.206
-552.398	-200.000	-0.028	-0.206
-551.383	304.310	0.092	-0.175
-550.369	252.399	-0.128	-0.223
-549.354	56.178	-0.052	-0.051
-548.339	-57.006	0.258	0.116
-547.325	-52.004	0.301	0.143
-546.310	-77.751	-0.043	-0.015
-545.296	348.665	-0.032	0.064
-544.281	-60.838	-0.114	0.049
-543.266	49.671	0.129	-0.124
-542.252	-76.762	-0.351	-0.126
-541.237	-90.481	0.164	0.049
-540.223	80.063	0.186	-0.204
-539.208	-11.356	0.121	0.081
-538.193	704.477	0.107	0.289
-537.179	-24.267	0.251	-0.153
-536.164	-78.778	-0.181	-0.063
-535.150	-88.287	-0.257	-0.079
-534.135	800.000	0.063	-0.275
-533.121	-51.657	0.197	-0.094
-532.106	-200.000	0.048	-0.272
-531.091	74.463	-0.178	0.191
-530.077	85.185	-0.246	-0.275
-529.062	-200.000	0.015	-0.094
-528.048	72.775	-0.264	-0.281
-527.033	-200.000	-0.053	-0.333
-526.018	24.883	0.251	-0.213
-525.004	-58.822	-0.069	-0.030
-523.989	571.644	-0.159	-0.395
-522.975	-105.997	0.492	-0.113
-521.960	-150.332	-0.228	-0.018
-520.945	-77.810	-0.266	0.094
-519.931	-147.894	0.084	-0.007
-518.916	-91.988	0.235	0.068
-517.902	800.000	-0.022	0.067
-516.887	-159.771	0.143	-0.008
-515.872	738.236	-0.152	-0.417
-514.858	-200.000	-0.017	-0.077
-513.843	385.525	0.048	0.102
-512.829	-67.136	0.179	-0.072
-511.814	-2.648	0.092	0.066
-510.799	800.000	-0.016	0.047
-509.785	800.000	-0.073	-0.232
-508.770	800.000	-0.157	-0.443
-507.756	16.763	-0.094	0.076
-506.741	-200.000	0.023	-0.452
-505.726	-15.724	0.123	-0.080
-504.712	-132.033	0.502	0.067
-503.697	56.793	-0.118	-0.118
-502.683	-172.752	0.086	-0.003
-501.668	800.000	0.165	-0.708
-500.653	102.357	0.102	0.122
-499.639	-1.795	-0.151	0.108
-498.624	112.071	0.119	0.147
-497.610	396.416	-0.084	-0.178
-496.595	-200.000	0.044	-0.205
-495.581	-200.000	-0.009	-0.373
-494.566	-200.000	0.017	0.257
-493.551	315.219	-0.093	-0.179
-492.537	-200.000	0.000	0.302
-491.522	-51.535	0.223	-0.106
-490.508	-33.144	0.214	-0.121
-489.493	800.000	0.090	0.279
-488.478	-7.446	-0.203	-0.140
-487.464	-200.000	-0.002	0.242
-486.449	-123.115	-0.297	-0.049
-485.435	-163.546	0.048	0.002
-484.420	-147.162	0.261	-0.023
-483.405	-72.312	-0.145	0.055
-482.391	240.212	-0.230	-0.390
-481.376	-37.105	-0.039	0.021
-480.362	248.383	0.060	0.103
-479.347	-200.000	0.035	0.182
-478.332	-18.904	0.044	-0.028
-477.318	230.045	-0.076	-0.127
-476.303	668.068	-0.100	-0.263
-475.289	-155.915	0.014	-0.001
-474.274	288.081	-0.139	-0.256
-473.259	-200.000	-0.022	-0.128
-472.245	-83.854	-0.089	-0.029
-471.230	-15.344	-0.035	-0.023
-470.216	98.614	-0.108	-0.127
-469.201	800.000	-0.067	0.258
-468.186	-200.000	-0.022	0.135
-467.172	348.796	-0.141	0.284
-466.157	-91.024	-0.153	0.045
-465.143	800.000	0.042	0.124
-464.128	-93.492	0.198	0.056
-463.113	800.000	-0.051	0.155
-462.099	-200.000	-0.029	-0.148
-461.084	610.453	0.034	-0.086
-460.070	-131.155	0.051	-0.007
-459.055	-200.000	-0.003	-0.075
-458.040	495.005	0.116	-0.271
-457.026	-101.510	-0.111	0.027
-456.011	-118.824	-0.101	0.018
-454.997	-94.232	-0.300	0.084
-453.982	-44.665	0.329	0.167
-452.968	-83.845	0.397	0.129
-451.953	-200.000	0.036	0.206
-450.938	241.511	0.259	-0.440
-449.924	-200.000	0.010	0.065
-448.909	-200.000	-0.071	-0.330
-447.895	-118.840	-0.250	0.045
-446.880	152.813	0.097	0.135
-445.865	-200.000	0.002	-0.137
-444.851	115.898	-0.101	0.126
-443.836	-60.651	-0.244	0.105
-442.822	524.786	-0.122	-0.292
-441.807	-155.899	0.333	0.022
-440.792	-57.253	-0.190	0.085
-439.778	20.199	0.097	-0.079
-438.763	-133.874	-0.395	-0.050
-437.749	-76.787	0.126	0.045
-436.734	-195.037	0.375	0.003
-435.719	-30.531	-0.161	0.093
-434.705	-200.000	-0.030	0.309
-433.690	56.438	0.090	-0.089
-432.676	-42.142	-0.256	-0.133
-431.661	660.539	0.031	0.081
-430.646	-125.097	0.262	-0.041
-429.632	488.959	-0.061	0.141
-428.617	-200.000	-0.010	-0.344
-427.603	-37.060	0.134	0.073
-426.588	-173.919	-0.243	-0.007
-425.573	-200.000	0.013	0.285
-424.559	-96.340	0.344	0.093
-423.544	-200.000	0.000	0.057
-422.530	129.033	0.079	-0.103
-421.515	800.000	-0.147	0.416
-420.500	-83.498	0.214	-0.070
-419.486	86.456	0.251	-0.282
-418.471	-116.439	-0.270	0.051
-417.457	16.558	0.195	0.157
-416.442	-200.000	-0.029	-0.178
-415.428	409.036	-0.024	0.051
-414.413	800.000	-0.051	0.144
-413.398	-200.000	0.033	-0.250
-412.384	-113.681	-0.068	-0.014
-411.369	-200.000	0.008	0.141
-410.355	800.000	0.129	0.449
-409.340	-132.099	0.192	-0.025
-408.325	-165.453	-0.182	0.008
-407.311	-82.693	0.199	0.066
-406.296	800.000	-0.093	0.271
-405.282	-47.418	0.456	0.225
-404.267	672.260	-0.056	0.148
-403.252	182.049	0.072	0.107
-402.238	4.720	0.198	0.148
-401.223	-144.307	0.070	-0.007
-400.209	-49.449	-0.151	-0.073
-399.194	31.764	-0.355	-0.311
-398.179	112.348	-0.061	-0.075
-397.165	-158.151	0.178	-0.011
-396.150	68.449	0.164	0.171
-395.136	99.371	0.125	-0.147
-394.121	-112.872	0.237	0.048
-393.106	-125.961	0.104	-0.016
-392.092	-66.282	-0.142	-0.057
-391.077	197.208	-0.065	-0.101
-390.063	-93.663	0.426	-0.119
-389.048	-120.402	-0.272	-0.047
-388.033	151.163	0.118	-0.163
-387.019	-200.000	-0.012	-0.301
-386.004	231.688	0.150	-0.250
-384.990	-200.000	0.037	0.182
-383.975	-73.256	-0.444	0.165
-382.960	468.044	0.097	0.220
-381.946	800.000	0.059	0.260
-380.931	223.202	0.126	0.207
-379.917	800.000	-0.042	0.151
-378.902	-153.792	-0.407	0.028
-377.888	186.992	-0.057	0.086
-376.873	-137.675	0.299	-0.034
-375.858	-75.313	-0.083	-0.030
-374.844	-7.005	-0.122	-0.084
-373.829	800.000	0.043	-0.173
-372.815	-122.369	0.156	-0.026
-371.800	-50.799	-0.160	-0.076
-370.785	-114.913	-0.087	-0.017
-369.771	-133.036	-0.309	0.040
-368.756	107.782	0.183	-0.222
-367.742	513.702	0.101	0.239
-366.727	62.597	0.088	0.090
-365.712	264.413	0.116	-0.205
-364.698	800.000	-0.048	-0.151
-363.683	-151.555	-0.267	0.020
-362.669	-200.000	0.053	0.284
-361.654	156.423	-0.146	-0.205
-360.639	-148.469	0.161	-0.013
-359.625	105.877	0.181	-0.218
-358.610	-63.658	-0.329	-0.137
-357.596	-62.335	0.092	0.039
-356.581	52.391	0.183	0.177
-355.566	-200.000	-0.076	0.342
-354.552	-200.000	-0.019	0.148
-353.537	-200.000	-0.022	0.274
-352.523	-200.000	-0.006	0.079
-351.508	-200.000	0.046	0.259
-350.493	-65.643	0.061	0.025
-349.479	122.124	-0.157	0.199
-348.464	182.487	-0.132	0.197
-347.450	-117.142	-0.112	0.021
-346.435	-132.167	0.177	-0.023
-345.420	-48.971	0.160	-0.078
-344.406	-3.184	0.177	0.125
-343.391	-200.000	0.118	-0.000
-342.377	-154.275	-0.304	-0.021
-341.362	159.987	-0.106	-0.149
-340.348	133.145	-0.110	0.144
-339.333	-11.262	0.194	-0.129
-338.318	77.178	0.259	0.279
-337.304	-9.919	-0.175	-0.118
-336.289	800.000	-0.045	0.146
-335.275	112.918	0.088	0.108
-334.260	800.000	-0.050	-0.162
-333.245	327.261	0.161	0.313
-332.231	-107.642	-0.261	0.058
-331.216	-138.397	0.193	-0.022
-330.202	-43.373	-0.228	-0.117
-329.187	-112.196	0.069	-0.014
-328.172	482.134	0.087	-0.199
-327.158	800.000	-0.012	0.044
-326.143	-40.109	0.138	-0.073
-325.129	800.000	-0.063	0.264
-324.114	-55.611	0.086	0.039
-323.099	203.343	0.271	0.424
-322.085	-41.560	0.035	-0.018
-321.070	-58.003	-0.224	0.099
-320.056	800.000	-0.091	-0.263
-319.041	-123.010	-0.467	-0.076
-318.026	183.587	-0.191	-0.286
-317.012	637.262	0.088	0.227
-315.997	239.528	0.020	0.034
-314.983	0.974	-0.224	0.163
-313.968	231.548	-0.259	-0.429
-312.953	-200.000	-0.002	0.299
-311.939	40.210	-0.180	0.164
-310.924	595.788	0.041	-0.103
-309.910	43.130	-0.237	0.219
-308.895	-200.000	0.040	0.188
-307.880	-200.000	-0.034	0.459
-306.866	800.000	0.092	-0.299
-305.851	64.524	0.372	-0.379
-304.837	-79.568	0.212	-0.073
-303.822	-200.000	-0.010	-0.087
-302.807	-200.000	-0.021	0.532
-301.793	123.461	-0.092	0.116
-300.778	63.095	0.043	0.044
-299.764	59.173	0.059	0.059
-298.749	-107.575	0.204	0.045
-297.735	-66.173	0.198	-0.080
-296.720	316.562	0.061	0.117
-295.705	-95.028	-0.320	0.087
-294.691	-65.339	0.207	-0.084
-293.676	-200.000	-0.020	0.096
-292.662	-200.000	0.070	-0.416
-291.647	-126.021	0.095	-0.014
-290.632	503.332	-0.177	-0.414
-289.618	800.000	-0.039	0.118
-288.603	800.000	0.074	-0.287
-287.589	800.000	0.070	-0.307
-286.574	44.425	-0.175	0.163
-285.559	-112.852	-0.289	0.058
-284.545	-31.142	0.022	-0.013
-283.530	62.096	0.295	0.297
-282.516	123.630	0.165	-0.210
-281.501	-38.863	-0.264	-0.141
-280.486	-5.135	0.067	-0.047
-279.472	248.836	0.070	0.120
-278.457	-60.181	-0.440	-0.190
-277.443	-22.091	0.126	-0.077
-276.428	149.745	-0.133	0.182
-275.413	800.000	0.035	-0.152
-274.399	-13.837	-0.198	-0.130
-273.384	183.129	0.133	-0.198
-272.370	800.000	0.027	0.112
-271.355	-200.000	0.032	0.414
-270.340	140.193	0.240	0.320
-269.326	16.473	-0.204	-0.163
-268.311	-200.000	-0.003	0.133
-267.297	-200.000	-0.004	-0.228
-266.282	142.598	0.129	0.173
-265.267	-200.000	-0.007	0.245
-264.253	-200.000	-0.042	-0.262
-263.238	-200.000	0.037	0.187
-262.224	647.009	-0.078	-0.202
-261.209	240.615	0.120	-0.203
-260.195	107.416	0.119	0.144
-259.180	-107.078	-0.616	-0.137
-258.165	656.487	0.088	0.230
-257.151	-157.298	-0.314	0.019
-256.136	138.370	0.187	0.248
-255.122	-104.460	0.200	-0.047
-254.107	-200.000	0.007	0.099
-253.092	116.794	0.135	-0.167
-252.078	10.414	-0.064	0.049
-251.063	-33.941	-0.366	-0.204
-250.049	-8.759	-0.267	0.181
-249.034	491.419	0.156	0.362
-248.019	-6.820	0.373	-0.256
-247.005	-7.344	0.242	-0.165
-245.990	-59.816	-0.305	0.132
-244.976	-200.000	-0.005	0.111
-243.961	-200.000	-0.053	0.272
-242.946	293.101	0.203	-0.375
-241.932	-119.151	-0.126	0.022
-240.917	-66.807	-0.206	0.082
-239.903	-111.788	0.094	0.019
-238.888	154.781	-0.045	0.062
-237.873	17.219	0.194	-0.155
-236.859	242.880	0.175	-0.296
-235.844	-8.541	-0.213	0.145
-234.830	-12.226	-0.205	0.135
-233.815	1.123	-0.197	0.143
-232.800	-39.447	-0.119	-0.063
-231.786	-101.554	-0.114	-0.028
-230.771	-200.000	-0.005	-0.113
-229.757	308.335	0.195	0.367
-228.742	-178.556	0.181	0.004
-227.727	-200.000	-0.018	-0.193
-226.713	388.104	-0.056	0.117
-225.698	-200.000	0.058	0.413
-224.684	121.978	-0.064	-0.081
-223.669	-200.000	-0.018	-0.238
-222.655	97.846	-0.234	-0.272
-221.640	-76.322	0.292	-0.104
-220.625	11.810	0.304	0.235
-219.611	-22.689	0.109	-0.067
-218.596	-105.029	-0.236	0.055
-217.582	384.337	-0.134	0.278
-216.567	173.198	-0.093	0.135
-215.552	-93.449	-0.091	0.025
-214.538	-200.000	0.008	0.149
-213.523	79.890	0.079	-0.085
-212.509	-123.145	0.204	0.033
-211.494	271.462	-0.066	-0.117
-210.479	-200.000	-0.047	-0.210
-209.465	-41.128	0.065	-0.034
-208.450	513.950	0.050	-0.118
-207.436	-105.324	-0.206	0.047
-206.421	-116.642	-0.361	-0.067
-205.406	-187.145	0.168	0.002
-204.392	-106.698	0.112	-0.025
-203.377	295.340	-0.064	-0.118
-202.363	800.000	0.059	0.190
-201.348	56.164	0.028	0.027
-200.333	113.489	0.086	0.105
-199.319	35.269	0.396	0.350
-198.304	60.187	-0.025	0.025
-197.290	-162.969	0.416	-0.020
-196.275	-97.839	0.217	-0.057
-195.260	15.745	-0.227	-0.180
-194.246	68.331	-0.210	0.216
-193.231	95.211	-0.085	-0.097
-192.217	-200.000	-0.011	-0.097
-191.202	800.000	-0.116	-0.327
-190.187	-18.563	-0.481	0.303
-189.173	-110.460	0.201	-0.042
-188.158	283.335	0.143	0.259
-187.144	-102.033	-0.191	-0.046
-186.129	-183.292	-0.021	-0.000
-185.114	-200.000	0.002	-0.279
-184.100	-56.364	-0.311	-0.139
-183.085	-200.000	0.007	0.121
-182.071	800.000	-0.056	0.223
-181.056	70.439	-0.122	0.127
-180.042	20.546	0.371	0.302
-179.027	8.814	0.346	-0.263
-178.012	5.948	0.054	-0.041
-176.998	-200.000	0.011	0.295
-175.983	-154.212	0.297	0.020
-174.969	-16.902	0.242	-0.154
-173.954	-200.000	-0.001	0.274
-172.939	-68.542	0.233	-0.091
-171.925	589.717	0.104	-0.259
-170.910	235.863	-0.080	-0.133
-169.896	-200.000	-0.006	0.060
-168.881	-200.000	-0.017	-0.156
-167.866	25.700	0.164	-0.137
-166.852	51.768	0.254	0.243
-165.837	-34.888	0.115	-0.063
-164.823	-22.954	0.052	0.032
-163.808	-200.000	0.012	-0.149
-162.793	-86.629	0.200	0.062
-161.779	83.070	0.285	0.312
-160.764	-124.561	0.186	0.029
-159.750	-170.314	0.161	-0.006
-158.735	4.358	-0.131	-0.096
-157.720	56.286	-0.233	-0.228
-156.706	132.299	-0.087	-0.112
-155.691	800.000	0.110	0.326
-154.677	-156.947	0.160	0.010
-153.662	68.577	-0.140	0.144
-152.647	-65.549	-0.251	0.101
-151.633	597.898	-0.057	0.141
-150.618	-200.000	-0.069	0.306
-149.604	-72.384	0.151	0.056
-148.589	-200.000	0.055	0.304
-147.574	-161.279	0.137	-0.007
-146.560	-80.270	0.131	0.044
-145.545	-200.000	-0.013	-0.144
-144.531	-29.394	0.084	-0.048
-143.516	-22.589	0.334	-0.203
-142.502	23.241	-0.155	-0.128
-141.487	12.562	-0.139	0.108
-140.472	80.540	-0.087	-0.094
-139.458	62.513	0.074	-0.075
-138.443	327.643	0.064	0.124
-137.429	-74.209	-0.252	0.092
-136.414	-30.801	0.040	-0.023
-135.399	-135.852	0.107	-0.013
-134.385	800.000	-0.016	-0.065
-133.370	-117.301	-0.263	0.048
-132.356	-200.000	0.008	0.036
-131.341	81.491	0.225	0.244
-130.326	272.285	0.023	-0.042
-129.312	800.000	0.046	-0.201
-128.297	-84.608	0.216	0.068
-127.283	-200.000	-0.031	0.307
-126.268	800.000	-0.033	-0.116
-125.253	-200.000	0.028	-0.231
-124.239	-60.527	-0.209	-0.089
-123.224	-12.730	-0.081	-0.053
-122.210	-7.152	0.168	-0.114
