DTS Sentinel unit serial number:	SN413079Multiplexer serial number:	ORYXHardware model number:	OX4-SRSoftware version number:	ORYX F/W v4.00 Oryx Data Collector v3.7.2.0data status	okinstallation	princeton_trtdifferential loss correction	single-endedforward channel	channel 4reverse channel	N/Adate	2019/09/11time	09:51:11forward acquisition time	60.00reverse acquisition time	0.00gamma	496.2192k internal	0.2297k external	0.2297temperature offset calibration	0.9971default loss term (dB/km)	0.3790temperature slope calibration	1.0000multiplexer offset coefficient	1.0000multiplexer slope coefficient	1.0000fibre end	0.00T internal ref (°C)	35.06T ext. ref 1 (°C)	0.12T ext. ref 2 (°C)	32.36length (m)	temperature (°C)	Stokes	anti-Stokes-747.200	800.000	-0.038	0.120
-746.185	432.297	-0.099	0.220
-745.171	10.764	0.208	-0.162
-744.156	-69.364	0.382	0.150
-743.142	800.000	0.056	-0.176
-742.127	65.390	-0.238	0.246
-741.112	101.243	0.140	-0.167
-740.098	-200.000	-0.042	0.285
-739.083	-138.720	-0.166	0.019
-738.069	760.630	0.085	0.236
-737.054	-200.000	-0.019	0.192
-736.039	-11.285	-0.310	-0.209
-735.025	19.907	0.149	0.123
-734.010	800.000	-0.031	0.100
-732.996	-41.132	-0.088	0.046
-731.981	4.150	-0.073	0.055
-730.966	159.415	-0.089	0.127
-729.952	-106.671	0.124	-0.028
-728.937	-101.669	-0.264	-0.065
-727.923	-200.000	-0.052	-0.261
-726.908	-37.382	0.265	0.145
-725.894	-117.148	-0.638	0.119
-724.879	149.434	-0.102	-0.141
-723.864	-200.000	-0.039	0.182
-722.850	54.070	0.156	0.154
-721.835	-9.508	-0.125	0.085
-720.821	701.443	0.076	0.205
-719.806	-200.000	0.116	0.000
-718.791	193.256	-0.135	-0.208
-717.777	273.096	0.153	0.276
-716.762	6.531	-0.075	-0.057
-715.748	48.692	0.044	-0.042
-714.733	-113.212	0.198	-0.040
-713.718	-114.849	-0.313	0.061
-712.704	-107.962	-0.160	-0.036
-711.689	130.418	0.101	0.132
-710.675	10.429	-0.117	0.091
-709.660	-32.159	0.405	-0.231
-708.645	675.550	0.067	0.178
-707.631	99.942	-0.119	0.140
-706.616	-153.094	0.385	0.028
-705.602	100.143	0.188	0.222
-704.587	117.553	-0.098	-0.123
-703.572	-200.000	0.003	0.209
-702.558	800.000	0.036	0.147
-701.543	-42.585	0.223	0.116
-700.529	-67.326	-0.111	0.044
-699.514	-200.000	-0.030	-0.276
-698.499	-120.713	0.373	-0.064
-697.485	234.834	-0.073	-0.123
-696.470	120.914	-0.120	-0.152
-695.456	-200.000	0.021	-0.247
-694.441	-51.065	-0.337	-0.161
-693.426	133.791	-0.107	-0.141
-692.412	53.103	0.244	0.238
-691.397	-200.000	-0.006	-0.186
-690.383	52.407	-0.186	0.181
-689.368	425.921	0.061	-0.134
-688.354	79.654	-0.152	0.167
-687.339	480.209	-0.066	-0.152
-686.324	-200.000	-0.007	-0.102
-685.310	-200.000	0.025	-0.217
-684.295	-42.115	-0.289	0.151
-683.281	-21.309	0.291	0.181
-682.266	-76.701	-0.146	0.052
-681.251	800.000	-0.020	0.073
-680.237	226.665	0.113	-0.188
-679.222	-129.649	0.214	0.030
-678.208	-0.710	-0.239	0.172
-677.193	-95.729	-0.174	-0.047
-676.178	82.407	-0.118	-0.131
-675.164	800.000	-0.034	-0.140
-674.149	-71.440	-0.105	0.040
-673.135	-200.000	0.017	0.261
-672.120	500.324	0.125	0.295
-671.105	195.676	0.142	0.220
-670.091	-200.000	0.085	-0.388
-669.076	800.000	-0.035	0.139
-668.062	-94.479	0.165	-0.046
-667.047	-200.000	0.032	-0.399
-666.032	-80.682	-0.086	0.029
-665.018	-42.601	-0.236	0.122
-664.003	102.764	-0.263	-0.313
-662.989	-83.352	0.135	0.044
-661.974	244.861	0.061	-0.104
-660.959	-59.275	0.123	-0.054
-659.945	180.476	0.070	-0.105
-658.930	55.448	0.029	-0.028
-657.916	-182.467	0.034	0.001
-656.901	-177.526	-0.181	0.005
-655.886	24.624	-0.273	-0.230
-654.872	-10.314	0.109	-0.074
-653.857	-200.000	0.002	0.126
-652.843	-200.000	-0.023	-0.181
-651.828	-69.050	0.261	0.102
-650.814	-200.000	0.005	-0.035
-649.799	-200.000	0.017	-0.080
-648.784	273.419	0.099	0.178
-647.770	345.950	0.093	-0.186
-646.755	-8.349	-0.250	-0.171
-645.741	73.816	-0.029	0.031
-644.726	41.355	-0.190	-0.175
-643.711	-15.832	-0.195	0.126
-642.697	800.000	0.060	0.191
-641.682	-64.790	0.286	-0.118
-640.668	-59.072	0.140	-0.061
-639.653	91.966	-0.145	0.166
-638.638	138.082	0.152	-0.202
-637.624	800.000	-0.013	-0.056
-636.609	32.021	0.103	-0.091
-635.595	555.156	-0.092	-0.226
-634.580	-200.000	0.008	-0.105
-633.565	-102.053	0.266	0.065
-632.551	800.000	0.053	0.180
-631.536	-200.000	0.036	-0.221
-630.522	-76.483	0.360	-0.129
-629.507	711.119	0.103	-0.277
-628.492	800.000	-0.017	0.054
-627.478	-20.492	0.079	-0.049
-626.463	800.000	0.085	-0.249
-625.449	-200.000	-0.001	0.146
-624.434	241.896	0.126	-0.214
-623.419	-183.739	0.156	0.003
-622.405	112.877	-0.048	-0.059
-621.390	615.111	-0.077	-0.196
-620.376	-22.849	-0.343	0.210
-619.361	160.742	0.258	0.366
-618.346	-25.738	-0.186	-0.112
-617.332	-123.005	-0.092	-0.015
-616.317	-142.690	0.088	-0.009
-615.303	800.000	0.174	0.532
-614.288	70.464	-0.193	-0.202
-613.273	-33.215	0.204	-0.115
-612.259	-116.116	0.223	-0.042
-611.244	-40.470	-0.115	0.061
-610.230	207.571	0.052	0.083
-609.215	-101.347	-0.232	0.057
-608.201	-92.563	-0.086	-0.025
-607.186	204.801	0.062	-0.099
-606.171	265.234	-0.123	-0.218
-605.157	800.000	-0.063	-0.193
-604.142	73.802	-0.216	0.230
-603.128	-200.000	0.017	0.103
-602.113	-7.721	0.158	-0.108
-601.098	-74.242	-0.226	0.083
-600.084	-200.000	-0.020	0.145
-599.069	-142.460	-0.196	0.020
-598.055	-200.000	0.006	0.125
-597.040	-200.000	-0.055	0.328
-596.025	-160.306	0.069	0.004
-595.011	63.776	-0.047	-0.048
-593.996	130.618	0.322	-0.419
-592.982	-200.000	-0.042	-0.408
-591.967	-132.413	0.320	-0.042
-590.952	671.548	-0.101	-0.267
-589.938	89.822	0.172	-0.195
-588.923	-0.869	-0.077	-0.055
-587.909	-128.834	-0.143	0.020
-586.894	800.000	-0.073	0.258
-585.879	-45.962	0.323	0.162
-584.865	-200.000	0.075	-0.339
-583.850	429.607	0.115	0.252
-582.836	-51.745	-0.243	-0.115
-581.821	-11.409	0.121	0.081
-580.806	800.000	-0.045	-0.167
-579.792	-53.883	0.208	0.096
-578.777	-84.709	0.130	-0.042
-577.763	166.572	-0.101	-0.145
-576.748	49.805	-0.072	0.069
-575.733	-200.000	-0.028	0.155
-574.719	-162.760	0.184	-0.009
-573.704	-35.823	-0.202	-0.111
-572.690	-131.641	-0.514	-0.069
-571.675	163.011	-0.248	-0.354
-570.661	-63.643	0.196	0.081
-569.646	-98.165	0.366	0.096
-568.631	-126.492	0.075	0.011
-567.617	24.119	-0.143	-0.120
-566.602	-44.291	0.376	-0.191
-565.588	-37.931	0.142	-0.076
-564.573	96.938	0.138	0.160
-563.558	-200.000	-0.015	0.322
-562.544	186.609	-0.075	-0.113
-561.529	131.007	-0.080	0.105
-560.515	133.467	0.110	-0.144
-559.500	-16.674	-0.234	0.150
-558.485	140.295	0.176	0.236
-557.471	-200.000	-0.076	-0.386
-556.456	112.932	0.069	0.085
-555.442	-148.076	0.253	0.021
-554.427	382.425	-0.125	-0.261
-553.412	-0.490	0.080	-0.057
-552.398	136.760	0.125	-0.165
-551.383	99.532	0.175	0.206
-550.369	-88.904	-0.224	0.067
-549.354	503.482	-0.056	0.132
-548.339	78.450	-0.199	-0.215
-547.325	290.918	-0.098	0.180
-546.310	53.620	-0.093	0.091
-545.296	-94.266	-0.156	-0.043
-544.281	800.000	0.103	0.297
-543.266	796.030	0.153	0.428
-542.252	-123.346	-0.171	-0.028
-541.237	83.374	-0.178	-0.197
-540.223	-200.000	-0.017	-0.158
-539.208	-112.151	0.152	-0.031
-538.193	-59.309	-0.188	-0.082
-537.179	145.805	0.070	-0.095
-536.164	189.228	-0.178	-0.271
-535.150	800.000	0.114	0.333
-534.135	-52.139	0.117	0.055
-533.121	-200.000	0.010	0.316
-532.106	-63.855	-0.077	-0.032
-531.091	114.767	0.112	0.138
-530.077	7.701	0.158	0.120
-529.062	-200.000	-0.042	-0.207
-528.048	571.067	-0.074	-0.183
-527.033	-61.100	0.096	-0.041
-526.018	-200.000	-0.025	-0.141
-525.004	-47.103	-0.356	-0.176
-523.989	-127.223	0.066	0.010
-522.975	-118.821	-0.183	0.033
-521.960	800.000	-0.051	0.172
-520.945	-200.000	0.025	0.140
-519.931	-57.808	0.164	-0.073
-518.916	-144.670	-0.184	-0.017
-517.902	116.107	-0.162	0.201
-516.887	10.979	0.122	0.095
-515.872	-200.000	0.002	-0.119
-514.858	-162.688	0.237	0.012
-513.843	-198.385	-0.401	-0.002
-512.829	-92.518	-0.221	-0.063
-511.814	-2.501	0.124	0.088
-510.799	-30.021	-0.067	-0.038
-509.785	-80.795	-0.251	0.085
-508.770	-185.777	-0.121	0.002
-507.756	-50.149	-0.031	0.015
-506.741	221.925	0.212	0.344
-505.726	735.751	0.022	0.061
-504.712	-200.000	-0.027	-0.175
-503.697	-20.469	0.187	0.117
-502.683	800.000	0.045	0.132
-501.668	-200.000	-0.004	0.035
-500.653	189.356	0.203	-0.308
-499.639	-134.383	0.160	-0.020
-498.624	-123.161	-0.306	-0.050
-497.610	-58.914	0.017	0.007
-496.595	-200.000	0.033	0.148
-495.581	-44.950	0.267	0.134
-494.566	88.302	-0.132	0.148
-493.551	-23.523	-0.332	-0.202
-492.537	-200.000	0.028	0.211
-491.522	44.351	-0.232	-0.215
-490.508	235.860	0.045	-0.075
-489.493	41.264	-0.208	0.190
-488.478	434.935	0.155	0.340
-487.464	-49.153	-0.301	0.146
-486.449	-20.291	-0.253	-0.157
-485.435	14.447	-0.164	-0.129
-484.420	-144.058	0.183	0.017
-483.405	-118.527	0.298	0.053
-482.391	-108.738	0.251	0.054
-481.376	-102.057	0.227	0.055
-480.362	-106.394	0.191	-0.043
-479.347	12.008	0.154	0.120
-478.332	-200.000	-0.017	0.083
-477.318	-200.000	-0.029	-0.236
-476.303	338.618	0.141	-0.278
-475.289	-13.108	0.078	-0.051
-474.274	-200.000	0.054	0.288
-473.259	314.150	-0.067	-0.127
-472.245	11.932	0.311	0.241
-471.230	-114.681	-0.232	0.045
-470.216	437.990	0.056	-0.123
-469.201	-174.632	0.225	-0.006
-468.186	583.362	-0.086	0.213
-467.172	-116.952	0.194	-0.036
-466.157	-84.404	0.248	-0.079
-465.143	-200.000	0.004	-0.208
-464.128	-190.736	0.077	-0.001
-463.113	-200.000	0.003	0.142
-462.099	499.489	-0.057	0.133
-461.084	-138.117	0.303	0.034
-460.070	73.289	-0.221	0.234
-459.055	-66.684	0.152	0.061
-458.040	800.000	-0.109	-0.336
-457.026	-26.185	0.124	-0.074
-456.011	-113.820	0.071	-0.014
-454.997	-200.000	-0.004	-0.241
-453.982	205.685	0.157	-0.246
-452.968	11.891	0.126	-0.098
-451.953	-78.929	0.154	0.053
-450.938	562.399	0.048	-0.118
-449.924	-157.421	-0.277	0.017
-448.909	800.000	-0.033	-0.125
-447.895	-200.000	0.051	-0.263
-446.880	184.344	-0.175	-0.261
-445.865	305.043	0.142	-0.266
-444.851	364.521	0.140	0.284
-443.836	34.141	-0.169	-0.149
-442.822	90.006	-0.214	0.241
-441.807	-189.183	0.276	0.003
-440.792	-60.049	0.317	-0.137
-439.778	12.019	0.181	0.140
-438.763	-88.400	-0.209	0.063
-437.749	-200.000	0.003	-0.294
-436.734	-21.467	-0.198	0.122
-435.719	61.834	0.143	-0.144
-434.705	-200.000	-0.019	-0.085
-433.690	51.817	-0.285	0.274
-432.676	-200.000	-0.055	0.332
-431.661	-131.120	0.244	-0.033
-430.646	-131.220	-0.176	-0.024
-429.632	-200.000	-0.007	-0.109
-428.617	-160.795	0.146	-0.008
-427.603	-130.957	-0.096	-0.013
-426.588	800.000	-0.086	-0.283
-425.573	-40.133	-0.193	-0.101
-424.559	-80.253	0.196	-0.066
-423.544	-126.972	-0.101	0.015
-422.530	-45.862	0.198	-0.099
-421.515	-61.120	-0.240	-0.102
-420.500	176.462	0.079	-0.116
-419.486	-200.000	0.154	-0.001
-418.471	67.187	-0.130	0.134
-417.457	-164.889	-0.320	-0.014
-416.442	0.162	-0.256	0.184
-415.428	73.950	-0.056	-0.060
-414.413	-26.214	-0.246	-0.146
-413.398	-200.000	-0.028	0.144
-412.384	-8.125	-0.340	-0.231
-411.369	318.486	0.073	-0.139
-410.355	-200.000	-0.029	-0.190
-409.340	-13.773	0.186	0.121
-408.325	-37.482	-0.020	0.011
-407.311	-200.000	-0.038	-0.209
-406.296	46.572	0.135	0.126
-405.282	-200.000	-0.001	-0.038
-404.267	202.112	-0.205	-0.318
-403.252	-76.495	-0.297	0.105
-402.238	-157.259	0.157	-0.010
-401.223	800.000	-0.011	0.047
-400.209	-49.736	-0.166	0.080
-399.194	-200.000	-0.005	-0.159
-398.179	65.204	0.170	0.173
-397.165	-77.294	-0.295	0.104
-396.150	-55.551	0.284	-0.128
-395.136	150.678	-0.082	0.113
-394.121	800.000	0.043	0.183
-393.106	-200.000	0.033	-0.333
-392.092	-200.000	0.002	0.078
-391.077	60.266	-0.043	-0.043
-390.063	-200.000	0.008	0.278
-389.048	114.269	0.128	0.157
-388.033	67.215	-0.160	-0.164
-387.019	-5.023	0.138	-0.096
-386.004	-117.050	0.108	0.020
-384.990	800.000	-0.038	-0.121
-383.975	-200.000	0.006	0.030
-382.960	50.679	0.101	-0.096
-381.946	800.000	0.042	-0.127
-380.931	-200.000	0.056	0.327
-379.917	698.010	-0.012	0.033
-378.902	-49.482	-0.243	0.117
-377.888	-200.000	0.004	0.046
-376.873	-64.030	0.148	0.061
-375.858	114.285	0.205	0.252
-374.844	-64.572	0.304	-0.124
-373.829	800.000	-0.080	-0.247
-372.815	-13.595	-0.132	0.086
-371.800	800.000	-0.135	-0.456
-370.785	-200.000	0.001	0.147
-369.771	-39.623	-0.315	0.166
-368.756	-91.655	0.146	-0.042
-367.742	-56.336	0.063	0.028
-366.727	200.003	0.257	-0.397
-365.712	186.345	-0.188	0.281
-364.698	10.867	0.070	0.054
-363.683	-66.423	0.363	0.145
-362.669	775.642	-0.029	-0.079
-361.654	-200.000	0.019	0.107
-360.639	-78.123	0.270	-0.093
-359.625	800.000	0.044	0.186
-358.610	-149.770	0.091	0.007
-357.596	102.038	-0.092	-0.108
-356.581	-200.000	0.016	0.131
-355.566	-200.000	0.009	-0.213
-354.552	157.292	-0.074	0.103
-353.537	109.710	0.206	0.249
-352.523	-107.639	-0.166	-0.037
-351.508	458.517	0.092	-0.206
-350.493	-23.290	-0.055	0.033
-349.479	-54.102	-0.434	-0.198
-348.464	-200.000	-0.008	-0.073
-347.450	-16.997	0.263	-0.167
-346.435	-21.150	-0.379	-0.233
-345.420	75.970	-0.066	-0.070
-344.406	683.442	-0.053	-0.139
-343.391	551.129	-0.105	-0.253
-342.377	497.902	-0.145	-0.335
-341.362	-200.000	-0.060	0.439
-340.348	-200.000	-0.040	0.223
-339.333	-30.606	0.196	0.112
-338.318	-157.271	0.164	0.010
-337.304	435.266	-0.078	-0.170
-336.289	-200.000	0.002	-0.080
-335.275	50.901	0.192	0.183
-334.260	86.916	0.184	-0.205
-333.245	536.850	-0.075	0.179
-332.231	139.586	-0.342	0.452
-331.216	-200.000	0.002	0.149
-330.202	-200.000	-0.002	0.204
-329.187	-109.963	-0.114	-0.024
-328.172	676.456	0.092	-0.240
-327.158	30.827	0.107	-0.092
-326.143	-145.337	-0.238	0.022
-325.129	-52.659	0.140	-0.065
-324.114	-32.317	-0.108	0.061
-323.099	800.000	-0.079	0.282
-322.085	800.000	0.062	0.200
-321.070	27.193	0.442	0.373
-320.056	123.647	-0.100	0.126
-319.041	-103.878	0.094	-0.022
-318.026	206.822	-0.258	0.404
-317.012	440.176	-0.138	-0.303
-315.997	263.086	-0.104	-0.181
-314.983	-98.980	-0.258	0.066
-313.968	359.369	0.079	0.158
-312.953	321.413	0.087	-0.166
-311.939	-38.598	0.138	-0.073
-310.924	28.583	0.176	0.150
-309.910	71.117	-0.194	0.201
-308.895	-139.364	0.161	0.017
-307.880	-200.000	0.015	-0.367
-306.866	800.000	-0.064	0.180
-305.851	-132.900	-0.526	-0.067
-304.837	448.918	0.076	-0.168
-303.822	-43.839	-0.402	0.203
-302.807	-200.000	0.007	-0.355
-301.793	45.491	-0.353	-0.327
-300.778	0.501	-0.235	0.169
-299.764	-59.979	-0.055	0.024
-298.749	48.081	0.302	0.284
-297.735	-29.833	0.285	-0.163
-296.720	-23.473	-0.071	-0.043
-295.705	-159.785	0.251	0.014
-294.691	-12.915	0.164	-0.107
-293.676	-47.109	-0.084	0.041
-292.662	-22.706	-0.050	-0.030
-291.647	-178.246	-0.380	0.009
-290.632	68.340	0.150	0.154
-289.618	249.279	0.052	-0.088
-288.603	800.000	-0.054	0.201
-287.589	35.413	0.270	0.238
-286.574	237.490	0.088	-0.146
-285.559	290.045	-0.135	0.246
-284.545	14.911	0.285	0.223
-283.530	466.599	0.121	-0.273
-282.516	67.014	-0.096	-0.098
-281.501	-11.184	-0.092	0.061
-280.486	-98.898	-0.090	0.023
-279.472	-200.000	0.030	-0.228
-278.457	-165.687	-0.110	0.005
-277.443	-0.733	0.191	0.136
-276.428	37.709	0.135	-0.121
-275.413	-132.205	0.388	0.050
-274.399	-144.539	0.113	-0.010
-273.384	-145.505	0.332	-0.030
-272.370	299.456	-0.067	-0.124
-271.355	132.467	-0.052	0.067
-270.340	326.300	-0.047	0.091
-269.326	13.545	-0.204	0.159
-268.311	15.687	-0.472	0.372
-267.297	-200.000	0.024	0.108
-266.282	49.250	0.023	-0.022
-265.267	-61.997	0.132	-0.055
-264.253	-187.540	0.275	-0.004
-263.238	400.338	0.066	-0.139
-262.224	470.358	0.064	0.145
-261.209	20.587	0.213	0.173
-260.195	-12.759	0.074	-0.048
-259.180	5.421	0.161	-0.119
-258.165	-167.787	-0.231	-0.009
-257.151	-36.638	-0.285	0.153
-256.136	91.451	-0.090	-0.101
-255.122	-200.000	0.026	-0.115
-254.107	127.404	0.085	0.108
-253.092	-5.857	-0.438	0.300
-252.078	38.934	0.255	-0.228
-251.063	60.198	-0.134	0.132
-250.049	-34.734	-0.151	0.083
-249.034	-115.102	-0.184	0.035
-248.019	687.070	-0.057	-0.149
-247.005	-200.000	0.030	0.195
-245.990	-126.580	-0.101	0.015
-244.976	-200.000	0.022	0.178
-243.961	800.000	0.077	0.258
-242.946	-123.199	0.146	0.023
-241.932	-200.000	0.059	0.282
-240.917	-7.527	-0.389	-0.263
-239.903	-95.086	0.371	0.100
-238.888	177.000	0.181	-0.264
-237.873	-200.000	-0.069	-0.312
-236.859	-127.832	-0.177	0.026
-235.844	11.196	0.061	-0.047
-234.830	33.999	-0.199	-0.174
-233.815	-64.031	0.322	-0.132
-232.800	-34.220	0.172	-0.095
-231.786	-200.000	-0.023	0.186
-230.771	-167.540	-0.128	0.005
-229.757	-142.319	-0.219	-0.022
-228.742	-200.000	0.022	-0.425
-227.727	-45.449	-0.311	0.154
-226.713	800.000	0.123	0.365
-225.698	-200.000	0.029	0.267
-224.684	22.755	-0.208	0.170
-223.669	16.020	-0.401	-0.316
-222.655	65.577	0.134	-0.136
-221.640	-41.185	0.221	-0.114
-220.625	442.044	0.066	-0.144
-219.611	145.330	0.105	-0.140
-218.596	800.000	-0.090	0.288
-217.582	141.019	0.075	-0.100
-216.567	-76.229	-0.155	-0.055
-215.552	107.009	0.199	0.237
-214.538	-25.528	-0.118	-0.070
-213.523	-38.750	0.218	-0.115
-212.509	-112.966	0.162	-0.032
-211.494	-20.692	0.033	-0.020
-210.479	60.388	0.151	0.150
-209.465	-200.000	-0.011	0.356
-208.450	-200.000	0.003	0.184
-207.436	800.000	0.058	-0.168
-206.421	-200.000	-0.036	0.220
-205.406	29.214	-0.310	0.263
-204.392	231.211	-0.056	0.091
-203.377	-16.539	0.044	0.028
-202.363	-200.000	-0.008	-0.043
-201.348	-0.807	0.064	-0.045
-200.333	83.942	0.184	-0.201
-199.319	-200.000	0.005	0.036
-198.304	236.062	-0.072	-0.119
-197.290	-167.524	-0.185	-0.007
-196.275	26.400	0.060	0.050
-195.260	-83.592	-0.268	-0.086
-194.246	321.585	0.153	-0.291
-193.231	-110.794	0.124	0.026
-192.217	474.853	0.121	0.272
-191.202	117.969	-0.074	-0.092
-190.187	-200.000	0.001	0.175
-189.173	-55.742	-0.222	-0.099
-188.158	119.646	0.138	-0.170
-187.144	225.777	0.057	0.092
-186.129	544.494	-0.082	-0.195
-185.114	243.120	-0.076	-0.127
-184.100	-200.000	0.025	0.339
-183.085	183.904	-0.085	0.125
-182.071	-97.810	-0.048	0.013
-181.056	87.165	0.205	0.226
-180.042	-200.000	0.032	-0.228
-179.027	-200.000	-0.008	0.175
-178.012	15.639	-0.073	-0.057
-176.998	131.735	-0.057	0.073
-175.983	-20.089	-0.054	0.033
-174.969	56.864	-0.147	-0.143
-173.954	800.000	-0.033	0.108
-172.939	439.549	-0.029	-0.064
-171.925	-139.947	-0.327	-0.034
-170.910	275.594	-0.089	0.158
-169.896	-191.349	0.108	0.001
-168.881	800.000	0.041	-0.139
-167.866	-90.087	-0.105	-0.030
-166.852	745.711	-0.118	0.317
-165.837	-1.931	-0.093	-0.065
-164.823	642.417	0.065	-0.164
-163.808	-137.990	0.238	-0.026
-162.793	44.726	-0.140	0.129
-161.779	-51.248	-0.380	-0.178
-160.764	212.273	0.124	0.194
-159.750	-200.000	0.007	0.264
-158.735	-3.826	0.157	-0.109
-157.720	-158.095	0.186	0.011
-156.706	-93.460	-0.120	-0.033
-155.691	-11.944	0.314	0.205
-154.677	52.621	-0.099	0.095
-153.662	342.817	-0.115	-0.226
-152.647	-76.049	0.215	-0.076
-151.633	-200.000	-0.016	0.078
-150.618	-200.000	0.459	0.002
-149.604	292.019	0.108	0.197
-148.589	-200.000	-0.012	0.130
-147.574	-115.251	0.131	0.025
-146.560	78.615	0.234	0.250
-145.545	359.093	0.096	0.191
-144.531	-112.218	0.190	0.038
-143.516	-147.949	-0.147	-0.012
-142.502	-151.683	0.249	-0.018
-141.487	-200.000	0.016	0.204
-140.472	800.000	-0.069	0.217
-139.458	-200.000	-0.036	0.319
-138.443	-200.000	0.020	0.188
-137.429	-130.447	-0.233	-0.032
-136.414	152.605	0.158	0.216
-135.399	332.278	0.105	0.202
-134.385	-200.000	-0.039	0.382
-133.370	-63.277	0.099	0.041
-132.356	-200.000	0.040	-0.180
-131.341	186.924	0.115	0.171
-130.326	-200.000	-0.017	-0.242
-129.312	-72.497	0.146	0.054
-128.297	-200.000	-0.060	0.429
-127.283	-113.910	0.203	-0.039
-126.268	301.042	-0.031	-0.057
-125.253	-200.000	-0.014	-0.184
-124.239	-200.000	0.014	0.211
-123.224	136.733	0.246	0.320
-122.210	-200.000	0.055	-0.294
-121.195	-142.516	-0.185	0.018
