DTS Sentinel unit serial number:	SN413079Multiplexer serial number:	ORYXHardware model number:	OX4-SRSoftware version number:	ORYX F/W v4.00 Oryx Data Collector v3.7.2.0data status	okinstallation	princeton_trtdifferential loss correction	single-endedforward channel	channel 4reverse channel	N/Adate	2019/09/11time	22:43:11forward acquisition time	60.00reverse acquisition time	0.00gamma	496.2192k internal	0.2308k external	0.2308temperature offset calibration	1.0075default loss term (dB/km)	0.3790temperature slope calibration	1.0000multiplexer offset coefficient	1.0000multiplexer slope coefficient	1.0000fibre end	0.00T internal ref (°C)	34.86T ext. ref 1 (°C)	1.82T ext. ref 2 (°C)	28.91length (m)	temperature (°C)	Stokes	anti-Stokes-747.200	800.000	0.038	0.121
-746.185	-200.000	-0.004	0.385
-745.171	-70.626	-0.297	0.114
-744.156	-158.228	0.238	0.014
-743.142	62.834	0.136	0.138
-742.127	26.458	0.086	-0.073
-741.112	10.228	-0.065	-0.050
-740.098	270.309	-0.057	-0.102
-739.083	329.454	0.087	0.170
-738.069	-200.000	-0.061	0.361
-737.054	-83.172	0.149	0.049
-736.039	-12.312	-0.486	0.323
-735.025	-200.000	0.007	0.098
-734.010	320.660	-0.147	-0.285
-732.996	-92.192	-0.235	-0.067
-731.981	800.000	0.082	0.247
-730.966	27.390	0.107	0.091
-729.952	-89.288	-0.199	-0.060
-728.937	-144.935	-0.195	-0.018
-727.923	68.924	-0.081	-0.085
-726.908	-200.000	-0.020	-0.360
-725.894	4.829	0.087	-0.065
-724.879	2.083	0.073	-0.054
-723.864	-200.000	0.024	-0.209
-722.850	328.322	0.046	-0.090
-721.835	73.877	0.079	-0.085
-720.821	748.951	-0.093	-0.256
-719.806	800.000	-0.096	0.373
-718.791	519.261	0.045	-0.107
-717.777	0.380	0.438	-0.318
-716.762	142.578	-0.089	-0.120
-715.748	62.636	-0.100	0.102
-714.733	-157.440	0.311	-0.019
-713.718	30.106	-0.075	0.065
-712.704	-51.685	-0.348	-0.165
-711.689	-200.000	0.046	0.285
-710.675	42.432	0.134	0.124
-709.660	76.063	-0.180	-0.193
-708.645	-200.000	0.010	-0.058
-707.631	83.992	-0.166	0.184
-706.616	-62.274	0.357	0.151
-705.602	-102.701	0.109	-0.026
-704.587	-139.405	-0.498	0.054
-703.572	800.000	0.097	0.341
-702.558	-200.000	0.018	-0.201
-701.543	519.510	-0.127	-0.303
-700.529	-200.000	0.026	0.171
-699.514	-80.400	0.213	-0.072
-698.499	-200.000	-0.006	-0.081
-697.485	-119.885	-0.434	-0.076
-696.470	-200.000	0.032	0.266
-695.456	-72.588	-0.116	-0.043
-694.441	-77.465	0.174	-0.061
-693.426	204.867	-0.113	-0.177
-692.412	-94.773	-0.056	-0.015
-691.397	26.632	-0.022	-0.019
-690.383	117.800	0.294	-0.367
-689.368	-200.000	0.014	-0.199
-688.354	800.000	-0.009	0.032
-687.339	443.632	-0.058	-0.129
-686.324	68.691	0.170	-0.177
-685.310	-79.191	-0.191	-0.066
-684.295	302.158	-0.108	0.202
-683.281	-200.000	-0.046	0.245
-682.266	295.360	0.160	0.296
-681.251	-117.995	-0.358	0.065
-680.237	84.592	0.128	-0.142
-679.222	402.136	-0.101	0.215
-678.208	-200.000	-0.065	0.000
-677.193	-200.000	-0.097	-0.450
-676.178	-68.484	-0.184	0.072
-675.164	51.130	-0.034	0.033
-674.149	-3.742	-0.248	0.175
-673.135	-118.888	-0.098	0.017
-672.120	-52.561	0.385	0.181
-671.105	-200.000	-0.054	-0.267
-670.091	800.000	-0.036	0.152
-669.076	187.736	0.089	-0.134
-668.062	-200.000	-0.040	0.217
-667.047	-130.018	-0.220	-0.031
-666.032	76.528	-0.032	0.035
-665.018	-64.410	0.049	0.020
-664.003	596.924	-0.035	-0.088
-662.989	-119.686	-0.322	0.056
-661.974	645.260	0.099	-0.257
-660.959	70.645	0.178	0.187
-659.945	111.017	-0.194	-0.236
-658.930	20.056	-0.177	0.145
-657.916	-200.000	-0.024	0.110
-656.901	-94.945	0.449	0.123
-655.886	-95.797	0.075	-0.020
-654.872	203.755	-0.089	-0.139
-653.857	-5.356	0.297	0.207
-652.843	99.109	0.138	0.161
-651.828	-104.492	-0.441	0.103
-650.814	-200.000	0.003	0.059
-649.799	318.840	0.051	0.098
-648.784	-131.077	-0.076	-0.010
-647.770	-152.630	0.095	-0.007
-646.755	800.000	-0.049	0.152
-645.741	-27.335	-0.061	0.036
-644.726	-170.267	0.207	-0.007
-643.711	-171.553	-0.631	0.021
-642.697	-133.710	0.115	0.015
-641.682	-104.745	0.256	-0.060
-640.668	-7.497	0.114	-0.078
-639.653	180.816	-0.072	-0.107
-638.638	-200.000	-0.012	-0.072
-637.624	-10.756	-0.279	-0.187
-636.609	176.491	0.101	-0.148
-635.595	296.446	0.070	-0.131
-634.580	474.193	0.063	-0.145
-633.565	239.804	0.026	0.044
-632.551	-85.481	0.048	0.015
-631.536	104.916	-0.107	-0.127
-630.522	-66.342	-0.251	-0.101
-629.507	-115.012	-0.328	-0.063
-628.492	45.240	-0.037	0.035
-627.478	-49.769	0.271	-0.130
-626.463	54.573	-0.049	-0.048
-625.449	-51.335	-0.064	0.030
-624.434	-122.125	-0.126	0.021
-623.419	53.080	-0.139	-0.135
-622.405	-95.360	-0.252	-0.068
-621.390	401.825	-0.046	-0.098
-620.376	-19.633	-0.048	-0.030
-619.361	1.401	-0.089	-0.065
-618.346	75.920	0.149	-0.159
-617.332	-52.750	-0.220	-0.102
-616.317	229.477	-0.140	-0.231
-615.303	-55.789	-0.062	-0.028
-614.288	-109.228	-0.141	-0.030
-613.273	-93.030	0.435	-0.123
-612.259	-163.871	-0.200	-0.009
-611.244	94.872	-0.108	0.125
-610.230	-160.822	0.296	-0.016
-609.215	-91.304	0.078	-0.023
-608.201	-27.534	-0.293	0.172
-607.186	121.270	-0.119	-0.150
-606.171	-171.790	-0.044	-0.001
-605.157	800.000	0.072	0.248
-604.142	-101.970	0.233	-0.057
-603.128	-138.855	-0.525	-0.058
-602.113	800.000	-0.184	-0.522
-601.098	-200.000	0.009	0.066
-600.084	-78.703	0.157	0.054
-599.069	-200.000	-0.026	-0.261
-598.055	18.843	0.118	0.096
-597.040	-200.000	-0.043	0.221
-596.025	800.000	0.094	-0.281
-595.011	-154.452	-0.164	-0.011
-593.996	63.000	0.161	-0.163
-592.982	-55.271	-0.257	-0.117
-591.967	1.224	0.289	0.210
-590.952	800.000	0.048	-0.199
-589.938	800.000	-0.028	0.117
-588.923	-199.997	-0.292	0.001
-587.909	-76.377	-0.228	-0.081
-586.894	-32.573	-0.238	0.134
-585.879	202.509	-0.162	0.253
-584.865	-43.096	-0.226	-0.115
-583.850	-51.162	0.215	-0.102
-582.836	-200.000	0.013	-0.164
-581.821	14.688	-0.117	-0.092
-580.806	-200.000	0.045	-0.232
-579.792	-77.354	-0.127	0.045
-578.777	800.000	-0.069	0.270
-577.763	800.000	0.069	-0.212
-576.748	-48.458	-0.005	0.003
-575.733	-126.892	0.342	-0.051
-574.719	-96.615	-0.224	0.060
-573.704	-65.168	-0.116	0.047
-572.690	287.446	0.058	0.107
-571.675	-200.000	-0.040	0.208
-570.661	-147.908	0.241	0.020
-569.646	-19.866	0.181	-0.113
-568.631	800.000	-0.007	0.031
-567.617	-200.000	0.087	-0.400
-566.602	-119.201	-0.185	-0.033
-565.588	321.780	0.038	-0.072
-564.573	-108.463	0.156	-0.034
-563.558	-28.069	-0.224	0.131
-562.544	-48.589	0.174	0.084
-561.529	58.896	0.022	-0.022
-560.515	800.000	-0.067	-0.202
-559.500	42.428	0.162	0.149
-558.485	-200.000	0.011	0.269
-557.471	-71.311	-0.279	0.106
-556.456	214.995	-0.186	-0.297
-555.442	8.017	-0.321	-0.243
-554.427	-18.332	-0.221	-0.139
-553.412	125.340	0.284	0.362
-552.398	151.778	-0.060	0.083
-551.383	-200.000	0.016	0.116
-550.369	-200.000	-0.043	0.226
-549.354	800.000	0.051	0.186
-548.339	747.915	-0.052	0.142
-547.325	6.396	0.173	-0.130
-546.310	-100.268	0.230	-0.058
-545.296	-1.691	-0.153	-0.109
-544.281	-83.597	0.226	-0.073
-543.266	211.578	0.171	-0.272
-542.252	800.000	-0.068	0.259
-541.237	219.463	0.141	-0.228
-540.223	-200.000	-0.024	0.239
-539.208	-159.452	-0.276	-0.016
-538.193	-67.589	0.070	0.028
-537.179	-67.586	-0.280	-0.111
-536.164	250.477	0.072	-0.123
-535.150	800.000	0.042	0.140
-534.135	-189.616	0.292	0.003
-533.121	-149.733	0.040	0.003
-532.106	-56.243	-0.245	0.110
-531.091	-200.000	0.051	0.347
-530.077	-200.000	-0.015	-0.214
-529.062	-25.639	-0.260	0.155
-528.048	-68.174	0.102	0.040
-527.033	-153.351	-0.221	-0.016
-526.018	66.229	0.333	0.341
-525.004	35.547	-0.078	-0.069
-523.989	456.008	0.064	-0.143
-522.975	-49.314	-0.181	-0.087
-521.960	-200.000	-0.009	0.121
-520.945	-64.902	0.144	-0.059
-519.931	133.406	-0.072	-0.093
-518.916	144.374	-0.136	-0.182
-517.902	-97.000	0.344	0.091
-516.887	800.000	0.100	0.311
-515.872	-92.088	0.341	-0.097
-514.858	-17.841	-0.241	-0.152
-513.843	449.763	-0.089	-0.199
-512.829	493.873	-0.071	0.164
-511.814	-69.171	0.058	0.022
-510.799	-57.268	-0.119	-0.053
-509.785	-107.379	-0.414	-0.092
-508.770	-6.123	-0.307	-0.211
-507.756	-100.325	0.334	0.083
-506.741	-200.000	0.002	-0.161
-505.726	-73.270	-0.237	0.087
-504.712	97.096	-0.043	0.050
-503.697	800.000	0.044	-0.183
-502.683	644.734	-0.028	-0.073
-501.668	-83.613	-0.328	-0.105
-500.653	47.180	-0.137	-0.129
-499.639	-60.710	-0.106	-0.045
-498.624	-111.121	-0.163	0.034
-497.610	-67.630	0.176	-0.069
-496.595	99.833	-0.153	0.178
-495.581	317.269	0.056	0.107
-494.566	-78.177	0.099	-0.034
-493.551	800.000	-0.018	0.067
-492.537	-200.000	-0.028	-0.139
-491.522	83.537	0.103	0.113
-490.508	-82.282	0.151	0.050
-489.493	-200.000	0.010	0.318
-488.478	415.027	0.070	-0.150
-487.464	723.664	-0.083	-0.221
-486.449	-84.136	-0.139	0.044
-485.435	55.154	0.213	0.208
-484.420	-200.000	0.043	-0.201
-483.405	75.973	-0.197	0.209
-482.391	-200.000	0.003	0.112
-481.376	-89.175	0.088	0.026
-480.362	33.570	-0.153	0.134
-479.347	-200.000	0.042	0.244
-478.332	-118.396	0.131	0.023
-477.318	719.501	-0.125	-0.335
-476.303	328.649	0.103	-0.200
-475.289	166.684	0.179	-0.255
-474.274	800.000	0.018	0.075
-473.259	-100.255	0.225	0.056
-472.245	142.778	0.206	-0.276
-471.230	800.000	-0.041	0.155
-470.216	353.833	-0.093	0.185
-469.201	-200.000	0.014	0.066
-468.186	-35.976	0.106	0.057
-467.172	23.482	-0.113	-0.093
-466.157	-162.597	0.032	-0.002
-465.143	542.960	-0.133	-0.319
-464.128	-200.000	-0.032	0.266
-463.113	124.371	0.096	0.121
-462.099	94.542	0.113	-0.129
-461.084	0.496	0.078	-0.056
-460.070	-81.413	-0.144	-0.048
-459.055	-132.042	-0.084	-0.011
-458.040	-38.038	-0.299	-0.159
-457.026	-200.000	-0.008	0.126
-456.011	-200.000	0.016	0.153
-454.997	88.293	-0.322	-0.359
-453.982	535.944	-0.014	-0.033
-452.968	800.000	-0.022	0.073
-451.953	355.038	-0.021	-0.042
-450.938	-122.992	0.124	0.020
-449.924	-67.150	-0.071	-0.028
-448.909	290.327	0.055	-0.101
-447.895	3.926	0.082	-0.060
-446.880	46.776	-0.211	-0.197
-445.865	53.703	-0.068	-0.065
-444.851	21.902	-0.125	-0.102
-443.836	-13.591	0.091	0.059
-442.822	320.008	-0.155	-0.295
-441.807	-114.868	0.142	-0.027
-440.792	403.101	-0.101	-0.213
-439.778	-120.547	0.200	0.034
-438.763	124.356	-0.205	0.258
-437.749	-200.000	0.013	-0.253
-436.734	322.507	0.112	-0.214
-435.719	-146.576	-0.207	-0.018
-434.705	-104.058	0.034	0.008
-433.690	-0.217	0.226	0.161
-432.676	-181.584	0.343	-0.007
-431.661	-200.000	0.034	-0.401
-430.646	-61.598	0.323	0.136
-429.632	150.661	-0.211	0.288
-428.617	-147.810	0.282	0.024
-427.603	617.532	-0.049	0.123
-426.588	-200.000	-0.011	0.113
-425.573	88.979	0.131	0.147
-424.559	117.123	-0.090	0.111
-423.544	-131.949	0.158	-0.021
-422.530	800.000	-0.046	0.164
-421.515	-35.417	-0.234	-0.128
-420.500	-124.648	-0.067	-0.010
-419.486	17.602	-0.126	0.101
-418.471	56.149	0.071	-0.069
-417.457	-77.978	-0.115	0.040
-416.442	-200.000	-0.045	-0.442
-415.428	-94.463	-0.189	-0.052
-414.413	-60.350	-0.164	-0.070
-413.398	-200.000	0.004	0.079
-412.384	187.687	0.111	0.166
-411.369	800.000	-0.045	0.136
-410.355	-200.000	0.025	-0.208
-409.340	800.000	-0.074	0.214
-408.325	800.000	0.050	0.169
-407.311	101.847	-0.177	0.207
-406.296	156.556	-0.118	-0.163
-405.282	-71.915	0.145	-0.054
-404.267	152.067	-0.103	-0.141
-403.252	140.709	0.158	0.209
-402.238	-19.955	0.154	0.095
-401.223	133.846	0.230	-0.299
-400.209	32.919	-0.183	-0.159
-399.194	-63.752	-0.197	-0.081
-398.179	285.190	0.215	-0.389
-397.165	223.528	-0.128	0.208
-396.150	239.114	-0.181	0.302
-395.136	249.237	0.113	0.192
-394.121	397.173	0.125	-0.262
-393.106	-46.832	0.322	0.158
-392.092	-57.168	0.270	0.119
-391.077	-104.050	-0.161	-0.038
-390.063	29.728	-0.327	-0.279
-389.048	184.293	-0.153	0.227
-388.033	-200.000	0.014	0.166
-387.019	79.517	0.077	0.083
-386.004	800.000	-0.067	0.244
-384.990	-200.000	-0.027	-0.194
-383.975	-96.359	-0.527	0.140
-382.960	-165.308	-0.145	0.006
-381.946	44.191	-0.150	-0.138
-380.931	3.788	0.099	-0.072
-379.917	800.000	-0.086	-0.257
-378.902	-200.000	-0.004	-0.203
-377.888	-71.935	0.077	0.029
-376.873	-101.934	-0.091	-0.022
-375.858	124.625	0.158	-0.200
-374.844	565.268	-0.079	0.192
-373.829	81.121	0.175	0.189
-372.815	-200.000	-0.019	0.206
-371.800	-59.194	-0.405	-0.175
-370.785	-200.000	-0.012	-0.162
-369.771	460.596	0.091	0.203
-368.756	800.000	-0.097	0.341
-367.742	-31.460	0.101	0.057
-366.727	35.613	-0.303	0.267
-365.712	-200.000	0.033	-0.245
-364.698	-18.229	-0.045	-0.028
-363.683	800.000	-0.018	0.075
-362.669	290.614	-0.020	0.037
-361.654	-200.000	-0.035	0.313
-360.639	-4.916	0.124	-0.086
-359.625	30.301	-0.212	0.181
-358.610	-111.617	-0.265	-0.054
-357.596	296.814	-0.053	0.098
-356.581	435.971	-0.102	-0.222
-355.566	130.130	0.212	-0.272
-354.552	-111.140	0.057	0.012
-353.537	800.000	0.029	0.112
-352.523	43.563	0.093	0.085
-351.508	-153.887	0.151	0.010
-350.493	800.000	0.025	-0.079
-349.479	377.374	0.103	-0.211
-348.464	-162.608	-0.373	-0.018
-347.450	-103.740	-0.285	0.067
-346.435	-75.539	-0.232	-0.083
-345.420	-89.244	-0.117	-0.035
-344.406	108.841	-0.084	-0.101
-343.391	-38.883	0.342	-0.181
-342.377	150.065	-0.134	-0.182
-341.362	-62.107	-0.052	0.022
-340.348	-66.374	-0.295	-0.117
-339.333	139.140	0.022	-0.029
-338.318	-71.364	0.283	-0.106
-337.304	129.184	0.073	-0.093
-336.289	-200.000	-0.054	0.287
-335.275	177.697	-0.077	0.112
-334.260	112.885	0.204	0.247
-333.245	213.537	-0.110	0.174
-332.231	138.676	0.051	0.067
-331.216	-34.497	0.335	-0.184
-330.202	-59.430	-0.097	0.042
-329.187	47.173	0.067	0.063
-328.172	800.000	0.072	0.208
-327.158	41.788	0.045	0.041
-326.143	115.976	-0.054	0.066
-325.129	-68.730	0.342	-0.132
-324.114	211.056	0.216	-0.340
-323.099	-105.083	-0.209	-0.048
-322.085	-110.035	-0.211	0.044
-321.070	-200.000	0.019	-0.170
-320.056	-200.000	0.025	0.162
-319.041	89.853	-0.096	-0.107
-318.026	250.192	0.121	-0.205
-317.012	-200.000	0.007	0.079
-315.997	-16.742	0.154	0.097
-314.983	-123.621	0.295	-0.047
-313.968	-47.906	0.136	0.066
-312.953	-200.000	-0.005	0.187
-311.939	117.650	0.084	0.104
-310.924	-26.217	-0.200	-0.117
-309.910	800.000	-0.068	-0.232
-308.895	-200.000	-0.047	-0.501
-307.880	-41.689	0.154	0.079
-306.866	21.521	0.158	0.128
-305.851	-200.000	0.014	0.388
-304.837	-111.976	0.244	0.049
-303.822	-199.289	0.164	-0.001
-302.807	339.412	0.165	-0.320
-301.793	-149.245	0.394	-0.031
-300.778	113.105	-0.097	0.117
-299.764	-21.849	-0.252	0.153
-298.749	119.363	-0.317	0.392
-297.735	-23.398	-0.275	0.165
-296.720	-134.165	0.137	0.017
-295.705	-37.157	0.109	-0.058
-294.691	494.776	-0.003	0.006
-293.676	-163.727	0.196	0.009
-292.662	-200.000	-0.021	0.101
-291.647	205.995	0.070	-0.109
-290.632	-200.000	0.001	0.200
-289.618	-27.651	0.264	0.153
-288.603	-158.602	0.116	0.007
-287.589	-123.994	-0.351	0.055
-286.574	-97.118	0.071	0.019
-285.559	-86.274	0.222	-0.068
-284.545	-58.831	-0.196	0.085
-283.530	-133.143	-0.071	0.009
-282.516	72.379	0.108	0.113
-281.501	475.490	-0.131	0.296
-280.486	800.000	-0.096	0.270
-279.472	446.914	0.109	0.240
-278.457	708.916	-0.037	0.098
-277.443	-200.000	0.030	-0.287
-276.428	61.326	-0.158	-0.156
-275.413	479.854	-0.010	0.023
-274.399	0.889	0.115	-0.082
-273.384	-200.000	0.024	-0.391
-272.370	800.000	-0.021	-0.083
-271.355	-95.903	0.427	-0.114
-270.340	203.528	0.122	-0.189
-269.326	-22.313	0.290	0.175
-268.311	-200.000	-0.020	0.152
-267.297	-200.000	-0.032	-0.486
-266.282	283.688	0.200	0.359
-265.267	-99.326	0.505	0.127
-264.253	27.316	-0.166	0.139
-263.238	800.000	0.059	0.236
-262.224	-120.632	-0.028	0.005
-261.209	533.187	0.043	-0.100
-260.195	-200.000	0.009	-0.240
-259.180	-154.969	0.088	-0.006
-258.165	-90.707	-0.391	0.112
-257.151	-200.000	0.043	-0.289
-256.136	437.103	-0.128	0.279
-255.122	273.429	-0.039	-0.068
-254.107	-142.765	-0.107	-0.010
-253.092	316.487	0.153	0.289
-252.078	264.363	0.069	0.119
-251.063	-157.010	0.326	0.020
-250.049	1.216	-0.135	0.096
-249.034	-185.274	0.098	0.002
-248.019	-13.757	0.328	-0.211
-247.005	4.010	-0.301	0.220
-245.990	640.260	0.065	-0.166
-244.976	-200.000	0.055	0.447
-243.961	786.376	-0.017	-0.046
-242.946	-26.488	-0.131	-0.076
-241.932	22.004	0.158	0.128
-240.917	-134.015	0.142	-0.017
-239.903	800.000	-0.049	-0.173
-238.888	385.479	-0.123	0.252
-237.873	-78.606	0.262	-0.089
-236.859	576.923	0.109	-0.264
-235.844	516.080	0.115	0.268
-234.830	54.748	0.161	-0.155
-233.815	800.000	0.088	-0.330
-232.800	800.000	0.081	0.230
-231.786	800.000	-0.084	0.248
-230.771	-75.986	0.238	-0.084
-229.757	-200.000	0.020	0.231
-228.742	-23.376	-0.220	-0.132
-227.727	-61.228	-0.070	0.029
-226.713	800.000	-0.032	0.129
-225.698	-19.138	-0.186	-0.115
-224.684	151.484	-0.185	-0.250
-223.669	85.582	0.226	0.247
-222.655	47.884	0.274	0.255
-221.640	-200.000	0.014	0.374
-220.625	-153.220	0.481	0.034
-219.611	-200.000	-0.010	0.069
-218.596	50.952	-0.198	-0.187
-217.582	-84.113	-0.261	0.082
-216.567	-35.439	0.135	-0.073
-215.552	238.585	-0.144	0.239
-214.538	63.109	0.329	0.328
-213.523	-200.000	0.034	0.316
-212.509	-200.000	0.011	-0.076
-211.494	56.582	0.208	-0.202
-210.479	-73.903	-0.152	0.055
-209.465	-37.686	0.187	-0.099
-208.450	-200.000	-0.002	0.166
-207.436	-29.090	-0.081	0.047
-206.421	33.843	-0.084	0.073
-205.406	273.217	-0.111	0.195
-204.392	-18.033	-0.259	0.162
-203.377	-200.000	-0.044	0.400
-202.363	158.037	0.123	0.170
-201.348	-200.000	0.042	0.187
-200.333	-200.000	0.042	0.338
-199.319	800.000	-0.062	-0.228
-198.304	-138.349	0.187	-0.021
-197.290	-200.000	0.056	0.405
-196.275	-200.000	-0.029	-0.165
-195.260	117.020	-0.034	-0.042
-194.246	-200.000	0.022	-0.153
-193.231	-31.253	-0.243	0.136
-192.217	659.501	0.055	-0.141
-191.202	224.367	-0.065	0.105
-190.187	350.322	0.142	-0.279
-189.173	-103.965	0.340	0.079
-188.158	-200.000	0.012	0.057
-187.144	-42.056	0.213	-0.109
-186.129	-75.197	-0.235	0.083
-185.114	-95.575	0.511	-0.136
-184.100	412.167	-0.053	0.112
-183.085	92.993	0.067	0.075
-182.071	-65.870	-0.295	0.117
-181.056	-200.000	-0.022	-0.148
-180.042	-200.000	0.023	0.117
-179.027	224.955	-0.044	-0.071
-178.012	-43.617	0.238	-0.119
-176.998	-129.654	0.165	-0.023
-175.983	98.447	0.146	-0.167
-174.969	-89.569	0.129	-0.038
-173.954	-107.194	-0.101	0.022
-172.939	195.817	0.049	0.074
-171.925	-200.000	-0.011	-0.087
-170.910	-133.863	0.221	0.027
-169.896	-200.000	0.063	-0.406
-168.881	800.000	-0.038	0.108
-167.866	-147.369	-0.121	-0.010
-166.852	-75.076	0.165	0.059
-165.837	68.516	-0.077	-0.078
-164.823	262.172	-0.197	-0.339
-163.808	213.396	-0.019	0.030
-162.793	202.280	0.110	-0.169
-161.779	-99.176	-0.135	0.034
-160.764	129.651	0.044	-0.056
-159.750	236.792	-0.171	-0.282
-158.735	-47.790	0.315	-0.152
-157.720	800.000	0.074	-0.244
-156.706	-24.624	0.220	-0.130
-155.691	259.954	-0.060	-0.102
-154.677	88.080	-0.149	0.164
-153.662	288.411	0.068	0.122
-152.647	267.373	-0.071	0.123
-151.633	-200.000	0.057	0.502
-150.618	-186.366	0.374	-0.005
-149.604	-196.556	-0.159	0.001
-148.589	-200.000	-0.015	0.168
-147.574	-190.384	0.112	0.001
-146.560	682.615	-0.058	0.150
-145.545	43.525	0.301	0.273
-144.531	-38.005	0.173	-0.091
-143.516	800.000	0.043	-0.180
-142.502	-9.938	-0.202	0.133
-141.487	-64.050	-0.125	0.051
-140.472	321.139	0.126	0.238
-139.458	-62.708	0.280	0.115
-138.443	-200.000	0.018	0.097
-137.429	117.725	0.240	-0.293
-136.414	800.000	-0.108	-0.336
-135.399	800.000	-0.136	0.379
-134.385	72.283	0.177	0.183
-133.370	19.846	-0.085	0.068
-132.356	-90.104	-0.136	0.039
-131.341	800.000	0.028	-0.096
-130.326	10.262	0.184	0.139
-129.312	510.398	0.065	-0.151
-128.297	22.178	-0.083	0.068
-127.283	15.084	-0.233	0.181
-126.268	90.872	0.177	-0.196
-125.253	60.225	0.117	0.115
-124.239	-1.700	0.111	0.078
-123.224	686.510	-0.078	-0.202
-122.210	-200.000	0.065	-0.310
-121.195	133.738	0.042	0.054
