DTS Sentinel unit serial number:	SN413079Multiplexer serial number:	ORYXHardware model number:	OX4-SRSoftware version number:	ORYX F/W v4.00 Oryx Data Collector v3.7.2.0data status	okinstallation	princeton_trtdifferential loss correction	single-endedforward channel	channel 4reverse channel	N/Adate	2019/09/11time	12:35:11forward acquisition time	60.00reverse acquisition time	0.00gamma	496.2192k internal	0.2285k external	0.2285temperature offset calibration	0.9968default loss term (dB/km)	0.3790temperature slope calibration	1.0000multiplexer offset coefficient	1.0000multiplexer slope coefficient	1.0000fibre end	0.00T internal ref (°C)	40.67T ext. ref 1 (°C)	0.23T ext. ref 2 (°C)	38.00length (m)	temperature (°C)	Stokes	anti-Stokes-747.200	-54.496	-0.221	-0.103
-746.185	2.316	0.333	0.247
-745.171	-200.000	-0.020	-0.251
-744.156	10.765	-0.039	0.030
-743.142	188.313	-0.114	-0.175
-742.127	-200.000	0.011	0.084
-741.112	548.432	0.154	-0.378
-740.098	-200.000	0.071	0.358
-739.083	211.932	-0.096	0.156
-738.069	228.513	-0.079	0.132
-737.054	-20.432	0.239	0.151
-736.039	-200.000	-0.007	0.124
-735.025	242.457	-0.076	-0.131
-734.010	-100.248	-0.169	0.043
-732.996	192.345	-0.079	-0.122
-731.981	-129.236	-0.195	0.028
-730.966	800.000	0.062	0.199
-729.952	379.447	0.106	-0.223
-728.937	610.226	-0.022	0.055
-727.923	527.565	0.089	-0.216
-726.908	-44.372	-0.187	-0.096
-725.894	233.162	0.051	0.086
-724.879	67.505	-0.137	0.144
-723.864	-134.415	0.664	-0.083
-722.850	-200.000	-0.094	-0.492
-721.835	218.891	0.103	-0.169
-720.821	128.716	-0.170	-0.222
-719.806	85.502	-0.280	-0.315
-718.791	738.096	0.035	-0.097
-717.777	247.613	-0.100	0.174
-716.762	119.762	0.168	0.213
-715.748	-159.216	0.388	-0.022
-714.733	124.891	-0.086	-0.111
-713.718	-138.439	-0.092	-0.010
-712.704	41.069	-0.123	0.114
-711.689	-136.074	-0.516	0.062
-710.675	-41.571	0.029	0.015
-709.660	-63.157	0.075	0.032
-708.645	-3.938	0.335	-0.238
-707.631	-200.000	-0.024	0.225
-706.616	-200.000	-0.021	0.209
-705.602	-35.468	-0.105	-0.059
-704.587	-114.507	0.333	0.065
-703.572	-48.542	0.304	0.150
-702.558	-55.971	0.124	0.057
-701.543	218.341	0.254	0.416
-700.529	220.778	-0.102	0.167
-699.514	-200.000	0.032	0.150
-698.499	74.369	0.089	-0.096
-697.485	163.351	0.127	0.183
-696.470	158.025	-0.105	0.150
-695.456	90.411	0.043	0.049
-694.441	-11.000	-0.102	0.069
-693.426	25.089	-0.021	-0.018
-692.412	-200.000	0.002	0.093
-691.397	27.725	-0.069	-0.060
-690.383	-113.501	0.476	-0.096
-689.368	800.000	-0.066	0.272
-688.354	800.000	0.017	-0.070
-687.339	-48.478	-0.121	0.060
-686.324	800.000	0.096	0.294
-685.310	-200.000	-0.080	-0.441
-684.295	129.857	-0.071	-0.093
-683.281	-27.947	0.182	-0.108
-682.266	277.908	-0.113	-0.206
-681.251	54.153	-0.144	0.142
-680.237	-178.842	-0.106	-0.002
-679.222	-55.000	0.133	-0.062
-678.208	-200.000	-0.032	-0.235
-677.193	-108.753	0.329	-0.072
-676.178	91.359	-0.067	-0.077
-675.164	270.450	-0.236	-0.425
-674.149	-73.008	-0.355	0.133
-673.135	553.826	0.004	0.011
-672.120	-200.000	0.006	-0.300
-671.105	-81.669	-0.141	0.047
-670.091	-85.527	0.214	0.068
-669.076	-200.000	0.038	0.294
-668.062	180.033	0.063	-0.094
-667.047	-200.000	0.017	0.419
-666.032	25.408	-0.201	-0.171
-665.018	-64.500	0.271	-0.113
-664.003	-200.000	-0.011	-0.165
-662.989	-200.000	-0.016	-0.186
-661.974	23.596	0.181	0.153
-660.959	87.536	0.203	0.229
-659.945	-42.195	-0.087	0.046
-658.930	-200.000	0.028	-0.274
-657.916	-200.000	-0.006	-0.308
-656.901	-109.375	-0.015	0.003
-655.886	-26.717	-0.247	0.148
-654.872	-139.053	-0.237	-0.026
-653.857	-5.823	0.201	-0.141
-652.843	345.241	0.045	0.090
-651.828	800.000	0.053	-0.224
-650.814	-141.901	-0.250	-0.026
-649.799	-41.908	-0.287	-0.151
-648.784	-92.411	0.156	-0.045
-647.770	-167.227	0.353	-0.015
-646.755	402.978	0.105	-0.226
-645.741	-96.868	-0.436	-0.117
-644.726	147.749	-0.055	-0.075
-643.711	105.222	0.172	-0.208
-642.697	-16.253	0.159	-0.103
-641.682	-47.815	0.089	0.044
-640.668	-94.228	-0.083	-0.023
-639.653	-171.191	0.235	-0.008
-638.638	-31.890	-0.212	0.122
-637.624	800.000	0.099	0.429
-636.609	800.000	0.065	0.288
-635.595	26.897	-0.128	-0.110
-634.580	462.876	0.111	0.253
-633.565	-175.219	-0.081	0.002
-632.551	179.449	0.209	0.312
-631.536	-46.244	-0.192	0.097
-630.522	-84.402	-0.200	0.065
-629.507	-200.000	0.023	0.149
-628.492	438.147	-0.069	0.153
-627.478	-200.000	0.000	-0.042
-626.463	-146.870	0.204	-0.018
-625.449	-123.784	-0.136	0.022
-624.434	-200.000	0.015	-0.251
-623.419	800.000	-0.047	-0.179
-622.405	-200.000	-0.003	0.205
-621.390	-71.619	-0.028	0.011
-620.376	218.060	0.067	-0.110
-619.361	-24.890	0.243	-0.147
-618.346	-84.260	0.054	0.018
-617.332	-48.865	-0.268	0.131
-616.317	336.956	0.068	-0.135
-615.303	-102.696	0.130	0.032
-614.288	800.000	0.026	0.087
-613.273	12.792	0.155	-0.122
-612.259	-147.930	0.427	-0.036
-611.244	-121.331	-0.362	0.062
-610.230	-9.544	0.300	0.204
-609.215	-39.578	0.195	-0.104
-608.201	-116.741	-0.218	-0.041
-607.186	-111.074	0.257	-0.054
-606.171	-200.000	0.001	-0.015
-605.157	-12.954	0.140	0.093
-604.142	116.621	0.269	-0.336
-603.128	411.334	0.031	0.067
-602.113	498.741	-0.028	-0.067
-601.098	307.541	-0.020	0.038
-600.084	-200.000	-0.060	0.395
-599.069	499.386	-0.044	-0.103
-598.055	800.000	-0.029	0.105
-597.040	-156.655	-0.139	0.009
-596.025	800.000	-0.100	-0.314
-595.011	-79.528	-0.231	-0.080
-593.996	-185.711	0.445	-0.007
-592.982	256.200	-0.124	0.217
-591.967	-0.300	-0.214	-0.155
-590.952	-7.914	-0.090	0.062
-589.938	642.191	0.014	-0.036
-588.923	-26.761	-0.307	-0.183
-587.909	250.639	-0.247	-0.429
-586.894	-18.903	0.180	-0.114
-585.879	-123.241	0.210	-0.034
-584.865	178.352	0.127	0.189
-583.850	-83.885	-0.059	-0.019
-582.836	-96.931	-0.057	-0.015
-581.821	639.063	0.036	-0.094
-580.806	-68.617	0.094	0.037
-579.792	85.302	0.064	0.071
-578.777	-200.000	0.023	-0.473
-577.763	-126.274	-0.119	0.018
-576.748	94.869	-0.120	-0.139
-575.733	800.000	0.073	-0.314
-574.719	-49.504	-0.485	-0.236
-573.704	-96.053	0.365	-0.099
-572.690	-116.045	-0.032	0.006
-571.675	47.470	-0.055	0.052
-570.661	89.199	-0.294	0.334
-569.646	-33.257	-0.170	-0.096
-568.631	67.310	-0.189	-0.196
-567.617	800.000	0.038	0.111
-566.602	-78.569	0.131	0.046
-565.588	-122.993	0.288	-0.047
-564.573	-38.917	-0.365	-0.196
-563.558	457.540	0.143	-0.323
-562.544	-87.720	0.227	0.070
-561.529	57.966	0.183	0.183
-560.515	122.770	-0.043	0.055
-559.500	33.031	0.093	-0.082
-558.485	800.000	-0.035	0.126
-557.471	-57.078	-0.152	0.068
-556.456	502.451	0.105	0.248
-555.442	-93.035	0.241	0.068
-554.427	185.027	0.171	0.259
-553.412	183.271	0.116	-0.175
-552.398	-43.755	0.210	0.108
-551.383	56.201	-0.061	-0.060
-550.369	82.941	-0.181	-0.201
-549.354	128.957	-0.135	0.175
-548.339	-200.000	-0.018	-0.432
-547.325	-171.352	0.018	-0.001
-546.310	800.000	0.024	-0.083
-545.296	-112.938	0.187	0.038
-544.281	318.141	0.085	-0.163
-543.266	-200.000	-0.032	0.338
-542.252	190.777	-0.137	0.210
-541.237	-200.000	0.018	-0.163
-540.223	-42.790	0.185	-0.096
-539.208	-2.786	0.133	-0.095
-538.193	68.523	0.182	-0.190
-537.179	76.237	0.090	-0.097
-536.164	247.352	-0.061	-0.105
-535.150	97.191	-0.096	0.112
-534.135	-39.727	0.152	0.081
-533.121	-200.000	0.056	-0.330
-532.106	800.000	0.016	-0.066
-531.091	42.594	-0.243	-0.225
-530.077	208.750	-0.130	0.207
-529.062	-77.267	0.087	-0.031
-528.048	87.119	0.019	-0.022
-527.033	444.040	0.094	0.210
-526.018	172.200	0.141	0.206
-525.004	25.803	0.294	-0.249
-523.989	-55.269	-0.221	-0.101
-522.975	220.127	0.031	0.050
-521.960	-200.000	0.039	0.447
-520.945	44.255	0.187	-0.175
-519.931	-84.185	-0.114	0.037
-518.916	800.000	-0.032	0.098
-517.902	-31.551	-0.235	0.134
-516.887	106.071	-0.237	-0.285
-515.872	-138.983	-0.231	0.026
-514.858	199.693	0.153	-0.238
-513.843	154.595	0.089	-0.124
-512.829	-65.344	-0.270	-0.110
-511.814	43.322	-0.057	-0.053
-510.799	-200.000	-0.015	-0.157
-509.785	15.410	-0.050	0.040
-508.770	1.994	-0.196	0.144
-507.756	286.419	0.128	0.234
-506.741	-200.000	-0.037	-0.164
-505.726	-85.477	0.093	-0.030
-504.712	800.000	-0.053	-0.224
-503.697	-77.838	0.190	-0.067
-502.683	-51.362	-0.101	-0.048
-501.668	800.000	0.039	0.145
-500.653	800.000	0.062	0.259
-499.639	-48.753	0.246	0.120
-498.624	-35.632	-0.097	0.054
-497.610	509.574	-0.115	-0.271
-496.595	288.102	0.091	0.168
-495.581	230.474	-0.019	-0.031
-494.566	-93.746	-0.257	-0.072
-493.551	800.000	0.035	0.120
-492.537	-140.939	-0.196	0.020
-491.522	-171.293	0.106	0.004
-490.508	800.000	0.013	0.038
-489.493	-200.000	0.033	-0.184
-488.478	-200.000	0.040	-0.219
-487.464	114.912	-0.139	-0.172
-486.449	415.306	-0.127	0.276
-485.435	-200.000	0.021	-0.206
-484.420	724.331	0.084	0.226
-483.405	-200.000	-0.048	-0.387
-482.391	55.848	0.166	-0.164
-481.376	-200.000	0.024	-0.192
-480.362	-108.086	0.184	-0.040
-479.347	528.180	0.069	0.165
-478.332	-200.000	-0.035	0.190
-477.318	-168.437	-0.353	-0.014
-476.303	-61.583	-0.319	0.136
-475.289	800.000	0.034	-0.098
-474.274	-35.792	-0.138	-0.076
-473.259	-190.853	0.064	-0.001
-472.245	269.563	0.052	-0.092
-471.230	-70.051	0.345	-0.133
-470.216	-162.618	0.107	0.005
-469.201	800.000	-0.085	-0.289
-468.186	116.668	-0.216	0.269
-467.172	260.237	0.121	0.212
-466.157	-200.000	0.029	-0.162
-465.143	7.794	0.071	0.054
-464.128	210.498	-0.167	0.266
-463.113	-3.168	0.047	0.033
-462.099	316.315	-0.085	0.163
-461.084	74.426	-0.250	-0.267
-460.070	769.227	-0.075	0.206
-459.055	-126.889	-0.243	-0.036
-458.040	-68.539	0.231	-0.091
-457.026	320.214	0.086	0.166
-456.011	-1.393	-0.068	-0.049
-454.997	-200.000	0.032	0.421
-453.982	-143.336	-0.286	0.028
-452.968	-72.801	-0.145	-0.054
-451.953	-139.365	-0.235	-0.026
-450.938	-81.534	-0.061	0.021
-449.924	-108.792	0.153	-0.033
-448.909	-200.000	0.000	-0.036
-447.895	-63.439	-0.248	0.104
-446.880	125.790	-0.189	-0.242
-445.865	264.119	0.123	-0.217
-444.851	-55.431	-0.091	-0.042
-443.836	229.204	-0.167	0.276
-442.822	287.968	-0.217	-0.399
-441.807	0.820	0.161	-0.117
-440.792	744.455	0.100	0.272
-439.778	800.000	0.056	0.181
-438.763	800.000	0.096	0.274
-437.749	24.459	0.196	0.164
-436.734	-61.389	0.318	0.136
-435.719	-55.414	-0.170	0.078
-434.705	-200.000	-0.012	-0.100
-433.690	124.888	0.171	-0.218
-432.676	-200.000	0.024	0.332
-431.661	800.000	0.044	-0.127
-430.646	-129.140	-0.072	0.010
-429.632	199.520	0.132	-0.206
-428.617	-19.335	-0.084	-0.053
-427.603	800.000	0.041	0.134
-426.588	204.227	0.148	0.232
-425.573	485.035	0.077	0.178
-424.559	32.714	-0.208	0.182
-423.544	178.734	-0.083	-0.123
-422.530	-68.790	0.357	-0.140
-421.515	422.379	0.113	-0.245
-420.500	-172.239	0.121	-0.004
-419.486	-139.767	0.226	-0.024
-418.471	143.496	0.156	0.211
-417.457	-141.102	0.114	0.012
-416.442	800.000	0.005	-0.014
-415.428	21.364	-0.131	0.108
-414.413	-48.912	0.081	0.039
-413.398	-36.530	0.253	0.138
-412.384	-28.209	0.227	-0.133
-411.369	450.249	-0.110	-0.246
-410.355	-200.000	0.040	0.200
-409.340	278.686	-0.028	-0.051
-408.325	37.838	-0.147	0.133
-407.311	-29.378	-0.038	-0.022
-406.296	-5.023	-0.064	0.045
-405.282	-77.810	0.424	-0.148
-404.267	-200.000	0.002	0.176
-403.252	-157.781	-0.219	-0.013
-402.238	-163.328	-0.442	0.021
-401.223	429.251	-0.069	0.151
-400.209	705.217	0.108	0.290
-399.194	42.468	-0.125	0.115
-398.179	-200.000	0.004	0.253
-397.165	-200.000	0.029	-0.155
-396.150	-162.519	0.025	0.001
-395.136	32.182	-0.073	0.064
-394.121	-148.273	-0.232	0.019
-393.106	-200.000	0.028	0.125
-392.092	-135.383	-0.313	0.038
-391.077	-41.092	-0.447	0.234
-390.063	234.250	-0.149	0.249
-389.048	55.081	-0.010	0.009
-388.033	-85.783	0.382	0.120
-387.019	333.158	0.154	-0.302
-386.004	10.465	-0.269	0.207
-384.990	-63.153	-0.185	-0.077
-383.975	-200.000	-0.007	0.084
-382.960	4.257	-0.164	0.121
-381.946	540.811	-0.092	-0.221
-380.931	7.623	-0.216	0.163
-379.917	203.843	-0.141	0.220
-378.902	800.000	0.093	0.292
-377.888	800.000	-0.038	-0.113
-376.873	-34.400	-0.282	0.157
-375.858	26.254	-0.074	-0.062
-374.844	-200.000	0.046	0.218
-373.829	587.614	-0.162	-0.404
-372.815	-29.077	0.190	-0.110
-371.800	-107.010	0.112	0.025
-370.785	-190.427	0.148	0.002
-369.771	76.965	0.170	-0.183
-368.756	-68.730	0.165	-0.065
-367.742	708.875	0.077	0.206
-366.727	160.548	0.075	0.106
-365.712	-14.692	-0.162	-0.105
-364.698	-200.000	0.054	0.550
-363.683	-145.148	0.322	0.030
-362.669	-60.631	0.181	0.078
-361.654	-82.229	-0.057	0.019
-360.639	132.719	0.086	0.112
-359.625	800.000	0.061	0.187
-358.610	-16.360	-0.182	-0.117
-357.596	-200.000	-0.036	-0.260
-356.581	-170.201	0.274	0.010
-355.566	-200.000	0.004	-0.046
-354.552	800.000	-0.017	-0.065
-353.537	104.518	0.254	0.303
-352.523	-5.426	-0.359	0.249
-351.508	800.000	-0.007	0.032
-350.493	-2.567	0.296	0.209
-349.479	703.622	-0.144	-0.385
-348.464	-63.620	0.195	-0.081
-347.450	-109.169	0.245	0.053
-346.435	-29.843	0.243	-0.140
-345.420	-3.516	0.127	-0.089
-344.406	-125.837	0.119	0.018
-343.391	-102.137	-0.483	0.117
-342.377	182.593	-0.163	-0.242
-341.362	-200.000	0.037	-0.292
-340.348	-84.960	-0.387	-0.123
-339.333	-200.000	0.021	-0.108
-338.318	-69.009	-0.229	-0.089
-337.304	-200.000	-0.224	0.000
-336.289	-47.884	-0.213	-0.104
-335.275	-66.938	0.166	-0.066
-334.260	236.956	-0.090	0.151
-333.245	-49.446	-0.130	-0.063
-332.231	-53.519	-0.118	-0.055
-331.216	800.000	-0.073	-0.298
-330.202	800.000	-0.097	-0.390
-329.187	167.515	-0.173	0.248
-328.172	800.000	0.097	-0.323
-327.158	194.525	0.179	-0.275
-326.143	-200.000	0.027	0.129
-325.129	162.031	0.168	0.238
-324.114	-151.895	-0.311	-0.023
-323.099	24.635	0.140	0.117
-322.085	137.389	0.131	0.173
-321.070	211.526	0.065	0.104
-320.056	-68.602	-0.258	0.101
-319.041	-127.172	0.165	-0.024
-318.026	60.448	0.183	0.183
-317.012	676.052	-0.021	0.056
-315.997	115.898	0.041	-0.050
-314.983	-200.000	-0.052	-0.321
-313.968	-59.911	0.174	0.075
-312.953	-91.950	0.056	-0.016
-311.939	-68.510	-0.108	-0.042
-310.924	800.000	0.080	-0.236
-309.910	54.344	-0.291	-0.283
-308.895	107.074	0.035	0.042
-307.880	800.000	0.036	0.149
-306.866	-200.000	0.011	-0.073
-305.851	25.668	-0.083	0.070
-304.837	-5.552	0.325	0.225
-303.822	-16.274	-0.249	-0.160
-302.807	152.143	0.041	-0.056
-301.793	-200.000	-0.020	-0.299
-300.778	-42.945	-0.209	0.107
-299.764	-200.000	-0.091	0.558
-298.749	13.536	-0.192	-0.150
-297.735	320.571	0.085	-0.164
-296.720	-167.478	-0.131	-0.005
-295.705	-80.241	0.158	0.053
-294.691	-200.000	-0.001	-0.025
-293.676	-157.368	0.278	0.017
-292.662	-200.000	-0.000	-0.202
-291.647	-31.099	-0.218	0.124
-290.632	732.477	0.070	-0.190
-289.618	91.423	0.087	0.099
-288.603	800.000	0.094	0.284
-287.589	-97.174	0.291	0.077
-286.574	230.569	0.151	-0.249
-285.559	450.801	0.034	0.075
-284.545	375.788	0.068	-0.140
-283.530	238.953	-0.079	-0.132
-282.516	-200.000	0.012	0.171
-281.501	113.441	-0.156	-0.191
-280.486	-200.000	0.008	-0.284
-279.472	238.114	-0.106	-0.177
-278.457	345.805	-0.172	0.342
-277.443	-115.192	-0.187	0.036
-276.428	-16.596	0.148	0.094
-275.413	94.150	0.065	0.075
-274.399	108.828	-0.090	0.108
-273.384	581.012	0.166	0.411
-272.370	-200.000	0.026	0.214
-271.355	248.570	0.035	-0.060
-270.340	-200.000	-0.013	0.214
-269.326	800.000	0.062	0.188
-268.311	800.000	-0.064	0.197
-267.297	49.228	-0.080	0.075
-266.282	-200.000	-0.024	0.166
-265.267	-57.622	0.261	0.115
-264.253	-53.342	-0.262	-0.121
-263.238	0.038	-0.176	0.126
-262.224	-116.167	-0.173	-0.032
-261.209	2.765	-0.140	-0.102
-260.195	-146.432	0.192	-0.017
-259.180	-200.000	0.015	-0.098
-258.165	396.366	-0.132	0.278
-257.151	-200.000	0.004	0.128
-256.136	800.000	0.062	-0.263
-255.122	-200.000	0.011	-0.124
-254.107	-122.331	-0.122	0.020
-253.092	-200.000	0.018	0.080
-252.078	322.951	-0.193	0.369
-251.063	-200.000	0.034	-0.215
-250.049	-200.000	0.038	0.267
-249.034	51.063	0.257	-0.246
-248.019	499.889	-0.032	0.074
-247.005	-119.433	-0.131	0.023
-245.990	-200.000	0.040	-0.182
-244.976	654.526	-0.140	0.362
-243.961	-69.601	0.159	0.061
-242.946	-200.000	0.003	-0.066
-241.932	-97.390	0.204	-0.053
-240.917	800.000	-0.064	0.192
-239.903	800.000	-0.058	-0.164
-238.888	-200.000	-0.011	0.099
-237.873	-97.921	0.232	0.060
-236.859	2.780	-0.214	0.157
-235.844	-103.822	0.323	0.076
-234.830	253.525	0.043	-0.074
-233.815	-25.909	0.328	-0.194
-232.800	53.251	-0.215	-0.208
-231.786	800.000	0.077	-0.282
-230.771	5.480	-0.096	-0.072
-229.757	-3.440	0.062	-0.044
-228.742	-189.179	-0.210	0.003
-227.727	-57.711	0.189	-0.083
-226.713	278.350	0.035	0.063
-225.698	800.000	0.023	-0.087
-224.684	-144.236	-0.147	0.014
-223.669	114.530	-0.089	0.109
-222.655	-95.347	0.115	-0.031
-221.640	-35.512	0.148	-0.081
-220.625	-43.641	-0.049	-0.025
-219.611	-200.000	0.006	0.132
-218.596	-200.000	0.010	-0.093
-217.582	-200.000	-0.005	-0.297
-216.567	-200.000	-0.043	0.322
-215.552	183.337	0.198	0.294
-214.538	-128.272	0.226	-0.032
-213.523	-200.000	0.037	0.269
-212.509	750.427	0.042	-0.113
-211.494	800.000	-0.021	0.069
-210.479	-29.061	-0.227	-0.131
-209.465	-83.291	-0.320	-0.103
-208.450	410.035	-0.083	-0.178
-207.436	-200.000	0.038	-0.344
-206.421	118.067	-0.272	0.336
-205.406	38.923	0.186	-0.167
-204.392	253.542	0.136	-0.233
-203.377	-136.883	0.047	-0.005
-202.363	106.008	-0.127	0.151
-201.348	-126.840	0.072	-0.011
-200.333	-87.417	0.143	0.044
-199.319	-155.920	0.177	0.011
-198.304	-48.655	0.309	0.149
-197.290	-105.498	-0.221	0.050
-196.275	232.016	-0.094	-0.155
-195.260	57.789	-0.251	-0.246
-194.246	-200.000	-0.035	0.177
-193.231	-200.000	-0.006	0.030
-192.217	50.242	0.057	-0.054
-191.202	188.163	0.075	-0.112
-190.187	79.070	0.159	-0.171
-189.173	800.000	0.082	0.289
-188.158	160.709	0.139	-0.196
-187.144	-89.969	0.191	0.056
-186.129	47.307	-0.201	0.188
-185.114	-121.127	-0.386	0.065
-184.100	-136.691	-0.301	-0.035
-183.085	-200.000	-0.005	0.076
-182.071	772.333	0.046	-0.126
-181.056	-106.971	-0.116	-0.026
-180.042	99.732	-0.270	-0.314
-179.027	-1.524	0.192	-0.136
-178.012	-166.194	0.084	-0.004
-176.998	-142.434	0.020	0.002
-175.983	-114.411	-0.121	-0.023
-174.969	635.808	-0.026	-0.066
-173.954	103.126	-0.278	0.327
-172.939	291.704	0.094	0.171
-171.925	-24.214	0.026	-0.015
-170.910	-11.464	0.237	0.156
-169.896	107.152	-0.066	-0.079
-168.881	-200.000	-0.009	-0.108
-167.866	-200.000	-0.003	-0.228
-166.852	163.881	-0.159	-0.224
-165.837	-139.782	0.260	0.028
-164.823	9.466	-0.294	-0.223
-163.808	36.101	-0.120	0.106
-162.793	57.447	0.266	-0.260
-161.779	-139.901	0.370	-0.039
-160.764	-128.912	0.285	-0.040
-159.750	-47.406	0.079	0.038
-158.735	334.872	0.043	0.083
-157.720	-104.497	-0.212	0.049
-156.706	-128.348	-0.105	-0.015
-155.691	-53.782	0.225	-0.103
-154.677	438.562	-0.083	0.181
-153.662	-167.368	0.338	0.014
-152.647	635.114	-0.093	0.237
-151.633	-137.485	-0.222	0.025
-150.618	-26.670	0.368	0.216
-149.604	-48.450	0.322	-0.156
-148.589	800.000	-0.044	0.129
-147.574	5.154	0.415	-0.307
-146.560	-200.000	0.017	0.203
-145.545	734.391	-0.059	0.159
-144.531	664.431	0.072	-0.187
-143.516	196.389	0.132	0.202
-142.502	-200.000	-0.031	0.323
-141.487	-198.802	0.079	0.000
-140.472	-166.180	-0.347	0.015
-139.458	-149.670	0.066	0.005
-138.443	800.000	0.032	-0.131
-137.429	118.966	-0.207	0.256
-136.414	-200.000	0.069	-0.312
-135.399	-200.000	-0.012	-0.057
-134.385	-7.097	0.108	0.073
-133.370	-170.821	-0.069	-0.002
-132.356	-33.809	-0.112	0.062
-131.341	-172.617	-0.113	0.004
-130.326	-147.995	-0.042	-0.004
-129.312	-200.000	0.026	-0.277
-128.297	70.303	-0.151	-0.156
-127.283	-153.227	0.049	0.003
-126.268	800.000	-0.078	-0.317
-125.253	-200.000	0.032	0.194
-124.239	70.614	-0.230	0.239
-123.224	434.704	0.088	0.192
-122.210	-200.000	0.009	-0.075
-121.195	-119.817	0.508	0.088
