DTS Sentinel unit serial number:	SN413079Multiplexer serial number:	ORYXHardware model number:	OX4-SRSoftware version number:	ORYX F/W v4.00 Oryx Data Collector v3.7.2.0data status	okinstallation	princeton_trtdifferential loss correction	single-endedforward channel	channel 4reverse channel	N/Adate	2019/09/11time	14:07:11forward acquisition time	60.00reverse acquisition time	0.00gamma	496.2192k internal	0.2283k external	0.2283temperature offset calibration	1.0007default loss term (dB/km)	0.3790temperature slope calibration	1.0000multiplexer offset coefficient	1.0000multiplexer slope coefficient	1.0000fibre end	0.00T internal ref (°C)	41.87T ext. ref 1 (°C)	0.87T ext. ref 2 (°C)	36.00length (m)	temperature (°C)	Stokes	anti-Stokes-747.200	540.604	-0.140	0.342
-746.185	-200.000	0.055	0.279
-745.171	-200.000	0.024	0.401
-744.156	800.000	-0.116	0.504
-743.142	-64.746	0.229	-0.095
-742.127	-200.000	0.055	0.359
-741.112	800.000	0.024	-0.083
-740.098	-23.042	0.163	0.101
-739.083	-21.841	-0.041	0.026
-738.069	-14.008	0.249	-0.165
-737.054	-169.800	-0.218	-0.008
-736.039	190.031	0.159	-0.245
-735.025	91.191	0.364	0.420
-734.010	-140.114	-0.583	-0.063
-732.996	105.268	-0.133	-0.161
-731.981	130.215	-0.110	-0.144
-730.966	-173.978	-0.223	-0.007
-729.952	312.492	0.117	-0.226
-728.937	-158.496	0.233	-0.014
-727.923	-200.000	-0.055	-0.250
-726.908	159.706	0.198	-0.284
-725.894	79.944	0.122	0.135
-724.879	-17.905	0.087	0.056
-723.864	-53.458	-0.149	-0.070
-722.850	48.272	0.211	0.203
-721.835	93.095	-0.077	-0.089
-720.821	-55.972	-0.444	-0.203
-719.806	-113.026	-0.366	-0.074
-718.791	-48.195	0.319	-0.158
-717.777	12.759	-0.231	-0.183
-716.762	-134.267	0.074	-0.009
-715.748	43.365	0.194	-0.182
-714.733	529.752	0.081	0.196
-713.718	64.806	0.184	-0.190
-712.704	43.747	0.269	-0.253
-711.689	-200.000	-0.041	0.235
-710.675	-15.099	0.223	0.147
-709.660	-80.820	-0.174	0.059
-708.645	129.340	0.231	-0.303
-707.631	-29.682	-0.045	-0.026
-706.616	-104.110	-0.389	-0.093
-705.602	800.000	0.048	-0.189
-704.587	201.134	0.095	-0.150
-703.572	-200.000	-0.007	-0.078
-702.558	-10.517	0.149	0.101
-701.543	0.446	-0.136	-0.099
-700.529	-34.559	-0.086	0.048
-699.514	160.000	0.058	-0.084
-698.499	108.050	-0.180	-0.221
-697.485	161.514	-0.028	-0.040
-696.470	-199.696	-0.239	0.001
-695.456	63.992	0.242	0.249
-694.441	-13.348	-0.101	-0.067
-693.426	173.797	-0.280	0.415
-692.412	289.885	0.072	-0.135
-691.397	-54.652	0.086	0.040
-690.383	292.023	0.076	0.142
-689.368	274.207	-0.142	0.257
-688.354	-200.000	0.004	-0.262
-687.339	635.175	0.066	0.171
-686.324	-112.033	0.142	0.029
-685.310	67.868	-0.047	0.049
-684.295	61.848	-0.100	0.103
-683.281	-52.681	-0.232	-0.110
-682.266	92.693	0.300	-0.347
-681.251	31.778	-0.208	0.183
-680.237	-59.646	-0.135	0.059
-679.222	83.079	-0.148	0.165
-678.208	49.859	0.047	0.046
-677.193	-0.940	0.234	0.170
-676.178	696.512	0.097	0.262
-675.164	74.495	0.146	0.157
-674.149	53.833	-0.158	-0.156
-673.135	-200.000	0.025	-0.120
-672.120	-115.188	0.084	0.016
-671.105	-89.481	-0.282	-0.085
-670.091	-104.249	0.137	-0.033
-669.076	140.343	-0.042	-0.057
-668.062	800.000	-0.036	-0.123
-667.047	116.503	0.246	0.309
-666.032	800.000	-0.057	0.251
-665.018	110.609	0.170	-0.209
-664.003	-35.010	-0.083	-0.047
-662.989	-33.695	0.509	-0.288
-661.974	432.424	-0.151	-0.336
-660.959	245.208	-0.138	-0.239
-659.945	-170.927	0.146	-0.005
-658.930	135.984	0.066	0.088
-657.916	-200.000	-0.014	-0.256
-656.901	209.174	-0.212	-0.339
-655.886	-76.736	0.199	-0.071
-654.872	-200.000	-0.016	-0.220
-653.857	-31.660	-0.378	0.218
-652.843	8.462	-0.126	0.097
-651.828	-66.147	-0.023	0.010
-650.814	-200.000	-0.074	0.360
-649.799	-200.000	0.049	0.279
-648.784	115.320	-0.134	-0.168
-647.770	-63.316	0.110	-0.047
-646.755	-200.000	0.045	-0.388
-645.741	800.000	-0.097	-0.319
-644.726	50.050	0.212	0.205
-643.711	11.121	0.221	0.173
-642.697	-130.106	-0.189	-0.026
-641.682	294.631	0.032	0.060
-640.668	-200.000	0.008	-0.182
-639.653	-64.960	-0.192	0.079
-638.638	-28.840	-0.167	-0.098
-637.624	-200.000	0.024	0.267
-636.609	-18.320	-0.283	0.181
-635.595	118.606	0.108	0.136
-634.580	-200.000	-0.008	-0.169
-633.565	56.727	0.062	-0.061
-632.551	234.442	0.090	0.152
-631.536	108.310	-0.198	0.242
-630.522	45.142	-0.134	0.127
-629.507	-200.000	-0.140	0.001
-628.492	-200.000	0.001	-0.151
-627.478	-86.416	-0.209	-0.066
-626.463	542.657	-0.104	-0.254
-625.449	121.894	-0.041	0.052
-624.434	800.000	0.086	0.293
-623.419	344.502	0.047	0.095
-622.405	18.650	-0.129	0.105
-621.390	60.172	0.148	0.149
-620.376	-88.340	0.216	0.066
-619.361	-200.000	-0.010	-0.059
-618.346	-16.085	0.305	0.198
-617.332	220.081	0.058	0.095
-616.317	96.281	0.096	-0.112
-615.303	-200.000	-0.005	-0.186
-614.288	354.622	-0.178	0.362
-613.273	-138.538	0.222	0.025
-612.259	-62.796	0.301	0.127
-611.244	159.382	0.136	-0.193
-610.230	110.272	0.207	0.254
-609.215	605.484	-0.104	0.264
-608.201	-143.663	0.483	0.047
-607.186	96.992	0.204	-0.239
-606.171	57.986	0.089	0.089
-605.157	-121.699	-0.098	0.017
-604.142	-111.219	0.111	-0.023
-603.128	640.240	0.214	0.557
-602.113	-200.000	-0.032	-0.159
-601.098	-3.348	0.181	0.129
-600.084	-169.196	0.174	-0.007
-599.069	-0.654	-0.133	-0.096
-598.055	-114.557	0.125	-0.025
-597.040	137.966	-0.252	-0.337
-596.025	-50.257	-0.151	0.073
-595.011	222.743	-0.137	0.225
-593.996	236.327	0.134	-0.226
-592.982	534.855	-0.130	0.314
-591.967	-200.000	-0.038	-0.182
-590.952	226.989	0.035	-0.058
-589.938	-122.739	0.407	0.067
-588.923	-16.648	-0.167	-0.108
-587.909	-118.927	0.085	0.015
-586.894	-108.883	-0.181	0.039
-585.879	-7.715	-0.072	-0.050
-584.865	-47.288	0.174	0.087
-583.850	-32.387	0.228	-0.130
-582.836	-200.000	-0.017	0.094
-581.821	-37.167	0.134	-0.073
-580.806	-64.551	0.350	0.145
-579.792	131.929	0.058	0.076
-578.777	-136.580	-0.256	-0.030
-577.763	19.237	0.241	-0.197
-576.748	-81.173	0.149	0.050
-575.733	126.916	0.120	-0.155
-574.719	193.352	0.104	-0.160
-573.704	94.329	-0.324	0.375
-572.690	353.173	-0.056	0.113
-571.675	113.884	-0.234	-0.290
-570.661	-57.172	-0.166	0.075
-569.646	210.878	0.230	0.368
-568.631	61.992	-0.014	-0.014
-567.617	-175.697	-0.212	0.006
-566.602	218.191	-0.083	0.135
-565.588	76.192	-0.041	0.044
-564.573	-51.757	0.187	0.089
-563.558	-183.891	-0.210	0.004
-562.544	800.000	0.059	-0.184
-561.529	-200.000	-0.003	-0.091
-560.515	120.727	0.159	0.202
-559.500	37.410	-0.136	-0.123
-558.485	-43.890	0.345	-0.177
-557.471	-151.861	0.154	-0.011
-556.456	-130.765	0.106	-0.015
-555.442	318.194	-0.127	0.246
-554.427	118.443	0.114	0.144
-553.412	141.628	-0.085	0.115
-552.398	-111.491	-0.037	0.008
-551.383	270.118	-0.174	0.311
-550.369	-111.569	-0.183	-0.038
-549.354	800.000	0.132	-0.391
-548.339	12.231	-0.134	0.105
-547.325	-200.000	0.060	0.461
-546.310	27.738	0.372	-0.320
-545.296	44.944	0.195	-0.183
-544.281	800.000	0.124	0.428
-543.266	-61.875	-0.105	0.045
-542.252	22.819	-0.052	-0.043
-541.237	-44.131	0.165	-0.084
-540.223	19.540	-0.196	-0.161
-539.208	800.000	0.076	-0.267
-538.193	-166.024	0.203	-0.009
-537.179	800.000	0.124	0.376
-536.164	-134.336	0.269	0.034
-535.150	-112.877	0.118	-0.024
-534.135	800.000	-0.044	0.157
-533.121	13.981	-0.349	-0.277
-532.106	-140.056	0.183	0.020
-531.091	-149.040	-0.312	0.026
-530.077	-200.000	0.005	0.068
-529.062	107.198	0.158	0.191
-528.048	-96.754	0.575	0.154
-527.033	-145.518	0.041	0.004
-526.018	30.233	-0.090	0.079
-525.004	28.859	0.123	-0.106
-523.989	167.105	-0.264	-0.381
-522.975	-66.889	-0.106	-0.043
-521.960	190.555	-0.077	-0.118
-520.945	281.234	-0.060	-0.110
-519.931	-67.398	-0.059	0.023
-518.916	101.825	-0.107	0.127
-517.902	-1.924	-0.372	0.266
-516.887	-6.352	-0.128	-0.089
-515.872	-95.741	0.111	0.030
-514.858	-48.982	-0.209	0.102
-513.843	-129.354	-0.093	0.013
-512.829	297.983	-0.067	-0.125
-511.814	800.000	-0.068	-0.247
-510.799	-132.493	0.313	0.041
-509.785	357.812	0.088	0.179
-508.770	-26.697	-0.278	0.166
-507.756	251.497	-0.183	0.316
-506.741	185.344	-0.087	-0.131
-505.726	-157.419	0.286	-0.018
-504.712	394.316	0.107	-0.227
-503.697	-106.228	0.245	-0.056
-502.683	-91.186	-0.221	0.064
-501.668	-200.000	0.001	-0.067
-500.653	-133.880	-0.119	-0.015
-499.639	800.000	-0.061	-0.253
-498.624	-150.498	0.179	-0.014
-497.610	-49.458	-0.020	0.010
-496.595	-67.945	0.074	0.029
-495.581	53.943	-0.228	0.223
-494.566	-200.000	-0.009	0.265
-493.551	-92.969	-0.234	0.067
-492.537	-95.797	-0.050	0.014
-491.522	374.824	0.128	-0.265
-490.508	-51.858	0.263	0.125
-489.493	-66.876	0.149	0.060
-488.478	-200.000	-0.030	0.198
-487.464	460.117	-0.089	-0.203
-486.449	201.511	-0.210	-0.329
-485.435	-34.290	0.115	0.064
-484.420	-101.776	0.238	0.059
-483.405	-200.000	0.007	-0.047
-482.391	655.106	-0.061	-0.160
-481.376	47.901	-0.064	0.061
-480.362	68.191	-0.318	-0.331
-479.347	259.669	0.043	0.075
-478.332	-123.775	-0.403	0.065
-477.318	97.933	-0.114	0.134
-476.303	-27.855	0.307	0.181
-475.289	36.497	-0.115	-0.103
-474.274	17.829	0.172	0.140
-473.259	800.000	-0.036	0.155
-472.245	126.411	-0.202	-0.260
-471.230	520.208	0.066	-0.159
-470.216	-200.000	0.025	0.264
-469.201	144.688	0.244	-0.332
-468.186	99.185	0.028	0.032
-467.172	-200.000	-0.061	-0.301
-466.157	-102.238	0.183	0.045
-465.143	243.422	-0.097	0.166
-464.128	30.434	-0.097	0.084
-463.113	190.536	0.206	0.314
-462.099	-83.098	-0.200	0.066
-461.084	800.000	0.037	-0.122
-460.070	-94.738	-0.089	0.025
-459.055	-56.764	0.179	-0.080
-458.040	-200.000	0.006	0.214
-457.026	1.277	0.197	-0.144
-456.011	-109.094	0.282	-0.061
-454.997	62.119	0.202	-0.204
-453.982	-103.441	0.131	0.031
-452.968	800.000	-0.012	0.051
-451.953	174.698	0.131	0.193
-450.938	157.874	0.186	0.262
-449.924	-98.177	0.068	-0.018
-448.909	94.624	-0.300	0.346
-447.895	-200.000	0.022	0.190
-446.880	35.556	-0.153	-0.136
-445.865	-174.495	0.191	-0.006
-444.851	-200.000	0.023	-0.270
-443.836	-16.242	-0.336	0.217
-442.822	-200.000	-0.001	-0.046
-441.807	754.598	0.051	-0.141
-440.792	-97.353	0.142	0.038
-439.778	-200.000	0.002	-0.033
-438.763	4.877	0.333	0.249
-437.749	800.000	-0.033	0.113
-436.734	-75.050	-0.119	0.043
-435.719	-68.527	-0.089	0.035
-434.705	-81.065	-0.179	-0.060
-433.690	-107.753	-0.503	-0.111
-432.676	-200.000	-0.015	-0.304
-431.661	395.683	-0.080	-0.170
-430.646	-200.000	-0.009	0.063
-429.632	225.718	0.099	0.163
-428.617	178.210	-0.180	0.267
-427.603	-200.000	-0.016	0.190
-426.588	-167.809	0.316	0.013
-425.573	-26.494	0.160	-0.095
-424.559	498.793	-0.021	-0.050
-423.544	-85.207	0.245	0.078
-422.530	-23.458	-0.247	0.151
-421.515	-97.399	0.106	-0.028
-420.500	800.000	-0.058	-0.162
-419.486	-3.998	0.025	0.017
-418.471	-52.720	0.146	-0.068
-417.457	-95.331	-0.348	0.095
-416.442	-200.000	0.004	-0.190
-415.428	-163.923	0.183	0.009
-414.413	-65.820	-0.257	-0.104
-413.398	203.094	-0.075	-0.117
-412.384	323.789	0.101	-0.195
-411.369	35.632	0.259	-0.231
-410.355	-200.000	-0.001	-0.450
-409.340	-59.801	0.221	0.096
-408.325	274.207	-0.368	-0.661
-407.311	39.584	-0.257	0.234
-406.296	-200.000	-0.035	0.436
-405.282	-123.097	-0.169	0.027
-404.267	-78.422	-0.134	-0.047
-403.252	-138.662	0.322	0.036
-402.238	92.588	-0.221	0.253
-401.223	50.823	0.260	-0.250
-400.209	55.552	0.046	0.045
-399.194	-59.802	-0.302	-0.131
-398.179	-44.918	-0.376	-0.190
-397.165	281.786	-0.058	-0.105
-396.150	132.731	-0.102	-0.134
-395.136	-87.085	0.139	0.043
-394.121	-155.617	-0.151	0.010
-393.106	179.069	-0.062	0.092
-392.092	-200.000	-0.074	-0.422
-391.077	-125.956	0.233	0.036
-390.063	-64.770	0.255	-0.105
-389.048	130.330	-0.079	-0.102
-388.033	-200.000	-0.002	0.094
-387.019	-96.626	0.138	0.037
-386.004	2.309	-0.300	-0.220
-384.990	290.461	-0.055	-0.101
-383.975	-57.464	-0.128	0.057
-382.960	-5.356	0.047	-0.033
-381.946	434.602	0.070	-0.155
-380.931	-31.741	-0.328	0.186
-379.917	14.682	0.200	0.158
-378.902	745.327	0.034	0.094
-377.888	214.999	0.088	-0.142
-376.873	488.442	-0.109	-0.253
-375.858	-200.000	-0.020	-0.176
-374.844	27.429	-0.092	-0.079
-373.829	-70.210	-0.187	0.072
-372.815	1.621	-0.155	0.113
-371.800	800.000	-0.102	0.361
-370.785	708.781	0.138	0.369
-369.771	400.800	0.078	0.166
-368.756	-200.000	0.002	-0.252
-367.742	281.368	-0.172	0.311
-366.727	800.000	-0.027	0.092
-365.712	-200.000	-0.032	-0.446
-364.698	-107.719	0.400	-0.088
-363.683	-89.774	-0.013	0.004
-362.669	-33.991	-0.203	-0.113
-361.654	78.808	-0.277	0.300
-360.639	-138.619	-0.194	-0.022
-359.625	-200.000	0.036	-0.320
-358.610	102.341	-0.098	0.116
-357.596	218.538	0.108	0.175
-356.581	-200.000	0.011	-0.059
-355.566	-200.000	-0.011	-0.170
-354.552	-16.909	-0.104	0.066
-353.537	800.000	-0.060	-0.219
-352.523	-200.000	0.041	0.227
-351.508	699.529	0.026	-0.069
-350.493	88.814	-0.145	-0.164
-349.479	-142.579	-0.328	-0.033
-348.464	291.954	0.039	0.072
-347.450	6.974	0.032	0.024
-346.435	586.944	-0.131	-0.326
-345.420	148.668	0.153	0.209
-344.406	240.299	0.139	-0.234
-343.391	59.219	0.060	-0.060
-342.377	-142.587	0.519	-0.051
-341.362	213.131	0.114	0.182
-340.348	55.252	-0.283	-0.277
-339.333	663.210	0.024	-0.063
-338.318	-100.544	0.312	0.078
-337.304	-200.000	-0.015	-0.257
-336.289	-200.000	0.018	-0.170
-335.275	-200.000	0.026	0.176
-334.260	73.016	0.030	0.032
-333.245	31.325	0.075	-0.065
-332.231	151.127	0.224	0.309
-331.216	-122.211	-0.254	0.042
-330.202	93.468	0.068	0.078
-329.187	-200.000	-0.025	0.194
-328.172	286.095	0.014	-0.026
-327.158	-200.000	0.002	-0.255
-326.143	280.763	-0.115	0.208
-325.129	-200.000	-0.042	0.268
-324.114	-200.000	0.013	0.212
-323.099	-200.000	-0.271	-0.001
-322.085	-157.265	0.147	-0.009
-321.070	118.915	0.131	-0.164
-320.056	-95.484	-0.054	-0.015
-319.041	-94.335	-0.021	0.006
-318.026	628.620	0.053	-0.134
-317.012	-3.299	0.057	0.040
-315.997	21.344	-0.184	-0.151
-314.983	152.143	-0.178	-0.245
-313.968	328.223	-0.084	-0.162
-312.953	-17.977	0.206	0.130
-311.939	-155.472	0.033	0.002
-310.924	-200.000	-0.038	-0.316
-309.910	-174.957	-0.091	0.003
-308.895	49.663	-0.204	-0.194
-307.880	-89.509	-0.151	-0.045
-306.866	404.533	0.135	-0.287
-305.851	-167.644	0.024	-0.001
-304.837	-200.000	0.004	-0.370
-303.822	166.365	0.086	0.123
-302.807	154.323	-0.147	0.203
-301.793	-113.178	0.210	-0.042
-300.778	70.160	-0.095	0.099
-299.764	-133.326	-0.069	-0.009
-298.749	800.000	0.038	-0.143
-297.735	-5.044	0.322	0.224
-296.720	-69.208	-0.126	0.049
-295.705	800.000	0.016	-0.051
-294.691	-49.408	0.157	-0.076
-293.676	-131.502	0.146	-0.019
-292.662	-20.648	0.421	0.261
-291.647	-200.000	0.052	-0.391
-290.632	29.392	-0.167	-0.144
-289.618	-2.569	-0.142	0.101
-288.603	232.151	0.009	-0.015
-287.589	-175.926	0.504	0.014
-286.574	-27.609	-0.587	0.344
-285.559	134.734	-0.154	-0.202
-284.545	-123.117	0.346	0.056
-283.530	-81.038	0.111	-0.037
-282.516	144.544	-0.070	-0.094
-281.501	800.000	-0.080	-0.288
-280.486	800.000	-0.125	-0.384
-279.472	5.654	0.057	-0.043
-278.457	-22.270	-0.110	-0.067
-277.443	3.032	-0.302	-0.222
-276.428	800.000	-0.017	0.075
-275.413	800.000	0.074	-0.264
-274.399	-200.000	-0.021	0.295
-273.384	-200.000	0.017	0.179
-272.370	18.119	-0.067	0.054
-271.355	27.908	0.151	0.128
-270.340	-164.676	0.323	0.015
-269.326	-200.000	-0.030	0.282
-268.311	418.753	0.070	0.151
-267.297	-102.303	-0.256	0.062
-266.282	-50.365	0.293	-0.140
-265.267	6.260	-0.365	-0.273
-264.253	259.324	0.146	0.255
-263.238	778.638	-0.118	-0.324
-262.224	-200.000	0.023	0.163
-261.209	-149.960	0.228	0.018
-260.195	-88.635	0.297	0.089
-259.180	42.070	-0.124	0.113
-258.165	-170.839	-0.272	0.009
-257.151	148.357	-0.098	0.133
-256.136	-8.829	-0.147	-0.100
-255.122	18.402	0.181	0.146
-254.107	-175.416	0.303	0.008
-253.092	270.302	0.082	-0.145
-252.078	-200.000	0.015	0.116
-251.063	-154.339	0.075	-0.005
-250.049	-56.586	-0.149	0.066
-249.034	-44.426	-0.109	0.055
-248.019	163.104	-0.101	0.142
-247.005	294.216	0.063	-0.116
-245.990	-19.063	0.312	0.195
-244.976	-125.145	-0.089	-0.014
-243.961	800.000	0.065	0.246
-242.946	183.329	-0.166	0.248
-241.932	-200.000	0.005	-0.290
-240.917	-43.445	-0.252	-0.128
-239.903	204.515	-0.041	-0.064
-238.888	-172.987	-0.074	-0.002
-237.873	-73.907	0.240	0.088
-236.859	126.909	0.227	0.290
-235.844	-200.000	-0.020	0.099
-234.830	20.423	-0.202	0.164
-233.815	32.629	-0.308	-0.269
-232.800	-108.683	-0.118	0.026
-231.786	-52.350	-0.159	-0.074
-230.771	6.090	-0.162	-0.121
-229.757	351.933	0.153	0.305
-228.742	-161.492	0.287	0.015
-227.727	-109.700	-0.175	-0.037
-226.713	-2.899	0.159	-0.112
-225.698	317.604	0.054	0.103
-224.684	-200.000	-0.030	-0.210
-223.669	-200.000	0.003	-0.316
-222.655	-99.871	0.122	0.031
-221.640	3.339	-0.317	-0.232
-220.625	-13.319	0.257	0.168
-219.611	-191.008	0.430	0.005
-218.596	800.000	-0.052	0.203
-217.582	124.116	-0.165	0.209
-216.567	97.962	0.122	-0.141
-215.552	20.771	0.195	-0.159
-214.538	-200.000	0.049	-0.240
-213.523	57.372	-0.108	0.106
-212.509	47.206	-0.114	-0.107
-211.494	-200.000	0.018	-0.171
-210.479	-55.103	-0.233	-0.106
-209.465	-160.353	0.149	0.008
-208.450	-31.584	0.413	-0.233
-207.436	277.605	0.232	0.416
-206.421	113.599	-0.095	0.116
-205.406	-200.000	-0.021	-0.153
-204.392	800.000	-0.055	-0.155
-203.377	71.318	0.109	-0.114
-202.363	151.255	-0.267	0.366
-201.348	800.000	0.039	0.150
-200.333	-13.683	-0.102	0.067
-199.319	340.647	-0.055	0.108
-198.304	-200.000	-0.040	0.341
-197.290	-176.385	0.178	0.005
-196.275	13.780	-0.324	-0.253
-195.260	-77.140	-0.220	-0.077
-194.246	-33.196	0.055	-0.030
-193.231	452.934	-0.202	0.450
-192.217	-60.018	-0.268	0.115
-191.202	800.000	0.051	0.170
-190.187	-110.503	-0.277	-0.058
-189.173	-136.724	0.303	0.035
-188.158	293.804	-0.049	-0.089
-187.144	87.503	-0.083	0.093
-186.129	17.798	0.095	0.076
-185.114	-200.000	-0.048	0.359
-184.100	-200.000	-0.034	0.440
-183.085	128.086	-0.136	-0.173
-182.071	-200.000	-0.009	-0.202
-181.056	88.441	0.320	-0.357
-180.042	-14.856	-0.133	0.085
-179.027	271.854	-0.130	-0.230
-178.012	-9.093	0.066	-0.044
-176.998	628.858	-0.117	-0.297
-175.983	59.544	0.172	-0.170
-174.969	54.735	0.012	-0.012
-173.954	-5.108	-0.138	-0.095
-172.939	32.644	-0.168	-0.146
-171.925	-166.868	0.084	0.003
-170.910	-200.000	-0.010	-0.146
-169.896	117.112	-0.105	-0.130
-168.881	501.217	0.137	0.317
-167.866	76.316	0.211	0.224
-166.852	-104.983	0.234	-0.054
-165.837	33.221	-0.141	-0.123
-164.823	160.122	0.055	-0.076
-163.808	-13.030	0.108	-0.071
-162.793	24.112	0.113	0.094
-161.779	428.135	0.108	0.234
-160.764	-60.732	-0.268	0.114
-159.750	800.000	0.105	-0.326
-158.735	-26.746	-0.140	0.083
-157.720	778.470	-0.085	-0.235
-156.706	-24.942	-0.197	-0.118
-155.691	-200.000	0.024	-0.118
-154.677	-90.554	-0.164	-0.048
-153.662	-94.884	-0.224	0.061
-152.647	568.364	0.135	-0.330
-151.633	99.552	-0.359	0.417
-150.618	-28.620	-0.147	0.085
-149.604	-68.979	0.027	0.010
-148.589	-25.412	-0.431	0.256
-147.574	-133.292	0.122	-0.015
-146.560	-99.144	0.273	0.069
-145.545	-200.000	-0.005	-0.164
-144.531	-109.890	0.211	0.044
-143.516	146.098	0.140	-0.188
-142.502	3.359	0.180	0.132
-141.487	546.610	-0.045	0.109
-140.472	209.709	0.179	-0.282
-139.458	-102.108	0.211	0.051
-138.443	-120.638	0.549	-0.093
-137.429	-34.630	0.220	-0.121
-136.414	-200.000	-0.034	-0.194
-135.399	208.197	0.135	-0.211
-134.385	-39.929	0.290	-0.152
-133.370	-2.587	0.180	-0.127
-132.356	-130.159	-0.169	0.023
-131.341	220.442	-0.124	0.200
-130.326	106.972	-0.136	0.162
-129.312	261.107	-0.043	-0.075
-128.297	-200.000	0.004	0.157
-127.283	8.740	0.104	0.079
-126.268	162.258	0.092	0.129
-125.253	-200.000	-0.016	0.092
-124.239	-28.254	-0.318	0.184
-123.224	-11.707	-0.124	0.082
-122.210	226.769	-0.071	0.115
-121.195	-21.811	0.266	0.163
-120.180	68.984	-0.095	0.098
