DTS Sentinel unit serial number:	SN413079Multiplexer serial number:	ORYXHardware model number:	OX4-SRSoftware version number:	ORYX F/W v4.00 Oryx Data Collector v3.7.2.0data status	okinstallation	princeton_trtdifferential loss correction	single-endedforward channel	channel 4reverse channel	N/Adate	2019/09/11time	05:55:11forward acquisition time	60.00reverse acquisition time	0.00gamma	496.2192k internal	0.2316k external	0.2316temperature offset calibration	0.9943default loss term (dB/km)	0.3790temperature slope calibration	1.0000multiplexer offset coefficient	1.0000multiplexer slope coefficient	1.0000fibre end	0.00T internal ref (°C)	29.44T ext. ref 1 (°C)	-0.23T ext. ref 2 (°C)	23.43length (m)	temperature (°C)	Stokes	anti-Stokes-747.200	-200.000	-0.027	0.333
-746.185	200.201	0.150	0.233
-745.171	-108.705	0.671	-0.146
-744.156	52.674	0.031	-0.030
-743.142	453.837	-0.039	0.087
-742.127	19.756	-0.232	0.190
-741.112	9.656	-0.352	-0.270
-740.098	-200.000	-0.004	0.114
-739.083	-149.273	-0.204	-0.017
-738.069	578.495	0.101	0.250
-737.054	-3.990	-0.189	0.133
-736.039	-134.316	-0.286	-0.036
-735.025	21.776	-0.170	-0.141
-734.010	321.408	-0.029	-0.056
-732.996	800.000	-0.162	-0.482
-731.981	-100.236	0.266	-0.067
-730.966	-82.324	0.178	0.059
-729.952	-200.000	-0.013	0.091
-728.937	189.167	-0.173	-0.262
-727.923	243.083	-0.069	-0.117
-726.908	-21.631	-0.256	-0.158
-725.894	18.870	0.174	0.141
-724.879	-87.390	-0.273	0.084
-723.864	-3.091	0.200	-0.141
-722.850	-7.785	-0.116	-0.079
-721.835	-64.497	-0.259	0.106
-720.821	36.513	-0.070	-0.062
-719.806	-200.000	-0.025	-0.245
-718.791	-72.901	-0.251	0.093
-717.777	-200.000	-0.000	-0.146
-716.762	-146.891	0.033	-0.003
-715.748	-52.630	0.085	0.040
-714.733	-200.000	-0.003	-0.101
-713.718	800.000	-0.082	0.297
-712.704	774.810	-0.075	-0.207
-711.689	610.683	-0.077	0.194
-710.675	-22.088	0.297	0.182
-709.660	121.346	0.219	0.276
-708.645	-200.000	-0.082	0.371
-707.631	-2.534	0.001	-0.001
-706.616	800.000	-0.097	-0.289
-705.602	800.000	0.050	-0.214
-704.587	-200.000	-0.017	0.251
-703.572	45.860	0.361	-0.338
-702.558	-200.000	0.039	-0.247
-701.543	308.279	-0.182	-0.344
-700.529	-58.502	0.356	-0.156
-699.514	-68.886	0.188	-0.073
-698.499	-98.196	0.088	0.023
-697.485	-108.266	0.116	0.025
-696.470	-140.196	-0.182	-0.019
-695.456	-200.000	-0.054	-0.362
-694.441	151.374	0.255	0.352
-693.426	-137.042	-0.230	-0.027
-692.412	416.551	-0.132	-0.284
-691.397	800.000	-0.063	-0.276
-690.383	103.706	0.147	-0.174
-689.368	333.146	0.036	-0.071
-688.354	90.652	-0.129	-0.145
-687.339	30.993	-0.187	0.162
-686.324	-200.000	0.012	-0.146
-685.310	-124.676	0.048	0.008
-684.295	-56.138	0.128	-0.057
-683.281	-200.000	-0.041	-0.221
-682.266	269.281	0.107	-0.189
-681.251	712.932	-0.095	-0.255
-680.237	-100.205	0.325	-0.082
-679.222	-61.530	-0.172	0.073
-678.208	210.843	0.173	-0.275
-677.193	-200.000	-0.039	0.232
-676.178	58.612	-0.082	-0.081
-675.164	-76.973	-0.393	-0.139
-674.149	-200.000	-0.040	-0.279
-673.135	21.964	-0.237	0.196
-672.120	122.304	-0.253	-0.319
-671.105	-115.151	0.359	0.069
-670.091	497.052	-0.166	-0.386
-669.076	147.696	0.219	-0.298
-668.062	800.000	0.047	0.158
-667.047	10.210	-0.282	-0.217
-666.032	289.224	0.130	-0.239
-665.018	-200.000	-0.010	0.082
-664.003	-200.000	-0.009	0.226
-662.989	-200.000	0.020	0.201
-661.974	-73.166	0.140	-0.052
-660.959	437.163	-0.194	-0.426
-659.945	-65.095	0.067	0.027
-658.930	26.811	-0.038	0.032
-657.916	42.249	0.137	-0.126
-656.901	26.952	0.195	0.165
-655.886	-63.769	-0.223	-0.092
-654.872	191.782	-0.144	0.218
-653.857	551.763	0.040	-0.098
-652.843	800.000	-0.046	-0.196
-651.828	-149.054	-0.204	-0.017
-650.814	-157.904	0.152	-0.009
-649.799	-118.971	-0.230	-0.041
-648.784	245.863	-0.134	0.227
-647.770	-67.891	0.238	-0.094
-646.755	189.992	0.185	-0.281
-645.741	123.234	-0.103	0.130
-644.726	114.320	0.136	-0.167
-643.711	14.091	-0.224	-0.176
-642.697	88.561	0.230	0.258
-641.682	-123.969	0.168	-0.027
-640.668	12.063	-0.335	-0.260
-639.653	34.231	0.129	-0.113
-638.638	-32.712	0.291	0.163
-637.624	-118.611	-0.064	-0.011
-636.609	-200.000	0.006	0.099
-635.595	-135.946	-0.313	0.037
-634.580	275.955	-0.039	0.070
-633.565	304.151	-0.053	-0.100
-632.551	-200.000	-0.033	-0.226
-631.536	800.000	0.089	-0.249
-630.522	39.218	0.133	0.120
-629.507	268.896	0.136	-0.240
-628.492	65.669	-0.025	-0.026
-627.478	188.673	0.170	0.257
-626.463	388.678	-0.206	0.430
-625.449	-95.646	-0.252	-0.068
-624.434	27.712	0.085	-0.072
-623.419	23.312	-0.184	-0.153
-622.405	585.805	0.075	-0.185
-621.390	348.106	0.182	-0.363
-620.376	-151.247	-0.299	0.023
-619.361	-91.831	-0.429	0.123
-618.346	-120.639	-0.192	-0.033
-617.332	-200.000	0.093	0.721
-616.317	484.029	0.182	-0.418
-615.303	251.473	0.129	-0.221
-614.288	-30.457	-0.142	0.081
-613.273	55.785	0.151	0.147
-612.259	35.739	0.053	-0.047
-611.244	-109.774	0.385	-0.082
-610.230	447.961	-0.067	-0.149
-609.215	223.502	-0.027	-0.043
-608.201	-121.591	0.022	-0.004
-607.186	-146.461	-0.227	-0.020
-606.171	800.000	0.041	-0.149
-605.157	-200.000	0.019	-0.265
-604.142	-27.155	0.220	-0.129
-603.128	-200.000	-0.050	0.248
-602.113	-37.353	-0.106	0.057
-601.098	-150.120	-0.340	-0.027
-600.084	77.728	-0.005	0.006
-599.069	-38.477	-0.220	-0.117
-598.055	779.017	0.079	0.217
-597.040	186.241	-0.036	-0.054
-596.025	800.000	0.063	0.225
-595.011	391.518	-0.095	0.199
-593.996	31.445	0.110	0.095
-592.982	277.902	-0.135	0.242
-591.967	-109.134	0.276	-0.059
-590.952	157.293	-0.254	-0.354
-589.938	743.796	-0.178	-0.481
-588.923	164.402	0.143	-0.202
-587.909	109.607	-0.100	0.121
-586.894	4.046	0.106	0.078
-585.879	165.510	0.149	-0.213
-584.865	800.000	0.054	-0.170
-583.850	9.372	-0.051	0.039
-582.836	800.000	0.073	0.243
-581.821	375.038	0.083	0.171
-580.806	74.710	0.169	-0.179
-579.792	123.749	-0.190	-0.240
-578.777	-92.065	0.164	0.047
-577.763	-104.647	0.330	0.077
-576.748	-200.000	0.050	0.228
-575.733	-17.220	-0.323	-0.205
-574.719	800.000	-0.049	-0.206
-573.704	36.098	0.150	-0.133
-572.690	282.814	-0.169	-0.305
-571.675	27.442	-0.265	0.224
-570.661	159.801	-0.145	-0.203
-569.646	7.508	0.066	-0.049
-568.631	11.115	-0.186	-0.143
-567.617	82.442	0.175	-0.191
-566.602	20.358	0.145	0.118
-565.588	115.701	0.126	0.155
-564.573	61.533	0.121	0.121
-563.558	-5.660	-0.311	-0.215
-562.544	149.086	0.086	0.117
-561.529	155.928	0.068	0.095
-560.515	800.000	0.026	-0.092
-559.500	-56.115	0.328	-0.147
-558.485	14.790	-0.204	0.160
-557.471	800.000	-0.065	-0.254
-556.456	265.644	0.064	-0.112
-555.442	-11.233	0.266	0.177
-554.427	-78.407	0.208	0.072
-553.412	-107.758	-0.098	-0.021
-552.398	-137.824	0.076	-0.009
-551.383	-73.745	0.092	-0.034
-550.369	-60.267	-0.086	-0.037
-549.354	194.667	0.092	-0.141
-548.339	77.419	-0.066	0.070
-547.325	700.779	-0.152	0.403
-546.310	-200.000	0.003	-0.046
-545.296	-200.000	0.016	-0.250
-544.281	-63.299	0.268	0.111
-543.266	-21.444	-0.088	-0.054
-542.252	800.000	-0.086	0.293
-541.237	-200.000	0.026	0.200
-540.223	-34.996	-0.303	0.166
-539.208	-92.577	-0.113	0.032
-538.193	800.000	0.002	0.007
-537.179	-3.012	-0.217	-0.152
-536.164	236.717	0.233	-0.387
-535.150	-200.000	-0.010	-0.135
-534.135	-45.649	-0.150	-0.074
-533.121	-157.659	-0.059	0.004
-532.106	-9.131	-0.107	-0.072
-531.091	32.607	-0.177	-0.154
-530.077	-145.244	0.144	0.013
-529.062	-95.602	0.344	-0.092
-528.048	-169.723	0.398	0.014
-527.033	-200.000	0.003	-0.047
-526.018	38.452	-0.299	-0.268
-525.004	141.805	-0.189	0.251
-523.989	-139.094	-0.322	0.035
-522.975	-82.407	0.068	0.022
-521.960	11.907	0.096	0.074
-520.945	-101.945	0.323	0.078
-519.931	152.645	-0.161	0.221
-518.916	-89.484	0.159	0.047
-517.902	-40.206	-0.154	-0.080
-516.887	-200.000	-0.012	-0.209
-515.872	-145.429	-0.155	-0.014
-514.858	-191.226	0.201	0.002
-513.843	-11.850	0.203	0.133
-512.829	-200.000	-0.053	0.424
-511.814	800.000	-0.028	-0.079
-510.799	-200.000	-0.012	0.070
-509.785	101.705	0.146	-0.170
-508.770	72.867	-0.227	-0.238
-507.756	152.070	0.063	0.086
-506.741	-94.213	-0.402	0.110
-505.726	-200.000	0.019	0.109
-504.712	346.628	0.089	0.175
-503.697	469.180	0.117	0.264
-502.683	-79.031	-0.124	0.042
-501.668	-71.976	-0.111	-0.041
-500.653	195.920	0.118	0.181
-499.639	-166.176	0.235	-0.010
-498.624	-101.370	-0.223	0.055
-497.610	62.082	0.125	-0.125
-496.595	-111.253	0.383	-0.079
-495.581	19.203	0.191	-0.153
-494.566	-61.660	0.161	-0.068
-493.551	8.231	-0.139	-0.105
-492.537	-13.761	0.258	0.168
-491.522	147.423	0.119	0.160
-490.508	-0.040	0.087	0.062
-489.493	228.647	-0.083	0.135
-488.478	338.819	0.055	-0.107
-487.464	-200.000	0.083	-0.415
-486.449	382.146	-0.042	0.087
-485.435	-200.000	0.007	-0.127
-484.420	-119.508	-0.229	0.040
-483.405	516.228	-0.023	0.053
-482.391	135.689	-0.179	-0.234
-481.376	304.781	-0.130	0.241
-480.362	-142.724	0.229	0.022
-479.347	-177.091	0.198	-0.005
-478.332	151.260	0.321	-0.438
-477.318	-200.000	-0.029	-0.292
-476.303	800.000	0.005	0.017
-475.289	-71.329	0.221	0.083
-474.274	30.694	0.074	-0.063
-473.259	-104.997	-0.101	0.023
-472.245	382.724	0.156	-0.321
-471.230	-71.301	0.099	-0.037
-470.216	108.242	0.077	0.092
-469.201	-200.000	-0.053	-0.252
-468.186	4.008	0.024	0.017
-467.172	-29.444	-0.146	0.084
-466.157	-56.104	-0.196	0.088
-465.143	150.165	0.140	-0.190
-464.128	62.056	-0.050	0.050
-463.113	-125.397	-0.103	-0.016
-462.099	-200.000	0.006	0.208
-461.084	17.818	0.247	0.197
-460.070	573.950	0.123	0.301
-459.055	-200.000	0.008	0.084
-458.040	-123.106	-0.221	-0.036
-457.026	-200.000	-0.012	0.235
-456.011	-177.387	-0.168	0.004
-454.997	211.057	-0.045	0.071
-453.982	-200.000	0.023	0.120
-452.968	461.296	-0.102	0.229
-451.953	93.807	-0.218	0.248
-450.938	378.265	-0.156	0.319
-449.924	-31.344	0.083	0.047
-448.909	-66.263	0.197	0.079
-447.895	-23.421	0.021	-0.013
-446.880	-200.000	0.014	-0.207
-445.865	-53.627	0.111	-0.051
-444.851	-94.386	0.159	-0.043
-443.836	-200.000	0.018	0.393
-442.822	-40.017	0.272	-0.142
-441.807	800.000	-0.060	-0.181
-440.792	-104.073	-0.054	0.013
-439.778	50.135	0.320	-0.302
-438.763	-22.553	0.152	-0.092
-437.749	228.247	0.046	-0.075
-436.734	547.811	-0.181	-0.433
-435.719	-119.167	-0.106	-0.019
-434.705	-200.000	-0.024	-0.114
-433.690	-200.000	-0.001	0.216
-432.676	116.674	-0.251	0.308
-431.661	72.062	0.169	0.176
-430.646	-48.298	0.132	-0.064
-429.632	-158.418	-0.210	0.012
-428.617	-200.000	-0.013	-0.324
-427.603	40.937	0.212	-0.191
-426.588	-115.128	0.228	0.043
-425.573	3.117	-0.307	-0.224
-424.559	662.357	-0.092	0.237
-423.544	-6.215	0.096	0.065
-422.530	-61.940	-0.202	0.084
-421.515	20.131	-0.162	0.130
-420.500	296.196	0.214	0.392
-419.486	-113.090	-0.161	-0.032
-418.471	-200.000	0.010	0.141
-417.457	-69.134	0.065	0.025
-416.442	-62.970	-0.136	0.056
-415.428	-124.155	-0.178	-0.028
-414.413	-118.056	0.248	-0.044
-413.398	-95.734	0.177	0.047
-412.384	-63.858	0.077	0.031
-411.369	-200.000	-0.012	-0.205
-410.355	-126.624	0.239	-0.035
-409.340	98.870	0.250	0.289
-408.325	-200.000	0.018	0.102
-407.311	138.238	0.097	-0.127
-406.296	-37.821	0.382	-0.203
-405.282	800.000	0.012	-0.050
-404.267	-200.000	0.020	-0.219
-403.252	376.050	0.146	0.298
-402.238	685.375	0.033	-0.087
-401.223	264.750	0.087	-0.151
-400.209	159.051	0.108	-0.150
-399.194	351.583	0.163	-0.322
-398.179	-200.000	-0.047	0.236
-397.165	62.343	-0.083	0.083
-396.150	-112.139	-0.079	-0.016
-395.136	-114.646	-0.110	0.021
-394.121	800.000	0.062	-0.188
-393.106	736.513	0.038	0.102
-392.092	-179.327	0.111	0.002
-391.077	800.000	-0.132	0.375
-390.063	-200.000	-0.024	-0.162
-389.048	-187.969	-0.551	-0.007
-388.033	800.000	0.072	-0.269
-387.019	-160.517	0.180	-0.010
-386.004	800.000	0.003	-0.012
-384.990	-200.000	-0.001	-0.136
-383.975	-96.544	-0.198	0.052
-382.960	468.928	0.131	-0.295
-381.946	-81.767	-0.228	-0.075
-380.931	-200.000	0.065	-0.473
-379.917	800.000	0.036	0.121
-378.902	800.000	-0.022	0.069
-377.888	-168.878	0.062	0.002
-376.873	150.004	0.055	-0.075
-375.858	61.589	-0.237	-0.235
-374.844	-200.000	0.002	-0.059
-373.829	-141.683	-0.451	0.045
-372.815	453.284	-0.072	-0.159
-371.800	223.490	0.134	-0.216
-370.785	800.000	-0.013	-0.038
-369.771	-8.382	0.155	0.104
-368.756	-43.662	0.146	0.073
-367.742	335.563	-0.074	0.143
-366.727	359.226	0.042	0.083
-365.712	-200.000	0.041	-0.194
-364.698	396.018	-0.086	0.180
-363.683	49.318	-0.177	-0.166
-362.669	800.000	0.125	-0.537
-361.654	-180.151	-0.173	0.004
-360.639	-26.349	-0.253	0.148
-359.625	-200.000	0.037	0.247
-358.610	-200.000	-0.028	0.165
-357.596	-109.514	-0.070	-0.015
-356.581	-200.000	-0.012	-0.053
-355.566	-36.679	-0.174	-0.093
-354.552	-200.000	-0.039	0.194
-353.537	-200.000	0.003	0.208
-352.523	47.888	-0.066	0.061
-351.508	204.424	0.091	0.141
-350.493	800.000	-0.070	0.240
-349.479	-73.893	-0.055	-0.020
-348.464	193.139	0.049	-0.073
-347.450	-38.028	0.160	-0.085
-346.435	-200.000	-0.059	-0.272
-345.420	112.440	-0.239	0.288
-344.406	-58.792	0.098	0.042
-343.391	-200.000	-0.007	-0.132
-342.377	800.000	0.026	-0.114
-341.362	-87.568	0.096	-0.029
-340.348	-161.374	-0.149	0.008
-339.333	-200.000	0.013	0.303
-338.318	1.872	0.161	-0.116
-337.304	-112.920	-0.227	0.045
-336.289	800.000	-0.071	0.201
-335.275	171.742	-0.094	-0.135
-334.260	-107.876	0.132	0.029
-333.245	-200.000	0.008	0.200
-332.231	151.431	0.119	0.161
-331.216	-200.000	-0.051	0.432
-330.202	97.685	0.137	-0.157
-329.187	60.591	-0.120	0.119
-328.172	-200.000	-0.031	0.169
-327.158	800.000	-0.130	0.383
-326.143	80.171	-0.302	-0.324
-325.129	-198.158	-0.091	0.001
-324.114	-158.885	-0.415	-0.024
-323.099	657.432	0.069	-0.177
-322.085	84.769	-0.152	-0.166
-321.070	-200.000	-0.007	0.047
-320.056	1.575	-0.208	-0.149
-319.041	129.661	0.241	0.308
-318.026	800.000	-0.166	0.494
-317.012	-9.808	-0.239	0.158
-315.997	39.828	-0.080	0.072
-314.983	-144.185	0.053	-0.005
-313.968	38.223	-0.202	-0.179
-312.953	-25.229	0.260	0.154
-311.939	-200.000	0.011	-0.068
-310.924	560.137	0.056	0.135
-309.910	-40.823	-0.309	-0.159
-308.895	-53.575	0.371	-0.169
-307.880	800.000	0.070	0.234
-306.866	-139.827	0.197	0.021
-305.851	71.332	0.033	-0.034
-304.837	667.097	0.079	-0.203
-303.822	-200.000	-0.003	-0.072
-302.807	-200.000	0.110	0.511
-301.793	-200.000	-0.002	0.373
-300.778	-108.773	-0.152	-0.032
-299.764	-16.403	-0.201	0.127
-298.749	-0.733	-0.074	-0.052
-297.735	76.207	-0.167	0.176
-296.720	69.261	0.064	-0.066
-295.705	-43.776	0.081	-0.040
-294.691	86.904	0.186	0.205
-293.676	-61.051	0.249	-0.105
-292.662	47.869	-0.078	0.073
-291.647	-41.517	0.277	-0.142
-290.632	-83.588	0.034	0.011
-289.618	70.002	0.063	0.064
-288.603	-200.000	-0.078	0.370
-287.589	800.000	-0.062	0.211
-286.574	-200.000	-0.018	0.117
-285.559	-200.000	0.030	0.141
-284.545	-104.511	0.163	-0.037
-283.530	10.973	-0.201	0.153
-282.516	-50.845	0.182	-0.085
-281.501	800.000	0.073	-0.221
-280.486	-100.194	-0.316	0.078
-279.472	133.161	-0.160	0.206
-278.457	-200.000	-0.004	0.387
-277.443	219.651	-0.209	0.333
-276.428	800.000	0.013	-0.051
-275.413	-132.526	-0.269	0.034
-274.399	41.308	-0.269	-0.242
-273.384	238.341	0.046	-0.077
-272.370	88.043	0.323	0.357
-271.355	-66.816	-0.184	-0.072
-270.340	299.819	-0.182	0.333
-269.326	-200.000	0.005	0.051
-268.311	-200.000	-0.024	0.157
-267.297	-156.080	-0.094	0.006
-266.282	18.022	0.158	-0.125
-265.267	-200.000	-0.049	-0.291
-264.253	301.334	-0.178	-0.326
-263.238	109.494	-0.325	0.387
-262.224	171.467	0.045	-0.064
-261.209	-200.000	0.008	-0.094
-260.195	37.338	-0.217	0.191
-259.180	85.195	-0.150	-0.164
-258.165	-67.969	-0.100	0.039
-257.151	-161.170	0.103	0.005
-256.136	-12.069	-0.147	0.096
-255.122	-200.000	-0.020	0.272
-254.107	689.514	-0.059	-0.155
-253.092	-129.964	-0.170	0.023
-252.078	-111.792	0.115	-0.023
-251.063	-200.000	-0.096	0.560
-250.049	-124.200	-0.547	0.085
-249.034	20.082	0.175	-0.140
-248.019	-200.000	0.042	0.203
-247.005	121.414	0.264	0.326
-245.990	21.441	-0.130	0.105
-244.976	-125.398	0.395	-0.060
-243.961	-76.534	0.246	-0.086
-242.946	-73.033	-0.153	-0.056
-241.932	-200.000	-0.007	-0.162
-240.917	560.151	0.060	0.145
-239.903	19.796	-0.114	0.091
-238.888	-200.000	0.040	-0.248
-237.873	-137.807	-0.224	-0.025
-236.859	41.703	0.170	-0.153
-235.844	-119.059	-0.172	0.030
-234.830	88.280	-0.223	-0.245
-233.815	-139.300	0.235	0.025
-232.800	-192.752	-0.359	0.003
-231.786	23.279	-0.086	-0.070
-230.771	-49.992	0.293	-0.138
-229.757	-200.000	-0.086	-0.581
-228.742	-16.682	0.392	-0.246
-227.727	-39.516	-0.156	0.081
-226.713	58.419	-0.092	0.090
-225.698	43.502	-0.268	0.243
-224.684	-47.926	0.221	0.106
-223.669	-181.300	-0.389	-0.008
-222.655	-19.324	0.321	-0.197
-221.640	-45.400	0.235	0.116
-220.625	77.990	-0.121	0.128
-219.611	-200.000	-0.002	0.068
-218.596	375.304	0.017	0.035
-217.582	404.046	-0.062	-0.130
-216.567	200.910	0.068	-0.103
-215.552	800.000	-0.049	-0.145
-214.538	-111.993	-0.399	0.080
-213.523	-200.000	0.053	-0.264
-212.509	-20.096	0.116	0.071
-211.494	-64.069	0.171	0.069
-210.479	800.000	0.073	0.265
-209.465	82.013	-0.344	-0.369
-208.450	-101.192	0.183	0.044
-207.436	637.082	0.074	0.187
-206.421	-8.606	-0.250	-0.167
-205.406	-69.814	-0.276	0.104
-204.392	716.048	0.097	0.255
-203.377	71.974	0.123	-0.127
-202.363	-200.000	0.022	-0.354
-201.348	-200.000	0.422	0.002
-200.333	-53.516	-0.295	-0.134
-199.319	-7.454	0.365	0.245
-198.304	-65.950	0.364	0.144
-197.290	-200.000	-0.021	-0.300
-196.275	131.266	0.228	-0.290
-195.260	800.000	-0.130	-0.400
-194.246	6.970	-0.159	0.118
-193.231	-200.000	-0.026	-0.392
-192.217	-41.845	0.306	0.155
-191.202	458.515	0.152	-0.335
-190.187	800.000	0.048	0.161
-189.173	217.728	0.215	-0.340
-188.158	212.429	0.135	-0.212
-187.144	24.153	0.106	0.087
-186.129	-60.857	0.108	0.045
-185.114	-135.896	0.172	-0.020
-184.100	-96.890	-0.076	-0.020
-183.085	513.451	-0.027	0.063
-182.071	263.692	-0.020	0.034
-181.056	-17.399	0.251	-0.156
-180.042	158.664	0.323	0.444
-179.027	111.899	0.177	0.212
-178.012	800.000	0.038	0.154
-176.998	575.556	-0.150	0.362
-175.983	-200.000	-0.013	-0.453
-174.969	208.621	0.049	-0.075
-173.954	254.941	0.139	0.236
-172.939	540.426	0.116	0.274
-171.925	99.361	0.180	0.206
-170.910	-100.295	-0.173	-0.042
-169.896	800.000	0.124	-0.484
-168.881	-58.306	0.080	-0.034
-167.866	-74.149	-0.245	0.088
-166.852	15.825	0.110	0.086
-165.837	-4.254	-0.122	0.084
-164.823	499.916	0.129	0.294
-163.808	-139.453	-0.336	0.036
-162.793	800.000	0.026	-0.086
-161.779	176.378	0.225	-0.324
-160.764	-200.000	-0.015	-0.141
-159.750	800.000	-0.067	0.207
-158.735	-109.806	0.206	-0.043
-157.720	-29.838	-0.138	-0.078
-156.706	70.969	-0.142	-0.146
-155.691	-171.995	-0.106	-0.003
-154.677	-138.242	-0.141	-0.015
-153.662	-200.000	0.022	-0.199
-152.647	270.503	0.117	-0.204
-151.633	-174.295	-0.269	-0.008
-150.618	-58.525	0.339	0.146
-149.604	-200.000	-0.077	-0.420
-148.589	-103.031	-0.371	-0.087
-147.574	-94.927	0.061	0.016
-146.560	562.306	0.031	0.074
-145.545	-113.348	0.159	0.031
-144.531	-32.389	-0.171	0.095
-143.516	-200.000	0.064	-0.289
-142.502	295.545	0.072	0.131
-141.487	101.696	-0.139	0.160
-140.472	12.189	0.219	0.166
-139.458	-200.000	0.018	-0.101
-138.443	99.867	0.245	-0.281
-137.429	37.272	-0.038	-0.033
-136.414	149.885	-0.256	0.344
-135.399	800.000	0.063	-0.265
-134.385	-71.410	0.146	0.054
-133.370	23.750	-0.218	-0.177
-132.356	109.981	-0.097	0.115
-131.341	-86.390	-0.452	-0.137
-130.326	37.217	0.417	-0.366
-129.312	-34.843	-0.175	0.095
-128.297	65.043	0.203	0.203
-127.283	595.912	0.085	-0.209
-126.268	21.454	-0.139	0.112
-125.253	797.396	0.061	0.168
-124.239	16.032	-0.138	0.108
-123.224	-28.287	0.144	0.082
-122.210	111.179	-0.162	-0.193
-121.195	371.252	0.185	-0.371
