DTS Sentinel unit serial number:	SN413079Multiplexer serial number:	ORYXHardware model number:	OX4-SRSoftware version number:	ORYX F/W v4.00 Oryx Data Collector v3.7.2.0data status	okinstallation	princeton_trtdifferential loss correction	single-endedforward channel	channel 4reverse channel	N/Adate	2019/09/11time	13:23:11forward acquisition time	60.00reverse acquisition time	0.00gamma	496.2192k internal	0.2283k external	0.2283temperature offset calibration	1.0001default loss term (dB/km)	0.3790temperature slope calibration	1.0000multiplexer offset coefficient	1.0000multiplexer slope coefficient	1.0000fibre end	0.00T internal ref (°C)	41.94T ext. ref 1 (°C)	0.81T ext. ref 2 (°C)	36.50length (m)	temperature (°C)	Stokes	anti-Stokes-747.200	50.015	0.098	-0.095
-746.185	800.000	0.067	0.215
-745.171	207.163	-0.195	0.313
-744.156	696.605	0.108	0.293
-743.142	-200.000	0.010	0.132
-742.127	109.338	-0.136	0.167
-741.112	-135.290	0.365	0.045
-740.098	430.077	-0.132	0.293
-739.083	205.418	0.140	-0.223
-738.069	-141.908	-0.215	-0.022
-737.054	-145.067	-0.380	-0.036
-736.039	-1.380	-0.275	-0.199
-735.025	49.042	0.287	-0.277
-734.010	528.018	-0.065	0.157
-732.996	800.000	-0.062	-0.177
-731.981	800.000	0.062	0.201
-730.966	-90.932	-0.256	0.076
-729.952	68.676	0.197	0.208
-728.937	-16.325	-0.073	-0.047
-727.923	85.371	-0.199	0.225
-726.908	219.879	-0.149	0.245
-725.894	-200.000	0.013	0.147
-724.879	-111.077	0.237	-0.050
-723.864	293.463	-0.226	-0.424
-722.850	241.754	0.145	-0.249
-721.835	334.702	-0.137	0.273
-720.821	597.414	0.166	0.423
-719.806	800.000	0.056	0.166
-718.791	-106.820	-0.472	0.108
-717.777	62.481	-0.121	-0.124
-716.762	-4.566	0.281	-0.199
-715.748	-33.541	0.251	0.142
-714.733	-74.664	0.281	0.104
-713.718	74.963	-0.148	-0.160
-712.704	327.883	0.219	-0.431
-711.689	-47.418	-0.219	-0.110
-710.675	38.491	-0.151	-0.139
-709.660	800.000	-0.149	0.445
-708.645	-122.360	-0.240	0.040
-707.631	-141.227	0.226	0.024
-706.616	478.553	0.056	-0.130
-705.602	61.258	-0.309	-0.315
-704.587	-98.866	-0.225	0.059
-703.572	-136.759	-0.218	0.026
-702.558	-193.768	-0.166	-0.001
-701.543	800.000	0.103	-0.418
-700.529	354.540	0.076	0.155
-699.514	-200.000	-0.007	0.141
-698.499	-21.840	0.060	-0.038
-697.485	137.736	-0.025	-0.034
-696.470	-19.667	0.088	-0.056
-695.456	40.516	-0.084	-0.077
-694.441	-200.000	0.033	-0.482
-693.426	189.539	-0.155	0.239
-692.412	185.792	-0.192	0.292
-691.397	800.000	0.021	-0.075
-690.383	-44.731	-0.119	0.061
-689.368	103.320	0.275	0.331
-688.354	-54.825	0.182	0.084
-687.339	800.000	-0.025	-0.077
-686.324	-9.384	0.478	-0.327
-685.310	-9.624	-0.283	-0.193
-684.295	-128.070	0.346	-0.051
-683.281	-134.839	0.234	0.029
-682.266	-200.000	-0.012	0.339
-681.251	-191.819	-0.151	0.002
-680.237	-199.169	0.034	0.000
-679.222	-200.000	-0.023	0.194
-678.208	-105.183	-0.151	-0.035
-677.193	658.502	0.119	0.313
-676.178	480.228	-0.070	0.162
-675.164	800.000	0.045	0.179
-674.149	-200.000	0.102	0.483
-673.135	-77.556	-0.256	-0.091
-672.120	-141.920	0.102	0.010
-671.105	220.924	0.140	0.230
-670.091	-7.332	-0.380	0.264
-669.076	473.800	0.074	-0.171
-668.062	-69.362	-0.198	0.078
-667.047	800.000	0.046	-0.155
-666.032	-80.498	-0.366	-0.125
-665.018	800.000	0.049	-0.190
-664.003	131.203	0.100	0.132
-662.989	-200.000	-0.100	-0.461
-661.974	49.139	-0.102	-0.098
-660.959	-184.686	-0.462	0.008
-659.945	635.033	-0.076	-0.199
-658.930	23.022	0.131	0.110
-657.916	151.348	-0.213	-0.297
-656.901	225.135	-0.044	0.073
-655.886	-78.133	-0.067	-0.024
-654.872	-125.245	-0.428	-0.067
-653.857	465.029	0.013	-0.029
-652.843	555.576	0.082	-0.203
-651.828	800.000	-0.068	0.233
-650.814	251.016	0.095	0.166
-649.799	-158.180	-0.050	0.003
-648.784	-85.647	-0.217	0.069
-647.770	128.005	-0.205	-0.266
-646.755	-29.477	-0.240	0.141
-645.741	778.607	0.181	-0.507
-644.726	55.981	-0.121	0.120
-643.711	-200.000	0.028	0.146
-642.697	-175.883	0.053	-0.001
-641.682	152.744	-0.107	0.150
-640.668	667.654	-0.037	0.099
-639.653	-109.930	-0.169	0.036
-638.638	32.175	-0.026	0.023
-637.624	-154.193	0.192	-0.013
-636.609	-90.467	-0.191	-0.057
-635.595	-7.777	0.101	-0.070
-634.580	283.350	-0.057	0.105
-633.565	152.861	0.098	0.138
-632.551	231.782	-0.186	-0.312
-631.536	-200.000	-0.025	0.163
-630.522	-200.000	-0.003	-0.057
-629.507	346.424	-0.086	0.173
-628.492	-140.897	0.312	-0.033
-627.478	1.948	0.342	-0.253
-626.463	307.403	-0.046	-0.087
-625.449	-200.000	-0.012	0.133
-624.434	-19.273	0.087	-0.056
-623.419	11.589	-0.141	-0.111
-622.405	411.077	-0.069	0.151
-621.390	329.341	0.147	0.289
-620.376	-9.784	-0.181	-0.123
-619.361	-90.674	0.284	0.084
-618.346	-200.000	0.006	-0.070
-617.332	-200.000	0.073	0.355
-616.317	-14.555	0.355	0.234
-615.303	62.281	-0.145	-0.148
-614.288	-30.614	0.268	0.155
-613.273	176.368	0.068	-0.101
-612.259	-135.638	0.348	0.042
-611.244	-200.000	-0.025	0.305
-610.230	-20.361	0.146	0.092
-609.215	719.098	0.086	0.234
-608.201	362.120	-0.055	0.112
-607.186	-29.558	-0.138	0.081
-606.171	-29.607	-0.214	-0.125
-605.157	66.668	0.234	-0.244
-604.142	16.682	-0.171	0.138
-603.128	264.816	0.139	-0.248
-602.113	-140.508	-0.284	0.030
-601.098	-151.138	0.115	-0.009
-600.084	267.390	0.051	0.090
-599.069	800.000	0.006	-0.018
-598.055	148.729	-0.091	0.125
-597.040	144.572	-0.022	0.030
-596.025	367.913	0.059	0.122
-595.011	114.540	0.092	0.115
-593.996	58.886	-0.197	-0.198
-592.982	462.005	-0.031	-0.071
-591.967	-103.183	0.059	-0.014
-590.952	764.225	-0.072	0.201
-589.938	-162.621	0.122	0.006
-588.923	-91.845	0.196	-0.057
-587.909	143.532	-0.111	-0.152
-586.894	-200.000	-0.017	0.245
-585.879	15.931	-0.186	0.149
-584.865	6.710	-0.129	0.098
-583.850	-28.787	-0.060	-0.035
-582.836	-101.607	0.107	-0.027
-581.821	125.487	-0.105	0.136
-580.806	-92.570	-0.249	-0.071
-579.792	228.577	0.129	-0.215
-578.777	-200.000	0.012	-0.194
-577.763	-200.000	-0.000	0.063
-576.748	305.340	0.066	-0.124
-575.733	800.000	-0.087	-0.271
-574.719	213.754	-0.075	-0.121
-573.704	-59.064	-0.253	0.112
-572.690	-200.000	0.084	-0.541
-571.675	-107.375	-0.100	0.022
-570.661	81.931	-0.025	0.028
-569.646	216.957	0.054	-0.087
-568.631	413.766	-0.153	-0.333
-567.617	800.000	-0.094	-0.340
-566.602	-200.000	0.025	-0.248
-565.588	-33.962	-0.074	0.042
-564.573	146.301	-0.208	-0.285
-563.558	-168.452	0.132	-0.005
-562.544	-200.000	-0.021	-0.116
-561.529	-137.468	-0.370	-0.043
-560.515	-7.796	-0.159	-0.110
-559.500	-166.056	-0.192	0.008
-558.485	-125.422	0.137	-0.021
-557.471	517.187	-0.110	-0.261
-556.456	9.086	-0.277	-0.213
-555.442	-11.238	-0.246	-0.165
-554.427	22.590	-0.160	-0.134
-553.412	-200.000	0.002	0.438
-552.398	81.643	0.070	0.077
-551.383	-132.344	-0.266	-0.035
-550.369	-45.036	0.203	-0.103
-549.354	294.391	0.113	-0.211
-548.339	539.797	0.056	-0.137
-547.325	460.846	-0.092	-0.210
-546.310	-72.345	-0.093	0.035
-545.296	-91.128	-0.134	0.039
-544.281	336.859	0.182	-0.360
-543.266	413.257	-0.106	0.230
-542.252	-200.000	0.013	-0.151
-541.237	-38.925	-0.086	0.046
-540.223	234.439	0.028	0.047
-539.208	136.268	0.038	-0.051
-538.193	614.226	0.059	0.150
-537.179	-16.715	-0.281	0.181
-536.164	800.000	-0.087	-0.265
-535.150	800.000	0.031	-0.131
-534.135	-200.000	0.002	-0.123
-533.121	-200.000	-0.021	0.150
-532.106	-200.000	-0.007	-0.077
-531.091	-26.317	0.003	-0.002
-530.077	159.340	0.042	0.060
-529.062	63.863	-0.091	-0.094
-528.048	142.519	-0.114	-0.155
-527.033	-200.000	0.024	-0.224
-526.018	-200.000	-0.028	-0.125
-525.004	-73.747	0.353	-0.131
-523.989	765.560	0.088	0.242
-522.975	80.744	-0.092	-0.101
-521.960	194.847	-0.103	0.159
-520.945	102.802	0.123	0.147
-519.931	-110.740	-0.380	0.080
-518.916	800.000	0.047	-0.197
-517.902	-94.915	-0.305	0.084
-516.887	49.047	-0.151	-0.144
-515.872	344.446	0.088	0.176
-514.858	-200.000	-0.039	-0.175
-513.843	-127.582	-0.078	-0.012
-512.829	-6.248	-0.223	0.155
-511.814	7.018	0.178	0.135
-510.799	-200.000	-0.026	-0.190
-509.785	-132.396	0.041	-0.005
-508.770	-200.000	0.027	-0.226
-507.756	37.420	-0.168	0.152
-506.741	6.143	-0.112	0.085
-505.726	117.841	-0.135	0.170
-504.712	-35.755	0.042	-0.023
-503.697	401.421	-0.064	0.136
-502.683	800.000	0.098	0.415
-501.668	-142.199	-0.202	-0.020
-500.653	521.765	0.070	-0.167
-499.639	24.595	0.109	0.092
-498.624	-200.000	0.016	0.091
-497.610	-200.000	-0.003	-0.094
-496.595	800.000	0.075	-0.219
-495.581	378.915	-0.051	-0.106
-494.566	460.092	0.070	-0.158
-493.551	-68.970	0.183	-0.072
-492.537	-200.000	-0.007	0.141
-491.522	-44.752	0.294	0.149
-490.508	-89.274	0.188	0.056
-489.493	95.980	0.057	-0.066
-488.478	800.000	0.008	-0.035
-487.464	39.035	-0.203	-0.185
-486.449	800.000	-0.064	-0.248
-485.435	800.000	0.085	-0.306
-484.420	-79.619	0.259	-0.089
-483.405	-200.000	-0.025	-0.167
-482.391	451.649	-0.112	0.251
-481.376	-107.056	0.183	-0.041
-480.362	13.278	0.293	0.231
-479.347	-124.483	-0.232	0.037
-478.332	180.164	0.143	-0.214
-477.318	-18.354	0.282	-0.179
-476.303	98.295	-0.212	-0.249
-475.289	-141.215	0.188	0.019
-474.274	-31.011	0.151	0.087
-473.259	-200.000	0.042	-0.319
-472.245	-82.068	-0.033	0.011
-471.230	439.289	-0.075	-0.167
-470.216	-154.440	-0.280	-0.019
-469.201	281.714	-0.065	0.118
-468.186	-133.926	0.183	-0.023
-467.172	-200.000	0.043	-0.301
-466.157	-52.826	0.061	0.028
-465.143	288.514	-0.132	-0.243
-464.128	-122.147	-0.404	-0.067
-463.113	266.473	-0.127	-0.226
-462.099	581.232	0.072	-0.180
-461.084	-102.063	0.416	0.102
-460.070	31.824	-0.087	-0.076
-459.055	-47.406	-0.224	-0.111
-458.040	8.238	0.156	-0.119
-457.026	203.809	0.076	-0.119
-456.011	-30.959	0.110	0.063
-454.997	-200.000	-0.035	0.294
-453.982	-200.000	-0.029	0.222
-452.968	-200.000	-0.414	-0.001
-451.953	183.287	0.163	-0.244
-450.938	-77.173	-0.119	-0.042
-449.924	-63.105	-0.179	0.075
-448.909	327.485	0.177	-0.345
-447.895	20.514	-0.081	-0.066
-446.880	-200.000	0.028	-0.150
-445.865	95.286	-0.220	-0.255
-444.851	173.048	-0.080	-0.117
-443.836	164.006	0.271	0.388
-442.822	151.701	-0.205	0.284
-441.807	-200.000	-0.007	-0.147
-440.792	-19.962	-0.219	0.137
-439.778	9.507	-0.346	0.266
-438.763	-200.000	0.017	0.395
-437.749	-200.000	0.039	0.374
-436.734	341.779	0.116	-0.231
-435.719	-200.000	0.022	0.354
-434.705	117.576	-0.239	0.298
-433.690	210.438	-0.198	0.315
-432.676	800.000	0.047	0.205
-431.661	-10.804	0.349	0.234
-430.646	277.955	0.025	-0.045
-429.632	3.757	0.206	0.152
-428.617	42.615	-0.141	0.130
-427.603	159.846	0.011	0.016
-426.588	-60.289	-0.096	-0.042
-425.573	-200.000	-0.031	0.262
-424.559	-200.000	0.014	-0.095
-423.544	-138.115	-0.266	0.030
-422.530	110.701	-0.112	0.137
-421.515	41.426	0.098	0.090
-420.500	-42.593	0.194	0.100
-419.486	120.759	-0.316	0.399
-418.471	219.505	-0.048	0.078
-417.457	-200.000	0.009	0.175
-416.442	-156.017	0.099	-0.006
-415.428	177.348	0.068	-0.100
-414.413	-124.174	-0.305	0.049
-413.398	89.981	0.049	0.055
-412.384	292.869	0.175	-0.324
-411.369	179.348	0.196	-0.290
-410.355	-37.305	0.054	-0.029
-409.340	15.643	-0.305	0.243
-408.325	-30.519	-0.252	0.145
-407.311	-200.000	0.029	0.219
-406.296	93.032	-0.083	-0.096
-405.282	20.731	-0.168	-0.138
-404.267	22.584	0.081	0.067
-403.252	-56.223	-0.078	0.035
-402.238	800.000	-0.033	0.140
-401.223	-200.000	0.007	-0.226
-400.209	673.144	0.043	0.112
-399.194	-106.597	-0.133	-0.030
-398.179	-42.855	0.191	0.099
-397.165	469.384	0.079	0.181
-396.150	92.033	-0.094	0.107
-395.136	-200.000	0.021	0.146
-394.121	-109.584	-0.219	0.047
-393.106	553.874	-0.031	0.076
-392.092	-200.000	0.029	0.190
-391.077	-148.494	0.391	-0.032
-390.063	-32.271	-0.177	0.100
-389.048	800.000	0.026	0.087
-388.033	-200.000	0.005	-0.048
-387.019	-111.229	-0.334	-0.069
-386.004	221.233	0.057	0.093
-384.990	218.639	0.199	-0.322
-383.975	-200.000	0.002	0.230
-382.960	726.779	-0.123	0.332
-381.946	-200.000	0.086	0.445
-380.931	-49.280	0.151	-0.073
-379.917	-136.883	-0.244	-0.028
-378.902	-80.876	-0.184	-0.062
-377.888	-200.000	-0.004	0.102
-376.873	-102.103	-0.135	-0.033
-375.858	800.000	0.044	0.139
-374.844	171.921	0.113	0.164
-373.829	140.174	0.069	-0.093
-372.815	-116.349	0.068	0.013
-371.800	176.757	0.058	-0.086
-370.785	-135.541	-0.066	-0.008
-369.771	-44.736	0.120	-0.061
-368.756	31.393	0.265	-0.231
-367.742	379.550	-0.046	0.096
-366.727	532.338	0.060	0.144
-365.712	-10.544	-0.149	0.100
-364.698	800.000	0.030	0.121
-363.683	-54.190	-0.249	0.114
-362.669	691.435	-0.103	-0.273
-361.654	800.000	-0.106	-0.329
-360.639	757.625	-0.064	0.174
-359.625	-200.000	-0.029	0.221
-358.610	73.500	0.169	-0.179
-357.596	3.169	-0.367	-0.270
-356.581	-200.000	-0.036	-0.176
-355.566	-44.776	0.058	-0.029
-354.552	-119.947	0.409	0.071
-353.537	64.314	0.075	0.076
-352.523	-20.867	-0.038	0.024
-351.508	61.245	-0.128	0.129
-350.493	-58.378	-0.168	0.074
-349.479	191.927	-0.142	-0.216
-348.464	301.909	-0.111	-0.208
-347.450	-200.000	-0.042	0.314
-346.435	-115.465	0.280	0.053
-345.420	-67.892	-0.337	-0.133
-344.406	-38.641	0.078	-0.042
-343.391	-119.394	0.391	0.069
-342.377	800.000	-0.102	-0.309
-341.362	-33.276	-0.245	0.137
-340.348	247.653	0.064	-0.110
-339.333	800.000	-0.060	-0.250
-338.318	-200.000	-0.002	-0.082
-337.304	-81.255	0.473	0.158
-336.289	-69.570	0.150	0.058
-335.275	255.633	-0.079	0.137
-334.260	165.046	0.315	0.450
-333.245	-128.466	0.307	0.044
-332.231	-101.132	0.373	0.092
-331.216	-123.680	0.122	0.020
-330.202	71.935	0.276	0.291
-329.187	-70.327	0.199	-0.076
-328.172	95.571	0.242	0.280
-327.158	800.000	-0.041	0.120
-326.143	-41.610	-0.316	0.164
-325.129	-130.233	-0.238	-0.033
-324.114	-25.864	0.016	0.010
-323.099	-0.751	0.124	-0.089
-322.085	-126.268	-0.349	0.053
-321.070	56.998	0.353	-0.348
-320.056	-56.372	-0.272	-0.122
-319.041	191.595	0.147	0.223
-318.026	-24.730	0.191	-0.115
-317.012	68.115	-0.206	-0.214
-315.997	150.689	-0.081	0.112
-314.983	-84.236	0.105	0.034
-313.968	-200.000	0.003	-0.164
-312.953	338.290	-0.126	-0.248
-311.939	16.091	0.037	-0.029
-310.924	-144.536	-0.019	-0.002
-309.910	665.579	-0.115	0.301
-308.895	-101.398	0.084	0.021
-307.880	24.097	0.206	-0.172
-306.866	-102.422	-0.280	0.068
-305.851	-96.094	-0.103	-0.028
-304.837	-94.866	0.249	0.068
-303.822	-78.780	0.256	0.088
-302.807	13.112	-0.396	-0.310
-301.793	-73.346	-0.059	0.022
-300.778	-119.293	0.462	0.081
-299.764	-53.492	-0.158	0.073
-298.749	-200.000	-0.005	0.414
-297.735	-48.287	0.148	-0.072
-296.720	-200.000	-0.031	0.220
-295.705	-55.198	0.134	0.061
-294.691	800.000	0.066	-0.217
-293.676	-93.879	-0.243	-0.067
-292.662	22.193	0.085	-0.070
-291.647	-124.693	0.295	0.046
-290.632	-200.000	0.041	-0.350
-289.618	-200.000	-0.033	0.180
-288.603	252.775	0.047	0.082
-287.589	800.000	0.014	-0.049
-286.574	800.000	0.035	-0.109
-285.559	76.802	0.264	0.283
-284.545	277.472	-0.130	0.233
-283.530	-110.236	-0.148	0.031
-282.516	-200.000	0.033	0.196
-281.501	-90.344	0.212	-0.062
-280.486	-200.000	-0.023	-0.194
-279.472	32.579	-0.125	0.109
-278.457	93.970	-0.339	-0.388
-277.443	-35.831	0.198	-0.108
-276.428	-200.000	-0.006	-0.082
-275.413	-125.180	-0.246	-0.038
-274.399	279.560	0.082	0.148
-273.384	800.000	-0.047	-0.156
-272.370	165.999	-0.152	-0.217
-271.355	-200.000	-0.032	0.275
-270.340	-200.000	-0.053	0.487
-269.326	206.126	-0.163	-0.256
-268.311	-148.971	-0.134	0.011
-267.297	145.991	0.100	0.135
-266.282	-154.868	0.201	0.013
-265.267	3.285	0.124	0.091
-264.253	-62.776	-0.117	0.049
-263.238	20.724	0.220	-0.179
-262.224	-106.977	-0.144	-0.032
-261.209	-128.047	0.032	0.005
-260.195	-113.075	0.030	-0.006
-259.180	-158.716	-0.081	-0.005
-258.165	800.000	0.034	-0.098
-257.151	360.272	0.041	-0.083
-256.136	-200.000	0.037	0.244
-255.122	-200.000	-0.025	-0.490
-254.107	800.000	-0.077	-0.272
-253.092	-200.000	0.036	-0.302
-252.078	800.000	-0.073	0.203
-251.063	383.364	0.206	0.428
-250.049	800.000	0.046	0.177
-249.034	15.422	-0.103	-0.081
-248.019	-144.299	0.247	0.023
-247.005	424.695	0.051	0.110
-245.990	93.270	0.235	0.267
-244.976	-104.304	-0.059	-0.014
-243.961	-104.397	0.277	-0.065
-242.946	-97.772	0.161	-0.042
-241.932	24.528	-0.111	-0.093
-240.917	-24.872	-0.178	-0.106
-239.903	21.736	0.217	0.178
-238.888	133.882	-0.029	0.038
-237.873	-200.000	0.366	-0.001
-236.859	-99.558	-0.212	0.054
-235.844	185.957	0.229	-0.343
-234.830	-77.142	0.146	0.051
-233.815	270.207	0.100	0.178
-232.800	180.822	0.078	-0.115
-231.786	-107.377	-0.454	-0.100
-230.771	290.955	0.035	-0.064
-229.757	549.303	0.179	-0.432
-228.742	780.965	-0.047	0.129
-227.727	553.108	-0.107	-0.260
-226.713	631.065	0.092	0.234
-225.698	-110.699	0.213	0.044
-224.684	-136.543	-0.067	-0.008
-223.669	733.858	0.101	0.271
-222.655	-49.465	-0.183	-0.088
-221.640	84.763	0.147	-0.162
-220.625	-53.198	-0.018	-0.008
-219.611	-84.777	-0.108	-0.034
-218.596	800.000	-0.037	-0.105
-217.582	139.835	-0.037	0.049
-216.567	645.504	-0.082	0.211
-215.552	-200.000	-0.014	0.424
-214.538	800.000	0.097	-0.278
-213.523	320.706	0.130	-0.248
-212.509	-68.525	0.207	-0.081
-211.494	-148.907	-0.205	0.017
-210.479	-1.605	0.189	-0.134
-209.465	377.983	-0.060	0.122
-208.450	586.638	-0.069	-0.171
-207.436	-200.000	0.004	-0.090
-206.421	-105.905	-0.141	0.032
-205.406	-200.000	0.083	0.379
-204.392	-138.290	0.324	0.036
-203.377	371.344	0.065	0.132
-202.363	-200.000	-0.005	-0.102
-201.348	223.629	-0.010	0.016
-200.333	-143.301	-0.111	0.011
-199.319	-200.000	0.022	0.345
-198.304	-176.494	-0.152	-0.004
-197.290	-200.000	-0.037	0.244
-196.275	582.032	0.077	-0.190
-195.260	-172.682	0.152	0.005
-194.246	-89.206	-0.175	0.052
-193.231	42.870	-0.054	0.049
-192.217	-61.695	0.255	-0.108
-191.202	33.662	0.108	-0.095
-190.187	-13.235	-0.169	-0.110
-189.173	-14.797	0.209	-0.135
-188.158	-58.833	0.170	0.074
-187.144	-196.134	-0.365	0.003
-186.129	-200.000	0.018	-0.122
-185.114	800.000	-0.024	-0.089
-184.100	-18.610	0.144	0.090
-183.085	-55.131	-0.249	-0.113
-182.071	-45.900	-0.160	0.080
-181.056	-200.000	0.026	-0.162
-180.042	488.667	0.113	-0.258
-179.027	101.258	0.101	-0.118
-178.012	79.038	-0.219	-0.236
-176.998	-112.079	-0.301	-0.061
-175.983	718.424	0.095	-0.255
-174.969	97.540	0.049	-0.057
-173.954	11.466	-0.189	0.146
-172.939	-2.595	0.041	0.029
-171.925	-142.364	0.115	-0.011
-170.910	800.000	-0.045	0.178
-169.896	126.262	0.146	-0.185
-168.881	-83.382	0.184	-0.059
-167.866	31.078	-0.186	0.160
-166.852	-123.462	0.218	-0.035
-165.837	800.000	0.160	0.574
-164.823	800.000	0.064	-0.255
-163.808	130.325	-0.198	-0.255
-162.793	-200.000	-0.052	0.347
-161.779	-98.053	0.198	0.051
-160.764	-200.000	0.016	0.812
-159.750	146.791	0.069	0.093
-158.735	-105.612	0.089	-0.020
-157.720	800.000	-0.034	-0.106
-156.706	-194.670	0.212	0.002
-155.691	35.892	0.241	-0.213
-154.677	-76.037	-0.110	0.039
-153.662	-17.963	0.370	-0.233
-152.647	94.942	0.112	0.128
-151.633	14.453	0.074	-0.058
-150.618	20.040	-0.080	0.065
-149.604	800.000	0.060	0.198
-148.589	-10.521	-0.156	0.104
-147.574	54.028	0.208	-0.201
-146.560	-124.264	0.146	0.023
-145.545	-88.854	-0.083	-0.025
-144.531	349.454	-0.141	0.280
-143.516	714.453	0.023	0.061
-142.502	-52.475	0.131	-0.061
-141.487	-114.707	0.051	0.010
-140.472	182.421	-0.062	-0.092
-139.458	-200.000	-0.015	-0.121
-138.443	-200.000	0.002	0.022
-137.429	98.045	-0.088	-0.101
-136.414	128.813	-0.091	0.117
-135.399	247.000	0.139	0.235
-134.385	800.000	0.078	-0.254
-133.370	-170.421	0.292	0.010
-132.356	-142.672	0.300	-0.029
-131.341	176.499	-0.080	-0.116
-130.326	46.511	-0.027	-0.025
-129.312	-73.592	-0.166	0.061
-128.297	-200.000	-0.067	0.582
-127.283	-33.114	-0.095	-0.053
-126.268	466.272	-0.109	0.246
-125.253	-39.172	0.082	0.043
-124.239	-72.771	-0.121	-0.045
-123.224	136.329	-0.213	-0.278
-122.210	131.378	-0.084	-0.109
