DTS Sentinel unit serial number:	SN413079Multiplexer serial number:	ORYXHardware model number:	OX4-SRSoftware version number:	ORYX F/W v4.00 Oryx Data Collector v3.7.2.0data status	okinstallation	princeton_trtdifferential loss correction	single-endedforward channel	channel 4reverse channel	N/Adate	2019/09/11time	03:31:11forward acquisition time	60.00reverse acquisition time	0.00gamma	496.2192k internal	0.2316k external	0.2316temperature offset calibration	0.9945default loss term (dB/km)	0.3790temperature slope calibration	1.0000multiplexer offset coefficient	1.0000multiplexer slope coefficient	1.0000fibre end	0.00T internal ref (°C)	29.45T ext. ref 1 (°C)	-0.30T ext. ref 2 (°C)	24.07length (m)	temperature (°C)	Stokes	anti-Stokes-747.200	187.289	-0.018	0.027
-746.185	-200.000	0.033	0.286
-745.171	116.759	-0.208	0.259
-744.156	-63.837	0.188	0.078
-743.142	339.042	-0.257	-0.507
-742.127	-12.686	0.020	-0.013
-741.112	-107.397	-0.073	0.016
-740.098	409.858	-0.116	0.250
-739.083	-105.760	0.097	0.022
-738.069	203.311	-0.185	0.290
-737.054	-85.365	-0.215	-0.068
-736.039	800.000	0.058	-0.177
-735.025	-85.794	-0.140	-0.044
-734.010	-110.448	-0.285	0.060
-732.996	-5.043	0.095	0.066
-731.981	-130.144	-0.127	0.018
-730.966	800.000	0.032	0.089
-729.952	-75.724	-0.104	0.037
-728.937	-184.379	-0.179	-0.003
-727.923	800.000	-0.126	-0.404
-726.908	151.014	-0.243	-0.334
-725.894	-104.683	-0.263	-0.061
-724.879	-200.000	0.041	-0.240
-723.864	-94.276	-0.340	0.094
-722.850	499.503	-0.064	-0.149
-721.835	-2.321	-0.297	-0.211
-720.821	-200.000	0.016	-0.076
-719.806	-101.879	-0.182	-0.044
-718.791	22.798	-0.269	-0.223
-717.777	-166.668	-0.241	0.010
-716.762	416.775	0.049	0.105
-715.748	-155.723	0.075	-0.005
-714.733	-104.929	0.023	0.005
-713.718	800.000	-0.051	0.197
-712.704	-77.718	-0.277	0.097
-711.689	37.275	0.123	-0.111
-710.675	-200.000	-0.161	0.000
-709.660	-70.061	-0.060	-0.023
-708.645	-86.151	-0.144	-0.045
-707.631	-53.300	0.274	-0.127
-706.616	-109.779	0.266	0.056
-705.602	236.206	0.111	-0.185
-704.587	117.045	-0.161	-0.201
-703.572	-155.428	0.211	0.014
-702.558	-44.153	-0.129	0.066
-701.543	-200.000	-0.024	-0.233
-700.529	800.000	0.090	0.273
-699.514	800.000	-0.038	-0.135
-698.499	-200.000	-0.041	-0.236
-697.485	800.000	0.032	-0.118
-696.470	111.341	-0.125	0.153
-695.456	-70.958	0.172	-0.066
-694.441	17.037	0.258	-0.206
-693.426	85.467	0.196	0.218
-692.412	12.728	-0.316	-0.247
-691.397	-200.000	0.015	-0.236
-690.383	-91.354	-0.552	-0.160
-689.368	-67.727	0.074	-0.029
-688.354	-68.721	0.325	-0.127
-687.339	688.983	-0.095	-0.252
-686.324	214.029	0.038	0.060
-685.310	181.837	-0.068	-0.101
-684.295	-67.669	-0.416	0.165
-683.281	-7.329	0.160	0.110
-682.266	-200.000	0.051	0.260
-681.251	-160.323	-0.292	0.016
-680.237	-77.830	0.383	0.134
-679.222	37.420	0.168	-0.151
-678.208	125.418	-0.160	-0.204
-677.193	-56.938	0.211	-0.094
-676.178	-123.592	0.363	0.058
-675.164	-89.834	-0.169	-0.050
-674.149	52.219	-0.132	0.128
-673.135	800.000	-0.079	0.226
-672.120	385.959	0.069	-0.143
-671.105	302.182	-0.078	-0.146
-670.091	-25.844	-0.120	-0.071
-669.076	220.512	0.062	0.101
-668.062	307.322	-0.104	-0.196
-667.047	-200.000	-0.036	0.217
-666.032	174.891	0.146	0.214
-665.018	129.424	-0.191	-0.247
-664.003	-1.102	-0.205	-0.147
-662.989	800.000	0.083	0.279
-661.974	554.291	-0.061	0.147
-660.959	-111.075	-0.461	-0.095
-659.945	36.594	-0.246	-0.219
-658.930	-36.166	0.075	-0.041
-657.916	800.000	0.056	-0.203
-656.901	16.042	0.208	0.165
-655.886	575.917	0.149	0.367
-654.872	345.882	0.102	0.202
-653.857	-168.152	-0.201	0.008
-652.843	-157.753	-0.092	0.006
-651.828	53.972	-0.019	-0.019
-650.814	-109.861	-0.396	-0.084
-649.799	-200.000	0.026	-0.171
-648.784	-184.835	-0.137	-0.002
-647.770	-125.937	0.280	-0.043
-646.755	108.349	-0.022	-0.027
-645.741	-200.000	-0.031	0.583
-644.726	21.402	0.047	-0.039
-643.711	-200.000	0.003	-0.109
-642.697	-119.271	0.115	-0.020
-641.682	740.223	0.103	-0.280
-640.668	-140.602	0.084	0.009
-639.653	-200.000	0.033	0.351
-638.638	800.000	-0.109	0.358
-637.624	800.000	-0.075	0.244
-636.609	390.665	0.178	0.374
-635.595	-161.763	0.035	0.002
-634.580	204.499	0.112	0.175
-633.565	326.823	-0.041	0.079
-632.551	-177.793	0.111	0.003
-631.536	800.000	-0.121	0.384
-630.522	-125.049	-0.071	-0.011
-629.507	-127.309	-0.362	-0.053
-628.492	17.391	0.106	0.085
-627.478	-67.572	-0.345	0.136
-626.463	-139.162	0.389	-0.042
-625.449	800.000	0.094	-0.349
-624.434	-27.329	-0.149	-0.087
-623.419	-22.758	-0.101	-0.061
-622.405	-200.000	0.034	-0.235
-621.390	10.242	-0.174	-0.133
-620.376	-73.239	-0.384	-0.142
-619.361	-103.787	-0.244	-0.058
-618.346	800.000	0.101	0.290
-617.332	-15.789	-0.193	-0.124
-616.317	717.997	0.034	0.092
-615.303	151.327	0.113	-0.155
-614.288	212.419	0.132	-0.210
-613.273	11.130	0.374	0.288
-612.259	800.000	-0.093	0.361
-611.244	157.789	0.062	-0.087
-610.230	186.802	-0.117	-0.175
-609.215	237.666	-0.121	0.203
-608.201	-41.185	0.162	-0.084
-607.186	-72.540	-0.305	-0.114
-606.171	78.017	0.221	0.237
-605.157	-200.000	0.025	0.216
-604.142	-66.493	-0.431	0.172
-603.128	-80.547	-0.191	0.064
-602.113	153.698	-0.127	0.175
-601.098	120.734	0.136	0.170
-600.084	150.567	-0.014	-0.019
-599.069	235.061	-0.084	0.140
-598.055	-82.941	-0.270	-0.088
-597.040	18.538	-0.109	-0.088
-596.025	-200.000	0.013	-0.212
-595.011	-200.000	0.016	-0.175
-593.996	-68.018	0.143	0.056
-592.982	-200.000	-0.003	0.340
-591.967	-41.880	0.167	-0.086
-590.952	35.265	-0.078	0.069
-589.938	18.767	0.145	0.117
-588.923	-55.311	0.123	0.056
-587.909	144.844	-0.082	0.110
-586.894	-170.465	-0.253	0.009
-585.879	-200.000	0.001	-0.110
-584.865	49.900	-0.173	-0.164
-583.850	33.021	-0.287	0.250
-582.836	-200.000	-0.079	-0.356
-581.821	-50.565	0.153	-0.073
-580.806	209.142	0.036	0.057
-579.792	-62.408	-0.144	-0.060
-578.777	-73.469	0.180	-0.066
-577.763	-200.000	-0.010	0.374
-576.748	158.727	-0.079	-0.111
-575.733	190.195	-0.179	-0.270
-574.719	-22.669	0.141	-0.086
-573.704	800.000	-0.027	0.093
-572.690	-17.395	0.217	0.137
-571.675	-178.155	-0.207	0.005
-570.661	21.972	-0.206	0.169
-569.646	-27.675	-0.186	-0.109
-568.631	126.376	0.217	-0.277
-567.617	-48.068	-0.349	0.170
-566.602	-79.669	-0.330	0.112
-565.588	41.577	0.107	-0.097
-564.573	-49.147	-0.172	-0.083
-563.558	-200.000	-0.020	-0.116
-562.544	-83.933	0.177	-0.057
-561.529	800.000	-0.121	-0.416
-560.515	358.910	0.110	0.221
-559.500	178.297	0.138	-0.203
-558.485	218.621	-0.139	-0.224
-557.471	800.000	-0.024	0.067
-556.456	-200.000	-0.012	-0.186
-555.442	-63.250	0.136	-0.056
-554.427	-200.000	-0.019	-0.190
-553.412	-200.000	0.001	-0.232
-552.398	-118.633	-0.137	0.024
-551.383	-57.900	-0.145	0.064
-550.369	36.664	0.068	0.060
-549.354	-86.448	0.091	0.028
-548.339	-200.000	-0.022	-0.240
-547.325	-200.000	-0.034	-0.217
-546.310	-130.277	-0.143	-0.020
-545.296	-200.000	-0.027	0.172
-544.281	0.448	0.286	0.206
-543.266	-46.688	-0.326	-0.160
-542.252	-200.000	0.008	0.264
-541.237	800.000	0.021	0.083
-540.223	-200.000	0.003	-0.013
-539.208	240.943	-0.031	-0.053
-538.193	389.319	-0.030	-0.062
-537.179	-26.613	-0.034	0.020
-536.164	79.327	0.191	0.206
-535.150	-168.549	0.310	0.012
-534.135	62.351	0.082	0.083
-533.121	568.162	0.082	-0.199
-532.106	-200.000	-0.014	-0.070
-531.091	-200.000	-0.013	0.164
-530.077	26.979	-0.179	0.151
-529.062	116.209	-0.319	0.393
-528.048	28.515	0.148	0.126
-527.033	-200.000	0.011	-0.130
-526.018	-57.492	-0.159	-0.070
-525.004	800.000	0.044	0.141
-523.989	800.000	0.101	0.289
-522.975	-200.000	0.017	0.075
-521.960	9.565	0.070	0.053
-520.945	232.119	0.125	0.207
-519.931	-12.057	-0.278	-0.183
-518.916	21.930	0.097	0.079
-517.902	65.876	0.316	-0.322
-516.887	-184.701	0.127	-0.002
-515.872	800.000	-0.016	0.057
-514.858	687.712	0.106	-0.277
-513.843	-19.166	-0.095	-0.059
-512.829	286.682	0.060	-0.109
-511.814	-115.677	0.195	0.037
-510.799	-16.565	-0.235	0.149
-509.785	-200.000	-0.000	0.046
-508.770	-200.000	-0.018	-0.100
-507.756	28.085	-0.273	0.231
-506.741	-71.180	0.163	0.061
-505.726	59.339	-0.143	-0.142
-504.712	65.256	0.198	-0.201
-503.697	-21.184	0.196	0.120
-502.683	-15.403	-0.099	0.063
-501.668	-115.451	-0.130	-0.025
-500.653	110.792	0.053	-0.065
-499.639	-126.157	-0.095	0.014
-498.624	294.951	0.102	-0.187
-497.610	-12.971	-0.210	0.137
-496.595	1.124	-0.106	0.076
-495.581	-200.000	0.055	0.313
-494.566	-128.852	-0.484	-0.068
-493.551	-29.629	-0.094	-0.054
-492.537	-81.882	-0.103	0.034
-491.522	800.000	-0.049	-0.206
-490.508	52.933	0.070	-0.067
-489.493	-200.000	0.004	0.040
-488.478	-91.555	0.280	-0.080
-487.464	127.240	-0.069	-0.087
-486.449	31.319	0.011	-0.009
-485.435	99.582	0.287	0.333
-484.420	89.001	-0.164	-0.183
-483.405	-135.389	-0.188	0.023
-482.391	235.643	-0.123	-0.204
-481.376	800.000	0.065	-0.185
-480.362	-76.687	0.301	-0.106
-479.347	-200.000	0.031	0.282
-478.332	102.339	0.178	-0.209
-477.318	-200.000	0.024	0.121
-476.303	363.841	-0.109	-0.219
-475.289	-72.062	-0.239	0.089
-474.274	-41.535	-0.249	0.128
-473.259	-50.111	0.371	-0.176
-472.245	-173.249	-0.413	0.013
-471.230	-141.421	-0.323	-0.033
-470.216	139.571	0.128	0.168
-469.201	165.753	-0.114	0.162
-468.186	-200.000	0.025	-0.188
-467.172	-200.000	-0.019	0.287
-466.157	17.448	-0.042	-0.034
-465.143	-99.419	-0.109	-0.027
-464.128	-134.865	0.249	-0.030
-463.113	233.872	0.027	0.044
-462.099	-134.695	-0.302	0.037
-461.084	14.985	-0.137	0.108
-460.070	-135.668	-0.183	-0.022
-459.055	-200.000	0.002	-0.107
-458.040	-200.000	0.006	0.038
-457.026	14.993	0.302	-0.237
-456.011	488.117	-0.062	0.143
-454.997	-200.000	0.009	0.060
-453.982	-200.000	0.026	-0.152
-452.968	6.079	-0.358	0.265
-451.953	-131.900	-0.282	0.037
-450.938	800.000	0.063	-0.232
-449.924	-178.391	-0.300	0.007
-448.909	-200.000	-0.010	-0.312
-447.895	206.941	0.116	-0.182
-446.880	800.000	0.018	0.075
-445.865	-110.982	0.171	0.035
-444.851	-157.521	0.395	0.024
-443.836	-8.107	-0.132	0.089
-442.822	232.619	-0.081	-0.134
-441.807	-16.521	-0.075	0.047
-440.792	54.149	-0.310	-0.298
-439.778	-24.375	-0.193	-0.115
-438.763	800.000	-0.093	-0.391
-437.749	-183.097	-0.278	0.005
-436.734	-200.000	0.010	-0.154
-435.719	-152.415	-0.214	-0.015
-434.705	-64.654	-0.357	-0.145
-433.690	-200.000	0.039	-0.242
-432.676	-135.197	0.048	-0.006
-431.661	800.000	-0.049	0.214
-430.646	646.263	0.103	0.263
-429.632	13.033	0.204	0.158
-428.617	-2.250	-0.289	-0.203
-427.603	-70.579	0.519	-0.196
-426.588	-101.531	-0.232	0.056
-425.573	-200.000	0.027	0.143
-424.559	60.270	-0.025	0.025
-423.544	55.812	-0.153	0.148
-422.530	248.566	0.072	0.122
-421.515	800.000	0.011	0.030
-420.500	-200.000	0.020	0.199
-419.486	282.455	-0.075	-0.134
-418.471	-200.000	-0.001	0.056
-417.457	25.069	0.063	0.052
-416.442	279.366	0.051	-0.091
-415.428	-200.000	0.044	0.231
-414.413	-58.786	0.149	0.065
-413.398	-3.138	0.129	-0.090
-412.384	305.431	-0.050	-0.093
-411.369	-174.220	0.325	-0.009
-410.355	-200.000	0.030	0.142
-409.340	-25.798	0.228	-0.134
-408.325	-10.844	0.145	0.096
-407.311	-85.915	-0.015	0.005
-406.296	800.000	-0.010	-0.036
-405.282	-200.000	-0.043	0.304
-404.267	-69.004	0.122	0.047
-403.252	-34.599	-0.239	0.131
-402.238	-79.232	0.172	-0.058
-401.223	-157.274	0.075	-0.005
-400.209	17.438	-0.160	0.127
-399.194	322.692	-0.113	0.216
-398.179	-142.026	-0.076	0.008
-397.165	-200.000	0.023	0.216
-396.150	-200.000	0.026	0.182
-395.136	-200.000	0.020	-0.246
-394.121	-67.739	-0.145	-0.057
-393.106	-91.921	0.116	0.033
-392.092	-90.860	0.345	-0.099
-391.077	127.949	0.078	-0.099
-390.063	-153.158	0.385	0.027
-389.048	-200.000	-0.003	-0.099
-388.033	-77.980	-0.094	-0.032
-387.019	-52.641	0.048	-0.022
-386.004	-13.674	-0.117	0.076
-384.990	545.365	0.122	0.291
-383.975	-133.788	0.092	0.011
-382.960	-71.974	0.425	-0.158
-381.946	-200.000	0.032	-0.272
-380.931	-56.386	-0.435	-0.193
-379.917	469.963	0.069	-0.154
-378.902	-50.144	-0.240	0.113
-377.888	-200.000	0.041	0.235
-376.873	-94.010	0.273	-0.075
-375.858	-200.000	0.007	-0.110
-374.844	203.683	-0.093	-0.144
-373.829	-15.616	-0.217	-0.138
-372.815	66.746	-0.116	-0.118
-371.800	-61.782	-0.069	-0.029
-370.785	-21.789	-0.232	-0.141
-369.771	-136.822	0.191	-0.022
-368.756	-200.000	0.003	0.072
-367.742	-7.136	0.230	0.156
-366.727	-86.697	-0.263	-0.080
-365.712	55.803	0.171	0.165
-364.698	-43.586	0.238	-0.120
-363.683	-154.678	-0.132	-0.009
-362.669	-186.538	-0.461	0.007
-361.654	-113.165	-0.107	-0.021
-360.639	800.000	-0.059	0.195
-359.625	-143.447	-0.297	0.028
-358.610	74.527	0.165	-0.173
-357.596	116.236	-0.238	-0.292
-356.581	-200.000	0.016	0.187
-355.566	-200.000	-0.009	0.097
-354.552	301.879	0.074	-0.136
-353.537	800.000	0.063	-0.230
-352.523	-200.000	-0.054	-0.319
-351.508	-200.000	-0.038	-0.189
-350.493	-83.455	-0.131	0.042
-349.479	-36.881	-0.152	-0.081
-348.464	88.417	0.076	0.084
-347.450	234.243	0.274	0.451
-346.435	-64.168	-0.175	0.071
-345.420	26.418	0.102	-0.085
-344.406	9.984	0.096	-0.073
-343.391	-67.466	0.327	-0.128
-342.377	-65.285	0.213	-0.086
-341.362	-144.482	-0.383	-0.035
-340.348	88.463	-0.159	-0.176
-339.333	-142.054	-0.178	0.018
-338.318	83.567	0.190	-0.207
-337.304	-200.000	-0.007	-0.040
-336.289	-125.592	0.412	0.062
-335.275	-115.879	0.216	0.040
-334.260	196.993	0.082	0.125
-333.245	-14.826	0.112	-0.071
-332.231	-64.325	0.113	-0.046
-331.216	-153.266	0.313	-0.022
-330.202	800.000	0.036	0.134
-329.187	-47.195	-0.339	0.165
-328.172	-169.751	-0.077	-0.003
-327.158	-200.000	-0.022	-0.138
-326.143	-64.730	0.156	0.063
-325.129	106.324	0.178	-0.210
-324.114	99.869	-0.166	-0.192
-323.099	-200.000	-0.078	-0.473
-322.085	20.071	-0.342	0.275
-321.070	-200.000	-0.061	-0.289
-320.056	80.397	-0.090	0.096
-319.041	800.000	-0.027	0.107
-318.026	-25.543	0.233	-0.137
-317.012	31.952	-0.185	0.159
-315.997	-60.194	-0.097	0.041
-314.983	800.000	-0.090	-0.340
-313.968	-100.413	-0.164	-0.040
-312.953	-200.000	0.008	0.121
-311.939	211.311	0.103	-0.162
-310.924	148.508	0.151	-0.203
-309.910	-200.000	-0.045	-0.222
-308.895	-65.960	-0.224	-0.089
-307.880	-200.000	-0.001	0.172
-306.866	-200.000	-0.003	-0.020
-305.851	-19.723	0.305	0.188
-304.837	-41.707	0.188	-0.096
-303.822	-84.388	-0.352	0.111
-302.807	-200.000	-0.001	0.222
-301.793	346.870	0.275	0.540
-300.778	178.184	0.153	0.222
-299.764	76.008	0.150	-0.158
-298.749	66.676	-0.003	0.003
-297.735	-62.428	-0.065	0.027
-296.720	-200.000	-0.016	0.143
-295.705	-173.354	0.259	-0.008
-294.691	-145.615	-0.158	-0.014
-293.676	-96.837	0.244	-0.064
-292.662	-200.000	-0.034	-0.309
-291.647	-52.398	0.334	-0.154
-290.632	800.000	-0.027	-0.116
-289.618	-94.170	0.109	-0.030
-288.603	-128.296	0.220	-0.031
-287.589	110.511	0.318	0.381
-286.574	-200.000	0.052	0.434
-285.559	433.809	0.086	-0.185
-284.545	-200.000	-0.033	-0.210
-283.530	234.320	-0.153	0.251
-282.516	27.524	0.347	-0.290
-281.501	46.577	0.141	0.130
-280.486	177.997	0.184	0.266
-279.472	-200.000	-0.004	0.230
-278.457	40.352	-0.184	0.165
-277.443	-200.000	-0.024	-0.142
-276.428	533.811	0.049	-0.116
-275.413	31.017	0.131	-0.112
-274.399	-200.000	0.020	-0.129
-273.384	-36.991	-0.111	-0.059
-272.370	-93.252	-0.247	-0.068
-271.355	-22.357	-0.370	0.223
-270.340	-200.000	0.073	-0.331
-269.326	800.000	-0.087	-0.318
-268.311	-76.664	-0.168	0.059
-267.297	-200.000	0.013	-0.126
-266.282	-42.356	0.176	0.089
-265.267	-87.919	-0.023	-0.007
-264.253	-13.843	0.125	0.080
-263.238	296.492	0.088	-0.161
-262.224	73.543	-0.123	0.128
-261.209	506.455	0.066	0.152
-260.195	-105.211	-0.236	-0.054
-259.180	91.539	-0.180	0.201
-258.165	-149.832	0.192	-0.015
-257.151	-200.000	0.004	0.138
-256.136	-89.390	0.309	-0.090
-255.122	-200.000	0.013	-0.203
-254.107	378.518	0.042	-0.085
-253.092	800.000	-0.100	0.278
-252.078	55.568	-0.094	0.090
-251.063	740.118	-0.079	0.211
-250.049	-200.000	0.019	-0.165
-249.034	483.447	0.034	-0.077
-248.019	800.000	0.059	-0.162
-247.005	-178.276	0.103	0.002
-245.990	-132.009	-0.363	0.047
-244.976	-200.000	-0.006	-0.043
-243.961	800.000	0.060	0.231
-242.946	198.561	0.025	-0.038
-241.932	-129.397	-0.234	0.032
-240.917	16.756	0.130	-0.102
-239.903	190.059	-0.202	0.301
-238.888	581.491	0.087	0.213
-237.873	473.422	0.094	0.210
-236.859	413.342	0.166	-0.351
-235.844	218.178	-0.116	-0.184
-234.830	60.492	-0.146	-0.144
-233.815	197.549	0.187	0.284
-232.800	304.869	-0.151	0.279
-231.786	-200.000	0.031	0.158
-230.771	-151.586	0.118	0.009
-229.757	64.481	-0.056	0.056
-228.742	-83.932	0.204	-0.064
-227.727	-39.253	-0.320	0.167
-226.713	632.447	-0.029	0.073
-225.698	-51.965	-0.127	0.058
-224.684	-84.485	0.216	-0.068
-223.669	216.634	0.095	-0.149
-222.655	228.472	0.100	-0.161
-221.640	753.464	-0.065	-0.174
-220.625	-130.285	0.283	0.038
-219.611	405.305	-0.245	0.512
-218.596	212.278	-0.141	0.221
-217.582	-200.000	0.031	0.260
-216.567	102.347	0.215	-0.249
-215.552	-200.000	0.001	-0.120
-214.538	-200.000	-0.042	0.387
-213.523	-136.987	0.511	0.058
-212.509	119.044	0.167	-0.205
-211.494	173.260	0.037	-0.053
-210.479	-200.000	0.075	0.381
-209.465	-145.487	0.291	0.026
-208.450	116.150	-0.225	0.274
-207.436	34.085	0.243	-0.210
-206.421	-57.677	0.028	0.012
-205.406	-171.125	0.230	0.008
-204.392	-70.850	0.092	0.034
-203.377	124.466	-0.179	0.223
-202.363	141.404	-0.139	-0.182
-201.348	-128.047	0.047	-0.007
-200.333	-200.000	-0.009	0.142
-199.319	72.070	0.215	0.222
-198.304	409.478	0.172	-0.362
-197.290	641.500	0.054	0.137
-196.275	-200.000	-0.060	0.307
-195.260	-179.691	0.034	-0.001
-194.246	-58.377	-0.330	-0.142
-193.231	36.718	0.042	-0.037
-192.217	-200.000	-0.007	0.069
-191.202	-54.699	0.280	-0.126
-190.187	51.754	-0.060	0.056
-189.173	-76.840	0.138	-0.048
-188.158	70.309	-0.043	0.045
-187.144	-200.000	-0.008	0.275
-186.129	-200.000	-0.000	0.140
-185.114	-200.000	-0.007	-0.258
-184.100	-143.219	0.143	-0.014
-183.085	-161.270	-0.204	-0.011
-182.071	148.921	-0.160	0.214
-181.056	28.779	0.270	-0.226
-180.042	-99.611	0.160	0.040
-179.027	800.000	0.131	-0.465
-178.012	-200.000	-0.006	-0.169
-176.998	-78.566	0.356	-0.121
-175.983	800.000	0.086	-0.338
-174.969	800.000	0.043	-0.180
-173.954	43.396	-0.157	-0.142
-172.939	800.000	0.082	0.322
-171.925	-75.676	0.258	-0.091
-170.910	156.752	0.276	-0.377
-169.896	800.000	-0.068	-0.199
-168.881	-78.520	0.256	-0.087
-167.866	102.821	0.063	0.074
-166.852	800.000	-0.061	0.231
-165.837	-15.428	-0.146	-0.092
-164.823	0.666	-0.158	-0.112
-163.808	-167.316	-0.205	0.008
-162.793	-133.354	-0.313	-0.039
-161.779	165.880	0.143	-0.200
-160.764	-200.000	-0.035	0.200
-159.750	-97.329	-0.083	-0.021
-158.735	-200.000	0.044	-0.240
-157.720	351.225	0.061	0.120
-156.706	82.724	-0.125	-0.135
-155.691	-53.374	0.138	-0.063
-154.677	110.148	0.121	0.144
-153.662	-200.000	-0.003	0.044
-152.647	-36.845	0.223	0.118
-151.633	-129.414	-0.273	0.038
-150.618	800.000	-0.011	-0.037
-149.604	-51.537	-0.218	-0.101
-148.589	75.855	-0.106	-0.111
-147.574	-161.747	0.127	0.006
-146.560	-98.863	-0.167	-0.042
-145.545	800.000	0.023	-0.069
-144.531	260.899	0.132	-0.225
-143.516	73.259	-0.083	-0.086
-142.502	137.108	0.042	-0.055
-141.487	-144.821	-0.206	0.019
-140.472	-65.040	-0.164	-0.065
-139.458	303.221	0.129	-0.236
-138.443	-115.982	-0.117	0.022
-137.429	-44.247	0.251	-0.124
-136.414	-127.217	0.108	0.016
-135.399	398.309	0.162	-0.336
-134.385	-199.139	0.502	-0.003
-133.370	-82.894	-0.485	0.155
-132.356	-107.352	0.236	0.051
-131.341	-91.370	0.116	-0.033
-130.326	81.790	-0.258	-0.276
-129.312	-200.000	0.066	0.335
-128.297	311.623	-0.051	-0.094
-127.283	0.334	-0.111	-0.078
-126.268	81.017	-0.344	0.367
-125.253	-81.448	-0.187	0.061
-124.239	-132.451	-0.218	-0.028
-123.224	-124.682	0.028	-0.004
