DTS Sentinel unit serial number:	SN413079Multiplexer serial number:	ORYXHardware model number:	OX4-SRSoftware version number:	ORYX F/W v4.00 Oryx Data Collector v3.7.2.0data status	okinstallation	princeton_trtdifferential loss correction	single-endedforward channel	channel 4reverse channel	N/Adate	2019/09/11time	16:15:11forward acquisition time	60.00reverse acquisition time	0.00gamma	496.2192k internal	0.2276k external	0.2276temperature offset calibration	1.0016default loss term (dB/km)	0.3790temperature slope calibration	1.0000multiplexer offset coefficient	1.0000multiplexer slope coefficient	1.0000fibre end	0.00T internal ref (°C)	43.37T ext. ref 1 (°C)	1.07T ext. ref 2 (°C)	39.55length (m)	temperature (°C)	Stokes	anti-Stokes-747.200	415.974	0.081	0.179
-746.185	-158.615	-0.169	0.010
-745.171	76.323	0.287	0.313
-744.156	-19.730	0.149	0.095
-743.142	-126.397	-0.235	0.036
-742.127	-200.000	-0.015	0.099
-741.112	-166.216	0.145	0.006
-740.098	298.202	-0.138	0.261
-739.083	-152.318	0.280	-0.021
-738.069	800.000	-0.039	0.167
-737.054	42.032	-0.257	-0.240
-736.039	-200.000	-0.030	-0.146
-735.025	-64.026	0.193	0.081
-734.010	800.000	-0.122	-0.356
-732.996	242.055	0.125	-0.216
-731.981	176.836	-0.127	0.191
-730.966	-108.062	-0.192	-0.043
-729.952	-4.045	-0.132	0.094
-728.937	-21.220	0.153	-0.096
-727.923	85.562	-0.169	-0.192
-726.908	-87.239	0.107	-0.033
-725.894	800.000	0.080	-0.345
-724.879	800.000	-0.052	-0.161
-723.864	-2.993	-0.108	-0.078
-722.850	-135.340	-0.098	-0.012
-721.835	-94.511	-0.184	-0.052
-720.821	-143.594	-0.287	-0.028
-719.806	371.111	-0.132	-0.277
-718.791	206.786	0.185	0.297
-717.777	-48.604	-0.288	0.143
-716.762	146.660	-0.179	0.248
-715.748	-200.000	-0.012	0.081
-714.733	442.743	0.042	-0.096
-713.718	-200.000	-0.024	0.197
-712.704	241.527	-0.119	0.206
-711.689	147.164	0.128	-0.178
-710.675	-107.211	0.297	0.067
-709.660	-34.722	0.205	-0.115
-708.645	-158.437	0.240	0.014
-707.631	800.000	0.040	-0.154
-706.616	-142.586	-0.361	-0.036
-705.602	85.534	0.099	0.112
-704.587	66.577	0.133	-0.139
-703.572	-20.370	-0.121	-0.076
-702.558	-200.000	-0.002	0.103
-701.543	-137.733	0.328	0.038
-700.529	-134.793	0.119	-0.015
-699.514	-71.112	-0.200	-0.078
-698.499	-79.054	0.060	-0.021
-697.485	-32.149	-0.217	0.125
-696.470	-200.000	0.030	-0.376
-695.456	-108.822	0.119	-0.026
-694.441	800.000	0.057	0.194
-693.426	212.683	0.205	0.332
-692.412	0.970	-0.168	0.124
-691.397	-200.000	0.043	-0.245
-690.383	-200.000	-0.006	-0.288
-689.368	-114.387	0.097	0.019
-688.354	-75.233	0.320	0.117
-687.339	61.043	-0.124	-0.126
-686.324	-119.713	0.343	-0.061
-685.310	381.478	-0.119	0.251
-684.295	146.119	-0.128	-0.177
-683.281	60.964	-0.112	-0.115
-682.266	-200.000	-0.053	-0.295
-681.251	137.336	-0.024	-0.032
-680.237	800.000	-0.117	0.356
-679.222	-156.020	0.215	-0.014
-678.208	-64.962	0.203	0.084
-677.193	589.184	0.015	-0.038
-676.178	-75.161	0.282	0.104
-675.164	260.408	0.180	-0.321
-674.149	-27.281	-0.302	0.181
-673.135	-45.228	-0.188	-0.096
-672.120	16.356	0.196	0.159
-671.105	85.680	-0.112	0.127
-670.091	40.415	0.142	0.131
-669.076	147.343	-0.082	0.113
-668.062	-200.000	-0.005	-0.229
-667.047	-116.980	0.081	-0.015
-666.032	219.926	0.208	0.342
-665.018	-200.000	-0.030	0.313
-664.003	-2.728	0.189	0.136
-662.989	-120.245	-0.057	-0.010
-661.974	488.405	0.097	0.228
-660.959	518.590	0.131	-0.315
-659.945	-126.607	0.183	-0.028
-658.930	125.126	-0.055	0.071
-657.916	136.537	-0.249	0.334
-656.901	-121.295	0.070	0.012
-655.886	-52.888	0.121	-0.057
-654.872	629.677	-0.012	-0.032
-653.857	800.000	-0.119	0.414
-652.843	-200.000	0.001	-0.073
-651.828	800.000	-0.079	0.266
-650.814	800.000	-0.059	-0.197
-649.799	-200.000	-0.018	-0.340
-648.784	-200.000	0.029	-0.190
-647.770	800.000	0.020	-0.056
-646.755	-172.407	-0.325	-0.011
-645.741	122.786	-0.047	-0.060
-644.726	17.045	-0.040	-0.033
-643.711	501.999	-0.103	-0.245
-642.697	166.439	0.134	0.196
-641.682	-154.123	0.253	-0.018
-640.668	-163.896	0.320	-0.015
-639.653	-113.820	-0.240	-0.048
-638.638	351.312	0.075	0.153
-637.624	234.323	-0.033	0.056
-636.609	-164.728	-0.223	0.010
-635.595	362.928	-0.137	-0.281
-634.580	800.000	0.040	-0.126
-633.565	284.359	0.204	-0.377
-632.551	65.755	0.113	-0.117
-631.536	-182.786	0.164	-0.003
-630.522	-200.000	0.010	0.093
-629.507	629.228	-0.080	-0.208
-628.492	800.000	-0.100	0.355
-627.478	322.273	-0.117	-0.229
-626.463	21.081	0.189	0.158
-625.449	800.000	0.053	0.182
-624.434	-127.078	-0.217	0.033
-623.419	461.651	0.090	-0.205
-622.405	-200.000	-0.019	0.209
-621.390	384.672	0.024	-0.050
-620.376	36.015	0.091	-0.082
-619.361	291.953	-0.089	0.166
-618.346	7.863	-0.245	0.189
-617.332	800.000	-0.089	-0.371
-616.317	-129.975	-0.393	0.055
-615.303	32.416	0.102	-0.090
-614.288	185.226	0.152	-0.231
-613.273	23.522	0.176	-0.148
-612.259	-200.000	-0.064	0.292
-611.244	647.350	-0.049	0.129
-610.230	-130.760	0.230	-0.032
-609.215	-200.000	0.027	-0.240
-608.201	-43.623	-0.284	0.147
-607.186	-200.000	0.015	-0.076
-606.171	800.000	0.040	-0.159
-605.157	-200.000	0.037	-0.190
-604.142	49.188	-0.177	-0.171
-603.128	317.488	-0.103	0.199
-602.113	176.049	-0.127	-0.188
-601.098	-200.000	-0.032	-0.230
-600.084	-135.289	0.074	-0.009
-599.069	-32.135	0.109	0.062
-598.055	-200.000	-0.006	0.113
-597.040	-36.341	0.037	0.021
-596.025	186.078	-0.083	-0.126
-595.011	-102.764	-0.159	-0.039
-593.996	-79.632	0.353	0.122
-592.982	-51.750	0.226	0.108
-591.967	-73.183	-0.624	-0.234
-590.952	-200.000	-0.004	-0.027
-589.938	303.175	0.142	-0.270
-588.923	15.754	0.353	-0.285
-587.909	434.546	0.055	-0.123
-586.894	-200.000	-0.020	0.105
-585.879	43.183	0.150	-0.140
-584.865	-87.847	-0.258	0.080
-583.850	-18.226	-0.158	-0.101
-582.836	46.462	0.051	0.049
-581.821	473.548	-0.033	-0.077
-580.806	9.938	0.154	-0.119
-579.792	800.000	-0.022	-0.070
-578.777	-57.416	-0.091	0.041
-577.763	-150.108	-0.131	0.010
-576.748	-162.857	0.349	0.017
-575.733	192.763	-0.035	0.054
-574.719	11.745	0.070	-0.055
-573.704	153.647	-0.368	-0.516
-572.690	287.677	0.062	-0.115
-571.675	28.428	0.087	0.075
-570.661	534.532	0.096	0.234
-569.646	-200.000	0.005	-0.442
-568.631	69.773	-0.062	-0.065
-567.617	-134.332	-0.311	-0.039
-566.602	72.910	-0.129	-0.138
-565.588	449.930	0.148	-0.334
-564.573	176.961	-0.170	-0.253
-563.558	-200.000	0.021	-0.513
-562.544	16.461	0.310	-0.251
-561.529	411.502	0.120	-0.260
-560.515	-200.000	0.003	0.031
-559.500	-200.000	-0.022	0.098
-558.485	-4.627	-0.141	0.100
-557.471	668.589	-0.128	-0.339
-556.456	195.933	0.013	-0.020
-555.442	800.000	0.123	-0.459
-554.427	-70.989	0.394	0.152
-553.412	-95.231	0.128	0.035
-552.398	800.000	-0.115	0.342
-551.383	-143.708	0.097	-0.009
-550.369	96.742	0.078	-0.092
-549.354	148.115	0.045	0.063
-548.339	61.315	-0.346	0.352
-547.325	-146.709	0.286	-0.025
-546.310	-44.442	-0.208	-0.107
-545.296	353.618	0.117	0.238
-544.281	800.000	-0.103	-0.298
-543.266	87.735	0.067	-0.076
-542.252	800.000	-0.084	0.262
-541.237	25.788	0.124	0.106
-540.223	-106.933	-0.161	0.036
-539.208	403.969	-0.111	-0.239
-538.193	-22.616	0.059	0.037
-537.179	27.691	-0.087	-0.075
-536.164	-70.240	-0.123	-0.048
-535.150	-78.374	-0.207	-0.073
-534.135	800.000	0.061	0.265
-533.121	19.108	-0.151	0.123
-532.106	-83.847	-0.259	0.084
-531.091	-44.386	-0.230	0.118
-530.077	-200.000	0.022	0.203
-529.062	-84.510	0.324	0.105
-528.048	800.000	0.064	0.186
-527.033	119.516	-0.327	-0.414
-526.018	649.513	-0.186	-0.486
-525.004	-200.000	0.022	0.162
-523.989	-98.386	0.264	-0.069
-522.975	-76.928	0.296	-0.106
-521.960	410.620	0.044	-0.094
-520.945	-71.109	-0.218	0.084
-519.931	-12.211	-0.247	-0.165
-518.916	800.000	0.131	-0.446
-517.902	-81.223	0.203	-0.068
-516.887	-200.000	-0.003	-0.020
-515.872	-200.000	-0.012	-0.062
-514.858	-38.526	-0.252	-0.136
-513.843	-170.684	-0.132	0.005
-512.829	-110.849	0.418	0.088
-511.814	-167.863	-0.319	0.013
-510.799	-200.000	-0.090	0.442
-509.785	-200.000	-0.019	0.432
-508.770	-52.750	-0.184	-0.087
-507.756	-12.386	0.195	-0.130
-506.741	251.510	-0.135	0.234
-505.726	-200.000	0.076	-0.392
-504.712	215.852	-0.108	-0.175
-503.697	-90.830	-0.286	-0.084
-502.683	800.000	0.179	-0.535
-501.668	-53.315	0.188	0.088
-500.653	-200.000	0.039	-0.356
-499.639	800.000	-0.021	-0.061
-498.624	12.170	0.129	0.101
-497.610	-22.800	-0.185	-0.114
-496.595	-117.013	0.124	0.023
-495.581	-119.661	-0.189	-0.033
-494.566	-200.000	-0.015	-0.148
-493.551	175.023	-0.106	-0.157
-492.537	-169.570	-0.305	0.011
-491.522	483.392	-0.127	-0.294
-490.508	800.000	0.050	-0.153
-489.493	-200.000	0.006	-0.267
-488.478	-72.280	0.437	0.165
-487.464	-136.070	0.098	-0.012
-486.449	-125.056	0.162	-0.025
-485.435	201.268	-0.316	0.496
-484.420	-40.673	0.258	0.136
-483.405	800.000	0.049	-0.205
-482.391	-40.243	0.124	0.066
-481.376	740.865	-0.039	0.107
-480.362	79.153	0.096	-0.105
-479.347	-100.092	-0.175	-0.045
-478.332	-200.000	-0.029	0.236
-477.318	734.767	0.041	0.111
-476.303	-200.000	-0.068	0.377
-475.289	-61.724	0.140	0.060
-474.274	-81.225	0.233	-0.078
-473.259	91.358	-0.210	0.241
-472.245	-200.000	0.050	0.319
-471.230	-90.926	0.237	0.070
-470.216	493.433	0.043	-0.101
-469.201	-35.487	-0.022	0.012
-468.186	517.732	-0.125	0.298
-467.172	189.725	0.235	-0.359
-466.157	-62.708	-0.320	0.135
-465.143	18.871	-0.371	0.303
-464.128	25.950	-0.080	0.068
-463.113	-78.013	-0.286	-0.100
-462.099	-130.564	-0.318	0.044
-461.084	676.012	-0.058	-0.154
-460.070	-82.698	0.199	-0.066
-459.055	201.487	0.294	-0.462
-458.040	24.466	-0.136	0.114
-457.026	98.752	0.218	0.256
-456.011	800.000	0.124	-0.414
-454.997	74.444	-0.260	-0.278
-453.982	-24.309	0.338	-0.206
-452.968	64.287	0.410	-0.421
-451.953	-107.351	-0.243	0.055
-450.938	-48.305	0.256	0.126
-449.924	-94.017	-0.174	0.049
-448.909	80.716	0.171	0.188
-447.895	-200.000	-0.016	0.222
-446.880	142.437	-0.094	0.127
-445.865	7.143	-0.120	-0.091
-444.851	11.397	-0.286	0.223
-443.836	-100.547	-0.238	-0.060
-442.822	351.887	0.148	0.298
-441.807	-154.265	-0.310	0.021
-440.792	200.512	0.194	-0.303
-439.778	-32.204	0.267	-0.152
-438.763	1.016	-0.143	0.104
-437.749	-62.359	0.142	0.060
-436.734	162.811	-0.150	0.215
-435.719	-200.000	-0.011	-0.082
-434.705	34.254	-0.214	0.190
-433.690	800.000	0.109	0.395
-432.676	153.662	-0.145	-0.202
-431.661	-200.000	0.018	-0.094
-430.646	4.845	0.180	-0.135
-429.632	-156.791	0.301	0.019
-428.617	87.275	-0.461	-0.519
-427.603	-51.462	-0.107	-0.051
-426.588	800.000	-0.053	0.169
-425.573	-200.000	0.040	-0.207
-424.559	-139.329	-0.308	-0.034
-423.544	68.412	-0.172	0.180
-422.530	-104.731	-0.181	0.042
-421.515	744.810	0.123	-0.338
-420.500	-84.081	-0.446	-0.144
-419.486	276.614	-0.072	-0.130
-418.471	-43.177	0.188	-0.097
-417.457	-92.902	0.115	0.033
-416.442	-48.469	0.160	0.078
-415.428	-200.000	0.028	-0.133
-414.413	-80.037	-0.348	-0.119
-413.398	-101.540	-0.219	0.054
-412.384	56.225	-0.281	-0.277
-411.369	91.065	-0.216	0.247
-410.355	-83.726	-0.143	0.046
-409.340	19.180	0.173	-0.141
-408.325	-122.057	0.337	0.056
-407.311	-175.348	-0.290	0.008
-406.296	-48.069	-0.235	0.115
-405.282	367.667	0.001	-0.002
-404.267	-168.842	0.579	0.022
-403.252	-200.000	-0.001	0.080
-402.238	-45.552	0.304	0.153
-401.223	492.829	-0.044	0.104
-400.209	8.285	-0.227	0.174
-399.194	30.246	-0.182	0.158
-398.179	152.007	0.065	-0.090
-397.165	-156.993	0.194	0.012
-396.150	74.197	-0.238	-0.255
-395.136	-23.642	0.304	0.186
-394.121	800.000	-0.048	-0.163
-393.106	-60.036	-0.060	-0.026
-392.092	348.891	-0.109	0.219
-391.077	800.000	0.082	-0.327
-390.063	-200.000	0.026	0.169
-389.048	-200.000	-0.009	-0.166
-388.033	159.435	-0.189	0.267
-387.019	-200.000	0.076	0.000
-386.004	800.000	0.057	-0.189
-384.990	316.053	-0.114	-0.219
-383.975	-76.607	0.101	0.036
-382.960	-140.839	0.185	0.019
-381.946	-200.000	-0.060	0.514
-380.931	-200.000	0.022	-0.214
-379.917	259.030	-0.139	0.243
-378.902	-86.284	-0.107	-0.034
-377.888	16.017	-0.114	-0.091
-376.873	800.000	-0.046	0.174
-375.858	-200.000	-0.026	0.466
-374.844	-109.455	-0.185	-0.040
-373.829	-27.726	0.101	0.059
-372.815	48.914	0.053	-0.051
-371.800	-176.984	-0.183	0.005
-370.785	31.380	-0.174	-0.152
-369.771	20.013	0.220	0.180
-368.756	57.314	-0.080	0.079
-367.742	-132.314	0.107	-0.014
-366.727	104.933	-0.093	-0.111
-365.712	-91.152	-0.227	0.066
-364.698	-200.000	-0.057	0.392
-363.683	800.000	-0.034	-0.142
-362.669	196.257	-0.149	-0.231
-361.654	800.000	0.052	-0.162
-360.639	800.000	0.068	0.193
-359.625	-12.573	0.160	0.106
-358.610	-81.383	-0.172	0.057
-357.596	735.325	-0.092	0.250
-356.581	321.401	0.057	0.111
-355.566	-35.004	0.177	-0.098
-354.552	-200.000	-0.004	0.031
-353.537	800.000	0.057	-0.174
-352.523	-141.561	0.183	-0.019
-351.508	-200.000	0.031	-0.295
-350.493	141.489	0.157	-0.211
-349.479	-93.962	-0.088	0.025
-348.464	-115.123	0.379	0.073
-347.450	221.895	-0.190	0.311
-346.435	-7.200	0.177	-0.122
-345.420	53.794	-0.241	-0.235
-344.406	-200.000	0.025	-0.130
-343.391	-200.000	0.012	0.126
-342.377	-18.241	0.122	0.077
-341.362	315.565	0.086	0.165
-340.348	-100.864	0.180	0.045
-339.333	730.566	0.097	-0.263
-338.318	-140.538	0.154	-0.016
-337.304	-22.887	-0.416	-0.255
-336.289	-130.190	-0.242	-0.033
-335.275	41.609	-0.146	0.134
-334.260	-7.782	-0.069	-0.047
-333.245	42.409	0.211	0.195
-332.231	800.000	0.025	0.086
-331.216	-200.000	-0.245	-0.001
-330.202	110.366	-0.074	0.090
-329.187	-200.000	0.028	0.138
-328.172	-72.401	-0.144	0.054
-327.158	-200.000	-0.034	0.236
-326.143	800.000	-0.058	-0.201
-325.129	-52.556	-0.036	0.017
-324.114	220.985	0.201	0.327
-323.099	-184.291	0.342	-0.006
-322.085	447.741	0.083	0.186
-321.070	14.924	-0.101	0.080
-320.056	118.384	-0.085	-0.107
-319.041	27.280	-0.212	0.181
-318.026	278.604	0.191	0.346
-317.012	-58.538	0.551	0.242
-315.997	800.000	0.043	0.188
-314.983	-5.080	0.128	-0.089
-313.968	127.437	0.225	-0.290
-312.953	-128.168	0.358	-0.052
-311.939	-161.051	-0.166	0.009
-310.924	-200.000	0.016	-0.161
-309.910	-200.000	0.023	0.185
-308.895	75.220	0.056	-0.060
-307.880	-160.615	-0.141	0.008
-306.866	544.465	-0.072	-0.175
-305.851	64.448	0.171	0.175
-304.837	358.526	-0.036	-0.072
-303.822	-200.000	0.025	-0.138
-302.807	-47.182	0.217	-0.107
-301.793	508.063	0.089	-0.209
-300.778	-162.291	-0.198	-0.010
-299.764	244.018	-0.085	-0.145
-298.749	-5.538	0.366	0.254
-297.735	-155.687	0.156	-0.010
-296.720	-72.220	0.331	-0.124
-295.705	43.288	-0.241	-0.223
-294.691	-200.000	-0.062	-0.367
-293.676	1.004	0.226	0.164
-292.662	-153.470	0.219	0.015
-291.647	44.440	0.090	-0.084
-290.632	-200.000	0.016	0.286
-289.618	23.533	0.130	0.109
-288.603	320.738	0.176	0.339
-287.589	-200.000	0.049	0.235
-286.574	-186.728	0.255	0.004
-285.559	745.242	-0.099	0.269
-284.545	-110.676	0.246	-0.052
-283.530	-143.926	0.121	-0.012
-282.516	800.000	-0.043	-0.172
-281.501	-84.594	0.100	-0.032
-280.486	-4.191	0.160	0.112
-279.472	-114.058	-0.133	0.026
-278.457	800.000	-0.174	0.512
-277.443	-200.000	0.005	0.204
-276.428	33.747	0.200	0.176
-275.413	73.897	0.083	0.088
-274.399	-200.000	0.023	-0.113
-273.384	-124.896	-0.155	-0.024
-272.370	238.229	0.104	-0.175
-271.355	-200.000	-0.003	0.191
-270.340	-55.642	-0.144	0.065
-269.326	-150.309	-0.109	-0.009
-268.311	83.738	-0.110	0.122
-267.297	-129.473	-0.050	-0.007
-266.282	-200.000	-0.007	-0.125
-265.267	326.927	0.128	-0.249
-264.253	800.000	0.089	0.300
-263.238	-5.170	0.031	0.022
-262.224	95.918	-0.242	-0.280
-261.209	-143.882	-0.228	-0.022
-260.195	-37.520	-0.072	0.039
-259.180	-200.000	-0.021	0.115
-258.165	-200.000	-0.013	-0.392
-257.151	-170.433	-0.136	-0.005
-256.136	147.529	-0.116	0.158
-255.122	-200.000	0.030	-0.348
-254.107	400.920	0.204	0.432
-253.092	-101.173	0.272	-0.067
-252.078	-72.831	0.182	0.068
-251.063	-94.707	0.102	-0.028
-250.049	19.897	0.149	0.122
-249.034	-93.366	0.325	-0.091
-248.019	180.072	0.202	-0.299
-247.005	-51.193	-0.150	0.071
-245.990	-78.828	0.274	0.094
-244.976	167.089	0.230	0.330
-243.961	-200.000	0.009	0.528
-242.946	359.896	-0.115	0.232
-241.932	-200.000	0.020	-0.306
-240.917	800.000	-0.054	0.168
-239.903	258.394	-0.185	0.323
-238.888	-200.000	0.009	0.174
-237.873	36.863	0.053	0.048
-236.859	42.895	-0.185	-0.171
-235.844	178.040	-0.014	-0.021
-234.830	-1.600	-0.350	-0.249
-233.815	-153.672	-0.323	-0.022
-232.800	-77.955	-0.073	0.026
-231.786	43.404	0.260	-0.240
-230.771	-109.193	0.206	-0.044
-229.757	9.697	-0.123	0.094
-228.742	260.137	0.194	0.338
-227.727	406.780	0.104	0.223
-226.713	446.269	0.065	-0.145
-225.698	217.736	-0.019	0.030
-224.684	646.593	0.042	0.108
-223.669	25.157	-0.186	0.156
-222.655	-71.155	0.166	0.063
-221.640	134.904	-0.190	-0.250
-220.625	85.505	-0.199	-0.220
-219.611	61.694	-0.086	-0.086
-218.596	-112.317	-0.240	-0.049
-217.582	-55.583	0.136	-0.062
-216.567	329.333	-0.055	0.106
-215.552	-1.461	-0.034	-0.025
-214.538	198.187	-0.088	0.135
-213.523	-158.559	0.302	0.018
-212.509	800.000	0.081	0.318
-211.494	189.527	-0.140	0.212
-210.479	24.652	0.191	-0.160
-209.465	33.996	0.338	-0.297
-208.450	145.390	0.141	-0.191
-207.436	92.197	-0.093	0.106
-206.421	366.583	0.144	0.293
-205.406	279.680	-0.119	0.214
-204.392	-153.872	-0.147	-0.010
-203.377	-121.222	-0.103	-0.017
-202.363	-105.311	0.104	-0.024
-201.348	134.751	-0.064	-0.083
-200.333	47.978	0.239	-0.225
-199.319	241.911	-0.171	0.289
-198.304	-200.000	-0.037	-0.191
-197.290	4.627	-0.433	0.321
-196.275	-42.896	0.078	-0.040
-195.260	-200.000	-0.003	-0.155
-194.246	-173.088	0.213	-0.007
-193.231	226.819	-0.074	0.122
-192.217	-32.424	-0.090	-0.051
-191.202	160.520	-0.114	-0.161
-190.187	531.494	-0.051	0.121
-189.173	550.794	-0.115	-0.279
-188.158	-200.000	-0.081	0.415
-187.144	-16.318	0.402	0.257
-186.129	800.000	0.062	0.229
-185.114	-124.999	0.115	-0.018
-184.100	199.878	0.049	0.076
-183.085	-193.103	-0.157	-0.001
-182.071	40.217	-0.291	0.264
-181.056	192.980	-0.108	0.165
-180.042	-200.000	-0.021	0.321
-179.027	270.217	-0.133	-0.235
-178.012	-155.851	0.091	0.006
-176.998	80.715	-0.113	0.123
-175.983	-105.119	-0.080	0.018
-174.969	8.803	0.139	-0.106
-173.954	-200.000	-0.032	-0.212
-172.939	-6.109	0.345	-0.238
-171.925	-134.198	-0.174	0.022
-170.910	268.082	0.068	0.121
-169.896	-123.473	-0.279	0.045
-168.881	-142.224	-0.167	0.017
-167.866	-200.000	0.007	0.101
-166.852	-43.738	0.155	-0.079
-165.837	800.000	-0.123	0.420
-164.823	-89.389	0.273	-0.081
-163.808	41.122	-0.040	-0.037
-162.793	-107.330	-0.072	-0.016
-161.779	-78.775	-0.225	0.077
-160.764	-200.000	0.030	0.355
-159.750	343.693	0.152	0.301
-158.735	31.783	0.067	0.058
-157.720	108.922	-0.118	0.142
-156.706	278.372	0.119	0.213
-155.691	517.786	0.135	-0.317
-154.677	-176.167	0.361	0.010
-153.662	800.000	0.047	0.202
-152.647	-200.000	0.013	0.209
-151.633	30.314	0.186	0.160
-150.618	-141.096	-0.166	0.017
-149.604	287.872	-0.156	0.284
-148.589	15.364	-0.113	-0.089
-147.574	-200.000	-0.003	-0.222
-146.560	149.399	0.114	-0.155
-145.545	-200.000	0.013	-0.086
-144.531	800.000	0.012	0.052
-143.516	500.670	-0.165	-0.383
-142.502	-153.645	-0.164	-0.011
-141.487	2.243	-0.207	0.151
-140.472	-200.000	-0.044	0.272
-139.458	-84.900	0.165	0.052
-138.443	-131.172	0.328	0.044
-137.429	-200.000	-0.001	0.004
-136.414	-200.000	-0.001	-0.258
-135.399	0.855	0.213	0.153
-134.385	48.762	-0.300	-0.283
-133.370	311.490	-0.030	-0.056
-132.356	-103.599	0.199	-0.047
-131.341	-12.335	0.265	0.174
-130.326	47.312	0.126	0.118
-129.312	6.551	-0.213	0.159
-128.297	800.000	0.042	0.164
-127.283	-110.042	0.115	-0.024
-126.268	306.283	-0.055	0.103
-125.253	-112.789	0.323	0.065
-124.239	770.917	-0.099	-0.273
-123.224	-200.000	-0.057	-0.332
-122.210	-200.000	0.086	0.455
-121.195	108.331	-0.105	-0.126
