DTS Sentinel unit serial number:	SN413079Multiplexer serial number:	ORYXHardware model number:	OX4-SRSoftware version number:	ORYX F/W v4.00 Oryx Data Collector v3.7.2.0data status	okinstallation	princeton_trtdifferential loss correction	single-endedforward channel	channel 4reverse channel	N/Adate	2019/09/11time	02:11:11forward acquisition time	60.00reverse acquisition time	0.00gamma	496.2192k internal	0.2318k external	0.2318temperature offset calibration	0.9947default loss term (dB/km)	0.3790temperature slope calibration	1.0000multiplexer offset coefficient	1.0000multiplexer slope coefficient	1.0000fibre end	0.00T internal ref (°C)	29.19T ext. ref 1 (°C)	-0.29T ext. ref 2 (°C)	23.24length (m)	temperature (°C)	Stokes	anti-Stokes-747.200	188.184	-0.089	-0.134
-746.185	-13.740	-0.025	0.016
-745.171	138.048	-0.131	-0.174
-744.156	507.305	0.173	0.405
-743.142	-18.801	-0.103	-0.065
-742.127	-200.000	-0.008	-0.198
-741.112	117.443	0.138	0.171
-740.098	284.685	0.072	0.132
-739.083	449.752	0.056	0.124
-738.069	-73.092	-0.086	-0.032
-737.054	-12.227	-0.091	0.060
-736.039	-200.000	0.025	-0.206
-735.025	402.869	0.202	0.431
-734.010	112.721	-0.142	-0.174
-732.996	-159.128	0.192	0.011
-731.981	86.139	-0.219	-0.244
-730.966	-35.844	0.450	-0.246
-729.952	-105.904	-0.060	-0.014
-728.937	-11.942	0.064	-0.043
-727.923	800.000	-0.024	-0.081
-726.908	-134.054	0.237	0.030
-725.894	-200.000	-0.015	0.144
-724.879	800.000	-0.059	0.198
-723.864	-123.672	-0.063	-0.010
-722.850	-27.168	-0.190	0.112
-721.835	92.489	-0.369	0.421
-720.821	70.268	0.092	-0.096
-719.806	-152.263	0.435	-0.032
-718.791	709.754	-0.094	-0.250
-717.777	800.000	0.034	-0.129
-716.762	35.901	-0.088	0.078
-715.748	422.637	-0.045	-0.098
-714.733	21.296	0.069	-0.057
-713.718	-183.006	-0.126	0.002
-712.704	-62.244	0.150	-0.063
-711.689	-36.825	0.230	0.125
-710.675	-200.000	0.061	0.285
-709.660	-64.723	-0.113	-0.046
-708.645	800.000	-0.049	-0.137
-707.631	-149.987	-0.186	-0.015
-706.616	-185.651	0.069	-0.001
-705.602	-200.000	0.048	-0.289
-704.587	389.969	-0.233	-0.488
-703.572	-100.515	-0.428	0.107
-702.558	-90.609	-0.364	0.106
-701.543	-110.859	0.368	-0.077
-700.529	-80.556	-0.247	-0.083
-699.514	215.359	-0.093	-0.150
-698.499	-52.889	0.193	-0.090
-697.485	800.000	0.095	-0.268
-696.470	84.415	-0.250	-0.277
-695.456	-13.820	0.152	-0.099
-694.441	320.697	-0.008	0.015
-693.426	-108.689	-0.175	-0.038
-692.412	-140.952	-0.496	-0.051
-691.397	800.000	0.088	-0.334
-690.383	265.155	-0.047	0.083
-689.368	352.771	-0.046	-0.093
-688.354	130.476	0.224	-0.290
-687.339	28.681	-0.113	-0.097
-686.324	800.000	0.018	0.071
-685.310	-40.341	-0.361	0.189
-684.295	383.977	-0.175	0.363
-683.281	-79.593	0.366	-0.125
-682.266	-101.781	-0.231	0.056
-681.251	93.118	0.273	0.312
-680.237	-100.185	0.035	-0.009
-679.222	17.359	-0.157	-0.126
-678.208	-77.583	0.299	-0.105
-677.193	712.623	0.039	-0.105
-676.178	800.000	-0.067	-0.226
-675.164	-123.392	0.115	-0.018
-674.149	-200.000	0.009	0.329
-673.135	-200.000	-0.038	-0.222
-672.120	-200.000	-0.008	0.190
-671.105	-101.605	0.289	-0.071
-670.091	30.933	0.129	0.112
-669.076	-200.000	0.055	0.316
-668.062	1.034	-0.186	-0.135
-667.047	-200.000	0.007	-0.230
-666.032	800.000	0.100	-0.291
-665.018	-200.000	0.018	-0.397
-664.003	20.430	-0.315	-0.257
-662.989	68.159	0.209	0.216
-661.974	0.141	-0.178	0.128
-660.959	715.936	-0.077	0.206
-659.945	501.372	-0.135	-0.315
-658.930	188.602	-0.018	-0.028
-657.916	-200.000	-0.034	-0.239
-656.901	-73.862	-0.367	-0.135
-655.886	-22.204	-0.195	-0.119
-654.872	-200.000	-0.009	0.251
-653.857	-74.078	0.409	0.150
-652.843	2.078	-0.092	-0.067
-651.828	-146.461	-0.325	0.029
-650.814	-138.604	0.027	0.003
-649.799	55.069	-0.257	-0.251
-648.784	-46.052	-0.074	-0.037
-647.770	69.638	0.078	0.081
-646.755	-200.000	0.001	-0.024
-645.741	-53.562	-0.203	-0.094
-644.726	-52.010	0.255	-0.119
-643.711	159.592	0.234	0.329
-642.697	8.761	-0.098	0.074
-641.682	-100.692	0.272	-0.068
-640.668	-200.000	-0.013	-0.069
-639.653	-200.000	-0.003	0.130
-638.638	-44.326	-0.074	-0.037
-637.624	800.000	0.041	0.159
-636.609	152.610	0.168	-0.231
-635.595	-200.000	0.065	0.305
-634.580	800.000	0.098	0.328
-633.565	800.000	0.056	0.195
-632.551	-55.355	-0.410	-0.185
-631.536	30.415	-0.051	0.044
-630.522	-47.923	0.242	0.118
-629.507	-71.114	-0.156	0.059
-628.492	-47.751	0.148	0.073
-627.478	-4.663	-0.112	0.078
-626.463	800.000	-0.082	-0.327
-625.449	123.634	-0.138	-0.175
-624.434	211.824	-0.191	-0.302
-623.419	-22.873	-0.157	0.095
-622.405	297.720	0.072	-0.134
-621.390	-47.774	0.219	0.107
-620.376	800.000	0.058	-0.170
-619.361	-52.165	-0.107	-0.050
-618.346	-200.000	0.023	-0.227
-617.332	262.686	-0.091	-0.158
-616.317	-16.870	0.048	0.031
-615.303	-8.418	0.106	-0.072
-614.288	-101.732	0.159	0.039
-613.273	413.803	0.128	0.273
-612.259	800.000	-0.019	-0.066
-611.244	149.762	-0.109	0.148
-610.230	-57.854	-0.255	-0.112
-609.215	-121.844	-0.057	0.009
-608.201	-200.000	0.032	0.196
-607.186	-141.533	0.081	0.008
-606.171	-106.210	-0.172	0.039
-605.157	-10.276	0.509	0.340
-604.142	44.883	0.026	-0.024
-603.128	-200.000	0.010	0.220
-602.113	-200.000	0.032	-0.441
-601.098	646.519	-0.022	-0.057
-600.084	247.764	-0.066	-0.112
-599.069	45.156	-0.182	0.169
-598.055	24.531	0.043	-0.036
-597.040	61.403	-0.073	0.073
-596.025	-95.922	-0.267	0.071
-595.011	156.767	-0.269	-0.374
-593.996	-146.771	0.068	-0.006
-592.982	-58.150	0.175	-0.077
-591.967	-200.000	-0.012	-0.079
-590.952	-200.000	-0.053	-0.510
-589.938	-92.305	0.152	-0.043
-588.923	-200.000	-0.007	-0.248
-587.909	324.654	-0.173	-0.333
-586.894	394.418	0.078	0.165
-585.879	228.335	-0.069	-0.112
-584.865	-19.119	-0.406	-0.254
-583.850	-133.355	-0.058	-0.007
-582.836	-36.327	0.331	-0.180
-581.821	230.300	-0.027	0.044
-580.806	137.053	0.059	0.077
-579.792	-200.000	0.010	0.249
-578.777	-16.979	0.173	0.110
-577.763	-118.421	-0.219	-0.039
-576.748	-89.228	0.373	-0.111
-575.733	-18.553	0.239	-0.150
-574.719	-143.028	-0.115	-0.011
-573.704	647.519	0.060	0.153
-572.690	-5.056	-0.164	0.114
-571.675	800.000	0.009	0.038
-570.661	169.549	0.211	-0.303
-569.646	591.256	0.180	0.446
-568.631	6.608	-0.167	-0.125
-567.617	-200.000	-0.047	-0.230
-566.602	-43.794	0.099	0.050
-565.588	112.470	0.261	0.317
-564.573	-104.414	-0.276	0.064
-563.558	459.986	-0.019	0.043
-562.544	-143.820	0.493	0.047
-561.529	-99.106	-0.053	-0.014
-560.515	800.000	-0.023	-0.077
-559.500	-130.979	0.086	-0.012
-558.485	-22.348	0.178	-0.109
-557.471	-200.000	0.017	-0.201
-556.456	-200.000	-0.001	-0.040
-555.442	-160.625	-0.170	0.009
-554.427	-146.328	0.088	-0.008
-553.412	-135.688	-0.217	0.026
-552.398	35.491	0.064	0.056
-551.383	-70.365	-0.091	-0.035
-550.369	-200.000	0.044	0.393
-549.354	140.189	0.172	0.228
-548.339	-200.000	0.009	-0.051
-547.325	-155.389	-0.137	0.009
-546.310	164.415	0.134	-0.190
-545.296	57.911	-0.079	0.078
-544.281	-200.000	-0.019	0.131
-543.266	31.195	-0.279	0.240
-542.252	-200.000	-0.007	-0.154
-541.237	-73.483	-0.395	-0.145
-540.223	-200.000	-0.062	0.443
-539.208	-195.153	0.162	0.001
-538.193	-38.836	-0.242	-0.128
-537.179	14.318	0.126	-0.098
-536.164	-152.864	0.207	-0.015
-535.150	-19.160	-0.335	-0.209
-534.135	-129.837	-0.444	0.061
-533.121	-200.000	-0.008	0.059
-532.106	-200.000	-0.021	0.264
-531.091	561.071	-0.083	0.201
-530.077	46.334	0.167	-0.156
-529.062	-200.000	0.031	-0.203
-528.048	286.258	0.170	-0.307
-527.033	-99.920	-0.224	-0.056
-526.018	-20.581	-0.221	0.136
-525.004	-100.748	0.088	0.022
-523.989	31.447	0.192	0.166
-522.975	-86.114	0.294	0.091
-521.960	130.300	-0.096	0.124
-520.945	-136.762	0.239	-0.028
-519.931	-56.609	-0.169	-0.075
-518.916	-101.395	-0.317	-0.078
-517.902	-33.064	-0.230	-0.128
-516.887	-135.605	0.128	0.015
-515.872	-59.785	0.292	0.126
-514.858	-48.208	-0.195	0.095
-513.843	-43.847	0.080	0.040
-512.829	322.610	-0.087	0.167
-511.814	-100.275	-0.503	0.125
-510.799	256.964	-0.083	0.144
-509.785	92.910	-0.203	0.230
-508.770	-200.000	-0.011	0.144
-507.756	-53.695	0.024	0.011
-506.741	20.442	-0.144	-0.117
-505.726	-175.959	0.283	0.008
-504.712	-162.776	-0.238	-0.012
-503.697	-152.816	-0.452	0.032
-502.683	-174.107	0.125	-0.004
-501.668	-22.707	-0.055	0.033
-500.653	108.218	-0.203	0.242
-499.639	-200.000	-0.012	0.064
-498.624	574.051	-0.108	0.264
-497.610	-101.013	0.400	-0.098
-496.595	800.000	0.017	0.053
-495.581	175.900	-0.197	-0.287
-494.566	-157.938	0.184	0.011
-493.551	324.297	0.180	0.344
-492.537	-59.700	-0.165	-0.071
-491.522	-181.453	0.356	-0.007
-490.508	-46.234	-0.171	-0.084
-489.493	-200.000	-0.008	0.236
-488.478	-82.536	0.274	0.089
-487.464	-200.000	-0.052	0.401
-486.449	252.327	-0.129	0.220
-485.435	-41.990	0.064	0.033
-484.420	-200.000	0.008	0.159
-483.405	-3.083	-0.058	-0.041
-482.391	-200.000	0.003	-0.021
-481.376	-143.990	0.038	0.004
-480.362	-200.000	-0.061	-0.464
-479.347	-41.553	-0.283	-0.146
-478.332	-200.000	0.028	0.391
-477.318	-200.000	-0.013	-0.059
-476.303	800.000	0.081	0.297
-475.289	-143.666	-0.117	0.011
-474.274	800.000	0.053	-0.173
-473.259	-11.498	0.196	-0.129
-472.245	-41.343	-0.112	0.058
-471.230	800.000	0.093	-0.293
-470.216	-80.860	0.076	-0.025
-469.201	-113.828	0.189	0.037
-468.186	-200.000	-0.010	-0.500
-467.172	57.563	-0.024	-0.023
-466.157	-115.108	0.224	-0.043
-465.143	78.955	0.255	-0.273
-464.128	-4.816	-0.301	0.208
-463.113	-200.000	-0.013	-0.379
-462.099	-146.640	0.170	0.015
-461.084	442.246	-0.064	0.140
-460.070	-23.253	0.061	-0.037
-459.055	-45.119	-0.242	-0.120
-458.040	466.394	0.071	-0.160
-457.026	800.000	-0.070	-0.197
-456.011	-31.980	-0.125	-0.070
-454.997	82.042	-0.078	-0.085
-453.982	-76.044	0.268	-0.095
-452.968	158.130	-0.064	0.089
-451.953	-119.608	-0.163	-0.028
-450.938	-200.000	0.021	0.354
-449.924	-177.001	-0.167	0.004
-448.909	-25.919	-0.206	0.122
-447.895	85.846	-0.166	-0.182
-446.880	-75.246	0.190	-0.068
-445.865	-142.895	-0.178	-0.017
-444.851	-40.287	0.139	0.072
-443.836	-140.936	0.174	0.018
-442.822	438.280	-0.107	-0.234
-441.807	800.000	-0.083	0.264
-440.792	180.728	-0.309	0.454
-439.778	-50.035	0.315	0.149
-438.763	302.822	-0.072	-0.133
-437.749	-200.000	-0.043	-0.205
-436.734	-72.910	0.135	-0.050
-435.719	-23.839	-0.266	-0.159
-434.705	134.075	-0.231	0.300
-433.690	-200.000	-0.022	-0.104
-432.676	-112.349	0.290	0.058
-431.661	-200.000	0.020	-0.200
-430.646	4.468	0.147	0.108
-429.632	-103.844	0.539	0.126
-428.617	403.540	0.182	-0.383
-427.603	-161.055	0.277	-0.014
-426.588	89.558	0.084	0.094
-425.573	-200.000	-0.038	0.418
-424.559	325.854	-0.125	0.239
-423.544	-57.794	-0.273	-0.119
-422.530	78.071	-0.135	-0.144
-421.515	-200.000	-0.049	0.405
-420.500	362.172	-0.135	-0.270
-419.486	-200.000	0.040	-0.227
-418.471	-59.888	-0.029	0.013
-417.457	-200.000	0.099	-0.504
-416.442	-200.000	-0.000	-0.039
-415.428	-200.000	0.005	0.200
-414.413	13.644	-0.126	0.098
-413.398	141.754	0.201	0.266
-412.384	61.833	-0.180	0.179
-411.369	-49.859	-0.393	0.187
-410.355	123.704	-0.017	-0.022
-409.340	44.408	-0.083	0.076
-408.325	28.172	-0.131	0.111
-407.311	-55.161	0.022	-0.010
-406.296	800.000	-0.073	0.204
-405.282	800.000	0.033	-0.096
-404.267	-200.000	0.014	0.203
-403.252	544.872	0.082	0.195
-402.238	-187.767	0.081	-0.001
-401.223	119.640	0.212	0.263
-400.209	52.947	-0.221	-0.211
-399.194	-25.376	0.191	-0.113
-398.179	-200.000	0.025	-0.197
-397.165	14.408	-0.064	0.050
-396.150	157.830	0.219	0.303
-395.136	-57.479	-0.165	0.073
-394.121	-119.076	-0.081	-0.014
-393.106	-142.323	0.327	-0.032
-392.092	800.000	-0.100	0.369
-391.077	-168.869	0.163	0.006
-390.063	75.742	-0.196	-0.206
-389.048	-10.237	-0.320	-0.212
-388.033	800.000	-0.028	-0.080
-387.019	369.234	0.037	0.074
-386.004	-115.268	-0.151	0.028
-384.990	-26.598	-0.261	-0.152
-383.975	-200.000	0.010	-0.118
-382.960	-200.000	0.008	-0.197
-381.946	-25.353	0.138	0.082
-380.931	-95.763	0.203	-0.054
-379.917	121.697	-0.140	0.175
-378.902	-200.000	-0.028	-0.270
-377.888	-200.000	-0.015	0.076
-376.873	151.024	-0.121	0.164
-375.858	-96.726	0.376	0.099
-374.844	-13.961	0.216	-0.139
-373.829	51.293	0.228	-0.216
-372.815	161.555	-0.081	0.113
-371.800	-51.266	-0.264	-0.123
-370.785	49.035	0.122	-0.114
-369.771	319.607	0.153	-0.289
-368.756	129.534	0.108	0.138
-367.742	-139.304	0.369	-0.040
-366.727	49.934	-0.184	-0.174
-365.712	389.421	0.221	-0.457
-364.698	153.660	-0.059	0.081
-363.683	-200.000	0.045	0.244
-362.669	45.042	-0.295	0.271
-361.654	-67.830	-0.144	0.056
-360.639	229.899	-0.088	-0.144
-359.625	-171.458	0.169	0.006
-358.610	25.259	-0.127	-0.105
-357.596	-167.041	-0.372	-0.015
-356.581	-127.175	0.108	0.016
-355.566	-193.764	-0.156	0.001
-354.552	746.311	-0.041	0.110
-353.537	-147.645	-0.190	-0.016
-352.523	8.551	0.191	-0.143
-351.508	130.193	0.201	-0.257
-350.493	594.993	0.041	-0.101
-349.479	-133.013	-0.122	-0.015
-348.464	100.226	0.200	0.231
-347.450	-24.219	0.164	0.098
-346.435	-200.000	0.030	-0.405
-345.420	800.000	0.053	0.157
-344.406	503.712	0.139	0.320
-343.391	-200.000	-0.012	-0.334
-342.377	-153.482	0.185	0.013
-341.362	-92.895	-0.137	0.038
-340.348	71.289	0.163	-0.168
-339.333	-69.159	-0.123	0.047
-338.318	81.127	-0.021	0.023
-337.304	-81.359	0.218	0.072
-336.289	-200.000	-0.008	0.118
-335.275	-41.160	0.288	-0.148
-334.260	26.362	-0.232	-0.193
-333.245	0.923	-0.153	0.109
-332.231	40.583	0.229	0.205
-331.216	-138.912	0.170	-0.018
-330.202	123.693	0.099	-0.124
-329.187	370.687	-0.138	0.278
-328.172	-111.974	0.324	0.065
-327.158	-200.000	0.012	-0.204
-326.143	-115.963	-0.201	-0.037
-325.129	800.000	0.020	0.066
-324.114	-120.318	-0.206	0.035
-323.099	465.570	-0.048	0.107
-322.085	234.757	-0.073	-0.119
-321.070	403.248	-0.173	0.363
-320.056	-181.290	0.243	0.005
-319.041	-200.000	-0.032	0.203
-318.026	118.218	-0.188	-0.231
-317.012	-118.704	0.465	0.082
-315.997	800.000	-0.088	0.255
-314.983	202.397	-0.075	-0.115
-313.968	-200.000	-0.054	0.234
-312.953	91.214	0.235	-0.262
-311.939	125.772	0.219	0.275
-310.924	111.527	0.166	0.199
-309.910	290.490	0.091	-0.164
-308.895	-79.582	0.211	-0.071
-307.880	-20.800	0.065	-0.040
-306.866	-112.165	-0.068	0.014
-305.851	800.000	-0.072	0.266
-304.837	154.513	-0.052	0.070
-303.822	127.971	0.077	0.098
-302.807	-200.000	-0.006	-0.144
-301.793	83.656	-0.272	0.295
-300.778	-200.000	-0.040	-0.307
-299.764	-138.598	-0.195	-0.021
-298.749	800.000	0.059	0.176
-297.735	-82.713	-0.162	0.052
-296.720	42.426	-0.167	-0.151
-295.705	-200.000	-0.030	0.249
-294.691	-119.163	0.263	0.046
-293.676	-5.736	0.227	-0.155
-292.662	-80.374	-0.134	-0.045
-291.647	-200.000	0.004	-0.026
-290.632	72.840	-0.041	-0.042
-289.618	-51.136	0.037	0.017
-288.603	-123.848	-0.184	0.029
-287.589	47.142	-0.193	0.179
-286.574	32.107	-0.232	0.199
-285.559	-200.000	0.001	0.259
-284.545	359.762	-0.161	-0.320
-283.530	23.352	-0.201	0.164
-282.516	24.211	-0.224	0.184
-281.501	-170.507	0.119	-0.004
-280.486	-135.032	-0.096	0.012
-279.472	-126.777	0.146	-0.021
-278.457	-32.772	-0.119	-0.066
-277.443	87.698	-0.163	-0.180
-276.428	617.998	-0.025	-0.061
-275.413	-20.753	0.200	0.122
-274.399	-124.323	-0.230	-0.036
-273.384	-200.000	-0.021	-0.199
-272.370	-200.000	-0.019	0.241
-271.355	-88.413	-0.185	0.055
-270.340	-107.494	-0.376	-0.082
-269.326	-111.944	-0.138	0.028
-268.311	-195.790	0.356	-0.003
-267.297	-154.303	-0.207	0.014
-266.282	101.406	-0.213	0.247
-265.267	-80.154	0.338	0.113
-264.253	83.988	-0.235	-0.255
-263.238	800.000	0.107	0.383
-262.224	-13.453	0.364	-0.234
-261.209	-81.017	0.299	0.098
-260.195	-94.453	0.149	0.040
-259.180	69.856	0.071	0.073
-258.165	-53.917	-0.192	0.087
-257.151	31.973	-0.142	0.121
-256.136	-125.217	-0.154	0.023
-255.122	571.915	-0.052	0.126
-254.107	169.574	-0.041	-0.059
-253.092	-107.721	-0.245	0.053
-252.078	-111.925	-0.133	0.027
-251.063	-118.293	0.166	-0.029
-250.049	-96.155	-0.256	0.067
-249.034	-121.275	0.277	0.046
-248.019	-51.661	-0.204	0.094
-247.005	24.129	0.079	-0.065
-245.990	100.686	-0.193	-0.222
-244.976	-97.763	0.163	-0.042
-243.961	369.563	-0.046	-0.093
-242.946	-7.241	-0.214	0.144
-241.932	72.318	-0.105	0.109
-240.917	80.309	-0.066	-0.070
-239.903	-37.537	-0.190	0.101
-238.888	4.705	0.073	-0.053
-237.873	-156.969	0.134	0.008
-236.859	-1.647	-0.216	0.151
-235.844	-200.000	0.017	-0.206
-234.830	744.589	-0.174	-0.465
-233.815	24.935	0.219	-0.181
-232.800	-90.234	-0.343	0.099
-231.786	101.336	0.195	-0.225
-230.771	-132.894	0.119	-0.015
-229.757	-55.230	0.125	-0.056
-228.742	-200.000	0.017	-0.235
-227.727	-156.000	0.318	0.020
-226.713	-105.432	0.353	-0.080
-225.698	-110.498	0.288	-0.059
-224.684	-93.034	-0.114	-0.032
-223.669	4.276	0.103	-0.075
-222.655	-128.921	0.145	0.020
-221.640	-200.000	0.029	-0.129
-220.625	670.652	-0.118	-0.304
-219.611	-200.000	0.002	-0.293
-218.596	-92.117	0.195	0.055
-217.582	-200.000	0.015	0.138
-216.567	-200.000	-0.004	0.200
-215.552	-200.000	0.049	0.364
-214.538	395.336	0.068	-0.142
-213.523	800.000	0.062	-0.244
-212.509	-59.664	0.149	0.063
-211.494	314.933	-0.085	-0.160
-210.479	75.836	0.045	0.047
-209.465	-200.000	0.016	-0.076
-208.450	-86.265	0.295	-0.090
-207.436	-55.629	0.277	-0.123
-206.421	800.000	0.104	0.383
-205.406	-200.000	-0.003	0.382
-204.392	-35.373	-0.350	-0.188
-203.377	12.347	0.182	-0.139
-202.363	800.000	-0.128	-0.375
-201.348	655.160	0.037	-0.094
-200.333	93.788	-0.128	-0.144
-199.319	-29.447	0.289	-0.164
-198.304	800.000	0.089	0.369
-197.290	322.322	-0.157	0.297
-196.275	8.527	-0.020	-0.015
-195.260	-36.037	0.316	0.169
-194.246	-73.648	-0.200	-0.072
-193.231	-200.000	-0.003	-0.262
-192.217	415.877	0.128	0.270
-191.202	-84.249	0.136	0.043
-190.187	93.345	0.162	-0.182
-189.173	241.239	-0.099	-0.164
-188.158	134.993	0.088	-0.114
-187.144	800.000	-0.033	-0.126
-186.129	-20.202	-0.068	0.042
-185.114	-64.987	-0.377	0.151
-184.100	252.671	-0.061	-0.103
-183.085	77.342	0.302	0.318
-182.071	800.000	-0.073	0.206
-181.056	-73.350	-0.218	-0.079
-180.042	-200.000	-0.021	0.123
-179.027	115.395	-0.187	-0.226
-178.012	14.545	-0.128	-0.099
-176.998	-98.269	0.082	0.021
-175.983	75.362	0.180	-0.188
-174.969	-200.000	0.009	0.063
-173.954	-73.835	0.331	0.119
-172.939	376.443	0.122	0.247
-171.925	432.946	-0.133	-0.286
-170.910	-86.975	-0.119	0.036
-169.896	121.836	-0.121	-0.150
-168.881	37.086	0.290	-0.254
-167.866	-122.129	0.360	-0.058
-166.852	-200.000	0.041	0.194
-165.837	800.000	-0.058	0.205
-164.823	-17.489	0.241	-0.150
-163.808	-200.000	0.034	-0.302
-162.793	-142.221	-0.294	-0.029
-161.779	-200.000	0.013	0.177
-160.764	-200.000	0.009	-0.346
-159.750	-200.000	0.006	-0.258
-158.735	-73.255	-0.115	0.042
-157.720	12.222	0.194	0.148
-156.706	313.059	0.043	0.080
-155.691	-200.000	0.014	-0.076
-154.677	157.041	0.080	0.110
-153.662	62.429	0.114	0.113
-152.647	-42.387	-0.154	-0.078
-151.633	-200.000	0.047	-0.243
-150.618	-91.858	-0.221	-0.062
-149.604	-200.000	0.069	0.422
-148.589	210.491	-0.025	-0.038
-147.574	-200.000	-0.004	0.156
-146.560	800.000	0.061	-0.176
-145.545	22.377	0.255	-0.206
-144.531	382.426	-0.131	0.267
-143.516	-200.000	-0.004	0.084
-142.502	-200.000	0.011	-0.053
-141.487	736.930	0.077	0.205
-140.472	341.990	0.053	-0.102
-139.458	-113.439	-0.109	0.021
-138.443	-66.750	0.421	-0.165
-137.429	471.340	-0.109	0.242
-136.414	28.640	0.049	-0.041
-135.399	-23.782	0.196	0.116
-134.385	92.129	0.058	-0.065
-133.370	-119.637	0.241	0.041
-132.356	351.920	-0.032	-0.062
-131.341	800.000	0.059	0.228
-130.326	158.221	0.017	-0.023
-129.312	-72.159	0.226	0.083
-128.297	-78.122	0.164	0.056
-127.283	-41.651	0.134	-0.068
-126.268	800.000	0.052	-0.209
-125.253	-14.708	0.303	-0.192
-124.239	800.000	0.011	0.044
-123.224	-200.000	0.000	0.156
