DTS Sentinel unit serial number:	SN413079Multiplexer serial number:	ORYXHardware model number:	OX4-SRSoftware version number:	ORYX F/W v4.00 Oryx Data Collector v3.7.2.0data status	okinstallation	princeton_trtdifferential loss correction	single-endedforward channel	channel 4reverse channel	N/Adate	2019/09/11time	05:43:11forward acquisition time	60.00reverse acquisition time	0.00gamma	496.2192k internal	0.2316k external	0.2316temperature offset calibration	0.9945default loss term (dB/km)	0.3790temperature slope calibration	1.0000multiplexer offset coefficient	1.0000multiplexer slope coefficient	1.0000fibre end	0.00T internal ref (°C)	29.42T ext. ref 1 (°C)	-0.25T ext. ref 2 (°C)	23.35length (m)	temperature (°C)	Stokes	anti-Stokes-747.200	-200.000	0.019	0.257
-746.185	785.641	-0.109	0.302
-745.171	-200.000	0.000	0.356
-744.156	-9.826	-0.103	0.069
-743.142	11.319	-0.169	0.131
-742.127	-200.000	0.020	0.202
-741.112	-40.411	-0.226	0.119
-740.098	-200.000	-0.004	0.498
-739.083	-114.576	0.104	-0.020
-738.069	480.323	-0.130	0.300
-737.054	-141.772	-0.043	-0.004
-736.039	652.073	0.085	-0.220
-735.025	123.511	0.382	0.485
-734.010	-59.609	-0.192	-0.083
-732.996	-113.776	0.141	-0.028
-731.981	800.000	-0.018	0.071
-730.966	-95.512	0.199	0.054
-729.952	-65.300	-0.251	0.102
-728.937	71.019	-0.031	-0.033
-727.923	-124.688	-0.361	-0.057
-726.908	-120.848	-0.355	-0.061
-725.894	-194.002	0.135	-0.001
-724.879	-200.000	-0.029	0.151
-723.864	211.514	0.136	-0.217
-722.850	-77.424	0.261	-0.092
-721.835	21.158	0.130	0.107
-720.821	800.000	-0.009	0.028
-719.806	-179.348	-0.161	0.004
-718.791	151.213	0.043	0.059
-717.777	-200.000	-0.035	-0.168
-716.762	-129.963	-0.052	0.007
-715.748	-200.000	0.030	-0.207
-714.733	520.943	-0.066	-0.157
-713.718	81.579	-0.062	-0.068
-712.704	184.883	0.020	0.030
-711.689	-12.870	-0.193	-0.127
-710.675	-71.772	-0.122	-0.046
-709.660	-200.000	-0.021	-0.190
-708.645	225.338	-0.058	0.096
-707.631	800.000	-0.088	0.254
-706.616	-200.000	-0.017	-0.143
-705.602	-155.002	-0.245	-0.016
-704.587	151.118	-0.253	-0.348
-703.572	207.988	-0.041	0.065
-702.558	188.230	-0.150	-0.226
-701.543	-200.000	-0.037	-0.254
-700.529	800.000	-0.078	-0.313
-699.514	110.991	0.065	0.079
-698.499	-74.636	0.330	0.120
-697.485	142.659	0.162	0.218
-696.470	183.800	0.079	0.118
-695.456	49.103	-0.161	-0.153
-694.441	270.503	-0.186	-0.330
-693.426	211.214	0.046	0.073
-692.412	800.000	-0.068	-0.229
-691.397	138.768	-0.148	-0.197
-690.383	4.020	-0.296	-0.219
-689.368	18.254	-0.126	-0.102
-688.354	-69.805	-0.304	-0.117
-687.339	16.281	0.453	0.361
-686.324	94.753	-0.209	0.240
-685.310	-142.226	-0.157	-0.016
-684.295	-139.733	0.067	0.007
-683.281	-200.000	0.028	-0.215
-682.266	-61.227	-0.156	-0.067
-681.251	-117.983	0.126	-0.023
-680.237	-200.000	0.018	-0.103
-679.222	800.000	0.028	-0.100
-678.208	-47.336	-0.214	0.105
-677.193	-82.006	-0.063	0.021
-676.178	800.000	0.048	-0.164
-675.164	-72.758	0.119	-0.044
-674.149	106.859	-0.075	0.090
-673.135	24.541	0.328	-0.274
-672.120	23.200	-0.044	-0.036
-671.105	-89.059	-0.096	0.029
-670.091	-200.000	-0.009	-0.114
-669.076	-93.218	-0.410	-0.115
-668.062	800.000	0.040	0.148
-667.047	-53.977	-0.099	0.045
-666.032	28.689	0.069	-0.059
-665.018	-181.990	-0.269	-0.005
-664.003	389.099	0.144	-0.301
-662.989	-200.000	0.058	0.322
-661.974	-200.000	-0.041	-0.259
-660.959	85.509	0.125	-0.139
-659.945	-200.000	-0.008	-0.380
-658.930	93.885	0.313	-0.358
-657.916	-24.574	-0.157	-0.094
-656.901	-127.409	-0.049	-0.007
-655.886	103.445	-0.130	0.154
-654.872	85.269	0.261	0.289
-653.857	-11.480	0.298	-0.198
-652.843	-169.387	-0.335	-0.012
-651.828	54.305	-0.217	-0.211
-650.814	-55.512	0.339	-0.153
-649.799	261.844	0.069	-0.120
-648.784	-84.385	-0.493	-0.157
-647.770	138.599	0.152	0.201
-646.755	416.593	-0.075	-0.161
-645.741	800.000	-0.066	0.263
-644.726	800.000	0.037	0.112
-643.711	-88.949	-0.234	0.070
-642.697	-22.837	-0.136	-0.083
-641.682	-40.036	-0.066	0.035
-640.668	-42.455	-0.085	0.044
-639.653	715.532	-0.075	0.201
-638.638	495.243	0.037	0.086
-637.624	262.993	0.020	-0.036
-636.609	-172.342	0.241	0.008
-635.595	282.328	-0.044	-0.079
-634.580	-87.193	-0.427	0.131
-633.565	-162.005	0.029	0.001
-632.551	800.000	-0.059	-0.240
-631.536	-200.000	0.028	-0.168
-630.522	169.358	-0.110	0.159
-629.507	-68.490	-0.090	0.035
-628.492	-200.000	0.034	-0.269
-627.478	-122.470	0.175	-0.029
-626.463	-124.174	-0.171	-0.027
-625.449	380.445	-0.190	-0.394
-624.434	-122.640	-0.428	-0.070
-623.419	-127.260	0.314	-0.046
-622.405	235.278	-0.169	0.281
-621.390	-200.000	0.261	-0.000
-620.376	-52.376	-0.086	-0.040
-619.361	370.992	-0.325	-0.665
-618.346	173.419	0.003	-0.005
-617.332	485.034	-0.142	-0.325
-616.317	-19.171	0.170	0.106
-615.303	275.018	-0.122	0.218
-614.288	-25.644	0.164	0.097
-613.273	-200.000	0.002	0.207
-612.259	800.000	-0.022	0.093
-611.244	38.627	-0.157	0.141
-610.230	-23.273	-0.132	-0.080
-609.215	-200.000	-0.008	0.060
-608.201	-132.254	-0.211	0.027
-607.186	-15.464	-0.232	0.149
-606.171	-62.343	-0.364	-0.152
-605.157	-157.921	-0.231	0.014
-604.142	-39.911	-0.072	-0.038
-603.128	63.791	0.184	-0.186
-602.113	800.000	0.022	-0.093
-601.098	-186.412	0.112	0.002
-600.084	42.242	0.107	0.098
-599.069	-10.474	0.100	0.067
-598.055	-27.633	0.434	-0.254
-597.040	261.195	0.056	0.097
-596.025	181.040	0.281	-0.416
-595.011	178.208	0.169	-0.248
-593.996	218.886	0.151	-0.242
-592.982	-57.097	0.067	-0.030
-591.967	-200.000	-0.027	-0.199
-590.952	105.574	-0.047	-0.056
-589.938	202.136	0.246	0.382
-588.923	474.153	0.056	-0.128
-587.909	-156.587	0.096	-0.006
-586.894	800.000	0.050	0.155
-585.879	-0.583	-0.199	0.142
-584.865	-93.797	-0.553	-0.153
-583.850	-200.000	0.057	0.269
-582.836	-31.924	-0.449	0.253
-581.821	-200.000	0.005	0.042
-580.806	-200.000	-0.025	-0.198
-579.792	197.297	0.129	-0.198
-578.777	-7.864	0.098	-0.067
-577.763	-33.330	0.158	0.088
-576.748	279.804	-0.088	0.158
-575.733	-91.013	0.112	-0.032
-574.719	-23.542	0.160	0.097
-573.704	-113.484	-0.450	-0.089
-572.690	-6.365	0.091	0.063
-571.675	-200.000	0.002	-0.147
-570.661	-46.641	0.231	-0.114
-569.646	-150.075	0.526	0.041
-568.631	-39.775	0.114	0.060
-567.617	37.740	0.078	-0.070
-566.602	26.603	0.063	-0.053
-565.588	-140.296	0.244	0.026
-564.573	-120.314	0.231	-0.040
-563.558	800.000	-0.074	-0.259
-562.544	-200.000	-0.025	0.208
-561.529	-72.591	0.296	0.110
-560.515	54.926	-0.059	-0.058
-559.500	-97.072	-0.318	-0.084
-558.485	-93.793	-0.336	0.093
-557.471	562.738	-0.035	0.085
-556.456	159.526	-0.069	-0.097
-555.442	107.597	-0.093	0.111
-554.427	219.205	-0.188	-0.302
-553.412	-200.000	-0.013	0.215
-552.398	27.863	0.356	-0.302
-551.383	800.000	-0.055	0.170
-550.369	12.848	-0.118	0.091
-549.354	371.774	-0.187	0.382
-548.339	722.366	0.066	-0.177
-547.325	800.000	-0.121	-0.348
-546.310	-133.116	-0.331	-0.042
-545.296	501.426	0.128	0.296
-544.281	315.656	0.080	-0.152
-543.266	54.814	-0.189	-0.183
-542.252	234.780	0.105	0.175
-541.237	375.673	0.100	-0.205
-540.223	-63.789	-0.106	0.043
-539.208	-44.180	-0.457	-0.230
-538.193	800.000	-0.035	0.110
-537.179	316.661	0.078	-0.148
-536.164	286.008	-0.156	0.283
-535.150	172.173	-0.231	0.333
-534.135	131.771	0.096	0.124
-533.121	-200.000	0.001	-0.048
-532.106	671.573	0.068	-0.176
-531.091	-21.778	0.229	-0.140
-530.077	-71.742	-0.143	-0.054
-529.062	273.720	0.060	-0.107
-528.048	-77.075	-0.256	-0.090
-527.033	-104.692	-0.166	-0.038
-526.018	-98.719	-0.246	0.063
-525.004	525.967	-0.114	-0.270
-523.989	-200.000	0.003	-0.149
-522.975	212.683	-0.101	-0.160
-521.960	-99.304	0.190	-0.048
-520.945	800.000	0.033	-0.108
-519.931	278.835	0.094	0.169
-518.916	368.994	0.085	0.172
-517.902	-3.787	-0.247	-0.172
-516.887	-2.297	-0.097	-0.068
-515.872	387.044	0.195	-0.404
-514.858	-200.000	0.011	-0.189
-513.843	-89.951	-0.062	-0.018
-512.829	202.535	-0.090	0.139
-511.814	-138.311	-0.319	0.035
-510.799	232.990	-0.161	0.265
-509.785	-114.063	0.261	0.051
-508.770	800.000	0.013	-0.045
-507.756	168.303	0.066	0.094
-506.741	171.611	0.116	0.167
-505.726	78.355	0.083	-0.089
-504.712	52.142	0.188	0.180
-503.697	245.179	-0.015	-0.026
-502.683	369.041	0.030	-0.061
-501.668	51.002	-0.069	0.066
-500.653	-59.757	-0.289	-0.124
-499.639	25.344	0.123	0.103
-498.624	-33.532	0.103	0.057
-497.610	800.000	0.043	0.178
-496.595	800.000	0.023	0.084
-495.581	-117.413	-0.355	-0.065
-494.566	-200.000	-0.039	0.183
-493.551	14.042	-0.400	0.312
-492.537	800.000	-0.081	0.234
-491.522	-128.168	0.359	-0.051
-490.508	-200.000	0.305	-0.001
-489.493	-200.000	-0.032	0.145
-488.478	-162.856	0.128	0.006
-487.464	-200.000	0.018	0.085
-486.449	510.160	0.043	-0.101
-485.435	-64.070	-0.224	-0.091
-484.420	-92.124	-0.027	0.008
-483.405	362.403	0.115	0.232
-482.391	74.795	0.077	-0.082
-481.376	256.092	-0.161	-0.277
-480.362	-200.000	-0.058	-0.307
-479.347	800.000	0.029	-0.089
-478.332	-148.071	0.322	0.027
-477.318	90.969	0.023	-0.025
-476.303	-64.179	-0.130	-0.053
-475.289	468.188	0.143	-0.321
-474.274	-110.650	0.072	-0.015
-473.259	379.785	0.054	0.110
-472.245	-200.000	-0.001	-0.007
-471.230	-12.612	-0.248	-0.162
-470.216	-53.930	0.105	-0.048
-469.201	124.978	0.073	0.092
-468.186	139.491	-0.102	0.135
-467.172	-34.529	-0.209	0.114
-466.157	800.000	-0.057	0.176
-465.143	141.060	-0.187	0.248
-464.128	3.402	-0.312	-0.228
-463.113	49.848	-0.106	-0.100
-462.099	-15.929	0.139	-0.088
-461.084	-83.328	-0.089	-0.028
-460.070	668.369	-0.070	-0.182
-459.055	-64.515	0.256	0.104
-458.040	328.931	-0.055	-0.105
-457.026	13.452	-0.356	0.277
-456.011	475.334	-0.163	0.368
-454.997	-200.000	0.060	0.272
-453.982	115.041	0.121	0.148
-452.968	-40.045	0.141	-0.074
-451.953	-21.199	0.101	0.062
-450.938	213.549	0.170	0.270
-449.924	-200.000	-0.009	0.069
-448.909	-15.077	-0.330	-0.212
-447.895	160.308	0.076	0.106
-446.880	-72.207	-0.045	0.017
-445.865	-28.881	-0.171	-0.098
-444.851	-97.896	0.176	-0.046
-443.836	186.388	-0.115	0.171
-442.822	38.057	0.092	-0.082
-441.807	135.386	0.193	-0.251
-440.792	98.970	0.082	-0.094
-439.778	-70.674	0.228	0.086
-438.763	-59.701	0.211	-0.090
-437.749	-200.000	0.008	-0.063
-436.734	-47.308	-0.133	0.065
-435.719	113.509	0.256	-0.312
-434.705	-147.964	0.127	-0.011
-433.690	-200.000	-0.053	0.248
-432.676	-98.511	0.143	-0.036
-431.661	-92.761	0.369	0.103
-430.646	127.172	-0.170	-0.216
-429.632	396.064	-0.026	-0.053
-428.617	800.000	0.156	0.450
-427.603	84.414	-0.104	0.114
-426.588	9.673	0.234	0.177
-425.573	-200.000	0.006	0.251
-424.559	800.000	-0.022	0.079
-423.544	366.836	-0.137	0.277
-422.530	-91.328	0.399	-0.114
-421.515	139.096	-0.059	0.077
-420.500	-64.932	-0.105	-0.042
-419.486	-200.000	-0.008	-0.276
-418.471	-127.260	-0.242	0.035
-417.457	-133.381	-0.136	-0.017
-416.442	-91.355	0.508	0.145
-415.428	4.520	-0.102	0.075
-414.413	800.000	-0.066	-0.255
-413.398	107.648	0.220	0.262
-412.384	-179.836	0.324	0.007
-411.369	-106.370	-0.021	0.005
-410.355	-159.698	0.150	0.008
-409.340	104.379	-0.085	-0.100
-408.325	-159.687	0.257	0.014
-407.311	-48.374	-0.129	-0.062
-406.296	-200.000	0.011	0.078
-405.282	543.113	-0.034	0.082
-404.267	-62.416	-0.165	-0.069
-403.252	170.328	0.169	-0.242
-402.238	-200.000	-0.010	0.151
-401.223	2.587	-0.046	0.033
-400.209	-56.382	0.069	-0.030
-399.194	457.194	0.037	0.082
-398.179	-200.000	0.026	-0.179
-397.165	-148.433	-0.200	0.016
-396.150	162.026	0.129	0.181
-395.136	-17.881	-0.247	0.155
-394.121	23.930	-0.229	0.188
-393.106	-200.000	0.037	-0.197
-392.092	165.306	0.144	0.203
-391.077	11.632	-0.090	0.069
-390.063	275.406	-0.100	0.176
-389.048	-158.008	-0.346	0.020
-388.033	11.038	0.255	-0.195
-387.019	-165.945	0.384	-0.016
-386.004	119.037	0.116	0.143
-384.990	-200.000	-0.043	-0.309
-383.975	52.277	-0.117	-0.112
-382.960	-31.352	0.031	-0.017
-381.946	-133.741	0.120	-0.015
-380.931	-75.909	0.175	0.062
-379.917	-182.384	-0.376	0.007
-378.902	-115.497	-0.125	-0.024
-377.888	303.399	0.048	-0.088
-376.873	95.288	-0.258	0.293
-375.858	-38.748	0.114	-0.060
-374.844	-200.000	0.010	-0.257
-373.829	64.199	-0.199	-0.200
-372.815	-200.000	-0.032	-0.313
-371.800	-130.801	0.076	0.010
-370.785	-187.956	-0.302	0.004
-369.771	-184.884	0.317	0.005
-368.756	-16.467	0.152	-0.096
-367.742	-32.608	-0.132	-0.074
-366.727	-2.074	-0.323	-0.226
-365.712	83.380	0.340	0.369
-364.698	-133.500	-0.159	0.020
-363.683	800.000	-0.034	0.114
-362.669	-109.977	0.143	0.030
-361.654	-200.000	0.062	0.520
-360.639	333.462	-0.044	0.085
-359.625	-200.000	-0.020	0.205
-358.610	349.119	-0.100	-0.197
-357.596	-10.254	-0.129	-0.085
-356.581	-161.205	0.139	-0.007
-355.566	-132.504	-0.252	-0.032
-354.552	-84.100	-0.143	-0.045
-353.537	1.514	-0.153	0.110
-352.523	-92.865	-0.015	-0.004
-351.508	155.718	0.278	0.382
-350.493	-75.207	0.292	-0.104
-349.479	800.000	0.104	-0.327
-348.464	-169.920	0.213	0.008
-347.450	209.543	0.149	0.234
-346.435	800.000	0.080	0.279
-345.420	-197.278	0.191	-0.001
-344.406	112.233	-0.215	-0.259
-343.391	15.663	-0.333	-0.261
-342.377	-69.444	-0.260	-0.099
-341.362	-200.000	-0.002	-0.081
-340.348	-200.000	0.028	0.241
-339.333	-147.224	-0.321	0.027
-338.318	-133.600	0.038	-0.005
-337.304	-200.000	-0.015	0.068
-336.289	-200.000	0.011	-0.087
-335.275	156.192	-0.076	-0.105
-334.260	207.812	0.229	-0.356
-333.245	-119.647	-0.053	-0.009
-332.231	3.417	0.097	-0.070
-331.216	398.931	-0.019	0.040
-330.202	800.000	-0.040	-0.162
-329.187	-82.035	0.112	-0.036
-328.172	-70.817	-0.136	0.051
-327.158	68.070	0.149	-0.152
-326.143	800.000	0.026	0.098
-325.129	781.153	-0.098	0.268
-324.114	-39.304	-0.087	-0.046
-323.099	-22.770	0.050	0.030
-322.085	-133.374	0.371	-0.046
-321.070	-109.400	0.089	-0.019
-320.056	291.174	-0.032	0.059
-319.041	800.000	-0.065	-0.198
-318.026	-82.975	0.515	-0.165
-317.012	-37.234	0.225	-0.120
-315.997	-169.932	-0.043	0.002
-314.983	349.865	0.104	0.204
-313.968	-200.000	0.038	0.184
-312.953	600.609	-0.059	-0.145
-311.939	-200.000	-0.036	-0.186
-310.924	63.432	0.288	-0.288
-309.910	800.000	0.036	-0.102
-308.895	-159.580	-0.153	0.008
-307.880	710.628	0.154	0.405
-306.866	-200.000	-0.014	-0.063
-305.851	-200.000	0.005	-0.063
-304.837	203.078	-0.126	-0.194
-303.822	-36.458	-0.071	0.038
-302.807	-17.235	-0.398	0.250
-301.793	-46.279	0.412	-0.202
-300.778	-119.631	-0.149	-0.026
-299.764	800.000	-0.010	0.030
-298.749	528.733	0.092	-0.215
-297.735	-200.000	-0.005	0.064
-296.720	-200.000	-0.023	-0.111
-295.705	800.000	0.007	-0.021
-294.691	583.807	0.026	-0.064
-293.676	-169.381	0.257	0.009
-292.662	-91.458	0.160	-0.046
-291.647	67.115	-0.203	-0.206
-290.632	800.000	-0.153	0.497
-289.618	217.345	-0.051	-0.081
-288.603	414.769	-0.015	0.033
-287.589	-118.518	-0.272	0.048
-286.574	-200.000	0.063	-0.297
-285.559	-39.852	-0.301	0.156
-284.545	-200.000	-0.029	-0.168
-283.530	800.000	0.029	-0.108
-282.516	-200.000	0.025	0.109
-281.501	18.293	-0.168	-0.134
-280.486	371.953	-0.096	-0.195
-279.472	122.719	-0.037	0.045
-278.457	800.000	0.045	-0.134
-277.443	30.032	-0.223	-0.189
-276.428	-28.511	-0.285	-0.163
-275.413	389.640	-0.124	0.255
-274.399	33.322	0.188	0.162
-273.384	50.296	0.084	-0.079
-272.370	15.769	0.305	-0.238
-271.355	372.347	0.142	0.287
-270.340	102.659	-0.040	-0.047
-269.326	59.395	-0.297	0.291
-268.311	-16.177	-0.141	0.089
-267.297	-92.541	0.155	-0.043
-266.282	-112.754	-0.281	-0.055
-265.267	-200.000	-0.003	-0.071
-264.253	211.243	0.177	-0.276
-263.238	106.097	-0.227	-0.268
-262.224	156.117	0.106	-0.146
-261.209	-62.912	0.115	-0.047
-260.195	-175.457	-0.148	-0.004
-259.180	108.005	0.126	0.149
-258.165	57.638	0.047	-0.046
-257.151	-148.291	0.169	0.014
-256.136	-116.163	-0.070	0.013
-255.122	800.000	0.049	0.192
-254.107	800.000	0.050	-0.208
-253.092	-36.292	-0.152	0.082
-252.078	-12.417	-0.255	-0.166
-251.063	38.605	0.099	-0.088
-250.049	-6.357	-0.247	-0.167
-249.034	51.037	-0.019	-0.018
-248.019	556.416	-0.041	-0.097
-247.005	-73.137	0.560	0.204
-245.990	36.978	0.200	-0.176
-244.976	-75.981	0.317	-0.111
-243.961	-85.782	-0.194	-0.060
-242.946	4.152	0.056	0.041
-241.932	-44.082	-0.143	-0.071
-240.917	-46.394	-0.121	-0.059
-239.903	20.437	0.214	0.171
-238.888	-200.000	-0.008	0.071
-237.873	-148.538	-0.214	-0.017
-236.859	-14.253	0.095	0.061
-235.844	-135.258	0.268	-0.032
-234.830	-200.000	0.006	0.084
-233.815	-69.553	0.208	0.079
-232.800	-13.530	-0.199	0.128
-231.786	497.872	-0.057	0.131
-230.771	154.198	-0.138	0.189
-229.757	-56.329	-0.150	-0.066
-228.742	-150.235	0.156	-0.012
-227.727	-79.417	-0.305	0.102
-226.713	-200.000	-0.043	0.272
-225.698	311.678	0.083	0.155
-224.684	-157.985	0.146	-0.009
-223.669	-3.987	0.242	0.167
-222.655	11.463	0.134	0.102
-221.640	-200.000	0.036	-0.353
-220.625	28.399	-0.050	0.042
-219.611	47.533	-0.099	0.091
-218.596	800.000	-0.015	-0.056
-217.582	-200.000	0.006	-0.102
-216.567	-110.723	0.128	0.026
-215.552	-75.642	-0.145	0.051
-214.538	93.814	0.232	0.261
-213.523	-68.427	-0.221	-0.085
-212.509	-71.252	0.327	-0.122
-211.494	109.458	-0.145	0.172
-210.479	-26.501	0.132	0.077
-209.465	772.091	0.048	-0.129
-208.450	-94.390	-0.337	-0.091
-207.436	-55.505	0.327	-0.145
-206.421	-200.000	-0.003	0.272
-205.406	41.741	-0.164	0.147
-204.392	-15.307	-0.020	-0.013
-203.377	-152.850	-0.209	0.015
-202.363	-200.000	0.014	-0.215
-201.348	800.000	0.058	-0.219
-200.333	95.398	-0.186	0.210
-199.319	-51.890	0.255	0.118
-198.304	-76.087	0.144	-0.050
-197.290	-64.707	0.252	-0.101
-196.275	118.806	0.062	-0.076
-195.260	-200.000	-0.038	0.339
-194.246	383.762	0.143	-0.291
-193.231	-125.502	0.019	0.003
-192.217	-18.789	0.117	0.072
-191.202	-38.844	-0.190	-0.099
-190.187	5.828	0.128	-0.094
-189.173	672.064	-0.045	0.116
-188.158	-34.254	-0.542	-0.295
-187.144	-125.102	0.360	-0.055
-186.129	-23.174	-0.221	-0.132
-185.114	31.843	0.202	0.173
-184.100	-200.000	-0.031	-0.259
-183.085	372.150	0.236	0.475
-182.071	550.884	-0.032	-0.076
-181.056	800.000	-0.049	0.187
-180.042	-43.106	0.446	-0.224
-179.027	-31.055	0.124	0.069
-178.012	-136.364	-0.151	0.017
-176.998	-22.536	-0.036	0.021
-175.983	62.170	0.052	-0.051
-174.969	-200.000	0.005	0.162
-173.954	283.441	-0.202	0.360
-172.939	-200.000	-0.021	-0.361
-171.925	-95.567	0.243	-0.064
-170.910	-0.747	0.124	0.087
-169.896	72.892	0.173	-0.178
-168.881	-200.000	-0.053	-0.284
-167.866	-200.000	0.029	0.385
-166.852	-60.852	0.028	0.012
-165.837	61.216	0.284	0.279
-164.823	56.826	-0.128	0.124
-163.808	-200.000	-0.021	0.164
-162.793	-200.000	-0.041	-0.000
-161.779	311.440	0.037	0.069
-160.764	14.457	0.129	0.100
-159.750	173.119	0.206	0.294
-158.735	-200.000	0.020	0.358
-157.720	140.612	0.118	-0.154
-156.706	-9.922	0.197	-0.130
-155.691	-90.709	-0.285	0.081
-154.677	267.647	0.139	0.241
-153.662	390.110	-0.038	-0.077
-152.647	-73.401	0.088	0.032
-151.633	340.603	-0.211	0.408
-150.618	167.186	0.173	-0.243
-149.604	-200.000	-0.013	-0.165
-148.589	-82.095	0.102	0.033
-147.574	155.712	0.141	0.192
-146.560	31.611	0.144	0.122
-145.545	-130.132	0.231	0.031
-144.531	-200.000	0.044	0.462
-143.516	-45.301	-0.477	0.234
-142.502	64.584	0.244	0.243
-141.487	276.225	-0.052	-0.091
-140.472	800.000	0.130	-0.559
-139.458	12.095	0.047	0.036
-138.443	429.269	0.081	0.173
-137.429	59.547	-0.173	0.168
-136.414	-48.801	-0.195	0.092
-135.399	-200.000	0.007	-0.142
-134.385	181.236	-0.174	-0.252
-133.370	-200.000	-0.017	0.120
-132.356	38.041	-0.072	0.064
-131.341	-133.087	0.024	-0.003
-130.326	-81.054	0.419	0.137
-129.312	800.000	-0.111	0.305
-128.297	-154.444	0.349	-0.023
-127.283	-200.000	-0.006	0.150
-126.268	-61.608	0.171	0.071
-125.253	-16.877	-0.281	0.176
-124.239	-112.484	0.315	0.062
-123.224	-104.741	0.149	0.034
-122.210	-200.000	0.011	0.053
