DTS Sentinel unit serial number:	SN413079Multiplexer serial number:	ORYXHardware model number:	OX4-SRSoftware version number:	ORYX F/W v4.00 Oryx Data Collector v3.7.2.0data status	okinstallation	princeton_trtdifferential loss correction	single-endedforward channel	channel 4reverse channel	N/Adate	2019/09/12time	01:35:10forward acquisition time	60.00reverse acquisition time	0.00gamma	496.2192k internal	0.2309k external	0.2309temperature offset calibration	1.0089default loss term (dB/km)	0.3790temperature slope calibration	1.0000multiplexer offset coefficient	1.0000multiplexer slope coefficient	1.0000fibre end	0.00T internal ref (°C)	32.92T ext. ref 1 (°C)	2.07T ext. ref 2 (°C)	27.24length (m)	temperature (°C)	Stokes	anti-Stokes-747.200	560.635	0.078	0.191
-746.185	-72.938	-0.164	-0.061
-745.171	109.549	0.070	-0.085
-744.156	84.060	0.065	0.073
-743.142	-86.994	0.033	0.010
-742.127	-200.000	-0.109	0.000
-741.112	-200.000	-0.037	-0.206
-740.098	-200.000	0.005	0.228
-739.083	-105.566	0.550	0.127
-738.069	73.730	-0.136	0.145
-737.054	-170.189	-0.356	0.013
-736.039	-71.534	0.293	-0.111
-735.025	63.464	0.402	0.409
-734.010	383.570	-0.134	-0.280
-732.996	145.145	-0.195	-0.265
-731.981	55.253	0.093	-0.092
-730.966	-174.609	0.217	0.006
-729.952	800.000	-0.060	-0.170
-728.937	-67.662	-0.263	0.105
-727.923	-28.882	-0.418	-0.244
-726.908	-33.102	-0.014	-0.008
-725.894	-24.534	-0.250	-0.151
-724.879	-143.426	-0.440	0.043
-723.864	27.967	-0.153	-0.131
-722.850	-200.000	-0.027	0.183
-721.835	-200.000	0.060	0.289
-720.821	-189.808	0.214	-0.002
-719.806	197.926	-0.105	0.163
-718.791	-200.000	-0.009	-0.055
-717.777	5.345	0.118	-0.088
-716.762	241.364	-0.103	-0.174
-715.748	14.776	0.206	-0.163
-714.733	-200.000	-0.069	0.419
-713.718	-85.062	-0.224	-0.071
-712.704	-111.504	0.278	-0.057
-711.689	43.554	0.057	0.053
-710.675	800.000	-0.029	-0.107
-709.660	378.642	-0.144	0.299
-708.645	-60.324	0.020	-0.009
-707.631	418.172	-0.046	0.100
-706.616	-200.000	-0.111	0.000
-705.602	24.924	0.357	0.300
-704.587	-45.150	0.078	-0.039
-703.572	-200.000	-0.001	-0.122
-702.558	-94.481	0.352	0.097
-701.543	35.039	-0.163	0.145
-700.529	443.642	0.223	-0.496
-699.514	517.663	-0.110	0.261
-698.499	-200.000	-0.034	0.402
-697.485	142.249	0.040	-0.054
-696.470	-200.000	0.032	-0.237
-695.456	-70.698	0.180	0.069
-694.441	104.134	0.275	-0.328
-693.426	-200.000	-0.017	0.255
-692.412	-44.315	-0.159	-0.081
-691.397	394.204	-0.208	0.439
-690.383	-104.262	0.062	0.015
-689.368	-41.483	-0.067	0.035
-688.354	628.397	-0.114	-0.291
-687.339	800.000	-0.076	0.305
-686.324	800.000	0.069	0.245
-685.310	-200.000	-0.086	-0.480
-684.295	23.943	-0.326	-0.272
-683.281	-35.441	-0.095	0.052
-682.266	-200.000	0.005	-0.056
-681.251	206.290	0.271	0.428
-680.237	800.000	-0.028	-0.110
-679.222	383.034	0.170	-0.353
-678.208	9.882	-0.010	0.007
-677.193	490.854	-0.106	-0.245
-676.178	-200.000	0.034	0.171
-675.164	-118.467	-0.071	0.013
-674.149	-150.385	-0.164	0.013
-673.135	29.218	0.213	0.183
-672.120	-200.000	0.001	0.028
-671.105	-133.762	-0.313	-0.040
-670.091	239.670	-0.077	-0.131
-669.076	800.000	0.051	-0.196
-668.062	-200.000	0.007	-0.088
-667.047	-200.000	-0.035	-0.239
-666.032	708.576	0.112	-0.300
-665.018	-144.450	0.157	-0.015
-664.003	372.650	0.038	-0.078
-662.989	-133.654	-0.084	-0.011
-661.974	-56.168	-0.161	-0.072
-660.959	-24.135	-0.109	-0.066
-659.945	-105.004	0.426	-0.099
-658.930	-98.466	-0.067	0.017
-657.916	-200.000	0.018	-0.147
-656.901	800.000	0.051	0.154
-655.886	-121.212	0.141	0.024
-654.872	-200.000	0.030	0.378
-653.857	-23.000	0.055	0.034
-652.843	-200.000	-0.008	0.140
-651.828	-55.159	-0.258	0.118
-650.814	-80.280	-0.258	0.087
-649.799	59.342	0.116	-0.116
-648.784	-119.877	-0.179	0.031
-647.770	157.898	0.084	0.118
-646.755	81.673	-0.175	0.191
-645.741	-200.000	-0.055	-0.612
-644.726	-113.650	0.193	-0.038
-643.711	-112.044	-0.309	0.063
-642.697	-35.106	0.066	0.036
-641.682	-74.416	0.120	-0.044
-640.668	-76.686	-0.174	0.062
-639.653	-109.811	0.335	-0.071
-638.638	-153.629	-0.135	-0.009
-637.624	253.323	-0.261	0.452
-636.609	-13.786	-0.133	-0.087
-635.595	-200.000	-0.059	0.401
-634.580	-130.144	-0.174	0.024
-633.565	-79.814	-0.139	-0.047
-632.551	89.389	0.185	0.209
-631.536	-117.691	-0.141	-0.026
-630.522	3.615	0.092	0.068
-629.507	153.841	-0.116	0.161
-628.492	-62.475	0.102	0.043
-627.478	391.000	0.044	0.093
-626.463	-127.073	0.210	-0.031
-625.449	-197.727	0.200	0.001
-624.434	-133.325	-0.121	0.015
-623.419	-200.000	-0.016	-0.134
-622.405	800.000	0.083	-0.259
-621.390	-200.000	-0.012	-0.477
-620.376	-60.788	0.243	-0.104
-619.361	133.290	-0.298	0.390
-618.346	-200.000	0.041	-0.402
-617.332	-92.682	-0.393	0.111
-616.317	-25.271	-0.132	0.079
-615.303	-122.427	0.205	-0.034
-614.288	-200.000	0.012	-0.365
-613.273	-149.469	0.295	0.024
-612.259	130.091	-0.108	-0.139
-611.244	-149.309	0.141	-0.011
-610.230	800.000	-0.134	-0.545
-609.215	-136.970	0.162	-0.019
-608.201	-62.789	-0.048	-0.020
-607.186	-123.273	-0.257	0.042
-606.171	123.305	0.112	-0.141
-605.157	-166.276	-0.394	0.017
-604.142	-142.796	0.168	0.017
-603.128	-200.000	0.008	0.249
-602.113	800.000	-0.021	-0.092
-601.098	-10.332	0.120	-0.080
-600.084	-136.337	-0.212	0.025
-599.069	-47.280	-0.264	0.130
-598.055	169.141	-0.126	-0.182
-597.040	-66.664	-0.146	0.058
-596.025	800.000	0.024	-0.092
-595.011	-90.548	-0.272	-0.080
-593.996	-200.000	-0.013	0.181
-592.982	250.762	0.106	0.182
-591.967	50.011	-0.283	0.269
-590.952	-169.524	0.180	-0.007
-589.938	-62.754	-0.135	-0.057
-588.923	-200.000	-0.002	0.148
-587.909	-95.817	-0.242	-0.065
-586.894	65.913	-0.140	-0.143
-585.879	45.827	-0.022	0.020
-584.865	-97.307	0.164	0.043
-583.850	95.181	0.164	-0.188
-582.836	-187.606	-0.351	-0.005
-581.821	131.291	0.043	0.056
-580.806	-53.800	-0.268	-0.124
-579.792	-10.079	0.075	0.050
-578.777	-56.198	-0.120	0.054
-577.763	314.520	0.034	0.064
-576.748	-150.626	0.281	0.022
-575.733	800.000	0.129	-0.497
-574.719	800.000	-0.031	-0.120
-573.704	69.860	0.234	0.244
-572.690	170.895	0.062	0.090
-571.675	-182.101	-0.268	0.005
-570.661	-153.233	-0.139	0.010
-569.646	496.436	0.105	-0.245
-568.631	-53.657	0.442	0.204
-567.617	705.452	0.094	0.250
-566.602	135.902	-0.123	-0.162
-565.588	800.000	0.096	0.406
-564.573	-125.055	0.294	0.046
-563.558	-87.327	-0.196	-0.060
-562.544	-200.000	0.003	0.109
-561.529	89.350	-0.042	-0.048
-560.515	710.037	-0.064	-0.170
-559.500	66.620	0.082	0.084
-558.485	-113.246	0.159	0.031
-557.471	-200.000	0.016	-0.401
-556.456	-138.271	-0.238	0.027
-555.442	-200.000	-0.022	0.147
-554.427	-37.160	0.485	-0.262
-553.412	96.245	-0.091	-0.104
-552.398	-51.714	-0.354	0.166
-551.383	92.513	-0.173	0.197
-550.369	800.000	0.058	0.199
-549.354	131.152	0.068	0.088
-548.339	800.000	0.039	0.113
-547.325	-200.000	-0.083	-0.385
-546.310	800.000	-0.129	-0.404
-545.296	-143.660	-0.157	-0.015
-544.281	154.102	-0.137	-0.189
-543.266	-200.000	-0.003	-0.088
-542.252	-200.000	-0.030	-0.411
-541.237	25.942	-0.331	-0.278
-540.223	-164.723	-0.175	-0.008
-539.208	-156.498	-0.077	-0.005
-538.193	40.888	-0.178	-0.162
-537.179	-83.095	-0.382	0.124
-536.164	-7.307	-0.371	-0.253
-535.150	-76.194	0.183	-0.065
-534.135	252.362	0.052	0.090
-533.121	-31.732	0.008	-0.005
-532.106	215.665	0.079	-0.127
-531.091	-87.284	-0.208	0.064
-530.077	398.955	-0.073	0.154
-529.062	-200.000	0.041	-0.366
-528.048	44.361	-0.274	0.254
-527.033	77.963	0.149	-0.160
-526.018	-200.000	-0.007	0.192
-525.004	47.737	-0.173	0.162
-523.989	-9.812	0.028	0.019
-522.975	-110.487	0.210	0.044
-521.960	231.419	0.078	-0.129
-520.945	617.548	0.115	-0.290
-519.931	-78.105	0.433	0.150
-518.916	-53.607	0.276	-0.127
-517.902	144.610	0.196	-0.263
-516.887	-197.801	-0.113	-0.001
-515.872	294.165	-0.131	-0.241
-514.858	192.492	-0.067	-0.103
-513.843	-200.000	-0.007	-0.134
-512.829	-158.594	-0.055	-0.003
-511.814	-200.000	0.040	-0.222
-510.799	800.000	0.044	0.127
-509.785	524.450	0.047	0.111
-508.770	-48.908	-0.516	-0.249
-507.756	93.052	-0.079	-0.090
-506.741	185.232	-0.097	-0.146
-505.726	-200.000	0.052	-0.320
-504.712	-159.084	0.290	0.017
-503.697	-103.668	0.289	-0.068
-502.683	-200.000	-0.022	-0.235
-501.668	800.000	-0.059	0.205
-500.653	-200.000	0.003	0.370
-499.639	92.087	0.127	-0.143
-498.624	409.380	0.101	-0.216
-497.610	-200.000	0.008	-0.147
-496.595	-19.242	0.122	0.076
-495.581	-200.000	0.022	-0.104
-494.566	122.747	-0.048	-0.060
-493.551	-82.103	-0.393	0.129
-492.537	67.907	-0.080	-0.082
-491.522	193.736	0.103	-0.157
-490.508	-200.000	0.012	0.114
-489.493	35.723	-0.038	0.034
-488.478	-200.000	0.049	-0.296
-487.464	129.497	-0.070	0.090
-486.449	-200.000	-0.074	-0.332
-485.435	-200.000	0.067	-0.384
-484.420	-200.000	-0.017	-0.533
-483.405	134.212	-0.111	0.145
-482.391	86.336	-0.121	-0.135
-481.376	800.000	-0.048	0.134
-480.362	-131.296	-0.214	0.029
-479.347	800.000	-0.040	-0.128
-478.332	-98.237	0.025	0.006
-477.318	800.000	-0.130	0.393
-476.303	216.774	-0.114	-0.183
-475.289	-71.214	0.125	0.047
-474.274	-121.110	0.217	-0.037
-473.259	-200.000	-0.009	0.312
-472.245	-67.168	-0.076	0.030
-471.230	-123.215	0.180	0.029
-470.216	800.000	-0.019	-0.066
-469.201	163.616	0.333	-0.471
-468.186	715.533	-0.036	-0.095
-467.172	-105.475	0.130	-0.030
-466.157	-130.575	-0.045	0.006
-465.143	-200.000	0.068	0.356
-464.128	-200.000	-0.015	0.103
-463.113	-189.826	0.269	-0.003
-462.099	-135.036	-0.237	-0.029
-461.084	54.385	-0.122	-0.118
-460.070	690.023	0.040	-0.106
-459.055	800.000	0.029	-0.086
-458.040	-132.361	0.307	0.040
-457.026	533.908	-0.113	0.268
-456.011	-200.000	0.056	0.394
-454.997	-83.841	-0.172	-0.055
-453.982	-193.945	0.130	0.001
-452.968	-64.336	0.204	-0.083
-451.953	-27.729	-0.299	-0.174
-450.938	67.574	-0.087	0.090
-449.924	47.552	0.085	-0.080
-448.909	-200.000	-0.016	0.089
-447.895	-170.348	0.157	0.006
-446.880	800.000	-0.063	0.230
-445.865	-200.000	-0.011	-0.210
-444.851	-200.000	-0.002	-0.239
-443.836	166.242	0.074	-0.105
-442.822	800.000	0.048	-0.187
-441.807	-73.041	-0.220	-0.081
-440.792	105.746	0.101	-0.120
-439.778	-200.000	0.012	0.253
-438.763	800.000	0.099	0.358
-437.749	-77.576	-0.167	0.058
-436.734	-106.493	-0.193	0.043
-435.719	-82.565	-0.220	0.072
-434.705	-1.470	0.188	-0.133
-433.690	-171.385	-0.307	0.010
-432.676	255.917	0.103	-0.178
-431.661	-200.000	0.051	-0.255
-430.646	-112.185	-0.254	-0.051
-429.632	-169.173	-0.260	0.010
-428.617	187.749	0.173	0.259
-427.603	-142.280	-0.140	-0.014
-426.588	167.757	0.101	0.144
-425.573	-200.000	0.063	-0.579
-424.559	-141.477	0.138	-0.014
-423.544	-37.247	0.106	-0.057
-422.530	183.998	-0.081	0.121
-421.515	-52.203	0.502	0.233
-420.500	-4.243	-0.275	0.191
-419.486	-170.902	0.153	0.005
-418.471	-150.614	0.441	-0.034
-417.457	-162.079	0.540	-0.027
-416.442	376.493	-0.020	-0.041
-415.428	-47.100	-0.179	-0.088
-414.413	480.715	-0.031	-0.072
-413.398	22.538	0.031	-0.025
-412.384	-67.418	-0.281	-0.111
-411.369	38.049	0.139	0.124
-410.355	8.193	0.166	-0.125
-409.340	-200.000	-0.031	0.208
-408.325	-200.000	-0.051	-0.329
-407.311	-57.724	0.097	-0.042
-406.296	800.000	-0.014	0.045
-405.282	164.199	0.198	0.279
-404.267	-112.631	0.021	0.004
-403.252	800.000	-0.046	0.182
-402.238	36.017	-0.231	-0.204
-401.223	800.000	0.042	-0.176
-400.209	143.905	0.102	0.136
-399.194	-71.623	0.173	-0.065
-398.179	-1.163	0.068	-0.048
-397.165	610.581	-0.016	-0.041
-396.150	-200.000	-0.008	0.116
-395.136	698.190	0.032	-0.085
-394.121	140.134	0.155	-0.205
-393.106	16.929	-0.260	0.206
-392.092	135.777	-0.159	0.207
-391.077	399.204	0.140	0.294
-390.063	-200.000	-0.025	-0.128
-389.048	-200.000	-0.008	0.108
-388.033	-96.700	0.021	-0.006
-387.019	72.702	-0.122	-0.128
-386.004	-132.768	0.107	-0.014
-384.990	-97.553	-0.269	-0.070
-383.975	594.363	-0.036	0.089
-382.960	-94.004	0.058	0.016
-381.946	-53.896	-0.276	-0.126
-380.931	-5.188	-0.135	-0.093
-379.917	214.574	-0.139	0.220
-378.902	-49.018	-0.300	-0.144
-377.888	-2.438	-0.160	-0.112
-376.873	-200.000	0.028	0.235
-375.858	516.562	0.103	0.242
-374.844	-79.222	-0.109	-0.037
-373.829	800.000	-0.030	-0.113
-372.815	73.544	-0.236	0.247
-371.800	-92.968	0.242	0.067
-370.785	-160.091	-0.183	0.010
-369.771	66.273	0.233	0.237
-368.756	79.261	-0.283	0.303
-367.742	46.396	0.048	-0.045
-366.727	-200.000	-0.028	-0.187
-365.712	-46.361	0.303	0.149
-364.698	-200.000	-0.011	0.494
-363.683	-44.104	0.138	0.069
-362.669	6.135	0.067	0.050
-361.654	-97.925	0.207	0.053
-360.639	-69.809	-0.388	-0.148
-359.625	48.982	0.262	0.246
-358.610	800.000	-0.073	0.242
-357.596	179.880	-0.166	-0.243
-356.581	-89.554	-0.427	-0.125
-355.566	95.971	-0.056	-0.065
-354.552	-105.628	-0.221	0.050
-353.537	-94.781	-0.094	-0.026
-352.523	-56.492	0.144	0.064
-351.508	-68.662	0.563	0.218
-350.493	-200.000	-0.009	-0.136
-349.479	274.216	-0.087	0.154
-348.464	-6.938	0.290	0.197
-347.450	-62.173	0.679	0.283
-346.435	336.265	0.105	0.205
-345.420	33.461	0.047	-0.040
-344.406	-108.532	0.250	-0.054
-343.391	-105.854	0.365	-0.082
-342.377	750.153	-0.070	0.188
-341.362	-184.461	-0.394	0.006
-340.348	10.100	0.352	0.268
-339.333	41.735	-0.272	0.246
-338.318	-200.000	0.001	0.250
-337.304	800.000	-0.064	0.261
-336.289	-200.000	-0.027	0.245
-335.275	-96.349	-0.080	-0.021
-334.260	18.754	-0.236	-0.189
-333.245	117.311	0.213	-0.262
-332.231	800.000	-0.062	-0.188
-331.216	-50.195	-0.016	-0.008
-330.202	391.814	-0.132	0.273
-329.187	-200.000	0.001	-0.124
-328.172	44.607	0.118	-0.108
-327.158	-200.000	0.007	0.036
-326.143	122.598	0.109	-0.136
-325.129	44.388	0.270	0.247
-324.114	-160.208	0.322	0.017
-323.099	87.450	-0.100	-0.111
-322.085	-62.528	0.138	-0.057
-321.070	238.629	0.124	-0.206
-320.056	216.907	-0.109	0.174
-319.041	-37.211	-0.308	-0.165
-318.026	678.985	-0.091	-0.237
-317.012	-120.242	0.337	-0.057
-315.997	30.832	-0.316	0.270
-314.983	435.061	-0.121	0.263
-313.968	-200.000	-0.001	0.025
-312.953	800.000	-0.120	-0.460
-311.939	800.000	-0.052	-0.212
-310.924	800.000	0.101	0.343
-309.910	585.741	0.071	0.174
-308.895	-106.985	-0.179	0.040
-307.880	265.366	-0.061	0.106
-306.866	110.822	-0.046	0.055
-305.851	91.739	0.102	-0.114
-304.837	341.236	-0.072	-0.140
-303.822	28.229	-0.197	-0.166
-302.807	-200.000	-0.031	-0.185
-301.793	91.339	-0.173	0.193
-300.778	29.185	0.072	-0.061
-299.764	-200.000	-0.004	-0.082
-298.749	-10.390	-0.086	0.057
-297.735	-27.664	0.193	0.112
-296.720	-161.428	-0.274	0.014
-295.705	8.805	0.106	0.080
-294.691	-52.042	-0.303	0.141
-293.676	-75.081	0.297	-0.106
-292.662	800.000	-0.052	-0.173
-291.647	675.569	-0.036	-0.094
-290.632	42.837	0.082	-0.075
-289.618	-200.000	0.039	0.220
-288.603	-55.139	-0.228	-0.102
-287.589	-200.000	-0.019	0.357
-286.574	64.439	0.209	-0.211
-285.559	300.202	-0.085	0.157
-284.545	-200.000	0.020	-0.127
-283.530	72.590	0.147	0.153
-282.516	235.504	0.274	-0.451
-281.501	340.263	0.063	0.123
-280.486	-60.165	-0.102	0.043
-279.472	800.000	-0.079	-0.281
-278.457	15.087	-0.477	0.373
-277.443	-123.865	-0.257	-0.040
-276.428	-56.687	0.320	0.141
-275.413	-35.797	-0.292	0.158
-274.399	-25.449	-0.198	0.117
-273.384	-84.111	0.248	0.078
-272.370	-18.274	-0.234	-0.146
-271.355	-200.000	0.059	-0.476
-270.340	229.779	-0.017	-0.027
-269.326	369.011	-0.121	-0.245
-268.311	-59.963	-0.168	0.072
-267.297	317.276	0.142	0.267
-266.282	15.410	0.060	0.047
-265.267	-20.425	0.038	0.023
-264.253	-200.000	-0.041	-0.265
-263.238	-200.000	-0.013	0.069
-262.224	-108.141	0.211	-0.046
-261.209	119.250	-0.123	0.151
-260.195	800.000	-0.075	0.265
-259.180	-200.000	-0.023	0.124
-258.165	-99.766	-0.151	-0.038
-257.151	-31.010	0.175	0.098
-256.136	-163.764	0.208	-0.010
-255.122	46.642	0.138	0.128
-254.107	267.954	0.065	0.114
-253.092	-200.000	-0.016	0.273
-252.078	192.636	-0.141	0.212
-251.063	508.223	-0.049	-0.114
-250.049	451.572	-0.033	-0.073
-249.034	800.000	-0.092	-0.348
-248.019	558.626	0.093	-0.224
-247.005	-93.280	-0.109	0.030
-245.990	-200.000	-0.017	0.365
-244.976	-79.349	-0.048	-0.016
-243.961	-200.000	0.006	-0.110
-242.946	25.086	-0.024	-0.020
-241.932	800.000	0.044	-0.188
-240.917	-200.000	0.013	0.173
-239.903	16.352	0.076	-0.060
-238.888	65.831	-0.127	0.128
-237.873	138.566	-0.155	-0.203
-236.859	-200.000	0.134	0.000
-235.844	-200.000	0.010	0.084
-234.830	-140.171	0.387	-0.040
-233.815	26.881	0.230	-0.192
-232.800	-67.666	0.145	-0.056
-231.786	-200.000	-0.019	0.298
-230.771	-125.077	0.418	-0.064
-229.757	800.000	0.049	0.174
-228.742	387.639	-0.029	-0.060
-227.727	98.845	-0.175	0.201
-226.713	469.730	-0.031	0.069
-225.698	800.000	0.077	0.236
-224.684	800.000	0.058	-0.172
-223.669	-32.055	-0.111	-0.062
-222.655	-71.318	-0.391	0.146
-221.640	136.428	0.056	0.073
-220.625	-163.854	-0.123	-0.006
-219.611	-54.976	-0.220	0.099
-218.596	175.750	0.022	-0.032
-217.582	-77.082	-0.226	0.078
-216.567	144.730	0.086	0.114
-215.552	-200.000	-0.023	-0.284
-214.538	624.694	0.131	0.328
-213.523	525.064	0.064	0.150
-212.509	-200.000	0.020	-0.201
-211.494	366.003	0.023	-0.047
-210.479	-100.440	0.118	-0.029
-209.465	161.248	0.089	-0.123
-208.450	113.850	0.194	-0.234
-207.436	-43.340	-0.173	-0.087
-206.421	252.314	0.128	0.217
-205.406	-95.551	0.187	-0.050
-204.392	800.000	0.058	-0.180
-203.377	-153.416	-0.117	0.008
-202.363	70.402	0.192	0.197
-201.348	800.000	0.070	-0.275
-200.333	83.474	0.254	-0.275
-199.319	-69.075	0.177	0.068
-198.304	-134.529	0.270	-0.033
-197.290	161.592	0.155	0.215
-196.275	-19.516	-0.068	0.042
-195.260	309.000	0.025	0.047
-194.246	7.710	0.124	-0.093
-193.231	-200.000	0.052	0.421
-192.217	-125.664	0.154	0.023
-191.202	57.620	0.180	-0.175
-190.187	-171.338	-0.141	-0.005
-189.173	-131.700	0.252	-0.033
-188.158	111.329	0.228	0.274
-187.144	-70.935	-0.368	0.138
-186.129	206.872	-0.045	0.069
-185.114	225.869	-0.138	0.222
-184.100	-126.252	-0.272	0.040
-183.085	-152.683	-0.573	-0.041
-182.071	662.695	-0.088	0.226
-181.056	-200.000	0.038	0.488
-180.042	-200.000	0.057	0.345
-179.027	-133.625	0.313	0.039
-178.012	175.766	0.034	-0.049
-176.998	-114.658	0.270	-0.051
-175.983	298.432	0.167	-0.305
-174.969	-107.550	-0.148	-0.032
-173.954	-20.749	0.347	0.211
-172.939	197.315	0.122	-0.185
-171.925	-200.000	0.006	0.252
-170.910	8.222	-0.189	0.141
-169.896	95.256	-0.160	0.181
-168.881	-25.444	0.236	-0.139
-167.866	-200.000	0.002	-0.177
-166.852	-123.102	0.132	0.021
-165.837	-1.106	0.192	0.134
-164.823	239.700	-0.064	-0.105
-163.808	83.658	0.142	0.153
-162.793	-200.000	0.008	-0.079
-161.779	800.000	0.094	0.277
-160.764	73.419	-0.023	0.024
-159.750	-22.291	0.185	0.112
-158.735	375.214	0.028	0.057
-157.720	375.358	0.035	-0.071
-156.706	27.357	0.363	-0.303
-155.691	-70.011	0.154	-0.058
-154.677	-22.511	-0.119	-0.072
-153.662	145.594	0.085	0.113
-152.647	1.882	-0.346	-0.248
-151.633	-200.000	0.014	0.120
-150.618	-98.239	0.351	0.090
-149.604	-79.981	0.044	-0.015
-148.589	-200.000	-0.004	-0.044
-147.574	-126.938	0.236	-0.034
-146.560	97.683	0.061	0.070
-145.545	67.576	0.124	0.126
-144.531	-62.433	0.221	-0.091
-143.516	-200.000	-0.022	-0.214
-142.502	-184.497	0.291	-0.005
-141.487	234.698	0.041	-0.067
-140.472	-0.361	-0.058	-0.041
-139.458	800.000	-0.015	0.048
-138.443	800.000	0.046	-0.150
-137.429	-32.317	-0.231	0.128
-136.414	-73.686	0.107	-0.038
-135.399	800.000	-0.005	0.018
-134.385	800.000	-0.013	-0.048
-133.370	89.985	-0.067	0.075
-132.356	-112.745	-0.330	0.065
-131.341	141.782	0.251	0.329
-130.326	-120.877	-0.117	0.019
-129.312	168.060	-0.049	-0.069
-128.297	242.770	0.064	0.106
-127.283	95.291	0.059	0.066
-126.268	-140.223	-0.126	-0.013
-125.253	800.000	0.042	0.152
-124.239	34.666	0.203	0.176
-123.224	83.212	0.121	-0.130
-122.210	-200.000	0.049	0.367
