DTS Sentinel unit serial number:	SN413079Multiplexer serial number:	ORYXHardware model number:	OX4-SRSoftware version number:	ORYX F/W v4.00 Oryx Data Collector v3.7.2.0data status	okinstallation	princeton_trtdifferential loss correction	single-endedforward channel	channel 4reverse channel	N/Adate	2019/09/10time	21:59:11forward acquisition time	60.00reverse acquisition time	0.00gamma	496.2192k internal	0.2314k external	0.2314temperature offset calibration	0.9946default loss term (dB/km)	0.3790temperature slope calibration	1.0000multiplexer offset coefficient	1.0000multiplexer slope coefficient	1.0000fibre end	0.00T internal ref (°C)	30.70T ext. ref 1 (°C)	-0.29T ext. ref 2 (°C)	24.03length (m)	temperature (°C)	Stokes	anti-Stokes-747.200	43.449	0.111	-0.103
-746.185	-200.000	0.014	-0.183
-745.171	49.360	-0.185	-0.177
-744.156	-87.791	0.128	0.039
-743.142	146.749	-0.147	0.201
-742.127	612.800	-0.022	0.057
-741.112	-93.979	0.323	0.090
-740.098	-56.582	-0.366	0.164
-739.083	261.456	0.110	-0.193
-738.069	-189.399	-0.346	-0.004
-737.054	39.509	-0.099	-0.090
-736.039	18.486	0.136	-0.110
-735.025	-106.557	0.420	0.095
-734.010	125.012	0.092	-0.117
-732.996	26.626	0.232	-0.196
-731.981	25.028	-0.086	-0.073
-730.966	260.759	-0.050	0.087
-729.952	-200.000	0.013	0.283
-728.937	-105.730	-0.040	0.009
-727.923	-200.000	-0.040	0.200
-726.908	800.000	-0.089	0.252
-725.894	211.011	-0.108	-0.172
-724.879	600.399	0.038	-0.095
-723.864	-121.212	0.170	0.029
-722.850	-38.116	-0.098	-0.053
-721.835	-167.139	-0.088	0.004
-720.821	800.000	-0.057	0.168
-719.806	193.213	0.147	-0.226
-718.791	-200.000	-0.026	0.153
-717.777	258.431	-0.199	0.347
-716.762	-114.297	-0.264	0.052
-715.748	-123.225	0.286	-0.046
-714.733	146.416	-0.103	0.140
-713.718	-155.984	-0.173	-0.011
-712.704	800.000	0.081	-0.346
-711.689	-34.041	0.245	-0.137
-710.675	25.123	0.123	0.103
-709.660	-91.811	-0.251	0.072
-708.645	611.490	0.166	-0.419
-707.631	-200.000	0.018	-0.133
-706.616	-65.528	0.022	0.009
-705.602	-37.489	0.139	0.075
-704.587	320.628	0.132	-0.253
-703.572	298.086	-0.125	0.233
-702.558	-21.763	-0.154	-0.095
-701.543	28.209	0.129	-0.111
-700.529	-129.210	-0.059	0.008
-699.514	-29.567	-0.288	-0.167
-698.499	140.765	0.104	-0.138
-697.485	-53.475	0.359	-0.166
-696.470	-43.826	0.107	-0.055
-695.456	-84.467	0.451	-0.144
-694.441	167.423	-0.105	-0.151
-693.426	-18.797	-0.146	0.092
-692.412	-118.338	0.098	0.018
-691.397	679.476	0.047	0.123
-690.383	-137.162	0.168	-0.019
-689.368	356.071	-0.045	0.090
-688.354	113.193	0.196	0.240
-687.339	12.360	0.149	0.116
-686.324	418.994	0.075	0.162
-685.310	-19.088	0.188	0.118
-684.295	800.000	-0.086	-0.336
-683.281	115.759	-0.185	-0.229
-682.266	-35.934	0.386	0.211
-681.251	-95.480	0.371	-0.101
-680.237	-200.000	0.006	0.029
-679.222	800.000	-0.059	-0.250
-678.208	-91.471	0.175	-0.050
-677.193	514.868	-0.142	0.334
-676.178	-27.586	-0.248	0.146
-675.164	-25.506	-0.153	-0.091
-674.149	174.523	0.120	-0.176
-673.135	-135.913	0.123	0.015
-672.120	-38.299	-0.003	0.002
-671.105	-200.000	-0.012	-0.084
-670.091	-99.078	-0.101	-0.026
-669.076	50.397	0.176	-0.168
-668.062	-200.000	-0.221	-0.001
-667.047	254.221	0.144	0.250
-666.032	-31.587	-0.216	0.122
-665.018	86.432	0.181	0.201
-664.003	-84.526	0.339	0.108
-662.989	66.546	-0.120	-0.123
-661.974	-141.867	0.275	0.028
-660.959	-200.000	-0.016	-0.129
-659.945	140.084	0.069	-0.092
-658.930	800.000	0.055	0.188
-657.916	-200.000	-0.005	0.305
-656.901	-115.942	0.407	-0.077
-655.886	-50.017	-0.107	-0.051
-654.872	-101.818	0.206	-0.050
-653.857	800.000	0.056	0.194
-652.843	-39.229	0.261	0.138
-651.828	73.677	-0.071	-0.075
-650.814	-23.339	-0.287	-0.174
-649.799	143.843	-0.128	-0.172
-648.784	-118.752	-0.147	-0.026
-647.770	-152.849	0.316	-0.023
-646.755	-121.053	-0.085	-0.014
-645.741	-25.038	0.075	-0.045
-644.726	-22.780	-0.211	-0.129
-643.711	792.952	0.035	0.096
-642.697	13.715	-0.218	0.171
-641.682	53.701	-0.150	0.145
-640.668	-190.086	0.220	-0.002
-639.653	-31.988	0.226	0.128
-638.638	-104.192	0.269	-0.063
-637.624	-200.000	-0.014	-0.227
-636.609	3.443	-0.140	-0.103
-635.595	724.362	-0.136	-0.365
-634.580	-200.000	0.028	-0.132
-633.565	-166.893	-0.313	-0.013
-632.551	-200.000	-0.030	0.141
-631.536	61.108	0.144	-0.144
-630.522	197.087	-0.129	0.198
-629.507	-73.657	-0.106	0.039
-628.492	43.979	0.162	0.150
-627.478	21.415	0.111	-0.091
-626.463	299.512	-0.063	0.117
-625.449	-200.000	0.016	-0.146
-624.434	-200.000	0.004	-0.402
-623.419	-121.787	0.300	-0.050
-622.405	103.487	0.271	-0.320
-621.390	-40.706	-0.115	-0.060
-620.376	-200.000	-0.003	-0.050
-619.361	125.974	-0.206	-0.263
-618.346	-200.000	-0.045	-0.382
-617.332	-41.639	0.120	0.062
-616.317	-25.306	-0.152	-0.090
-615.303	-200.000	0.001	-0.185
-614.288	80.782	-0.311	-0.338
-613.273	-200.000	-0.010	0.044
-612.259	800.000	-0.059	-0.205
-611.244	-166.932	0.339	0.014
-610.230	-200.000	-0.377	0.001
-609.215	-189.147	-0.290	-0.003
-608.201	-88.294	0.244	-0.074
-607.186	-59.821	-0.207	-0.089
-606.171	245.897	0.039	-0.065
-605.157	-9.199	0.097	-0.065
-604.142	-26.621	0.235	0.139
-603.128	-105.897	-0.389	-0.088
-602.113	800.000	0.048	-0.208
-601.098	288.369	0.126	-0.230
-600.084	800.000	0.044	-0.162
-599.069	800.000	-0.044	0.150
-598.055	-42.713	-0.089	0.045
-597.040	214.541	-0.123	-0.196
-596.025	-55.451	-0.228	0.103
-595.011	247.457	0.074	-0.125
-593.996	110.049	-0.211	-0.255
-592.982	-11.616	0.169	0.112
-591.967	-200.000	-0.062	0.424
-590.952	-85.977	0.048	-0.015
-589.938	130.542	0.145	-0.188
-588.923	800.000	-0.108	0.303
-587.909	565.333	0.134	0.328
-586.894	-170.233	-0.127	0.005
-585.879	22.043	-0.243	0.199
-584.865	696.259	0.003	0.008
-583.850	-200.000	0.007	0.428
-582.836	625.957	0.033	0.085
-581.821	-200.000	0.013	0.057
-580.806	-200.000	-0.028	-0.132
-579.792	13.071	0.073	-0.057
-578.777	-200.000	0.057	0.283
-577.763	256.703	0.252	-0.436
-576.748	-52.231	0.330	-0.154
-575.733	192.949	0.113	-0.172
-574.719	116.417	-0.161	0.199
-573.704	150.697	0.075	-0.103
-572.690	-164.487	0.186	-0.009
-571.675	13.383	0.268	0.209
-570.661	-104.835	-0.260	-0.060
-569.646	-64.081	-0.148	0.061
-568.631	-42.572	-0.369	0.189
-567.617	800.000	0.062	-0.229
-566.602	68.813	-0.359	-0.371
-565.588	394.744	0.108	-0.227
-564.573	6.692	-0.206	0.154
-563.558	-3.665	-0.317	0.222
-562.544	149.186	0.169	0.230
-561.529	-42.904	-0.046	-0.023
-560.515	-200.000	-0.030	-0.441
-559.500	-200.000	-0.018	0.081
-558.485	-22.973	-0.243	-0.147
-557.471	-46.824	0.237	0.117
-556.456	800.000	-0.048	-0.139
-555.442	302.732	0.189	-0.353
-554.427	234.624	-0.114	-0.189
-553.412	-81.340	-0.229	0.076
-552.398	12.528	-0.214	0.166
-551.383	800.000	0.060	0.188
-550.369	-125.437	-0.088	-0.013
-549.354	-17.229	-0.207	0.131
-548.339	-92.928	0.206	-0.058
-547.325	-136.080	0.147	-0.017
-546.310	-73.322	0.196	0.072
-545.296	200.984	0.079	-0.123
-544.281	70.783	0.047	0.049
-543.266	62.980	0.241	-0.242
-542.252	-200.000	0.004	0.192
-541.237	-200.000	0.002	-0.030
-540.223	-104.742	-0.115	-0.027
-539.208	800.000	-0.077	0.258
-538.193	-46.239	0.188	-0.093
-537.179	-109.664	0.214	-0.045
-536.164	158.493	-0.174	-0.242
-535.150	723.039	-0.090	0.241
-534.135	156.714	-0.048	0.066
-533.121	-138.135	-0.143	0.016
-532.106	141.547	0.154	-0.205
-531.091	420.455	0.081	0.175
-530.077	281.197	0.036	0.064
-529.062	-56.254	0.247	0.111
-528.048	-18.360	0.293	-0.184
-527.033	800.000	-0.098	-0.291
-526.018	377.210	0.038	-0.077
-525.004	800.000	-0.093	-0.299
-523.989	143.528	-0.034	0.045
-522.975	-200.000	0.009	0.097
-521.960	241.236	-0.182	-0.305
-520.945	-52.834	0.286	0.133
-519.931	88.968	-0.048	-0.053
-518.916	-41.489	0.139	-0.072
-517.902	-103.209	-0.182	-0.043
-516.887	-36.324	-0.248	0.134
-515.872	-68.661	-0.233	-0.091
-514.858	327.103	0.097	0.187
-513.843	-17.024	-0.176	-0.112
-512.829	20.197	0.205	-0.167
-511.814	222.405	0.101	-0.163
-510.799	47.212	-0.409	-0.383
-509.785	18.731	0.223	-0.179
-508.770	-117.134	0.368	0.067
-507.756	-74.212	0.363	-0.132
-506.741	-117.940	0.152	-0.027
-505.726	-200.000	-0.003	0.111
-504.712	-70.492	0.280	0.106
-503.697	-200.000	-0.294	0.001
-502.683	800.000	0.077	0.265
-501.668	-200.000	-0.022	-0.127
-500.653	800.000	-0.013	-0.055
-499.639	-54.080	-0.178	-0.081
-498.624	-127.584	-0.350	0.051
-497.610	787.469	-0.065	-0.179
-496.595	80.256	0.143	-0.154
-495.581	-200.000	0.004	-0.064
-494.566	24.823	0.210	-0.175
-493.551	-56.834	-0.251	0.111
-492.537	88.505	0.053	0.059
-491.522	134.929	-0.128	-0.166
-490.508	-42.550	0.301	-0.154
-489.493	401.611	0.145	0.306
-488.478	81.202	-0.234	-0.253
-487.464	11.423	0.178	0.137
-486.449	800.000	-0.056	-0.241
-485.435	10.697	0.251	-0.192
-484.420	-200.000	-0.015	0.289
-483.405	111.936	0.129	0.156
-482.391	250.723	-0.035	-0.060
-481.376	-86.022	0.238	0.074
-480.362	-80.304	-0.348	-0.117
-479.347	-200.000	-0.003	-0.027
-478.332	-80.284	0.199	0.067
-477.318	-22.623	0.332	-0.201
-476.303	-200.000	0.010	-0.439
-475.289	-115.740	-0.357	0.067
-474.274	-0.516	-0.280	-0.200
-473.259	-200.000	-0.068	-0.317
-472.245	15.804	0.067	-0.053
-471.230	-91.735	0.248	0.071
-470.216	45.294	0.093	0.086
-469.201	-112.363	0.378	-0.076
-468.186	800.000	0.063	0.180
-467.172	-200.000	0.026	-0.122
-466.157	-127.481	-0.136	-0.020
-465.143	-200.000	0.017	-0.204
-464.128	-103.304	-0.118	-0.028
-463.113	-200.000	0.008	0.122
-462.099	-119.462	-0.326	0.057
-461.084	10.345	-0.078	0.060
-460.070	-88.432	-0.256	-0.077
-459.055	-200.000	-0.000	0.213
-458.040	27.244	-0.143	-0.120
-457.026	-35.535	-0.162	-0.088
-456.011	-200.000	-0.023	0.227
-454.997	-140.555	-0.112	0.012
-453.982	-200.000	0.066	-0.407
-452.968	-131.404	0.167	0.022
-451.953	-200.000	0.002	0.268
-450.938	118.372	0.096	0.118
-449.924	145.319	-0.086	-0.115
-448.909	-200.000	0.036	-0.445
-447.895	-200.000	0.037	-0.364
-446.880	-147.427	0.256	-0.022
-445.865	-31.571	-0.177	0.100
-444.851	-200.000	0.008	0.247
-443.836	-91.009	0.045	-0.013
-442.822	-30.671	0.182	0.103
-441.807	61.983	0.114	0.114
-440.792	-36.536	0.264	0.142
-439.778	74.541	0.120	-0.127
-438.763	-52.857	-0.080	-0.037
-437.749	-157.716	-0.603	0.036
-436.734	4.651	0.269	0.198
-435.719	-198.880	0.099	-0.001
-434.705	6.952	-0.166	-0.124
-433.690	-169.761	0.155	-0.006
-432.676	-142.721	-0.174	-0.017
-431.661	-15.404	0.408	-0.261
-430.646	-77.248	-0.030	0.010
-429.632	-45.524	-0.223	-0.111
-428.617	800.000	0.032	-0.096
-427.603	-200.000	-0.059	0.418
-426.588	-109.755	-0.204	0.043
-425.573	800.000	0.058	0.191
-424.559	140.550	-0.093	0.123
-423.544	-28.756	-0.291	0.167
-422.530	-200.000	0.009	0.092
-421.515	800.000	-0.051	0.149
-420.500	-65.942	-0.201	0.080
-419.486	102.842	0.196	0.230
-418.471	-67.333	0.275	0.108
-417.457	-200.000	0.040	-0.265
-416.442	138.647	0.187	-0.245
-415.428	-79.726	-0.098	0.033
-414.413	16.193	-0.296	-0.233
-413.398	-149.957	0.303	0.024
-412.384	-200.000	-0.013	0.308
-411.369	800.000	0.056	-0.236
-410.355	-56.252	0.048	-0.021
-409.340	-200.000	-0.066	-0.357
-408.325	-188.807	0.188	-0.002
-407.311	-52.023	0.356	0.165
-406.296	-12.957	-0.360	0.234
-405.282	-200.000	-0.013	0.177
-404.267	-148.655	-0.105	0.009
-403.252	-200.000	0.027	-0.144
-402.238	800.000	0.201	-0.586
-401.223	174.250	0.165	-0.238
-400.209	11.525	-0.169	0.130
-399.194	104.460	-0.282	0.332
-398.179	245.003	0.106	-0.178
-397.165	10.960	0.090	-0.069
-396.150	-47.587	-0.233	0.113
-395.136	258.811	-0.168	0.289
-394.121	-104.019	0.333	-0.078
-393.106	800.000	0.035	-0.152
-392.092	230.264	0.037	-0.061
-391.077	19.645	-0.210	0.169
-390.063	-33.392	-0.210	-0.116
-389.048	800.000	0.098	0.314
-388.033	314.447	0.074	-0.139
-387.019	-51.761	0.079	0.037
-386.004	-50.748	-0.099	0.047
-384.990	-200.000	-0.084	-0.377
-383.975	-200.000	0.032	0.396
-382.960	503.470	0.230	0.532
-381.946	-21.095	-0.104	0.063
-380.931	-46.226	-0.100	-0.049
-379.917	-200.000	0.136	0.000
-378.902	-11.486	-0.252	-0.166
-377.888	-111.858	0.214	-0.043
-376.873	-200.000	-0.025	0.253
-375.858	-95.737	-0.237	0.063
-374.844	-200.000	-0.008	-0.102
-373.829	209.004	-0.150	-0.234
-372.815	-66.569	-0.195	0.077
-371.800	434.651	-0.090	-0.195
-370.785	615.837	-0.125	0.314
-369.771	-105.140	0.081	0.018
-368.756	123.501	-0.287	0.360
-367.742	419.309	0.135	-0.290
-366.727	205.998	-0.036	0.056
-365.712	800.000	0.020	-0.064
-364.698	746.285	0.091	0.245
-363.683	348.044	-0.135	-0.265
-362.669	-18.310	0.245	-0.153
-361.654	117.529	-0.107	-0.132
-360.639	89.654	0.113	-0.126
-359.625	-54.671	-0.121	0.055
-358.610	540.073	0.188	0.446
-357.596	-93.550	-0.455	0.125
-356.581	366.400	-0.047	0.094
-355.566	136.748	-0.066	0.086
-354.552	-43.679	-0.225	-0.113
-353.537	-143.632	0.088	-0.008
-352.523	-41.496	0.218	-0.112
-351.508	12.393	-0.303	-0.233
-350.493	59.618	-0.136	0.134
-349.479	-16.018	0.020	-0.012
-348.464	-200.000	0.010	0.205
-347.450	268.554	0.152	0.266
-346.435	255.930	0.112	-0.192
-345.420	-80.755	0.199	0.066
-344.406	-116.852	0.193	0.035
-343.391	24.587	-0.238	-0.196
-342.377	101.374	-0.238	0.276
-341.362	-147.224	0.284	0.024
-340.348	55.478	0.095	-0.092
-339.333	-200.000	0.028	0.249
-338.318	-102.301	-0.120	0.029
-337.304	-39.973	-0.284	-0.148
-336.289	-158.020	0.062	0.004
-335.275	-5.889	0.147	0.100
-334.260	21.227	0.041	0.033
-333.245	376.719	0.132	0.268
-332.231	8.808	0.073	0.055
-331.216	-42.394	-0.155	0.079
-330.202	40.770	-0.090	-0.081
-329.187	800.000	0.064	0.274
-328.172	-84.521	0.124	-0.039
-327.158	-7.273	-0.227	0.154
-326.143	-31.872	-0.161	0.090
-325.129	35.865	0.163	0.143
-324.114	800.000	0.039	0.116
-323.099	-83.368	-0.339	0.108
-322.085	-105.554	0.075	-0.017
-321.070	160.585	-0.071	-0.099
-320.056	26.495	-0.188	0.157
-319.041	-100.325	0.344	0.085
-318.026	-17.808	-0.186	0.116
-317.012	104.005	0.213	0.250
-315.997	644.146	-0.211	0.538
-314.983	-200.000	0.015	0.130
-313.968	-47.410	0.146	0.071
-312.953	789.974	-0.009	0.023
-311.939	112.425	-0.155	-0.187
-310.924	-14.400	0.070	0.045
-309.910	6.938	0.155	0.115
-308.895	-23.445	0.042	-0.025
-307.880	217.859	-0.114	-0.181
-306.866	-71.894	0.111	0.041
-305.851	-114.138	-0.319	0.061
-304.837	122.499	-0.063	0.079
-303.822	74.766	0.132	-0.138
-302.807	424.368	-0.152	0.325
-301.793	102.449	-0.140	0.163
-300.778	-200.000	0.036	0.181
-299.764	-171.834	-0.134	0.004
-298.749	-96.715	0.430	0.113
-297.735	-48.732	0.089	-0.043
-296.720	-200.000	0.013	0.237
-295.705	-200.000	0.036	0.226
-294.691	286.387	0.145	0.261
-293.676	61.321	0.085	-0.084
-292.662	-69.869	-0.128	-0.049
-291.647	-10.541	-0.083	0.055
-290.632	-71.927	-0.243	0.090
-289.618	-83.815	0.203	0.064
-288.603	-200.000	-0.034	0.253
-287.589	318.680	0.142	0.268
-286.574	374.549	0.104	-0.211
-285.559	-53.072	-0.077	-0.035
-284.545	12.504	0.123	-0.095
-283.530	101.966	0.076	0.088
-282.516	268.742	0.057	-0.099
-281.501	-93.893	0.172	-0.047
-280.486	-75.068	0.214	0.076
-279.472	3.278	-0.133	0.096
-278.457	21.905	0.140	0.114
-277.443	-200.000	0.010	-0.072
-276.428	-130.558	-0.144	0.019
-275.413	-94.123	-0.044	0.012
-274.399	529.643	-0.032	-0.074
-273.384	-200.000	-0.013	-0.093
-272.370	-116.438	0.240	-0.044
-271.355	49.943	0.174	0.164
-270.340	-85.113	-0.269	0.084
-269.326	-200.000	0.028	0.216
-268.311	-35.085	0.119	0.064
-267.297	10.596	0.225	-0.170
-266.282	-26.031	0.187	0.109
-265.267	-86.579	0.092	0.028
-264.253	-101.414	0.192	0.047
-263.238	327.615	0.190	0.363
-262.224	109.203	-0.043	-0.051
-261.209	95.860	0.109	-0.124
-260.195	-33.803	0.166	-0.091
-259.180	123.678	-0.017	-0.022
-258.165	-19.915	0.183	0.112
-257.151	255.236	-0.234	-0.399
-256.136	-87.030	0.148	-0.045
-255.122	299.350	-0.114	-0.209
-254.107	-131.916	-0.059	-0.008
-253.092	-18.958	-0.070	-0.043
-252.078	-107.124	0.088	0.019
-251.063	7.461	-0.243	-0.181
-250.049	-59.868	0.046	-0.020
-249.034	267.920	-0.025	-0.043
-248.019	260.052	-0.114	-0.196
-247.005	-25.234	0.143	0.084
-245.990	7.631	0.174	0.129
-244.976	66.660	0.095	-0.096
-243.961	-87.198	-0.217	-0.066
-242.946	-73.300	-0.252	-0.092
-241.932	799.236	-0.077	-0.210
-240.917	-200.000	0.040	-0.248
-239.903	800.000	0.047	-0.175
-238.888	440.266	0.081	0.177
-237.873	-123.710	-0.290	0.046
-236.859	286.076	0.042	-0.075
-235.844	107.685	-0.089	-0.105
-234.830	698.582	-0.127	-0.331
-233.815	-200.000	0.238	0.000
-232.800	-177.186	-0.068	0.002
-231.786	-54.639	0.065	-0.029
-230.771	379.647	-0.061	-0.124
-229.757	87.314	-0.378	0.416
-228.742	252.780	0.126	-0.213
-227.727	40.994	-0.194	0.174
-226.713	285.456	0.042	0.076
-225.698	800.000	-0.079	-0.337
-224.684	-200.000	-0.026	0.181
-223.669	-62.470	0.256	0.106
-222.655	84.474	-0.225	-0.244
-221.640	-126.671	-0.248	-0.036
-220.625	-57.025	-0.211	-0.092
-219.611	457.939	-0.035	-0.078
-218.596	-122.293	-0.142	-0.023
-217.582	138.068	-0.176	0.229
-216.567	146.536	-0.109	-0.146
-215.552	-86.662	0.426	-0.129
-214.538	-4.155	-0.092	0.063
-213.523	123.482	-0.116	0.144
-212.509	-57.283	0.287	0.125
-211.494	-66.937	0.133	0.052
-210.479	-41.346	0.183	0.094
-209.465	-200.000	0.025	0.379
-208.450	-159.526	0.034	-0.002
-207.436	308.570	-0.025	-0.046
-206.421	649.614	-0.128	0.325
-205.406	57.211	-0.117	0.114
-204.392	-19.332	-0.265	0.163
-203.377	22.944	-0.061	0.050
-202.363	180.355	-0.061	-0.089
-201.348	-62.819	-0.291	0.120
-200.333	800.000	0.047	-0.134
-199.319	-200.000	-0.007	0.091
-198.304	-30.337	-0.071	-0.040
-197.290	800.000	-0.047	0.164
-196.275	61.945	0.201	0.198
-195.260	-33.274	0.332	-0.182
-194.246	274.291	0.043	0.075
-193.231	-163.398	0.193	0.009
-192.217	800.000	0.122	-0.418
-191.202	-167.334	0.072	-0.003
-190.187	322.534	-0.149	0.281
-189.173	699.508	0.043	0.111
-188.158	58.725	0.175	0.170
-187.144	-200.000	-0.030	-0.453
-186.129	800.000	0.110	-0.306
-185.114	246.327	0.089	0.149
-184.100	37.232	0.253	0.222
-183.085	-70.458	0.366	0.138
-182.071	-34.754	0.030	-0.016
-181.056	-200.000	-0.025	0.281
-180.042	-37.558	0.386	0.204
-179.027	-200.000	0.035	0.237
-178.012	-0.083	0.115	-0.081
-176.998	-200.000	-0.015	0.140
-175.983	221.611	0.063	0.100
-174.969	82.196	-0.055	0.060
-173.954	248.035	-0.100	0.167
-172.939	-70.728	-0.199	-0.075
-171.925	17.183	0.234	-0.184
-170.910	-22.080	0.032	-0.020
-169.896	-15.110	-0.285	0.181
-168.881	800.000	-0.013	-0.056
-167.866	-200.000	-0.020	-0.151
-166.852	-9.180	-0.118	0.078
-165.837	270.942	0.213	-0.372
-164.823	12.345	0.169	0.129
-163.808	140.199	0.130	0.170
-162.793	-38.925	-0.117	-0.061
-161.779	-200.000	-0.058	-0.310
-160.764	-51.223	0.269	0.125
-159.750	151.424	0.063	0.085
-158.735	-114.676	0.014	-0.003
-157.720	42.867	-0.107	0.097
-156.706	-200.000	-0.004	0.383
-155.691	418.344	0.022	0.046
-154.677	11.388	-0.263	-0.199
-153.662	409.047	-0.062	0.129
-152.647	-10.044	-0.257	-0.169
-151.633	-200.000	-0.039	-0.190
-150.618	-53.936	-0.098	-0.044
-149.604	539.360	-0.079	-0.186
-148.589	-66.066	-0.120	-0.047
-147.574	-147.818	0.210	0.017
-146.560	70.763	-0.332	0.340
-145.545	61.720	0.253	0.250
-144.531	-119.882	0.158	-0.027
-143.516	721.205	0.069	-0.182
-142.502	-200.000	-0.053	-0.231
-141.487	171.986	-0.081	0.115
-140.472	193.514	-0.126	-0.189
-139.458	-164.945	0.120	-0.005
-138.443	280.256	-0.083	-0.146
-137.429	144.946	0.025	-0.033
-136.414	-149.267	0.356	-0.028
-135.399	596.627	0.077	-0.188
-134.385	-162.156	0.133	0.007
-133.370	-200.000	0.030	0.218
-132.356	-47.090	0.007	-0.003
-131.341	-117.110	0.137	0.025
-130.326	-177.388	0.357	0.009
-129.312	-25.598	-0.257	-0.150
-128.297	385.935	0.026	-0.054
-127.283	800.000	-0.060	-0.218
-126.268	230.802	-0.123	-0.199
-125.253	-60.320	0.205	-0.086
-124.239	-27.220	0.156	-0.090
-123.224	-29.584	-0.090	-0.051
-122.210	800.000	0.022	-0.084
-121.195	398.359	0.056	0.115
