DTS Sentinel unit serial number:	SN413079Multiplexer serial number:	ORYXHardware model number:	OX4-SRSoftware version number:	ORYX F/W v4.00 Oryx Data Collector v3.7.2.0data status	okinstallation	princeton_trtdifferential loss correction	single-endedforward channel	channel 4reverse channel	N/Adate	2019/09/10time	17:23:11forward acquisition time	60.00reverse acquisition time	0.00gamma	496.2192k internal	0.2295k external	0.2295temperature offset calibration	0.9936default loss term (dB/km)	0.3790temperature slope calibration	1.0000multiplexer offset coefficient	1.0000multiplexer slope coefficient	1.0000fibre end	0.00T internal ref (°C)	37.66T ext. ref 1 (°C)	-0.36T ext. ref 2 (°C)	32.40length (m)	temperature (°C)	Stokes	anti-Stokes-747.200	224.482	0.013	-0.021
-746.185	137.159	0.087	-0.116
-745.171	800.000	-0.091	-0.261
-744.156	800.000	-0.074	-0.273
-743.142	-98.687	0.320	0.083
-742.127	633.960	-0.124	0.322
-741.112	-200.000	0.042	0.189
-740.098	-102.383	-0.193	0.047
-739.083	466.670	0.088	0.202
-738.069	-38.273	0.180	0.097
-737.054	49.851	0.121	-0.116
-736.039	1.827	0.381	0.281
-735.025	-102.805	0.250	0.061
-734.010	224.418	-0.079	-0.131
-732.996	-200.000	0.006	-0.036
-731.981	66.496	-0.170	-0.177
-730.966	-95.346	0.190	0.052
-729.952	800.000	0.070	0.300
-728.937	14.406	-0.353	-0.281
-727.923	-167.194	-0.191	0.008
-726.908	-200.000	0.015	0.270
-725.894	205.017	-0.062	-0.099
-724.879	-73.285	-0.033	-0.012
-723.864	-37.504	0.030	0.016
-722.850	800.000	0.015	-0.059
-721.835	610.577	-0.078	0.200
-720.821	23.767	0.109	-0.092
-719.806	11.410	-0.078	-0.061
-718.791	291.525	-0.269	0.499
-717.777	501.898	0.096	0.227
-716.762	131.505	0.008	-0.011
-715.748	27.438	-0.098	0.084
-714.733	-34.225	-0.376	-0.211
-713.718	5.286	0.025	0.019
-712.704	-200.000	-0.072	0.414
-711.689	-36.567	-0.251	0.138
-710.675	-41.346	-0.219	0.115
-709.660	313.198	0.058	0.111
-708.645	-135.777	-0.077	0.009
-707.631	51.554	-0.183	-0.177
-706.616	-113.285	0.150	-0.030
-705.602	-152.218	0.180	-0.013
-704.587	-126.672	0.202	-0.030
-703.572	9.385	-0.170	-0.131
-702.558	-91.738	0.225	-0.065
-701.543	-200.000	-0.033	-0.238
-700.529	262.976	-0.103	-0.183
-699.514	121.192	-0.254	-0.322
-698.499	-37.346	0.481	-0.262
-697.485	-78.477	0.245	-0.086
-696.470	368.434	-0.107	-0.220
-695.456	34.284	-0.226	-0.201
-694.441	-174.231	-0.128	0.004
-693.426	-173.585	-0.159	-0.005
-692.412	-68.379	0.183	-0.072
-691.397	7.602	0.391	0.298
-690.383	-41.283	-0.257	0.135
-689.368	199.481	0.237	0.371
-688.354	800.000	0.073	0.228
-687.339	71.973	-0.029	0.030
-686.324	800.000	0.022	-0.082
-685.310	-200.000	0.022	0.141
-684.295	-136.562	0.111	0.013
-683.281	-44.329	-0.411	0.210
-682.266	-51.708	-0.029	0.014
-681.251	131.199	-0.091	-0.119
-680.237	437.102	0.042	0.092
-679.222	5.525	-0.094	-0.071
-678.208	-101.421	0.254	0.063
-677.193	-171.638	-0.334	-0.011
-676.178	-44.057	0.141	0.072
-675.164	96.201	-0.333	0.388
-674.149	-200.000	0.023	0.255
-673.135	-200.000	-0.055	-0.268
-672.120	800.000	-0.023	-0.093
-671.105	-200.000	0.007	0.254
-670.091	176.789	0.032	-0.048
-669.076	-100.398	-0.047	-0.012
-668.062	60.928	-0.172	0.174
-667.047	-27.260	0.031	0.018
-666.032	-5.568	-0.352	0.246
-665.018	-74.443	0.212	0.078
-664.003	7.461	-0.142	0.108
-662.989	192.717	-0.168	-0.259
-661.974	528.034	-0.106	-0.255
-660.959	800.000	0.012	-0.043
-659.945	74.436	-0.339	-0.363
-658.930	432.780	-0.111	-0.246
-657.916	-34.195	0.169	-0.095
-656.901	-67.337	0.240	0.096
-655.886	-200.000	0.007	0.136
-654.872	-105.689	-0.249	-0.057
-653.857	84.892	0.284	-0.317
-652.843	71.509	-0.047	-0.050
-651.828	-72.723	0.097	0.036
-650.814	107.943	0.158	-0.192
-649.799	-68.764	-0.192	0.075
-648.784	-200.000	-0.025	0.293
-647.770	-54.227	-0.085	-0.039
-646.755	-200.000	-0.044	-0.198
-645.741	-38.619	-0.185	-0.100
-644.726	-69.187	-0.228	-0.089
-643.711	-137.257	-0.208	-0.024
-642.697	16.603	0.313	0.252
-641.682	-66.561	-0.200	-0.081
-640.668	-200.000	0.011	0.287
-639.653	223.227	-0.071	-0.116
-638.638	-200.000	-0.006	0.315
-637.624	549.138	-0.031	0.077
-636.609	107.032	-0.089	0.108
-635.595	-164.871	0.125	0.006
-634.580	30.137	0.075	0.065
-633.565	28.367	-0.266	0.229
-632.551	42.665	0.192	0.178
-631.536	51.723	-0.112	0.109
-630.522	124.730	-0.077	-0.098
-629.507	261.849	0.045	0.080
-628.492	108.994	0.083	0.101
-627.478	88.155	-0.005	0.006
-626.463	-63.266	0.142	-0.060
-625.449	17.816	0.166	0.135
-624.434	800.000	0.060	0.228
-623.419	159.279	-0.208	-0.295
-622.405	800.000	-0.118	0.358
-621.390	-92.695	0.312	0.089
-620.376	105.949	-0.127	0.153
-619.361	800.000	0.047	0.179
-618.346	289.696	0.256	-0.473
-617.332	2.457	-0.136	-0.100
-616.317	-182.141	-0.021	-0.000
-615.303	-6.802	-0.183	0.127
-614.288	800.000	-0.041	0.171
-613.273	-200.000	-0.009	-0.180
-612.259	467.050	-0.037	-0.084
-611.244	-109.320	-0.409	-0.088
-610.230	-200.000	-0.010	-0.068
-609.215	-145.740	0.092	-0.008
-608.201	-200.000	-0.015	0.118
-607.186	-141.165	-0.139	0.014
-606.171	322.653	0.109	0.212
-605.157	-200.000	0.044	0.348
-604.142	-115.505	0.146	-0.028
-603.128	34.336	-0.143	-0.127
-602.113	-21.520	-0.162	-0.100
-601.098	-7.288	0.188	-0.129
-600.084	-200.000	-0.003	-0.041
-599.069	79.736	-0.329	-0.359
-598.055	-200.000	-0.015	-0.069
-597.040	-105.720	-0.162	-0.037
-596.025	100.293	0.068	-0.080
-595.011	-200.000	0.002	-0.243
-593.996	-26.206	-0.247	0.148
-592.982	-95.100	0.182	-0.050
-591.967	-64.202	0.455	-0.188
-590.952	-200.000	-0.014	0.388
-589.938	94.903	-0.078	-0.090
-588.923	800.000	0.070	0.209
-587.909	93.516	-0.308	0.355
-586.894	800.000	-0.043	-0.171
-585.879	746.322	0.082	-0.225
-584.865	-124.602	0.160	-0.025
-583.850	454.417	0.095	0.214
-582.836	800.000	0.069	-0.278
-581.821	-68.370	0.205	0.081
-580.806	-1.475	-0.292	0.209
-579.792	579.670	-0.080	-0.199
-578.777	17.435	0.190	0.153
-577.763	-84.615	0.073	0.023
-576.748	-134.200	0.119	-0.015
-575.733	293.630	-0.134	0.248
-574.719	-172.507	0.067	-0.002
-573.704	72.767	0.214	-0.227
-572.690	541.683	0.053	0.128
-571.675	800.000	0.038	0.128
-570.661	-200.000	-0.017	0.315
-569.646	71.758	0.337	-0.355
-568.631	-23.533	-0.222	0.135
-567.617	377.378	-0.102	0.213
-566.602	-12.568	0.114	-0.076
-565.588	-65.480	0.037	0.015
-564.573	-62.463	-0.408	-0.172
-563.558	-173.630	-0.128	0.004
-562.544	114.938	-0.027	-0.034
-561.529	-106.580	0.093	0.021
-560.515	15.415	0.375	-0.299
-559.500	139.288	0.194	-0.259
-558.485	447.115	0.172	-0.385
-557.471	72.937	-0.051	0.055
-556.456	3.352	0.188	0.139
-555.442	451.142	-0.082	0.184
-554.427	-103.332	0.301	-0.072
-553.412	761.525	-0.071	0.196
-552.398	25.578	0.036	-0.030
-551.383	279.900	-0.078	-0.141
-550.369	-200.000	-0.105	-0.001
-549.354	-41.827	-0.063	0.033
-548.339	81.569	-0.094	-0.104
-547.325	148.431	0.248	0.340
-546.310	399.708	0.134	0.284
-545.296	461.249	0.053	-0.121
-544.281	589.935	-0.029	0.073
-543.266	210.553	0.129	-0.205
-542.252	-21.238	-0.006	-0.004
-541.237	800.000	-0.081	-0.347
-540.223	-200.000	-0.052	0.233
-539.208	-83.234	0.245	0.080
-538.193	-38.509	-0.194	-0.104
-537.179	-145.688	-0.140	-0.013
-536.164	-200.000	0.059	0.528
-535.150	233.344	0.159	-0.265
-534.135	-30.597	0.081	0.046
-533.121	-11.620	-0.260	0.173
-532.106	-200.000	0.022	0.124
-531.091	-200.000	-0.022	-0.195
-530.077	8.831	-0.080	-0.061
-529.062	-125.497	-0.040	-0.006
-528.048	-10.137	-0.085	-0.057
-527.033	468.496	-0.068	-0.156
-526.018	-115.638	0.169	-0.032
-525.004	165.620	-0.099	-0.142
-523.989	29.364	0.045	0.038
-522.975	214.060	-0.098	-0.157
-521.960	-200.000	-0.006	0.079
-520.945	-62.498	0.144	0.060
-519.931	621.411	0.083	0.211
-518.916	-169.064	0.324	0.012
-517.902	-97.170	-0.360	-0.095
-516.887	-18.318	-0.094	0.059
-515.872	-200.000	-0.023	0.237
-514.858	107.246	0.155	-0.187
-513.843	-200.000	-0.002	0.152
-512.829	249.836	-0.169	0.290
-511.814	39.497	0.202	0.183
-510.799	-128.406	0.370	-0.053
-509.785	92.659	-0.160	-0.182
-508.770	382.145	-0.046	0.096
-507.756	-200.000	-0.065	0.298
-506.741	-200.000	-0.005	0.039
-505.726	91.184	0.061	-0.070
-504.712	-125.191	-0.091	0.014
-503.697	800.000	-0.103	-0.431
-502.683	1.267	-0.159	0.116
-501.668	-184.038	0.215	0.004
-500.653	-87.996	-0.289	0.088
-499.639	800.000	0.105	0.340
-498.624	229.628	-0.131	0.217
-497.610	72.694	-0.231	-0.244
-496.595	-200.000	-0.020	0.181
-495.581	111.934	0.100	0.122
-494.566	-27.915	0.069	0.040
-493.551	-200.000	0.003	0.013
-492.537	-35.571	-0.220	-0.121
-491.522	156.489	0.186	-0.260
-490.508	-125.135	0.333	0.052
-489.493	-85.416	-0.241	-0.076
-488.478	-46.156	0.198	0.099
-487.464	177.922	-0.083	-0.123
-486.449	-104.367	0.331	0.078
-485.435	17.267	-0.076	0.061
-484.420	64.428	-0.067	0.068
-483.405	739.236	-0.086	-0.233
-482.391	-200.000	-0.021	-0.117
-481.376	41.296	-0.222	0.203
-480.362	-25.108	0.117	0.070
-479.347	-200.000	-0.007	-0.415
-478.332	-142.601	-0.336	0.033
-477.318	-55.151	0.183	-0.083
-476.303	418.498	0.077	-0.167
-475.289	0.805	-0.137	0.099
-474.274	-31.667	-0.052	0.029
-473.259	-39.309	-0.029	-0.016
-472.245	800.000	0.050	-0.150
-471.230	-94.000	-0.156	0.043
-470.216	-200.000	-0.008	0.204
-469.201	167.579	-0.110	-0.158
-468.186	-200.000	0.008	0.126
-467.172	-200.000	0.006	-0.101
-466.157	43.812	-0.182	0.169
-465.143	-9.020	0.249	-0.168
-464.128	-200.000	0.032	-0.173
-463.113	64.847	-0.195	-0.199
-462.099	-93.229	-0.058	-0.016
-461.084	246.129	-0.121	0.206
-460.070	-100.248	-0.219	0.055
-459.055	800.000	0.089	0.370
-458.040	452.408	0.102	0.228
-457.026	89.821	-0.132	-0.150
-456.011	383.634	0.116	-0.242
-454.997	516.386	-0.122	-0.288
-453.982	553.116	0.063	-0.154
-452.968	-22.685	-0.225	0.137
-451.953	800.000	-0.001	-0.003
-450.938	-151.375	0.208	0.016
-449.924	-101.381	-0.350	-0.086
-448.909	40.242	0.154	-0.140
-447.895	-200.000	-0.004	-0.162
-446.880	294.147	-0.087	0.160
-445.865	-41.801	-0.366	0.190
-444.851	-48.030	-0.120	-0.058
-443.836	-56.454	0.194	-0.087
-442.822	-200.000	0.046	0.464
-441.807	-183.024	-0.151	0.003
-440.792	209.261	-0.185	0.293
-439.778	-170.771	0.494	-0.017
-438.763	800.000	-0.042	-0.118
-437.749	80.330	-0.132	-0.143
-436.734	800.000	-0.024	-0.075
-435.719	-200.000	0.053	-0.268
-434.705	-200.000	0.016	-0.144
-433.690	92.595	-0.102	-0.117
-432.676	-24.961	0.175	-0.105
-431.661	-200.000	0.003	0.111
-430.646	-200.000	-0.060	-0.396
-429.632	566.253	0.081	0.199
-428.617	105.630	0.177	-0.211
-427.603	13.476	0.108	0.085
-426.588	14.692	-0.178	-0.140
-425.573	162.091	0.071	-0.100
-424.559	-40.201	0.151	-0.079
-423.544	300.262	0.165	-0.307
-422.530	-200.000	0.001	0.048
-421.515	-136.479	-0.204	-0.024
-420.500	-200.000	0.208	-0.000
-419.486	298.069	-0.067	0.125
-418.471	-118.857	-0.297	0.053
-417.457	800.000	-0.174	-0.494
-416.442	-80.501	0.291	-0.098
-415.428	707.924	0.056	0.151
-414.413	-77.863	0.308	0.107
-413.398	-109.532	-0.409	-0.087
-412.384	110.733	0.135	-0.164
-411.369	89.681	-0.131	0.147
-410.355	-65.103	-0.199	-0.081
-409.340	113.040	0.064	0.079
-408.325	268.835	-0.040	0.071
-407.311	-41.060	-0.078	0.041
-406.296	-145.504	0.240	-0.022
-405.282	800.000	0.066	-0.193
-404.267	224.311	-0.113	-0.184
-403.252	-29.425	0.198	-0.114
-402.238	92.822	0.227	0.258
-401.223	193.650	-0.028	0.043
-400.209	-124.480	0.189	-0.030
-399.194	-109.576	-0.278	0.059
-398.179	-200.000	0.003	-0.024
-397.165	5.582	-0.149	-0.111
-396.150	-70.474	-0.324	0.124
-395.136	50.320	-0.051	0.049
-394.121	46.086	0.153	-0.143
-393.106	58.291	0.112	-0.111
-392.092	-200.000	0.052	-0.324
-391.077	800.000	0.113	-0.374
-390.063	-200.000	0.007	0.313
-389.048	24.705	0.139	-0.116
-388.033	74.049	0.312	0.330
-387.019	-19.910	-0.178	-0.111
-386.004	-155.558	-0.307	-0.020
-384.990	800.000	-0.073	-0.207
-383.975	-82.690	0.456	0.149
-382.960	-156.419	-0.246	0.015
-381.946	-95.187	0.402	0.109
-380.931	-181.946	-0.537	0.010
-379.917	-123.110	-0.241	-0.039
-378.902	117.970	-0.175	0.217
-377.888	-54.408	-0.151	0.069
-376.873	-200.000	0.018	-0.146
-375.858	207.796	-0.088	0.138
-374.844	52.622	0.015	-0.014
-373.829	35.960	0.311	0.275
-372.815	728.483	-0.075	0.202
-371.800	-200.000	0.030	0.317
-370.785	170.992	0.085	-0.122
-369.771	-123.190	-0.156	0.025
-368.756	-58.703	0.136	0.059
-367.742	-200.000	-0.027	-0.176
-366.727	-200.000	0.001	0.087
-365.712	125.184	0.202	-0.257
-364.698	-31.003	0.099	-0.056
-363.683	-200.000	0.027	-0.189
-362.669	154.801	0.105	-0.146
-361.654	-176.692	-0.032	0.001
-360.639	-121.425	0.183	-0.031
-359.625	180.717	0.078	0.115
-358.610	456.987	0.165	0.369
-357.596	619.030	0.053	0.133
-356.581	412.356	0.035	-0.075
-355.566	35.184	-0.125	-0.110
-354.552	800.000	-0.122	-0.411
-353.537	800.000	-0.099	0.294
-352.523	302.613	0.143	0.267
-351.508	-110.763	-0.270	-0.056
-350.493	-166.894	-0.232	-0.010
-349.479	800.000	0.077	-0.224
-348.464	24.712	0.190	-0.158
-347.450	101.631	0.119	0.140
-346.435	-200.000	0.015	-0.078
-345.420	641.511	0.029	-0.075
-344.406	509.903	-0.083	-0.195
-343.391	-112.810	0.227	0.045
-342.377	191.058	0.114	-0.172
-341.362	-200.000	0.002	-0.107
-340.348	-182.689	-0.189	0.003
-339.333	136.655	-0.070	-0.093
-338.318	-125.064	-0.070	-0.011
-337.304	-26.701	0.065	-0.038
-336.289	-184.748	0.099	-0.002
-335.275	-38.878	-0.144	0.076
-334.260	92.000	0.138	0.156
-333.245	-146.125	0.069	0.006
-332.231	272.916	0.181	0.321
-331.216	170.372	-0.210	-0.302
-330.202	59.665	-0.024	0.023
-329.187	-102.074	-0.240	-0.058
-328.172	-85.770	0.351	0.110
-327.158	-113.582	0.118	0.023
-326.143	-41.138	-0.098	0.051
-325.129	-200.000	0.008	-0.431
-324.114	156.322	-0.088	0.122
-323.099	-73.071	0.229	0.084
-322.085	-84.397	-0.203	0.065
-321.070	-3.756	0.281	-0.196
-320.056	572.011	0.097	-0.236
-319.041	800.000	-0.051	0.174
-318.026	-100.589	0.292	0.073
-317.012	39.544	-0.306	0.275
-315.997	-121.103	-0.051	-0.009
-314.983	168.386	0.285	-0.408
-313.968	75.636	0.161	0.171
-312.953	-117.593	0.550	-0.100
-311.939	-200.000	-0.038	0.347
-310.924	364.767	0.085	-0.172
-309.910	-200.000	0.004	-0.091
-308.895	0.021	0.072	0.052
-307.880	-136.279	-0.281	-0.033
-306.866	14.097	-0.281	-0.220
-305.851	-22.167	-0.226	-0.138
-304.837	800.000	-0.035	0.112
-303.822	-53.968	-0.123	-0.056
-302.807	-45.728	-0.301	-0.150
-301.793	-173.065	-0.131	0.004
-300.778	185.637	-0.118	0.176
-299.764	-200.000	-0.001	-0.105
-298.749	254.615	0.079	0.136
-297.735	-86.743	0.249	-0.076
-296.720	369.589	-0.067	0.135
-295.705	-118.862	-0.135	-0.024
-294.691	-70.160	-0.231	-0.088
-293.676	182.361	0.187	0.278
-292.662	88.913	-0.127	-0.142
-291.647	383.778	-0.251	-0.519
-290.632	209.248	-0.033	0.052
-289.618	-102.390	-0.405	0.098
-288.603	-200.000	-0.001	-0.120
-287.589	-139.033	-0.375	-0.041
-286.574	21.339	-0.035	0.028
-285.559	-11.213	-0.138	0.091
-284.545	561.263	0.078	0.190
-283.530	-96.357	-0.124	-0.033
-282.516	68.568	-0.094	-0.097
-281.501	-34.494	-0.271	-0.149
-280.486	-10.697	0.036	0.024
-279.472	-114.927	0.209	0.040
-278.457	19.868	0.271	-0.219
-277.443	-141.076	0.191	0.020
-276.428	-130.660	0.320	0.043
-275.413	-200.000	-0.002	0.164
-274.399	-200.000	0.006	0.027
-273.384	-42.169	-0.290	-0.149
-272.370	135.872	0.152	-0.199
-271.355	-76.987	0.062	0.022
-270.340	-131.645	-0.282	-0.037
-269.326	6.037	-0.098	-0.073
-268.311	-52.481	0.029	-0.014
-267.297	-200.000	0.003	-0.203
-266.282	66.405	-0.182	-0.186
-265.267	-67.159	0.205	-0.081
-264.253	63.260	-0.184	-0.185
-263.238	93.013	0.089	0.101
-262.224	147.803	-0.261	-0.353
-261.209	-200.000	-0.003	0.218
-260.195	-152.290	-0.284	-0.021
-259.180	-200.000	0.043	0.488
-258.165	7.371	0.280	0.210
-257.151	-169.262	0.155	-0.006
-256.136	-37.222	-0.244	0.131
-255.122	-87.464	-0.253	-0.077
-254.107	95.324	-0.198	-0.227
-253.092	-145.117	-0.316	0.029
-252.078	-123.188	0.253	-0.041
-251.063	207.520	-0.136	0.212
-250.049	394.417	-0.102	0.213
-249.034	-19.148	-0.051	0.032
-248.019	55.583	-0.067	-0.065
-247.005	800.000	-0.113	0.382
-245.990	-24.346	-0.100	0.060
-244.976	20.626	-0.129	-0.105
-243.961	-160.193	0.067	-0.004
-242.946	48.959	-0.266	-0.250
-241.932	-47.807	0.222	0.108
-240.917	-200.000	0.056	0.343
-239.903	31.064	-0.176	0.152
-238.888	254.622	0.118	-0.203
-237.873	-75.505	0.282	-0.100
-236.859	-80.196	0.104	0.035
-235.844	237.716	0.071	0.118
-234.830	-126.739	0.185	0.027
-233.815	800.000	-0.072	-0.301
-232.800	-40.197	0.313	0.163
-231.786	-200.000	-0.007	0.357
-230.771	178.523	-0.101	0.147
-229.757	-200.000	-0.067	0.484
-228.742	146.123	0.081	-0.109
-227.727	-200.000	0.017	0.236
-226.713	65.406	-0.323	-0.327
-225.698	-74.397	0.235	0.085
-224.684	87.373	-0.253	-0.280
-223.669	-200.000	0.078	0.410
-222.655	-108.249	0.388	-0.084
-221.640	-200.000	-0.031	-0.138
-220.625	800.000	-0.045	-0.133
-219.611	-200.000	-0.017	-0.196
-218.596	82.081	-0.028	-0.031
-217.582	-154.980	0.033	0.002
-216.567	305.559	0.175	0.325
-215.552	-200.000	-0.029	-0.127
-214.538	-78.254	0.215	-0.074
-213.523	-24.084	0.069	-0.041
-212.509	800.000	0.108	-0.299
-211.494	-200.000	0.031	-0.194
-210.479	302.521	-0.009	0.016
-209.465	77.834	0.317	0.338
-208.450	-65.006	0.186	-0.075
-207.436	-200.000	0.068	0.310
-206.421	114.755	-0.093	-0.114
-205.406	-36.636	0.328	-0.176
-204.392	-200.000	0.003	0.022
-203.377	800.000	-0.062	-0.210
-202.363	-1.609	-0.064	0.045
-201.348	-200.000	0.002	0.060
-200.333	102.991	-0.029	-0.035
-199.319	-41.289	-0.029	-0.015
-198.304	-1.921	0.214	-0.150
-197.290	-146.570	-0.209	-0.018
-196.275	244.457	0.017	-0.029
-195.260	528.694	0.052	-0.123
-194.246	-200.000	-0.014	-0.251
-193.231	-135.213	0.174	-0.021
-192.217	800.000	0.157	-0.550
-191.202	800.000	0.056	-0.166
-190.187	-78.431	0.356	-0.122
-189.173	-45.768	0.208	-0.103
-188.158	-200.000	-0.009	-0.153
-187.144	-123.888	0.009	-0.001
-186.129	-112.608	0.108	-0.021
-185.114	121.917	0.183	-0.229
-184.100	800.000	0.034	-0.119
-183.085	-200.000	0.006	0.097
-182.071	19.691	-0.178	-0.143
-181.056	-200.000	-0.029	0.214
-180.042	-114.495	0.155	0.030
-179.027	209.839	0.079	-0.124
-178.012	-92.718	-0.081	0.023
-176.998	58.900	0.110	-0.108
-175.983	114.259	-0.240	0.292
-174.969	174.401	0.077	-0.111
-173.954	-128.988	-0.222	0.031
-172.939	800.000	0.015	0.063
-171.925	-160.014	0.112	0.006
-170.910	304.724	-0.153	0.284
-169.896	-200.000	-0.022	0.098
-168.881	58.132	0.083	0.082
-167.866	149.649	0.158	0.214
-166.852	539.048	-0.073	-0.174
-165.837	-200.000	0.024	0.187
-164.823	-55.709	-0.160	0.072
-163.808	-8.072	0.258	0.174
-162.793	51.354	0.072	0.068
-161.779	8.011	0.207	0.155
-160.764	-200.000	-0.043	0.224
-159.750	106.398	0.139	0.164
-158.735	260.933	-0.057	0.099
-157.720	800.000	-0.063	0.257
-156.706	571.450	0.033	0.080
-155.691	-51.261	0.193	-0.090
-154.677	-200.000	-0.070	0.402
-153.662	63.985	-0.061	0.061
-152.647	-50.631	-0.080	-0.038
-151.633	-22.611	-0.077	0.047
-150.618	742.356	-0.077	0.208
-149.604	447.082	0.070	0.153
-148.589	800.000	0.065	-0.180
-147.574	-137.144	-0.227	0.026
-146.560	-30.547	0.208	-0.118
-145.545	-24.793	-0.211	0.125
-144.531	794.957	-0.114	0.313
-143.516	396.611	0.089	-0.185
-142.502	162.898	0.065	0.092
-141.487	-9.095	0.156	0.104
-140.472	151.319	-0.094	0.128
-139.458	48.334	-0.029	-0.027
-138.443	-79.203	-0.205	-0.069
-137.429	-109.158	-0.129	-0.027
-136.414	-200.000	-0.007	-0.038
-135.399	517.689	0.214	0.500
-134.385	-72.413	0.163	0.060
-133.370	13.204	-0.186	-0.144
-132.356	-200.000	-0.039	0.270
-131.341	85.263	-0.406	0.444
-130.326	-161.746	0.130	0.007
-129.312	-200.000	-0.015	-0.100
-128.297	-200.000	0.035	-0.235
-127.283	543.347	-0.026	0.062
-126.268	-200.000	-0.046	-0.328
-125.253	-96.541	-0.146	-0.039
-124.239	-200.000	-0.001	0.067
-123.224	-200.000	0.008	0.132
-122.210	-48.017	0.173	0.083
-121.195	-200.000	0.052	0.408
