DTS Sentinel unit serial number:	SN413079Multiplexer serial number:	ORYXHardware model number:	OX4-SRSoftware version number:	ORYX F/W v4.00 Oryx Data Collector v3.7.2.0data status	okinstallation	princeton_trtdifferential loss correction	single-endedforward channel	channel 4reverse channel	N/Adate	2019/09/11time	20:07:11forward acquisition time	60.00reverse acquisition time	0.00gamma	496.2192k internal	0.2301k external	0.2301temperature offset calibration	1.0049default loss term (dB/km)	0.3790temperature slope calibration	1.0000multiplexer offset coefficient	1.0000multiplexer slope coefficient	1.0000fibre end	0.00T internal ref (°C)	38.52T ext. ref 1 (°C)	1.41T ext. ref 2 (°C)	31.94length (m)	temperature (°C)	Stokes	anti-Stokes-747.200	-84.743	0.097	-0.031
-746.185	-200.000	0.030	0.210
-745.171	-60.717	-0.268	0.116
-744.156	800.000	0.046	0.179
-743.142	46.802	0.125	0.119
-742.127	-77.538	-0.254	0.090
-741.112	27.410	-0.255	-0.218
-740.098	55.558	-0.096	-0.095
-739.083	574.210	0.048	0.120
-738.069	9.469	-0.443	-0.342
-737.054	263.352	-0.145	0.256
-736.039	25.944	0.163	0.138
-735.025	800.000	0.047	0.137
-734.010	97.704	-0.115	0.135
-732.996	195.805	0.122	-0.188
-731.981	-6.467	0.188	-0.131
-730.966	-18.824	-0.406	0.258
-729.952	-136.416	-0.231	0.027
-728.937	30.402	-0.283	-0.246
-727.923	28.264	-0.367	0.316
-726.908	304.597	0.099	-0.188
-725.894	701.634	-0.199	-0.535
-724.879	-31.855	-0.510	-0.291
-723.864	-200.000	0.008	0.035
-722.850	-200.000	-0.009	-0.174
-721.835	1.901	-0.068	0.050
-720.821	-200.000	0.020	-0.118
-719.806	27.314	0.085	0.073
-718.791	-190.939	-0.455	-0.005
-717.777	-161.906	-0.158	-0.008
-716.762	96.247	-0.223	0.259
-715.748	-83.489	0.043	0.014
-714.733	-200.000	0.040	-0.563
-713.718	200.289	-0.116	0.182
-712.704	-200.000	-0.014	0.264
-711.689	-200.000	-0.002	0.167
-710.675	-66.670	0.129	-0.052
-709.660	-41.614	-0.301	-0.158
-708.645	128.870	-0.114	-0.148
-707.631	-35.507	-0.299	0.165
-706.616	-129.003	0.122	0.017
-705.602	219.069	-0.093	-0.151
-704.587	3.138	-0.094	0.069
-703.572	-200.000	0.002	0.063
-702.558	-52.040	-0.313	0.148
-701.543	350.084	0.183	0.368
-700.529	250.942	0.133	0.231
-699.514	-200.000	-0.006	-0.137
-698.499	-79.617	-0.254	0.087
-697.485	3.802	-0.127	-0.095
-696.470	408.137	0.154	-0.331
-695.456	317.896	0.024	-0.046
-694.441	647.851	0.015	0.039
-693.426	2.316	-0.389	0.286
-692.412	-52.776	-0.143	-0.067
-691.397	-113.520	0.206	0.041
-690.383	424.473	-0.083	0.182
-689.368	-200.000	-0.066	-0.341
-688.354	350.511	0.102	-0.206
-687.339	23.832	0.183	0.154
-686.324	-200.000	-0.008	-0.128
-685.310	9.173	-0.104	0.080
-684.295	550.941	0.067	0.164
-683.281	800.000	-0.105	-0.357
-682.266	-55.214	0.386	-0.176
-681.251	116.550	-0.119	-0.148
-680.237	-74.495	0.219	0.080
-679.222	-38.909	0.347	0.186
-678.208	190.546	-0.110	0.168
-677.193	-200.000	0.006	-0.116
-676.178	235.555	0.085	0.143
-675.164	-103.535	0.115	0.027
-674.149	-116.608	-0.325	-0.061
-673.135	-50.230	0.084	0.040
-672.120	-200.000	0.021	-0.186
-671.105	-117.949	0.210	0.038
-670.091	263.880	0.056	0.099
-669.076	-200.000	-0.015	-0.102
-668.062	656.154	0.090	0.235
-667.047	4.433	-0.389	-0.290
-666.032	-200.000	0.004	-0.259
-665.018	2.728	0.167	0.123
-664.003	-35.102	0.261	0.145
-662.989	306.595	-0.131	0.248
-661.974	-187.630	-0.151	-0.002
-660.959	-200.000	0.077	-0.390
-659.945	-200.000	0.004	-0.195
-658.930	66.047	0.211	0.218
-657.916	-200.000	-0.002	0.047
-656.901	203.946	0.094	0.149
-655.886	-75.953	-0.281	-0.101
-654.872	-101.519	-0.308	-0.076
-653.857	308.472	0.110	-0.210
-652.843	144.337	-0.102	0.138
-651.828	-142.746	0.339	-0.034
-650.814	31.486	-0.103	0.090
-649.799	436.608	0.094	-0.207
-648.784	635.147	-0.107	-0.276
-647.770	47.003	0.235	0.222
-646.755	-79.907	-0.095	0.032
-645.741	-109.460	0.195	-0.042
-644.726	-133.927	-0.456	0.057
-643.711	4.542	0.066	0.049
-642.697	-89.511	0.125	-0.037
-641.682	-57.145	0.331	-0.148
-640.668	800.000	-0.061	0.242
-639.653	800.000	0.034	0.129
-638.638	474.634	-0.059	-0.136
-637.624	270.892	-0.185	0.330
-636.609	-200.000	-0.011	0.272
-635.595	-165.188	0.166	0.007
-634.580	76.410	0.217	-0.234
-633.565	-82.534	-0.333	-0.110
-632.551	326.588	-0.090	-0.174
-631.536	786.201	0.026	-0.072
-630.522	0.851	-0.134	0.098
-629.507	-38.346	-0.240	0.129
-628.492	-50.882	-0.350	-0.167
-627.478	27.471	0.192	-0.164
-626.463	-200.000	-0.041	-0.294
-625.449	-200.000	0.006	0.035
-624.434	-108.049	0.274	0.060
-623.419	47.351	0.222	0.209
-622.405	-5.810	0.203	0.141
-621.390	-20.085	-0.072	-0.045
-620.376	-200.000	0.033	0.154
-619.361	24.559	-0.172	0.144
-618.346	21.581	-0.161	-0.133
-617.332	-33.561	0.075	-0.042
-616.317	800.000	0.162	-0.494
-615.303	131.718	0.235	-0.307
-614.288	199.401	0.130	-0.202
-613.273	-200.000	0.043	-0.199
-612.259	-73.994	-0.352	-0.130
-611.244	276.107	-0.023	0.042
-610.230	248.583	-0.128	0.220
-609.215	-74.473	-0.187	0.069
-608.201	-12.389	-0.022	0.014
-607.186	-73.561	-0.092	-0.034
-606.171	-81.872	-0.236	0.078
-605.157	800.000	0.045	-0.158
-604.142	-99.563	0.045	0.011
-603.128	-141.272	0.166	-0.017
-602.113	505.614	0.128	-0.301
-601.098	-107.366	0.095	0.021
-600.084	-81.577	-0.219	0.073
-599.069	-96.943	-0.044	0.012
-598.055	76.610	0.117	0.126
-597.040	-52.317	-0.462	-0.217
-596.025	800.000	0.089	-0.302
-595.011	166.283	-0.206	-0.296
-593.996	-60.550	-0.173	0.075
-592.982	2.365	0.061	-0.045
-591.967	-200.000	-0.025	0.273
-590.952	321.527	0.131	-0.253
-589.938	-200.000	-0.024	-0.108
-588.923	-107.418	0.099	-0.022
-587.909	367.752	-0.074	-0.152
-586.894	214.852	-0.154	-0.248
-585.879	269.707	-0.096	0.172
-584.865	323.787	-0.131	-0.253
-583.850	-200.000	0.035	-0.232
-582.836	52.406	-0.241	0.233
-581.821	293.997	0.109	0.201
-580.806	800.000	0.043	0.122
-579.792	-73.611	0.355	-0.131
-578.777	-120.280	0.209	0.036
-577.763	-51.559	-0.210	0.099
-576.748	-132.194	-0.307	-0.040
-575.733	-73.229	0.109	-0.040
-574.719	-134.115	0.071	0.009
-573.704	800.000	0.060	0.177
-572.690	-200.000	0.059	-0.335
-571.675	325.458	-0.166	-0.321
-570.661	394.842	-0.020	-0.043
-569.646	-134.362	0.057	-0.007
-568.631	77.500	-0.227	0.245
-567.617	-189.917	-0.249	0.003
-566.602	-99.924	0.079	0.020
-565.588	-122.727	0.198	0.033
-564.573	70.730	-0.365	0.383
-563.558	70.499	0.330	0.345
-562.544	23.659	-0.063	-0.052
-561.529	141.642	-0.045	-0.060
-560.515	-117.670	-0.197	-0.036
-559.500	800.000	-0.091	0.279
-558.485	-5.004	-0.206	0.144
-557.471	800.000	0.062	0.212
-556.456	-32.871	-0.395	0.222
-555.442	69.527	0.133	-0.139
-554.427	-200.000	0.000	0.281
-553.412	-200.000	0.031	-0.319
-552.398	19.322	-0.089	0.073
-551.383	-141.426	0.162	-0.017
-550.369	-25.990	-0.178	0.106
-549.354	35.167	0.104	-0.092
-548.339	100.283	0.156	0.183
-547.325	-95.645	-0.115	0.031
-546.310	800.000	0.097	-0.277
-545.296	-200.000	0.004	-0.053
-544.281	742.545	-0.077	0.209
-543.266	-200.000	-0.017	0.197
-542.252	386.961	0.047	0.099
-541.237	-136.300	0.580	-0.068
-540.223	800.000	-0.057	-0.214
-539.208	263.012	0.069	-0.122
-538.193	270.676	-0.072	-0.129
-537.179	90.975	0.294	-0.333
-536.164	105.485	0.162	-0.194
-535.150	89.275	0.169	-0.191
-534.135	-13.782	0.115	-0.075
-533.121	34.200	-0.104	0.092
-532.106	-122.972	0.190	0.031
-531.091	-200.000	-0.030	0.234
-530.077	800.000	-0.064	-0.185
-529.062	21.578	0.182	-0.149
-528.048	75.119	0.193	0.206
-527.033	154.238	-0.120	-0.167
-526.018	295.992	-0.050	-0.092
-525.004	-200.000	-0.064	0.289
-523.989	-97.895	-0.266	0.069
-522.975	-79.093	-0.090	-0.031
-521.960	7.438	-0.150	-0.113
-520.945	-40.949	-0.018	-0.009
-519.931	800.000	0.010	0.033
-518.916	84.106	0.074	-0.082
-517.902	-93.222	-0.160	0.045
-516.887	-84.459	-0.227	-0.072
-515.872	302.117	-0.093	0.174
-514.858	-40.123	0.204	-0.107
-513.843	-200.000	0.007	-0.169
-512.829	185.796	-0.100	-0.151
-511.814	800.000	0.101	-0.294
-510.799	-19.667	-0.236	-0.148
-509.785	121.737	-0.235	-0.296
-508.770	-96.735	-0.218	0.058
-507.756	-131.294	-0.243	0.033
-506.741	-33.850	-0.120	0.067
-505.726	-57.081	0.042	0.019
-504.712	-200.000	0.024	0.163
-503.697	708.246	0.033	-0.087
-502.683	451.223	0.086	-0.192
-501.668	-97.672	0.115	0.030
-500.653	-166.663	-0.192	0.008
-499.639	97.567	-0.192	0.222
-498.624	163.460	0.164	0.232
-497.610	-200.000	0.068	-0.351
-496.595	67.850	-0.192	0.198
-495.581	703.284	0.221	0.589
-494.566	141.147	-0.223	0.298
-493.551	-0.456	0.145	0.104
-492.537	-200.000	-0.007	-0.052
-491.522	-200.000	0.014	0.111
-490.508	151.935	0.059	-0.082
-489.493	0.314	0.171	0.123
-488.478	6.454	0.083	-0.062
-487.464	69.034	-0.199	0.206
-486.449	177.215	0.148	-0.218
-485.435	-59.711	0.196	0.085
-484.420	59.680	-0.081	-0.081
-483.405	348.597	0.143	-0.285
-482.391	-143.093	-0.016	-0.002
-481.376	800.000	0.131	0.559
-480.362	-200.000	0.020	0.130
-479.347	800.000	-0.103	-0.350
-478.332	277.031	0.243	0.436
-477.318	-76.354	0.211	-0.075
-476.303	-146.036	-0.462	-0.041
-475.289	800.000	-0.025	0.075
-474.274	-118.829	0.095	0.017
-473.259	-95.683	-0.218	-0.059
-472.245	-200.000	0.000	0.149
-471.230	-19.352	-0.034	0.022
-470.216	-121.044	0.077	0.013
-469.201	-129.354	0.277	0.039
-468.186	650.606	0.075	-0.193
-467.172	800.000	0.033	-0.135
-466.157	179.376	0.044	0.065
-465.143	215.073	-0.159	-0.254
-464.128	-200.000	-0.013	-0.197
-463.113	247.953	-0.193	-0.330
-462.099	-31.359	-0.249	-0.141
-461.084	224.516	0.034	-0.055
-460.070	-88.521	-0.202	0.061
-459.055	200.717	-0.138	-0.214
-458.040	-87.243	-0.182	-0.056
-457.026	-4.241	-0.267	-0.187
-456.011	-106.735	-0.248	0.056
-454.997	-200.000	0.043	-0.419
-453.982	-87.369	-0.146	-0.044
-452.968	800.000	-0.095	-0.320
-451.953	63.118	0.035	0.035
-450.938	-200.000	-0.006	-0.261
-449.924	-200.000	-0.008	-0.088
-448.909	-33.629	0.267	0.149
-447.895	1.991	-0.364	0.265
-446.880	-137.573	0.141	0.016
-445.865	-87.414	-0.075	-0.023
-444.851	-33.048	0.168	0.094
-443.836	0.367	0.072	0.052
-442.822	201.501	-0.250	0.389
-441.807	-88.902	0.198	0.059
-440.792	-61.072	-0.302	0.128
-439.778	-49.972	-0.356	-0.170
-438.763	-200.000	-0.010	0.401
-437.749	-200.000	0.003	0.050
-436.734	148.206	-0.102	0.139
-435.719	-200.000	-0.017	-0.445
-434.705	-71.678	-0.329	-0.124
-433.690	66.036	0.182	-0.186
-432.676	186.448	-0.106	0.159
-431.661	-5.950	0.101	-0.070
-430.646	28.181	-0.139	-0.118
-429.632	-80.499	0.132	-0.044
-428.617	-122.050	0.199	-0.033
-427.603	52.852	-0.212	0.205
-426.588	-162.059	-0.017	-0.001
-425.573	800.000	0.092	0.258
-424.559	-59.979	0.292	-0.125
-423.544	-68.812	-0.142	0.055
-422.530	405.705	-0.076	0.162
-421.515	-53.216	0.124	0.057
-420.500	-185.857	0.200	0.003
-419.486	3.749	-0.224	0.165
-418.471	9.851	-0.065	0.050
-417.457	-200.000	0.011	0.193
-416.442	-191.370	0.367	0.004
-415.428	134.125	0.151	-0.197
-414.413	2.681	-0.122	0.089
-413.398	265.671	-0.100	0.175
-412.384	272.647	0.148	0.263
-411.369	15.406	0.308	0.243
-410.355	-12.974	0.260	-0.170
-409.340	-96.508	0.201	0.053
-408.325	104.306	0.145	-0.172
-407.311	19.715	0.238	0.193
-406.296	-30.037	-0.053	0.031
-405.282	-15.774	0.195	-0.125
-404.267	58.739	0.168	-0.166
-403.252	51.871	0.048	0.046
-402.238	222.224	0.179	-0.290
-401.223	253.920	0.076	-0.131
-400.209	-179.710	0.240	0.005
-399.194	-101.346	-0.293	0.072
-398.179	800.000	0.071	0.282
-397.165	19.916	0.331	-0.268
-396.150	-4.737	0.104	0.072
-395.136	-102.316	0.217	-0.052
-394.121	-80.411	0.234	-0.079
-393.106	-137.943	-0.438	0.049
-392.092	168.703	-0.103	-0.147
-391.077	40.383	-0.437	-0.395
-390.063	366.398	-0.094	0.191
-389.048	-200.000	-0.014	0.105
-388.033	-200.000	0.043	0.232
-387.019	-43.394	-0.228	0.116
-386.004	76.529	-0.133	0.142
-384.990	228.918	-0.112	0.183
-383.975	-100.617	0.164	0.041
-382.960	135.276	0.304	0.398
-381.946	10.185	0.303	-0.231
-380.931	-33.947	0.580	-0.321
-379.917	-123.496	0.224	0.036
-378.902	-106.785	-0.098	-0.022
-377.888	800.000	-0.083	-0.327
-376.873	-91.905	0.186	0.053
-375.858	181.971	0.201	0.298
-374.844	12.632	0.117	0.091
-373.829	459.330	0.108	0.241
-372.815	800.000	-0.090	0.274
-371.800	-200.000	-0.014	0.151
-370.785	126.386	-0.194	-0.246
-369.771	46.429	-0.074	0.069
-368.756	-200.000	0.031	-0.263
-367.742	123.786	-0.037	-0.046
-366.727	-73.347	0.148	-0.054
-365.712	34.745	-0.273	-0.239
-364.698	-88.973	0.536	-0.160
-363.683	119.889	-0.265	-0.330
-362.669	-196.038	0.290	-0.002
-361.654	67.724	-0.331	0.339
-360.639	147.561	0.150	-0.203
-359.625	-6.124	0.289	-0.199
-358.610	-200.000	-0.078	-0.402
-357.596	327.159	-0.099	-0.190
-356.581	-200.000	0.000	0.137
-355.566	56.519	0.147	-0.144
-354.552	23.760	0.070	0.058
-353.537	163.053	0.143	0.201
-352.523	-200.000	0.080	0.389
-351.508	44.545	-0.359	0.331
-350.493	-200.000	0.001	-0.160
-349.479	-66.323	0.212	0.085
-348.464	-200.000	0.000	-0.145
-347.450	800.000	0.111	0.388
-346.435	287.654	-0.094	0.171
-345.420	-122.670	-0.163	0.026
-344.406	228.621	0.066	-0.108
-343.391	-136.398	0.132	0.015
-342.377	444.048	-0.077	0.170
-341.362	164.386	0.117	-0.165
-340.348	27.342	-0.092	0.077
-339.333	8.244	-0.277	0.209
-338.318	-200.000	-0.005	0.119
-337.304	-43.873	-0.080	-0.040
-336.289	-180.908	-0.448	0.009
-335.275	-69.582	-0.155	0.060
-334.260	-200.000	-0.009	0.094
-333.245	268.281	0.056	-0.098
-332.231	-131.409	-0.307	0.041
-331.216	-200.000	-0.032	-0.261
-330.202	187.209	0.188	0.281
-329.187	-161.540	-0.280	0.014
-328.172	380.242	0.032	-0.065
-327.158	93.940	-0.178	0.203
-326.143	120.346	0.209	-0.260
-325.129	171.077	0.116	-0.167
-324.114	800.000	0.059	0.212
-323.099	-118.312	0.265	-0.047
-322.085	-49.041	-0.304	0.146
-321.070	-137.224	-0.213	0.024
-320.056	-200.000	0.047	-0.399
-319.041	83.525	-0.187	-0.205
-318.026	440.088	-0.136	0.299
-317.012	18.940	-0.225	-0.181
-315.997	295.672	0.180	-0.331
-314.983	187.201	0.089	-0.133
-313.968	-23.048	-0.178	0.108
-312.953	-38.095	-0.131	0.069
-311.939	166.827	0.122	0.174
-310.924	254.533	0.269	-0.462
-309.910	33.092	0.167	0.145
-308.895	228.815	0.072	0.118
-307.880	800.000	0.038	-0.158
-306.866	800.000	0.065	0.212
-305.851	800.000	0.019	-0.055
-304.837	359.095	-0.195	-0.390
-303.822	-58.542	0.341	-0.148
-302.807	92.969	-0.273	-0.309
-301.793	-200.000	-0.025	-0.227
-300.778	36.275	0.255	-0.226
-299.764	-200.000	-0.013	-0.091
-298.749	-67.914	-0.102	0.040
-297.735	14.930	-0.102	-0.080
-296.720	77.339	-0.234	-0.249
-295.705	310.454	0.198	-0.372
-294.691	-200.000	-0.010	-0.149
-293.676	-200.000	0.002	-0.017
-292.662	89.328	0.123	0.137
-291.647	-200.000	-0.005	0.218
-290.632	800.000	0.028	-0.085
-289.618	-200.000	-0.006	0.103
-288.603	146.666	0.334	0.449
-287.589	-200.000	0.006	0.028
-286.574	-79.897	0.051	-0.017
-285.559	800.000	0.016	-0.055
-284.545	8.084	-0.289	-0.217
-283.530	343.070	-0.051	-0.101
-282.516	285.849	-0.083	0.149
-281.501	800.000	-0.062	-0.246
-280.486	3.460	-0.072	-0.053
-279.472	77.261	0.072	0.077
-278.457	-200.000	-0.002	-0.051
-277.443	-31.979	0.051	0.029
-276.428	350.036	0.112	0.222
-275.413	-200.000	-0.429	-0.000
-274.399	-200.000	0.001	-0.085
-273.384	32.769	-0.091	-0.079
-272.370	-40.206	0.347	0.181
-271.355	-200.000	-0.041	-0.206
-270.340	104.258	-0.134	0.157
-269.326	-12.896	-0.143	0.093
-268.311	247.083	-0.126	0.212
-267.297	-4.632	0.183	-0.127
-266.282	454.279	0.046	-0.102
-265.267	147.372	-0.060	-0.081
-264.253	-195.142	-0.162	0.001
-263.238	-147.052	0.397	0.034
-262.224	136.717	0.221	-0.288
-261.209	-93.725	0.289	0.080
-260.195	-44.862	0.306	-0.152
-259.180	571.438	-0.071	-0.172
-258.165	-200.000	0.050	0.237
-257.151	-138.727	0.175	0.019
-256.136	800.000	0.055	0.224
-255.122	-23.438	-0.063	-0.038
-254.107	800.000	-0.096	-0.328
-253.092	257.651	-0.069	-0.119
-252.078	-200.000	0.005	0.104
-251.063	-70.742	-0.197	-0.074
-250.049	-200.000	-0.008	0.287
-249.034	-182.780	-0.163	-0.003
-248.019	344.609	-0.113	-0.222
-247.005	40.944	0.231	0.209
-245.990	33.397	-0.182	0.158
-244.976	-40.133	0.237	-0.124
-243.961	-200.000	-0.002	0.168
-242.946	90.892	-0.193	-0.217
-241.932	-200.000	0.056	-0.284
-240.917	1.540	-0.151	0.109
-239.903	352.398	0.015	-0.030
-238.888	-151.448	-0.062	-0.005
-237.873	226.153	0.143	-0.231
-236.859	-108.673	-0.210	0.045
-235.844	-120.805	-0.246	-0.041
-234.830	378.974	0.016	-0.033
-233.815	693.727	0.019	0.050
-232.800	-200.000	0.001	0.022
-231.786	-35.409	-0.204	0.111
-230.771	777.020	-0.095	0.260
-229.757	-128.937	0.284	-0.040
-228.742	31.204	-0.175	-0.150
-227.727	-200.000	-0.009	-0.058
-226.713	-66.624	0.164	-0.065
-225.698	257.323	0.145	0.250
-224.684	-35.415	-0.181	-0.098
-223.669	-83.625	-0.272	0.087
-222.655	-147.210	-0.275	-0.023
-221.640	19.060	-0.042	0.033
-220.625	99.481	0.230	0.266
-219.611	500.832	-0.105	0.242
-218.596	-200.000	0.003	0.218
-217.582	-40.638	0.069	-0.036
-216.567	-96.073	0.291	0.077
-215.552	120.508	-0.043	0.054
-214.538	-89.842	0.470	-0.137
-213.523	-123.788	0.059	0.009
-212.509	-14.178	0.258	-0.166
-211.494	800.000	-0.049	-0.167
-210.479	-101.514	-0.414	0.101
-209.465	173.350	-0.131	0.188
-208.450	-19.826	0.168	0.104
-207.436	-144.240	0.583	0.054
-206.421	-200.000	0.017	0.217
-205.406	636.168	-0.065	-0.165
-204.392	-200.000	-0.002	0.091
-203.377	-59.135	-0.018	-0.008
-202.363	702.624	-0.093	0.245
-201.348	-63.673	-0.318	0.130
-200.333	266.825	-0.121	0.211
-199.319	-90.836	0.037	0.011
-198.304	-6.643	-0.387	0.263
-197.290	636.055	-0.162	-0.410
-196.275	108.594	-0.046	-0.055
-195.260	-125.397	0.298	-0.045
-194.246	394.566	-0.132	0.275
-193.231	19.539	0.078	-0.063
-192.217	77.593	-0.145	0.154
-191.202	-35.797	0.198	0.107
-190.187	19.592	0.107	0.086
-189.173	-178.735	-0.089	-0.002
-188.158	126.330	-0.024	0.031
-187.144	354.903	-0.051	-0.102
-186.129	-200.000	0.069	-0.411
-185.114	-151.477	0.281	0.021
-184.100	-151.094	-0.219	-0.016
-183.085	-17.897	-0.313	0.196
-182.071	199.881	0.278	0.426
-181.056	-15.308	0.189	-0.121
-180.042	77.171	0.168	-0.178
-179.027	162.401	0.275	0.384
-178.012	439.488	0.146	0.318
-176.998	232.459	0.083	-0.136
-175.983	-38.310	-0.152	-0.080
-174.969	543.248	0.211	0.503
-173.954	191.283	0.057	0.086
-172.939	800.000	0.079	-0.274
-171.925	20.796	0.135	-0.109
-170.910	800.000	0.028	-0.094
-169.896	-200.000	-0.017	0.356
-168.881	61.932	0.217	0.215
-167.866	26.709	0.043	-0.036
-166.852	800.000	0.101	0.308
-165.837	-200.000	-0.004	0.071
-164.823	-54.777	0.194	0.087
-163.808	52.693	-0.181	0.172
-162.793	-95.570	-0.154	-0.041
-161.779	26.206	0.103	0.086
-160.764	-81.694	-0.323	0.106
-159.750	-60.533	-0.172	-0.073
-158.735	260.015	0.117	0.201
-157.720	-200.000	-0.023	0.278
-156.706	318.257	-0.155	0.292
-155.691	-200.000	0.049	-0.308
-154.677	-135.307	-0.169	0.020
-153.662	21.717	0.117	-0.095
-152.647	24.477	0.108	-0.089
-151.633	-64.750	0.153	-0.062
-150.618	161.296	-0.198	0.276
-149.604	-20.294	-0.257	0.158
-148.589	-200.000	0.012	-0.284
-147.574	42.844	-0.098	-0.089
-146.560	297.623	0.102	-0.186
-145.545	-200.000	-0.013	-0.234
-144.531	-80.220	0.130	0.043
-143.516	368.941	0.071	-0.143
-142.502	-85.220	-0.240	-0.075
-141.487	-200.000	0.030	0.243
-140.472	-154.967	-0.156	-0.010
-139.458	800.000	0.036	-0.108
-138.443	-141.406	0.222	0.022
-137.429	-180.153	0.149	0.003
-136.414	-66.429	-0.115	0.045
-135.399	-67.666	0.179	0.070
-134.385	362.681	-0.141	0.282
-133.370	14.073	0.148	0.114
-132.356	-200.000	-0.001	0.422
-131.341	191.604	0.209	0.313
-130.326	-200.000	0.035	0.230
-129.312	-94.226	0.334	0.091
-128.297	-200.000	-0.048	0.288
-127.283	410.312	0.074	-0.157
-126.268	-113.760	0.080	0.015
-125.253	-179.111	-0.101	0.002
-124.239	31.489	0.058	0.050
-123.224	-200.000	0.009	-0.239
-122.210	228.551	-0.096	0.155
-121.195	-137.786	-0.359	0.040
-120.180	800.000	0.006	-0.025
-119.166	192.082	0.159	-0.239
