DTS Sentinel unit serial number:	SN413079Multiplexer serial number:	ORYXHardware model number:	OX4-SRSoftware version number:	ORYX F/W v4.00 Oryx Data Collector v3.7.2.0data status	okinstallation	princeton_trtdifferential loss correction	single-endedforward channel	channel 4reverse channel	N/Adate	2019/09/11time	14:03:11forward acquisition time	60.00reverse acquisition time	0.00gamma	496.2192k internal	0.2283k external	0.2283temperature offset calibration	1.0002default loss term (dB/km)	0.3790temperature slope calibration	1.0000multiplexer offset coefficient	1.0000multiplexer slope coefficient	1.0000fibre end	0.00T internal ref (°C)	41.89T ext. ref 1 (°C)	0.86T ext. ref 2 (°C)	36.26length (m)	temperature (°C)	Stokes	anti-Stokes-747.200	-200.000	0.005	-0.055
-746.185	-200.000	-0.043	0.316
-745.171	-46.259	0.101	0.051
-744.156	26.629	-0.079	-0.068
-743.142	-97.615	-0.276	0.074
-742.127	678.469	0.078	0.209
-741.112	-47.464	0.088	0.044
-740.098	800.000	-0.089	0.282
-739.083	-200.000	-0.014	-0.271
-738.069	229.737	-0.177	0.298
-737.054	6.761	-0.189	0.144
-736.039	467.360	-0.081	0.187
-735.025	-200.000	-0.005	0.369
-734.010	800.000	-0.013	-0.056
-732.996	-144.088	-0.245	-0.024
-731.981	-25.746	-0.353	0.213
-730.966	155.481	-0.047	-0.066
-729.952	216.266	0.237	-0.387
-728.937	169.655	0.170	-0.250
-727.923	-23.221	-0.201	-0.124
-726.908	-93.716	0.118	-0.033
-725.894	-200.000	0.027	0.287
-724.879	-200.000	0.008	0.050
-723.864	226.900	-0.037	-0.061
-722.850	-200.000	0.038	0.431
-721.835	-200.000	-0.173	-0.000
-720.821	65.710	-0.149	-0.155
-719.806	-89.914	-0.147	-0.044
-718.791	-17.423	0.166	0.107
-717.777	135.098	0.116	0.155
-716.762	-53.371	-0.264	-0.124
-715.748	-200.000	0.027	-0.199
-714.733	-110.754	0.241	-0.051
-713.718	-102.033	-0.230	0.057
-712.704	-140.088	-0.331	-0.036
-711.689	494.040	0.061	-0.143
-710.675	182.730	0.193	0.293
-709.660	-200.000	0.011	0.155
-708.645	84.860	0.266	-0.299
-707.631	-200.000	-0.050	-0.395
-706.616	94.152	0.130	-0.151
-705.602	133.608	-0.021	-0.028
-704.587	-141.046	-0.155	0.016
-703.572	-22.033	-0.341	0.213
-702.558	-107.799	0.165	0.037
-701.543	138.602	-0.193	-0.260
-700.529	433.430	0.135	-0.300
-699.514	-200.000	0.010	-0.396
-698.499	800.000	0.066	-0.283
-697.485	110.940	-0.141	-0.174
-696.470	-117.661	-0.407	0.075
-695.456	800.000	-0.044	-0.131
-694.441	-200.000	0.028	0.267
-693.426	-200.000	-0.007	-0.040
-692.412	-40.224	-0.196	-0.105
-691.397	-7.972	0.236	0.163
-690.383	-94.132	-0.380	0.107
-689.368	-123.488	0.266	-0.043
-688.354	583.952	-0.026	0.065
-687.339	36.420	-0.313	-0.283
-686.324	194.051	-0.033	0.052
-685.310	-42.399	0.132	-0.069
-684.295	-141.640	-0.354	0.037
-683.281	337.106	-0.157	0.313
-682.266	-200.000	0.057	-0.273
-681.251	-148.688	-0.206	0.017
-680.237	123.607	-0.176	-0.226
-679.222	-47.632	-0.119	-0.059
-678.208	60.344	-0.041	0.041
-677.193	-8.160	-0.179	0.124
-676.178	-200.000	0.079	-0.386
-675.164	-46.475	0.347	-0.174
-674.149	677.759	-0.062	0.166
-673.135	71.419	-0.105	0.112
-672.120	-135.877	-0.270	-0.033
-671.105	19.190	-0.273	-0.224
-670.091	-154.216	-0.019	0.001
-669.076	-200.000	-0.001	0.109
-668.062	-200.000	0.029	-0.191
-667.047	-140.668	0.162	0.017
-666.032	28.265	-0.418	-0.362
-665.018	800.000	0.060	0.215
-664.003	-130.389	-0.504	0.070
-662.989	121.107	-0.141	0.180
-661.974	-2.983	0.210	0.150
-660.959	-67.156	0.480	-0.194
-659.945	-60.100	-0.250	0.109
-658.930	-43.962	0.303	-0.156
-657.916	-77.216	-0.469	-0.167
-656.901	269.262	-0.091	0.164
-655.886	-200.000	0.008	-0.430
-654.872	-149.075	0.253	0.021
-653.857	424.994	0.080	-0.176
-652.843	39.215	0.073	-0.067
-651.828	84.624	-0.405	0.454
-650.814	-58.934	-0.138	0.061
-649.799	616.812	-0.084	-0.216
-648.784	217.565	0.101	0.164
-647.770	-134.707	-0.117	-0.015
-646.755	800.000	-0.026	0.115
-645.741	-107.484	0.174	-0.039
-644.726	-74.730	0.208	-0.076
-643.711	-89.908	0.161	0.048
-642.697	96.184	0.229	-0.268
-641.682	-16.773	-0.083	0.054
-640.668	-93.808	-0.074	-0.021
-639.653	-120.190	0.112	0.020
-638.638	-52.195	0.277	0.131
-637.624	-81.519	0.231	0.078
-636.609	-66.761	0.300	0.122
-635.595	-15.771	-0.604	-0.394
-634.580	-79.748	0.157	0.054
-633.565	-200.000	0.062	-0.373
-632.551	-200.000	-0.063	-0.385
-631.536	56.006	-0.165	0.164
-630.522	800.000	-0.050	0.202
-629.507	-200.000	0.040	0.238
-628.492	190.299	0.149	0.229
-627.478	-41.909	0.328	0.172
-626.463	768.493	0.015	0.041
-625.449	-84.439	0.110	-0.035
-624.434	-2.771	0.092	-0.065
-623.419	-31.620	0.064	0.037
-622.405	-2.337	0.194	-0.139
-621.390	-129.897	0.113	0.016
-620.376	363.266	0.009	-0.019
-619.361	-150.311	-0.292	0.023
-618.346	-70.571	-0.204	0.079
-617.332	-104.222	0.027	0.006
-616.317	194.542	-0.103	-0.160
-615.303	-200.000	0.019	-0.545
-614.288	185.489	-0.083	0.127
-613.273	47.197	-0.108	0.102
-612.259	472.950	-0.144	-0.333
-611.244	113.622	0.088	0.109
-610.230	-200.000	-0.011	0.120
-609.215	134.553	-0.143	-0.189
-608.201	-38.443	0.346	0.187
-607.186	95.539	-0.094	0.109
-606.171	98.480	-0.063	-0.074
-605.157	-105.817	-0.127	-0.029
-604.142	424.512	0.077	0.170
-603.128	279.423	-0.160	-0.291
-602.113	433.086	-0.130	-0.288
-601.098	-51.225	-0.167	-0.080
-600.084	-94.787	0.119	-0.033
-599.069	288.782	0.072	-0.133
-598.055	5.233	-0.277	-0.209
-597.040	-4.190	-0.114	0.081
-596.025	300.517	-0.081	-0.153
-595.011	-139.787	0.104	-0.011
-593.996	22.771	-0.039	-0.033
-592.982	-174.522	0.163	-0.005
-591.967	14.988	-0.257	-0.205
-590.952	531.395	0.055	0.134
-589.938	62.905	-0.151	-0.154
-588.923	-200.000	0.024	0.155
-587.909	-109.106	0.313	0.068
-586.894	19.888	-0.087	0.072
-585.879	155.018	-0.105	-0.147
-584.865	-141.622	0.158	0.016
-583.850	-200.000	0.011	-0.131
-582.836	-200.000	0.023	-0.127
-581.821	-130.224	-0.504	-0.070
-580.806	-110.342	0.235	-0.050
-579.792	57.071	0.157	0.156
-578.777	89.630	0.246	0.281
-577.763	-105.103	0.241	-0.056
-576.748	299.498	-0.162	-0.304
-575.733	181.370	-0.098	0.146
-574.719	132.021	0.092	0.121
-573.704	-10.285	0.165	0.112
-572.690	800.000	0.044	0.132
-571.675	408.434	-0.073	0.158
-570.661	128.481	0.114	-0.148
-569.646	-43.653	-0.142	-0.073
-568.631	225.668	0.084	-0.139
-567.617	800.000	-0.070	0.252
-566.602	800.000	0.082	-0.273
-565.588	1.056	0.250	0.183
-564.573	-31.895	0.243	-0.139
-563.558	-117.170	-0.197	-0.037
-562.544	-170.608	0.126	-0.004
-561.529	-200.000	0.046	-0.287
-560.515	-139.560	0.258	0.028
-559.500	-41.123	-0.219	-0.115
-558.485	-200.000	0.044	-0.326
-557.471	-85.505	-0.253	-0.080
-556.456	-198.663	-0.265	-0.002
-555.442	30.680	-0.009	-0.007
-554.427	789.557	-0.079	-0.223
-553.412	-127.694	0.273	-0.040
-552.398	-122.834	-0.172	0.028
-551.383	-70.994	-0.138	0.053
-550.369	800.000	0.077	0.266
-549.354	-129.727	-0.437	0.061
-548.339	-62.199	-0.366	-0.156
-547.325	800.000	-0.028	-0.092
-546.310	-129.775	0.285	-0.040
-545.296	637.563	-0.092	-0.240
-544.281	-59.952	-0.115	-0.050
-543.266	-79.391	-0.335	-0.116
-542.252	-194.221	-0.645	-0.005
-541.237	-79.333	-0.291	-0.100
-540.223	800.000	0.105	0.317
-539.208	268.944	-0.121	0.216
-538.193	688.988	0.042	0.111
-537.179	-6.243	-0.316	0.220
-536.164	-200.000	0.006	0.369
-535.150	26.901	0.282	-0.241
-534.135	800.000	0.025	0.106
-533.121	-29.043	0.170	-0.100
-532.106	366.946	-0.162	0.333
-531.091	66.195	-0.101	-0.105
-530.077	-27.688	0.218	-0.129
-529.062	112.752	-0.121	-0.150
-528.048	-200.000	-0.064	-0.438
-527.033	-77.747	-0.191	-0.067
-526.018	40.976	0.127	-0.117
-525.004	800.000	0.068	-0.245
-523.989	11.578	-0.161	-0.126
-522.975	-57.365	-0.232	0.104
-521.960	-7.624	-0.189	0.130
-520.945	464.235	-0.116	0.265
-519.931	-200.000	0.003	0.048
-518.916	144.787	0.255	0.348
-517.902	-200.000	-0.019	0.219
-516.887	-44.913	0.180	-0.091
-515.872	800.000	0.060	-0.198
-514.858	-186.380	0.114	-0.002
-513.843	405.181	0.208	-0.447
-512.829	11.557	0.159	-0.124
-511.814	-46.888	0.160	-0.080
-510.799	93.791	-0.143	0.166
-509.785	-41.820	-0.321	0.168
-508.770	218.538	-0.144	0.233
-507.756	-12.570	-0.423	0.281
-506.741	800.000	0.075	-0.273
-505.726	800.000	-0.118	-0.476
-504.712	509.152	-0.084	-0.198
-503.697	-84.678	-0.277	0.089
-502.683	-59.763	-0.067	0.029
-501.668	156.311	-0.117	-0.165
-500.653	-167.533	0.243	0.010
-499.639	84.057	0.137	-0.152
-498.624	-41.755	0.113	-0.059
-497.610	800.000	0.081	0.329
-496.595	-118.368	0.069	0.012
-495.581	800.000	0.049	-0.162
-494.566	438.731	-0.079	0.175
-493.551	-13.908	-0.072	0.047
-492.537	-46.715	-0.262	0.130
-491.522	5.340	0.106	-0.080
-490.508	-104.070	-0.038	-0.009
-489.493	-200.000	-0.070	0.331
-488.478	-157.915	0.323	-0.019
-487.464	800.000	0.069	-0.232
-486.449	62.847	-0.229	-0.233
-485.435	209.466	-0.081	0.129
-484.420	598.429	0.081	-0.204
-483.405	-142.644	-0.246	-0.024
-482.391	-198.464	-0.300	0.002
-481.376	800.000	0.145	0.448
-480.362	31.027	0.239	0.208
-479.347	800.000	0.084	-0.240
-478.332	-1.668	-0.019	-0.014
-477.318	-146.586	0.114	-0.010
-476.303	-19.522	-0.157	0.099
-475.289	-74.137	0.244	0.090
-474.274	640.945	-0.083	0.215
-473.259	258.666	-0.090	-0.158
-472.245	432.004	0.155	-0.341
-471.230	31.691	0.067	0.058
-470.216	753.883	-0.023	0.065
-469.201	-200.000	-0.053	-0.350
-468.186	464.493	0.048	0.110
-467.172	80.285	0.099	0.108
-466.157	17.799	-0.133	0.108
-465.143	38.703	-0.215	0.195
-464.128	243.169	-0.119	0.202
-463.113	377.853	-0.082	0.170
-462.099	9.123	-0.103	-0.079
-461.084	8.934	0.342	-0.262
-460.070	800.000	0.053	0.168
-459.055	-121.273	0.151	0.026
-458.040	360.620	0.158	-0.322
-457.026	-132.367	-0.310	0.041
-456.011	15.203	-0.254	0.202
-454.997	-62.624	0.419	-0.177
-453.982	-71.303	0.077	-0.029
-452.968	800.000	0.046	0.137
-451.953	425.044	0.121	-0.266
-450.938	-10.453	0.283	-0.190
-449.924	140.671	-0.098	0.131
-448.909	285.608	-0.199	-0.364
-447.895	800.000	0.157	0.463
-446.880	34.192	0.106	-0.094
-445.865	-102.227	0.216	0.053
-444.851	-150.898	-0.096	0.007
-443.836	-172.517	0.091	0.003
-442.822	-109.631	-0.208	-0.044
-441.807	-200.000	-0.094	-0.501
-440.792	-26.822	-0.154	0.091
-439.778	34.591	-0.097	0.086
-438.763	-34.531	-0.084	-0.047
-437.749	-33.738	0.240	0.134
-436.734	-200.000	-0.001	-0.146
-435.719	259.956	-0.174	-0.305
-434.705	223.054	0.102	0.167
-433.690	-200.000	0.040	0.220
-432.676	-165.159	-0.195	-0.009
-431.661	-72.739	-0.304	0.114
-430.646	-200.000	-0.016	-0.319
-429.632	-125.330	0.048	0.008
-428.617	-200.000	0.025	0.246
-427.603	-200.000	-0.085	0.383
-426.588	322.709	-0.094	0.181
-425.573	149.007	-0.124	0.170
-424.559	170.223	0.190	-0.276
-423.544	-135.332	-0.148	-0.018
-422.530	-16.860	0.408	-0.262
-421.515	-4.005	-0.065	-0.046
-420.500	-200.000	0.010	0.240
-419.486	-140.841	0.256	0.027
-418.471	-75.955	0.235	0.084
-417.457	800.000	0.094	0.322
-416.442	313.250	-0.103	-0.196
-415.428	19.654	0.251	-0.205
-414.413	-200.000	-0.006	0.031
-413.398	739.134	-0.034	0.093
-412.384	800.000	0.036	-0.133
-411.369	800.000	0.008	0.024
-410.355	-79.679	0.153	-0.052
-409.340	-0.880	0.182	0.131
-408.325	-16.835	-0.264	0.169
-407.311	193.476	-0.107	-0.165
-406.296	-109.494	0.141	0.030
-405.282	-125.124	-0.238	0.037
-404.267	-3.030	0.208	-0.147
-403.252	0.471	-0.330	0.239
-402.238	377.488	-0.031	0.064
-401.223	-139.392	-0.191	-0.021
-400.209	-200.000	-0.065	0.306
-399.194	73.134	-0.183	0.194
-398.179	-200.000	-0.005	-0.100
-397.165	-11.900	0.054	-0.036
-396.150	42.136	-0.113	-0.104
-395.136	630.061	0.066	-0.170
-394.121	-200.000	0.025	0.315
-393.106	537.869	0.086	-0.206
-392.092	253.205	-0.132	-0.228
-391.077	-49.787	0.293	0.141
-390.063	-200.000	-0.005	0.151
-389.048	-200.000	-0.001	-0.105
-388.033	-137.286	-0.217	0.025
-387.019	-149.093	-0.202	0.016
-386.004	-116.331	-0.266	-0.050
-384.990	-200.000	0.007	-0.145
-383.975	113.769	0.008	-0.010
-382.960	-32.771	-0.203	0.114
-381.946	28.351	-0.286	-0.245
-380.931	-115.680	0.033	-0.006
-379.917	800.000	-0.021	0.092
-378.902	505.603	0.035	-0.083
-377.888	800.000	0.083	-0.284
-376.873	-35.638	-0.199	-0.109
-375.858	-189.057	0.278	0.003
-374.844	800.000	0.070	-0.242
-373.829	-200.000	0.019	0.145
-372.815	118.684	0.237	0.296
-371.800	-20.930	-0.128	-0.080
-370.785	-83.843	-0.330	0.106
-369.771	-170.411	0.141	0.005
-368.756	-13.399	0.233	0.153
-367.742	150.424	-0.088	0.121
-366.727	-128.827	0.321	0.046
-365.712	-93.191	-0.208	0.059
-364.698	53.735	0.036	0.035
-363.683	-15.874	-0.277	-0.178
-362.669	-200.000	0.039	0.269
-361.654	48.337	-0.266	0.252
-360.639	800.000	0.044	0.165
-359.625	-164.107	-0.167	0.008
-358.610	36.147	0.122	-0.109
-357.596	-148.402	0.068	-0.006
-356.581	-116.835	-0.377	-0.070
-355.566	800.000	0.049	0.173
-354.552	150.157	-0.111	0.153
-353.537	-200.000	-0.017	0.358
-352.523	800.000	0.095	-0.366
-351.508	-155.214	-0.397	0.026
-350.493	-9.034	-0.166	0.112
-349.479	147.198	-0.141	-0.193
-348.464	-120.790	-0.237	-0.040
-347.450	2.059	0.163	-0.119
-346.435	-64.222	0.275	-0.113
-345.420	800.000	0.015	0.062
-344.406	-49.459	-0.238	-0.115
-343.391	-98.036	0.152	-0.040
-342.377	-92.247	-0.422	-0.120
-341.362	-200.000	0.007	0.043
-340.348	148.302	-0.026	0.035
-339.333	-200.000	0.026	-0.236
-338.318	676.369	-0.120	-0.314
-337.304	601.791	0.104	0.262
-336.289	594.603	-0.083	-0.207
-335.275	-200.000	0.063	0.444
-334.260	-150.234	0.480	-0.038
-333.245	-145.284	0.264	-0.024
-332.231	800.000	0.017	0.067
-331.216	-125.182	0.213	-0.033
-330.202	532.090	0.105	0.251
-329.187	110.400	0.270	-0.328
-328.172	256.205	0.155	-0.269
-327.158	297.915	-0.134	-0.249
-326.143	131.723	-0.070	-0.091
-325.129	105.157	-0.078	-0.093
-324.114	-200.000	0.037	0.172
-323.099	-69.525	-0.298	-0.116
-322.085	-79.588	0.176	0.060
-321.070	54.500	-0.283	-0.275
-320.056	73.138	0.121	0.128
-319.041	14.654	0.208	-0.165
-318.026	-102.483	0.165	-0.040
-317.012	-200.000	-0.005	-0.045
-315.997	-56.947	0.086	-0.039
-314.983	800.000	0.084	0.355
-313.968	291.184	0.055	-0.102
-312.953	40.273	-0.144	-0.131
-311.939	-124.917	0.029	0.005
-310.924	15.368	0.200	-0.159
-309.910	-200.000	0.027	0.206
-308.895	-158.363	0.172	-0.010
-307.880	37.238	0.059	0.053
-306.866	-200.000	0.018	-0.228
-305.851	1.756	0.209	-0.152
-304.837	-94.726	0.175	0.048
-303.822	43.394	0.271	-0.250
-302.807	40.410	-0.091	0.083
-301.793	496.829	-0.040	-0.093
-300.778	-200.000	0.030	-0.199
-299.764	281.516	0.141	0.255
-298.749	-40.538	0.062	-0.033
-297.735	800.000	-0.096	-0.396
-296.720	-94.310	-0.196	0.054
-295.705	195.798	-0.099	-0.152
-294.691	11.466	-0.021	-0.016
-293.676	236.530	-0.077	-0.129
-292.662	444.828	-0.155	0.343
-291.647	766.988	0.076	-0.209
-290.632	36.063	0.072	-0.064
-289.618	-200.000	0.007	0.149
-288.603	-11.580	-0.281	-0.186
-287.589	-69.841	-0.321	-0.124
-286.574	-171.914	0.105	-0.003
-285.559	-105.616	-0.288	-0.066
-284.545	-155.199	-0.043	-0.003
-283.530	196.210	0.192	-0.295
-282.516	-1.270	-0.212	-0.151
-281.501	-200.000	0.018	0.162
-280.486	-155.810	0.364	-0.023
-279.472	-200.000	0.024	0.252
-278.457	-110.944	-0.144	-0.030
-277.443	-200.000	-0.006	-0.068
-276.428	122.473	0.126	0.159
-275.413	631.456	-0.049	0.124
-274.399	-46.687	0.416	-0.205
-273.384	368.768	-0.093	0.191
-272.370	800.000	-0.082	0.305
-271.355	-200.000	-0.025	0.142
-270.340	-38.143	0.075	-0.040
-269.326	-10.477	0.072	0.048
-268.311	88.893	-0.077	-0.086
-267.297	-169.783	-0.101	0.004
-266.282	-114.947	-0.150	0.029
-265.267	-117.527	-0.213	0.039
-264.253	-2.975	-0.133	-0.094
-263.238	-158.189	0.111	-0.007
-262.224	-126.368	-0.174	0.026
-261.209	-127.042	-0.212	0.031
-260.195	94.055	0.156	-0.178
-259.180	-33.062	-0.070	0.039
-258.165	800.000	-0.064	0.189
-257.151	-200.000	0.011	-0.302
-256.136	-121.312	-0.167	-0.028
-255.122	194.344	0.184	0.282
-254.107	-43.554	-0.014	0.007
-253.092	462.930	0.090	0.202
-252.078	-117.056	0.140	0.026
-251.063	-32.036	0.008	-0.005
-250.049	-99.426	0.151	-0.038
-249.034	-92.042	-0.039	0.011
-248.019	800.000	0.016	0.048
-247.005	107.809	0.082	0.099
-245.990	38.837	-0.102	0.092
-244.976	-3.865	0.408	0.285
-243.961	-46.618	0.214	0.106
-242.946	800.000	0.153	-0.510
-241.932	-75.637	-0.190	-0.068
-240.917	-75.638	-0.164	0.059
-239.903	-96.761	-0.035	-0.009
-238.888	373.987	0.085	0.174
-237.873	-134.615	0.288	0.035
-236.859	-55.325	0.219	-0.099
-235.844	560.947	0.088	-0.214
-234.830	-38.045	0.058	-0.031
-233.815	-200.000	-0.006	-0.095
-232.800	-154.547	0.327	0.022
-231.786	-29.743	0.262	0.151
-230.771	-92.913	0.353	0.099
-229.757	-5.904	-0.226	-0.156
-228.742	686.168	0.036	0.094
-227.727	-200.000	-0.004	-0.051
-226.713	-141.794	-0.312	0.032
-225.698	-164.511	-0.419	0.019
-224.684	800.000	-0.042	-0.129
-223.669	-57.878	0.248	0.109
-222.655	273.660	-0.053	-0.093
-221.640	-58.659	-0.433	0.189
-220.625	369.103	0.063	0.129
-219.611	-59.154	0.163	-0.071
-218.596	-126.236	0.108	-0.016
-217.582	69.050	0.174	0.180
-216.567	-200.000	0.052	-0.387
-215.552	551.775	0.011	-0.027
-214.538	800.000	-0.025	-0.088
-213.523	-45.735	-0.189	0.094
-212.509	351.117	0.055	0.110
-211.494	482.988	0.082	0.188
-210.479	800.000	-0.137	0.492
-209.465	-200.000	0.032	0.312
-208.450	-134.831	0.212	-0.026
-207.436	800.000	-0.006	-0.020
-206.421	800.000	-0.062	-0.263
-205.406	228.459	0.140	0.230
-204.392	-37.036	-0.184	0.099
-203.377	-120.715	-0.268	-0.045
-202.363	-42.700	-0.313	-0.160
-201.348	-99.341	0.229	0.058
-200.333	-85.008	-0.273	0.086
-199.319	59.340	0.032	-0.031
-198.304	36.499	0.027	-0.024
-197.290	91.730	0.156	0.177
-196.275	121.090	0.038	0.048
-195.260	-149.619	0.360	0.029
-194.246	-56.730	0.268	0.119
-193.231	529.477	0.172	0.409
-192.217	9.901	0.071	-0.055
-191.202	412.469	-0.077	0.164
-190.187	-65.556	-0.293	0.118
-189.173	75.797	0.086	0.092
-188.158	-200.000	-0.006	0.047
-187.144	103.488	-0.018	-0.021
-186.129	-200.000	-0.038	-0.266
-185.114	-134.190	0.169	0.021
-184.100	-106.802	0.106	-0.024
-183.085	65.135	0.117	0.119
-182.071	139.128	0.281	-0.371
-181.056	-76.179	-0.222	-0.079
-180.042	-83.809	-0.057	-0.018
-179.027	129.615	0.083	0.106
-178.012	40.393	0.276	0.250
-176.998	800.000	-0.098	0.353
-175.983	79.125	0.126	0.136
-174.969	229.391	-0.148	-0.243
-173.954	-54.165	0.262	-0.120
-172.939	44.705	-0.058	-0.053
-171.925	56.998	0.106	0.104
-170.910	-68.423	0.167	0.065
-169.896	97.952	-0.212	0.245
-168.881	-48.885	0.168	0.081
-167.866	800.000	0.076	0.270
-166.852	-59.319	-0.353	-0.153
-165.837	-200.000	0.017	-0.118
-164.823	800.000	0.124	0.457
-163.808	-200.000	-0.007	0.049
-162.793	-200.000	0.066	0.373
-161.779	-153.674	-0.172	-0.012
-160.764	-200.000	0.080	0.350
-159.750	-61.214	0.107	-0.045
-158.735	399.016	0.091	0.191
-157.720	203.987	0.063	-0.098
-156.706	193.121	-0.102	-0.155
-155.691	800.000	-0.050	0.208
-154.677	-200.000	0.010	0.054
-153.662	800.000	0.099	-0.420
-152.647	-200.000	-0.029	-0.174
-151.633	-200.000	-0.038	0.459
-150.618	800.000	-0.103	-0.400
-149.604	-39.047	-0.202	-0.107
-148.589	-117.457	-0.161	-0.029
-147.574	404.658	-0.036	-0.076
-146.560	800.000	-0.080	-0.278
-145.545	-16.675	-0.013	0.008
-144.531	5.959	-0.185	0.137
-143.516	-16.024	-0.076	-0.048
-142.502	-104.331	0.112	-0.026
-141.487	-116.614	-0.199	0.037
-140.472	-76.390	-0.054	0.019
-139.458	-160.357	-0.187	-0.010
-138.443	324.147	-0.084	0.162
-137.429	-20.971	-0.249	-0.153
-136.414	800.000	0.032	0.118
-135.399	-9.989	0.201	-0.134
-134.385	-200.000	0.040	-0.419
-133.370	-65.500	-0.095	0.038
-132.356	-200.000	0.003	-0.243
-131.341	269.782	0.210	-0.371
-130.326	95.355	0.145	-0.165
-129.312	521.631	0.090	0.211
-128.297	-200.000	0.036	0.204
-127.283	534.922	-0.075	-0.179
-126.268	800.000	0.079	0.239
-125.253	-63.289	-0.055	-0.023
-124.239	83.181	-0.064	-0.069
-123.224	755.525	-0.031	-0.085
-122.210	302.888	0.208	-0.386
