DTS Sentinel unit serial number:	SN413079Multiplexer serial number:	ORYXHardware model number:	OX4-SRSoftware version number:	ORYX F/W v4.00 Oryx Data Collector v3.7.2.0data status	okinstallation	princeton_trtdifferential loss correction	single-endedforward channel	channel 4reverse channel	N/Adate	2019/09/10time	20:11:11forward acquisition time	60.00reverse acquisition time	0.00gamma	496.2192k internal	0.2312k external	0.2312temperature offset calibration	0.9947default loss term (dB/km)	0.3790temperature slope calibration	1.0000multiplexer offset coefficient	1.0000multiplexer slope coefficient	1.0000fibre end	0.00T internal ref (°C)	32.41T ext. ref 1 (°C)	-0.31T ext. ref 2 (°C)	25.33length (m)	temperature (°C)	Stokes	anti-Stokes-747.200	545.872	-0.070	-0.171
-746.185	-29.932	-0.314	0.182
-745.171	-2.563	-0.254	0.180
-744.156	101.035	-0.265	0.312
-743.142	226.664	-0.121	-0.200
-742.127	515.434	-0.081	0.192
-741.112	-162.821	0.156	-0.008
-740.098	-39.046	-0.189	-0.101
-739.083	-136.955	0.232	0.027
-738.069	245.888	0.090	0.153
-737.054	-200.000	0.029	0.326
-736.039	414.445	-0.210	0.453
-735.025	-51.930	-0.133	0.063
-734.010	257.526	0.022	0.038
-732.996	-14.670	-0.277	0.181
-731.981	164.054	0.133	0.191
-730.966	218.498	-0.109	-0.176
-729.952	-200.000	-0.007	0.061
-728.937	160.649	-0.060	0.085
-727.923	800.000	0.047	0.140
-726.908	68.365	-0.196	-0.204
-725.894	-69.549	0.355	0.138
-724.879	-129.374	-0.041	0.006
-723.864	-71.569	0.147	-0.056
-722.850	411.108	0.054	0.116
-721.835	-179.862	0.266	-0.006
-720.821	-53.229	-0.149	-0.069
-719.806	-200.000	-0.322	0.001
-718.791	800.000	0.019	-0.073
-717.777	-200.000	0.027	0.269
-716.762	293.046	0.109	-0.202
-715.748	-99.876	-0.102	-0.026
-714.733	-200.000	0.002	-0.055
-713.718	-89.646	0.301	-0.089
-712.704	104.062	-0.158	-0.188
-711.689	-115.334	-0.392	0.075
-710.675	320.706	0.128	-0.247
-709.660	-200.000	-0.011	0.268
-708.645	151.813	0.162	-0.224
-707.631	498.256	0.187	-0.437
-706.616	-152.179	0.118	-0.009
-705.602	5.992	-0.220	-0.165
-704.587	-34.529	-0.091	0.050
-703.572	-43.840	-0.048	0.024
-702.558	98.587	-0.147	0.171
-701.543	-86.242	0.155	-0.048
-700.529	-134.317	-0.176	0.022
-699.514	338.812	-0.095	-0.187
-698.499	-27.566	0.579	-0.341
-697.485	-70.800	-0.424	-0.162
-696.470	800.000	-0.128	-0.361
-695.456	336.295	-0.132	0.260
-694.441	-64.793	0.074	0.031
-693.426	39.252	0.215	-0.195
-692.412	-84.397	-0.143	0.046
-691.397	115.560	0.091	0.112
-690.383	-200.000	-0.077	-0.381
-689.368	22.384	0.117	0.097
-688.354	-170.822	0.381	-0.013
-687.339	-200.000	-0.100	0.000
-686.324	-101.915	-0.307	-0.075
-685.310	800.000	0.051	-0.203
-684.295	-200.000	-0.002	0.222
-683.281	68.738	0.172	0.179
-682.266	-200.000	-0.011	0.143
-681.251	-200.000	0.034	0.252
-680.237	-200.000	-0.014	-0.128
-679.222	23.428	0.132	0.110
-678.208	-200.000	0.023	-0.219
-677.193	-84.410	-0.354	0.113
-676.178	28.341	0.046	0.039
-675.164	64.284	0.113	-0.115
-674.149	-139.923	0.481	-0.051
-673.135	30.876	-0.195	-0.169
-672.120	177.786	-0.110	-0.162
-671.105	76.336	0.283	0.304
-670.091	27.293	0.195	0.166
-669.076	149.281	-0.078	-0.107
-668.062	-6.260	0.286	-0.198
-667.047	-200.000	0.028	-0.201
-666.032	800.000	-0.028	-0.085
-665.018	-200.000	-0.073	0.365
-664.003	483.172	-0.119	-0.275
-662.989	-62.376	-0.197	0.083
-661.974	-200.000	-0.055	-0.274
-660.959	800.000	-0.072	0.270
-659.945	-200.000	-0.012	0.202
-658.930	800.000	0.050	0.208
-657.916	21.115	-0.078	0.064
-656.901	225.803	0.152	0.249
-655.886	128.018	-0.390	0.502
-654.872	186.307	-0.156	0.235
-653.857	4.717	0.221	0.165
-652.843	-172.029	-0.081	0.003
-651.828	-200.000	-0.057	-0.271
-650.814	-200.000	0.037	-0.171
-649.799	36.438	-0.064	0.057
-648.784	213.044	-0.170	0.271
-647.770	74.394	-0.034	0.037
-646.755	-86.738	-0.135	-0.042
-645.741	-78.626	0.076	-0.026
-644.726	-200.000	-0.016	0.138
-643.711	-124.472	-0.239	-0.038
-642.697	-82.211	0.316	0.104
-641.682	-83.227	0.186	-0.060
-640.668	-200.000	-0.010	-0.101
-639.653	-168.091	-0.210	0.008
-638.638	-200.000	-0.013	0.272
-637.624	55.788	0.161	0.157
-636.609	398.196	-0.151	-0.320
-635.595	-200.000	-0.005	-0.067
-634.580	-120.050	0.247	-0.043
-633.565	-200.000	0.040	0.214
-632.551	800.000	0.065	0.279
-631.536	34.445	-0.144	0.127
-630.522	285.762	-0.143	-0.260
-629.507	-24.158	0.198	0.119
-628.492	-115.771	-0.143	-0.027
-627.478	-200.000	-0.047	0.280
-626.463	-137.554	0.189	0.021
-625.449	120.818	-0.089	-0.111
-624.434	-149.073	-0.216	0.017
-623.419	-94.841	0.220	-0.060
-622.405	-200.000	-0.009	0.046
-621.390	-35.257	0.119	0.065
-620.376	-102.358	0.125	-0.030
-619.361	-200.000	-0.010	-0.197
-618.346	242.544	0.080	0.136
-617.332	62.848	-0.121	0.122
-616.317	243.057	-0.109	0.185
-615.303	-105.652	-0.230	-0.053
-614.288	-119.019	-0.243	-0.043
-613.273	800.000	0.072	0.222
-612.259	9.857	-0.191	-0.146
-611.244	402.340	-0.074	-0.156
-610.230	51.442	-0.056	0.054
-609.215	2.590	0.116	0.085
-608.201	-200.000	0.004	0.216
-607.186	3.995	-0.115	0.085
-606.171	-21.458	-0.126	-0.077
-605.157	-200.000	0.013	-0.074
-604.142	250.152	0.249	-0.427
-603.128	79.765	0.049	0.054
-602.113	536.649	0.127	-0.303
-601.098	25.245	-0.121	0.101
-600.084	-146.723	0.372	-0.032
-599.069	294.506	-0.027	-0.050
-598.055	3.836	0.194	0.143
-597.040	777.045	-0.098	-0.269
-596.025	-148.544	0.561	0.046
-595.011	-99.872	0.237	0.060
-593.996	611.920	-0.010	0.025
-592.982	-200.000	0.001	-0.021
-591.967	-106.869	-0.143	-0.032
-590.952	-124.198	0.265	0.042
-589.938	-200.000	0.012	-0.199
-588.923	-200.000	-0.031	-0.174
-587.909	-77.637	0.182	-0.063
-586.894	92.228	0.145	-0.165
-585.879	68.019	-0.131	-0.136
-584.865	-73.893	0.298	-0.109
-583.850	800.000	-0.071	-0.259
-582.836	577.408	-0.084	0.207
-581.821	-5.504	0.186	0.128
-580.806	-103.695	0.040	-0.010
-579.792	-200.000	0.006	-0.178
-578.777	1.474	-0.189	-0.137
-577.763	-200.000	0.000	0.028
-576.748	301.847	-0.044	0.083
-575.733	-87.248	0.095	-0.029
-574.719	20.105	0.111	-0.090
-573.704	550.168	-0.095	0.231
-572.690	62.694	0.194	-0.195
-571.675	8.644	0.192	-0.146
-570.661	35.589	-0.115	-0.102
-569.646	-107.279	0.343	-0.076
-568.631	-200.000	0.000	0.083
-567.617	301.388	0.094	-0.176
-566.602	-200.000	-0.036	-0.234
-565.588	-200.000	-0.035	-0.190
-564.573	333.484	-0.008	0.015
-563.558	800.000	-0.109	-0.353
-562.544	52.095	0.185	-0.177
-561.529	139.625	-0.065	0.086
-560.515	142.281	-0.047	-0.063
-559.500	80.564	0.101	-0.110
-558.485	-12.061	0.021	-0.014
-557.471	109.923	0.029	0.035
-556.456	-35.821	-0.162	0.088
-555.442	-15.720	-0.144	0.093
-554.427	144.897	-0.170	-0.229
-553.412	-22.409	0.156	0.095
-552.398	131.934	0.167	-0.217
-551.383	-35.551	-0.291	-0.159
-550.369	-62.995	-0.323	0.134
-549.354	-70.306	0.202	0.077
-548.339	-63.997	0.208	-0.086
-547.325	177.914	-0.049	-0.072
-546.310	73.636	0.206	-0.217
-545.296	35.752	-0.251	0.222
-544.281	800.000	-0.034	0.101
-543.266	-27.043	-0.122	0.072
-542.252	23.732	-0.159	0.131
-541.237	-3.318	0.248	-0.174
-540.223	46.240	-0.360	-0.336
-539.208	-143.518	-0.267	-0.026
-538.193	-118.985	0.436	0.077
-537.179	104.859	0.038	-0.045
-536.164	-65.964	0.092	-0.037
-535.150	-200.000	-0.003	-0.182
-534.135	-153.324	0.112	-0.008
-533.121	800.000	-0.030	0.128
-532.106	84.349	-0.219	-0.242
-531.091	-119.076	0.099	-0.017
-530.077	-104.581	-0.268	-0.062
-529.062	633.862	-0.017	-0.044
-528.048	-186.424	0.167	-0.002
-527.033	-80.311	-0.169	-0.057
-526.018	110.775	0.167	0.203
-525.004	-32.789	0.386	0.216
-523.989	473.869	0.127	-0.289
-522.975	-200.000	-0.016	0.117
-521.960	-200.000	0.004	0.121
-520.945	-89.779	-0.184	0.054
-519.931	800.000	0.024	-0.097
-518.916	30.450	-0.044	-0.038
-517.902	-200.000	0.078	-0.444
-516.887	-200.000	0.002	-0.024
-515.872	-120.852	-0.143	0.024
-514.858	-30.157	-0.086	0.049
-513.843	-64.457	0.086	-0.035
-512.829	-138.654	0.384	0.042
-511.814	315.639	0.134	-0.255
-510.799	41.274	0.189	-0.172
-509.785	96.800	-0.186	0.214
-508.770	23.023	-0.153	-0.126
-507.756	-200.000	0.027	-0.423
-506.741	-158.924	-0.233	0.013
-505.726	-37.297	-0.125	-0.067
-504.712	143.641	0.179	-0.240
-503.697	800.000	0.053	-0.179
-502.683	60.226	-0.146	-0.145
-501.668	800.000	0.077	-0.222
-500.653	154.581	0.259	-0.358
-499.639	25.570	-0.202	-0.169
-498.624	-111.328	0.118	0.024
-497.610	276.833	-0.244	-0.436
-496.595	344.147	0.082	0.161
-495.581	800.000	-0.034	-0.102
-494.566	29.570	0.196	-0.167
-493.551	215.945	-0.128	-0.204
-492.537	210.054	-0.147	-0.232
-491.522	-119.829	0.157	-0.027
-490.508	-11.401	-0.196	0.130
-489.493	800.000	0.024	0.075
-488.478	240.490	0.089	0.148
-487.464	-200.000	-0.015	0.272
-486.449	67.943	0.046	0.047
-485.435	800.000	-0.098	-0.307
-484.420	322.117	-0.163	0.312
-483.405	-200.000	-0.063	-0.497
-482.391	-59.471	-0.262	-0.113
-481.376	59.218	0.148	0.146
-480.362	-146.684	0.187	0.016
-479.347	372.344	-0.100	0.205
-478.332	338.631	0.110	-0.215
-477.318	-200.000	0.028	-0.221
-476.303	303.142	0.101	0.187
-475.289	-16.377	0.206	0.131
-474.274	-200.000	-0.016	-0.212
-473.259	-200.000	0.049	-0.322
-472.245	-200.000	0.046	-0.244
-471.230	18.249	0.246	0.197
-470.216	-125.872	-0.160	0.024
-469.201	-8.964	-0.101	0.068
-468.186	37.510	0.074	-0.066
-467.172	11.762	0.053	-0.041
-466.157	800.000	-0.043	-0.129
-465.143	257.796	-0.033	-0.057
-464.128	655.680	-0.076	-0.196
-463.113	517.406	-0.076	0.179
-462.099	604.322	-0.137	-0.342
-461.084	-148.059	-0.172	0.014
-460.070	159.620	0.107	-0.149
-459.055	-200.000	0.000	-0.400
-458.040	302.565	0.087	0.162
-457.026	-2.403	-0.134	0.094
-456.011	242.423	0.065	0.109
-454.997	720.805	0.096	0.257
-453.982	503.669	-0.073	-0.170
-452.968	-200.000	0.022	0.108
-451.953	-200.000	0.020	0.432
-450.938	599.865	-0.112	-0.278
-449.924	-200.000	0.010	0.082
-448.909	447.440	0.045	-0.099
-447.895	351.906	0.126	-0.251
-446.880	800.000	-0.061	-0.204
-445.865	-200.000	0.021	0.207
-444.851	229.245	0.157	0.256
-443.836	-200.000	-0.028	0.376
-442.822	179.763	-0.010	-0.015
-441.807	-142.646	0.320	-0.031
-440.792	-77.287	-0.263	-0.092
-439.778	131.971	-0.035	0.046
-438.763	315.356	0.122	0.231
-437.749	-200.000	0.017	-0.121
-436.734	282.428	-0.133	-0.240
-435.719	-200.000	0.002	0.098
-434.705	-71.101	0.128	0.048
-433.690	60.400	0.262	0.260
-432.676	-64.582	0.182	0.074
-431.661	-49.937	-0.242	-0.115
-430.646	-121.880	-0.389	0.064
-429.632	72.237	0.190	0.198
-428.617	131.579	-0.251	0.324
-427.603	-51.365	-0.042	0.020
-426.588	-40.227	-0.076	0.040
-425.573	-132.916	-0.109	-0.014
-424.559	8.338	0.172	0.130
-423.544	-22.518	-0.057	-0.034
-422.530	14.786	0.175	0.137
-421.515	154.947	-0.092	0.127
-420.500	358.864	0.043	-0.085
-419.486	691.451	0.053	-0.138
-418.471	-200.000	0.010	-0.287
-417.457	199.925	0.124	-0.191
-416.442	-200.000	0.001	-0.256
-415.428	-130.245	0.265	0.036
-414.413	-70.024	-0.134	-0.051
-413.398	-70.892	-0.207	-0.078
-412.384	-200.000	-0.030	-0.228
-411.369	585.695	0.127	-0.312
-410.355	800.000	-0.071	-0.267
-409.340	-200.000	0.017	-0.084
-408.325	-35.672	0.017	0.009
-407.311	-0.101	0.083	0.059
-406.296	-36.089	-0.212	0.115
-405.282	304.289	0.149	0.278
-404.267	81.861	-0.041	0.045
-403.252	-130.226	0.114	-0.016
-402.238	-200.000	-0.043	-0.200
-401.223	-29.442	0.247	-0.142
-400.209	208.737	-0.342	-0.535
-399.194	-127.029	0.222	-0.033
-398.179	225.357	0.094	0.153
-397.165	46.838	0.099	-0.092
-396.150	-9.121	0.284	0.190
-395.136	-200.000	0.020	0.158
-394.121	-58.649	-0.212	0.092
-393.106	570.752	0.096	0.233
-392.092	492.578	-0.095	0.219
-391.077	597.498	-0.053	-0.131
-390.063	-2.131	-0.052	0.036
-389.048	-101.096	-0.335	-0.082
-388.033	93.861	-0.009	-0.010
-387.019	-62.079	-0.314	0.131
-386.004	-43.744	0.102	-0.051
-384.990	-175.245	0.279	-0.008
-383.975	-57.669	-0.290	-0.127
-382.960	-6.423	0.273	-0.186
-381.946	45.003	-0.055	-0.051
-380.931	-2.007	-0.342	0.240
-379.917	-200.000	0.087	-0.448
-378.902	-75.385	0.076	0.027
-377.888	352.825	-0.049	-0.098
-376.873	620.635	-0.052	-0.130
-375.858	-84.356	-0.242	-0.077
-374.844	-200.000	-0.004	0.261
-373.829	186.612	0.161	-0.239
-372.815	231.257	0.156	-0.255
-371.800	305.077	-0.136	0.253
-370.785	71.178	-0.050	0.051
-369.771	-200.000	-0.039	0.317
-368.756	-200.000	0.027	0.212
-367.742	83.794	0.024	0.027
-366.727	194.797	-0.141	-0.215
-365.712	140.965	-0.182	0.240
-364.698	-65.571	-0.208	-0.083
-363.683	100.680	0.094	0.109
-362.669	-1.198	0.063	-0.045
-361.654	15.549	0.211	0.166
-360.639	-85.238	-0.079	-0.025
-359.625	-200.000	0.039	0.563
-358.610	-104.640	0.242	0.056
-357.596	-200.000	0.043	-0.378
-356.581	-72.619	0.019	-0.007
-355.566	274.262	0.102	-0.180
-354.552	142.005	-0.170	0.225
-353.537	800.000	-0.065	-0.280
-352.523	-53.143	0.113	-0.052
-351.508	-42.350	0.285	0.145
-350.493	-200.000	0.039	0.425
-349.479	-200.000	-0.065	0.302
-348.464	-200.000	-0.006	0.169
-347.450	266.375	0.067	-0.116
-346.435	-200.000	0.012	-0.090
-345.420	-200.000	0.019	-0.209
-344.406	33.257	0.198	-0.171
-343.391	-109.540	0.101	0.021
-342.377	13.240	-0.048	-0.037
-341.362	159.755	0.113	0.157
-340.348	497.441	0.142	0.327
-339.333	800.000	-0.029	0.086
-338.318	-200.000	0.016	0.170
-337.304	-11.267	0.275	0.181
-336.289	800.000	-0.069	0.201
-335.275	71.241	-0.058	-0.060
-334.260	-160.968	-0.082	0.004
-333.245	-131.678	-0.398	0.052
-332.231	-33.875	-0.122	0.067
-331.216	369.317	-0.058	0.117
-330.202	14.656	-0.272	0.212
-329.187	-11.399	-0.355	0.233
-328.172	35.409	-0.132	0.116
-327.158	190.463	0.151	0.227
-326.143	88.374	-0.333	0.369
-325.129	45.933	0.188	-0.173
-324.114	-88.613	-0.218	0.065
-323.099	78.234	0.163	0.173
-322.085	127.455	0.049	0.062
-321.070	-153.344	-0.167	-0.012
-320.056	-200.000	-0.012	0.099
-319.041	769.012	-0.041	-0.112
-318.026	-54.566	-0.096	-0.043
-317.012	242.599	-0.121	-0.203
-315.997	-78.251	-0.190	-0.065
-314.983	-200.000	-0.019	0.117
-313.968	800.000	0.042	0.132
-312.953	-22.210	-0.183	-0.110
-311.939	-84.222	0.056	-0.018
-310.924	214.030	0.160	0.253
-309.910	-200.000	-0.022	-0.171
-308.895	-200.000	-0.030	0.198
-307.880	-83.871	0.233	0.074
-306.866	-81.628	0.122	-0.040
-305.851	800.000	0.038	-0.114
-304.837	-200.000	0.035	-0.199
-303.822	800.000	-0.189	0.524
-302.807	183.939	-0.078	-0.115
-301.793	-112.147	-0.155	-0.031
-300.778	-95.207	-0.159	-0.043
-299.764	-104.816	-0.333	-0.076
-298.749	98.084	0.143	0.164
-297.735	-200.000	-0.064	0.284
-296.720	-60.302	0.169	0.072
-295.705	-62.224	0.269	-0.112
-294.691	-200.000	-0.040	0.197
-293.676	18.322	0.320	0.255
-292.662	-84.013	0.104	0.033
-291.647	-16.638	0.138	0.087
-290.632	60.869	-0.247	0.245
-289.618	-200.000	-0.031	-0.149
-288.603	13.584	0.088	0.068
-287.589	-27.677	0.060	0.035
-286.574	-200.000	-0.010	0.149
-285.559	233.729	-0.183	-0.300
-284.545	-47.964	0.243	0.117
-283.530	415.409	0.081	-0.172
-282.516	-104.855	-0.146	0.033
-281.501	124.607	0.059	-0.074
-280.486	-119.386	0.259	0.045
-279.472	-152.793	-0.145	0.010
-278.457	61.393	-0.072	0.071
-277.443	-200.000	-0.013	0.068
-276.428	-200.000	0.014	0.111
-275.413	208.505	-0.164	-0.256
-274.399	356.058	0.044	0.088
-273.384	767.583	0.108	-0.291
-272.370	153.704	0.083	-0.114
-271.355	-64.160	-0.296	-0.120
-270.340	-66.352	-0.400	-0.158
-269.326	-200.000	0.019	0.125
-268.311	79.117	0.279	-0.298
-267.297	208.688	-0.118	-0.184
-266.282	-44.097	-0.108	-0.054
-265.267	-106.525	0.117	0.026
-264.253	564.317	0.043	0.103
-263.238	800.000	-0.011	0.043
-262.224	-168.368	0.193	0.007
-261.209	326.730	-0.223	-0.425
-260.195	-100.585	0.287	0.071
-259.180	-200.000	0.195	-0.000
-258.165	21.498	0.189	0.153
-257.151	292.832	-0.118	-0.213
-256.136	-200.000	0.041	-0.251
-255.122	-200.000	0.004	0.201
-254.107	800.000	-0.023	-0.078
-253.092	-13.400	0.366	0.236
-252.078	-54.814	-0.205	0.092
-251.063	-89.770	0.302	0.088
-250.049	191.600	0.114	0.171
-249.034	127.859	-0.152	-0.192
-248.019	94.784	-0.031	0.035
-247.005	-86.664	-0.115	-0.035
-245.990	106.323	-0.073	0.086
-244.976	-200.000	-0.317	-0.001
-243.961	139.135	-0.051	-0.067
-242.946	728.314	-0.038	-0.101
-241.932	38.367	0.282	-0.250
-240.917	75.068	0.108	0.114
-239.903	203.106	-0.106	-0.164
-238.888	318.821	0.040	0.075
-237.873	-86.094	0.276	0.085
-236.859	86.229	0.086	0.094
-235.844	246.894	-0.178	0.299
-234.830	800.000	-0.059	0.214
-233.815	3.676	-0.117	-0.085
-232.800	37.987	0.349	-0.308
-231.786	741.985	-0.032	0.085
-230.771	-126.470	-0.418	0.062
-229.757	-200.000	-0.012	0.309
-228.742	-162.988	0.154	0.007
-227.727	800.000	-0.056	0.155
-226.713	19.192	0.320	0.255
-225.698	209.835	-0.080	0.125
-224.684	-200.000	0.073	0.369
-223.669	-102.226	0.036	0.009
-222.655	-200.000	0.008	-0.163
-221.640	-200.000	0.053	0.242
-220.625	-14.049	-0.374	-0.240
-219.611	-200.000	0.010	0.000
-218.596	-78.530	-0.174	0.059
-217.582	95.250	-0.079	0.089
-216.567	41.431	-0.039	0.035
-215.552	-73.937	0.294	0.106
-214.538	-179.912	0.084	0.002
-213.523	-40.986	0.154	-0.079
-212.509	-200.000	-0.017	-0.260
-211.494	-200.000	0.040	-0.231
-210.479	-200.000	0.019	-0.209
-209.465	-200.000	-0.001	0.330
-208.450	124.692	-0.112	0.141
-207.436	522.532	-0.199	0.465
-206.421	-163.181	-0.236	-0.011
-205.406	800.000	-0.017	0.054
-204.392	-52.632	-0.210	-0.096
-203.377	464.502	0.045	-0.099
-202.363	150.257	0.033	0.045
-201.348	800.000	-0.065	-0.189
-200.333	-146.813	-0.367	0.031
-199.319	800.000	-0.086	0.261
-198.304	-44.393	0.069	0.034
-197.290	-200.000	0.000	-0.046
-196.275	276.802	0.071	-0.126
-195.260	-105.417	-0.114	0.026
-194.246	-90.764	0.138	-0.039
-193.231	-200.000	0.042	0.323
-192.217	344.296	0.129	-0.251
-191.202	112.984	-0.253	0.304
-190.187	-64.903	0.096	0.039
-189.173	119.068	-0.217	0.266
-188.158	-110.274	-0.265	-0.055
-187.144	60.273	-0.101	-0.099
-186.129	-102.858	-0.281	-0.066
-185.114	-200.000	0.007	0.090
-184.100	111.250	0.234	0.279
-183.085	225.717	0.127	-0.204
-182.071	-71.472	0.091	-0.034
-181.056	37.113	0.090	-0.079
-180.042	-110.499	0.079	0.016
-179.027	-99.401	0.120	0.030
-178.012	-85.685	0.137	0.042
-176.998	-70.127	-0.272	-0.103
-175.983	-200.000	-0.049	0.244
-174.969	-200.000	-0.009	-0.246
-173.954	19.605	0.222	-0.178
-172.939	-200.000	-0.352	0.000
-171.925	-72.024	-0.183	-0.067
-170.910	721.225	0.071	-0.187
-169.896	130.415	0.230	0.292
-168.881	-166.743	0.335	0.014
-167.866	-46.481	-0.094	0.046
-166.852	-63.331	0.092	0.038
-165.837	-200.000	-0.024	0.307
-164.823	-60.897	0.322	-0.135
-163.808	-103.554	-0.352	-0.082
-162.793	72.151	-0.092	0.095
-161.779	215.701	-0.124	0.195
-160.764	79.723	0.051	-0.054
-159.750	104.106	-0.292	0.341
-158.735	800.000	0.176	0.509
-157.720	165.914	-0.097	-0.136
-156.706	521.574	0.094	0.218
-155.691	-55.961	-0.131	0.058
-154.677	285.901	0.087	0.155
-153.662	88.804	-0.107	-0.118
-152.647	-200.000	-0.079	0.363
-151.633	153.675	0.014	0.019
-150.618	-132.330	0.404	-0.052
-149.604	-39.128	0.187	0.097
-148.589	64.013	-0.129	0.129
-147.574	-17.073	-0.057	-0.036
-146.560	167.979	-0.029	-0.041
-145.545	140.010	0.159	-0.208
-144.531	-98.333	0.072	-0.018
-143.516	80.179	0.262	-0.280
-142.502	-47.165	0.116	0.056
-141.487	-72.051	-0.225	-0.083
-140.472	25.444	-0.032	0.026
-139.458	181.223	0.075	0.109
-138.443	-153.483	0.166	0.011
-137.429	-68.847	-0.182	0.070
-136.414	35.752	-0.247	0.215
-135.399	800.000	0.061	0.218
-134.385	52.590	0.220	-0.208
-133.370	5.317	0.133	0.098
-132.356	-148.794	-0.219	0.018
-131.341	14.450	0.124	-0.096
-130.326	107.888	-0.098	-0.115
-129.312	277.484	0.146	-0.258
-128.297	162.218	0.210	0.292
-127.283	-86.183	0.329	0.100
-126.268	11.871	-0.120	-0.092
-125.253	232.980	0.085	0.139
-124.239	33.873	-0.172	-0.148
-123.224	-200.000	0.011	0.200
-122.210	596.096	0.081	-0.199
-121.195	800.000	-0.018	0.054
