DTS Sentinel unit serial number:	SN413079Multiplexer serial number:	ORYXHardware model number:	OX4-SRSoftware version number:	ORYX F/W v4.00 Oryx Data Collector v3.7.2.0data status	okinstallation	princeton_trtdifferential loss correction	single-endedforward channel	channel 4reverse channel	N/Adate	2019/09/11time	23:59:10forward acquisition time	60.00reverse acquisition time	0.00gamma	496.2192k internal	0.2309k external	0.2309temperature offset calibration	1.0085default loss term (dB/km)	0.3790temperature slope calibration	1.0000multiplexer offset coefficient	1.0000multiplexer slope coefficient	1.0000fibre end	0.00T internal ref (°C)	33.77T ext. ref 1 (°C)	1.98T ext. ref 2 (°C)	28.33length (m)	temperature (°C)	Stokes	anti-Stokes-747.200	29.807	-0.047	-0.041
-746.185	-200.000	0.020	0.302
-745.171	-200.000	0.073	0.414
-744.156	-200.000	0.036	0.203
-743.142	-157.063	0.039	0.002
-742.127	51.181	-0.218	-0.210
-741.112	800.000	0.081	-0.234
-740.098	-161.926	-0.313	0.016
-739.083	270.740	-0.058	0.104
-738.069	55.032	-0.220	0.216
-737.054	-200.000	-0.018	-0.348
-736.039	27.180	-0.164	-0.140
-735.025	-5.738	0.180	0.125
-734.010	-107.873	0.278	-0.061
-732.996	-95.619	-0.333	-0.091
-731.981	99.764	0.195	-0.229
-730.966	119.248	-0.053	-0.066
-729.952	-61.206	0.137	-0.059
-728.937	-63.892	-0.359	-0.149
-727.923	203.095	0.168	0.263
-726.908	-200.000	-0.026	0.201
-725.894	451.967	-0.137	-0.307
-724.879	24.331	-0.154	-0.129
-723.864	-200.000	-0.023	0.137
-722.850	183.178	-0.159	0.239
-721.835	-34.941	-0.108	-0.060
-720.821	154.347	0.126	0.175
-719.806	-64.100	-0.221	-0.092
-718.791	-42.475	-0.257	0.133
-717.777	-101.288	0.088	-0.022
-716.762	-76.351	0.038	-0.013
-715.748	-74.244	0.286	-0.105
-714.733	431.263	0.078	0.172
-713.718	-200.000	-0.034	-0.173
-712.704	464.547	0.044	0.101
-711.689	-200.000	-0.010	0.346
-710.675	-200.000	-0.047	-0.552
-709.660	167.287	-0.039	-0.057
-708.645	-56.736	-0.311	0.140
-707.631	-100.823	-0.093	-0.023
-706.616	565.935	-0.033	-0.082
-705.602	-54.934	-0.217	-0.099
-704.587	25.879	0.469	0.396
-703.572	41.757	-0.202	0.186
-702.558	-31.897	-0.231	0.131
-701.543	-109.092	-0.094	-0.020
-700.529	99.603	-0.048	0.056
-699.514	-200.000	-0.003	-0.186
-698.499	-21.390	0.267	0.165
-697.485	132.805	0.019	-0.025
-696.470	-108.044	-0.213	-0.047
-695.456	-9.461	0.183	0.124
-694.441	800.000	-0.059	-0.177
-693.426	616.327	0.068	0.174
-692.412	-97.913	-0.148	0.039
-691.397	-176.317	-0.200	0.005
-690.383	637.942	0.107	0.277
-689.368	155.479	-0.091	-0.126
-688.354	-200.000	-0.014	0.303
-687.339	131.885	-0.117	0.152
-686.324	-126.532	0.236	0.036
-685.310	-25.513	-0.359	0.215
-684.295	-92.830	-0.059	0.017
-683.281	272.644	-0.283	-0.506
-682.266	44.450	0.113	-0.105
-681.251	-200.000	0.036	0.449
-680.237	360.913	-0.093	-0.189
-679.222	110.789	-0.262	-0.320
-678.208	236.278	-0.252	-0.423
-677.193	6.124	0.202	-0.152
-676.178	26.641	0.099	-0.084
-675.164	1.323	0.130	0.095
-674.149	-123.864	0.204	0.033
-673.135	-187.804	0.139	-0.002
-672.120	116.525	0.055	0.068
-671.105	-92.977	-0.106	0.030
-670.091	83.533	0.173	0.191
-669.076	228.081	-0.091	-0.149
-668.062	800.000	0.054	-0.215
-667.047	-120.785	0.351	-0.060
-666.032	-81.565	0.209	0.070
-665.018	-31.683	-0.201	-0.114
-664.003	622.588	-0.133	0.338
-662.989	-69.163	-0.347	0.135
-661.974	-110.036	-0.134	-0.028
-660.959	83.093	-0.186	-0.205
-659.945	800.000	0.123	-0.381
-658.930	800.000	-0.063	0.259
-657.916	-135.723	0.196	-0.024
-656.901	-123.141	-0.235	-0.038
-655.886	-95.851	0.054	0.015
-654.872	-49.752	-0.125	-0.060
-653.857	434.092	0.107	0.235
-652.843	-89.283	-0.436	-0.130
-651.828	800.000	-0.038	-0.106
-650.814	-52.665	0.369	-0.172
-649.799	426.415	-0.195	-0.426
-648.784	-76.936	-0.308	-0.109
-647.770	-106.280	-0.275	0.062
-646.755	32.425	-0.068	0.060
-645.741	-114.400	-0.123	0.024
-644.726	52.375	-0.086	-0.083
-643.711	92.060	0.113	0.128
-642.697	-200.000	-0.037	-0.237
-641.682	-88.579	0.292	-0.088
-640.668	619.071	-0.012	-0.031
-639.653	800.000	0.074	0.295
-638.638	-20.394	0.061	-0.038
-637.624	229.513	-0.178	0.294
-636.609	-134.987	-0.204	-0.025
-635.595	220.777	0.185	-0.301
-634.580	-80.130	0.150	0.051
-633.565	-200.000	-0.013	-0.255
-632.551	-200.000	0.005	0.142
-631.536	-200.000	-0.011	-0.231
-630.522	-200.000	-0.008	-0.197
-629.507	-31.324	0.058	0.033
-628.492	208.081	0.194	-0.307
-627.478	-153.219	0.178	0.013
-626.463	457.242	0.109	-0.245
-625.449	-200.000	-0.053	-0.266
-624.434	-121.473	-0.082	-0.014
-623.419	-142.584	0.353	-0.035
-622.405	-79.395	0.124	0.042
-621.390	248.187	-0.034	-0.059
-620.376	-73.504	-0.247	0.091
-619.361	291.266	0.052	0.095
-618.346	-153.873	0.267	0.018
-617.332	-5.735	0.067	-0.046
-616.317	77.202	-0.112	0.120
-615.303	-200.000	-0.068	0.426
-614.288	9.439	-0.395	-0.302
-613.273	-200.000	0.028	-0.178
-612.259	280.250	-0.254	0.459
-611.244	9.269	0.172	0.132
-610.230	319.061	-0.101	0.193
-609.215	-22.182	-0.067	-0.041
-608.201	-62.145	0.103	0.043
-607.186	264.948	-0.090	-0.158
-606.171	800.000	-0.059	-0.225
-605.157	19.821	-0.252	-0.205
-604.142	-149.982	0.161	-0.013
-603.128	-33.191	0.195	0.109
-602.113	287.228	-0.168	-0.306
-601.098	34.824	-0.253	-0.223
-600.084	800.000	-0.064	0.186
-599.069	-147.612	0.096	0.008
-598.055	237.233	-0.061	-0.102
-597.040	423.472	0.032	0.069
-596.025	-159.929	-0.229	-0.013
-595.011	-74.007	0.077	0.028
-593.996	-40.472	-0.221	-0.116
-592.982	-109.361	0.145	-0.031
-591.967	-44.760	-0.260	0.131
-590.952	-145.890	-0.158	-0.014
-589.938	197.407	-0.081	0.124
-588.923	47.461	-0.129	-0.121
-587.909	34.432	0.150	0.132
-586.894	467.259	0.096	-0.218
-585.879	-189.047	0.310	-0.004
-584.865	60.600	0.005	0.005
-583.850	-200.000	-0.000	0.041
-582.836	-108.394	-0.401	0.087
-581.821	-200.000	-0.027	-0.290
-580.806	-200.000	-0.007	-0.040
-579.792	-200.000	0.331	0.000
-578.777	6.593	-0.119	-0.089
-577.763	800.000	-0.034	-0.122
-576.748	-156.581	0.102	0.006
-575.733	-22.104	0.203	-0.124
-574.719	282.501	-0.051	0.093
-573.704	-160.133	0.205	0.011
-572.690	-100.051	0.073	-0.018
-571.675	404.130	0.140	0.297
-570.661	-31.823	0.262	0.148
-569.646	22.354	0.053	0.044
-568.631	-200.000	-0.036	0.367
-567.617	-200.000	0.042	-0.472
-566.602	800.000	0.072	-0.282
-565.588	8.362	0.158	0.120
-564.573	800.000	-0.114	0.337
-563.558	-4.961	-0.148	-0.103
-562.544	-60.469	-0.275	-0.118
-561.529	173.605	-0.058	0.085
-560.515	-200.000	0.016	0.175
-559.500	156.223	-0.140	-0.194
-558.485	-82.775	0.416	0.136
-557.471	44.551	0.145	-0.134
-556.456	-84.594	-0.233	-0.074
-555.442	619.941	0.039	-0.098
-554.427	23.230	0.162	0.134
-553.412	151.894	0.097	-0.133
-552.398	471.480	0.209	-0.474
-551.383	286.546	0.089	0.162
-550.369	50.436	0.169	0.161
-549.354	35.784	0.183	0.162
-548.339	-200.000	0.053	0.300
-547.325	800.000	-0.054	-0.236
-546.310	-200.000	-0.027	0.185
-545.296	-200.000	0.003	0.157
-544.281	-120.563	0.150	0.026
-543.266	27.066	0.135	0.114
-542.252	119.564	0.110	-0.137
-541.237	-1.160	0.284	0.202
-540.223	-200.000	0.019	-0.141
-539.208	800.000	-0.157	0.522
-538.193	-30.705	0.111	0.063
-537.179	-74.210	-0.027	-0.010
-536.164	11.613	0.288	-0.223
-535.150	511.829	0.122	0.287
-534.135	800.000	0.013	-0.049
-533.121	18.387	0.224	0.180
-532.106	-33.539	-0.343	-0.191
-531.091	-200.000	-0.002	-0.185
-530.077	614.570	-0.104	0.262
-529.062	-91.744	-0.275	0.079
-528.048	-200.000	-0.043	0.222
-527.033	300.902	0.072	0.133
-526.018	-88.010	-0.082	0.025
-525.004	-134.952	0.396	0.048
-523.989	672.604	0.099	0.259
-522.975	-40.779	-0.010	0.005
-521.960	120.418	-0.108	0.136
-520.945	522.591	-0.017	0.041
-519.931	130.640	-0.221	0.285
-518.916	121.685	-0.235	-0.295
-517.902	-200.000	0.002	0.429
-516.887	-93.331	-0.440	-0.123
-515.872	150.462	0.228	-0.311
-514.858	-46.877	0.410	0.202
-513.843	6.277	0.081	-0.061
-512.829	89.816	-0.315	0.354
-511.814	341.836	-0.104	-0.204
-510.799	-65.555	-0.399	-0.161
-509.785	-137.806	-0.262	0.030
-508.770	206.108	0.065	-0.101
-507.756	35.660	-0.175	0.155
-506.741	-80.611	0.095	-0.032
-505.726	800.000	0.080	0.262
-504.712	-86.105	-0.203	-0.063
-503.697	1.410	0.153	-0.110
-502.683	39.509	-0.171	-0.154
-501.668	-200.000	-0.056	-0.276
-500.653	369.336	-0.095	-0.193
-499.639	-4.638	0.236	-0.164
-498.624	95.320	0.134	-0.154
-497.610	-37.222	0.117	0.063
-496.595	-55.802	-0.160	-0.072
-495.581	-57.885	-0.495	0.218
-494.566	-200.000	0.002	-0.179
-493.551	53.218	-0.258	-0.249
-492.537	800.000	-0.093	-0.266
-491.522	-200.000	-0.025	-0.159
-490.508	800.000	-0.093	-0.338
-489.493	337.702	0.090	-0.176
-488.478	-103.543	0.104	0.025
-487.464	-42.949	-0.224	-0.114
-486.449	487.814	0.055	0.127
-485.435	-120.941	0.276	0.047
-484.420	-200.000	0.013	0.080
-483.405	800.000	-0.107	-0.325
-482.391	-76.159	-0.130	-0.046
-481.376	-111.624	-0.467	0.095
-480.362	-200.000	-0.058	0.310
-479.347	15.165	0.267	0.210
-478.332	573.140	0.032	0.078
-477.318	33.606	0.084	-0.073
-476.303	143.359	0.170	-0.227
-475.289	-200.000	-0.033	0.160
-474.274	23.534	-0.310	-0.257
-473.259	143.700	0.125	0.168
-472.245	800.000	-0.041	0.128
-471.230	800.000	0.097	-0.318
-470.216	-200.000	-0.083	-0.483
-469.201	-62.545	0.278	-0.116
-468.186	66.027	0.163	-0.166
-467.172	577.691	0.113	-0.278
-466.157	-200.000	0.023	-0.222
-465.143	-126.845	-0.430	0.064
-464.128	776.889	0.043	0.119
-463.113	426.313	-0.131	-0.284
-462.099	56.101	0.280	-0.273
-461.084	110.580	0.028	0.034
-460.070	-69.780	-0.357	-0.137
-459.055	-0.055	0.283	-0.202
-458.040	-134.776	-0.278	-0.034
-457.026	345.105	-0.068	0.135
-456.011	-3.939	-0.164	-0.114
-454.997	265.214	0.149	-0.261
-453.982	-191.380	0.486	-0.005
-452.968	-35.866	-0.213	0.116
-451.953	-200.000	-0.002	-0.037
-450.938	-200.000	-0.022	0.200
-449.924	-200.000	0.018	0.191
-448.909	-70.193	0.255	-0.097
-447.895	-200.000	-0.013	-0.514
-446.880	-200.000	-0.041	0.348
-445.865	287.655	-0.128	-0.232
-444.851	-200.000	-0.005	0.159
-443.836	55.665	-0.344	-0.335
-442.822	54.857	-0.159	-0.154
-441.807	-167.301	0.460	0.019
-440.792	-40.872	-0.169	0.088
-439.778	571.372	0.032	0.079
-438.763	-200.000	-0.021	-0.220
-437.749	288.617	-0.039	-0.072
-436.734	-67.843	-0.207	-0.081
-435.719	-200.000	-0.018	-0.165
-434.705	-57.022	0.161	-0.071
-433.690	-32.517	-0.063	0.036
-432.676	-50.754	-0.121	-0.057
-431.661	-129.139	-0.017	0.002
-430.646	447.647	0.054	0.120
-429.632	-189.145	0.119	0.001
-428.617	-200.000	-0.010	0.078
-427.603	800.000	-0.122	-0.382
-426.588	218.433	-0.163	0.262
-425.573	770.331	-0.072	0.198
-424.559	-199.528	0.091	0.000
-423.544	18.558	-0.060	0.048
-422.530	800.000	0.120	-0.479
-421.515	-147.208	0.124	0.011
-420.500	193.134	-0.050	-0.075
-419.486	-84.485	0.146	0.046
-418.471	-200.000	-0.002	0.202
-417.457	-139.937	0.248	-0.026
-416.442	-71.900	0.206	-0.077
-415.428	-200.000	-0.032	0.148
-414.413	168.086	0.115	0.165
-413.398	-200.000	-0.002	0.171
-412.384	-46.644	0.456	-0.224
-411.369	-65.919	0.057	-0.023
-410.355	103.102	-0.073	0.086
-409.340	-105.896	0.379	0.086
-408.325	121.262	-0.139	-0.173
-407.311	14.501	-0.026	0.021
-406.296	-24.384	-0.060	0.036
-405.282	-141.167	0.105	0.011
-404.267	-112.586	-0.265	-0.053
-403.252	62.950	-0.297	0.298
-402.238	-20.634	0.246	-0.151
-401.223	-45.764	-0.310	0.154
-400.209	57.244	-0.334	-0.327
-399.194	160.312	0.160	0.223
-398.179	-29.191	0.250	0.144
-397.165	-126.415	-0.423	-0.063
-396.150	-41.894	-0.058	-0.030
-395.136	-75.115	0.239	-0.086
-394.121	135.115	0.107	0.140
-393.106	-82.336	0.151	-0.049
-392.092	-200.000	-0.002	0.039
-391.077	157.950	0.138	-0.191
-390.063	-101.182	0.265	-0.065
-389.048	-67.637	-0.242	0.095
-388.033	-200.000	0.026	-0.173
-387.019	16.955	-0.101	-0.080
-386.004	70.701	0.139	-0.144
-384.990	-200.000	0.007	0.244
-383.975	58.638	-0.052	0.051
-382.960	-25.032	0.241	0.143
-381.946	570.461	0.100	0.244
-380.931	-105.426	-0.412	0.094
-379.917	-200.000	-0.016	-0.386
-378.902	24.279	0.042	-0.035
-377.888	-141.744	0.210	0.021
-376.873	698.446	-0.165	0.434
-375.858	-160.221	-0.268	-0.014
-374.844	800.000	-0.101	0.337
-373.829	800.000	-0.034	0.105
-372.815	-200.000	0.001	0.205
-371.800	-118.176	0.363	0.065
-370.785	206.235	-0.056	0.087
-369.771	32.761	0.038	-0.033
-368.756	-200.000	0.006	0.225
-367.742	-95.100	0.195	0.053
-366.727	-200.000	0.010	-0.188
-365.712	-150.626	-0.218	0.017
-364.698	-200.000	0.021	0.093
-363.683	-88.843	-0.267	-0.079
-362.669	-29.160	-0.068	0.039
-361.654	-200.000	-0.027	0.381
-360.639	138.745	-0.115	-0.151
-359.625	-22.390	-0.203	0.123
-358.610	800.000	-0.070	-0.266
-357.596	800.000	-0.084	-0.359
-356.581	-200.000	0.018	-0.208
-355.566	373.642	0.027	-0.054
-354.552	18.410	0.036	-0.029
-353.537	-82.067	-0.337	-0.110
-352.523	692.441	0.034	-0.088
-351.508	-52.525	-0.032	-0.015
-350.493	35.512	0.244	0.214
-349.479	292.914	-0.174	0.317
-348.464	-200.000	-0.086	0.000
-347.450	800.000	0.007	-0.027
-346.435	-79.413	-0.122	0.041
-345.420	374.418	0.234	-0.477
-344.406	-200.000	-0.007	-0.109
-343.391	-70.057	-0.084	-0.032
-342.377	178.426	0.124	-0.181
-341.362	-200.000	-0.007	-0.113
-340.348	-74.258	0.289	0.105
-339.333	568.210	-0.052	-0.127
-338.318	-94.444	0.417	-0.114
-337.304	-17.098	0.307	0.194
-336.289	800.000	0.029	0.094
-335.275	-153.327	-0.098	0.007
-334.260	13.128	0.171	-0.133
-333.245	-200.000	0.014	-0.389
-332.231	297.385	0.041	-0.076
-331.216	-113.483	-0.233	0.046
-330.202	1.070	0.153	0.110
-329.187	378.631	-0.180	0.367
-328.172	538.991	0.112	0.266
-327.158	800.000	-0.027	0.091
-326.143	38.066	0.181	-0.161
-325.129	-101.994	0.428	-0.103
-324.114	77.116	0.093	0.099
-323.099	-7.414	0.059	-0.040
-322.085	254.792	0.078	-0.134
-321.070	-200.000	-0.043	0.390
-320.056	138.771	0.097	-0.127
-319.041	221.430	0.069	-0.111
-318.026	-200.000	-0.008	-0.361
-317.012	655.491	0.085	-0.219
-315.997	-157.284	-0.313	0.019
-314.983	-200.000	-0.048	-0.246
-313.968	24.840	-0.327	0.271
-312.953	165.883	0.216	-0.305
-311.939	-114.748	0.119	-0.023
-310.924	-85.866	0.241	-0.075
-309.910	-200.000	0.023	0.241
-308.895	67.730	-0.330	0.337
-307.880	-200.000	-0.040	-0.224
-306.866	59.342	-0.111	-0.109
-305.851	800.000	-0.062	0.205
-304.837	800.000	-0.044	-0.169
-303.822	-146.323	-0.406	0.036
-302.807	-124.773	-0.491	0.076
-301.793	265.274	0.054	0.093
-300.778	678.997	0.124	-0.323
-299.764	-200.000	-0.012	0.193
-298.749	-47.455	-0.164	-0.080
-297.735	-81.970	-0.246	0.080
-296.720	228.009	0.073	-0.119
-295.705	111.319	-0.200	0.241
-294.691	518.232	-0.098	0.230
-293.676	254.980	0.044	-0.075
-292.662	-0.676	0.060	-0.043
-291.647	-86.390	-0.379	-0.116
-290.632	215.639	0.158	0.251
-289.618	-138.089	-0.226	-0.025
-288.603	-108.405	-0.149	-0.032
-287.589	107.412	0.150	-0.178
-286.574	-68.900	-0.202	0.078
-285.559	800.000	-0.020	0.080
-284.545	20.309	-0.140	-0.113
-283.530	-9.487	-0.094	-0.063
-282.516	800.000	0.048	0.161
-281.501	-120.546	-0.211	-0.036
-280.486	-200.000	0.065	-0.371
-279.472	-28.652	-0.044	-0.025
-278.457	800.000	0.148	0.418
-277.443	143.136	-0.053	0.071
-276.428	-200.000	0.048	0.218
-275.413	800.000	-0.038	-0.143
-274.399	-101.539	-0.125	0.030
-273.384	222.399	0.144	0.231
-272.370	-49.962	-0.163	-0.077
-271.355	-111.311	0.237	-0.048
-270.340	-200.000	0.046	-0.274
-269.326	-200.000	0.026	0.165
-268.311	-158.682	-0.104	0.006
-267.297	-200.000	-0.017	-0.110
-266.282	-158.096	0.215	-0.013
-265.267	9.877	-0.312	0.236
-264.253	-34.666	-0.249	-0.136
-263.238	800.000	-0.042	0.145
-262.224	251.043	-0.080	0.136
-261.209	-43.095	0.237	-0.120
-260.195	-31.678	-0.176	-0.099
-259.180	92.329	0.217	-0.243
-258.165	258.499	-0.042	-0.072
-257.151	-97.279	-0.179	0.046
-256.136	-54.447	0.110	-0.050
-255.122	80.726	0.210	0.226
-254.107	-122.423	0.396	0.064
-253.092	-169.095	-0.137	-0.005
-252.078	753.272	0.026	-0.071
-251.063	151.982	0.217	-0.295
-250.049	-168.908	0.457	0.017
-249.034	536.041	-0.143	-0.339
-248.019	-134.737	-0.221	0.027
-247.005	-200.000	-0.016	0.266
-245.990	-200.000	-0.042	-0.330
-244.976	-80.568	0.017	-0.006
-243.961	-200.000	0.024	-0.137
-242.946	-181.414	0.339	0.007
-241.932	-200.000	0.042	0.238
-240.917	-127.900	-0.270	0.039
-239.903	49.347	0.226	0.212
-238.888	11.493	0.165	0.126
-237.873	376.082	0.159	0.324
-236.859	153.715	0.258	0.352
-235.844	96.312	0.136	0.155
-234.830	408.595	-0.143	0.302
-233.815	-49.503	0.133	0.063
-232.800	85.314	0.084	0.092
-231.786	-200.000	-0.003	0.029
-230.771	800.000	0.087	0.243
-229.757	94.544	0.119	0.135
-228.742	340.408	-0.043	-0.083
-227.727	-144.573	-0.266	0.024
-226.713	110.986	-0.105	-0.126
-225.698	76.535	-0.100	0.105
-224.684	666.869	0.091	0.234
-223.669	-70.876	-0.478	-0.179
-222.655	-200.000	0.004	0.283
-221.640	-33.490	-0.288	-0.158
-220.625	-137.770	-0.318	-0.035
-219.611	26.880	0.118	-0.099
-218.596	800.000	-0.038	-0.152
-217.582	154.768	-0.101	0.138
-216.567	-47.837	0.210	-0.101
-215.552	-39.569	0.239	0.125
-214.538	800.000	-0.100	0.292
-213.523	-160.103	-0.258	0.014
-212.509	123.720	0.090	0.112
-211.494	-200.000	-0.009	0.319
-210.479	747.670	-0.097	0.259
-209.465	172.821	0.218	0.312
-208.450	631.105	-0.044	-0.111
-207.436	-48.086	-0.287	0.138
-206.421	-103.988	0.048	-0.011
-205.406	141.792	0.136	0.179
-204.392	64.137	0.249	-0.249
-203.377	-9.160	0.139	0.093
-202.363	-61.599	-0.027	-0.011
-201.348	-95.433	0.189	-0.050
-200.333	108.238	-0.060	-0.071
-199.319	63.510	-0.128	0.128
-198.304	-66.414	0.151	0.060
-197.290	-45.008	0.218	-0.108
-196.275	29.104	0.113	-0.096
-195.260	800.000	0.111	-0.348
-194.246	-19.321	-0.154	-0.095
-193.231	-200.000	-0.019	-0.292
-192.217	800.000	-0.090	0.356
-191.202	56.895	-0.302	0.292
-190.187	-137.501	-0.357	-0.040
-189.173	-200.000	-0.023	0.285
-188.158	-41.190	-0.229	0.117
-187.144	-200.000	-0.012	0.107
-186.129	-161.370	0.431	0.022
-185.114	150.708	-0.085	0.115
-184.100	321.938	0.085	0.160
-183.085	-58.070	0.205	-0.089
-182.071	-39.744	0.229	0.119
-181.056	-200.000	-0.021	0.335
-180.042	48.111	0.103	0.096
-179.027	800.000	-0.072	0.288
-178.012	-19.763	-0.101	0.062
-176.998	15.020	0.171	-0.133
-175.983	12.336	-0.212	-0.162
-174.969	93.264	0.036	0.040
-173.954	-15.849	0.103	0.065
-172.939	-155.509	0.263	-0.017
-171.925	-181.422	0.203	0.004
-170.910	43.435	-0.054	0.049
-169.896	-200.000	-0.002	-0.020
-168.881	-200.000	0.013	0.237
-167.866	-6.072	0.120	-0.081
-166.852	-200.000	-0.007	0.150
-165.837	-65.490	-0.222	0.088
-164.823	-129.222	-0.148	0.020
-163.808	-41.243	0.396	-0.203
-162.793	-182.819	0.175	0.003
-161.779	-200.000	-0.033	0.288
-160.764	-28.370	-0.251	0.144
-159.750	-133.722	0.108	-0.013
-158.735	-10.419	-0.205	0.135
-157.720	-122.330	0.201	-0.033
-156.706	-200.000	-0.040	-0.300
-155.691	-156.785	0.300	0.018
-154.677	-200.000	0.063	-0.286
-153.662	-200.000	0.017	-0.386
-152.647	161.464	0.163	0.226
-151.633	-200.000	-0.011	0.119
-150.618	-49.701	-0.263	-0.124
-149.604	-9.893	0.136	-0.090
-148.589	-102.178	0.214	-0.051
-147.574	-48.536	0.036	-0.017
-146.560	800.000	0.149	-0.427
-145.545	-48.814	0.276	-0.132
-144.531	-41.926	0.186	-0.094
-143.516	268.501	-0.137	0.239
-142.502	-3.961	-0.226	-0.155
-141.487	-200.000	0.011	0.113
-140.472	-74.307	0.128	-0.046
-139.458	123.806	0.201	-0.250
-138.443	321.538	0.166	0.314
-137.429	94.831	0.138	0.156
-136.414	683.053	0.085	-0.219
-135.399	800.000	0.062	0.201
-134.385	-59.073	-0.182	0.078
-133.370	37.826	0.207	-0.182
-132.356	34.545	-0.261	0.226
-131.341	800.000	0.037	0.125
-130.326	200.295	-0.230	0.350
-129.312	-200.000	0.038	-0.229
-128.297	409.201	-0.094	0.197
-127.283	153.041	-0.135	0.183
-126.268	-200.000	-0.029	0.167
-125.253	553.460	-0.094	-0.224
-124.239	-100.609	0.346	0.085
-123.224	-200.000	0.032	-0.257
-122.210	-200.000	0.023	-0.227
