DTS Sentinel unit serial number:	SN413079Multiplexer serial number:	ORYXHardware model number:	OX4-SRSoftware version number:	ORYX F/W v4.00 Oryx Data Collector v3.7.2.0data status	okinstallation	princeton_trtdifferential loss correction	single-endedforward channel	channel 4reverse channel	N/Adate	2019/09/10time	21:23:11forward acquisition time	60.00reverse acquisition time	0.00gamma	496.2192k internal	0.2314k external	0.2314temperature offset calibration	0.9948default loss term (dB/km)	0.3790temperature slope calibration	1.0000multiplexer offset coefficient	1.0000multiplexer slope coefficient	1.0000fibre end	0.00T internal ref (°C)	31.25T ext. ref 1 (°C)	-0.32T ext. ref 2 (°C)	24.42length (m)	temperature (°C)	Stokes	anti-Stokes-747.200	800.000	-0.030	0.117
-746.185	-108.428	0.568	0.124
-745.171	800.000	-0.049	-0.143
-744.156	-200.000	0.061	0.429
-743.142	87.931	0.202	-0.227
-742.127	-200.000	0.028	-0.207
-741.112	-169.488	0.393	-0.015
-740.098	70.273	0.092	0.097
-739.083	382.118	-0.128	0.267
-738.069	-60.173	-0.139	0.060
-737.054	-112.636	0.185	0.037
-736.039	-200.000	-0.049	0.345
-735.025	-108.463	0.399	-0.087
-734.010	-185.932	-0.314	-0.005
-732.996	23.358	-0.148	0.123
-731.981	-138.797	0.146	0.016
-730.966	-47.464	-0.216	-0.106
-729.952	38.472	0.061	0.055
-728.937	111.050	-0.203	-0.248
-727.923	428.651	-0.179	-0.392
-726.908	-25.915	-0.206	-0.123
-725.894	22.442	-0.246	-0.204
-724.879	107.369	-0.128	0.154
-723.864	-200.000	0.063	-0.392
-722.850	719.040	0.047	-0.127
-721.835	126.503	-0.056	-0.072
-720.821	-123.795	-0.270	0.043
-719.806	383.847	0.044	-0.092
-718.791	16.814	0.121	0.097
-717.777	45.637	-0.177	-0.166
-716.762	-39.414	-0.347	-0.184
-715.748	-200.000	-0.017	0.111
-714.733	-200.000	0.023	0.101
-713.718	87.684	0.066	0.074
-712.704	-107.529	-0.221	0.049
-711.689	-200.000	0.029	-0.151
-710.675	-57.739	0.317	-0.140
-709.660	580.817	0.044	0.108
-708.645	-56.027	-0.229	0.104
-707.631	-200.000	-0.003	0.031
-706.616	454.467	0.110	-0.248
-705.602	-119.084	-0.453	-0.080
-704.587	-64.541	-0.293	-0.120
-703.572	90.530	-0.113	0.128
-702.558	-200.000	0.304	0.001
-701.543	202.860	0.189	0.296
-700.529	-190.421	-0.265	0.003
-699.514	49.657	0.108	-0.103
-698.499	170.836	-0.195	-0.283
-697.485	-85.889	0.206	0.065
-696.470	112.933	0.187	-0.229
-695.456	-135.446	0.494	0.060
-694.441	552.382	-0.025	0.061
-693.426	-200.000	0.065	-0.407
-692.412	-200.000	0.006	-0.160
-691.397	800.000	0.087	-0.325
-690.383	23.505	0.186	0.155
-689.368	-94.280	0.307	-0.085
-688.354	-55.158	0.095	-0.043
-687.339	615.713	-0.066	-0.168
-686.324	5.999	-0.436	-0.326
-685.310	117.820	-0.209	0.260
-684.295	-200.000	0.012	-0.167
-683.281	800.000	0.042	0.128
-682.266	-48.883	-0.154	-0.075
-681.251	-200.000	-0.049	0.434
-680.237	-172.552	0.215	-0.007
-679.222	147.519	0.303	-0.413
-678.208	-177.077	-0.121	0.003
-677.193	-143.478	-0.157	0.015
-676.178	-59.539	0.210	0.091
-675.164	687.583	-0.100	-0.263
-674.149	-150.527	-0.177	-0.014
-673.135	-200.000	0.010	0.225
-672.120	-49.745	-0.148	0.071
-671.105	-18.742	0.242	-0.153
-670.091	-121.321	-0.148	-0.025
-669.076	-24.519	0.163	-0.098
-668.062	800.000	-0.071	-0.271
-667.047	-200.000	-0.019	-0.486
-666.032	99.617	-0.160	-0.187
-665.018	347.336	0.162	0.323
-664.003	-90.860	0.213	0.062
-662.989	168.875	-0.102	-0.146
-661.974	-109.384	0.323	0.069
-660.959	-31.987	-0.220	0.124
-659.945	85.933	-0.205	0.228
-658.930	-200.000	0.051	-0.235
-657.916	151.909	-0.136	0.187
-656.901	800.000	0.040	-0.144
-655.886	25.380	-0.067	-0.057
-654.872	-127.177	0.031	-0.005
-653.857	81.056	-0.157	-0.172
-652.843	800.000	-0.099	-0.353
-651.828	-200.000	-0.019	0.098
-650.814	-200.000	-0.003	-0.251
-649.799	105.152	0.144	0.171
-648.784	-200.000	0.034	0.305
-647.770	248.022	0.159	-0.271
-646.755	-4.933	-0.236	-0.164
-645.741	-65.875	-0.102	0.041
-644.726	800.000	0.076	-0.237
-643.711	-45.678	0.116	0.058
-642.697	95.744	0.261	0.301
-641.682	-200.000	0.022	0.262
-640.668	800.000	-0.063	-0.215
-639.653	16.977	0.269	-0.215
-638.638	-65.264	-0.024	-0.010
-637.624	-200.000	-0.016	-0.230
-636.609	74.857	0.069	-0.073
-635.595	32.151	-0.284	0.247
-634.580	360.848	0.056	-0.114
-633.565	-121.412	0.153	-0.026
-632.551	-200.000	-0.004	0.157
-631.536	800.000	-0.053	-0.227
-630.522	-93.052	0.284	-0.080
-629.507	-15.629	0.221	-0.142
-628.492	-32.470	-0.226	0.127
-627.478	241.258	-0.105	0.177
-626.463	-86.678	-0.219	-0.068
-625.449	-32.536	-0.301	0.169
-624.434	-200.000	0.032	0.186
-623.419	200.967	0.214	-0.333
-622.405	-50.567	0.061	-0.029
-621.390	121.849	-0.079	0.099
-620.376	-200.000	-0.276	-0.001
-619.361	610.096	0.029	-0.074
-618.346	-119.603	0.179	-0.031
-617.332	800.000	-0.087	-0.260
-616.317	-115.401	0.359	0.068
-615.303	-200.000	-0.003	0.367
-614.288	800.000	0.157	0.476
-613.273	242.394	0.086	0.146
-612.259	-200.000	-0.036	0.238
-611.244	-104.365	0.371	0.087
-610.230	-66.194	-0.174	0.070
-609.215	249.511	-0.179	-0.307
-608.201	-55.420	0.262	0.119
-607.186	536.506	0.038	-0.090
-606.171	492.423	0.056	0.129
-605.157	-148.371	-0.268	0.022
-604.142	-86.457	-0.188	-0.058
-603.128	40.133	-0.073	0.067
-602.113	663.296	0.019	0.050
-601.098	-200.000	-0.087	-0.591
-600.084	-200.000	0.101	0.474
-599.069	206.537	-0.095	0.148
-598.055	-200.000	-0.086	-0.412
-597.040	92.102	0.027	-0.030
-596.025	206.165	0.212	0.332
-595.011	111.692	0.073	-0.089
-593.996	-123.043	-0.128	-0.021
-592.982	-87.414	-0.136	-0.042
-591.967	-65.573	0.205	-0.083
-590.952	-140.121	0.226	0.024
-589.938	183.720	-0.098	-0.146
-588.923	-200.000	-0.054	0.306
-587.909	559.875	-0.046	0.111
-586.894	-20.644	0.143	-0.088
-585.879	-200.000	-0.058	-0.260
-584.865	541.027	-0.089	0.213
-583.850	121.108	-0.042	0.053
-582.836	-200.000	-0.002	-0.019
-581.821	-26.943	-0.265	0.156
-580.806	-102.702	0.115	0.028
-579.792	-200.000	0.002	0.040
-578.777	583.627	0.031	0.076
-577.763	48.723	-0.264	-0.250
-576.748	72.240	-0.248	-0.260
-575.733	800.000	0.114	-0.473
-574.719	135.472	0.134	-0.176
-573.704	17.166	-0.320	-0.256
-572.690	152.923	0.216	-0.298
-571.675	100.238	-0.064	-0.075
-570.661	-106.680	0.133	0.030
-569.646	167.025	0.110	0.157
-568.631	-133.392	-0.050	0.006
-567.617	-147.633	-0.336	0.028
-566.602	145.379	-0.250	-0.337
-565.588	763.475	-0.084	-0.229
-564.573	-200.000	-0.012	-0.104
-563.558	800.000	-0.122	0.451
-562.544	-80.670	-0.215	-0.072
-561.529	-45.455	-0.277	-0.138
-560.515	-58.930	-0.388	0.169
-559.500	-125.351	0.365	0.056
-558.485	198.101	-0.034	-0.052
-557.471	533.903	0.053	0.126
-556.456	-107.795	0.327	-0.072
-555.442	-38.149	0.197	-0.105
-554.427	260.331	-0.146	-0.254
-553.412	24.922	-0.251	-0.210
-552.398	-94.221	-0.213	-0.059
-551.383	153.722	-0.161	-0.222
-550.369	35.119	-0.097	-0.086
-549.354	393.730	-0.059	-0.124
-548.339	800.000	-0.026	-0.098
-547.325	-74.251	0.196	0.071
-546.310	800.000	-0.072	-0.226
-545.296	-192.511	0.045	-0.000
-544.281	478.348	0.180	0.410
-543.266	-36.354	0.150	0.082
-542.252	315.690	-0.192	-0.365
-541.237	146.602	-0.277	-0.375
-540.223	55.199	0.063	-0.062
-539.208	14.191	0.066	-0.052
-538.193	152.033	-0.095	0.131
-537.179	-107.674	-0.211	0.046
-536.164	-200.000	-0.002	0.135
-535.150	-11.599	-0.167	0.110
-534.135	-155.235	-0.342	-0.022
-533.121	-128.784	0.136	0.019
-532.106	33.998	-0.251	0.220
-531.091	-185.801	0.087	-0.001
-530.077	-138.147	0.164	0.018
-529.062	-70.205	0.233	-0.089
-528.048	109.710	0.078	-0.094
-527.033	-139.245	0.298	-0.032
-526.018	-36.135	0.222	0.120
-525.004	11.320	0.246	-0.189
-523.989	-156.263	-0.297	-0.019
-522.975	-74.293	0.423	-0.154
-521.960	-86.068	0.235	0.073
-520.945	-53.015	-0.298	-0.138
-519.931	-159.225	0.172	0.010
-518.916	290.287	0.078	0.143
-517.902	457.432	0.029	-0.064
-516.887	221.894	0.125	-0.202
-515.872	-70.565	0.154	0.059
-514.858	89.800	0.015	0.017
-513.843	-75.126	0.059	-0.021
-512.829	64.867	-0.287	0.291
-511.814	-84.159	-0.271	-0.086
-510.799	56.392	-0.258	-0.252
-509.785	-69.075	-0.415	0.161
-508.770	800.000	0.127	0.410
-507.756	-151.789	0.255	0.019
-506.741	37.303	-0.157	0.140
-505.726	-150.404	-0.067	0.005
-504.712	-140.237	0.084	-0.009
-503.697	457.029	0.108	0.240
-502.683	236.363	-0.119	0.198
-501.668	800.000	0.028	-0.105
-500.653	-85.139	-0.140	-0.044
-499.639	800.000	-0.036	0.134
-498.624	151.029	0.206	0.281
-497.610	-200.000	0.010	-0.250
-496.595	-200.000	0.029	0.136
-495.581	104.106	-0.083	0.097
-494.566	-84.837	-0.124	-0.039
-493.551	-78.944	0.070	-0.024
-492.537	382.592	-0.038	0.078
-491.522	-200.000	-0.056	-0.318
-490.508	-122.041	-0.116	-0.019
-489.493	-48.768	-0.242	-0.117
-488.478	-155.291	0.136	-0.009
-487.464	-113.186	-0.336	0.066
-486.449	-91.097	0.156	-0.045
-485.435	22.314	-0.238	0.195
-484.420	800.000	0.060	-0.227
-483.405	253.310	-0.072	0.123
-482.391	244.092	-0.126	-0.212
-481.376	170.240	-0.094	0.136
-480.362	170.209	-0.226	-0.324
-479.347	-105.065	-0.271	-0.062
-478.332	23.665	0.199	0.165
-477.318	26.862	0.104	-0.088
-476.303	180.404	0.221	0.325
-475.289	245.315	-0.078	-0.132
-474.274	-149.705	0.199	0.016
-473.259	800.000	-0.024	-0.073
-472.245	-137.080	-0.300	0.034
-471.230	368.047	-0.148	-0.301
-470.216	-75.624	0.312	-0.111
-469.201	224.523	0.093	-0.151
-468.186	-128.373	0.079	0.011
-467.172	-200.000	-0.025	0.175
-466.157	63.303	-0.302	-0.304
-465.143	-200.000	0.144	0.001
-464.128	61.493	0.332	0.331
-463.113	132.501	0.161	-0.209
-462.099	-104.412	-0.083	-0.019
-461.084	800.000	0.020	-0.083
-460.070	136.887	-0.121	-0.158
-459.055	176.813	0.156	-0.228
-458.040	-26.057	0.182	0.107
-457.026	399.873	0.101	0.213
-456.011	-23.915	-0.212	0.127
-454.997	-200.000	0.019	0.139
-453.982	206.672	0.251	0.393
-452.968	-200.000	-0.007	0.154
-451.953	-103.411	-0.458	0.108
-450.938	-120.647	0.264	0.045
-449.924	55.195	-0.055	-0.053
-448.909	-55.519	0.347	0.156
-447.895	376.232	-0.106	0.216
-446.880	800.000	0.033	-0.145
-445.865	392.909	-0.179	-0.372
-444.851	206.151	-0.198	-0.309
-443.836	-200.000	-0.013	0.177
-442.822	-97.392	0.130	-0.034
-441.807	-200.000	0.001	-0.041
-440.792	120.995	0.141	0.176
-439.778	-159.688	-0.268	0.015
-438.763	-96.646	-0.229	-0.061
-437.749	56.962	0.217	0.212
-436.734	-200.000	0.028	-0.132
-435.719	-179.467	0.242	-0.005
-434.705	100.653	0.172	-0.200
-433.690	-2.014	-0.037	0.026
-432.676	239.494	0.132	-0.220
-431.661	11.277	0.237	-0.182
-430.646	-114.209	-0.115	0.022
-429.632	-200.000	0.014	-0.321
-428.617	-200.000	0.004	0.090
-427.603	800.000	-0.082	-0.231
-426.588	-99.811	0.039	0.010
-425.573	-144.921	-0.366	0.034
-424.559	-16.535	0.212	-0.135
-423.544	-30.673	-0.228	0.129
-422.530	83.595	-0.099	-0.108
-421.515	-45.417	-0.190	0.094
-420.500	83.880	-0.241	0.263
-419.486	-200.000	-0.003	-0.088
-418.471	-200.000	0.030	0.146
-417.457	68.757	0.083	0.086
-416.442	19.597	-0.228	-0.184
-415.428	800.000	0.151	0.544
-414.413	-200.000	0.033	0.162
-413.398	101.089	-0.109	0.127
-412.384	-184.413	-0.333	0.005
-411.369	-144.683	-0.151	-0.014
-410.355	-200.000	0.000	0.373
-409.340	800.000	0.052	0.172
-408.325	-126.142	0.313	-0.047
-407.311	800.000	-0.088	-0.299
-406.296	-12.146	0.217	-0.142
-405.282	131.271	-0.183	-0.235
-404.267	58.979	-0.133	0.131
-403.252	-60.311	0.330	0.140
-402.238	8.820	-0.220	0.166
-401.223	800.000	0.038	-0.126
-400.209	-111.167	-0.188	-0.038
-399.194	800.000	-0.062	-0.233
-398.179	569.905	-0.027	0.066
-397.165	-200.000	-0.035	0.440
-396.150	425.749	0.012	0.026
-395.136	-200.000	-0.052	0.458
-394.121	76.846	-0.091	0.096
-393.106	-200.000	0.048	0.274
-392.092	203.175	-0.066	-0.101
-391.077	57.762	0.155	-0.152
-390.063	-200.000	-0.024	0.266
-389.048	800.000	-0.046	-0.131
-388.033	-200.000	0.033	-0.271
-387.019	-200.000	0.044	-0.299
-386.004	48.359	-0.198	-0.186
-384.990	-114.264	0.385	0.074
-383.975	96.534	0.249	0.285
-382.960	-105.234	0.140	0.032
-381.946	-83.617	0.068	-0.022
-380.931	569.650	-0.071	-0.173
-379.917	-122.992	-0.156	-0.025
-378.902	127.377	0.042	0.054
-377.888	10.420	0.110	-0.084
-376.873	800.000	0.090	-0.337
-375.858	-8.111	0.334	0.225
-374.844	15.538	-0.005	-0.004
-373.829	15.191	0.250	-0.196
-372.815	800.000	0.049	0.166
-371.800	-13.585	-0.466	-0.302
-370.785	-96.649	-0.218	-0.057
-369.771	-65.136	0.617	-0.249
-368.756	54.646	0.116	0.111
-367.742	56.053	-0.150	-0.145
-366.727	-200.000	-0.048	-0.237
-365.712	-130.438	0.093	0.013
-364.698	241.229	-0.018	0.030
-363.683	-65.370	0.232	0.093
-362.669	-200.000	0.044	-0.211
-361.654	-65.405	0.172	-0.069
-360.639	-77.487	0.168	0.058
-359.625	352.359	0.035	-0.070
-358.610	-132.333	0.136	0.018
-357.596	-23.878	0.158	-0.094
-356.581	334.136	-0.099	0.191
-355.566	-200.000	-0.005	0.335
-354.552	97.976	-0.101	0.116
-353.537	-200.000	-0.006	0.309
-352.523	-54.680	0.229	-0.103
-351.508	236.293	0.188	0.311
-350.493	-97.084	-0.252	0.066
-349.479	-45.146	0.075	0.037
-348.464	208.522	0.160	-0.250
-347.450	324.141	0.088	-0.168
-346.435	51.633	-0.022	-0.021
-345.420	-18.729	0.197	0.123
-344.406	-97.677	-0.120	-0.031
-343.391	129.479	0.070	-0.089
-342.377	-5.007	0.170	0.117
-341.362	-97.736	0.197	0.051
-340.348	-2.369	-0.131	0.092
-339.333	-97.148	0.172	-0.045
-338.318	81.428	0.108	0.117
-337.304	800.000	-0.041	-0.121
-336.289	800.000	-0.050	0.195
-335.275	-200.000	0.007	-0.140
-334.260	67.712	0.205	-0.209
-333.245	-2.134	-0.100	-0.070
-332.231	15.093	-0.244	0.191
-331.216	116.084	0.109	-0.133
-330.202	800.000	0.053	0.202
-329.187	-200.000	-0.023	-0.174
-328.172	-88.496	0.333	-0.099
-327.158	-38.361	-0.220	0.116
-326.143	49.276	-0.352	0.330
-325.129	61.030	0.141	0.139
-324.114	216.770	-0.140	-0.222
-323.099	-200.000	-0.022	0.207
-322.085	45.261	0.096	-0.088
-321.070	-50.833	-0.042	0.020
-320.056	31.624	-0.089	-0.076
-319.041	109.043	0.095	-0.113
-318.026	-60.928	-0.203	0.085
-317.012	-200.000	0.009	-0.145
-315.997	-21.552	0.112	0.068
-314.983	-200.000	0.011	-0.380
-313.968	-200.000	0.030	-0.144
-312.953	800.000	-0.039	0.168
-311.939	800.000	-0.050	0.157
-310.924	-200.000	-0.003	0.351
-309.910	-8.861	0.108	-0.072
-308.895	-200.000	0.002	0.138
-307.880	-109.651	-0.178	-0.037
-306.866	242.062	-0.042	0.070
-305.851	800.000	-0.078	-0.276
-304.837	-93.184	-0.099	0.028
-303.822	-170.943	0.078	-0.003
-302.807	173.624	-0.098	0.140
-301.793	-36.401	0.156	0.084
-300.778	43.226	-0.316	0.288
-299.764	-200.000	0.002	-0.103
-298.749	796.307	-0.020	0.056
-297.735	-124.855	0.488	-0.075
-296.720	760.579	0.124	-0.335
-295.705	800.000	0.107	-0.399
-294.691	800.000	-0.075	0.238
-293.676	189.135	0.059	-0.089
-292.662	-171.176	0.109	0.004
-291.647	-122.968	-0.412	0.066
-290.632	-122.048	0.168	0.028
-289.618	-200.000	0.038	-0.293
-288.603	-200.000	0.016	-0.139
-287.589	90.133	0.016	-0.018
-286.574	-46.519	-0.315	-0.154
-285.559	-88.534	-0.126	0.037
-284.545	-3.869	-0.317	-0.219
-283.530	279.119	0.205	-0.364
-282.516	120.130	-0.064	0.079
-281.501	-71.244	-0.169	-0.063
-280.486	69.826	0.297	0.305
-279.472	-46.801	0.170	0.083
-278.457	-137.983	-0.197	-0.022
-277.443	-200.000	0.042	0.194
-276.428	-200.000	-0.017	0.280
-275.413	11.396	0.168	-0.128
-274.399	300.347	-0.033	0.060
-273.384	268.790	-0.102	-0.178
-272.370	-67.881	-0.081	0.032
-271.355	157.265	-0.042	-0.058
-270.340	-169.280	-0.180	0.007
-269.326	-69.866	0.279	0.106
-268.311	134.559	-0.068	-0.088
-267.297	-152.359	0.143	0.010
-266.282	60.826	-0.105	0.104
-265.267	279.636	-0.136	-0.241
-264.253	545.505	-0.119	0.283
-263.238	17.754	-0.248	-0.196
-262.224	64.121	0.199	0.199
-261.209	205.523	-0.175	0.271
-260.195	156.110	-0.084	-0.116
-259.180	70.458	0.163	0.168
-258.165	-116.905	-0.167	-0.030
-257.151	18.525	-0.135	-0.107
-256.136	-200.000	0.036	0.231
-255.122	520.153	0.067	0.156
-254.107	-51.182	-0.159	0.074
-253.092	-200.000	-0.060	0.271
-252.078	-154.925	0.235	0.015
-251.063	-147.542	0.104	-0.009
-250.049	80.946	-0.184	0.197
-249.034	238.209	0.144	0.237
-248.019	-200.000	0.079	-0.409
-247.005	-126.014	-0.130	-0.019
-245.990	-6.372	-0.124	-0.084
-244.976	49.672	0.200	0.188
-243.961	-200.000	0.013	0.147
-242.946	176.845	0.182	-0.264
-241.932	-200.000	0.023	0.201
-240.917	-43.351	0.192	-0.097
-239.903	643.409	-0.200	0.508
-238.888	177.514	0.138	-0.200
-237.873	14.178	0.323	-0.250
-236.859	-143.347	0.053	0.005
-235.844	800.000	0.050	-0.211
-234.830	-13.009	-0.165	0.107
-233.815	-124.516	-0.084	-0.013
-232.800	235.237	0.041	-0.068
-231.786	-114.984	-0.088	0.017
-230.771	-4.960	0.462	0.316
-229.757	-142.216	-0.296	-0.029
-228.742	-7.263	-0.247	0.166
-227.727	297.748	-0.133	-0.243
-226.713	53.586	-0.263	-0.251
-225.698	11.623	0.227	-0.173
-224.684	435.958	-0.051	-0.111
-223.669	482.122	0.044	0.100
-222.655	169.025	0.092	0.130
-221.640	800.000	0.149	0.474
-220.625	230.370	-0.226	-0.366
-219.611	-14.908	0.101	-0.064
-218.596	-200.000	-0.342	-0.001
-217.582	395.773	0.111	0.230
-216.567	800.000	-0.077	-0.228
-215.552	800.000	-0.024	0.066
-214.538	800.000	0.080	0.226
-213.523	-13.914	0.405	-0.260
-212.509	122.172	0.085	0.106
-211.494	800.000	0.027	-0.116
-210.479	245.347	-0.110	-0.184
-209.465	521.529	0.073	-0.170
-208.450	-106.233	-0.500	-0.111
-207.436	125.447	-0.021	-0.026
-206.421	42.231	-0.073	-0.066
-205.406	625.467	0.018	0.044
-204.392	27.456	0.114	-0.095
-203.377	-110.468	-0.251	0.052
-202.363	-138.055	0.058	0.006
-201.348	800.000	0.031	0.129
-200.333	-200.000	-0.031	-0.204
-199.319	294.490	0.137	-0.248
-198.304	-200.000	-0.041	0.209
-197.290	-112.176	-0.254	0.051
-196.275	-200.000	0.021	-0.257
-195.260	-84.793	-0.178	0.056
-194.246	394.791	-0.069	-0.143
-193.231	337.352	0.051	0.098
-192.217	-27.841	0.053	-0.031
-191.202	30.501	-0.265	-0.225
-190.187	800.000	-0.079	0.237
-189.173	-128.827	0.582	0.081
-188.158	8.897	-0.089	-0.066
-187.144	800.000	-0.018	0.058
-186.129	-113.390	-0.175	0.034
-185.114	-173.703	0.274	0.008
-184.100	27.368	0.213	0.177
-183.085	-67.479	0.052	0.020
-182.071	-200.000	0.010	0.068
-181.056	-39.416	-0.260	0.135
-180.042	800.000	0.086	0.249
-179.027	-15.082	-0.145	-0.092
-178.012	179.256	0.078	-0.113
-176.998	90.071	0.123	-0.137
-175.983	-110.641	-0.201	0.041
-174.969	800.000	0.042	0.133
-173.954	35.659	0.369	0.321
-172.939	800.000	-0.065	0.191
-171.925	-163.769	0.255	0.012
-170.910	800.000	0.044	-0.187
-169.896	800.000	0.052	-0.173
-168.881	309.266	0.150	0.277
-167.866	-126.933	-0.172	-0.025
-166.852	34.803	-0.139	0.120
-165.837	-200.000	-0.031	0.229
-164.823	-77.961	0.035	0.012
-163.808	32.538	0.089	-0.076
-162.793	-115.865	-0.257	0.048
-161.779	79.637	-0.059	-0.063
-160.764	142.386	-0.086	0.113
-159.750	-150.622	-0.222	0.017
-158.735	54.376	0.224	-0.214
-157.720	800.000	0.081	-0.289
-156.706	-154.399	0.120	0.008
-155.691	113.568	0.074	-0.089
-154.677	-112.772	0.324	-0.064
-153.662	-39.093	0.147	0.076
-152.647	-200.000	-0.008	0.305
-151.633	419.247	-0.172	0.365
-150.618	-79.046	0.473	-0.159
-149.604	121.077	-0.200	0.246
-148.589	800.000	-0.089	0.313
-147.574	27.313	-0.168	-0.139
-146.560	193.520	0.049	0.074
-145.545	-200.000	0.005	0.232
-144.531	800.000	0.035	-0.125
-143.516	423.873	0.106	-0.226
-142.502	333.320	0.062	-0.119
-141.487	47.471	-0.269	-0.249
-140.472	-200.000	-0.034	-0.187
-139.458	-150.970	-0.143	0.011
-138.443	26.543	-0.085	0.070
-137.429	432.004	-0.064	-0.137
-136.414	-41.264	-0.554	0.283
-135.399	-23.537	0.355	-0.211
-134.385	-200.000	0.020	0.316
-133.370	121.080	0.076	-0.094
-132.356	-24.218	0.130	-0.077
-131.341	-89.070	0.488	0.143
-130.326	7.258	-0.044	0.033
-129.312	800.000	0.009	0.036
-128.297	688.790	0.145	-0.375
-127.283	-200.000	-0.014	-0.149
-126.268	594.410	-0.065	-0.160
-125.253	-71.079	-0.108	0.040
-124.239	800.000	-0.057	0.157
-123.224	13.945	0.281	0.217
-122.210	416.985	0.108	-0.228
-121.195	-169.606	0.297	0.011
