DTS Sentinel unit serial number:	SN413079Multiplexer serial number:	ORYXHardware model number:	OX4-SRSoftware version number:	ORYX F/W v4.00 Oryx Data Collector v3.7.2.0data status	okinstallation	princeton_trtdifferential loss correction	single-endedforward channel	channel 4reverse channel	N/Adate	2019/09/10time	16:55:10forward acquisition time	60.00reverse acquisition time	0.00gamma	496.2192k internal	0.2296k external	0.2296temperature offset calibration	0.9938default loss term (dB/km)	0.3790temperature slope calibration	1.0000multiplexer offset coefficient	1.0000multiplexer slope coefficient	1.0000fibre end	0.00T internal ref (°C)	37.62T ext. ref 1 (°C)	-0.34T ext. ref 2 (°C)	32.44length (m)	temperature (°C)	Stokes	anti-Stokes-747.200	12.118	0.151	-0.119
-746.185	-136.403	-0.258	0.031
-745.171	-200.000	-0.006	0.191
-744.156	-200.000	-0.035	0.181
-743.142	-62.735	0.200	-0.085
-742.127	39.026	0.162	-0.148
-741.112	19.464	-0.243	-0.200
-740.098	-141.593	-0.244	-0.025
-739.083	-200.000	-0.011	-0.188
-738.069	-200.000	-0.026	0.269
-737.054	800.000	0.058	0.214
-736.039	170.545	0.099	-0.145
-735.025	82.223	-0.166	-0.184
-734.010	-200.000	-0.049	-0.418
-732.996	262.807	0.073	-0.130
-731.981	-200.000	-0.006	-0.064
-730.966	-63.822	-0.088	0.037
-729.952	-9.065	-0.130	0.089
-728.937	-32.520	0.158	0.090
-727.923	-105.569	0.123	0.028
-726.908	539.087	-0.096	0.233
-725.894	-200.000	-0.022	0.215
-724.879	-200.000	-0.089	-0.475
-723.864	46.530	0.100	0.095
-722.850	-118.080	0.388	0.071
-721.835	401.649	0.183	-0.392
-720.821	-200.000	0.031	0.190
-719.806	-46.514	0.054	-0.027
-718.791	-59.453	-0.171	0.075
-717.777	27.350	0.171	-0.147
-716.762	-84.658	0.177	0.057
-715.748	200.250	-0.069	0.108
-714.733	80.587	0.088	-0.097
-713.718	-46.161	-0.335	-0.168
-712.704	-200.000	-0.003	-0.432
-711.689	-2.499	-0.109	-0.078
-710.675	-95.844	-0.127	0.035
-709.660	-29.074	-0.131	-0.077
-708.645	-64.939	-0.266	0.110
-707.631	285.720	0.198	-0.364
-706.616	-8.213	-0.081	0.055
-705.602	-159.034	0.247	-0.014
-704.587	-46.953	-0.086	-0.043
-703.572	-43.395	-0.194	-0.100
-702.558	-200.000	-0.038	0.295
-701.543	800.000	-0.059	0.239
-700.529	-200.000	-0.000	0.300
-699.514	-50.726	-0.171	-0.082
-698.499	-104.362	-0.170	0.040
-697.485	274.108	-0.179	-0.322
-696.470	-200.000	-0.043	-0.201
-695.456	-17.842	0.255	-0.163
-694.441	800.000	0.073	-0.275
-693.426	63.647	0.292	-0.299
-692.412	800.000	0.072	0.222
-691.397	238.212	0.104	0.176
-690.383	-17.248	-0.187	-0.120
-689.368	-146.937	-0.251	-0.022
-688.354	-200.000	-0.004	-0.254
-687.339	-61.397	0.233	-0.100
-686.324	-151.067	-0.255	-0.020
-685.310	673.425	-0.040	-0.107
-684.295	800.000	0.075	-0.240
-683.281	800.000	0.051	-0.147
-682.266	-76.728	0.205	0.073
-681.251	-127.465	-0.132	-0.020
-680.237	50.521	0.201	-0.194
-679.222	199.593	-0.143	-0.224
-678.208	-200.000	0.030	-0.178
-677.193	49.775	0.307	-0.295
-676.178	2.603	0.081	0.060
-675.164	429.806	-0.098	0.216
-674.149	3.911	-0.198	0.147
-673.135	-200.000	-0.067	0.371
-672.120	47.025	0.170	0.161
-671.105	800.000	0.054	0.175
-670.091	47.686	-0.160	0.153
-669.076	-148.466	-0.143	-0.012
-668.062	413.363	0.023	-0.049
-667.047	-200.000	0.043	-0.199
-666.032	10.013	-0.229	-0.177
-665.018	140.797	-0.170	0.228
-664.003	-136.898	-0.255	-0.030
-662.989	800.000	-0.107	-0.339
-661.974	479.275	-0.226	-0.521
-660.959	-102.199	0.468	-0.115
-659.945	-152.323	-0.263	-0.019
-658.930	-192.107	-0.176	0.002
-657.916	-74.477	0.114	-0.042
-656.901	172.018	0.167	-0.244
-655.886	-100.130	0.196	0.050
-654.872	800.000	0.092	-0.322
-653.857	-180.385	-0.125	0.003
-652.843	-200.000	-0.044	0.261
-651.828	-29.050	0.413	-0.241
-650.814	-97.836	0.365	-0.096
-649.799	732.520	-0.049	-0.133
-648.784	653.246	-0.084	0.221
-647.770	117.011	-0.174	0.218
-646.755	-66.973	0.339	-0.136
-645.741	430.453	-0.153	0.337
-644.726	-200.000	-0.013	-0.172
-643.711	-186.678	0.198	-0.003
-642.697	-107.372	0.295	-0.066
-641.682	420.765	0.032	-0.070
-640.668	-200.000	-0.030	0.203
-639.653	-8.856	-0.305	0.208
-638.638	-47.998	-0.354	0.174
-637.624	-113.232	-0.337	0.068
-636.609	-40.149	0.182	-0.096
-635.595	-100.134	0.277	0.070
-634.580	171.553	0.219	0.320
-633.565	557.657	0.088	0.216
-632.551	21.182	0.155	0.128
-631.536	-161.098	-0.554	0.029
-630.522	497.553	0.086	-0.200
-629.507	417.284	-0.121	-0.263
-628.492	409.628	-0.050	0.107
-627.478	-200.000	-0.008	-0.243
-626.463	-200.000	-0.009	-0.250
-625.449	61.551	-0.333	0.337
-624.434	-120.521	0.060	0.010
-623.419	2.467	0.247	0.182
-622.405	800.000	-0.056	0.227
-621.390	241.189	-0.088	-0.149
-620.376	-200.000	-0.065	0.300
-619.361	41.142	-0.137	-0.126
-618.346	384.364	-0.105	-0.219
-617.332	800.000	0.038	-0.114
-616.317	-145.625	-0.335	-0.030
-615.303	172.256	-0.095	0.140
-614.288	800.000	-0.035	-0.110
-613.273	39.803	0.118	0.108
-612.259	800.000	-0.054	-0.178
-611.244	-110.644	0.199	0.042
-610.230	216.887	0.118	0.191
-609.215	-200.000	-0.001	0.348
-608.201	-47.438	-0.141	-0.070
-607.186	29.973	0.225	0.195
-606.171	70.128	0.238	-0.250
-605.157	800.000	0.053	-0.169
-604.142	-200.000	0.041	0.208
-603.128	112.677	-0.128	0.157
-602.113	-121.636	-0.330	-0.055
-601.098	298.720	-0.254	0.475
-600.084	-200.000	-0.047	-0.000
-599.069	82.802	0.117	-0.129
-598.055	-58.798	0.115	-0.050
-597.040	213.985	-0.072	0.116
-596.025	-53.409	-0.147	0.068
-595.011	104.117	0.033	0.039
-593.996	-23.026	0.081	0.050
-592.982	-64.217	0.135	0.056
-591.967	47.903	-0.145	0.138
-590.952	19.031	0.325	0.265
-589.938	280.585	0.191	-0.346
-588.923	707.205	0.033	0.090
-587.909	-200.000	0.013	-0.251
-586.894	404.321	-0.031	0.067
-585.879	-12.647	0.166	0.110
-584.865	-56.603	-0.365	-0.164
-583.850	-126.791	0.035	-0.005
-582.836	-48.268	0.073	0.036
-581.821	-135.875	-0.215	-0.026
-580.806	-200.000	0.060	-0.392
-579.792	387.025	0.015	-0.032
-578.777	-200.000	-0.011	0.069
-577.763	-59.101	-0.111	0.048
-576.748	244.965	-0.106	-0.181
-575.733	-72.571	-0.264	0.099
-574.719	5.253	0.211	-0.158
-573.704	-51.569	-0.260	-0.123
-572.690	-94.113	-0.185	0.052
-571.675	-82.084	-0.096	0.032
-570.661	-200.000	-0.005	0.284
-569.646	-92.484	0.024	-0.007
-568.631	-29.662	-0.281	0.163
-567.617	-28.795	0.320	-0.187
-566.602	402.537	0.114	-0.243
-565.588	-11.047	-0.080	-0.054
-564.573	800.000	0.028	-0.086
-563.558	-46.702	-0.421	0.209
-562.544	163.785	0.149	0.213
-561.529	151.459	-0.260	0.359
-560.515	-198.237	0.473	0.003
-559.500	205.378	0.036	-0.057
-558.485	-200.000	-0.033	-0.196
-557.471	-43.769	-0.089	-0.045
-556.456	-200.000	0.060	0.336
-555.442	-46.178	0.402	0.201
-554.427	-54.685	-0.281	0.129
-553.412	418.511	-0.088	-0.190
-552.398	47.299	-0.249	-0.235
-551.383	-181.062	0.259	-0.005
-550.369	138.530	-0.118	0.158
-549.354	-200.000	-0.005	-0.198
-548.339	-200.000	0.033	0.208
-547.325	-92.935	-0.124	-0.035
-546.310	-200.000	-0.172	0.001
-545.296	60.586	0.149	0.149
-544.281	-200.000	-0.001	-0.283
-543.266	81.572	-0.136	0.149
-542.252	131.535	0.110	-0.144
-541.237	-71.991	0.229	-0.086
-540.223	333.223	-0.035	0.068
-539.208	-200.000	-0.002	-0.137
-538.193	145.533	-0.118	0.160
-537.179	0.259	0.177	-0.128
-536.164	37.891	-0.211	-0.190
-535.150	-141.705	0.296	-0.030
-534.135	558.311	-0.161	0.395
-533.121	467.628	-0.219	0.498
-532.106	64.196	-0.235	0.240
-531.091	-200.000	0.006	0.031
-530.077	136.294	0.178	0.235
-529.062	800.000	-0.061	-0.197
-528.048	800.000	-0.046	-0.161
-527.033	164.823	-0.108	0.154
-526.018	-151.050	0.346	0.026
-525.004	-136.901	0.216	0.025
-523.989	40.643	0.199	-0.182
-522.975	539.058	0.077	0.185
-521.960	121.201	0.154	0.194
-520.945	-83.268	-0.090	-0.029
-519.931	144.019	-0.098	0.133
-518.916	-74.495	0.414	0.151
-517.902	29.431	0.108	-0.093
-516.887	-200.000	0.006	-0.211
-515.872	43.722	0.218	-0.202
-514.858	5.332	0.349	0.261
-513.843	520.353	0.102	-0.243
-512.829	-79.537	0.166	-0.057
-511.814	-79.061	0.209	-0.072
-510.799	-171.113	0.157	-0.005
-509.785	-1.333	0.064	0.046
-508.770	243.293	0.075	-0.127
-507.756	-161.756	0.144	-0.007
-506.741	-66.743	0.098	0.039
-505.726	800.000	-0.038	0.134
-504.712	-65.405	-0.473	-0.192
-503.697	272.155	-0.183	0.326
-502.683	-198.369	-0.087	-0.001
-501.668	232.056	0.057	-0.094
-500.653	72.960	-0.115	-0.122
-499.639	-200.000	-0.003	-0.090
-498.624	-125.694	0.200	0.031
-497.610	-96.427	-0.251	-0.067
-496.595	212.605	0.047	0.076
-495.581	9.610	-0.126	0.097
-494.566	92.652	0.057	0.065
-493.551	800.000	0.114	-0.329
-492.537	-200.000	0.086	0.000
-491.522	-14.548	-0.219	-0.142
-490.508	112.651	-0.070	0.086
-489.493	-8.150	0.086	0.059
-488.478	-62.644	0.201	0.084
-487.464	-51.585	0.261	-0.123
-486.449	-111.810	-0.104	0.021
-485.435	89.114	-0.234	-0.264
-484.420	-136.123	0.181	-0.021
-483.405	-200.000	0.002	0.059
-482.391	83.069	0.082	0.090
-481.376	148.283	-0.211	0.288
-480.362	686.476	0.048	0.127
-479.347	189.713	0.138	0.209
-478.332	-149.413	0.379	-0.030
-477.318	-94.105	-0.297	-0.082
-476.303	-73.166	0.064	-0.024
-475.289	-150.311	0.206	-0.016
-474.274	109.708	-0.094	0.113
-473.259	9.151	-0.252	-0.192
-472.245	-102.880	0.011	0.003
-471.230	800.000	-0.044	-0.122
-470.216	800.000	-0.029	0.119
-469.201	143.272	0.100	0.134
-468.186	574.914	0.115	0.284
-467.172	328.744	-0.057	-0.110
-466.157	-48.061	0.168	0.082
-465.143	88.566	-0.194	-0.217
-464.128	-49.790	0.221	0.106
-463.113	-200.000	-0.001	-0.050
-462.099	800.000	0.047	0.150
-461.084	-26.275	-0.094	0.056
-460.070	800.000	-0.064	0.201
-459.055	52.746	0.107	-0.103
-458.040	-132.621	0.133	-0.017
-457.026	-200.000	0.041	0.238
-456.011	69.574	-0.302	0.314
-454.997	232.611	-0.162	0.269
-453.982	-89.166	-0.086	0.026
-452.968	-142.132	0.361	-0.036
-451.953	800.000	0.055	0.170
-450.938	11.672	-0.282	-0.218
-449.924	-31.511	-0.173	0.098
-448.909	-132.345	-0.188	0.025
-447.895	800.000	0.002	0.008
-446.880	68.873	-0.096	-0.099
-445.865	8.950	-0.135	0.103
-444.851	-88.792	0.268	-0.080
-443.836	94.973	0.066	0.076
-442.822	10.495	-0.165	-0.127
-441.807	78.046	-0.180	-0.194
-440.792	800.000	0.027	0.111
-439.778	-115.754	0.321	0.061
-438.763	122.357	0.304	-0.383
-437.749	316.863	0.085	-0.163
-436.734	-200.000	-0.272	-0.001
-435.719	253.450	0.038	-0.066
-434.705	-200.000	0.002	-0.226
-433.690	6.409	0.208	-0.156
-432.676	-147.085	0.411	-0.035
-431.661	1.351	0.233	0.169
-430.646	477.711	-0.089	0.202
-429.632	800.000	0.094	-0.293
-428.617	-104.695	0.112	-0.026
-427.603	-80.028	-0.308	0.104
-426.588	216.738	0.112	-0.180
-425.573	-200.000	-0.044	0.214
-424.559	800.000	0.065	0.187
-423.544	-199.783	-0.389	-0.002
-422.530	-200.000	-0.032	-0.339
-421.515	-100.407	0.262	0.065
-420.500	-200.000	-0.013	0.135
-419.486	-77.395	-0.107	0.037
-418.471	-88.028	-0.191	0.058
-417.457	74.422	0.037	-0.040
-416.442	78.182	-0.145	0.156
-415.428	-200.000	0.003	0.142
-414.413	263.874	-0.107	-0.189
-413.398	100.696	0.194	-0.227
-412.384	521.779	-0.099	-0.235
-411.369	115.245	0.056	0.069
-410.355	206.652	0.057	-0.090
-409.340	26.913	0.175	-0.148
-408.325	-34.948	-0.120	-0.066
-407.311	-3.062	0.240	-0.169
-406.296	147.842	-0.062	0.084
-405.282	-200.000	-0.001	0.072
-404.267	-200.000	-0.013	0.130
-403.252	-139.813	0.219	0.023
-402.238	62.016	0.173	0.174
-401.223	90.010	0.087	-0.098
-400.209	-200.000	0.019	-0.084
-399.194	-92.762	-0.258	0.073
-398.179	-200.000	-0.028	-0.298
-397.165	107.670	0.232	0.279
-396.150	-96.167	-0.119	-0.032
-395.136	119.525	-0.132	0.165
-394.121	-93.116	-0.136	-0.038
-393.106	800.000	-0.104	-0.300
-392.092	62.642	-0.178	-0.179
-391.077	-200.000	0.041	0.280
-390.063	36.265	-0.319	0.283
-389.048	-163.606	-0.116	-0.006
-388.033	-107.788	-0.280	-0.062
-387.019	-200.000	-0.021	-0.267
-386.004	61.192	0.178	0.179
-384.990	427.755	-0.069	-0.151
-383.975	163.241	-0.260	0.368
-382.960	-125.019	-0.301	-0.047
-381.946	-200.000	0.029	-0.159
-380.931	800.000	0.023	-0.084
-379.917	63.051	0.117	0.118
-378.902	124.053	0.090	0.113
-377.888	0.566	-0.098	-0.071
-376.873	-200.000	-0.029	0.268
-375.858	-41.759	0.451	0.233
-374.844	-194.239	-0.188	-0.002
-373.829	-93.338	0.270	-0.075
-372.815	-56.554	0.166	-0.074
-371.800	-200.000	0.013	0.073
-370.785	-200.000	0.030	-0.258
-369.771	800.000	0.065	-0.240
-368.756	-151.045	0.312	0.024
-367.742	-37.034	0.073	0.039
-366.727	-115.528	-0.103	0.020
-365.712	800.000	-0.056	0.245
-364.698	154.496	-0.095	0.132
-363.683	14.697	-0.253	0.199
-362.669	800.000	-0.104	-0.320
-361.654	-115.327	-0.121	-0.023
-360.639	-200.000	-0.023	-0.255
-359.625	-136.726	-0.405	0.047
-358.610	-200.000	0.017	0.135
-357.596	658.542	0.113	0.292
-356.581	-200.000	-0.009	-0.189
-355.566	-23.009	0.160	-0.097
-354.552	-102.609	0.246	-0.059
-353.537	265.089	-0.109	0.192
-352.523	-200.000	0.000	-0.108
-351.508	-118.299	-0.070	0.013
-350.493	-9.737	0.244	0.163
-349.479	34.944	0.123	0.108
-348.464	-27.943	0.302	-0.176
-347.450	351.228	-0.171	-0.341
-346.435	-112.093	-0.288	0.058
-345.420	-94.745	0.452	0.123
-344.406	159.913	-0.228	0.320
-343.391	19.268	0.131	0.106
-342.377	-30.570	0.106	0.060
-341.362	-45.606	-0.198	-0.099
-340.348	249.794	0.115	-0.196
-339.333	-25.003	0.162	-0.097
-338.318	85.691	0.102	0.112
-337.304	-100.913	-0.164	0.041
-336.289	-128.977	-0.089	0.013
-335.275	-77.084	-0.049	0.017
-334.260	-35.131	-0.090	-0.049
-333.245	-63.024	0.267	0.111
-332.231	494.547	0.042	-0.097
-331.216	-136.371	-0.211	0.025
-330.202	800.000	-0.026	0.091
-329.187	-48.824	0.470	-0.227
-328.172	-200.000	-0.074	-0.353
-327.158	-183.055	-0.093	-0.002
-326.143	-4.431	-0.063	0.044
-325.129	-98.092	0.261	0.068
-324.114	-148.316	-0.546	0.045
-323.099	-15.741	-0.150	0.096
-322.085	800.000	0.043	-0.181
-321.070	-79.905	0.174	0.059
-320.056	800.000	-0.005	-0.019
-319.041	114.104	0.178	-0.218
-318.026	30.421	0.167	-0.143
-317.012	265.156	-0.228	0.399
-315.997	95.736	0.085	-0.097
-314.983	151.052	-0.136	-0.186
-313.968	800.000	0.026	-0.092
-312.953	800.000	0.030	-0.084
-311.939	14.036	-0.098	0.077
-310.924	-75.390	0.257	0.092
-309.910	348.104	-0.039	-0.077
-308.895	-86.810	0.098	-0.030
-307.880	299.288	-0.163	-0.302
-306.866	-46.011	-0.137	-0.068
-305.851	95.994	-0.465	-0.533
-304.837	-111.484	0.188	-0.038
-303.822	-48.213	-0.090	0.044
-302.807	-200.000	-0.003	-0.064
-301.793	380.213	-0.008	0.016
-300.778	62.294	0.271	-0.271
-299.764	800.000	-0.121	-0.423
-298.749	-52.228	-0.137	-0.064
-297.735	-64.902	-0.164	-0.067
-296.720	-29.362	0.225	0.129
-295.705	-200.000	-0.066	0.332
-294.691	800.000	0.020	0.058
-293.676	10.219	0.202	-0.155
-292.662	8.340	-0.142	0.107
-291.647	-71.658	-0.091	-0.034
-290.632	119.598	0.142	-0.177
-289.618	-173.256	-0.457	-0.014
-288.603	-89.710	0.090	-0.026
-287.589	82.933	-0.020	-0.022
-286.574	-49.775	0.329	-0.157
-285.559	-18.133	-0.075	-0.047
-284.545	-20.587	0.114	0.071
-283.530	415.422	0.138	-0.294
-282.516	-200.000	-0.069	-0.442
-281.501	25.856	0.117	0.098
-280.486	5.151	0.300	0.221
-279.472	-200.000	0.050	0.244
-278.457	11.376	0.208	-0.160
-277.443	-12.861	0.064	-0.042
-276.428	-200.000	0.018	0.124
-275.413	-100.644	-0.236	-0.058
-274.399	800.000	0.072	-0.214
-273.384	142.537	0.180	0.240
-272.370	-65.365	0.343	0.139
-271.355	-19.407	-0.191	-0.119
-270.340	111.886	0.134	0.162
-269.326	257.268	0.154	0.265
-268.311	29.808	0.163	0.139
-267.297	-200.000	-0.008	0.154
-266.282	-24.985	-0.155	0.092
-265.267	499.928	0.126	0.291
-264.253	-74.923	0.137	0.049
-263.238	0.538	-0.266	0.191
-262.224	800.000	0.034	-0.115
-261.209	-1.968	0.160	-0.113
-260.195	-200.000	-0.002	-0.371
-259.180	186.978	-0.186	-0.278
-258.165	-8.725	0.182	-0.122
-257.151	-200.000	-0.009	0.316
-256.136	-4.519	0.407	0.282
-255.122	-200.000	0.022	-0.152
-254.107	800.000	0.034	-0.128
-253.092	800.000	-0.057	0.194
-252.078	-155.789	0.136	0.009
-251.063	43.004	-0.099	0.090
-250.049	800.000	0.034	0.104
-249.034	184.303	-0.195	-0.290
-248.019	5.622	-0.175	-0.129
-247.005	-200.000	-0.017	0.281
-245.990	-9.045	-0.208	-0.140
-244.976	-200.000	-0.035	-0.166
-243.961	800.000	-0.021	0.064
-242.946	192.018	0.045	0.068
-241.932	132.637	-0.264	0.342
-240.917	90.915	-0.286	0.321
-239.903	800.000	0.163	0.489
-238.888	476.599	0.022	-0.051
-237.873	-15.346	-0.263	-0.169
-236.859	135.645	0.165	-0.215
-235.844	400.327	-0.063	-0.132
-234.830	-200.000	0.015	-0.338
-233.815	27.316	-0.201	-0.169
-232.800	-58.787	0.194	-0.084
-231.786	105.137	0.069	-0.082
-230.771	363.036	0.105	0.211
-229.757	-94.581	-0.116	-0.032
-228.742	800.000	0.015	0.062
-227.727	-200.000	-0.027	-0.174
-226.713	-12.358	-0.153	0.100
-225.698	36.132	0.191	0.168
-224.684	-96.224	-0.088	-0.023
-223.669	38.928	-0.209	-0.187
-222.655	426.474	0.045	-0.097
-221.640	-101.974	0.126	0.031
-220.625	-12.329	0.019	0.012
-219.611	104.837	0.084	-0.099
-218.596	-146.417	0.099	0.009
-217.582	-200.000	-0.000	0.007
-216.567	46.322	-0.155	-0.144
-215.552	-19.381	-0.212	-0.132
-214.538	-158.424	-0.247	0.014
-213.523	800.000	-0.094	-0.362
-212.509	75.222	-0.321	-0.338
-211.494	3.423	0.092	-0.067
-210.479	800.000	0.018	-0.063
-209.465	-200.000	0.001	0.256
-208.450	-62.755	0.203	-0.084
-207.436	9.370	-0.280	0.212
-206.421	800.000	0.053	0.227
-205.406	669.541	0.095	-0.246
-204.392	-23.690	-0.259	0.155
-203.377	-116.613	-0.260	-0.048
-202.363	-117.404	0.082	0.015
-201.348	-59.642	0.174	0.075
-200.333	200.131	0.313	0.481
-199.319	-200.000	0.041	-0.210
-198.304	38.674	0.041	-0.037
-197.290	-200.000	0.016	0.173
-196.275	-200.000	-0.039	0.246
-195.260	-173.183	-0.382	0.012
-194.246	200.606	0.150	0.230
-193.231	-84.504	-0.467	-0.147
-192.217	66.759	-0.231	-0.235
-191.202	254.086	0.163	-0.279
-190.187	-195.685	0.070	-0.001
-189.173	-139.293	-0.193	0.021
-188.158	-15.153	-0.183	-0.117
-187.144	147.990	-0.101	0.136
-186.129	-39.984	-0.090	-0.047
-185.114	638.632	0.084	0.214
-184.100	247.241	0.113	0.191
-183.085	-137.288	0.185	0.021
-182.071	800.000	-0.030	0.105
-181.056	-200.000	0.024	0.123
-180.042	289.199	0.037	-0.067
-179.027	-10.327	0.133	0.088
-178.012	92.819	0.086	-0.097
-176.998	-142.187	0.235	-0.023
-175.983	235.213	0.096	-0.159
-174.969	-178.439	-0.441	-0.010
-173.954	-71.121	-0.216	-0.081
-172.939	29.526	-0.175	-0.148
-171.925	800.000	-0.019	-0.064
-170.910	-200.000	0.012	-0.069
-169.896	-35.391	0.240	-0.131
-168.881	219.566	0.076	0.122
-167.866	-107.866	-0.377	0.082
-166.852	75.110	0.056	0.059
-165.837	-57.066	0.296	0.130
-164.823	800.000	0.064	-0.259
-163.808	-94.204	0.228	0.062
-162.793	-200.000	0.014	-0.167
-161.779	66.814	0.206	-0.209
-160.764	146.428	0.077	0.103
-159.750	135.106	-0.179	0.232
-158.735	-125.395	0.181	-0.028
-157.720	-2.346	-0.347	-0.243
-156.706	800.000	0.020	0.068
-155.691	-200.000	-0.000	-0.005
-154.677	-200.000	-0.013	-0.355
-153.662	-200.000	-0.025	-0.211
-152.647	-16.150	0.229	-0.145
-151.633	-200.000	-0.030	-0.353
-150.618	20.459	-0.165	0.133
-149.604	-200.000	0.026	0.343
-148.589	556.538	0.018	0.042
-147.574	-37.712	-0.102	0.054
-146.560	90.783	-0.148	0.166
-145.545	800.000	0.124	0.363
-144.531	800.000	0.125	0.410
-143.516	87.357	-0.065	0.072
-142.502	800.000	-0.056	-0.246
-141.487	-57.776	-0.056	-0.025
-140.472	-4.504	-0.175	0.121
-139.458	321.768	-0.106	0.200
-138.443	800.000	-0.033	0.128
-137.429	800.000	0.061	-0.184
-136.414	219.282	0.229	0.366
-135.399	207.426	-0.087	-0.135
-134.385	15.379	0.206	0.161
-133.370	-95.987	-0.287	0.076
-132.356	-192.923	0.085	-0.001
-131.341	7.755	0.143	-0.107
-130.326	254.327	-0.115	0.196
-129.312	-145.612	-0.295	-0.026
-128.297	-59.573	0.142	-0.061
-127.283	800.000	0.063	0.254
-126.268	193.347	-0.112	-0.169
-125.253	-178.806	0.029	-0.001
-124.239	800.000	-0.067	-0.202
-123.224	376.455	0.141	-0.288
-122.210	91.786	0.120	0.135
-121.195	-168.330	0.287	-0.011
