DTS Sentinel unit serial number:	SN413079Multiplexer serial number:	ORYXHardware model number:	OX4-SRSoftware version number:	ORYX F/W v4.00 Oryx Data Collector v3.7.2.0data status	okinstallation	princeton_trtdifferential loss correction	single-endedforward channel	channel 4reverse channel	N/Adate	2019/09/10time	18:07:11forward acquisition time	60.00reverse acquisition time	0.00gamma	496.2192k internal	0.2299k external	0.2299temperature offset calibration	0.9938default loss term (dB/km)	0.3790temperature slope calibration	1.0000multiplexer offset coefficient	1.0000multiplexer slope coefficient	1.0000fibre end	0.00T internal ref (°C)	36.87T ext. ref 1 (°C)	-0.41T ext. ref 2 (°C)	29.12length (m)	temperature (°C)	Stokes	anti-Stokes-747.200	80.223	0.106	0.116
-746.185	-200.000	0.011	0.225
-745.171	-107.306	-0.315	0.071
-744.156	94.519	0.090	0.104
-743.142	255.688	0.221	-0.386
-742.127	-172.057	-0.247	-0.008
-741.112	-111.843	0.190	-0.039
-740.098	800.000	0.097	0.297
-739.083	-48.966	0.039	0.019
-738.069	-25.321	-0.208	0.125
-737.054	-83.080	0.163	0.053
-736.039	83.573	0.147	-0.164
-735.025	-151.620	0.322	-0.024
-734.010	-46.289	0.177	0.089
-732.996	40.973	-0.143	-0.131
-731.981	-28.077	0.168	-0.099
-730.966	-18.621	-0.171	0.109
-729.952	-90.716	-0.192	-0.056
-728.937	-45.616	0.010	-0.005
-727.923	-200.000	-0.065	-0.359
-726.908	523.202	-0.061	0.146
-725.894	-178.216	-0.229	0.005
-724.879	500.899	-0.023	-0.054
-723.864	5.499	0.114	-0.086
-722.850	-18.820	-0.105	-0.067
-721.835	-200.000	0.020	0.231
-720.821	20.597	0.134	0.110
-719.806	-144.420	0.172	0.016
-718.791	253.583	-0.104	0.181
-717.777	6.373	-0.191	0.144
-716.762	-200.000	0.020	-0.315
-715.748	-200.000	-0.001	-0.165
-714.733	751.800	0.003	-0.007
-713.718	-200.000	0.012	0.182
-712.704	800.000	0.045	-0.152
-711.689	-55.829	0.354	-0.161
-710.675	42.602	0.103	-0.096
-709.660	-78.199	0.394	-0.138
-708.645	38.501	0.068	0.062
-707.631	-58.260	0.254	-0.113
-706.616	229.927	-0.111	0.186
-705.602	-141.871	0.096	0.010
-704.587	-117.659	0.254	-0.047
-703.572	223.862	-0.159	-0.262
-702.558	336.337	-0.214	-0.424
-701.543	-114.254	0.143	-0.028
-700.529	-200.000	0.301	-0.001
-699.514	-22.202	0.110	0.068
-698.499	-94.923	-0.266	-0.073
-697.485	11.887	-0.239	-0.187
-696.470	-10.955	-0.331	-0.223
-695.456	-75.765	-0.092	-0.033
-694.441	-200.000	-0.061	0.288
-693.426	800.000	0.090	-0.269
-692.412	-200.000	0.048	0.290
-691.397	250.361	-0.264	-0.456
-690.383	-200.000	0.025	-0.279
-689.368	4.970	0.147	0.110
-688.354	800.000	-0.132	-0.557
-687.339	14.616	0.319	-0.254
-686.324	11.292	-0.089	-0.069
-685.310	71.941	-0.233	-0.247
-684.295	269.642	0.145	-0.259
-683.281	15.546	-0.422	-0.338
-682.266	130.844	-0.228	-0.297
-681.251	626.217	-0.096	-0.247
-680.237	319.621	0.167	0.322
-679.222	-200.000	0.025	-0.158
-678.208	-200.000	-0.021	0.231
-677.193	800.000	0.079	-0.236
-676.178	208.381	-0.141	0.225
-675.164	-200.000	0.003	0.319
-674.149	101.264	0.243	-0.287
-673.135	-4.887	-0.193	0.135
-672.120	272.983	-0.126	-0.226
-671.105	604.750	-0.042	0.107
-670.091	6.742	0.107	-0.081
-669.076	-200.000	0.036	0.358
-668.062	51.729	-0.152	0.147
-667.047	-26.814	0.257	0.153
-666.032	-123.648	0.165	-0.027
-665.018	-148.396	-0.359	0.030
-664.003	111.589	0.065	0.079
-662.989	406.334	-0.074	0.158
-661.974	19.100	-0.187	0.152
-660.959	-73.693	0.165	-0.061
-659.945	436.208	0.082	0.182
-658.930	800.000	0.060	-0.244
-657.916	84.442	-0.126	-0.141
-656.901	590.777	0.124	-0.311
-655.886	55.236	-0.231	0.227
-654.872	142.583	0.080	0.108
-653.857	243.649	0.146	-0.249
-652.843	800.000	-0.140	-0.409
-651.828	91.541	-0.107	-0.122
-650.814	8.004	-0.147	0.112
-649.799	800.000	-0.129	-0.405
-648.784	-200.000	-0.068	-0.320
-647.770	241.811	-0.219	-0.372
-646.755	81.047	0.109	-0.120
-645.741	-110.337	0.182	0.039
-644.726	-44.261	-0.261	-0.133
-643.711	-200.000	0.015	0.109
-642.697	132.430	0.131	0.172
-641.682	-27.494	0.084	0.050
-640.668	-105.593	-0.300	-0.069
-639.653	122.281	-0.081	-0.103
-638.638	143.584	0.144	-0.195
-637.624	438.857	0.036	-0.079
-636.609	-101.852	-0.169	-0.042
-635.595	-42.884	-0.162	0.084
-634.580	-19.980	0.220	-0.138
-633.565	-121.357	-0.276	-0.047
-632.551	-200.000	-0.011	-0.143
-631.536	800.000	-0.062	0.243
-630.522	114.058	-0.110	0.136
-629.507	800.000	-0.048	-0.192
-628.492	153.187	0.214	0.298
-627.478	189.725	-0.119	-0.181
-626.463	232.549	0.069	-0.115
-625.449	-200.000	-0.038	-0.277
-624.434	-89.994	-0.185	-0.055
-623.419	23.645	0.235	0.197
-622.405	57.406	0.132	0.131
-621.390	467.345	0.093	-0.213
-620.376	204.605	-0.221	0.348
-619.361	23.530	0.259	-0.216
-618.346	341.094	-0.069	0.137
-617.332	147.298	0.123	0.168
-616.317	-200.000	0.007	-0.103
-615.303	24.528	-0.109	-0.091
-614.288	-200.000	-0.010	-0.229
-613.273	-200.000	-0.003	-0.227
-612.259	54.373	0.297	-0.290
-611.244	-161.761	-0.243	-0.013
-610.230	138.810	0.086	-0.115
-609.215	-145.599	0.059	0.005
-608.201	800.000	0.041	-0.144
-607.186	136.001	-0.196	0.260
-606.171	-29.867	0.133	-0.077
-605.157	-200.000	0.041	-0.209
-604.142	-95.326	-0.104	0.028
-603.128	-23.727	-0.326	-0.198
-602.113	-200.000	0.023	0.160
-601.098	32.632	-0.177	-0.155
-600.084	-84.628	0.342	-0.109
-599.069	71.308	-0.112	-0.118
-598.055	-200.000	0.042	-0.330
-597.040	-74.217	-0.085	-0.031
-596.025	638.303	-0.092	-0.238
-595.011	-69.596	-0.343	-0.133
-593.996	314.045	-0.098	-0.187
-592.982	10.938	-0.087	0.067
-591.967	-200.000	0.051	-0.403
-590.952	-200.000	-0.002	-0.330
-589.938	465.443	0.028	0.063
-588.923	28.252	0.359	-0.308
-587.909	69.603	0.329	-0.343
-586.894	32.010	-0.128	0.112
-585.879	-200.000	0.113	0.514
-584.865	-51.995	-0.328	0.154
-583.850	-8.931	-0.074	-0.051
-582.836	800.000	-0.032	0.127
-581.821	-140.562	0.084	-0.009
-580.806	-55.975	0.238	-0.108
-579.792	-200.000	0.056	-0.318
-578.777	-165.976	-0.209	0.009
-577.763	-26.267	0.140	-0.084
-576.748	-25.718	-0.075	0.045
-575.733	55.024	-0.250	0.245
-574.719	140.808	-0.101	-0.136
-573.704	410.553	-0.105	0.227
-572.690	-200.000	-0.012	-0.188
-571.675	-10.204	0.113	-0.076
-570.661	-200.000	0.013	-0.152
-569.646	-200.000	-0.014	0.143
-568.631	800.000	0.050	0.191
-567.617	-108.502	-0.099	0.022
-566.602	126.457	-0.080	-0.103
-565.588	36.255	-0.259	-0.232
-564.573	-66.407	0.492	-0.198
-563.558	-69.475	0.326	-0.127
-562.544	-97.513	-0.342	0.090
-561.529	279.809	-0.249	-0.450
-560.515	218.425	-0.104	-0.169
-559.500	276.495	0.167	0.301
-558.485	212.030	0.260	0.415
-557.471	-177.464	-0.138	0.003
-556.456	52.293	0.110	0.106
-555.442	288.514	-0.077	0.141
-554.427	30.273	0.067	0.058
-553.412	-46.811	-0.386	-0.191
-552.398	-60.548	0.244	-0.105
-551.383	-85.139	-0.098	0.031
-550.369	-53.317	-0.195	0.091
-549.354	-33.663	0.067	0.037
-548.339	153.423	-0.119	0.165
-547.325	262.998	-0.039	-0.069
-546.310	-97.091	0.203	-0.054
-545.296	-20.680	0.081	-0.050
-544.281	-200.000	-0.069	-0.530
-543.266	-23.744	0.165	0.100
-542.252	-29.314	0.127	0.074
-541.237	215.833	-0.055	0.088
-540.223	-140.233	-0.125	0.013
-539.208	-92.011	0.142	0.041
-538.193	146.993	0.012	0.016
-537.179	-103.706	-0.471	0.112
-536.164	-154.411	0.114	0.008
-535.150	-200.000	0.013	0.246
-534.135	22.938	-0.125	0.104
-533.121	-200.000	0.010	-0.216
-532.106	240.709	0.029	0.048
-531.091	-167.837	0.126	-0.005
-530.077	-53.115	0.091	0.042
-529.062	-19.911	-0.185	0.116
-528.048	-44.233	-0.118	-0.060
-527.033	800.000	-0.038	-0.131
-526.018	133.570	-0.050	-0.066
-525.004	-128.211	0.297	-0.043
-523.989	155.689	0.041	0.057
-522.975	-200.000	0.053	-0.405
-521.960	401.014	-0.065	0.138
-520.945	-200.000	-0.043	-0.299
-519.931	93.800	-0.427	-0.489
-518.916	-129.172	-0.300	-0.042
-517.902	800.000	-0.018	0.075
-516.887	-200.000	-0.013	-0.087
-515.872	-60.571	-0.233	0.100
-514.858	602.133	-0.012	0.029
-513.843	-105.104	0.199	-0.046
-512.829	-41.769	0.389	0.202
-511.814	-123.900	0.143	-0.023
-510.799	-84.365	0.165	0.053
-509.785	463.101	-0.160	0.361
-508.770	231.741	-0.040	0.066
-507.756	-142.765	0.215	0.021
-506.741	110.314	0.105	-0.128
-505.726	-85.597	0.118	-0.037
-504.712	-20.696	0.132	0.082
-503.697	291.560	0.087	0.160
-502.683	-200.000	0.018	0.169
-501.668	253.593	0.183	-0.316
-500.653	-114.727	-0.212	0.041
-499.639	-28.280	-0.211	0.123
-498.624	800.000	0.071	0.203
-497.610	-13.520	-0.100	0.065
-496.595	-8.845	-0.153	0.104
-495.581	-140.889	0.134	-0.014
-494.566	-200.000	0.046	-0.228
-493.551	-161.530	-0.203	0.011
-492.537	284.819	0.141	-0.257
-491.522	-200.000	-0.018	0.272
-490.508	-0.889	0.302	0.216
-489.493	-140.320	-0.222	-0.023
-488.478	-120.689	-0.092	0.016
-487.464	239.292	-0.164	0.276
-486.449	354.035	-0.140	0.282
-485.435	-83.875	-0.035	-0.011
-484.420	-200.000	0.023	-0.112
-483.405	800.000	0.013	0.046
-482.391	-51.440	-0.141	-0.066
-481.376	58.442	0.188	-0.186
-480.362	800.000	0.149	-0.433
-479.347	-60.777	-0.262	-0.112
-478.332	172.352	0.125	0.182
-477.318	800.000	-0.084	-0.283
-476.303	116.709	-0.306	-0.379
-475.289	-33.878	0.341	0.190
-474.274	800.000	0.052	0.165
-473.259	307.274	-0.109	-0.205
-472.245	5.420	0.293	-0.218
-471.230	800.000	-0.112	0.338
-470.216	591.082	-0.107	-0.267
-469.201	800.000	0.102	-0.315
-468.186	-63.887	0.153	-0.063
-467.172	-75.969	-0.078	-0.028
-466.157	263.910	0.154	0.270
-465.143	777.665	0.083	-0.229
-464.128	-33.482	0.200	0.111
-463.113	36.430	-0.264	0.235
-462.099	-13.938	-0.149	-0.097
-461.084	800.000	-0.021	-0.061
-460.070	800.000	0.060	0.247
-459.055	351.320	0.079	0.157
-458.040	257.344	-0.078	-0.136
-457.026	-55.179	0.279	-0.126
-456.011	-97.842	0.386	-0.101
-454.997	-108.798	0.122	0.026
-453.982	-140.736	-0.209	0.022
-452.968	800.000	-0.090	-0.284
-451.953	-88.152	0.381	-0.115
-450.938	-200.000	0.033	0.231
-449.924	-127.213	0.083	-0.012
-448.909	-200.000	0.026	0.154
-447.895	-11.175	-0.207	-0.137
-446.880	60.511	0.154	0.154
-445.865	800.000	-0.095	0.372
-444.851	112.208	0.136	0.166
-443.836	-125.090	0.421	-0.065
-442.822	-130.549	-0.242	0.033
-441.807	73.667	0.175	0.184
-440.792	-200.000	-0.019	0.130
-439.778	422.509	-0.032	-0.069
-438.763	-200.000	-0.059	-0.298
-437.749	-200.000	0.002	-0.089
-436.734	47.755	-0.159	-0.150
-435.719	-101.788	-0.561	0.137
-434.705	800.000	0.095	0.290
-433.690	-42.286	0.307	0.158
-432.676	16.927	0.442	0.353
-431.661	-145.182	-0.266	-0.024
-430.646	-2.508	-0.146	-0.103
-429.632	102.262	-0.094	0.111
-428.617	131.223	0.131	-0.169
-427.603	748.544	0.027	-0.074
-426.588	-129.628	0.261	0.036
-425.573	-104.277	0.193	0.045
-424.559	-144.960	0.264	0.024
-423.544	188.460	0.279	0.420
-422.530	-200.000	-0.006	-0.191
-421.515	-135.103	-0.222	0.027
-420.500	25.231	0.118	-0.098
-419.486	-160.789	-0.072	0.004
-418.471	-109.822	-0.245	0.052
-417.457	-131.126	0.289	0.039
-416.442	325.969	-0.074	-0.143
-415.428	-143.761	0.059	0.006
-414.413	800.000	-0.048	-0.157
-413.398	-38.071	0.127	-0.068
-412.384	-200.000	0.040	0.187
-411.369	-78.307	-0.236	0.082
-410.355	-200.000	-0.049	-0.250
-409.340	-200.000	0.020	-0.313
-408.325	20.944	-0.130	-0.106
-407.311	800.000	0.078	-0.248
-406.296	-54.095	-0.113	0.052
-405.282	246.168	-0.072	-0.123
-404.267	800.000	0.039	0.126
-403.252	-23.207	-0.197	0.119
-402.238	20.827	-0.246	-0.201
-401.223	474.156	0.034	-0.078
-400.209	22.458	0.220	0.181
-399.194	-107.010	0.175	-0.039
-398.179	-96.983	0.376	0.099
-397.165	35.136	-0.278	-0.245
-396.150	-200.000	-0.026	0.157
-395.136	-118.586	-0.247	0.044
-394.121	27.568	-0.121	0.102
-393.106	384.038	-0.009	-0.018
-392.092	273.631	0.126	-0.225
-391.077	131.774	0.173	-0.224
-390.063	224.077	-0.145	0.236
-389.048	-45.998	-0.079	-0.039
-388.033	-67.440	0.203	0.080
-387.019	-130.378	-0.150	-0.020
-386.004	-54.203	0.287	-0.131
-384.990	-200.000	-0.012	0.142
-383.975	800.000	0.064	0.236
-382.960	-200.000	-0.048	0.295
-381.946	-165.743	0.123	0.005
-380.931	-200.000	-0.024	-0.354
-379.917	-54.812	-0.157	-0.071
-378.902	24.018	-0.138	-0.114
-377.888	-30.426	-0.142	0.081
-376.873	800.000	0.039	-0.140
-375.858	-200.000	-0.020	-0.212
-374.844	533.878	0.036	0.086
-373.829	227.350	0.006	-0.010
-372.815	579.803	-0.066	0.164
-371.800	-123.727	-0.146	0.023
-370.785	19.202	-0.115	0.093
-369.771	48.404	0.173	0.163
-368.756	-174.676	-0.333	0.009
-367.742	-60.901	-0.224	0.095
-366.727	202.486	0.077	-0.119
-365.712	800.000	0.063	0.194
-364.698	-200.000	-0.010	0.196
-363.683	91.089	0.086	0.097
-362.669	113.524	-0.054	-0.066
-361.654	-200.000	-0.064	0.504
-360.639	-126.374	0.372	0.056
-359.625	28.506	0.182	0.155
-358.610	-50.537	-0.168	0.080
-357.596	-48.693	0.328	0.158
-356.581	498.632	0.049	0.113
-355.566	-88.187	0.059	-0.018
-354.552	-10.058	-0.084	-0.056
-353.537	-77.673	0.075	0.026
-352.523	69.330	0.168	0.174
-351.508	284.985	-0.040	-0.072
-350.493	-126.320	-0.168	0.025
-349.479	3.107	-0.063	-0.046
-348.464	-200.000	0.014	-0.286
-347.450	-200.000	0.015	0.426
-346.435	191.899	0.213	0.323
-345.420	-30.456	-0.345	0.197
-344.406	800.000	-0.029	0.114
-343.391	800.000	-0.041	-0.166
-342.377	-200.000	-0.016	0.086
-341.362	63.574	0.084	-0.084
-340.348	-76.039	-0.271	0.096
-339.333	645.920	0.054	0.138
-338.318	109.288	0.047	0.056
-337.304	56.454	-0.254	-0.248
-336.289	108.146	0.063	-0.075
-335.275	134.081	0.088	0.115
-334.260	-200.000	0.365	0.002
-333.245	237.344	0.008	0.014
-332.231	156.777	0.008	0.011
-331.216	-200.000	-0.010	-0.145
-330.202	284.188	-0.040	-0.073
-329.187	-29.870	-0.055	0.031
-328.172	800.000	0.066	-0.274
-327.158	111.034	0.168	0.203
-326.143	800.000	0.032	-0.104
-325.129	622.010	-0.062	0.157
-324.114	800.000	-0.092	0.300
-323.099	-27.755	0.164	0.095
-322.085	-66.691	-0.269	0.107
-321.070	800.000	0.045	-0.197
-320.056	800.000	-0.073	-0.292
-319.041	800.000	-0.110	-0.380
-318.026	456.317	0.015	-0.034
-317.012	767.254	-0.095	0.260
-315.997	-14.807	0.407	-0.262
-314.983	28.765	0.086	0.073
-313.968	-169.535	-0.280	0.010
-312.953	145.902	0.096	0.129
-311.939	461.719	-0.097	0.217
-310.924	800.000	-0.061	0.184
-309.910	-14.749	0.099	-0.064
-308.895	62.683	-0.184	-0.185
-307.880	-66.926	-0.194	-0.077
-306.866	-45.590	-0.103	0.051
-305.851	-200.000	-0.048	0.377
-304.837	800.000	-0.043	0.156
-303.822	800.000	0.092	0.297
-302.807	-200.000	0.022	-0.104
-301.793	-3.734	-0.283	0.197
-300.778	-48.810	0.126	0.061
-299.764	16.705	0.127	0.101
-298.749	-45.022	-0.152	0.076
-297.735	-121.152	0.379	0.064
-296.720	-34.083	0.291	-0.160
-295.705	421.028	0.116	0.250
-294.691	1.071	-0.086	-0.062
-293.676	-42.222	-0.205	0.105
-292.662	-52.023	-0.107	-0.050
-291.647	238.390	-0.108	0.180
-290.632	800.000	-0.059	0.165
-289.618	176.899	0.112	-0.164
-288.603	-200.000	0.017	0.316
-287.589	271.440	0.204	0.360
-286.574	262.536	-0.137	0.238
-285.559	-11.415	-0.182	-0.120
-284.545	-167.791	0.195	0.008
-283.530	-66.953	-0.216	0.086
-282.516	-55.749	-0.133	-0.060
-281.501	8.803	-0.377	-0.285
-280.486	598.290	0.118	-0.293
-279.472	800.000	-0.189	0.534
-278.457	800.000	0.102	0.331
-277.443	-16.290	0.195	0.124
-276.428	219.479	-0.194	0.310
-275.413	-0.918	-0.168	-0.119
-274.399	185.107	0.093	-0.138
-273.384	-176.936	0.299	-0.008
-272.370	-63.770	0.407	-0.167
-271.355	-24.572	-0.235	-0.140
-270.340	800.000	0.026	0.075
-269.326	-35.826	-0.164	-0.089
-268.311	-31.208	0.151	-0.085
-267.297	245.861	0.140	0.235
-266.282	229.987	-0.127	0.208
-265.267	-113.779	-0.252	-0.049
-264.253	-132.373	0.277	-0.036
-263.238	202.054	0.152	0.235
-262.224	-164.486	-0.147	0.007
-261.209	-74.260	0.462	-0.167
-260.195	139.307	-0.107	0.142
-259.180	84.661	0.164	0.180
-258.165	-200.000	-0.010	0.062
-257.151	-200.000	0.057	0.482
-256.136	-86.515	0.248	0.076
-255.122	-200.000	-0.014	-0.191
-254.107	-200.000	0.005	-0.224
-253.092	-103.823	-0.305	0.071
-252.078	-50.597	-0.136	0.064
-251.063	-200.000	-0.012	-0.106
-250.049	-137.562	-0.379	-0.043
-249.034	56.168	0.208	0.202
-248.019	177.306	0.027	0.039
-247.005	92.685	-0.174	0.197
-245.990	-128.721	-0.184	0.026
-244.976	621.791	0.051	0.129
-243.961	280.154	-0.116	-0.207
-242.946	800.000	0.054	0.161
-241.932	71.179	0.125	-0.129
-240.917	60.270	-0.160	-0.158
-239.903	800.000	-0.033	0.120
-238.888	-88.955	-0.298	0.088
-237.873	7.014	0.134	-0.100
-236.859	130.894	0.130	-0.167
-235.844	-79.260	-0.066	-0.023
-234.830	-200.000	0.006	0.294
-233.815	-200.000	-0.091	0.479
-232.800	-200.000	0.046	-0.234
-231.786	-17.889	0.298	-0.187
-230.771	-128.421	-0.248	-0.035
-229.757	10.547	-0.223	-0.170
-228.742	800.000	-0.062	0.185
-227.727	-104.876	-0.081	-0.019
-226.713	80.608	-0.111	-0.119
-225.698	800.000	-0.032	0.119
-224.684	239.412	0.081	0.135
-223.669	-68.785	0.423	-0.164
-222.655	800.000	0.094	-0.338
-221.640	76.512	0.254	-0.269
-220.625	800.000	0.079	-0.272
-219.611	-24.954	-0.170	-0.101
-218.596	-148.970	0.265	0.021
-217.582	-60.140	0.041	-0.017
-216.567	-14.060	0.338	0.218
-215.552	84.169	0.168	-0.184
-214.538	166.001	-0.126	0.178
-213.523	-39.373	-0.144	0.075
-212.509	-59.063	-0.259	-0.112
-211.494	17.894	0.193	-0.154
-210.479	392.765	-0.061	-0.127
-209.465	211.671	0.088	0.139
-208.450	800.000	-0.058	-0.214
-207.436	696.399	-0.081	0.213
-206.421	-45.925	-0.107	-0.053
-205.406	-3.180	0.101	-0.070
-204.392	-112.917	0.124	0.024
-203.377	-200.000	0.025	0.151
-202.363	118.518	0.052	-0.064
-201.348	-10.230	0.041	0.027
-200.333	800.000	0.101	0.323
-199.319	-200.000	-0.003	-0.051
-198.304	-63.997	-0.138	-0.056
-197.290	-25.156	-0.073	-0.043
-196.275	-116.352	-0.189	0.035
-195.260	-200.000	0.007	0.270
-194.246	-200.000	-0.005	-0.177
-193.231	-78.895	-0.236	-0.080
-192.217	557.566	-0.129	0.311
-191.202	800.000	0.036	0.134
-190.187	-112.652	-0.172	-0.034
-189.173	16.140	0.238	0.187
-188.158	800.000	-0.070	-0.201
-187.144	66.002	-0.126	-0.127
-186.129	-200.000	-0.033	-0.171
-185.114	-200.000	-0.022	-0.135
-184.100	228.312	-0.097	0.157
-183.085	84.220	0.130	0.142
-182.071	247.721	0.078	-0.132
-181.056	-9.604	-0.254	0.169
-180.042	138.905	-0.109	-0.143
-179.027	-28.295	0.387	-0.223
-178.012	-108.548	0.246	0.053
-176.998	371.808	-0.109	0.220
-175.983	-81.790	-0.269	-0.088
-174.969	290.267	0.103	-0.187
-173.954	800.000	0.034	-0.094
-172.939	223.068	-0.140	-0.225
-171.925	800.000	-0.021	-0.067
-170.910	-200.000	-0.029	-0.412
-169.896	-2.806	0.134	0.093
-168.881	-141.573	0.357	0.036
-167.866	82.051	0.078	0.084
-166.852	-59.328	0.090	0.039
-165.837	45.491	0.252	0.232
-164.823	615.638	0.030	0.075
-163.808	800.000	0.028	0.114
-162.793	-88.371	-0.268	-0.080
-161.779	-88.147	-0.156	-0.047
-160.764	-107.046	-0.168	0.037
-159.750	65.047	0.131	0.132
-158.735	-200.000	-0.038	-0.197
-157.720	-43.960	0.096	0.048
-156.706	-98.653	0.180	0.046
-155.691	31.500	0.193	0.166
-154.677	-31.527	0.081	0.045
-153.662	-68.315	-0.084	0.033
-152.647	-200.000	-0.008	0.106
-151.633	97.425	-0.083	-0.095
-150.618	37.405	0.027	-0.024
-149.604	-1.613	0.149	-0.105
-148.589	23.161	0.229	-0.188
-147.574	-63.449	0.218	0.089
-146.560	-32.922	0.146	-0.081
-145.545	291.489	0.020	-0.037
-144.531	-200.000	0.042	-0.233
-143.516	800.000	-0.145	-0.458
-142.502	146.583	0.044	-0.058
-141.487	359.227	0.073	-0.145
-140.472	179.446	0.165	0.241
-139.458	197.890	-0.176	0.268
-138.443	111.708	-0.063	0.076
-137.429	223.761	0.074	-0.119
-136.414	-111.225	0.235	0.048
-135.399	-3.744	0.092	-0.063
-134.385	349.406	-0.036	-0.071
-133.370	800.000	0.066	-0.182
-132.356	271.524	-0.244	-0.428
-131.341	-137.859	-0.262	0.029
-130.326	338.224	0.042	0.081
-129.312	127.152	0.071	-0.090
-128.297	-200.000	0.007	0.070
-127.283	800.000	0.042	-0.127
-126.268	-80.797	-0.164	-0.054
-125.253	800.000	-0.056	-0.163
-124.239	-200.000	-0.003	-0.082
-123.224	-17.512	0.065	-0.041
-122.210	-200.000	0.038	0.342
-121.195	8.886	-0.084	0.063
