DTS Sentinel unit serial number:	SN413079Multiplexer serial number:	ORYXHardware model number:	OX4-SRSoftware version number:	ORYX F/W v4.00 Oryx Data Collector v3.7.2.0data status	okinstallation	princeton_trtdifferential loss correction	single-endedforward channel	channel 4reverse channel	N/Adate	2019/09/12time	01:47:11forward acquisition time	60.00reverse acquisition time	0.00gamma	496.2192k internal	0.2309k external	0.2309temperature offset calibration	1.0090default loss term (dB/km)	0.3790temperature slope calibration	1.0000multiplexer offset coefficient	1.0000multiplexer slope coefficient	1.0000fibre end	0.00T internal ref (°C)	32.81T ext. ref 1 (°C)	2.05T ext. ref 2 (°C)	27.53length (m)	temperature (°C)	Stokes	anti-Stokes-747.200	189.591	-0.079	0.120
-746.185	544.581	0.036	-0.087
-745.171	-24.581	-0.209	-0.127
-744.156	201.632	0.132	0.206
-743.142	800.000	0.053	-0.213
-742.127	159.639	-0.282	0.399
-741.112	800.000	-0.034	0.151
-740.098	-200.000	0.014	0.070
-739.083	165.682	0.123	-0.176
-738.069	-27.214	-0.239	0.141
-737.054	-7.872	0.158	0.108
-736.039	88.196	-0.293	-0.330
-735.025	194.132	-0.134	-0.206
-734.010	48.095	-0.466	0.443
-732.996	800.000	-0.048	-0.183
-731.981	-126.003	0.229	-0.035
-730.966	345.736	0.118	-0.235
-729.952	-55.628	-0.205	0.093
-728.937	36.292	-0.124	0.111
-727.923	-200.000	0.030	-0.211
-726.908	-82.401	0.112	0.037
-725.894	-38.704	-0.165	0.088
-724.879	-200.000	0.012	-0.371
-723.864	-200.000	0.082	-0.616
-722.850	800.000	0.080	-0.241
-721.835	-26.993	0.240	-0.142
-720.821	-200.000	0.006	0.145
-719.806	-103.792	0.009	0.002
-718.791	-55.660	-0.428	-0.195
-717.777	116.379	0.160	-0.199
-716.762	212.798	0.138	0.222
-715.748	27.664	-0.096	-0.082
-714.733	-129.459	-0.289	-0.041
-713.718	-142.431	0.278	-0.028
-712.704	-57.769	-0.292	0.130
-711.689	31.186	-0.223	0.194
-710.675	667.387	-0.044	0.115
-709.660	-167.849	-0.276	-0.011
-708.645	-92.463	0.353	-0.101
-707.631	-74.575	0.261	0.095
-706.616	5.091	-0.017	-0.013
-705.602	229.964	0.057	-0.094
-704.587	800.000	-0.014	-0.043
-703.572	-137.148	0.526	-0.061
-702.558	-108.366	-0.240	0.052
-701.543	800.000	-0.067	-0.232
-700.529	-39.653	0.284	0.151
-699.514	800.000	0.036	-0.122
-698.499	-94.327	0.224	0.062
-697.485	-134.239	0.261	0.033
-696.470	800.000	0.036	-0.124
-695.456	-200.000	-0.017	-0.449
-694.441	-200.000	-0.005	0.189
-693.426	-39.426	-0.149	0.079
-692.412	-78.478	0.281	0.098
-691.397	261.271	0.108	-0.190
-690.383	-200.000	-0.054	-0.365
-689.368	155.041	-0.080	-0.111
-688.354	13.458	-0.269	0.211
-687.339	-33.905	0.106	0.059
-686.324	-62.866	-0.220	-0.093
-685.310	144.612	0.123	-0.167
-684.295	98.700	-0.221	0.258
-683.281	-31.449	-0.169	-0.096
-682.266	-200.000	0.001	-0.162
-681.251	84.862	0.107	0.118
-680.237	223.516	0.142	0.232
-679.222	776.725	0.052	-0.143
-678.208	-125.486	-0.289	-0.045
-677.193	800.000	0.073	-0.263
-676.178	18.715	-0.206	-0.167
-675.164	582.694	-0.023	0.056
-674.149	90.632	-0.186	0.211
-673.135	-134.111	0.409	-0.051
-672.120	-120.489	-0.197	-0.034
-671.105	-200.000	0.051	-0.589
-670.091	-71.500	0.291	-0.110
-669.076	800.000	0.060	-0.196
-668.062	-58.126	-0.093	-0.041
-667.047	-32.579	0.162	0.091
-666.032	154.512	-0.134	0.186
-665.018	800.000	0.021	-0.082
-664.003	30.547	0.109	-0.094
-662.989	-55.926	0.341	-0.154
-661.974	800.000	-0.046	-0.156
-660.959	-11.218	-0.129	-0.086
-659.945	-98.655	0.140	-0.036
-658.930	-157.838	0.265	-0.016
-657.916	-60.773	0.195	0.084
-656.901	-123.385	0.091	-0.015
-655.886	800.000	-0.017	-0.071
-654.872	-50.028	0.114	-0.055
-653.857	678.365	0.071	0.188
-652.843	-131.859	-0.334	-0.044
-651.828	-200.000	-0.029	-0.236
-650.814	81.763	-0.059	-0.065
-649.799	14.669	-0.139	0.110
-648.784	-172.914	0.398	-0.012
-647.770	-142.727	-0.237	-0.023
-646.755	564.541	-0.117	-0.287
-645.741	-200.000	0.044	-0.202
-644.726	182.979	-0.208	-0.311
-643.711	-28.196	0.165	-0.097
-642.697	-81.431	-0.124	-0.041
-641.682	-89.377	0.192	-0.057
-640.668	-51.372	0.174	0.082
-639.653	-90.332	-0.093	-0.027
-638.638	-124.479	0.294	-0.046
-637.624	-45.207	0.243	0.122
-636.609	277.046	-0.104	-0.187
-635.595	273.150	0.108	-0.193
-634.580	-16.799	-0.062	-0.040
-633.565	125.467	-0.120	-0.153
-632.551	-84.905	-0.140	0.044
-631.536	-49.623	0.071	-0.034
-630.522	-0.014	0.105	-0.075
-629.507	-64.559	0.175	-0.072
-628.492	-200.000	-0.043	0.237
-627.478	-200.000	-0.022	-0.111
-626.463	291.365	0.105	-0.194
-625.449	23.034	-0.259	-0.215
-624.434	-200.000	-0.010	0.182
-623.419	-200.000	0.009	0.275
-622.405	-200.000	-0.036	0.292
-621.390	-0.934	0.100	-0.072
-620.376	-130.921	-0.183	0.025
-619.361	-200.000	-0.033	-0.185
-618.346	-200.000	-0.039	0.410
-617.332	-200.000	-0.014	-0.112
-616.317	-44.279	-0.215	-0.109
-615.303	158.906	0.124	0.175
-614.288	-127.374	0.169	-0.025
-613.273	367.371	-0.090	-0.184
-612.259	-60.746	0.111	0.048
-611.244	354.358	0.183	0.367
-610.230	109.455	-0.191	0.231
-609.215	-115.577	0.123	0.023
-608.201	-200.000	0.036	0.200
-607.186	-16.680	-0.086	0.055
-606.171	80.875	-0.140	-0.153
-605.157	474.697	0.019	-0.043
-604.142	-200.000	0.023	0.148
-603.128	-52.533	0.358	0.167
-602.113	-39.354	-0.078	-0.041
-601.098	-90.825	-0.241	-0.070
-600.084	-200.000	0.011	0.185
-599.069	-60.354	0.282	-0.121
-598.055	-200.000	-0.041	-0.223
-597.040	-200.000	0.015	0.067
-596.025	59.607	0.146	0.146
-595.011	-200.000	0.037	-0.535
-593.996	202.703	-0.226	-0.352
-592.982	132.084	0.061	0.079
-591.967	800.000	0.012	-0.043
-590.952	-55.328	0.084	-0.038
-589.938	-62.454	0.084	0.035
-588.923	-108.480	0.310	-0.067
-587.909	-43.545	0.139	0.071
-586.894	-69.050	-0.071	0.028
-585.879	800.000	-0.063	-0.220
-584.865	-145.564	-0.111	-0.010
-583.850	-45.356	-0.287	0.144
-582.836	-49.877	-0.198	-0.095
-581.821	-33.087	0.095	-0.053
-580.806	709.895	-0.078	-0.208
-579.792	680.259	-0.049	-0.128
-578.777	800.000	-0.042	-0.137
-577.763	26.934	0.008	0.007
-576.748	-200.000	-0.018	0.155
-575.733	-109.431	-0.389	0.083
-574.719	-33.959	0.336	0.187
-573.704	-35.000	-0.130	0.072
-572.690	-61.128	-0.146	-0.062
-571.675	-80.884	-0.362	-0.121
-570.661	-82.745	-0.345	0.113
-569.646	9.975	0.349	-0.268
-568.631	33.966	0.060	-0.053
-567.617	2.397	0.267	0.195
-566.602	800.000	-0.029	-0.088
-565.588	241.124	0.250	-0.420
-564.573	-200.000	0.016	-0.251
-563.558	37.526	-0.239	0.214
-562.544	-48.847	-0.264	0.128
-561.529	387.892	-0.146	-0.306
-560.515	-200.000	-0.056	-0.272
-559.500	-200.000	-0.010	-0.147
-558.485	-42.863	-0.232	-0.119
-557.471	99.062	-0.129	-0.150
-556.456	-20.203	0.344	-0.214
-555.442	134.821	-0.155	-0.204
-554.427	800.000	-0.074	0.234
-553.412	166.204	-0.142	0.202
-552.398	-98.920	-0.364	-0.093
-551.383	-133.095	-0.017	0.002
-550.369	-44.732	-0.110	-0.055
-549.354	-117.357	0.239	-0.044
-548.339	-116.166	-0.029	-0.005
-547.325	138.394	-0.197	0.261
-546.310	387.508	0.094	-0.197
-545.296	-50.778	0.382	-0.181
-544.281	-164.184	0.193	0.009
-543.266	-26.123	0.096	-0.057
-542.252	248.118	0.137	-0.233
-541.237	80.894	0.217	-0.236
-540.223	-46.716	0.207	-0.102
-539.208	-75.196	0.187	0.067
-538.193	-62.566	-0.333	-0.140
-537.179	236.642	-0.093	0.156
-536.164	7.465	-0.129	0.097
-535.150	800.000	-0.099	-0.299
-534.135	240.936	-0.022	-0.037
-533.121	-4.263	0.120	0.084
-532.106	-116.322	0.225	0.042
-531.091	-200.000	-0.006	0.292
-530.077	617.548	-0.050	0.128
-529.062	-178.918	-0.151	-0.003
-528.048	800.000	-0.064	-0.231
-527.033	-29.825	0.346	0.199
-526.018	-200.000	-0.001	0.054
-525.004	-200.000	0.044	0.337
-523.989	124.652	-0.180	-0.228
-522.975	-46.784	0.147	-0.072
-521.960	800.000	-0.122	-0.376
-520.945	-27.063	-0.238	0.140
-519.931	401.351	0.027	0.057
-518.916	140.647	0.199	0.265
-517.902	152.469	0.150	0.207
-516.887	-200.000	-0.075	-0.388
-515.872	-47.953	-0.165	0.080
-514.858	800.000	-0.081	0.307
-513.843	-108.232	-0.115	0.025
-512.829	9.377	0.135	0.103
-511.814	-190.239	0.113	0.001
-510.799	228.016	0.119	-0.194
-509.785	-200.000	0.005	-0.057
-508.770	12.000	-0.029	-0.022
-507.756	-16.985	0.114	-0.072
-506.741	-200.000	0.005	-0.029
-505.726	26.102	-0.184	-0.154
-504.712	-97.690	0.147	0.038
-503.697	-16.512	0.176	0.113
-502.683	-171.085	0.247	0.008
-501.668	220.871	0.091	-0.147
-500.653	73.975	0.243	0.256
-499.639	134.532	-0.172	-0.225
-498.624	-200.000	0.065	-0.334
-497.610	-98.151	-0.266	-0.069
-496.595	800.000	0.067	0.257
-495.581	-96.469	-0.146	0.039
-494.566	-200.000	-0.016	-0.093
-493.551	-69.770	-0.091	0.035
-492.537	-169.347	-0.021	-0.001
-491.522	53.837	-0.047	-0.046
-490.508	190.231	0.094	0.142
-489.493	34.159	0.125	0.109
-488.478	-105.172	-0.297	-0.068
-487.464	487.952	0.034	-0.078
-486.449	770.580	0.130	0.357
-485.435	225.782	-0.070	-0.114
-484.420	800.000	-0.145	-0.508
-483.405	149.404	-0.022	0.030
-482.391	196.807	-0.045	-0.069
-481.376	28.054	-0.081	0.069
-480.362	648.492	0.016	0.040
-479.347	364.942	-0.054	0.110
-478.332	230.571	0.106	-0.175
-477.318	-200.000	-0.038	-0.167
-476.303	800.000	0.063	-0.216
-475.289	-108.727	-0.106	0.023
-474.274	60.138	-0.199	0.198
-473.259	-200.000	-0.014	0.194
-472.245	-58.921	-0.083	0.036
-471.230	-65.055	0.036	-0.015
-470.216	-7.105	-0.045	-0.031
-469.201	-146.125	-0.274	-0.024
-468.186	-200.000	0.048	-0.210
-467.172	57.866	0.166	-0.164
-466.157	-200.000	-0.025	0.219
-465.143	-31.726	-0.171	0.097
-464.128	-101.323	-0.219	-0.054
-463.113	-163.022	-0.169	-0.008
-462.099	800.000	0.015	0.046
-461.084	289.018	-0.049	0.089
-460.070	12.327	0.309	0.239
-459.055	-56.810	-0.404	0.179
-458.040	-8.951	-0.061	0.041
-457.026	210.946	0.365	-0.576
-456.011	321.327	-0.170	-0.325
-454.997	-43.115	0.211	0.107
-453.982	-8.522	-0.173	-0.117
-452.968	800.000	0.039	-0.144
-451.953	-200.000	0.014	0.116
-450.938	800.000	-0.073	0.212
-449.924	-134.704	0.281	-0.034
-448.909	258.856	-0.298	0.515
-447.895	-200.000	-0.025	-0.215
-446.880	-200.000	-0.008	-0.264
-445.865	56.384	-0.191	-0.186
-444.851	126.142	0.103	0.131
-443.836	-200.000	0.004	0.147
-442.822	-200.000	0.043	0.225
-441.807	-200.000	-0.059	0.422
-440.792	159.289	-0.118	0.164
-439.778	-46.240	-0.238	-0.117
-438.763	172.501	0.138	-0.199
-437.749	433.730	0.100	-0.218
-436.734	-142.248	-0.170	-0.017
-435.719	800.000	-0.079	0.291
-434.705	800.000	-0.073	0.246
-433.690	282.000	0.087	0.157
-432.676	66.406	0.101	-0.103
-431.661	215.426	0.060	0.096
-430.646	-29.427	-0.126	0.072
-429.632	-100.400	0.152	0.038
-428.617	-57.194	-0.155	-0.068
-427.603	106.268	-0.193	0.229
-426.588	-16.774	-0.287	0.182
-425.573	-15.646	-0.054	-0.034
-424.559	800.000	-0.049	0.148
-423.544	-9.081	-0.194	-0.131
-422.530	-200.000	0.024	0.138
-421.515	-55.605	0.269	-0.121
-420.500	-43.651	0.154	-0.078
-419.486	-200.000	0.038	-0.334
-418.471	515.724	0.069	0.163
-417.457	-126.400	-0.236	-0.035
-416.442	-165.973	0.299	0.013
-415.428	752.617	0.046	-0.126
-414.413	-200.000	-0.088	0.464
-413.398	50.168	-0.274	-0.260
-412.384	166.242	0.098	0.139
-411.369	-116.714	0.172	-0.032
-410.355	122.958	-0.214	0.269
-409.340	-70.243	0.390	0.148
-408.325	659.575	-0.032	0.082
-407.311	34.952	-0.312	0.274
-406.296	218.089	0.085	0.137
-405.282	39.565	-0.155	-0.139
-404.267	52.421	-0.095	-0.091
-403.252	51.669	-0.117	-0.111
-402.238	183.280	-0.176	-0.261
-401.223	-189.689	-0.106	-0.001
-400.209	-200.000	0.007	-0.611
-399.194	-200.000	-0.041	-0.212
-398.179	-64.000	0.118	-0.048
-397.165	-50.848	-0.070	0.033
-396.150	37.050	-0.289	0.256
-395.136	-165.693	0.090	-0.004
-394.121	54.294	0.129	0.124
-393.106	-2.302	-0.219	0.154
-392.092	-153.053	-0.268	-0.019
-391.077	800.000	0.091	-0.272
-390.063	-196.763	0.124	-0.001
-389.048	792.451	-0.104	-0.285
-388.033	-159.343	0.155	0.009
-387.019	-97.724	0.066	0.017
-386.004	87.164	0.205	-0.227
-384.990	-200.000	-0.058	-0.559
-383.975	84.955	-0.105	-0.115
-382.960	-161.712	-0.397	0.020
-381.946	12.229	0.317	0.245
-380.931	634.190	-0.062	0.158
-379.917	716.360	-0.109	0.290
-378.902	-112.429	-0.164	-0.033
-377.888	-200.000	-0.011	0.107
-376.873	493.983	0.045	0.103
-375.858	-1.090	-0.134	0.095
-374.844	-200.000	0.015	0.128
-373.829	-55.244	-0.317	-0.143
-372.815	228.473	0.035	-0.057
-371.800	303.987	-0.212	-0.394
-370.785	-25.954	0.033	-0.020
-369.771	800.000	-0.150	-0.432
-368.756	800.000	0.049	-0.161
-367.742	70.047	0.034	0.035
-366.727	-121.784	-0.315	-0.052
-365.712	-133.240	0.137	-0.017
-364.698	215.129	-0.276	0.438
-363.683	-200.000	0.010	0.157
-362.669	375.544	-0.089	-0.181
-361.654	-93.708	-0.226	0.063
-360.639	-200.000	0.063	0.311
-359.625	572.130	0.034	0.083
-358.610	-63.613	0.203	0.083
-357.596	-200.000	-0.093	-0.413
-356.581	-104.723	0.082	0.019
-355.566	98.965	0.099	-0.114
-354.552	-200.000	-0.043	0.308
-353.537	-78.316	-0.235	0.081
-352.523	740.321	0.080	-0.215
-351.508	126.320	-0.164	0.207
-350.493	800.000	0.135	0.374
-349.479	-18.282	-0.097	-0.061
-348.464	153.996	-0.104	0.143
-347.450	212.777	0.106	-0.167
-346.435	251.623	-0.040	-0.067
-345.420	-120.855	-0.058	0.010
-344.406	-200.000	0.018	0.154
-343.391	800.000	-0.041	0.169
-342.377	-25.885	0.281	0.166
-341.362	-108.113	-0.239	0.052
-340.348	124.419	-0.394	0.496
-339.333	75.054	0.139	0.147
-338.318	-167.640	-0.406	0.016
-337.304	80.087	-0.187	-0.202
-336.289	141.612	-0.041	-0.055
-335.275	-121.655	-0.116	-0.019
-334.260	-175.981	0.225	-0.006
-333.245	800.000	-0.080	0.294
-332.231	-103.259	0.195	0.046
-331.216	-192.560	0.201	-0.002
-330.202	95.226	0.225	-0.256
-329.187	243.196	0.165	0.277
-328.172	-200.000	-0.011	0.294
-327.158	52.486	0.196	-0.187
-326.143	-103.020	-0.280	-0.066
-325.129	-123.933	0.193	-0.030
-324.114	-200.000	0.010	0.066
-323.099	397.725	0.164	0.342
-322.085	800.000	-0.038	-0.131
-321.070	-200.000	0.053	-0.465
-320.056	-35.098	-0.078	0.042
-319.041	158.009	0.182	0.252
-318.026	800.000	-0.031	-0.086
-317.012	800.000	0.082	0.354
-315.997	-38.849	0.189	-0.100
-314.983	164.271	0.255	-0.359
-313.968	-200.000	0.055	0.297
-312.953	-26.216	0.346	-0.203
-311.939	-200.000	0.021	-0.178
-310.924	103.876	0.088	0.103
-309.910	314.703	0.106	-0.200
-308.895	382.870	0.095	-0.195
-307.880	188.116	0.085	0.127
-306.866	-200.000	0.008	-0.060
-305.851	71.265	0.191	0.197
-304.837	-105.590	-0.034	0.008
-303.822	219.244	-0.096	0.154
-302.807	784.277	0.085	0.233
-301.793	53.126	-0.112	0.107
-300.778	-87.486	0.040	-0.012
-299.764	-63.988	0.457	0.187
-298.749	55.651	0.302	-0.292
-297.735	119.819	-0.259	-0.321
-296.720	33.404	0.177	0.153
-295.705	-35.333	0.066	0.036
-294.691	77.053	0.227	-0.240
-293.676	156.709	-0.074	-0.102
-292.662	127.030	0.394	0.499
-291.647	-200.000	-0.004	-0.107
-290.632	145.443	0.099	0.133
-289.618	382.660	0.150	0.309
-288.603	264.321	0.157	0.272
-287.589	-11.477	0.220	-0.145
-286.574	415.506	0.051	-0.109
-285.559	255.153	0.122	-0.209
-284.545	2.835	0.164	-0.119
-283.530	-99.799	0.088	-0.022
-282.516	800.000	0.035	0.145
-281.501	-200.000	-0.016	0.196
-280.486	-200.000	0.025	-0.149
-279.472	730.298	-0.087	-0.233
-278.457	800.000	-0.095	-0.372
-277.443	-112.994	-0.172	0.034
-276.428	-137.302	0.337	-0.038
-275.413	-200.000	0.037	0.228
-274.399	77.696	-0.346	0.368
-273.384	-124.803	0.164	-0.025
-272.370	-173.722	-0.222	0.007
-271.355	-23.860	-0.097	0.058
-270.340	131.642	0.284	0.364
-269.326	-200.000	-0.030	0.148
-268.311	96.452	-0.218	-0.248
-267.297	554.572	0.115	-0.277
-266.282	-117.161	-0.248	-0.045
-265.267	0.211	0.235	-0.168
-264.253	358.436	-0.107	0.213
-263.238	800.000	0.111	0.305
-262.224	-91.710	-0.362	-0.103
-261.209	104.964	0.160	-0.188
-260.195	-131.606	-0.289	-0.038
-259.180	-4.854	0.158	-0.109
-258.165	126.791	-0.115	-0.145
-257.151	7.913	-0.307	0.229
-256.136	43.883	-0.112	0.103
-255.122	-14.489	0.049	-0.031
-254.107	128.159	0.113	-0.143
-253.092	-200.000	-0.030	-0.176
-252.078	800.000	-0.022	0.071
-251.063	-37.721	0.227	-0.121
-250.049	23.016	-0.142	0.116
-249.034	-200.000	0.014	0.315
-248.019	41.068	-0.151	-0.136
-247.005	-200.000	-0.026	-0.197
-245.990	-200.000	-0.035	0.251
-244.976	176.134	-0.218	0.315
-243.961	-200.000	-0.012	-0.153
-242.946	-200.000	0.026	-0.139
-241.932	161.533	-0.220	-0.306
-240.917	-30.067	-0.143	-0.081
-239.903	265.644	0.121	0.211
-238.888	11.461	-0.233	0.178
-237.873	669.723	-0.028	0.073
-236.859	265.437	-0.099	0.171
-235.844	-157.741	-0.314	-0.019
-234.830	369.760	0.126	-0.254
-233.815	-200.000	-0.033	0.269
-232.800	-105.632	0.012	0.003
-231.786	41.207	-0.117	-0.105
-230.771	285.912	-0.187	-0.337
-229.757	-34.088	0.097	0.053
-228.742	725.458	-0.131	-0.348
-227.727	117.765	-0.005	0.006
-226.713	-101.442	0.090	0.022
-225.698	39.713	-0.104	0.093
-224.684	368.489	-0.031	-0.062
-223.669	-44.955	0.103	-0.051
-222.655	22.416	0.180	0.146
-221.640	-62.687	0.176	-0.073
-220.625	-98.432	0.288	-0.073
-219.611	800.000	-0.044	0.159
-218.596	270.418	-0.039	-0.068
-217.582	-200.000	0.004	-0.165
-216.567	-49.958	-0.121	-0.057
-215.552	129.942	0.164	-0.209
-214.538	-200.000	0.043	-0.234
-213.523	-200.000	0.014	0.502
-212.509	753.131	-0.099	-0.267
-211.494	800.000	-0.048	-0.147
-210.479	800.000	-0.047	0.132
-209.465	422.906	0.158	-0.339
-208.450	-138.827	0.154	0.017
-207.436	-200.000	-0.008	0.229
-206.421	-46.812	-0.338	0.164
-205.406	800.000	0.029	-0.112
-204.392	276.263	0.034	0.059
-203.377	123.493	-0.042	-0.053
-202.363	242.536	-0.085	0.141
-201.348	-200.000	0.055	0.249
-200.333	-83.354	0.353	-0.113
-199.319	45.716	0.168	0.155
-198.304	389.821	0.041	0.085
-197.290	-200.000	-0.036	0.275
-196.275	-148.024	-0.157	-0.013
-195.260	203.032	0.173	0.265
-194.246	800.000	-0.108	-0.327
-193.231	-40.794	-0.253	-0.130
-192.217	800.000	-0.056	-0.238
-191.202	-22.841	0.252	-0.151
-190.187	9.064	-0.194	-0.146
-189.173	-200.000	0.028	-0.525
-188.158	102.274	-0.050	-0.058
-187.144	-19.475	0.277	0.171
-186.129	107.609	0.076	0.090
-185.114	-200.000	-0.012	0.144
-184.100	-77.255	0.252	0.087
-183.085	-137.730	0.305	0.034
-182.071	-180.686	0.140	-0.003
-181.056	-45.935	-0.080	0.039
-180.042	-105.261	0.135	0.031
-179.027	-42.060	0.173	-0.088
-178.012	110.799	-0.134	-0.160
-176.998	-200.000	0.018	0.171
-175.983	-200.000	0.053	0.406
-174.969	-179.290	-0.172	-0.004
-173.954	-64.882	0.249	0.100
-172.939	-200.000	0.018	-0.224
-171.925	-132.875	-0.131	0.017
-170.910	-200.000	0.008	0.367
-169.896	485.690	0.114	0.257
-168.881	-37.166	0.263	0.140
-167.866	118.037	-0.077	0.095
-166.852	-200.000	-0.002	0.065
-165.837	-54.699	0.180	0.081
-164.823	-166.503	0.188	0.008
-163.808	-49.672	0.064	-0.030
-162.793	-129.731	-0.376	-0.051
-161.779	-180.132	-0.249	-0.005
-160.764	-200.000	-0.000	0.162
-159.750	-118.113	-0.273	0.048
-158.735	12.032	0.219	-0.168
-157.720	23.135	0.257	0.209
-156.706	800.000	0.111	0.320
-155.691	-81.690	0.064	-0.021
-154.677	800.000	0.088	0.252
-153.662	-81.308	0.263	0.086
-152.647	97.979	0.115	0.132
-151.633	-92.302	0.213	-0.060
-150.618	795.867	0.125	-0.341
-149.604	-200.000	0.011	0.262
-148.589	5.774	0.256	0.188
-147.574	41.967	0.075	-0.067
-146.560	-200.000	-0.040	-0.312
-145.545	-174.415	-0.188	-0.005
-144.531	-87.385	-0.338	0.102
-143.516	-200.000	0.008	0.263
-142.502	177.923	0.225	-0.326
-141.487	52.010	0.208	0.196
-140.472	84.427	-0.033	0.036
-139.458	-45.996	-0.274	-0.134
-138.443	347.427	-0.085	0.165
-137.429	108.502	0.222	-0.262
-136.414	247.144	-0.062	-0.104
-135.399	32.121	0.457	0.391
-134.385	94.851	0.231	0.261
-133.370	-115.674	-0.409	-0.076
-132.356	116.995	-0.008	0.010
-131.341	-69.612	-0.129	-0.049
-130.326	-141.007	0.136	0.014
-129.312	138.595	0.033	-0.043
-128.297	-200.000	0.028	-0.138
-127.283	-109.170	0.260	-0.055
-126.268	-72.665	0.042	0.015
-125.253	307.733	-0.040	-0.073
-124.239	34.649	0.189	0.164
-123.224	-15.957	0.063	0.040
-122.210	800.000	-0.084	0.342
