DTS Sentinel unit serial number:	SN413079Multiplexer serial number:	ORYXHardware model number:	OX4-SRSoftware version number:	ORYX F/W v4.00 Oryx Data Collector v3.7.2.0data status	okinstallation	princeton_trtdifferential loss correction	single-endedforward channel	channel 4reverse channel	N/Adate	2019/09/11time	02:19:11forward acquisition time	60.00reverse acquisition time	0.00gamma	496.2192k internal	0.2317k external	0.2317temperature offset calibration	0.9949default loss term (dB/km)	0.3790temperature slope calibration	1.0000multiplexer offset coefficient	1.0000multiplexer slope coefficient	1.0000fibre end	0.00T internal ref (°C)	29.19T ext. ref 1 (°C)	-0.28T ext. ref 2 (°C)	23.52length (m)	temperature (°C)	Stokes	anti-Stokes-747.200	45.041	0.240	0.223
-746.185	67.603	0.081	0.084
-745.171	-34.538	-0.104	-0.057
-744.156	329.275	0.138	0.269
-743.142	-54.244	0.177	0.081
-742.127	431.373	-0.084	0.184
-741.112	10.466	-0.148	-0.114
-740.098	53.535	-0.176	0.171
-739.083	58.222	0.179	-0.178
-738.069	-133.744	-0.250	0.032
-737.054	-125.148	0.151	0.023
-736.039	-20.545	-0.342	-0.213
-735.025	-80.298	0.179	0.061
-734.010	713.631	-0.065	-0.174
-732.996	-163.627	-0.327	0.016
-731.981	-113.198	0.060	0.012
-730.966	-62.262	-0.018	0.008
-729.952	107.412	0.123	-0.148
-728.937	-200.000	-0.017	-0.124
-727.923	-124.588	-0.247	-0.039
-726.908	-164.009	0.163	-0.008
-725.894	318.791	-0.115	-0.220
-724.879	-87.655	-0.411	-0.126
-723.864	-91.723	-0.346	0.099
-722.850	-200.000	-0.000	0.008
-721.835	-200.000	-0.031	0.186
-720.821	-122.585	0.214	-0.035
-719.806	-200.000	0.012	0.413
-718.791	-139.765	-0.110	-0.012
-717.777	800.000	-0.099	-0.335
-716.762	-84.282	-0.137	-0.044
-715.748	-78.368	0.288	-0.100
-714.733	-200.000	0.008	-0.205
-713.718	569.370	0.106	-0.260
-712.704	800.000	-0.102	0.286
-711.689	-200.000	-0.021	0.100
-710.675	-5.996	0.232	-0.161
-709.660	-200.000	0.031	-0.212
-708.645	-200.000	-0.075	0.410
-707.631	800.000	-0.030	0.089
-706.616	253.211	-0.076	0.132
-705.602	-63.860	-0.117	-0.048
-704.587	-25.833	0.293	-0.175
-703.572	99.008	-0.130	0.152
-702.558	-13.525	-0.109	0.071
-701.543	259.910	-0.090	0.157
-700.529	-1.172	-0.283	0.202
-699.514	-111.478	-0.075	0.015
-698.499	-200.000	-0.015	-0.202
-697.485	8.117	-0.048	0.036
-696.470	-34.461	-0.178	0.098
-695.456	-70.777	-0.099	-0.038
-694.441	-185.767	0.200	0.003
-693.426	210.914	-0.154	0.245
-692.412	42.301	0.218	-0.201
-691.397	-150.816	-0.368	0.028
-690.383	-40.589	-0.196	0.103
-689.368	132.206	0.097	-0.126
-688.354	21.223	0.113	-0.093
-687.339	-10.876	0.100	-0.067
-686.324	800.000	-0.044	-0.134
-685.310	112.700	0.166	-0.203
-684.295	24.930	0.102	0.085
-683.281	-73.181	-0.090	0.033
-682.266	-54.419	-0.205	-0.094
-681.251	178.914	0.063	0.093
-680.237	112.324	0.111	0.135
-679.222	89.284	-0.244	-0.274
-678.208	104.770	-0.123	-0.146
-677.193	90.943	-0.082	0.093
-676.178	-152.319	-0.219	0.016
-675.164	-86.486	-0.097	0.030
-674.149	-200.000	0.039	-0.295
-673.135	34.742	0.208	-0.184
-672.120	-195.791	-0.298	-0.002
-671.105	677.582	0.060	-0.156
-670.091	-27.558	0.211	0.124
-669.076	264.159	0.124	-0.217
-668.062	-189.003	0.115	0.001
-667.047	597.168	-0.074	-0.186
-666.032	-118.444	-0.232	-0.042
-665.018	623.773	0.072	-0.184
-664.003	-154.532	-0.148	0.010
-662.989	116.588	-0.180	-0.222
-661.974	-84.955	0.075	-0.024
-660.959	-200.000	0.023	0.459
-659.945	-200.000	-0.024	0.161
-658.930	285.082	-0.071	0.128
-657.916	532.830	0.055	0.132
-656.901	-0.225	0.070	-0.050
-655.886	-7.476	-0.185	-0.126
-654.872	76.797	0.258	-0.277
-653.857	800.000	0.009	0.030
-652.843	-44.626	-0.260	-0.131
-651.828	18.643	-0.273	-0.220
-650.814	-21.661	-0.154	-0.095
-649.799	-33.621	0.222	-0.124
-648.784	669.171	-0.029	0.075
-647.770	45.361	0.142	-0.132
-646.755	800.000	0.135	-0.392
-645.741	774.091	0.078	-0.216
-644.726	-200.000	0.035	-0.296
-643.711	-68.588	0.187	0.073
-642.697	-109.463	-0.073	0.016
-641.682	-151.368	0.248	0.019
-640.668	42.151	0.196	0.179
-639.653	-76.262	0.384	0.136
-638.638	154.759	-0.194	0.268
-637.624	210.318	-0.061	-0.096
-636.609	381.765	0.026	0.053
-635.595	-13.742	0.296	-0.193
-634.580	-200.000	-0.004	-0.151
-633.565	800.000	-0.059	-0.225
-632.551	-30.219	-0.141	0.081
-631.536	-98.740	0.178	-0.046
-630.522	-200.000	0.000	0.023
-629.507	132.168	-0.128	0.166
-628.492	5.815	0.124	0.093
-627.478	-62.223	0.357	-0.150
-626.463	-174.357	0.193	-0.006
-625.449	-200.000	-0.024	0.170
-624.434	-1.954	-0.286	0.203
-623.419	-105.591	0.419	-0.096
-622.405	46.457	-0.250	0.234
-621.390	-24.384	0.137	0.082
-620.376	171.624	0.115	-0.167
-619.361	246.921	-0.142	-0.242
-618.346	212.101	-0.085	-0.135
-617.332	29.464	0.261	0.223
-616.317	37.986	-0.101	0.091
-615.303	-200.000	0.025	0.179
-614.288	-19.844	-0.190	0.118
-613.273	234.724	0.125	-0.208
-612.259	-112.312	-0.224	0.045
-611.244	617.157	0.081	-0.204
-610.230	14.499	0.163	-0.128
-609.215	62.896	0.139	0.140
-608.201	76.878	-0.194	-0.207
-607.186	35.172	0.163	-0.144
-606.171	247.895	-0.138	-0.234
-605.157	55.113	0.173	-0.169
-604.142	13.396	-0.054	0.042
-603.128	-200.000	0.025	-0.239
-602.113	209.795	0.035	-0.055
-601.098	183.033	-0.144	0.214
-600.084	68.180	-0.164	-0.170
-599.069	657.847	-0.036	0.093
-598.055	34.647	-0.111	0.098
-597.040	800.000	-0.105	-0.295
-596.025	-11.492	0.284	-0.188
-595.011	-32.227	0.119	0.067
-593.996	89.091	0.075	-0.084
-592.982	-1.670	0.260	-0.184
-591.967	-200.000	-0.005	-0.033
-590.952	-25.870	-0.222	0.132
-589.938	-174.644	-0.196	-0.006
-588.923	-66.680	0.064	0.026
-587.909	-200.000	0.021	-0.101
-586.894	-200.000	-0.020	0.128
-585.879	46.519	0.115	0.107
-584.865	30.970	-0.130	0.112
-583.850	800.000	0.049	-0.151
-582.836	25.239	-0.193	-0.161
-581.821	-200.000	0.017	-0.559
-580.806	-200.000	0.005	-0.206
-579.792	23.590	-0.064	-0.053
-578.777	800.000	0.018	-0.056
-577.763	-200.000	0.026	0.439
-576.748	509.968	-0.071	-0.165
-575.733	-81.229	0.074	0.025
-574.719	800.000	-0.063	-0.218
-573.704	-70.362	0.128	0.049
-572.690	-200.000	-0.003	0.154
-571.675	-23.459	0.080	0.048
-570.661	-10.350	-0.079	0.052
-569.646	137.524	0.078	0.103
-568.631	800.000	-0.030	-0.122
-567.617	-200.000	-0.065	-0.345
-566.602	116.501	0.075	-0.093
-565.588	107.642	-0.050	-0.060
-564.573	-60.865	-0.534	-0.227
-563.558	-161.009	0.031	0.002
-562.544	49.298	0.064	-0.060
-561.529	-83.925	-0.104	-0.033
-560.515	-200.000	-0.023	-0.215
-559.500	-78.159	0.336	-0.116
-558.485	-9.394	-0.130	-0.087
-557.471	176.995	-0.105	-0.153
-556.456	235.809	0.079	0.131
-555.442	517.672	-0.079	0.187
-554.427	-79.786	-0.346	-0.117
-553.412	800.000	0.038	0.146
-552.398	557.748	0.076	0.185
-551.383	800.000	0.027	0.103
-550.369	-200.000	0.019	0.234
-549.354	-117.048	0.058	0.011
-548.339	-97.816	-0.310	0.081
-547.325	497.395	-0.158	0.366
-546.310	-32.084	0.116	-0.065
-545.296	-66.148	-0.184	-0.074
-544.281	162.588	-0.183	0.257
-543.266	-80.007	-0.053	0.018
-542.252	35.305	-0.140	-0.123
-541.237	-27.081	0.041	0.024
-540.223	-110.674	0.372	0.077
-539.208	9.966	0.071	0.054
-538.193	367.262	0.152	0.308
-537.179	800.000	0.029	-0.085
-536.164	-9.185	0.159	-0.107
-535.150	-191.818	0.388	-0.004
-534.135	800.000	0.038	-0.160
-533.121	278.630	0.105	0.188
-532.106	-146.722	0.066	-0.006
-531.091	-32.503	-0.436	0.244
-530.077	-200.000	-0.020	0.000
-529.062	-39.925	0.077	0.040
-528.048	167.751	-0.113	-0.162
-527.033	80.935	-0.135	0.146
-526.018	-200.000	0.012	-0.128
-525.004	130.699	-0.064	-0.083
-523.989	-200.000	-0.008	-0.048
-522.975	93.087	-0.271	0.307
-521.960	-200.000	-0.026	0.291
-520.945	-53.064	-0.229	0.105
-519.931	-200.000	0.067	-0.333
-518.916	138.916	-0.200	0.264
-517.902	-21.942	0.214	-0.130
-516.887	185.264	0.126	-0.188
-515.872	-165.087	-0.610	0.027
-514.858	-36.463	0.379	0.205
-513.843	510.227	0.056	0.130
-512.829	233.454	-0.110	-0.182
-511.814	309.748	0.206	0.387
-510.799	39.066	0.051	-0.046
-509.785	195.806	-0.097	0.149
-508.770	-200.000	-0.000	0.083
-507.756	800.000	-0.125	0.364
-506.741	-0.837	-0.205	-0.146
-505.726	-10.162	0.525	-0.350
-504.712	-154.465	-0.066	-0.004
-503.697	-21.621	-0.225	-0.138
-502.683	800.000	0.074	-0.274
-501.668	225.040	0.081	-0.131
-500.653	800.000	-0.067	-0.233
-499.639	-67.665	0.269	0.106
-498.624	800.000	0.134	-0.485
-497.610	558.463	-0.048	-0.115
-496.595	75.388	-0.091	0.096
-495.581	-91.775	-0.098	-0.028
-494.566	-75.600	0.071	-0.025
-493.551	-200.000	0.008	-0.047
-492.537	-28.201	-0.038	0.022
-491.522	800.000	0.023	0.086
-490.508	205.665	-0.121	-0.188
-489.493	-200.000	-0.008	0.180
-488.478	-112.014	-0.006	-0.001
-487.464	-200.000	-0.016	-0.153
-486.449	-174.129	-0.072	0.002
-485.435	-200.000	0.023	-0.393
-484.420	-200.000	0.088	-0.464
-483.405	-200.000	-0.029	-0.171
-482.391	304.795	-0.184	-0.343
-481.376	50.860	-0.204	0.193
-480.362	129.252	-0.151	-0.193
-479.347	23.979	-0.383	0.317
-478.332	800.000	0.097	-0.303
-477.318	800.000	0.034	-0.121
-476.303	-121.566	0.163	-0.027
-475.289	-149.730	0.138	-0.011
-474.274	-136.200	-0.397	0.047
-473.259	-8.932	0.137	0.092
-472.245	-127.545	0.104	-0.015
-471.230	800.000	-0.011	-0.034
-470.216	727.090	0.093	0.248
-469.201	61.501	-0.221	0.220
-468.186	-4.804	0.302	0.209
-467.172	304.242	-0.110	-0.205
-466.157	800.000	-0.066	0.227
-465.143	401.870	0.066	-0.140
-464.128	800.000	-0.025	-0.106
-463.113	423.966	-0.152	0.328
-462.099	-165.104	0.328	0.015
-461.084	-200.000	0.040	0.238
-460.070	-181.573	0.108	0.002
-459.055	-0.421	0.069	0.049
-458.040	-53.502	-0.179	-0.082
-457.026	-96.015	-0.201	0.053
-456.011	79.067	0.044	-0.047
-454.997	-162.783	-0.304	0.015
-453.982	-50.086	-0.149	-0.071
-452.968	165.286	0.292	0.414
-451.953	-200.000	-0.016	-0.147
-450.938	321.982	-0.046	-0.088
-449.924	-26.886	0.121	0.071
-448.909	-200.000	-0.036	-0.225
-447.895	54.206	-0.242	0.233
-446.880	-85.218	0.193	-0.060
-445.865	-44.381	-0.070	-0.035
-444.851	-200.000	-0.009	0.150
-443.836	-178.611	-0.069	-0.002
-442.822	-200.000	-0.001	-0.076
-441.807	172.319	0.228	-0.328
-440.792	137.310	-0.019	-0.024
-439.778	-80.098	0.191	-0.064
-438.763	-200.000	0.010	0.204
-437.749	249.475	-0.043	-0.073
-436.734	27.070	0.050	-0.042
-435.719	422.537	0.044	0.095
-434.705	-107.967	-0.191	-0.042
-433.690	178.650	-0.113	-0.165
-432.676	-200.000	-0.034	0.158
-431.661	-25.465	-0.151	-0.090
-430.646	-159.821	0.193	-0.011
-429.632	32.386	-0.069	-0.060
-428.617	147.698	0.108	0.145
-427.603	-200.000	-0.022	-0.263
-426.588	-200.000	0.075	-0.339
-425.573	-30.626	0.346	0.196
-424.559	384.286	0.083	0.171
-423.544	-30.432	-0.043	0.024
-422.530	-200.000	-0.001	0.098
-421.515	-63.236	-0.099	-0.041
-420.500	-112.335	0.130	-0.026
-419.486	60.010	0.197	0.195
-418.471	-200.000	0.020	0.120
-417.457	800.000	-0.101	0.316
-416.442	-27.441	-0.256	0.149
-415.428	-200.000	0.005	-0.266
-414.413	-110.786	0.115	-0.024
-413.398	33.745	-0.141	0.123
-412.384	185.905	-0.265	0.393
-411.369	-8.047	0.222	-0.149
-410.355	-200.000	-0.001	-0.094
-409.340	-173.272	-0.286	-0.009
-408.325	-200.000	-0.021	-0.113
-407.311	-195.096	0.367	-0.003
-406.296	608.043	0.108	0.269
-405.282	97.001	0.286	0.327
-404.267	84.321	-0.157	-0.171
-403.252	-30.628	0.009	0.005
-402.238	183.264	-0.116	-0.171
-401.223	417.909	-0.049	0.104
-400.209	81.765	-0.256	0.277
-399.194	-70.112	0.191	0.073
-398.179	-200.000	-0.023	0.188
-397.165	-53.492	-0.249	0.114
-396.150	-200.000	-0.006	-0.174
-395.136	800.000	0.016	-0.057
-394.121	186.867	-0.161	0.240
-393.106	548.059	-0.104	-0.248
-392.092	800.000	0.047	0.148
-391.077	14.645	0.344	0.268
-390.063	44.552	-0.116	0.107
-389.048	206.905	-0.159	0.248
-388.033	82.616	-0.101	0.109
-387.019	-141.956	0.135	-0.013
-386.004	-107.352	-0.178	0.039
-384.990	-200.000	0.014	0.120
-383.975	-200.000	-0.035	-0.171
-382.960	-108.118	0.241	-0.052
-381.946	-123.306	0.646	0.103
-380.931	-200.000	-0.048	0.301
-379.917	-36.292	-0.241	-0.129
-378.902	-200.000	-0.014	-0.143
-377.888	-30.588	-0.319	-0.180
-376.873	-31.853	0.269	0.150
-375.858	41.494	-0.280	-0.253
-374.844	413.714	-0.008	-0.017
-373.829	-51.135	0.127	0.059
-372.815	21.565	-0.267	0.217
-371.800	75.476	0.048	0.051
-370.785	800.000	-0.055	-0.163
-369.771	800.000	0.128	0.418
-368.756	195.674	0.214	0.325
-367.742	-98.330	0.145	0.037
-366.727	-200.000	0.040	0.222
-365.712	-82.928	0.264	-0.085
-364.698	-93.778	-0.193	0.053
-363.683	-37.232	0.140	-0.075
-362.669	697.410	-0.076	0.198
-361.654	40.402	-0.134	-0.120
-360.639	271.589	0.138	-0.243
-359.625	-150.169	-0.235	0.018
-358.610	-146.400	-0.334	0.029
-357.596	87.965	-0.133	-0.147
-356.581	60.482	0.062	0.061
-355.566	115.252	0.063	-0.077
-354.552	-200.000	-0.017	0.190
-353.537	52.570	0.244	0.232
-352.523	-112.892	0.281	0.055
-351.508	22.628	-0.383	0.313
-350.493	64.564	-0.212	-0.213
-349.479	-111.344	-0.378	-0.077
-348.464	565.513	-0.074	-0.180
-347.450	-200.000	-0.039	0.364
-346.435	-200.000	0.035	0.216
-345.420	505.247	-0.182	-0.420
-344.406	57.379	0.137	-0.133
-343.391	484.493	0.015	0.034
-342.377	800.000	-0.060	-0.182
-341.362	-92.888	-0.150	-0.042
-340.348	12.846	0.123	0.095
-339.333	187.522	0.217	-0.323
-338.318	378.272	-0.197	0.402
-337.304	240.843	-0.092	-0.152
-336.289	-200.000	0.036	-0.263
-335.275	61.420	-0.200	0.199
-334.260	-63.508	0.118	0.048
-333.245	549.231	0.114	0.271
-332.231	-91.554	0.128	0.036
-331.216	-97.137	0.220	0.057
-330.202	800.000	0.073	0.266
-329.187	-114.973	-0.216	0.041
-328.172	4.785	-0.113	-0.083
-327.158	232.611	-0.158	0.259
-326.143	800.000	0.119	0.335
-325.129	116.001	0.166	0.202
-324.114	-200.000	0.025	-0.215
-323.099	-87.470	0.583	-0.176
-322.085	-200.000	-0.024	-0.283
-321.070	-44.075	-0.100	-0.050
-320.056	-90.481	-0.399	0.115
-319.041	52.677	0.230	-0.219
-318.026	-8.654	0.160	-0.107
-317.012	-200.000	0.021	0.227
-315.997	-200.000	-0.024	0.118
-314.983	-26.814	-0.167	0.097
-313.968	-74.142	-0.117	0.042
-312.953	-200.000	0.075	-0.397
-311.939	38.727	0.431	0.383
-310.924	-152.224	-0.437	-0.032
-309.910	-39.225	-0.276	-0.144
-308.895	15.302	-0.023	-0.018
-307.880	-141.023	-0.093	0.010
-306.866	-26.319	-0.302	0.176
-305.851	156.762	-0.182	0.250
-304.837	-105.013	-0.156	-0.036
-303.822	71.423	-0.190	-0.196
-302.807	-151.364	0.369	0.027
-301.793	-109.274	-0.111	-0.023
-300.778	-151.685	-0.100	-0.007
-299.764	-117.091	0.214	-0.039
-298.749	36.684	0.056	-0.049
-297.735	-200.000	0.003	-0.216
-296.720	-36.273	0.077	-0.041
-295.705	197.910	0.056	-0.085
-294.691	-78.424	0.229	0.078
-293.676	-95.057	0.029	-0.008
-292.662	-91.847	0.384	0.108
-291.647	-2.035	-0.080	0.056
-290.632	-61.112	-0.098	0.041
-289.618	-141.243	-0.155	-0.016
-288.603	61.084	-0.170	-0.168
-287.589	800.000	-0.038	-0.139
-286.574	49.599	-0.113	-0.106
-285.559	482.447	-0.082	0.185
-284.545	106.042	0.331	0.390
-283.530	767.678	0.057	0.154
-282.516	-61.061	0.167	-0.070
-281.501	800.000	-0.083	-0.235
-280.486	-47.981	-0.412	0.198
-279.472	-200.000	0.028	0.159
-278.457	336.081	0.097	-0.188
-277.443	-200.000	-0.070	-0.428
-276.428	164.808	-0.178	-0.249
-275.413	-3.516	-0.262	0.181
-274.399	-85.562	0.249	0.077
-273.384	26.143	-0.076	-0.063
-272.370	-99.104	-0.241	0.061
-271.355	87.894	-0.043	0.048
-270.340	-200.000	-0.010	-0.194
-269.326	8.145	-0.120	-0.090
-268.311	16.270	-0.323	-0.253
-267.297	-88.766	0.233	0.069
-266.282	-4.604	-0.163	0.112
-265.267	-29.330	0.375	-0.213
-264.253	4.317	-0.324	-0.236
-263.238	-200.000	0.012	0.116
-262.224	167.510	-0.096	0.135
-261.209	-200.000	0.047	-0.279
-260.195	22.105	-0.300	-0.243
-259.180	-200.000	-0.019	-0.322
-258.165	-133.267	0.184	-0.023
-257.151	51.314	0.141	0.133
-256.136	23.178	0.080	0.065
-255.122	-45.080	-0.125	-0.062
-254.107	18.534	-0.299	0.238
-253.092	4.884	-0.139	-0.102
-252.078	-200.000	-0.017	-0.106
-251.063	-24.884	-0.019	-0.011
-250.049	-200.000	-0.020	0.218
-249.034	800.000	-0.042	0.167
-248.019	41.200	-0.309	-0.277
-247.005	97.867	0.127	0.145
-245.990	105.194	0.208	0.244
-244.976	41.965	0.177	0.159
-243.961	153.125	0.156	-0.212
-242.946	549.305	0.073	-0.174
-241.932	198.700	0.233	-0.355
-240.917	252.083	-0.085	0.144
-239.903	240.637	0.213	0.352
-238.888	108.641	0.207	-0.245
-237.873	381.520	0.153	0.312
-236.859	428.339	-0.231	-0.494
-235.844	-84.451	-0.139	0.044
-234.830	-200.000	0.010	-0.159
-233.815	-200.000	-0.023	0.105
-232.800	-200.000	0.023	0.105
-231.786	-200.000	-0.011	0.203
-230.771	-152.910	-0.030	0.002
-229.757	-4.978	0.156	-0.106
-228.742	95.555	0.263	0.298
-227.727	66.876	-0.093	0.094
-226.713	88.024	-0.082	0.090
-225.698	230.227	-0.081	0.131
-224.684	-122.175	-0.275	-0.045
-223.669	597.818	-0.022	0.054
-222.655	-114.434	0.340	-0.065
-221.640	800.000	-0.041	-0.132
-220.625	-200.000	0.021	0.277
-219.611	-200.000	-0.010	-0.181
-218.596	235.168	0.062	-0.102
-217.582	-200.000	-0.000	0.082
-216.567	-66.500	-0.105	-0.041
-215.552	-200.000	-0.077	0.452
-214.538	800.000	0.057	0.184
-213.523	-179.523	0.078	0.002
-212.509	-61.715	-0.100	-0.042
-211.494	-200.000	0.024	0.298
-210.479	-200.000	0.003	0.041
-209.465	-41.972	0.285	-0.145
-208.450	201.916	0.078	0.119
-207.436	-113.750	0.092	-0.018
-206.421	-63.096	-0.303	-0.124
-205.406	640.055	-0.111	-0.281
-204.392	489.969	0.106	0.241
-203.377	96.383	-0.113	0.128
-202.363	-200.000	0.009	-0.194
-201.348	-163.450	0.376	0.018
-200.333	88.225	-0.159	-0.175
-199.319	202.146	-0.203	0.310
-198.304	84.791	-0.257	0.279
-197.290	800.000	-0.050	-0.176
-196.275	-56.821	-0.078	0.034
-195.260	-22.282	0.120	-0.072
-194.246	447.228	-0.167	0.364
-193.231	7.240	0.084	0.062
-192.217	-148.997	0.249	0.020
-191.202	800.000	0.086	-0.301
-190.187	-133.477	0.226	0.028
-189.173	800.000	0.039	-0.130
-188.158	-15.444	-0.093	-0.059
-187.144	21.382	0.184	-0.148
-186.129	51.594	-0.078	-0.074
-185.114	-70.486	-0.101	-0.038
-184.100	-45.610	-0.236	0.116
-183.085	800.000	0.043	-0.134
-182.071	-75.826	0.128	-0.045
-181.056	-200.000	-0.015	-0.158
-180.042	207.355	-0.044	-0.069
-179.027	-104.541	0.124	0.028
-178.012	107.249	0.122	-0.144
-176.998	-102.722	0.121	-0.029
-175.983	800.000	-0.064	0.215
-174.969	-173.495	-0.300	0.009
-173.954	-200.000	0.020	-0.298
-172.939	224.522	-0.060	0.097
-171.925	800.000	0.129	-0.364
-170.910	-70.881	-0.172	0.064
-169.896	-101.727	0.097	-0.023
-168.881	-42.420	0.077	-0.039
-167.866	325.976	0.135	-0.256
-166.852	181.902	0.137	0.199
-165.837	12.977	0.167	0.128
-164.823	377.807	0.129	-0.262
-163.808	-200.000	-0.051	0.374
-162.793	388.235	-0.157	-0.321
-161.779	-200.000	-0.022	0.165
-160.764	800.000	-0.092	-0.303
-159.750	-75.043	0.210	-0.075
-158.735	103.328	0.122	0.142
-157.720	10.627	0.303	0.228
-156.706	-4.624	-0.113	-0.077
-155.691	672.708	0.068	0.174
-154.677	800.000	-0.084	0.305
-153.662	800.000	0.033	0.111
-152.647	-146.316	0.155	-0.013
-151.633	-121.180	0.178	0.030
-150.618	-200.000	-0.043	-0.323
-149.604	232.743	0.292	-0.475
-148.589	-94.284	0.245	-0.066
-147.574	-71.218	0.275	0.102
-146.560	-90.382	-0.160	0.046
-145.545	-200.000	0.070	0.360
-144.531	-76.076	0.178	-0.062
-143.516	-116.900	-0.241	-0.044
-142.502	20.704	-0.384	-0.307
-141.487	-66.053	0.193	-0.076
-140.472	59.512	0.186	0.181
-139.458	27.321	0.075	-0.062
-138.443	-159.978	0.196	-0.011
-137.429	-119.145	0.123	-0.021
-136.414	110.075	-0.058	0.068
-135.399	-139.337	0.132	-0.014
-134.385	325.828	0.135	0.255
-133.370	118.723	-0.089	-0.108
-132.356	-133.065	-0.270	-0.034
-131.341	800.000	0.048	0.160
-130.326	-36.542	0.083	0.044
-129.312	-200.000	0.006	-0.164
-128.297	86.321	0.166	-0.180
-127.283	100.845	0.265	0.305
-126.268	331.090	0.104	0.198
-125.253	800.000	0.091	-0.300
-124.239	5.532	-0.148	-0.108
-123.224	-189.402	0.177	-0.002
-122.210	114.841	0.086	-0.104
-121.195	-200.000	-0.003	0.127
