DTS Sentinel unit serial number:	SN413079Multiplexer serial number:	ORYXHardware model number:	OX4-SRSoftware version number:	ORYX F/W v4.00 Oryx Data Collector v3.7.2.0data status	okinstallation	princeton_trtdifferential loss correction	single-endedforward channel	channel 4reverse channel	N/Adate	2019/09/11time	06:47:10forward acquisition time	60.00reverse acquisition time	0.00gamma	496.2192k internal	0.2314k external	0.2314temperature offset calibration	0.9942default loss term (dB/km)	0.3790temperature slope calibration	1.0000multiplexer offset coefficient	1.0000multiplexer slope coefficient	1.0000fibre end	0.00T internal ref (°C)	29.86T ext. ref 1 (°C)	-0.17T ext. ref 2 (°C)	25.05length (m)	temperature (°C)	Stokes	anti-Stokes-747.200	-27.668	-0.127	0.075
-746.185	177.423	-0.134	-0.198
-745.171	353.350	-0.079	0.160
-744.156	-200.000	-0.021	0.123
-743.142	800.000	0.053	-0.220
-742.127	-65.628	-0.284	0.116
-741.112	-17.279	0.205	-0.131
-740.098	-200.000	-0.142	0.650
-739.083	-110.861	0.313	0.065
-738.069	-72.300	-0.357	0.134
-737.054	187.759	0.232	0.350
-736.039	800.000	0.059	-0.197
-735.025	-169.230	0.069	0.003
-734.010	111.547	-0.126	0.154
-732.996	-200.000	0.073	-0.580
-731.981	-200.000	-0.001	-0.211
-730.966	-4.806	-0.343	-0.239
-729.952	-94.928	-0.141	0.039
-728.937	127.883	-0.105	-0.136
-727.923	-200.000	-0.018	-0.103
-726.908	-134.082	-0.227	-0.028
-725.894	349.222	-0.230	-0.461
-724.879	392.550	-0.116	-0.245
-723.864	34.637	-0.140	-0.124
-722.850	-126.667	0.361	-0.054
-721.835	-100.206	-0.111	0.028
-720.821	-14.638	-0.086	-0.056
-719.806	39.924	0.085	-0.077
-718.791	650.014	0.119	0.308
-717.777	80.167	0.159	-0.173
-716.762	-33.829	0.037	-0.021
-715.748	5.259	-0.234	-0.175
-714.733	800.000	-0.118	-0.482
-713.718	-180.726	-0.392	-0.008
-712.704	800.000	-0.054	-0.197
-711.689	482.396	0.104	-0.239
-710.675	-83.612	-0.200	-0.065
-709.660	125.540	-0.220	-0.281
-708.645	-87.677	0.364	-0.111
-707.631	271.705	-0.014	0.026
-706.616	-80.866	0.302	0.101
-705.602	-200.000	0.007	-0.333
-704.587	-108.471	0.185	-0.040
-703.572	511.706	0.133	0.314
-702.558	-200.000	0.111	0.520
-701.543	-200.000	-0.026	-0.223
-700.529	-60.448	0.237	0.102
-699.514	-10.747	-0.387	-0.259
-698.499	211.199	0.199	-0.317
-697.485	-27.098	0.316	-0.187
-696.470	289.597	-0.069	-0.127
-695.456	268.145	0.037	0.066
-694.441	-44.695	0.178	0.090
-693.426	-97.172	-0.235	-0.062
-692.412	800.000	0.109	-0.394
-691.397	-200.000	0.070	-0.363
-690.383	99.020	0.136	0.158
-689.368	800.000	-0.130	-0.390
-688.354	-25.536	0.537	0.321
-687.339	73.801	0.084	-0.089
-686.324	-144.105	-0.107	-0.010
-685.310	-200.000	0.026	0.164
-684.295	218.561	-0.144	-0.233
-683.281	-160.866	-0.321	-0.017
-682.266	-150.695	0.159	-0.012
-681.251	-200.000	0.006	0.039
-680.237	-200.000	-0.025	-0.268
-679.222	800.000	0.092	0.268
-678.208	-200.000	0.035	-0.305
-677.193	800.000	0.026	-0.090
-676.178	54.422	-0.151	-0.147
-675.164	-200.000	-0.008	0.117
-674.149	491.213	0.013	0.030
-673.135	535.652	0.087	-0.209
-672.120	800.000	0.040	0.136
-671.105	800.000	0.046	0.128
-670.091	486.367	-0.067	-0.154
-669.076	244.951	0.106	-0.181
-668.062	36.008	0.144	0.128
-667.047	-200.000	0.017	-0.130
-666.032	-80.307	0.129	0.044
-665.018	186.419	0.130	-0.196
-664.003	-54.599	0.229	-0.105
-662.989	-6.307	-0.451	-0.311
-661.974	-200.000	-0.054	0.418
-660.959	-200.000	-0.020	0.165
-659.945	479.286	-0.028	0.065
-658.930	40.961	-0.061	0.056
-657.916	-157.098	0.141	-0.009
-656.901	-17.162	-0.098	-0.062
-655.886	-200.000	-0.008	-0.275
-654.872	191.486	0.130	0.198
-653.857	-103.026	-0.307	-0.073
-652.843	120.715	-0.028	0.035
-651.828	-24.997	-0.073	-0.044
-650.814	-200.000	-0.008	0.070
-649.799	-107.445	-0.135	0.030
-648.784	800.000	0.032	-0.138
-647.770	79.361	0.086	0.093
-646.755	-90.416	-0.230	0.067
-645.741	102.207	0.136	0.161
-644.726	384.584	-0.198	-0.412
-643.711	-200.000	-0.023	0.155
-642.697	340.193	0.077	-0.151
-641.682	334.818	-0.055	-0.108
-640.668	-54.142	-0.270	0.124
-639.653	687.173	-0.054	0.142
-638.638	-138.716	0.105	0.012
-637.624	360.976	-0.025	-0.050
-636.609	-120.715	-0.336	0.057
-635.595	104.022	-0.278	0.330
-634.580	6.520	0.158	-0.118
-633.565	-78.330	-0.037	-0.013
-632.551	-81.822	-0.196	-0.065
-631.536	-149.388	-0.239	-0.019
-630.522	-176.199	-0.494	0.013
-629.507	292.700	0.276	0.509
-628.492	73.431	-0.048	-0.050
-627.478	2.869	-0.204	-0.150
-626.463	-200.000	-0.019	-0.185
-625.449	233.689	-0.161	0.268
-624.434	471.529	-0.138	0.314
-623.419	490.002	0.068	0.157
-622.405	45.592	0.251	-0.234
-621.390	-107.373	-0.313	0.069
-620.376	19.961	0.131	0.107
-619.361	117.112	0.307	-0.380
-618.346	78.270	-0.082	0.088
-617.332	293.617	0.111	-0.205
-616.317	287.635	-0.159	-0.291
-615.303	87.295	-0.207	-0.231
-614.288	-200.000	-0.016	-0.079
-613.273	31.856	-0.206	-0.179
-612.259	-119.576	-0.310	0.054
-611.244	480.666	0.167	0.382
-610.230	739.331	0.101	0.273
-609.215	406.871	0.054	0.114
-608.201	21.990	0.224	-0.184
-607.186	253.384	-0.231	-0.398
-606.171	-200.000	0.042	-0.188
-605.157	-137.882	-0.077	0.009
-604.142	16.643	-0.266	0.212
-603.128	51.952	-0.404	-0.388
-602.113	800.000	0.029	0.108
-601.098	-200.000	0.034	0.206
-600.084	-200.000	-0.045	-0.213
-599.069	-16.778	0.137	-0.088
-598.055	800.000	0.013	0.049
-597.040	-44.578	-0.139	-0.070
-596.025	-117.754	-0.136	-0.025
-595.011	-8.509	0.138	0.094
-593.996	-88.235	-0.284	-0.086
-592.982	-200.000	0.031	-0.221
-591.967	563.454	0.136	0.331
-590.952	561.431	0.099	0.241
-589.938	800.000	0.070	0.209
-588.923	-147.359	-0.256	-0.022
-587.909	800.000	-0.043	-0.161
-586.894	181.782	0.138	0.205
-585.879	-45.489	-0.240	-0.120
-584.865	800.000	-0.074	0.282
-583.850	35.899	0.250	-0.222
-582.836	234.624	0.113	0.187
-581.821	49.824	-0.177	-0.168
-580.806	12.383	-0.100	0.078
-579.792	800.000	-0.088	0.310
-578.777	-53.226	0.226	-0.105
-577.763	800.000	0.063	0.260
-576.748	-158.746	0.389	0.022
-575.733	47.654	-0.380	0.357
-574.719	-140.065	0.152	0.016
-573.704	-0.325	0.071	-0.051
-572.690	-200.000	0.022	0.258
-571.675	800.000	0.093	-0.289
-570.661	-200.000	0.051	0.316
-569.646	-28.371	-0.111	0.064
-568.631	-62.257	0.127	0.053
-567.617	-32.871	0.358	0.200
-566.602	-93.070	0.185	0.052
-565.588	-10.780	-0.213	0.142
-564.573	-137.572	0.254	-0.029
-563.558	386.090	-0.130	-0.270
-562.544	-103.674	-0.118	0.028
-561.529	225.636	0.117	-0.192
-560.515	206.325	0.018	0.028
-559.500	141.763	-0.129	0.173
-558.485	-200.000	0.022	0.261
-557.471	281.571	0.033	0.059
-556.456	-200.000	-0.011	0.187
-555.442	-76.204	0.284	0.101
-554.427	-200.000	-0.030	-0.186
-553.412	-10.316	-0.096	0.064
-552.398	427.438	-0.045	-0.097
-551.383	-82.103	-0.184	-0.061
-550.369	-31.876	0.247	0.139
-549.354	-200.000	-0.009	0.275
-548.339	57.873	-0.197	-0.194
-547.325	-200.000	0.060	0.354
-546.310	4.738	-0.211	0.156
-545.296	35.310	-0.167	-0.148
-544.281	214.880	-0.171	0.273
-543.266	-56.932	0.459	0.204
-542.252	800.000	0.185	-0.541
-541.237	286.930	-0.098	-0.178
-540.223	-200.000	0.041	-0.351
-539.208	800.000	-0.058	0.177
-538.193	-169.813	-0.067	0.002
-537.179	-87.335	-0.244	0.074
-536.164	-130.951	0.127	0.017
-535.150	-96.960	-0.256	-0.068
-534.135	-200.000	-0.010	-0.047
-533.121	438.372	-0.076	0.166
-532.106	114.913	0.282	0.346
-531.091	144.003	-0.082	-0.110
-530.077	-146.572	0.098	-0.009
-529.062	-162.965	-0.372	0.018
-528.048	-31.074	0.209	-0.119
-527.033	-200.000	0.068	-0.461
-526.018	97.297	-0.087	-0.101
-525.004	-200.000	-0.005	-0.278
-523.989	-89.673	0.188	-0.056
-522.975	97.846	0.111	-0.129
-521.960	-20.746	0.203	0.125
-520.945	111.673	0.172	-0.209
-519.931	79.437	-0.064	-0.069
-518.916	-146.435	-0.357	0.031
-517.902	-93.887	0.143	0.040
-516.887	-102.662	0.323	0.077
-515.872	-134.205	-0.142	-0.018
-514.858	-71.771	0.442	0.165
-513.843	68.324	0.041	0.043
-512.829	-10.753	0.531	-0.353
-511.814	-200.000	-0.059	-0.337
-510.799	429.829	0.088	-0.191
-509.785	-200.000	0.021	-0.378
-508.770	468.121	-0.118	-0.265
-507.756	-200.000	0.011	-0.099
-506.741	-94.192	-0.183	0.050
-505.726	69.217	-0.195	-0.202
-504.712	-3.171	-0.068	0.048
-503.697	-53.159	-0.116	-0.054
-502.683	-60.152	-0.359	0.154
-501.668	375.143	0.174	-0.356
-500.653	-200.000	0.019	-0.222
-499.639	446.508	0.055	0.121
-498.624	-84.251	-0.175	0.056
-497.610	-8.813	-0.201	-0.135
-496.595	-200.000	-0.010	-0.143
-495.581	-200.000	0.001	-0.155
-494.566	-36.512	-0.214	-0.116
-493.551	-13.906	0.225	0.146
-492.537	800.000	0.042	-0.168
-491.522	800.000	0.127	-0.484
-490.508	-200.000	0.010	-0.053
-489.493	-8.988	0.043	0.029
-488.478	-68.100	0.481	-0.188
-487.464	-112.593	-0.169	-0.034
-486.449	-92.994	-0.489	0.137
-485.435	729.011	0.112	-0.300
-484.420	137.748	-0.093	0.122
-483.405	-20.336	0.058	0.036
-482.391	105.755	0.150	0.178
-481.376	-74.637	0.508	-0.184
-480.362	-110.226	-0.068	-0.014
-479.347	67.713	-0.236	-0.242
-478.332	186.440	0.070	-0.105
-477.318	-80.872	-0.084	0.028
-476.303	-108.143	-0.250	0.054
-475.289	800.000	0.113	0.437
-474.274	-53.059	0.300	-0.139
-473.259	448.640	0.091	0.201
-472.245	800.000	0.008	-0.024
-471.230	-30.275	0.268	-0.152
-470.216	592.788	-0.128	-0.317
-469.201	5.606	-0.114	-0.085
-468.186	39.334	0.056	-0.051
-467.172	-55.711	0.237	0.106
-466.157	-32.563	0.325	-0.182
-465.143	-40.959	0.186	0.097
-464.128	-116.445	0.259	0.048
-463.113	290.673	0.134	0.243
-462.099	-200.000	-0.022	-0.244
-461.084	-200.000	0.004	-0.270
-460.070	455.237	-0.090	0.200
-459.055	24.480	0.259	-0.214
-458.040	430.515	-0.094	0.204
-457.026	-81.004	-0.317	-0.105
-456.011	480.543	-0.149	-0.339
-454.997	39.834	-0.270	-0.243
-453.982	-200.000	0.018	-0.283
-452.968	-43.585	-0.043	-0.022
-451.953	-200.000	0.036	-0.295
-450.938	74.492	-0.217	-0.228
-449.924	-200.000	-0.019	0.115
-448.909	-115.726	-0.540	-0.101
-447.895	79.663	0.186	-0.200
-446.880	1.918	-0.165	0.119
-445.865	64.835	0.042	-0.042
-444.851	-137.953	-0.264	0.030
-443.836	99.967	0.275	-0.319
-442.822	-124.027	0.200	0.031
-441.807	43.571	0.290	0.265
-440.792	368.139	0.059	0.120
-439.778	169.767	0.216	-0.309
-438.763	800.000	-0.119	0.444
-437.749	-59.958	-0.151	-0.065
-436.734	83.265	-0.180	0.196
-435.719	29.430	-0.145	0.124
-434.705	93.308	0.205	0.232
-433.690	139.946	0.083	-0.110
-432.676	-200.000	-0.012	0.338
-431.661	800.000	0.081	0.259
-430.646	24.327	-0.093	0.077
-429.632	306.882	-0.181	-0.338
-428.617	-200.000	0.012	0.130
-427.603	-158.510	-0.398	0.023
-426.588	-200.000	-0.030	-0.143
-425.573	-134.962	-0.065	-0.008
-424.559	-73.877	-0.228	0.083
-423.544	159.223	-0.053	0.074
-422.530	-35.454	-0.260	-0.142
-421.515	-6.469	-0.152	0.104
-420.500	69.565	0.139	0.143
-419.486	-145.670	0.101	-0.009
-418.471	-143.579	-0.138	0.013
-417.457	-140.671	-0.203	-0.021
-416.442	-200.000	-0.008	0.048
-415.428	-200.000	-0.013	0.096
-414.413	-155.463	0.232	0.015
-413.398	502.663	0.055	-0.128
-412.384	-200.000	0.000	-0.247
-411.369	-49.508	0.028	0.014
-410.355	-91.306	0.216	0.062
-409.340	-75.638	-0.123	0.044
-408.325	-100.980	-0.240	0.059
-407.311	800.000	0.035	0.150
-406.296	-7.380	-0.452	0.306
-405.282	109.406	-0.180	-0.216
-404.267	-96.179	0.129	-0.034
-403.252	347.724	0.029	0.057
-402.238	238.391	0.087	0.144
-401.223	5.225	0.312	0.230
-400.209	-200.000	-0.011	0.085
-399.194	-200.000	-0.006	-0.057
-398.179	-200.000	-0.000	0.053
-397.165	28.107	-0.371	0.313
-396.150	-31.205	0.204	-0.115
-395.136	-131.586	0.220	-0.029
-394.121	-100.091	-0.232	0.058
-393.106	12.985	-0.242	0.187
-392.092	33.753	-0.195	0.170
-391.077	-200.000	-0.011	-0.106
-390.063	-200.000	0.029	-0.410
-389.048	92.454	-0.207	0.234
-388.033	15.824	0.087	-0.068
-387.019	-170.466	0.197	0.007
-386.004	-42.219	0.115	-0.059
-384.990	-133.643	-0.100	0.012
-383.975	-200.000	0.036	0.157
-382.960	8.258	0.027	0.020
-381.946	-200.000	-0.006	-0.240
-380.931	-65.738	-0.179	-0.072
-379.917	-14.901	-0.074	-0.047
-378.902	-70.035	0.334	0.127
-377.888	246.236	0.132	-0.222
-376.873	-200.000	-0.049	-0.319
-375.858	-111.413	0.063	0.013
-374.844	7.184	-0.256	0.191
-373.829	-200.000	0.039	-0.252
-372.815	133.257	0.199	-0.258
-371.800	569.731	-0.091	0.222
-370.785	-200.000	-0.009	0.066
-369.771	-183.807	0.135	0.002
-368.756	-59.241	0.208	0.090
-367.742	-89.269	-0.088	0.026
-366.727	24.404	-0.177	0.146
-365.712	141.707	-0.147	-0.194
-364.698	-26.089	0.191	0.112
-363.683	119.983	-0.183	0.227
-362.669	24.984	0.196	0.163
-361.654	173.275	-0.138	-0.199
-360.639	-200.000	-0.009	0.053
-359.625	-200.000	-0.008	0.062
-358.610	6.900	-0.103	0.076
-357.596	-100.139	-0.330	-0.082
-356.581	51.691	0.289	-0.275
-355.566	278.974	-0.121	0.215
-354.552	-103.338	0.358	0.084
-353.537	623.202	-0.023	-0.058
-352.523	-127.413	0.366	-0.053
-351.508	344.819	0.122	0.239
-350.493	-200.000	-0.010	0.098
-349.479	-157.791	-0.299	-0.018
-348.464	-165.835	0.350	0.015
-347.450	35.858	0.405	0.355
-346.435	46.862	-0.313	0.290
-345.420	-38.619	0.370	-0.195
-344.406	149.726	0.212	0.287
-343.391	596.076	0.127	0.313
-342.377	-151.833	0.362	-0.026
-341.362	237.198	0.073	0.120
-340.348	376.389	0.169	0.344
-339.333	-104.554	-0.264	0.061
-338.318	142.626	0.182	0.242
-337.304	-200.000	0.022	0.152
-336.289	54.167	-0.139	0.133
-335.275	122.913	0.188	-0.234
-334.260	-85.158	-0.176	-0.055
-333.245	260.006	0.138	0.238
-332.231	-115.391	-0.171	0.032
-331.216	-200.000	0.033	0.275
-330.202	-32.200	-0.072	-0.040
-329.187	94.346	-0.047	-0.053
-328.172	-177.548	-0.071	-0.002
-327.158	335.659	-0.089	0.173
-326.143	-200.000	0.013	0.120
-325.129	121.634	0.059	-0.074
-324.114	-200.000	0.005	0.048
-323.099	800.000	-0.009	-0.027
-322.085	800.000	-0.074	-0.283
-321.070	-106.774	0.159	-0.035
-320.056	-200.000	-0.033	-0.253
-319.041	-200.000	0.031	-0.211
-318.026	-65.840	-0.158	-0.063
-317.012	1.142	-0.042	-0.030
-315.997	-16.811	0.265	0.167
-314.983	113.346	0.157	-0.190
-313.968	193.826	0.056	0.084
-312.953	-49.811	0.212	0.100
-311.939	48.717	-0.259	-0.243
-310.924	69.917	0.117	-0.121
-309.910	-60.837	-0.275	-0.116
-308.895	41.542	0.266	-0.240
-307.880	56.761	-0.090	-0.087
-306.866	-5.535	-0.156	0.107
-305.851	571.577	-0.089	-0.216
-304.837	83.432	-0.194	-0.211
-303.822	10.146	0.173	0.131
-302.807	-200.000	0.023	0.108
-301.793	-122.507	-0.217	0.035
-300.778	756.263	-0.044	-0.120
-299.764	603.437	0.099	-0.245
-298.749	-124.768	-0.344	-0.053
-297.735	37.164	-0.029	0.026
-296.720	800.000	0.062	0.185
-295.705	-200.000	0.004	-0.228
-294.691	-106.141	0.081	0.018
-293.676	-200.000	-0.053	-0.267
-292.662	-166.616	0.063	-0.003
-291.647	-93.432	-0.061	0.017
-290.632	-130.625	-0.303	0.041
-289.618	-140.281	0.142	-0.015
-288.603	22.970	0.327	-0.267
-287.589	800.000	-0.180	0.502
-286.574	-117.510	-0.151	0.027
-285.559	-200.000	-0.016	-0.097
-284.545	800.000	0.059	-0.189
-283.530	24.233	-0.117	0.096
-282.516	800.000	0.015	0.061
-281.501	-20.402	-0.292	-0.179
-280.486	-6.128	0.081	-0.055
-279.472	0.335	0.251	-0.178
-278.457	-200.000	0.005	0.052
-277.443	800.000	-0.064	-0.178
-276.428	-124.641	-0.256	-0.040
-275.413	189.461	-0.090	-0.134
-274.399	-152.080	0.509	0.037
-273.384	240.869	0.240	0.398
-272.370	800.000	0.120	0.409
-271.355	408.526	0.013	0.028
-270.340	496.323	0.149	-0.341
-269.326	181.941	0.175	0.256
-268.311	300.476	-0.042	0.077
-267.297	290.775	0.094	-0.170
-266.282	251.902	0.175	0.296
-265.267	-5.816	-0.167	0.114
-264.253	-1.962	0.071	-0.050
-263.238	326.269	0.111	0.211
-262.224	800.000	0.062	0.247
-261.209	537.879	-0.212	-0.501
-260.195	106.775	-0.123	0.146
-259.180	461.478	0.131	0.291
-258.165	-52.817	-0.260	-0.119
-257.151	-49.309	0.343	0.163
-256.136	-44.199	-0.158	0.079
-255.122	5.720	0.201	-0.148
-254.107	295.210	-0.058	0.106
-253.092	-83.846	0.098	0.031
-252.078	176.159	0.084	-0.122
-251.063	723.676	-0.066	-0.175
-250.049	-200.000	-0.021	-0.295
-249.034	53.204	0.035	0.033
-248.019	109.273	0.140	-0.166
-247.005	154.370	-0.057	0.078
-245.990	800.000	0.075	0.212
-244.976	-200.000	-0.042	0.339
-243.961	-200.000	0.014	-0.165
-242.946	67.737	0.246	0.250
-241.932	125.357	-0.142	-0.178
-240.917	-127.203	0.171	-0.025
-239.903	-54.211	-0.135	0.061
-238.888	-26.387	0.346	0.202
-237.873	408.940	0.128	0.269
-236.859	86.416	0.066	0.073
-235.844	528.583	-0.189	-0.443
-234.830	218.438	-0.211	-0.335
-233.815	147.943	-0.072	-0.097
-232.800	-9.697	0.297	-0.197
-231.786	-56.040	-0.189	0.084
-230.771	-83.983	-0.176	0.056
-229.757	-19.231	0.097	0.060
-228.742	-200.000	0.010	0.269
-227.727	-23.242	-0.145	0.086
-226.713	104.892	0.233	-0.273
-225.698	-200.000	0.078	-0.443
-224.684	22.250	-0.239	0.194
-223.669	800.000	-0.031	-0.102
-222.655	800.000	-0.056	-0.179
-221.640	-107.658	-0.068	-0.015
-220.625	116.855	-0.206	-0.251
-219.611	-111.217	-0.260	-0.053
-218.596	-104.353	0.326	-0.075
-217.582	-97.072	0.439	0.114
-216.567	-124.721	0.472	0.073
-215.552	-200.000	0.242	0.000
-214.538	-127.592	-0.106	-0.015
-213.523	-75.089	0.087	-0.031
-212.509	332.593	-0.099	-0.189
-211.494	137.816	0.135	0.175
-210.479	-90.586	0.203	0.058
-209.465	-69.525	0.306	-0.116
-208.450	-122.376	0.071	0.011
-207.436	-200.000	-0.072	0.384
-206.421	591.069	0.069	0.170
-205.406	-156.011	-0.327	-0.021
-204.392	48.748	0.077	-0.072
-203.377	125.057	-0.170	0.212
-202.363	-200.000	-0.018	0.204
-201.348	109.013	0.074	-0.088
-200.333	-81.213	-0.094	-0.031
-199.319	-143.440	0.035	0.003
-198.304	762.875	0.089	-0.241
-197.290	275.078	-0.071	0.125
-196.275	-200.000	-0.090	0.582
-195.260	-114.356	0.207	0.039
-194.246	-7.057	-0.162	-0.109
-193.231	24.873	0.215	0.177
-192.217	-200.000	-0.014	0.526
-191.202	800.000	0.130	0.423
-190.187	-17.469	0.077	0.048
-189.173	-140.205	0.417	0.043
-188.158	-110.367	-0.143	0.029
-187.144	800.000	0.018	-0.055
-186.129	800.000	0.029	-0.081
-185.114	14.923	-0.175	0.136
-184.100	-98.108	-0.381	-0.097
-183.085	-93.533	-0.221	-0.061
-182.071	-200.000	-0.004	0.040
-181.056	484.615	-0.179	-0.405
-180.042	133.714	0.139	0.178
-179.027	-83.099	-0.432	-0.138
-178.012	285.263	-0.239	0.428
-176.998	-63.930	-0.125	-0.051
-175.983	-112.803	-0.149	-0.029
-174.969	800.000	-0.125	-0.382
-173.954	22.730	-0.091	0.074
-172.939	800.000	0.016	0.047
-171.925	22.686	0.179	-0.145
-170.910	-190.896	-0.290	0.003
-169.896	692.644	0.090	0.234
-168.881	-200.000	-0.021	-0.148
-167.866	55.875	0.162	0.156
-166.852	-94.083	0.300	-0.082
-165.837	-107.238	0.345	0.075
-164.823	-126.795	-0.282	-0.041
-163.808	35.221	0.312	-0.271
-162.793	6.518	0.171	-0.126
-161.779	154.536	-0.202	-0.276
-160.764	-39.587	0.112	0.058
-159.750	226.253	0.068	-0.109
-158.735	-87.565	-0.379	0.113
-157.720	62.989	-0.062	0.061
-156.706	229.658	-0.069	-0.112
-155.691	47.903	0.136	0.126
-154.677	41.096	0.168	-0.150
-153.662	47.395	0.128	0.118
-152.647	578.374	-0.019	0.046
-151.633	800.000	-0.055	0.226
-150.618	-100.124	0.261	0.064
-149.604	147.250	0.068	0.091
-148.589	800.000	0.058	0.181
-147.574	44.262	0.258	0.234
-146.560	-200.000	-0.007	-0.068
-145.545	301.511	-0.128	0.235
-144.531	439.273	-0.043	0.094
-143.516	-48.981	0.171	-0.081
-142.502	-200.000	-0.012	0.180
-141.487	35.725	0.194	0.168
-140.472	-66.502	0.348	0.137
-139.458	800.000	-0.040	0.123
-138.443	-27.684	0.311	0.179
-137.429	-200.000	-0.010	0.392
-136.414	731.024	0.051	-0.134
-135.399	67.841	0.190	0.192
-134.385	377.471	-0.094	-0.190
-133.370	-128.034	-0.137	-0.020
-132.356	59.632	0.125	0.122
-131.341	-3.778	-0.042	0.029
-130.326	-200.000	-0.001	-0.300
-129.312	-9.876	0.085	-0.056
-128.297	472.705	-0.095	-0.211
-127.283	-28.936	0.175	-0.100
-126.268	-123.772	0.033	-0.005
-125.253	487.469	0.064	-0.143
-124.239	45.595	0.074	0.068
-123.224	62.454	0.196	0.194
-122.210	189.313	-0.060	0.089
-121.195	-101.779	-0.162	0.039
