DTS Sentinel unit serial number:	SN413079Multiplexer serial number:	ORYXHardware model number:	OX4-SRSoftware version number:	ORYX F/W v4.00 Oryx Data Collector v3.7.2.0data status	okinstallation	princeton_trtdifferential loss correction	single-endedforward channel	channel 4reverse channel	N/Adate	2019/09/11time	18:11:10forward acquisition time	60.00reverse acquisition time	0.00gamma	496.2192k internal	0.2275k external	0.2275temperature offset calibration	1.0029default loss term (dB/km)	0.3790temperature slope calibration	1.0000multiplexer offset coefficient	1.0000multiplexer slope coefficient	1.0000fibre end	0.00T internal ref (°C)	44.00T ext. ref 1 (°C)	1.16T ext. ref 2 (°C)	38.69length (m)	temperature (°C)	Stokes	anti-Stokes-747.200	603.396	-0.160	0.411
-746.185	149.077	-0.081	0.113
-745.171	-81.336	0.286	-0.097
-744.156	800.000	-0.041	0.149
-743.142	66.059	-0.053	-0.055
-742.127	-58.171	0.086	0.039
-741.112	-132.969	-0.534	-0.070
-740.098	189.470	0.117	0.182
-739.083	-127.088	-0.412	-0.062
-738.069	9.933	0.214	-0.167
-737.054	-200.000	0.054	-0.479
-736.039	-200.000	0.004	-0.029
-735.025	205.607	0.032	0.051
-734.010	22.287	-0.027	0.023
-732.996	23.991	0.078	-0.066
-731.981	-40.622	-0.334	0.178
-730.966	-63.377	0.220	0.093
-729.952	800.000	0.027	0.116
-728.937	186.387	-0.086	-0.132
-727.923	-58.837	-0.150	-0.067
-726.908	-159.783	0.308	0.017
-725.894	-74.444	-0.171	-0.064
-724.879	39.875	-0.134	0.124
-723.864	-116.132	0.055	-0.011
-722.850	457.408	0.086	-0.196
-721.835	-44.514	0.107	0.055
-720.821	-44.046	-0.284	0.147
-719.806	-168.235	0.147	0.006
-718.791	-75.917	0.163	-0.060
-717.777	-200.000	0.049	-0.336
-716.762	-30.244	0.326	-0.191
-715.748	-200.000	-0.029	0.265
-714.733	-11.388	-0.175	-0.118
-713.718	-134.910	0.246	-0.031
-712.704	-94.643	0.351	0.098
-711.689	354.733	0.103	-0.210
-710.675	14.199	-0.123	0.099
-709.660	-61.104	0.069	-0.030
-708.645	-64.656	-0.441	-0.184
-707.631	-128.578	-0.113	0.017
-706.616	177.900	0.298	-0.448
-705.602	-129.318	-0.097	0.014
-704.587	53.472	-0.065	-0.065
-703.572	-200.000	-0.028	0.214
-702.558	324.495	-0.062	-0.123
-701.543	328.541	-0.084	-0.166
-700.529	636.756	0.096	-0.252
-699.514	-88.335	0.235	0.072
-698.499	32.486	-0.170	-0.151
-697.485	-200.000	-0.006	0.123
-696.470	-156.063	0.239	-0.016
-695.456	-200.000	0.016	-0.328
-694.441	-200.000	0.026	-0.317
-693.426	-53.930	-0.069	-0.032
-692.412	23.996	0.336	-0.285
-691.397	-200.000	-0.012	-0.182
-690.383	237.842	-0.119	0.203
-689.368	-35.637	0.112	0.063
-688.354	16.835	-0.274	-0.223
-687.339	800.000	-0.051	-0.212
-686.324	-200.000	0.032	-0.195
-685.310	-48.567	0.237	-0.117
-684.295	208.780	-0.176	0.283
-683.281	447.167	-0.142	-0.321
-682.266	-200.000	0.011	0.224
-681.251	9.003	-0.089	-0.069
-680.237	39.992	-0.255	-0.235
-679.222	-200.000	-0.015	-0.095
-678.208	255.815	0.043	-0.076
-677.193	253.312	0.059	-0.104
-676.178	73.170	-0.164	0.176
-675.164	800.000	0.106	-0.463
-674.149	87.854	0.197	0.224
-673.135	442.012	0.132	0.298
-672.120	-200.000	0.047	0.252
-671.105	27.726	-0.132	-0.114
-670.091	88.113	-0.219	-0.250
-669.076	-20.607	0.168	0.106
-668.062	-48.419	-0.072	0.036
-667.047	679.449	0.108	-0.289
-666.032	388.365	-0.025	-0.054
-665.018	-65.052	0.129	0.054
-664.003	123.301	0.192	-0.247
-662.989	-18.484	-0.127	0.082
-661.974	697.971	0.022	0.058
-660.959	-200.000	0.018	0.305
-659.945	71.477	0.213	0.227
-658.930	800.000	0.071	-0.247
-657.916	227.696	-0.066	-0.111
-656.901	690.656	0.163	0.439
-655.886	-13.892	0.210	-0.140
-654.872	-13.755	0.129	-0.086
-653.857	-200.000	-0.001	0.086
-652.843	-200.000	0.030	0.223
-651.828	-200.000	-0.042	0.300
-650.814	-57.614	-0.487	0.219
-649.799	-200.000	0.003	0.280
-648.784	800.000	-0.060	-0.181
-647.770	-49.266	0.346	0.170
-646.755	-173.389	0.374	-0.012
-645.741	-31.232	0.221	-0.128
-644.726	11.123	-0.080	-0.063
-643.711	58.604	0.148	0.149
-642.697	-179.266	-0.094	0.002
-641.682	36.734	0.204	0.185
-640.668	-70.149	0.049	-0.019
-639.653	59.789	0.136	-0.138
-638.638	127.871	-0.134	-0.174
-637.624	11.506	-0.112	-0.088
-636.609	-200.000	0.017	-0.288
-635.595	221.399	0.024	0.040
-634.580	223.139	0.101	0.167
-633.565	293.797	-0.006	0.012
-632.551	94.958	0.098	-0.115
-631.536	224.425	-0.115	-0.191
-630.522	-148.615	-0.141	-0.012
-629.507	-94.428	-0.084	0.024
-628.492	-200.000	0.003	-0.398
-627.478	565.416	0.034	-0.085
-626.463	32.695	0.155	0.138
-625.449	-18.609	-0.221	-0.141
-624.434	438.868	0.163	0.366
-623.419	286.926	-0.131	0.244
-622.405	-72.075	0.421	-0.160
-621.390	792.747	0.079	0.223
-620.376	126.812	-0.233	-0.302
-619.361	233.984	0.092	0.155
-618.346	-59.299	0.136	0.060
-617.332	-200.000	0.016	-0.307
-616.317	-83.741	-0.161	-0.053
-615.303	800.000	0.057	0.245
-614.288	113.611	-0.151	-0.189
-613.273	-38.178	-0.416	-0.227
-612.259	-200.000	-0.005	-0.026
-611.244	20.363	0.134	-0.111
-610.230	24.250	-0.098	-0.083
-609.215	205.641	0.241	-0.384
-608.201	-200.000	-0.010	0.258
-607.186	401.952	0.054	-0.116
-606.171	-27.041	-0.272	0.163
-605.157	-45.537	-0.516	-0.262
-604.142	-33.052	-0.040	0.023
-603.128	800.000	-0.042	-0.126
-602.113	800.000	-0.044	0.154
-601.098	-94.628	-0.173	-0.048
-600.084	-41.806	0.203	-0.107
-599.069	240.639	-0.041	-0.070
-598.055	-15.755	0.208	0.136
-597.040	-88.931	0.120	0.036
-596.025	271.721	-0.162	0.293
-595.011	117.682	0.153	0.193
-593.996	-200.000	0.008	0.074
-592.982	800.000	-0.127	-0.395
-591.967	-29.646	-0.191	-0.112
-590.952	-143.167	-0.082	0.008
-589.938	-1.034	-0.100	-0.073
-588.923	-117.068	0.287	0.054
-587.909	800.000	0.096	0.290
-586.894	-83.067	-0.052	-0.017
-585.879	-172.828	0.328	-0.010
-584.865	-200.000	-0.064	-0.367
-583.850	-30.104	-0.202	-0.118
-582.836	537.846	-0.079	-0.191
-581.821	-87.325	0.226	-0.070
-580.806	-84.789	0.059	-0.019
-579.792	635.078	-0.139	-0.362
-578.777	-200.000	-0.050	-0.261
-577.763	144.612	0.087	-0.119
-576.748	-123.270	-0.171	0.028
-575.733	-64.443	0.130	0.054
-574.719	192.964	0.054	-0.083
-573.704	-58.384	0.159	0.071
-572.690	104.097	0.205	-0.247
-571.675	-2.807	-0.040	-0.029
-570.661	-65.885	0.271	-0.111
-569.646	-64.784	-0.011	-0.005
-568.631	-59.653	-0.192	0.084
-567.617	-132.623	0.063	0.008
-566.602	47.565	0.156	-0.149
-565.588	533.331	0.045	-0.108
-564.573	71.781	-0.051	0.055
-563.558	220.487	0.102	0.167
-562.544	-200.000	0.039	0.229
-561.529	-59.614	0.041	-0.018
-560.515	-200.000	-0.005	0.036
-559.500	800.000	0.058	0.247
-558.485	-55.176	0.218	-0.100
-557.471	-200.000	-0.000	-0.266
-556.456	458.620	0.093	-0.212
-555.442	-200.000	0.026	0.173
-554.427	-11.527	0.404	-0.272
-553.412	-200.000	-0.078	-0.468
-552.398	244.509	0.068	-0.117
-551.383	-200.000	-0.015	0.075
-550.369	-164.662	-0.144	0.007
-549.354	29.690	0.160	0.140
-548.339	-53.777	-0.268	-0.125
-547.325	-163.617	-0.192	-0.009
-546.310	-200.000	-0.000	-0.041
-545.296	-114.828	0.147	-0.029
-544.281	-57.547	-0.144	-0.065
-543.266	-200.000	-0.030	0.155
-542.252	97.340	-0.077	0.090
-541.237	-158.473	0.281	0.017
-540.223	-200.000	-0.055	0.572
-539.208	800.000	0.081	0.266
-538.193	-37.645	-0.226	0.123
-537.179	117.784	-0.173	0.218
-536.164	-200.000	-0.002	-0.233
-535.150	-93.545	-0.335	-0.095
-534.135	800.000	-0.093	-0.267
-533.121	-23.451	0.163	-0.100
-532.106	-26.489	-0.363	-0.217
-531.091	-8.218	-0.213	-0.147
-530.077	800.000	-0.082	0.313
-529.062	-49.837	-0.124	-0.060
-528.048	777.401	0.123	-0.344
-527.033	-159.202	-0.200	-0.011
-526.018	-200.000	0.007	-0.230
-525.004	-200.000	0.001	-0.239
-523.989	-22.467	0.095	0.059
-522.975	-200.000	0.040	0.274
-521.960	-200.000	0.007	-0.163
-520.945	-58.707	-0.134	0.059
-519.931	-46.227	-0.034	0.017
-518.916	115.390	0.150	0.188
-517.902	125.224	0.297	0.383
-516.887	7.035	-0.169	-0.128
-515.872	-200.000	-0.072	-0.334
-514.858	-175.736	0.294	0.008
-513.843	99.646	-0.129	0.153
-512.829	53.691	-0.171	0.167
-511.814	192.672	0.154	0.237
-510.799	-76.474	-0.109	0.039
-509.785	-200.000	0.009	0.061
-508.770	-99.341	-0.214	0.055
-507.756	-200.000	-0.008	0.078
-506.741	800.000	0.029	-0.108
-505.726	-126.405	-0.170	0.026
-504.712	-0.258	-0.372	0.270
-503.697	-20.860	0.326	-0.204
-502.683	-9.130	-0.198	0.135
-501.668	585.969	-0.043	0.108
-500.653	-200.000	-0.035	-0.408
-499.639	800.000	-0.039	0.143
-498.624	-128.071	-0.054	-0.008
-497.610	-6.695	-0.155	-0.108
-496.595	620.345	0.056	-0.143
-495.581	-200.000	-0.020	-0.177
-494.566	25.456	0.168	0.142
-493.551	260.702	-0.120	0.212
-492.537	-167.396	0.283	0.012
-491.522	800.000	-0.102	0.300
-490.508	-150.910	-0.122	0.009
-489.493	-60.970	0.330	-0.143
-488.478	-81.967	-0.238	0.079
-487.464	-200.000	0.019	-0.281
-486.449	135.290	-0.169	0.225
-485.435	-111.787	-0.204	0.042
-484.420	395.975	0.170	0.362
-483.405	800.000	-0.115	0.355
-482.391	8.845	-0.159	-0.123
-481.376	-178.974	0.110	-0.003
-480.362	484.180	0.026	0.059
-479.347	-41.520	0.275	0.144
-478.332	-60.785	0.137	-0.059
-477.318	-56.561	-0.192	-0.087
-476.303	-116.037	0.383	-0.073
-475.289	-99.822	-0.308	0.079
-474.274	-3.729	-0.247	-0.175
-473.259	-61.909	0.186	0.079
-472.245	317.027	-0.084	-0.163
-471.230	52.593	0.095	-0.093
-470.216	-200.000	0.043	-0.408
-469.201	163.330	0.043	0.062
-468.186	8.488	-0.238	0.183
-467.172	-200.000	-0.005	0.217
-466.157	-47.482	0.171	-0.085
-465.143	800.000	0.068	0.219
-464.128	371.475	-0.166	0.343
-463.113	-200.000	0.028	0.245
-462.099	49.104	0.246	0.236
-461.084	800.000	0.049	0.152
-460.070	-79.817	-0.094	-0.032
-459.055	135.583	-0.289	0.384
-458.040	104.079	-0.196	0.235
-457.026	-119.636	0.143	-0.025
-456.011	-148.949	-0.223	-0.018
-454.997	-23.551	0.170	0.104
-453.982	-62.672	-0.284	0.120
-452.968	60.175	0.084	-0.085
-451.953	123.809	-0.181	-0.231
-450.938	-125.863	-0.249	0.038
-449.924	-200.000	-0.045	0.260
-448.909	-200.000	0.011	0.063
-447.895	-22.162	0.212	-0.131
-446.880	-200.000	0.007	-0.238
-445.865	-112.089	0.042	0.009
-444.851	86.639	-0.186	0.209
-443.836	138.724	0.287	0.384
-442.822	800.000	-0.105	-0.338
-441.807	-140.654	0.252	-0.027
-440.792	-200.000	0.017	-0.186
-439.778	8.199	0.043	-0.033
-438.763	800.000	-0.049	0.169
-437.749	-200.000	-0.000	0.069
-436.734	53.852	0.143	-0.140
-435.719	114.031	0.164	0.203
-434.705	-101.675	-0.109	-0.027
-433.690	260.037	-0.137	0.241
-432.676	800.000	0.133	0.448
-431.661	-73.743	-0.146	0.054
-430.646	-200.000	0.390	-0.000
-429.632	-45.019	-0.180	-0.091
-428.617	-200.000	-0.026	-0.188
-427.603	42.621	-0.107	0.099
-426.588	-9.935	-0.248	-0.168
-425.573	13.416	-0.139	0.110
-424.559	800.000	-0.034	-0.130
-423.544	40.184	-0.186	0.170
-422.530	-42.104	-0.189	0.098
-421.515	384.090	0.055	-0.115
-420.500	-90.504	0.080	-0.024
-419.486	-12.080	0.167	0.112
-418.471	-70.365	0.326	-0.126
-417.457	683.680	-0.136	-0.363
-416.442	118.998	-0.157	-0.197
-415.428	176.986	-0.216	-0.320
-414.413	181.027	0.130	-0.194
-413.398	800.000	0.077	0.231
-412.384	-197.337	-0.114	0.001
-411.369	-65.096	0.073	-0.030
-410.355	333.268	-0.042	0.083
-409.340	800.000	0.056	-0.158
-408.325	44.622	-0.211	-0.197
-407.311	42.144	0.243	0.225
-406.296	452.799	0.097	0.218
-405.282	-114.766	0.215	-0.042
-404.267	800.000	-0.053	-0.194
-403.252	-200.000	0.020	0.247
-402.238	-168.410	-0.209	-0.008
-401.223	800.000	-0.046	-0.172
-400.209	14.818	-0.064	-0.051
-399.194	-34.153	0.262	-0.146
-398.179	-28.042	0.197	-0.116
-397.165	-41.826	-0.242	-0.126
-396.150	-4.232	-0.174	-0.122
-395.136	800.000	-0.057	-0.200
-394.121	800.000	0.047	0.163
-393.106	-20.277	0.326	-0.204
-392.092	-5.536	-0.403	-0.281
-391.077	4.025	-0.164	-0.122
-390.063	-200.000	-0.005	0.098
-389.048	-193.418	-0.278	-0.002
-388.033	-114.781	0.201	0.039
-387.019	-28.201	-0.338	0.198
-386.004	-200.000	0.002	0.239
-384.990	-103.573	0.326	-0.078
-383.975	-109.994	0.201	-0.043
-382.960	-76.143	-0.162	0.058
-381.946	106.956	0.107	0.130
-380.931	7.376	-0.116	0.088
-379.917	68.233	-0.167	-0.174
-378.902	-141.718	-0.083	0.009
-377.888	-200.000	-0.015	-0.083
-376.873	-67.304	0.249	-0.100
-375.858	286.617	-0.103	-0.189
-374.844	-14.242	0.028	0.018
-373.829	800.000	0.014	0.061
-372.815	800.000	0.072	0.257
-371.800	28.482	-0.094	0.081
-370.785	737.773	-0.100	-0.272
-369.771	755.223	-0.058	0.160
-368.756	27.875	0.261	0.223
-367.742	17.913	-0.210	-0.170
-366.727	25.110	-0.139	-0.117
-365.712	44.409	0.107	-0.100
-364.698	668.512	0.033	-0.088
-363.683	-67.471	-0.282	0.113
-362.669	-173.379	-0.430	0.013
-361.654	-116.639	-0.203	0.038
-360.639	800.000	-0.074	-0.211
-359.625	-148.918	0.193	0.016
-358.610	800.000	-0.079	-0.309
-357.596	-125.854	-0.145	0.022
-356.581	-200.000	0.025	0.237
-355.566	800.000	-0.088	-0.265
-354.552	-200.000	0.021	-0.118
-353.537	139.422	0.021	-0.029
-352.523	-200.000	0.032	0.156
-351.508	-125.864	0.020	-0.003
-350.493	91.251	0.184	-0.210
-349.479	800.000	-0.049	0.152
-348.464	21.454	-0.234	0.193
-347.450	-200.000	-0.015	-0.104
-346.435	637.289	-0.068	-0.176
-345.420	800.000	-0.010	-0.040
-344.406	-61.781	-0.265	0.113
-343.391	-140.037	-0.353	0.038
-342.377	-91.715	0.240	-0.069
-341.362	64.943	0.210	0.215
-340.348	301.746	0.065	-0.121
-339.333	-85.749	-0.186	-0.059
-338.318	800.000	-0.131	-0.447
-337.304	-200.000	0.035	0.166
-336.289	100.502	0.154	0.182
-335.275	23.259	-0.101	-0.084
-334.260	456.297	-0.066	-0.149
-333.245	745.450	-0.105	0.286
-332.231	-191.430	0.194	0.002
-331.216	-157.166	0.279	-0.017
-330.202	-200.000	-0.004	0.180
-329.187	-53.029	0.402	0.188
-328.172	-31.563	-0.250	-0.142
-327.158	-23.010	-0.081	-0.050
-326.143	-147.400	0.234	0.020
-325.129	-200.000	-0.001	0.214
-324.114	29.798	-0.291	0.251
-323.099	-36.206	-0.096	-0.053
-322.085	109.332	0.112	-0.137
-321.070	-10.093	-0.219	-0.148
-320.056	-64.473	0.135	-0.056
-319.041	-125.214	-0.303	0.047
-318.026	308.155	0.039	0.074
-317.012	178.812	-0.091	0.135
-315.997	93.375	0.129	-0.148
-314.983	-149.144	0.273	0.022
-313.968	-122.468	0.108	-0.018
-312.953	-63.303	0.313	-0.131
-311.939	800.000	0.073	0.216
-310.924	95.955	0.040	-0.046
-309.910	-118.624	-0.234	0.042
-308.895	-88.314	-0.266	-0.081
-307.880	18.843	-0.117	-0.095
-306.866	-81.296	-0.207	-0.069
-305.851	-200.000	-0.111	0.000
-304.837	-132.219	0.305	0.040
-303.822	424.687	0.057	-0.125
-302.807	234.314	-0.121	-0.203
-301.793	328.329	-0.041	-0.079
-300.778	-56.701	0.279	0.125
-299.764	-38.381	0.098	0.052
-298.749	800.000	0.059	0.235
-297.735	10.712	0.111	-0.085
-296.720	621.267	-0.061	0.157
-295.705	0.421	0.153	-0.111
-294.691	-200.000	0.025	0.213
-293.676	5.530	0.165	0.123
-292.662	-200.000	-0.013	0.151
-291.647	-1.460	0.106	-0.076
-290.632	-61.009	0.315	0.135
-289.618	408.935	0.031	0.065
-288.603	-27.434	-0.316	0.186
-287.589	560.107	-0.106	-0.258
-286.574	-65.163	0.212	0.086
-285.559	-65.559	0.119	-0.049
-284.545	3.751	-0.256	0.190
-283.530	6.472	-0.275	0.207
-282.516	-102.287	0.266	-0.065
-281.501	196.083	-0.186	-0.287
-280.486	91.239	-0.212	0.240
-279.472	-131.483	-0.252	-0.034
-278.457	414.862	0.088	-0.190
-277.443	-172.062	-0.151	0.005
-276.428	-84.765	-0.242	0.077
-275.413	439.735	0.078	-0.172
-274.399	-70.683	0.346	-0.132
-273.384	-68.512	0.150	0.059
-272.370	2.338	-0.196	-0.144
-271.355	800.000	-0.041	0.161
-270.340	-55.899	0.242	0.109
-269.326	-200.000	0.007	0.150
-268.311	-183.552	0.322	0.006
-267.297	19.304	0.230	0.187
-266.282	-200.000	-0.010	-0.192
-265.267	-101.260	-0.253	-0.062
-264.253	369.206	0.108	0.221
-263.238	-200.000	-0.011	0.191
-262.224	800.000	0.038	0.160
-261.209	32.190	0.363	0.317
-260.195	181.333	-0.078	-0.116
-259.180	143.808	-0.161	-0.217
-258.165	303.306	-0.166	0.310
-257.151	-105.747	0.171	0.039
-256.136	37.471	0.067	-0.060
-255.122	-93.587	-0.202	0.057
-254.107	-50.335	-0.420	-0.201
-253.092	-73.142	-0.520	0.193
-252.078	-42.868	-0.132	-0.068
-251.063	127.118	0.067	0.086
-250.049	58.101	0.169	-0.167
-249.034	-56.006	0.269	0.121
-248.019	-200.000	-0.026	-0.167
-247.005	489.315	-0.138	0.320
-245.990	272.038	0.110	-0.196
-244.976	107.286	-0.147	-0.177
-243.961	-48.934	0.098	-0.047
-242.946	-23.002	0.351	0.214
-241.932	514.231	-0.096	-0.226
-240.917	84.509	-0.207	-0.229
-239.903	-114.053	0.278	-0.055
-238.888	243.715	0.012	0.020
-237.873	-61.668	0.218	-0.092
-236.859	43.750	0.304	-0.282
-235.844	-109.346	0.217	-0.047
-234.830	24.657	-0.256	0.214
-233.815	3.644	-0.231	0.170
-232.800	-115.986	-0.164	0.031
-231.786	-200.000	0.027	-0.215
-230.771	-90.194	0.189	0.056
-229.757	-200.000	-0.030	0.541
-228.742	81.960	0.346	0.379
-227.727	176.512	0.117	-0.172
-226.713	-80.908	0.260	0.087
-225.698	-51.046	0.125	0.059
-224.684	19.138	-0.164	0.133
-223.669	214.525	0.141	0.226
-222.655	-70.648	0.127	-0.049
-221.640	-168.296	-0.156	0.006
-220.625	-24.966	0.490	-0.294
-219.611	26.457	-0.140	-0.118
-218.596	554.948	-0.064	0.155
-217.582	-200.000	0.018	0.202
-216.567	-65.428	0.065	-0.026
-215.552	-200.000	0.000	-0.112
-214.538	79.845	0.116	-0.126
-213.523	-111.914	-0.260	0.053
-212.509	-6.548	0.136	-0.094
-211.494	169.257	-0.096	0.139
-210.479	-52.681	0.344	-0.160
-209.465	-5.678	0.092	-0.063
-208.450	-4.177	-0.245	0.171
-207.436	-90.967	-0.097	0.028
-206.421	-136.502	-0.042	0.005
-205.406	268.029	-0.033	0.059
-204.392	149.598	0.249	-0.341
-203.377	-105.290	0.106	0.024
-202.363	-72.963	0.076	-0.028
-201.348	-200.000	-0.003	-0.421
-200.333	-65.189	-0.265	0.108
-199.319	-200.000	-0.013	-0.200
-198.304	-126.232	-0.102	-0.015
-197.290	-200.000	-0.022	0.372
-196.275	197.174	0.040	-0.062
-195.260	717.774	0.099	0.265
-194.246	-3.315	-0.183	0.129
-193.231	393.696	-0.030	0.064
-192.217	-99.972	-0.206	0.052
-191.202	-78.597	0.111	0.038
-190.187	-3.182	0.157	-0.110
-189.173	-106.510	-0.285	0.064
-188.158	61.045	-0.296	0.297
-187.144	-60.725	0.340	0.146
-186.129	800.000	-0.068	0.237
-185.114	410.249	0.045	0.096
-184.100	206.171	0.381	-0.598
-183.085	-172.671	-0.197	-0.006
-182.071	-41.089	0.134	0.070
-181.056	172.303	0.005	-0.007
-180.042	-200.000	0.045	-0.314
-179.027	7.644	-0.308	0.233
-178.012	762.846	0.053	-0.145
-176.998	-200.000	0.033	0.214
-175.983	75.918	0.180	-0.192
-174.969	95.652	0.174	-0.200
-173.954	-200.000	0.012	0.342
-172.939	124.847	0.158	0.201
-171.925	-200.000	0.013	0.305
-170.910	-150.975	0.111	0.008
-169.896	-141.398	-0.119	0.012
-168.881	84.671	-0.289	-0.319
-167.866	-3.022	0.245	-0.173
-166.852	-200.000	-0.022	-0.347
-165.837	30.132	-0.096	0.083
-164.823	539.202	0.014	-0.033
-163.808	800.000	0.048	-0.154
-162.793	-200.000	0.007	-0.105
-161.779	73.883	0.090	-0.095
-160.764	-188.753	0.325	-0.004
-159.750	-19.477	-0.152	-0.095
-158.735	293.510	0.190	0.350
-157.720	662.027	-0.092	0.240
-156.706	166.063	0.141	-0.201
-155.691	576.027	0.101	0.249
-154.677	502.249	-0.092	0.213
-153.662	800.000	0.026	-0.082
-152.647	-7.658	0.239	0.163
-151.633	290.562	-0.138	-0.253
-150.618	800.000	0.117	0.423
-149.604	93.467	-0.171	0.195
-148.589	-138.761	0.260	-0.029
-147.574	-64.866	0.103	0.042
-146.560	-59.109	0.130	0.056
-145.545	-31.785	0.228	0.129
-144.531	800.000	0.025	0.078
-143.516	800.000	-0.152	0.438
-142.502	116.802	0.112	0.138
-141.487	178.325	-0.159	0.234
-140.472	-200.000	-0.063	0.292
-139.458	711.355	0.051	-0.137
-138.443	-75.378	-0.224	0.080
-137.429	-112.053	-0.138	-0.028
-136.414	13.386	-0.057	0.044
-135.399	252.479	-0.064	0.109
-134.385	-146.794	0.314	0.027
-133.370	584.205	-0.066	0.164
-132.356	374.356	-0.147	0.302
-131.341	-73.621	-0.178	0.065
-130.326	414.718	-0.087	-0.187
-129.312	-151.740	0.429	-0.032
-128.297	100.293	0.174	0.203
-127.283	63.374	0.229	-0.231
-126.268	-183.891	0.358	-0.006
-125.253	39.889	0.128	0.116
-124.239	171.186	0.165	0.238
-123.224	-180.418	0.180	0.004
-122.210	800.000	0.053	-0.167
-121.195	-200.000	-0.133	0.000
-120.180	800.000	0.060	-0.226
