DTS Sentinel unit serial number:	SN413079Multiplexer serial number:	ORYXHardware model number:	OX4-SRSoftware version number:	ORYX F/W v4.00 Oryx Data Collector v3.7.2.0data status	okinstallation	princeton_trtdifferential loss correction	single-endedforward channel	channel 4reverse channel	N/Adate	2019/09/11time	07:59:11forward acquisition time	60.00reverse acquisition time	0.00gamma	496.2192k internal	0.2307k external	0.2307temperature offset calibration	1.1220default loss term (dB/km)	0.3790temperature slope calibration	1.0000multiplexer offset coefficient	1.0000multiplexer slope coefficient	1.0000fibre end	0.00T internal ref (°C)	32.06T ext. ref 1 (°C)	19.05T ext. ref 2 (°C)	27.59length (m)	temperature (°C)	Stokes	anti-Stokes-747.200	98.995	0.133	0.157
-746.185	30.486	-0.219	0.191
-745.171	-111.783	-0.077	-0.016
-744.156	297.812	0.067	0.125
-743.142	33.830	0.236	-0.209
-742.127	-42.701	-0.155	-0.080
-741.112	-130.373	0.401	-0.055
-740.098	-200.000	0.005	0.040
-739.083	-24.207	0.012	-0.007
-738.069	-3.629	-0.050	-0.035
-737.054	-80.195	0.354	-0.120
-736.039	95.796	-0.051	-0.059
-735.025	-44.951	0.388	0.197
-734.010	-200.000	0.018	-0.320
-732.996	-129.814	0.202	-0.028
-731.981	-27.880	0.049	-0.029
-730.966	90.928	0.069	-0.079
-729.952	-36.246	0.269	-0.147
-728.937	-95.745	0.172	-0.047
-727.923	-200.000	0.015	-0.097
-726.908	-200.000	0.056	-0.417
-725.894	47.424	-0.143	-0.136
-724.879	-0.291	-0.085	0.061
-723.864	-80.975	-0.071	-0.024
-722.850	296.776	-0.109	0.204
-721.835	-100.039	0.206	0.052
-720.821	-100.718	0.127	0.032
-719.806	-136.136	-0.192	-0.023
-718.791	30.940	0.307	0.267
-717.777	136.418	-0.049	-0.065
-716.762	449.725	0.086	-0.192
-715.748	-84.538	-0.101	0.032
-714.733	-115.387	0.384	0.074
-713.718	74.390	0.184	-0.197
-712.704	288.241	-0.184	-0.338
-711.689	-64.013	-0.162	0.067
-710.675	121.245	0.194	-0.245
-709.660	653.115	-0.033	-0.085
-708.645	-49.258	-0.192	-0.093
-707.631	91.912	-0.108	-0.123
-706.616	379.097	0.124	0.258
-705.602	749.799	-0.021	0.058
-704.587	-200.000	0.018	-0.126
-703.572	340.300	0.044	-0.086
-702.558	78.052	0.259	-0.280
-701.543	183.310	0.202	-0.303
-700.529	-69.647	0.108	-0.042
-699.514	800.000	-0.135	-0.459
-698.499	-126.146	0.247	0.038
-697.485	399.666	-0.096	0.204
-696.470	-28.286	-0.226	0.133
-695.456	-26.444	-0.141	0.084
-694.441	107.480	-0.284	-0.344
-693.426	-22.928	-0.080	-0.049
-692.412	59.218	0.233	-0.233
-691.397	-75.542	-0.198	0.072
-690.383	383.737	-0.046	-0.095
-689.368	800.000	-0.024	-0.095
-688.354	-39.910	-0.245	-0.130
-687.339	-114.112	0.275	-0.054
-686.324	222.677	0.141	0.230
-685.310	93.313	0.102	-0.117
-684.295	-36.158	-0.190	-0.104
-683.281	-189.240	0.068	-0.001
-682.266	-200.000	-0.029	0.222
-681.251	-145.093	0.073	0.007
-680.237	35.271	-0.267	0.238
-679.222	-42.124	0.497	0.258
-678.208	227.385	-0.115	-0.190
-677.193	-11.918	-0.146	0.097
-676.178	50.996	0.161	0.155
-675.164	1.450	0.196	-0.143
-674.149	800.000	0.100	-0.301
-673.135	-85.639	-0.256	-0.081
-672.120	85.369	0.170	-0.189
-671.105	-126.374	-0.124	-0.019
-670.091	107.954	0.226	-0.273
-669.076	656.804	0.017	-0.045
-668.062	319.432	-0.140	-0.269
-667.047	-200.000	0.005	0.075
-666.032	-200.000	0.002	0.123
-665.018	-72.561	0.149	0.056
-664.003	192.260	-0.258	-0.395
-662.989	-78.384	-0.266	0.092
-661.974	-20.564	-0.175	-0.109
-660.959	88.682	-0.160	-0.180
-659.945	132.308	-0.106	-0.139
-658.930	-200.000	0.001	-0.077
-657.916	-40.370	-0.207	0.109
-656.901	241.720	-0.147	-0.249
-655.886	-193.063	0.391	-0.004
-654.872	-69.740	-0.288	-0.112
-653.857	-23.281	-0.100	0.061
-652.843	800.000	-0.038	-0.137
-651.828	-200.000	-0.030	-0.204
-650.814	710.014	-0.132	-0.353
-649.799	700.670	-0.019	-0.052
-648.784	-200.000	-0.084	-0.000
-647.770	800.000	0.097	-0.318
-646.755	-63.674	-0.278	0.116
-645.741	-46.084	0.316	0.158
-644.726	-200.000	0.046	0.277
-643.711	800.000	0.100	-0.287
-642.697	-113.438	0.163	0.032
-641.682	119.732	-0.173	-0.218
-640.668	800.000	-0.070	-0.202
-639.653	183.969	0.017	0.026
-638.638	110.041	0.200	-0.243
-637.624	-200.000	-0.169	-0.000
-636.609	502.038	-0.135	-0.316
-635.595	494.956	-0.078	0.181
-634.580	-79.747	-0.096	0.033
-633.565	-200.000	0.021	0.365
-632.551	-113.699	-0.165	0.033
-631.536	-33.676	-0.162	-0.091
-630.522	220.950	-0.130	-0.212
-629.507	-68.227	-0.195	-0.077
-628.492	182.142	-0.042	-0.063
-627.478	-200.000	0.033	0.193
-626.463	-200.000	0.036	0.262
-625.449	529.610	0.127	-0.304
-624.434	-76.713	-0.154	-0.055
-623.419	143.612	-0.077	0.104
-622.405	800.000	-0.030	0.088
-621.390	33.200	-0.171	0.150
-620.376	228.553	-0.098	0.162
-619.361	110.945	-0.087	-0.106
-618.346	-20.132	-0.103	-0.064
-617.332	788.181	-0.100	-0.278
-616.317	-50.220	0.452	0.216
-615.303	733.148	0.115	0.313
-614.288	-200.000	-0.005	-0.122
-613.273	6.838	0.285	-0.215
-612.259	27.687	-0.096	0.082
-611.244	211.579	0.063	-0.101
-610.230	-38.904	0.165	-0.088
-609.215	485.325	0.086	-0.199
-608.201	-122.611	0.244	0.040
-607.186	-191.539	0.338	0.003
-606.171	-200.000	0.011	0.153
-605.157	36.953	-0.141	0.126
-604.142	-200.000	0.029	-0.167
-603.128	282.402	-0.019	0.035
-602.113	-175.787	0.281	-0.008
-601.098	-138.221	-0.107	0.012
-600.084	164.852	-0.050	0.071
-599.069	94.706	0.143	-0.165
-598.055	28.672	0.183	-0.157
-597.040	-200.000	0.015	-0.164
-596.025	194.431	0.022	0.033
-595.011	800.000	-0.029	-0.124
-593.996	-76.425	0.157	-0.056
-592.982	-112.696	0.246	0.050
-591.967	-77.811	-0.189	0.066
-590.952	140.238	-0.087	0.116
-589.938	-200.000	0.009	-0.100
-588.923	316.530	-0.168	-0.320
-587.909	-7.047	0.130	-0.089
-586.894	543.085	0.170	0.410
-585.879	107.033	-0.163	0.196
-584.865	-61.582	0.182	0.077
-583.850	-54.849	0.128	-0.058
-582.836	-73.363	0.240	-0.089
-581.821	7.193	-0.228	-0.172
-580.806	103.753	-0.330	-0.391
-579.792	22.235	-0.275	-0.227
-578.777	-106.956	-0.321	0.072
-577.763	-116.578	-0.121	0.023
-576.748	400.404	0.037	-0.079
-575.733	42.400	-0.091	0.084
-574.719	800.000	-0.014	0.042
-573.704	172.499	-0.142	0.207
-572.690	-126.247	0.244	0.037
-571.675	800.000	-0.045	-0.136
-570.661	307.860	-0.144	0.271
-569.646	-24.643	-0.334	-0.201
-568.631	2.557	0.305	-0.223
-567.617	-200.000	0.027	0.230
-566.602	-51.310	-0.196	-0.093
-565.588	316.761	0.165	0.316
-564.573	-97.803	-0.104	-0.027
-563.558	-3.106	0.420	0.296
-562.544	211.747	0.173	-0.274
-561.529	405.303	0.081	-0.172
-560.515	-51.819	-0.347	0.163
-559.500	350.935	-0.106	0.211
-558.485	-14.911	0.265	-0.172
-557.471	2.388	0.169	0.123
-556.456	568.247	0.068	-0.168
-555.442	555.716	0.078	0.189
-554.427	29.826	-0.090	0.077
-553.412	-122.016	-0.141	0.023
-552.398	134.617	-0.249	-0.326
-551.383	-114.532	-0.301	-0.058
-550.369	51.361	-0.186	0.178
-549.354	477.811	0.099	0.226
-548.339	174.708	0.220	0.321
-547.325	-31.940	0.307	0.174
-546.310	122.283	0.083	-0.105
-545.296	151.536	-0.199	-0.274
-544.281	-200.000	-0.024	0.123
-543.266	800.000	-0.068	0.203
-542.252	-22.018	0.290	-0.178
-541.237	76.009	0.152	0.162
-540.223	499.597	-0.116	0.270
-539.208	-137.602	-0.101	-0.011
-538.193	39.267	0.142	-0.128
-537.179	209.615	-0.106	0.167
-536.164	-180.820	0.260	-0.005
-535.150	65.710	-0.194	-0.199
-534.135	198.125	-0.244	0.376
-533.121	-173.917	-0.117	-0.003
-532.106	800.000	0.102	-0.405
-531.091	-34.188	-0.098	0.054
-530.077	-200.000	0.067	0.380
-529.062	-137.826	-0.354	0.040
-528.048	-89.829	0.115	0.034
-527.033	-200.000	-0.007	0.139
-526.018	262.669	0.088	-0.154
-525.004	-68.215	-0.254	0.100
-523.989	91.022	0.124	0.140
-522.975	78.885	-0.049	-0.052
-521.960	188.586	0.144	-0.217
-520.945	-55.377	-0.274	-0.124
-519.931	-200.000	0.017	-0.132
-518.916	-70.380	0.094	0.036
-517.902	-87.759	-0.103	-0.031
-516.887	-63.739	-0.239	0.099
-515.872	-75.523	0.140	0.050
-514.858	-39.318	-0.113	-0.060
-513.843	-53.374	0.383	-0.177
-512.829	-131.542	-0.172	0.023
-511.814	82.264	0.249	0.272
-510.799	-32.372	-0.320	0.180
-509.785	-125.017	0.077	-0.012
-508.770	42.669	0.075	0.069
-507.756	-155.375	0.155	0.010
-506.741	800.000	0.105	-0.460
-505.726	-200.000	0.012	0.391
-504.712	-107.291	0.276	0.061
-503.697	-104.421	-0.231	-0.054
-502.683	800.000	0.084	0.368
-501.668	474.760	0.102	0.231
-500.653	55.624	-0.185	-0.180
-499.639	204.263	-0.152	-0.237
-498.624	259.658	0.059	-0.103
-497.610	800.000	-0.095	-0.275
-496.595	800.000	-0.118	-0.333
-495.581	-95.583	-0.150	-0.040
-494.566	-200.000	-0.025	0.315
-493.551	419.935	0.055	0.119
-492.537	800.000	0.019	-0.061
-491.522	234.793	0.170	-0.283
-490.508	38.169	0.126	-0.113
-489.493	800.000	-0.050	0.172
-488.478	75.464	-0.203	0.215
-487.464	88.828	-0.278	0.311
-486.449	140.872	-0.112	-0.149
-485.435	-163.322	-0.304	-0.015
-484.420	-85.300	0.348	-0.109
-483.405	-26.215	0.303	-0.179
-482.391	800.000	0.162	0.508
-481.376	-122.308	0.310	-0.051
-480.362	-39.806	0.287	0.151
-479.347	-101.126	0.087	0.021
-478.332	-1.177	-0.149	-0.106
-477.318	338.097	0.014	-0.027
-476.303	8.555	0.276	0.209
-475.289	192.710	0.094	-0.142
-474.274	130.349	0.074	-0.096
-473.259	-141.061	0.181	-0.019
-472.245	800.000	-0.006	0.023
-471.230	-44.633	-0.208	-0.105
-470.216	37.247	-0.242	0.215
-469.201	-60.700	0.119	-0.051
-468.186	-30.787	0.119	-0.068
-467.172	-105.169	-0.176	0.040
-466.157	12.024	-0.337	0.261
-465.143	-159.671	-0.327	-0.018
-464.128	82.606	-0.121	-0.133
-463.113	20.139	0.086	0.070
-462.099	-89.954	0.005	0.001
-461.084	87.337	0.196	0.219
-460.070	-200.000	-0.034	-0.283
-459.055	-200.000	-0.028	-0.149
-458.040	110.909	0.191	-0.232
-457.026	-75.594	0.114	0.041
-456.011	800.000	0.009	-0.027
-454.997	140.055	-0.142	-0.188
-453.982	-200.000	0.015	-0.144
-452.968	-200.000	-0.129	0.000
-451.953	-62.253	-0.144	-0.060
-450.938	674.950	0.076	0.198
-449.924	168.572	0.090	0.130
-448.909	-61.394	-0.096	-0.040
-447.895	143.299	0.039	0.053
-446.880	-135.261	-0.410	0.049
-445.865	1.234	-0.281	0.203
-444.851	7.224	0.200	0.150
-443.836	800.000	0.045	-0.182
-442.822	-187.224	-0.096	-0.001
-441.807	166.761	0.106	-0.151
-440.792	800.000	-0.077	-0.277
-439.778	-55.965	-0.133	-0.060
-438.763	26.534	-0.110	-0.093
-437.749	393.086	0.034	-0.070
-436.734	442.163	0.077	-0.170
-435.719	-200.000	0.074	-0.509
-434.705	35.920	0.119	-0.105
-433.690	-180.109	-0.380	-0.008
-432.676	62.749	0.039	0.039
-431.661	800.000	0.075	-0.210
-430.646	256.426	-0.144	-0.248
-429.632	-200.000	0.024	0.170
-428.617	99.770	-0.087	0.101
-427.603	-62.437	-0.365	-0.153
-426.588	-200.000	0.008	-0.087
-425.573	3.080	0.040	-0.029
-424.559	45.197	-0.104	0.097
-423.544	-200.000	0.026	0.263
-422.530	58.512	0.187	-0.184
-421.515	-200.000	0.097	-0.426
-420.500	-200.000	-0.003	-0.179
-419.486	-56.733	-0.194	0.086
-418.471	-79.483	0.300	-0.102
-417.457	683.636	0.005	-0.014
-416.442	100.773	0.058	0.068
-415.428	-150.846	-0.433	-0.033
-414.413	43.985	-0.308	0.284
-413.398	148.200	0.354	0.480
-412.384	-200.000	0.004	-0.298
-411.369	770.218	-0.125	-0.343
-410.355	-186.255	0.019	-0.000
-409.340	304.601	-0.083	0.155
-408.325	-78.017	-0.420	-0.145
-407.311	-74.061	-0.063	0.023
-406.296	-85.542	-0.267	-0.083
-405.282	-151.769	-0.128	-0.009
-404.267	-93.177	0.124	0.035
-403.252	254.635	-0.074	0.127
-402.238	192.314	0.113	0.171
-401.223	-200.000	-0.011	0.157
-400.209	-106.241	-0.236	-0.053
-399.194	28.768	-0.101	0.086
-398.179	-33.685	0.203	-0.112
-397.165	357.146	0.125	0.251
-396.150	-200.000	0.027	-0.245
-395.136	-170.085	0.285	-0.010
-394.121	65.412	0.228	0.232
-393.106	-159.097	-0.137	-0.008
-392.092	-90.210	-0.269	-0.079
-391.077	-170.321	-0.124	0.004
-390.063	95.174	-0.175	0.200
-389.048	129.049	-0.096	-0.123
-388.033	22.224	0.329	-0.269
-387.019	800.000	-0.077	-0.308
-386.004	-200.000	0.008	-0.267
-384.990	44.600	-0.131	0.121
-383.975	800.000	-0.100	0.381
-382.960	-141.522	-0.111	0.011
-381.946	-44.349	-0.115	-0.058
-380.931	800.000	0.056	0.200
-379.917	-4.365	0.304	0.211
-378.902	-200.000	0.014	0.117
-377.888	20.123	-0.358	-0.290
-376.873	-45.324	0.167	-0.083
-375.858	0.734	-0.058	0.042
-374.844	145.701	-0.187	-0.252
-373.829	-134.051	0.147	-0.018
-372.815	-123.220	-0.375	0.060
-371.800	219.436	0.091	0.146
-370.785	-147.534	-0.315	0.027
-369.771	-10.367	-0.302	-0.201
-368.756	153.282	0.018	-0.024
-367.742	110.261	-0.212	0.256
-366.727	-5.323	0.223	0.153
-365.712	311.984	0.110	0.207
-364.698	172.926	-0.131	-0.189
-363.683	-66.876	0.121	0.048
-362.669	364.675	0.200	-0.404
-361.654	375.575	-0.126	0.258
-360.639	28.720	0.146	-0.124
-359.625	-200.000	0.007	0.117
-358.610	404.820	-0.086	-0.181
-357.596	165.616	0.068	-0.097
-356.581	2.748	-0.117	0.085
-355.566	-116.118	0.082	0.015
-354.552	-200.000	0.033	-0.280
-353.537	-200.000	-0.016	0.288
-352.523	-52.367	0.185	0.086
-351.508	-122.908	-0.230	-0.037
-350.493	761.610	-0.124	0.336
-349.479	-113.716	0.285	-0.056
-348.464	31.255	0.242	-0.208
-347.450	-50.909	-0.100	0.047
-346.435	800.000	0.128	0.448
-345.420	-200.000	-0.040	0.212
-344.406	-12.822	0.093	0.061
-343.391	728.100	0.138	-0.368
-342.377	322.882	-0.095	0.180
-341.362	138.784	-0.229	-0.302
-340.348	763.487	0.092	0.251
-339.333	-200.000	-0.000	-0.038
-338.318	-102.836	-0.381	0.091
-337.304	144.633	0.174	-0.232
-336.289	-95.931	0.352	-0.094
-335.275	-87.251	-0.142	0.043
-334.260	625.020	0.067	-0.169
-333.245	466.988	0.075	0.169
-332.231	401.157	0.137	-0.289
-331.216	-40.679	0.359	-0.186
-330.202	-63.631	0.419	-0.172
-329.187	26.041	-0.293	0.244
-328.172	396.582	-0.177	-0.369
-327.158	-72.889	-0.427	-0.157
-326.143	490.832	0.104	0.238
-325.129	118.129	0.046	-0.057
-324.114	-86.325	-0.116	0.036
-323.099	-17.829	0.262	0.164
-322.085	119.861	0.148	0.183
-321.070	-34.914	0.195	0.107
-320.056	569.901	-0.117	0.285
-319.041	88.015	0.149	-0.165
-318.026	17.721	0.146	0.116
-317.012	-200.000	-0.012	-0.179
-315.997	-200.000	-0.262	0.000
-314.983	134.971	-0.114	-0.149
-313.968	-127.375	0.459	-0.067
-312.953	-200.000	0.004	0.202
-311.939	241.178	-0.203	-0.338
-310.924	-86.671	0.319	-0.098
-309.910	69.387	-0.152	-0.157
-308.895	-108.867	0.135	-0.029
-307.880	-7.496	0.117	0.079
-306.866	248.236	-0.105	0.178
-305.851	204.593	0.011	0.018
-304.837	49.682	-0.141	-0.133
-303.822	-0.270	0.311	0.221
-302.807	-119.885	0.411	0.071
-301.793	126.751	0.115	0.145
-300.778	-141.628	-0.406	-0.041
-299.764	-200.000	0.021	0.177
-298.749	-200.000	-0.014	-0.106
-297.735	658.652	-0.116	0.298
-296.720	-200.000	-0.005	-0.087
-295.705	55.353	-0.224	-0.216
-294.691	320.851	0.202	0.384
-293.676	-73.247	0.131	-0.048
-292.662	800.000	0.045	0.169
-291.647	-200.000	0.024	-0.116
-290.632	-200.000	0.036	0.169
-289.618	69.851	-0.073	0.075
-288.603	114.344	0.162	-0.197
-287.589	202.870	0.151	-0.233
-286.574	-56.184	0.162	-0.072
-285.559	-200.000	0.074	0.351
-284.545	-7.722	-0.060	0.041
-283.530	-45.493	-0.375	-0.186
-282.516	-172.388	-0.290	0.009
-281.501	-200.000	0.010	-0.096
-280.486	-200.000	-0.034	0.186
-279.472	256.424	-0.072	0.123
-278.457	-32.931	0.151	0.084
-277.443	274.029	0.186	0.329
-276.428	560.983	-0.014	-0.033
-275.413	-131.150	-0.400	0.053
-274.399	367.869	0.029	0.059
-273.384	12.027	-0.187	0.144
-272.370	-92.717	-0.259	-0.072
-271.355	30.831	0.243	-0.208
-270.340	-200.000	-0.039	-0.276
-269.326	-33.479	-0.261	0.144
-268.311	150.985	0.278	0.377
-267.297	-11.995	-0.057	0.038
-266.282	-9.598	-0.210	-0.140
-265.267	-31.461	-0.259	-0.145
-264.253	-200.000	-0.015	0.121
-263.238	101.095	0.164	0.191
-262.224	-20.466	-0.338	0.208
-261.209	-66.207	0.101	0.040
-260.195	81.995	-0.177	0.191
-259.180	106.635	-0.193	-0.229
-258.165	-200.000	-0.020	0.369
-257.151	39.080	0.370	-0.330
-256.136	48.810	-0.226	-0.212
-255.122	-200.000	-0.029	-0.138
-254.107	-200.000	0.013	0.315
-253.092	-200.000	-0.011	-0.264
-252.078	56.055	-0.248	0.240
-251.063	95.178	0.088	0.100
-250.049	366.779	0.154	0.309
-249.034	7.204	0.192	0.143
-248.019	-133.153	-0.253	0.032
-247.005	-14.631	0.301	-0.193
-245.990	9.179	0.396	0.299
-244.976	-69.370	0.215	-0.082
-243.961	800.000	-0.086	0.340
-242.946	-87.075	-0.138	0.042
-241.932	98.094	0.098	0.113
-240.917	-92.807	0.399	0.111
-239.903	-95.994	0.076	-0.020
-238.888	800.000	-0.132	0.429
-237.873	800.000	-0.071	0.197
-236.859	-134.476	0.269	-0.033
-235.844	-56.373	-0.126	0.056
-234.830	800.000	0.102	0.407
-233.815	-53.587	0.076	0.035
-232.800	-103.127	-0.308	-0.073
-231.786	-119.997	0.225	0.038
-230.771	719.908	-0.078	-0.206
-229.757	-78.217	-0.190	-0.065
-228.742	-72.942	0.225	-0.082
-227.727	-2.691	0.074	0.051
-226.713	8.887	0.073	-0.055
-225.698	164.457	-0.084	0.118
-224.684	-195.306	-0.248	-0.002
-223.669	800.000	-0.065	-0.212
-222.655	40.421	0.261	0.234
-221.640	40.242	-0.253	-0.227
-220.625	-177.297	0.291	-0.007
-219.611	99.723	0.088	-0.101
-218.596	-200.000	-0.005	-0.046
-217.582	-112.101	-0.256	0.051
-216.567	-200.000	-0.004	0.148
-215.552	100.720	-0.205	0.237
-214.538	-19.994	0.147	0.090
-213.523	-15.852	0.039	-0.024
-212.509	178.561	-0.026	0.037
-211.494	-20.648	-0.164	0.100
-210.479	-94.341	0.493	0.134
-209.465	50.997	0.143	0.135
-208.450	-71.550	-0.238	0.089
-207.436	800.000	0.059	0.166
-206.421	-157.020	-0.128	-0.008
-205.406	676.009	0.129	-0.334
-204.392	202.107	0.067	-0.103
-203.377	-16.993	0.165	-0.103
-202.363	800.000	0.076	0.233
-201.348	-43.382	0.188	0.095
-200.333	5.326	0.322	-0.237
-199.319	-200.000	-0.015	0.108
-198.304	-200.000	-0.053	-0.402
-197.290	251.679	-0.114	-0.194
-196.275	-200.000	-0.027	-0.181
-195.260	509.555	0.140	-0.325
-194.246	-167.573	-0.185	0.007
-193.231	-200.000	-0.039	0.340
-192.217	-91.209	0.268	-0.076
-191.202	-93.236	-0.190	0.053
-190.187	94.076	0.041	0.047
-189.173	-69.755	-0.240	-0.091
-188.158	-141.738	0.127	-0.013
-187.144	-139.856	0.062	0.007
-186.129	-76.015	0.326	0.115
-185.114	412.766	-0.094	0.198
-184.100	448.624	0.090	0.197
-183.085	-28.069	0.089	-0.051
-182.071	-200.000	-0.013	-0.150
-181.056	-200.000	-0.035	-0.515
-180.042	34.501	0.250	-0.217
-179.027	118.221	-0.208	-0.255
-178.012	-200.000	-0.029	0.146
-176.998	-56.638	0.202	-0.089
-175.983	307.524	-0.093	-0.173
-174.969	542.308	-0.056	-0.133
-173.954	-200.000	0.004	0.189
-172.939	800.000	-0.051	0.215
-171.925	-200.000	-0.046	-0.237
-170.910	-200.000	0.012	0.067
-169.896	85.575	-0.186	0.203
-168.881	-95.198	0.106	0.028
-167.866	-102.629	0.250	0.059
-166.852	-200.000	0.035	0.377
-165.837	-19.079	0.187	0.116
-164.823	96.789	-0.188	-0.214
-163.808	275.072	0.042	-0.074
-162.793	25.583	-0.169	-0.140
-161.779	800.000	-0.083	-0.356
-160.764	-119.019	0.246	-0.043
-159.750	-92.458	0.186	-0.052
-158.735	800.000	-0.073	0.204
-157.720	289.388	-0.090	-0.162
-156.706	410.775	0.090	0.189
-155.691	-200.000	0.012	-0.267
-154.677	-200.000	0.052	-0.256
-153.662	20.225	-0.187	-0.150
-152.647	-47.495	0.218	-0.105
-151.633	211.413	0.191	-0.299
-150.618	800.000	0.056	0.186
-149.604	800.000	-0.137	-0.449
-148.589	102.391	0.063	0.073
-147.574	-142.152	-0.148	0.015
-146.560	17.911	-0.232	0.184
-145.545	-29.026	0.144	0.082
-144.531	303.158	0.107	-0.198
-143.516	185.955	0.059	-0.088
-142.502	64.295	0.140	0.140
-141.487	56.147	-0.146	0.141
-140.472	-160.062	0.283	0.015
-139.458	-200.000	-0.034	0.159
-138.443	64.263	0.204	-0.204
-137.429	-130.974	0.222	-0.029
-136.414	-1.326	0.419	-0.294
-135.399	189.697	0.180	-0.267
-134.385	-94.188	-0.133	0.036
-133.370	205.882	-0.164	0.254
-132.356	-107.430	-0.238	0.052
-131.341	498.377	0.153	-0.350
-130.326	-106.592	0.383	-0.085
-129.312	-180.782	-0.202	0.004
-128.297	393.941	-0.069	-0.143
-127.283	800.000	-0.125	0.455
-126.268	-200.000	-0.042	0.377
-125.253	-97.873	0.175	-0.045
-124.239	-2.857	0.163	-0.113
-123.224	-149.177	-0.195	0.015
-122.210	-75.892	0.105	-0.037
-121.195	800.000	-0.074	0.299
-120.180	-90.913	0.256	0.073
