DTS Sentinel unit serial number:	SN413079Multiplexer serial number:	ORYXHardware model number:	OX4-SRSoftware version number:	ORYX F/W v4.00 Oryx Data Collector v3.7.2.0data status	okinstallation	princeton_trtdifferential loss correction	single-endedforward channel	channel 4reverse channel	N/Adate	2019/09/12time	00:31:11forward acquisition time	60.00reverse acquisition time	0.00gamma	496.2192k internal	0.2308k external	0.2308temperature offset calibration	1.0090default loss term (dB/km)	0.3790temperature slope calibration	1.0000multiplexer offset coefficient	1.0000multiplexer slope coefficient	1.0000fibre end	0.00T internal ref (°C)	33.37T ext. ref 1 (°C)	2.05T ext. ref 2 (°C)	27.88length (m)	temperature (°C)	Stokes	anti-Stokes-747.200	800.000	-0.058	-0.232
-746.185	800.000	-0.111	0.346
-745.171	-170.184	0.062	-0.002
-744.156	-131.921	0.126	0.017
-743.142	800.000	0.027	0.097
-742.127	-162.223	-0.136	0.007
-741.112	800.000	0.092	-0.277
-740.098	126.946	-0.088	-0.113
-739.083	-200.000	0.046	0.219
-738.069	102.336	-0.156	0.186
-737.054	-77.526	0.253	0.089
-736.039	307.325	-0.159	-0.301
-735.025	-107.808	0.153	0.034
-734.010	-200.000	-0.051	0.490
-732.996	28.827	0.058	0.050
-731.981	43.328	-0.310	-0.287
-730.966	-123.857	-0.309	-0.050
-729.952	-200.000	-0.022	0.101
-728.937	-200.000	0.003	-0.165
-727.923	-129.525	-0.391	-0.055
-726.908	-125.284	-0.277	0.043
-725.894	-200.000	-0.020	0.399
-724.879	-77.444	-0.226	0.080
-723.864	-73.343	-0.291	0.108
-722.850	-34.329	0.158	-0.088
-721.835	110.243	-0.136	0.165
-720.821	206.426	-0.149	-0.235
-719.806	157.408	0.086	-0.121
-718.791	215.845	0.111	-0.180
-717.777	-23.609	0.200	0.122
-716.762	-76.627	0.126	-0.045
-715.748	87.245	0.021	0.023
-714.733	-22.265	0.157	-0.097
-713.718	-93.211	0.100	-0.028
-712.704	-200.000	-0.044	-0.363
-711.689	-77.557	-0.154	0.054
-710.675	-98.917	-0.270	-0.070
-709.660	-127.586	-0.091	-0.013
-708.645	-87.001	-0.161	-0.050
-707.631	800.000	-0.064	-0.208
-706.616	-167.678	-0.335	-0.013
-705.602	642.819	0.046	-0.120
-704.587	-200.000	-0.028	0.157
-703.572	-99.269	0.582	-0.149
-702.558	272.314	-0.063	-0.113
-701.543	-98.090	-0.082	-0.021
-700.529	-106.074	0.147	0.034
-699.514	144.877	-0.130	-0.176
-698.499	130.270	0.104	0.135
-697.485	119.376	0.045	0.057
-696.470	130.109	-0.162	0.211
-695.456	-185.005	0.219	-0.003
-694.441	90.781	-0.105	-0.119
-693.426	800.000	-0.153	0.473
-692.412	-108.146	0.148	-0.032
-691.397	-151.008	-0.104	0.008
-690.383	-200.000	0.017	-0.147
-689.368	-200.000	-0.050	-0.237
-688.354	-34.376	-0.053	-0.029
-687.339	-131.231	-0.343	-0.046
-686.324	-67.680	-0.076	-0.030
-685.310	-22.930	0.163	-0.100
-684.295	23.618	-0.005	0.004
-683.281	-68.725	-0.157	0.061
-682.266	-200.000	-0.070	0.382
-681.251	-10.545	-0.040	0.027
-680.237	201.602	0.194	0.303
-679.222	-42.601	0.194	0.100
-678.208	-56.796	0.205	-0.092
-677.193	-200.000	-0.048	-0.499
-676.178	-42.784	-0.459	0.236
-675.164	331.673	0.127	0.249
-674.149	0.481	-0.286	0.207
-673.135	91.539	0.108	0.123
-672.120	7.669	0.223	-0.169
-671.105	32.641	0.126	0.110
-670.091	340.594	-0.044	0.086
-669.076	-200.000	-0.034	-0.271
-668.062	-14.912	0.210	0.136
-667.047	-121.613	0.246	0.041
-666.032	-75.360	0.237	-0.086
-665.018	81.435	-0.307	-0.337
-664.003	-127.365	-0.107	0.016
-662.989	303.226	-0.201	-0.377
-661.974	-75.249	0.256	0.093
-660.959	5.502	0.165	-0.124
-659.945	-85.881	-0.172	0.054
-658.930	-65.066	-0.195	-0.080
-657.916	677.786	0.114	-0.300
-656.901	50.770	0.185	-0.177
-655.886	135.927	-0.128	-0.169
-654.872	-148.450	0.412	-0.034
-653.857	-0.053	0.103	-0.074
-652.843	-165.278	-0.257	0.011
-651.828	-43.379	0.069	-0.035
-650.814	59.161	-0.195	-0.195
-649.799	-113.481	0.122	0.024
-648.784	-200.000	0.028	-0.204
-647.770	800.000	0.084	0.260
-646.755	266.470	-0.246	-0.435
-645.741	-200.000	0.003	-0.091
-644.726	-54.931	-0.189	-0.086
-643.711	-200.000	0.024	0.240
-642.697	-48.796	0.018	0.009
-641.682	4.108	0.176	-0.131
-640.668	71.627	-0.232	-0.244
-639.653	-200.000	-0.050	-0.228
-638.638	-25.346	-0.196	0.117
-637.624	-76.600	-0.124	0.044
-636.609	409.473	-0.076	0.164
-635.595	96.114	0.320	0.370
-634.580	-139.498	-0.239	-0.026
-633.565	40.535	-0.188	-0.172
-632.551	107.649	-0.193	0.232
-631.536	-200.000	0.013	-0.127
-630.522	-24.165	0.404	-0.244
-629.507	46.344	-0.274	0.257
-628.492	-200.000	-0.035	0.182
-627.478	-200.000	0.009	-0.059
-626.463	238.736	0.171	0.287
-625.449	-62.340	-0.144	0.061
-624.434	800.000	-0.041	-0.119
-623.419	33.387	-0.049	-0.043
-622.405	81.232	0.250	-0.273
-621.390	-200.000	-0.002	0.219
-620.376	-70.971	-0.391	-0.149
-619.361	-88.147	-0.178	-0.054
-618.346	-200.000	0.001	0.049
-617.332	67.584	0.113	-0.117
-616.317	145.615	-0.208	-0.281
-615.303	4.613	0.047	-0.035
-614.288	-33.358	0.097	0.054
-613.273	102.748	0.083	-0.099
-612.259	657.931	-0.083	-0.217
-611.244	51.548	0.034	0.032
-610.230	-200.000	0.084	-0.410
-609.215	-38.276	-0.280	-0.150
-608.201	134.793	-0.030	0.039
-607.186	-49.176	-0.303	0.146
-606.171	171.317	-0.122	0.177
-605.157	-35.532	-0.073	0.040
-604.142	356.461	0.084	-0.169
-603.128	-115.194	0.200	0.038
-602.113	-200.000	-0.034	-0.301
-601.098	10.388	-0.086	0.066
-600.084	-73.788	0.190	-0.070
-599.069	225.285	-0.029	0.048
-598.055	-200.000	0.029	0.228
-597.040	228.280	0.087	-0.143
-596.025	800.000	-0.096	0.290
-595.011	-44.071	0.051	0.026
-593.996	199.083	0.221	0.343
-592.982	317.195	-0.156	0.298
-591.967	372.095	0.180	-0.369
-590.952	60.405	0.250	0.250
-589.938	395.277	-0.064	0.134
-588.923	96.187	0.087	-0.101
-587.909	-190.751	-0.077	-0.001
-586.894	5.341	-0.155	0.116
-585.879	220.139	0.129	0.209
-584.865	-133.983	-0.306	-0.038
-583.850	273.227	-0.080	0.143
-582.836	-35.538	0.244	-0.134
-581.821	-200.000	-0.046	-0.326
-580.806	-142.775	0.044	0.004
-579.792	800.000	-0.079	-0.338
-578.777	800.000	0.097	-0.337
-577.763	-200.000	-0.007	0.206
-576.748	-64.324	0.256	0.105
-575.733	356.111	-0.218	0.438
-574.719	-146.123	-0.302	0.027
-573.704	-42.823	-0.415	0.213
-572.690	-50.830	0.237	0.113
-571.675	-17.270	0.294	0.187
-570.661	8.907	-0.305	0.232
-569.646	800.000	0.045	-0.164
-568.631	-25.829	-0.101	-0.060
-567.617	-200.000	-0.061	0.312
-566.602	286.116	-0.121	0.220
-565.588	14.127	0.248	0.195
-564.573	140.651	0.124	-0.166
-563.558	-105.026	0.147	-0.034
-562.544	800.000	-0.208	0.582
-561.529	47.797	-0.109	0.102
-560.515	800.000	-0.076	0.278
-559.500	-200.000	0.002	-0.051
-558.485	61.465	0.341	0.343
-557.471	-166.783	-0.126	0.005
-556.456	700.989	0.052	-0.139
-555.442	544.047	-0.073	-0.175
-554.427	-200.000	-0.045	-0.294
-553.412	-19.310	0.102	-0.064
-552.398	-200.000	0.019	0.124
-551.383	211.596	0.069	-0.110
-550.369	157.932	-0.047	0.066
-549.354	138.427	-0.228	-0.301
-548.339	-73.191	0.440	-0.163
-547.325	284.385	-0.008	0.014
-546.310	-47.195	-0.452	0.222
-545.296	-14.060	0.249	-0.162
-544.281	-108.978	0.214	0.046
-543.266	-93.413	-0.354	0.099
-542.252	54.047	-0.163	0.158
-541.237	41.168	0.107	0.097
-540.223	-89.989	0.165	0.049
-539.208	-41.151	0.035	0.018
-538.193	20.167	0.107	-0.087
-537.179	-31.234	0.253	-0.144
-536.164	-6.969	-0.388	-0.266
-535.150	-34.467	-0.197	-0.109
-534.135	-125.336	-0.130	-0.020
-533.121	143.243	0.181	0.243
-532.106	-200.000	-0.007	-0.208
-531.091	-13.764	-0.050	-0.032
-530.077	162.726	-0.068	0.097
-529.062	18.801	-0.031	0.025
-528.048	-41.617	-0.189	-0.098
-527.033	9.208	-0.132	0.100
-526.018	-200.000	0.004	-0.195
-525.004	-104.417	-0.251	-0.059
-523.989	-73.556	0.113	-0.042
-522.975	151.565	-0.253	-0.347
-521.960	800.000	-0.034	0.107
-520.945	86.782	0.168	0.187
-519.931	800.000	-0.019	-0.061
-518.916	-79.529	0.201	-0.068
-517.902	-31.430	-0.249	-0.141
-516.887	800.000	0.053	-0.165
-515.872	-200.000	0.025	0.235
-514.858	-200.000	-0.021	-0.240
-513.843	525.684	0.110	-0.261
-512.829	-200.000	-0.038	-0.192
-511.814	-200.000	0.007	-0.088
-510.799	94.783	-0.293	0.336
-509.785	-200.000	-0.028	-0.174
-508.770	338.582	0.122	-0.238
-507.756	-82.839	-0.224	-0.073
-506.741	40.670	0.381	-0.346
-505.726	19.675	-0.060	-0.049
-504.712	800.000	0.071	-0.206
-503.697	800.000	0.097	-0.394
-502.683	7.785	-0.075	0.057
-501.668	227.200	0.156	0.255
-500.653	-86.917	-0.051	-0.016
-499.639	-65.862	-0.163	-0.066
-498.624	-22.938	-0.079	-0.048
-497.610	-200.000	0.028	-0.157
-496.595	-145.324	-0.175	0.016
-495.581	-95.973	0.272	-0.073
-494.566	-168.576	-0.180	0.007
-493.551	3.225	0.155	-0.113
-492.537	-200.000	-0.280	-0.001
-491.522	-0.212	0.167	0.120
-490.508	-78.298	0.315	-0.109
-489.493	104.845	-0.079	-0.094
-488.478	-200.000	0.035	-0.186
-487.464	117.016	0.303	0.375
-486.449	21.229	-0.349	0.285
-485.435	-152.036	-0.101	-0.007
-484.420	-200.000	0.053	0.236
-483.405	-160.746	-0.370	-0.020
-482.391	-31.317	0.082	0.046
-481.376	-33.292	0.432	0.240
-480.362	-53.304	0.329	0.152
-479.347	23.716	0.139	0.115
-478.332	-172.001	-0.503	-0.016
-477.318	800.000	-0.020	-0.086
-476.303	800.000	0.027	0.105
-475.289	21.468	-0.299	-0.245
-474.274	-39.549	-0.021	-0.011
-473.259	55.425	-0.079	-0.077
-472.245	10.604	0.326	0.250
-471.230	-125.078	-0.352	-0.054
-470.216	172.343	0.094	-0.136
-469.201	-200.000	-0.251	0.000
-468.186	-1.904	-0.369	-0.261
-467.172	-58.663	-0.195	0.085
-466.157	-15.502	-0.149	0.096
-465.143	-153.624	-0.195	-0.013
-464.128	-117.707	0.350	-0.063
-463.113	-171.434	0.049	-0.002
-462.099	-63.196	0.089	-0.037
-461.084	392.864	0.175	0.366
-460.070	-200.000	-0.049	-0.297
-459.055	304.476	-0.038	0.071
-458.040	800.000	0.103	0.322
-457.026	-200.000	-0.068	-0.327
-456.011	-54.640	-0.279	0.127
-454.997	800.000	-0.097	-0.330
-453.982	31.849	0.126	0.109
-452.968	239.830	0.209	-0.350
-451.953	-200.000	0.034	-0.273
-450.938	119.614	0.113	-0.141
-449.924	-117.987	0.117	-0.021
-448.909	-200.000	-0.002	0.026
-447.895	37.828	-0.110	0.098
-446.880	14.046	-0.108	-0.084
-445.865	95.045	0.162	-0.186
-444.851	-99.631	-0.322	-0.081
-443.836	106.060	0.212	0.253
-442.822	26.585	-0.395	0.332
-441.807	-200.000	-0.012	-0.081
-440.792	-122.079	0.459	-0.076
-439.778	247.086	0.180	-0.305
-438.763	583.318	-0.073	0.180
-437.749	-35.373	-0.204	-0.111
-436.734	-200.000	0.005	0.170
-435.719	656.860	-0.091	-0.236
-434.705	-121.449	-0.243	0.041
-433.690	114.818	0.173	-0.211
-432.676	299.233	-0.057	0.106
-431.661	541.317	-0.124	0.298
-430.646	472.821	0.051	0.114
-429.632	800.000	-0.095	0.289
-428.617	702.273	0.052	-0.138
-427.603	95.252	0.196	-0.224
-426.588	-136.835	0.153	0.018
-425.573	-200.000	0.015	0.255
-424.559	800.000	-0.025	-0.084
-423.544	240.607	-0.113	-0.190
-422.530	-85.366	0.107	-0.034
-421.515	-98.112	0.258	0.067
-420.500	-71.254	-0.243	-0.092
-419.486	-81.030	0.189	0.063
-418.471	-169.391	0.201	0.007
-417.457	110.337	0.121	-0.145
-416.442	800.000	-0.071	0.239
-415.428	-50.738	0.161	-0.076
-414.413	800.000	-0.115	-0.333
-413.398	452.293	0.077	0.170
-412.384	-14.955	-0.083	0.054
-411.369	590.713	0.092	0.228
-410.355	-200.000	0.011	-0.068
-409.340	126.859	0.030	0.038
-408.325	-147.870	0.159	-0.013
-407.311	800.000	0.096	-0.323
-406.296	-4.696	-0.259	-0.179
-405.282	-200.000	-0.047	0.225
-404.267	800.000	0.020	-0.060
-403.252	-158.792	-0.146	-0.008
-402.238	-75.453	-0.047	-0.017
-401.223	122.037	0.078	0.098
-400.209	-150.704	0.122	-0.009
-399.194	-200.000	0.058	0.262
-398.179	-87.158	0.055	-0.017
-397.165	50.163	0.103	0.098
-396.150	-69.113	0.056	0.022
-395.136	-13.397	-0.163	-0.106
-394.121	-18.314	0.090	-0.057
-393.106	402.945	0.050	0.106
-392.092	-200.000	-0.043	0.210
-391.077	-63.464	0.166	0.068
-390.063	71.892	-0.052	0.054
-389.048	-92.136	0.099	-0.028
-388.033	-56.684	0.287	-0.127
-387.019	-101.945	0.152	0.037
-386.004	208.891	-0.155	-0.243
-384.990	24.201	-0.101	-0.083
-383.975	-51.742	0.114	0.053
-382.960	800.000	0.042	0.123
-381.946	6.966	0.265	0.198
-380.931	581.479	0.067	0.164
-379.917	-200.000	0.074	0.381
-378.902	-125.589	0.305	-0.046
-377.888	79.657	0.169	0.182
-376.873	-200.000	-0.014	-0.227
-375.858	80.218	0.076	-0.082
-374.844	13.292	-0.294	0.228
-373.829	302.175	0.111	-0.205
-372.815	-200.000	-0.036	0.194
-371.800	-17.656	-0.103	0.065
-370.785	-200.000	-0.086	0.427
-369.771	622.727	0.016	0.040
-368.756	98.022	-0.104	-0.120
-367.742	-136.047	-0.043	0.005
-366.727	800.000	-0.072	0.221
-365.712	1.170	-0.351	0.252
-364.698	-76.304	-0.098	0.035
-363.683	91.876	0.033	-0.037
-362.669	-64.831	-0.173	0.070
-361.654	-200.000	0.047	-0.228
-360.639	-34.315	0.226	-0.124
-359.625	-115.301	-0.105	-0.020
-358.610	-200.000	0.011	0.158
-357.596	375.140	-0.123	0.252
-356.581	123.217	-0.036	0.045
-355.566	-114.394	-0.221	0.043
-354.552	-200.000	0.014	0.257
-353.537	-200.000	0.038	-0.236
-352.523	-200.000	0.065	-0.396
-351.508	800.000	-0.045	0.178
-350.493	16.082	0.064	-0.051
-349.479	335.830	-0.115	0.223
-348.464	-200.000	-0.003	-0.288
-347.450	190.400	0.054	0.081
-346.435	94.856	-0.152	0.173
-345.420	30.585	0.037	-0.032
-344.406	-18.559	-0.062	0.039
-343.391	34.554	-0.147	-0.129
-342.377	16.722	0.358	-0.283
-341.362	131.045	0.125	0.160
-340.348	-200.000	-0.196	-0.000
-339.333	20.166	-0.247	0.200
-338.318	-113.228	-0.142	-0.028
-337.304	83.010	0.148	0.161
-336.289	-76.183	-0.149	-0.053
-335.275	-200.000	-0.174	-0.000
-334.260	-134.511	-0.048	-0.006
-333.245	-200.000	-0.032	0.148
-332.231	56.462	-0.018	0.017
-331.216	-106.170	-0.407	0.091
-330.202	800.000	-0.100	0.352
-329.187	8.632	0.124	0.093
-328.172	-200.000	-0.014	-0.222
-327.158	-57.492	-0.281	0.123
-326.143	274.346	0.039	-0.069
-325.129	-62.043	-0.222	-0.093
-324.114	800.000	0.054	-0.153
-323.099	-48.355	0.114	0.055
-322.085	12.724	-0.088	0.068
-321.070	-138.654	-0.092	-0.010
-320.056	800.000	-0.048	0.139
-319.041	-200.000	0.039	0.190
-318.026	-25.419	-0.175	-0.103
-317.012	41.049	0.119	-0.107
-315.997	198.623	-0.169	-0.259
-314.983	175.127	-0.133	-0.192
-313.968	-17.293	0.224	0.141
-312.953	-123.476	-0.228	-0.036
-311.939	62.361	-0.145	-0.145
-310.924	-170.001	0.283	-0.010
-309.910	800.000	0.049	0.139
-308.895	-163.999	-0.153	-0.007
-307.880	213.159	0.129	0.203
-306.866	-53.353	-0.300	-0.138
-305.851	-8.142	0.177	-0.119
-304.837	692.277	-0.109	-0.286
-303.822	19.125	0.036	0.029
-302.807	800.000	0.012	-0.041
-301.793	79.580	-0.177	-0.189
-300.778	247.900	0.158	0.266
-299.764	-200.000	0.003	-0.039
-298.749	-200.000	-0.051	-0.300
-297.735	-30.543	0.163	-0.092
-296.720	-18.750	-0.221	-0.138
-295.705	-63.002	0.113	0.047
-294.691	34.912	-0.342	-0.299
-293.676	-64.105	0.245	-0.100
-292.662	-67.053	0.306	-0.121
-291.647	-200.000	0.001	0.049
-290.632	170.922	-0.097	0.138
-289.618	-200.000	-0.018	0.459
-288.603	-200.000	-0.014	0.360
-287.589	303.475	0.171	0.316
-286.574	-86.958	0.115	-0.035
-285.559	69.995	0.065	-0.067
-284.545	214.827	-0.039	-0.062
-283.530	-28.426	-0.285	0.164
-282.516	800.000	0.044	0.136
-281.501	-200.000	0.025	0.263
-280.486	-200.000	0.039	-0.366
-279.472	-200.000	0.046	-0.344
-278.457	123.951	0.114	-0.143
-277.443	-157.653	-0.066	0.004
-276.428	-22.861	-0.419	-0.252
-275.413	668.656	-0.187	-0.483
-274.399	-54.205	-0.207	-0.094
-273.384	-69.213	-0.226	0.087
-272.370	-128.412	-0.503	-0.071
-271.355	303.631	0.134	-0.248
-270.340	-11.014	-0.209	-0.137
-269.326	-114.052	0.238	0.046
-268.311	-114.612	0.380	0.073
-267.297	186.284	-0.091	0.136
-266.282	-26.503	0.474	0.277
-265.267	57.684	0.161	-0.157
-264.253	99.855	0.193	-0.223
-263.238	229.990	0.022	0.036
-262.224	-45.165	0.137	0.068
-261.209	-134.633	0.064	0.008
-260.195	-146.645	-0.022	-0.002
-259.180	-114.697	-0.284	-0.054
-258.165	-200.000	0.003	-0.115
-257.151	-107.507	0.121	-0.026
-256.136	5.949	0.053	0.039
-255.122	480.684	-0.071	0.161
-254.107	-147.043	0.358	-0.031
-253.092	51.684	-0.342	-0.324
-252.078	-14.198	0.341	0.219
-251.063	117.803	0.140	0.172
-250.049	74.060	-0.182	-0.190
-249.034	-94.032	0.189	0.052
-248.019	-200.000	0.088	0.563
-247.005	657.415	-0.132	0.338
-245.990	-91.476	0.215	0.061
-244.976	23.110	-0.277	-0.226
-243.961	-76.503	0.273	-0.096
-242.946	3.471	0.146	0.106
-241.932	800.000	0.012	0.051
-240.917	-42.477	0.311	-0.158
-239.903	-100.852	0.243	-0.059
-238.888	-200.000	-0.012	0.224
-237.873	242.203	-0.144	0.239
-236.859	143.081	-0.247	0.327
-235.844	-140.613	-0.108	0.011
-234.830	-53.236	-0.287	-0.131
-233.815	-200.000	-0.011	0.171
-232.800	129.673	-0.099	-0.126
-231.786	800.000	-0.108	-0.375
-230.771	327.107	0.127	-0.242
-229.757	800.000	0.076	0.312
-228.742	236.156	0.003	0.006
-227.727	15.370	0.149	0.117
-226.713	-0.897	0.238	0.168
-225.698	-149.031	-0.172	0.014
-224.684	-70.204	-0.239	-0.090
-223.669	-30.820	-0.136	0.077
-222.655	190.944	0.116	0.174
-221.640	541.215	0.069	-0.165
-220.625	43.062	0.144	0.131
-219.611	-200.000	0.021	-0.357
-218.596	-117.590	-0.104	0.019
-217.582	209.036	0.092	0.144
-216.567	-87.712	-0.094	0.028
-215.552	766.997	0.189	-0.513
-214.538	-200.000	0.021	-0.118
-213.523	-200.000	-0.052	-0.266
-212.509	509.339	0.079	-0.183
-211.494	-122.571	0.107	-0.017
-210.479	293.184	-0.014	-0.026
-209.465	-20.332	0.219	-0.134
-208.450	-150.716	-0.228	0.017
-207.436	2.623	0.269	-0.194
-206.421	-168.126	-0.305	0.012
-205.406	-200.000	0.036	-0.395
-204.392	-54.118	-0.135	-0.061
-203.377	66.868	0.091	0.092
-202.363	-30.270	0.025	-0.014
-201.348	-200.000	0.030	0.280
-200.333	-200.000	-0.027	0.123
-199.319	401.743	-0.103	0.216
-198.304	386.013	0.091	-0.187
-197.290	-200.000	0.048	0.313
-196.275	1.230	-0.163	0.117
-195.260	-40.026	-0.213	0.110
-194.246	800.000	0.044	-0.149
-193.231	154.390	0.165	0.226
-192.217	-200.000	0.000	-0.031
-191.202	185.459	0.193	0.285
-190.187	-130.448	-0.411	0.055
-189.173	69.667	0.174	0.178
-188.158	232.785	0.170	0.278
-187.144	648.983	0.075	-0.191
-186.129	307.478	0.041	0.076
-185.114	-92.997	0.191	-0.053
-184.100	35.536	0.165	-0.144
-183.085	800.000	-0.077	-0.234
-182.071	-93.452	-0.236	-0.065
-181.056	-200.000	-0.001	0.132
-180.042	55.588	0.136	0.131
-179.027	-139.105	0.164	-0.018
-178.012	-200.000	0.019	0.380
-176.998	134.302	0.250	-0.323
-175.983	524.551	0.088	0.206
-174.969	-152.248	-0.419	-0.030
-173.954	-132.119	0.209	-0.027
-172.939	-23.336	0.258	0.154
-171.925	336.887	-0.102	-0.198
-170.910	272.656	0.108	-0.189
-169.896	8.998	0.264	-0.198
-168.881	800.000	-0.053	-0.199
-167.866	-85.219	0.075	-0.023
-166.852	-200.000	-0.012	0.105
-165.837	-162.467	0.373	-0.018
-164.823	30.829	0.131	0.112
-163.808	-200.000	-0.059	-0.259
-162.793	-200.000	0.029	0.264
-161.779	239.781	-0.091	0.150
-160.764	-200.000	-0.008	-0.456
-159.750	-74.940	0.335	0.119
-158.735	800.000	0.052	-0.173
-157.720	800.000	0.069	0.283
-156.706	-119.158	0.134	-0.023
-155.691	-129.012	0.146	0.020
-154.677	-83.830	0.147	-0.046
-153.662	-89.120	-0.199	0.059
-152.647	-48.052	0.327	0.157
-151.633	-113.380	0.461	0.090
-150.618	243.753	-0.092	-0.153
-149.604	9.427	0.240	-0.180
-148.589	-193.432	-0.138	-0.001
-147.574	-200.000	0.007	0.223
-146.560	316.321	0.129	0.242
-145.545	37.560	-0.220	-0.193
-144.531	107.872	0.217	0.256
-143.516	800.000	0.010	0.036
-142.502	-75.795	0.220	0.078
-141.487	800.000	-0.127	0.449
-140.472	523.837	-0.086	0.200
-139.458	12.540	-0.191	0.147
-138.443	-200.000	-0.070	-0.335
-137.429	-200.000	0.004	-0.021
-136.414	-12.595	-0.382	0.247
-135.399	416.213	0.096	0.203
-134.385	261.207	-0.104	0.178
-133.370	-64.998	0.182	0.073
-132.356	294.879	-0.044	-0.079
-131.341	-200.000	0.007	0.042
-130.326	-200.000	-0.012	0.264
-129.312	-200.000	0.048	0.311
-128.297	800.000	-0.082	0.351
-127.283	485.504	0.014	0.031
-126.268	-200.000	0.022	0.285
-125.253	31.819	0.137	0.117
-124.239	-32.300	-0.087	0.048
-123.224	269.643	0.117	-0.204
-122.210	800.000	-0.024	0.068
-121.195	-200.000	0.039	0.287
