DTS Sentinel unit serial number:	SN413079Multiplexer serial number:	ORYXHardware model number:	OX4-SRSoftware version number:	ORYX F/W v4.00 Oryx Data Collector v3.7.2.0data status	okinstallation	princeton_trtdifferential loss correction	single-endedforward channel	channel 4reverse channel	N/Adate	2019/09/11time	19:47:10forward acquisition time	60.00reverse acquisition time	0.00gamma	496.2192k internal	0.2298k external	0.2298temperature offset calibration	1.0042default loss term (dB/km)	0.3790temperature slope calibration	1.0000multiplexer offset coefficient	1.0000multiplexer slope coefficient	1.0000fibre end	0.00T internal ref (°C)	39.45T ext. ref 1 (°C)	1.37T ext. ref 2 (°C)	32.28length (m)	temperature (°C)	Stokes	anti-Stokes-747.200	545.626	0.045	0.110
-746.185	-6.553	-0.318	0.221
-745.171	-115.347	0.333	0.064
-744.156	3.237	-0.362	0.269
-743.142	114.270	-0.090	0.111
-742.127	800.000	0.183	0.561
-741.112	164.769	0.196	0.282
-740.098	-200.000	0.000	0.368
-739.083	-22.724	-0.091	-0.056
-738.069	-168.956	-0.352	-0.013
-737.054	800.000	-0.033	-0.125
-736.039	800.000	0.103	0.349
-735.025	800.000	-0.119	0.457
-734.010	-111.216	-0.266	0.056
-732.996	800.000	-0.071	-0.300
-731.981	44.092	0.065	-0.060
-730.966	1.807	-0.241	0.177
-729.952	-157.390	0.159	-0.010
-728.937	475.001	0.174	0.400
-727.923	16.983	-0.258	0.209
-726.908	126.813	0.261	0.337
-725.894	15.704	0.024	-0.019
-724.879	-53.673	-0.499	-0.233
-723.864	98.825	-0.049	0.058
-722.850	-66.311	0.136	-0.055
-721.835	101.044	0.082	0.097
-720.821	239.247	-0.134	0.227
-719.806	-53.651	0.272	0.127
-718.791	-9.035	-0.255	-0.174
-717.777	45.326	-0.138	0.130
-716.762	367.782	-0.074	0.152
-715.748	800.000	0.047	-0.163
-714.733	192.685	-0.220	-0.339
-713.718	-127.885	-0.191	-0.028
-712.704	230.037	-0.132	0.221
-711.689	800.000	-0.112	0.368
-710.675	-127.006	0.407	-0.061
-709.660	91.946	-0.231	0.265
-708.645	196.079	0.069	-0.107
-707.631	53.426	-0.146	0.142
-706.616	133.201	0.101	-0.134
-705.602	-158.707	0.148	0.009
-704.587	-56.450	-0.164	-0.074
-703.572	-200.000	0.024	0.196
-702.558	800.000	0.043	0.124
-701.543	-42.283	0.165	-0.086
-700.529	-102.185	0.569	0.139
-699.514	43.675	-0.256	-0.239
-698.499	-200.000	-0.031	0.263
-697.485	-153.719	0.262	-0.018
-696.470	-5.668	-0.121	0.085
-695.456	-48.070	-0.195	0.096
-694.441	459.949	0.146	0.331
-693.426	-200.000	0.048	0.294
-692.412	-200.000	-0.011	0.278
-691.397	800.000	0.089	-0.263
-690.383	-166.965	-0.318	0.013
-689.368	-200.000	0.004	-0.088
-688.354	424.186	0.087	0.191
-687.339	800.000	0.079	-0.225
-686.324	-20.752	0.217	0.136
-685.310	111.730	-0.120	-0.147
-684.295	409.570	0.040	-0.087
-683.281	-113.807	0.263	0.052
-682.266	391.097	0.059	-0.125
-681.251	-200.000	-0.030	0.152
-680.237	561.560	-0.123	-0.304
-679.222	43.447	0.184	-0.172
-678.208	-20.497	-0.184	-0.115
-677.193	-111.080	-0.089	-0.019
-676.178	-191.861	0.142	-0.001
-675.164	-120.408	-0.110	0.019
-674.149	57.274	0.043	-0.043
-673.135	800.000	-0.038	-0.113
-672.120	-139.010	0.074	0.008
-671.105	61.479	0.094	-0.096
-670.091	-50.233	0.331	-0.159
-669.076	-78.796	-0.151	0.053
-668.062	-200.000	0.023	0.175
-667.047	-58.920	-0.357	0.157
-666.032	-200.000	-0.029	-0.199
-665.018	-136.061	-0.108	-0.013
-664.003	800.000	-0.021	-0.068
-662.989	-62.927	0.118	-0.050
-661.974	284.256	-0.195	0.358
-660.959	-69.415	-0.079	-0.031
-659.945	-42.767	-0.045	-0.023
-658.930	361.229	0.078	0.158
-657.916	-108.688	0.126	-0.028
-656.901	318.312	-0.025	0.048
-655.886	-171.574	0.262	0.009
-654.872	97.373	-0.212	0.248
-653.857	-36.884	-0.093	-0.051
-652.843	-191.970	-0.417	-0.004
-651.828	-200.000	0.011	-0.402
-650.814	-9.003	-0.054	-0.037
-649.799	-198.044	0.208	0.001
-648.784	-200.000	0.017	0.107
-647.770	-173.495	0.273	0.008
-646.755	-52.768	-0.272	0.128
-645.741	216.735	-0.273	0.443
-644.726	152.474	0.172	-0.239
-643.711	800.000	-0.009	-0.034
-642.697	299.229	-0.103	-0.193
-641.682	-77.621	-0.191	-0.067
-640.668	-153.966	-0.091	-0.006
-639.653	-167.067	0.152	0.006
-638.638	88.002	0.051	-0.058
-637.624	-200.000	0.020	-0.141
-636.609	225.359	-0.070	0.115
-635.595	-200.000	0.049	-0.363
-634.580	-63.889	0.152	-0.063
-633.565	-29.840	-0.101	0.058
-632.551	-5.348	0.215	0.150
-631.536	-141.392	0.150	0.015
-630.522	62.288	-0.223	0.227
-629.507	-99.430	-0.330	0.084
-628.492	239.458	0.149	-0.253
-627.478	-177.989	0.346	-0.008
-626.463	-91.148	-0.136	0.040
-625.449	260.160	-0.064	-0.113
-624.434	-168.969	0.112	-0.004
-623.419	-1.890	0.087	-0.062
-622.405	225.477	-0.068	0.112
-621.390	-163.543	-0.177	-0.009
-620.376	57.482	0.160	-0.159
-619.361	384.991	-0.166	0.348
-618.346	221.762	0.130	-0.213
-617.332	-200.000	0.015	-0.099
-616.317	64.992	-0.062	0.064
-615.303	359.950	0.193	0.392
-614.288	-142.426	-0.390	-0.039
-613.273	129.264	-0.096	-0.125
-612.259	422.768	-0.056	-0.122
-611.244	188.361	-0.060	-0.092
-610.230	-69.305	0.064	0.025
-609.215	65.558	-0.140	0.144
-608.201	800.000	-0.101	-0.407
-607.186	-66.792	0.139	0.056
-606.171	-17.664	0.288	-0.184
-605.157	98.080	-0.031	-0.036
-604.142	-80.983	-0.356	-0.120
-603.128	-200.000	0.015	-0.074
-602.113	-164.217	0.365	0.017
-601.098	-72.935	0.107	-0.040
-600.084	-42.168	0.061	0.032
-599.069	78.652	-0.132	-0.143
-598.055	-200.000	-0.020	-0.202
-597.040	203.237	0.254	-0.399
-596.025	727.191	-0.084	-0.229
-595.011	-107.546	0.250	-0.056
-593.996	800.000	-0.042	-0.181
-592.982	-108.659	-0.060	-0.013
-591.967	9.126	0.090	0.069
-590.952	-141.493	0.301	-0.031
-589.938	-160.537	0.314	-0.017
-588.923	-8.324	0.143	0.098
-587.909	-94.175	-0.108	0.030
-586.894	800.000	-0.067	-0.237
-585.879	-58.580	-0.220	-0.097
-584.865	-45.031	0.172	0.087
-583.850	-106.518	-0.254	0.057
-582.836	-168.406	-0.101	-0.004
-581.821	-55.968	-0.271	-0.123
-580.806	121.985	-0.128	-0.162
-579.792	800.000	-0.030	0.112
-578.777	156.532	-0.061	-0.085
-577.763	-9.807	0.050	-0.034
-576.748	-125.675	-0.315	0.048
-575.733	31.407	-0.254	-0.221
-574.719	2.947	-0.099	-0.073
-573.704	25.966	-0.103	-0.087
-572.690	574.489	-0.103	-0.254
-571.675	76.412	0.234	-0.252
-570.661	470.967	0.106	0.242
-569.646	451.539	-0.071	0.158
-568.631	291.087	0.036	0.067
-567.617	800.000	0.073	0.208
-566.602	57.757	-0.165	0.164
-565.588	-200.000	-0.028	0.140
-564.573	6.832	-0.269	0.203
-563.558	-93.205	-0.306	-0.086
-562.544	-200.000	0.056	0.360
-561.529	-41.776	-0.111	0.058
-560.515	763.810	-0.041	0.113
-559.500	-13.678	-0.224	0.147
-558.485	-7.519	-0.153	-0.105
-557.471	-147.871	0.064	-0.005
-556.456	800.000	-0.090	-0.298
-555.442	-178.760	0.159	-0.004
-554.427	-76.147	-0.076	0.027
-553.412	-200.000	0.051	0.337
-552.398	-200.000	-0.004	0.229
-551.383	-89.378	-0.094	0.028
-550.369	294.652	-0.100	0.184
-549.354	-57.679	-0.078	0.034
-548.339	800.000	-0.057	0.183
-547.325	606.569	-0.065	0.163
-546.310	-13.944	-0.130	0.085
-545.296	-37.371	0.205	-0.111
-544.281	800.000	-0.074	-0.300
-543.266	84.205	0.282	-0.312
-542.252	-86.074	-0.061	0.019
-541.237	48.888	0.159	-0.151
-540.223	-109.165	-0.365	-0.078
-539.208	-81.919	0.159	-0.053
-538.193	-10.516	-0.107	0.072
-537.179	798.832	0.061	0.171
-536.164	751.818	-0.077	0.211
-535.150	-200.000	0.004	-0.052
-534.135	-115.457	-0.219	0.042
-533.121	800.000	0.059	0.185
-532.106	-200.000	-0.035	0.163
-531.091	-136.280	0.143	-0.017
-530.077	-200.000	-0.004	-0.116
-529.062	-110.115	-0.326	0.069
-528.048	63.546	-0.293	-0.298
-527.033	800.000	-0.045	-0.148
-526.018	-86.546	-0.126	0.039
-525.004	-34.773	0.225	-0.125
-523.989	277.922	-0.149	0.269
-522.975	-123.248	-0.114	0.018
-521.960	-46.407	0.167	0.083
-520.945	-53.682	0.121	0.056
-519.931	-10.647	0.272	-0.182
-518.916	-200.000	0.018	-0.306
-517.902	-200.000	0.011	-0.252
-516.887	-200.000	0.009	-0.138
-515.872	-200.000	-0.028	-0.147
-514.858	-47.526	-0.307	-0.151
-513.843	89.240	0.130	-0.147
-512.829	800.000	-0.213	0.778
-511.814	460.447	0.150	0.339
-510.799	-52.057	-0.211	0.099
-509.785	-200.000	0.024	-0.364
-508.770	-200.000	0.005	0.209
-507.756	-31.796	0.072	0.041
-506.741	-104.338	0.226	-0.053
-505.726	214.194	0.035	0.056
-504.712	44.106	0.173	0.160
-503.697	-200.000	0.134	0.001
-502.683	-81.981	0.151	-0.050
-501.668	74.581	-0.086	-0.091
-500.653	800.000	0.032	0.111
-499.639	-100.109	-0.233	-0.059
-498.624	30.850	0.210	-0.182
-497.610	-200.000	0.010	-0.075
-496.595	800.000	-0.003	0.010
-495.581	379.275	-0.151	-0.313
-494.566	55.744	0.152	0.149
-493.551	-200.000	-0.001	0.222
-492.537	-103.079	0.126	-0.030
-491.522	-143.253	-0.341	-0.033
-490.508	191.806	-0.203	0.310
-489.493	-200.000	-0.006	0.084
-488.478	-200.000	0.016	-0.098
-487.464	-109.996	0.247	-0.052
-486.449	-77.621	0.152	-0.053
-485.435	225.805	0.112	0.183
-484.420	143.351	0.267	-0.360
-483.405	-200.000	0.061	0.544
-482.391	52.414	0.073	0.071
-481.376	800.000	0.092	-0.302
-480.362	800.000	-0.031	-0.121
-479.347	-109.368	-0.090	0.019
-478.332	-14.993	-0.218	0.141
-477.318	11.420	-0.121	-0.094
-476.303	34.118	-0.095	-0.084
-475.289	-97.004	-0.075	-0.020
-474.274	96.812	-0.317	0.367
-473.259	-200.000	-0.013	-0.245
-472.245	166.013	0.115	0.165
-471.230	-136.038	-0.164	-0.019
-470.216	-191.868	0.222	-0.002
-469.201	-200.000	-0.035	-0.455
-468.186	-37.598	-0.242	-0.130
-467.172	-200.000	-0.013	-0.080
-466.157	-200.000	-0.004	0.062
-465.143	-199.411	-0.181	0.001
-464.128	65.332	0.310	-0.317
-463.113	800.000	-0.067	-0.235
-462.099	9.049	-0.070	-0.053
-461.084	327.844	-0.049	-0.096
-460.070	-200.000	0.014	-0.302
-459.055	151.687	-0.119	-0.163
-458.040	174.689	-0.055	-0.081
-457.026	-200.000	-0.002	-0.050
-456.011	800.000	0.031	-0.096
-454.997	104.165	0.113	0.134
-453.982	99.490	-0.115	-0.135
-452.968	229.858	0.043	-0.071
-451.953	-200.000	-0.009	0.207
-450.938	-75.105	-0.070	-0.025
-449.924	-200.000	-0.058	0.322
-448.909	390.253	-0.166	-0.347
-447.895	2.105	-0.359	0.262
-446.880	-200.000	0.013	0.168
-445.865	667.451	-0.091	0.238
-444.851	32.750	-0.071	-0.062
-443.836	800.000	0.018	0.065
-442.822	-148.134	-0.207	-0.017
-441.807	-3.356	0.247	0.174
-440.792	800.000	-0.095	0.308
-439.778	133.201	-0.133	-0.173
-438.763	113.269	-0.146	-0.178
-437.749	9.523	-0.083	-0.064
-436.734	-116.294	0.153	-0.029
-435.719	-92.667	-0.136	-0.038
-434.705	-160.617	0.225	0.012
-433.690	800.000	-0.037	-0.162
-432.676	-150.247	-0.300	-0.023
-431.661	-56.504	-0.057	0.026
-430.646	-69.036	-0.116	-0.045
-429.632	239.987	-0.119	0.200
-428.617	289.879	0.123	0.224
-427.603	800.000	0.062	-0.257
-426.588	-200.000	0.011	0.228
-425.573	-16.135	0.341	0.218
-424.559	-57.569	0.156	0.069
-423.544	-4.825	-0.128	-0.089
-422.530	-105.430	-0.180	0.041
-421.515	48.218	0.242	0.228
-420.500	438.396	-0.170	-0.373
-419.486	-102.183	-0.149	0.036
-418.471	-67.557	0.218	0.086
-417.457	-50.034	-0.019	0.009
-416.442	-40.417	0.239	-0.125
-415.428	330.536	-0.065	-0.126
-414.413	45.301	0.092	-0.086
-413.398	250.337	0.068	-0.116
-412.384	321.497	0.129	0.248
-411.369	-156.013	0.202	0.013
-410.355	171.493	0.111	0.161
-409.340	-3.259	0.097	0.068
-408.325	41.056	-0.218	-0.198
-407.311	-101.149	-0.166	-0.041
-406.296	-12.258	0.195	-0.128
-405.282	-140.641	-0.054	0.006
-404.267	-77.677	0.087	0.030
-403.252	-59.769	-0.278	-0.120
-402.238	-47.980	0.055	0.027
-401.223	-28.193	0.384	0.223
-400.209	55.273	0.034	0.033
-399.194	18.895	-0.139	-0.112
-398.179	150.355	0.230	0.314
-397.165	-5.237	0.144	0.100
-396.150	-113.741	-0.114	0.022
-395.136	-200.000	-0.037	0.172
-394.121	-57.810	-0.158	-0.069
-393.106	-200.000	0.082	0.413
-392.092	1.118	-0.082	-0.060
-391.077	13.742	-0.129	-0.101
-390.063	-200.000	-0.011	-0.106
-389.048	362.014	0.116	0.235
-388.033	-92.186	0.339	-0.096
-387.019	21.294	-0.277	0.226
-386.004	-48.114	0.258	0.125
-384.990	229.629	0.132	0.217
-383.975	253.026	-0.092	0.158
-382.960	800.000	-0.138	0.431
-381.946	-200.000	0.005	0.074
-380.931	-60.553	-0.308	0.132
-379.917	-132.586	0.238	0.031
-378.902	-200.000	-0.012	-0.350
-377.888	-87.322	-0.099	0.030
-376.873	239.247	0.076	0.127
-375.858	6.404	0.322	-0.241
-374.844	-200.000	0.005	0.209
-373.829	800.000	0.022	-0.091
-372.815	-112.373	0.182	0.037
-371.800	10.366	-0.136	0.104
-370.785	-13.639	0.072	-0.047
-369.771	800.000	-0.004	0.017
-368.756	71.469	0.189	-0.198
-367.742	543.232	0.048	0.116
-366.727	-63.584	-0.353	0.146
-365.712	25.810	0.181	-0.152
-364.698	52.361	0.113	0.108
-363.683	800.000	-0.068	-0.280
-362.669	800.000	0.031	0.086
-361.654	-82.440	0.199	-0.065
-360.639	61.497	0.159	0.159
-359.625	190.262	-0.241	0.364
-358.610	-100.747	0.235	0.058
-357.596	247.629	0.093	-0.159
-356.581	-71.246	0.253	-0.096
-355.566	19.772	-0.295	-0.239
-354.552	800.000	-0.201	-0.573
-353.537	36.304	-0.094	-0.083
-352.523	22.414	-0.242	0.199
-351.508	-200.000	-0.000	0.228
-350.493	273.344	0.076	-0.134
-349.479	-200.000	0.012	0.265
-348.464	-90.757	0.226	-0.066
-347.450	92.585	0.183	0.208
-346.435	-18.750	0.102	-0.064
-345.420	38.979	-0.187	-0.168
-344.406	52.683	-0.308	0.295
-343.391	-200.000	0.001	0.299
-342.377	-170.520	-0.221	0.008
-341.362	800.000	-0.033	-0.116
-340.348	-138.889	0.255	0.028
-339.333	-25.572	0.136	-0.081
-338.318	-97.784	-0.438	0.114
-337.304	-103.471	0.141	0.033
-336.289	-15.058	-0.076	-0.049
-335.275	800.000	0.077	0.216
-334.260	-46.353	-0.389	0.192
-333.245	762.910	0.114	-0.312
-332.231	-200.000	-0.038	0.223
-331.216	547.474	-0.093	0.225
-330.202	-200.000	-0.019	0.095
-329.187	-8.650	0.075	0.051
-328.172	800.000	0.025	-0.096
-327.158	-62.502	-0.473	-0.198
-326.143	-130.021	0.299	-0.041
-325.129	115.968	0.267	-0.328
-324.114	-104.110	-0.362	0.085
-323.099	39.640	0.170	0.153
-322.085	-84.214	-0.239	0.076
-321.070	-101.646	0.252	0.061
-320.056	800.000	-0.085	-0.327
-319.041	-102.881	0.121	-0.029
-318.026	-40.079	-0.235	0.123
-317.012	-7.196	0.220	0.150
-315.997	-200.000	-0.041	0.313
-314.983	-25.710	0.230	0.136
-313.968	324.722	0.053	0.102
-312.953	-120.164	-0.166	-0.029
-311.939	94.906	-0.063	-0.072
-310.924	393.193	-0.049	-0.102
-309.910	-200.000	0.037	0.167
-308.895	-200.000	0.014	0.245
-307.880	800.000	0.120	0.378
-306.866	67.700	-0.219	0.224
-305.851	-37.361	-0.130	0.070
-304.837	43.955	0.193	0.178
-303.822	-67.758	-0.123	-0.048
-302.807	-163.555	-0.139	-0.007
-301.793	-6.068	0.035	-0.024
-300.778	33.654	0.215	0.187
-299.764	36.632	-0.121	0.107
-298.749	-114.615	-0.049	-0.009
-297.735	53.210	0.240	-0.231
-296.720	-200.000	-0.059	-0.361
-295.705	-102.686	0.243	-0.058
-294.691	115.775	-0.102	0.125
-293.676	800.000	0.049	0.155
-292.662	800.000	0.044	-0.166
-291.647	-39.669	0.427	-0.224
-290.632	-55.124	0.101	0.046
-289.618	1.041	0.242	0.174
-288.603	800.000	-0.026	-0.114
-287.589	-41.622	-0.208	0.107
-286.574	126.993	-0.089	-0.114
-285.559	-46.893	-0.203	-0.099
-284.545	146.976	0.165	-0.222
-283.530	226.553	0.049	-0.080
-282.516	-34.834	-0.365	0.200
-281.501	-93.409	0.545	0.152
-280.486	-64.886	-0.174	-0.070
-279.472	155.662	-0.197	-0.272
-278.457	695.705	-0.087	0.230
-277.443	-200.000	0.027	0.380
-276.428	-96.757	-0.188	0.050
-275.413	-127.315	-0.255	0.037
-274.399	414.298	0.107	0.228
-273.384	-144.755	-0.105	0.010
-272.370	277.642	0.109	-0.194
-271.355	170.651	-0.105	0.151
-270.340	-163.244	-0.301	-0.014
-269.326	-200.000	-0.010	-0.221
-268.311	800.000	-0.081	-0.257
-267.297	-38.473	-0.342	0.181
-266.282	-6.340	0.307	0.210
-265.267	25.538	-0.149	-0.124
-264.253	314.752	-0.195	-0.368
-263.238	226.991	-0.221	-0.360
-262.224	19.823	0.217	0.175
-261.209	60.792	-0.010	-0.010
-260.195	-41.859	0.149	0.077
-259.180	34.989	0.226	-0.198
-258.165	-200.000	-0.020	-0.225
-257.151	800.000	-0.089	-0.335
-256.136	800.000	-0.069	0.273
-255.122	35.653	-0.072	-0.064
-254.107	-150.030	-0.132	0.010
-253.092	-200.000	0.002	0.087
-252.078	-99.833	-0.038	-0.009
-251.063	-200.000	-0.045	-0.503
-250.049	-200.000	0.007	0.205
-249.034	-33.648	-0.320	0.177
-248.019	800.000	-0.046	0.151
-247.005	58.750	0.069	0.068
-245.990	184.854	-0.160	-0.238
-244.976	-200.000	-0.027	-0.152
-243.961	-134.711	0.307	0.037
-242.946	-200.000	0.003	-0.055
-241.932	-65.685	0.109	0.044
-240.917	-99.445	0.115	-0.029
-239.903	425.439	0.033	-0.071
-238.888	-200.000	-0.006	-0.219
-237.873	88.628	0.317	-0.353
-236.859	-53.365	0.203	-0.093
-235.844	-5.595	-0.175	0.120
-234.830	800.000	0.106	0.411
-233.815	800.000	-0.051	0.173
-232.800	315.350	-0.018	-0.034
-231.786	359.501	-0.030	-0.060
-230.771	-200.000	0.017	-0.108
-229.757	3.010	0.256	0.186
-228.742	102.112	-0.049	0.058
-227.727	-200.000	0.020	-0.147
-226.713	-200.000	-0.038	0.256
-225.698	-200.000	-0.007	0.202
-224.684	-152.142	0.281	-0.020
-223.669	-131.137	0.051	0.007
-222.655	433.582	-0.020	0.043
-221.640	-175.585	0.107	-0.003
-220.625	-200.000	0.060	-0.335
-219.611	153.556	-0.084	-0.115
-218.596	-200.000	0.028	-0.130
-217.582	800.000	0.089	-0.254
-216.567	-128.635	-0.346	0.049
-215.552	2.015	0.175	0.126
-214.538	800.000	-0.131	-0.387
-213.523	-14.723	-0.126	0.081
-212.509	-61.903	0.140	-0.059
-211.494	357.271	0.085	0.169
-210.479	-22.602	-0.202	0.122
-209.465	800.000	-0.097	-0.318
-208.450	44.690	-0.091	-0.084
-207.436	-67.976	0.197	0.077
-206.421	21.454	0.419	0.340
-205.406	175.312	-0.077	0.111
-204.392	33.745	0.218	-0.190
-203.377	800.000	0.057	0.189
-202.363	306.818	0.045	0.084
-201.348	495.235	-0.031	0.070
-200.333	-83.500	-0.081	-0.026
-199.319	29.242	0.273	0.232
-198.304	-200.000	0.032	-0.281
-197.290	-200.000	-0.008	-0.050
-196.275	-97.367	0.175	-0.045
-195.260	278.657	-0.073	0.130
-194.246	49.435	0.246	-0.231
-193.231	-42.255	0.160	0.081
-192.217	-200.000	-0.037	-0.427
-191.202	-149.249	0.296	0.024
-190.187	713.470	0.051	-0.135
-189.173	81.536	0.212	0.229
-188.158	193.495	0.259	-0.392
-187.144	591.964	-0.109	-0.269
-186.129	-21.104	0.177	-0.108
-185.114	-10.662	-0.198	0.131
-184.100	61.996	-0.259	-0.258
-183.085	139.984	-0.388	0.511
-182.071	-137.359	0.583	-0.066
-181.056	9.862	0.274	0.207
-180.042	-97.728	0.165	0.043
-179.027	-33.405	0.273	0.151
-178.012	294.011	-0.024	-0.044
-176.998	191.716	-0.050	-0.076
-175.983	123.747	0.159	0.199
-174.969	-200.000	0.054	-0.253
-173.954	-200.000	0.045	0.471
-172.939	-165.226	-0.291	0.013
-171.925	48.283	0.196	-0.183
-170.910	43.586	0.177	-0.162
-169.896	12.252	0.161	0.124
-168.881	422.075	0.163	-0.349
-167.866	194.856	0.085	0.128
-166.852	520.908	0.105	-0.246
-165.837	2.121	-0.120	-0.086
-164.823	-31.214	0.177	0.100
-163.808	-200.000	0.062	-0.282
-162.793	-200.000	-0.011	0.106
-161.779	97.112	-0.157	0.179
-160.764	-192.838	0.040	0.000
-159.750	86.405	-0.153	0.168
-158.735	-93.296	0.138	0.038
-157.720	-67.155	0.024	-0.010
-156.706	-46.122	-0.549	-0.270
-155.691	529.937	-0.065	-0.152
-154.677	-86.910	-0.188	-0.057
-153.662	408.235	-0.104	0.220
-152.647	-200.000	-0.001	-0.021
-151.633	132.312	0.238	0.307
-150.618	-200.000	0.023	-0.182
-149.604	800.000	0.013	0.046
-148.589	68.540	-0.161	-0.165
-147.574	-200.000	0.005	-0.232
-146.560	227.502	-0.049	0.079
-145.545	-16.135	-0.251	0.159
-144.531	800.000	-0.078	-0.248
-143.516	-65.730	-0.133	0.053
-142.502	-200.000	0.008	-0.068
-141.487	-37.336	-0.229	0.122
-140.472	74.043	-0.140	0.146
-139.458	-200.000	-0.048	-0.301
-138.443	79.283	-0.058	0.062
-137.429	-88.699	0.199	0.059
-136.414	124.330	-0.139	0.174
-135.399	-61.415	-0.101	0.042
-134.385	800.000	-0.052	-0.156
-133.370	-200.000	0.007	0.043
-132.356	-81.711	-0.080	0.026
-131.341	-39.293	-0.322	0.169
-130.326	-39.348	-0.188	-0.099
-129.312	-200.000	-0.013	-0.253
-128.297	-74.241	0.097	-0.035
-127.283	800.000	-0.062	-0.225
-126.268	223.530	-0.054	-0.087
-125.253	163.974	-0.056	-0.079
-124.239	-30.218	0.196	-0.111
-123.224	-162.624	0.129	-0.006
-122.210	-79.765	-0.219	0.074
-121.195	39.466	-0.103	-0.092
