DTS Sentinel unit serial number:	SN413079Multiplexer serial number:	ORYXHardware model number:	OX4-SRSoftware version number:	ORYX F/W v4.00 Oryx Data Collector v3.7.2.0data status	okinstallation	princeton_trtdifferential loss correction	single-endedforward channel	channel 4reverse channel	N/Adate	2019/09/12time	02:51:10forward acquisition time	60.00reverse acquisition time	0.00gamma	496.2192k internal	0.2309k external	0.2309temperature offset calibration	1.0092default loss term (dB/km)	0.3790temperature slope calibration	1.0000multiplexer offset coefficient	1.0000multiplexer slope coefficient	1.0000fibre end	0.00T internal ref (°C)	32.31T ext. ref 1 (°C)	2.11T ext. ref 2 (°C)	27.07length (m)	temperature (°C)	Stokes	anti-Stokes-747.200	46.416	-0.245	0.231
-746.185	11.231	-0.119	0.093
-745.171	800.000	-0.043	0.173
-744.156	51.147	-0.074	0.072
-743.142	-17.485	-0.072	-0.046
-742.127	73.643	-0.062	0.066
-741.112	-58.610	-0.311	-0.137
-740.098	-152.521	0.072	0.005
-739.083	-20.814	-0.214	-0.133
-738.069	107.929	-0.172	0.208
-737.054	270.927	0.069	0.124
-736.039	476.035	-0.120	-0.276
-735.025	800.000	-0.073	0.249
-734.010	-200.000	0.024	-0.302
-732.996	-32.058	-0.122	0.069
-731.981	-144.558	-0.230	-0.022
-730.966	-152.460	-0.295	0.022
-729.952	87.321	-0.225	0.252
-728.937	-125.239	-0.241	0.038
-727.923	619.596	0.128	-0.326
-726.908	267.972	-0.189	-0.336
-725.894	800.000	-0.016	-0.047
-724.879	-20.596	-0.186	0.116
-723.864	800.000	-0.100	-0.399
-722.850	800.000	0.070	-0.235
-721.835	206.638	0.089	-0.141
-720.821	-23.482	-0.104	0.063
-719.806	-50.241	0.214	0.103
-718.791	38.913	0.091	0.082
-717.777	148.680	0.172	-0.236
-716.762	226.487	-0.102	0.168
-715.748	309.836	-0.139	0.263
-714.733	-78.473	-0.250	0.087
-713.718	370.793	0.094	-0.194
-712.704	-31.668	0.080	0.046
-711.689	167.649	0.214	0.309
-710.675	152.223	-0.082	-0.114
-709.660	-67.072	0.311	0.124
-708.645	-70.467	-0.380	-0.146
-707.631	-68.477	-0.183	0.072
-706.616	-35.117	-0.201	0.111
-705.602	-145.269	0.149	-0.014
-704.587	35.464	0.136	-0.121
-703.572	272.762	0.176	-0.314
-702.558	-69.064	0.266	0.104
-701.543	-200.000	0.009	-0.372
-700.529	-55.763	-0.168	0.076
-699.514	-91.957	0.385	-0.111
-698.499	-72.256	-0.116	0.044
-697.485	-127.503	-0.141	-0.021
-696.470	-108.981	0.292	-0.063
-695.456	800.000	-0.107	0.314
-694.441	-60.861	0.129	0.055
-693.426	452.567	0.115	-0.258
-692.412	-131.665	-0.008	-0.001
-691.397	50.518	0.065	0.062
-690.383	-82.113	0.222	-0.073
-689.368	150.834	-0.112	0.154
-688.354	-93.853	-0.138	0.039
-687.339	-155.845	0.240	0.015
-686.324	-200.000	-0.002	-0.242
-685.310	-69.623	0.177	0.069
-684.295	40.562	0.142	0.130
-683.281	-100.498	-0.162	0.041
-682.266	-90.425	-0.074	-0.022
-681.251	250.533	0.051	0.087
-680.237	383.193	0.026	0.054
-679.222	-200.000	-0.016	-0.173
-678.208	800.000	0.051	-0.156
-677.193	-103.541	-0.184	-0.044
-676.178	263.394	0.138	-0.244
-675.164	800.000	0.094	0.280
-674.149	130.875	-0.245	0.319
-673.135	283.786	0.206	-0.376
-672.120	800.000	-0.025	-0.076
-671.105	394.725	0.013	0.027
-670.091	800.000	-0.015	-0.063
-669.076	-131.608	-0.262	-0.035
-668.062	-99.272	-0.196	-0.050
-667.047	56.280	-0.208	0.205
-666.032	-200.000	-0.031	0.217
-665.018	-99.215	0.225	-0.058
-664.003	167.864	0.100	0.144
-662.989	118.055	-0.178	0.223
-661.974	-9.128	0.089	-0.060
-660.959	-23.111	-0.170	0.103
-659.945	-16.391	-0.118	0.076
-658.930	206.536	0.070	-0.110
-657.916	399.925	-0.091	0.192
-656.901	800.000	-0.068	0.248
-655.886	233.666	0.029	0.049
-654.872	267.789	-0.226	0.401
-653.857	73.990	0.145	-0.154
-652.843	160.476	0.241	-0.341
-651.828	318.841	0.127	0.245
-650.814	800.000	0.066	0.259
-649.799	-81.966	-0.328	0.109
-648.784	-96.489	-0.419	-0.112
-647.770	-54.692	-0.098	0.045
-646.755	-132.087	0.203	-0.027
-645.741	-76.168	0.291	0.104
-644.726	-8.408	0.141	-0.096
-643.711	-35.958	-0.193	0.105
-642.697	-110.193	-0.322	0.068
-641.682	281.272	0.270	0.490
-640.668	264.396	0.051	-0.090
-639.653	250.358	-0.084	-0.144
-638.638	-183.519	-0.098	0.002
-637.624	-200.000	-0.019	0.369
-636.609	270.514	-0.293	0.522
-635.595	-73.588	0.345	0.127
-634.580	-65.224	0.095	-0.039
-633.565	-83.367	-0.088	0.028
-632.551	12.832	0.029	0.023
-631.536	-116.141	0.186	-0.035
-630.522	127.391	0.105	0.135
-629.507	-200.000	-0.085	0.400
-628.492	-200.000	0.000	-0.228
-627.478	-13.480	-0.266	-0.174
-626.463	-127.849	0.126	-0.018
-625.449	59.512	-0.365	-0.364
-624.434	-103.080	-0.147	0.035
-623.419	-55.666	0.115	0.052
-622.405	-60.489	0.337	0.145
-621.390	-200.000	0.027	-0.239
-620.376	-151.010	0.316	-0.024
-619.361	149.225	-0.109	0.149
-618.346	-58.553	0.207	0.091
-617.332	394.151	-0.096	-0.203
-616.317	300.081	0.061	-0.115
-615.303	-165.671	-0.312	0.014
-614.288	-98.946	-0.292	-0.075
-613.273	-200.000	-0.019	0.246
-612.259	-95.603	-0.142	-0.038
-611.244	-128.231	0.434	0.063
-610.230	-132.325	-0.264	-0.034
-609.215	-61.875	0.138	-0.058
-608.201	197.272	0.066	0.103
-607.186	-200.000	0.001	0.177
-606.171	108.209	0.144	0.173
-605.157	209.275	-0.029	0.046
-604.142	800.000	-0.153	-0.501
-603.128	800.000	0.072	-0.216
-602.113	-36.646	-0.328	-0.178
-601.098	119.978	-0.138	0.173
-600.084	-200.000	-0.004	0.128
-599.069	123.483	0.112	-0.142
-598.055	395.575	0.108	-0.228
-597.040	-29.202	0.267	0.154
-596.025	485.185	-0.192	-0.441
-595.011	133.643	-0.220	-0.288
-593.996	-128.759	0.167	0.024
-592.982	-131.115	0.116	-0.016
-591.967	-28.284	0.225	0.131
-590.952	204.828	-0.150	0.236
-589.938	-72.049	-0.192	-0.072
-588.923	-140.768	-0.034	0.004
-587.909	340.418	-0.080	0.159
-586.894	-200.000	0.031	-0.184
-585.879	-114.742	-0.288	-0.056
-584.865	-85.398	0.078	-0.025
-583.850	-95.876	-0.171	-0.046
-582.836	-87.861	0.310	-0.094
-581.821	58.408	0.169	0.168
-580.806	-67.531	0.161	-0.064
-579.792	-64.609	-0.300	0.123
-578.777	321.448	0.106	0.203
-577.763	193.790	0.162	0.247
-576.748	95.329	-0.060	0.069
-575.733	-173.321	-0.109	0.003
-574.719	67.263	0.050	0.052
-573.704	145.605	-0.240	-0.324
-572.690	53.107	-0.273	0.264
-571.675	27.417	-0.193	-0.164
-570.661	800.000	-0.084	-0.322
-569.646	-200.000	-0.003	0.029
-568.631	-106.574	0.098	0.022
-567.617	-145.819	-0.101	-0.009
-566.602	325.421	-0.123	-0.237
-565.588	221.832	-0.084	-0.136
-564.573	-113.716	0.239	-0.047
-563.558	-123.303	-0.099	-0.016
-562.544	800.000	-0.071	-0.303
-561.529	-176.190	-0.171	0.005
-560.515	-89.315	-0.401	0.119
-559.500	-200.000	-0.018	0.111
-558.485	-200.000	-0.038	-0.211
-557.471	-70.229	0.302	-0.116
-556.456	144.754	-0.170	-0.230
-555.442	-57.271	0.129	0.057
-554.427	55.897	0.123	-0.121
-553.412	-154.117	-0.302	-0.021
-552.398	800.000	0.068	-0.203
-551.383	-135.936	0.339	-0.040
-550.369	293.768	-0.188	-0.346
-549.354	-136.219	0.072	-0.009
-548.339	800.000	0.110	0.343
-547.325	67.864	0.029	-0.030
-546.310	-130.357	-0.127	0.017
-545.296	-80.923	0.013	0.004
-544.281	-14.100	0.277	-0.180
-543.266	477.164	-0.056	-0.127
-542.252	-72.832	0.380	0.141
-541.237	-10.348	-0.110	-0.074
-540.223	-81.041	-0.315	0.105
-539.208	98.035	0.323	-0.375
-538.193	-104.863	0.047	-0.011
-537.179	-156.935	-0.104	-0.006
-536.164	-18.716	-0.227	-0.143
-535.150	41.648	-0.135	0.123
-534.135	389.057	0.119	-0.248
-533.121	-200.000	0.038	0.301
-532.106	228.571	-0.062	0.102
-531.091	-161.055	0.105	0.006
-530.077	-23.008	0.017	0.011
-529.062	-74.099	-0.315	0.115
-528.048	-155.718	-0.200	-0.013
-527.033	-162.028	-0.267	-0.014
-526.018	127.824	0.091	-0.117
-525.004	49.339	0.096	0.091
-523.989	-200.000	0.096	-0.473
-522.975	736.623	-0.136	-0.367
-521.960	106.512	0.046	-0.055
-520.945	-42.460	-0.068	0.035
-519.931	-200.000	-0.014	-0.064
-518.916	44.453	0.083	-0.077
-517.902	-200.000	0.017	-0.166
-516.887	-90.693	-0.304	-0.088
-515.872	800.000	0.028	0.107
-514.858	-200.000	-0.023	-0.204
-513.843	74.234	0.069	-0.073
-512.829	-200.000	-0.040	0.257
-511.814	-78.788	-0.185	-0.063
-510.799	-107.532	-0.156	0.034
-509.785	800.000	-0.101	-0.308
-508.770	-29.218	0.041	-0.024
-507.756	-151.873	-0.267	-0.020
-506.741	-74.244	-0.349	-0.127
-505.726	-40.472	0.147	0.077
-504.712	-49.586	-0.088	-0.042
-503.697	-150.626	-0.145	-0.011
-502.683	800.000	-0.063	0.233
-501.668	75.235	-0.053	0.057
-500.653	-200.000	-0.005	-0.221
-499.639	335.153	0.093	0.181
-498.624	-200.000	-0.037	0.202
-497.610	241.498	0.130	-0.218
-496.595	-133.268	0.168	0.021
-495.581	284.616	-0.144	-0.260
-494.566	-200.000	-0.005	-0.137
-493.551	-134.460	0.216	0.027
-492.537	-200.000	0.066	0.335
-491.522	77.271	0.155	-0.166
-490.508	-200.000	-0.048	0.375
-489.493	-22.540	0.211	0.128
-488.478	-200.000	0.002	-0.073
-487.464	27.544	0.177	0.150
-486.449	108.357	0.140	-0.168
-485.435	-200.000	0.019	-0.199
-484.420	-140.691	0.155	-0.016
-483.405	-181.781	-0.084	-0.002
-482.391	-200.000	0.031	-0.180
-481.376	-31.919	0.193	-0.109
-480.362	231.095	0.130	-0.215
-479.347	-142.785	-0.226	0.022
-478.332	800.000	0.082	-0.249
-477.318	54.490	-0.077	-0.074
-476.303	427.039	-0.056	0.120
-475.289	800.000	0.066	-0.264
-474.274	-49.341	0.447	-0.214
-473.259	-200.000	0.006	0.119
-472.245	-90.849	-0.222	-0.064
-471.230	-111.645	0.287	-0.059
-470.216	-122.806	-0.083	0.013
-469.201	34.598	-0.345	0.303
-468.186	-9.744	0.172	0.115
-467.172	614.490	0.112	-0.283
-466.157	76.690	-0.322	0.343
-465.143	800.000	-0.093	0.317
-464.128	226.473	-0.047	-0.077
-463.113	510.100	0.119	0.278
-462.099	-122.029	-0.425	-0.070
-461.084	26.524	0.085	0.071
-460.070	800.000	0.037	0.146
-459.055	61.643	0.057	0.057
-458.040	-200.000	0.010	0.160
-457.026	-200.000	-0.061	-0.397
-456.011	-200.000	-0.007	0.284
-454.997	-200.000	0.031	-0.395
-453.982	800.000	-0.063	-0.191
-452.968	-200.000	0.005	-0.049
-451.953	-65.551	0.313	0.126
-450.938	152.493	0.145	0.199
-449.924	52.643	0.165	-0.158
-448.909	-114.894	0.197	-0.038
-447.895	-98.306	0.187	-0.048
-446.880	-154.561	-0.113	0.008
-445.865	-60.032	-0.168	-0.072
-444.851	-200.000	-0.008	0.192
-443.836	-13.828	-0.110	0.071
-442.822	37.477	0.256	-0.228
-441.807	-200.000	0.086	-0.408
-440.792	-200.000	-0.039	0.187
-439.778	800.000	-0.082	0.264
-438.763	-21.056	0.256	0.157
-437.749	39.291	0.379	0.341
-436.734	119.119	0.220	0.274
-435.719	16.713	0.276	0.219
-434.705	-200.000	0.016	0.166
-433.690	-200.000	0.075	0.332
-432.676	-200.000	0.008	0.081
-431.661	-105.412	-0.248	0.057
-430.646	-177.407	0.175	0.004
-429.632	154.651	-0.106	0.146
-428.617	78.946	-0.201	-0.216
-427.603	-200.000	-0.031	0.610
-426.588	-17.980	0.364	-0.229
-425.573	-192.050	0.116	0.001
-424.559	62.331	-0.161	-0.161
-423.544	720.665	0.032	-0.086
-422.530	-112.438	-0.147	-0.029
-421.515	29.303	-0.242	-0.206
-420.500	21.990	-0.051	-0.042
-419.486	800.000	-0.031	0.099
-418.471	241.721	0.085	-0.143
-417.457	-200.000	0.016	0.100
-416.442	214.143	0.043	0.069
-415.428	116.696	-0.245	-0.301
-414.413	-200.000	-0.003	-0.097
-413.398	9.953	0.121	0.092
-412.384	800.000	-0.055	0.183
-411.369	-123.489	-0.224	0.036
-410.355	-127.349	0.266	0.039
-409.340	-149.972	-0.230	-0.018
-408.325	96.033	-0.152	0.174
-407.311	-134.022	-0.091	0.011
-406.296	518.658	-0.075	-0.175
-405.282	-25.098	-0.223	-0.133
-404.267	305.764	-0.176	0.328
-403.252	10.631	0.327	0.250
-402.238	608.873	-0.058	0.146
-401.223	41.892	-0.051	-0.046
-400.209	-189.523	-0.101	-0.001
-399.194	182.578	-0.107	-0.158
-398.179	-129.865	-0.297	-0.041
-397.165	-200.000	-0.038	-0.399
-396.150	-200.000	0.001	-0.067
-395.136	424.411	-0.180	-0.389
-394.121	-103.032	-0.192	-0.046
-393.106	-71.213	0.278	0.105
-392.092	-23.984	-0.072	0.043
-391.077	-189.886	-0.254	-0.003
-390.063	-200.000	0.037	0.342
-389.048	-69.784	-0.352	0.135
-388.033	-1.671	0.039	0.028
-387.019	-200.000	0.040	-0.316
-386.004	-13.632	-0.226	0.146
-384.990	3.922	-0.179	0.131
-383.975	261.136	-0.084	0.145
-382.960	72.391	0.121	-0.126
-381.946	131.214	-0.059	0.076
-380.931	-167.868	0.118	-0.005
-379.917	-140.773	-0.122	0.013
-378.902	-152.985	-0.228	-0.016
-377.888	-43.867	-0.298	0.150
-376.873	-116.910	-0.149	-0.027
-375.858	66.627	-0.412	0.419
-374.844	104.747	0.077	-0.091
-373.829	-111.344	-0.160	-0.033
-372.815	184.608	0.119	-0.176
-371.800	122.365	-0.103	-0.129
-370.785	196.065	0.102	-0.155
-369.771	-200.000	-0.006	0.271
-368.756	-150.122	0.108	-0.008
-367.742	-99.303	0.549	-0.139
-366.727	206.352	-0.094	-0.146
-365.712	-200.000	0.046	0.213
-364.698	-200.000	-0.012	0.095
-363.683	0.293	0.130	0.093
-362.669	697.407	-0.116	0.304
-361.654	-132.057	0.150	-0.020
-360.639	94.913	0.018	0.021
-359.625	44.499	-0.205	0.188
-358.610	-69.606	-0.156	-0.060
-357.596	-0.675	0.059	-0.042
-356.581	174.745	0.095	-0.137
-355.566	-156.810	0.133	0.008
-354.552	119.548	-0.043	-0.053
-353.537	800.000	0.030	0.111
-352.523	-20.537	0.281	0.173
-351.508	717.036	-0.107	0.285
-350.493	-27.030	-0.152	0.089
-349.479	-200.000	0.003	0.135
-348.464	-91.248	0.279	-0.080
-347.450	-95.709	0.212	0.057
-346.435	-125.742	-0.154	-0.023
-345.420	97.453	-0.292	-0.336
-344.406	-200.000	-0.020	-0.382
-343.391	165.684	0.109	-0.154
-342.377	-105.603	0.074	-0.017
-341.362	-200.000	-0.028	0.238
-340.348	800.000	-0.035	0.099
-339.333	641.926	-0.136	-0.346
-338.318	190.984	0.082	0.124
-337.304	172.900	-0.331	0.478
-336.289	-138.776	0.186	0.020
-335.275	55.736	0.235	0.228
-334.260	85.380	-0.230	-0.253
-333.245	-70.794	0.200	-0.075
-332.231	-200.000	-0.009	0.174
-331.216	173.353	0.281	-0.405
-330.202	235.253	-0.176	-0.290
-329.187	-49.532	-0.321	0.153
-328.172	18.176	0.294	0.234
-327.158	-200.000	-0.079	0.383
-326.143	-200.000	0.056	0.395
-325.129	800.000	-0.043	-0.121
-324.114	136.394	-0.059	-0.077
-323.099	3.764	-0.136	-0.099
-322.085	6.821	-0.070	-0.052
-321.070	284.114	-0.146	-0.263
-320.056	-119.824	-0.281	-0.048
-319.041	736.699	0.034	-0.092
-318.026	800.000	-0.059	-0.232
-317.012	497.478	-0.094	0.215
-315.997	451.572	0.058	-0.127
-314.983	142.248	0.135	-0.179
-313.968	-200.000	0.004	0.061
-312.953	507.061	0.025	0.058
-311.939	78.472	0.062	0.066
-310.924	-200.000	-0.007	0.223
-309.910	269.466	0.029	-0.050
-308.895	-67.109	0.207	-0.082
-307.880	32.519	0.079	-0.068
-306.866	-200.000	0.013	-0.149
-305.851	-172.193	0.229	0.007
-304.837	-33.105	-0.245	0.136
-303.822	800.000	0.107	0.311
-302.807	12.731	-0.135	-0.104
-301.793	356.084	-0.022	0.044
-300.778	-4.064	-0.041	0.029
-299.764	99.243	0.142	-0.164
-298.749	-200.000	0.201	0.000
-297.735	-86.997	0.242	-0.074
-296.720	40.140	0.032	-0.029
-295.705	664.278	-0.011	0.027
-294.691	-94.335	0.422	0.115
-293.676	-184.265	0.499	-0.008
-292.662	-200.000	0.005	0.144
-291.647	69.522	-0.375	-0.385
-290.632	-18.861	0.082	-0.051
-289.618	-149.814	-0.232	-0.018
-288.603	79.658	0.118	0.127
-287.589	-39.660	0.039	0.020
-286.574	-144.041	0.174	0.016
-285.559	780.783	0.129	0.352
-284.545	-65.419	0.082	0.033
-283.530	118.996	0.097	0.120
-282.516	19.594	-0.319	-0.256
-281.501	800.000	0.037	-0.105
-280.486	-200.000	-0.025	-0.249
-279.472	95.985	0.176	0.201
-278.457	780.567	-0.041	-0.111
-277.443	159.092	-0.354	-0.491
-276.428	800.000	-0.094	-0.270
-275.413	-95.405	0.259	0.069
-274.399	800.000	0.081	-0.252
-273.384	49.267	0.100	0.094
-272.370	-124.309	0.223	0.035
-271.355	800.000	-0.038	0.158
-270.340	-144.518	-0.145	0.013
-269.326	-200.000	-0.023	-0.134
-268.311	-159.284	-0.339	-0.019
-267.297	-200.000	-0.037	0.252
-266.282	-32.732	0.078	-0.043
-265.267	-200.000	0.002	-0.280
-264.253	142.002	-0.187	0.247
-263.238	-200.000	-0.027	-0.345
-262.224	800.000	-0.073	-0.206
-261.209	-50.878	-0.139	-0.065
-260.195	106.269	-0.050	0.059
-259.180	-83.339	0.021	0.007
-258.165	-200.000	-0.001	-0.037
-257.151	-14.907	0.363	0.232
-256.136	-51.772	-0.311	0.145
-255.122	-200.000	-0.325	0.001
-254.107	281.859	-0.160	0.285
-253.092	89.191	-0.102	0.113
-252.078	-46.981	0.170	-0.083
-251.063	88.902	0.065	0.073
-250.049	380.642	0.066	-0.135
-249.034	-200.000	0.049	0.391
-248.019	-200.000	-0.250	0.001
-247.005	-104.281	0.400	0.093
-245.990	-68.102	-0.147	-0.057
-244.976	-10.361	-0.047	0.031
-243.961	-155.390	0.198	0.013
-242.946	45.057	-0.331	-0.304
-241.932	-124.356	0.304	0.047
-240.917	-182.963	0.287	-0.005
-239.903	-39.727	0.213	0.111
-238.888	6.776	-0.262	0.194
-237.873	800.000	0.117	-0.490
-236.859	-200.000	0.022	0.179
-235.844	-78.812	0.158	0.054
-234.830	-19.695	0.047	0.029
-233.815	33.763	-0.224	-0.194
-232.800	-72.447	0.623	0.229
-231.786	-125.732	-0.319	0.048
-230.771	140.012	-0.160	0.210
-229.757	-200.000	0.111	0.518
-228.742	155.020	0.196	0.269
-227.727	451.023	0.059	0.129
-226.713	800.000	0.034	-0.128
-225.698	-62.735	-0.249	0.103
-224.684	90.042	0.151	0.168
-223.669	-64.566	0.082	-0.033
-222.655	-52.915	0.181	-0.083
-221.640	267.388	0.172	-0.299
-220.625	-200.000	-0.058	0.350
-219.611	800.000	0.030	0.126
-218.596	-134.639	0.294	0.036
-217.582	-117.286	0.365	-0.066
-216.567	667.440	0.117	0.302
-215.552	245.466	0.067	-0.113
-214.538	-17.675	0.295	-0.184
-213.523	568.489	-0.139	0.335
-212.509	-200.000	0.007	0.115
-211.494	-127.424	0.314	0.046
-210.479	42.955	-0.232	-0.211
-209.465	-77.497	0.170	-0.059
-208.450	-200.000	-0.007	0.275
-207.436	-67.505	-0.079	0.031
-206.421	-35.631	-0.193	-0.104
-205.406	-200.000	0.002	-0.255
-204.392	-147.707	0.216	0.018
-203.377	8.534	-0.137	0.102
-202.363	46.731	0.199	-0.184
-201.348	383.759	-0.046	-0.095
-200.333	192.051	-0.231	-0.346
-199.319	572.248	-0.170	0.412
-198.304	33.278	0.276	-0.238
-197.290	-3.905	-0.110	0.076
-196.275	502.234	-0.020	-0.045
-195.260	19.452	-0.154	-0.123
-194.246	800.000	-0.017	-0.065
-193.231	800.000	-0.107	0.323
-192.217	269.168	0.068	-0.118
-191.202	-24.498	0.181	-0.107
-190.187	-57.299	-0.093	-0.041
-189.173	343.976	0.074	0.143
-188.158	76.640	0.310	-0.327
-187.144	160.549	-0.038	-0.053
-186.129	443.520	-0.096	-0.209
-185.114	-200.000	-0.026	-0.135
-184.100	178.200	-0.075	0.109
-183.085	800.000	0.014	-0.047
-182.071	-118.960	0.214	-0.037
-181.056	454.673	0.026	-0.058
-180.042	22.514	0.106	-0.086
-179.027	-40.167	0.100	-0.052
-178.012	-112.394	0.174	-0.035
-176.998	-200.000	-0.026	-0.645
-175.983	-85.967	-0.084	-0.026
-174.969	-5.195	0.196	0.134
-173.954	97.833	0.183	-0.209
-172.939	8.448	-0.272	0.203
-171.925	-200.000	-0.010	0.304
-170.910	-189.857	0.199	0.002
-169.896	-200.000	0.008	-0.193
-168.881	-17.126	-0.084	0.052
-167.866	51.831	0.114	-0.108
-166.852	248.875	0.071	-0.119
-165.837	800.000	-0.093	0.326
-164.823	-71.606	0.150	-0.056
-163.808	244.711	-0.150	0.250
-162.793	-200.000	0.035	0.179
-161.779	499.617	0.084	0.193
-160.764	-157.968	-0.091	0.005
-159.750	195.083	-0.028	-0.043
-158.735	744.888	-0.069	0.185
-157.720	-200.000	-0.051	0.347
-156.706	800.000	0.040	-0.152
-155.691	800.000	0.124	0.375
-154.677	-200.000	0.023	-0.330
-153.662	-23.579	0.096	-0.057
-152.647	624.169	0.059	0.148
-151.633	98.999	-0.063	-0.072
-150.618	800.000	-0.017	0.047
-149.604	23.893	0.243	0.199
-148.589	-200.000	-0.042	0.309
-147.574	-200.000	-0.010	0.047
-146.560	-183.562	-0.400	0.007
-145.545	-5.992	0.258	-0.175
-144.531	213.912	0.047	0.073
-143.516	-200.000	0.026	0.266
-142.502	-200.000	0.041	0.226
-141.487	-10.976	-0.205	0.134
-140.472	-200.000	-0.028	-0.130
-139.458	169.054	0.128	-0.181
-138.443	144.114	-0.174	0.231
-137.429	-165.929	0.176	0.007
-136.414	605.177	-0.090	-0.222
-135.399	-200.000	0.027	0.213
-134.385	12.044	0.135	-0.103
-133.370	-88.003	-0.167	-0.050
-132.356	262.056	0.130	0.223
-131.341	-200.000	0.001	0.180
-130.326	-200.000	0.000	-0.146
-129.312	-52.363	-0.034	-0.016
-128.297	138.663	0.138	0.180
-127.283	-18.950	0.190	0.117
-126.268	463.531	0.065	0.145
-125.253	-9.874	-0.093	0.061
-124.239	800.000	0.029	0.085
-123.224	-188.776	-0.361	0.004
-122.210	-176.049	0.249	0.007
