DTS Sentinel unit serial number:	SN413079Multiplexer serial number:	ORYXHardware model number:	OX4-SRSoftware version number:	ORYX F/W v4.00 Oryx Data Collector v3.7.2.0data status	okinstallation	princeton_trtdifferential loss correction	single-endedforward channel	channel 4reverse channel	N/Adate	2019/09/11time	18:27:10forward acquisition time	60.00reverse acquisition time	0.00gamma	496.2192k internal	0.2276k external	0.2276temperature offset calibration	1.0024default loss term (dB/km)	0.3790temperature slope calibration	1.0000multiplexer offset coefficient	1.0000multiplexer slope coefficient	1.0000fibre end	0.00T internal ref (°C)	43.92T ext. ref 1 (°C)	1.18T ext. ref 2 (°C)	37.71length (m)	temperature (°C)	Stokes	anti-Stokes-747.200	354.830	-0.116	-0.237
-746.185	-152.905	0.358	-0.026
-745.171	-2.825	-0.202	-0.146
-744.156	800.000	0.103	0.305
-743.142	-107.617	-0.179	0.040
-742.127	-177.902	0.239	0.006
-741.112	-60.623	0.013	-0.006
-740.098	2.076	0.157	0.117
-739.083	-60.971	0.152	0.066
-738.069	800.000	0.088	0.294
-737.054	-185.660	-0.483	0.008
-736.039	-134.044	-0.343	-0.044
-735.025	40.540	-0.294	0.273
-734.010	466.597	-0.038	-0.087
-732.996	-44.886	-0.443	-0.227
-731.981	2.065	-0.166	0.123
-730.966	6.956	-0.191	-0.147
-729.952	800.000	-0.136	0.438
-728.937	-134.037	-0.261	0.033
-727.923	-17.259	-0.190	0.124
-726.908	-4.643	0.244	-0.174
-725.894	122.442	0.188	0.242
-724.879	-129.435	-0.342	-0.049
-723.864	-64.580	-0.460	-0.192
-722.850	-32.088	0.318	0.183
-721.835	141.544	-0.126	0.172
-720.821	-144.150	-0.096	-0.009
-719.806	38.660	0.165	-0.152
-718.791	-200.000	-0.016	0.087
-717.777	67.979	-0.233	-0.245
-716.762	396.402	-0.062	-0.133
-715.748	800.000	0.115	-0.367
-714.733	-147.111	0.323	0.028
-713.718	-200.000	0.048	-0.295
-712.704	-5.031	0.208	0.148
-711.689	-200.000	0.007	-0.133
-710.675	46.938	0.239	0.229
-709.660	279.082	-0.085	-0.155
-708.645	-28.223	0.203	0.121
-707.631	587.699	0.084	-0.214
-706.616	800.000	-0.102	0.299
-705.602	-70.674	0.391	-0.152
-704.587	800.000	-0.063	-0.195
-703.572	149.312	-0.176	-0.245
-702.558	312.592	-0.095	0.183
-701.543	-129.588	0.255	0.036
-700.529	-140.114	0.354	0.038
-699.514	-5.263	-0.212	0.150
-698.499	-6.154	-0.096	-0.068
-697.485	95.909	0.047	0.056
-696.470	23.854	0.204	0.173
-695.456	3.082	0.109	0.082
-694.441	1.472	-0.023	0.017
-693.426	290.960	-0.047	-0.088
-692.412	-134.404	-0.416	-0.053
-691.397	-200.000	-0.015	-0.206
-690.383	90.232	0.086	-0.099
-689.368	490.031	0.099	0.233
-688.354	-20.017	-0.130	-0.083
-687.339	800.000	-0.052	0.203
-686.324	157.923	-0.123	0.176
-685.310	-151.993	0.208	-0.016
-684.295	370.439	-0.065	-0.135
-683.281	43.793	-0.296	-0.279
-682.266	30.012	-0.033	0.029
-681.251	289.620	0.087	-0.163
-680.237	-90.849	-0.224	0.066
-679.222	215.502	0.159	-0.259
-678.208	-26.388	0.579	-0.349
-677.193	340.300	0.054	0.109
-676.178	159.283	0.083	0.119
-675.164	800.000	0.061	-0.197
-674.149	248.134	-0.057	-0.099
-673.135	-3.906	-0.273	0.194
-672.120	-200.000	-0.049	0.315
-671.105	-200.000	-0.034	0.230
-670.091	800.000	-0.012	0.045
-669.076	222.100	0.066	-0.110
-668.062	800.000	-0.054	-0.185
-667.047	269.434	-0.137	-0.246
-666.032	5.764	0.327	0.248
-665.018	265.870	-0.159	0.285
-664.003	-56.378	-0.162	-0.074
-662.989	229.959	-0.105	-0.176
-661.974	800.000	0.031	0.138
-660.959	800.000	0.012	0.036
-659.945	485.752	-0.064	0.151
-658.930	146.037	0.039	-0.053
-657.916	800.000	0.063	-0.269
-656.901	-200.000	-0.044	-0.274
-655.886	-200.000	0.029	-0.427
-654.872	800.000	0.104	-0.319
-653.857	-85.460	-0.226	-0.072
-652.843	-71.176	-0.326	-0.126
-651.828	-18.684	-0.087	0.056
-650.814	-200.000	-0.001	0.140
-649.799	-200.000	0.000	-0.008
-648.784	31.766	-0.232	0.205
-647.770	-103.085	-0.348	-0.085
-646.755	-200.000	0.019	0.251
-645.741	-146.605	-0.033	0.003
-644.726	800.000	0.087	-0.322
-643.711	9.365	-0.157	-0.122
-642.697	568.194	0.196	0.489
-641.682	800.000	-0.131	-0.508
-640.668	160.041	-0.080	0.114
-639.653	-93.044	0.117	0.033
-638.638	284.593	0.037	0.068
-637.624	734.786	0.025	-0.068
-636.609	-4.922	-0.231	0.163
-635.595	-48.987	0.484	-0.238
-634.580	-15.592	0.280	0.183
-633.565	-153.678	0.349	-0.025
-632.551	-81.217	0.434	-0.147
-631.536	-29.441	-0.179	0.105
-630.522	395.561	-0.113	-0.242
-629.507	26.020	0.297	-0.254
-628.492	-72.597	-0.210	0.080
-627.478	-75.502	0.169	0.062
-626.463	-200.000	-0.031	-0.148
-625.449	-51.212	0.494	0.237
-624.434	-200.000	-0.109	0.000
-623.419	106.490	0.071	-0.086
-622.405	-15.725	-0.241	-0.157
-621.390	-200.000	0.008	-0.191
-620.376	-53.804	0.142	0.066
-619.361	551.398	-0.052	-0.129
-618.346	-11.269	0.193	-0.131
-617.332	-179.893	0.225	-0.005
-616.317	4.779	-0.121	-0.091
-615.303	-119.016	-0.153	0.028
-614.288	-94.565	0.228	-0.064
-613.273	-58.743	-0.128	-0.057
-612.259	566.490	-0.069	-0.170
-611.244	151.977	0.091	0.127
-610.230	-200.000	0.018	0.242
-609.215	-127.566	-0.263	0.039
-608.201	-7.981	-0.249	-0.172
-607.186	198.062	0.023	0.036
-606.171	-90.781	0.289	0.085
-605.157	-200.000	0.005	0.025
-604.142	143.175	0.184	0.252
-603.128	-47.670	-0.333	0.166
-602.113	-200.000	0.021	0.262
-601.098	-139.783	-0.046	0.005
-600.084	-35.791	-0.253	-0.140
-599.069	-200.000	-0.022	-0.269
-598.055	688.792	-0.106	-0.283
-597.040	30.424	0.108	-0.094
-596.025	-200.000	0.034	-0.213
-595.011	800.000	-0.067	0.190
-593.996	-88.508	0.135	-0.041
-592.982	-197.134	-0.234	-0.002
-591.967	-12.804	0.158	0.105
-590.952	-200.000	0.016	-0.399
-589.938	-109.774	0.210	-0.045
-588.923	-113.911	-0.160	-0.032
-587.909	54.981	-0.168	-0.166
-586.894	-76.754	-0.222	0.080
-585.879	-48.358	-0.080	0.040
-584.865	800.000	0.016	-0.059
-583.850	467.416	0.046	0.105
-582.836	-200.000	0.056	-0.336
-581.821	-200.000	-0.012	0.155
-580.806	800.000	-0.037	0.130
-579.792	800.000	0.028	0.088
-578.777	90.568	0.137	0.157
-577.763	-200.000	-0.029	0.180
-576.748	78.750	0.088	0.097
-575.733	7.843	-0.162	0.124
-574.719	-81.925	-0.211	-0.071
-573.704	457.739	0.145	0.330
-572.690	-40.129	-0.034	-0.018
-571.675	195.241	0.074	0.115
-570.661	231.659	-0.106	0.177
-569.646	-26.456	0.046	-0.027
-568.631	-119.937	0.324	0.057
-567.617	346.214	-0.081	0.163
-566.602	-49.183	0.284	-0.139
-565.588	-60.779	-0.022	0.010
-564.573	-100.747	0.384	0.097
-563.558	274.681	0.120	0.218
-562.544	138.779	0.141	0.190
-561.529	-200.000	0.068	0.000
-560.515	-200.000	0.040	-0.376
-559.500	-68.495	-0.276	-0.110
-558.485	-102.308	-0.167	-0.041
-557.471	322.603	0.068	-0.132
-556.456	628.680	-0.061	-0.159
-555.442	-200.000	-0.019	-0.178
-554.427	-200.000	0.021	-0.206
-553.412	-200.000	-0.041	-0.462
-552.398	-43.282	0.132	0.069
-551.383	-54.741	0.155	0.072
-550.369	-160.972	0.202	-0.011
-549.354	25.342	0.053	-0.045
-548.339	-200.000	0.047	0.277
-547.325	-23.135	-0.210	0.130
-546.310	-15.858	-0.125	-0.081
-545.296	42.525	-0.151	0.140
-544.281	-57.507	0.098	0.044
-543.266	61.597	-0.084	-0.085
-542.252	800.000	-0.037	-0.153
-541.237	-200.000	0.028	0.224
-540.223	-200.000	0.028	-0.140
-539.208	223.895	-0.045	0.074
-538.193	20.223	0.340	-0.281
-537.179	-139.591	-0.176	-0.019
-536.164	800.000	-0.005	-0.018
-535.150	-134.025	-0.347	-0.044
-534.135	13.918	0.328	-0.261
-533.121	-102.916	-0.219	0.053
-532.106	-142.274	0.433	-0.044
-531.091	-200.000	-0.009	0.233
-530.077	230.196	-0.006	0.010
-529.062	-166.398	-0.450	-0.019
-528.048	-200.000	0.002	-0.333
-527.033	-43.678	-0.138	-0.071
-526.018	-200.000	-0.012	0.331
-525.004	-200.000	-0.001	-0.266
-523.989	-200.000	0.001	-0.559
-522.975	-178.818	-0.117	-0.003
-521.960	294.534	0.073	-0.137
-520.945	-16.890	-0.098	0.063
-519.931	507.195	0.093	0.220
-518.916	800.000	-0.051	-0.179
-517.902	325.779	-0.052	0.102
-516.887	-89.558	0.365	0.110
-515.872	9.607	-0.078	-0.060
-514.858	24.156	-0.123	-0.104
-513.843	-200.000	0.006	0.344
-512.829	-11.119	-0.167	0.112
-511.814	315.352	-0.102	0.196
-510.799	-19.675	-0.310	0.196
-509.785	140.159	-0.047	-0.063
-508.770	-98.700	-0.294	0.076
-507.756	-160.169	0.057	-0.003
-506.741	252.725	-0.021	-0.037
-505.726	800.000	-0.026	0.104
-504.712	98.530	0.072	0.085
-503.697	-163.600	-0.346	0.017
-502.683	-143.413	-0.252	0.025
-501.668	-6.681	0.251	0.174
-500.653	207.887	-0.070	0.112
-499.639	-92.976	-0.237	0.067
-498.624	28.631	0.325	-0.281
-497.610	-108.818	-0.256	0.056
-496.595	147.637	0.030	0.041
-495.581	85.365	-0.066	0.073
-494.566	-147.157	0.199	0.017
-493.551	337.231	0.244	0.485
-492.537	43.005	0.224	-0.208
-491.522	184.087	0.028	0.042
-490.508	-42.409	0.146	0.076
-489.493	141.992	0.072	-0.098
-488.478	629.008	0.038	0.098
-487.464	261.038	0.044	-0.078
-486.449	500.501	-0.050	0.117
-485.435	347.843	-0.080	-0.160
-484.420	-88.477	-0.069	0.021
-483.405	-95.372	-0.432	-0.119
-482.391	-79.544	0.191	0.066
-481.376	320.497	0.140	0.272
-480.362	132.122	0.073	0.096
-479.347	-5.349	-0.122	0.086
-478.332	-51.077	-0.278	-0.133
-477.318	177.185	-0.050	-0.074
-476.303	-200.000	0.008	-0.195
-475.289	-83.063	0.080	0.026
-474.274	-200.000	0.015	-0.219
-473.259	-51.708	0.092	0.044
-472.245	-125.804	-0.293	0.045
-471.230	-37.610	0.220	0.120
-470.216	-127.754	-0.091	-0.013
-469.201	-57.635	-0.229	0.102
-468.186	-200.000	-0.071	-0.329
-467.172	-200.000	0.002	-0.267
-466.157	-200.000	-0.010	0.066
-465.143	333.503	-0.079	-0.156
-464.128	377.706	-0.079	-0.164
-463.113	-17.159	0.135	0.086
-462.099	130.488	0.111	-0.144
-461.084	-8.002	-0.377	-0.259
-460.070	-171.470	-0.060	0.002
-459.055	-182.924	-0.030	0.001
-458.040	-200.000	-0.001	-0.171
-457.026	61.000	-0.325	0.329
-456.011	-145.901	-0.126	0.011
-454.997	-82.825	0.388	-0.128
-453.982	102.510	-0.059	-0.070
-452.968	361.436	0.021	0.044
-451.953	5.167	0.262	0.197
-450.938	23.517	-0.128	-0.107
-449.924	-85.111	-0.110	0.035
-448.909	-109.051	0.150	-0.033
-447.895	-200.000	-0.023	-0.290
-446.880	153.597	-0.061	-0.085
-445.865	-200.000	0.006	-0.261
-444.851	166.302	0.096	-0.138
-443.836	800.000	0.023	0.094
-442.822	-200.000	-0.015	-0.216
-441.807	359.149	-0.056	-0.114
-440.792	-149.153	-0.355	-0.029
-439.778	800.000	-0.048	-0.162
-438.763	800.000	0.124	0.372
-437.749	-200.000	0.041	0.413
-436.734	-116.441	-0.130	0.024
-435.719	-26.097	-0.155	-0.093
-434.705	461.335	0.014	0.033
-433.690	23.384	0.288	-0.241
-432.676	213.004	-0.082	-0.133
-431.661	144.020	0.135	0.183
-430.646	-200.000	-0.019	-0.163
-429.632	317.581	0.108	-0.209
-428.617	-39.790	-0.029	-0.015
-427.603	-200.000	-0.016	-0.080
-426.588	86.257	-0.129	0.144
-425.573	-71.178	0.239	-0.091
-424.559	-60.576	-0.118	0.051
-423.544	21.662	0.065	0.054
-422.530	-165.458	0.185	0.008
-421.515	-56.115	0.083	0.038
-420.500	-47.164	-0.109	-0.054
-419.486	-65.102	0.290	0.119
-418.471	12.324	-0.177	0.139
-417.457	-44.899	-0.242	0.123
-416.442	341.200	0.085	0.170
-415.428	-59.646	0.331	0.144
-414.413	-43.388	-0.176	0.090
-413.398	-93.372	0.422	-0.119
-412.384	41.094	0.301	-0.277
-411.369	-200.000	-0.025	0.161
-410.355	-200.000	0.031	0.146
-409.340	-31.922	0.198	-0.113
-408.325	-97.370	0.099	-0.026
-407.311	-75.622	-0.261	-0.094
-406.296	342.939	-0.077	-0.152
-405.282	83.373	-0.106	-0.117
-404.267	287.248	0.043	-0.079
-403.252	800.000	0.043	0.135
-402.238	124.416	-0.048	0.062
-401.223	-76.528	0.185	0.066
-400.209	-9.600	0.302	-0.205
-399.194	314.859	0.084	0.162
-398.179	-81.335	-0.298	-0.100
-397.165	-91.481	-0.235	0.068
-396.150	101.230	-0.191	-0.226
-395.136	125.191	-0.098	-0.126
-394.121	-131.124	-0.307	0.042
-393.106	-129.647	-0.194	-0.027
-392.092	332.923	0.070	0.138
-391.077	143.694	-0.306	0.415
-390.063	187.166	0.134	-0.204
-389.048	413.747	0.162	-0.350
-388.033	521.925	0.113	0.269
-387.019	-28.412	0.476	0.279
-386.004	482.260	0.192	0.443
-384.990	38.883	-0.151	0.137
-383.975	219.213	0.158	-0.257
-382.960	-170.174	0.300	0.011
-381.946	-27.937	0.039	0.023
-380.931	114.279	0.094	0.116
-379.917	194.019	0.210	-0.324
-378.902	-44.961	0.243	-0.123
-377.888	-41.846	-0.227	-0.118
-376.873	67.677	0.212	-0.220
-375.858	90.090	0.155	-0.176
-374.844	137.049	-0.109	0.144
-373.829	-200.000	0.016	0.112
-372.815	47.509	-0.140	-0.133
-371.800	-51.713	-0.177	-0.084
-370.785	2.748	-0.381	-0.281
-369.771	363.930	-0.128	-0.262
-368.756	76.850	-0.120	0.130
-367.742	-44.431	0.195	-0.099
-366.727	-200.000	0.040	-0.180
-365.712	20.591	-0.056	-0.046
-364.698	-42.250	-0.099	-0.052
-363.683	-121.163	-0.215	-0.037
-362.669	-80.949	0.322	-0.109
-361.654	257.640	-0.155	-0.270
-360.639	53.090	-0.109	0.106
-359.625	500.450	0.143	0.335
-358.610	563.052	-0.015	-0.038
-357.596	-94.920	-0.185	-0.051
-356.581	800.000	0.045	0.160
-355.566	181.552	0.069	0.104
-354.552	-75.238	-0.152	-0.055
-353.537	-137.917	-0.169	0.019
-352.523	-200.000	-0.034	-0.432
-351.508	24.489	-0.199	-0.168
-350.493	-200.000	0.001	0.005
-349.479	-139.465	-0.252	0.027
-348.464	339.046	0.103	0.203
-347.450	-139.261	0.134	0.015
-346.435	-76.580	-0.108	0.038
-345.420	800.000	-0.039	-0.111
-344.406	-100.125	-0.078	0.020
-343.391	-95.820	0.238	-0.064
-342.377	-200.000	-0.006	-0.134
-341.362	-175.431	0.576	0.016
-340.348	-133.399	0.188	-0.024
-339.333	137.300	0.071	0.094
-338.318	-136.468	-0.437	0.052
-337.304	-102.659	0.192	-0.046
-336.289	-83.672	-0.113	-0.037
-335.275	347.414	0.132	0.264
-334.260	551.047	0.125	-0.305
-333.245	-200.000	0.003	-0.142
-332.231	-53.361	-0.235	-0.109
-331.216	36.664	0.316	0.283
-330.202	-74.079	0.306	0.112
-329.187	671.203	0.098	-0.258
-328.172	-200.000	-0.006	-0.143
-327.158	50.216	-0.150	0.143
-326.143	-143.862	0.261	-0.025
-325.129	-125.504	-0.264	-0.041
-324.114	421.027	0.105	-0.228
-323.099	270.213	0.028	0.050
-322.085	189.300	0.144	-0.219
-321.070	219.717	-0.147	0.239
-320.056	197.579	0.087	-0.135
-319.041	-70.855	0.049	0.019
-318.026	141.562	-0.096	-0.128
-317.012	31.919	0.126	0.110
-315.997	408.033	-0.098	-0.209
-314.983	515.200	-0.070	0.165
-313.968	800.000	-0.054	-0.186
-312.953	306.922	-0.107	0.202
-311.939	-200.000	-0.088	0.680
-310.924	-65.078	0.039	0.016
-309.910	537.603	0.076	0.182
-308.895	356.416	-0.062	-0.124
-307.880	12.619	-0.188	0.147
-306.866	-125.268	0.115	0.018
-305.851	-59.664	0.046	-0.020
-304.837	494.353	0.008	0.018
-303.822	800.000	-0.065	0.183
-302.807	204.167	0.153	0.240
-301.793	800.000	0.025	-0.072
-300.778	-90.902	-0.212	-0.062
-299.764	800.000	-0.036	-0.107
-298.749	-200.000	0.011	-0.196
-297.735	-13.168	0.379	-0.249
-296.720	131.017	0.272	0.354
-295.705	-109.824	-0.038	0.008
-294.691	9.773	-0.069	0.053
-293.676	-176.757	-0.194	0.005
-292.662	-58.313	0.184	0.081
-291.647	-98.205	-0.010	-0.003
-290.632	281.335	-0.122	-0.222
-289.618	235.627	0.244	0.408
-288.603	275.420	-0.056	0.100
-287.589	-52.815	0.329	0.154
-286.574	-78.882	-0.345	-0.119
-285.559	-200.000	-0.039	-0.204
-284.545	-62.872	-0.220	0.092
-283.530	94.503	-0.056	-0.065
-282.516	37.667	-0.020	-0.018
-281.501	-200.000	0.007	-0.308
-280.486	-200.000	-0.010	0.146
-279.472	-141.219	0.250	-0.026
-278.457	-69.761	0.146	-0.056
-277.443	355.993	0.153	-0.309
-276.428	-126.968	0.177	0.026
-275.413	-150.959	-0.371	-0.028
-274.399	-200.000	-0.048	0.279
-273.384	291.727	-0.144	-0.265
-272.370	184.010	-0.352	0.528
-271.355	77.412	0.102	-0.110
-270.340	-9.455	0.141	-0.095
-269.326	-176.414	-0.024	-0.001
-268.311	-115.081	0.167	-0.032
-267.297	-200.000	-0.058	0.347
-266.282	-87.130	-0.157	-0.048
-265.267	147.043	-0.071	-0.097
-264.253	208.180	0.163	0.258
-263.238	-200.000	0.016	-0.099
-262.224	-110.874	-0.333	0.069
-261.209	-55.382	0.412	0.187
-260.195	260.267	-0.125	0.219
-259.180	-200.000	-0.042	0.242
-258.165	-200.000	0.056	0.630
-257.151	75.193	-0.301	0.320
-256.136	-200.000	-0.017	0.171
-255.122	-11.636	0.094	0.062
-254.107	-180.350	0.206	-0.004
-253.092	-87.562	-0.392	-0.120
-252.078	-25.947	-0.226	0.135
-251.063	-106.309	-0.048	0.011
-250.049	-80.261	-0.405	-0.137
-249.034	130.649	-0.101	0.131
-248.019	8.308	-0.184	0.140
-247.005	51.084	0.142	-0.136
-245.990	-200.000	0.006	-0.093
-244.976	139.537	-0.058	0.078
-243.961	800.000	-0.035	0.125
-242.946	-200.000	-0.022	-0.359
-241.932	-153.109	0.218	-0.015
-240.917	312.727	0.070	-0.134
-239.903	800.000	-0.061	0.208
-238.888	-200.000	-0.019	0.324
-237.873	-200.000	0.004	-0.071
-236.859	800.000	0.080	0.225
-235.844	231.221	-0.176	-0.291
-234.830	-40.230	0.114	-0.060
-233.815	-200.000	-0.096	0.430
-232.800	464.558	-0.207	0.467
-231.786	800.000	0.035	0.151
-230.771	800.000	-0.080	0.288
-229.757	800.000	0.133	0.448
-228.742	-200.000	0.085	-0.421
-227.727	588.199	-0.114	-0.284
-226.713	476.532	-0.123	-0.282
-225.698	-54.439	-0.074	0.034
-224.684	487.579	-0.135	-0.311
-223.669	123.895	-0.190	0.241
-222.655	-83.148	0.144	0.047
-221.640	110.317	-0.055	0.067
-220.625	28.097	-0.105	-0.090
-219.611	-5.972	-0.229	0.158
-218.596	334.559	-0.081	-0.158
-217.582	-175.869	0.427	0.012
-216.567	292.775	0.106	-0.196
-215.552	314.649	-0.120	-0.228
-214.538	800.000	0.028	0.121
-213.523	-109.408	0.261	-0.056
-212.509	23.528	-0.203	-0.169
-211.494	38.776	0.237	0.214
-210.479	-146.861	-0.021	-0.002
-209.465	-200.000	-0.013	-0.381
-208.450	-120.912	-0.247	0.042
-207.436	283.465	-0.107	0.194
-206.421	723.298	-0.147	0.396
-205.406	-200.000	0.032	-0.224
-204.392	59.932	0.189	0.188
-203.377	-85.253	-0.337	0.106
-202.363	800.000	-0.031	-0.115
-201.348	394.274	-0.109	0.229
-200.333	-111.117	0.225	-0.047
-199.319	800.000	0.071	-0.226
-198.304	-162.313	-0.128	-0.006
-197.290	278.192	-0.131	-0.236
-196.275	314.649	0.104	0.197
-195.260	104.669	-0.143	0.170
-194.246	274.842	0.086	0.154
-193.231	182.100	-0.054	-0.080
-192.217	-182.352	0.497	0.009
-191.202	385.920	-0.011	-0.022
-190.187	340.379	0.104	-0.205
-189.173	-200.000	0.051	-0.309
-188.158	-110.912	0.327	-0.068
-187.144	64.357	0.109	-0.111
-186.129	68.675	-0.066	0.068
-185.114	-23.923	0.313	0.189
-184.100	191.288	-0.163	0.247
-183.085	-200.000	0.025	-0.288
-182.071	89.368	0.044	-0.049
-181.056	800.000	-0.076	0.285
-180.042	-116.702	0.277	0.051
-179.027	110.451	0.155	-0.188
-178.012	800.000	0.029	-0.094
-176.998	328.707	0.051	0.099
-175.983	67.552	-0.103	0.106
-174.969	800.000	-0.199	-0.620
-173.954	356.757	0.119	0.239
-172.939	-79.795	0.211	-0.072
-171.925	-200.000	0.004	-0.254
-170.910	-200.000	-0.014	0.159
-169.896	79.407	0.096	-0.104
-168.881	96.088	-0.043	0.050
-167.866	396.318	0.076	0.159
-166.852	-172.749	0.168	0.005
-165.837	-152.345	-0.166	-0.012
-164.823	-128.859	-0.200	0.028
-163.808	-90.226	0.095	0.028
-162.793	728.683	0.079	0.213
-161.779	110.050	0.051	-0.062
-160.764	183.721	-0.171	-0.256
-159.750	646.792	-0.146	0.376
-158.735	-9.512	0.260	-0.175
-157.720	-144.684	-0.268	0.025
-156.706	264.829	-0.166	0.291
-155.691	-200.000	0.016	-0.074
-154.677	-51.235	0.171	0.081
-153.662	236.197	0.179	0.298
-152.647	388.980	-0.136	-0.284
-151.633	350.119	-0.076	0.151
-150.618	125.133	-0.053	-0.068
-149.604	137.793	-0.095	-0.125
-148.589	143.405	0.155	-0.208
-147.574	800.000	0.092	0.321
-146.560	50.631	0.139	0.132
-145.545	-200.000	0.026	0.158
-144.531	-147.316	-0.070	0.006
-143.516	-98.889	0.122	0.031
-142.502	800.000	-0.022	0.083
-141.487	-67.574	0.167	0.066
-140.472	29.056	0.159	0.136
-139.458	258.504	-0.083	-0.145
-138.443	800.000	0.043	-0.183
-137.429	-200.000	0.016	0.163
-136.414	183.662	0.105	-0.157
-135.399	-104.549	0.202	0.047
-134.385	-65.507	0.130	-0.053
-133.370	800.000	-0.092	0.323
-132.356	32.822	-0.091	-0.079
-131.341	39.496	-0.173	0.156
-130.326	-110.679	0.191	-0.040
-129.312	-151.035	-0.266	-0.020
-128.297	-82.717	0.068	-0.022
-127.283	-200.000	-0.047	-0.212
-126.268	-18.989	0.105	-0.066
-125.253	-40.397	0.314	-0.164
-124.239	-150.019	-0.319	0.025
-123.224	-148.615	0.093	0.008
-122.210	800.000	0.037	0.151
-121.195	-64.294	-0.459	0.188
