DTS Sentinel unit serial number:	SN413079Multiplexer serial number:	ORYXHardware model number:	OX4-SRSoftware version number:	ORYX F/W v4.00 Oryx Data Collector v3.7.2.0data status	okinstallation	princeton_trtdifferential loss correction	single-endedforward channel	channel 4reverse channel	N/Adate	2019/09/10time	18:51:11forward acquisition time	60.00reverse acquisition time	0.00gamma	496.2192k internal	0.2304k external	0.2304temperature offset calibration	0.9947default loss term (dB/km)	0.3790temperature slope calibration	1.0000multiplexer offset coefficient	1.0000multiplexer slope coefficient	1.0000fibre end	0.00T internal ref (°C)	34.95T ext. ref 1 (°C)	-0.32T ext. ref 2 (°C)	27.20length (m)	temperature (°C)	Stokes	anti-Stokes-747.200	-47.194	0.387	0.192
-746.185	113.364	0.107	0.133
-745.171	-146.596	-0.300	-0.027
-744.156	83.169	0.004	0.004
-743.142	800.000	-0.025	0.099
-742.127	-104.426	-0.062	0.015
-741.112	-157.527	-0.352	-0.021
-740.098	-168.144	-0.135	-0.005
-739.083	-200.000	-0.006	-0.043
-738.069	118.434	-0.331	0.416
-737.054	25.541	-0.150	0.127
-736.039	-38.375	-0.308	-0.166
-735.025	-4.604	-0.113	0.079
-734.010	-200.000	-0.001	0.118
-732.996	5.718	0.115	0.087
-731.981	-100.551	-0.229	0.058
-730.966	626.642	0.123	-0.316
-729.952	-112.820	-0.190	-0.038
-728.937	-200.000	-0.086	-0.469
-727.923	260.453	0.186	-0.328
-726.908	-200.000	-0.008	-0.052
-725.894	-29.363	0.042	0.024
-724.879	-200.000	0.020	0.123
-723.864	-39.662	0.155	-0.083
-722.850	-178.182	-0.253	-0.006
-721.835	42.740	0.067	0.062
-720.821	-181.659	-0.559	0.011
-719.806	-28.256	-0.070	-0.041
-718.791	-131.404	0.190	-0.026
-717.777	190.047	0.096	0.147
-716.762	80.389	0.189	-0.207
-715.748	242.706	-0.038	0.064
-714.733	-156.136	0.046	-0.003
-713.718	-63.661	-0.153	-0.064
-712.704	164.193	-0.200	-0.286
-711.689	-200.000	-0.004	-0.300
-710.675	-31.464	-0.170	0.097
-709.660	111.797	0.079	0.097
-708.645	-49.451	0.029	-0.014
-707.631	377.339	0.132	-0.275
-706.616	104.892	0.394	-0.472
-705.602	539.638	0.106	-0.255
-704.587	-200.000	0.017	0.233
-703.572	-112.742	-0.104	0.021
-702.558	-4.163	-0.165	0.116
-701.543	469.146	-0.109	0.248
-700.529	-200.000	-0.010	0.287
-699.514	-200.000	0.011	0.073
-698.499	-200.000	-0.026	-0.172
-697.485	-200.000	-0.011	0.299
-696.470	-19.708	-0.154	0.097
-695.456	553.170	0.037	-0.090
-694.441	-135.183	-0.162	0.020
-693.426	113.204	0.160	-0.198
-692.412	490.898	0.059	-0.138
-691.397	-200.000	-0.026	-0.260
-690.383	611.263	-0.058	0.148
-689.368	-147.455	0.188	0.016
-688.354	-200.000	0.355	-0.002
-687.339	-138.325	-0.246	0.028
-686.324	461.961	-0.080	-0.181
-685.310	-65.168	0.337	0.138
-684.295	32.608	0.143	-0.125
-683.281	-200.000	-0.012	-0.089
-682.266	-11.791	0.077	-0.052
-681.251	-31.504	-0.128	0.073
-680.237	79.883	0.132	0.144
-679.222	800.000	0.039	-0.132
-678.208	96.926	-0.022	0.026
-677.193	136.885	-0.217	-0.288
-676.178	18.441	-0.075	-0.061
-675.164	48.284	0.345	-0.328
-674.149	-200.000	0.029	0.231
-673.135	-40.092	-0.216	-0.114
-672.120	190.787	-0.296	0.451
-671.105	177.399	-0.097	0.144
-670.091	108.861	-0.094	0.114
-669.076	296.380	-0.130	0.243
-668.062	-19.794	0.174	0.109
-667.047	265.565	-0.045	0.080
-666.032	166.834	0.180	0.259
-665.018	64.190	0.250	-0.255
-664.003	800.000	-0.062	-0.186
-662.989	-67.986	-0.450	-0.178
-661.974	800.000	-0.057	-0.225
-660.959	-93.271	0.143	0.040
-659.945	72.468	0.024	0.025
-658.930	-113.040	0.226	-0.045
-657.916	-128.977	0.191	-0.027
-656.901	800.000	0.075	0.263
-655.886	-116.571	-0.250	-0.047
-654.872	800.000	-0.030	-0.119
-653.857	234.688	-0.073	-0.122
-652.843	-83.666	-0.246	0.080
-651.828	-140.276	-0.165	0.018
-650.814	-135.547	-0.211	-0.026
-649.799	-56.084	0.248	0.112
-648.784	-64.718	-0.200	0.082
-647.770	744.358	0.095	-0.260
-646.755	-56.007	0.113	0.051
-645.741	406.032	0.034	-0.073
-644.726	-200.000	-0.005	0.027
-643.711	177.480	-0.156	0.230
-642.697	-200.000	0.014	-0.321
-641.682	27.650	0.082	0.070
-640.668	-163.469	0.237	0.011
-639.653	93.591	0.111	-0.127
-638.638	800.000	-0.092	-0.260
-637.624	33.672	-0.109	0.096
-636.609	-62.547	-0.148	0.062
-635.595	800.000	0.113	0.447
-634.580	32.938	-0.285	-0.250
-633.565	340.539	0.168	0.333
-632.551	591.865	0.102	0.256
-631.536	-55.184	-0.239	-0.109
-630.522	-200.000	0.006	0.244
-629.507	251.761	-0.247	0.427
-628.492	-96.558	0.072	0.019
-627.478	10.271	0.110	-0.085
-626.463	17.863	-0.142	0.114
-625.449	-55.957	0.324	0.146
-624.434	16.685	-0.211	0.169
-623.419	288.862	0.121	-0.222
-622.405	-39.353	-0.306	-0.163
-621.390	800.000	-0.037	-0.164
-620.376	-15.914	0.066	0.042
-619.361	-78.199	-0.113	-0.039
-618.346	800.000	0.034	0.120
-617.332	800.000	0.002	0.009
-616.317	367.172	0.135	0.276
-615.303	-200.000	0.013	0.065
-614.288	97.920	-0.171	0.200
-613.273	36.644	0.166	0.148
-612.259	-112.379	-0.154	0.031
-611.244	219.126	0.203	0.329
-610.230	-63.485	-0.205	-0.085
-609.215	12.399	0.261	0.204
-608.201	17.877	0.201	0.162
-607.186	-200.000	-0.014	-0.103
-606.171	26.257	0.140	0.119
-605.157	800.000	0.057	-0.188
-604.142	-200.000	-0.027	0.151
-603.128	-103.964	-0.053	-0.013
-602.113	98.625	-0.093	0.108
-601.098	71.849	-0.088	-0.093
-600.084	-18.358	0.216	0.137
-599.069	-72.628	-0.114	0.043
-598.055	-200.000	0.023	0.163
-597.040	800.000	-0.052	-0.164
-596.025	-150.463	0.304	-0.024
-595.011	-200.000	0.018	0.227
-593.996	-200.000	0.024	-0.268
-592.982	-149.779	0.151	-0.012
-591.967	37.435	-0.135	0.121
-590.952	-200.000	0.005	0.202
-589.938	459.353	0.023	0.051
-588.923	-136.506	0.066	-0.008
-587.909	216.474	-0.048	0.077
-586.894	-124.954	-0.365	0.057
-585.879	27.095	-0.019	0.016
-584.865	800.000	-0.030	-0.115
-583.850	-18.282	-0.306	-0.194
-582.836	800.000	0.081	0.242
-581.821	-4.567	0.179	0.125
-580.806	-200.000	0.005	-0.103
-579.792	-8.227	-0.290	-0.198
-578.777	-115.509	-0.048	0.009
-577.763	-130.836	-0.237	-0.032
-576.748	-68.645	0.193	-0.076
-575.733	-200.000	-0.002	-0.154
-574.719	42.133	0.051	-0.047
-573.704	29.835	0.212	0.183
-572.690	144.611	0.159	0.215
-571.675	67.383	-0.300	0.310
-570.661	-92.762	-0.125	-0.035
-569.646	301.537	-0.039	0.073
-568.631	-200.000	0.002	0.106
-567.617	-134.182	0.321	0.040
-566.602	800.000	0.122	-0.502
-565.588	461.476	-0.100	0.226
-564.573	456.525	0.073	-0.164
-563.558	-200.000	-0.007	-0.172
-562.544	-200.000	0.019	0.252
-561.529	-8.059	0.174	-0.119
-560.515	-80.846	-0.382	-0.128
-559.500	-22.991	-0.393	0.240
-558.485	-87.828	-0.076	-0.023
-557.471	-116.993	0.111	0.020
-556.456	800.000	0.045	-0.171
-555.442	238.581	-0.092	-0.154
-554.427	-200.000	-0.006	0.240
-553.412	-200.000	-0.017	0.280
-552.398	141.955	-0.126	0.169
-551.383	-200.000	0.003	-0.035
-550.369	-200.000	0.011	-0.338
-549.354	-200.000	-0.014	-0.245
-548.339	-200.000	0.004	-0.029
-547.325	-101.152	0.182	-0.045
-546.310	19.709	-0.189	0.153
-545.296	47.266	-0.329	-0.310
-544.281	594.690	-0.144	0.359
-543.266	63.746	-0.051	0.052
-542.252	145.550	-0.112	0.151
-541.237	-200.000	-0.020	-0.160
-540.223	-88.651	0.600	0.180
-539.208	-200.000	-0.013	-0.197
-538.193	63.067	-0.225	0.227
-537.179	-200.000	0.025	0.332
-536.164	-200.000	0.051	0.352
-535.150	13.823	0.121	-0.095
-534.135	-124.810	-0.177	-0.028
-533.121	-200.000	0.030	-0.184
-532.106	-106.037	0.197	-0.045
-531.091	198.583	-0.086	-0.133
-530.077	-35.215	-0.078	-0.043
-529.062	97.572	-0.253	-0.293
-528.048	65.646	-0.188	0.192
-527.033	-60.566	0.267	-0.114
-526.018	-53.815	-0.303	0.140
-525.004	189.543	0.114	-0.173
-523.989	-112.956	0.291	0.058
-522.975	-200.000	0.016	-0.149
-521.960	329.563	-0.088	-0.172
-520.945	800.000	0.033	0.112
-519.931	-77.913	0.204	0.071
-518.916	359.007	0.047	-0.094
-517.902	-23.175	-0.292	0.178
-516.887	800.000	0.010	0.032
-515.872	312.351	0.065	-0.122
-514.858	140.514	-0.148	0.198
-513.843	45.199	0.064	-0.059
-512.829	-156.211	0.318	-0.020
-511.814	-200.000	0.017	-0.233
-510.799	-38.492	-0.257	-0.137
-509.785	-200.000	-0.026	-0.165
-508.770	-47.081	-0.134	-0.066
-507.756	159.209	-0.156	-0.218
-506.741	-200.000	-0.045	0.298
-505.726	800.000	-0.099	-0.346
-504.712	225.004	-0.100	-0.163
-503.697	-200.000	0.033	0.327
-502.683	34.450	0.310	-0.273
-501.668	752.411	0.010	-0.027
-500.653	127.102	-0.091	0.116
-499.639	-200.000	-0.010	-0.150
-498.624	-200.000	0.026	-0.156
-497.610	140.102	-0.025	0.033
-496.595	474.663	0.125	0.284
-495.581	166.247	-0.180	-0.257
-494.566	-200.000	0.022	-0.235
-493.551	-200.000	-0.037	-0.308
-492.537	-176.564	0.109	-0.003
-491.522	149.468	-0.163	0.222
-490.508	22.420	0.299	-0.247
-489.493	-0.870	-0.159	0.114
-488.478	-106.597	0.222	0.050
-487.464	384.545	-0.073	-0.153
-486.449	-200.000	-0.037	0.473
-485.435	800.000	-0.066	-0.255
-484.420	-6.563	-0.186	-0.128
-483.405	-128.073	0.501	-0.072
-482.391	666.379	0.064	-0.168
-481.376	30.993	0.195	-0.169
-480.362	-200.000	0.003	0.035
-479.347	632.701	-0.113	-0.288
-478.332	103.489	0.164	0.194
-477.318	800.000	0.069	0.199
-476.303	-200.000	0.007	0.040
-475.289	-133.938	0.342	-0.043
-474.274	-167.339	0.168	-0.007
-473.259	800.000	0.040	-0.116
-472.245	-34.548	-0.224	-0.124
-471.230	-200.000	0.024	-0.135
-470.216	-200.000	-0.010	-0.151
-469.201	75.313	0.192	-0.204
-468.186	800.000	-0.012	-0.054
-467.172	-186.772	-0.219	-0.003
-466.157	-200.000	0.006	0.064
-465.143	267.836	0.102	0.180
-464.128	229.921	0.151	-0.249
-463.113	-200.000	0.019	-0.105
-462.099	296.763	-0.137	-0.253
-461.084	8.414	-0.157	0.119
-460.070	420.053	0.029	0.062
-459.055	-200.000	0.005	-0.147
-458.040	-111.262	-0.270	0.056
-457.026	-37.064	-0.102	0.055
-456.011	-104.705	0.158	-0.037
-454.997	65.863	-0.147	-0.150
-453.982	-200.000	-0.049	0.236
-452.968	566.061	0.022	-0.054
-451.953	-135.376	0.344	0.041
-450.938	-200.000	0.014	-0.261
-449.924	52.062	-0.214	-0.205
-448.909	25.376	-0.137	0.114
-447.895	-25.316	-0.096	-0.057
-446.880	178.368	0.097	-0.142
-445.865	-30.661	-0.257	-0.147
-444.851	513.226	0.080	-0.187
-443.836	-141.570	0.212	-0.022
-442.822	559.581	0.162	0.394
-441.807	83.300	-0.099	-0.109
-440.792	800.000	0.079	-0.343
-439.778	-142.047	-0.104	0.010
-438.763	-77.209	0.202	0.071
-437.749	-81.630	0.126	0.042
-436.734	125.043	-0.165	0.209
-435.719	-200.000	-0.005	0.045
-434.705	-107.710	-0.295	0.065
-433.690	-200.000	0.058	0.304
-432.676	-9.560	-0.174	-0.117
-431.661	20.335	-0.095	0.077
-430.646	600.749	0.022	0.056
-429.632	800.000	-0.023	-0.095
-428.617	-200.000	0.273	0.001
-427.603	-33.931	0.205	0.114
-426.588	475.744	0.077	-0.175
-425.573	-87.711	0.262	0.079
-424.559	-200.000	-0.005	-0.064
-423.544	-59.969	0.439	-0.188
-422.530	-200.000	-0.050	0.241
-421.515	429.766	-0.046	0.100
-420.500	98.329	-0.031	0.036
-419.486	-131.559	0.112	-0.015
-418.471	800.000	-0.057	0.235
-417.457	-106.495	-0.216	-0.049
-416.442	224.540	-0.138	-0.224
-415.428	-0.437	0.261	0.187
-414.413	61.163	0.259	0.259
-413.398	-128.458	0.366	-0.052
-412.384	-200.000	0.002	-0.122
-411.369	33.646	-0.107	-0.093
-410.355	-17.242	0.124	0.079
-409.340	-200.000	0.016	0.290
-408.325	-200.000	-0.010	-0.107
-407.311	568.145	-0.095	0.233
-406.296	272.940	0.177	0.314
-405.282	4.191	-0.139	-0.102
-404.267	87.330	0.111	0.123
-403.252	157.489	-0.207	-0.287
-402.238	35.556	-0.241	0.213
-401.223	129.376	0.173	-0.222
-400.209	-148.859	-0.296	0.024
-399.194	-63.618	-0.187	0.077
-398.179	-200.000	0.015	0.094
-397.165	-200.000	0.029	-0.166
-396.150	-43.338	0.304	-0.154
-395.136	-15.299	-0.101	-0.065
-394.121	135.491	0.169	-0.221
-393.106	800.000	0.066	-0.195
-392.092	23.773	-0.186	0.154
-391.077	-200.000	0.021	-0.098
-390.063	-200.000	0.042	0.242
-389.048	-73.008	-0.346	-0.128
-388.033	3.098	-0.284	0.208
-387.019	241.440	-0.099	0.166
-386.004	-115.538	-0.130	0.025
-384.990	261.529	0.146	-0.254
-383.975	51.757	0.082	0.078
-382.960	214.997	-0.123	-0.196
-381.946	-124.850	0.162	-0.025
-380.931	49.222	-0.076	-0.072
-379.917	-59.069	0.077	-0.033
-378.902	-107.239	0.134	0.030
-377.888	98.034	-0.126	0.145
-376.873	-200.000	0.010	-0.193
-375.858	-49.662	-0.129	0.062
-374.844	10.758	0.360	-0.276
-373.829	800.000	-0.159	-0.449
-372.815	-200.000	-0.007	0.351
-371.800	-137.141	0.079	-0.009
-370.785	7.596	0.094	-0.070
-369.771	-98.801	0.247	-0.063
-368.756	-175.729	0.374	0.010
-367.742	208.639	-0.081	0.127
-366.727	-108.311	-0.242	0.053
-365.712	344.576	-0.200	-0.394
-364.698	396.090	-0.048	0.100
-363.683	-3.903	0.100	0.070
-362.669	-157.315	-0.357	-0.022
-361.654	-25.828	0.245	-0.145
-360.639	-46.685	-0.327	0.161
-359.625	36.867	-0.187	-0.166
-358.610	44.568	0.132	-0.121
-357.596	-200.000	0.025	0.163
-356.581	800.000	0.021	-0.081
-355.566	190.989	-0.113	0.170
-354.552	126.291	-0.159	0.202
-353.537	800.000	-0.098	0.348
-352.523	328.665	0.218	0.420
-351.508	208.451	0.177	0.278
-350.493	800.000	-0.056	0.158
-349.479	-48.580	0.073	0.035
-348.464	155.396	0.184	-0.255
-347.450	28.426	-0.089	0.075
-346.435	-200.000	0.036	-0.242
-345.420	-200.000	-0.004	-0.155
-344.406	278.899	0.015	-0.027
-343.391	35.881	0.221	-0.195
-342.377	-118.087	0.346	-0.062
-341.362	-72.622	0.304	0.113
-340.348	216.681	-0.166	0.265
-339.333	46.899	0.141	-0.132
-338.318	-172.771	0.251	-0.008
-337.304	-146.610	-0.034	0.003
-336.289	-145.168	-0.206	-0.019
-335.275	-200.000	0.009	0.166
-334.260	800.000	0.073	-0.236
-333.245	-65.783	-0.048	-0.019
-332.231	-2.804	-0.068	0.047
-331.216	-96.306	-0.518	0.137
-330.202	-200.000	0.004	-0.078
-329.187	800.000	0.084	-0.234
-328.172	-12.677	-0.094	-0.062
-327.158	800.000	-0.065	-0.205
-326.143	-161.726	-0.012	-0.001
-325.129	-86.933	0.102	-0.031
-324.114	5.908	-0.142	-0.106
-323.099	-42.231	-0.184	-0.094
-322.085	-37.994	-0.167	0.089
-321.070	-200.000	-0.026	-0.308
-320.056	-200.000	-0.006	-0.108
-319.041	97.124	-0.048	0.055
-318.026	-121.930	-0.320	0.053
-317.012	-101.448	-0.199	-0.049
-315.997	67.352	0.161	0.165
-314.983	-200.000	0.000	-0.303
-313.968	97.697	-0.025	0.028
-312.953	-200.000	-0.014	-0.400
-311.939	-200.000	-0.045	-0.242
-310.924	-134.120	0.377	-0.047
-309.910	800.000	0.112	0.327
-308.895	-111.901	0.283	-0.057
-307.880	-82.201	-0.125	0.041
-306.866	238.890	-0.057	-0.095
-305.851	26.777	0.055	-0.046
-304.837	-166.179	-0.206	-0.009
-303.822	-200.000	0.015	-0.076
-302.807	17.653	0.352	-0.280
-301.793	650.293	-0.026	0.067
-300.778	-92.233	0.196	0.055
-299.764	339.534	0.111	0.216
-298.749	-63.745	-0.133	0.054
-297.735	-46.182	0.103	0.051
-296.720	-91.470	0.146	0.042
-295.705	-200.000	-0.027	-0.185
-294.691	-123.569	-0.188	-0.030
-293.676	55.351	-0.022	0.022
-292.662	785.862	0.062	0.169
-291.647	64.519	0.153	0.154
-290.632	-155.007	0.400	0.026
-289.618	-200.000	0.072	0.346
-288.603	-200.000	-0.099	0.547
-287.589	-35.455	0.109	-0.059
-286.574	50.304	-0.193	0.182
-285.559	208.183	-0.062	0.096
-284.545	97.704	0.178	0.204
-283.530	133.136	-0.215	-0.278
-282.516	387.859	-0.128	-0.265
-281.501	-110.211	0.048	0.010
-280.486	-100.058	-0.187	-0.047
-279.472	-200.000	0.002	0.425
-278.457	-115.823	-0.354	-0.066
-277.443	-200.000	0.052	-0.325
-276.428	-177.181	0.132	0.003
-275.413	-95.501	-0.143	0.038
-274.399	437.845	-0.093	0.202
-273.384	-48.423	0.246	0.118
-272.370	113.004	-0.214	-0.259
-271.355	-51.380	-0.107	-0.050
-270.340	-62.762	0.240	-0.100
-269.326	-200.000	-0.041	0.265
-268.311	-60.363	-0.082	-0.035
-267.297	90.069	-0.210	0.235
-266.282	-200.000	-0.072	-0.348
-265.267	-116.789	0.175	0.032
-264.253	-118.145	-0.527	0.094
-263.238	-77.413	-0.080	-0.028
-262.224	-200.000	-0.031	0.194
-261.209	95.991	-0.092	-0.106
-260.195	-200.000	0.008	-0.074
-259.180	-200.000	0.017	0.095
-258.165	197.011	-0.202	-0.308
-257.151	-118.075	0.116	0.021
-256.136	284.659	0.093	-0.166
-255.122	-34.677	0.190	0.104
-254.107	55.270	-0.208	-0.201
-253.092	-135.675	-0.357	-0.042
-252.078	56.480	-0.148	-0.143
-251.063	155.449	0.255	0.351
-250.049	-56.848	0.257	-0.114
-249.034	335.642	0.164	-0.318
-248.019	243.423	-0.092	0.155
-247.005	-56.295	-0.453	0.201
-245.990	-98.584	0.190	-0.049
-244.976	146.833	-0.185	0.249
-243.961	-200.000	0.021	0.306
-242.946	-200.000	-0.048	0.290
-241.932	-142.429	-0.258	0.025
-240.917	-53.773	-0.259	0.118
-239.903	-181.111	0.081	-0.002
-238.888	584.890	-0.038	-0.093
-237.873	-49.407	0.067	0.032
-236.859	-89.262	-0.151	0.045
-235.844	-138.002	0.148	0.016
-234.830	749.120	0.165	-0.445
-233.815	-200.000	-0.015	0.068
-232.800	12.200	0.127	-0.098
-231.786	800.000	-0.048	0.209
-230.771	44.661	-0.068	0.063
-229.757	-200.000	-0.068	0.301
-228.742	16.267	0.207	-0.163
-227.727	-49.702	-0.063	-0.030
-226.713	-47.905	0.080	0.039
-225.698	-113.187	-0.112	-0.022
-224.684	42.302	0.192	0.174
-223.669	507.007	0.069	0.159
-222.655	79.136	-0.147	0.157
-221.640	438.185	0.149	-0.325
-220.625	16.246	0.048	0.038
-219.611	115.420	-0.031	-0.038
-218.596	-200.000	0.037	0.207
-217.582	-150.956	0.232	-0.017
-216.567	-80.524	0.511	0.170
-215.552	489.051	-0.116	-0.264
-214.538	-25.679	0.448	-0.263
-213.523	78.146	-0.366	-0.389
-212.509	-81.440	-0.209	0.069
-211.494	-139.522	0.098	0.010
-210.479	800.000	0.033	-0.091
-209.465	-174.633	0.121	0.003
-208.450	86.605	0.173	0.190
-207.436	-55.254	0.281	0.126
-206.421	-65.774	-0.181	0.072
-205.406	-200.000	-0.008	-0.217
-204.392	68.804	-0.146	-0.149
-203.377	-174.683	0.094	-0.003
-202.363	281.929	0.021	-0.037
-201.348	54.932	-0.350	0.337
-200.333	-200.000	0.019	0.102
-199.319	-52.058	0.290	0.134
-198.304	26.789	-0.149	-0.125
-197.290	-159.835	-0.160	-0.009
-196.275	-103.719	-0.051	0.012
-195.260	616.258	0.065	-0.163
-194.246	-200.000	-0.075	-0.411
-193.231	-152.400	0.302	-0.022
-192.217	24.757	-0.115	-0.095
-191.202	23.916	-0.230	-0.189
-190.187	-49.268	0.118	-0.056
-189.173	139.906	0.183	0.240
-188.158	157.376	-0.060	-0.082
-187.144	412.302	0.096	0.203
-186.129	53.646	-0.224	0.214
-185.114	-101.587	0.165	-0.040
-184.100	281.037	0.121	-0.217
-183.085	-39.218	0.106	0.056
-182.071	-200.000	0.037	-0.278
-181.056	-37.949	0.095	0.050
-180.042	-129.952	0.309	-0.042
-179.027	269.896	0.254	-0.444
-178.012	80.077	0.104	0.111
-176.998	-90.353	-0.263	-0.076
-175.983	-84.697	-0.228	0.071
-174.969	-54.609	0.220	0.099
-173.954	1.103	0.177	-0.126
-172.939	-132.132	-0.369	0.048
-171.925	121.276	0.095	0.118
-170.910	87.782	-0.166	0.183
-169.896	203.289	0.032	0.049
-168.881	-46.667	-0.183	0.089
-167.866	-109.084	-0.221	0.047
-166.852	-70.916	-0.049	0.018
-165.837	501.533	0.036	-0.082
-164.823	-11.461	-0.096	-0.063
-163.808	-33.212	-0.120	-0.066
-162.793	-9.473	0.103	-0.068
-161.779	-108.879	-0.098	0.021
-160.764	-200.000	0.035	0.184
-159.750	-146.067	-0.182	0.016
-158.735	-39.721	0.263	0.137
-157.720	-45.211	0.486	-0.241
-156.706	-200.000	0.062	0.307
-155.691	-12.910	-0.214	0.139
-154.677	59.320	-0.168	-0.165
-153.662	384.474	0.140	0.287
-152.647	-89.496	-0.240	0.070
-151.633	-200.000	0.015	-0.330
-150.618	-133.711	0.170	-0.021
-149.604	347.927	-0.071	0.138
-148.589	800.000	0.049	-0.177
-147.574	-54.461	0.169	-0.076
-146.560	800.000	0.023	-0.093
-145.545	-200.000	-0.008	0.180
-144.531	190.777	0.165	-0.247
-143.516	540.658	-0.111	-0.263
-142.502	-200.000	0.043	0.272
-141.487	-74.363	-0.122	-0.044
-140.472	-40.669	-0.266	0.137
-139.458	155.221	-0.094	0.129
-138.443	-88.433	0.077	0.023
-137.429	796.847	0.089	-0.244
-136.414	8.615	0.024	-0.018
-135.399	800.000	-0.040	-0.167
-134.385	-110.895	0.406	-0.083
-133.370	-78.508	-0.239	0.081
-132.356	-37.959	0.131	-0.069
-131.341	-126.906	0.033	0.005
-130.326	195.455	0.074	0.113
-129.312	603.283	-0.041	0.101
-128.297	-60.923	0.099	-0.042
-127.283	348.054	-0.031	0.062
-126.268	-200.000	-0.010	-0.463
-125.253	800.000	-0.092	0.278
-124.239	-73.966	-0.252	0.091
-123.224	-22.214	0.200	0.120
-122.210	206.961	0.083	0.128
