DTS Sentinel unit serial number:	SN413079Multiplexer serial number:	ORYXHardware model number:	OX4-SRSoftware version number:	ORYX F/W v4.00 Oryx Data Collector v3.7.2.0data status	okinstallation	princeton_trtdifferential loss correction	single-endedforward channel	channel 4reverse channel	N/Adate	2019/09/11time	01:51:11forward acquisition time	60.00reverse acquisition time	0.00gamma	496.2192k internal	0.2318k external	0.2318temperature offset calibration	0.9947default loss term (dB/km)	0.3790temperature slope calibration	1.0000multiplexer offset coefficient	1.0000multiplexer slope coefficient	1.0000fibre end	0.00T internal ref (°C)	29.19T ext. ref 1 (°C)	-0.31T ext. ref 2 (°C)	23.14length (m)	temperature (°C)	Stokes	anti-Stokes-747.200	-200.000	0.023	-0.141
-746.185	63.733	0.326	0.332
-745.171	36.700	-0.041	0.037
-744.156	734.668	0.067	0.182
-743.142	9.792	-0.247	0.190
-742.127	-5.382	-0.216	-0.150
-741.112	-34.073	0.166	0.092
-740.098	489.148	0.093	0.214
-739.083	43.634	-0.135	0.125
-738.069	83.836	-0.074	0.082
-737.054	-200.000	-0.021	0.185
-736.039	800.000	-0.044	0.179
-735.025	800.000	-0.041	0.149
-734.010	-200.000	-0.092	0.000
-732.996	672.402	0.067	0.175
-731.981	800.000	0.053	0.184
-730.966	-33.983	0.093	0.052
-729.952	275.265	0.140	0.251
-728.937	-143.328	-0.097	0.009
-727.923	-108.630	-0.244	-0.053
-726.908	-171.018	0.201	0.007
-725.894	36.616	-0.263	0.235
-724.879	47.078	-0.192	0.181
-723.864	-200.000	-0.086	-0.531
-722.850	103.812	0.183	0.218
-721.835	-70.344	-0.108	-0.041
-720.821	314.072	0.170	-0.324
-719.806	-60.707	-0.250	-0.107
-718.791	-30.788	0.239	0.137
-717.777	-63.235	-0.193	0.081
-716.762	87.807	-0.274	-0.306
-715.748	221.760	-0.088	-0.143
-714.733	246.645	0.111	0.190
-713.718	-200.000	-0.024	-0.179
-712.704	419.239	0.094	0.204
-711.689	-65.808	-0.277	-0.112
-710.675	-200.000	-0.019	0.104
-709.660	77.060	-0.154	-0.166
-708.645	286.095	-0.080	0.146
-707.631	17.016	0.156	0.125
-706.616	-103.450	-0.278	-0.066
-705.602	34.694	0.156	-0.138
-704.587	-200.000	-0.009	0.476
-703.572	800.000	-0.042	0.179
-702.558	-87.407	-0.215	-0.066
-701.543	-96.310	0.215	0.058
-700.529	51.639	-0.043	0.041
-699.514	189.669	0.079	0.120
-698.499	-200.000	-0.017	-0.161
-697.485	800.000	0.041	-0.177
-696.470	64.555	0.131	-0.133
-695.456	-200.000	-0.017	-0.094
-694.441	-66.651	-0.266	-0.107
-693.426	84.976	-0.063	0.069
-692.412	-200.000	-0.030	-0.340
-691.397	42.025	-0.046	-0.043
-690.383	-200.000	-0.026	-0.221
-689.368	-200.000	-0.071	-0.418
-688.354	26.279	-0.298	-0.251
-687.339	472.662	0.051	-0.115
-686.324	-200.000	-0.025	0.268
-685.310	434.863	-0.184	-0.404
-684.295	51.917	-0.057	-0.055
-683.281	125.180	-0.071	-0.091
-682.266	-80.092	0.065	-0.022
-681.251	-200.000	0.030	-0.404
-680.237	155.676	0.086	-0.119
-679.222	-115.487	0.081	0.015
-678.208	46.940	0.113	-0.106
-677.193	-19.170	-0.087	-0.055
-676.178	-200.000	-0.006	-0.142
-675.164	-200.000	-0.013	-0.058
-674.149	356.680	-0.147	0.296
-673.135	69.239	0.152	0.157
-672.120	44.888	0.060	-0.056
-671.105	-200.000	-0.027	-0.257
-670.091	-61.312	-0.236	-0.100
-669.076	-74.955	0.271	0.098
-668.062	452.829	0.111	-0.248
-667.047	764.712	0.176	-0.484
-666.032	497.533	-0.121	-0.281
-665.018	-43.029	0.162	0.083
-664.003	800.000	0.018	-0.064
-662.989	-11.650	-0.295	0.195
-661.974	-46.312	-0.250	-0.124
-660.959	230.613	0.086	-0.142
-659.945	64.290	0.128	0.130
-658.930	-69.867	0.214	-0.082
-657.916	693.748	0.104	0.275
-656.901	800.000	0.032	-0.136
-655.886	-56.931	0.134	0.060
-654.872	800.000	-0.069	0.294
-653.857	67.762	-0.164	-0.169
-652.843	492.512	0.054	-0.124
-651.828	61.026	0.102	0.102
-650.814	58.574	-0.235	0.232
-649.799	-68.809	-0.042	-0.016
-648.784	-100.366	0.133	0.033
-647.770	-62.013	-0.158	-0.066
-646.755	-145.296	-0.149	0.014
-645.741	-200.000	-0.053	0.243
-644.726	800.000	0.076	-0.310
-643.711	-181.535	0.199	-0.004
-642.697	126.034	-0.284	-0.362
-641.682	-8.809	0.097	0.065
-640.668	567.246	-0.183	0.448
-639.653	29.158	0.179	0.153
-638.638	800.000	-0.062	-0.218
-637.624	-190.529	-0.018	-0.000
-636.609	-200.000	0.035	-0.179
-635.595	-102.905	-0.036	0.009
-634.580	-19.077	-0.262	0.164
-633.565	-99.076	-0.106	-0.027
-632.551	-133.968	-0.158	0.020
-631.536	86.775	0.188	0.210
-630.522	800.000	-0.018	0.077
-629.507	53.916	-0.309	-0.299
-628.492	-165.317	-0.150	0.007
-627.478	25.435	0.339	0.284
-626.463	-156.904	-0.374	0.023
-625.449	-104.213	-0.218	0.051
-624.434	800.000	-0.028	0.111
-623.419	299.152	-0.088	-0.163
-622.405	-163.509	0.265	-0.013
-621.390	-164.528	-0.504	0.023
-620.376	198.881	-0.102	-0.157
-619.361	169.266	0.325	0.467
-618.346	4.987	0.177	-0.131
-617.332	-14.272	-0.088	-0.057
-616.317	800.000	0.059	0.242
-615.303	223.548	0.072	0.117
-614.288	426.852	0.042	0.091
-613.273	48.867	-0.126	-0.119
-612.259	-97.491	0.163	-0.043
-611.244	5.354	-0.262	-0.195
-610.230	358.309	-0.200	-0.402
-609.215	-79.175	-0.172	0.059
-608.201	-26.376	0.233	-0.138
-607.186	-200.000	0.008	-0.164
-606.171	-84.155	-0.133	-0.042
-605.157	-200.000	0.018	-0.109
-604.142	-200.000	-0.065	0.328
-603.128	-200.000	-0.005	-0.179
-602.113	341.267	0.222	0.436
-601.098	-200.000	-0.003	-0.058
-600.084	-142.196	0.244	0.024
-599.069	129.620	-0.216	-0.277
-598.055	-28.491	0.372	-0.216
-597.040	17.812	0.061	-0.049
-596.025	-200.000	0.041	-0.200
-595.011	-12.573	-0.024	0.016
-593.996	-53.360	0.384	-0.177
-592.982	-116.627	-0.129	0.024
-591.967	-47.039	-0.184	0.091
-590.952	763.760	-0.034	0.093
-589.938	-157.496	0.338	0.020
-588.923	61.298	-0.274	0.274
-587.909	-200.000	0.027	-0.159
-586.894	-98.886	0.133	-0.034
-585.879	-131.711	0.134	-0.018
-584.865	-80.413	0.278	-0.093
-583.850	62.185	0.110	-0.110
-582.836	151.096	-0.041	0.056
-581.821	-200.000	-0.029	0.244
-580.806	577.176	0.154	0.377
-579.792	705.428	-0.085	0.226
-578.777	-183.242	0.291	0.005
-577.763	-4.783	0.128	-0.089
-576.748	249.145	0.057	-0.097
-575.733	-79.717	0.119	-0.040
-574.719	-38.998	-0.217	-0.115
-573.704	-81.155	-0.323	-0.107
-572.690	-168.275	-0.259	0.010
-571.675	-125.353	0.131	0.020
-570.661	54.544	-0.157	-0.152
-569.646	-116.112	0.324	0.061
-568.631	-200.000	-0.491	0.000
-567.617	206.823	0.082	-0.129
-566.602	4.748	0.218	-0.161
-565.588	-93.413	0.128	-0.036
-564.573	-68.485	0.309	-0.120
-563.558	800.000	-0.079	-0.334
-562.544	-200.000	-0.016	0.139
-561.529	800.000	-0.018	-0.061
-560.515	134.027	0.054	0.071
-559.500	13.836	-0.151	0.118
-558.485	-200.000	0.035	-0.326
-557.471	-200.000	0.042	0.386
-556.456	121.405	0.247	0.309
-555.442	343.238	-0.047	0.092
-554.427	-70.318	-0.086	-0.033
-553.412	85.508	-0.081	-0.090
-552.398	-90.982	0.278	-0.080
-551.383	74.858	-0.152	0.161
-550.369	256.421	-0.059	0.102
-549.354	800.000	0.132	0.421
-548.339	0.255	-0.171	-0.122
-547.325	45.528	0.210	-0.194
-546.310	-137.085	-0.166	-0.019
-545.296	766.214	-0.110	-0.301
-544.281	69.416	-0.091	0.094
-543.266	800.000	0.075	0.261
-542.252	548.725	-0.061	0.147
-541.237	-54.560	-0.170	0.077
-540.223	61.695	0.119	0.119
-539.208	-200.000	0.002	0.187
-538.193	-200.000	-0.020	0.220
-537.179	72.848	0.048	-0.050
-536.164	-10.573	-0.204	0.136
-535.150	118.830	-0.062	0.077
-534.135	-0.948	0.133	-0.094
-533.121	233.749	0.198	0.328
-532.106	95.721	-0.210	0.241
-531.091	157.290	0.289	-0.401
-530.077	56.303	-0.104	0.102
-529.062	800.000	0.069	0.213
-528.048	-42.991	-0.181	-0.092
-527.033	-102.259	0.269	0.065
-526.018	-200.000	-0.019	-0.141
-525.004	201.038	-0.265	-0.410
-523.989	800.000	0.055	-0.187
-522.975	800.000	-0.053	-0.200
-521.960	152.652	-0.032	-0.045
-520.945	800.000	-0.045	0.154
-519.931	44.935	0.053	0.049
-518.916	419.347	0.078	-0.166
-517.902	119.055	-0.177	0.220
-516.887	800.000	0.034	0.127
-515.872	401.232	0.070	0.147
-514.858	490.815	0.087	0.201
-513.843	42.372	0.255	0.233
-512.829	-53.872	-0.231	0.106
-511.814	128.504	0.171	0.219
-510.799	156.485	-0.148	-0.204
-509.785	355.458	0.023	-0.046
-508.770	-200.000	0.014	0.131
-507.756	-200.000	-0.024	0.160
-506.741	-200.000	0.082	0.379
-505.726	-95.788	-0.123	-0.033
-504.712	-69.644	-0.263	-0.101
-503.697	-200.000	0.032	-0.183
-502.683	248.697	0.100	0.170
-501.668	12.147	-0.145	0.112
-500.653	-167.108	0.056	-0.002
-499.639	800.000	-0.041	-0.149
-498.624	-113.803	-0.341	-0.066
-497.610	195.124	0.045	0.068
-496.595	183.934	0.011	0.016
-495.581	-145.129	-0.362	-0.033
-494.566	16.855	0.138	0.109
-493.551	800.000	-0.070	-0.255
-492.537	160.830	0.141	0.197
-491.522	-121.436	0.066	0.011
-490.508	26.508	0.094	0.078
-489.493	-117.016	0.133	-0.024
-488.478	222.124	-0.319	0.515
-487.464	-117.050	-0.110	-0.020
-486.449	581.431	-0.068	0.166
-485.435	65.382	0.111	-0.113
-484.420	318.988	-0.145	-0.275
-483.405	-88.972	0.328	0.097
-482.391	800.000	-0.109	0.354
-481.376	167.254	0.224	-0.319
-480.362	179.416	0.153	-0.225
-479.347	1.368	-0.204	0.147
-478.332	-60.823	0.254	-0.108
-477.318	228.701	-0.061	-0.099
-476.303	-44.890	-0.161	-0.080
-475.289	53.363	0.077	-0.074
-474.274	457.943	0.110	-0.245
-473.259	-107.649	0.130	-0.028
-472.245	-200.000	0.024	-0.151
-471.230	800.000	-0.053	-0.163
-470.216	-80.235	0.183	0.061
-469.201	-200.000	-0.001	0.108
-468.186	64.050	-0.183	-0.184
-467.172	800.000	0.096	-0.291
-466.157	279.244	0.070	0.125
-465.143	-142.600	-0.128	0.013
-464.128	152.469	0.077	0.105
-463.113	-200.000	0.007	0.158
-462.099	663.462	0.049	0.126
-461.084	101.295	-0.199	0.232
-460.070	800.000	-0.177	-0.501
-459.055	-200.000	-0.024	0.250
-458.040	-176.994	-0.349	-0.009
-457.026	-92.082	0.142	0.040
-456.011	-200.000	-0.022	-0.277
-454.997	214.746	-0.042	0.066
-453.982	118.055	0.222	0.274
-452.968	174.699	-0.129	0.187
-451.953	-25.232	0.132	0.078
-450.938	-83.147	-0.436	0.140
-449.924	800.000	0.043	0.162
-448.909	-108.235	0.279	0.060
-447.895	-76.707	-0.259	-0.091
-446.880	-200.000	-0.061	-0.278
-445.865	-26.145	0.122	0.072
-444.851	-19.483	-0.149	0.092
-443.836	-16.561	0.070	-0.044
-442.822	-53.923	0.163	-0.075
-441.807	-142.063	0.101	0.010
-440.792	4.432	0.061	0.045
-439.778	96.821	-0.083	-0.095
-438.763	-49.113	-0.160	0.077
-437.749	1.238	-0.280	-0.201
-436.734	170.432	0.102	0.145
-435.719	800.000	-0.126	-0.387
-434.705	-32.845	0.239	0.133
-433.690	-177.198	-0.416	0.010
-432.676	258.518	-0.082	0.141
-431.661	38.558	-0.269	-0.240
-430.646	57.462	0.142	0.138
-429.632	-200.000	-0.024	0.245
-428.617	-200.000	0.032	0.202
-427.603	-64.447	-0.074	0.030
-426.588	-200.000	0.027	-0.367
-425.573	106.434	-0.217	-0.257
-424.559	-82.783	-0.181	-0.058
-423.544	-75.449	-0.252	-0.090
-422.530	-200.000	-0.034	0.326
-421.515	-44.023	0.098	-0.049
-420.500	-142.250	-0.359	-0.035
-419.486	-143.358	0.242	-0.023
-418.471	-200.000	-0.021	-0.319
-417.457	-124.277	-0.342	0.053
-416.442	-145.261	0.215	-0.019
-415.428	-1.214	-0.067	-0.047
-414.413	580.678	-0.070	0.172
-413.398	272.976	0.089	0.156
-412.384	123.502	0.366	-0.459
-411.369	-193.934	-0.066	0.001
-410.355	-200.000	0.024	0.111
-409.340	-94.995	-0.156	-0.042
-408.325	528.247	0.049	0.116
-407.311	120.970	0.170	-0.212
-406.296	-44.361	-0.126	-0.063
-405.282	-14.338	-0.299	0.192
-404.267	101.997	0.040	-0.046
-403.252	-55.472	0.097	0.043
-402.238	-200.000	0.014	-0.249
-401.223	28.751	0.209	-0.177
-400.209	-107.530	-0.280	0.061
-399.194	-128.465	-0.220	0.031
-398.179	-27.765	0.227	-0.132
-397.165	-75.243	0.162	-0.058
-396.150	-64.041	-0.269	0.110
-395.136	-104.757	0.233	-0.054
-394.121	-130.292	-0.347	0.047
-393.106	-50.434	-0.155	0.073
-392.092	-91.033	0.136	0.039
-391.077	520.904	0.123	0.287
-390.063	-21.728	-0.093	-0.056
-389.048	800.000	0.020	-0.058
-388.033	56.743	-0.262	-0.255
-387.019	131.651	0.170	0.218
-386.004	136.885	0.043	0.056
-384.990	-34.923	-0.119	0.065
-383.975	-200.000	-0.056	0.400
-382.960	-96.039	-0.059	-0.016
-381.946	-94.088	0.239	0.066
-380.931	-104.104	0.489	-0.114
-379.917	800.000	0.058	-0.175
-378.902	800.000	-0.091	0.298
-377.888	-200.000	-0.016	0.200
-376.873	-200.000	0.028	0.138
-375.858	-1.327	0.230	-0.162
-374.844	22.903	0.149	-0.122
-373.829	-200.000	-0.013	0.106
-372.815	-95.608	0.150	-0.040
-371.800	-70.615	-0.120	-0.045
-370.785	-200.000	-0.019	-0.187
-369.771	800.000	0.087	-0.274
-368.756	582.941	-0.105	0.256
-367.742	-35.909	0.250	-0.135
-366.727	-128.412	0.363	-0.052
-365.712	72.682	-0.137	0.143
-364.698	-72.515	-0.111	0.041
-363.683	-119.052	-0.082	0.014
-362.669	131.787	0.102	0.130
-361.654	800.000	0.022	-0.071
-360.639	-200.000	0.059	0.343
-359.625	722.121	0.025	0.067
-358.610	69.782	-0.188	0.193
-357.596	-186.905	-0.211	0.003
-356.581	487.374	0.144	0.328
-355.566	193.387	0.163	0.246
-354.552	-36.161	0.085	-0.046
-353.537	-200.000	0.026	-0.197
-352.523	509.871	-0.112	-0.260
-351.508	-152.670	-0.195	-0.014
-350.493	-6.869	-0.294	0.199
-349.479	-200.000	0.003	0.489
-348.464	-78.852	0.106	0.036
-347.450	356.688	-0.154	0.306
-346.435	-155.970	0.195	-0.012
-345.420	-59.843	-0.208	-0.089
-344.406	-91.217	0.129	-0.037
-343.391	125.791	-0.268	0.337
-342.377	800.000	-0.035	0.121
-341.362	31.151	0.072	0.061
-340.348	0.518	0.123	-0.088
-339.333	-11.308	0.269	-0.176
-338.318	-128.549	-0.352	-0.050
-337.304	-111.787	-0.122	0.025
-336.289	322.694	-0.028	0.052
-335.275	-200.000	-0.006	-0.047
-334.260	-64.780	-0.166	0.067
-333.245	-71.444	0.225	0.084
-332.231	-131.067	-0.163	0.022
-331.216	130.442	0.120	-0.154
-330.202	148.810	0.245	0.330
-329.187	-168.858	0.167	-0.006
-328.172	-82.157	-0.181	-0.059
-327.158	-140.663	0.182	-0.019
-326.143	800.000	-0.063	-0.185
-325.129	48.153	0.084	-0.078
-324.114	-163.776	-0.245	-0.011
-323.099	-200.000	0.016	-0.226
-322.085	-28.604	-0.224	-0.129
-321.070	-97.604	-0.192	0.050
-320.056	-200.000	-0.027	0.121
-319.041	-144.842	0.167	0.015
-318.026	-149.493	0.117	-0.009
-317.012	-133.368	-0.140	-0.018
-315.997	-41.237	0.345	-0.177
-314.983	-169.602	-0.206	-0.007
-313.968	-65.759	0.141	-0.056
-312.953	-6.526	0.056	-0.038
-311.939	200.520	-0.101	-0.155
-310.924	160.394	-0.095	0.132
-309.910	-200.000	0.049	-0.300
-308.895	-89.149	-0.179	0.053
-307.880	780.058	-0.020	-0.053
-306.866	124.050	0.170	-0.213
-305.851	-103.285	0.203	0.048
-304.837	103.632	0.200	-0.233
-303.822	-49.975	-0.147	0.070
-302.807	-2.797	0.211	-0.147
-301.793	-144.272	0.091	0.008
-300.778	-200.000	0.031	0.236
-299.764	243.948	-0.136	-0.227
-298.749	-112.574	-0.232	0.046
-297.735	-35.011	-0.322	-0.174
-296.720	146.271	-0.249	-0.332
-295.705	-2.038	0.210	-0.146
-294.691	51.243	-0.208	-0.197
-293.676	638.935	0.095	-0.240
-292.662	684.987	-0.023	-0.059
-291.647	-200.000	-0.010	-0.112
-290.632	-52.357	0.342	-0.157
-289.618	39.744	-0.364	0.325
-288.603	-200.000	-0.018	-0.230
-287.589	147.768	-0.163	0.219
-286.574	-90.883	0.304	-0.087
-285.559	-69.942	-0.232	0.088
-284.545	-30.593	0.136	-0.076
-283.530	-105.396	-0.287	-0.065
-282.516	152.755	-0.099	-0.135
-281.501	800.000	-0.042	0.154
-280.486	19.835	0.428	0.343
-279.472	-79.772	0.094	0.031
-278.457	-63.251	-0.216	0.089
-277.443	214.500	-0.327	0.515
-276.428	676.466	-0.076	0.196
-275.413	109.231	-0.169	-0.201
-274.399	66.764	0.160	-0.161
-273.384	800.000	-0.028	-0.106
-272.370	29.435	0.158	0.133
-271.355	20.138	-0.194	0.156
-270.340	-200.000	0.120	0.000
-269.326	23.482	-0.332	0.272
-268.311	165.044	0.120	0.168
-267.297	-200.000	0.014	0.253
-266.282	10.450	-0.365	0.276
-265.267	-71.034	-0.243	-0.091
-264.253	-104.216	-0.189	0.044
-263.238	25.729	0.056	-0.046
-262.224	-75.221	0.231	-0.082
-261.209	153.986	0.021	-0.029
-260.195	-146.208	0.104	-0.009
-259.180	60.581	-0.181	0.178
-258.165	-93.581	0.510	0.140
-257.151	215.978	-0.083	0.131
-256.136	203.194	-0.112	0.172
-255.122	-200.000	-0.028	-0.163
-254.107	111.584	-0.186	0.223
-253.092	-169.416	0.390	0.014
-252.078	9.392	-0.142	-0.107
-251.063	481.567	-0.102	0.230
-250.049	-126.154	-0.129	0.019
-249.034	583.083	-0.098	0.238
-248.019	800.000	0.077	0.310
-247.005	-200.000	-0.016	0.118
-245.990	-200.000	0.004	-0.102
-244.976	-200.000	0.044	-0.226
-243.961	-65.419	0.133	0.053
-242.946	21.915	0.136	0.110
-241.932	-200.000	0.005	-0.075
-240.917	-29.166	0.299	0.170
-239.903	-18.492	0.309	0.191
-238.888	206.056	0.070	0.108
-237.873	134.189	0.075	-0.097
-236.859	-126.073	0.252	0.037
-235.844	-16.987	-0.242	-0.152
-234.830	-110.856	0.264	-0.054
-233.815	81.200	0.015	-0.016
-232.800	-17.156	0.088	0.055
-231.786	-96.554	0.130	-0.034
-230.771	-200.000	0.028	-0.165
-229.757	-38.229	-0.168	-0.088
-228.742	800.000	-0.025	0.085
-227.727	-29.386	0.173	0.098
-226.713	-166.892	0.156	0.006
-225.698	101.210	-0.075	-0.087
-224.684	-107.857	-0.103	0.022
-223.669	-66.280	-0.202	-0.080
-222.655	-5.661	-0.248	-0.169
-221.640	193.815	0.127	-0.190
-220.625	56.440	0.217	-0.209
-219.611	-101.208	0.176	-0.043
-218.596	45.339	0.126	-0.115
-217.582	-200.000	-0.012	0.060
-216.567	-61.243	0.413	-0.173
-215.552	247.500	0.055	0.092
-214.538	-200.000	0.008	-0.357
-213.523	-200.000	0.010	0.045
-212.509	169.423	-0.173	0.245
-211.494	800.000	-0.038	0.118
-210.479	-107.642	0.121	-0.026
-209.465	97.168	0.076	-0.086
-208.450	217.716	0.367	-0.581
-207.436	-0.679	0.280	-0.197
-206.421	-196.029	0.143	0.001
-205.406	14.377	0.345	-0.267
-204.392	-200.000	-0.014	0.142
-203.377	32.206	0.149	0.127
-202.363	-115.188	-0.122	0.023
-201.348	-200.000	-0.033	-0.218
-200.333	-88.221	0.265	0.079
-199.319	800.000	0.053	-0.190
-198.304	62.254	0.084	-0.084
-197.290	-43.737	0.216	-0.108
-196.275	800.000	-0.036	0.132
-195.260	-14.839	-0.210	-0.134
-194.246	21.539	-0.066	0.053
-193.231	800.000	0.031	0.126
-192.217	-26.888	-0.008	0.004
-191.202	-50.690	0.087	0.041
-190.187	60.664	0.091	-0.090
-189.173	225.640	0.182	0.292
-188.158	-145.507	0.176	-0.016
-187.144	-53.978	0.217	0.098
-186.129	729.092	0.087	-0.231
-185.114	-51.742	-0.163	0.075
-184.100	-200.000	-0.007	-0.192
-183.085	82.440	-0.211	-0.226
-182.071	-200.000	-0.010	0.108
-181.056	-134.043	-0.218	0.027
-180.042	-155.270	-0.402	0.026
-179.027	-32.024	-0.230	-0.127
-178.012	-20.681	-0.331	-0.201
-176.998	-200.000	0.005	-0.137
-175.983	-110.003	-0.273	-0.057
-174.969	127.909	-0.144	0.182
-173.954	21.413	0.159	0.128
-172.939	-200.000	0.001	-0.379
-171.925	326.255	-0.037	-0.071
-170.910	48.083	0.270	-0.250
-169.896	-167.249	0.175	-0.007
-168.881	105.102	0.138	-0.161
-167.866	319.777	0.197	-0.370
-166.852	214.554	0.164	-0.257
-165.837	-171.606	-0.103	0.003
-164.823	-65.526	-0.071	0.028
-163.808	800.000	0.024	0.080
-162.793	-176.071	-0.320	-0.008
-161.779	-141.638	0.213	0.021
-160.764	-149.083	-0.169	0.013
-159.750	411.773	0.102	-0.214
-158.735	386.852	0.080	0.164
-157.720	-103.998	-0.060	0.014
-156.706	-135.937	0.166	0.019
-155.691	720.915	-0.128	-0.336
-154.677	-16.155	0.150	0.094
-153.662	164.923	0.171	0.239
-152.647	419.078	-0.131	-0.276
-151.633	-69.783	0.173	-0.065
-150.618	-114.789	0.054	0.010
-149.604	-81.462	0.307	0.100
-148.589	296.006	-0.045	0.082
-147.574	-141.149	0.346	0.035
-146.560	513.553	-0.218	-0.503
-145.545	-200.000	0.026	0.118
-144.531	-177.885	0.177	-0.004
-143.516	11.097	0.118	-0.089
-142.502	474.657	-0.128	0.286
-141.487	-200.000	0.031	0.286
-140.472	37.390	-0.216	-0.189
-139.458	273.811	-0.102	-0.178
-138.443	108.432	-0.174	-0.205
-137.429	-15.721	0.086	-0.054
-136.414	-106.121	-0.357	0.079
-135.399	-200.000	0.010	0.143
-134.385	800.000	0.006	-0.020
-133.370	-63.130	-0.304	-0.124
-132.356	465.924	-0.140	-0.309
-131.341	-16.713	-0.051	0.032
-130.326	800.000	-0.012	0.043
-129.312	-121.750	-0.067	0.011
-128.297	-136.952	0.194	-0.022
-127.283	-150.041	0.467	-0.036
-126.268	-200.000	-0.029	0.165
-125.253	-30.523	0.194	0.109
-124.239	80.307	-0.141	-0.150
-123.224	-200.000	0.022	-0.270
-122.210	-43.269	0.420	0.210
-121.195	-55.143	0.294	0.131
