DTS Sentinel unit serial number:	SN413079Multiplexer serial number:	ORYXHardware model number:	OX4-SRSoftware version number:	ORYX F/W v4.00 Oryx Data Collector v3.7.2.0data status	okinstallation	princeton_trtdifferential loss correction	single-endedforward channel	channel 4reverse channel	N/Adate	2019/09/11time	01:59:10forward acquisition time	60.00reverse acquisition time	0.00gamma	496.2192k internal	0.2318k external	0.2318temperature offset calibration	0.9950default loss term (dB/km)	0.3790temperature slope calibration	1.0000multiplexer offset coefficient	1.0000multiplexer slope coefficient	1.0000fibre end	0.00T internal ref (°C)	29.19T ext. ref 1 (°C)	-0.31T ext. ref 2 (°C)	23.26length (m)	temperature (°C)	Stokes	anti-Stokes-747.200	-200.000	0.003	0.211
-746.185	-97.231	-0.151	-0.040
-745.171	-121.812	-0.261	0.044
-744.156	153.626	0.025	0.035
-743.142	-39.111	-0.179	0.095
-742.127	-200.000	-0.020	0.130
-741.112	-79.783	0.320	-0.109
-740.098	-100.709	-0.076	0.019
-739.083	-13.998	-0.369	0.241
-738.069	800.000	-0.030	-0.124
-737.054	-10.835	-0.082	0.055
-736.039	-182.567	-0.177	0.003
-735.025	-127.986	-0.151	0.022
-734.010	-42.892	-0.129	-0.066
-732.996	-15.138	0.120	0.078
-731.981	338.151	-0.081	0.159
-730.966	-69.149	-0.381	0.148
-729.952	338.417	-0.092	0.181
-728.937	236.088	-0.238	-0.398
-727.923	-200.000	-0.021	-0.131
-726.908	254.401	0.039	-0.068
-725.894	-200.000	0.044	0.260
-724.879	-81.163	-0.193	0.065
-723.864	-75.320	-0.146	-0.053
-722.850	674.651	-0.226	0.592
-721.835	-53.154	0.126	-0.059
-720.821	248.603	0.115	0.197
-719.806	-95.717	-0.173	-0.047
-718.791	28.220	-0.114	0.097
-717.777	800.000	0.044	-0.168
-716.762	800.000	0.033	0.131
-715.748	-150.455	0.243	0.019
-714.733	65.774	-0.077	0.079
-713.718	110.641	-0.157	-0.191
-712.704	-200.000	0.018	-0.277
-711.689	-109.339	-0.153	0.033
-710.675	153.096	0.111	0.153
-709.660	75.831	-0.131	0.140
-708.645	-200.000	-0.026	0.178
-707.631	-200.000	0.001	-0.046
-706.616	406.826	-0.058	-0.124
-705.602	135.885	0.162	-0.213
-704.587	-117.487	-0.114	0.021
-703.572	-45.025	0.161	-0.081
-702.558	-19.605	0.115	-0.072
-701.543	32.112	-0.161	-0.140
-700.529	-97.551	-0.142	0.037
-699.514	-82.739	-0.085	-0.028
-698.499	-78.501	-0.216	-0.075
-697.485	-38.823	0.057	0.030
-696.470	-200.000	0.007	-0.143
-695.456	-83.665	-0.320	0.103
-694.441	-88.314	-0.174	-0.052
-693.426	42.227	-0.120	-0.110
-692.412	-160.421	0.238	-0.013
-691.397	-200.000	-0.023	-0.155
-690.383	-13.377	-0.078	-0.051
-689.368	156.743	-0.129	0.180
-688.354	715.944	0.047	-0.125
-687.339	44.911	-0.024	0.023
-686.324	64.147	-0.154	-0.157
-685.310	-200.000	0.012	0.224
-684.295	-200.000	-0.031	0.176
-683.281	-200.000	-0.199	0.000
-682.266	-97.174	0.164	0.043
-681.251	-161.630	-0.434	0.022
-680.237	-95.397	-0.293	-0.079
-679.222	-200.000	-0.035	0.165
-678.208	-154.133	-0.711	0.049
-677.193	137.277	-0.137	-0.180
-676.178	-200.000	-0.042	-0.247
-675.164	302.702	0.135	-0.252
-674.149	-200.000	0.004	0.252
-673.135	-200.000	-0.050	0.243
-672.120	0.561	-0.126	-0.091
-671.105	285.419	0.174	-0.317
-670.091	-200.000	0.079	-0.603
-669.076	-121.956	-0.228	0.038
-668.062	-100.161	-0.280	-0.070
-667.047	-63.050	-0.198	-0.083
-666.032	83.981	0.085	-0.094
-665.018	129.588	0.044	-0.056
-664.003	55.877	0.211	-0.206
-662.989	-93.885	-0.079	-0.022
-661.974	-108.886	-0.102	0.022
-660.959	53.615	-0.333	0.322
-659.945	148.968	-0.135	-0.184
-658.930	800.000	0.032	0.103
-657.916	27.765	-0.203	0.173
-656.901	168.405	0.123	-0.177
-655.886	-46.340	0.182	-0.090
-654.872	81.474	0.110	-0.120
-653.857	80.595	0.101	0.110
-652.843	41.284	0.041	0.037
-651.828	270.925	-0.117	0.208
-650.814	-106.695	-0.253	0.057
-649.799	-74.782	0.253	-0.092
-648.784	-178.153	0.204	-0.005
-647.770	147.003	-0.087	-0.118
-646.755	430.537	0.069	0.152
-645.741	-42.164	0.106	0.054
-644.726	10.826	0.101	0.078
-643.711	-75.610	0.242	0.087
-642.697	132.696	-0.073	0.095
-641.682	8.807	-0.158	-0.120
-640.668	800.000	-0.017	-0.067
-639.653	142.680	0.081	0.109
-638.638	-133.976	-0.436	-0.055
-637.624	-120.933	-0.192	-0.032
-636.609	20.144	-0.378	0.308
-635.595	146.845	-0.103	0.139
-634.580	-27.562	0.328	-0.192
-633.565	149.037	-0.150	-0.204
-632.551	800.000	-0.060	-0.249
-631.536	-132.744	0.128	0.016
-630.522	117.023	-0.114	-0.141
-629.507	68.027	-0.119	-0.122
-628.492	-29.512	0.201	0.116
-627.478	-142.916	-0.139	0.014
-626.463	-136.525	0.199	0.023
-625.449	-200.000	-0.049	-0.333
-624.434	97.967	-0.108	0.125
-623.419	-200.000	-0.023	0.347
-622.405	800.000	-0.100	-0.316
-621.390	5.522	0.112	0.083
-620.376	-122.217	-0.049	0.008
-619.361	119.922	0.231	-0.288
-618.346	-117.754	-0.153	-0.028
-617.332	63.693	-0.115	-0.116
-616.317	-179.098	0.369	0.008
-615.303	86.206	-0.217	0.241
-614.288	800.000	-0.011	0.045
-613.273	410.635	-0.034	-0.072
-612.259	800.000	-0.122	0.438
-611.244	-26.950	-0.286	0.168
-610.230	-51.306	-0.075	-0.035
-609.215	-200.000	0.013	-0.559
-608.201	-91.620	-0.143	-0.041
-607.186	-86.610	-0.083	0.025
-606.171	-27.859	-0.288	0.168
-605.157	-200.000	0.040	-0.240
-604.142	-141.388	0.109	0.011
-603.128	-121.176	-0.087	0.015
-602.113	-13.547	-0.081	-0.053
-601.098	312.208	0.105	0.199
-600.084	263.193	-0.073	-0.127
-599.069	152.502	-0.098	0.135
-598.055	327.260	0.132	0.254
-597.040	-200.000	0.010	0.202
-596.025	-49.425	-0.108	0.052
-595.011	-12.489	0.091	0.060
-593.996	800.000	-0.099	0.319
-592.982	19.131	0.237	0.191
-591.967	-57.065	0.074	0.033
-590.952	-200.000	0.037	0.263
-589.938	-200.000	0.003	0.012
-588.923	-200.000	0.017	-0.272
-587.909	-6.531	0.240	0.164
-586.894	800.000	0.043	-0.181
-585.879	-200.000	0.024	0.322
-584.865	759.964	-0.064	0.174
-583.850	-200.000	0.016	0.161
-582.836	92.793	-0.272	-0.309
-581.821	169.303	-0.139	-0.199
-580.806	163.485	-0.139	-0.196
-579.792	25.053	-0.147	0.123
-578.777	8.230	-0.156	-0.118
-577.763	9.613	0.155	0.118
-576.748	-200.000	0.007	0.056
-575.733	-0.764	-0.142	-0.101
-574.719	11.092	0.150	-0.115
-573.704	-89.190	0.132	0.039
-572.690	-200.000	0.012	-0.159
-571.675	-16.302	-0.188	-0.120
-570.661	200.700	0.101	0.157
-569.646	47.487	-0.323	-0.302
-568.631	37.037	0.143	0.127
-567.617	1.704	0.042	0.030
-566.602	-200.000	-0.023	0.386
-565.588	-200.000	0.015	0.096
-564.573	-200.000	-0.039	-0.195
-563.558	7.055	-0.081	0.061
-562.544	16.377	0.109	0.086
-561.529	82.967	0.148	0.162
-560.515	5.170	-0.263	-0.194
-559.500	108.891	0.143	-0.172
-558.485	-44.918	-0.247	-0.124
-557.471	26.016	0.220	0.184
-556.456	800.000	0.075	0.245
-555.442	800.000	0.044	0.176
-554.427	-96.385	0.150	-0.040
-553.412	-9.176	-0.252	-0.169
-552.398	-105.493	-0.260	0.059
-551.383	-200.000	0.032	-0.287
-550.369	82.939	0.198	-0.216
-549.354	-66.970	0.163	0.065
-548.339	800.000	-0.044	0.149
-547.325	800.000	-0.053	0.209
-546.310	564.255	-0.041	-0.100
-545.296	204.102	-0.100	0.156
-544.281	-200.000	0.035	0.183
-543.266	254.863	0.156	-0.268
-542.252	-114.605	0.211	0.041
-541.237	-93.863	-0.228	0.063
-540.223	-50.420	-0.187	0.089
-539.208	-115.842	0.371	-0.070
-538.193	-200.000	-0.022	-0.267
-537.179	800.000	-0.058	-0.244
-536.164	112.302	-0.097	0.118
-535.150	65.924	-0.128	0.130
-534.135	800.000	-0.041	-0.131
-533.121	-148.979	-0.218	-0.018
-532.106	-101.971	-0.441	-0.107
-531.091	800.000	-0.076	0.259
-530.077	-11.299	-0.177	-0.117
-529.062	-200.000	-0.023	0.137
-528.048	-34.114	-0.286	-0.158
-527.033	642.662	-0.083	-0.211
-526.018	-8.438	0.175	0.118
-525.004	322.184	-0.110	0.209
-523.989	-134.092	0.448	0.056
-522.975	-42.209	0.002	-0.001
-521.960	-3.812	0.166	0.115
-520.945	-200.000	-0.004	0.204
-519.931	-112.243	-0.197	0.040
-518.916	46.182	-0.014	-0.013
-517.902	-153.843	0.236	-0.016
-516.887	-96.727	0.137	0.036
-515.872	-77.503	0.169	0.059
-514.858	-200.000	0.012	0.241
-513.843	18.608	-0.035	0.028
-512.829	3.032	0.073	-0.053
-511.814	-200.000	0.021	0.240
-510.799	-0.456	-0.180	-0.128
-509.785	32.482	-0.145	0.125
-508.770	35.252	0.226	-0.199
-507.756	-72.757	-0.165	0.061
-506.741	-78.948	0.119	-0.041
-505.726	325.011	-0.061	-0.117
-504.712	440.573	-0.069	0.152
-503.697	-31.613	-0.186	-0.105
-502.683	-55.591	0.322	-0.145
-501.668	-183.112	-0.183	0.003
-500.653	-200.000	0.017	-0.178
-499.639	151.432	0.292	-0.398
-498.624	-54.453	-0.366	-0.166
-497.610	7.118	-0.219	-0.164
-496.595	-97.001	0.113	0.030
-495.581	91.355	0.063	0.071
-494.566	0.229	0.155	0.111
-493.551	290.568	0.135	-0.245
-492.537	800.000	-0.049	0.161
-491.522	-200.000	0.074	-0.354
-490.508	108.292	-0.069	0.082
-489.493	-14.745	-0.123	0.079
-488.478	22.863	-0.151	0.124
-487.464	-92.286	0.045	-0.013
-486.449	399.303	-0.126	0.263
-485.435	800.000	0.015	0.043
-484.420	15.221	-0.141	0.110
-483.405	-184.624	-0.449	0.007
-482.391	-165.871	-0.241	-0.010
-481.376	236.901	0.034	0.056
-480.362	-153.800	-0.187	-0.013
-479.347	223.999	0.155	-0.251
-478.332	-128.548	0.049	0.007
-477.318	-113.711	-0.440	-0.086
-476.303	-121.720	0.129	-0.021
-475.289	-200.000	-0.044	-0.276
-474.274	-43.238	-0.396	-0.201
-473.259	-80.153	0.244	-0.082
-472.245	-200.000	0.013	-0.164
-471.230	-107.818	-0.159	0.035
-470.216	-135.094	0.242	0.029
-469.201	-200.000	-0.028	0.150
-468.186	334.167	-0.203	0.394
-467.172	-200.000	0.005	0.129
-466.157	215.916	0.064	0.102
-465.143	642.872	0.090	-0.231
-464.128	-138.051	0.169	0.019
-463.113	-200.000	-0.035	0.157
-462.099	22.739	0.150	0.123
-461.084	800.000	0.070	0.269
-460.070	-100.571	-0.126	0.031
-459.055	800.000	-0.096	-0.287
-458.040	800.000	0.054	-0.155
-457.026	138.506	0.059	0.077
-456.011	800.000	0.074	-0.222
-454.997	166.384	-0.079	0.112
-453.982	-200.000	-0.007	-0.079
-452.968	-200.000	-0.005	-0.132
-451.953	184.680	0.197	0.292
-450.938	154.395	0.097	-0.134
-449.924	-152.668	0.470	0.034
-448.909	-129.015	-0.537	0.075
-447.895	-200.000	-0.001	-0.376
-446.880	-200.000	-0.019	0.271
-445.865	-200.000	-0.006	0.070
-444.851	-128.145	-0.108	0.015
-443.836	-27.793	0.090	-0.052
-442.822	-130.522	0.272	-0.037
-441.807	-170.274	-0.189	-0.007
-440.792	290.404	0.024	0.044
-439.778	-200.000	-0.005	-0.027
-438.763	435.861	-0.065	-0.142
-437.749	-200.000	-0.005	-0.091
-436.734	8.576	0.262	-0.197
-435.719	589.655	0.054	0.133
-434.705	183.977	-0.138	0.205
-433.690	-200.000	0.016	-0.099
-432.676	91.543	0.240	0.269
-431.661	-148.420	0.197	0.016
-430.646	-200.000	-0.043	0.324
-429.632	-123.750	-0.379	0.060
-428.617	-32.871	-0.213	0.119
-427.603	-200.000	-0.005	-0.071
-426.588	-38.170	0.096	0.051
-425.573	-155.180	0.239	0.016
-424.559	106.594	0.278	0.330
-423.544	-200.000	-0.037	0.286
-422.530	96.867	-0.255	0.293
-421.515	-108.163	0.141	-0.031
-420.500	800.000	-0.012	0.040
-419.486	-38.836	-0.363	-0.191
-418.471	-72.787	0.301	0.111
-417.457	-54.825	-0.107	0.048
-416.442	-96.308	0.146	-0.039
-415.428	79.770	-0.286	-0.307
-414.413	-101.302	-0.235	0.057
-413.398	-111.171	-0.118	0.024
-412.384	112.811	-0.180	-0.217
-411.369	69.265	0.072	-0.074
-410.355	-200.000	-0.025	0.142
-409.340	62.245	-0.134	-0.134
-408.325	-156.249	0.278	0.017
-407.311	176.688	-0.110	0.160
-406.296	28.109	0.213	0.180
-405.282	-156.075	0.303	0.019
-404.267	-122.623	0.102	0.016
-403.252	-81.501	-0.260	-0.085
-402.238	-200.000	0.010	-0.102
-401.223	-8.109	0.253	0.170
-400.209	154.201	-0.200	0.274
-399.194	-200.000	-0.004	-0.037
-398.179	0.742	-0.021	-0.015
-397.165	-21.201	-0.133	0.081
-396.150	-84.243	-0.324	0.103
-395.136	517.843	-0.194	-0.454
-394.121	-200.000	-0.008	-0.223
-393.106	800.000	-0.094	-0.384
-392.092	61.930	0.110	0.110
-391.077	-146.862	-0.272	-0.023
-390.063	-75.889	-0.083	-0.030
-389.048	-135.486	-0.239	-0.028
-388.033	-135.443	-0.188	0.022
-387.019	-99.608	-0.121	0.030
-386.004	800.000	-0.057	0.187
-384.990	259.744	-0.101	0.175
-383.975	30.212	0.137	0.117
-382.960	392.436	0.092	-0.190
-381.946	131.710	-0.103	-0.132
-380.931	695.040	-0.040	-0.105
-379.917	-33.926	0.151	-0.083
-378.902	328.828	0.053	0.101
-377.888	-41.523	0.228	-0.117
-376.873	-200.000	-0.008	0.349
-375.858	-29.998	-0.026	-0.015
-374.844	252.154	0.084	-0.142
-373.829	154.879	-0.069	0.095
-372.815	-138.691	0.064	-0.007
-371.800	132.474	-0.039	-0.051
-370.785	24.647	-0.272	-0.225
-369.771	800.000	-0.079	-0.325
-368.756	73.202	-0.029	0.031
-367.742	57.707	0.238	-0.232
-366.727	-127.793	-0.357	0.051
-365.712	471.656	0.043	-0.097
-364.698	120.391	-0.130	-0.160
-363.683	610.981	-0.160	-0.399
-362.669	412.118	-0.063	0.133
-361.654	586.568	0.157	-0.386
-360.639	30.982	0.184	-0.157
-359.625	-197.066	0.140	-0.001
-358.610	-82.840	-0.277	0.089
-357.596	-200.000	-0.020	0.170
-356.581	-125.069	-0.433	-0.066
-355.566	320.858	0.099	0.188
-354.552	246.608	0.044	-0.073
-353.537	216.003	0.270	0.427
-352.523	-94.748	0.378	0.102
-351.508	-102.932	0.529	0.125
-350.493	-111.213	-0.332	-0.068
-349.479	-157.631	-0.117	-0.007
-348.464	78.341	-0.283	0.301
-347.450	-99.794	-0.244	0.061
-346.435	-59.541	0.385	-0.165
-345.420	-200.000	-0.015	-0.204
-344.406	-115.298	0.333	0.063
-343.391	-76.426	-0.187	0.065
-342.377	-83.454	0.205	0.065
-341.362	-117.884	0.195	-0.035
-340.348	3.227	-0.023	-0.017
-339.333	137.861	0.167	0.218
-338.318	800.000	-0.040	0.114
-337.304	438.194	0.104	-0.227
-336.289	800.000	0.091	0.337
-335.275	156.272	-0.259	0.356
-334.260	800.000	0.072	-0.252
-333.245	88.952	-0.127	0.140
-332.231	47.879	-0.059	-0.055
-331.216	-91.956	0.035	-0.010
-330.202	256.964	-0.091	-0.156
-329.187	-200.000	0.006	-0.275
-328.172	-159.427	-0.378	-0.021
-327.158	-59.774	-0.272	-0.116
-326.143	76.165	-0.295	0.311
-325.129	44.417	0.166	-0.152
-324.114	185.098	-0.018	0.027
-323.099	-12.483	0.107	0.069
-322.085	58.896	-0.166	-0.163
-321.070	-83.728	0.443	-0.141
-320.056	-172.540	-0.093	-0.003
-319.041	-107.175	0.039	-0.009
-318.026	-66.501	0.177	0.070
-317.012	-200.000	0.028	0.172
-315.997	338.322	-0.099	0.193
-314.983	238.785	0.102	-0.169
-313.968	-14.282	0.108	0.069
-312.953	-82.575	-0.372	0.120
-311.939	800.000	0.118	-0.363
-310.924	-200.000	0.014	0.260
-309.910	800.000	-0.098	0.306
-308.895	-58.616	-0.080	-0.035
-307.880	-140.507	0.219	-0.023
-306.866	30.545	-0.170	0.145
-305.851	-108.530	-0.167	-0.036
-304.837	-66.431	0.208	-0.082
-303.822	-62.686	0.257	-0.106
-302.807	-200.000	-0.035	0.187
-301.793	-110.120	-0.185	0.038
-300.778	-90.342	0.098	0.028
-299.764	-200.000	-0.027	0.139
-298.749	-200.000	-0.012	-0.253
-297.735	312.126	0.103	-0.193
-296.720	90.125	-0.067	0.075
-295.705	412.571	0.038	-0.081
-294.691	395.866	0.089	-0.186
-293.676	-200.000	0.018	-0.262
-292.662	-46.216	-0.134	0.066
-291.647	158.666	-0.064	0.089
-290.632	50.592	0.290	-0.272
-289.618	-59.560	-0.235	-0.100
-288.603	130.938	-0.144	0.183
-287.589	-153.105	0.778	0.054
-286.574	31.617	-0.120	0.103
-285.559	800.000	-0.129	-0.372
-284.545	283.098	0.137	0.244
-283.530	-12.588	-0.114	-0.074
-282.516	-200.000	-0.006	0.161
-281.501	251.486	0.090	-0.152
-280.486	179.432	0.112	-0.163
-279.472	37.232	0.151	-0.132
-278.457	759.045	-0.047	-0.125
-277.443	-156.324	-0.203	0.013
-276.428	245.567	0.035	-0.059
-275.413	146.781	0.149	-0.200
-274.399	118.813	0.037	-0.046
-273.384	-156.775	0.351	0.022
-272.370	235.411	-0.114	0.187
-271.355	800.000	-0.023	-0.085
-270.340	-104.159	-0.334	0.077
-269.326	800.000	-0.080	0.321
-268.311	56.885	0.285	0.276
-267.297	-200.000	0.047	-0.362
-266.282	-88.618	0.672	0.199
-265.267	-200.000	-0.016	-0.237
-264.253	-86.391	0.152	0.046
-263.238	-200.000	0.001	0.035
-262.224	-200.000	0.019	0.141
-261.209	-124.171	-0.107	0.017
-260.195	-200.000	-0.042	-0.288
-259.180	800.000	0.042	-0.149
-258.165	-189.884	-0.107	-0.001
-257.151	-46.123	0.403	-0.197
-256.136	85.757	-0.194	-0.211
-255.122	186.088	-0.096	-0.142
-254.107	-26.691	-0.137	-0.080
-253.092	-142.297	0.377	0.037
-252.078	-91.658	0.053	-0.015
-251.063	-33.450	-0.232	0.127
-250.049	2.582	-0.189	-0.136
-249.034	-145.051	0.118	0.011
-248.019	786.963	0.165	-0.449
-247.005	-71.909	-0.241	-0.089
-245.990	-62.410	0.097	0.040
-244.976	273.915	0.142	-0.250
-243.961	800.000	0.068	0.190
-242.946	-200.000	0.077	-0.441
-241.932	-200.000	-0.055	-0.248
-240.917	-79.105	0.187	0.063
-239.903	-56.909	0.102	-0.044
-238.888	800.000	-0.048	-0.135
-237.873	-86.960	0.045	0.014
-236.859	-200.000	-0.010	0.050
-235.844	109.162	-0.070	-0.083
-234.830	59.471	-0.106	-0.104
-233.815	394.294	-0.074	0.153
-232.800	-200.000	0.008	0.120
-231.786	-57.334	-0.187	0.082
-230.771	71.955	0.087	0.090
-229.757	519.348	0.120	-0.278
-228.742	-50.396	-0.239	-0.112
-227.727	322.955	-0.035	0.065
-226.713	-123.511	0.228	0.036
-225.698	-147.816	-0.155	0.013
-224.684	800.000	-0.020	-0.059
-223.669	-61.940	0.097	-0.040
-222.655	-62.695	-0.230	0.094
-221.640	296.530	-0.131	0.238
-220.625	800.000	0.064	0.249
-219.611	800.000	-0.045	0.181
-218.596	727.790	0.080	0.213
-217.582	800.000	-0.069	-0.205
-216.567	800.000	0.069	0.248
-215.552	80.613	0.085	0.091
-214.538	-94.671	-0.292	-0.079
-213.523	31.128	0.023	0.019
-212.509	374.661	0.050	0.102
-211.494	-200.000	0.028	-0.297
-210.479	-117.851	0.169	-0.030
-209.465	21.293	-0.326	-0.262
-208.450	549.006	-0.160	-0.381
-207.436	530.630	-0.004	-0.009
-206.421	-10.061	0.202	-0.133
-205.406	-38.737	-0.422	-0.220
-204.392	-93.207	0.223	-0.061
-203.377	-73.367	-0.114	0.041
-202.363	-47.180	0.153	0.074
-201.348	239.115	0.027	0.044
-200.333	33.827	0.083	-0.072
-199.319	-200.000	-0.009	0.204
-198.304	-200.000	-0.026	0.190
-197.290	262.862	0.112	0.193
-196.275	41.551	0.157	0.141
-195.260	419.799	0.046	0.097
-194.246	-105.991	0.188	-0.042
-193.231	-108.632	-0.224	-0.048
-192.217	-200.000	-0.079	0.349
-191.202	-200.000	0.052	0.273
-190.187	406.580	-0.071	-0.148
-189.173	-52.828	-0.036	0.017
-188.158	800.000	0.059	0.171
-187.144	87.674	0.138	0.151
-186.129	-107.770	0.144	0.031
-185.114	188.781	-0.028	0.042
-184.100	121.649	0.194	-0.240
-183.085	79.389	-0.110	-0.117
-182.071	-127.133	0.035	-0.005
-181.056	800.000	0.028	-0.116
-180.042	-200.000	0.305	-0.001
-179.027	620.681	0.196	0.489
-178.012	-83.348	0.084	0.027
-176.998	-200.000	0.096	-0.000
-175.983	-158.382	0.269	0.015
-174.969	127.007	-0.085	0.107
-173.954	800.000	-0.119	-0.372
-172.939	-44.603	0.295	-0.146
-171.925	800.000	-0.059	0.227
-170.910	-80.151	0.356	0.118
-169.896	616.618	0.085	-0.211
-168.881	-200.000	0.020	-0.367
-167.866	-200.000	0.004	-0.053
-166.852	-200.000	-0.011	-0.095
-165.837	-6.900	0.119	-0.080
-164.823	-3.923	0.181	0.124
-163.808	146.757	-0.184	0.245
-162.793	-200.000	0.040	-0.228
-161.779	-63.556	0.229	0.093
-160.764	800.000	-0.047	0.138
-159.750	-10.495	0.157	0.103
-158.735	-95.384	0.496	0.132
-157.720	-26.711	0.318	0.184
-156.706	160.777	0.049	-0.067
-155.691	204.436	0.088	0.134
-154.677	-25.481	-0.038	0.022
-153.662	-200.000	0.029	0.299
-152.647	-200.000	-0.005	0.158
-151.633	-147.277	-0.185	0.016
-150.618	101.347	-0.206	-0.237
-149.604	-20.134	-0.118	-0.072
-148.589	800.000	-0.068	0.211
-147.574	66.268	0.101	0.101
-146.560	151.715	-0.054	-0.073
-145.545	-50.452	-0.087	-0.040
-144.531	602.662	0.104	-0.256
-143.516	350.728	-0.118	-0.231
-142.502	40.312	0.152	-0.136
-141.487	-200.000	-0.003	0.104
-140.472	-200.000	0.012	0.271
-139.458	56.343	-0.408	0.392
-138.443	-200.000	0.074	0.323
-137.429	-191.298	0.120	0.001
-136.414	750.679	-0.141	-0.377
-135.399	-69.428	0.075	0.028
-134.385	61.618	-0.181	-0.178
-133.370	-14.960	-0.065	-0.041
-132.356	-200.000	-0.029	0.175
-131.341	-41.224	0.218	-0.111
-130.326	-200.000	-0.048	0.242
-129.312	-146.550	-0.083	-0.007
-128.297	-127.809	0.329	0.047
-127.283	-200.000	0.008	-0.055
-126.268	-82.353	0.244	-0.078
-125.253	-19.324	0.365	0.224
-124.239	-0.160	-0.069	0.048
-123.224	108.293	-0.217	0.256
-122.210	269.563	0.185	0.321
