DTS Sentinel unit serial number:	SN413079Multiplexer serial number:	ORYXHardware model number:	OX4-SRSoftware version number:	ORYX F/W v4.00 Oryx Data Collector v3.7.2.0data status	okinstallation	princeton_trtdifferential loss correction	single-endedforward channel	channel 4reverse channel	N/Adate	2019/09/11time	01:55:11forward acquisition time	60.00reverse acquisition time	0.00gamma	496.2192k internal	0.2317k external	0.2317temperature offset calibration	0.9951default loss term (dB/km)	0.3790temperature slope calibration	1.0000multiplexer offset coefficient	1.0000multiplexer slope coefficient	1.0000fibre end	0.00T internal ref (°C)	29.16T ext. ref 1 (°C)	-0.30T ext. ref 2 (°C)	23.33length (m)	temperature (°C)	Stokes	anti-Stokes-747.200	-51.964	-0.082	0.038
-746.185	205.068	-0.120	0.188
-745.171	37.780	-0.066	-0.059
-744.156	348.513	-0.270	0.538
-743.142	-52.107	0.201	0.095
-742.127	800.000	-0.133	0.465
-741.112	72.171	0.204	-0.215
-740.098	-200.000	0.046	0.207
-739.083	-70.270	0.463	-0.178
-738.069	-91.886	-0.491	0.141
-737.054	15.433	-0.224	-0.178
-736.039	34.564	-0.161	-0.142
-735.025	158.537	0.152	0.214
-734.010	-200.000	-0.011	-0.217
-732.996	13.166	0.045	-0.035
-731.981	230.747	0.068	0.113
-730.966	523.945	0.108	0.258
-729.952	-18.712	-0.358	-0.226
-728.937	-200.000	0.016	0.122
-727.923	-68.992	-0.297	0.116
-726.908	-32.068	0.084	0.047
-725.894	97.702	-0.385	0.448
-724.879	-200.000	-0.040	-0.419
-723.864	-38.726	-0.219	0.117
-722.850	-101.142	0.494	0.122
-721.835	33.641	-0.232	-0.204
-720.821	-169.720	-0.411	-0.015
-719.806	-116.051	-0.413	-0.078
-718.791	452.135	0.016	-0.035
-717.777	-26.277	-0.282	0.167
-716.762	128.472	0.143	0.184
-715.748	-104.037	0.089	0.021
-714.733	-168.280	-0.187	-0.007
-713.718	-200.000	-0.004	-0.054
-712.704	800.000	-0.010	-0.039
-711.689	-27.689	0.130	-0.076
-710.675	585.688	0.129	-0.320
-709.660	-144.560	-0.418	-0.039
-708.645	-49.043	0.289	-0.140
-707.631	362.904	-0.011	-0.022
-706.616	-200.000	-0.047	0.221
-705.602	-200.000	0.006	0.045
-704.587	-200.000	0.048	-0.264
-703.572	800.000	0.023	-0.100
-702.558	-29.474	0.117	-0.068
-701.543	-200.000	-0.043	0.232
-700.529	-200.000	0.018	-0.149
-699.514	-200.000	-0.021	0.594
-698.499	201.800	0.129	0.201
-697.485	-82.269	0.165	-0.054
-696.470	20.420	-0.137	-0.112
-695.456	765.421	0.042	0.114
-694.441	-18.297	-0.452	-0.286
-693.426	228.260	-0.225	-0.371
-692.412	-115.945	-0.143	-0.027
-691.397	275.942	-0.093	-0.167
-690.383	303.532	0.134	-0.250
-689.368	-115.221	-0.236	-0.045
-688.354	8.834	0.186	-0.141
-687.339	462.453	-0.047	0.106
-686.324	-110.255	0.109	-0.023
-685.310	127.537	-0.025	-0.032
-684.295	-59.455	0.210	0.091
-683.281	-39.339	-0.260	0.138
-682.266	-102.127	0.233	0.057
-681.251	-200.000	-0.042	-0.230
-680.237	652.870	-0.086	-0.224
-679.222	31.189	-0.277	-0.240
-678.208	-31.063	-0.260	-0.148
-677.193	85.279	0.221	-0.245
-676.178	-200.000	0.038	-0.207
-675.164	-79.306	-0.374	0.128
-674.149	-99.862	0.211	-0.053
-673.135	-10.629	0.084	0.056
-672.120	473.820	0.110	-0.250
-671.105	-123.940	-0.090	0.014
-670.091	800.000	0.018	0.067
-669.076	-23.907	0.280	-0.169
-668.062	-174.740	0.529	0.015
-667.047	750.979	-0.055	0.150
-666.032	230.871	0.083	-0.138
-665.018	-169.318	-0.336	-0.012
-664.003	22.951	-0.198	-0.163
-662.989	166.386	0.171	-0.245
-661.974	-127.608	0.333	0.049
-660.959	345.767	0.028	0.056
-659.945	-38.890	0.109	-0.058
-658.930	-83.507	-0.112	-0.036
-657.916	800.000	-0.099	0.281
-656.901	-27.480	0.207	-0.121
-655.886	-16.661	-0.254	-0.162
-654.872	-200.000	-0.002	-0.344
-653.857	-67.752	-0.368	-0.145
-652.843	-200.000	0.030	0.242
-651.828	-129.789	-0.177	0.025
-650.814	47.992	0.086	0.081
-649.799	-58.350	0.298	-0.131
-648.784	800.000	0.044	-0.136
-647.770	-200.000	0.033	-0.167
-646.755	213.905	-0.295	-0.470
-645.741	114.423	-0.107	0.131
-644.726	-40.330	0.205	-0.107
-643.711	383.752	0.016	0.034
-642.697	-200.000	0.070	0.309
-641.682	577.573	0.152	-0.374
-640.668	40.092	0.084	0.076
-639.653	107.761	-0.095	0.115
-638.638	199.257	-0.116	0.180
-637.624	-46.218	-0.192	0.095
-636.609	-200.000	-0.016	-0.099
-635.595	-89.047	-0.610	0.182
-634.580	56.601	0.061	-0.059
-633.565	7.808	-0.256	0.194
-632.551	60.421	0.078	0.078
-631.536	536.532	-0.121	-0.290
-630.522	-95.856	0.202	-0.054
-629.507	-153.551	-0.251	0.017
-628.492	800.000	-0.081	0.277
-627.478	-42.287	0.108	-0.056
-626.463	-184.561	0.320	-0.005
-625.449	-200.000	0.046	0.316
-624.434	-75.285	-0.161	0.058
-623.419	-3.789	0.224	0.156
-622.405	12.171	-0.053	0.041
-621.390	-100.424	0.018	-0.004
-620.376	-20.015	0.053	-0.033
-619.361	-170.912	0.178	-0.006
-618.346	374.663	-0.132	-0.271
-617.332	48.786	0.128	0.121
-616.317	-61.638	0.272	-0.115
-615.303	329.309	-0.112	0.217
-614.288	-200.000	0.023	-0.184
-613.273	124.016	0.130	-0.164
-612.259	-99.520	0.118	0.030
-611.244	-8.838	0.257	0.174
-610.230	13.105	-0.222	0.173
-609.215	38.730	-0.156	-0.140
-608.201	27.103	-0.101	-0.086
-607.186	-120.282	-0.140	0.024
-606.171	67.932	0.274	-0.282
-605.157	800.000	-0.058	0.183
-604.142	-98.503	-0.147	0.038
-603.128	-1.834	-0.162	-0.114
-602.113	203.170	-0.018	0.028
-601.098	-35.500	0.077	0.042
-600.084	800.000	-0.038	-0.110
-599.069	146.893	0.131	0.178
-598.055	106.120	0.190	-0.226
-597.040	-170.622	-0.333	-0.012
-596.025	23.630	-0.260	-0.216
-595.011	-50.585	-0.131	-0.062
-593.996	168.870	-0.244	0.350
-592.982	42.338	-0.068	0.062
-591.967	128.510	0.121	-0.155
-590.952	-54.485	0.354	-0.161
-589.938	-28.326	-0.267	0.155
-588.923	61.052	0.122	-0.121
-587.909	-143.386	-0.221	-0.021
-586.894	-46.592	0.217	0.107
-585.879	3.345	-0.247	-0.181
-584.865	-200.000	-0.036	0.235
-583.850	145.687	0.160	-0.215
-582.836	94.251	-0.139	0.159
-581.821	193.774	0.076	-0.115
-580.806	182.933	-0.097	0.144
-579.792	115.842	0.115	0.142
-578.777	800.000	0.061	0.177
-577.763	-200.000	-0.016	0.187
-576.748	-146.011	0.181	-0.016
-575.733	-26.608	0.191	0.112
-574.719	-124.638	-0.321	0.050
-573.704	-27.276	-0.267	-0.157
-572.690	-74.778	-0.113	0.041
-571.675	-182.201	0.159	-0.003
-570.661	-70.055	0.161	0.062
-569.646	-200.000	-0.014	-0.178
-568.631	196.866	0.074	-0.114
-567.617	800.000	0.078	0.222
-566.602	-200.000	0.051	0.301
-565.588	-200.000	-0.024	0.139
-564.573	19.649	0.128	-0.104
-563.558	-200.000	-0.001	-0.109
-562.544	-76.203	0.099	-0.035
-561.529	800.000	-0.027	0.107
-560.515	-68.170	-0.263	-0.103
-559.500	104.439	0.101	0.120
-558.485	34.740	0.106	-0.094
-557.471	-56.295	0.237	0.106
-556.456	89.886	0.129	-0.144
-555.442	-151.839	0.182	-0.013
-554.427	-104.805	-0.019	0.004
-553.412	-90.286	0.274	0.080
-552.398	130.977	-0.146	0.188
-551.383	18.924	0.264	0.212
-550.369	-172.813	0.165	0.005
-549.354	10.622	-0.175	0.134
-548.339	428.328	0.187	0.407
-547.325	800.000	0.018	0.079
-546.310	800.000	-0.059	-0.201
-545.296	-69.047	-0.418	-0.162
-544.281	642.194	-0.031	0.079
-543.266	-67.692	0.268	-0.105
-542.252	800.000	0.047	0.189
-541.237	216.420	0.044	-0.070
-540.223	-26.575	0.109	-0.064
-539.208	119.590	-0.127	-0.158
-538.193	49.641	0.255	-0.241
-537.179	-46.452	-0.207	-0.102
-536.164	-200.000	0.024	0.208
-535.150	800.000	-0.019	0.082
-534.135	167.529	0.148	-0.211
-533.121	-200.000	-0.027	-0.152
-532.106	-19.252	0.345	-0.215
-531.091	-45.223	0.039	-0.019
-530.077	145.827	0.235	-0.316
-529.062	-172.880	-0.194	0.006
-528.048	-116.869	0.064	-0.012
-527.033	100.905	-0.156	0.182
-526.018	93.218	-0.057	0.065
-525.004	-115.850	-0.086	-0.016
-523.989	6.860	-0.063	0.047
-522.975	-59.541	0.309	-0.133
-521.960	87.053	-0.127	0.141
-520.945	-81.890	-0.185	-0.061
-519.931	227.119	0.141	-0.230
-518.916	800.000	-0.016	-0.064
-517.902	-11.494	-0.186	0.122
-516.887	163.326	0.037	0.052
-515.872	-1.588	-0.190	-0.134
-514.858	72.887	-0.195	0.205
-513.843	185.603	0.178	-0.265
-512.829	-49.098	0.282	0.135
-511.814	-200.000	0.028	-0.164
-510.799	-150.688	-0.413	0.032
-509.785	394.435	-0.046	-0.095
-508.770	-200.000	0.015	-0.103
-507.756	-104.024	-0.364	0.085
-506.741	574.386	0.043	-0.106
-505.726	-24.533	-0.225	0.134
-504.712	439.760	0.030	-0.067
-503.697	98.465	0.139	0.161
-502.683	-5.417	-0.144	-0.099
-501.668	-200.000	0.040	0.176
-500.653	-105.943	-0.238	0.054
-499.639	188.327	0.090	-0.136
-498.624	800.000	0.132	0.447
-497.610	-34.935	0.211	-0.116
-496.595	800.000	0.053	-0.169
-495.581	26.467	-0.101	-0.084
-494.566	-116.154	-0.321	-0.060
-493.551	170.512	0.095	-0.137
-492.537	-176.908	0.194	-0.005
-491.522	800.000	-0.122	-0.338
-490.508	315.825	-0.070	0.132
-489.493	335.157	-0.196	0.380
-488.478	800.000	-0.020	0.069
-487.464	-64.403	-0.365	0.149
-486.449	-139.375	0.229	-0.025
-485.435	122.103	-0.068	-0.085
-484.420	66.822	-0.147	0.149
-483.405	-38.273	0.174	-0.092
-482.391	750.533	0.132	0.357
-481.376	-12.633	-0.141	0.092
-480.362	800.000	-0.077	0.258
-479.347	777.644	0.103	-0.283
-478.332	382.862	0.165	-0.340
-477.318	655.283	-0.082	-0.211
-476.303	48.631	0.322	0.302
-475.289	-48.930	-0.190	0.091
-474.274	85.685	-0.274	-0.301
-473.259	-200.000	-0.032	-0.343
-472.245	13.110	-0.316	-0.245
-471.230	106.727	0.122	-0.145
-470.216	11.095	0.151	-0.116
-469.201	80.595	0.168	0.181
-468.186	1.708	0.186	0.134
-467.172	-76.921	-0.208	-0.073
-466.157	-74.687	0.129	-0.046
-465.143	36.375	0.117	-0.103
-464.128	800.000	0.061	0.198
-463.113	123.184	-0.069	-0.087
-462.099	-40.405	0.328	0.171
-461.084	-161.882	0.220	-0.011
-460.070	-41.480	0.249	0.128
-459.055	800.000	-0.015	0.054
-458.040	800.000	0.025	-0.092
-457.026	-61.362	-0.201	-0.085
-456.011	800.000	-0.046	-0.192
-454.997	186.451	-0.065	0.096
-453.982	-132.819	0.185	-0.024
-452.968	26.299	-0.243	0.203
-451.953	800.000	-0.111	-0.333
-450.938	-166.417	-0.195	-0.008
-449.924	14.246	-0.145	0.113
-448.909	-126.670	0.136	0.020
-447.895	-21.295	-0.103	0.063
-446.880	800.000	-0.077	0.231
-445.865	793.824	0.071	0.196
-444.851	-168.208	0.361	-0.014
-443.836	-101.290	0.284	0.069
-442.822	-83.384	0.388	-0.124
-441.807	240.457	0.183	0.305
-440.792	196.301	-0.138	0.211
-439.778	-200.000	0.099	0.550
-438.763	-200.000	0.007	0.057
-437.749	129.964	-0.108	0.138
-436.734	-73.579	-0.133	0.049
-435.719	-56.932	-0.273	-0.120
-434.705	-97.882	-0.019	0.005
-433.690	-200.000	0.018	0.159
-432.676	24.771	0.188	-0.156
-431.661	800.000	-0.045	0.128
-430.646	-200.000	0.040	0.300
-429.632	72.898	0.215	-0.224
-428.617	596.569	-0.152	0.375
-427.603	544.317	-0.085	0.202
-426.588	-66.943	-0.222	-0.088
-425.573	-81.025	-0.330	-0.109
-424.559	-200.000	0.009	-0.083
-423.544	-117.206	-0.381	0.069
-422.530	800.000	-0.038	-0.111
-421.515	-135.769	-0.320	0.038
-420.500	-107.734	-0.103	0.023
-419.486	0.767	-0.291	-0.208
-418.471	-98.777	0.082	-0.021
-417.457	-200.000	0.003	0.118
-416.442	-14.428	-0.172	0.111
-415.428	-81.634	0.399	-0.131
-414.413	320.532	-0.154	0.293
-413.398	-200.000	0.056	-0.319
-412.384	-5.160	-0.125	-0.086
-411.369	-26.088	-0.331	-0.194
-410.355	-4.567	-0.109	0.075
-409.340	-200.000	-0.012	0.086
-408.325	-200.000	0.020	0.190
-407.311	-200.000	0.045	-0.349
-406.296	-86.552	0.268	0.082
-405.282	302.685	-0.051	-0.094
-404.267	-76.584	0.209	0.073
-403.252	-200.000	0.075	0.344
-402.238	319.510	-0.034	0.063
-401.223	476.251	0.115	0.259
-400.209	85.788	0.121	-0.133
-399.194	280.929	-0.064	0.114
-398.179	-200.000	0.004	0.127
-397.165	-200.000	0.035	0.282
-396.150	741.318	0.010	0.028
-395.136	800.000	-0.037	-0.134
-394.121	226.467	0.134	0.217
-393.106	-61.634	-0.331	-0.139
-392.092	-145.569	-0.073	0.006
-391.077	204.172	-0.216	-0.334
-390.063	800.000	-0.059	0.226
-389.048	-13.248	-0.060	-0.039
-388.033	-67.070	-0.178	0.070
-387.019	30.672	0.211	-0.180
-386.004	-9.834	-0.171	-0.114
-384.990	306.565	0.034	-0.064
-383.975	-200.000	0.011	0.233
-382.960	-48.406	-0.091	-0.044
-381.946	-89.345	-0.101	-0.030
-380.931	800.000	0.054	-0.205
-379.917	-10.401	-0.163	-0.108
-378.902	201.632	-0.003	-0.004
-377.888	-200.000	-0.014	-0.146
-376.873	-200.000	0.013	-0.103
-375.858	67.388	0.309	-0.315
-374.844	-200.000	0.047	0.221
-373.829	-200.000	0.036	0.281
-372.815	-104.817	-0.048	0.011
-371.800	355.645	0.059	0.117
-370.785	-36.994	-0.082	-0.044
-369.771	-138.591	-0.348	0.038
-368.756	294.340	-0.094	0.172
-367.742	-200.000	-0.008	-0.105
-366.727	216.555	-0.145	0.231
-365.712	-200.000	-0.065	0.320
-364.698	-91.165	0.096	-0.027
-363.683	82.343	-0.173	0.188
-362.669	514.721	-0.047	-0.110
-361.654	-200.000	-0.062	0.281
-360.639	-52.954	-0.254	0.116
-359.625	343.178	0.113	0.222
-358.610	-153.307	0.344	-0.024
-357.596	-117.995	0.243	0.043
-356.581	-200.000	-0.010	0.385
-355.566	286.445	-0.046	0.082
-354.552	-200.000	-0.005	-0.076
-353.537	349.376	0.086	-0.169
-352.523	111.129	-0.318	0.382
-351.508	-200.000	-0.063	-0.387
-350.493	-9.918	-0.047	-0.031
-349.479	800.000	0.079	0.328
-348.464	-179.554	-0.156	0.003
-347.450	-74.669	-0.302	0.108
-346.435	29.228	-0.200	-0.169
-345.420	597.550	0.048	0.120
-344.406	172.777	-0.098	0.140
-343.391	-114.710	0.288	-0.055
-342.377	-87.286	0.228	-0.069
-341.362	334.661	-0.128	-0.247
-340.348	-81.125	-0.415	-0.137
-339.333	-27.346	0.063	0.037
-338.318	-200.000	0.003	-0.067
-337.304	800.000	0.021	-0.078
-336.289	9.829	0.234	0.177
-335.275	-75.820	0.178	0.063
-334.260	169.189	-0.046	0.065
-333.245	-56.049	-0.207	0.092
-332.231	-152.443	-0.397	-0.028
-331.216	-57.554	-0.392	-0.171
-330.202	800.000	0.170	-0.493
-329.187	-200.000	-0.040	0.267
-328.172	207.114	0.101	-0.157
-327.158	-96.870	0.158	0.041
-326.143	-83.896	-0.208	0.066
-325.129	86.347	0.196	0.215
-324.114	-200.000	0.008	0.083
-323.099	-170.487	-0.080	0.003
-322.085	-200.000	0.460	0.000
-321.070	-200.000	-0.031	-0.284
-320.056	800.000	0.086	0.264
-319.041	800.000	0.122	0.384
-318.026	-38.356	-0.073	0.039
-317.012	-12.358	-0.171	0.111
-315.997	800.000	-0.072	-0.246
-314.983	131.002	0.122	0.155
-313.968	-200.000	-0.010	-0.253
-312.953	-200.000	-0.091	-0.000
-311.939	-200.000	0.020	0.188
-310.924	69.913	-0.148	-0.152
-309.910	800.000	0.083	0.288
-308.895	-152.183	-0.133	0.010
-307.880	200.500	0.032	0.048
-306.866	56.785	-0.106	0.102
-305.851	-99.426	0.403	-0.101
-304.837	-12.986	0.236	0.153
-303.822	-36.351	0.068	-0.037
-302.807	-5.361	-0.021	-0.015
-301.793	-164.137	0.029	0.001
-300.778	800.000	0.027	-0.109
-299.764	-9.563	0.210	0.139
-298.749	55.254	-0.252	-0.242
-297.735	268.522	0.163	0.284
-296.720	-116.180	-0.153	0.028
-295.705	706.896	-0.059	-0.154
-294.691	304.765	0.123	-0.228
-293.676	-19.357	-0.194	-0.120
-292.662	-50.437	0.277	0.130
-291.647	251.250	0.015	0.025
-290.632	-133.858	-0.294	0.036
-289.618	-200.000	0.050	-0.399
-288.603	-200.000	0.006	-0.106
-287.589	82.209	-0.167	-0.180
-286.574	366.541	0.097	-0.194
-285.559	800.000	0.079	0.231
-284.545	793.515	-0.149	-0.408
-283.530	800.000	0.046	-0.191
-282.516	-43.166	0.172	-0.087
-281.501	-57.870	0.091	0.040
-280.486	800.000	0.039	0.112
-279.472	-150.667	0.213	0.016
-278.457	254.931	-0.064	-0.110
-277.443	512.242	0.032	0.075
-276.428	-200.000	0.013	-0.224
-275.413	-64.221	-0.140	-0.057
-274.399	15.478	-0.169	-0.132
-273.384	-138.239	0.287	0.032
-272.370	-82.380	-0.205	0.066
-271.355	800.000	-0.057	0.233
-270.340	109.643	0.149	-0.178
-269.326	-200.000	-0.021	0.096
-268.311	-124.013	-0.131	-0.021
-267.297	-200.000	0.001	0.226
-266.282	-112.970	0.279	0.055
-265.267	680.447	-0.080	-0.208
-264.253	10.034	0.041	0.031
-263.238	-12.146	0.159	-0.103
-262.224	84.083	-0.168	-0.182
-261.209	167.485	0.022	-0.032
-260.195	-106.598	0.274	0.061
-259.180	732.676	0.073	-0.194
-258.165	159.364	-0.062	-0.086
-257.151	-51.649	0.147	-0.068
-256.136	-151.879	0.325	-0.024
-255.122	277.064	0.154	0.272
-254.107	-120.133	-0.013	0.002
-253.092	-35.393	-0.180	-0.097
-252.078	-53.841	0.247	-0.112
-251.063	16.606	-0.152	-0.119
-250.049	580.436	-0.021	0.052
-249.034	-70.262	-0.284	0.107
-248.019	13.955	0.236	-0.182
-247.005	57.248	0.218	-0.212
-245.990	574.844	0.069	-0.167
-244.976	166.538	-0.154	-0.217
-243.961	6.906	-0.065	-0.048
-242.946	-57.059	0.058	0.025
-241.932	92.407	0.150	-0.167
-240.917	-66.855	0.448	-0.176
-239.903	-200.000	0.042	-0.281
-238.888	566.599	-0.008	-0.019
-237.873	241.186	0.256	-0.424
-236.859	99.057	0.143	-0.164
-235.844	101.599	-0.252	-0.292
-234.830	-200.000	-0.007	-0.126
-233.815	-200.000	0.055	-0.237
-232.800	11.797	0.248	0.189
-231.786	506.774	0.127	-0.292
-230.771	-27.637	-0.220	0.127
-229.757	510.827	-0.126	0.290
-228.742	190.612	0.115	-0.171
-227.727	62.274	-0.211	0.209
-226.713	73.589	0.170	0.177
-225.698	-200.000	-0.009	0.186
-224.684	-200.000	-0.046	0.205
-223.669	-108.810	0.343	-0.073
-222.655	222.948	0.026	-0.041
-221.640	-129.802	-0.152	0.021
-220.625	-94.862	0.425	-0.114
-219.611	-79.544	-0.171	0.057
-218.596	800.000	-0.040	-0.128
-217.582	800.000	-0.042	-0.164
-216.567	-86.599	0.255	-0.078
-215.552	113.529	0.299	-0.360
-214.538	-200.000	-0.012	0.084
-213.523	-111.986	-0.250	0.050
-212.509	-122.477	-0.230	-0.037
-211.494	122.511	-0.133	0.165
-210.479	-43.412	-0.199	0.100
-209.465	800.000	-0.025	-0.090
-208.450	467.115	0.063	0.141
-207.436	-103.875	-0.042	-0.010
-206.421	5.922	-0.216	-0.159
-205.406	-138.581	0.242	-0.026
-204.392	-27.638	-0.155	-0.089
-203.377	-65.065	0.193	0.077
-202.363	-71.340	-0.184	0.068
-201.348	-38.392	-0.105	0.055
-200.333	405.144	0.188	-0.393
-199.319	800.000	0.020	-0.071
-198.304	-200.000	0.001	-0.164
-197.290	-49.493	-0.297	-0.140
-196.275	132.027	0.218	0.278
-195.260	613.577	0.076	0.189
-194.246	-155.332	-0.168	0.011
-193.231	206.411	-0.161	0.249
-192.217	174.620	0.137	0.196
-191.202	528.422	-0.030	-0.071
-190.187	-90.679	0.042	0.012
-189.173	-108.660	0.508	-0.108
-188.158	-85.881	-0.373	0.114
-187.144	95.957	0.161	0.182
-186.129	-95.432	-0.292	-0.078
-185.114	-113.657	0.535	0.103
-184.100	143.299	0.106	-0.140
-183.085	-35.647	0.127	-0.068
-182.071	8.573	-0.093	-0.069
-181.056	-95.972	-0.096	0.025
-180.042	217.474	-0.090	0.142
-179.027	-200.000	-0.005	0.129
-178.012	206.636	0.232	-0.358
-176.998	176.810	-0.133	-0.192
-175.983	-76.346	-0.090	-0.031
-174.969	11.232	-0.062	-0.047
-173.954	-200.000	-0.024	-0.472
-172.939	-47.991	0.209	-0.100
-171.925	-106.688	0.129	0.028
-170.910	-66.000	-0.111	0.044
-169.896	-64.104	0.288	0.116
-168.881	182.493	-0.143	-0.208
-167.866	-22.671	0.157	0.094
-166.852	-200.000	0.023	-0.104
-165.837	398.824	-0.077	-0.159
-164.823	324.460	-0.081	-0.154
-163.808	153.309	-0.203	-0.275
-162.793	-106.032	-0.162	-0.036
-161.779	-200.000	-0.014	0.298
-160.764	-113.237	-0.396	-0.077
-159.750	361.836	-0.068	0.135
-158.735	343.628	0.052	-0.100
-157.720	112.267	0.153	0.183
-156.706	142.693	-0.086	0.113
-155.691	-200.000	-0.046	0.278
-154.677	-200.000	-0.079	0.454
-153.662	321.581	-0.187	0.352
-152.647	-143.909	0.500	0.047
-151.633	398.413	0.025	0.052
-150.618	-200.000	0.046	-0.280
-149.604	-104.837	0.384	-0.087
-148.589	485.565	0.105	-0.236
-147.574	8.155	-0.439	-0.326
-146.560	-85.145	0.225	0.070
-145.545	-124.397	0.262	0.040
-144.531	-200.000	0.030	-0.137
-143.516	579.148	-0.127	0.308
-142.502	800.000	-0.154	0.443
-141.487	198.697	0.249	-0.376
-140.472	-20.982	-0.141	-0.086
-139.458	37.430	-0.231	0.203
-138.443	-89.161	-0.150	-0.044
-137.429	90.732	0.166	-0.183
-136.414	-29.407	0.154	0.087
-135.399	597.791	0.085	0.209
-134.385	-97.144	0.369	0.095
-133.370	-33.863	-0.228	-0.124
-132.356	-118.130	0.151	0.027
-131.341	30.808	0.091	0.077
-130.326	83.339	-0.252	0.272
-129.312	-121.928	-0.275	-0.045
-128.297	-54.380	-0.088	0.039
-127.283	-200.000	0.023	-0.376
-126.268	-112.548	-0.202	0.040
-125.253	141.729	-0.052	-0.068
-124.239	-19.788	0.101	-0.062
-123.224	63.119	0.148	0.146
-122.210	54.138	0.180	-0.171
-121.195	-200.000	0.007	0.188
