DTS Sentinel unit serial number:	SN413079Multiplexer serial number:	ORYXHardware model number:	OX4-SRSoftware version number:	ORYX F/W v4.00 Oryx Data Collector v3.7.2.0data status	okinstallation	princeton_trtdifferential loss correction	single-endedforward channel	channel 4reverse channel	N/Adate	2019/09/12time	00:07:11forward acquisition time	60.00reverse acquisition time	0.00gamma	496.2192k internal	0.2308k external	0.2308temperature offset calibration	1.0089default loss term (dB/km)	0.3790temperature slope calibration	1.0000multiplexer offset coefficient	1.0000multiplexer slope coefficient	1.0000fibre end	0.00T internal ref (°C)	33.66T ext. ref 1 (°C)	2.00T ext. ref 2 (°C)	28.22length (m)	temperature (°C)	Stokes	anti-Stokes-747.200	-43.273	0.085	-0.043
-746.185	-152.731	0.026	0.002
-745.171	-165.396	-0.390	-0.017
-744.156	-84.769	-0.270	0.086
-743.142	66.619	0.032	0.033
-742.127	-135.144	-0.311	0.038
-741.112	800.000	-0.041	0.162
-740.098	-112.951	0.244	0.049
-739.083	-124.487	-0.082	-0.013
-738.069	454.333	-0.067	0.151
-737.054	800.000	0.033	0.110
-736.039	304.439	-0.069	0.130
-735.025	77.741	-0.145	-0.157
-734.010	147.512	0.249	-0.341
-732.996	-91.523	-0.187	-0.054
-731.981	-132.600	0.281	0.037
-730.966	107.660	-0.133	-0.161
-729.952	-142.602	-0.255	0.025
-728.937	201.145	-0.121	-0.188
-727.923	-200.000	0.024	-0.128
-726.908	-83.590	-0.031	0.010
-725.894	-200.000	-0.023	0.210
-724.879	-200.000	0.026	0.126
-723.864	-200.000	-0.016	0.171
-722.850	-200.000	0.036	-0.480
-721.835	-200.000	-0.020	-0.201
-720.821	-200.000	-0.012	-0.141
-719.806	134.558	-0.126	-0.166
-718.791	201.920	-0.014	0.021
-717.777	-8.946	0.035	0.024
-716.762	-200.000	-0.036	-0.354
-715.748	-158.433	-0.325	0.019
-714.733	-200.000	0.043	-0.221
-713.718	-54.424	-0.346	-0.159
-712.704	800.000	-0.046	-0.194
-711.689	-100.270	-0.172	-0.043
-710.675	781.052	-0.098	0.271
-709.660	-138.762	-0.113	-0.012
-708.645	631.221	-0.080	0.204
-707.631	131.903	-0.274	0.358
-706.616	-0.535	-0.314	0.226
-705.602	402.749	-0.116	-0.248
-704.587	161.992	-0.104	-0.148
-703.572	91.527	0.106	-0.121
-702.558	-200.000	-0.014	0.088
-701.543	-200.000	0.020	-0.262
-700.529	115.514	0.224	-0.278
-699.514	-54.544	0.059	0.027
-698.499	45.291	-0.313	-0.293
-697.485	-110.202	-0.123	0.026
-696.470	-135.637	-0.493	0.059
-695.456	800.000	-0.033	0.130
-694.441	-53.499	0.118	0.055
-693.426	-74.637	0.035	-0.013
-692.412	-56.765	-0.133	-0.060
-691.397	-5.110	0.290	0.203
-690.383	8.479	-0.167	0.127
-689.368	-84.633	-0.294	0.094
-688.354	-200.000	-0.084	0.376
-687.339	203.077	-0.119	0.187
-686.324	155.228	-0.090	0.126
-685.310	86.461	0.174	-0.194
-684.295	68.614	0.178	0.185
-683.281	800.000	0.080	-0.277
-682.266	800.000	-0.050	0.213
-681.251	-200.000	-0.024	-0.196
-680.237	-1.470	-0.180	0.129
-679.222	-161.005	0.234	0.012
-678.208	-200.000	-0.011	0.284
-677.193	-146.568	-0.306	0.027
-676.178	321.148	0.021	-0.041
-675.164	184.820	-0.080	-0.121
-674.149	206.427	-0.083	0.130
-673.135	-200.000	0.005	-0.108
-672.120	27.927	0.118	-0.101
-671.105	-120.735	-0.039	-0.007
-670.091	-62.559	0.096	0.040
-669.076	-102.060	-0.233	-0.057
-668.062	-47.592	-0.078	0.038
-667.047	-200.000	-0.030	-0.200
-666.032	-200.000	-0.000	-0.141
-665.018	-111.328	-0.252	-0.052
-664.003	800.000	-0.069	-0.204
-662.989	776.985	0.068	-0.188
-661.974	800.000	-0.052	-0.207
-660.959	329.423	-0.132	-0.256
-659.945	238.589	-0.090	0.152
-658.930	21.835	-0.303	0.250
-657.916	-57.163	-0.141	0.063
-656.901	-39.040	-0.086	-0.046
-655.886	-104.000	0.216	-0.051
-654.872	279.214	-0.180	0.326
-653.857	-31.708	-0.140	0.079
-652.843	-96.550	-0.291	-0.078
-651.828	7.063	-0.215	-0.162
-650.814	215.930	-0.073	0.118
-649.799	-200.000	-0.048	0.563
-648.784	27.909	-0.299	-0.255
-647.770	-27.923	-0.387	-0.227
-646.755	2.898	-0.342	0.251
-645.741	41.147	-0.157	0.144
-644.726	399.281	-0.020	0.043
-643.711	800.000	-0.040	-0.132
-642.697	-200.000	-0.019	0.231
-641.682	-146.632	-0.237	-0.021
-640.668	509.252	-0.068	0.159
-639.653	-118.374	-0.050	0.009
-638.638	800.000	-0.088	-0.308
-637.624	76.300	-0.255	0.273
-636.609	308.139	-0.096	0.182
-635.595	-200.000	0.264	-0.000
-634.580	800.000	-0.074	0.269
-633.565	-200.000	-0.014	0.219
-632.551	800.000	0.084	-0.313
-631.536	-92.843	-0.361	-0.102
-630.522	-200.000	0.011	-0.167
-629.507	800.000	-0.025	0.075
-628.492	-37.719	0.195	0.105
-627.478	800.000	-0.023	-0.067
-626.463	252.290	0.069	0.120
-625.449	800.000	0.023	0.083
-624.434	-200.000	-0.011	-0.098
-623.419	4.050	0.277	-0.205
-622.405	-200.000	0.011	0.297
-621.390	-27.066	-0.208	-0.123
-620.376	252.518	0.109	0.189
-619.361	-75.267	-0.003	0.001
-618.346	492.194	-0.086	-0.198
-617.332	-129.879	0.046	0.006
-616.317	800.000	0.057	-0.223
-615.303	11.247	-0.119	-0.092
-614.288	-79.029	-0.253	-0.087
-613.273	-200.000	-0.020	-0.173
-612.259	59.250	-0.202	-0.201
-611.244	-113.598	-0.300	0.059
-610.230	52.150	-0.069	-0.066
-609.215	106.451	0.263	-0.315
-608.201	9.886	0.110	0.084
-607.186	800.000	0.051	0.149
-606.171	65.701	-0.170	0.174
-605.157	37.516	0.191	0.171
-604.142	171.379	-0.106	-0.154
-603.128	-200.000	0.002	-0.060
-602.113	-35.667	-0.168	0.092
-601.098	209.005	-0.266	0.420
-600.084	800.000	-0.009	-0.035
-599.069	-48.734	-0.217	-0.105
-598.055	-200.000	-0.100	-0.461
-597.040	131.320	-0.186	0.241
-596.025	-200.000	-0.004	-0.189
-595.011	90.141	-0.206	-0.232
-593.996	-94.051	-0.355	-0.098
-592.982	195.442	0.123	0.189
-591.967	122.373	0.039	-0.049
-590.952	-0.860	0.130	-0.093
-589.938	93.297	0.154	0.175
-588.923	107.819	0.079	0.095
-587.909	-17.875	-0.260	0.165
-586.894	-73.502	0.353	0.130
-585.879	-28.156	-0.222	0.130
-584.865	-73.946	-0.126	0.046
-583.850	-22.551	0.101	-0.061
-582.836	-71.824	-0.102	-0.038
-581.821	800.000	0.096	-0.383
-580.806	124.331	-0.126	0.160
-579.792	800.000	-0.090	-0.252
-578.777	160.887	0.094	0.132
-577.763	45.124	-0.162	-0.151
-576.748	-87.156	-0.307	0.094
-575.733	-200.000	-0.019	0.276
-574.719	-69.393	-0.150	-0.058
-573.704	800.000	0.052	-0.212
-572.690	-128.342	-0.116	-0.017
-571.675	800.000	0.015	-0.043
-570.661	-12.213	0.139	0.092
-569.646	275.091	-0.147	0.262
-568.631	-200.000	-0.013	-0.121
-567.617	144.372	0.117	-0.158
-566.602	45.245	0.139	-0.129
-565.588	-58.090	-0.066	-0.029
-564.573	-53.512	0.236	0.109
-563.558	343.279	-0.109	-0.216
-562.544	-86.614	0.297	-0.092
-561.529	-89.848	0.264	0.078
-560.515	84.625	-0.233	-0.258
-559.500	133.044	0.257	-0.334
-558.485	-200.000	0.004	0.155
-557.471	661.971	0.079	0.205
-556.456	-15.599	0.118	0.076
-555.442	-74.270	-0.255	0.093
-554.427	-108.952	0.269	-0.058
-553.412	800.000	-0.047	-0.158
-552.398	-103.704	-0.464	-0.110
-551.383	-38.246	0.098	0.052
-550.369	279.291	-0.018	-0.032
-549.354	-14.659	0.370	-0.240
-548.339	-200.000	-0.024	0.144
-547.325	138.407	0.122	-0.161
-546.310	-111.124	-0.283	0.058
-545.296	21.981	0.081	-0.066
-544.281	-200.000	0.073	0.384
-543.266	800.000	0.083	-0.270
-542.252	390.336	0.053	0.111
-541.237	800.000	0.030	0.100
-540.223	-200.000	0.053	0.339
-539.208	108.875	0.096	0.116
-538.193	-200.000	0.027	-0.158
-537.179	440.544	0.098	0.216
-536.164	-200.000	-0.011	0.307
-535.150	111.112	-0.155	-0.188
-534.135	275.901	-0.176	-0.315
-533.121	182.267	-0.123	-0.182
-532.106	24.421	0.352	-0.294
-531.091	-114.353	-0.276	0.054
-530.077	-51.792	-0.066	-0.031
-529.062	483.546	-0.110	-0.253
-528.048	156.514	0.107	0.148
-527.033	61.125	-0.234	-0.234
-526.018	-76.460	0.192	-0.068
-525.004	464.469	-0.185	-0.417
-523.989	98.823	-0.031	0.036
-522.975	-119.864	-0.087	0.015
-521.960	2.771	-0.259	-0.189
-520.945	359.584	-0.245	-0.494
-519.931	-0.825	0.096	0.069
-518.916	-200.000	0.021	0.454
-517.902	-23.832	0.165	0.099
-516.887	800.000	-0.123	0.475
-515.872	55.805	0.061	-0.060
-514.858	162.112	0.163	0.230
-513.843	493.193	-0.055	-0.128
-512.829	-33.879	0.018	-0.010
-511.814	541.321	-0.093	-0.223
-510.799	35.825	0.312	-0.277
-509.785	535.765	-0.014	-0.033
-508.770	-20.164	-0.184	0.114
-507.756	-11.445	-0.140	-0.092
-506.741	-189.651	0.041	-0.000
-505.726	-25.982	0.213	0.126
-504.712	226.009	0.162	0.264
-503.697	313.400	-0.080	0.152
-502.683	-65.637	0.121	-0.049
-501.668	-107.773	-0.206	0.045
-500.653	124.171	0.227	-0.287
-499.639	472.288	-0.092	-0.208
-498.624	-200.000	0.059	0.345
-497.610	59.078	0.151	0.150
-496.595	-75.307	0.109	-0.039
-495.581	47.080	-0.202	-0.189
-494.566	637.012	-0.109	-0.278
-493.551	-91.042	-0.284	-0.082
-492.537	-157.971	0.578	-0.034
-491.522	0.318	0.286	0.206
-490.508	-15.582	0.094	0.061
-489.493	-32.205	0.322	0.181
-488.478	515.675	-0.023	0.054
-487.464	231.865	0.102	0.168
-486.449	-23.708	0.098	-0.059
-485.435	53.597	0.274	0.265
-484.420	180.112	-0.046	0.069
-483.405	-91.853	-0.260	0.074
-482.391	8.671	-0.160	-0.121
-481.376	-157.751	-0.402	0.024
-480.362	-84.495	-0.247	0.079
-479.347	212.129	0.128	-0.203
-478.332	67.187	0.301	0.308
-477.318	-117.205	0.290	0.053
-476.303	-94.829	-0.089	0.024
-475.289	79.670	-0.085	0.092
-474.274	-200.000	-0.014	0.458
-473.259	-21.907	0.133	-0.081
-472.245	109.169	-0.050	-0.061
-471.230	412.181	0.038	0.081
-470.216	556.176	0.107	0.259
-469.201	113.493	-0.164	0.200
-468.186	-200.000	-0.006	0.175
-467.172	-100.651	-0.127	0.032
-466.157	-107.689	0.202	0.044
-465.143	-77.030	0.278	-0.097
-464.128	-8.833	-0.193	0.130
-463.113	-200.000	-0.024	0.205
-462.099	76.994	0.116	0.124
-461.084	-113.641	-0.184	-0.036
-460.070	-153.887	0.073	0.005
-459.055	217.615	-0.212	0.339
-458.040	-200.000	-0.025	0.408
-457.026	762.154	0.097	-0.264
-456.011	178.128	-0.125	-0.184
-454.997	-2.054	0.169	0.119
-453.982	-200.000	0.008	0.477
-452.968	-200.000	-0.032	-0.160
-451.953	-200.000	0.012	-0.237
-450.938	-126.991	-0.379	-0.056
-449.924	48.063	-0.162	0.152
-448.909	-105.436	0.343	-0.078
-447.895	-66.472	-0.121	0.048
-446.880	-200.000	-0.037	0.208
-445.865	800.000	-0.022	-0.084
-444.851	291.634	-0.136	0.249
-443.836	-63.368	-0.249	-0.103
-442.822	-107.760	0.128	0.028
-441.807	26.692	-0.407	0.343
-440.792	-159.381	-0.116	0.007
-439.778	-43.681	-0.241	-0.122
-438.763	-148.069	0.258	0.022
-437.749	-101.040	-0.176	0.043
-436.734	-119.673	0.178	0.031
-435.719	-21.100	-0.232	0.143
-434.705	-200.000	-0.078	-0.470
-433.690	-74.278	0.267	-0.097
-432.676	-117.649	-0.114	-0.021
-431.661	-117.079	0.228	0.042
-430.646	800.000	-0.054	-0.194
-429.632	62.046	0.421	0.422
-428.617	-77.503	0.104	0.036
-427.603	-179.478	0.183	-0.004
-426.588	-116.515	-0.276	-0.051
-425.573	-105.468	0.206	0.047
-424.559	781.334	0.155	0.426
-423.544	-114.488	0.192	0.037
-422.530	324.610	-0.068	0.130
-421.515	44.086	-0.104	-0.096
-420.500	7.205	-0.233	-0.174
-419.486	139.504	0.094	-0.124
-418.471	477.984	0.026	0.059
-417.457	52.836	0.155	0.148
-416.442	274.584	0.289	0.513
-415.428	-74.443	0.290	-0.105
-414.413	75.489	0.385	-0.407
-413.398	800.000	0.019	-0.071
-412.384	-200.000	0.014	0.203
-411.369	136.656	-0.144	0.189
-410.355	48.400	-0.170	0.159
-409.340	-200.000	0.021	0.154
-408.325	-200.000	0.000	-0.219
-407.311	800.000	0.004	-0.010
-406.296	87.742	-0.054	0.060
-405.282	-193.135	-0.296	0.003
-404.267	-142.239	0.136	0.013
-403.252	86.696	-0.240	0.266
-402.238	63.519	-0.246	0.247
-401.223	-109.965	0.059	-0.012
-400.209	-200.000	-0.008	-0.064
-399.194	800.000	-0.035	0.123
-398.179	210.231	-0.104	-0.164
-397.165	-200.000	-0.008	-0.381
-396.150	-200.000	-0.019	0.205
-395.136	-45.546	0.178	0.088
-394.121	-55.905	0.057	-0.026
-393.106	-113.709	-0.243	-0.048
-392.092	800.000	0.089	-0.320
-391.077	-200.000	-0.006	-0.261
-390.063	-59.556	0.252	-0.108
-389.048	30.577	-0.035	0.030
-388.033	106.997	-0.189	0.225
-387.019	33.200	-0.192	0.167
-386.004	126.214	-0.030	-0.038
-384.990	-200.000	0.010	-0.547
-383.975	-7.233	0.258	0.175
-382.960	77.233	0.390	0.415
-381.946	-115.636	0.181	0.034
-380.931	-200.000	0.006	0.121
-379.917	-27.154	0.086	0.050
-378.902	-120.522	0.358	0.061
-377.888	190.915	-0.183	-0.275
-376.873	-26.780	0.196	-0.115
-375.858	131.385	0.114	-0.146
-374.844	611.529	-0.133	-0.333
-373.829	800.000	0.032	-0.108
-372.815	-200.000	0.005	0.280
-371.800	455.731	0.103	0.228
-370.785	-83.461	-0.231	-0.074
-369.771	-126.017	0.174	0.026
-368.756	-159.235	0.202	0.011
-367.742	401.640	-0.161	0.339
-366.727	301.623	0.056	0.103
-365.712	-71.045	0.279	-0.105
-364.698	-39.226	-0.061	0.032
-363.683	77.169	-0.147	-0.156
-362.669	-9.746	0.099	0.066
-361.654	-171.987	0.292	-0.009
-360.639	-94.847	0.523	0.142
-359.625	401.385	0.021	-0.045
-358.610	667.898	0.080	-0.206
-357.596	-3.526	-0.202	-0.141
-356.581	-69.059	-0.089	0.034
-355.566	-200.000	0.086	0.456
-354.552	-94.718	-0.377	-0.102
-353.537	-11.419	-0.165	-0.109
-352.523	775.299	-0.105	-0.287
-351.508	650.030	-0.029	-0.075
-350.493	800.000	-0.058	0.169
-349.479	-11.786	0.123	0.081
-348.464	-97.635	-0.348	0.090
-347.450	800.000	-0.031	-0.115
-346.435	-200.000	-0.018	-0.124
-345.420	-200.000	-0.002	-0.011
-344.406	240.441	-0.152	-0.254
-343.391	-187.322	0.241	0.003
-342.377	-200.000	-0.047	-0.239
-341.362	-16.288	-0.188	-0.119
-340.348	-19.579	0.090	0.056
-339.333	-4.044	-0.125	-0.086
-338.318	800.000	-0.037	0.106
-337.304	-175.436	-0.212	0.006
-336.289	-4.743	-0.166	0.114
-335.275	405.446	0.025	-0.053
-334.260	-200.000	0.007	0.063
-333.245	-127.260	0.259	0.038
-332.231	-142.469	0.326	0.032
-331.216	800.000	0.056	-0.164
-330.202	42.865	-0.123	0.112
-329.187	15.978	0.412	-0.324
-328.172	-11.717	-0.071	-0.047
-327.158	-102.990	0.445	-0.106
-326.143	-102.484	0.587	-0.141
-325.129	-141.225	-0.309	-0.031
-324.114	800.000	-0.085	-0.272
-323.099	-73.042	-0.159	-0.058
-322.085	800.000	-0.030	-0.127
-321.070	-41.252	-0.171	-0.088
-320.056	43.359	-0.044	-0.040
-319.041	-200.000	-0.056	-0.557
-318.026	138.667	-0.231	-0.303
-317.012	19.659	0.321	0.258
-315.997	-162.213	-0.097	0.005
-314.983	-104.089	0.129	-0.030
-313.968	-144.292	-0.118	-0.011
-312.953	106.548	0.127	0.150
-311.939	546.124	0.075	-0.179
-310.924	429.518	0.060	0.129
-309.910	53.136	0.145	0.139
-308.895	800.000	0.027	-0.113
-307.880	-116.634	-0.176	-0.032
-306.866	-161.729	-0.157	-0.008
-305.851	-143.537	0.206	-0.020
-304.837	-200.000	0.004	-0.160
-303.822	-40.443	-0.060	-0.031
-302.807	-128.016	-0.249	0.036
-301.793	466.543	0.038	0.085
-300.778	-200.000	0.009	-0.137
-299.764	-32.872	-0.246	0.137
-298.749	800.000	0.006	0.018
-297.735	47.928	-0.315	0.294
-296.720	200.350	-0.108	-0.165
-295.705	61.358	0.146	0.145
-294.691	321.965	-0.136	0.258
-293.676	-125.290	0.249	-0.038
-292.662	-200.000	-0.004	-0.040
-291.647	-134.113	0.378	-0.047
-290.632	439.261	-0.139	-0.302
-289.618	549.393	0.032	-0.077
-288.603	-200.000	0.003	0.201
-287.589	-97.067	0.188	-0.049
-286.574	-102.255	-0.216	-0.052
-285.559	-96.983	-0.195	-0.051
-284.545	800.000	-0.051	-0.206
-283.530	591.148	0.073	0.181
-282.516	266.444	-0.172	-0.300
-281.501	445.572	0.026	-0.058
-280.486	84.278	-0.227	-0.248
-279.472	-168.178	0.153	0.006
-278.457	-44.351	-0.241	-0.121
-277.443	13.372	0.310	-0.240
-276.428	800.000	-0.071	0.250
-275.413	-79.712	0.062	-0.021
-274.399	-84.924	-0.118	-0.037
-273.384	800.000	-0.079	-0.332
-272.370	-200.000	0.073	-0.378
-271.355	40.994	0.041	0.037
-270.340	34.389	0.193	0.168
-269.326	0.449	0.373	0.266
-268.311	-63.277	-0.148	-0.061
-267.297	84.378	-0.257	0.281
-266.282	396.367	-0.047	-0.098
-265.267	662.987	-0.053	0.135
-264.253	-200.000	0.014	0.198
-263.238	220.748	0.148	0.236
-262.224	-200.000	0.018	-0.177
-261.209	23.178	0.094	0.077
-260.195	25.048	0.151	0.125
-259.180	366.097	-0.191	0.384
-258.165	-200.000	0.074	-0.345
-257.151	389.498	0.045	-0.094
-256.136	-59.948	-0.097	-0.041
-255.122	-69.398	-0.351	0.134
-254.107	-38.351	0.277	0.146
-253.092	-175.944	0.203	-0.005
-252.078	-111.584	0.249	0.050
-251.063	84.911	0.249	-0.272
-250.049	-55.542	0.101	-0.045
-249.034	-39.903	-0.179	-0.093
-248.019	400.012	0.049	0.102
-247.005	2.278	-0.222	0.160
-245.990	-200.000	-0.334	0.001
-244.976	800.000	-0.053	0.220
-243.961	-200.000	-0.019	0.199
-242.946	567.711	0.098	-0.238
-241.932	-200.000	-0.064	0.346
-240.917	-200.000	-0.036	0.309
-239.903	-200.000	-0.031	-0.224
-238.888	57.813	-0.313	-0.305
-237.873	-91.091	-0.156	0.045
-236.859	-164.230	0.075	-0.003
-235.844	3.364	0.138	-0.100
-234.830	-200.000	0.067	0.377
-233.815	-2.968	-0.101	0.070
-232.800	-76.509	0.170	0.060
-231.786	800.000	0.067	0.275
-230.771	35.366	-0.128	-0.112
-229.757	800.000	0.021	-0.065
-228.742	543.359	0.052	0.123
-227.727	40.178	0.027	-0.024
-226.713	-200.000	0.066	0.353
-225.698	-55.850	-0.217	0.096
-224.684	-164.121	-0.274	-0.013
-223.669	170.419	-0.154	-0.219
-222.655	800.000	0.085	0.262
-221.640	-143.997	0.124	-0.012
-220.625	-104.201	0.292	0.067
-219.611	151.207	0.067	-0.091
-218.596	91.143	0.083	0.093
-217.582	-24.124	-0.166	0.099
-216.567	67.645	0.158	-0.161
-215.552	331.265	0.164	0.316
-214.538	800.000	0.053	-0.163
-213.523	-127.512	0.269	0.039
-212.509	-200.000	-0.002	-0.449
-211.494	271.720	0.045	-0.080
-210.479	-146.495	-0.323	0.028
-209.465	-72.662	0.414	-0.152
-208.450	403.643	0.083	0.173
-207.436	102.307	-0.085	0.099
-206.421	106.135	-0.128	-0.151
-205.406	113.896	-0.114	0.137
-204.392	40.279	-0.161	-0.144
-203.377	-200.000	0.014	0.126
-202.363	637.469	0.036	-0.090
-201.348	-91.029	0.341	0.098
-200.333	314.786	-0.151	-0.284
-199.319	-3.721	0.387	-0.267
-198.304	-116.378	0.235	0.043
-197.290	-47.663	0.076	0.037
-196.275	-102.087	-0.129	0.031
-195.260	-110.422	-0.203	-0.042
-194.246	-5.234	0.128	-0.088
-193.231	-62.774	0.319	-0.132
-192.217	113.101	-0.043	-0.051
-191.202	159.699	-0.245	0.339
-190.187	800.000	0.039	0.144
-189.173	-200.000	0.036	-0.248
-188.158	-142.003	0.407	0.040
-187.144	-138.345	-0.115	-0.013
-186.129	96.576	-0.038	0.044
-185.114	-90.982	0.218	-0.062
-184.100	-200.000	0.023	-0.209
-183.085	288.765	0.059	-0.107
-182.071	-200.000	-0.022	-0.158
-181.056	101.842	0.216	-0.250
-180.042	41.017	-0.241	0.217
-179.027	2.779	-0.084	-0.060
-178.012	279.817	0.103	-0.183
-176.998	-50.104	0.106	-0.050
-175.983	-91.635	-0.458	-0.130
-174.969	26.970	-0.106	0.089
-173.954	-200.000	-0.036	0.219
-172.939	-141.290	0.076	-0.008
-171.925	-200.000	-0.027	-0.179
-170.910	-105.650	-0.127	0.029
-169.896	-200.000	-0.004	-0.027
-168.881	-200.000	-0.010	0.129
-167.866	-200.000	-0.025	-0.377
-166.852	-19.367	0.182	-0.112
-165.837	194.474	-0.116	0.175
-164.823	159.735	-0.078	-0.108
-163.808	-72.672	0.354	0.130
-162.793	627.161	0.193	-0.484
-161.779	800.000	0.113	-0.469
-160.764	277.192	0.152	0.269
-159.750	174.761	0.282	0.405
-158.735	-132.614	-0.552	0.070
-157.720	43.728	0.035	0.031
-156.706	275.200	-0.102	-0.180
-155.691	-112.786	0.324	-0.064
-154.677	800.000	-0.018	-0.075
-153.662	-8.288	-0.212	0.142
-152.647	800.000	0.032	0.119
-151.633	155.489	0.040	-0.055
-150.618	-72.076	0.325	-0.120
-149.604	216.431	-0.022	-0.034
-148.589	-200.000	0.002	0.121
-147.574	-76.404	-0.110	-0.038
-146.560	-9.522	-0.088	0.059
-145.545	-43.750	0.232	-0.116
-144.531	27.922	0.093	-0.078
-143.516	32.504	0.081	0.069
-142.502	-200.000	-0.030	0.170
-141.487	-10.676	-0.142	-0.093
-140.472	-25.140	-0.239	0.140
-139.458	-200.000	0.047	0.280
-138.443	18.616	-0.208	0.165
-137.429	-105.036	0.266	-0.060
-136.414	-25.533	0.166	-0.097
-135.399	17.303	-0.090	-0.071
-134.385	45.280	0.322	0.294
-133.370	610.457	0.052	0.129
-132.356	5.168	-0.100	-0.073
-131.341	-200.000	0.039	0.253
-130.326	-45.543	-0.236	-0.116
-129.312	800.000	-0.071	-0.292
-128.297	-31.476	0.391	0.218
-127.283	800.000	-0.014	-0.049
-126.268	-200.000	-0.004	-0.178
-125.253	200.884	-0.095	-0.145
-124.239	-177.640	0.234	0.006
-123.224	356.305	0.285	0.563
-122.210	-200.000	-0.004	0.442
