DTS Sentinel unit serial number:	SN413079Multiplexer serial number:	ORYXHardware model number:	OX4-SRSoftware version number:	ORYX F/W v4.00 Oryx Data Collector v3.7.2.0data status	okinstallation	princeton_trtdifferential loss correction	single-endedforward channel	channel 4reverse channel	N/Adate	2019/09/11time	10:59:11forward acquisition time	60.00reverse acquisition time	0.00gamma	496.2192k internal	0.2293k external	0.2293temperature offset calibration	0.9966default loss term (dB/km)	0.3790temperature slope calibration	1.0000multiplexer offset coefficient	1.0000multiplexer slope coefficient	1.0000fibre end	0.00T internal ref (°C)	37.17T ext. ref 1 (°C)	0.14T ext. ref 2 (°C)	34.57length (m)	temperature (°C)	Stokes	anti-Stokes-747.200	-42.137	-0.333	0.174
-746.185	199.986	0.134	0.211
-745.171	-68.704	0.345	-0.137
-744.156	800.000	-0.108	0.307
-743.142	-78.861	-0.188	0.066
-742.127	-61.801	0.092	-0.040
-741.112	8.731	-0.093	0.072
-740.098	-27.271	0.126	0.075
-739.083	-85.060	0.351	0.112
-738.069	73.417	0.039	-0.041
-737.054	800.000	0.037	0.136
-736.039	-200.000	0.004	-0.133
-735.025	39.984	0.172	0.158
-734.010	215.710	-0.284	-0.460
-732.996	800.000	0.118	-0.393
-731.981	-200.000	0.005	-0.084
-730.966	-200.000	0.061	-0.399
-729.952	800.000	-0.150	-0.607
-728.937	302.580	0.075	-0.142
-727.923	256.848	-0.050	0.087
-726.908	-92.247	0.195	-0.056
-725.894	-40.014	0.266	-0.142
-724.879	-60.619	0.221	-0.096
-723.864	163.477	-0.108	0.155
-722.850	237.480	-0.094	0.159
-721.835	-142.030	-0.218	-0.022
-720.821	52.563	-0.426	-0.416
-719.806	145.834	-0.055	-0.075
-718.791	-147.619	-0.277	0.024
-717.777	216.835	-0.146	-0.237
-716.762	-42.482	-0.154	-0.080
-715.748	-200.000	-0.005	-0.210
-714.733	-46.841	0.160	0.080
-713.718	-104.396	-0.180	-0.042
-712.704	-178.453	-0.427	-0.010
-711.689	124.084	0.221	-0.284
-710.675	329.525	-0.127	-0.249
-709.660	-125.571	-0.278	0.043
-708.645	126.499	0.074	-0.095
-707.631	116.502	0.092	-0.115
-706.616	30.922	0.273	0.239
-705.602	-175.611	-0.223	-0.006
-704.587	202.976	0.059	-0.092
-703.572	-152.666	-0.082	-0.006
-702.558	-54.941	-0.177	-0.082
-701.543	-76.180	-0.322	0.116
-700.529	-151.701	0.233	-0.018
-699.514	-26.587	-0.202	-0.121
-698.499	-49.774	-0.330	-0.160
-697.485	-200.000	-0.083	-0.379
-696.470	208.931	-0.297	-0.475
-695.456	264.262	0.102	-0.182
-694.441	-200.000	-0.009	0.253
-693.426	568.939	-0.112	-0.278
-692.412	397.362	-0.207	-0.441
-691.397	261.599	-0.073	-0.129
-690.383	-200.000	-0.002	-0.099
-689.368	-68.841	0.314	-0.124
-688.354	-149.951	-0.062	-0.005
-687.339	46.393	-0.120	0.114
-686.324	90.593	-0.197	0.225
-685.310	-139.400	-0.132	0.014
-684.295	-56.500	0.159	-0.072
-683.281	-35.511	-0.269	0.149
-682.266	126.562	0.060	-0.077
-681.251	185.462	-0.193	-0.292
-680.237	-28.248	-0.285	0.168
-679.222	800.000	-0.109	-0.316
-678.208	22.712	-0.072	0.060
-677.193	-56.468	-0.069	-0.031
-676.178	-200.000	-0.011	-0.184
-675.164	419.730	0.006	0.013
-674.149	62.076	-0.181	-0.185
-673.135	800.000	-0.057	-0.167
-672.120	543.194	0.078	0.189
-671.105	45.162	0.108	0.102
-670.091	-10.523	0.245	0.166
-669.076	-117.736	0.131	-0.024
-668.062	800.000	-0.116	-0.362
-667.047	-77.819	0.199	-0.070
-666.032	-200.000	-0.020	-0.173
-665.018	653.366	-0.141	0.370
-664.003	-200.000	-0.056	0.371
-662.989	-200.000	-0.022	0.184
-661.974	287.326	0.010	-0.018
-660.959	32.000	-0.109	-0.096
-659.945	48.399	-0.137	-0.131
-658.930	-176.245	-0.258	-0.007
-657.916	-136.625	-0.313	0.037
-656.901	-82.543	-0.119	0.039
-655.886	800.000	0.057	-0.221
-654.872	-100.556	-0.261	-0.066
-653.857	-105.393	-0.173	0.040
-652.843	-90.930	-0.167	0.049
-651.828	46.344	0.122	0.115
-650.814	1.181	-0.040	0.029
-649.799	-36.964	0.182	0.099
-648.784	-49.123	0.166	0.081
-647.770	800.000	-0.048	0.145
-646.755	-15.609	0.105	-0.068
-645.741	233.839	-0.138	-0.231
-644.726	-92.485	0.098	-0.028
-643.711	-192.503	0.270	-0.003
-642.697	-200.000	-0.019	0.126
-641.682	-141.503	0.140	-0.014
-640.668	-102.180	0.315	0.077
-639.653	-200.000	-0.042	-0.374
-638.638	161.402	-0.088	-0.125
-637.624	161.829	-0.080	-0.115
-636.609	-134.653	0.296	0.037
-635.595	800.000	0.033	0.094
-634.580	692.431	-0.066	0.177
-633.565	-61.580	0.295	-0.126
-632.551	-54.960	-0.566	0.260
-631.536	-200.000	-0.044	0.258
-630.522	73.944	-0.101	0.108
-629.507	-200.000	0.030	0.217
-628.492	-53.187	0.030	-0.014
-627.478	-3.806	-0.109	-0.077
-626.463	168.734	-0.061	-0.088
-625.449	-102.144	-0.025	0.006
-624.434	-8.909	0.058	-0.040
-623.419	-109.041	0.036	0.008
-622.405	192.170	-0.065	-0.099
-621.390	-27.621	-0.352	0.208
-620.376	205.943	0.054	-0.086
-619.361	122.030	0.068	0.087
-618.346	794.110	0.083	-0.232
-617.332	800.000	0.112	-0.418
-616.317	-28.164	0.215	-0.126
-615.303	151.916	-0.096	0.133
-614.288	-5.650	0.344	-0.240
-613.273	348.784	-0.093	-0.187
-612.259	-37.711	-0.449	-0.243
-611.244	578.169	0.056	-0.138
-610.230	-24.071	-0.115	-0.070
-609.215	-79.670	0.239	0.082
-608.201	800.000	-0.041	-0.178
-607.186	-200.000	0.021	-0.299
-606.171	-26.593	-0.235	0.140
-605.157	-200.000	0.003	-0.016
-604.142	159.141	-0.074	0.104
-603.128	496.018	0.150	0.351
-602.113	22.325	-0.313	-0.260
-601.098	298.833	0.113	-0.212
-600.084	-135.789	-0.093	0.011
-599.069	-86.153	-0.253	-0.079
-598.055	-86.073	0.169	-0.053
-597.040	309.208	-0.079	0.149
-596.025	-200.000	0.016	0.224
-595.011	-200.000	0.002	0.304
-593.996	800.000	0.019	0.066
-592.982	800.000	0.078	-0.238
-591.967	-98.358	0.219	-0.057
-590.952	175.294	0.185	-0.273
-589.938	40.076	0.099	0.091
-588.923	262.341	0.047	0.083
-587.909	56.408	-0.236	-0.234
-586.894	-102.148	-0.013	-0.003
-585.879	141.636	0.167	0.226
-584.865	-71.290	-0.318	0.121
-583.850	106.781	0.031	-0.038
-582.836	553.494	-0.218	-0.533
-581.821	11.520	-0.209	-0.163
-580.806	-67.167	0.410	-0.164
-579.792	-200.000	0.015	0.132
-578.777	800.000	-0.029	-0.094
-577.763	-20.448	-0.200	-0.125
-576.748	-22.497	-0.123	-0.076
-575.733	800.000	0.137	-0.455
-574.719	79.841	-0.100	0.109
-573.704	-73.524	0.196	0.073
-572.690	800.000	-0.152	0.472
-571.675	786.592	-0.039	0.110
-570.661	14.902	0.310	0.246
-569.646	-200.000	0.043	0.207
-568.631	12.308	-0.101	-0.079
-567.617	8.070	-0.069	-0.053
-566.602	-200.000	-0.045	-0.246
-565.588	273.986	0.035	-0.063
-564.573	600.556	0.123	-0.311
-563.558	-200.000	0.024	0.354
-562.544	-151.950	0.133	0.010
-561.529	48.508	0.063	0.060
-560.515	398.261	0.017	-0.037
-559.500	-118.652	0.177	0.032
-558.485	-172.104	-0.121	0.004
-557.471	171.658	-0.099	0.145
-556.456	357.758	-0.034	-0.069
-555.442	-143.809	0.172	0.017
-554.427	-33.110	0.112	-0.063
-553.412	-200.000	0.033	-0.148
-552.398	800.000	-0.078	0.266
-551.383	-200.000	-0.012	-0.240
-550.369	-20.126	-0.204	-0.128
-549.354	311.549	-0.025	0.048
-548.339	5.144	-0.234	0.175
-547.325	-200.000	-0.012	-0.145
-546.310	800.000	0.054	0.167
-545.296	77.315	0.070	0.075
-544.281	261.441	0.086	0.152
-543.266	-57.736	0.182	0.081
-542.252	83.573	0.026	-0.028
-541.237	-22.788	-0.260	0.159
-540.223	-128.087	-0.398	-0.058
-539.208	-200.000	-0.025	-0.116
-538.193	-79.077	0.375	-0.129
-537.179	-81.095	-0.117	-0.039
-536.164	41.026	-0.228	-0.209
-535.150	180.897	0.065	-0.096
-534.135	47.049	0.186	0.175
-533.121	-163.359	0.271	0.013
-532.106	-88.900	0.077	0.023
-531.091	-141.924	0.427	-0.043
-530.077	92.948	-0.237	-0.271
-529.062	-138.258	-0.248	-0.028
-528.048	-76.019	0.030	0.011
-527.033	-104.446	0.218	-0.051
-526.018	37.428	0.073	0.065
-525.004	-164.161	-0.160	-0.007
-523.989	-200.000	0.034	-0.333
-522.975	-200.000	-0.049	0.280
-521.960	87.552	-0.119	0.134
-520.945	-200.000	-0.024	0.279
-519.931	102.747	-0.305	0.362
-518.916	-56.877	-0.258	0.115
-517.902	482.896	0.122	0.280
-516.887	722.870	-0.062	0.167
-515.872	-86.116	0.194	-0.061
-514.858	-144.525	0.172	0.016
-513.843	-5.566	0.062	0.043
-512.829	258.322	0.102	0.178
-511.814	-102.659	0.301	0.073
-510.799	-128.374	0.212	0.031
-509.785	800.000	0.075	-0.250
-508.770	377.960	-0.122	-0.252
-507.756	-91.800	0.249	0.072
-506.741	-200.000	0.051	-0.240
-505.726	157.317	0.108	-0.151
-504.712	-164.307	-0.177	-0.008
-503.697	467.616	-0.084	-0.192
-502.683	485.206	-0.076	-0.176
-501.668	-78.413	0.202	0.070
-500.653	21.534	-0.162	0.134
-499.639	800.000	0.106	0.312
-498.624	-75.025	-0.169	0.061
-497.610	-101.914	0.179	0.044
-496.595	-18.644	0.221	-0.139
-495.581	77.305	0.113	0.121
-494.566	-102.345	0.307	-0.075
-493.551	254.774	-0.163	-0.283
-492.537	-68.846	0.113	0.044
-491.522	-200.000	0.040	0.351
-490.508	-88.456	0.020	0.006
-489.493	-111.100	0.107	-0.022
-488.478	-63.535	0.127	0.053
-487.464	-200.000	-0.226	-0.000
-486.449	-200.000	-0.055	-0.263
-485.435	-75.954	-0.279	0.100
-484.420	800.000	-0.031	0.100
-483.405	-56.178	-0.195	-0.088
-482.391	383.635	-0.149	0.311
-481.376	358.056	0.052	-0.106
-480.362	168.188	0.099	0.142
-479.347	312.684	0.135	-0.257
-478.332	780.964	-0.095	-0.264
-477.318	800.000	0.082	0.257
-476.303	-125.437	-0.424	-0.065
-475.289	-11.097	-0.137	0.092
-474.274	-9.749	0.201	0.135
-473.259	87.865	0.240	-0.269
-472.245	127.491	-0.002	-0.003
-471.230	22.024	-0.059	0.049
-470.216	800.000	-0.036	0.104
-469.201	-53.640	-0.151	-0.070
-468.186	-200.000	0.010	0.284
-467.172	110.747	-0.097	0.118
-466.157	800.000	-0.025	0.074
-465.143	-200.000	0.036	0.207
-464.128	-200.000	0.014	0.220
-463.113	-29.462	0.425	0.246
-462.099	-90.904	0.210	0.061
-461.084	204.896	0.225	0.354
-460.070	116.835	0.098	-0.122
-459.055	-14.360	-0.167	0.109
-458.040	800.000	-0.100	-0.309
-457.026	-154.337	-0.180	0.012
-456.011	-200.000	-0.009	-0.130
-454.997	309.204	0.156	0.294
-453.982	-135.535	0.347	-0.042
-452.968	-200.000	-0.004	0.082
-451.953	43.234	-0.282	0.260
-450.938	-26.959	0.224	0.132
-449.924	22.238	0.109	-0.090
-448.909	-70.103	0.049	0.019
-447.895	800.000	-0.182	0.593
-446.880	800.000	0.061	0.199
-445.865	-126.457	-0.367	-0.055
-444.851	800.000	-0.009	-0.028
-443.836	120.605	0.266	-0.335
-442.822	125.410	-0.164	-0.209
-441.807	-87.745	0.271	0.083
-440.792	150.831	-0.094	-0.129
-439.778	-71.416	-0.253	-0.096
-438.763	-200.000	-0.011	0.587
-437.749	174.862	-0.150	0.220
-436.734	334.264	-0.080	0.157
-435.719	22.859	0.041	0.034
-434.705	-200.000	-0.023	-0.206
-433.690	24.998	0.219	-0.184
-432.676	104.847	-0.088	-0.104
-431.661	800.000	0.025	0.095
-430.646	-100.109	0.256	-0.064
-429.632	84.208	-0.095	0.105
-428.617	136.628	-0.274	-0.362
-427.603	800.000	0.082	0.285
-426.588	-200.000	-0.004	0.119
-425.573	800.000	-0.155	0.511
-424.559	-69.858	0.019	0.007
-423.544	-128.592	0.044	-0.006
-422.530	212.822	-0.102	-0.163
-421.515	1.225	-0.217	0.157
-420.500	-160.887	-0.049	0.003
-419.486	376.656	0.096	0.198
-418.471	-200.000	0.013	0.116
-417.457	51.977	0.213	-0.204
-416.442	208.502	0.030	-0.047
-415.428	-144.349	-0.279	-0.026
-414.413	800.000	-0.043	-0.174
-413.398	424.568	-0.099	-0.216
-412.384	-34.718	0.099	-0.055
-411.369	-111.690	-0.135	-0.028
-410.355	-179.638	0.279	-0.006
-409.340	210.763	0.129	0.205
-408.325	-30.885	-0.145	-0.083
-407.311	-200.000	0.011	0.260
-406.296	-16.948	-0.147	-0.094
-405.282	56.916	-0.240	-0.236
-404.267	588.008	0.059	0.146
-403.252	-200.000	-0.026	0.149
-402.238	207.381	0.155	0.245
-401.223	308.560	0.065	-0.123
-400.209	-69.766	0.239	0.092
-399.194	-85.524	0.140	-0.044
-398.179	-8.690	-0.214	-0.145
-397.165	110.250	0.052	0.063
-396.150	230.619	-0.156	-0.258
-395.136	-172.937	-0.448	0.014
-394.121	58.958	-0.112	-0.112
-393.106	255.093	0.239	-0.413
-392.092	-200.000	-0.073	-0.573
-391.077	800.000	-0.076	-0.263
-390.063	345.423	0.042	0.083
-389.048	364.322	0.092	0.187
-388.033	-200.000	0.059	0.385
-387.019	-200.000	-0.019	-0.172
-386.004	-103.798	-0.148	-0.035
-384.990	-92.854	-0.169	0.048
-383.975	195.927	0.034	-0.053
-382.960	514.439	-0.043	-0.102
-381.946	-80.972	-0.348	0.116
-380.931	-166.928	-0.106	0.004
-379.917	288.667	-0.158	-0.288
-378.902	-200.000	0.037	0.235
-377.888	-151.508	-0.211	-0.016
-376.873	-53.250	-0.087	-0.040
-375.858	217.411	-0.095	0.152
-374.844	800.000	0.035	-0.111
-373.829	31.157	0.082	0.071
-372.815	412.987	-0.090	0.192
-371.800	35.494	-0.212	0.188
-370.785	14.320	-0.153	-0.120
-369.771	-85.832	-0.413	0.129
-368.756	-31.359	-0.148	-0.084
-367.742	95.962	0.174	-0.200
-366.727	82.458	0.283	-0.309
-365.712	124.919	0.099	-0.126
-364.698	-200.000	-0.016	-0.311
-363.683	-51.992	-0.060	0.028
-362.669	-102.783	-0.236	-0.057
-361.654	-47.696	0.176	0.086
-360.639	-200.000	-0.052	0.284
-359.625	-65.460	-0.074	0.030
-358.610	140.288	0.049	0.065
-357.596	-92.181	0.276	-0.079
-356.581	21.718	0.190	-0.156
-355.566	-161.174	-0.083	-0.004
-354.552	30.011	0.243	0.208
-353.537	-12.846	-0.114	-0.075
-352.523	58.717	0.310	-0.307
-351.508	464.183	0.133	-0.300
-350.493	-170.193	-0.144	-0.005
-349.479	80.782	-0.221	0.240
-348.464	321.005	-0.074	0.141
-347.450	124.502	-0.153	-0.194
-346.435	106.903	-0.171	-0.204
-345.420	-200.000	0.051	-0.433
-344.406	-116.816	0.136	-0.025
-343.391	-119.301	-0.158	-0.028
-342.377	57.320	0.022	0.022
-341.362	-3.094	-0.324	-0.227
-340.348	331.396	-0.207	-0.402
-339.333	683.891	0.109	-0.286
-338.318	-128.171	0.320	-0.046
-337.304	256.308	-0.168	0.290
-336.289	-158.882	0.043	0.002
-335.275	-25.782	0.254	0.151
-334.260	137.879	0.078	0.103
-333.245	-14.345	0.208	0.135
-332.231	359.997	0.107	0.215
-331.216	253.250	0.079	0.136
-330.202	189.294	-0.020	0.031
-329.187	-20.831	-0.021	-0.013
-328.172	0.546	0.201	-0.145
-327.158	800.000	-0.076	-0.246
-326.143	329.574	-0.035	0.069
-325.129	233.448	-0.161	0.267
-324.114	158.983	0.059	0.082
-323.099	-26.013	0.228	0.135
-322.085	800.000	-0.024	-0.068
-321.070	36.690	0.190	-0.169
-320.056	542.246	-0.022	-0.052
-319.041	-119.645	0.055	0.010
-318.026	197.659	-0.086	-0.131
-317.012	-137.727	-0.126	0.014
-315.997	-115.787	-0.290	-0.055
-314.983	-31.258	-0.268	0.152
-313.968	-88.041	0.264	-0.080
-312.953	131.191	0.163	-0.210
-311.939	688.771	-0.139	0.365
-310.924	46.182	0.079	-0.074
-309.910	-76.743	0.191	-0.067
-308.895	3.103	0.167	0.122
-307.880	-29.583	0.132	0.076
-306.866	-200.000	0.013	-0.300
-305.851	800.000	-0.039	-0.129
-304.837	608.541	-0.077	-0.193
-303.822	1.813	-0.211	-0.153
-302.807	59.023	0.185	-0.183
-301.793	57.192	-0.213	0.209
-300.778	166.690	0.030	0.043
-299.764	-200.000	0.008	0.247
-298.749	800.000	-0.056	0.190
-297.735	56.192	-0.166	-0.162
-296.720	-33.398	0.214	-0.119
-295.705	-142.771	0.248	-0.024
-294.691	800.000	-0.078	0.295
-293.676	-104.275	0.047	-0.011
-292.662	-107.337	-0.270	0.060
-291.647	-169.741	-0.382	0.014
-290.632	-200.000	0.010	-0.111
-289.618	-86.267	0.362	-0.112
-288.603	6.093	0.174	-0.129
-287.589	189.107	0.115	0.173
-286.574	-48.775	0.206	-0.099
-285.559	-80.566	0.189	-0.063
-284.545	800.000	-0.036	0.118
-283.530	482.453	0.095	-0.217
-282.516	800.000	0.036	-0.127
-281.501	15.807	0.142	-0.112
-280.486	-200.000	-0.041	0.204
-279.472	608.030	0.169	0.425
-278.457	-30.972	-0.108	0.062
-277.443	11.646	0.205	-0.158
-276.428	800.000	-0.032	0.113
-275.413	248.067	-0.074	-0.126
-274.399	-200.000	0.048	0.399
-273.384	164.844	0.104	0.148
-272.370	495.521	0.043	-0.099
-271.355	-133.002	-0.567	-0.072
-270.340	171.704	-0.151	-0.218
-269.326	-200.000	-0.026	-0.140
-268.311	21.487	-0.266	0.218
-267.297	-200.000	0.048	0.317
-266.282	325.800	0.047	0.091
-265.267	-96.267	-0.118	0.031
-264.253	-200.000	-0.024	0.267
-263.238	-200.000	0.069	0.343
-262.224	-200.000	0.049	-0.267
-261.209	8.743	0.142	0.107
-260.195	-200.000	-0.023	0.141
-259.180	-200.000	0.013	0.087
-258.165	-112.441	-0.373	0.075
-257.151	-116.072	0.145	-0.027
-256.136	-108.129	-0.159	-0.035
-255.122	248.438	0.109	0.186
-254.107	-81.489	-0.050	-0.017
-253.092	226.459	-0.100	-0.164
-252.078	-109.998	-0.099	0.021
-251.063	-143.167	-0.226	-0.022
-250.049	-13.871	0.133	0.086
-249.034	714.460	-0.089	0.237
-248.019	-200.000	-0.058	0.363
-247.005	-200.000	-0.005	-0.053
-245.990	-200.000	0.013	-0.175
-244.976	-150.392	0.432	0.033
-243.961	336.252	-0.053	-0.103
-242.946	-72.054	-0.294	0.109
-241.932	-124.956	0.250	0.039
-240.917	-75.694	0.207	-0.074
-239.903	-96.354	0.114	-0.030
-238.888	185.743	-0.231	-0.345
-237.873	-6.242	0.228	-0.156
-236.859	-103.524	-0.047	-0.011
-235.844	278.377	0.127	-0.227
-234.830	52.380	-0.087	0.084
-233.815	-200.000	-0.026	0.175
-232.800	-139.830	-0.111	-0.012
-231.786	-101.198	-0.374	0.092
-230.771	81.929	-0.130	0.141
-229.757	-31.326	0.216	-0.122
-228.742	800.000	-0.029	-0.122
-227.727	46.104	0.195	0.181
-226.713	498.593	0.150	-0.347
-225.698	-48.170	0.061	-0.030
-224.684	378.497	-0.071	-0.147
-223.669	-98.980	-0.204	0.052
-222.655	-17.079	-0.057	-0.036
-221.640	800.000	0.040	-0.113
-220.625	-91.822	0.069	-0.020
-219.611	-200.000	-0.019	0.229
-218.596	-110.221	0.276	0.058
-217.582	-61.372	0.202	0.085
-216.567	35.226	-0.268	0.235
-215.552	-143.576	-0.253	0.024
-214.538	270.862	-0.131	0.230
-213.523	800.000	-0.033	-0.105
-212.509	-200.000	-0.021	-0.187
-211.494	31.274	0.270	-0.232
-210.479	369.986	0.077	-0.157
-209.465	24.268	0.137	-0.114
-208.450	125.093	-0.165	-0.209
-207.436	-37.675	-0.138	0.073
-206.421	-57.134	-0.221	0.098
-205.406	195.907	0.202	0.308
-204.392	-41.735	-0.179	0.092
-203.377	-200.000	-0.044	0.363
-202.363	-140.610	0.285	-0.030
-201.348	-200.000	0.035	0.230
-200.333	217.864	0.130	0.207
-199.319	0.213	0.110	0.079
-198.304	-200.000	-0.024	0.129
-197.290	605.765	-0.041	-0.103
-196.275	-200.000	0.056	-0.291
-195.260	128.646	0.213	0.272
-194.246	-200.000	-0.013	0.108
-193.231	104.665	-0.162	-0.191
-192.217	-143.759	0.207	-0.020
-191.202	-136.907	-0.269	0.031
-190.187	179.553	0.157	-0.229
-189.173	-129.485	0.260	0.036
-188.158	393.149	0.062	-0.128
-187.144	800.000	-0.137	-0.422
-186.129	152.497	-0.047	-0.064
-185.114	18.615	-0.107	0.086
-184.100	-84.189	-0.369	-0.117
-183.085	-140.048	-0.257	0.027
-182.071	712.713	-0.031	-0.083
-181.056	218.472	0.103	0.164
-180.042	-32.781	-0.272	-0.152
-179.027	696.466	-0.019	-0.050
-178.012	20.451	-0.166	-0.134
-176.998	-148.825	0.101	-0.008
-175.983	171.485	0.146	0.210
-174.969	44.698	0.294	0.270
-173.954	71.730	-0.106	-0.111
-172.939	217.165	-0.182	0.290
-171.925	203.907	0.169	0.262
-170.910	27.331	0.282	-0.237
-169.896	67.277	0.135	-0.137
-168.881	-42.190	-0.214	-0.109
-167.866	-62.267	-0.042	-0.017
-166.852	800.000	0.035	-0.126
-165.837	-23.023	0.134	-0.080
-164.823	-200.000	0.008	-0.142
-163.808	603.405	-0.095	-0.236
-162.793	-24.385	0.230	-0.137
-161.779	43.423	0.252	0.231
-160.764	800.000	-0.152	-0.499
-159.750	-166.156	-0.215	0.009
-158.735	-69.253	-0.048	-0.019
-157.720	38.838	-0.131	-0.117
-156.706	-153.978	-0.091	0.006
-155.691	49.945	-0.248	0.234
-154.677	-71.803	-0.074	-0.028
-153.662	398.319	0.156	0.326
-152.647	-29.843	-0.034	0.020
-151.633	-133.627	0.355	-0.044
-150.618	-84.098	-0.282	-0.089
-149.604	-55.475	0.063	-0.028
-148.589	800.000	-0.059	0.256
-147.574	10.050	-0.141	0.107
-146.560	800.000	0.090	-0.292
-145.545	-200.000	-0.008	-0.174
-144.531	-200.000	-0.008	0.330
-143.516	-200.000	-0.023	0.292
-142.502	-38.977	-0.249	-0.131
-141.487	54.926	-0.015	-0.014
-140.472	-31.683	-0.175	-0.098
-139.458	218.030	0.244	-0.388
-138.443	-200.000	0.013	-0.107
-137.429	-77.922	0.309	0.106
-136.414	-28.322	-0.437	-0.252
-135.399	183.629	-0.186	0.275
-134.385	-200.000	-0.016	-0.198
-133.370	108.780	-0.090	-0.107
-132.356	-118.322	0.123	-0.022
-131.341	-92.484	0.171	0.048
-130.326	-200.000	0.021	-0.341
-129.312	-200.000	-0.044	0.210
-128.297	738.979	0.014	-0.038
-127.283	445.588	0.040	-0.088
-126.268	-199.679	-0.184	-0.001
-125.253	-6.557	0.122	0.083
-124.239	258.509	-0.119	0.205
-123.224	-187.961	-0.407	-0.005
-122.210	-53.589	0.168	0.077
