DTS Sentinel unit serial number:	SN413079Multiplexer serial number:	ORYXHardware model number:	OX4-SRSoftware version number:	ORYX F/W v4.00 Oryx Data Collector v3.7.2.0data status	okinstallation	princeton_trtdifferential loss correction	single-endedforward channel	channel 4reverse channel	N/Adate	2019/09/11time	07:23:11forward acquisition time	60.00reverse acquisition time	0.00gamma	496.2192k internal	0.2310k external	0.2310temperature offset calibration	0.9946default loss term (dB/km)	0.3790temperature slope calibration	1.0000multiplexer offset coefficient	1.0000multiplexer slope coefficient	1.0000fibre end	0.00T internal ref (°C)	30.83T ext. ref 1 (°C)	-0.05T ext. ref 2 (°C)	27.47length (m)	temperature (°C)	Stokes	anti-Stokes-747.200	-127.095	-0.052	-0.008
-746.185	348.742	-0.079	0.158
-745.171	167.283	-0.147	0.212
-744.156	73.863	-0.095	0.101
-743.142	16.045	0.281	-0.225
-742.127	13.782	0.052	-0.041
-741.112	195.689	-0.097	0.149
-740.098	-182.363	-0.346	-0.007
-739.083	20.289	0.216	0.177
-738.069	327.898	-0.169	0.330
-737.054	-10.831	0.288	0.193
-736.039	783.487	-0.066	-0.185
-735.025	-28.468	-0.321	0.188
-734.010	-15.563	-0.210	0.136
-732.996	86.486	-0.108	-0.121
-731.981	800.000	0.058	-0.187
-730.966	-39.893	-0.282	-0.149
-729.952	-94.898	0.260	0.071
-728.937	-166.820	0.147	-0.006
-727.923	321.163	-0.101	-0.196
-726.908	681.234	-0.048	0.126
-725.894	105.542	-0.132	-0.158
-724.879	-200.000	0.052	-0.242
-723.864	92.035	-0.138	-0.157
-722.850	-200.000	-0.025	0.210
-721.835	-24.469	-0.330	0.199
-720.821	93.065	-0.137	-0.157
-719.806	713.547	-0.153	-0.410
-718.791	-107.332	0.150	0.033
-717.777	-30.721	-0.453	-0.260
-716.762	800.000	0.031	0.098
-715.748	-84.563	-0.263	0.084
-714.733	75.468	-0.099	-0.106
-713.718	60.957	0.018	0.018
-712.704	113.643	-0.137	-0.169
-711.689	40.799	-0.189	0.173
-710.675	-200.000	0.015	-0.175
-709.660	111.034	-0.137	-0.167
-708.645	48.157	0.067	-0.063
-707.631	341.297	-0.216	-0.429
-706.616	413.224	-0.060	0.129
-705.602	-200.000	0.001	0.354
-704.587	452.097	0.112	-0.251
-703.572	61.978	0.007	-0.007
-702.558	800.000	0.177	0.507
-701.543	232.718	0.102	0.170
-700.529	-35.135	0.247	-0.137
-699.514	120.867	-0.137	0.173
-698.499	-145.991	-0.467	-0.042
-697.485	0.398	-0.238	-0.172
-696.470	-200.000	0.006	0.240
-695.456	800.000	0.080	-0.303
-694.441	800.000	-0.041	-0.182
-693.426	-200.000	-0.017	-0.118
-692.412	103.877	0.042	0.050
-691.397	58.831	-0.128	0.128
-690.383	800.000	0.021	0.072
-689.368	-64.955	-0.257	0.105
-688.354	-22.109	-0.153	0.094
-687.339	-69.470	-0.132	0.051
-686.324	-21.221	-0.115	0.071
-685.310	-64.017	-0.202	0.084
-684.295	800.000	0.067	-0.231
-683.281	247.897	0.114	-0.195
-682.266	800.000	-0.027	0.091
-681.251	-200.000	0.003	0.171
-680.237	-102.923	0.168	-0.040
-679.222	111.273	0.070	0.085
-678.208	-48.855	0.241	0.117
-677.193	-89.298	-0.153	-0.046
-676.178	-200.000	-0.000	0.120
-675.164	-128.808	0.112	0.016
-674.149	-131.599	0.125	0.017
-673.135	-91.229	0.197	-0.057
-672.120	-56.284	0.150	-0.067
-671.105	-63.188	-0.264	0.110
-670.091	-78.385	0.103	-0.036
-669.076	-199.698	0.205	0.001
-668.062	-119.945	0.055	-0.010
-667.047	-200.000	0.004	0.021
-666.032	800.000	-0.054	0.203
-665.018	-0.138	-0.089	-0.064
-664.003	-128.675	0.443	-0.063
-662.989	800.000	-0.057	-0.205
-661.974	-200.000	-0.012	-0.298
-660.959	-200.000	0.041	-0.190
-659.945	-152.199	0.480	-0.035
-658.930	16.866	-0.390	0.312
-657.916	-50.129	0.134	0.064
-656.901	348.340	0.084	0.168
-655.886	327.085	0.142	-0.276
-654.872	-96.806	0.245	0.065
-653.857	15.001	-0.236	0.187
-652.843	-122.782	-0.176	-0.029
-651.828	-154.310	0.539	0.037
-650.814	100.521	0.172	-0.202
-649.799	-56.657	0.274	-0.123
-648.784	-151.712	-0.341	0.025
-647.770	-38.521	-0.134	0.072
-646.755	326.792	0.119	0.231
-645.741	147.484	0.187	-0.255
-644.726	151.362	0.092	-0.126
-643.711	209.350	0.108	-0.171
-642.697	-71.902	0.202	-0.076
-641.682	59.282	-0.109	-0.108
-640.668	-200.000	-0.028	-0.203
-639.653	2.484	-0.035	0.026
-638.638	356.448	-0.110	0.221
-637.624	-134.012	-0.179	0.022
-636.609	-60.777	-0.202	0.086
-635.595	90.052	0.062	-0.071
-634.580	-200.000	-0.016	-0.168
-633.565	30.135	0.190	-0.164
-632.551	-59.287	0.156	0.068
-631.536	-200.000	0.018	-0.119
-630.522	92.501	-0.104	-0.118
-629.507	-200.000	-0.003	-0.195
-628.492	-109.384	-0.352	0.075
-627.478	-19.132	0.292	0.183
-626.463	46.978	-0.271	-0.255
-625.449	192.601	0.109	0.166
-624.434	-200.000	0.049	-0.296
-623.419	-7.600	-0.212	0.145
-622.405	-183.672	0.078	0.001
-621.390	-127.757	-0.108	0.016
-620.376	-61.390	-0.170	-0.072
-619.361	55.727	-0.085	-0.083
-618.346	40.177	0.200	-0.182
-617.332	51.816	-0.130	0.125
-616.317	-200.000	-0.036	0.159
-615.303	109.820	-0.235	-0.284
-614.288	-200.000	0.022	0.138
-613.273	-172.681	0.325	0.010
-612.259	58.386	0.219	-0.217
-611.244	124.727	-0.305	0.387
-610.230	-19.758	-0.259	0.162
-609.215	-124.347	-0.129	0.020
-608.201	-116.094	-0.364	-0.068
-607.186	191.156	-0.119	0.181
-606.171	-109.016	-0.209	-0.045
-605.157	-67.249	-0.121	-0.048
-604.142	88.723	-0.146	-0.164
-603.128	-122.499	0.139	-0.023
-602.113	786.158	-0.016	0.044
-601.098	20.232	0.252	-0.206
-600.084	-56.195	-0.196	0.088
-599.069	29.050	-0.120	-0.102
-598.055	697.079	-0.158	0.419
-597.040	-200.000	0.029	-0.209
-596.025	73.949	-0.094	0.100
-595.011	-67.928	0.257	-0.101
-593.996	-3.036	-0.235	0.166
-592.982	-102.274	-0.159	-0.038
-591.967	61.015	0.204	-0.205
-590.952	342.100	0.073	0.145
-589.938	71.764	-0.284	-0.298
-588.923	800.000	0.072	0.315
-587.909	263.864	-0.150	0.264
-586.894	387.098	0.026	0.055
-585.879	-182.643	-0.039	-0.001
-584.865	-129.529	0.056	-0.008
-583.850	247.651	-0.011	-0.018
-582.836	40.955	0.143	-0.131
-581.821	82.041	-0.159	-0.174
-580.806	-44.536	-0.227	0.114
-579.792	646.589	0.069	0.179
-578.777	-99.003	0.191	-0.049
-577.763	330.098	-0.205	-0.398
-576.748	-106.465	-0.297	-0.067
-575.733	123.859	-0.117	-0.149
-574.719	517.741	-0.148	-0.349
-573.704	-35.654	0.196	-0.107
-572.690	800.000	-0.085	0.298
-571.675	-0.168	-0.233	-0.167
-570.661	-155.144	-0.044	0.003
-569.646	-39.966	0.170	0.089
-568.631	800.000	0.121	-0.503
-567.617	-138.756	-0.168	0.019
-566.602	-200.000	-0.026	0.415
-565.588	-66.179	0.394	0.158
-564.573	0.187	-0.273	-0.196
-563.558	800.000	-0.069	0.288
-562.544	15.955	-0.096	0.076
-561.529	-200.000	0.037	-0.205
-560.515	-138.686	0.049	-0.005
-559.500	-200.000	0.006	-0.115
-558.485	100.555	-0.163	0.190
-557.471	-44.571	0.287	0.144
-556.456	-82.080	0.414	-0.136
-555.442	-170.766	-0.358	-0.012
-554.427	-200.000	0.022	-0.205
-553.412	800.000	-0.071	0.239
-552.398	-200.000	0.052	0.314
-551.383	-5.381	-0.130	0.090
-550.369	-200.000	0.030	0.177
-549.354	-115.726	0.333	0.063
-548.339	-200.000	-0.031	-0.206
-547.325	224.760	0.045	0.073
-546.310	-200.000	-0.018	0.211
-545.296	-200.000	-0.010	0.317
-544.281	800.000	-0.018	0.071
-543.266	-154.011	-0.175	-0.012
-542.252	156.716	-0.077	0.108
-541.237	-200.000	-0.043	0.193
-540.223	78.618	-0.135	0.146
-539.208	8.167	0.322	0.244
-538.193	-92.562	-0.165	0.047
-537.179	41.733	-0.285	-0.260
-536.164	-44.031	0.164	-0.083
-535.150	-200.000	-0.045	-0.335
-534.135	-84.559	-0.227	0.072
-533.121	17.080	0.332	-0.265
-532.106	92.206	-0.184	0.209
-531.091	56.380	0.136	-0.133
-530.077	9.816	0.250	-0.191
-529.062	800.000	-0.118	-0.365
-528.048	-200.000	-0.054	-0.276
-527.033	136.269	-0.205	-0.269
-526.018	64.115	-0.311	0.315
-525.004	-26.085	0.187	-0.111
-523.989	-50.616	0.175	0.083
-522.975	1.921	0.158	-0.115
-521.960	-63.278	0.217	-0.090
-520.945	496.732	-0.019	0.044
-519.931	4.507	-0.081	-0.060
-518.916	-200.000	0.000	0.127
-517.902	-107.818	-0.326	-0.072
-516.887	-200.000	0.012	-0.111
-515.872	800.000	0.089	0.251
-514.858	800.000	0.037	-0.150
-513.843	-200.000	-0.023	0.148
-512.829	-33.362	-0.383	-0.213
-511.814	800.000	-0.047	0.136
-510.799	62.043	0.070	-0.070
-509.785	248.631	-0.151	0.257
-508.770	-200.000	0.066	0.392
-507.756	-56.060	-0.233	0.104
-506.741	-61.638	0.371	0.157
-505.726	-75.231	-0.207	0.074
-504.712	-59.859	-0.024	0.010
-503.697	268.948	-0.103	0.181
-502.683	112.080	0.165	-0.200
-501.668	5.016	-0.184	0.136
-500.653	-47.604	-0.214	-0.105
-499.639	-23.747	-0.093	-0.056
-498.624	-133.504	0.415	0.052
-497.610	2.888	-0.205	0.149
-496.595	-92.994	-0.250	-0.070
-495.581	-36.327	-0.294	0.159
-494.566	-200.000	-0.016	0.117
-493.551	-200.000	0.024	-0.166
-492.537	-135.076	-0.142	-0.017
-491.522	-82.779	-0.227	-0.074
-490.508	46.633	0.192	0.179
-489.493	800.000	0.067	0.218
-488.478	94.205	-0.141	0.161
-487.464	-134.725	-0.378	0.046
-486.449	-57.819	0.189	0.083
-485.435	-132.332	-0.156	0.020
-484.420	158.211	-0.228	0.318
-483.405	128.429	-0.100	-0.128
-482.391	304.806	-0.149	-0.278
-481.376	-73.472	0.245	-0.090
-480.362	-99.890	-0.215	-0.054
-479.347	455.614	-0.130	-0.290
-478.332	517.055	-0.105	-0.246
-477.318	-60.094	-0.198	-0.085
-476.303	-137.491	-0.153	0.017
-475.289	-185.481	0.228	0.003
-474.274	-200.000	-0.009	0.117
-473.259	-27.612	-0.114	-0.067
-472.245	-84.475	0.246	-0.078
-471.230	-13.143	-0.305	-0.199
-470.216	-165.128	0.460	0.020
-469.201	-108.482	0.250	-0.054
-468.186	-127.069	0.177	0.026
-467.172	-9.259	-0.105	0.070
-466.157	-153.397	-0.352	-0.025
-465.143	-70.742	0.046	0.018
-464.128	-128.349	0.499	0.071
-463.113	108.078	0.039	-0.047
-462.099	-118.456	-0.206	-0.037
-461.084	-24.287	-0.282	0.169
-460.070	-40.462	-0.092	0.048
-459.055	-200.000	-0.011	0.117
-458.040	70.930	-0.038	-0.039
-457.026	-174.083	0.169	0.005
-456.011	-142.922	0.220	-0.021
-454.997	-107.724	-0.267	-0.058
-453.982	-200.000	-0.004	-0.361
-452.968	-138.678	0.071	-0.008
-451.953	466.330	0.067	-0.150
-450.938	108.666	0.180	0.216
-449.924	791.960	-0.030	-0.084
-448.909	27.913	-0.128	0.108
-447.895	-199.648	0.169	-0.001
-446.880	-34.300	0.389	-0.214
-445.865	-6.032	0.154	-0.106
-444.851	-112.133	0.086	0.017
-443.836	-200.000	0.048	-0.232
-442.822	41.921	0.088	-0.080
-441.807	800.000	0.029	-0.088
-440.792	-200.000	0.076	-0.343
-439.778	-68.407	0.129	-0.050
-438.763	-200.000	0.002	-0.058
-437.749	40.627	-0.217	0.197
-436.734	-200.000	-0.034	-0.207
-435.719	267.024	0.070	-0.123
-434.705	800.000	0.075	0.220
-433.690	-27.025	-0.314	0.184
-432.676	800.000	0.048	-0.187
-431.661	800.000	-0.055	0.170
-430.646	-200.000	0.009	0.218
-429.632	-200.000	0.047	-0.251
-428.617	-105.297	-0.411	-0.094
-427.603	62.626	0.030	-0.030
-426.588	704.930	0.143	0.378
-425.573	412.335	0.033	-0.071
-424.559	47.595	0.106	0.099
-423.544	205.892	0.162	0.253
-422.530	150.657	0.253	-0.344
-421.515	-64.246	0.197	-0.081
-420.500	-88.414	0.270	-0.081
-419.486	800.000	0.095	0.330
-418.471	63.232	0.087	-0.087
-417.457	328.400	-0.054	-0.105
-416.442	-14.440	0.080	0.052
-415.428	800.000	-0.067	-0.260
-414.413	-94.161	0.161	0.044
-413.398	-200.000	0.006	0.132
-412.384	65.530	0.069	-0.070
-411.369	-114.145	-0.071	0.014
-410.355	-1.505	0.263	0.186
-409.340	30.258	0.118	0.101
-408.325	16.882	0.065	-0.051
-407.311	43.810	0.236	-0.217
-406.296	125.218	0.156	-0.197
-405.282	-112.768	-0.145	0.029
-404.267	302.880	-0.010	0.019
-403.252	52.735	-0.157	-0.150
-402.238	-16.147	-0.173	0.110
-401.223	-73.277	0.193	0.071
-400.209	-150.550	0.167	-0.013
-399.194	460.716	0.115	-0.257
-398.179	-42.422	0.164	-0.084
-397.165	-109.809	-0.231	0.049
-396.150	546.973	0.134	-0.320
-395.136	67.148	0.130	-0.133
-394.121	-60.162	0.323	-0.138
-393.106	-22.264	-0.026	-0.016
-392.092	-59.389	0.080	0.034
-391.077	36.318	0.330	-0.291
-390.063	800.000	-0.078	0.329
-389.048	-41.739	-0.172	0.089
-388.033	384.230	-0.049	-0.101
-387.019	89.665	-0.088	0.098
-386.004	233.989	-0.100	-0.165
-384.990	-68.658	0.410	-0.159
-383.975	-16.532	-0.155	-0.098
-382.960	-156.936	-0.166	-0.010
-381.946	800.000	0.093	-0.275
-380.931	-41.847	-0.076	0.039
-379.917	-110.843	-0.283	0.058
-378.902	634.624	-0.020	-0.051
-377.888	-200.000	-0.047	0.229
-376.873	-86.006	-0.116	0.036
-375.858	27.709	-0.061	0.052
-374.844	517.558	-0.049	0.115
-373.829	-136.422	0.343	-0.040
-372.815	82.372	-0.063	0.068
-371.800	-128.212	0.217	-0.031
-370.785	-200.000	-0.023	0.230
-369.771	162.645	0.214	-0.301
-368.756	800.000	-0.049	-0.179
-367.742	204.359	-0.119	-0.185
-366.727	215.938	-0.120	-0.191
-365.712	800.000	-0.024	0.090
-364.698	-200.000	0.006	0.107
-363.683	-159.488	0.127	0.007
-362.669	332.354	0.034	0.065
-361.654	479.248	-0.020	0.045
-360.639	-200.000	-0.019	0.158
-359.625	109.296	0.140	0.168
-358.610	-85.346	-0.049	-0.015
-357.596	800.000	0.028	-0.100
-356.581	-200.000	0.017	-0.310
-355.566	63.858	-0.148	-0.149
-354.552	-8.210	0.324	-0.218
-353.537	-69.634	-0.235	0.090
-352.523	-50.046	0.159	0.075
-351.508	336.591	-0.087	-0.169
-350.493	-125.553	-0.301	-0.046
-349.479	1.134	0.154	-0.111
-348.464	-200.000	0.024	-0.140
-347.450	250.528	-0.120	-0.203
-346.435	372.604	0.076	-0.155
-345.420	434.436	0.142	0.309
-344.406	177.948	-0.111	0.161
-343.391	125.048	-0.061	-0.077
-342.377	720.608	-0.079	-0.211
-341.362	-54.642	-0.398	0.180
-340.348	164.944	0.117	0.165
-339.333	-200.000	0.032	0.158
-338.318	-71.466	0.073	0.027
-337.304	122.512	-0.301	-0.377
-336.289	80.023	-0.222	-0.238
-335.275	-107.793	0.352	0.077
-334.260	-3.884	0.059	0.041
-333.245	119.084	0.059	0.073
-332.231	47.246	0.130	0.121
-331.216	-200.000	0.012	0.167
-330.202	800.000	-0.040	0.171
-329.187	21.541	-0.156	-0.127
-328.172	-40.243	-0.319	0.166
-327.158	-49.147	0.148	0.071
-326.143	26.838	-0.212	0.177
-325.129	-69.316	-0.147	0.056
-324.114	14.683	-0.232	0.181
-323.099	-200.000	0.020	0.167
-322.085	800.000	0.065	-0.249
-321.070	1.053	0.206	0.148
-320.056	648.018	0.094	0.239
-319.041	-81.913	0.129	-0.042
-318.026	-170.601	-0.278	-0.010
-317.012	149.892	0.148	-0.201
-315.997	126.844	-0.049	0.062
-314.983	481.306	-0.024	-0.054
-313.968	483.727	0.080	0.181
-312.953	50.396	0.109	-0.102
-311.939	79.200	0.226	-0.242
-310.924	135.400	0.074	-0.096
-309.910	-200.000	-0.086	-0.435
-308.895	-118.524	0.056	0.010
-307.880	373.476	0.118	-0.239
-306.866	-116.800	0.131	0.024
-305.851	-66.626	0.126	-0.050
-304.837	28.767	0.152	-0.128
-303.822	25.310	-0.155	-0.129
-302.807	-200.000	0.071	-0.328
-301.793	-43.628	0.233	-0.117
-300.778	110.993	-0.193	-0.232
-299.764	-200.000	-0.014	0.318
-298.749	376.440	0.142	0.289
-297.735	374.007	-0.143	0.291
-296.720	191.908	0.111	0.167
-295.705	133.034	0.140	0.181
-294.691	-200.000	-0.030	0.518
-293.676	325.256	0.055	0.106
-292.662	-19.408	-0.075	0.046
-291.647	-5.397	-0.242	0.166
-290.632	97.423	-0.077	0.088
-289.618	800.000	0.061	0.258
-288.603	360.628	0.106	0.212
-287.589	349.583	-0.045	0.089
-286.574	-43.373	0.219	0.110
-285.559	800.000	-0.040	-0.121
-284.545	-193.232	-0.244	-0.002
-283.530	-29.809	0.384	0.219
-282.516	187.350	0.148	-0.220
-281.501	-200.000	0.021	0.131
-280.486	-65.172	-0.269	0.108
-279.472	800.000	-0.023	0.083
-278.457	-137.678	-0.309	0.035
-277.443	245.625	0.027	0.046
-276.428	491.538	-0.029	-0.065
-275.413	37.644	0.165	0.146
-274.399	-162.256	0.219	0.011
-273.384	-200.000	-0.063	0.328
-272.370	800.000	-0.042	-0.118
-271.355	-141.157	-0.144	-0.015
-270.340	800.000	0.067	0.254
-269.326	132.533	0.013	0.017
-268.311	96.276	0.219	0.250
-267.297	78.470	0.301	0.321
-266.282	434.163	-0.118	0.256
-265.267	434.151	0.110	-0.238
-264.253	-104.068	-0.286	-0.066
-263.238	-142.947	-0.218	-0.021
-262.224	175.286	0.112	-0.162
-261.209	-200.000	-0.018	-0.107
-260.195	-24.189	-0.405	-0.241
-259.180	-108.115	0.239	-0.052
-258.165	203.704	0.097	-0.150
-257.151	800.000	-0.016	0.046
-256.136	626.270	0.062	-0.155
-255.122	197.033	-0.092	-0.139
-254.107	800.000	0.077	0.229
-253.092	161.241	0.097	-0.135
-252.078	-200.000	0.034	-0.157
-251.063	-85.363	0.089	0.028
-250.049	50.187	0.110	0.103
-249.034	54.615	-0.110	0.106
-248.019	-154.704	-0.281	0.019
-247.005	-147.574	-0.200	0.017
-245.990	353.376	0.030	-0.059
-244.976	-99.971	0.198	0.049
-243.961	-78.886	-0.085	-0.029
-242.946	148.178	0.246	-0.331
-241.932	800.000	0.016	0.046
-240.917	-200.000	-0.017	-0.114
-239.903	-121.191	-0.125	-0.021
-238.888	-200.000	-0.063	0.460
-237.873	-68.029	-0.176	0.068
-236.859	-113.284	0.083	-0.016
-235.844	80.570	0.223	0.239
-234.830	-110.055	-0.171	-0.036
-233.815	9.852	0.084	-0.063
-232.800	18.398	-0.024	0.019
-231.786	-127.682	0.083	0.012
-230.771	33.394	-0.160	-0.138
-229.757	-31.261	-0.123	-0.069
-228.742	44.899	0.262	0.240
-227.727	-163.280	0.238	-0.011
-226.713	-10.011	0.286	-0.189
-225.698	-200.000	0.356	0.001
-224.684	-115.960	-0.272	-0.050
-223.669	21.255	-0.137	0.111
-222.655	128.425	0.231	0.292
-221.640	-56.585	0.136	0.060
-220.625	60.720	0.186	-0.183
-219.611	406.736	-0.104	-0.218
-218.596	108.181	0.277	0.328
-217.582	198.748	-0.068	0.104
-216.567	171.536	-0.133	-0.190
-215.552	278.032	-0.057	0.100
-214.538	380.926	0.189	-0.387
-213.523	-43.899	0.072	-0.036
-212.509	0.488	0.076	0.054
-211.494	112.164	-0.145	-0.174
-210.479	-200.000	0.025	-0.126
-209.465	800.000	0.080	0.257
-208.450	19.639	0.088	0.071
-207.436	91.442	0.071	0.079
-206.421	-85.986	0.309	0.095
-205.406	334.607	-0.110	0.211
-204.392	-77.331	-0.209	0.072
-203.377	-76.674	0.260	0.091
-202.363	-121.108	0.197	0.033
-201.348	-139.623	0.187	-0.020
-200.333	-19.080	-0.178	-0.110
-199.319	-89.878	0.283	-0.082
-198.304	503.475	-0.189	0.435
-197.290	-200.000	0.075	0.392
-196.275	-146.735	0.350	-0.030
-195.260	-119.710	-0.251	0.043
-194.246	169.741	0.082	0.117
-193.231	-133.049	-0.191	-0.024
-192.217	800.000	-0.094	0.405
-191.202	-200.000	-0.027	0.200
-190.187	-200.000	-0.020	0.271
-189.173	207.756	-0.226	-0.351
-188.158	-65.944	0.325	0.129
-187.144	372.300	-0.113	0.229
-186.129	665.208	-0.105	-0.269
-185.114	800.000	-0.009	0.029
-184.100	552.206	0.019	-0.045
-183.085	-95.568	0.241	-0.064
-182.071	-134.651	-0.178	0.022
-181.056	-134.050	0.341	0.042
-180.042	11.916	-0.124	-0.095
-179.027	-154.149	-0.446	-0.030
-178.012	-200.000	-0.046	0.341
-176.998	168.998	0.152	-0.215
-175.983	-200.000	0.028	0.252
-174.969	-5.478	0.136	-0.093
-173.954	-77.515	-0.470	-0.162
-172.939	-200.000	0.007	-0.074
-171.925	398.730	0.025	0.052
-170.910	7.998	-0.066	-0.049
-169.896	82.666	-0.122	0.131
-168.881	-67.357	-0.283	-0.111
-167.866	254.581	-0.147	0.249
-166.852	-155.278	0.256	-0.017
-165.837	800.000	-0.013	-0.041
-164.823	-200.000	-0.009	0.113
-163.808	-200.000	0.030	0.251
-162.793	800.000	-0.070	-0.262
-161.779	21.952	0.103	0.083
-160.764	-200.000	0.002	0.203
-159.750	378.959	0.183	-0.371
-158.735	6.146	0.094	-0.069
-157.720	-200.000	-0.031	-0.272
-156.706	14.104	0.114	-0.088
-155.691	-36.723	0.065	0.035
-154.677	-42.847	0.403	-0.203
-153.662	800.000	0.024	-0.079
-152.647	19.844	-0.296	-0.237
-151.633	-34.763	0.066	-0.036
-150.618	-69.774	0.111	0.042
-149.604	-200.000	0.037	0.450
-148.589	-56.045	0.052	-0.023
-147.574	304.801	0.038	-0.071
-146.560	-200.000	0.035	0.332
-145.545	296.222	-0.044	0.080
-144.531	737.261	-0.023	0.061
-143.516	-167.863	-0.225	0.009
-142.502	-200.000	0.004	-0.167
-141.487	74.606	0.226	0.236
-140.472	603.025	0.053	-0.132
-139.458	-154.895	-0.429	0.028
-138.443	800.000	0.076	0.266
-137.429	-200.000	-0.027	0.221
-136.414	30.550	0.233	-0.198
-135.399	-59.494	0.048	0.020
-134.385	-173.840	0.336	0.010
-133.370	-6.643	0.237	0.160
-132.356	-68.991	0.153	0.058
-131.341	-132.098	-0.209	-0.027
-130.326	-55.069	-0.213	0.095
-129.312	170.829	-0.203	0.288
-128.297	-24.564	0.254	0.150
-127.283	24.539	0.142	0.116
-126.268	244.742	0.173	0.288
-125.253	5.480	-0.167	-0.122
-124.239	583.911	-0.120	-0.292
-123.224	-92.849	0.276	-0.076
-122.210	-200.000	0.004	0.074
-121.195	-71.095	-0.258	0.096
-120.180	-50.297	0.187	-0.088
