DTS Sentinel unit serial number:	SN413079Multiplexer serial number:	ORYXHardware model number:	OX4-SRSoftware version number:	ORYX F/W v4.00 Oryx Data Collector v3.7.2.0data status	okinstallation	princeton_trtdifferential loss correction	single-endedforward channel	channel 4reverse channel	N/Adate	2019/09/10time	17:03:11forward acquisition time	60.00reverse acquisition time	0.00gamma	496.2192k internal	0.2296k external	0.2296temperature offset calibration	0.9939default loss term (dB/km)	0.3790temperature slope calibration	1.0000multiplexer offset coefficient	1.0000multiplexer slope coefficient	1.0000fibre end	0.00T internal ref (°C)	37.62T ext. ref 1 (°C)	-0.33T ext. ref 2 (°C)	31.95length (m)	temperature (°C)	Stokes	anti-Stokes-747.200	118.589	0.106	-0.134
-746.185	800.000	0.021	0.083
-745.171	-5.014	-0.350	-0.246
-744.156	-187.409	-0.233	0.003
-743.142	214.840	0.079	0.128
-742.127	9.926	0.169	-0.131
-741.112	-124.976	0.092	0.014
-740.098	800.000	0.051	0.224
-739.083	-170.937	-0.167	-0.006
-738.069	88.349	0.087	-0.099
-737.054	-107.998	-0.198	0.044
-736.039	-39.210	-0.163	-0.088
-735.025	-69.404	-0.313	-0.123
-734.010	254.117	0.059	-0.104
-732.996	335.314	0.121	-0.240
-731.981	-132.742	0.015	-0.002
-730.966	658.584	-0.213	-0.561
-729.952	-49.606	-0.226	-0.110
-728.937	-112.908	-0.385	0.078
-727.923	-64.297	-0.224	0.093
-726.908	-71.384	-0.155	0.059
-725.894	-200.000	-0.017	0.222
-724.879	-159.150	-0.262	0.015
-723.864	800.000	0.016	-0.059
-722.850	-193.617	0.175	-0.002
-721.835	343.548	0.064	0.129
-720.821	-18.632	0.097	-0.062
-719.806	-128.053	-0.340	-0.050
-718.791	139.899	0.101	-0.136
-717.777	-123.307	-0.409	-0.067
-716.762	593.428	0.030	0.075
-715.748	-113.121	-0.148	0.030
-714.733	20.459	-0.064	0.053
-713.718	-120.002	0.253	-0.044
-712.704	-55.158	-0.176	-0.081
-711.689	-200.000	-0.028	-0.399
-710.675	-200.000	-0.025	-0.233
-709.660	-65.227	0.092	0.038
-708.645	-24.485	0.123	-0.075
-707.631	-7.366	-0.258	-0.178
-706.616	777.080	-0.130	0.361
-705.602	173.636	0.160	0.235
-704.587	-200.000	0.023	-0.151
-703.572	-104.986	-0.071	-0.017
-702.558	125.336	0.185	-0.239
-701.543	211.235	0.048	-0.077
-700.529	422.315	0.196	0.429
-699.514	-169.399	0.303	0.011
-698.499	-114.365	-0.199	-0.039
-697.485	65.411	-0.187	0.193
-696.470	220.203	-0.116	0.190
-695.456	43.357	0.158	-0.147
-694.441	-13.334	0.169	0.112
-693.426	29.724	-0.365	-0.317
-692.412	800.000	-0.165	-0.472
-691.397	-34.945	-0.140	-0.078
-690.383	137.161	0.056	-0.074
-689.368	40.968	0.115	0.106
-688.354	-101.248	0.109	0.027
-687.339	361.746	0.097	-0.198
-686.324	59.909	-0.124	0.125
-685.310	11.327	-0.056	-0.044
-684.295	-78.635	-0.187	0.065
-683.281	-200.000	0.019	-0.143
-682.266	55.358	-0.418	-0.412
-681.251	32.450	-0.275	-0.242
-680.237	42.984	-0.148	-0.138
-679.222	576.655	0.034	0.085
-678.208	259.347	-0.052	-0.092
-677.193	-14.958	0.233	-0.152
-676.178	253.002	-0.148	-0.258
-675.164	21.034	0.178	-0.147
-674.149	-200.000	0.000	-0.057
-673.135	-46.733	0.153	-0.076
-672.120	-200.000	0.009	0.091
-671.105	-200.000	-0.028	0.125
-670.091	-200.000	-0.047	0.211
-669.076	-200.000	0.033	0.170
-668.062	263.346	-0.034	-0.060
-667.047	229.910	0.129	0.215
-666.032	179.394	0.187	-0.279
-665.018	183.315	0.236	0.356
-664.003	311.562	-0.035	-0.067
-662.989	186.495	-0.152	-0.231
-661.974	-21.569	0.234	0.145
-660.959	800.000	-0.040	-0.119
-659.945	-200.000	0.017	-0.088
-658.930	800.000	-0.088	0.274
-657.916	215.277	-0.157	0.254
-656.901	-200.000	0.038	-0.319
-655.886	343.012	-0.186	0.371
-654.872	684.048	-0.170	-0.451
-653.857	-37.736	-0.165	-0.089
-652.843	-28.029	0.110	0.065
-651.828	-200.000	0.015	-0.070
-650.814	-162.622	0.150	0.007
-649.799	-73.090	0.348	-0.130
-648.784	110.846	-0.135	-0.166
-647.770	-200.000	0.044	-0.301
-646.755	-84.072	-0.166	-0.054
-645.741	-51.798	0.171	0.081
-644.726	72.305	-0.246	-0.261
-643.711	800.000	0.021	0.091
-642.697	15.628	0.189	-0.151
-641.682	37.727	0.174	0.157
-640.668	-200.000	-0.046	-0.341
-639.653	-106.534	0.047	-0.011
-638.638	595.103	0.126	0.317
-637.624	-171.724	-0.210	-0.007
-636.609	-129.090	0.256	0.036
-635.595	800.000	0.039	-0.174
-634.580	-109.167	-0.230	-0.050
-633.565	-200.000	-0.063	-0.344
-632.551	-83.567	0.146	0.048
-631.536	149.168	-0.198	-0.273
-630.522	451.267	-0.091	0.206
-629.507	-97.245	-0.445	0.118
-628.492	-75.416	-0.420	-0.152
-627.478	-79.731	0.063	0.021
-626.463	-163.582	0.282	-0.014
-625.449	36.055	-0.205	-0.184
-624.434	517.493	-0.107	0.254
-623.419	-188.241	-0.364	0.005
-622.405	481.181	-0.070	-0.163
-621.390	-200.000	0.002	-0.088
-620.376	449.784	-0.169	0.379
-619.361	-82.001	0.200	0.067
-618.346	-77.129	-0.127	-0.045
-617.332	-36.716	-0.302	-0.165
-616.317	-159.253	-0.185	-0.011
-615.303	83.718	-0.036	-0.040
-614.288	219.457	-0.019	-0.031
-613.273	800.000	0.065	0.241
-612.259	-200.000	-0.019	-0.380
-611.244	421.592	-0.096	-0.210
-610.230	-200.000	-0.012	0.234
-609.215	-200.000	0.017	0.397
-608.201	-10.031	0.118	0.080
-607.186	-97.973	-0.339	0.089
-606.171	-118.134	-0.143	-0.026
-605.157	-88.059	0.348	0.106
-604.142	-200.000	-0.022	0.355
-603.128	-41.609	-0.510	-0.267
-602.113	-162.336	0.092	-0.005
-601.098	109.501	-0.232	0.282
-600.084	242.823	0.064	-0.110
-599.069	-144.415	0.306	0.029
-598.055	327.383	0.074	0.144
-597.040	251.089	-0.283	-0.490
-596.025	67.133	-0.019	0.020
-595.011	-200.000	-0.023	0.139
-593.996	66.998	0.196	-0.203
-592.982	-200.000	0.019	0.435
-591.967	-25.958	-0.047	0.028
-590.952	434.688	-0.087	-0.191
-589.938	-81.150	0.149	-0.050
-588.923	-10.042	-0.085	0.057
-587.909	-22.102	-0.104	-0.064
-586.894	-97.317	0.429	0.114
-585.879	65.008	-0.117	-0.120
-584.865	-99.931	-0.435	0.110
-583.850	-29.249	-0.361	-0.210
-582.836	191.141	-0.160	0.245
-581.821	352.035	0.105	0.211
-580.806	-84.610	0.094	0.030
-579.792	-200.000	-0.027	-0.169
-578.777	298.692	0.081	0.151
-577.763	45.676	0.153	-0.143
-576.748	-52.973	-0.299	0.140
-575.733	800.000	-0.069	-0.256
-574.719	-48.201	0.132	0.065
-573.704	66.536	0.214	-0.220
-572.690	800.000	0.061	-0.232
-571.675	1.289	0.231	0.168
-570.661	-84.469	-0.294	0.094
-569.646	-69.117	-0.212	0.083
-568.631	-85.393	0.138	0.044
-567.617	101.482	-0.177	-0.209
-566.602	-128.704	-0.175	-0.025
-565.588	596.740	0.085	-0.214
-564.573	377.376	-0.131	0.271
-563.558	40.310	-0.253	0.231
-562.544	705.800	-0.053	-0.143
-561.529	-32.083	0.106	0.060
-560.515	273.759	0.061	0.110
-559.500	68.316	0.081	0.084
-558.485	-65.732	0.112	0.045
-557.471	510.187	-0.129	0.303
-556.456	-80.033	0.089	-0.030
-555.442	800.000	-0.071	0.231
-554.427	-200.000	0.012	0.103
-553.412	-157.994	-0.425	-0.025
-552.398	337.733	0.033	-0.066
-551.383	-191.554	0.344	0.003
-550.369	-79.732	-0.220	-0.075
-549.354	800.000	-0.022	-0.088
-548.339	35.211	0.098	0.087
-547.325	-79.896	-0.240	0.082
-546.310	-200.000	-0.002	-0.096
-545.296	223.189	0.227	0.372
-544.281	800.000	0.032	-0.098
-543.266	-114.957	0.397	-0.077
-542.252	118.106	-0.168	-0.209
-541.237	-131.453	-0.247	-0.033
-540.223	-10.455	-0.301	0.202
-539.208	483.041	0.178	-0.410
-538.193	800.000	0.085	0.351
-537.179	494.472	-0.105	0.245
-536.164	-200.000	0.001	0.013
-535.150	-159.605	0.281	-0.016
-534.135	-95.400	-0.025	0.007
-533.121	-200.000	0.002	-0.031
-532.106	-38.590	0.283	-0.152
-531.091	-137.989	0.393	0.044
-530.077	-200.000	-0.019	-0.109
-529.062	273.104	-0.140	0.251
-528.048	-200.000	-0.027	0.181
-527.033	111.985	-0.061	0.075
-526.018	-104.439	-0.182	-0.043
-525.004	-46.183	-0.178	-0.089
-523.989	173.626	0.073	0.107
-522.975	-12.033	-0.175	0.116
-521.960	20.057	0.198	-0.162
-520.945	-51.902	0.204	-0.096
-519.931	-200.000	-0.003	-0.515
-518.916	88.135	0.223	0.251
-517.902	800.000	0.110	-0.312
-516.887	-18.989	0.334	-0.210
-515.872	-30.176	-0.139	0.080
-514.858	-83.180	0.067	0.022
-513.843	800.000	-0.069	0.231
-512.829	-81.349	0.310	-0.103
-511.814	209.928	-0.172	0.274
-510.799	396.671	-0.083	0.176
-509.785	800.000	-0.078	-0.266
-508.770	-200.000	-0.028	-0.465
-507.756	-200.000	0.034	-0.215
-506.741	-156.931	0.276	0.017
-505.726	-83.180	-0.138	0.045
-504.712	318.998	0.113	0.216
-503.697	98.802	-0.215	0.252
-502.683	-200.000	-0.019	-0.262
-501.668	-200.000	0.007	-0.201
-500.653	-168.963	-0.338	-0.013
-499.639	-78.069	-0.089	0.031
-498.624	-200.000	-0.001	0.073
-497.610	-74.357	-0.345	0.126
-496.595	210.843	0.237	0.378
-495.581	9.629	0.101	0.077
-494.566	673.753	-0.057	-0.150
-493.551	80.310	0.198	-0.215
-492.537	-121.237	0.223	0.038
-491.522	-200.000	0.028	0.144
-490.508	-23.947	-0.246	-0.149
-489.493	197.868	0.236	0.365
-488.478	-38.435	-0.179	0.096
-487.464	-200.000	0.038	-0.200
-486.449	123.300	0.062	0.078
-485.435	328.652	0.037	-0.072
-484.420	-100.507	0.295	0.074
-483.405	-50.173	0.251	-0.120
-482.391	-70.560	-0.047	-0.018
-481.376	125.509	-0.149	0.190
-480.362	148.834	0.086	0.118
-479.347	158.448	-0.137	-0.192
-478.332	-200.000	-0.117	-0.000
-477.318	32.382	0.267	-0.233
-476.303	800.000	0.102	0.325
-475.289	-80.332	-0.119	-0.040
-474.274	-116.031	0.149	-0.028
-473.259	-200.000	0.053	-0.254
-472.245	-45.203	0.403	0.202
-471.230	21.672	-0.123	0.101
-470.216	-114.455	-0.167	0.033
-469.201	-200.000	0.018	-0.146
-468.186	207.204	-0.180	0.284
-467.172	-200.000	-0.068	0.478
-466.157	104.800	0.347	-0.413
-465.143	-96.120	-0.129	-0.035
-464.128	-100.156	0.213	-0.054
-463.113	800.000	0.122	0.414
-462.099	-117.556	0.256	0.047
-461.084	0.431	-0.164	0.118
-460.070	409.462	-0.012	-0.026
-459.055	-49.913	0.118	-0.057
-458.040	49.782	0.202	-0.192
-457.026	800.000	-0.015	-0.055
-456.011	-1.708	-0.286	-0.204
-454.997	12.274	0.136	-0.106
-453.982	-106.728	-0.165	0.037
-452.968	800.000	-0.064	-0.204
-451.953	-124.505	-0.207	0.033
-450.938	-200.000	0.035	-0.225
-449.924	-22.141	-0.379	-0.232
-448.909	-10.570	-0.078	0.052
-447.895	-200.000	0.005	-0.256
-446.880	-65.690	-0.424	0.172
-445.865	177.088	0.180	-0.264
-444.851	58.110	-0.234	-0.232
-443.836	440.341	-0.172	-0.379
-442.822	-39.912	-0.359	-0.189
-441.807	353.818	-0.124	0.249
-440.792	24.489	0.073	0.061
-439.778	13.760	-0.201	-0.158
-438.763	88.193	0.084	0.094
-437.749	241.761	-0.050	-0.085
-436.734	-200.000	0.025	0.255
-435.719	9.801	0.176	0.135
-434.705	-46.921	0.221	-0.109
-433.690	85.819	-0.107	0.119
-432.676	-24.517	0.094	-0.057
-431.661	44.616	0.442	-0.411
-430.646	-92.554	-0.426	0.121
-429.632	-139.578	0.225	0.024
-428.617	279.182	-0.061	0.110
-427.603	390.063	0.181	0.379
-426.588	-200.000	0.028	0.486
-425.573	-200.000	-0.007	-0.118
-424.559	-200.000	0.025	0.441
-423.544	-75.152	-0.271	-0.098
-422.530	135.157	-0.059	0.078
-421.515	82.055	-0.330	-0.361
-420.500	56.380	0.240	-0.235
-419.486	-193.200	-0.391	0.003
-418.471	397.381	0.091	-0.191
-417.457	800.000	-0.112	0.322
-416.442	-200.000	-0.008	-0.038
-415.428	-133.155	0.189	0.024
-414.413	236.261	0.127	-0.212
-413.398	-200.000	0.040	0.198
-412.384	-200.000	0.043	0.217
-411.369	-43.889	-0.257	-0.130
-410.355	135.181	0.140	-0.184
-409.340	-200.000	-0.010	-0.054
-408.325	-79.226	-0.217	0.074
-407.311	43.875	-0.127	-0.118
-406.296	140.968	0.058	-0.078
-405.282	155.885	0.116	-0.161
-404.267	277.865	-0.010	-0.019
-403.252	-100.846	-0.188	0.047
-402.238	-200.000	0.038	-0.230
-401.223	-15.313	-0.150	0.097
-400.209	-108.594	-0.271	-0.059
-399.194	79.079	0.207	-0.223
-398.179	-28.437	0.210	-0.122
-397.165	-200.000	0.014	0.062
-396.150	708.823	0.116	0.308
-395.136	297.509	-0.152	0.282
-394.121	-115.729	0.212	0.040
-393.106	331.973	-0.194	-0.377
-392.092	95.312	0.095	-0.109
-391.077	631.817	-0.096	0.246
-390.063	23.701	0.270	0.224
-389.048	-200.000	0.055	0.438
-388.033	-200.000	0.008	0.244
-387.019	-160.903	-0.063	-0.003
-386.004	-98.719	0.411	-0.106
-384.990	-117.974	-0.216	-0.039
-383.975	28.571	0.205	0.174
-382.960	-101.682	0.187	-0.046
-381.946	-9.357	-0.207	-0.139
-380.931	-200.000	-0.033	0.240
-379.917	228.745	-0.045	0.073
-378.902	258.330	-0.095	0.166
-377.888	297.213	-0.110	0.204
-376.873	-134.483	-0.265	-0.033
-375.858	-87.533	-0.282	0.086
-374.844	-200.000	0.007	0.151
-373.829	675.554	-0.060	-0.157
-372.815	67.523	-0.112	-0.115
-371.800	-154.756	-0.277	0.018
-370.785	-200.000	0.006	-0.175
-369.771	226.191	0.182	0.298
-368.756	-150.330	0.207	0.016
-367.742	120.312	0.133	0.166
-366.727	444.222	0.072	-0.160
-365.712	-4.356	-0.120	-0.084
-364.698	-200.000	-0.034	0.314
-363.683	-24.884	-0.135	-0.081
-362.669	241.887	0.293	-0.494
-361.654	-200.000	-0.077	0.396
-360.639	800.000	-0.022	-0.088
-359.625	-163.478	0.116	-0.006
-358.610	-117.068	-0.131	-0.024
-357.596	-200.000	-0.002	-0.408
-356.581	328.927	-0.153	-0.295
-355.566	340.513	0.075	0.147
-354.552	800.000	0.100	-0.292
-353.537	113.528	0.164	-0.200
-352.523	2.450	0.099	0.072
-351.508	9.459	0.185	0.141
-350.493	-8.948	0.310	0.209
-349.479	-18.149	-0.411	-0.259
-348.464	490.833	-0.021	0.049
-347.450	-93.938	0.163	-0.045
-346.435	-200.000	0.018	-0.399
-345.420	-168.887	-0.167	0.006
-344.406	602.155	0.076	0.191
-343.391	456.039	-0.088	0.197
-342.377	368.461	-0.067	-0.137
-341.362	639.895	0.049	-0.125
-340.348	337.048	0.084	-0.163
-339.333	105.307	0.249	-0.296
-338.318	24.972	0.234	0.195
-337.304	136.292	0.171	-0.225
-336.289	1.034	-0.197	0.142
-335.275	208.097	-0.033	0.052
-334.260	-45.958	0.211	-0.105
-333.245	800.000	-0.039	0.112
-332.231	-61.491	0.238	0.101
-331.216	-200.000	0.040	-0.305
-330.202	-25.689	0.102	0.060
-329.187	372.158	0.029	0.059
-328.172	337.572	0.121	-0.236
-327.158	13.109	0.386	-0.301
-326.143	440.684	-0.173	0.381
-325.129	241.168	-0.046	0.077
-324.114	-59.741	0.119	0.051
-323.099	186.576	-0.064	-0.095
-322.085	-200.000	-0.010	0.231
-321.070	157.138	-0.274	0.381
-320.056	665.929	-0.093	0.242
-319.041	-65.922	0.347	-0.139
-318.026	-96.350	-0.259	0.069
-317.012	-118.867	0.034	-0.006
-315.997	169.783	-0.263	0.378
-314.983	-200.000	-0.017	0.340
-313.968	-189.710	-0.367	-0.004
-312.953	800.000	-0.042	0.157
-311.939	27.594	-0.076	-0.065
-310.924	-4.751	-0.128	0.089
-309.910	-17.040	-0.144	-0.091
-308.895	-200.000	0.039	-0.193
-307.880	800.000	0.078	0.277
-306.866	15.374	-0.221	-0.174
-305.851	800.000	0.064	0.217
-304.837	64.946	0.279	-0.283
-303.822	77.508	0.065	-0.070
-302.807	-200.000	0.024	-0.122
-301.793	-98.829	0.209	-0.053
-300.778	-200.000	-0.011	0.209
-299.764	-200.000	-0.035	-0.171
-298.749	-114.422	0.197	0.038
-297.735	186.167	-0.145	-0.217
-296.720	-193.989	0.243	0.002
-295.705	398.223	-0.133	0.279
-294.691	284.111	-0.041	-0.075
-293.676	-136.844	-0.189	0.022
-292.662	677.679	0.063	-0.163
-291.647	389.744	-0.111	-0.230
-290.632	80.776	0.074	-0.080
-289.618	800.000	-0.149	-0.425
-288.603	-126.871	-0.293	-0.043
-287.589	-200.000	-0.059	0.320
-286.574	-26.591	0.186	0.109
-285.559	-120.610	0.182	-0.031
-284.545	800.000	0.019	0.062
-283.530	65.259	-0.174	0.177
-282.516	-200.000	0.030	0.161
-281.501	-200.000	0.035	-0.259
-280.486	56.427	0.290	0.283
-279.472	263.462	-0.127	-0.221
-278.457	-6.928	0.181	-0.123
-277.443	41.830	0.259	-0.236
-276.428	137.248	-0.113	-0.149
-275.413	-97.732	0.099	0.026
-274.399	127.472	0.234	0.298
-273.384	210.084	-0.191	0.301
-272.370	800.000	0.078	-0.319
-271.355	8.017	0.380	0.286
-270.340	-200.000	-0.009	0.352
-269.326	800.000	0.120	0.464
-268.311	297.855	0.135	-0.250
-267.297	47.076	-0.216	0.202
-266.282	-200.000	0.406	-0.002
-265.267	-200.000	-0.023	0.224
-264.253	-25.826	0.188	0.111
-263.238	314.068	0.184	0.348
-262.224	-200.000	0.019	0.112
-261.209	-187.872	-0.131	0.002
-260.195	253.259	0.093	-0.159
-259.180	-200.000	-0.016	0.131
-258.165	66.797	0.154	0.157
-257.151	-113.283	-0.048	-0.010
-256.136	82.249	0.032	-0.035
-255.122	221.362	0.123	-0.198
-254.107	-28.748	0.111	0.064
-253.092	-200.000	0.010	-0.323
-252.078	-48.772	-0.048	-0.023
-251.063	34.224	-0.187	0.163
-250.049	-83.976	-0.346	-0.110
-249.034	143.721	-0.156	-0.208
-248.019	-83.844	0.212	0.068
-247.005	23.251	0.193	-0.159
-245.990	-54.311	0.198	-0.090
-244.976	-182.955	0.161	-0.003
-243.961	72.150	0.092	-0.096
-242.946	77.884	0.168	-0.180
-241.932	16.125	-0.064	0.050
-240.917	-57.216	0.482	0.212
-239.903	-168.789	-0.265	0.010
-238.888	9.843	-0.288	-0.219
-237.873	312.574	0.265	0.499
-236.859	-25.279	0.154	0.091
-235.844	-200.000	0.021	-0.125
-234.830	-191.966	-0.373	-0.004
-233.815	-78.560	0.273	0.094
-232.800	-200.000	-0.017	0.090
-231.786	-31.671	-0.158	0.089
-230.771	166.418	0.218	0.309
-229.757	-29.201	0.108	-0.062
-228.742	78.535	-0.165	0.177
-227.727	-84.391	0.259	-0.082
-226.713	-142.929	-0.236	0.023
-225.698	201.114	0.052	0.080
-224.684	-158.366	-0.029	-0.002
-223.669	230.020	0.090	0.148
-222.655	-200.000	0.030	0.332
-221.640	246.174	-0.109	-0.184
-220.625	-53.040	0.120	0.055
-219.611	800.000	-0.071	0.309
-218.596	253.677	0.056	-0.095
-217.582	6.626	0.225	-0.168
-216.567	-167.184	-0.217	0.009
-215.552	21.378	-0.025	0.020
-214.538	-6.101	-0.155	-0.106
-213.523	118.695	0.129	-0.159
-212.509	-200.000	-0.025	0.134
-211.494	-21.261	-0.240	-0.147
-210.479	-76.610	0.287	0.101
-209.465	218.335	0.071	0.114
-208.450	81.871	0.220	0.239
-207.436	800.000	-0.075	-0.209
-206.421	28.663	-0.168	0.142
-205.406	76.139	-0.224	-0.238
-204.392	47.265	0.332	-0.309
-203.377	114.582	0.097	-0.119
-202.363	482.420	-0.088	0.200
-201.348	-64.691	0.208	0.084
-200.333	-2.630	-0.228	-0.159
-199.319	15.017	-0.032	0.025
-198.304	-127.949	-0.043	0.006
-197.290	67.312	-0.112	-0.114
-196.275	83.487	-0.146	0.159
-195.260	-70.031	-0.079	-0.030
-194.246	-55.268	-0.173	-0.078
-193.231	-200.000	-0.012	-0.076
-192.217	148.924	0.030	0.040
-191.202	-46.584	-0.234	0.115
-190.187	200.709	0.092	0.142
-189.173	-161.540	0.214	-0.011
-188.158	66.538	-0.225	-0.229
-187.144	-42.787	-0.211	0.107
-186.129	-200.000	0.029	-0.129
-185.114	294.341	-0.044	0.080
-184.100	-188.664	0.199	0.002
-183.085	-92.533	-0.193	0.054
-182.071	-200.000	0.044	-0.290
-181.056	-200.000	-0.343	0.000
-180.042	6.698	0.120	-0.089
-179.027	-30.736	-0.123	-0.070
-178.012	52.152	0.105	-0.100
-176.998	-10.122	0.133	0.088
-175.983	525.787	-0.071	0.167
-174.969	-123.093	-0.414	0.066
-173.954	800.000	0.029	-0.095
-172.939	-27.411	-0.032	0.018
-171.925	-52.896	0.236	0.109
-170.910	-200.000	0.032	-0.187
-169.896	463.575	0.154	-0.345
-168.881	298.804	0.016	-0.029
-167.866	-12.728	-0.117	0.076
-166.852	-99.217	0.341	-0.086
-165.837	246.928	0.151	0.254
-164.823	133.841	-0.209	-0.271
-163.808	-169.968	0.289	0.010
-162.793	-200.000	-0.015	0.077
-161.779	229.361	0.064	-0.104
-160.764	3.063	0.146	-0.106
-159.750	-8.275	-0.259	-0.174
-158.735	800.000	0.089	-0.266
-157.720	-200.000	-0.006	-0.112
-156.706	-115.711	0.196	0.037
-155.691	224.097	0.099	-0.159
-154.677	-49.908	0.187	0.089
-153.662	-25.782	-0.190	-0.112
-152.647	-47.026	-0.210	0.103
-151.633	251.880	0.174	-0.297
-150.618	-71.581	0.260	-0.097
-149.604	800.000	-0.113	0.447
-148.589	-200.000	-0.047	0.381
-147.574	-32.781	-0.036	0.020
-146.560	282.549	0.052	0.092
-145.545	129.704	0.136	-0.174
-144.531	-200.000	-0.054	0.269
-143.516	-200.000	0.034	0.597
-142.502	800.000	-0.092	0.282
-141.487	2.351	-0.167	0.121
-140.472	-21.909	0.173	0.105
-139.458	800.000	0.058	0.172
-138.443	198.610	-0.049	0.074
-137.429	800.000	0.072	-0.228
-136.414	231.587	-0.063	0.103
-135.399	-200.000	0.010	0.114
-134.385	24.730	-0.273	-0.226
-133.370	288.107	0.024	-0.044
-132.356	164.999	-0.281	-0.396
-131.341	800.000	0.019	0.069
-130.326	-120.130	0.012	0.002
-129.312	771.268	0.074	0.201
-128.297	44.233	0.069	0.063
-127.283	16.188	0.271	-0.213
-126.268	231.231	-0.061	0.099
-125.253	-200.000	0.010	0.145
-124.239	800.000	-0.044	-0.133
-123.224	-178.859	-0.174	0.004
-122.210	668.945	-0.034	-0.087
-121.195	-150.776	-0.177	-0.013
