DTS Sentinel unit serial number:	SN413079Multiplexer serial number:	ORYXHardware model number:	OX4-SRSoftware version number:	ORYX F/W v4.00 Oryx Data Collector v3.7.2.0data status	okinstallation	princeton_trtdifferential loss correction	single-endedforward channel	channel 4reverse channel	N/Adate	2019/09/11time	04:43:11forward acquisition time	60.00reverse acquisition time	0.00gamma	496.2192k internal	0.2316k external	0.2316temperature offset calibration	0.9944default loss term (dB/km)	0.3790temperature slope calibration	1.0000multiplexer offset coefficient	1.0000multiplexer slope coefficient	1.0000fibre end	0.00T internal ref (°C)	29.52T ext. ref 1 (°C)	-0.26T ext. ref 2 (°C)	23.39length (m)	temperature (°C)	Stokes	anti-Stokes-747.200	-78.587	-0.431	-0.149
-746.185	-200.000	0.019	-0.255
-745.171	-28.881	-0.113	0.066
-744.156	-73.136	-0.335	0.125
-743.142	141.905	0.042	0.057
-742.127	-167.044	-0.190	0.008
-741.112	-164.806	0.408	-0.019
-740.098	-38.153	0.125	0.067
-739.083	-193.833	0.568	0.005
-738.069	-8.783	-0.103	-0.070
-737.054	771.141	-0.117	-0.322
-736.039	259.597	0.061	0.107
-735.025	-57.539	-0.143	-0.063
-734.010	456.117	0.085	0.191
-732.996	-100.698	0.271	-0.068
-731.981	-129.878	-0.244	-0.034
-730.966	6.677	0.098	-0.074
-729.952	63.039	-0.246	-0.250
-728.937	-200.000	-0.004	-0.152
-727.923	25.198	-0.159	0.134
-726.908	-200.000	-0.021	0.136
-725.894	-159.710	0.119	-0.007
-724.879	-82.130	0.244	-0.081
-723.864	-125.463	0.349	0.054
-722.850	83.096	-0.153	-0.169
-721.835	383.772	0.033	0.069
-720.821	759.494	0.147	0.404
-719.806	36.084	-0.160	0.143
-718.791	-77.947	0.121	-0.042
-717.777	-140.447	-0.083	0.009
-716.762	76.692	-0.087	0.094
-715.748	-96.792	-0.163	-0.043
-714.733	-118.881	0.038	0.007
-713.718	800.000	-0.066	-0.211
-712.704	222.548	-0.113	0.184
-711.689	-69.458	-0.286	-0.111
-710.675	-93.445	-0.432	0.121
-709.660	-65.185	-0.283	-0.115
-708.645	-37.685	0.334	-0.180
-707.631	468.232	-0.075	-0.171
-706.616	-137.433	0.200	0.023
-705.602	133.286	-0.062	-0.081
-704.587	800.000	0.131	-0.371
-703.572	57.974	-0.211	-0.209
-702.558	147.239	0.157	-0.213
-701.543	289.262	-0.118	0.216
-700.529	-103.364	0.122	0.029
-699.514	-82.411	0.325	-0.107
-698.499	-80.318	-0.016	0.006
-697.485	-95.742	0.282	0.076
-696.470	96.141	0.155	0.179
-695.456	288.735	-0.098	-0.179
-694.441	193.879	-0.059	-0.091
-693.426	-189.366	0.137	-0.002
-692.412	-200.000	-0.023	-0.268
-691.397	471.567	-0.185	-0.421
-690.383	-161.264	0.165	-0.009
-689.368	-80.535	-0.112	-0.038
-688.354	603.056	0.102	-0.257
-687.339	354.492	0.180	-0.361
-686.324	800.000	-0.113	-0.410
-685.310	-133.522	-0.604	-0.076
-684.295	61.918	-0.105	-0.106
-683.281	566.501	0.062	0.151
-682.266	196.254	0.070	0.107
-681.251	-79.963	-0.312	-0.106
-680.237	-87.871	0.200	-0.061
-679.222	715.238	0.019	0.050
-678.208	800.000	-0.110	-0.473
-677.193	-85.462	-0.215	-0.068
-676.178	-103.920	-0.188	0.044
-675.164	413.552	0.024	-0.051
-674.149	177.301	-0.144	-0.212
-673.135	98.200	-0.138	-0.161
-672.120	-0.171	-0.202	0.145
-671.105	-159.212	0.365	-0.021
-670.091	-33.861	0.195	0.109
-669.076	533.509	-0.201	0.480
-668.062	800.000	-0.042	0.169
-667.047	-200.000	0.034	-0.177
-666.032	91.683	0.158	-0.180
-665.018	53.562	0.282	-0.274
-664.003	-200.000	-0.004	0.056
-662.989	-153.820	0.109	-0.008
-661.974	25.117	-0.110	-0.092
-660.959	-74.072	0.086	-0.032
-659.945	800.000	0.071	0.211
-658.930	672.006	-0.017	0.044
-657.916	-200.000	0.036	0.213
-656.901	-200.000	-0.020	0.172
-655.886	800.000	0.080	-0.257
-654.872	579.341	0.064	-0.158
-653.857	-200.000	-0.086	-0.405
-652.843	-125.723	0.124	0.019
-651.828	221.754	-0.174	0.282
-650.814	2.684	-0.048	0.035
-649.799	324.722	-0.135	-0.261
-648.784	11.413	-0.306	0.237
-647.770	-124.295	-0.342	-0.054
-646.755	-18.843	0.130	0.082
-645.741	-36.732	0.283	0.153
-644.726	-189.645	-0.089	-0.001
-643.711	-198.077	-0.134	-0.001
-642.697	8.653	-0.139	0.106
-641.682	408.684	0.125	-0.267
-640.668	-79.674	-0.233	-0.079
-639.653	321.377	0.066	-0.126
-638.638	234.118	0.146	-0.242
-637.624	24.073	0.126	-0.105
-636.609	-200.000	0.013	0.075
-635.595	-147.901	0.158	0.013
-634.580	3.483	-0.134	0.098
-633.565	129.845	0.060	-0.078
-632.551	721.267	0.119	0.321
-631.536	124.888	-0.211	0.268
-630.522	114.192	0.166	0.204
-629.507	-157.430	0.334	0.020
-628.492	-200.000	-0.008	-0.038
-627.478	69.649	0.144	0.150
-626.463	-200.000	-0.032	-0.176
-625.449	-76.671	-0.146	0.052
-624.434	-88.679	-0.130	-0.039
-623.419	-104.570	0.335	-0.078
-622.405	-200.000	-0.005	-0.066
-621.390	-81.110	-0.313	0.104
-620.376	-80.732	0.274	-0.092
-619.361	-29.818	-0.160	-0.092
-618.346	-142.596	-0.230	0.023
-617.332	213.159	0.069	0.109
-616.317	-130.571	-0.284	0.039
-615.303	-14.358	0.384	-0.249
-614.288	233.655	0.184	-0.305
-613.273	722.727	-0.100	0.268
-612.259	-200.000	0.025	-0.210
-611.244	-200.000	-0.006	0.075
-610.230	-200.000	-0.003	0.291
-609.215	-200.000	0.032	0.206
-608.201	67.459	0.108	-0.111
-607.186	-200.000	0.045	-0.391
-606.171	-178.990	-0.065	0.001
-605.157	-118.818	-0.166	-0.029
-604.142	1.922	0.244	0.177
-603.128	-87.692	-0.137	-0.042
-602.113	66.482	0.042	0.043
-601.098	142.689	0.089	0.119
-600.084	-113.792	0.168	0.033
-599.069	-39.346	-0.173	-0.091
-598.055	13.438	0.140	-0.110
-597.040	-61.523	0.200	0.085
-596.025	-103.151	0.168	-0.040
-595.011	-90.484	0.029	-0.009
-593.996	119.718	-0.163	0.203
-592.982	-200.000	0.050	0.336
-591.967	-12.967	0.230	0.151
-590.952	71.499	0.289	0.302
-589.938	541.747	-0.138	-0.331
-588.923	-200.000	-0.007	-0.303
-587.909	202.773	0.201	-0.312
-586.894	-38.652	-0.138	0.073
-585.879	-158.050	-0.198	0.012
-584.865	-200.000	0.052	-0.431
-583.850	-200.000	-0.006	-0.151
-582.836	-200.000	0.020	0.178
-581.821	800.000	0.045	0.129
-580.806	-200.000	-0.067	0.364
-579.792	202.801	-0.095	0.148
-578.777	1.570	0.150	0.109
-577.763	21.424	-0.250	0.205
-576.748	71.264	0.124	-0.129
-575.733	400.205	-0.055	0.117
-574.719	-99.402	0.019	0.005
-573.704	800.000	0.019	-0.079
-572.690	-63.040	-0.291	-0.121
-571.675	800.000	-0.034	-0.110
-570.661	112.622	-0.141	-0.171
-569.646	6.579	0.227	0.170
-568.631	-76.955	0.219	0.077
-567.617	800.000	-0.051	0.176
-566.602	17.898	0.116	-0.093
-565.588	-200.000	-0.014	-0.220
-564.573	-200.000	-0.023	-0.201
-563.558	-9.598	-0.127	0.085
-562.544	-74.658	0.298	-0.108
-561.529	599.031	0.084	-0.210
-560.515	-75.044	0.129	-0.046
-559.500	800.000	-0.155	0.433
-558.485	-200.000	0.188	0.001
-557.471	-200.000	-0.002	0.056
-556.456	-99.490	0.270	-0.068
-555.442	417.659	0.105	-0.225
-554.427	-125.651	-0.264	0.040
-553.412	-31.845	0.284	-0.160
-552.398	800.000	-0.023	-0.092
-551.383	-57.895	0.160	0.070
-550.369	39.391	0.179	0.161
-549.354	-16.689	-0.214	-0.136
-548.339	-127.755	-0.244	0.035
-547.325	-97.392	0.203	0.053
-546.310	-200.000	-0.059	-0.366
-545.296	-2.704	-0.259	-0.182
-544.281	-39.949	0.108	0.056
-543.266	-41.001	0.281	-0.146
-542.252	224.303	0.123	-0.200
-541.237	-36.525	0.025	0.014
-540.223	-200.000	0.007	-0.267
-539.208	-84.036	-0.204	-0.065
-538.193	334.318	-0.130	0.254
-537.179	-30.359	-0.124	0.071
-536.164	9.947	-0.170	0.130
-535.150	-200.000	-0.064	0.297
-534.135	240.691	0.039	0.066
-533.121	117.152	0.172	0.213
-532.106	-74.903	0.357	-0.129
-531.091	124.823	-0.139	0.175
-530.077	-200.000	0.025	0.149
-529.062	422.328	-0.067	-0.143
-528.048	-35.888	-0.329	-0.179
-527.033	22.852	-0.192	-0.158
-526.018	-109.488	-0.275	-0.058
-525.004	54.703	-0.075	0.073
-523.989	-65.113	-0.197	-0.080
-522.975	-200.000	0.017	-0.216
-521.960	-114.877	-0.232	-0.044
-520.945	-44.259	0.213	0.107
-519.931	-104.289	-0.154	0.036
-518.916	-22.356	0.329	-0.200
-517.902	465.784	-0.131	0.294
-516.887	-0.910	0.159	0.113
-515.872	170.280	-0.134	0.193
-514.858	94.367	0.338	-0.386
-513.843	-200.000	-0.033	0.190
-512.829	-131.907	0.216	0.028
-511.814	800.000	-0.002	0.006
-510.799	-200.000	-0.007	0.256
-509.785	180.297	0.108	-0.159
-508.770	145.356	-0.310	0.417
-507.756	170.216	-0.240	0.344
-506.741	-94.550	0.266	0.073
-505.726	110.724	-0.032	-0.039
-504.712	-150.477	-0.206	0.016
-503.697	-78.082	-0.055	0.019
-502.683	-200.000	0.018	0.131
-501.668	800.000	0.118	-0.413
-500.653	129.252	0.047	-0.060
-499.639	17.110	0.171	-0.136
-498.624	800.000	-0.043	0.146
-497.610	105.894	-0.067	-0.080
-496.595	-79.932	-0.147	-0.050
-495.581	-105.124	0.407	-0.093
-494.566	-150.389	0.088	0.007
-493.551	800.000	-0.037	0.140
-492.537	-7.376	-0.106	0.072
-491.522	74.008	0.206	0.217
-490.508	-200.000	-0.053	-0.317
-489.493	-200.000	-0.008	-0.173
-488.478	-69.414	-0.543	-0.209
-487.464	-159.051	-0.212	-0.012
-486.449	274.053	-0.074	-0.131
-485.435	-200.000	0.044	-0.327
-484.420	108.428	0.135	-0.161
-483.405	178.505	0.066	0.097
-482.391	-84.317	-0.062	-0.020
-481.376	-197.704	-0.106	-0.001
-480.362	616.461	-0.033	0.083
-479.347	-200.000	0.070	0.331
-478.332	158.446	-0.113	0.157
-477.318	154.807	0.065	0.089
-476.303	-122.750	-0.065	-0.011
-475.289	-93.041	0.103	0.029
-474.274	18.280	-0.079	0.063
-473.259	-82.554	0.178	0.058
-472.245	9.159	-0.250	-0.189
-471.230	-108.299	-0.576	0.125
-470.216	-145.915	-0.078	0.007
-469.201	105.211	0.233	0.276
-468.186	800.000	0.034	-0.135
-467.172	-200.000	-0.039	-0.195
-466.157	170.180	0.133	0.191
-465.143	-147.445	0.216	0.018
-464.128	-200.000	0.003	0.292
-463.113	119.545	0.104	-0.130
-462.099	-200.000	0.033	-0.169
-461.084	-33.533	0.116	0.064
-460.070	25.680	-0.100	-0.083
-459.055	-178.595	-0.325	0.008
-458.040	-81.556	0.248	-0.082
-457.026	345.120	-0.090	0.177
-456.011	-138.529	-0.168	-0.019
-454.997	341.300	0.052	-0.101
-453.982	101.264	-0.050	0.058
-452.968	-10.332	-0.154	-0.103
-451.953	-73.564	0.460	0.168
-450.938	144.629	-0.081	0.108
-449.924	-163.663	-0.104	-0.005
-448.909	-2.463	-0.128	0.089
-447.895	-136.227	-0.193	0.023
-446.880	800.000	-0.019	0.069
-445.865	-128.251	-0.194	-0.028
-444.851	-126.252	0.238	0.036
-443.836	-81.777	0.325	-0.107
-442.822	-200.000	-0.068	0.376
-441.807	-85.090	0.289	-0.091
-440.792	108.564	-0.280	0.335
-439.778	231.223	-0.104	0.171
-438.763	-30.380	-0.262	0.149
-437.749	-63.366	0.196	-0.081
-436.734	-51.766	0.076	0.035
-435.719	-68.023	0.105	0.041
-434.705	26.517	-0.102	0.085
-433.690	800.000	-0.079	-0.264
-432.676	167.780	0.108	-0.154
-431.661	11.181	-0.164	-0.126
-430.646	800.000	-0.043	0.118
-429.632	25.714	0.267	0.222
-428.617	238.770	-0.133	-0.221
-427.603	158.307	-0.246	-0.341
-426.588	800.000	0.067	-0.229
-425.573	-84.732	0.169	0.053
-424.559	-200.000	-0.002	0.133
-423.544	-53.188	0.126	-0.058
-422.530	-13.862	-0.039	0.025
-421.515	-200.000	0.014	-0.063
-420.500	96.330	0.268	0.307
-419.486	-36.974	-0.173	-0.092
-418.471	116.532	0.046	0.056
-417.457	-45.369	0.022	-0.011
-416.442	282.491	-0.089	0.160
-415.428	800.000	-0.070	-0.233
-414.413	800.000	0.123	-0.359
-413.398	369.499	0.065	0.132
-412.384	176.863	0.290	0.422
-411.369	-64.038	0.269	-0.110
-410.355	324.534	0.166	-0.318
-409.340	11.670	-0.171	0.131
-408.325	-49.574	0.085	0.040
-407.311	-139.560	0.076	-0.008
-406.296	800.000	-0.045	-0.142
-405.282	-160.697	0.251	0.013
-404.267	-8.871	0.158	0.106
-403.252	-73.042	0.442	-0.162
-402.238	798.959	0.116	-0.319
-401.223	-77.323	-0.161	-0.056
-400.209	-41.457	0.294	-0.151
-399.194	-200.000	-0.063	-0.414
-398.179	-110.070	0.228	0.048
-397.165	248.406	0.092	0.155
-396.150	-10.687	-0.049	-0.032
-395.136	551.301	-0.148	0.356
-394.121	-87.831	0.119	0.036
-393.106	-200.000	0.013	-0.221
-392.092	-200.000	-0.381	0.001
-391.077	800.000	0.032	-0.090
-390.063	62.051	0.283	-0.282
-389.048	-131.835	-0.130	-0.017
-388.033	56.972	-0.201	0.196
-387.019	-47.612	0.187	0.091
-386.004	800.000	0.091	0.263
-384.990	-200.000	-0.003	0.410
-383.975	-200.000	0.064	0.310
-382.960	-126.238	-0.454	0.068
-381.946	-109.403	0.301	0.064
-380.931	-159.503	-0.213	0.012
-379.917	211.716	-0.108	0.169
-378.902	-133.751	-0.063	0.008
-377.888	-1.353	0.072	-0.051
-376.873	32.497	-0.254	-0.219
-375.858	-69.846	0.446	0.170
-374.844	-5.705	-0.243	-0.166
-373.829	-200.000	0.006	0.044
-372.815	36.373	-0.254	-0.224
-371.800	166.320	0.151	-0.213
-370.785	-116.282	0.373	-0.069
-369.771	3.531	-0.324	-0.236
-368.756	-63.037	-0.210	0.087
-367.742	-73.547	0.194	-0.070
-366.727	800.000	0.066	-0.233
-365.712	-200.000	-0.033	-0.161
-364.698	644.266	-0.166	0.422
-363.683	-123.554	-0.173	0.027
-362.669	-31.275	-0.047	-0.026
-361.654	-200.000	0.071	-0.438
-360.639	-54.052	-0.097	0.044
-359.625	-200.000	-0.036	-0.646
-358.610	469.571	-0.229	-0.513
-357.596	472.363	0.163	-0.365
-356.581	-187.667	0.135	-0.002
-355.566	-200.000	0.009	-0.051
-354.552	-131.560	-0.264	0.035
-353.537	-36.933	-0.312	0.167
-352.523	-200.000	0.004	-0.080
-351.508	-11.376	-0.269	-0.177
-350.493	800.000	0.039	-0.166
-349.479	24.314	-0.146	-0.120
-348.464	28.717	-0.226	0.191
-347.450	-200.000	0.000	0.023
-346.435	186.257	-0.035	-0.052
-345.420	352.619	-0.145	0.286
-344.406	-66.519	-0.240	0.095
-343.391	-40.651	-0.282	0.146
-342.377	-200.000	0.029	0.250
-341.362	-142.352	-0.470	0.046
-340.348	800.000	-0.054	0.189
-339.333	345.670	-0.066	0.129
-338.318	346.737	0.083	0.163
-337.304	27.958	-0.140	-0.117
-336.289	-200.000	0.001	-0.010
-335.275	-91.985	-0.308	0.087
-334.260	197.413	0.094	-0.143
-333.245	-25.792	0.329	-0.193
-332.231	224.402	0.133	0.214
-331.216	57.801	0.191	0.187
-330.202	34.082	-0.152	0.132
-329.187	-27.291	0.252	-0.146
-328.172	244.273	0.079	0.133
-327.158	-200.000	-0.224	0.000
-326.143	-200.000	-0.004	-0.020
-325.129	215.448	0.098	0.156
-324.114	-41.483	0.174	0.089
-323.099	207.344	-0.030	0.047
-322.085	461.037	0.182	-0.405
-321.070	-62.825	-0.197	-0.081
-320.056	-200.000	0.083	-0.431
-319.041	219.607	-0.053	0.085
-318.026	-113.308	-0.084	-0.016
-317.012	221.492	-0.061	0.097
-315.997	-128.341	-0.203	0.029
-314.983	8.998	-0.242	-0.182
-313.968	-32.215	0.088	-0.049
-312.953	29.923	-0.138	0.117
-311.939	-200.000	-0.019	0.119
-310.924	800.000	0.115	-0.397
-309.910	25.914	0.233	-0.194
-308.895	76.874	0.072	-0.076
-307.880	-132.243	-0.189	0.024
-306.866	-200.000	-0.036	0.217
-305.851	234.796	-0.126	-0.208
-304.837	-58.906	-0.302	-0.130
-303.822	800.000	0.017	-0.066
-302.807	62.116	0.220	-0.219
-301.793	12.302	0.148	0.113
-300.778	-146.377	0.275	-0.024
-299.764	800.000	-0.035	0.106
-298.749	-94.707	0.161	-0.044
-297.735	581.449	-0.027	0.065
-296.720	-105.434	0.326	-0.074
-295.705	-200.000	-0.013	-0.066
-294.691	90.547	0.135	0.150
-293.676	-169.367	0.040	-0.001
-292.662	234.430	0.040	-0.066
-291.647	-5.605	0.277	-0.189
-290.632	-137.715	0.462	-0.052
-289.618	-13.258	0.174	0.112
-288.603	129.302	0.217	0.275
-287.589	-200.000	-0.056	-0.280
-286.574	81.616	-0.291	-0.313
-285.559	-157.682	0.038	0.002
-284.545	260.051	-0.141	0.242
-283.530	28.294	0.309	-0.259
-282.516	-68.117	-0.485	0.188
-281.501	-109.193	0.206	0.044
-280.486	-94.058	-0.252	0.069
-279.472	800.000	-0.099	0.272
-278.457	-42.485	-0.193	-0.098
-277.443	-72.474	-0.196	-0.072
-276.428	145.032	-0.087	-0.115
-275.413	3.912	-0.031	0.023
-274.399	141.055	0.190	0.250
-273.384	-169.670	0.054	0.002
-272.370	638.931	0.085	-0.215
-271.355	800.000	-0.100	0.360
-270.340	-20.738	0.032	-0.019
-269.326	98.471	0.265	-0.304
-268.311	-102.968	0.051	0.012
-267.297	131.214	0.054	0.069
-266.282	11.400	-0.084	-0.064
-265.267	-135.426	0.144	0.017
-264.253	173.980	0.051	-0.074
-263.238	-26.707	0.201	-0.117
-262.224	393.370	-0.019	0.040
-261.209	737.908	-0.142	-0.377
-260.195	6.022	0.143	0.105
-259.180	324.108	-0.021	0.040
-258.165	800.000	0.040	0.138
-257.151	158.247	-0.126	0.174
-256.136	-200.000	-0.071	0.437
-255.122	-12.410	-0.127	0.083
-254.107	-200.000	-0.018	-0.135
-253.092	-109.962	0.248	0.052
-252.078	80.340	-0.336	-0.360
-251.063	800.000	0.024	0.101
-250.049	-103.800	0.150	0.035
-249.034	133.745	-0.118	0.152
-248.019	172.967	0.027	0.038
-247.005	-30.493	0.142	-0.080
-245.990	499.435	-0.107	0.244
-244.976	800.000	-0.124	0.468
-243.961	182.106	-0.086	-0.125
-242.946	-165.978	0.154	-0.007
-241.932	-120.800	0.180	-0.030
-240.917	-151.277	-0.192	0.014
-239.903	-182.372	0.503	-0.009
-238.888	-133.319	-0.224	-0.028
-237.873	-75.381	-0.056	0.020
-236.859	800.000	-0.016	-0.070
-235.844	800.000	0.030	-0.086
-234.830	-103.858	-0.223	0.052
-233.815	-118.582	-0.284	-0.050
-232.800	800.000	-0.057	0.170
-231.786	119.861	-0.182	-0.224
-230.771	332.213	-0.147	0.282
-229.757	63.439	-0.286	0.284
-228.742	13.414	-0.186	-0.143
-227.727	800.000	0.081	0.231
-226.713	800.000	-0.187	-0.535
-225.698	-37.874	0.147	-0.077
-224.684	-137.798	0.255	0.028
-223.669	-71.987	0.297	0.110
-222.655	-46.602	0.255	-0.124
-221.640	36.461	-0.163	0.143
-220.625	-132.794	-0.193	0.024
-219.611	-71.126	-0.393	0.146
-218.596	741.629	-0.165	-0.441
-217.582	-40.929	-0.375	0.193
-216.567	-40.908	-0.185	0.095
-215.552	-200.000	0.004	-0.084
-214.538	-72.229	0.203	0.075
-213.523	63.559	0.182	0.182
-212.509	-200.000	0.060	0.290
-211.494	71.610	-0.127	0.131
-210.479	-68.145	-0.058	0.022
-209.465	-200.000	0.037	-0.436
-208.450	-83.768	0.143	-0.045
-207.436	-9.960	-0.224	0.148
-206.421	162.816	0.027	0.038
-205.406	-4.611	0.145	0.100
-204.392	-116.070	0.215	0.040
-203.377	443.609	0.104	0.226
-202.363	-91.051	-0.020	-0.006
-201.348	-141.083	0.246	-0.025
-200.333	247.216	0.072	0.121
-199.319	-114.589	0.192	0.037
-198.304	-132.904	-0.075	0.009
-197.290	46.322	-0.147	-0.135
-196.275	-200.000	0.008	0.132
-195.260	-75.504	0.211	0.074
-194.246	410.074	0.080	-0.168
-193.231	-200.000	-0.008	-0.081
-192.217	-200.000	0.039	0.233
-191.202	-19.636	-0.044	0.027
-190.187	-91.696	0.210	0.059
-189.173	139.655	0.039	0.051
-188.158	63.882	0.045	0.045
-187.144	12.111	0.121	-0.093
-186.129	-200.000	0.006	0.146
-185.114	800.000	0.077	0.291
-184.100	16.408	0.335	0.262
-183.085	-200.000	0.053	-0.407
-182.071	623.904	-0.148	0.371
-181.056	-200.000	-0.037	0.183
-180.042	159.531	-0.100	-0.138
-179.027	-29.630	0.108	0.061
-178.012	483.630	-0.032	-0.071
-176.998	-117.655	-0.129	-0.023
-175.983	99.905	-0.045	-0.052
-174.969	-150.859	0.143	0.011
-173.954	-137.441	0.398	-0.045
-172.939	-182.265	0.045	0.001
-171.925	14.620	-0.122	0.094
-170.910	-50.543	-0.073	-0.034
-169.896	-200.000	0.008	0.302
-168.881	800.000	-0.132	-0.483
-167.866	23.448	-0.025	-0.021
-166.852	340.944	-0.168	-0.324
-165.837	-200.000	-0.010	-0.061
-164.823	-27.764	-0.224	0.129
-163.808	-127.440	-0.389	0.056
-162.793	-200.000	-0.005	0.131
-161.779	-200.000	-0.041	-0.208
-160.764	-121.358	0.068	-0.011
-159.750	-77.502	0.376	0.129
-158.735	-200.000	0.028	-0.441
-157.720	-78.290	-0.182	0.062
-156.706	52.094	0.184	-0.174
-155.691	161.816	0.115	-0.160
-154.677	726.509	-0.082	0.217
-153.662	186.534	-0.123	0.181
-152.647	183.976	-0.284	0.415
-151.633	14.967	0.180	-0.139
-150.618	725.816	-0.118	0.310
-149.604	-36.506	-0.170	0.091
-148.589	120.816	-0.170	0.210
-147.574	-97.673	-0.311	0.080
-146.560	-48.797	-0.413	0.196
-145.545	-200.000	-0.043	0.191
-144.531	77.208	0.317	0.333
-143.516	46.142	-0.202	0.185
-142.502	336.603	0.021	-0.040
-141.487	-37.411	0.254	-0.134
-140.472	-200.000	0.016	-0.319
-139.458	-200.000	-0.030	-0.239
-138.443	107.653	0.088	-0.104
-137.429	1.837	0.328	0.234
-136.414	800.000	-0.094	0.261
-135.399	-64.660	-0.432	0.173
-134.385	-58.393	-0.406	0.175
-133.370	323.964	0.196	0.370
-132.356	61.878	0.135	-0.133
-131.341	36.882	0.097	0.085
-130.326	-127.103	0.261	-0.038
-129.312	-200.000	0.001	-0.167
-128.297	2.284	0.254	0.182
-127.283	390.958	0.208	-0.427
-126.268	-71.551	-0.093	0.034
-125.253	190.108	-0.093	-0.139
-124.239	7.480	0.157	-0.116
-123.224	155.176	0.019	-0.026
-122.210	31.714	0.343	-0.292
-121.195	107.054	-0.075	-0.088
