DTS Sentinel unit serial number:	SN413079Multiplexer serial number:	ORYXHardware model number:	OX4-SRSoftware version number:	ORYX F/W v4.00 Oryx Data Collector v3.7.2.0data status	okinstallation	princeton_trtdifferential loss correction	single-endedforward channel	channel 4reverse channel	N/Adate	2019/09/11time	09:23:11forward acquisition time	60.00reverse acquisition time	0.00gamma	496.2192k internal	0.2299k external	0.2299temperature offset calibration	0.9969default loss term (dB/km)	0.3790temperature slope calibration	1.0000multiplexer offset coefficient	1.0000multiplexer slope coefficient	1.0000fibre end	0.00T internal ref (°C)	34.56T ext. ref 1 (°C)	0.09T ext. ref 2 (°C)	31.54length (m)	temperature (°C)	Stokes	anti-Stokes-747.200	800.000	0.041	0.147
-746.185	800.000	-0.102	0.365
-745.171	-39.071	0.151	-0.081
-744.156	-83.307	-0.245	0.080
-743.142	-200.000	0.055	0.469
-742.127	-124.775	0.236	0.037
-741.112	-54.328	0.160	-0.074
-740.098	-200.000	-0.000	0.115
-739.083	-106.814	0.401	-0.091
-738.069	149.563	-0.220	0.305
-737.054	542.850	-0.066	-0.161
-736.039	434.818	0.157	0.347
-735.025	160.472	0.153	0.217
-734.010	-53.567	-0.398	0.186
-732.996	-2.592	-0.371	0.265
-731.981	-88.251	-0.489	-0.149
-730.966	19.831	-0.113	-0.093
-729.952	-200.000	0.072	0.339
-728.937	148.848	-0.031	0.043
-727.923	8.602	0.259	0.199
-726.908	-200.000	0.003	0.307
-725.894	-68.021	-0.092	0.037
-724.879	-25.588	0.330	0.199
-723.864	-109.159	-0.239	-0.052
-722.850	-9.658	-0.067	0.045
-721.835	-110.004	-0.257	-0.055
-720.821	55.959	0.089	-0.088
-719.806	-130.655	-0.305	-0.042
-718.791	-200.000	-0.030	-0.352
-717.777	417.756	-0.038	-0.082
-716.762	-44.187	-0.184	-0.094
-715.748	715.586	-0.090	-0.244
-714.733	800.000	-0.054	0.171
-713.718	123.184	0.071	0.091
-712.704	-200.000	-0.052	-0.379
-711.689	398.040	0.147	-0.313
-710.675	5.317	-0.158	-0.119
-709.660	-200.000	0.001	-0.144
-708.645	-55.808	-0.149	-0.068
-707.631	-200.000	0.006	-0.058
-706.616	82.726	-0.109	0.120
-705.602	245.243	-0.179	-0.307
-704.587	484.801	0.135	0.312
-703.572	800.000	-0.055	0.224
-702.558	75.523	-0.111	-0.120
-701.543	-173.399	-0.322	0.010
-700.529	17.065	-0.224	-0.181
-699.514	-139.917	0.145	-0.016
-698.499	97.819	-0.148	0.174
-697.485	-46.253	-0.106	0.053
-696.470	38.015	-0.235	-0.213
-695.456	-68.732	0.052	0.020
-694.441	-105.345	-0.399	0.093
-693.426	82.733	0.187	-0.207
-692.412	552.153	-0.057	-0.138
-691.397	-200.000	-0.016	0.127
-690.383	80.815	0.028	-0.031
-689.368	-161.999	0.156	-0.008
-688.354	102.116	-0.190	0.225
-687.339	153.400	-0.262	0.365
-686.324	43.075	-0.067	-0.063
-685.310	-121.889	-0.094	0.016
-684.295	16.919	-0.148	0.120
-683.281	23.940	-0.095	0.080
-682.266	593.115	0.111	0.278
-681.251	76.063	0.072	0.077
-680.237	64.846	-0.128	-0.132
-679.222	-47.048	-0.359	-0.178
-678.208	120.512	-0.077	-0.098
-677.193	-55.571	0.132	0.060
-676.178	-189.848	-0.134	0.002
-675.164	-200.000	-0.060	-0.312
-674.149	468.534	-0.059	-0.136
-673.135	-50.316	0.295	-0.142
-672.120	23.779	-0.104	-0.087
-671.105	131.351	0.177	-0.231
-670.091	-111.510	0.271	-0.056
-669.076	-153.990	-0.403	-0.028
-668.062	-27.975	0.589	0.347
-667.047	-68.120	-0.154	0.061
-666.032	390.933	0.071	-0.150
-665.018	277.814	-0.135	-0.244
-664.003	-115.498	0.115	-0.022
-662.989	-23.174	-0.479	0.293
-661.974	65.952	-0.049	0.051
-660.959	-25.335	-0.257	-0.155
-659.945	-25.424	0.263	0.158
-658.930	142.752	-0.151	-0.204
-657.916	-85.084	0.193	0.062
-656.901	-121.222	-0.111	-0.019
-655.886	-193.738	0.058	0.001
-654.872	-120.221	0.221	-0.038
-653.857	764.271	-0.034	0.095
-652.843	642.482	-0.015	0.038
-651.828	-131.403	0.562	-0.075
-650.814	113.313	-0.057	0.071
-649.799	800.000	-0.107	0.319
-648.784	768.519	-0.146	0.405
-647.770	-200.000	-0.005	-0.272
-646.755	-103.908	-0.212	-0.050
-645.741	-189.313	-0.674	0.008
-644.726	502.461	0.081	-0.190
-643.711	-200.000	0.003	-0.012
-642.697	31.940	-0.150	0.131
-641.682	-24.292	0.171	-0.104
-640.668	-69.523	-0.300	-0.117
-639.653	-137.234	-0.348	0.040
-638.638	-200.000	-0.028	0.361
-637.624	-92.997	-0.032	-0.009
-636.609	32.206	-0.052	-0.046
-635.595	35.715	-0.089	-0.080
-634.580	-200.000	-0.028	-0.338
-633.565	-200.000	0.011	-0.111
-632.551	-200.000	-0.017	-0.227
-631.536	-89.989	-0.161	-0.048
-630.522	-158.450	0.108	0.006
-629.507	800.000	0.107	-0.303
-628.492	765.924	-0.160	-0.443
-627.478	94.208	0.137	0.158
-626.463	253.952	-0.110	0.191
-625.449	-173.517	-0.071	-0.002
-624.434	90.863	0.149	0.170
-623.419	800.000	-0.090	0.259
-622.405	207.767	-0.150	0.238
-621.390	-62.107	-0.083	-0.035
-620.376	-15.840	-0.186	-0.121
-619.361	317.684	0.184	-0.354
-618.346	-128.786	0.195	0.028
-617.332	24.845	0.054	-0.045
-616.317	-177.253	-0.288	0.007
-615.303	22.202	0.054	0.045
-614.288	8.068	-0.280	-0.213
-613.273	-132.160	-0.080	0.011
-612.259	-97.455	-0.546	0.144
-611.244	800.000	-0.069	-0.304
-610.230	-74.709	0.166	0.061
-609.215	-5.859	-0.250	0.174
-608.201	303.690	-0.130	-0.245
-607.186	-162.890	0.095	-0.005
-606.171	-133.268	-0.205	0.026
-605.157	800.000	-0.046	-0.190
-604.142	-67.122	0.213	-0.085
-603.128	-34.644	0.287	0.159
-602.113	-200.000	0.051	0.336
-601.098	-9.375	0.120	-0.081
-600.084	75.602	0.139	0.149
-599.069	-178.396	-0.456	-0.011
-598.055	-75.551	0.079	0.029
-597.040	502.005	0.065	-0.153
-596.025	-67.240	-0.094	0.038
-595.011	-146.655	0.205	0.018
-593.996	-200.000	0.060	-0.301
-592.982	11.295	-0.315	-0.245
-591.967	214.862	-0.107	0.172
-590.952	-200.000	-0.002	-0.169
-589.938	82.466	-0.396	-0.436
-588.923	-77.661	0.323	0.113
-587.909	111.740	0.139	0.170
-586.894	37.104	0.114	-0.102
-585.879	-10.963	0.212	0.142
-584.865	-151.670	-0.132	-0.010
-583.850	800.000	-0.127	0.376
-582.836	-135.723	0.164	-0.020
-581.821	144.629	0.186	-0.252
-580.806	-200.000	-0.006	0.042
-579.792	-102.306	0.170	-0.041
-578.777	623.501	0.051	-0.131
-577.763	169.312	0.208	-0.301
-576.748	100.387	-0.195	-0.230
-575.733	-50.913	0.269	0.128
-574.719	-79.006	-0.308	0.106
-573.704	800.000	-0.034	0.119
-572.690	-106.515	-0.084	0.019
-571.675	-200.000	-0.000	0.072
-570.661	-143.452	0.232	-0.023
-569.646	98.135	-0.146	-0.171
-568.631	-96.704	-0.270	0.072
-567.617	-154.005	0.460	0.032
-566.602	440.052	-0.070	0.156
-565.588	-138.281	0.183	0.020
-564.573	-74.344	-0.354	-0.129
-563.558	-200.000	-0.004	-0.255
-562.544	162.982	0.053	0.075
-561.529	-200.000	-0.068	-0.366
-560.515	180.985	-0.130	0.193
-559.500	343.157	0.280	0.556
-558.485	184.384	-0.177	-0.266
-557.471	62.725	0.141	-0.143
-556.456	-30.061	0.145	0.084
-555.442	-200.000	-0.048	0.249
-554.427	-98.475	0.515	-0.133
-553.412	-19.914	0.173	-0.108
-552.398	16.247	0.241	-0.193
-551.383	-124.280	-0.418	0.066
-550.369	-200.000	0.061	0.282
-549.354	-200.000	0.003	-0.153
-548.339	250.391	-0.257	-0.442
-547.325	658.648	-0.176	-0.458
-546.310	41.979	0.023	-0.021
-545.296	-28.446	-0.118	-0.069
-544.281	68.903	0.164	0.171
-543.266	-93.373	-0.270	0.076
-542.252	-43.513	0.266	-0.136
-541.237	10.664	0.047	0.036
-540.223	-22.086	-0.260	0.160
-539.208	106.438	0.171	0.205
-538.193	-200.000	0.001	-0.147
-537.179	99.489	-0.109	-0.128
-536.164	229.499	-0.161	-0.266
-535.150	-144.872	-0.053	0.005
-534.135	595.932	0.028	0.071
-533.121	-7.178	0.185	-0.127
-532.106	-13.814	-0.040	-0.026
-531.091	-148.530	0.344	0.028
-530.077	157.650	-0.162	0.227
-529.062	-10.731	-0.310	0.207
-528.048	-120.699	-0.139	-0.024
-527.033	-33.549	0.146	-0.081
-526.018	800.000	-0.061	0.201
-525.004	-161.103	0.213	0.011
-523.989	-200.000	-0.019	0.115
-522.975	-200.000	-0.029	-0.240
-521.960	76.006	-0.099	-0.106
-520.945	-110.642	0.141	-0.030
-519.931	107.614	0.089	-0.107
-518.916	0.359	0.107	0.077
-517.902	-5.471	0.268	-0.186
-516.887	-68.693	0.168	-0.066
-515.872	-21.714	-0.074	0.045
-514.858	-88.511	-0.214	-0.064
-513.843	-39.396	0.258	0.137
-512.829	-200.000	-0.006	-0.191
-511.814	97.124	-0.205	-0.237
-510.799	800.000	0.085	0.288
-509.785	130.736	0.127	0.164
-508.770	-108.801	0.174	0.038
-507.756	77.566	0.121	0.130
-506.741	-79.750	-0.523	-0.178
-505.726	434.753	-0.099	-0.218
-504.712	-92.906	-0.058	0.016
-503.697	-137.574	-0.355	0.040
-502.683	-200.000	0.003	0.092
-501.668	513.856	0.053	0.125
-500.653	-135.314	0.443	0.054
-499.639	-87.081	0.425	-0.131
-498.624	-14.245	-0.430	0.280
-497.610	-156.687	-0.089	-0.006
-496.595	-72.420	-0.289	0.108
-495.581	201.278	-0.100	0.155
-494.566	-56.894	-0.387	0.173
-493.551	174.081	0.271	0.396
-492.537	-27.828	-0.212	0.124
-491.522	604.906	-0.030	0.074
-490.508	-200.000	-0.037	-0.204
-489.493	-200.000	-0.000	-0.293
-488.478	-71.588	-0.291	-0.110
-487.464	-38.854	-0.505	0.269
-486.449	-28.607	-0.250	-0.145
-485.435	6.855	0.384	0.289
-484.420	-130.100	0.325	-0.045
-483.405	-200.000	-0.014	-0.200
-482.391	-138.885	0.215	-0.024
-481.376	368.203	0.162	-0.330
-480.362	247.345	-0.095	-0.162
-479.347	800.000	-0.059	0.182
-478.332	-200.000	0.107	0.626
-477.318	131.852	-0.282	0.367
-476.303	-200.000	0.006	0.272
-475.289	-45.694	0.226	-0.113
-474.274	-200.000	-0.006	0.170
-473.259	-117.570	-0.277	-0.051
-472.245	182.950	-0.117	-0.175
-471.230	139.702	-0.111	-0.148
-470.216	219.571	-0.232	-0.374
-469.201	-45.157	0.351	0.176
-468.186	685.834	0.065	0.170
-467.172	-118.411	-0.113	-0.020
-466.157	196.280	0.079	-0.121
-465.143	-132.183	-0.214	-0.028
-464.128	-52.621	-0.167	-0.078
-463.113	-114.934	-0.041	0.008
-462.099	7.064	0.216	-0.163
-461.084	95.544	0.089	0.102
-460.070	-3.250	0.026	0.019
-459.055	745.238	0.033	0.090
-458.040	161.110	0.074	-0.105
-457.026	370.688	-0.090	-0.185
-456.011	-31.288	0.080	-0.045
-454.997	-120.773	0.180	-0.031
-453.982	-200.000	-0.132	-0.000
-452.968	-165.958	0.125	0.005
-451.953	-19.469	0.056	-0.035
-450.938	800.000	0.046	0.172
-449.924	-200.000	0.065	-0.333
-448.909	-29.732	0.277	0.159
-447.895	-200.000	-0.028	0.183
-446.880	-200.000	-0.003	0.056
-445.865	-78.038	-0.136	-0.047
-444.851	-89.675	-0.159	-0.047
-443.836	-56.544	0.134	0.060
-442.822	531.583	0.090	0.214
-441.807	-47.982	-0.348	-0.170
-440.792	-57.337	-0.104	0.046
-439.778	-134.550	-0.159	0.020
-438.763	476.225	0.116	0.264
-437.749	-86.775	-0.051	0.016
-436.734	-200.000	-0.012	-0.113
-435.719	244.562	0.183	0.310
-434.705	-200.000	0.016	0.104
-433.690	-4.109	0.198	0.138
-432.676	-78.412	-0.133	-0.046
-431.661	-200.000	-0.017	0.174
-430.646	118.511	0.148	0.184
-429.632	422.083	-0.018	-0.040
-428.617	218.516	-0.193	0.311
-427.603	-62.925	0.154	0.064
-426.588	-200.000	0.014	-0.080
-425.573	179.493	-0.163	-0.241
-424.559	-26.227	0.093	-0.055
-423.544	194.979	0.050	0.076
-422.530	800.000	-0.065	-0.272
-421.515	35.019	0.164	-0.144
-420.500	-59.180	0.227	0.099
-419.486	800.000	-0.107	-0.306
-418.471	-56.362	0.255	0.114
-417.457	800.000	-0.068	0.204
-416.442	-10.451	0.133	-0.089
-415.428	78.501	-0.063	0.068
-414.413	800.000	-0.058	-0.180
-413.398	-200.000	0.010	0.412
-412.384	654.911	0.155	0.400
-411.369	-98.923	0.107	-0.027
-410.355	193.315	-0.126	-0.192
-409.340	-200.000	0.007	-0.084
-408.325	269.788	0.078	-0.137
-407.311	-70.651	0.276	-0.105
-406.296	-106.609	-0.284	0.064
-405.282	369.146	0.065	0.133
-404.267	-200.000	-0.054	0.251
-403.252	96.940	-0.109	-0.126
-402.238	-50.808	0.334	-0.158
-401.223	800.000	0.048	-0.182
-400.209	-200.000	0.010	-0.151
-399.194	477.332	-0.065	-0.148
-398.179	594.811	0.167	-0.416
-397.165	-133.780	-0.575	-0.072
-396.150	120.018	-0.206	-0.258
-395.136	-78.145	-0.216	0.075
-394.121	354.636	0.022	0.044
-393.106	-75.234	0.166	-0.060
-392.092	-91.590	0.185	-0.053
-391.077	-76.725	0.240	-0.085
-390.063	361.843	-0.103	-0.207
-389.048	-51.766	-0.081	-0.038
-388.033	-200.000	0.006	-0.126
-387.019	155.207	0.121	-0.167
-386.004	-193.051	-0.060	-0.001
-384.990	-181.152	0.141	-0.003
-383.975	-200.000	-0.019	-0.278
-382.960	800.000	-0.043	-0.128
-381.946	147.589	-0.039	0.053
-380.931	554.806	-0.089	0.216
-379.917	-133.098	-0.142	0.018
-378.902	60.218	0.075	-0.075
-377.888	-143.828	0.173	-0.016
-376.873	-93.778	0.193	-0.054
-375.858	355.318	0.140	0.281
-374.844	-79.709	-0.136	0.046
-373.829	-200.000	-0.009	0.313
-372.815	-200.000	-0.062	0.424
-371.800	18.686	0.207	0.167
-370.785	-192.348	-0.312	0.003
-369.771	-5.905	0.122	0.084
-368.756	-200.000	0.022	-0.157
-367.742	-85.338	-0.099	-0.031
-366.727	800.000	-0.092	0.257
-365.712	14.387	0.266	0.208
-364.698	-7.877	0.400	0.272
-363.683	800.000	-0.107	0.406
-362.669	76.312	-0.230	-0.245
-361.654	-132.344	-0.184	0.024
-360.639	-72.876	0.121	0.045
-359.625	62.321	-0.411	-0.413
-358.610	44.827	0.130	-0.120
-357.596	-200.000	0.023	-0.308
-356.581	-130.377	-0.216	-0.029
-355.566	-95.838	-0.177	0.047
-354.552	-61.511	-0.146	-0.062
-353.537	-200.000	0.001	-0.045
-352.523	800.000	-0.024	0.066
-351.508	246.122	-0.079	0.134
-350.493	-83.251	0.157	-0.051
-349.479	-115.338	-0.168	0.032
-348.464	-48.576	0.099	-0.048
-347.450	1.437	0.224	-0.162
-346.435	-200.000	0.032	-0.278
-345.420	-72.482	-0.326	-0.121
-344.406	-27.020	0.243	-0.142
-343.391	-120.379	0.309	0.053
-342.377	-145.442	0.115	0.010
-341.362	800.000	0.077	-0.237
-340.348	800.000	-0.022	-0.071
-339.333	-200.000	-0.009	0.258
-338.318	-135.821	-0.061	0.007
-337.304	307.581	-0.109	0.204
-336.289	-37.875	-0.160	0.086
-335.275	47.827	-0.122	-0.115
-334.260	-28.711	-0.246	-0.142
-333.245	800.000	-0.032	0.131
-332.231	312.525	0.071	0.133
-331.216	-141.580	0.140	-0.014
-330.202	99.061	0.161	0.187
-329.187	-70.284	-0.285	0.109
-328.172	-156.085	0.390	0.025
-327.158	4.678	0.126	0.093
-326.143	364.658	-0.176	-0.355
-325.129	-44.243	0.378	-0.190
-324.114	262.744	-0.039	0.068
-323.099	71.891	-0.056	0.058
-322.085	-87.944	-0.356	-0.107
-321.070	-200.000	-0.023	0.130
-320.056	800.000	-0.065	0.257
-319.041	-1.588	0.396	0.280
-318.026	338.135	-0.185	-0.361
-317.012	-68.075	-0.069	-0.027
-315.997	240.915	0.083	0.139
-314.983	-66.847	0.029	-0.012
-313.968	800.000	-0.078	-0.252
-312.953	-131.037	0.176	0.024
-311.939	-96.602	0.301	-0.080
-310.924	100.784	-0.042	0.049
-309.910	245.490	0.063	-0.106
-308.895	-77.021	-0.150	-0.052
-307.880	-142.077	-0.097	-0.010
-306.866	-79.112	0.186	-0.063
-305.851	-107.385	-0.197	0.043
-304.837	-111.917	-0.194	-0.039
-303.822	66.949	0.091	0.093
-302.807	800.000	-0.054	0.219
-301.793	194.826	-0.127	0.193
-300.778	-119.706	0.454	0.079
-299.764	-111.473	0.214	0.044
-298.749	-99.189	-0.246	-0.062
-297.735	-158.159	-0.210	0.012
-296.720	3.925	0.202	-0.148
-295.705	54.653	-0.087	-0.084
-294.691	570.313	-0.009	0.023
-293.676	-74.094	0.297	0.108
-292.662	800.000	-0.098	0.272
-291.647	-140.966	-0.160	-0.016
-290.632	-12.861	0.366	-0.239
-289.618	-13.554	0.084	-0.054
-288.603	362.297	0.030	-0.060
-287.589	64.076	0.234	0.236
-286.574	6.079	-0.228	0.170
-285.559	-94.584	0.276	-0.075
-284.545	-85.503	-0.178	0.056
-283.530	-15.333	-0.059	0.038
-282.516	-200.000	0.013	-0.151
-281.501	29.808	-0.118	0.101
-280.486	121.939	0.058	0.072
-279.472	-46.478	0.241	-0.118
-278.457	9.548	-0.132	0.100
-277.443	101.258	-0.141	-0.165
-276.428	-155.429	-0.179	0.012
-275.413	-25.093	-0.218	-0.129
-274.399	90.343	-0.078	-0.088
-273.384	-28.224	0.108	0.063
-272.370	-67.302	-0.342	0.135
-271.355	438.180	-0.106	0.232
-270.340	-200.000	0.045	0.345
-269.326	-49.002	-0.194	-0.093
-268.311	-93.133	0.046	-0.013
-267.297	-32.479	0.156	-0.087
-266.282	-200.000	-0.035	-0.233
-265.267	800.000	0.101	0.393
-264.253	-36.286	0.315	-0.170
-263.238	-200.000	-0.018	-0.345
-262.224	532.537	0.082	0.195
-261.209	137.107	-0.311	0.407
-260.195	-101.652	0.110	-0.027
-259.180	-158.126	-0.182	0.011
-258.165	-200.000	-0.008	0.129
-257.151	-200.000	-0.067	0.304
-256.136	-90.729	0.339	0.098
-255.122	800.000	0.147	0.483
-254.107	-46.253	0.189	0.093
-253.092	344.988	0.177	-0.348
-252.078	-200.000	0.045	0.200
-251.063	-158.840	0.143	0.008
-250.049	691.393	-0.106	0.278
-249.034	-200.000	-0.040	0.191
-248.019	-157.929	0.192	-0.011
-247.005	343.759	0.063	-0.124
-245.990	-115.974	-0.177	0.033
-244.976	-109.587	0.217	-0.046
-243.961	290.717	0.187	-0.340
-242.946	37.773	-0.188	0.167
-241.932	-149.067	0.416	0.033
-240.917	-200.000	0.443	-0.001
-239.903	124.751	-0.160	-0.202
-238.888	-4.078	-0.171	-0.119
-237.873	-200.000	0.003	0.360
-236.859	-200.000	-0.059	0.323
-235.844	-65.532	0.143	-0.057
-234.830	-200.000	-0.022	-0.215
-233.815	800.000	-0.154	-0.448
-232.800	92.555	0.183	-0.207
-231.786	-21.705	-0.015	-0.009
-230.771	-200.000	0.020	-0.110
-229.757	-143.531	0.180	-0.017
-228.742	-171.842	-0.196	-0.006
-227.727	800.000	0.043	-0.166
-226.713	-107.139	0.521	-0.115
-225.698	-32.034	-0.083	-0.046
-224.684	-111.164	-0.220	0.045
-223.669	27.901	-0.128	-0.108
-222.655	-172.353	0.173	-0.006
-221.640	756.450	0.070	0.190
-220.625	265.009	-0.078	-0.136
-219.611	-156.794	0.264	-0.016
-218.596	-60.795	0.160	0.068
-217.582	-200.000	-0.020	-0.296
-216.567	114.044	-0.128	0.155
-215.552	141.071	-0.222	0.294
-214.538	483.436	0.043	-0.097
-213.523	152.166	0.087	-0.118
-212.509	5.172	-0.206	0.152
-211.494	48.909	-0.178	-0.167
-210.479	24.908	0.119	-0.099
-209.465	800.000	0.054	-0.178
-208.450	-190.896	0.284	-0.003
-207.436	-14.823	-0.187	0.120
-206.421	-17.322	-0.062	-0.039
-205.406	-98.606	-0.401	-0.102
-204.392	326.168	-0.054	0.104
-203.377	-200.000	-0.044	-0.496
-202.363	-69.489	0.168	-0.064
-201.348	800.000	0.055	-0.219
-200.333	800.000	0.061	0.264
-199.319	731.029	-0.159	0.424
-198.304	64.459	-0.128	-0.129
-197.290	-148.378	-0.204	-0.017
-196.275	97.470	0.141	0.162
-195.260	77.017	0.059	0.063
-194.246	47.101	0.213	-0.198
-193.231	554.690	0.081	0.195
-192.217	-200.000	0.039	-0.237
-191.202	-79.956	0.232	-0.078
-190.187	800.000	-0.054	0.182
-189.173	-200.000	0.008	0.296
-188.158	800.000	-0.056	0.199
-187.144	-167.858	-0.243	0.010
-186.129	355.692	0.074	0.147
-185.114	-154.532	-0.086	-0.006
-184.100	-149.623	-0.166	0.013
-183.085	-82.950	-0.385	-0.124
-182.071	-77.120	0.066	-0.023
-181.056	-112.327	0.476	0.095
-180.042	-45.737	0.039	-0.019
-179.027	-82.850	0.114	-0.037
-178.012	110.626	0.152	-0.183
-176.998	-32.800	-0.044	-0.024
-175.983	33.108	-0.211	-0.182
-174.969	-103.945	0.327	-0.076
-173.954	-25.272	0.116	0.068
-172.939	-39.232	-0.298	0.156
-171.925	800.000	0.040	0.112
-170.910	107.465	0.168	0.200
-169.896	-95.253	0.172	-0.046
-168.881	-145.568	-0.157	-0.014
-167.866	383.649	0.065	0.134
-166.852	-136.687	0.159	0.018
-165.837	322.757	0.095	0.180
-164.823	-66.009	0.305	0.122
-163.808	-200.000	-0.011	0.066
-162.793	-20.227	-0.140	0.086
-161.779	196.697	-0.184	-0.280
-160.764	471.759	0.202	-0.453
-159.750	-200.000	0.080	-0.417
-158.735	158.356	0.147	0.203
-157.720	-200.000	-0.012	0.126
-156.706	-25.058	-0.201	0.119
-155.691	316.058	0.177	0.333
-154.677	-121.457	-0.347	-0.058
-153.662	150.309	0.093	0.126
-152.647	800.000	-0.045	-0.163
-151.633	-17.262	0.207	0.130
-150.618	790.457	-0.015	-0.042
-149.604	800.000	-0.097	-0.348
-148.589	-39.527	-0.058	-0.030
-147.574	-21.629	-0.118	0.072
-146.560	-61.684	0.253	-0.106
-145.545	-88.921	0.211	0.062
-144.531	-20.910	0.326	0.199
-143.516	510.321	0.060	-0.139
-142.502	32.109	0.062	0.053
-141.487	-181.144	-0.142	0.003
-140.472	-156.714	0.510	-0.031
-139.458	-11.011	-0.061	0.040
-138.443	800.000	-0.058	-0.245
-137.429	486.902	0.146	-0.332
-136.414	800.000	-0.033	-0.123
-135.399	-42.448	-0.098	-0.050
-134.385	-153.531	0.100	-0.007
-133.370	-151.171	0.225	-0.017
-132.356	800.000	-0.081	0.312
-131.341	-200.000	0.010	0.280
-130.326	99.022	0.095	-0.109
-129.312	0.186	0.235	-0.167
-128.297	196.594	0.052	0.078
-127.283	80.495	0.184	0.197
-126.268	-140.407	0.329	0.034
-125.253	190.772	-0.062	-0.093
-124.239	-125.126	-0.125	-0.019
-123.224	-200.000	0.020	0.142
-122.210	55.104	0.019	0.018
