DTS Sentinel unit serial number:	SN413079Multiplexer serial number:	ORYXHardware model number:	OX4-SRSoftware version number:	ORYX F/W v4.00 Oryx Data Collector v3.7.2.0data status	okinstallation	princeton_trtdifferential loss correction	single-endedforward channel	channel 4reverse channel	N/Adate	2019/09/11time	10:07:11forward acquisition time	60.00reverse acquisition time	0.00gamma	496.2192k internal	0.2295k external	0.2295temperature offset calibration	0.9970default loss term (dB/km)	0.3790temperature slope calibration	1.0000multiplexer offset coefficient	1.0000multiplexer slope coefficient	1.0000fibre end	0.00T internal ref (°C)	35.59T ext. ref 1 (°C)	0.12T ext. ref 2 (°C)	33.21length (m)	temperature (°C)	Stokes	anti-Stokes-747.200	271.387	-0.179	-0.322
-746.185	-88.289	-0.042	-0.013
-745.171	-90.391	-0.138	0.041
-744.156	406.768	0.108	-0.233
-743.142	-200.000	-0.011	0.064
-742.127	214.749	-0.223	0.361
-741.112	39.101	-0.101	0.093
-740.098	82.999	0.195	0.217
-739.083	-50.459	0.064	0.031
-738.069	-60.732	0.482	-0.209
-737.054	800.000	-0.015	0.045
-736.039	-200.000	0.016	-0.301
-735.025	377.948	0.066	0.137
-734.010	-85.264	-0.341	0.109
-732.996	10.434	-0.061	0.048
-731.981	-200.000	-0.041	-0.286
-730.966	-4.032	0.078	0.055
-729.952	-17.819	-0.145	0.093
-728.937	143.418	-0.207	-0.282
-727.923	-199.357	-0.103	0.001
-726.908	-200.000	0.007	-0.156
-725.894	-200.000	-0.005	0.087
-724.879	-27.204	-0.270	0.161
-723.864	-200.000	-0.019	-0.217
-722.850	271.051	-0.033	0.059
-721.835	-31.197	-0.115	-0.066
-720.821	105.603	-0.214	-0.258
-719.806	-125.812	-0.300	-0.046
-718.791	-37.184	-0.269	0.147
-717.777	647.463	0.099	-0.259
-716.762	-91.092	0.116	0.034
-715.748	-107.903	0.267	0.059
-714.733	-200.000	0.020	0.210
-713.718	-4.433	-0.061	-0.043
-712.704	433.173	-0.063	0.139
-711.689	800.000	-0.068	0.296
-710.675	612.621	-0.004	0.011
-709.660	-200.000	-0.044	0.228
-708.645	-90.299	-0.142	-0.042
-707.631	-94.346	0.170	0.047
-706.616	-49.163	-0.183	-0.089
-705.602	-24.101	-0.321	-0.196
-704.587	-150.525	0.248	0.019
-703.572	-200.000	-0.016	-0.419
-702.558	-200.000	0.004	-0.216
-701.543	6.733	0.195	0.148
-700.529	74.637	0.193	0.208
-699.514	-200.000	-0.032	-0.261
-698.499	16.704	-0.216	-0.175
-697.485	-200.000	0.002	0.012
-696.470	132.616	-0.085	-0.112
-695.456	112.556	0.050	-0.061
-694.441	800.000	0.060	-0.178
-693.426	72.574	-0.119	-0.126
-692.412	-99.012	-0.280	-0.073
-691.397	-200.000	-0.008	-0.366
-690.383	212.629	0.139	0.223
-689.368	-66.723	0.066	-0.027
-688.354	3.952	-0.110	-0.082
-687.339	131.112	0.194	-0.254
-686.324	-78.387	-0.080	-0.028
-685.310	258.109	0.094	-0.165
-684.295	-114.975	-0.262	-0.051
-683.281	577.167	0.100	-0.250
-682.266	107.522	0.161	0.195
-681.251	-67.442	-0.335	-0.134
-680.237	-107.426	-0.200	0.045
-679.222	-200.000	0.015	0.075
-678.208	-182.484	0.094	0.002
-677.193	-200.000	0.011	-0.150
-676.178	-200.000	-0.014	-0.086
-675.164	-26.043	-0.151	-0.090
-674.149	-200.000	-0.053	-0.267
-673.135	393.975	0.124	-0.263
-672.120	-4.940	0.179	0.126
-671.105	40.399	-0.028	-0.026
-670.091	800.000	0.047	0.201
-669.076	-70.610	-0.153	0.059
-668.062	340.735	-0.123	-0.245
-667.047	-31.477	-0.245	0.141
-666.032	-101.244	-0.170	-0.042
-665.018	-42.360	-0.297	0.155
-664.003	-200.000	-0.002	-0.020
-662.989	-174.840	-0.270	-0.008
-661.974	416.251	-0.113	-0.246
-660.959	269.393	0.054	-0.096
-659.945	155.637	-0.178	0.250
-658.930	-200.000	0.016	-0.334
-657.916	800.000	0.088	-0.305
-656.901	43.110	-0.265	-0.246
-655.886	800.000	-0.048	-0.178
-654.872	322.478	0.155	-0.300
-653.857	-200.000	0.054	-0.269
-652.843	395.547	0.078	-0.165
-651.828	-56.728	0.119	0.054
-650.814	-200.000	-0.014	0.074
-649.799	-83.994	-0.315	0.102
-648.784	-92.324	0.144	-0.041
-647.770	189.258	0.162	0.248
-646.755	-178.767	0.442	-0.010
-645.741	83.101	0.224	-0.248
-644.726	-131.474	0.125	-0.017
-643.711	-94.114	-0.145	-0.040
-642.697	-55.000	-0.256	-0.117
-641.682	-165.880	-0.190	-0.008
-640.668	189.754	0.189	-0.289
-639.653	-200.000	-0.009	-0.066
-638.638	-17.135	0.110	-0.071
-637.624	800.000	0.150	-0.450
-636.609	-23.827	0.472	0.288
-635.595	-200.000	0.018	0.107
-634.580	499.736	0.133	0.313
-633.565	-200.000	-0.034	0.227
-632.551	-141.837	-0.162	-0.017
-631.536	37.805	-0.057	-0.051
-630.522	800.000	-0.039	-0.118
-629.507	-158.539	-0.444	0.026
-628.492	710.474	0.173	-0.465
-627.478	16.153	0.219	0.176
-626.463	126.700	0.268	-0.346
-625.449	800.000	-0.060	0.190
-624.434	83.547	-0.133	-0.148
-623.419	-126.056	-0.276	0.042
-622.405	78.992	0.082	-0.089
-621.390	172.876	-0.133	0.195
-620.376	38.576	0.266	0.241
-619.361	800.000	0.076	-0.232
-618.346	-116.675	-0.272	0.051
-617.332	-78.355	0.063	-0.022
-616.317	-99.679	0.307	0.078
-615.303	-200.000	0.009	-0.159
-614.288	-200.000	0.009	-0.199
-613.273	-7.868	0.076	0.052
-612.259	-86.966	-0.218	0.068
-611.244	147.757	0.049	0.067
-610.230	110.499	0.183	0.224
-609.215	-5.738	-0.229	0.159
-608.201	-6.488	-0.139	-0.096
-607.186	-21.979	0.115	-0.071
-606.171	-173.766	0.237	-0.007
-605.157	429.313	-0.129	-0.284
-604.142	-38.478	-0.121	0.065
-603.128	634.828	-0.111	-0.287
-602.113	292.407	0.071	-0.131
-601.098	-17.561	-0.125	0.080
-600.084	-1.036	-0.176	-0.127
-599.069	800.000	0.075	0.324
-598.055	-23.910	0.149	0.091
-597.040	-51.274	0.080	-0.038
-596.025	-25.300	-0.174	-0.105
-595.011	-69.762	0.171	-0.066
-593.996	81.423	-0.197	-0.217
-592.982	-98.868	0.373	-0.096
-591.967	-67.462	0.266	0.106
-590.952	99.351	0.120	0.141
-589.938	-101.995	0.221	0.054
-588.923	-55.039	-0.141	-0.065
-587.909	405.875	0.093	-0.198
-586.894	-200.000	0.066	0.444
-585.879	-30.220	0.090	0.052
-584.865	-109.258	0.192	0.041
-583.850	-200.000	0.029	-0.251
-582.836	15.692	0.034	-0.027
-581.821	29.210	-0.179	0.154
-580.806	-158.102	0.301	-0.018
-579.792	71.591	-0.166	0.175
-578.777	-140.799	0.208	0.022
-577.763	-200.000	0.046	-0.328
-576.748	47.087	-0.043	0.040
-575.733	-200.000	0.021	-0.107
-574.719	-88.473	-0.051	-0.016
-573.704	51.470	0.078	-0.075
-572.690	-24.815	-0.468	-0.282
-571.675	-54.843	-0.086	-0.039
-570.661	-27.572	-0.334	0.197
-569.646	302.402	-0.012	0.022
-568.631	800.000	-0.057	-0.202
-567.617	-135.636	-0.413	0.050
-566.602	198.933	0.083	0.129
-565.588	-148.939	-0.354	-0.029
-564.573	175.377	0.148	0.218
-563.558	39.294	0.212	-0.192
-562.544	800.000	-0.085	-0.333
-561.529	800.000	-0.092	-0.271
-560.515	-52.461	-0.297	-0.139
-559.500	-200.000	-0.010	-0.099
-558.485	180.750	-0.175	0.261
-557.471	-151.489	-0.142	-0.011
-556.456	-138.325	0.377	0.042
-555.442	-11.048	0.220	0.148
-554.427	-200.000	0.026	0.304
-553.412	325.517	0.023	0.044
-552.398	-48.735	0.012	-0.006
-551.383	-108.198	-0.245	-0.054
-550.369	800.000	-0.016	0.052
-549.354	313.451	-0.122	-0.232
-548.339	362.048	0.074	0.151
-547.325	85.380	0.144	-0.160
-546.310	421.981	-0.062	0.134
-545.296	229.229	0.120	0.198
-544.281	800.000	0.101	-0.322
-543.266	272.188	-0.113	-0.202
-542.252	42.926	-0.049	0.045
-541.237	364.151	-0.226	0.462
-540.223	-114.574	0.182	0.035
-539.208	-154.711	-0.166	-0.011
-538.193	-111.739	-0.360	0.074
-537.179	4.511	-0.250	0.186
-536.164	-40.143	0.355	0.188
-535.150	-110.582	0.257	-0.054
-534.135	-200.000	-0.002	-0.023
-533.121	53.838	0.185	-0.180
-532.106	-200.000	0.213	-0.000
-531.091	-19.299	0.016	0.010
-530.077	-73.364	0.150	0.055
-529.062	515.176	-0.159	-0.376
-528.048	98.912	-0.062	-0.073
-527.033	-200.000	-0.003	-0.059
-526.018	254.264	-0.075	-0.131
-525.004	-44.205	0.220	-0.112
-523.989	86.362	-0.171	-0.190
-522.975	-200.000	-0.027	-0.174
-521.960	-200.000	0.025	0.134
-520.945	800.000	-0.022	-0.092
-519.931	253.430	0.062	-0.108
-518.916	-18.782	-0.341	0.215
-517.902	287.043	0.084	-0.155
-516.887	-200.000	-0.031	0.184
-515.872	74.807	0.071	-0.076
-514.858	38.168	-0.245	-0.221
-513.843	337.702	0.027	-0.052
-512.829	800.000	0.069	0.228
-511.814	232.111	0.113	0.188
-510.799	58.393	0.278	0.276
-509.785	-58.903	0.369	0.161
-508.770	-39.168	0.100	-0.053
-507.756	111.303	0.124	-0.151
-506.741	36.940	0.077	0.069
-505.726	61.237	0.312	0.314
-504.712	285.473	-0.057	0.105
-503.697	49.317	-0.161	-0.153
-502.683	-72.074	0.158	0.059
-501.668	-200.000	-0.045	0.270
-500.653	188.634	-0.187	-0.284
-499.639	65.695	-0.094	-0.097
-498.624	-130.355	0.161	-0.022
-497.610	187.895	-0.109	0.165
-496.595	-45.180	0.136	0.068
-495.581	-58.864	-0.460	0.201
-494.566	800.000	-0.084	-0.254
-493.551	800.000	-0.064	-0.213
-492.537	-17.783	-0.298	-0.190
-491.522	-200.000	0.009	-0.053
-490.508	-200.000	-0.056	-0.259
-489.493	-24.030	0.092	-0.056
-488.478	-36.864	-0.068	0.037
-487.464	-108.497	-0.096	-0.021
-486.449	-200.000	-0.042	-0.406
-485.435	86.100	0.082	-0.091
-484.420	570.469	-0.043	-0.106
-483.405	800.000	0.045	-0.134
-482.391	800.000	0.114	0.502
-481.376	800.000	0.051	0.152
-480.362	98.860	-0.127	-0.148
-479.347	-124.247	-0.124	0.020
-478.332	-189.889	-0.172	-0.002
-477.318	32.915	0.147	-0.129
-476.303	492.546	-0.093	0.217
-475.289	32.664	-0.228	-0.200
-474.274	-122.949	-0.212	0.035
-473.259	57.008	-0.154	-0.152
-472.245	107.146	-0.026	-0.031
-471.230	-200.000	-0.018	-0.245
-470.216	115.325	0.124	0.153
-469.201	-200.000	-0.005	-0.232
-468.186	-168.817	0.266	-0.010
-467.172	-158.985	-0.155	0.009
-466.157	-200.000	-0.042	-0.218
-465.143	11.967	-0.212	0.164
-464.128	205.346	-0.045	0.071
-463.113	-200.000	0.014	-0.157
-462.099	133.493	-0.086	0.113
-461.084	-200.000	0.005	-0.199
-460.070	-171.747	0.249	0.008
-459.055	-194.663	-0.094	-0.001
-458.040	-133.848	-0.166	-0.021
-457.026	72.817	0.179	-0.189
-456.011	-87.057	-0.406	0.125
-454.997	568.699	-0.118	0.290
-453.982	-119.636	0.522	0.091
-452.968	-102.934	-0.255	0.061
-451.953	31.479	-0.091	0.079
-450.938	-89.344	0.430	0.128
-449.924	5.566	0.372	0.278
-448.909	191.350	-0.118	0.179
-447.895	800.000	-0.097	-0.310
-446.880	-58.565	-0.226	-0.099
-445.865	-75.438	-0.224	0.081
-444.851	-200.000	-0.039	-0.378
-443.836	-59.028	0.162	0.071
-442.822	-6.883	0.094	-0.064
-441.807	-200.000	-0.006	0.104
-440.792	-93.526	0.147	0.041
-439.778	800.000	0.031	-0.117
-438.763	8.338	0.109	0.083
-437.749	-185.268	0.035	0.001
-436.734	302.565	0.091	0.170
-435.719	-115.154	0.040	-0.008
-434.705	-117.396	-0.465	-0.085
-433.690	-100.856	0.179	0.044
-432.676	-25.663	-0.401	-0.239
-431.661	80.714	0.346	-0.376
-430.646	20.463	0.359	-0.293
-429.632	-122.516	-0.385	0.063
-428.617	-189.590	0.394	0.005
-427.603	-53.148	-0.181	0.084
-426.588	137.674	-0.212	0.280
-425.573	33.269	0.059	0.051
-424.559	-200.000	0.002	-0.285
-423.544	-11.668	-0.237	-0.157
-422.530	-200.000	-0.012	-0.348
-421.515	-115.442	0.120	-0.023
-420.500	-68.875	0.319	-0.124
-419.486	-20.813	0.153	0.094
-418.471	-81.620	0.266	-0.088
-417.457	675.085	0.071	0.186
-416.442	-68.050	0.104	-0.041
-415.428	-113.904	-0.281	-0.055
-414.413	148.961	-0.239	-0.326
-413.398	407.410	0.022	0.048
-412.384	-77.405	0.156	-0.055
-411.369	-107.413	0.126	0.028
-410.355	34.609	0.171	0.150
-409.340	800.000	0.011	0.042
-408.325	175.007	-0.101	-0.147
-407.311	-50.449	0.160	-0.076
-406.296	115.613	0.135	-0.167
-405.282	-200.000	-0.003	-0.151
-404.267	-200.000	0.001	-0.171
-403.252	307.230	-0.113	-0.213
-402.238	61.448	-0.060	0.060
-401.223	800.000	0.064	0.210
-400.209	-200.000	0.060	0.297
-399.194	-82.782	-0.299	-0.098
-398.179	-186.010	0.220	-0.003
-397.165	-123.135	0.285	-0.046
-396.150	-200.000	-0.035	0.296
-395.136	-33.086	0.203	-0.113
-394.121	-4.271	-0.198	0.138
-393.106	-73.423	-0.210	-0.077
-392.092	-61.266	-0.207	-0.088
-391.077	-79.731	-0.135	0.046
-390.063	-200.000	0.031	0.188
-389.048	-200.000	-0.030	0.263
-388.033	74.302	-0.154	0.163
-387.019	-16.424	0.028	0.018
-386.004	21.750	-0.231	0.190
-384.990	205.494	-0.147	-0.231
-383.975	645.385	0.112	-0.288
-382.960	-33.328	0.131	-0.073
-381.946	195.106	0.035	0.053
-380.931	800.000	-0.022	-0.063
-379.917	800.000	0.040	-0.174
-378.902	172.587	0.175	0.254
-377.888	52.977	0.187	-0.180
-376.873	323.602	0.133	0.256
-375.858	1.212	-0.087	0.063
-374.844	-90.280	0.165	0.048
-373.829	-42.413	0.373	-0.192
-372.815	-7.790	-0.198	-0.134
-371.800	-108.983	-0.252	0.054
-370.785	-200.000	0.017	0.199
-369.771	-34.330	-0.241	0.133
-368.756	574.248	0.165	0.405
-367.742	8.096	0.078	-0.059
-366.727	-200.000	0.009	0.374
-365.712	7.878	0.050	-0.038
-364.698	131.600	-0.174	-0.225
-363.683	800.000	0.075	0.291
-362.669	-33.715	0.086	0.048
-361.654	-200.000	0.066	-0.352
-360.639	-192.775	-0.166	-0.002
-359.625	-45.612	0.093	-0.046
-358.610	160.086	-0.096	0.134
-357.596	176.851	0.275	-0.402
-356.581	800.000	0.070	-0.293
-355.566	45.445	-0.205	-0.190
-354.552	12.510	0.195	-0.152
-353.537	-0.044	0.171	0.122
-352.523	-200.000	0.002	0.025
-351.508	14.105	0.288	-0.226
-350.493	-29.889	-0.188	0.108
-349.479	-5.536	0.117	0.081
-348.464	800.000	0.036	-0.109
-347.450	-126.124	-0.215	-0.032
-346.435	-75.296	-0.117	-0.042
-345.420	238.769	0.092	-0.153
-344.406	-200.000	-0.056	0.365
-343.391	800.000	-0.033	-0.118
-342.377	-75.480	-0.418	0.150
-341.362	73.274	0.076	0.079
-340.348	619.031	-0.109	-0.276
-339.333	222.677	-0.080	-0.129
-338.318	-38.043	0.193	0.103
-337.304	80.380	0.067	0.073
-336.289	-1.851	-0.231	0.164
-335.275	-119.789	0.455	0.079
-334.260	130.167	-0.061	0.079
-333.245	55.075	-0.251	-0.244
-332.231	482.402	0.036	0.082
-331.216	-200.000	-0.013	0.108
-330.202	-200.000	0.004	0.049
-329.187	-104.454	0.279	-0.065
-328.172	-147.305	0.079	-0.007
-327.158	-164.045	-0.232	0.011
-326.143	445.383	0.090	0.198
-325.129	800.000	-0.091	-0.389
-324.114	-31.327	-0.210	-0.119
-323.099	-200.000	-0.064	0.481
-322.085	177.494	-0.065	0.095
-321.070	-200.000	-0.000	0.395
-320.056	-200.000	0.012	0.273
-319.041	-54.517	0.401	0.183
-318.026	-121.409	0.130	-0.022
-317.012	800.000	0.025	0.070
-315.997	1.724	-0.197	-0.143
-314.983	-25.801	0.097	0.057
-313.968	-185.438	0.094	0.001
-312.953	42.580	-0.062	0.057
-311.939	-34.056	0.325	-0.179
-310.924	140.976	-0.275	0.365
-309.910	282.544	0.102	0.184
-308.895	-6.109	0.112	0.077
-307.880	-200.000	0.025	-0.186
-306.866	46.399	-0.128	-0.119
-305.851	-25.449	0.222	0.132
-304.837	513.835	-0.204	0.477
-303.822	-32.997	-0.219	-0.122
-302.807	800.000	-0.032	0.097
-301.793	212.752	-0.310	0.491
-300.778	-72.395	-0.387	-0.144
-299.764	-89.697	-0.137	0.040
-298.749	5.254	-0.095	0.071
-297.735	-59.144	-0.423	0.183
-296.720	-200.000	-0.004	0.095
-295.705	-48.240	0.151	0.073
-294.691	-141.969	0.209	-0.021
-293.676	800.000	-0.059	0.209
-292.662	-91.417	-0.341	0.098
-291.647	-200.000	0.032	0.216
-290.632	401.588	0.087	-0.183
-289.618	6.408	-0.081	0.060
-288.603	-141.469	-0.082	0.008
-287.589	-1.710	-0.119	-0.084
-286.574	72.190	0.198	-0.207
-285.559	152.488	0.087	0.120
-284.545	14.354	0.132	-0.103
-283.530	210.610	-0.056	0.088
-282.516	800.000	-0.117	-0.462
-281.501	-1.849	-0.201	0.142
-280.486	-200.000	-0.001	0.023
-279.472	-65.709	0.179	0.072
-278.457	-125.768	-0.150	0.023
-277.443	-107.833	0.328	-0.072
-276.428	24.407	0.248	-0.205
-275.413	333.645	0.081	0.156
-274.399	800.000	-0.089	0.256
-273.384	138.583	-0.173	-0.228
-272.370	-77.842	-0.315	0.109
-271.355	83.775	-0.346	-0.379
-270.340	196.179	-0.135	0.206
-269.326	-2.146	0.050	0.035
-268.311	114.075	0.064	0.079
-267.297	-1.661	0.340	0.240
-266.282	220.011	-0.050	-0.081
-265.267	42.752	0.210	0.192
-264.253	354.995	0.040	-0.080
-263.238	-200.000	0.046	0.327
-262.224	800.000	0.021	0.067
-261.209	205.715	-0.197	-0.307
-260.195	-91.278	-0.173	0.050
-259.180	-126.940	0.216	-0.032
-258.165	72.659	-0.295	0.308
-257.151	26.430	0.139	-0.117
-256.136	23.817	0.111	0.092
-255.122	51.453	-0.112	-0.107
-254.107	-200.000	0.071	-0.446
-253.092	176.768	0.140	-0.205
-252.078	-69.399	0.296	-0.114
-251.063	5.493	-0.137	-0.102
-250.049	800.000	-0.104	0.311
-249.034	103.125	-0.194	0.228
-248.019	-39.895	-0.331	-0.173
-247.005	-7.084	0.179	0.122
-245.990	-145.829	-0.146	-0.013
-244.976	-200.000	0.066	0.355
-243.961	236.152	-0.099	0.165
-242.946	415.630	-0.059	-0.125
-241.932	800.000	0.025	-0.078
-240.917	-200.000	-0.040	-0.239
-239.903	-0.168	-0.131	-0.093
-238.888	-198.528	-0.059	-0.000
-237.873	-71.126	0.324	0.122
-236.859	496.009	-0.057	0.131
-235.844	64.209	0.186	0.187
-234.830	-200.000	-0.014	-0.192
-233.815	382.640	-0.070	0.145
-232.800	757.193	-0.049	0.134
-231.786	-74.482	0.289	-0.105
-230.771	-200.000	-0.016	-0.188
-229.757	-139.504	-0.220	0.024
-228.742	180.765	-0.110	0.161
-227.727	-145.690	0.229	-0.020
-226.713	-155.486	-0.236	0.015
-225.698	49.294	0.182	-0.171
-224.684	133.505	0.177	0.230
-223.669	301.307	0.031	-0.057
-222.655	26.013	0.177	-0.148
-221.640	-156.433	-0.237	-0.015
-220.625	-7.585	-0.350	0.237
-219.611	154.691	0.160	0.220
-218.596	784.203	0.079	-0.217
-217.582	90.763	0.272	0.305
-216.567	-200.000	0.364	-0.001
-215.552	508.181	-0.109	-0.253
-214.538	-200.000	0.005	-0.451
-213.523	145.587	-0.064	-0.085
-212.509	4.854	0.055	0.041
-211.494	324.644	-0.093	0.177
-210.479	-200.000	0.025	-0.265
-209.465	-47.840	-0.111	-0.054
-208.450	-9.756	0.350	0.233
-207.436	-81.904	-0.219	0.072
-206.421	232.491	-0.155	0.255
-205.406	101.603	-0.084	-0.098
-204.392	-163.028	0.456	0.022
-203.377	305.161	0.005	-0.009
-202.363	105.081	-0.112	-0.132
-201.348	39.182	-0.188	0.168
-200.333	-132.770	-0.225	0.029
-199.319	-200.000	-0.067	0.326
-198.304	-117.135	0.181	-0.033
-197.290	174.427	0.072	-0.104
-196.275	-41.578	-0.137	0.070
-195.260	-65.960	0.146	0.058
-194.246	-146.286	0.241	-0.021
-193.231	-56.152	-0.120	-0.054
-192.217	608.422	0.101	0.252
-191.202	90.656	0.068	-0.076
-190.187	800.000	0.070	-0.230
-189.173	-73.836	0.202	-0.073
-188.158	-200.000	-0.041	0.199
-187.144	-200.000	0.005	-0.057
-186.129	-108.509	-0.463	-0.100
-185.114	-126.840	0.277	0.041
-184.100	800.000	0.056	-0.160
-183.085	-77.884	0.147	-0.051
-182.071	800.000	-0.047	0.163
-181.056	-84.240	-0.203	0.064
-180.042	113.917	-0.049	0.060
-179.027	-100.260	-0.170	-0.042
-178.012	241.743	-0.166	0.277
-176.998	-200.000	0.005	-0.155
-175.983	35.024	-0.164	-0.144
-174.969	-200.000	0.013	0.128
-173.954	29.746	-0.111	-0.095
-172.939	-200.000	0.018	0.236
-171.925	-200.000	-0.044	0.255
-170.910	-182.674	-0.228	0.004
-169.896	-106.124	0.336	-0.076
-168.881	327.769	-0.107	0.206
-167.866	237.425	-0.152	0.252
-166.852	16.408	0.054	0.043
-165.837	-200.000	-0.012	-0.080
-164.823	198.896	0.021	-0.032
-163.808	-15.011	0.050	0.032
-162.793	63.325	-0.178	0.178
-161.779	-86.763	-0.261	0.080
-160.764	800.000	0.007	0.028
-159.750	-119.764	0.175	-0.030
-158.735	648.895	0.124	0.317
-157.720	-200.000	0.037	-0.221
-156.706	11.880	0.236	-0.181
-155.691	-200.000	0.011	-0.093
-154.677	-38.939	0.111	-0.058
-153.662	-2.901	0.276	-0.192
-152.647	76.626	0.117	-0.124
-151.633	225.767	-0.140	-0.226
-150.618	194.900	0.176	-0.267
-149.604	64.489	0.344	0.346
-148.589	-11.037	0.055	0.036
-147.574	-116.842	0.343	0.063
-146.560	-114.137	0.310	0.060
-145.545	28.925	0.319	0.270
-144.531	-200.000	-0.017	0.354
-143.516	562.566	0.146	0.353
-142.502	800.000	0.112	0.340
-141.487	132.972	-0.186	0.239
-140.472	-34.890	-0.181	0.099
-139.458	252.585	-0.235	-0.401
-138.443	522.089	-0.140	-0.328
-137.429	-127.479	0.325	0.047
-136.414	-135.974	-0.265	0.031
-135.399	345.026	0.156	-0.306
-134.385	-195.683	-0.450	0.003
-133.370	72.777	0.117	0.121
-132.356	-120.975	0.294	0.049
-131.341	277.812	-0.119	-0.211
-130.326	-200.000	0.037	0.340
-129.312	-126.347	0.269	-0.040
-128.297	136.219	0.189	0.246
-127.283	-5.430	0.141	0.097
-126.268	-200.000	-0.013	-0.114
-125.253	-57.108	-0.399	0.175
-124.239	25.735	-0.106	0.088
-123.224	-56.789	-0.114	-0.050
-122.210	119.348	-0.187	-0.230
-121.195	34.246	0.294	0.256
