DTS Sentinel unit serial number:	SN413079Multiplexer serial number:	ORYXHardware model number:	OX4-SRSoftware version number:	ORYX F/W v4.00 Oryx Data Collector v3.7.2.0data status	okinstallation	princeton_trtdifferential loss correction	single-endedforward channel	channel 4reverse channel	N/Adate	2019/09/10time	16:27:11forward acquisition time	60.00reverse acquisition time	0.00gamma	496.2192k internal	0.2295k external	0.2295temperature offset calibration	0.9941default loss term (dB/km)	0.3790temperature slope calibration	1.0000multiplexer offset coefficient	1.0000multiplexer slope coefficient	1.0000fibre end	0.00T internal ref (°C)	38.12T ext. ref 1 (°C)	-0.28T ext. ref 2 (°C)	30.71length (m)	temperature (°C)	Stokes	anti-Stokes-747.200	649.100	0.137	0.358
-746.185	469.272	-0.092	0.212
-745.171	261.058	-0.085	0.151
-744.156	-200.000	0.043	0.249
-743.142	-94.063	0.367	0.103
-742.127	800.000	-0.113	0.503
-741.112	37.945	0.022	-0.020
-740.098	-200.000	-0.022	0.158
-739.083	-96.079	-0.288	0.078
-738.069	-87.411	-0.174	-0.054
-737.054	-92.516	0.194	0.056
-736.039	27.359	-0.330	-0.283
-735.025	-45.358	0.277	0.141
-734.010	800.000	0.110	-0.429
-732.996	-116.450	-0.301	-0.057
-731.981	-20.922	-0.416	0.261
-730.966	-106.769	0.206	-0.047
-729.952	45.271	-0.077	-0.073
-728.937	-199.146	-0.392	0.002
-727.923	-178.806	-0.202	0.005
-726.908	333.610	-0.104	0.205
-725.894	187.206	-0.270	-0.411
-724.879	302.985	0.118	-0.223
-723.864	522.226	0.083	0.198
-722.850	25.666	0.195	-0.166
-721.835	108.062	-0.062	-0.076
-720.821	-130.186	-0.339	0.047
-719.806	729.473	0.055	0.150
-718.791	-106.211	0.261	0.060
-717.777	599.148	-0.011	0.029
-716.762	-200.000	0.060	0.358
-715.748	334.738	-0.079	0.157
-714.733	-199.486	0.209	0.001
-713.718	-200.000	-0.215	-0.000
-712.704	-200.000	0.013	0.142
-711.689	104.327	-0.166	-0.200
-710.675	-200.000	0.023	-0.377
-709.660	-200.000	-0.022	-0.159
-708.645	7.293	0.106	0.081
-707.631	-200.000	0.010	-0.346
-706.616	-101.178	0.112	0.028
-705.602	-49.947	0.199	0.096
-704.587	-101.506	0.237	-0.059
-703.572	458.689	-0.065	0.149
-702.558	-200.000	0.006	0.086
-701.543	748.247	0.022	0.060
-700.529	-170.865	0.303	0.011
-699.514	-6.274	0.199	-0.139
-698.499	185.520	-0.159	-0.241
-697.485	474.454	-0.161	-0.370
-696.470	-200.000	-0.027	0.220
-695.456	-117.422	-0.228	0.042
-694.441	-44.991	-0.213	-0.108
-693.426	-128.571	0.226	-0.033
-692.412	800.000	0.026	0.080
-691.397	-66.351	-0.062	-0.025
-690.383	-121.627	0.292	-0.049
-689.368	-98.575	-0.182	0.047
-688.354	-68.121	0.393	-0.156
-687.339	155.186	0.067	0.094
-686.324	173.285	0.102	0.150
-685.310	51.846	-0.269	-0.261
-684.295	-65.539	0.207	0.085
-683.281	129.692	-0.313	0.408
-682.266	-182.657	0.148	0.003
-681.251	-200.000	-0.036	-0.270
-680.237	-110.290	-0.368	-0.078
-679.222	-136.126	0.323	0.039
-678.208	338.234	-0.018	0.035
-677.193	299.472	0.091	0.171
-676.178	148.897	0.086	0.119
-675.164	-14.397	0.326	-0.214
-674.149	800.000	-0.084	0.257
-673.135	-74.570	0.268	0.099
-672.120	190.304	0.173	0.265
-671.105	21.984	-0.256	-0.213
-670.091	45.866	0.315	0.297
-669.076	-81.491	0.131	0.044
-668.062	-126.159	-0.257	0.039
-667.047	17.157	-0.048	-0.039
-666.032	800.000	-0.073	0.294
-665.018	-100.560	-0.233	-0.059
-664.003	-171.578	0.204	0.007
-662.989	-135.264	-0.108	0.013
-661.974	-3.657	0.203	-0.144
-660.959	83.575	0.350	0.389
-659.945	-200.000	-0.028	-0.221
-658.930	800.000	0.114	-0.407
-657.916	212.717	0.130	0.210
-656.901	-75.590	-0.063	-0.023
-655.886	-132.137	-0.530	0.070
-654.872	68.419	0.097	0.102
-653.857	-62.774	0.081	0.034
-652.843	78.431	-0.100	0.109
-651.828	800.000	-0.110	0.486
-650.814	-200.000	0.030	-0.366
-649.799	-200.000	0.038	0.254
-648.784	85.952	0.280	-0.313
-647.770	-36.854	-0.300	-0.164
-646.755	-95.917	-0.332	-0.090
-645.741	-86.293	0.128	0.040
-644.726	361.908	0.077	0.158
-643.711	30.083	-0.079	-0.068
-642.697	800.000	-0.021	0.083
-641.682	-153.347	-0.221	-0.016
-640.668	288.154	-0.042	0.078
-639.653	-163.153	-0.346	0.017
-638.638	-200.000	-0.019	0.213
-637.624	72.747	-0.148	0.157
-636.609	-78.061	-0.231	-0.081
-635.595	394.303	0.245	-0.520
-634.580	800.000	0.141	0.428
-633.565	-113.392	-0.062	-0.012
-632.551	-50.934	-0.412	-0.197
-631.536	800.000	-0.066	0.207
-630.522	-41.421	0.321	0.168
-629.507	-5.983	-0.147	-0.102
-628.492	279.005	-0.152	0.275
-627.478	800.000	-0.045	-0.144
-626.463	46.291	-0.067	0.063
-625.449	-80.607	0.178	-0.060
-624.434	106.851	-0.155	-0.188
-623.419	-179.899	0.044	0.001
-622.405	43.692	0.082	0.076
-621.390	-172.281	-0.271	0.009
-620.376	-102.631	0.309	0.075
-619.361	-200.000	-0.019	0.123
-618.346	218.907	-0.153	-0.250
-617.332	153.806	0.205	0.286
-616.317	145.869	0.104	-0.141
-615.303	218.433	-0.097	-0.158
-614.288	159.198	0.060	-0.085
-613.273	143.799	0.147	-0.199
-612.259	589.612	-0.074	0.185
-611.244	-84.268	0.103	0.033
-610.230	-157.405	0.142	0.009
-609.215	-200.000	0.041	-0.227
-608.201	-20.349	-0.195	0.122
-607.186	279.886	0.145	0.263
-606.171	151.060	0.024	0.033
-605.157	59.963	0.190	0.191
-604.142	550.717	0.022	0.055
-603.128	-150.967	-0.304	0.023
-602.113	-200.000	0.274	0.000
-601.098	369.925	0.180	-0.371
-600.084	800.000	0.048	-0.162
-599.069	800.000	0.027	0.087
-598.055	4.470	0.020	0.015
-597.040	92.177	-0.068	0.078
-596.025	-81.665	0.236	0.079
-595.011	-177.701	-0.383	0.009
-593.996	44.450	0.367	-0.342
-592.982	291.539	0.133	-0.246
-591.967	-47.569	-0.215	0.106
-590.952	-41.951	0.163	-0.085
-589.938	72.361	0.141	0.149
-588.923	12.670	0.244	0.192
-587.909	-89.178	-0.048	-0.014
-586.894	-97.158	0.199	0.053
-585.879	371.671	-0.071	-0.147
-584.865	-166.651	0.389	-0.016
-583.850	41.326	0.247	-0.227
-582.836	98.476	-0.094	0.110
-581.821	-200.000	0.136	-0.711
-580.806	-16.910	0.251	0.161
-579.792	-200.000	0.003	-0.288
-578.777	-20.786	0.147	0.092
-577.763	-86.783	-0.146	-0.045
-576.748	-200.000	0.081	0.485
-575.733	-200.000	-0.010	0.176
-574.719	-113.186	-0.175	0.035
-573.704	122.995	-0.237	0.302
-572.690	800.000	0.016	0.072
-571.675	-97.564	0.424	-0.112
-570.661	179.312	0.076	0.113
-569.646	-61.111	0.225	-0.096
-568.631	-200.000	-0.034	-0.507
-567.617	-200.000	0.040	-0.222
-566.602	-200.000	0.033	0.165
-565.588	800.000	-0.054	-0.202
-564.573	-144.544	-0.080	-0.007
-563.558	778.501	-0.026	-0.072
-562.544	85.790	-0.138	0.154
-561.529	333.395	-0.108	-0.211
-560.515	102.405	0.063	0.074
-559.500	-19.912	0.236	0.148
-558.485	-200.000	-0.003	0.146
-557.471	93.714	-0.266	0.306
-556.456	349.572	-0.039	0.078
-555.442	194.218	-0.113	-0.174
-554.427	800.000	0.036	-0.115
-553.412	800.000	-0.063	-0.271
-552.398	-96.039	-0.289	-0.078
-551.383	-92.275	-0.322	-0.092
-550.369	369.574	-0.025	-0.052
-549.354	154.608	-0.093	-0.129
-548.339	-5.236	0.318	0.222
-547.325	163.124	-0.268	0.382
-546.310	-61.035	0.125	-0.054
-545.296	-70.015	0.084	0.033
-544.281	-72.688	-0.385	-0.144
-543.266	-200.000	-0.004	-0.132
-542.252	56.496	-0.149	0.147
-541.237	-200.000	0.006	-0.188
-540.223	800.000	-0.053	-0.222
-539.208	-169.870	0.133	0.005
-538.193	375.425	0.136	-0.281
-537.179	-34.706	-0.106	0.059
-536.164	-139.190	0.128	0.014
-535.150	-71.361	-0.252	0.096
-534.135	55.161	-0.050	0.049
-533.121	785.459	0.070	0.194
-532.106	-104.412	-0.271	0.064
-531.091	800.000	0.022	-0.093
-530.077	15.221	-0.144	0.115
-529.062	800.000	0.063	-0.222
-528.048	800.000	-0.006	0.017
-527.033	-200.000	0.023	0.168
-526.018	106.540	-0.206	0.248
-525.004	-165.215	0.155	0.007
-523.989	-200.000	-0.062	-0.287
-522.975	193.328	-0.192	0.294
-521.960	287.302	-0.165	0.302
-520.945	-200.000	-0.077	-0.391
-519.931	78.284	0.039	-0.042
-518.916	44.638	-0.092	0.086
-517.902	103.216	-0.293	0.348
-516.887	444.207	0.031	0.070
-515.872	444.788	-0.186	0.414
-514.858	-61.579	0.067	0.028
-513.843	338.378	0.091	0.179
-512.829	-10.983	0.039	0.026
-511.814	119.064	0.055	0.069
-510.799	-118.460	-0.250	0.045
-509.785	800.000	0.034	0.113
-508.770	-108.414	-0.368	-0.080
-507.756	-66.995	-0.119	-0.048
-506.741	-37.308	0.398	0.216
-505.726	-64.231	0.200	0.083
-504.712	65.221	0.109	-0.111
-503.697	-200.000	-0.068	-0.359
-502.683	-200.000	0.036	0.000
-501.668	-200.000	0.018	-0.199
-500.653	60.916	0.129	0.129
-499.639	36.711	0.082	0.073
-498.624	341.748	-0.057	0.112
-497.610	624.032	-0.105	0.268
-496.595	231.963	-0.108	-0.179
-495.581	-104.781	0.023	-0.005
-494.566	126.479	-0.156	-0.200
-493.551	-200.000	-0.009	0.043
-492.537	800.000	-0.085	-0.299
-491.522	-8.795	0.118	0.080
-490.508	-133.930	0.079	-0.010
-489.493	800.000	-0.108	-0.385
-488.478	176.497	0.127	-0.186
-487.464	-151.536	-0.264	-0.020
-486.449	-200.000	0.048	0.315
-485.435	-27.725	-0.051	0.030
-484.420	-200.000	-0.046	0.229
-483.405	-99.761	-0.245	0.062
-482.391	537.331	-0.118	0.284
-481.376	-200.000	-0.018	-0.171
-480.362	-150.375	0.225	-0.018
-479.347	-4.408	0.222	0.155
-478.332	-126.166	0.376	0.057
-477.318	165.296	0.079	0.113
-476.303	-200.000	-0.007	-0.088
-475.289	58.127	-0.194	-0.193
-474.274	-155.672	0.123	0.008
-473.259	-144.159	0.071	0.007
-472.245	-200.000	0.040	0.257
-471.230	-200.000	0.062	0.316
-470.216	-122.404	-0.358	0.059
-469.201	-71.189	0.291	0.111
-468.186	297.912	-0.158	0.294
-467.172	94.878	-0.036	-0.041
-466.157	145.368	0.203	0.275
-465.143	40.008	-0.160	0.145
-464.128	188.351	0.045	0.068
-463.113	800.000	-0.049	-0.163
-462.099	98.467	-0.107	-0.124
-461.084	-200.000	0.020	0.168
-460.070	800.000	0.149	-0.430
-459.055	258.131	-0.145	-0.253
-458.040	142.981	0.159	0.214
-457.026	800.000	-0.108	-0.307
-456.011	-89.777	0.155	-0.046
-454.997	-109.273	-0.211	-0.045
-453.982	-105.190	0.306	-0.071
-452.968	-72.168	0.290	-0.109
-451.953	800.000	0.066	-0.199
-450.938	95.044	0.095	0.109
-449.924	185.355	0.065	-0.097
-448.909	-103.589	0.195	0.046
-447.895	52.562	-0.396	0.383
-446.880	214.680	0.114	-0.183
-445.865	87.180	0.353	-0.394
-444.851	-200.000	0.012	0.197
-443.836	-49.007	0.339	-0.164
-442.822	-129.691	-0.501	-0.070
-441.807	-56.329	0.169	-0.076
-440.792	800.000	0.039	0.125
-439.778	56.507	-0.148	0.146
-438.763	-200.000	-0.047	0.290
-437.749	522.747	0.044	0.104
-436.734	-39.233	0.270	-0.143
-435.719	-200.000	0.016	-0.209
-434.705	-69.389	-0.473	0.183
-433.690	200.071	0.205	-0.318
-432.676	-200.000	0.008	-0.120
-431.661	-30.953	0.076	0.043
-430.646	-46.522	-0.245	-0.121
-429.632	-108.703	-0.137	-0.030
-428.617	-200.000	0.041	-0.222
-427.603	473.673	0.071	0.163
-426.588	244.384	-0.062	-0.105
-425.573	-38.028	0.182	0.098
-424.559	160.080	-0.154	0.216
-423.544	15.630	-0.110	0.087
-422.530	-200.000	-0.044	-0.227
-421.515	-120.060	0.066	-0.011
-420.500	800.000	-0.036	-0.151
-419.486	-100.958	0.169	0.042
-418.471	386.619	-0.105	-0.219
-417.457	800.000	0.008	-0.024
-416.442	-25.735	-0.324	0.193
-415.428	-127.350	-0.250	0.037
-414.413	256.610	0.135	-0.234
-413.398	-111.745	0.291	0.059
-412.384	7.913	0.230	-0.174
-411.369	22.898	-0.067	-0.055
-410.355	107.849	-0.404	-0.485
-409.340	-32.662	0.163	0.092
-408.325	-139.501	-0.152	-0.016
-407.311	272.396	-0.140	-0.250
-406.296	84.185	-0.200	0.221
-405.282	800.000	-0.077	-0.250
-404.267	-200.000	0.011	-0.233
-403.252	-84.983	-0.144	-0.045
-402.238	62.126	0.284	0.286
-401.223	15.713	-0.200	0.159
-400.209	240.422	0.103	0.173
-399.194	-162.389	-0.223	-0.011
-398.179	-200.000	0.042	-0.324
-397.165	424.845	-0.184	0.400
-396.150	-200.000	0.035	0.401
-395.136	212.569	-0.066	-0.105
-394.121	-69.051	-0.126	-0.049
-393.106	-53.544	0.045	0.021
-392.092	-76.930	-0.248	-0.087
-391.077	-72.594	0.286	0.106
-390.063	-200.000	0.025	-0.220
-389.048	47.625	0.308	-0.289
-388.033	-200.000	0.044	-0.361
-387.019	28.789	-0.344	0.293
-386.004	14.160	0.115	0.090
-384.990	245.290	-0.151	-0.256
-383.975	7.952	-0.204	0.155
-382.960	-68.728	-0.346	0.135
-381.946	120.768	-0.277	0.347
-380.931	528.384	-0.118	0.281
-379.917	295.891	0.061	-0.112
-378.902	-48.264	-0.196	0.095
-377.888	199.738	0.065	-0.101
-376.873	101.467	0.180	0.211
-375.858	-200.000	-0.001	0.160
-374.844	-18.375	0.133	0.083
-373.829	-134.462	0.240	-0.030
-372.815	242.821	-0.080	-0.135
-371.800	31.723	0.147	-0.128
-370.785	-200.000	-0.050	0.276
-369.771	65.207	0.287	0.292
-368.756	-147.943	0.630	-0.053
-367.742	-200.000	-0.041	-0.189
-366.727	800.000	-0.127	-0.378
-365.712	407.586	-0.040	-0.086
-364.698	-152.076	0.048	0.004
-363.683	800.000	-0.008	-0.032
-362.669	-98.201	-0.114	-0.029
-361.654	-200.000	-0.025	-0.113
-360.639	592.281	0.041	-0.102
-359.625	-19.112	0.080	-0.050
-358.610	-200.000	-0.004	-0.224
-357.596	-193.646	0.181	0.002
-356.581	381.728	0.070	0.145
-355.566	800.000	-0.059	-0.165
-354.552	292.830	-0.138	-0.254
-353.537	-200.000	0.014	-0.135
-352.523	-97.988	-0.089	-0.023
-351.508	687.274	-0.049	-0.128
-350.493	800.000	-0.039	0.124
-349.479	125.787	-0.207	0.263
-348.464	-200.000	0.074	-0.424
-347.450	32.965	0.262	-0.228
-346.435	-67.099	-0.120	0.048
-345.420	-86.078	-0.192	-0.060
-344.406	65.993	0.146	-0.149
-343.391	585.699	0.096	0.238
-342.377	-115.401	0.123	-0.023
-341.362	135.671	-0.085	0.111
-340.348	-200.000	0.009	0.396
-339.333	62.903	0.245	0.247
-338.318	10.081	-0.217	-0.166
-337.304	122.630	-0.232	-0.292
-336.289	-141.422	-0.251	-0.026
-335.275	800.000	0.070	0.304
-334.260	-30.375	-0.334	-0.191
-333.245	-75.128	-0.175	-0.063
-332.231	-57.217	0.095	0.042
-331.216	272.560	0.012	0.021
-330.202	-160.557	-0.110	0.006
-329.187	800.000	-0.048	0.136
-328.172	497.524	-0.037	-0.086
-327.158	669.985	0.014	-0.037
-326.143	-66.513	0.072	0.029
-325.129	-200.000	0.007	0.064
-324.114	169.970	0.112	-0.161
-323.099	543.906	-0.024	-0.059
-322.085	170.310	-0.164	-0.237
-321.070	41.838	-0.246	-0.225
-320.056	-156.499	-0.203	0.013
-319.041	-105.107	0.011	-0.002
-318.026	776.900	-0.068	0.188
-317.012	120.066	-0.076	0.095
-315.997	800.000	0.053	0.200
-314.983	270.685	-0.095	-0.168
-313.968	20.770	0.135	-0.110
-312.953	-200.000	-0.052	-0.385
-311.939	-85.996	-0.265	-0.082
-310.924	-85.994	-0.176	-0.055
-309.910	201.565	0.085	0.131
-308.895	-49.757	-0.253	-0.121
-307.880	800.000	0.014	-0.041
-306.866	-200.000	-0.001	0.371
-305.851	422.544	-0.177	0.382
-304.837	800.000	-0.051	0.163
-303.822	-200.000	0.027	0.182
-302.807	-115.519	0.106	-0.020
-301.793	476.982	0.122	-0.277
-300.778	358.977	0.072	-0.144
-299.764	175.185	0.186	0.271
-298.749	-128.439	0.333	0.048
-297.735	-90.651	0.189	-0.055
-296.720	-15.481	0.010	-0.006
-295.705	46.119	0.185	0.172
-294.691	-37.271	-0.206	0.111
-293.676	-154.844	-0.051	0.003
-292.662	20.124	0.344	0.279
-291.647	-10.034	-0.207	0.138
-290.632	800.000	0.078	-0.245
-289.618	-107.756	0.336	0.074
-288.603	-17.421	0.126	-0.080
-287.589	70.764	-0.069	0.072
-286.574	80.006	-0.193	-0.208
-285.559	-200.000	-0.007	-0.074
-284.545	314.415	0.210	0.398
-283.530	-1.920	-0.191	-0.135
-282.516	-58.188	-0.072	-0.032
-281.501	-99.629	-0.197	0.050
-280.486	-143.506	0.273	-0.026
-279.472	-195.477	-0.195	0.001
-278.457	-47.330	0.253	-0.124
-277.443	800.000	-0.048	0.185
-276.428	416.984	0.054	0.115
-275.413	-200.000	-0.049	0.307
-274.399	165.750	-0.071	0.100
-273.384	800.000	0.077	0.274
-272.370	-9.412	0.339	-0.227
-271.355	-184.145	0.211	0.004
-270.340	576.380	-0.031	-0.075
-269.326	34.645	-0.178	0.156
-268.311	-94.193	0.606	0.166
-267.297	147.193	-0.131	-0.177
-266.282	-101.027	0.347	0.085
-265.267	345.873	-0.063	0.124
-264.253	800.000	0.065	0.198
-263.238	-29.871	-0.393	-0.225
-262.224	-78.151	-0.204	0.070
-261.209	123.185	0.143	0.179
-260.195	-73.278	0.320	0.117
-259.180	-159.453	0.323	0.018
-258.165	525.476	0.057	-0.134
-257.151	154.735	-0.237	0.327
-256.136	-200.000	-0.021	0.178
-255.122	800.000	0.146	-0.578
-254.107	-115.818	0.268	-0.050
-253.092	800.000	-0.058	-0.188
-252.078	-52.459	-0.183	-0.085
-251.063	259.958	-0.037	-0.063
-250.049	-139.380	-0.242	-0.026
-249.034	136.117	0.076	0.100
-248.019	-74.424	-0.133	-0.048
-247.005	-6.176	-0.059	0.040
-245.990	-35.270	0.147	-0.080
-244.976	-43.299	-0.210	-0.107
-243.961	-50.430	0.296	-0.140
-242.946	-200.000	0.021	0.337
-241.932	403.757	-0.120	0.253
-240.917	703.076	0.049	0.131
-239.903	18.652	0.223	0.178
-238.888	18.975	-0.145	-0.116
-237.873	-107.741	0.111	-0.024
-236.859	-200.000	0.026	-0.192
-235.844	-74.408	0.192	0.069
-234.830	-76.254	-0.416	-0.147
-233.815	-68.260	0.187	-0.073
-232.800	310.958	0.086	0.161
-231.786	800.000	0.015	0.055
-230.771	-200.000	-0.002	-0.225
-229.757	800.000	0.028	0.095
-228.742	155.611	0.017	0.024
-227.727	455.781	0.098	-0.218
-226.713	7.914	-0.154	-0.115
-225.698	-117.839	-0.310	0.056
-224.684	568.894	0.121	0.294
-223.669	-82.570	0.019	0.006
-222.655	122.313	-0.145	0.181
-221.640	190.296	-0.199	-0.299
-220.625	27.653	0.328	-0.277
-219.611	-132.003	-0.054	-0.007
-218.596	-106.877	0.105	-0.023
-217.582	272.151	0.196	0.346
-216.567	308.435	-0.088	-0.164
-215.552	14.374	0.197	-0.154
-214.538	-12.106	0.226	0.148
-213.523	135.565	-0.169	0.221
-212.509	-200.000	0.007	-0.254
-211.494	-5.347	0.208	-0.143
-210.479	8.258	-0.158	-0.119
-209.465	-200.000	0.025	-0.139
-208.450	-38.278	0.195	-0.103
-207.436	-200.000	-0.011	-0.189
-206.421	-81.444	-0.202	-0.066
-205.406	-63.950	0.203	-0.083
-204.392	455.459	0.022	0.048
-203.377	68.810	-0.152	0.156
-202.363	152.832	-0.064	0.088
-201.348	653.714	0.099	-0.254
-200.333	117.836	-0.297	0.367
-199.319	534.279	-0.058	0.138
-198.304	-200.000	-0.014	-0.322
-197.290	-200.000	-0.008	-0.065
-196.275	800.000	0.097	0.332
-195.260	10.881	0.214	-0.164
-194.246	-200.000	-0.006	-0.125
-193.231	-41.923	-0.069	-0.036
-192.217	-87.139	0.072	0.022
-191.202	199.282	-0.079	-0.121
-190.187	143.785	0.130	-0.173
-189.173	135.861	0.074	0.097
-188.158	-200.000	-0.015	0.148
-187.144	174.134	-0.043	0.062
-186.129	-119.585	-0.277	-0.048
-185.114	-200.000	-0.037	0.165
-184.100	800.000	0.067	0.209
-183.085	-163.913	-0.215	-0.010
-182.071	48.914	0.273	0.257
-181.056	250.210	0.052	-0.088
-180.042	-200.000	-0.036	-0.171
-179.027	-74.602	0.118	-0.043
-178.012	-57.830	0.102	-0.045
-176.998	-57.591	-0.336	-0.147
-175.983	73.053	0.129	0.134
-174.969	-148.408	0.424	0.035
-173.954	-128.338	0.073	0.010
-172.939	10.982	0.233	0.178
-171.925	306.114	0.091	-0.169
-170.910	-60.495	0.125	-0.053
-169.896	-81.288	-0.019	-0.006
-168.881	56.330	-0.117	0.114
-167.866	-200.000	0.003	-0.110
-166.852	-200.000	-0.011	-0.243
-165.837	247.740	0.144	0.243
-164.823	11.103	-0.256	0.196
-163.808	102.178	-0.224	0.261
-162.793	-85.917	-0.149	0.046
-161.779	-113.084	-0.126	-0.025
-160.764	800.000	-0.043	0.130
-159.750	-99.148	0.138	-0.035
-158.735	516.103	0.069	-0.160
-157.720	-200.000	0.154	-0.000
-156.706	214.446	-0.056	-0.089
-155.691	-87.644	0.233	0.070
-154.677	174.858	0.124	0.180
-153.662	-200.000	-0.016	-0.094
-152.647	-59.964	-0.160	-0.068
-151.633	-45.906	-0.123	-0.061
-150.618	154.948	0.202	-0.278
-149.604	-22.206	-0.029	-0.018
-148.589	-200.000	-0.044	-0.275
-147.574	-107.502	0.310	-0.068
-146.560	121.139	-0.048	0.059
-145.545	64.617	-0.095	0.096
-144.531	-98.710	-0.081	0.021
-143.516	800.000	-0.025	-0.106
-142.502	-200.000	-0.007	0.452
-141.487	57.518	0.085	0.083
-140.472	406.889	-0.102	-0.216
-139.458	793.213	-0.044	-0.120
-138.443	285.170	-0.109	0.196
-137.429	-92.181	-0.019	0.005
-136.414	420.838	0.087	0.186
-135.399	-1.206	-0.020	-0.014
-134.385	72.616	-0.199	-0.207
-133.370	-111.550	-0.340	-0.069
-132.356	123.842	0.108	-0.136
-131.341	325.068	0.074	-0.142
-130.326	-95.159	0.552	-0.148
-129.312	-28.649	0.168	0.096
-128.297	109.675	0.058	-0.069
-127.283	301.738	0.071	0.131
-126.268	123.370	0.039	-0.049
-125.253	260.695	0.108	-0.186
-124.239	-62.148	-0.115	0.048
-123.224	405.906	0.140	0.294
-122.210	-135.183	0.222	-0.027
-121.195	597.688	-0.054	0.133
