DTS Sentinel unit serial number:	SN413079Multiplexer serial number:	ORYXHardware model number:	OX4-SRSoftware version number:	ORYX F/W v4.00 Oryx Data Collector v3.7.2.0data status	okinstallation	princeton_trtdifferential loss correction	single-endedforward channel	channel 4reverse channel	N/Adate	2019/09/11time	22:59:11forward acquisition time	60.00reverse acquisition time	0.00gamma	496.2192k internal	0.2308k external	0.2308temperature offset calibration	1.0075default loss term (dB/km)	0.3790temperature slope calibration	1.0000multiplexer offset coefficient	1.0000multiplexer slope coefficient	1.0000fibre end	0.00T internal ref (°C)	34.62T ext. ref 1 (°C)	1.79T ext. ref 2 (°C)	29.17length (m)	temperature (°C)	Stokes	anti-Stokes-747.200	-35.796	-0.526	0.289
-746.185	29.211	-0.188	0.162
-745.171	49.788	-0.138	0.132
-744.156	76.542	0.176	0.190
-743.142	-84.970	0.269	-0.086
-742.127	-161.400	-0.155	0.008
-741.112	800.000	-0.054	0.225
-740.098	-3.392	-0.412	0.292
-739.083	463.004	0.153	0.347
-738.069	171.600	-0.278	0.406
-737.054	-84.531	0.188	-0.060
-736.039	510.119	-0.045	-0.106
-735.025	800.000	0.043	-0.121
-734.010	-126.124	-0.176	0.027
-732.996	28.960	0.213	-0.184
-731.981	108.314	0.129	0.156
-730.966	-200.000	0.007	-0.239
-729.952	140.305	-0.140	-0.188
-728.937	-200.000	0.017	0.164
-727.923	-200.000	0.010	-0.047
-726.908	800.000	-0.088	-0.259
-725.894	-104.055	0.310	-0.073
-724.879	-51.126	-0.114	-0.054
-723.864	-109.688	-0.176	-0.038
-722.850	230.063	-0.179	-0.297
-721.835	159.553	0.052	-0.073
-720.821	-122.682	-0.254	-0.042
-719.806	-82.721	-0.054	-0.018
-718.791	-111.646	-0.235	0.048
-717.777	7.771	0.304	0.231
-716.762	207.984	-0.039	-0.062
-715.748	-169.575	-0.200	0.007
-714.733	79.966	-0.253	0.277
-713.718	800.000	0.062	-0.215
-712.704	-11.729	0.126	-0.084
-711.689	330.643	0.040	-0.078
-710.675	-45.380	0.439	-0.221
-709.660	370.885	-0.061	-0.126
-708.645	196.877	-0.088	-0.137
-707.631	206.149	0.112	0.177
-706.616	49.288	-0.243	-0.232
-705.602	160.176	0.157	-0.223
-704.587	-200.000	0.018	-0.497
-703.572	-14.549	-0.259	0.169
-702.558	-86.236	0.068	0.021
-701.543	-45.371	-0.029	0.015
-700.529	-200.000	0.012	-0.180
-699.514	-103.957	-0.148	0.035
-698.499	-200.000	-0.009	-0.054
-697.485	800.000	0.120	0.336
-696.470	74.600	-0.108	0.116
-695.456	204.781	-0.038	-0.060
-694.441	-84.013	-0.250	0.081
-693.426	247.176	0.147	0.251
-692.412	-87.478	0.078	0.024
-691.397	-175.234	0.254	0.007
-690.383	-119.015	-0.082	-0.015
-689.368	25.210	0.013	0.011
-688.354	-76.524	0.154	0.055
-687.339	265.545	0.054	-0.095
-686.324	488.042	-0.076	-0.177
-685.310	43.754	-0.169	0.157
-684.295	264.872	-0.134	-0.236
-683.281	-109.880	-0.201	-0.043
-682.266	-5.064	-0.067	0.047
-681.251	-65.605	-0.086	-0.035
-680.237	-27.223	-0.074	-0.044
-679.222	129.852	-0.175	0.227
-678.208	-10.454	0.132	-0.088
-677.193	-123.718	-0.176	0.028
-676.178	-12.096	-0.324	-0.215
-675.164	-179.488	-0.026	0.001
-674.149	439.332	0.052	0.115
-673.135	-118.164	-0.474	-0.086
-672.120	-200.000	-0.009	0.088
-671.105	-47.667	0.322	0.158
-670.091	-8.300	0.305	-0.208
-669.076	255.311	-0.095	0.165
-668.062	578.255	0.014	-0.034
-667.047	-57.184	-0.257	-0.115
-666.032	-57.897	-0.172	-0.076
-665.018	-46.776	-0.096	-0.047
-664.003	204.239	0.170	-0.268
-662.989	-200.000	-0.010	-0.176
-661.974	-153.514	-0.116	-0.008
-660.959	-95.881	0.187	-0.051
-659.945	-88.562	-0.143	0.043
-658.930	563.547	-0.024	-0.059
-657.916	-200.000	-0.007	0.211
-656.901	62.120	-0.166	-0.168
-655.886	-140.909	-0.060	0.006
-654.872	511.416	0.106	0.250
-653.857	15.958	-0.087	-0.069
-652.843	-119.790	0.188	-0.033
-651.828	-200.000	-0.025	0.222
-650.814	-90.097	-0.312	0.092
-649.799	-147.841	0.249	-0.021
-648.784	382.794	0.113	0.235
-647.770	-200.000	-0.000	0.009
-646.755	-144.121	0.267	-0.025
-645.741	-102.246	-0.301	-0.073
-644.726	-200.000	-0.001	0.246
-643.711	-79.853	-0.270	-0.092
-642.697	65.513	0.182	-0.186
-641.682	-152.350	0.175	0.013
-640.668	-200.000	-0.062	-0.379
-639.653	216.360	-0.096	0.155
-638.638	-200.000	0.023	0.205
-637.624	-119.711	0.385	-0.067
-636.609	-33.877	-0.360	0.201
-635.595	306.775	-0.051	-0.096
-634.580	702.385	0.015	-0.040
-633.565	-87.590	-0.325	0.099
-632.551	-200.000	0.042	0.546
-631.536	66.223	-0.114	-0.117
-630.522	800.000	-0.021	-0.070
-629.507	800.000	-0.024	-0.093
-628.492	-200.000	-0.034	-0.273
-627.478	-55.170	0.134	-0.061
-626.463	60.879	-0.230	-0.230
-625.449	-200.000	-0.041	-0.285
-624.434	81.456	0.087	0.096
-623.419	-200.000	0.035	-0.265
-622.405	15.289	-0.224	0.178
-621.390	-23.047	-0.259	0.158
-620.376	-159.311	-0.118	-0.007
-619.361	327.920	0.062	0.120
-618.346	-18.209	-0.268	-0.170
-617.332	-33.698	0.128	0.071
-616.317	-28.191	-0.098	0.057
-615.303	-75.986	-0.106	-0.038
-614.288	-82.612	-0.151	-0.050
-613.273	-200.000	-0.007	-0.363
-612.259	269.285	-0.002	0.004
-611.244	-200.000	0.001	-0.224
-610.230	67.327	-0.232	0.239
-609.215	-70.913	-0.175	0.067
-608.201	64.448	-0.248	0.253
-607.186	-100.533	0.062	-0.016
-606.171	526.316	-0.067	0.160
-605.157	-127.574	0.225	0.033
-604.142	47.930	0.060	0.057
-603.128	242.918	-0.218	-0.370
-602.113	75.212	-0.287	-0.306
-601.098	-140.265	0.148	0.016
-600.084	492.804	0.038	-0.088
-599.069	-159.653	-0.466	0.026
-598.055	-30.961	0.026	0.015
-597.040	-184.482	-0.459	0.008
-596.025	800.000	-0.102	0.330
-595.011	800.000	-0.079	0.264
-593.996	800.000	0.045	0.159
-592.982	-81.446	0.026	0.009
-591.967	23.257	0.273	0.226
-590.952	198.693	-0.007	0.011
-589.938	10.356	0.060	0.046
-588.923	42.614	-0.156	-0.144
-587.909	348.492	0.140	-0.278
-586.894	-142.954	0.268	0.026
-585.879	-200.000	-0.002	0.049
-584.865	-41.201	0.196	-0.102
-583.850	-18.130	-0.240	-0.152
-582.836	-5.499	0.134	-0.093
-581.821	-52.853	-0.419	-0.195
-580.806	-6.183	-0.197	0.136
-579.792	-27.136	-0.119	0.070
-578.777	-91.902	-0.226	0.065
-577.763	-146.393	-0.196	0.017
-576.748	-89.802	-0.265	0.078
-575.733	-31.897	0.269	-0.152
-574.719	-85.185	-0.199	0.063
-573.704	-200.000	-0.034	-0.268
-572.690	-95.341	0.215	-0.058
-571.675	-179.907	-0.213	-0.005
-570.661	340.066	0.061	0.119
-569.646	-200.000	0.012	-0.355
-568.631	-115.285	-0.094	0.018
-567.617	-28.820	-0.275	0.160
-566.602	-200.000	0.034	-0.185
-565.588	-16.506	0.165	-0.105
-564.573	-96.118	0.177	0.047
-563.558	-13.884	-0.073	0.048
-562.544	-123.517	0.043	-0.007
-561.529	-119.294	-0.263	0.046
-560.515	-200.000	0.026	0.296
-559.500	-54.482	0.177	-0.081
-558.485	109.577	-0.131	0.159
-557.471	204.117	-0.157	-0.245
-556.456	-26.086	0.010	-0.006
-555.442	-86.896	0.051	-0.016
-554.427	239.921	0.123	0.206
-553.412	172.361	-0.154	-0.224
-552.398	-200.000	0.070	-0.497
-551.383	30.170	-0.108	0.093
-550.369	11.208	-0.057	-0.044
-549.354	231.916	-0.103	0.170
-548.339	-200.000	0.002	-0.073
-547.325	-200.000	-0.002	-0.106
-546.310	-68.753	-0.284	0.111
-545.296	-64.802	0.183	-0.075
-544.281	37.345	0.066	0.059
-543.266	-88.716	0.217	-0.065
-542.252	366.215	-0.094	0.192
-541.237	87.999	0.175	0.195
-540.223	423.037	-0.096	-0.207
-539.208	-200.000	-0.020	-0.291
-538.193	33.811	-0.093	0.082
-537.179	800.000	-0.042	0.124
-536.164	800.000	0.068	-0.230
-535.150	34.083	0.142	-0.125
-534.135	-95.132	-0.057	0.016
-533.121	-47.048	0.386	-0.190
-532.106	-79.437	-0.359	0.122
-531.091	-200.000	-0.009	0.382
-530.077	-58.302	0.144	0.063
-529.062	-55.020	-0.091	-0.041
-528.048	-200.000	-0.025	-0.327
-527.033	-119.285	-0.247	-0.043
-526.018	-200.000	0.077	0.496
-525.004	326.591	0.083	-0.161
-523.989	-200.000	-0.043	-0.256
-522.975	800.000	-0.096	0.296
-521.960	-49.627	-0.322	0.155
-520.945	340.553	-0.044	-0.087
-519.931	800.000	0.068	-0.272
-518.916	-171.533	0.221	0.007
-517.902	190.243	0.093	0.141
-516.887	-28.759	0.162	0.094
-515.872	262.795	0.172	-0.301
-514.858	105.068	-0.142	-0.169
-513.843	87.538	0.144	0.160
-512.829	-6.750	-0.045	0.031
-511.814	-137.119	0.121	0.014
-510.799	-5.612	-0.034	-0.023
-509.785	-73.287	0.101	-0.037
-508.770	-49.783	-0.054	0.026
-507.756	-200.000	0.051	0.372
-506.741	-200.000	-0.051	0.362
-505.726	203.468	-0.079	0.123
-504.712	299.029	0.225	0.417
-503.697	-200.000	0.050	0.393
-502.683	-46.802	-0.245	-0.121
-501.668	-170.784	0.120	-0.004
-500.653	-200.000	0.032	-0.328
-499.639	-20.372	-0.130	0.080
-498.624	271.619	-0.110	0.194
-497.610	-173.174	0.260	-0.008
-496.595	-66.233	-0.217	0.087
-495.581	56.491	-0.084	0.082
-494.566	73.715	-0.112	-0.119
-493.551	124.595	0.072	-0.091
-492.537	168.084	-0.087	0.125
-491.522	-200.000	-0.006	0.115
-490.508	394.909	0.086	0.180
-489.493	-200.000	-0.016	-0.086
-488.478	-147.588	-0.355	0.030
-487.464	-200.000	0.004	0.243
-486.449	-2.832	-0.183	0.129
-485.435	-128.803	0.162	-0.023
-484.420	227.245	-0.238	0.389
-483.405	383.025	-0.016	-0.033
-482.391	-54.644	0.380	-0.173
-481.376	-79.817	-0.194	-0.066
-480.362	-121.180	-0.235	0.040
-479.347	-103.889	-0.204	-0.048
-478.332	52.592	-0.074	0.071
-477.318	-62.166	-0.096	0.040
-476.303	62.892	0.186	0.187
-475.289	547.238	-0.069	-0.167
-474.274	-71.681	0.447	0.168
-473.259	-173.311	-0.170	-0.005
-472.245	-134.084	0.204	-0.025
-471.230	144.070	-0.125	0.168
-470.216	800.000	0.078	-0.240
-469.201	-200.000	-0.003	0.025
-468.186	-132.011	-0.210	0.028
-467.172	-49.266	0.267	-0.128
-466.157	-200.000	-0.037	0.199
-465.143	247.786	-0.149	-0.254
-464.128	-120.341	-0.230	0.039
-463.113	-51.407	-0.363	0.171
-462.099	800.000	-0.036	-0.107
-461.084	119.215	-0.083	0.103
-460.070	-200.000	-0.005	0.201
-459.055	215.962	0.140	-0.223
-458.040	-200.000	0.006	-0.060
-457.026	-194.654	-0.242	0.002
-456.011	-200.000	-0.032	0.258
-454.997	-37.973	0.229	0.122
-453.982	-1.648	-0.379	-0.268
-452.968	800.000	0.102	-0.295
-451.953	-45.308	0.144	-0.072
-450.938	43.019	-0.024	-0.022
-449.924	-132.716	0.053	-0.007
-448.909	-91.879	0.152	-0.043
-447.895	-59.430	0.135	-0.058
-446.880	55.696	-0.195	0.190
-445.865	-75.629	0.368	0.131
-444.851	242.828	-0.135	0.228
-443.836	-31.973	-0.111	-0.063
-442.822	-96.937	-0.330	-0.087
-441.807	11.736	0.112	-0.086
-440.792	800.000	-0.030	-0.089
-439.778	-81.448	-0.200	0.066
-438.763	-112.449	0.324	0.065
-437.749	-32.405	0.145	-0.081
-436.734	-16.712	0.273	-0.174
-435.719	106.450	0.094	0.112
-434.705	-200.000	0.150	0.001
-433.690	800.000	0.056	-0.207
-432.676	14.760	0.184	-0.145
-431.661	-15.796	0.306	0.196
-430.646	-43.445	0.346	-0.176
-429.632	311.560	-0.074	-0.140
-428.617	35.902	0.241	0.213
-427.603	224.785	-0.049	0.080
-426.588	3.470	0.099	-0.073
-425.573	79.320	0.014	0.015
-424.559	800.000	0.061	0.180
-423.544	95.122	0.218	-0.249
-422.530	164.638	0.105	0.149
-421.515	46.625	-0.177	0.165
-420.500	-44.767	0.089	-0.044
-419.486	-200.000	-0.026	0.241
-418.471	157.384	0.201	0.279
-417.457	203.079	-0.127	-0.197
-416.442	-102.422	0.348	0.084
-415.428	-200.000	-0.001	0.159
-414.413	-24.720	-0.123	-0.073
-413.398	-11.854	0.162	-0.107
-412.384	-56.584	-0.111	0.049
-411.369	93.098	0.040	-0.046
-410.355	261.423	-0.047	0.082
-409.340	191.987	0.062	-0.094
-408.325	-11.742	-0.310	-0.204
-407.311	-112.774	0.404	-0.081
-406.296	-28.041	0.219	-0.127
-405.282	-125.369	0.223	0.034
-404.267	800.000	0.123	-0.362
-403.252	-200.000	0.243	0.000
-402.238	-25.428	0.254	0.151
-401.223	800.000	-0.107	-0.356
-400.209	633.701	0.068	0.173
-399.194	-200.000	0.013	-0.120
-398.179	800.000	-0.150	0.464
-397.165	37.973	-0.037	-0.033
-396.150	41.763	0.256	-0.232
-395.136	-62.494	0.319	0.133
-394.121	203.585	0.119	-0.184
-393.106	-200.000	0.058	-0.314
-392.092	598.620	-0.060	0.150
-391.077	429.987	-0.132	0.287
-390.063	-88.160	0.164	-0.049
-389.048	-97.191	0.153	-0.040
-388.033	446.388	0.230	-0.507
-387.019	800.000	0.108	-0.453
-386.004	17.435	0.228	0.181
-384.990	23.561	-0.158	-0.130
-383.975	-200.000	-0.341	-0.000
-382.960	340.825	-0.114	0.223
-381.946	-41.574	0.140	0.072
-380.931	-200.000	-0.013	-0.110
-379.917	-31.916	0.036	0.020
-378.902	800.000	-0.035	-0.128
-377.888	800.000	0.057	-0.201
-376.873	800.000	-0.154	0.481
-375.858	-75.381	-0.115	-0.041
-374.844	-14.783	-0.151	-0.097
-373.829	38.692	-0.393	-0.351
-372.815	186.846	0.098	0.147
-371.800	728.807	0.104	-0.278
-370.785	-200.000	-0.004	-0.101
-369.771	-5.453	-0.152	-0.105
-368.756	-6.325	-0.143	-0.097
-367.742	-44.519	0.220	0.110
-366.727	726.833	-0.072	-0.191
-365.712	-200.000	-0.008	0.101
-364.698	-143.729	0.392	0.037
-363.683	800.000	0.041	-0.144
-362.669	-126.775	-0.171	0.025
-361.654	25.542	0.232	0.193
-360.639	75.211	-0.225	-0.237
-359.625	-11.809	0.201	-0.132
-358.610	-200.000	0.001	0.036
-357.596	177.765	-0.070	-0.103
-356.581	-200.000	-0.024	0.289
-355.566	28.471	0.103	-0.088
-354.552	701.193	-0.093	0.246
-353.537	-200.000	-0.023	0.220
-352.523	154.686	0.221	-0.303
-351.508	250.455	0.024	-0.041
-350.493	362.220	-0.160	-0.321
-349.479	-200.000	0.060	0.284
-348.464	86.074	0.248	0.273
-347.450	800.000	-0.077	0.261
-346.435	198.853	0.072	-0.110
-345.420	-76.646	-0.185	0.065
-344.406	-77.951	-0.287	0.099
-343.391	-200.000	0.058	-0.387
-342.377	47.884	0.162	-0.151
-341.362	-200.000	0.004	-0.244
-340.348	-186.350	0.268	-0.004
-339.333	172.486	-0.195	0.281
-338.318	-60.045	-0.330	0.141
-337.304	800.000	-0.099	-0.323
-336.289	729.043	-0.039	0.106
-335.275	54.968	0.114	-0.110
-334.260	-200.000	-0.004	0.123
-333.245	229.524	0.086	0.140
-332.231	-200.000	-0.007	0.084
-331.216	-85.779	0.245	-0.076
-330.202	-4.886	0.252	-0.174
-329.187	3.818	0.063	-0.046
-328.172	-69.098	-0.271	-0.104
-327.158	296.906	0.159	-0.292
-326.143	3.377	0.193	-0.141
-325.129	-96.602	-0.276	-0.073
-324.114	713.585	-0.018	0.047
-323.099	37.487	-0.199	0.176
-322.085	30.205	0.259	-0.221
-321.070	56.333	-0.328	0.319
-320.056	62.269	-0.173	0.172
-319.041	-70.406	-0.216	-0.082
-318.026	553.164	-0.186	0.446
-317.012	33.157	0.088	-0.076
-315.997	410.581	-0.023	0.050
-314.983	-200.000	0.008	0.112
-313.968	-200.000	-0.012	-0.155
-312.953	-156.910	-0.331	-0.020
-311.939	-187.037	0.031	0.000
-310.924	1.932	0.149	0.108
-309.910	-72.962	0.251	0.092
-308.895	100.815	-0.108	0.126
-307.880	-14.641	-0.046	-0.029
-306.866	602.398	-0.112	-0.278
-305.851	-152.223	0.422	0.031
-304.837	269.820	0.129	-0.227
-303.822	81.677	-0.260	-0.282
-302.807	800.000	-0.078	0.266
-301.793	800.000	0.097	0.267
-300.778	-132.859	0.183	0.023
-299.764	-18.043	0.270	0.169
-298.749	800.000	0.062	0.271
-297.735	-81.312	0.117	-0.039
-296.720	-61.600	-0.032	-0.013
-295.705	-200.000	-0.010	-0.467
-294.691	-108.939	0.289	0.062
-293.676	-200.000	-0.042	0.251
-292.662	-138.647	0.110	-0.012
-291.647	-43.793	-0.330	-0.166
-290.632	44.915	-0.040	-0.037
-289.618	205.498	0.144	0.223
-288.603	-65.048	-0.315	0.127
-287.589	7.470	0.129	-0.096
-286.574	-67.209	-0.131	-0.051
-285.559	800.000	0.084	-0.312
-284.545	-113.168	0.244	-0.048
-283.530	-172.330	0.293	0.009
-282.516	18.352	0.212	-0.169
-281.501	800.000	-0.041	-0.144
-280.486	-200.000	-0.023	0.454
-279.472	-2.480	-0.358	-0.250
-278.457	52.025	0.130	0.124
-277.443	-134.513	0.264	-0.032
-276.428	235.869	-0.153	0.252
-275.413	-89.679	-0.066	0.019
-274.399	227.630	0.149	0.241
-273.384	-200.000	0.015	0.103
-272.370	-200.000	0.007	-0.320
-271.355	-200.000	0.012	-0.213
-270.340	-26.152	0.032	0.019
-269.326	49.797	0.164	0.154
-268.311	94.681	-0.262	-0.297
-267.297	800.000	0.138	-0.410
-266.282	19.835	-0.166	0.133
-265.267	-4.266	0.125	-0.086
-264.253	82.679	-0.137	-0.148
-263.238	17.471	-0.045	-0.036
-262.224	-4.708	-0.326	-0.224
-261.209	-137.862	-0.295	-0.033
-260.195	359.562	-0.019	0.039
-259.180	72.298	0.255	0.265
-258.165	800.000	0.042	-0.160
-257.151	5.277	-0.103	0.076
-256.136	407.082	0.035	0.075
-255.122	713.945	-0.157	0.415
-254.107	-14.747	0.102	-0.065
-253.092	-160.638	-0.316	-0.017
-252.078	-36.605	0.126	0.068
-251.063	-200.000	0.057	0.422
-250.049	390.162	-0.087	-0.179
-249.034	-144.264	0.226	0.021
-248.019	-41.738	-0.103	-0.053
-247.005	140.922	-0.112	0.147
-245.990	-94.780	0.201	-0.054
-244.976	800.000	0.041	0.126
-243.961	-165.898	-0.323	-0.014
-242.946	38.315	0.204	-0.181
-241.932	-200.000	-0.040	0.222
-240.917	-75.980	0.255	0.090
-239.903	-13.900	-0.152	0.098
-238.888	47.108	-0.223	-0.207
-237.873	-200.000	0.025	-0.186
-236.859	-69.331	0.221	-0.085
-235.844	70.403	-0.228	0.235
-234.830	142.248	-0.165	0.218
-233.815	627.828	0.030	0.076
-232.800	-140.929	0.234	0.024
-231.786	-74.074	-0.402	-0.145
-230.771	356.437	-0.069	0.136
-229.757	-142.856	0.069	0.007
-228.742	-75.391	-0.208	0.074
-227.727	-125.940	0.239	0.036
-226.713	188.372	-0.367	0.547
-225.698	800.000	0.036	-0.152
-224.684	-183.818	-0.097	-0.002
-223.669	200.286	0.149	-0.228
-222.655	353.037	0.232	-0.458
-221.640	-200.000	0.472	-0.002
-220.625	-200.000	-0.014	0.161
-219.611	-88.918	0.397	0.117
-218.596	-200.000	-0.029	0.363
-217.582	-25.703	0.229	0.134
-216.567	18.458	0.301	-0.240
-215.552	-200.000	-0.048	-0.392
-214.538	-157.974	0.161	0.009
-213.523	124.082	-0.161	0.201
-212.509	46.532	0.090	-0.083
-211.494	-43.665	0.271	-0.136
-210.479	-51.348	0.100	-0.047
-209.465	26.506	0.278	0.232
-208.450	-200.000	-0.013	-0.248
-207.436	68.119	0.092	0.094
-206.421	142.757	0.224	0.297
-205.406	-127.922	-0.211	-0.030
-204.392	-161.345	0.167	-0.009
-203.377	-173.693	0.070	-0.002
-202.363	-9.485	-0.155	0.103
-201.348	-200.000	0.045	0.252
-200.333	186.449	0.074	0.110
-199.319	144.134	0.124	-0.165
-198.304	-200.000	-0.026	-0.309
-197.290	-200.000	0.004	-0.070
-196.275	-95.068	0.103	0.028
-195.260	-200.000	0.047	0.281
-194.246	-46.475	-0.124	0.061
-193.231	157.358	-0.100	-0.138
-192.217	30.251	0.280	-0.238
-191.202	-43.039	0.162	0.082
-190.187	-91.092	0.239	-0.068
-189.173	114.460	-0.138	-0.167
-188.158	38.081	0.132	-0.117
-187.144	148.293	0.226	0.303
-186.129	82.272	-0.144	0.155
-185.114	-153.194	-0.275	-0.019
-184.100	100.560	-0.025	-0.028
-183.085	-200.000	-0.009	-0.116
-182.071	-157.069	-0.332	0.020
-181.056	-27.273	0.184	0.106
-180.042	375.759	0.170	-0.345
-179.027	-122.300	0.253	-0.041
-178.012	712.769	-0.055	0.145
-176.998	286.093	-0.078	0.140
-175.983	759.196	0.196	-0.528
-174.969	-70.744	-0.077	0.029
-173.954	-88.865	-0.207	0.061
-172.939	132.207	0.210	-0.269
-171.925	96.554	-0.049	0.056
-170.910	-200.000	-0.006	0.226
-169.896	126.258	-0.302	-0.379
-168.881	232.031	-0.091	0.148
-167.866	93.491	-0.304	-0.342
-166.852	-200.000	-0.016	0.303
-165.837	-22.893	0.122	-0.073
-164.823	-122.499	-0.117	0.019
-163.808	390.756	0.057	0.118
-162.793	-200.000	0.032	0.153
-161.779	-88.205	0.139	-0.041
-160.764	-100.000	-0.209	0.052
-159.750	-116.279	-0.114	-0.021
-158.735	28.719	0.136	-0.115
-157.720	-35.043	0.219	0.119
-156.706	-54.347	-0.458	0.206
-155.691	-86.093	-0.146	0.045
-154.677	48.666	0.074	0.069
-153.662	274.889	-0.129	0.227
-152.647	-64.176	-0.355	-0.144
-151.633	-200.000	-0.004	0.195
-150.618	289.602	-0.073	0.132
-149.604	353.420	-0.072	0.142
-148.589	169.058	0.087	-0.123
-147.574	301.876	-0.112	0.206
-146.560	64.358	-0.128	0.128
-145.545	141.478	-0.158	-0.207
-144.531	197.341	-0.089	0.135
-143.516	161.797	-0.062	0.087
-142.502	-200.000	-0.027	0.220
-141.487	-36.520	0.023	-0.012
-140.472	800.000	-0.046	-0.163
-139.458	328.417	0.098	-0.187
-138.443	-11.505	0.237	0.155
-137.429	32.412	-0.153	0.131
-136.414	642.258	0.021	-0.052
-135.399	-104.690	0.085	0.019
-134.385	-49.984	0.069	0.032
-133.370	-13.086	0.111	0.072
-132.356	800.000	-0.074	0.260
-131.341	800.000	0.095	0.403
-130.326	103.993	-0.064	-0.075
-129.312	84.266	0.122	-0.132
-128.297	-200.000	-0.016	-0.145
-127.283	-124.756	0.232	-0.036
-126.268	-181.767	-0.210	-0.004
-125.253	-73.060	-0.226	-0.082
-124.239	-45.118	0.370	0.183
-123.224	-200.000	0.004	0.045
-122.210	-200.000	-0.057	0.330
-121.195	800.000	0.030	-0.121
