DTS Sentinel unit serial number:	SN413079Multiplexer serial number:	ORYXHardware model number:	OX4-SRSoftware version number:	ORYX F/W v4.00 Oryx Data Collector v3.7.2.0data status	okinstallation	princeton_trtdifferential loss correction	single-endedforward channel	channel 4reverse channel	N/Adate	2019/09/11time	15:31:10forward acquisition time	60.00reverse acquisition time	0.00gamma	496.2192k internal	0.2278k external	0.2278temperature offset calibration	1.0013default loss term (dB/km)	0.3790temperature slope calibration	1.0000multiplexer offset coefficient	1.0000multiplexer slope coefficient	1.0000fibre end	0.00T internal ref (°C)	42.87T ext. ref 1 (°C)	1.00T ext. ref 2 (°C)	36.29length (m)	temperature (°C)	Stokes	anti-Stokes-747.200	276.702	-0.169	0.309
-746.185	66.412	0.211	0.220
-745.171	92.200	-0.253	0.294
-744.156	-105.347	-0.152	0.036
-743.142	-141.045	-0.315	0.033
-742.127	276.810	-0.141	0.258
-741.112	107.692	0.295	0.362
-740.098	-61.278	0.107	0.046
-739.083	-116.241	-0.210	0.040
-738.069	68.632	-0.209	0.221
-737.054	-80.781	0.143	-0.049
-736.039	-56.998	-0.154	-0.070
-735.025	219.717	-0.063	0.103
-734.010	64.793	0.097	0.100
-732.996	-124.765	-0.226	0.036
-731.981	-200.000	-0.031	-0.211
-730.966	222.736	-0.152	0.252
-729.952	-119.946	-0.410	-0.073
-728.937	-61.867	-0.298	-0.128
-727.923	800.000	-0.062	-0.253
-726.908	-200.000	0.000	-0.089
-725.894	48.733	0.181	-0.175
-724.879	-200.000	-0.014	-0.217
-723.864	430.950	-0.020	0.044
-722.850	562.091	-0.059	-0.148
-721.835	233.734	-0.182	-0.308
-720.821	-200.000	0.028	0.247
-719.806	549.136	0.028	-0.070
-718.791	-200.000	0.012	-0.171
-717.777	-142.279	-0.135	0.014
-716.762	-200.000	-0.032	-0.256
-715.748	-200.000	-0.007	0.111
-714.733	29.140	-0.204	0.178
-713.718	-200.000	-0.025	-0.120
-712.704	-200.000	0.013	-0.153
-711.689	-200.000	0.005	0.127
-710.675	289.943	-0.109	-0.203
-709.660	258.079	0.195	0.346
-708.645	210.236	0.087	0.140
-707.631	573.384	-0.021	0.053
-706.616	800.000	-0.041	0.170
-705.602	-153.125	0.185	-0.013
-704.587	-200.000	-0.002	0.151
-703.572	455.597	-0.112	0.254
-702.558	-59.508	-0.129	-0.057
-701.543	321.290	-0.124	-0.243
-700.529	148.391	0.202	0.281
-699.514	800.000	-0.122	-0.433
-698.499	-200.000	-0.007	-0.218
-697.485	191.704	0.220	-0.340
-696.470	198.450	0.059	0.092
-695.456	-90.896	-0.271	-0.080
-694.441	124.910	-0.090	-0.117
-693.426	-126.519	0.308	-0.047
-692.412	-94.283	-0.078	-0.022
-691.397	16.197	0.106	0.086
-690.383	367.082	0.069	-0.143
-689.368	283.660	-0.172	0.318
-688.354	-19.403	0.506	0.322
-687.339	326.016	0.238	-0.468
-686.324	800.000	0.113	-0.320
-685.310	800.000	-0.007	-0.030
-684.295	800.000	0.094	-0.312
-683.281	-200.000	-0.068	-0.371
-682.266	-200.000	-0.002	0.075
-681.251	-17.791	0.274	0.176
-680.237	-85.138	0.178	0.057
-679.222	800.000	-0.058	-0.224
-678.208	55.737	-0.069	0.068
-677.193	-104.599	0.073	0.017
-676.178	77.323	-0.186	-0.203
-675.164	-200.000	0.013	-0.191
-674.149	188.773	-0.093	-0.142
-673.135	-112.535	0.385	0.079
-672.120	206.571	-0.161	0.258
-671.105	70.600	0.103	0.109
-670.091	273.719	-0.053	0.096
-669.076	800.000	0.025	0.088
-668.062	800.000	-0.059	0.225
-667.047	-6.538	0.172	0.121
-666.032	6.678	0.080	0.061
-665.018	-107.150	0.065	0.015
-664.003	180.485	-0.217	0.326
-662.989	-114.090	0.170	-0.034
-661.974	-81.887	-0.148	0.050
-660.959	-145.681	0.147	-0.013
-659.945	-200.000	0.235	-0.001
-658.930	106.312	-0.161	-0.196
-657.916	800.000	0.068	-0.228
-656.901	-73.668	0.243	0.091
-655.886	-1.445	-0.196	0.142
-654.872	-145.847	0.161	-0.015
-653.857	-200.000	0.017	0.100
-652.843	-115.734	0.403	-0.077
-651.828	-103.865	-0.034	-0.008
-650.814	-146.738	0.252	0.022
-649.799	-59.894	-0.188	-0.083
-648.784	119.501	0.065	0.082
-647.770	58.717	0.038	0.039
-646.755	-200.000	0.022	-0.164
-645.741	800.000	0.050	-0.203
-644.726	419.293	-0.178	-0.391
-643.711	-21.088	0.269	-0.169
-642.697	-5.274	0.140	0.099
-641.682	-2.368	-0.235	-0.169
-640.668	-128.469	-0.315	-0.046
-639.653	-105.079	-0.313	0.073
-638.638	-200.000	0.040	0.232
-637.624	-29.539	-0.073	-0.043
-636.609	-153.262	0.558	0.040
-635.595	152.972	0.214	-0.300
-634.580	255.879	-0.129	0.226
-633.565	520.492	-0.086	0.206
-632.551	642.851	0.082	-0.214
-631.536	800.000	0.044	0.155
-630.522	295.889	-0.176	-0.331
-629.507	180.209	-0.174	-0.262
-628.492	-200.000	-0.018	-0.087
-627.478	16.464	-0.261	-0.211
-626.463	243.937	0.091	-0.156
-625.449	-200.000	-0.024	0.202
-624.434	-62.918	-0.115	0.049
-623.419	493.688	0.055	0.130
-622.405	-8.445	0.017	0.012
-621.390	374.882	-0.051	-0.107
-620.376	-152.324	-0.351	0.026
-619.361	-97.157	-0.076	-0.020
-618.346	-200.000	-0.009	-0.169
-617.332	295.496	0.064	0.120
-616.317	-30.852	0.115	0.067
-615.303	-200.000	0.016	0.144
-614.288	-174.412	0.181	-0.005
-613.273	262.662	0.044	0.079
-612.259	55.564	0.181	-0.180
-611.244	800.000	0.055	0.220
-610.230	262.902	0.128	0.228
-609.215	-93.105	-0.457	0.130
-608.201	-156.600	-0.100	0.006
-607.186	800.000	-0.048	0.137
-606.171	800.000	-0.077	0.278
-605.157	-142.430	0.228	0.023
-604.142	259.821	0.083	0.148
-603.128	-138.816	0.154	0.017
-602.113	-116.273	-0.352	-0.067
-601.098	-22.656	0.152	0.094
-600.084	-151.190	0.228	0.017
-599.069	-200.000	0.010	0.048
-598.055	795.514	-0.110	0.309
-597.040	-73.486	-0.140	-0.052
-596.025	-108.103	0.163	-0.036
-595.011	189.510	0.037	0.057
-593.996	-61.018	-0.504	-0.218
-592.982	31.140	0.227	-0.200
-591.967	27.569	0.585	-0.504
-590.952	-200.000	0.108	0.513
-589.938	-156.183	-0.237	0.015
-588.923	-16.700	-0.117	0.076
-587.909	800.000	-0.110	0.378
-586.894	215.773	-0.106	0.172
-585.879	-200.000	0.080	0.545
-584.865	3.536	0.283	0.212
-583.850	185.664	-0.050	0.076
-582.836	-139.369	0.413	-0.045
-581.821	-24.292	0.288	-0.176
-580.806	-63.303	0.105	-0.044
-579.792	81.177	-0.084	-0.093
-578.777	-200.000	-0.045	0.219
-577.763	-200.000	0.012	0.243
-576.748	133.305	0.078	-0.103
-575.733	800.000	0.108	-0.347
-574.719	49.884	0.172	-0.166
-573.704	41.419	-0.166	0.154
-572.690	800.000	0.010	0.029
-571.675	-200.000	-0.067	0.519
-570.661	-78.144	0.243	0.085
-569.646	-200.000	-0.112	0.506
-568.631	-200.000	-0.018	-0.139
-567.617	50.322	0.228	-0.220
-566.602	-1.662	-0.218	0.157
-565.588	220.657	-0.156	-0.256
-564.573	-92.117	-0.348	-0.100
-563.558	17.392	0.067	-0.055
-562.544	145.601	-0.023	0.032
-561.529	553.857	-0.093	0.229
-560.515	-21.601	-0.179	0.111
-559.500	424.338	0.093	-0.204
-558.485	-15.997	-0.084	-0.055
-557.471	511.652	0.038	-0.092
-556.456	168.271	-0.236	0.343
-555.442	-200.000	-0.037	0.260
-554.427	56.424	0.189	-0.188
-553.412	12.418	-0.068	0.054
-552.398	-112.109	-0.197	-0.040
-551.383	-173.181	-0.142	-0.004
-550.369	-200.000	0.013	-0.113
-549.354	11.847	0.102	-0.080
-548.339	523.926	0.088	-0.211
-547.325	41.417	-0.245	0.226
-546.310	-120.711	0.565	-0.098
-545.296	-96.258	0.080	0.022
-544.281	178.977	0.167	0.250
-543.266	800.000	-0.128	0.442
-542.252	-200.000	-0.010	0.267
-541.237	-187.605	0.186	0.003
-540.223	-20.093	0.126	-0.079
-539.208	84.577	-0.190	-0.212
-538.193	-159.014	-0.293	-0.017
-537.179	-143.829	-0.276	0.027
-536.164	-200.000	-0.023	-0.189
-535.150	341.276	-0.098	0.196
-534.135	-200.000	0.013	0.171
-533.121	261.669	0.022	-0.039
-532.106	3.013	0.095	-0.070
-531.091	-4.073	0.068	-0.048
-530.077	-112.827	0.060	-0.012
-529.062	287.005	0.186	-0.343
-528.048	-93.645	-0.031	-0.009
-527.033	-85.001	0.238	0.076
-526.018	-109.445	0.132	0.028
-525.004	800.000	0.086	0.249
-523.989	-87.798	-0.008	0.002
-522.975	109.094	0.266	-0.325
-521.960	800.000	0.084	-0.269
-520.945	715.384	-0.115	0.312
-519.931	-141.175	-0.275	0.029
-518.916	53.017	0.177	-0.173
-517.902	-6.787	-0.241	-0.167
-516.887	-200.000	0.030	0.155
-515.872	800.000	-0.104	0.412
-514.858	-101.933	0.144	-0.036
-513.843	359.564	-0.199	-0.406
-512.829	40.132	-0.080	-0.073
-511.814	-200.000	-0.036	0.174
-510.799	-172.133	0.148	0.005
-509.785	111.017	0.143	-0.176
-508.770	800.000	0.031	0.119
-507.756	-109.204	-0.259	-0.056
-506.741	-200.000	-0.022	-0.424
-505.726	-200.000	-0.038	0.178
-504.712	77.894	0.094	-0.102
-503.697	-200.000	0.014	-0.105
-502.683	319.462	0.194	-0.375
-501.668	-28.218	0.285	-0.168
-500.653	-200.000	-0.016	-0.093
-499.639	-38.647	0.057	-0.031
-498.624	-200.000	-0.017	-0.077
-497.610	800.000	-0.073	0.239
-496.595	-18.942	0.108	0.069
-495.581	-200.000	0.031	-0.301
-494.566	-200.000	0.015	0.238
-493.551	-29.610	-0.117	0.068
-492.537	240.391	0.246	0.418
-491.522	-183.155	-0.136	-0.002
-490.508	800.000	-0.013	-0.041
-489.493	-200.000	-0.026	-0.233
-488.478	-19.173	-0.320	0.203
-487.464	55.835	-0.259	0.257
-486.449	-39.135	0.468	0.251
-485.435	-107.790	0.280	-0.062
-484.420	-200.000	0.015	0.209
-483.405	-114.149	-0.325	0.064
-482.391	-154.107	0.291	-0.020
-481.376	289.635	0.093	-0.172
-480.362	-179.015	0.161	-0.004
-479.347	352.090	0.073	0.147
-478.332	-162.993	0.120	0.006
-477.318	-200.000	0.014	0.087
-476.303	-51.227	-0.177	-0.085
-475.289	378.689	-0.136	-0.283
-474.274	-88.166	-0.336	-0.103
-473.259	70.678	-0.228	-0.241
-472.245	-200.000	0.012	-0.132
-471.230	536.651	-0.133	0.321
-470.216	143.346	0.285	0.387
-469.201	800.000	0.107	-0.340
-468.186	-200.000	0.043	-0.244
-467.172	55.185	0.292	-0.287
-466.157	321.874	-0.166	-0.322
-465.143	-134.438	0.124	0.015
-464.128	-8.332	-0.091	-0.062
-463.113	-200.000	0.007	-0.331
-462.099	-15.117	0.005	0.003
-461.084	131.411	0.031	-0.040
-460.070	117.805	-0.186	0.233
-459.055	13.580	-0.205	0.162
-458.040	800.000	0.052	-0.164
-457.026	-200.000	0.006	0.105
-456.011	102.688	-0.334	-0.398
-454.997	62.491	0.180	0.184
-453.982	172.114	0.086	-0.125
-452.968	253.855	-0.177	0.309
-451.953	-105.230	0.198	0.046
-450.938	-49.922	0.199	-0.096
-449.924	-93.755	-0.310	-0.087
-448.909	97.796	-0.180	-0.210
-447.895	54.645	0.070	0.068
-446.880	-58.396	-0.203	-0.090
-445.865	-191.185	-0.396	0.004
-444.851	-97.031	-0.306	0.082
-443.836	165.004	-0.115	0.166
-442.822	251.533	-0.192	-0.332
-441.807	800.000	0.116	0.357
-440.792	-200.000	-0.039	-0.254
-439.778	36.964	0.228	-0.205
-438.763	-200.000	0.058	0.444
-437.749	800.000	-0.107	0.389
-436.734	-121.054	0.209	0.036
-435.719	-36.143	-0.182	0.100
-434.705	75.738	-0.075	0.080
-433.690	800.000	0.057	0.200
-432.676	-200.000	-0.015	-0.251
-431.661	-45.529	0.065	-0.033
-430.646	-65.221	-0.175	0.072
-429.632	-1.710	-0.124	-0.089
-428.617	586.969	-0.097	-0.243
-427.603	800.000	-0.054	-0.193
-426.588	59.809	-0.105	0.106
-425.573	-129.845	0.365	-0.051
-424.559	-145.574	-0.318	0.029
-423.544	-78.916	-0.197	-0.068
-422.530	-200.000	0.025	-0.128
-421.515	179.651	0.041	-0.061
-420.500	-16.129	0.219	0.142
-419.486	11.203	0.078	0.061
-418.471	-146.542	0.292	0.026
-417.457	-200.000	-0.033	0.159
-416.442	800.000	0.021	-0.069
-415.428	220.808	0.180	-0.294
-414.413	-145.800	-0.233	0.021
-413.398	-26.061	-0.199	0.119
-412.384	97.561	0.251	0.293
-411.369	-74.342	0.040	0.015
-410.355	-40.084	0.071	-0.038
-409.340	230.644	0.061	0.102
-408.325	-200.000	0.007	0.317
-407.311	-111.024	-0.368	0.077
-406.296	213.036	-0.069	-0.110
-405.282	-200.000	0.038	-0.327
-404.267	-102.562	0.178	-0.043
-403.252	10.585	0.254	0.197
-402.238	-200.000	-0.015	0.177
-401.223	-57.581	-0.321	0.143
-400.209	-45.894	0.128	-0.064
-399.194	-28.960	0.115	0.067
-398.179	-51.711	-0.139	0.066
-397.165	-200.000	0.017	-0.264
-396.150	437.366	0.052	0.114
-395.136	154.161	0.157	0.218
-394.121	388.121	0.082	0.173
-393.106	155.178	0.254	-0.355
-392.092	-102.567	-0.161	0.039
-391.077	-37.736	0.084	-0.046
-390.063	-200.000	0.016	-0.150
-389.048	-71.204	-0.232	0.089
-388.033	69.977	-0.108	-0.113
-387.019	-75.315	-0.115	0.042
-386.004	-3.664	-0.107	-0.075
-384.990	75.905	0.149	0.160
-383.975	321.116	0.186	0.359
-382.960	-200.000	-0.011	-0.264
-381.946	155.844	-0.066	0.092
-380.931	127.304	-0.059	-0.076
-379.917	-200.000	-0.002	-0.230
-378.902	-105.127	-0.137	0.032
-377.888	800.000	-0.047	-0.169
-376.873	-25.292	-0.147	0.088
-375.858	-200.000	-0.040	-0.281
-374.844	673.456	-0.059	0.155
-373.829	38.453	0.092	-0.083
-372.815	252.402	0.128	-0.222
-371.800	-77.363	-0.140	0.049
-370.785	44.468	-0.093	0.086
-369.771	97.118	0.160	-0.186
-368.756	-30.639	0.384	0.221
-367.742	240.568	0.111	0.189
-366.727	8.433	0.081	0.062
-365.712	263.765	0.077	-0.136
-364.698	-200.000	-0.038	0.171
-363.683	-78.876	0.220	0.076
-362.669	-200.000	-0.016	0.218
-361.654	11.988	-0.179	-0.140
-360.639	-200.000	0.027	0.508
-359.625	800.000	-0.058	-0.212
-358.610	-1.628	-0.141	-0.101
-357.596	800.000	0.105	-0.298
-356.581	72.035	-0.175	0.184
-355.566	800.000	0.076	-0.255
-354.552	-79.080	0.198	0.068
-353.537	-161.795	-0.182	-0.009
-352.523	-200.000	0.008	-0.264
-351.508	230.330	0.106	-0.176
-350.493	34.487	-0.387	-0.343
-349.479	-54.291	0.279	0.128
-348.464	800.000	0.074	-0.252
-347.450	800.000	0.118	-0.455
-346.435	800.000	0.049	0.152
-345.420	-114.125	-0.159	-0.031
-344.406	-46.620	0.327	-0.163
-343.391	800.000	0.036	0.116
-342.377	194.146	-0.080	0.122
-341.362	-197.643	-0.417	-0.003
-340.348	79.873	-0.401	0.437
-339.333	800.000	0.060	0.236
-338.318	192.492	-0.281	-0.429
-337.304	55.828	-0.395	0.388
-336.289	-78.772	0.093	-0.032
-335.275	-200.000	0.009	0.363
-334.260	800.000	-0.089	-0.262
-333.245	-138.062	0.379	0.043
-332.231	-35.113	-0.268	0.148
-331.216	-59.382	-0.106	-0.046
-330.202	800.000	0.044	-0.130
-329.187	-200.000	-0.004	-0.303
-328.172	-200.000	-0.043	-0.199
-327.158	-200.000	0.005	-0.221
-326.143	0.045	-0.273	-0.197
-325.129	-6.428	-0.101	0.070
-324.114	174.521	-0.200	0.293
-323.099	-200.000	-0.004	0.251
-322.085	-200.000	0.001	0.019
-321.070	138.630	0.217	0.289
-320.056	800.000	0.090	0.251
-319.041	800.000	0.105	-0.318
-318.026	53.205	0.142	0.138
-317.012	59.863	0.265	-0.265
-315.997	-27.478	-0.116	0.069
-314.983	371.060	0.103	0.212
-313.968	-200.000	-0.031	-0.361
-312.953	539.004	0.050	-0.121
-311.939	-34.028	0.104	-0.058
-310.924	480.241	0.122	0.280
-309.910	59.810	-0.124	0.123
-308.895	-47.096	-0.239	-0.118
-307.880	245.527	0.100	0.170
-306.866	-103.153	-0.355	0.085
-305.851	324.010	0.130	-0.251
-304.837	-82.153	0.181	-0.060
-303.822	47.722	0.082	0.078
-302.807	252.651	0.201	0.347
-301.793	-46.867	-0.122	0.061
-300.778	-200.000	0.011	-0.062
-299.764	800.000	0.178	-0.540
-298.749	-77.899	-0.273	-0.095
-297.735	-103.689	0.147	0.035
-296.720	-115.764	-0.253	-0.048
-295.705	-9.368	-0.186	-0.125
-294.691	-122.260	0.051	0.008
-293.676	-142.787	-0.332	0.033
-292.662	-200.000	0.016	0.156
-291.647	800.000	-0.050	0.153
-290.632	30.119	0.192	0.165
-289.618	611.845	-0.034	0.087
-288.603	-100.640	-0.189	-0.047
-287.589	-41.458	-0.293	-0.153
-286.574	-141.074	-0.187	0.019
-285.559	-172.902	-0.226	-0.007
-284.545	367.388	0.089	-0.182
-283.530	338.404	0.110	-0.217
-282.516	285.739	-0.083	-0.151
-281.501	478.076	0.085	-0.195
-280.486	174.728	0.229	0.336
-279.472	202.701	0.048	-0.075
-278.457	341.596	-0.023	0.046
-277.443	596.333	-0.078	-0.195
-276.428	800.000	-0.026	0.082
-275.413	-200.000	-0.018	0.141
-274.399	-67.532	-0.102	0.040
-273.384	-62.964	0.059	-0.025
-272.370	45.242	0.205	0.192
-271.355	-164.831	-0.160	0.007
-270.340	-200.000	-0.005	-0.060
-269.326	112.551	0.049	0.060
-268.311	-151.502	-0.129	0.010
-267.297	-46.089	0.134	0.067
-266.282	-46.620	0.264	-0.131
-265.267	800.000	-0.047	-0.162
-264.253	-99.156	0.251	0.064
-263.238	-157.457	0.100	0.006
-262.224	800.000	0.030	-0.095
-261.209	-179.523	-0.315	0.007
-260.195	-59.485	0.365	-0.159
-259.180	220.876	0.145	0.235
-258.165	-84.096	0.129	-0.042
-257.151	-166.710	-0.425	-0.018
-256.136	558.175	-0.079	-0.192
-255.122	-27.259	0.169	0.099
-254.107	-23.464	0.088	0.054
-253.092	800.000	-0.025	0.091
-252.078	-200.000	0.016	0.140
-251.063	-200.000	-0.031	-0.196
-250.049	-178.747	-0.119	0.003
-249.034	-111.954	-0.132	-0.027
-248.019	754.210	-0.113	-0.309
-247.005	-200.000	0.020	0.163
-245.990	50.229	-0.190	0.181
-244.976	-200.000	-0.049	0.256
-243.961	46.519	0.103	0.097
-242.946	-151.592	0.220	0.016
-241.932	-138.157	-0.124	-0.014
-240.917	-200.000	-0.017	-0.217
-239.903	590.065	-0.094	-0.234
-238.888	-98.425	-0.383	-0.099
-237.873	-115.570	0.266	-0.050
-236.859	-155.807	-0.257	0.017
-235.844	-158.642	-0.231	-0.013
-234.830	-85.831	0.151	-0.047
-233.815	800.000	0.050	0.190
-232.800	-107.345	0.295	0.065
-231.786	130.511	-0.113	-0.146
-230.771	69.481	0.141	-0.147
-229.757	97.579	0.175	-0.203
-228.742	-13.680	0.222	0.145
-227.727	-200.000	0.030	0.154
-226.713	-60.144	-0.149	-0.064
-225.698	800.000	0.082	0.279
-224.684	119.632	-0.205	-0.257
-223.669	-200.000	0.011	-0.126
-222.655	71.068	-0.238	0.248
-221.640	-200.000	0.035	0.162
-220.625	625.800	-0.081	-0.207
-219.611	278.499	-0.024	-0.043
-218.596	-67.793	0.234	0.092
-217.582	180.456	-0.033	0.049
-216.567	-145.137	0.200	-0.018
-215.552	-15.498	-0.267	0.172
-214.538	62.650	0.165	-0.166
-213.523	0.179	0.102	-0.073
-212.509	288.868	0.093	-0.170
-211.494	-138.251	0.101	-0.011
-210.479	31.297	-0.042	0.037
-209.465	-40.433	-0.143	0.075
-208.450	-118.026	-0.158	-0.029
-207.436	-13.488	0.214	0.140
-206.421	-67.736	0.144	0.057
-205.406	83.163	0.213	-0.233
-204.392	800.000	0.020	0.060
-203.377	800.000	0.073	-0.286
-202.363	-102.656	0.062	0.015
-201.348	-25.187	0.101	-0.060
-200.333	-163.713	0.144	0.007
-199.319	-158.425	-0.260	0.015
-198.304	800.000	0.072	0.259
-197.290	8.508	-0.106	-0.080
-196.275	57.544	0.125	0.123
-195.260	-31.305	0.153	-0.087
-194.246	-200.000	-0.002	-0.027
-193.231	-110.443	0.339	-0.071
-192.217	-200.000	0.034	0.161
-191.202	-3.633	-0.137	0.096
-190.187	-73.020	0.095	-0.035
-189.173	-86.851	0.070	0.021
-188.158	0.837	0.287	-0.207
-187.144	-133.947	-0.254	-0.032
-186.129	3.914	-0.210	-0.154
-185.114	-136.689	-0.125	0.015
-184.100	-197.865	0.391	0.002
-183.085	-33.441	-0.051	0.028
-182.071	800.000	0.081	0.302
-181.056	-29.235	-0.063	0.036
-180.042	-4.120	-0.094	-0.065
-179.027	242.840	0.013	-0.022
-178.012	800.000	-0.048	-0.162
-176.998	267.554	-0.107	-0.189
-175.983	-69.393	-0.126	-0.049
-174.969	-33.986	-0.328	-0.182
-173.954	3.809	0.353	-0.260
-172.939	-200.000	-0.001	0.034
-171.925	-126.130	-0.172	-0.026
-170.910	-156.888	0.119	0.007
-169.896	-96.675	0.118	-0.031
-168.881	-19.107	0.140	-0.088
-167.866	595.109	0.112	0.278
-166.852	279.667	-0.096	0.172
-165.837	-37.165	-0.280	-0.151
-164.823	97.762	-0.112	0.129
-163.808	50.416	0.168	0.160
-162.793	-200.000	-0.094	0.418
-161.779	-3.186	-0.117	-0.082
-160.764	-75.814	0.545	0.194
-159.750	-80.727	-0.177	0.059
-158.735	18.340	0.177	0.142
-157.720	790.704	0.158	-0.438
-156.706	800.000	-0.005	0.016
-155.691	-105.361	0.200	0.046
-154.677	-147.886	-0.124	0.010
-153.662	149.023	-0.070	0.095
-152.647	-42.121	0.259	0.133
-151.633	63.217	0.129	-0.130
-150.618	486.024	-0.190	0.437
-149.604	84.830	0.139	0.154
-148.589	800.000	0.121	-0.373
-147.574	800.000	-0.048	-0.141
-146.560	-21.505	0.188	-0.115
-145.545	800.000	0.080	-0.249
-144.531	-178.447	0.092	0.002
-143.516	155.790	-0.073	-0.102
-142.502	-200.000	0.069	-0.374
-141.487	2.505	-0.355	-0.259
-140.472	-112.886	0.209	0.042
-139.458	132.561	0.282	-0.366
-138.443	617.706	0.059	-0.150
-137.429	513.225	0.109	-0.255
-136.414	190.136	-0.047	0.071
-135.399	-72.481	0.104	-0.038
-134.385	-200.000	0.001	-0.008
-133.370	-34.873	-0.360	-0.198
-132.356	210.651	0.091	0.143
-131.341	-200.000	0.015	0.247
-130.326	301.572	-0.160	-0.297
-129.312	215.900	0.179	0.287
-128.297	38.689	0.124	-0.111
-127.283	800.000	0.131	-0.390
-126.268	-198.859	0.041	-0.000
-125.253	800.000	0.070	-0.305
-124.239	356.891	-0.056	-0.113
-123.224	-91.050	0.291	-0.084
-122.210	20.682	0.241	0.196
-121.195	800.000	0.070	-0.247
