DTS Sentinel unit serial number:	SN413079Multiplexer serial number:	ORYXHardware model number:	OX4-SRSoftware version number:	ORYX F/W v4.00 Oryx Data Collector v3.7.2.0data status	okinstallation	princeton_trtdifferential loss correction	single-endedforward channel	channel 4reverse channel	N/Adate	2019/09/12time	06:23:10forward acquisition time	60.00reverse acquisition time	0.00gamma	496.2192k internal	0.2307k external	0.2307temperature offset calibration	1.0063default loss term (dB/km)	0.3790temperature slope calibration	1.0000multiplexer offset coefficient	1.0000multiplexer slope coefficient	1.0000fibre end	0.00T internal ref (°C)	32.12T ext. ref 1 (°C)	1.58T ext. ref 2 (°C)	27.37length (m)	temperature (°C)	Stokes	anti-Stokes-747.200	343.670	-0.042	-0.083
-746.185	-129.514	-0.323	0.045
-745.171	121.081	-0.177	0.224
-744.156	281.017	0.164	0.299
-743.142	-91.380	-0.124	-0.036
-742.127	36.094	-0.331	0.297
-741.112	47.255	-0.147	-0.139
-740.098	800.000	-0.092	0.343
-739.083	264.515	0.017	-0.030
-738.069	7.722	-0.110	-0.084
-737.054	800.000	0.043	0.170
-736.039	-48.384	-0.098	-0.048
-735.025	-156.787	-0.276	0.017
-734.010	-200.000	-0.018	-0.088
-732.996	-200.000	0.025	0.193
-731.981	-200.000	0.036	0.346
-730.966	-68.185	0.184	0.073
-729.952	-44.355	-0.094	-0.048
-728.937	6.423	-0.222	0.168
-727.923	-107.838	-0.212	0.047
-726.908	648.290	-0.101	-0.262
-725.894	5.296	0.117	-0.088
-724.879	800.000	-0.059	0.206
-723.864	800.000	-0.027	-0.106
-722.850	-200.000	0.035	0.512
-721.835	-128.664	-0.199	-0.029
-720.821	-91.522	0.138	0.040
-719.806	800.000	0.052	-0.182
-718.791	-146.010	0.090	-0.008
-717.777	-24.781	-0.240	0.145
-716.762	55.761	-0.133	-0.131
-715.748	160.779	-0.163	-0.231
-714.733	-200.000	-0.009	0.094
-713.718	-103.908	-0.245	-0.058
-712.704	-98.768	-0.272	-0.070
-711.689	800.000	0.018	-0.055
-710.675	800.000	0.070	-0.201
-709.660	68.951	-0.021	-0.022
-708.645	800.000	-0.027	-0.093
-707.631	-21.648	0.247	-0.153
-706.616	-55.140	-0.190	-0.087
-705.602	363.035	-0.142	0.289
-704.587	-112.119	0.333	0.068
-703.572	-40.787	-0.254	-0.134
-702.558	-85.554	0.246	-0.078
-701.543	-200.000	-0.035	-0.241
-700.529	47.253	-0.268	-0.253
-699.514	6.559	-0.093	-0.070
-698.499	-0.739	0.097	-0.070
-697.485	99.488	-0.095	-0.112
-696.470	-14.578	0.173	-0.113
-695.456	-48.841	-0.147	0.072
-694.441	239.515	-0.107	0.180
-693.426	-200.000	-0.069	-0.319
-692.412	800.000	-0.033	-0.104
-691.397	-125.216	-0.067	0.010
-690.383	800.000	0.074	-0.246
-689.368	800.000	0.052	-0.148
-688.354	374.820	-0.152	-0.315
-687.339	69.871	0.111	-0.116
-686.324	-200.000	-0.023	-0.298
-685.310	-124.745	-0.369	-0.058
-684.295	-200.000	-0.010	0.056
-683.281	-137.152	0.081	0.009
-682.266	-200.000	-0.416	-0.002
-681.251	800.000	0.086	0.244
-680.237	-200.000	0.039	0.363
-679.222	-120.656	-0.184	-0.032
-678.208	105.796	-0.095	0.115
-677.193	105.269	0.118	-0.141
-676.178	800.000	-0.054	0.169
-675.164	-34.652	-0.085	0.047
-674.149	634.740	-0.059	0.153
-673.135	-41.597	0.224	-0.117
-672.120	151.736	-0.179	-0.248
-671.105	126.510	0.068	0.088
-670.091	184.002	-0.046	-0.069
-669.076	571.443	-0.036	-0.089
-668.062	56.299	-0.098	-0.096
-667.047	-57.743	-0.266	-0.118
-666.032	-200.000	-0.003	-0.027
-665.018	-129.891	0.418	0.058
-664.003	13.787	-0.223	0.176
-662.989	318.900	-0.042	-0.081
-661.974	-56.038	-0.281	-0.127
-660.959	50.671	0.300	0.288
-659.945	556.051	-0.130	0.316
-658.930	-84.237	-0.141	0.045
-657.916	139.515	0.052	-0.070
-656.901	-123.889	-0.101	0.016
-655.886	-141.780	-0.296	0.030
-654.872	-1.785	-0.148	-0.105
-653.857	67.632	0.052	-0.054
-652.843	800.000	0.118	0.372
-651.828	-200.000	0.003	-0.122
-650.814	265.278	-0.189	0.333
-649.799	-81.570	-0.123	0.041
-648.784	35.575	0.269	-0.239
-647.770	149.764	0.086	0.118
-646.755	90.083	0.268	0.303
-645.741	45.428	0.053	0.049
-644.726	-200.000	-0.013	0.231
-643.711	203.843	0.058	-0.091
-642.697	-86.587	0.381	0.118
-641.682	-110.940	0.363	-0.076
-640.668	394.256	-0.122	-0.258
-639.653	-64.772	-0.304	-0.125
-638.638	231.629	-0.092	-0.152
-637.624	369.829	0.139	0.285
-636.609	-27.325	-0.079	0.047
-635.595	-127.728	-0.100	0.015
-634.580	-84.736	-0.158	-0.050
-633.565	188.169	0.172	-0.260
-632.551	-8.410	0.046	-0.031
-631.536	35.023	-0.334	0.296
-630.522	800.000	0.181	0.508
-629.507	-42.706	0.176	0.090
-628.492	-103.451	0.255	-0.061
-627.478	-200.000	-0.072	-0.366
-626.463	-52.368	-0.206	0.097
-625.449	-200.000	0.035	-0.328
-624.434	17.701	0.149	-0.120
-623.419	-194.157	-0.398	-0.003
-622.405	-7.807	-0.118	0.081
-621.390	-200.000	0.022	-0.203
-620.376	60.402	-0.090	-0.090
-619.361	-200.000	0.007	-0.265
-618.346	668.598	-0.082	0.216
-617.332	-61.084	-0.132	0.056
-616.317	-21.535	0.154	-0.095
-615.303	277.787	-0.020	-0.036
-614.288	-23.696	0.166	-0.101
-613.273	-200.000	-0.014	0.348
-612.259	16.567	-0.291	-0.232
-611.244	800.000	-0.026	0.074
-610.230	-200.000	0.022	0.254
-609.215	-200.000	-0.016	-0.183
-608.201	-200.000	-0.026	0.191
-607.186	384.452	-0.091	0.190
-606.171	184.359	-0.091	-0.137
-605.157	8.185	-0.193	0.147
-604.142	89.464	-0.093	0.105
-603.128	-40.349	0.053	0.028
-602.113	-129.330	0.309	0.044
-601.098	800.000	0.033	-0.122
-600.084	107.800	0.110	-0.133
-599.069	365.095	0.071	-0.145
-598.055	-84.655	-0.334	-0.106
-597.040	-31.935	0.066	-0.037
-596.025	250.428	-0.113	0.195
-595.011	-71.537	0.031	0.012
-593.996	-75.822	-0.102	0.036
-592.982	-154.158	0.234	-0.016
-591.967	34.105	-0.129	-0.114
-590.952	42.194	-0.198	0.182
-589.938	-46.331	0.197	0.098
-588.923	-114.400	0.147	-0.029
-587.909	-6.901	-0.242	0.166
-586.894	-81.325	0.166	-0.055
-585.879	-27.573	-0.301	0.177
-584.865	48.414	0.235	0.223
-583.850	667.546	0.079	-0.206
-582.836	-160.816	-0.176	-0.009
-581.821	-54.209	-0.110	-0.050
-580.806	-200.000	-0.002	0.116
-579.792	11.636	-0.185	-0.143
-578.777	-52.932	0.215	-0.100
-577.763	-86.969	0.364	-0.112
-576.748	-156.323	-0.170	0.011
-575.733	201.534	0.065	0.101
-574.719	-127.339	0.221	-0.033
-573.704	-139.716	-0.218	0.023
-572.690	-200.000	-0.027	-0.241
-571.675	-147.909	-0.210	-0.018
-570.661	-21.235	-0.247	-0.152
-569.646	-100.682	-0.131	0.033
-568.631	318.281	0.074	-0.141
-567.617	368.003	0.015	-0.031
-566.602	30.721	-0.042	-0.037
-565.588	578.931	0.105	-0.260
-564.573	409.139	0.055	-0.118
-563.558	-14.183	-0.314	-0.204
-562.544	-200.000	0.010	0.282
-561.529	-14.380	0.156	-0.101
-560.515	-200.000	-0.066	-0.468
-559.500	241.375	-0.038	-0.065
-558.485	-200.000	0.054	0.354
-557.471	120.091	0.066	0.083
-556.456	227.888	-0.061	-0.101
-555.442	-111.743	0.097	-0.020
-554.427	10.414	0.207	0.159
-553.412	32.578	-0.244	0.213
-552.398	-38.612	-0.149	0.079
-551.383	-122.138	-0.255	-0.042
-550.369	246.506	0.057	0.097
-549.354	4.650	-0.239	-0.177
-548.339	800.000	0.086	-0.318
-547.325	163.676	-0.165	0.234
-546.310	95.940	-0.161	-0.186
-545.296	326.845	0.164	0.318
-544.281	145.152	0.028	0.038
-543.266	-200.000	0.043	-0.195
-542.252	57.053	-0.225	-0.221
-541.237	-159.493	0.315	-0.018
-540.223	-42.604	-0.500	-0.257
-539.208	800.000	0.046	-0.168
-538.193	-41.699	0.076	-0.040
-537.179	40.436	-0.266	0.242
-536.164	-9.034	-0.067	-0.046
-535.150	327.925	0.060	-0.115
-534.135	-120.487	-0.035	-0.006
-533.121	267.432	0.084	-0.148
-532.106	53.772	0.048	0.047
-531.091	-129.267	-0.171	-0.024
-530.077	14.286	0.109	-0.085
-529.062	-42.048	0.125	-0.065
-528.048	26.997	0.095	-0.080
-527.033	-161.149	-0.154	0.008
-526.018	746.690	-0.052	-0.140
-525.004	31.714	0.274	0.238
-523.989	-53.145	-0.481	0.223
-522.975	-100.088	-0.030	0.008
-521.960	-200.000	0.025	-0.122
-520.945	800.000	-0.035	0.120
-519.931	-200.000	-0.015	0.286
-518.916	-124.908	-0.312	-0.049
-517.902	800.000	-0.048	-0.179
-516.887	-200.000	0.055	0.312
-515.872	-30.988	0.202	-0.115
-514.858	-34.565	-0.162	-0.090
-513.843	78.226	-0.342	0.368
-512.829	47.350	-0.271	0.254
-511.814	180.778	0.230	0.340
-510.799	-114.625	-0.479	-0.092
-509.785	-200.000	-0.001	-0.176
-508.770	-6.162	-0.217	0.150
-507.756	-81.407	0.040	-0.013
-506.741	-50.907	0.321	0.152
-505.726	132.558	0.075	-0.098
-504.712	105.019	0.038	-0.045
-503.697	46.616	0.040	-0.038
-502.683	-87.145	-0.061	-0.019
-501.668	205.458	0.102	-0.160
-500.653	31.431	-0.109	0.094
-499.639	-81.317	0.246	0.082
-498.624	191.909	0.013	0.020
-497.610	-200.000	0.022	0.106
-496.595	-8.583	-0.138	0.093
-495.581	302.057	0.135	0.251
-494.566	-200.000	0.016	-0.159
-493.551	169.070	0.075	0.108
-492.537	-9.347	-0.213	-0.143
-491.522	171.955	-0.030	-0.044
-490.508	-29.988	-0.315	-0.181
-489.493	101.168	0.275	0.322
-488.478	-112.814	-0.058	0.012
-487.464	151.150	-0.117	0.160
-486.449	-200.000	0.009	0.114
-485.435	800.000	0.039	-0.147
-484.420	-68.541	-0.056	-0.022
-483.405	83.772	0.025	-0.027
-482.391	-72.953	0.311	-0.115
-481.376	-13.499	0.097	-0.063
-480.362	181.995	0.062	0.092
-479.347	139.637	0.069	-0.091
-478.332	353.882	0.068	0.135
-477.318	147.513	-0.169	-0.228
-476.303	-200.000	0.001	0.228
-475.289	171.670	-0.217	0.313
-474.274	-89.166	-0.094	-0.028
-473.259	26.119	-0.028	-0.023
-472.245	661.080	-0.049	0.126
-471.230	-84.975	0.087	-0.027
-470.216	-200.000	-0.031	0.162
-469.201	-77.294	-0.105	0.037
-468.186	-138.473	-0.062	-0.007
-467.172	-78.978	0.273	0.093
-466.157	-105.850	0.050	-0.011
-465.143	54.564	-0.209	-0.202
-464.128	-200.000	0.030	0.612
-463.113	-35.633	0.066	0.036
-462.099	-200.000	0.005	0.086
-461.084	280.738	-0.179	0.322
-460.070	-200.000	-0.006	0.117
-459.055	124.843	0.355	0.450
-458.040	-200.000	0.028	0.432
-457.026	-200.000	0.052	0.427
-456.011	28.427	0.175	-0.149
-454.997	-122.567	-0.055	0.009
-453.982	58.435	-0.164	-0.161
-452.968	-87.964	0.310	0.094
-451.953	-10.266	0.059	0.039
-450.938	-200.000	0.014	-0.128
-449.924	198.727	-0.106	0.164
-448.909	0.635	0.269	-0.194
-447.895	-200.000	0.039	0.320
-446.880	-200.000	-0.014	-0.100
-445.865	-200.000	-0.008	0.336
-444.851	-17.876	-0.139	0.088
-443.836	-165.077	-0.383	-0.017
-442.822	-81.367	0.064	0.021
-441.807	265.522	-0.254	-0.445
-440.792	-0.889	0.346	-0.246
-439.778	37.140	-0.183	-0.163
-438.763	800.000	-0.080	-0.236
-437.749	-200.000	0.006	-0.080
-436.734	558.101	0.076	0.184
-435.719	-200.000	0.008	0.317
-434.705	-200.000	-0.219	-0.000
-433.690	9.118	-0.127	-0.097
-432.676	-74.553	0.357	-0.129
-431.661	-89.636	-0.252	-0.074
-430.646	470.105	0.153	-0.345
-429.632	-140.441	0.366	-0.038
-428.617	33.389	-0.379	-0.330
-427.603	180.570	0.132	0.194
-426.588	-54.924	0.218	0.099
-425.573	94.574	-0.125	-0.142
-424.559	-148.027	-0.161	0.013
-423.544	-200.000	0.022	-0.131
-422.530	-200.000	-0.005	-0.170
-421.515	196.844	-0.120	-0.183
-420.500	-152.946	0.110	0.008
-419.486	-27.895	-0.120	-0.070
-418.471	310.034	-0.032	-0.059
-417.457	-37.014	-0.253	-0.136
-416.442	-200.000	-0.021	-0.096
-415.428	-200.000	-0.049	0.229
-414.413	-84.972	-0.152	0.048
-413.398	45.114	-0.209	0.194
-412.384	-200.000	-0.077	0.399
-411.369	-157.242	0.208	-0.013
-410.355	11.963	-0.269	0.207
-409.340	350.917	-0.199	0.395
-408.325	-200.000	-0.094	-0.465
-407.311	800.000	-0.069	0.244
-406.296	-200.000	-0.052	-0.320
-405.282	-123.198	-0.322	-0.052
-404.267	-200.000	0.005	0.268
-403.252	-40.352	0.260	-0.136
-402.238	-111.225	0.214	0.044
-401.223	-147.913	-0.198	-0.017
-400.209	-200.000	-0.027	0.193
-399.194	-145.643	-0.262	0.024
-398.179	169.532	0.023	0.032
-397.165	124.885	-0.065	-0.082
-396.150	196.454	-0.218	0.334
-395.136	-107.298	0.147	-0.033
-394.121	-112.506	0.108	0.022
-393.106	-76.241	0.147	0.052
-392.092	558.074	-0.093	-0.226
-391.077	119.401	-0.101	-0.126
-390.063	-85.071	0.115	0.036
-389.048	-16.804	0.116	-0.073
-388.033	-6.967	-0.344	0.234
-387.019	705.604	-0.092	0.243
-386.004	800.000	0.075	0.232
-384.990	800.000	-0.069	-0.232
-383.975	800.000	-0.019	-0.072
-382.960	271.898	0.204	-0.361
-381.946	-96.849	-0.254	-0.067
-380.931	800.000	-0.049	0.202
-379.917	-200.000	-0.005	-0.141
-378.902	-136.902	0.127	0.015
-377.888	495.603	-0.053	0.122
-376.873	-37.049	0.334	0.179
-375.858	248.693	-0.118	-0.200
-374.844	386.186	-0.087	-0.180
-373.829	-5.043	0.293	0.202
-372.815	60.779	0.193	-0.192
-371.800	-200.000	-0.020	0.388
-370.785	-200.000	-0.002	-0.461
-369.771	-92.944	0.101	0.028
-368.756	-161.006	0.269	0.014
-367.742	-56.852	-0.257	-0.114
-366.727	162.675	0.123	0.173
-365.712	45.519	-0.092	0.085
-364.698	-67.572	0.294	-0.115
-363.683	48.745	-0.227	0.213
-362.669	-10.396	0.206	0.137
-361.654	735.414	0.052	-0.140
-360.639	-137.788	0.170	-0.019
-359.625	-200.000	0.029	-0.197
-358.610	-152.490	0.249	0.018
-357.596	19.585	0.252	-0.203
-356.581	-1.797	0.188	-0.133
-355.566	-200.000	0.010	0.088
-354.552	573.887	0.087	-0.213
-353.537	-73.108	0.182	-0.067
-352.523	-168.844	-0.171	0.006
-351.508	-200.000	0.011	-0.116
-350.493	33.059	0.022	0.020
-349.479	-59.663	0.297	0.128
-348.464	277.954	-0.071	-0.126
-347.450	-31.994	0.216	-0.121
-346.435	-200.000	-0.008	-0.082
-345.420	-21.702	-0.068	-0.041
-344.406	111.364	0.143	0.172
-343.391	-158.227	0.209	-0.012
-342.377	211.312	-0.208	-0.328
-341.362	58.806	0.166	0.163
-340.348	-111.137	-0.026	0.005
-339.333	6.158	0.098	0.073
-338.318	-167.025	0.321	0.013
-337.304	6.450	0.130	0.096
-336.289	-200.000	0.019	-0.379
-335.275	93.684	-0.283	0.321
-334.260	770.798	0.139	-0.380
-333.245	747.870	-0.024	0.065
-332.231	603.086	0.054	-0.135
-331.216	-200.000	0.052	-0.236
-330.202	-104.241	0.065	0.015
-329.187	800.000	-0.094	-0.376
-328.172	10.472	0.423	0.322
-327.158	81.755	-0.018	-0.020
-326.143	800.000	0.060	0.174
-325.129	84.818	0.088	0.096
-324.114	800.000	0.101	-0.313
-323.099	229.863	-0.255	-0.416
-322.085	-200.000	0.001	0.064
-321.070	-185.537	0.036	0.001
-320.056	78.207	-0.084	-0.089
-319.041	-90.829	-0.330	-0.095
-318.026	415.262	0.048	0.102
-317.012	19.562	-0.154	0.124
-315.997	91.832	0.172	0.193
-314.983	-161.743	-0.071	-0.004
-313.968	800.000	0.096	-0.276
-312.953	43.717	-0.046	0.042
-311.939	202.753	0.097	-0.150
-310.924	-9.803	-0.206	-0.137
-309.910	-92.436	0.104	0.029
-308.895	418.829	0.034	0.073
-307.880	-200.000	-0.006	-0.160
-306.866	800.000	-0.060	0.195
-305.851	423.728	0.171	-0.368
-304.837	800.000	0.075	0.255
-303.822	157.552	0.217	-0.300
-302.807	78.876	-0.044	0.047
-301.793	411.636	0.006	-0.013
-300.778	376.979	0.164	0.336
-299.764	145.483	0.177	0.237
-298.749	-73.162	0.131	0.048
-297.735	-72.558	-0.258	-0.095
-296.720	-95.633	-0.091	-0.024
-295.705	-137.010	0.102	-0.012
-294.691	164.904	0.126	0.178
-293.676	-165.674	-0.204	-0.009
-292.662	75.336	0.078	-0.082
-291.647	-200.000	-0.049	-0.288
-290.632	-32.062	0.167	0.093
-289.618	-82.288	0.174	0.057
-288.603	66.074	0.123	-0.124
-287.589	18.795	-0.113	0.091
-286.574	96.136	0.165	0.188
-285.559	-15.955	-0.157	-0.100
-284.545	-131.647	-0.154	-0.020
-283.530	-128.538	0.329	0.047
-282.516	-50.858	-0.086	-0.041
-281.501	-84.398	0.104	0.033
-280.486	-68.097	0.172	0.067
-279.472	-29.165	0.314	0.180
-278.457	-106.363	-0.290	-0.065
-277.443	-200.000	0.026	-0.129
-276.428	-101.509	-0.220	0.053
-275.413	431.462	0.062	-0.134
-274.399	81.432	-0.046	0.050
-273.384	800.000	-0.068	-0.197
-272.370	-5.749	0.081	0.056
-271.355	123.338	-0.078	-0.098
-270.340	-79.351	0.248	0.084
-269.326	209.901	0.156	0.244
-268.311	-60.805	-0.087	-0.037
-267.297	49.235	0.113	0.106
-266.282	-62.052	-0.261	-0.109
-265.267	-200.000	-0.023	-0.157
-264.253	-27.695	0.291	-0.168
-263.238	-11.987	-0.199	0.130
-262.224	-126.276	0.234	-0.035
-261.209	-12.850	-0.081	-0.053
-260.195	-136.146	0.310	-0.036
-259.180	15.086	0.193	-0.151
-258.165	800.000	0.067	0.244
-257.151	317.146	0.139	0.262
-256.136	-23.252	0.087	-0.052
-255.122	800.000	-0.045	-0.160
-254.107	-14.270	-0.240	-0.154
-253.092	-200.000	0.008	0.175
-252.078	-104.825	-0.369	-0.085
-251.063	-200.000	-0.009	0.227
-250.049	800.000	0.087	0.244
-249.034	-75.646	0.176	-0.062
-248.019	-200.000	-0.040	0.368
-247.005	-139.474	-0.112	-0.012
-245.990	-67.990	-0.085	0.033
-244.976	-200.000	-0.038	0.209
-243.961	354.178	-0.108	-0.215
-242.946	-22.130	0.115	0.069
-241.932	4.012	-0.129	-0.094
-240.917	-200.000	-0.019	-0.179
-239.903	209.568	-0.155	-0.242
-238.888	-69.474	0.190	-0.073
-237.873	-97.751	-0.300	-0.077
-236.859	-200.000	0.042	-0.405
-235.844	102.036	0.211	-0.246
-234.830	104.059	0.124	0.145
-233.815	46.832	0.085	0.079
-232.800	800.000	-0.019	-0.062
-231.786	-104.028	0.150	-0.035
-230.771	55.758	-0.153	-0.147
-229.757	23.296	-0.294	-0.240
-228.742	-200.000	-0.028	0.127
-227.727	-58.442	0.150	-0.065
-226.713	-23.893	-0.174	-0.104
-225.698	800.000	0.069	0.216
-224.684	-200.000	-0.013	0.194
-223.669	-200.000	-0.025	0.222
-222.655	-122.161	0.366	-0.060
-221.640	800.000	-0.076	0.224
-220.625	688.666	-0.118	0.308
-219.611	-200.000	0.001	-0.282
-218.596	-200.000	0.006	-0.065
-217.582	-97.559	-0.167	0.043
-216.567	62.760	0.089	-0.089
-215.552	-200.000	0.021	-0.303
-214.538	-0.744	-0.286	0.202
-213.523	-200.000	0.080	0.570
-212.509	-105.184	-0.115	0.026
-211.494	3.440	0.211	0.153
-210.479	-200.000	0.004	0.111
-209.465	800.000	-0.043	0.155
-208.450	-103.005	0.381	0.090
-207.436	800.000	-0.020	0.075
-206.421	-81.162	-0.112	0.037
-205.406	-200.000	-0.007	-0.174
-204.392	65.369	-0.062	-0.062
-203.377	88.095	0.275	0.304
-202.363	-200.000	0.075	-0.400
-201.348	-69.055	0.222	0.085
-200.333	-109.720	-0.276	-0.058
-199.319	-56.524	-0.247	0.109
-198.304	-118.800	0.352	-0.062
-197.290	117.753	0.198	0.243
-196.275	-200.000	-0.015	-0.171
-195.260	37.696	-0.152	0.134
-194.246	-200.000	-0.007	-0.031
-193.231	68.506	-0.371	-0.378
-192.217	-200.000	0.001	0.155
-191.202	16.611	0.221	-0.174
-190.187	-200.000	-0.007	0.275
-189.173	619.295	0.116	0.290
-188.158	-81.318	-0.392	-0.129
-187.144	112.124	0.139	0.167
-186.129	-28.795	0.077	0.044
-185.114	-80.845	-0.234	0.077
-184.100	97.330	-0.123	-0.141
-183.085	-175.517	0.092	0.002
-182.071	-44.654	0.207	-0.103
-181.056	-66.726	-0.159	-0.063
-180.042	800.000	0.074	0.233
-179.027	-39.192	0.162	-0.085
-178.012	332.292	-0.045	0.086
-176.998	-200.000	0.020	-0.120
-175.983	16.477	0.137	0.108
-174.969	384.768	-0.111	-0.227
-173.954	40.330	-0.202	-0.180
-172.939	-174.321	0.308	0.009
-171.925	326.069	0.120	-0.228
-170.910	-114.797	-0.069	-0.013
-169.896	27.529	-0.100	0.083
-168.881	-97.726	-0.329	-0.085
-167.866	-64.845	0.098	0.040
-166.852	743.209	-0.104	-0.278
-165.837	-200.000	-0.028	0.454
-164.823	55.281	0.214	-0.206
-163.808	-200.000	-0.020	-0.302
-162.793	-200.000	0.023	-0.228
-161.779	-60.421	-0.219	-0.093
-160.764	800.000	-0.010	0.043
-159.750	208.302	0.044	-0.069
-158.735	-77.440	-0.136	0.047
-157.720	-200.000	0.043	0.197
-156.706	-200.000	-0.090	-0.394
-155.691	-81.772	-0.245	0.080
-154.677	63.010	0.096	0.095
-153.662	-200.000	0.018	0.081
-152.647	800.000	-0.022	-0.067
-151.633	-6.959	0.137	-0.093
-150.618	-52.359	0.377	0.174
-149.604	800.000	-0.059	0.209
-148.589	-126.645	0.117	-0.017
-147.574	-200.000	0.026	-0.255
-146.560	158.070	0.103	-0.142
-145.545	-200.000	0.035	0.154
-144.531	9.358	0.131	-0.098
-143.516	-89.884	-0.447	-0.130
-142.502	-200.000	0.012	0.058
-141.487	-42.910	0.263	-0.132
-140.472	187.689	0.258	0.382
-139.458	800.000	-0.119	-0.407
-138.443	800.000	-0.036	-0.129
-137.429	34.578	-0.280	0.243
-136.414	192.039	-0.019	0.028
-135.399	0.465	-0.248	-0.176
-134.385	-147.871	0.239	0.020
-133.370	-200.000	0.030	-0.203
-132.356	220.323	0.042	0.067
-131.341	800.000	0.039	0.119
-130.326	-41.495	0.094	-0.048
-129.312	-200.000	-0.079	-0.449
-128.297	-200.000	-0.038	0.197
-127.283	551.661	-0.054	-0.129
-126.268	800.000	-0.084	-0.263
-125.253	-94.484	0.143	-0.039
-124.239	-108.966	0.169	0.036
-123.224	170.008	-0.155	0.220
-122.210	390.158	-0.073	0.150
