DTS Sentinel unit serial number:	SN413079Multiplexer serial number:	ORYXHardware model number:	OX4-SRSoftware version number:	ORYX F/W v4.00 Oryx Data Collector v3.7.2.0data status	okinstallation	princeton_trtdifferential loss correction	single-endedforward channel	channel 4reverse channel	N/Adate	2019/09/11time	21:59:11forward acquisition time	60.00reverse acquisition time	0.00gamma	496.2192k internal	0.2306k external	0.2306temperature offset calibration	1.0071default loss term (dB/km)	0.3790temperature slope calibration	1.0000multiplexer offset coefficient	1.0000multiplexer slope coefficient	1.0000fibre end	0.00T internal ref (°C)	35.55T ext. ref 1 (°C)	1.71T ext. ref 2 (°C)	29.54length (m)	temperature (°C)	Stokes	anti-Stokes-747.200	-19.107	-0.252	0.160
-746.185	53.311	0.142	-0.138
-745.171	-19.584	-0.059	-0.037
-744.156	-130.403	-0.241	0.033
-743.142	-200.000	-0.031	0.195
-742.127	-99.064	-0.050	0.013
-741.112	48.730	0.207	-0.197
-740.098	-200.000	0.046	0.255
-739.083	-200.000	0.037	-0.212
-738.069	4.612	-0.240	0.179
-737.054	-101.542	0.159	0.039
-736.039	538.008	-0.040	-0.097
-735.025	589.460	0.131	0.329
-734.010	677.025	-0.145	-0.383
-732.996	-200.000	0.007	-0.135
-731.981	20.144	0.234	0.192
-730.966	-200.000	0.028	0.316
-729.952	655.398	-0.143	-0.374
-728.937	-57.694	0.118	-0.052
-727.923	800.000	0.031	-0.101
-726.908	-95.144	-0.064	0.018
-725.894	-95.036	-0.408	-0.112
-724.879	386.408	0.060	0.126
-723.864	-142.409	-0.248	0.025
-722.850	-52.002	-0.090	0.042
-721.835	46.210	0.068	0.064
-720.821	-200.000	0.031	-0.310
-719.806	-69.530	0.121	-0.047
-718.791	-124.148	-0.322	-0.051
-717.777	800.000	0.024	0.099
-716.762	-92.345	-0.417	0.119
-715.748	151.922	-0.077	-0.106
-714.733	30.128	0.264	0.229
-713.718	-200.000	-0.018	0.140
-712.704	-68.449	-0.246	0.097
-711.689	-189.060	-0.321	-0.004
-710.675	202.873	-0.216	0.339
-709.660	48.680	-0.284	0.270
-708.645	119.628	-0.079	-0.099
-707.631	-174.836	-0.184	0.005
-706.616	800.000	-0.043	0.169
-705.602	800.000	0.055	0.233
-704.587	-9.539	-0.106	0.072
-703.572	-16.013	-0.069	-0.045
-702.558	23.398	-0.208	0.174
-701.543	408.443	-0.167	-0.360
-700.529	-95.509	-0.252	-0.069
-699.514	364.512	-0.012	-0.025
-698.499	-122.439	0.020	0.003
-697.485	80.224	0.080	-0.088
-696.470	-34.160	0.155	-0.086
-695.456	-179.664	0.132	0.003
-694.441	-69.874	-0.361	-0.140
-693.426	428.384	0.101	0.221
-692.412	-104.108	-0.286	0.068
-691.397	204.608	0.131	-0.207
-690.383	-200.000	-0.036	0.269
-689.368	177.879	-0.138	-0.204
-688.354	-182.428	-0.077	0.001
-687.339	23.442	0.114	0.095
-686.324	800.000	0.077	-0.236
-685.310	-8.054	-0.233	-0.160
-684.295	111.677	-0.257	0.315
-683.281	800.000	-0.082	-0.253
-682.266	-34.792	0.215	-0.119
-681.251	-200.000	0.006	0.284
-680.237	-37.619	-0.087	-0.047
-679.222	-77.356	0.214	-0.076
-678.208	-60.030	-0.184	-0.080
-677.193	419.271	-0.117	0.254
-676.178	-81.523	0.300	-0.100
-675.164	-153.206	-0.335	-0.024
-674.149	800.000	0.027	0.110
-673.135	-116.662	-0.293	-0.055
-672.120	-171.967	0.127	-0.004
-671.105	-147.283	-0.094	0.008
-670.091	-87.798	0.458	0.140
-669.076	755.310	-0.121	-0.331
-668.062	5.841	0.266	0.200
-667.047	-200.000	-0.031	-0.150
-666.032	-67.766	0.271	0.107
-665.018	44.250	0.100	-0.093
-664.003	-200.000	0.006	-0.259
-662.989	177.187	0.078	-0.114
-661.974	-200.000	0.001	-0.454
-660.959	86.120	-0.365	-0.408
-659.945	-200.000	-0.052	-0.282
-658.930	-21.905	0.085	0.053
-657.916	-200.000	0.022	-0.323
-656.901	658.473	0.052	-0.136
-655.886	238.287	0.093	-0.157
-654.872	118.290	0.237	-0.296
-653.857	800.000	0.020	0.061
-652.843	800.000	-0.110	-0.332
-651.828	254.900	-0.220	-0.382
-650.814	-25.136	0.151	-0.090
-649.799	-200.000	0.017	-0.246
-648.784	-12.649	0.138	0.091
-647.770	-161.717	-0.420	0.022
-646.755	-18.952	-0.180	-0.114
-645.741	-2.979	0.240	-0.170
-644.726	-200.000	0.005	-0.172
-643.711	-30.179	-0.211	0.122
-642.697	-44.035	0.122	0.062
-641.682	162.134	0.106	-0.151
-640.668	252.405	0.122	0.210
-639.653	783.679	-0.144	-0.400
-638.638	-157.000	-0.274	-0.017
-637.624	417.981	-0.107	-0.232
-636.609	66.698	0.184	0.190
-635.595	-53.061	0.071	0.033
-634.580	-200.000	0.013	0.066
-633.565	-21.904	-0.542	-0.334
-632.551	286.083	-0.121	-0.221
-631.536	-187.678	-0.196	0.003
-630.522	-119.058	-0.338	0.060
-629.507	-105.456	-0.276	-0.064
-628.492	-80.556	0.369	-0.125
-627.478	-200.000	-0.009	-0.098
-626.463	-11.132	0.042	-0.028
-625.449	71.230	-0.248	-0.261
-624.434	231.616	0.105	-0.174
-623.419	240.427	0.143	-0.241
-622.405	182.748	0.091	0.136
-621.390	-200.000	-0.014	-0.218
-620.376	-57.546	0.164	-0.073
-619.361	-200.000	0.045	-0.331
-618.346	-109.667	-0.025	0.005
-617.332	244.094	0.315	-0.536
-616.317	-200.000	0.004	0.280
-615.303	31.193	-0.261	-0.227
-614.288	423.805	0.066	0.143
-613.273	-3.083	0.171	-0.121
-612.259	37.491	-0.099	-0.089
-611.244	-90.042	-0.244	0.072
-610.230	51.541	-0.146	0.140
-609.215	343.459	-0.055	-0.109
-608.201	71.630	-0.134	0.141
-607.186	26.578	0.234	-0.199
-606.171	-200.000	0.022	0.127
-605.157	74.903	0.065	-0.070
-604.142	126.862	-0.296	0.379
-603.128	301.703	0.097	0.181
-602.113	-85.379	-0.541	-0.171
-601.098	262.736	0.075	0.131
-600.084	6.788	0.128	0.097
-599.069	800.000	-0.025	-0.071
-598.055	-74.329	-0.231	-0.085
-597.040	-200.000	-0.412	0.001
-596.025	-104.862	0.171	0.040
-595.011	28.594	-0.207	-0.177
-593.996	17.848	-0.302	0.243
-592.982	24.556	0.092	0.077
-591.967	-125.498	-0.261	0.040
-590.952	156.436	0.158	0.221
-589.938	501.579	0.035	-0.083
-588.923	-132.715	-0.146	0.019
-587.909	-200.000	-0.015	-0.160
-586.894	-88.570	0.094	0.028
-585.879	-45.369	-0.398	-0.200
-584.865	28.149	0.235	0.201
-583.850	269.801	-0.185	0.328
-582.836	-77.662	-0.060	0.021
-581.821	800.000	-0.059	-0.214
-580.806	800.000	-0.046	-0.150
-579.792	-200.000	-0.066	-0.413
-578.777	37.373	-0.172	-0.154
-577.763	-81.356	0.143	0.048
-576.748	-43.481	0.234	-0.120
-575.733	-200.000	0.083	0.000
-574.719	175.266	0.168	-0.246
-573.704	97.105	-0.096	-0.112
-572.690	800.000	-0.072	0.219
-571.675	611.310	-0.058	-0.147
-570.661	31.270	-0.104	0.090
-569.646	-200.000	-0.016	-0.198
-568.631	19.579	-0.215	0.175
-567.617	-36.630	0.170	0.092
-566.602	-108.848	0.235	0.051
-565.588	-148.885	0.219	0.018
-564.573	-144.213	0.321	-0.030
-563.558	514.847	-0.047	-0.110
-562.544	15.850	-0.366	-0.291
-561.529	-33.132	-0.113	0.063
-560.515	-117.675	-0.217	0.040
-559.500	800.000	-0.026	-0.111
-558.485	74.562	-0.096	-0.102
-557.471	-200.000	0.027	0.211
-556.456	-106.872	0.537	-0.120
-555.442	76.476	0.162	-0.174
-554.427	78.049	-0.158	-0.171
-553.412	-200.000	-0.006	0.155
-552.398	169.722	-0.096	0.139
-551.383	-200.000	-0.040	0.271
-550.369	-200.000	0.001	0.102
-549.354	-60.050	-0.291	-0.125
-548.339	25.665	0.254	-0.214
-547.325	285.388	-0.178	0.324
-546.310	157.520	-0.035	0.048
-545.296	60.804	-0.188	-0.188
-544.281	-200.000	0.012	0.178
-543.266	-118.869	0.081	-0.014
-542.252	-152.870	0.281	-0.020
-541.237	-121.790	0.203	-0.034
-540.223	-163.038	0.026	0.001
-539.208	221.583	0.204	0.331
-538.193	110.369	-0.065	-0.079
-537.179	583.500	-0.035	0.087
-536.164	-200.000	0.014	-0.190
-535.150	238.297	0.057	-0.096
-534.135	-121.296	-0.284	0.048
-533.121	800.000	0.039	0.171
-532.106	1.824	0.146	-0.106
-531.091	800.000	-0.037	-0.108
-530.077	101.473	-0.159	0.186
-529.062	-50.419	0.210	0.100
-528.048	-79.746	-0.009	-0.003
-527.033	-200.000	-0.032	0.198
-526.018	800.000	0.078	-0.260
-525.004	-87.930	-0.045	0.014
-523.989	36.200	0.249	0.221
-522.975	-76.038	-0.295	0.105
-521.960	-82.188	-0.584	-0.192
-520.945	175.343	-0.046	0.067
-519.931	-123.564	0.150	0.024
-518.916	-1.697	0.201	0.143
-517.902	-124.039	-0.130	-0.021
-516.887	366.596	0.100	-0.203
-515.872	-200.000	-0.011	-0.100
-514.858	800.000	0.151	0.502
-513.843	15.622	0.188	0.149
-512.829	146.420	-0.068	-0.092
-511.814	-164.294	0.203	-0.009
-510.799	-80.222	-0.208	-0.070
-509.785	-113.560	-0.076	0.015
-508.770	231.619	-0.111	0.184
-507.756	-32.792	-0.166	-0.093
-506.741	-149.033	0.109	0.009
-505.726	-200.000	-0.009	-0.052
-504.712	-118.329	0.259	0.046
-503.697	76.677	-0.103	0.110
-502.683	46.401	-0.231	-0.216
-501.668	463.122	0.085	0.190
-500.653	-90.826	0.034	-0.010
-499.639	-38.004	0.231	0.124
-498.624	4.881	0.057	-0.042
-497.610	-7.169	0.221	0.151
-496.595	-55.970	-0.157	-0.071
-495.581	800.000	0.064	-0.195
-494.566	560.526	-0.039	0.095
-493.551	109.519	-0.067	0.080
-492.537	-3.823	-0.121	-0.085
-491.522	426.812	-0.031	0.068
-490.508	-78.193	-0.233	-0.081
-489.493	37.528	0.041	0.037
-488.478	-91.889	0.050	0.014
-487.464	28.448	-0.149	-0.127
-486.449	-27.173	-0.084	0.050
-485.435	-160.888	0.150	0.008
-484.420	-53.130	0.291	-0.135
-483.405	-200.000	-0.017	0.290
-482.391	-55.966	-0.178	-0.080
-481.376	446.716	-0.041	-0.090
-480.362	-61.457	0.294	-0.125
-479.347	-200.000	0.006	0.058
-478.332	-200.000	-0.028	-0.298
-477.318	54.873	-0.117	0.114
-476.303	10.758	0.381	0.293
-475.289	-118.556	0.098	-0.018
-474.274	-150.956	0.202	-0.015
-473.259	583.872	-0.097	-0.240
-472.245	-200.000	-0.060	-0.341
-471.230	-133.064	0.275	-0.035
-470.216	-115.200	0.161	0.031
-469.201	173.373	0.117	-0.170
-468.186	527.248	0.065	0.155
-467.172	41.245	0.136	0.124
-466.157	77.739	-0.073	-0.078
-465.143	-134.609	0.306	0.038
-464.128	129.926	-0.139	-0.179
-463.113	248.272	0.132	0.224
-462.099	531.976	0.054	0.129
-461.084	118.496	0.128	0.159
-460.070	10.178	-0.056	-0.043
-459.055	-200.000	-0.017	0.330
-458.040	144.625	0.198	-0.266
-457.026	495.139	0.049	-0.113
-456.011	368.052	-0.247	-0.502
-454.997	121.489	-0.151	0.189
-453.982	9.702	-0.273	-0.208
-452.968	39.739	0.163	-0.147
-451.953	81.344	0.071	0.077
-450.938	-200.000	-0.054	0.247
-449.924	173.668	0.220	0.319
-448.909	800.000	0.101	0.356
-447.895	319.887	-0.168	-0.321
-446.880	205.639	0.206	-0.322
-445.865	-200.000	0.044	-0.305
-444.851	800.000	0.007	-0.029
-443.836	800.000	-0.106	-0.312
-442.822	-77.129	-0.283	-0.099
-441.807	-90.234	-0.343	0.100
-440.792	291.425	-0.128	0.233
-439.778	148.290	-0.126	0.171
-438.763	209.926	-0.112	0.177
-437.749	-25.347	0.221	-0.132
-436.734	295.561	-0.119	-0.220
-435.719	-105.468	-0.159	-0.036
-434.705	-124.282	0.371	0.058
-433.690	-55.752	0.097	0.043
-432.676	199.823	0.088	-0.136
-431.661	-127.022	-0.099	0.015
-430.646	-80.375	0.200	-0.067
-429.632	-146.116	0.079	-0.007
-428.617	419.180	-0.057	0.123
-427.603	-82.676	0.192	-0.062
-426.588	-146.635	-0.186	-0.016
-425.573	-200.000	0.011	0.229
-424.559	-28.320	-0.150	0.087
-423.544	-200.000	-0.024	0.133
-422.530	-108.627	0.025	-0.005
-421.515	68.068	0.221	-0.228
-420.500	-72.348	-0.173	0.064
-419.486	-133.315	-0.185	-0.023
-418.471	800.000	0.066	-0.272
-417.457	-170.430	-0.149	-0.005
-416.442	703.739	0.053	-0.140
-415.428	-3.934	0.166	-0.115
-414.413	309.733	-0.086	-0.161
-413.398	87.850	0.119	-0.133
-412.384	-50.692	0.246	0.116
-411.369	-15.351	0.237	-0.152
-410.355	16.961	0.085	0.067
-409.340	52.251	-0.148	0.142
-408.325	510.444	0.093	-0.216
-407.311	-50.528	-0.168	0.080
-406.296	-8.195	0.241	0.163
-405.282	47.823	0.322	0.302
-404.267	95.650	0.176	-0.202
-403.252	4.828	0.218	-0.161
-402.238	449.592	-0.070	0.155
-401.223	231.735	-0.192	0.316
-400.209	800.000	-0.047	0.147
-399.194	800.000	0.069	0.206
-398.179	5.004	-0.137	0.101
-397.165	499.457	0.070	-0.162
-396.150	-92.755	0.212	0.060
-395.136	447.881	-0.083	-0.183
-394.121	-30.508	-0.111	-0.063
-393.106	-142.216	0.196	0.020
-392.092	22.482	0.167	-0.137
-391.077	19.038	0.042	-0.034
-390.063	-200.000	0.280	-0.001
-389.048	-200.000	-0.007	-0.213
-388.033	-200.000	-0.008	0.131
-387.019	171.693	0.091	0.131
-386.004	-49.502	0.240	0.115
-384.990	-200.000	0.042	0.243
-383.975	112.095	0.159	0.192
-382.960	-144.324	-0.391	-0.037
-381.946	800.000	0.018	-0.075
-380.931	297.834	-0.122	0.225
-379.917	274.395	0.027	0.048
-378.902	28.833	-0.307	0.261
-377.888	800.000	0.012	0.049
-376.873	-88.006	0.114	-0.034
-375.858	-23.314	-0.139	0.084
-374.844	-64.702	0.145	-0.059
-373.829	233.738	0.152	0.252
-372.815	-6.085	0.365	0.250
-371.800	1.677	0.104	0.075
-370.785	-95.429	0.290	0.078
-369.771	-10.790	-0.111	-0.074
-368.756	-200.000	-0.015	0.125
-367.742	-200.000	0.027	0.140
-366.727	-200.000	0.017	0.313
-365.712	378.000	0.172	0.352
-364.698	103.523	-0.048	0.056
-363.683	-200.000	-0.006	0.241
-362.669	262.976	-0.322	-0.560
-361.654	612.747	-0.135	0.339
-360.639	282.213	0.098	-0.176
-359.625	800.000	0.023	-0.099
-358.610	-132.996	-0.306	0.039
-357.596	58.622	0.165	0.162
-356.581	-200.000	-0.017	0.100
-355.566	-34.912	0.393	0.215
-354.552	166.369	-0.181	0.257
-353.537	800.000	-0.032	-0.103
-352.523	-46.050	0.329	-0.162
-351.508	31.279	-0.344	0.296
-350.493	-187.920	0.164	-0.002
-349.479	542.793	-0.220	0.526
-348.464	-200.000	0.007	0.162
-347.450	-8.768	0.080	0.054
-346.435	-200.000	0.035	-0.184
-345.420	-185.698	-0.263	0.004
-344.406	206.614	-0.122	0.191
-343.391	-20.020	0.216	-0.134
-342.377	-72.107	-0.449	0.167
-341.362	380.065	-0.051	0.104
-340.348	161.288	-0.149	0.209
-339.333	-69.679	0.359	-0.137
-338.318	145.117	0.135	-0.181
-337.304	-74.155	0.201	-0.073
-336.289	-29.375	-0.292	-0.167
-335.275	800.000	0.075	0.211
-334.260	-73.567	-0.474	0.173
-333.245	168.226	0.073	-0.104
-332.231	800.000	-0.096	-0.290
-331.216	-68.986	-0.098	-0.038
-330.202	-16.966	-0.201	-0.127
-329.187	72.124	-0.107	-0.112
-328.172	-60.406	0.240	0.102
-327.158	99.531	0.135	-0.156
-326.143	175.224	0.095	-0.137
-325.129	-200.000	-0.003	-0.178
-324.114	155.041	0.112	0.154
-323.099	54.486	0.215	0.207
-322.085	-163.683	-0.181	-0.009
-321.070	9.391	0.076	0.058
-320.056	-24.493	0.275	0.164
-319.041	-183.015	0.330	0.006
-318.026	-200.000	-0.017	0.382
-317.012	282.084	-0.157	0.281
-315.997	125.220	0.089	0.112
-314.983	-1.923	-0.073	0.051
-313.968	-200.000	0.027	0.173
-312.953	667.871	0.132	-0.341
-311.939	-81.752	0.343	-0.112
-310.924	-114.641	-0.032	0.006
-309.910	-77.588	0.159	0.055
-308.895	-126.785	-0.150	-0.022
-307.880	-131.959	0.045	-0.006
-306.866	426.864	-0.094	-0.203
-305.851	557.400	-0.137	-0.331
-304.837	34.038	0.236	-0.206
-303.822	-56.060	0.165	-0.074
-302.807	-19.605	-0.190	0.118
-301.793	-200.000	0.047	-0.211
-300.778	412.440	-0.096	0.205
-299.764	82.506	0.053	0.057
-298.749	-200.000	-0.044	0.223
-297.735	274.493	-0.058	0.102
-296.720	124.666	-0.085	-0.106
-295.705	-26.531	0.188	-0.110
-294.691	-200.000	-0.003	-0.139
-293.676	800.000	0.050	0.147
-292.662	-46.910	-0.170	-0.083
-291.647	52.241	-0.175	0.167
-290.632	-153.926	0.180	0.012
-289.618	7.535	0.151	-0.113
-288.603	13.191	-0.214	0.166
-287.589	-25.106	-0.143	-0.085
-286.574	-5.687	0.101	-0.069
-285.559	475.811	-0.160	-0.362
-284.545	45.643	-0.223	-0.206
-283.530	31.058	0.181	-0.155
-282.516	39.757	-0.060	0.054
-281.501	-129.140	0.058	0.008
-280.486	-200.000	0.022	0.120
-279.472	90.422	0.126	-0.141
-278.457	-68.174	-0.325	-0.126
-277.443	-200.000	-0.026	0.597
-276.428	44.080	0.110	0.101
-275.413	-120.221	0.202	-0.034
-274.399	-200.000	-0.041	-0.313
-273.384	-200.000	-0.053	0.317
-272.370	0.553	0.064	-0.046
-271.355	3.399	0.272	-0.198
-270.340	-110.138	-0.254	0.053
-269.326	-200.000	-0.006	0.141
-268.311	392.587	-0.115	-0.240
-267.297	-93.008	-0.271	0.076
-266.282	37.433	-0.192	-0.170
-265.267	-122.328	0.098	0.016
-264.253	60.262	0.182	-0.180
-263.238	-40.622	-0.269	-0.139
-262.224	-200.000	0.001	0.006
-261.209	-166.320	0.393	0.017
-260.195	-86.133	0.153	0.047
-259.180	800.000	-0.090	0.278
-258.165	278.559	0.125	0.222
-257.151	800.000	0.029	0.119
-256.136	-98.416	0.162	0.041
-255.122	-167.937	0.146	0.006
-254.107	800.000	0.102	-0.443
-253.092	-87.530	0.178	0.054
-252.078	-33.812	0.120	0.066
-251.063	-200.000	-0.009	-0.330
-250.049	-92.985	-0.230	0.064
-249.034	-200.000	-0.023	0.099
-248.019	91.191	0.118	0.132
-247.005	-108.559	0.106	0.023
-245.990	-200.000	0.020	0.217
-244.976	-11.279	0.185	-0.121
-243.961	-93.869	-0.246	0.068
-242.946	-143.323	-0.126	0.012
-241.932	-156.796	0.322	-0.020
-240.917	-60.953	-0.416	-0.175
-239.903	-68.400	0.258	0.100
-238.888	-159.934	-0.165	0.009
-237.873	-46.144	-0.043	-0.021
-236.859	800.000	0.092	0.306
-235.844	-173.271	-0.203	0.006
-234.830	-112.002	-0.236	-0.047
-233.815	-111.637	-0.145	0.029
-232.800	92.709	-0.111	-0.125
-231.786	-200.000	0.003	0.309
-230.771	194.818	0.158	-0.239
-229.757	252.088	-0.057	-0.097
-228.742	133.880	0.250	0.323
-227.727	-200.000	-0.013	-0.085
-226.713	24.534	-0.223	0.184
-225.698	6.498	0.195	0.145
-224.684	-82.473	0.215	-0.070
-223.669	27.611	-0.133	-0.112
-222.655	800.000	0.034	-0.123
-221.640	3.970	-0.150	0.109
-220.625	51.978	0.031	-0.030
-219.611	-42.038	0.311	0.159
-218.596	-200.000	-0.023	-0.175
-217.582	-164.990	-0.121	-0.005
-216.567	-123.628	-0.186	-0.029
-215.552	751.348	-0.151	0.406
-214.538	105.681	-0.152	-0.180
-213.523	530.955	-0.085	0.200
-212.509	-93.654	-0.082	-0.023
-211.494	-134.774	-0.043	-0.005
-210.479	-30.349	0.246	0.139
-209.465	800.000	-0.024	-0.092
-208.450	315.126	0.102	-0.192
-207.436	-2.807	-0.221	-0.154
-206.421	-75.881	0.314	-0.111
-205.406	-86.520	-0.108	0.033
-204.392	800.000	-0.039	-0.125
-203.377	49.757	-0.201	0.189
-202.363	-200.000	0.007	0.109
-201.348	-94.483	0.272	-0.074
-200.333	800.000	-0.088	-0.319
-199.319	278.568	0.064	-0.114
-198.304	-200.000	-0.044	-0.576
-197.290	-70.953	-0.076	-0.029
-196.275	-200.000	0.005	0.288
-195.260	-200.000	-0.020	0.325
-194.246	800.000	0.075	0.328
-193.231	800.000	-0.026	-0.111
-192.217	350.792	0.130	0.257
-191.202	16.587	0.198	-0.156
-190.187	762.888	0.080	0.216
-189.173	26.593	-0.300	0.250
-188.158	-200.000	0.003	0.222
-187.144	-132.742	0.273	-0.035
-186.129	10.554	0.094	0.071
-185.114	232.706	-0.085	-0.140
-184.100	-158.159	0.100	-0.006
-183.085	290.348	-0.113	0.205
-182.071	58.158	0.106	-0.104
-181.056	800.000	0.014	-0.047
-180.042	141.742	0.174	-0.230
-179.027	-200.000	0.030	-0.191
-178.012	132.014	-0.104	0.133
-176.998	-22.662	-0.067	0.040
-175.983	33.117	0.329	-0.284
-174.969	-200.000	0.003	-0.110
-173.954	208.155	-0.117	-0.182
-172.939	-200.000	0.008	-0.042
-171.925	-124.154	-0.260	0.041
-170.910	32.807	-0.135	-0.116
-169.896	800.000	0.018	0.068
-168.881	86.333	-0.193	-0.212
-167.866	-62.003	-0.072	-0.030
-166.852	200.398	-0.143	-0.219
-165.837	-72.137	0.150	-0.055
-164.823	-16.454	-0.277	0.174
-163.808	-200.000	0.044	0.241
-162.793	-21.075	-0.011	0.007
-161.779	546.389	-0.033	-0.080
-160.764	-63.560	-0.057	-0.023
-159.750	-61.006	-0.362	0.152
-158.735	19.611	-0.211	0.169
-157.720	-200.000	0.012	-0.057
-156.706	434.289	0.034	0.074
-155.691	-34.254	0.213	-0.116
-154.677	-200.000	-0.017	0.142
-153.662	-200.000	0.016	-0.133
-152.647	800.000	-0.044	0.132
-151.633	-200.000	0.010	-0.340
-150.618	-200.000	-0.042	-0.186
-149.604	-24.575	0.202	-0.119
-148.589	-200.000	-0.032	0.182
-147.574	-57.068	-0.245	-0.107
-146.560	800.000	0.032	0.090
-145.545	-104.090	0.154	-0.036
-144.531	-200.000	-0.048	0.318
-143.516	179.081	0.041	-0.059
-142.502	-82.201	-0.218	-0.071
-141.487	275.424	0.009	-0.016
-140.472	6.161	-0.193	0.142
-139.458	800.000	-0.062	0.221
-138.443	283.738	-0.114	-0.203
-137.429	259.600	0.097	0.166
-136.414	-65.683	0.151	0.060
-135.399	206.057	0.099	0.153
-134.385	-102.144	0.175	0.042
-133.370	-181.721	-0.260	0.005
-132.356	-200.000	0.024	-0.211
-131.341	800.000	-0.098	0.293
-130.326	-138.587	0.198	0.022
-129.312	-134.669	0.159	-0.019
-128.297	-200.000	0.033	0.234
-127.283	97.289	-0.267	0.305
-126.268	390.354	-0.043	0.088
-125.253	-200.000	-0.002	-0.062
-124.239	422.069	-0.069	-0.146
-123.224	103.627	0.275	-0.321
-122.210	-200.000	0.022	0.099
-121.195	-74.180	-0.236	-0.085
