DTS Sentinel unit serial number:	SN413079Multiplexer serial number:	ORYXHardware model number:	OX4-SRSoftware version number:	ORYX F/W v4.00 Oryx Data Collector v3.7.2.0data status	okinstallation	princeton_trtdifferential loss correction	single-endedforward channel	channel 4reverse channel	N/Adate	2019/09/10time	21:15:10forward acquisition time	60.00reverse acquisition time	0.00gamma	496.2192k internal	0.2313k external	0.2313temperature offset calibration	0.9947default loss term (dB/km)	0.3790temperature slope calibration	1.0000multiplexer offset coefficient	1.0000multiplexer slope coefficient	1.0000fibre end	0.00T internal ref (°C)	31.37T ext. ref 1 (°C)	-0.30T ext. ref 2 (°C)	24.57length (m)	temperature (°C)	Stokes	anti-Stokes-747.200	20.029	0.137	-0.112
-746.185	98.753	-0.065	0.076
-745.171	-81.634	-0.238	-0.079
-744.156	377.499	-0.011	-0.023
-743.142	-200.000	0.007	-0.041
-742.127	-15.862	-0.042	0.027
-741.112	39.557	-0.210	-0.191
-740.098	-200.000	0.011	0.113
-739.083	80.119	-0.062	0.068
-738.069	93.216	-0.309	0.354
-737.054	70.077	0.236	-0.247
-736.039	-78.326	-0.202	-0.070
-735.025	-32.442	-0.160	0.090
-734.010	-200.000	-0.004	-0.257
-732.996	-86.418	0.200	0.062
-731.981	203.177	-0.115	-0.181
-730.966	-200.000	0.019	0.321
-729.952	-26.705	-0.109	-0.065
-728.937	-57.772	-0.036	0.016
-727.923	-200.000	-0.031	-0.403
-726.908	-52.410	-0.052	-0.025
-725.894	-200.000	0.022	0.162
-724.879	33.218	-0.207	0.182
-723.864	81.515	-0.139	-0.152
-722.850	-38.822	-0.289	-0.154
-721.835	191.921	-0.139	-0.212
-720.821	800.000	0.120	-0.353
-719.806	-11.425	-0.260	-0.173
-718.791	143.081	-0.134	-0.181
-717.777	291.242	-0.045	-0.083
-716.762	120.904	0.156	-0.196
-715.748	30.003	-0.214	-0.185
-714.733	-73.736	0.170	0.063
-713.718	-46.635	-0.243	-0.121
-712.704	-73.288	-0.257	0.095
-711.689	800.000	-0.016	-0.070
-710.675	-94.321	-0.129	-0.036
-709.660	-140.869	-0.217	0.023
-708.645	800.000	-0.077	0.264
-707.631	-70.855	-0.166	0.063
-706.616	151.457	0.120	-0.166
-705.602	102.846	0.170	-0.201
-704.587	-168.185	0.184	0.007
-703.572	-124.695	0.156	0.024
-702.558	-14.388	-0.047	-0.031
-701.543	56.450	0.065	0.064
-700.529	319.561	-0.212	-0.407
-699.514	120.929	0.045	0.056
-698.499	800.000	0.141	-0.394
-697.485	424.098	0.145	0.315
-696.470	-200.000	0.018	-0.161
-695.456	507.631	0.064	0.150
-694.441	282.536	0.118	-0.215
-693.426	62.726	0.119	-0.120
-692.412	451.895	-0.096	-0.214
-691.397	-80.357	-0.327	-0.110
-690.383	-34.233	0.168	0.093
-689.368	64.822	0.165	-0.169
-688.354	748.451	0.074	-0.202
-687.339	-38.708	0.192	0.102
-686.324	800.000	0.078	-0.332
-685.310	-10.027	-0.130	0.088
-684.295	-200.000	-0.062	-0.482
-683.281	-159.136	-0.346	-0.020
-682.266	800.000	-0.046	0.164
-681.251	-200.000	-0.016	-0.202
-680.237	-61.708	0.172	0.073
-679.222	-51.151	0.283	-0.134
-678.208	345.824	-0.173	-0.344
-677.193	305.678	-0.029	0.054
-676.178	800.000	-0.027	-0.101
-675.164	-200.000	0.000	-0.025
-674.149	-68.411	-0.321	0.126
-673.135	-159.764	-0.238	-0.013
-672.120	-200.000	0.017	-0.119
-671.105	-200.000	0.000	0.107
-670.091	-200.000	0.005	0.235
-669.076	-97.141	0.198	0.052
-668.062	-16.123	-0.227	-0.146
-667.047	-119.068	0.173	0.031
-666.032	-128.739	-0.343	0.049
-665.018	212.508	-0.183	0.292
-664.003	-65.380	-0.076	0.031
-662.989	504.429	0.070	0.164
-661.974	-82.140	-0.439	-0.145
-660.959	-87.762	-0.172	-0.052
-659.945	380.542	0.109	0.227
-658.930	-22.513	0.387	0.237
-657.916	-200.000	-0.061	-0.449
-656.901	187.836	-0.090	-0.137
-655.886	115.809	-0.013	-0.016
-654.872	-49.288	0.310	0.150
-653.857	370.039	-0.029	-0.058
-652.843	-200.000	0.003	-0.031
-651.828	105.422	0.056	0.067
-650.814	235.127	0.086	-0.144
-649.799	-105.963	-0.142	-0.032
-648.784	-93.511	0.096	0.027
-647.770	0.236	-0.315	-0.227
-646.755	43.650	-0.193	0.179
-645.741	-200.000	0.011	0.127
-644.726	155.263	-0.291	-0.404
-643.711	-3.241	-0.016	-0.011
-642.697	190.905	-0.074	0.113
-641.682	110.984	0.134	-0.164
-640.668	154.611	-0.098	0.137
-639.653	222.767	-0.181	0.295
-638.638	146.920	-0.039	0.053
-637.624	-200.000	-0.018	0.334
-636.609	70.847	0.286	0.299
-635.595	96.002	-0.134	-0.154
-634.580	73.875	-0.266	-0.282
-633.565	390.714	0.056	-0.117
-632.551	89.428	-0.221	-0.249
-631.536	-133.952	0.437	-0.055
-630.522	-147.186	0.164	-0.014
-629.507	-200.000	-0.107	0.000
-628.492	-34.784	0.161	0.089
-627.478	334.043	0.026	0.050
-626.463	-41.743	0.249	0.129
-625.449	381.135	-0.132	-0.274
-624.434	-200.000	0.032	-0.255
-623.419	-84.569	-0.207	0.066
-622.405	-64.556	-0.097	0.040
-621.390	800.000	-0.096	-0.291
-620.376	42.486	-0.141	-0.130
-619.361	278.288	-0.104	-0.187
-618.346	800.000	-0.053	-0.176
-617.332	62.044	-0.237	-0.238
-616.317	-200.000	-0.004	-0.089
-615.303	-200.000	-0.020	0.145
-614.288	-132.313	-0.101	0.013
-613.273	406.163	0.208	0.444
-612.259	-200.000	-0.037	0.195
-611.244	-30.935	0.092	0.053
-610.230	-200.000	0.034	-0.296
-609.215	155.390	0.088	0.123
-608.201	5.261	-0.176	0.131
-607.186	5.700	-0.218	-0.163
-606.171	800.000	-0.065	-0.213
-605.157	-20.633	-0.155	0.096
-604.142	101.452	0.161	0.189
-603.128	28.067	0.046	0.040
-602.113	-115.499	-0.491	0.093
-601.098	-178.380	0.256	0.006
-600.084	33.313	-0.172	-0.151
-599.069	800.000	0.044	-0.141
-598.055	260.796	0.097	-0.170
-597.040	-156.337	-0.318	0.020
-596.025	650.237	-0.120	-0.310
-595.011	284.716	-0.170	-0.308
-593.996	20.408	0.160	-0.131
-592.982	795.991	0.107	-0.297
-591.967	678.723	0.038	0.101
-590.952	800.000	0.031	-0.097
-589.938	800.000	0.039	-0.127
-588.923	-123.928	-0.105	-0.017
-587.909	17.737	0.294	0.236
-586.894	800.000	-0.084	-0.333
-585.879	-18.679	0.092	-0.058
-584.865	80.655	-0.113	-0.123
-583.850	-33.124	0.109	-0.061
-582.836	-151.038	0.278	-0.021
-581.821	13.975	-0.144	0.113
-580.806	-200.000	-0.053	0.332
-579.792	-200.000	0.007	0.097
-578.777	60.997	-0.088	0.088
-577.763	-52.488	-0.269	0.125
-576.748	-75.870	0.336	-0.120
-575.733	-131.009	0.159	-0.021
-574.719	-200.000	0.006	0.288
-573.704	-200.000	-0.029	0.283
-572.690	-99.722	0.411	-0.104
-571.675	140.417	0.104	0.139
-570.661	-142.463	-0.130	0.013
-569.646	-86.619	-0.045	-0.014
-568.631	-144.956	-0.459	0.042
-567.617	187.405	0.054	0.082
-566.602	-200.000	0.000	-0.014
-565.588	561.253	-0.131	-0.318
-564.573	-200.000	-0.064	-0.306
-563.558	-10.101	-0.225	0.151
-562.544	-61.871	0.222	0.093
-561.529	800.000	-0.011	0.047
-560.515	-200.000	0.046	-0.283
-559.500	17.455	-0.078	-0.062
-558.485	-165.951	0.212	0.009
-557.471	-63.592	0.307	0.127
-556.456	-135.420	-0.407	0.049
-555.442	800.000	-0.081	0.253
-554.427	800.000	-0.042	-0.126
-553.412	336.595	-0.175	-0.341
-552.398	-38.928	-0.182	-0.097
-551.383	-200.000	-0.001	0.087
-550.369	-71.864	0.348	0.130
-549.354	-130.197	-0.181	-0.025
-548.339	-200.000	0.009	0.156
-547.325	800.000	0.052	0.152
-546.310	-93.375	-0.464	0.129
-545.296	-109.544	-0.128	0.027
-544.281	-55.747	-0.162	0.073
-543.266	-131.737	0.255	0.034
-542.252	-40.762	0.219	-0.114
-541.237	192.112	-0.035	0.053
-540.223	-115.912	0.475	-0.089
-539.208	-97.293	-0.234	-0.061
-538.193	800.000	-0.052	0.165
-537.179	-94.172	-0.193	-0.053
-536.164	-52.958	-0.418	0.194
-535.150	61.063	0.031	-0.031
-534.135	178.545	0.108	-0.159
-533.121	800.000	-0.062	-0.243
-532.106	800.000	0.062	0.262
-531.091	3.508	-0.235	0.172
-530.077	-200.000	-0.017	-0.425
-529.062	1.358	-0.077	-0.055
-528.048	-67.017	0.089	0.035
-527.033	242.254	-0.056	-0.094
-526.018	795.812	0.072	-0.199
-525.004	800.000	0.017	0.057
-523.989	8.948	0.088	0.066
-522.975	178.731	0.161	0.237
-521.960	-90.357	-0.296	0.086
-520.945	-66.610	0.030	0.012
-519.931	-143.335	0.232	0.022
-518.916	-0.968	0.292	0.207
-517.902	-16.377	-0.522	0.333
-516.887	800.000	0.014	-0.042
-515.872	-200.000	-0.030	0.261
-514.858	-24.825	-0.337	-0.201
-513.843	381.034	0.099	-0.204
-512.829	5.396	0.378	0.280
-511.814	800.000	0.081	-0.313
-510.799	800.000	0.065	0.284
-509.785	-56.172	0.131	-0.059
-508.770	800.000	0.011	0.043
-507.756	-200.000	0.048	-0.301
-506.741	800.000	-0.051	-0.208
-505.726	-200.000	-0.040	-0.488
-504.712	100.193	0.163	-0.190
-503.697	584.463	0.136	-0.337
-502.683	-200.000	-0.017	-0.077
-501.668	-68.380	0.257	-0.100
-500.653	-78.903	-0.106	0.036
-499.639	-182.492	0.454	0.008
-498.624	-200.000	0.003	-0.322
-497.610	-200.000	0.013	0.133
-496.595	-107.499	-0.248	-0.055
-495.581	703.985	-0.110	-0.291
-494.566	-95.793	-0.254	-0.068
-493.551	-18.778	-0.374	-0.234
-492.537	312.043	-0.025	0.046
-491.522	-200.000	0.006	-0.040
-490.508	42.918	0.343	0.314
-489.493	28.047	0.137	-0.116
-488.478	109.870	0.117	-0.141
-487.464	-1.634	0.451	0.319
-486.449	-200.000	0.014	-0.215
-485.435	249.235	-0.145	-0.247
-484.420	-59.560	-0.230	0.099
-483.405	-135.607	-0.257	-0.031
-482.391	-135.827	-0.370	0.044
-481.376	-79.572	0.142	-0.048
-480.362	-73.328	0.179	-0.066
-479.347	15.381	-0.174	-0.137
-478.332	-200.000	0.028	-0.156
-477.318	-62.554	0.153	-0.064
-476.303	149.786	0.101	0.137
-475.289	-128.201	-0.246	0.035
-474.274	106.374	0.132	0.158
-473.259	266.231	-0.085	-0.149
-472.245	-88.255	0.097	-0.029
-471.230	-200.000	-0.030	-0.271
-470.216	-200.000	0.000	-0.288
-469.201	800.000	-0.052	-0.194
-468.186	-5.510	-0.250	-0.172
-467.172	-149.320	0.181	0.014
-466.157	-7.521	-0.198	0.135
-465.143	-122.524	0.366	-0.060
-464.128	71.566	0.219	-0.228
-463.113	376.998	-0.208	0.426
-462.099	800.000	0.116	-0.333
-461.084	290.259	0.126	0.230
-460.070	56.624	-0.084	0.082
-459.055	-200.000	0.043	0.354
-458.040	-56.636	0.190	0.084
-457.026	315.530	-0.174	-0.330
-456.011	-66.590	0.145	0.058
-454.997	107.752	0.070	-0.084
-453.982	800.000	-0.079	-0.298
-452.968	-12.746	-0.224	-0.147
-451.953	-200.000	0.025	0.337
-450.938	-200.000	-0.002	-0.027
-449.924	-95.505	0.038	-0.010
-448.909	-200.000	0.014	0.365
-447.895	115.867	-0.141	-0.173
-446.880	316.629	0.228	0.432
-445.865	-100.831	0.126	-0.031
-444.851	67.956	0.166	0.170
-443.836	149.873	0.030	-0.041
-442.822	-200.000	-0.001	-0.173
-441.807	-158.583	-0.161	0.009
-440.792	-32.706	-0.234	0.130
-439.778	-200.000	0.029	-0.298
-438.763	297.141	-0.110	0.203
-437.749	800.000	-0.025	-0.087
-436.734	800.000	-0.064	-0.220
-435.719	-200.000	-0.025	-0.335
-434.705	17.182	0.285	0.226
-433.690	-47.170	-0.518	-0.253
-432.676	-200.000	0.025	0.310
-431.661	-200.000	0.005	-0.108
-430.646	-200.000	0.044	0.347
-429.632	-92.649	0.097	-0.027
-428.617	-200.000	-0.013	0.061
-427.603	234.627	-0.044	-0.073
-426.588	800.000	-0.043	-0.183
-425.573	800.000	0.129	0.380
-424.559	359.608	0.082	-0.164
-423.544	-200.000	0.054	0.318
-422.530	28.586	-0.138	-0.117
-421.515	-118.213	0.105	0.019
-420.500	60.677	0.188	0.186
-419.486	85.274	0.192	0.211
-418.471	-200.000	0.019	-0.151
-417.457	-200.000	-0.039	-0.356
-416.442	800.000	-0.059	0.178
-415.428	800.000	-0.046	0.142
-414.413	74.179	0.145	-0.153
-413.398	800.000	0.101	0.426
-412.384	-200.000	0.009	-0.168
-411.369	-53.803	-0.135	0.062
-410.355	800.000	0.099	0.385
-409.340	-3.936	0.084	0.059
-408.325	-49.765	0.081	-0.038
-407.311	-127.838	-0.377	0.054
-406.296	-157.962	0.172	0.010
-405.282	285.009	-0.066	-0.120
-404.267	800.000	-0.065	0.186
-403.252	43.268	0.070	0.064
-402.238	27.369	0.251	0.211
-401.223	-110.746	0.268	-0.055
-400.209	293.126	-0.047	0.086
-399.194	-110.637	0.068	-0.014
-398.179	-121.057	-0.231	0.039
-397.165	133.614	0.149	0.193
-396.150	72.380	-0.069	0.072
-395.136	129.983	-0.214	0.273
-394.121	-3.009	0.138	0.096
-393.106	-23.970	-0.153	-0.092
-392.092	-70.102	-0.265	-0.101
-391.077	-200.000	0.000	0.079
-390.063	-106.487	0.153	-0.034
-389.048	547.700	0.078	-0.187
-388.033	-49.002	0.128	-0.061
-387.019	-150.055	0.063	-0.005
-386.004	13.605	0.107	0.083
-384.990	241.877	-0.161	-0.269
-383.975	342.845	-0.293	0.574
-382.960	-119.852	0.136	-0.023
-381.946	-81.490	0.138	-0.045
-380.931	-200.000	0.002	-0.017
-379.917	316.377	-0.172	-0.324
-378.902	-60.493	0.209	-0.089
-377.888	-77.438	0.013	0.004
-376.873	-53.516	0.310	-0.142
-375.858	21.681	0.234	0.190
-374.844	-29.806	0.345	0.197
-373.829	287.901	-0.035	0.064
-372.815	271.474	0.048	-0.085
-371.800	800.000	0.047	0.193
-370.785	8.284	-0.176	0.132
-369.771	96.376	-0.068	-0.078
-368.756	-174.612	0.178	-0.005
-367.742	-8.755	-0.205	-0.137
-366.727	-200.000	-0.009	-0.061
-365.712	800.000	0.047	-0.157
-364.698	-27.180	-0.233	0.136
-363.683	67.447	0.030	-0.031
-362.669	-35.445	0.158	0.085
-361.654	-154.659	-0.083	-0.006
-360.639	-34.256	-0.198	-0.108
-359.625	-29.091	0.164	-0.094
-358.610	520.556	-0.180	-0.422
-357.596	-200.000	-0.009	-0.230
-356.581	50.523	-0.163	0.154
-355.566	-120.350	-0.098	-0.017
-354.552	463.588	0.086	-0.192
-353.537	-200.000	-0.008	-0.066
-352.523	800.000	-0.077	0.233
-351.508	99.264	-0.309	0.357
-350.493	37.069	-0.061	-0.054
-349.479	-17.164	0.493	-0.310
-348.464	-35.753	0.181	-0.098
-347.450	-46.201	-0.312	0.154
-346.435	11.445	0.136	0.104
-345.420	-82.429	0.226	-0.073
-344.406	800.000	0.089	0.270
-343.391	-175.299	0.256	-0.007
-342.377	685.555	0.096	-0.251
-341.362	800.000	-0.108	-0.457
-340.348	128.073	-0.138	-0.176
-339.333	800.000	-0.077	0.232
-338.318	22.901	-0.054	0.044
-337.304	84.340	0.109	0.119
-336.289	-38.256	0.131	0.069
-335.275	170.728	0.088	0.126
-334.260	-1.764	0.244	0.171
-333.245	554.429	0.041	-0.098
-332.231	3.600	-0.119	0.087
-331.216	442.857	0.157	0.344
-330.202	-67.164	0.288	0.113
-329.187	132.967	-0.187	-0.241
-328.172	-107.955	0.133	-0.029
-327.158	29.085	0.097	-0.082
-326.143	-64.898	0.306	0.124
-325.129	28.609	0.223	-0.188
-324.114	800.000	-0.049	0.151
-323.099	800.000	-0.027	-0.101
-322.085	13.529	0.246	-0.191
-321.070	32.170	-0.037	-0.032
-320.056	23.679	-0.102	0.084
-319.041	-20.558	0.153	-0.094
-318.026	281.860	-0.062	-0.110
-317.012	-66.832	0.188	0.074
-315.997	-67.066	0.197	0.077
-314.983	356.055	-0.093	-0.184
-313.968	-132.939	0.251	-0.032
-312.953	-68.217	0.093	-0.036
-311.939	-180.511	0.153	-0.003
-310.924	-139.274	0.172	0.018
-309.910	-144.659	0.315	-0.029
-308.895	800.000	0.035	0.122
-307.880	3.009	-0.257	0.186
-306.866	800.000	0.036	-0.128
-305.851	-65.198	0.282	0.113
-304.837	-200.000	-0.002	0.128
-303.822	800.000	0.037	0.126
-302.807	-79.920	-0.255	0.085
-301.793	-200.000	-0.022	-0.305
-300.778	-80.298	-0.195	-0.065
-299.764	-135.898	-0.073	0.009
-298.749	-128.111	0.175	-0.025
-297.735	800.000	0.064	-0.184
-296.720	106.791	0.110	-0.131
-295.705	62.646	0.262	0.261
-294.691	-200.000	-0.005	-0.112
-293.676	-46.408	-0.236	0.116
-292.662	39.200	0.160	-0.142
-291.647	198.420	0.110	0.167
-290.632	-99.046	-0.148	-0.037
-289.618	800.000	0.109	-0.392
-288.603	-200.000	-0.012	0.157
-287.589	-200.000	-0.022	0.194
-286.574	-195.506	-0.438	0.003
-285.559	444.235	-0.099	0.217
-284.545	8.362	-0.142	0.106
-283.530	800.000	-0.051	-0.201
-282.516	-108.712	-0.351	0.075
-281.501	47.305	0.118	0.110
-280.486	54.153	0.063	-0.061
-279.472	235.537	0.151	-0.248
-278.457	-51.779	-0.241	-0.112
-277.443	-200.000	0.058	0.257
-276.428	61.173	0.080	-0.079
-275.413	497.998	-0.026	0.060
-274.399	-79.439	0.332	0.112
-273.384	-189.480	0.176	0.002
-272.370	-39.333	-0.278	-0.145
-271.355	327.020	-0.068	0.130
-270.340	-200.000	0.014	0.349
-269.326	800.000	0.031	0.101
-268.311	231.155	0.125	0.204
-267.297	17.464	0.074	-0.058
-266.282	-138.415	0.079	-0.009
-265.267	458.052	-0.025	-0.056
-264.253	-87.280	-0.087	0.026
-263.238	-169.902	-0.130	-0.005
-262.224	800.000	0.052	0.208
-261.209	-28.387	-0.163	-0.094
-260.195	122.227	0.110	-0.137
-259.180	-98.935	-0.334	-0.084
-258.165	-200.000	-0.008	-0.033
-257.151	-87.158	-0.318	0.096
-256.136	755.918	-0.018	-0.047
-255.122	99.818	0.262	0.302
-254.107	-200.000	0.016	-0.141
-253.092	-188.030	-0.443	-0.006
-252.078	-87.724	-0.283	0.085
-251.063	45.617	-0.166	0.152
-250.049	-200.000	0.027	0.344
-249.034	-200.000	0.049	-0.261
-248.019	154.611	-0.174	0.237
-247.005	800.000	0.054	0.229
-245.990	97.394	-0.311	0.355
-244.976	800.000	-0.142	-0.431
-243.961	19.166	0.062	0.050
-242.946	22.128	0.184	-0.149
-241.932	-58.594	0.139	-0.060
-240.917	800.000	-0.083	-0.229
-239.903	-182.245	0.276	0.005
-238.888	800.000	0.079	0.260
-237.873	-118.038	0.156	-0.028
-236.859	800.000	0.026	0.107
-235.844	12.552	0.077	0.059
-234.830	-135.090	0.104	0.012
-233.815	-102.342	0.009	-0.002
-232.800	263.224	0.019	0.033
-231.786	289.354	0.116	0.210
-230.771	-72.775	0.119	0.044
-229.757	-53.976	0.079	-0.036
-228.742	-21.462	-0.240	0.146
-227.727	-200.000	-0.036	0.280
-226.713	-88.224	0.081	0.024
-225.698	-47.261	0.121	0.059
-224.684	1.843	-0.087	0.062
-223.669	-77.742	0.062	-0.021
-222.655	145.941	-0.079	0.105
-221.640	-200.000	0.006	-0.133
-220.625	-175.268	-0.218	-0.006
-219.611	37.459	-0.121	0.107
-218.596	-45.786	-0.194	0.095
-217.582	-43.991	-0.252	0.126
-216.567	550.895	0.065	0.155
-215.552	-13.279	-0.258	-0.167
-214.538	-108.275	0.200	-0.043
-213.523	-137.053	0.075	-0.009
-212.509	-152.190	-0.347	-0.025
-211.494	394.978	-0.136	-0.283
-210.479	-200.000	-0.019	-0.364
-209.465	-133.433	-0.139	-0.017
-208.450	-154.190	-0.485	0.033
-207.436	-46.304	0.248	-0.121
-206.421	800.000	-0.037	0.114
-205.406	176.538	0.025	0.035
-204.392	-26.787	0.348	0.202
-203.377	-40.795	0.383	0.197
-202.363	17.911	0.219	0.173
-201.348	-81.011	-0.344	0.113
-200.333	-34.958	0.048	-0.026
-199.319	800.000	0.058	-0.183
-198.304	-38.603	0.055	-0.029
-197.290	-171.053	0.082	0.003
-196.275	-29.721	0.202	0.114
-195.260	-52.817	0.132	0.061
-194.246	-32.096	-0.260	0.144
-193.231	19.279	-0.177	0.141
-192.217	-101.467	-0.085	-0.021
-191.202	-114.322	-0.221	-0.042
-190.187	-113.796	0.205	-0.040
-189.173	-84.526	0.337	0.105
-188.158	240.970	0.195	0.323
-187.144	81.451	0.288	0.309
-186.129	-34.539	-0.195	-0.106
-185.114	477.549	0.073	0.163
-184.100	-200.000	0.045	-0.248
-183.085	-200.000	-0.053	0.563
-182.071	282.370	0.129	-0.230
-181.056	-124.973	-0.062	0.009
-180.042	-5.890	-0.289	0.196
-179.027	-22.994	-0.282	-0.169
-178.012	314.439	-0.042	-0.079
-176.998	-200.000	0.025	-0.110
-175.983	-46.451	0.080	0.039
-174.969	95.934	-0.074	0.083
-173.954	-83.267	-0.207	0.066
-172.939	52.564	-0.053	0.050
-171.925	-103.112	0.395	-0.093
-170.910	515.914	-0.188	-0.435
-169.896	281.453	0.111	-0.197
-168.881	-1.019	-0.082	-0.058
-167.866	104.633	-0.217	0.254
-166.852	-150.807	-0.072	0.005
-165.837	27.963	-0.276	-0.231
-164.823	454.949	0.063	-0.138
-163.808	-26.503	0.388	0.226
-162.793	510.004	-0.053	-0.122
-161.779	-200.000	0.005	-0.249
-160.764	214.751	0.151	-0.237
-159.750	800.000	-0.067	0.197
-158.735	-200.000	-0.013	-0.074
-157.720	104.316	0.176	-0.205
-156.706	-72.999	0.250	0.091
-155.691	-15.642	0.177	-0.112
-154.677	-17.677	-0.352	0.219
-153.662	-27.018	-0.163	0.094
-152.647	-63.140	0.099	0.041
-151.633	-200.000	-0.066	0.000
-150.618	-36.306	0.256	-0.137
-149.604	85.170	0.307	-0.333
-148.589	24.590	-0.287	0.236
-147.574	-114.469	0.295	-0.056
-146.560	-176.326	0.147	0.004
-145.545	90.301	0.124	-0.138
-144.531	-127.053	0.440	0.064
-143.516	-112.627	-0.055	-0.011
-142.502	-200.000	0.032	0.279
-141.487	-40.287	0.087	0.045
-140.472	58.386	-0.163	-0.158
-139.458	-110.773	-0.137	-0.028
-138.443	-55.644	0.279	0.124
-137.429	40.580	-0.357	-0.318
-136.414	-200.000	0.054	-0.278
-135.399	738.011	0.083	-0.220
-134.385	-23.535	-0.077	0.046
-133.370	-125.963	-0.579	0.086
-132.356	26.907	0.218	0.181
-131.341	-119.586	0.346	0.059
-130.326	48.854	-0.092	-0.086
-129.312	42.076	-0.141	0.127
-128.297	-200.000	-0.223	-0.001
-127.283	800.000	0.065	-0.235
-126.268	-46.084	-0.228	-0.111
-125.253	-43.620	-0.087	-0.043
-124.239	-200.000	-0.036	-0.197
-123.224	70.020	-0.127	0.130
-122.210	21.853	0.198	-0.159
-121.195	483.313	-0.010	0.022
