DTS Sentinel unit serial number:	SN413079Multiplexer serial number:	ORYXHardware model number:	OX4-SRSoftware version number:	ORYX F/W v4.00 Oryx Data Collector v3.7.2.0data status	okinstallation	princeton_trtdifferential loss correction	single-endedforward channel	channel 4reverse channel	N/Adate	2019/09/12time	02:19:11forward acquisition time	60.00reverse acquisition time	0.00gamma	496.2192k internal	0.2310k external	0.2310temperature offset calibration	1.0088default loss term (dB/km)	0.3790temperature slope calibration	1.0000multiplexer offset coefficient	1.0000multiplexer slope coefficient	1.0000fibre end	0.00T internal ref (°C)	32.61T ext. ref 1 (°C)	2.08T ext. ref 2 (°C)	26.22length (m)	temperature (°C)	Stokes	anti-Stokes-747.200	230.492	-0.167	0.278
-746.185	-200.000	-0.030	0.398
-745.171	425.605	-0.031	0.069
-744.156	136.955	-0.116	0.154
-743.142	-123.481	0.099	-0.016
-742.127	26.503	-0.319	0.271
-741.112	161.688	-0.082	0.117
-740.098	-89.381	-0.326	0.097
-739.083	26.164	-0.112	-0.095
-738.069	88.035	0.106	0.119
-737.054	-135.285	-0.141	-0.017
-736.039	-124.169	-0.133	0.021
-735.025	126.971	-0.086	0.110
-734.010	-200.000	-0.022	0.146
-732.996	-200.000	0.037	0.218
-731.981	182.293	-0.162	-0.243
-730.966	344.349	0.044	0.088
-729.952	-13.312	0.093	-0.061
-728.937	731.587	0.006	-0.016
-727.923	-200.000	0.021	-0.209
-726.908	-200.000	0.021	-0.212
-725.894	800.000	0.101	-0.305
-724.879	-195.491	-0.608	0.005
-723.864	-102.687	-0.180	-0.043
-722.850	69.387	-0.173	-0.181
-721.835	-200.000	-0.013	0.215
-720.821	582.720	0.012	0.030
-719.806	-46.323	-0.114	-0.057
-718.791	57.037	-0.067	0.066
-717.777	-200.000	0.046	0.233
-716.762	-83.303	0.438	0.143
-715.748	61.886	0.260	-0.263
-714.733	78.134	-0.085	0.092
-713.718	195.557	0.006	-0.009
-712.704	96.165	0.072	0.084
-711.689	-200.000	-0.003	0.235
-710.675	800.000	-0.114	0.402
-709.660	307.103	-0.010	0.018
-708.645	-200.000	-0.030	0.226
-707.631	129.879	-0.143	-0.186
-706.616	-101.459	-0.205	-0.051
-705.602	-40.125	-0.238	-0.126
-704.587	-94.199	-0.070	0.019
-703.572	-127.094	0.111	0.016
-702.558	1.881	-0.177	0.129
-701.543	-76.495	-0.214	0.076
-700.529	13.031	-0.098	0.077
-699.514	186.314	0.230	-0.346
-698.499	800.000	-0.032	-0.104
-697.485	-200.000	-0.013	-0.361
-696.470	-200.000	-0.002	-0.231
-695.456	800.000	-0.020	-0.059
-694.441	382.194	-0.090	0.188
-693.426	-51.784	0.067	0.032
-692.412	-28.138	-0.172	-0.101
-691.397	189.085	0.255	-0.387
-690.383	19.285	0.134	0.109
-689.368	204.961	0.060	0.094
-688.354	-158.620	-0.311	-0.018
-687.339	408.344	0.142	-0.305
-686.324	-55.990	-0.336	0.152
-685.310	748.111	0.013	-0.034
-684.295	114.352	-0.121	-0.149
-683.281	-200.000	0.004	0.252
-682.266	-37.514	-0.161	0.087
-681.251	62.140	0.057	-0.058
-680.237	-135.456	-0.086	-0.010
-679.222	137.605	-0.159	0.211
-678.208	183.554	0.245	0.367
-677.193	11.415	0.429	-0.333
-676.178	-200.000	-0.041	0.226
-675.164	800.000	0.060	-0.241
-674.149	-45.592	0.139	0.070
-673.135	-145.145	0.039	-0.004
-672.120	-192.821	-0.332	0.003
-671.105	-39.165	0.129	-0.069
-670.091	395.642	-0.151	-0.320
-669.076	29.556	-0.020	0.018
-668.062	-200.000	-0.003	0.337
-667.047	-135.955	-0.315	-0.038
-666.032	47.131	0.188	0.177
-665.018	16.879	0.011	0.009
-664.003	-192.161	-0.235	-0.002
-662.989	52.055	-0.177	0.170
-661.974	-114.004	-0.163	0.032
-660.959	-200.000	0.010	-0.122
-659.945	-200.000	0.010	-0.131
-658.930	-47.108	-0.095	-0.047
-657.916	-200.000	0.030	-0.401
-656.901	-6.319	-0.222	-0.154
-655.886	-89.899	-0.211	-0.062
-654.872	-51.443	0.124	0.059
-653.857	800.000	0.067	-0.251
-652.843	-200.000	0.031	-0.230
-651.828	-146.540	0.251	-0.022
-650.814	0.689	-0.432	-0.313
-649.799	-46.905	-0.189	-0.094
-648.784	66.715	0.190	-0.196
-647.770	-11.630	-0.324	-0.215
-646.755	-200.000	0.015	0.071
-645.741	-14.467	0.127	-0.083
-644.726	215.185	0.146	0.234
-643.711	31.913	-0.124	0.108
-642.697	-200.000	0.034	-0.323
-641.682	12.749	-0.230	-0.180
-640.668	21.700	-0.155	-0.128
-639.653	24.296	-0.236	-0.197
-638.638	-63.004	-0.200	-0.084
-637.624	-200.000	-0.020	-0.436
-636.609	-164.768	-0.289	0.013
-635.595	-147.610	0.210	-0.018
-634.580	-128.977	-0.202	0.029
-633.565	-200.000	-0.025	0.259
-632.551	-200.000	-0.281	0.000
-631.536	506.070	0.164	-0.384
-630.522	-45.051	0.239	-0.120
-629.507	-200.000	0.000	-0.188
-628.492	-46.618	-0.065	-0.032
-627.478	139.225	0.124	0.166
-626.463	-200.000	0.050	-0.252
-625.449	223.585	0.088	0.144
-624.434	-158.012	-0.381	-0.023
-623.419	-101.998	-0.176	-0.043
-622.405	257.083	0.093	-0.162
-621.390	-200.000	-0.120	0.000
-620.376	800.000	0.135	-0.433
-619.361	191.987	-0.027	0.042
-618.346	-200.000	-0.003	0.113
-617.332	800.000	-0.077	-0.329
-616.317	-200.000	0.051	-0.246
-615.303	-105.478	0.104	0.024
-614.288	800.000	-0.055	-0.209
-613.273	465.758	0.044	-0.099
-612.259	-200.000	0.066	-0.306
-611.244	-181.017	-0.441	-0.009
-610.230	-109.400	-0.295	0.063
-609.215	-200.000	0.025	0.428
-608.201	546.302	-0.099	-0.239
-607.186	105.600	-0.159	-0.190
-606.171	484.497	-0.023	0.052
-605.157	154.380	0.273	0.378
-604.142	-47.602	-0.099	-0.049
-603.128	800.000	-0.094	0.293
-602.113	-27.530	-0.061	-0.036
-601.098	-113.696	0.194	-0.038
-600.084	5.144	0.301	0.224
-599.069	-18.664	-0.082	0.051
-598.055	406.417	0.098	0.208
-597.040	-200.000	-0.086	0.382
-596.025	-200.000	0.045	-0.307
-595.011	-200.000	-0.036	0.266
-593.996	-7.664	-0.114	0.078
-592.982	-200.000	-0.001	0.065
-591.967	444.869	0.138	-0.307
-590.952	-33.096	0.163	0.091
-589.938	800.000	-0.036	0.123
-588.923	-200.000	0.004	-0.163
-587.909	-182.632	0.146	-0.003
-586.894	-200.000	0.015	0.191
-585.879	-77.534	-0.376	0.131
-584.865	-200.000	0.010	-0.224
-583.850	-88.347	0.167	0.051
-582.836	800.000	-0.013	0.043
-581.821	-24.342	-0.303	-0.183
-580.806	800.000	0.025	0.096
-579.792	-106.586	0.295	0.066
-578.777	-15.333	0.085	-0.055
-577.763	-54.825	0.016	-0.007
-576.748	-71.869	-0.188	-0.071
-575.733	614.434	-0.088	-0.221
-574.719	-200.000	-0.026	-0.399
-573.704	146.109	0.072	0.098
-572.690	573.174	-0.006	-0.015
-571.675	-59.734	-0.096	-0.042
-570.661	185.187	0.227	0.340
-569.646	-200.000	0.018	-0.189
-568.631	-77.188	0.113	0.040
-567.617	-200.000	0.011	0.210
-566.602	-200.000	-0.189	0.001
-565.588	-200.000	-0.018	0.139
-564.573	-63.736	-0.092	0.038
-563.558	-98.133	0.246	0.064
-562.544	-200.000	-0.075	0.445
-561.529	150.845	-0.190	-0.261
-560.515	-200.000	-0.039	0.217
-559.500	-200.000	0.010	-0.107
-558.485	-200.000	0.005	0.045
-557.471	-200.000	-0.015	0.114
-556.456	9.645	0.109	0.084
-555.442	-49.378	0.180	0.087
-554.427	-76.350	-0.239	0.085
-553.412	800.000	0.036	-0.155
-552.398	-200.000	0.041	-0.192
-551.383	-200.000	0.000	-0.166
-550.369	-60.009	-0.036	-0.015
-549.354	-200.000	-0.026	-0.295
-548.339	-81.862	0.129	0.042
-547.325	-66.970	-0.066	0.026
-546.310	-73.847	-0.238	0.087
-545.296	-163.394	-0.151	-0.007
-544.281	-200.000	-0.021	0.267
-543.266	48.523	-0.196	-0.185
-542.252	366.886	0.081	0.165
-541.237	324.624	0.006	-0.011
-540.223	19.589	-0.144	0.117
-539.208	166.001	0.125	0.178
-538.193	280.156	0.207	-0.372
-537.179	90.195	-0.144	0.162
-536.164	140.113	0.132	0.175
-535.150	-168.750	0.156	-0.006
-534.135	795.418	-0.037	0.103
-533.121	-90.993	0.068	0.020
-532.106	216.616	-0.122	-0.195
-531.091	52.000	-0.219	-0.210
-530.077	467.367	0.101	-0.228
-529.062	749.150	0.035	-0.096
-528.048	-188.118	0.119	-0.002
-527.033	137.986	0.086	0.113
-526.018	-85.011	0.212	0.067
-525.004	-0.582	-0.246	-0.176
-523.989	4.079	0.166	-0.122
-522.975	-165.430	-0.252	0.011
-521.960	2.763	-0.273	0.199
-520.945	44.786	0.169	-0.157
-519.931	-102.982	-0.113	0.027
-518.916	-57.039	-0.311	0.138
-517.902	-200.000	0.014	-0.189
-516.887	-200.000	0.005	0.103
-515.872	441.736	0.043	0.094
-514.858	756.431	-0.093	0.252
-513.843	-118.324	-0.033	0.006
-512.829	368.763	0.149	-0.303
-511.814	-200.000	0.000	0.002
-510.799	800.000	0.043	-0.122
-509.785	58.658	0.064	0.063
-508.770	-200.000	-0.010	0.309
-507.756	-200.000	-0.053	0.267
-506.741	800.000	0.057	-0.162
-505.726	610.858	0.070	0.175
-504.712	-130.479	-0.131	0.018
-503.697	-138.572	0.165	0.018
-502.683	21.949	0.200	-0.164
-501.668	-200.000	-0.039	-0.326
-500.653	-34.148	0.115	-0.064
-499.639	21.496	-0.467	-0.382
-498.624	-200.000	0.028	0.286
-497.610	695.974	-0.157	0.415
-496.595	556.909	-0.065	-0.157
-495.581	214.790	-0.105	-0.167
-494.566	49.807	0.055	0.052
-493.551	-92.978	-0.199	-0.056
-492.537	-193.718	-0.172	0.001
-491.522	-13.066	-0.162	-0.106
-490.508	35.620	-0.202	0.179
-489.493	-42.007	0.120	-0.062
-488.478	-34.796	-0.161	-0.088
-487.464	-31.409	0.139	-0.079
-486.449	197.343	-0.203	0.311
-485.435	202.151	-0.243	-0.377
-484.420	-200.000	0.059	0.269
-483.405	-42.223	0.265	-0.136
-482.391	800.000	-0.066	0.259
-481.376	-73.071	0.316	0.117
-480.362	-192.267	-0.421	-0.004
-479.347	-157.503	-0.316	-0.019
-478.332	336.219	0.157	-0.306
-477.318	3.229	0.114	-0.083
-476.303	800.000	0.119	-0.365
-475.289	-71.316	-0.303	0.114
-474.274	84.290	0.196	0.216
-473.259	-116.837	0.227	-0.042
-472.245	769.550	0.112	0.306
-471.230	-102.131	-0.188	0.045
-470.216	123.846	0.186	-0.235
-469.201	-200.000	0.026	-0.267
-468.186	443.183	-0.102	0.224
-467.172	-133.945	-0.322	0.040
-466.157	800.000	0.043	0.131
-465.143	81.009	0.105	0.114
-464.128	-200.000	-0.004	-0.110
-463.113	-164.062	0.084	-0.004
-462.099	16.510	0.208	0.165
-461.084	800.000	0.028	0.081
-460.070	-200.000	-0.021	-0.188
-459.055	-35.152	-0.089	0.049
-458.040	-175.510	0.146	0.004
-457.026	-200.000	0.046	0.264
-456.011	-145.764	0.275	-0.025
-454.997	800.000	0.070	0.205
-453.982	-83.876	0.244	-0.078
-452.968	-6.116	-0.168	-0.115
-451.953	-162.425	0.429	-0.021
-450.938	-9.004	0.180	0.121
-449.924	-8.941	-0.271	0.182
-448.909	-171.697	-0.406	0.013
-447.895	65.106	-0.182	0.184
-446.880	-119.208	0.269	-0.047
-445.865	633.084	-0.097	-0.247
-444.851	-143.697	0.156	-0.015
-443.836	800.000	0.078	-0.240
-442.822	-139.707	-0.192	-0.021
-441.807	-200.000	0.003	0.140
-440.792	66.315	0.136	0.139
-439.778	-99.888	0.327	0.082
-438.763	800.000	-0.054	-0.225
-437.749	-78.691	0.358	-0.123
-436.734	-200.000	0.029	-0.379
-435.719	-147.589	-0.210	0.018
-434.705	359.805	0.048	0.097
-433.690	-180.871	0.145	0.003
-432.676	-98.499	-0.243	-0.062
-431.661	104.276	-0.111	0.132
-430.646	-200.000	0.004	0.215
-429.632	312.970	0.067	0.127
-428.617	187.592	-0.185	-0.277
-427.603	78.214	-0.132	0.141
-426.588	-16.159	0.095	0.061
-425.573	-76.142	-0.274	-0.097
-424.559	-200.000	-0.004	0.149
-423.544	33.900	0.031	-0.027
-422.530	-23.648	0.226	-0.136
-421.515	-89.648	-0.293	-0.086
-420.500	427.194	0.074	0.160
-419.486	-200.000	-0.002	0.164
-418.471	587.837	-0.132	-0.326
-417.457	-143.183	0.325	0.031
-416.442	-106.750	0.179	0.040
-415.428	759.440	-0.188	0.510
-414.413	-79.135	-0.468	0.159
-413.398	190.204	0.065	0.098
-412.384	-200.000	-0.027	0.269
-411.369	-60.768	-0.139	-0.059
-410.355	800.000	0.035	-0.126
-409.340	15.974	0.273	0.215
-408.325	-42.131	0.077	-0.039
-407.311	800.000	0.040	0.160
-406.296	800.000	0.044	-0.160
-405.282	321.533	0.041	-0.078
-404.267	-178.290	0.162	0.004
-403.252	-141.970	-0.328	0.033
-402.238	-103.303	0.288	0.068
-401.223	-87.340	-0.617	0.188
-400.209	800.000	0.062	0.198
-399.194	279.474	0.046	-0.083
-398.179	-70.560	0.208	-0.079
-397.165	-40.625	-0.139	0.072
-396.150	800.000	-0.124	0.411
-395.136	800.000	-0.042	0.165
-394.121	-104.252	-0.049	0.011
-393.106	-200.000	0.019	-0.133
-392.092	-200.000	0.420	-0.002
-391.077	106.500	0.047	0.056
-390.063	-34.374	-0.061	-0.033
-389.048	-145.126	-0.137	-0.012
-388.033	-1.164	-0.342	-0.242
-387.019	-30.185	-0.293	0.167
-386.004	800.000	-0.081	-0.229
-384.990	-200.000	0.004	0.080
-383.975	-13.243	-0.294	0.191
-382.960	-97.999	0.166	0.043
-381.946	439.881	0.047	0.103
-380.931	-52.474	0.162	-0.075
-379.917	35.581	0.059	-0.052
-378.902	187.402	0.092	-0.138
-377.888	-200.000	0.009	0.269
-376.873	-109.340	0.155	-0.033
-375.858	-71.631	-0.312	0.117
-374.844	-111.688	-0.204	-0.041
-373.829	743.832	0.042	0.113
-372.815	-170.512	-0.148	0.005
-371.800	-112.331	-0.040	0.008
-370.785	134.532	-0.025	0.032
-369.771	800.000	0.019	0.065
-368.756	-200.000	0.005	0.276
-367.742	50.871	0.410	0.388
-366.727	-200.000	-0.010	-0.154
-365.712	-200.000	0.023	0.253
-364.698	778.607	-0.054	0.148
-363.683	-3.629	0.213	0.148
-362.669	617.066	0.080	0.201
-361.654	800.000	0.032	-0.102
-360.639	46.337	0.059	-0.055
-359.625	800.000	-0.111	0.360
-358.610	-121.654	0.141	-0.023
-357.596	-200.000	0.022	0.354
-356.581	-200.000	-0.028	0.186
-355.566	-3.347	0.131	0.091
-354.552	556.514	0.058	0.139
-353.537	273.927	0.103	0.183
-352.523	130.804	-0.188	-0.241
-351.508	-200.000	-0.078	-0.405
-350.493	-72.342	-0.204	0.076
-349.479	156.953	0.195	0.269
-348.464	385.582	0.094	-0.194
-347.450	244.503	0.074	-0.124
-346.435	132.768	-0.068	-0.088
-345.420	-155.800	-0.057	0.004
-344.406	202.004	0.045	-0.069
-343.391	800.000	0.019	0.065
-342.377	-50.226	0.186	-0.088
-341.362	-200.000	0.024	-0.335
-340.348	-200.000	-0.064	0.372
-339.333	193.054	0.174	-0.263
-338.318	-116.978	0.033	0.006
-337.304	69.462	0.121	-0.124
-336.289	167.256	-0.217	0.308
-335.275	-4.054	0.172	-0.119
-334.260	-200.000	0.005	-0.175
-333.245	-33.429	0.230	-0.127
-332.231	382.560	0.141	-0.290
-331.216	800.000	0.022	-0.076
-330.202	380.459	0.036	-0.074
-329.187	-42.779	0.144	0.073
-328.172	77.083	0.038	0.041
-327.158	253.432	-0.075	0.129
-326.143	239.831	-0.091	0.151
-325.129	561.143	0.070	0.168
-324.114	-74.279	-0.209	0.076
-323.099	-49.326	-0.291	-0.139
-322.085	-32.544	0.303	-0.168
-321.070	-160.825	0.235	0.012
-320.056	-116.278	-0.306	-0.057
-319.041	70.399	-0.115	0.118
-318.026	-68.000	0.062	-0.024
-317.012	-118.329	0.226	0.040
-315.997	-50.692	0.045	0.021
-314.983	30.827	0.181	-0.155
-313.968	-200.000	0.023	-0.171
-312.953	-159.858	0.096	-0.005
-311.939	-154.102	-0.114	-0.008
-310.924	800.000	-0.066	-0.244
-309.910	83.388	0.153	0.167
-308.895	31.200	-0.133	0.114
-307.880	266.784	-0.070	-0.123
-306.866	133.088	0.129	-0.167
-305.851	-200.000	0.039	-0.246
-304.837	-16.101	0.104	-0.066
-303.822	-28.904	-0.219	-0.125
-302.807	251.529	-0.154	-0.262
-301.793	-141.848	0.174	-0.017
-300.778	-82.145	0.284	0.092
-299.764	-125.041	-0.340	0.052
-298.749	800.000	0.022	-0.078
-297.735	241.538	-0.026	0.043
-296.720	76.547	0.117	0.124
-295.705	-153.339	0.248	-0.017
-294.691	800.000	-0.005	0.016
-293.676	74.306	-0.055	-0.058
-292.662	76.498	-0.098	0.104
-291.647	-111.059	0.491	-0.101
-290.632	-48.109	0.214	-0.103
-289.618	279.620	-0.111	0.199
-288.603	-106.031	-0.232	0.052
-287.589	-126.289	0.418	-0.062
-286.574	201.003	0.093	-0.143
-285.559	800.000	-0.052	0.148
-284.545	-46.807	0.465	-0.227
-283.530	356.440	-0.085	0.169
-282.516	355.859	-0.119	0.236
-281.501	10.152	-0.242	0.183
-280.486	-101.835	-0.380	0.092
-279.472	456.105	-0.079	0.175
-278.457	294.758	0.149	-0.272
-277.443	187.602	0.052	0.078
-276.428	215.571	-0.064	0.101
-275.413	-43.113	0.396	0.200
-274.399	-200.000	0.012	-0.276
-273.384	340.907	-0.039	-0.077
-272.370	-109.793	-0.117	-0.025
-271.355	-10.023	0.194	0.129
-270.340	-68.585	0.057	-0.022
-269.326	-163.164	-0.139	-0.007
-268.311	17.402	0.352	0.279
-267.297	800.000	0.063	0.263
-266.282	365.094	-0.228	-0.457
-265.267	55.246	-0.283	-0.273
-264.253	-154.220	0.166	-0.011
-263.238	-200.000	-0.016	-0.305
-262.224	-105.328	-0.050	-0.011
-261.209	-142.459	-0.163	0.016
-260.195	-128.125	-0.163	-0.023
-259.180	-30.407	-0.104	-0.059
-258.165	124.755	0.160	0.201
-257.151	236.598	-0.114	0.189
-256.136	128.375	0.117	-0.149
-255.122	24.229	-0.206	0.170
-254.107	-35.978	-0.211	0.114
-253.092	185.464	-0.138	-0.205
-252.078	-83.331	0.202	0.065
-251.063	-87.875	-0.093	0.028
-250.049	370.948	0.062	0.124
-249.034	109.458	0.193	-0.230
-248.019	-200.000	-0.028	-0.137
-247.005	-16.444	0.180	0.113
-245.990	-101.099	0.186	-0.045
-244.976	-55.936	0.070	-0.031
-243.961	392.178	0.041	0.085
-242.946	140.188	0.228	0.300
-241.932	-35.613	-0.234	-0.126
-240.917	167.787	0.175	-0.248
-239.903	-18.636	0.168	0.104
-238.888	363.669	-0.148	0.296
-237.873	169.827	-0.048	-0.068
-236.859	800.000	-0.039	-0.136
-235.844	-31.880	0.130	0.073
-234.830	-200.000	0.037	0.298
-233.815	326.285	0.144	-0.274
-232.800	-200.000	0.005	-0.030
-231.786	-197.351	-0.251	0.002
-230.771	552.264	-0.111	0.264
-229.757	573.123	-0.033	-0.080
-228.742	104.847	-0.156	0.183
-227.727	-82.273	0.030	0.010
-226.713	-200.000	-0.005	-0.063
-225.698	-115.930	0.076	-0.014
-224.684	-171.901	-0.260	0.008
-223.669	-78.457	0.235	0.080
-222.655	100.860	0.214	-0.248
-221.640	155.094	0.148	-0.202
-220.625	99.482	0.067	0.077
-219.611	-71.627	0.120	0.045
-218.596	800.000	0.113	0.342
-217.582	-87.134	-0.144	0.044
-216.567	-140.742	0.069	-0.007
-215.552	800.000	-0.024	0.069
-214.538	800.000	-0.083	-0.294
-213.523	0.324	-0.196	0.139
-212.509	-6.739	0.313	-0.212
-211.494	800.000	-0.088	0.325
-210.479	-135.523	0.138	0.016
-209.465	-17.572	0.167	-0.105
-208.450	-86.962	0.230	-0.070
-207.436	-1.271	0.112	-0.078
-206.421	-59.734	-0.191	-0.082
-205.406	-200.000	0.009	-0.127
-204.392	25.691	0.226	-0.187
-203.377	800.000	-0.063	-0.227
-202.363	1.243	0.055	-0.040
-201.348	181.424	-0.106	-0.155
-200.333	-200.000	0.000	0.426
-199.319	89.167	0.131	-0.145
-198.304	131.419	-0.268	0.343
-197.290	-112.594	0.086	0.017
-196.275	-106.360	0.116	-0.026
-195.260	279.280	-0.030	-0.053
-194.246	-200.000	0.008	-0.162
-193.231	131.265	-0.021	0.027
-192.217	800.000	-0.086	-0.254
-191.202	-87.991	-0.219	0.065
-190.187	521.195	0.122	-0.283
-189.173	653.431	-0.057	-0.144
-188.158	-82.088	0.158	-0.051
-187.144	210.633	-0.217	-0.338
-186.129	-87.533	0.326	0.098
-185.114	103.745	0.281	0.328
-184.100	-200.000	0.001	-0.056
-183.085	60.991	-0.129	-0.127
-182.071	-200.000	0.017	0.091
-181.056	183.389	0.021	-0.031
-180.042	223.624	-0.099	-0.159
-179.027	7.980	-0.213	-0.159
-178.012	-71.832	0.217	-0.080
-176.998	39.500	-0.282	-0.251
-175.983	273.236	-0.178	0.312
-174.969	-200.000	-0.018	0.208
-173.954	61.726	0.217	0.214
-172.939	-52.848	0.242	0.111
-171.925	83.532	0.091	0.099
-170.910	-54.381	-0.207	0.093
-169.896	288.792	-0.118	0.213
-168.881	-77.844	-0.203	0.069
-167.866	800.000	0.095	-0.334
-166.852	-109.185	-0.209	-0.044
-165.837	165.839	0.116	-0.163
-164.823	6.079	-0.094	-0.069
-163.808	-200.000	-0.040	0.305
-162.793	-0.080	-0.166	0.117
-161.779	-200.000	0.006	-0.221
-160.764	79.308	0.244	0.260
-159.750	-36.181	0.181	0.097
-158.735	-41.688	-0.214	-0.109
-157.720	800.000	-0.078	-0.249
-156.706	179.895	-0.087	0.126
-155.691	-166.340	0.412	-0.017
-154.677	-72.760	0.306	-0.112
-153.662	37.691	-0.321	0.283
-152.647	800.000	-0.075	-0.242
-151.633	193.645	0.154	-0.232
-150.618	-200.000	-0.028	-0.429
-149.604	9.348	-0.068	-0.051
-148.589	-100.669	-0.143	-0.035
-147.574	130.110	0.164	-0.208
-146.560	141.610	-0.095	-0.125
-145.545	63.513	-0.073	0.073
-144.531	-74.426	0.187	0.067
-143.516	-146.830	-0.146	-0.012
-142.502	-52.365	-0.234	-0.108
-141.487	-188.390	0.025	-0.000
-140.472	-66.334	0.395	0.156
-139.458	800.000	0.195	0.538
-138.443	-21.890	0.116	0.070
-137.429	-129.272	0.218	0.030
-136.414	-6.113	-0.196	0.133
-135.399	-122.387	0.185	-0.030
-134.385	128.024	-0.166	0.209
-133.370	-51.996	-0.214	0.099
-132.356	-139.637	0.148	0.016
-131.341	105.883	-0.159	-0.187
-130.326	153.938	-0.202	0.274
-129.312	221.808	0.200	-0.319
-128.297	327.636	0.116	-0.221
-127.283	341.681	0.039	0.075
-126.268	-113.673	-0.261	-0.050
-125.253	-200.000	-0.078	0.369
-124.239	62.079	0.237	-0.234
-123.224	-86.198	0.114	0.035
-122.210	-69.321	-0.178	0.068
