DTS Sentinel unit serial number:	SN413079Multiplexer serial number:	ORYXHardware model number:	OX4-SRSoftware version number:	ORYX F/W v4.00 Oryx Data Collector v3.7.2.0data status	okinstallation	princeton_trtdifferential loss correction	single-endedforward channel	channel 4reverse channel	N/Adate	2019/09/12time	05:07:11forward acquisition time	60.00reverse acquisition time	0.00gamma	496.2192k internal	0.2309k external	0.2309temperature offset calibration	1.0068default loss term (dB/km)	0.3790temperature slope calibration	1.0000multiplexer offset coefficient	1.0000multiplexer slope coefficient	1.0000fibre end	0.00T internal ref (°C)	31.80T ext. ref 1 (°C)	1.68T ext. ref 2 (°C)	27.08length (m)	temperature (°C)	Stokes	anti-Stokes-747.200	-29.187	0.103	-0.060
-746.185	756.031	-0.068	0.188
-745.171	53.814	0.068	0.067
-744.156	-200.000	0.080	0.358
-743.142	155.431	-0.282	0.395
-742.127	-200.000	0.027	0.332
-741.112	800.000	0.089	0.251
-740.098	-24.452	-0.354	0.214
-739.083	190.953	0.176	0.269
-738.069	800.000	-0.047	0.153
-737.054	-200.000	0.025	0.120
-736.039	-96.638	-0.466	-0.125
-735.025	-168.923	0.527	0.020
-734.010	284.779	-0.154	0.281
-732.996	-146.402	-0.265	0.023
-731.981	144.298	0.146	-0.198
-730.966	-86.737	0.075	0.023
-729.952	-200.000	0.031	0.234
-728.937	32.984	-0.369	-0.325
-727.923	-200.000	-0.019	0.613
-726.908	800.000	-0.044	-0.127
-725.894	-7.555	0.209	0.143
-724.879	155.819	-0.066	0.092
-723.864	125.863	0.021	0.027
-722.850	674.354	-0.122	0.322
-721.835	-200.000	0.025	-0.384
-720.821	-200.000	-0.021	-0.320
-719.806	-196.701	-0.199	-0.001
-718.791	72.075	-0.057	0.060
-717.777	122.159	-0.139	0.177
-716.762	-6.820	0.059	-0.041
-715.748	-200.000	0.050	-0.245
-714.733	800.000	0.033	0.121
-713.718	-200.000	0.050	-0.266
-712.704	-9.027	-0.250	-0.170
-711.689	-106.243	0.145	-0.033
-710.675	-161.164	-0.203	0.011
-709.660	-200.000	-0.047	-0.294
-708.645	475.441	0.125	-0.286
-707.631	-44.933	-0.346	-0.175
-706.616	-200.000	-0.016	0.107
-705.602	56.381	0.100	0.099
-704.587	-200.000	-0.002	-0.037
-703.572	-136.848	-0.083	-0.010
-702.558	18.688	0.270	0.220
-701.543	73.517	-0.232	-0.246
-700.529	-200.000	-0.010	0.162
-699.514	-200.000	-0.013	0.083
-698.499	-200.000	0.022	0.130
-697.485	654.504	-0.147	0.383
-696.470	-30.087	0.329	0.190
-695.456	-159.903	-0.310	0.017
-694.441	0.762	0.165	0.120
-693.426	800.000	0.019	-0.065
-692.412	-200.000	-0.010	0.074
-691.397	-199.500	0.170	-0.001
-690.383	5.981	0.245	-0.184
-689.368	97.888	-0.163	-0.191
-688.354	800.000	0.068	0.207
-687.339	-200.000	-0.007	0.213
-686.324	800.000	0.092	0.259
-685.310	524.241	-0.073	0.174
-684.295	-200.000	0.008	0.110
-683.281	97.146	-0.110	0.128
-682.266	-25.776	-0.207	0.124
-681.251	-200.000	-0.001	-0.216
-680.237	76.507	-0.106	-0.113
-679.222	-123.107	-0.435	0.071
-678.208	-1.447	-0.119	-0.085
-677.193	54.037	0.328	-0.319
-676.178	246.092	-0.120	-0.205
-675.164	293.221	0.143	-0.264
-674.149	33.856	0.215	-0.189
-673.135	-131.810	-0.223	-0.030
-672.120	-200.000	-0.019	0.276
-671.105	145.125	0.048	0.065
-670.091	-101.291	0.139	0.034
-669.076	-97.651	0.279	-0.073
-668.062	218.880	-0.137	-0.222
-667.047	-145.949	0.220	-0.020
-666.032	-115.620	-0.127	0.024
-665.018	-200.000	-0.005	0.055
-664.003	549.682	0.088	-0.213
-662.989	-132.104	-0.235	-0.031
-661.974	-200.000	0.030	-0.274
-660.959	-200.000	-0.034	-0.170
-659.945	16.216	-0.113	0.090
-658.930	75.051	0.227	0.242
-657.916	187.114	-0.055	-0.083
-656.901	-124.486	-0.080	-0.013
-655.886	1.433	0.103	-0.075
-654.872	541.419	-0.150	-0.362
-653.857	-200.000	0.106	-0.483
-652.843	-67.287	-0.213	-0.085
-651.828	-51.690	0.074	-0.035
-650.814	51.749	0.243	-0.234
-649.799	-134.234	-0.292	-0.036
-648.784	276.502	0.025	-0.044
-647.770	-154.333	-0.062	0.004
-646.755	154.116	-0.117	0.163
-645.741	114.097	0.142	-0.175
-644.726	127.748	-0.110	0.142
-643.711	800.000	-0.050	0.201
-642.697	800.000	0.092	0.296
-641.682	800.000	-0.080	-0.326
-640.668	-140.118	0.254	0.027
-639.653	-142.079	0.265	-0.027
-638.638	116.326	-0.270	-0.334
-637.624	-144.233	-0.081	-0.008
-636.609	-30.153	0.290	-0.167
-635.595	180.016	-0.069	-0.103
-634.580	191.752	0.127	-0.193
-633.565	147.272	0.180	0.245
-632.551	86.359	-0.061	-0.068
-631.536	148.261	0.113	-0.154
-630.522	-134.484	-0.049	-0.006
-629.507	800.000	-0.081	-0.292
-628.492	800.000	-0.020	-0.081
-627.478	-89.981	0.453	0.134
-626.463	423.414	0.086	-0.187
-625.449	-172.611	-0.081	0.003
-624.434	-5.670	-0.247	0.171
-623.419	-136.324	-0.320	-0.038
-622.405	-76.145	0.157	-0.056
-621.390	-92.333	-0.203	-0.058
-620.376	-200.000	-0.007	0.222
-619.361	800.000	0.092	0.334
-618.346	800.000	-0.039	-0.138
-617.332	15.664	-0.193	0.154
-616.317	-74.283	-0.289	0.105
-615.303	-79.787	0.119	0.040
-614.288	-59.244	-0.258	0.112
-613.273	-129.339	-0.003	-0.000
-612.259	74.763	0.122	0.130
-611.244	-200.000	0.010	0.214
-610.230	147.372	0.120	-0.163
-609.215	-182.749	0.149	0.003
-608.201	108.560	-0.167	0.202
-607.186	200.279	-0.110	-0.171
-606.171	111.411	0.075	0.092
-605.157	-43.777	-0.282	0.144
-604.142	-13.712	0.283	0.185
-603.128	-119.080	0.236	-0.042
-602.113	193.640	0.071	-0.109
-601.098	800.000	0.075	0.221
-600.084	235.091	0.160	0.267
-599.069	-32.580	0.178	0.100
-598.055	-72.785	-0.215	-0.080
-597.040	291.480	-0.161	-0.296
-596.025	-65.346	-0.178	-0.072
-595.011	800.000	0.107	-0.315
-593.996	460.717	0.128	-0.288
-592.982	4.703	-0.170	-0.126
-591.967	-19.540	-0.102	0.064
-590.952	-45.964	-0.285	0.142
-589.938	-200.000	-0.103	-0.710
-588.923	-200.000	0.061	-0.275
-587.909	-157.420	0.071	0.004
-586.894	-200.000	0.052	0.320
-585.879	-200.000	-0.018	-0.436
-584.865	-132.509	0.253	0.033
-583.850	624.763	-0.099	0.251
-582.836	-112.571	-0.289	-0.058
-581.821	52.118	-0.141	0.135
-580.806	-107.409	-0.494	-0.109
-579.792	-127.190	0.195	0.029
-578.777	461.683	-0.078	0.175
-577.763	216.830	-0.183	-0.294
-576.748	-118.038	-0.221	0.040
-575.733	-87.081	-0.062	-0.019
-574.719	16.188	-0.189	0.151
-573.704	-200.000	-0.004	0.215
-572.690	-200.000	-0.044	0.257
-571.675	44.926	0.257	0.238
-570.661	-28.182	0.100	-0.058
-569.646	-1.314	-0.308	-0.219
-568.631	-114.820	0.037	-0.007
-567.617	-45.299	0.049	0.025
-566.602	-62.051	-0.108	0.045
-565.588	-200.000	0.009	0.265
-564.573	-200.000	-0.002	0.117
-563.558	19.656	-0.253	0.205
-562.544	-200.000	-0.001	0.028
-561.529	-200.000	-0.009	0.357
-560.515	7.416	-0.191	-0.144
-559.500	-200.000	-0.030	0.156
-558.485	-200.000	0.013	0.269
-557.471	312.732	0.114	-0.215
-556.456	77.513	0.095	-0.102
-555.442	-108.609	0.100	-0.022
-554.427	-130.364	-0.206	0.028
-553.412	-173.084	0.407	-0.013
-552.398	243.735	0.231	0.391
-551.383	-148.427	-0.328	-0.027
-550.369	561.557	0.069	-0.169
-549.354	-149.976	-0.264	-0.021
-548.339	266.754	0.030	-0.053
-547.325	-66.213	-0.267	-0.107
-546.310	-200.000	0.028	-0.261
-545.296	-65.068	-0.304	0.124
-544.281	-118.534	-0.211	-0.038
-543.266	-112.469	0.412	-0.083
-542.252	-94.924	-0.071	-0.019
-541.237	386.492	-0.220	0.459
-540.223	55.627	0.156	-0.152
-539.208	800.000	-0.016	-0.054
-538.193	237.483	-0.105	0.175
-537.179	-68.678	0.193	0.075
-536.164	63.410	-0.202	-0.204
-535.150	-200.000	-0.011	0.078
-534.135	-41.166	-0.172	-0.090
-533.121	71.587	-0.162	0.170
-532.106	-71.579	-0.105	-0.040
-531.091	800.000	-0.030	0.083
-530.077	86.820	0.382	-0.425
-529.062	-121.887	-0.338	-0.056
-528.048	800.000	-0.044	-0.126
-527.033	346.326	0.101	-0.200
-526.018	800.000	-0.058	0.251
-525.004	-34.469	-0.211	0.117
-523.989	-200.000	-0.003	0.256
-522.975	-6.255	0.140	-0.096
-521.960	217.127	0.036	0.058
-520.945	-200.000	0.011	-0.085
-519.931	-200.000	-0.031	0.289
-518.916	297.618	-0.159	0.294
-517.902	363.074	-0.156	-0.315
-516.887	-200.000	0.048	-0.386
-515.872	275.121	0.120	0.214
-514.858	183.255	-0.314	-0.468
-513.843	318.626	0.113	-0.215
-512.829	-97.026	-0.309	0.082
-511.814	-147.592	-0.170	0.014
-510.799	380.696	-0.053	0.110
-509.785	-66.256	0.145	0.058
-508.770	-200.000	0.069	0.448
-507.756	-75.632	-0.135	0.048
-506.741	-200.000	-0.033	-0.219
-505.726	396.929	-0.043	0.091
-504.712	7.320	0.137	0.103
-503.697	-106.032	0.077	0.017
-502.683	-164.477	-0.220	0.010
-501.668	330.789	-0.061	0.118
-500.653	800.000	0.084	-0.334
-499.639	-33.637	0.085	0.047
-498.624	602.835	-0.091	0.227
-497.610	-200.000	-0.020	-0.271
-496.595	285.064	0.074	-0.134
-495.581	147.934	-0.232	-0.315
-494.566	107.087	-0.169	-0.203
-493.551	254.990	0.148	-0.256
-492.537	-160.760	0.192	0.010
-491.522	-132.948	-0.256	-0.033
-490.508	-73.243	0.422	-0.156
-489.493	-7.673	0.190	-0.129
-488.478	-130.125	-0.122	-0.017
-487.464	704.847	0.065	-0.173
-486.449	-79.937	0.167	0.057
-485.435	310.539	0.088	-0.166
-484.420	419.940	0.103	0.223
-483.405	800.000	-0.087	0.351
-482.391	-21.047	0.100	0.062
-481.376	261.964	-0.096	-0.168
-480.362	112.044	0.196	0.238
-479.347	-200.000	0.003	0.043
-478.332	-152.957	0.130	-0.009
-477.318	216.282	-0.153	-0.244
-476.303	-200.000	0.040	-0.258
-475.289	-141.439	-0.189	0.019
-474.274	434.143	-0.044	0.096
-473.259	515.128	0.085	-0.200
-472.245	122.375	0.244	-0.306
-471.230	129.759	-0.270	0.347
-470.216	375.986	0.106	-0.218
-469.201	151.015	-0.015	-0.020
-468.186	-83.606	-0.189	0.061
-467.172	-200.000	0.001	-0.093
-466.157	800.000	-0.071	-0.274
-465.143	-79.956	0.111	-0.037
-464.128	-25.232	0.022	-0.013
-463.113	-76.676	0.165	-0.058
-462.099	-200.000	-0.021	0.205
-461.084	-69.585	-0.082	0.032
-460.070	800.000	0.088	-0.289
-459.055	-200.000	0.045	-0.245
-458.040	358.843	-0.141	0.284
-457.026	800.000	0.048	0.135
-456.011	12.222	-0.189	-0.146
-454.997	-41.184	0.175	0.091
-453.982	-87.481	0.163	0.050
-452.968	25.793	0.133	-0.111
-451.953	-114.681	-0.237	-0.046
-450.938	-107.157	0.273	0.060
-449.924	212.893	0.272	0.431
-448.909	-113.047	-0.380	-0.075
-447.895	-21.829	0.239	0.146
-446.880	50.276	-0.142	-0.135
-445.865	-200.000	-0.018	-0.509
-444.851	-53.632	0.271	-0.125
-443.836	-200.000	-0.023	-0.220
-442.822	401.334	-0.174	0.367
-441.807	-96.054	-0.063	0.017
-440.792	91.694	0.151	0.170
-439.778	-118.455	0.035	-0.006
-438.763	-58.867	0.213	0.092
-437.749	-42.362	-0.104	-0.053
-436.734	-37.077	-0.065	0.035
-435.719	375.901	0.181	0.370
-434.705	668.677	0.018	0.046
-433.690	800.000	-0.044	0.149
-432.676	-147.458	-0.151	-0.013
-431.661	16.966	0.116	-0.092
-430.646	-200.000	-0.033	-0.236
-429.632	-50.774	0.083	-0.039
-428.617	456.125	0.046	0.103
-427.603	-71.190	-0.308	0.116
-426.588	-91.792	0.319	0.091
-425.573	-8.317	-0.183	-0.124
-424.559	800.000	-0.071	-0.245
-423.544	-24.918	0.130	0.077
-422.530	-57.101	0.095	-0.042
-421.515	-48.778	0.165	-0.080
-420.500	-99.329	-0.406	0.103
-419.486	601.630	0.067	-0.167
-418.471	-100.013	0.337	-0.084
-417.457	148.095	0.022	-0.030
-416.442	238.068	0.098	-0.164
-415.428	800.000	-0.017	0.069
-414.413	748.439	0.038	-0.104
-413.398	323.029	0.259	-0.495
-412.384	62.639	-0.439	-0.440
-411.369	-175.747	-0.071	0.002
-410.355	131.408	-0.077	0.100
-409.340	-200.000	-0.014	-0.234
-408.325	-42.760	-0.382	0.195
-407.311	-60.724	0.202	0.086
-406.296	-119.853	0.033	0.006
-405.282	54.234	-0.216	0.208
-404.267	248.375	-0.140	0.237
-403.252	108.303	-0.033	-0.039
-402.238	-121.058	0.440	-0.074
-401.223	800.000	-0.063	-0.238
-400.209	77.654	0.257	-0.275
-399.194	-200.000	0.011	-0.204
-398.179	-140.045	-0.231	0.024
-397.165	-185.353	0.221	0.003
-396.150	-52.234	0.101	-0.047
-395.136	152.475	-0.046	-0.064
-394.121	-153.484	-0.212	0.015
-393.106	-71.486	0.128	0.048
-392.092	49.121	-0.140	-0.132
-391.077	-200.000	0.040	0.215
-390.063	-119.452	-0.394	-0.068
-389.048	-87.532	-0.132	0.040
-388.033	800.000	0.074	0.256
-387.019	187.687	-0.076	0.114
-386.004	562.083	-0.131	-0.319
-384.990	800.000	0.084	-0.302
-383.975	107.981	-0.115	-0.137
-382.960	349.100	-0.108	-0.214
-381.946	-200.000	-0.023	0.203
-380.931	-107.117	0.111	0.024
-379.917	-200.000	0.031	-0.449
-378.902	31.640	-0.019	-0.016
-377.888	68.582	0.218	-0.224
-376.873	-200.000	-0.042	0.215
-375.858	-6.699	-0.270	-0.184
-374.844	-200.000	0.006	-0.045
-373.829	-200.000	0.030	0.136
-372.815	53.142	-0.347	0.332
-371.800	39.410	0.095	0.085
-370.785	-200.000	0.026	-0.307
-369.771	-189.237	-0.396	-0.005
-368.756	-126.367	0.061	0.009
-367.742	-200.000	-0.032	0.267
-366.727	144.325	-0.129	-0.172
-365.712	262.474	0.189	0.329
-364.698	218.435	0.033	0.053
-363.683	-200.000	0.076	-0.398
-362.669	143.338	-0.045	-0.060
-361.654	92.338	-0.061	0.069
-360.639	19.418	0.119	0.095
-359.625	38.856	-0.231	0.207
-358.610	182.493	-0.253	-0.374
-357.596	-71.762	0.113	0.042
-356.581	2.499	-0.109	0.079
-355.566	800.000	0.036	0.153
-354.552	-162.643	0.139	0.007
-353.537	3.893	0.251	0.183
-352.523	229.589	-0.015	0.024
-351.508	419.509	-0.047	0.101
-350.493	-37.186	-0.085	-0.045
-349.479	-167.932	0.451	0.018
-348.464	-77.556	-0.269	0.093
-347.450	-118.099	0.163	0.029
-346.435	638.172	0.161	-0.410
-345.420	-200.000	0.150	0.000
-344.406	51.998	-0.333	0.317
-343.391	102.278	0.083	-0.097
-342.377	-144.155	0.184	-0.017
-341.362	-25.625	0.240	-0.141
-340.348	-200.000	0.021	0.134
-339.333	-200.000	-0.016	0.306
-338.318	380.718	-0.042	0.085
-337.304	174.946	-0.066	0.095
-336.289	-15.612	-0.303	-0.193
-335.275	-108.109	0.237	0.051
-334.260	-26.089	-0.111	-0.065
-333.245	226.466	-0.073	-0.118
-332.231	800.000	-0.027	0.113
-331.216	-200.000	0.043	0.295
-330.202	-40.738	-0.306	0.159
-329.187	-200.000	-0.046	-0.216
-328.172	-111.820	0.245	-0.050
-327.158	-200.000	0.046	-0.221
-326.143	-200.000	-0.195	0.001
-325.129	-200.000	-0.014	0.159
-324.114	800.000	-0.117	-0.377
-323.099	-187.576	0.138	0.002
-322.085	-25.950	0.250	0.147
-321.070	-200.000	0.002	0.164
-320.056	-82.568	-0.138	0.045
-319.041	-200.000	0.005	-0.283
-318.026	149.043	0.188	-0.254
-317.012	800.000	0.021	-0.060
-315.997	-200.000	0.100	0.489
-314.983	-200.000	0.014	-0.321
-313.968	-75.929	0.026	-0.009
-312.953	-92.522	-0.126	-0.035
-311.939	-5.061	0.154	0.106
-310.924	-15.932	0.017	-0.011
-309.910	-111.646	0.275	-0.056
-308.895	-40.504	-0.150	-0.078
-307.880	-200.000	0.018	-0.133
-306.866	800.000	-0.071	0.213
-305.851	127.211	-0.207	0.262
-304.837	34.941	-0.039	0.034
-303.822	-200.000	0.069	-0.395
-302.807	-146.372	0.244	-0.021
-301.793	-104.025	-0.102	-0.024
-300.778	70.615	-0.214	0.221
-299.764	-1.750	0.196	-0.138
-298.749	-16.902	-0.194	0.123
-297.735	-139.451	0.407	-0.043
-296.720	305.717	0.169	0.314
-295.705	-120.475	0.180	0.031
-294.691	-22.334	-0.198	-0.120
-293.676	800.000	-0.048	0.193
-292.662	800.000	-0.054	-0.234
-291.647	-25.468	-0.079	-0.047
-290.632	-101.537	-0.281	0.068
-289.618	313.171	-0.161	0.303
-288.603	86.783	-0.174	0.192
-287.589	-63.517	0.024	0.010
-286.574	-157.018	0.366	0.022
-285.559	-200.000	0.014	0.111
-284.545	-200.000	0.010	0.214
-283.530	-68.548	-0.394	-0.152
-282.516	-42.483	-0.133	-0.067
-281.501	-29.524	-0.105	0.060
-280.486	-21.615	0.209	0.127
-279.472	-140.241	-0.271	0.028
-278.457	-200.000	-0.049	-0.218
-277.443	-41.681	-0.092	-0.047
-276.428	376.570	-0.062	-0.126
-275.413	-55.963	0.126	-0.056
-274.399	-200.000	-0.057	-0.296
-273.384	-115.227	0.197	0.037
-272.370	-200.000	0.031	0.227
-271.355	440.834	0.092	-0.201
-270.340	-101.084	0.178	0.043
-269.326	-54.008	-0.087	-0.039
-268.311	-194.812	-0.065	0.001
-267.297	-78.586	0.227	0.077
-266.282	-101.744	0.457	0.110
-265.267	-7.122	-0.162	-0.110
-264.253	-200.000	0.004	-0.065
-263.238	59.655	-0.088	-0.087
-262.224	-200.000	0.007	0.043
-261.209	800.000	-0.037	0.150
-260.195	-55.828	-0.229	-0.102
-259.180	800.000	0.079	0.333
-258.165	-200.000	-0.005	0.342
-257.151	38.278	-0.034	0.030
-256.136	-148.668	0.244	0.020
-255.122	150.376	0.155	-0.210
-254.107	-200.000	0.014	0.091
-253.092	431.529	0.018	0.039
-252.078	-42.207	0.098	0.050
-251.063	800.000	0.018	0.078
-250.049	1.816	-0.130	-0.094
-249.034	15.911	0.117	-0.092
-248.019	-45.903	0.297	0.146
-247.005	478.884	0.019	-0.042
-245.990	-137.831	0.216	0.024
-244.976	-56.494	0.167	-0.074
-243.961	800.000	-0.020	0.078
-242.946	254.179	0.058	-0.099
-241.932	-136.392	0.144	-0.017
-240.917	800.000	0.018	0.061
-239.903	6.837	0.048	-0.036
-238.888	-13.008	-0.080	-0.052
-237.873	1.281	0.317	-0.227
-236.859	-200.000	0.007	0.049
-235.844	-200.000	0.018	0.136
-234.830	278.240	0.073	-0.129
-233.815	800.000	0.086	-0.315
-232.800	-200.000	0.174	-0.771
-231.786	434.343	0.300	-0.649
-230.771	16.602	-0.123	-0.096
-229.757	483.718	0.071	0.162
-228.742	800.000	0.038	0.120
-227.727	752.847	0.043	0.115
-226.713	165.806	-0.056	0.079
-225.698	4.752	0.410	0.300
-224.684	40.057	0.057	-0.051
-223.669	182.555	-0.207	0.304
-222.655	10.928	0.116	0.088
-221.640	-58.674	0.315	0.136
-220.625	-113.497	-0.105	0.020
-219.611	-200.000	0.014	-0.262
-218.596	800.000	-0.043	0.141
-217.582	800.000	0.037	0.123
-216.567	-200.000	-0.012	0.067
-215.552	-76.936	0.239	0.083
-214.538	-200.000	0.020	0.391
-213.523	-200.000	0.006	-0.244
-212.509	266.371	-0.120	-0.208
-211.494	60.340	0.194	0.191
-210.479	800.000	-0.075	0.282
-209.465	-200.000	-0.038	-0.222
-208.450	-48.190	0.356	0.171
-207.436	-11.041	-0.050	0.033
-206.421	131.302	-0.089	-0.113
-205.406	-27.475	0.319	0.185
-204.392	259.443	-0.061	0.105
-203.377	-78.457	0.348	-0.118
-202.363	48.425	0.519	0.484
-201.348	-98.949	0.195	-0.049
-200.333	-126.215	-0.273	0.041
-199.319	-66.639	-0.099	-0.039
-198.304	800.000	-0.137	0.416
-197.290	136.073	0.144	0.187
-196.275	14.186	-0.242	0.187
-195.260	-200.000	-0.012	-0.094
-194.246	154.189	0.122	0.166
-193.231	-93.449	-0.312	0.086
-192.217	47.215	-0.245	-0.227
-191.202	-43.641	0.098	-0.049
-190.187	-200.000	0.030	0.168
-189.173	800.000	0.080	0.240
-188.158	53.615	0.150	0.143
-187.144	-200.000	-0.012	0.148
-186.129	-111.283	0.138	0.028
-185.114	-98.832	-0.261	0.066
-184.100	75.502	-0.112	-0.118
-183.085	-126.734	0.038	0.006
-182.071	-200.000	-0.022	0.452
-181.056	-53.740	-0.155	0.071
-180.042	-9.721	0.127	0.084
-179.027	-109.676	-0.415	-0.087
-178.012	9.717	0.098	-0.074
-176.998	-200.000	-0.089	0.472
-175.983	-163.542	0.186	0.009
-174.969	11.767	-0.198	-0.151
-173.954	288.558	0.069	-0.125
-172.939	33.494	-0.090	0.078
-171.925	-90.795	0.134	-0.038
-170.910	800.000	0.015	0.043
-169.896	-46.525	0.249	-0.121
-168.881	107.252	-0.111	-0.132
-167.866	-200.000	0.011	0.066
-166.852	-98.106	-0.091	-0.023
-165.837	-200.000	-0.073	-0.432
-164.823	-52.786	-0.231	0.106
-163.808	524.053	-0.088	-0.206
-162.793	56.861	-0.133	-0.129
-161.779	127.455	0.135	0.170
-160.764	56.022	0.200	-0.193
-159.750	53.882	0.056	0.054
-158.735	3.848	0.219	0.159
-157.720	-200.000	0.043	0.381
-156.706	-25.874	-0.163	-0.095
-155.691	607.001	0.109	-0.270
-154.677	-30.280	-0.222	-0.125
-153.662	-127.061	0.086	0.012
-152.647	800.000	0.098	0.333
-151.633	-200.000	-0.008	0.186
-150.618	221.038	0.076	0.121
-149.604	-9.477	0.158	-0.105
-148.589	-185.101	0.472	0.007
-147.574	-90.898	0.363	-0.104
-146.560	638.043	0.052	0.130
-145.545	-173.303	-0.152	0.005
-144.531	-200.000	-0.021	0.160
-143.516	800.000	-0.074	-0.301
-142.502	457.844	0.136	-0.299
-141.487	-100.864	-0.134	-0.033
-140.472	51.631	-0.416	-0.392
-139.458	-55.004	0.014	-0.006
-138.443	355.459	-0.116	0.230
-137.429	-200.000	-0.031	-0.334
-136.414	-200.000	0.040	0.184
-135.399	5.512	0.169	0.124
-134.385	568.808	-0.114	0.276
-133.370	-144.349	0.161	0.015
-132.356	-46.539	-0.480	-0.233
-131.341	59.546	-0.175	0.172
-130.326	-123.058	0.108	0.017
-129.312	-176.100	0.102	0.003
-128.297	800.000	0.066	-0.225
-127.283	57.166	-0.218	-0.211
-126.268	50.930	-0.124	0.117
-125.253	36.003	-0.322	0.281
-124.239	7.014	0.113	0.084
-123.224	261.605	-0.077	-0.131
-122.210	-200.000	0.036	-0.289
