DTS Sentinel unit serial number:	SN413079Multiplexer serial number:	ORYXHardware model number:	OX4-SRSoftware version number:	ORYX F/W v4.00 Oryx Data Collector v3.7.2.0data status	okinstallation	princeton_trtdifferential loss correction	single-endedforward channel	channel 4reverse channel	N/Adate	2019/09/12time	02:55:11forward acquisition time	60.00reverse acquisition time	0.00gamma	496.2192k internal	0.2309k external	0.2309temperature offset calibration	1.0093default loss term (dB/km)	0.3790temperature slope calibration	1.0000multiplexer offset coefficient	1.0000multiplexer slope coefficient	1.0000fibre end	0.00T internal ref (°C)	32.31T ext. ref 1 (°C)	2.11T ext. ref 2 (°C)	27.37length (m)	temperature (°C)	Stokes	anti-Stokes-747.200	-200.000	0.034	0.162
-746.185	155.964	0.118	0.165
-745.171	-200.000	-0.013	0.161
-744.156	-108.283	-0.339	-0.074
-743.142	377.507	0.120	0.249
-742.127	-122.843	0.330	0.054
-741.112	280.099	-0.039	0.071
-740.098	71.415	-0.069	0.073
-739.083	99.861	-0.102	-0.120
-738.069	2.459	-0.183	0.135
-737.054	-1.681	-0.428	0.306
-736.039	800.000	-0.066	0.257
-735.025	-120.683	0.207	0.036
-734.010	-200.000	-0.026	-0.192
-732.996	118.451	0.127	-0.159
-731.981	-70.224	0.206	-0.080
-730.966	-16.497	-0.285	0.184
-729.952	-121.719	0.064	-0.011
-728.937	-200.000	-0.009	-0.225
-727.923	-95.374	0.033	0.009
-726.908	6.493	-0.167	0.126
-725.894	-24.201	-0.109	0.066
-724.879	-22.551	-0.183	0.113
-723.864	284.157	-0.050	-0.092
-722.850	-200.000	-0.020	0.116
-721.835	800.000	0.027	-0.080
-720.821	-16.802	-0.222	-0.142
-719.806	515.900	-0.028	-0.067
-718.791	-110.924	-0.208	-0.044
-717.777	-25.304	-0.299	-0.179
-716.762	-39.490	-0.173	0.092
-715.748	8.798	-0.054	0.041
-714.733	-13.715	-0.283	0.186
-713.718	-122.822	-0.197	0.032
-712.704	61.113	0.023	-0.023
-711.689	-88.764	-0.180	0.054
-710.675	-85.894	0.293	-0.092
-709.660	-200.000	0.075	-0.439
-708.645	41.641	-0.105	0.096
-707.631	-131.705	-0.270	-0.036
-706.616	47.972	-0.214	0.203
-705.602	-75.556	-0.093	-0.034
-704.587	-180.533	-0.223	-0.005
-703.572	41.274	-0.252	-0.231
-702.558	-81.959	-0.271	-0.090
-701.543	-40.725	-0.281	0.148
-700.529	-200.000	-0.001	-0.033
-699.514	-195.282	-0.202	-0.002
-698.499	33.793	0.139	-0.122
-697.485	-74.789	-0.339	-0.124
-696.470	800.000	-0.062	-0.238
-695.456	78.349	-0.137	0.148
-694.441	83.062	0.151	0.166
-693.426	125.807	-0.222	0.285
-692.412	-200.000	-0.003	-0.137
-691.397	-20.344	0.277	-0.173
-690.383	223.178	-0.107	-0.174
-689.368	389.824	-0.121	-0.254
-688.354	471.883	-0.154	0.351
-687.339	-80.634	-0.252	-0.085
-686.324	-102.192	0.043	0.011
-685.310	-143.069	-0.417	-0.041
-684.295	800.000	0.069	0.202
-683.281	-200.000	-0.043	0.204
-682.266	284.422	0.143	0.261
-681.251	-159.920	-0.485	0.027
-680.237	-200.000	0.080	-0.360
-679.222	-200.000	0.066	-0.324
-678.208	68.802	-0.351	0.365
-677.193	-160.153	-0.082	-0.005
-676.178	-24.215	0.171	-0.104
-675.164	-164.764	0.261	-0.012
-674.149	-179.644	-0.185	0.004
-673.135	800.000	-0.054	-0.157
-672.120	238.210	0.202	-0.339
-671.105	-175.255	-0.513	0.014
-670.091	44.153	-0.084	0.078
-669.076	28.154	-0.102	0.087
-668.062	413.736	-0.076	-0.165
-667.047	-121.839	-0.278	-0.046
-666.032	275.227	-0.046	-0.083
-665.018	-154.433	0.141	0.010
-664.003	314.397	0.047	0.089
-662.989	-200.000	0.037	-0.164
-661.974	-200.000	0.055	-0.282
-660.959	800.000	-0.036	-0.148
-659.945	-178.919	-0.107	-0.002
-658.930	788.177	-0.109	0.303
-657.916	103.389	-0.133	0.158
-656.901	-200.000	0.023	0.395
-655.886	-200.000	0.002	0.311
-654.872	123.722	0.137	-0.174
-653.857	84.201	-0.160	-0.177
-652.843	568.143	-0.069	0.169
-651.828	800.000	-0.178	-0.667
-650.814	318.188	-0.129	0.248
-649.799	-105.616	0.096	0.022
-648.784	50.004	0.223	-0.213
-647.770	138.204	-0.078	0.103
-646.755	144.421	-0.109	0.148
-645.741	-65.263	-0.156	-0.064
-644.726	18.892	0.170	-0.138
-643.711	8.139	0.057	0.043
-642.697	64.476	0.013	0.014
-641.682	-109.475	0.278	0.060
-640.668	800.000	0.057	0.197
-639.653	-143.309	-0.164	0.016
-638.638	-166.328	-0.203	-0.009
-637.624	-200.000	0.072	0.332
-636.609	-200.000	-0.001	-0.127
-635.595	-30.249	0.260	0.150
-634.580	-10.421	-0.260	0.175
-633.565	34.648	-0.342	-0.302
-632.551	68.984	0.116	0.120
-631.536	-146.620	-0.131	-0.011
-630.522	800.000	-0.099	0.384
-629.507	4.987	-0.383	-0.285
-628.492	18.219	0.065	0.053
-627.478	523.703	-0.095	0.225
-626.463	-24.007	0.123	0.074
-625.449	-48.552	0.341	-0.166
-624.434	-144.219	0.181	-0.017
-623.419	800.000	-0.044	-0.138
-622.405	130.849	-0.116	-0.151
-621.390	509.855	-0.106	-0.248
-620.376	55.862	0.298	0.292
-619.361	792.192	0.063	-0.176
-618.346	-139.337	-0.255	0.028
-617.332	-200.000	0.016	-0.418
-616.317	281.754	0.208	-0.376
-615.303	-200.000	0.018	0.334
-614.288	-200.000	-0.010	-0.241
-613.273	77.024	0.117	-0.125
-612.259	111.737	-0.268	0.327
-611.244	244.825	-0.163	0.276
-610.230	800.000	0.020	-0.061
-609.215	800.000	0.086	-0.346
-608.201	800.000	0.021	0.085
-607.186	78.857	-0.132	-0.143
-606.171	800.000	-0.038	0.107
-605.157	121.798	0.068	0.086
-604.142	-167.263	-0.114	-0.005
-603.128	800.000	0.095	0.290
-602.113	-180.451	-0.429	0.009
-601.098	-200.000	-0.057	-0.312
-600.084	-163.599	0.142	0.007
-599.069	-66.030	-0.146	0.059
-598.055	250.675	-0.150	-0.257
-597.040	-200.000	0.027	-0.251
-596.025	-61.024	0.305	0.130
-595.011	49.414	-0.120	0.114
-593.996	-200.000	0.031	-0.228
-592.982	0.307	0.088	-0.064
-591.967	135.329	-0.227	-0.298
-590.952	800.000	-0.072	-0.212
-589.938	-200.000	-0.019	0.305
-588.923	-200.000	-0.000	-0.174
-587.909	-200.000	0.035	0.189
-586.894	2.093	-0.072	-0.052
-585.879	-102.733	-0.346	-0.083
-584.865	800.000	-0.019	0.053
-583.850	-200.000	0.006	0.112
-582.836	800.000	0.016	0.063
-581.821	-200.000	-0.082	0.424
-580.806	743.075	0.018	0.050
-579.792	-13.137	-0.533	0.350
-578.777	800.000	0.065	0.215
-577.763	-200.000	0.029	0.263
-576.748	540.788	-0.082	-0.198
-575.733	168.803	0.147	0.212
-574.719	-18.794	0.203	-0.128
-573.704	-92.589	-0.169	-0.048
-572.690	-200.000	-0.038	-0.233
-571.675	-117.887	-0.231	0.042
-570.661	595.272	-0.117	0.292
-569.646	-31.662	0.227	0.128
-568.631	-121.963	-0.062	0.010
-567.617	-85.005	-0.318	0.100
-566.602	800.000	0.031	-0.121
-565.588	800.000	-0.051	-0.148
-564.573	51.020	0.334	-0.320
-563.558	-115.628	-0.370	-0.070
-562.544	-48.271	0.090	-0.044
-561.529	45.926	-0.055	0.051
-560.515	-101.448	-0.151	0.037
-559.500	-106.713	-0.045	0.010
-558.485	467.891	-0.059	-0.133
-557.471	-63.940	0.071	0.029
-556.456	0.939	0.107	-0.077
-555.442	-51.133	0.327	-0.155
-554.427	450.825	-0.153	0.341
-553.412	139.575	0.122	0.163
-552.398	57.035	-0.107	0.105
-551.383	-54.454	-0.330	-0.151
-550.369	-200.000	-0.063	-0.303
-549.354	22.906	0.137	-0.113
-548.339	171.674	-0.054	-0.078
-547.325	83.500	0.039	0.042
-546.310	-34.919	0.191	0.105
-545.296	-179.573	-0.402	0.009
-544.281	-200.000	-0.047	-0.254
-543.266	800.000	-0.016	0.045
-542.252	400.302	0.110	-0.233
-541.237	-167.235	-0.159	0.006
-540.223	47.402	-0.057	0.053
-539.208	375.189	-0.134	-0.274
-538.193	15.766	-0.223	0.176
-537.179	800.000	0.064	0.200
-536.164	34.280	-0.200	0.176
-535.150	15.655	0.146	-0.116
-534.135	606.701	0.117	-0.294
-533.121	800.000	-0.054	-0.226
-532.106	-70.359	-0.336	0.128
-531.091	-200.000	0.021	-0.119
-530.077	-146.919	0.160	0.014
-529.062	121.082	0.061	0.076
-528.048	-67.587	-0.415	0.164
-527.033	-200.000	-0.015	-0.128
-526.018	-91.605	0.361	0.104
-525.004	-200.000	-0.017	-0.305
-523.989	-200.000	0.001	0.155
-522.975	134.329	0.129	-0.168
-521.960	23.232	0.113	0.094
-520.945	-122.407	-0.339	-0.056
-519.931	122.769	0.256	0.322
-518.916	276.293	-0.069	-0.124
-517.902	-71.162	-0.187	-0.071
-516.887	-59.848	0.309	0.133
-515.872	280.347	0.072	0.130
-514.858	800.000	-0.022	-0.068
-513.843	98.158	-0.157	-0.182
-512.829	-58.541	-0.159	0.069
-511.814	234.762	-0.100	0.166
-510.799	142.456	-0.061	0.081
-509.785	577.512	-0.055	0.135
-508.770	-66.741	-0.436	0.174
-507.756	-166.642	0.271	0.011
-506.741	800.000	-0.046	0.140
-505.726	800.000	-0.068	0.262
-504.712	-200.000	0.032	0.172
-503.697	100.831	-0.152	0.178
-502.683	-200.000	-0.008	0.242
-501.668	-45.308	0.228	-0.114
-500.653	-200.000	0.025	0.201
-499.639	244.893	0.202	-0.342
-498.624	-71.573	0.384	0.144
-497.610	-200.000	-0.002	-0.249
-496.595	0.725	-0.287	-0.206
-495.581	124.525	0.098	-0.124
-494.566	20.514	0.183	-0.149
-493.551	603.247	0.093	0.234
-492.537	-101.295	0.105	-0.026
-491.522	-106.629	0.414	0.093
-490.508	-200.000	-0.040	-0.252
-489.493	245.635	-0.062	-0.106
-488.478	113.525	-0.036	-0.043
-487.464	35.006	0.311	0.274
-486.449	102.841	0.246	-0.289
-485.435	663.042	-0.146	-0.377
-484.420	159.451	0.134	-0.188
-483.405	-30.173	-0.196	0.112
-482.391	-80.705	-0.262	0.088
-481.376	86.560	-0.179	-0.199
-480.362	68.202	0.102	-0.105
-479.347	46.562	0.168	-0.157
-478.332	-65.754	0.206	0.083
-477.318	-200.000	0.008	0.057
-476.303	188.276	-0.068	0.102
-475.289	657.524	-0.024	-0.062
-474.274	-185.162	-0.287	-0.005
-473.259	159.901	-0.182	-0.255
-472.245	-200.000	0.018	-0.181
-471.230	42.913	-0.107	0.098
-470.216	-26.977	-0.223	0.131
-469.201	11.958	-0.166	0.129
-468.186	103.372	-0.140	-0.165
-467.172	-12.791	-0.154	0.101
-466.157	800.000	-0.042	0.170
-465.143	800.000	0.024	0.075
-464.128	97.434	0.174	-0.200
-463.113	-35.561	0.274	-0.149
-462.099	-140.871	0.177	-0.018
-461.084	-80.963	0.120	-0.040
-460.070	800.000	0.011	-0.040
-459.055	417.657	-0.047	-0.100
-458.040	287.638	0.124	-0.226
-457.026	-162.367	-0.168	0.008
-456.011	-200.000	-0.045	0.324
-454.997	800.000	-0.016	0.069
-453.982	116.408	0.086	-0.105
-452.968	-200.000	0.021	0.296
-451.953	-127.873	0.250	0.036
-450.938	-155.010	-0.293	-0.019
-449.924	125.816	-0.157	0.199
-448.909	800.000	-0.103	0.328
-447.895	54.142	0.216	0.209
-446.880	-200.000	-0.033	-0.236
-445.865	110.623	0.146	-0.176
-444.851	800.000	-0.105	-0.391
-443.836	13.410	0.121	-0.094
-442.822	78.133	0.054	-0.058
-441.807	34.383	0.253	0.222
-440.792	-38.283	-0.182	-0.097
-439.778	800.000	0.056	0.236
-438.763	-47.037	0.167	0.082
-437.749	800.000	-0.115	0.367
-436.734	141.048	-0.308	0.409
-435.719	417.228	0.048	0.104
-434.705	9.655	-0.233	0.177
-433.690	-200.000	-0.007	-0.079
-432.676	-32.889	0.251	-0.140
-431.661	-50.673	-0.180	-0.085
-430.646	3.769	-0.238	0.174
-429.632	23.244	0.475	-0.391
-428.617	-200.000	-0.021	0.187
-427.603	168.208	0.178	0.254
-426.588	-141.417	-0.206	0.021
-425.573	-130.705	-0.254	0.034
-424.559	-152.956	0.265	0.019
-423.544	-47.238	0.163	0.080
-422.530	-85.228	-0.100	-0.031
-421.515	-8.672	-0.271	-0.183
-420.500	460.712	0.072	-0.162
-419.486	697.015	-0.020	0.052
-418.471	152.001	0.064	-0.088
-417.457	800.000	-0.011	0.043
-416.442	-200.000	-0.072	-0.374
-415.428	-10.740	-0.240	-0.159
-414.413	-98.361	0.414	0.106
-413.398	-67.360	0.296	-0.117
-412.384	49.975	0.068	0.065
-411.369	183.968	-0.104	0.154
-410.355	-169.864	0.142	0.005
-409.340	800.000	0.104	0.374
-408.325	-154.775	0.151	0.010
-407.311	7.608	-0.226	0.170
-406.296	154.485	0.024	-0.033
-405.282	130.673	0.111	0.143
-404.267	187.375	-0.274	-0.410
-403.252	26.350	-0.118	0.099
-402.238	-41.571	0.229	-0.118
-401.223	177.649	-0.040	-0.058
-400.209	137.454	0.147	-0.192
-399.194	-50.893	-0.216	-0.102
-398.179	-55.175	0.225	0.101
-397.165	-134.012	0.161	0.020
-396.150	-200.000	-0.008	0.152
-395.136	281.951	0.135	0.242
-394.121	440.576	0.070	0.154
-393.106	800.000	0.062	-0.258
-392.092	-102.902	-0.136	-0.032
-391.077	-97.338	-0.399	0.104
-390.063	9.944	0.284	0.216
-389.048	165.351	0.092	-0.131
-388.033	-181.045	-0.262	-0.005
-387.019	-104.248	-0.265	-0.062
-386.004	-141.982	-0.338	0.034
-384.990	-98.327	-0.082	-0.021
-383.975	800.000	-0.118	0.358
-382.960	-200.000	0.002	-0.031
-381.946	601.110	0.150	-0.374
-380.931	-200.000	0.057	-0.283
-379.917	254.186	0.019	0.033
-378.902	160.962	-0.184	0.258
-377.888	-115.749	-0.328	-0.061
-376.873	-173.493	0.311	-0.009
-375.858	-71.298	-0.203	0.076
-374.844	-111.733	-0.269	0.055
-373.829	800.000	-0.043	0.135
-372.815	-124.568	0.121	-0.019
-371.800	-66.279	-0.182	0.072
-370.785	-74.503	-0.588	-0.212
-369.771	39.752	0.222	0.199
-368.756	624.226	-0.023	0.059
-367.742	-78.965	-0.267	-0.091
-366.727	-121.640	0.155	0.026
-365.712	-19.999	-0.124	0.077
-364.698	-200.000	-0.002	0.169
-363.683	800.000	-0.016	0.066
-362.669	10.873	-0.116	-0.088
-361.654	800.000	-0.115	0.324
-360.639	406.077	0.138	-0.292
-359.625	-80.370	0.261	-0.087
-358.610	-106.931	0.198	0.044
-357.596	70.439	-0.059	0.061
-356.581	-200.000	-0.030	0.159
-355.566	-200.000	0.031	-0.180
-354.552	-200.000	0.000	-0.248
-353.537	-91.034	-0.196	0.056
-352.523	536.403	0.165	-0.393
-351.508	-79.010	0.208	0.071
-350.493	800.000	0.044	-0.171
-349.479	464.243	0.120	-0.267
-348.464	64.071	-0.242	0.243
-347.450	-6.866	0.096	0.065
-346.435	-123.067	0.196	-0.031
-345.420	800.000	-0.144	0.414
-344.406	-39.125	-0.238	0.125
-343.391	51.801	0.080	-0.076
-342.377	-94.155	0.111	0.030
-341.362	-175.017	0.470	-0.013
-340.348	800.000	0.080	-0.343
-339.333	-108.019	-0.317	-0.069
-338.318	748.868	-0.150	0.404
-337.304	-200.000	0.066	0.330
-336.289	-200.000	-0.014	0.200
-335.275	53.209	0.147	0.141
-334.260	-199.292	-0.130	0.001
-333.245	216.123	-0.245	-0.389
-332.231	-69.250	-0.221	0.085
-331.216	-38.112	0.031	0.016
-330.202	-149.368	-0.142	-0.011
-329.187	800.000	0.053	0.164
-328.172	-118.216	0.349	0.062
-327.158	-30.883	-0.146	0.082
-326.143	-162.249	-0.213	0.011
-325.129	-11.161	-0.256	-0.169
-324.114	4.278	-0.141	0.104
-323.099	-200.000	0.007	-0.061
-322.085	-200.000	-0.020	-0.148
-321.070	-66.717	-0.138	0.055
-320.056	-49.395	0.246	0.117
-319.041	532.115	0.056	0.133
-318.026	675.323	0.044	0.114
-317.012	-84.583	0.162	0.051
-315.997	-138.560	0.144	-0.016
-314.983	-169.569	0.210	0.008
-313.968	31.804	0.067	-0.058
-312.953	800.000	-0.021	0.091
-311.939	285.152	0.219	-0.395
-310.924	-171.899	0.184	-0.006
-309.910	23.920	0.230	-0.189
-308.895	-67.572	0.114	0.045
-307.880	800.000	0.029	-0.090
-306.866	397.202	-0.087	-0.181
-305.851	-111.616	0.357	0.072
-304.837	800.000	0.050	-0.196
-303.822	232.373	-0.044	-0.072
-302.807	-23.795	-0.025	-0.015
-301.793	89.581	-0.149	0.166
-300.778	-14.959	0.150	0.096
-299.764	-32.459	-0.173	-0.096
-298.749	449.754	-0.128	0.283
-297.735	-159.935	0.289	0.016
-296.720	-50.491	-0.022	0.010
-295.705	-56.541	0.372	-0.165
-294.691	158.791	-0.054	-0.075
-293.676	-142.847	0.309	0.030
-292.662	387.074	0.125	0.257
-291.647	-80.661	-0.413	-0.137
-290.632	118.986	-0.324	-0.399
-289.618	-131.060	0.215	-0.029
-288.603	-55.720	0.219	0.098
-287.589	440.768	0.044	0.096
-286.574	-200.000	-0.012	0.350
-285.559	800.000	0.093	0.277
-284.545	96.855	-0.204	0.233
-283.530	800.000	0.063	-0.214
-282.516	800.000	-0.104	-0.300
-281.501	-54.941	0.257	-0.116
-280.486	704.719	0.082	0.215
-279.472	-200.000	0.072	-0.397
-278.457	-86.676	0.204	0.062
-277.443	605.108	-0.150	-0.372
-276.428	202.956	-0.119	-0.184
-275.413	-1.370	-0.134	-0.094
-274.399	110.626	0.108	0.129
-273.384	458.868	0.020	0.045
-272.370	-169.675	0.458	0.017
-271.355	-200.000	-0.057	-0.307
-270.340	-200.000	-0.034	0.186
-269.326	0.289	0.168	-0.120
-268.311	800.000	-0.083	-0.319
-267.297	-93.659	-0.191	0.053
-266.282	-200.000	0.051	-0.269
-265.267	-12.450	0.291	-0.190
-264.253	800.000	0.010	-0.038
-263.238	-200.000	-0.012	0.055
-262.224	-143.134	0.223	0.021
-261.209	167.353	0.125	0.177
-260.195	-186.520	-0.036	-0.001
-259.180	-200.000	0.069	0.435
-258.165	41.402	0.296	0.267
-257.151	-20.207	-0.010	0.006
-256.136	-63.774	-0.072	-0.029
-255.122	280.989	-0.141	-0.251
-254.107	-200.000	-0.027	0.137
-253.092	-200.000	0.001	0.115
-252.078	-200.000	0.038	-0.434
-251.063	183.580	-0.090	0.133
-250.049	141.748	-0.167	-0.220
-249.034	533.764	-0.021	-0.050
-248.019	-86.963	-0.188	-0.057
-247.005	179.850	0.108	0.158
-245.990	-77.791	0.190	0.065
-244.976	-200.000	0.010	-0.328
-243.961	614.653	-0.071	-0.177
-242.946	223.939	-0.146	-0.235
-241.932	481.667	0.134	0.304
-240.917	-200.000	0.004	-0.207
-239.903	45.571	0.156	-0.143
-238.888	3.955	-0.148	-0.108
-237.873	-200.000	0.028	0.256
-236.859	318.808	0.207	0.391
-235.844	588.536	0.123	-0.301
-234.830	-96.850	0.336	0.088
-233.815	-67.758	-0.548	0.214
-232.800	-95.751	0.103	0.027
-231.786	-200.000	0.057	0.315
-230.771	800.000	-0.043	0.140
-229.757	-100.257	-0.518	-0.128
-228.742	-62.633	0.260	-0.107
-227.727	246.549	-0.201	0.337
-226.713	34.196	-0.298	-0.258
-225.698	-114.939	0.186	0.035
-224.684	182.320	0.139	-0.204
-223.669	-200.000	-0.048	-0.376
-222.655	-200.000	0.012	-0.059
-221.640	226.372	-0.155	-0.250
-220.625	-154.695	0.078	0.005
-219.611	-180.391	0.046	-0.001
-218.596	-141.095	-0.126	0.013
-217.582	140.122	0.131	0.172
-216.567	-78.957	-0.153	0.052
-215.552	-200.000	0.067	0.314
-214.538	576.739	-0.086	-0.210
-213.523	-15.715	-0.173	0.110
-212.509	-200.000	0.005	0.053
-211.494	-97.730	0.115	-0.030
-210.479	68.460	0.137	-0.139
-209.465	48.031	-0.276	-0.257
-208.450	-200.000	0.032	0.180
-207.436	-58.868	-0.044	0.019
-206.421	-61.129	0.291	0.122
-205.406	-70.871	0.078	-0.029
-204.392	303.305	-0.064	-0.118
-203.377	-200.000	-0.077	0.470
-202.363	460.501	0.122	-0.270
-201.348	224.195	0.256	-0.412
-200.333	531.254	-0.031	0.074
-199.319	-84.839	0.448	0.140
-198.304	519.161	0.053	0.123
-197.290	100.933	-0.147	-0.170
-196.275	-40.606	0.096	0.049
-195.260	-109.812	0.171	0.036
-194.246	-50.756	-0.258	-0.121
-193.231	-196.366	0.338	0.002
-192.217	121.579	0.167	-0.208
-191.202	800.000	-0.167	-0.467
-190.187	-115.044	0.167	-0.032
-189.173	-104.229	0.051	-0.012
-188.158	99.463	0.185	0.213
-187.144	-114.031	-0.323	-0.062
-186.129	-149.308	0.200	0.016
-185.114	-200.000	-0.015	0.225
-184.100	-157.933	-0.022	0.001
-183.085	132.053	-0.141	0.180
-182.071	-31.953	-0.151	-0.084
-181.056	-200.000	0.343	0.001
-180.042	211.217	-0.051	-0.079
-179.027	800.000	-0.052	0.170
-178.012	206.663	0.086	0.133
-176.998	254.445	0.166	-0.282
-175.983	-93.218	0.076	-0.021
-174.969	-83.359	0.196	-0.062
-173.954	-61.595	-0.307	0.128
-172.939	329.545	-0.108	-0.207
-171.925	-88.403	0.117	-0.035
-170.910	372.370	-0.050	-0.101
-169.896	34.597	0.048	-0.041
-168.881	-34.832	-0.347	0.188
-167.866	3.201	-0.042	0.030
-166.852	-16.846	0.265	-0.166
-165.837	83.635	-0.161	0.175
-164.823	684.277	-0.005	0.012
-163.808	760.640	0.034	0.092
-162.793	-1.961	0.020	-0.014
-161.779	594.257	-0.198	0.486
-160.764	44.194	-0.094	0.085
-159.750	19.185	0.325	0.259
-158.735	-91.941	0.297	-0.084
-157.720	800.000	0.046	0.185
-156.706	84.164	0.114	0.123
-155.691	-108.940	-0.370	0.079
-154.677	-68.518	0.126	-0.049
-153.662	76.283	0.154	-0.162
-152.647	-200.000	0.099	0.462
-151.633	518.361	-0.111	-0.257
-150.618	247.359	-0.178	-0.299
-149.604	733.334	-0.106	0.282
-148.589	232.762	-0.068	-0.111
-147.574	800.000	0.076	0.213
-146.560	5.976	-0.169	-0.124
-145.545	-101.537	0.168	0.041
-144.531	800.000	0.127	0.396
-143.516	-76.925	0.137	-0.047
-142.502	-200.000	0.006	0.140
-141.487	-21.701	0.084	-0.051
-140.472	-116.878	-0.511	-0.093
-139.458	-129.253	-0.159	0.022
-138.443	454.890	-0.069	0.151
-137.429	-36.075	-0.191	0.103
-136.414	-10.809	-0.372	0.244
-135.399	-132.342	0.242	0.031
-134.385	-146.739	-0.048	0.004
-133.370	-200.000	0.010	0.200
-132.356	-51.012	0.102	-0.048
-131.341	-113.370	-0.168	0.033
-130.326	405.053	-0.143	-0.300
-129.312	-200.000	-0.005	0.138
-128.297	-76.176	0.194	0.068
-127.283	-174.824	-0.311	0.009
-126.268	550.760	0.056	-0.133
-125.253	382.401	0.087	-0.178
-124.239	13.500	0.123	-0.095
-123.224	-153.863	-0.147	-0.010
-122.210	800.000	-0.095	-0.299
-121.195	388.215	-0.077	-0.159
