DTS Sentinel unit serial number:	SN413079Multiplexer serial number:	ORYXHardware model number:	OX4-SRSoftware version number:	ORYX F/W v4.00 Oryx Data Collector v3.7.2.0data status	okinstallation	princeton_trtdifferential loss correction	single-endedforward channel	channel 4reverse channel	N/Adate	2019/09/12time	02:11:11forward acquisition time	60.00reverse acquisition time	0.00gamma	496.2192k internal	0.2309k external	0.2309temperature offset calibration	1.0092default loss term (dB/km)	0.3790temperature slope calibration	1.0000multiplexer offset coefficient	1.0000multiplexer slope coefficient	1.0000fibre end	0.00T internal ref (°C)	32.69T ext. ref 1 (°C)	2.08T ext. ref 2 (°C)	27.42length (m)	temperature (°C)	Stokes	anti-Stokes-747.200	9.401	-0.041	-0.032
-746.185	-200.000	-0.059	0.272
-745.171	140.483	0.117	-0.158
-744.156	231.329	-0.096	-0.159
-743.142	107.831	-0.155	0.188
-742.127	-18.411	-0.216	0.137
-741.112	-82.256	-0.105	-0.035
-740.098	349.377	-0.125	0.251
-739.083	800.000	0.036	0.161
-738.069	-0.250	-0.054	0.039
-737.054	-200.000	-0.064	0.346
-736.039	200.359	0.082	-0.127
-735.025	-200.000	0.013	-0.082
-734.010	47.041	0.183	-0.173
-732.996	800.000	0.028	-0.109
-731.981	-115.722	-0.202	0.038
-730.966	291.695	0.182	0.337
-729.952	758.040	-0.137	-0.376
-728.937	-185.568	-0.325	-0.005
-727.923	79.127	0.332	-0.361
-726.908	-200.000	0.090	-0.406
-725.894	-81.526	-0.049	0.016
-724.879	-200.000	0.025	-0.131
-723.864	-3.651	-0.268	-0.189
-722.850	-145.354	-0.131	0.012
-721.835	262.893	0.109	-0.191
-720.821	-56.939	-0.147	-0.066
-719.806	-50.447	0.149	-0.071
-718.791	-116.539	-0.062	-0.012
-717.777	800.000	-0.081	-0.271
-716.762	2.349	0.209	-0.153
-715.748	72.691	-0.198	-0.210
-714.733	528.782	0.069	-0.166
-713.718	-114.074	-0.447	0.088
-712.704	-110.738	-0.189	0.040
-711.689	7.291	-0.102	-0.077
-710.675	-200.000	-0.007	-0.351
-709.660	-200.000	0.037	-0.171
-708.645	-87.862	-0.184	0.056
-707.631	461.302	0.041	0.094
-706.616	-181.514	-0.156	-0.003
-705.602	-200.000	0.019	0.195
-704.587	362.750	0.025	-0.051
-703.572	-28.051	0.309	-0.182
-702.558	120.501	0.106	-0.133
-701.543	-200.000	-0.002	0.314
-700.529	-200.000	0.054	0.353
-699.514	-200.000	-0.012	-0.164
-698.499	-200.000	0.032	0.163
-697.485	-92.624	-0.235	-0.067
-696.470	-164.064	-0.305	-0.014
-695.456	0.221	-0.129	0.093
-694.441	414.657	-0.024	-0.051
-693.426	-200.000	-0.037	-0.259
-692.412	-37.248	-0.274	-0.149
-691.397	-200.000	0.023	-0.227
-690.383	-150.357	0.249	0.019
-689.368	62.060	0.067	0.068
-688.354	-154.020	-0.093	0.006
-687.339	235.504	0.173	-0.290
-686.324	-91.572	-0.167	-0.048
-685.310	30.948	-0.155	-0.134
-684.295	320.535	0.132	0.254
-683.281	-200.000	0.019	0.246
-682.266	85.134	0.083	-0.092
-681.251	-200.000	-0.021	0.156
-680.237	31.520	0.251	0.219
-679.222	-200.000	0.025	0.126
-678.208	52.563	0.028	0.027
-677.193	-158.805	0.298	-0.017
-676.178	800.000	0.027	0.110
-675.164	-12.869	-0.387	0.255
-674.149	-200.000	-0.001	0.183
-673.135	800.000	0.045	0.175
-672.120	800.000	0.096	-0.337
-671.105	-38.850	0.216	-0.115
-670.091	-135.211	-0.145	-0.018
-669.076	-98.474	-0.248	-0.064
-668.062	360.818	-0.047	-0.096
-667.047	506.904	0.169	0.397
-666.032	800.000	0.013	0.051
-665.018	800.000	-0.090	-0.290
-664.003	19.286	-0.150	0.122
-662.989	207.836	0.054	0.085
-661.974	167.990	-0.127	-0.184
-660.959	221.199	0.047	-0.076
-659.945	-20.385	-0.051	-0.032
-658.930	-132.869	0.079	-0.010
-657.916	177.727	-0.079	-0.117
-656.901	55.618	-0.154	-0.151
-655.886	800.000	-0.063	-0.184
-654.872	277.747	0.085	-0.154
-653.857	112.404	0.089	-0.109
-652.843	-34.380	-0.265	0.147
-651.828	560.282	0.037	-0.090
-650.814	-200.000	0.052	-0.365
-649.799	-200.000	0.003	-0.207
-648.784	-95.007	0.337	-0.092
-647.770	765.914	-0.097	0.267
-646.755	-200.000	-0.070	-0.321
-645.741	767.584	0.108	0.297
-644.726	44.189	0.077	0.071
-643.711	160.611	0.222	0.313
-642.697	-112.186	0.124	0.025
-641.682	295.630	0.049	-0.091
-640.668	-200.000	-0.077	0.414
-639.653	-45.598	0.100	0.050
-638.638	-200.000	-0.050	0.306
-637.624	106.649	0.092	-0.111
-636.609	-200.000	0.017	0.169
-635.595	228.925	-0.118	0.195
-634.580	-116.223	0.218	0.041
-633.565	-13.030	0.205	-0.135
-632.551	656.637	-0.076	-0.198
-631.536	-200.000	0.018	0.186
-630.522	-148.739	-0.261	0.021
-629.507	800.000	0.018	-0.060
-628.492	27.854	-0.087	0.074
-627.478	-33.563	0.489	-0.273
-626.463	-70.432	0.254	-0.097
-625.449	-200.000	-0.013	0.142
-624.434	-149.253	-0.219	-0.018
-623.419	-135.740	0.112	-0.013
-622.405	-106.248	-0.443	0.100
-621.390	-87.095	-0.243	0.075
-620.376	324.095	-0.026	-0.050
-619.361	313.859	-0.031	-0.060
-618.346	-200.000	-0.018	0.323
-617.332	-61.409	0.319	-0.136
-616.317	-44.254	-0.270	0.137
-615.303	-146.416	0.055	-0.005
-614.288	299.394	0.089	0.165
-613.273	484.722	0.112	0.257
-612.259	-141.932	0.049	-0.005
-611.244	-61.466	0.207	0.088
-610.230	-88.416	-0.196	-0.059
-609.215	-70.046	-0.244	0.094
-608.201	109.317	-0.169	-0.204
-607.186	-27.832	-0.122	-0.071
-606.171	-99.677	0.469	-0.119
-605.157	26.145	-0.086	0.072
-604.142	219.463	-0.038	0.061
-603.128	800.000	-0.086	0.370
-602.113	800.000	0.034	0.148
-601.098	-102.648	-0.323	-0.078
-600.084	-98.173	0.297	-0.077
-599.069	-164.762	0.154	0.007
-598.055	338.976	0.046	-0.091
-597.040	-87.151	-0.086	-0.026
-596.025	-59.920	0.163	0.070
-595.011	598.900	-0.013	-0.033
-593.996	247.783	-0.035	-0.059
-592.982	16.014	-0.121	0.096
-591.967	-46.261	0.078	0.039
-590.952	271.419	-0.210	-0.373
-589.938	4.545	0.085	0.063
-588.923	800.000	0.089	-0.348
-587.909	-112.039	-0.280	0.057
-586.894	800.000	-0.058	0.163
-585.879	800.000	0.003	0.013
-584.865	84.445	0.143	0.158
-583.850	59.117	-0.320	0.318
-582.836	36.884	0.180	-0.161
-581.821	-200.000	-0.001	-0.043
-580.806	-200.000	0.041	-0.330
-579.792	800.000	-0.044	-0.193
-578.777	-126.364	0.371	-0.056
-577.763	55.242	-0.062	-0.060
-576.748	250.446	-0.119	-0.204
-575.733	-1.077	0.180	-0.128
-574.719	-58.745	0.199	-0.087
-573.704	-200.000	0.049	0.249
-572.690	257.111	0.184	-0.319
-571.675	800.000	0.025	-0.094
-570.661	-46.526	-0.155	0.077
-569.646	434.462	0.082	-0.180
-568.631	38.498	-0.134	0.120
-567.617	58.402	-0.116	-0.115
-566.602	-37.989	0.136	0.073
-565.588	-200.000	0.001	-0.111
-564.573	515.873	-0.107	-0.252
-563.558	-135.923	-0.179	0.021
-562.544	-200.000	0.011	0.241
-561.529	402.412	-0.077	0.164
-560.515	-84.861	0.371	0.118
-559.500	-24.396	0.120	0.072
-558.485	-200.000	-0.013	0.074
-557.471	119.566	-0.143	-0.179
-556.456	-200.000	0.047	-0.314
-555.442	800.000	0.024	0.094
-554.427	-200.000	0.018	0.252
-553.412	148.003	-0.095	0.129
-552.398	-4.462	0.055	-0.038
-551.383	72.518	0.046	0.048
-550.369	328.390	0.045	0.087
-549.354	-90.209	-0.120	0.035
-548.339	800.000	-0.067	0.256
-547.325	-51.493	0.210	0.099
-546.310	72.723	0.108	0.113
-545.296	-104.421	-0.071	-0.017
-544.281	197.813	-0.209	0.322
-543.266	800.000	0.049	0.138
-542.252	-144.680	-0.380	-0.035
-541.237	-35.822	0.218	-0.119
-540.223	-54.656	0.422	0.192
-539.208	204.503	-0.096	0.150
-538.193	3.222	-0.082	-0.060
-537.179	48.443	0.307	0.289
-536.164	427.949	-0.043	0.093
-535.150	800.000	-0.010	0.039
-534.135	800.000	0.100	0.281
-533.121	314.038	0.040	0.075
-532.106	-36.054	0.090	0.049
-531.091	686.012	-0.088	0.230
-530.077	209.150	0.027	-0.043
-529.062	-200.000	-0.154	-0.709
-528.048	94.733	0.083	0.096
-527.033	-200.000	-0.005	-0.070
-526.018	-45.285	0.154	-0.077
-525.004	-200.000	-0.062	0.339
-523.989	-28.598	-0.272	-0.158
-522.975	-79.091	-0.360	0.123
-521.960	96.006	-0.197	-0.226
-520.945	-200.000	-0.022	-0.132
-519.931	-79.675	0.099	0.034
-518.916	532.705	0.096	0.229
-517.902	272.886	-0.090	-0.160
-516.887	-200.000	0.015	0.135
-515.872	-200.000	0.011	0.182
-514.858	-128.616	-0.197	0.028
-513.843	602.200	0.026	0.066
-512.829	-66.849	-0.091	-0.036
-511.814	-200.000	0.039	-0.217
-510.799	82.029	-0.106	0.116
-509.785	91.120	0.255	-0.289
-508.770	281.206	0.029	0.052
-507.756	54.493	-0.114	-0.110
-506.741	800.000	-0.038	0.118
-505.726	-200.000	-0.015	-0.102
-504.712	-56.411	-0.082	-0.037
-503.697	24.741	-0.188	-0.157
-502.683	-137.332	-0.315	0.036
-501.668	488.528	0.088	0.202
-500.653	91.296	0.077	0.088
-499.639	800.000	-0.021	-0.086
-498.624	89.960	-0.237	-0.267
-497.610	501.979	0.075	0.174
-496.595	800.000	-0.064	0.216
-495.581	-19.157	0.374	0.234
-494.566	1.662	-0.137	0.099
-493.551	21.158	-0.178	-0.145
-492.537	-200.000	0.056	-0.281
-491.522	-157.069	0.062	-0.004
-490.508	198.014	-0.034	0.052
-489.493	-68.179	-0.079	-0.031
-488.478	800.000	0.038	-0.111
-487.464	-200.000	0.003	-0.146
-486.449	-200.000	-0.010	-0.133
-485.435	19.478	0.082	-0.067
-484.420	-200.000	0.025	0.307
-483.405	-154.919	0.025	0.002
-482.391	-11.819	0.394	-0.260
-481.376	-110.150	0.084	0.018
-480.362	142.494	0.186	-0.248
-479.347	-200.000	-0.023	-0.263
-478.332	-64.561	-0.113	-0.046
-477.318	-51.486	-0.106	0.050
-476.303	85.670	-0.151	-0.167
-475.289	-141.348	0.407	0.042
-474.274	-22.999	0.219	0.132
-473.259	88.641	-0.355	0.397
-472.245	-200.000	-0.057	0.309
-471.230	125.515	0.277	0.351
-470.216	-76.553	-0.203	-0.072
-469.201	33.328	-0.190	-0.166
-468.186	-40.498	-0.025	-0.013
-467.172	-10.874	0.097	-0.064
-466.157	59.031	-0.105	-0.103
-465.143	800.000	-0.060	0.173
-464.128	-62.004	-0.229	0.096
-463.113	94.766	0.063	0.072
-462.099	94.387	0.095	0.109
-461.084	652.496	-0.174	-0.448
-460.070	-28.691	-0.219	0.126
-459.055	-23.930	0.186	0.112
-458.040	57.365	0.242	0.237
-457.026	148.609	-0.054	-0.074
-456.011	58.634	-0.033	-0.032
-454.997	199.759	0.150	-0.231
-453.982	691.528	-0.050	0.133
-452.968	181.698	0.153	0.226
-451.953	-200.000	-0.021	-0.247
-450.938	-0.547	0.136	-0.097
-449.924	-132.303	-0.197	0.026
-448.909	280.477	-0.004	-0.007
-447.895	800.000	-0.065	0.183
-446.880	90.910	0.103	-0.116
-445.865	6.707	-0.217	0.162
-444.851	-200.000	-0.007	-0.213
-443.836	45.076	-0.087	0.080
-442.822	163.671	0.139	-0.196
-441.807	-200.000	-0.021	-0.171
-440.792	202.381	-0.116	0.179
-439.778	-85.158	0.086	-0.027
-438.763	25.563	0.093	0.078
-437.749	426.064	-0.046	-0.100
-436.734	-21.430	-0.239	0.147
-435.719	-200.000	-0.038	0.173
-434.705	418.296	0.098	0.211
-433.690	67.225	-0.033	0.034
-432.676	99.193	0.046	-0.053
-431.661	-200.000	0.010	-0.396
-430.646	157.026	-0.217	-0.302
-429.632	451.234	0.124	0.275
-428.617	194.123	0.136	0.207
-427.603	-11.333	-0.131	-0.086
-426.588	211.259	-0.129	-0.203
-425.573	4.087	-0.160	0.118
-424.559	-200.000	0.007	0.041
-423.544	423.063	0.109	0.235
-422.530	46.442	0.146	-0.136
-421.515	-25.788	0.186	-0.110
-420.500	548.983	0.081	0.195
-419.486	95.116	-0.004	-0.005
-418.471	-200.000	-0.027	0.171
-417.457	-200.000	-0.024	0.156
-416.442	-129.867	-0.448	0.062
-415.428	393.321	0.129	0.270
-414.413	183.560	-0.175	0.260
-413.398	-8.233	-0.245	-0.165
-412.384	-57.074	0.279	0.123
-411.369	16.202	-0.072	0.057
-410.355	-54.719	-0.259	0.117
-409.340	800.000	-0.072	0.313
-408.325	-64.175	-0.199	-0.081
-407.311	-200.000	0.033	0.265
-406.296	-8.877	-0.291	0.196
-405.282	254.896	0.095	0.162
-404.267	27.516	0.163	-0.138
-403.252	1.678	-0.140	-0.101
-402.238	-107.152	-0.034	-0.008
-401.223	211.879	-0.105	-0.165
-400.209	215.275	-0.127	0.203
-399.194	102.684	0.085	-0.099
-398.179	-163.199	-0.403	-0.019
-397.165	166.499	-0.180	-0.256
-396.150	-107.887	0.090	0.020
-395.136	800.000	-0.049	-0.160
-394.121	-103.404	0.211	0.050
-393.106	577.503	-0.102	-0.249
-392.092	-82.917	0.169	-0.055
-391.077	-146.885	0.173	0.015
-390.063	800.000	-0.010	0.029
-389.048	-134.748	-0.064	0.008
-388.033	-173.309	0.152	0.005
-387.019	-21.549	0.202	0.124
-386.004	-200.000	0.040	0.316
-384.990	172.639	-0.044	-0.063
-383.975	-200.000	0.034	-0.416
-382.960	-95.148	0.280	0.076
-381.946	548.932	-0.037	-0.089
-380.931	15.175	0.147	-0.116
-379.917	-200.000	-0.021	-0.223
-378.902	225.828	-0.177	-0.287
-377.888	14.551	0.156	-0.122
-376.873	-200.000	0.076	0.386
-375.858	800.000	-0.063	0.210
-374.844	133.860	0.120	-0.156
-373.829	528.685	0.109	0.257
-372.815	-200.000	0.053	-0.235
-371.800	-118.134	-0.162	0.029
-370.785	-200.000	-0.024	-0.130
-369.771	-22.990	-0.165	-0.099
-368.756	-200.000	-0.101	-0.462
-367.742	123.641	-0.238	0.298
-366.727	346.797	-0.046	-0.091
-365.712	276.977	0.211	-0.376
-364.698	91.494	-0.144	-0.162
-363.683	209.337	0.173	0.272
-362.669	41.521	0.141	-0.128
-361.654	-71.730	0.260	0.097
-360.639	-102.496	0.218	0.052
-359.625	88.926	0.098	0.109
-358.610	83.652	0.319	-0.348
-357.596	-130.406	-0.152	0.021
-356.581	13.340	-0.418	0.324
-355.566	17.802	-0.253	0.202
-354.552	150.786	-0.077	-0.105
-353.537	-65.036	0.159	0.064
-352.523	-107.426	-0.162	-0.035
-351.508	137.466	-0.124	0.162
-350.493	800.000	0.053	-0.156
-349.479	-200.000	0.003	-0.177
-348.464	-200.000	-0.015	0.109
-347.450	556.644	0.095	-0.229
-346.435	-46.559	0.153	0.075
-345.420	-200.000	-0.003	0.149
-344.406	66.702	-0.044	0.045
-343.391	800.000	-0.100	-0.342
-342.377	-200.000	-0.001	-0.021
-341.362	23.235	0.196	0.161
-340.348	-34.211	0.214	-0.117
-339.333	198.039	-0.198	-0.302
-338.318	-31.708	-0.179	-0.100
-337.304	-200.000	0.451	-0.002
-336.289	800.000	-0.062	-0.194
-335.275	70.170	-0.256	-0.264
-334.260	800.000	0.086	-0.256
-333.245	13.668	0.253	-0.196
-332.231	94.400	-0.179	0.203
-331.216	-47.974	0.266	0.129
-330.202	143.115	-0.177	0.235
-329.187	45.988	0.058	-0.054
-328.172	148.975	0.105	-0.142
-327.158	-96.876	-0.214	-0.056
-326.143	2.351	-0.054	0.039
-325.129	5.339	0.174	0.128
-324.114	-200.000	0.003	0.114
-323.099	-115.749	-0.075	0.014
-322.085	-197.343	-0.203	0.001
-321.070	-200.000	0.022	-0.381
-320.056	-16.178	0.061	-0.039
-319.041	147.234	-0.106	0.142
-318.026	-60.167	0.207	0.088
-317.012	-87.962	0.230	-0.069
-315.997	339.301	-0.087	0.170
-314.983	-120.910	-0.027	0.004
-313.968	12.445	-0.220	-0.170
-312.953	-150.451	0.541	-0.041
-311.939	-200.000	0.000	0.006
-310.924	-54.429	-0.285	0.129
-309.910	-29.244	0.118	0.067
-308.895	35.925	0.118	-0.104
-307.880	-16.955	0.366	-0.231
-306.866	-0.296	0.155	0.110
-305.851	2.026	0.091	0.066
-304.837	-114.653	0.282	0.054
-303.822	-160.990	0.273	0.014
-302.807	52.481	-0.195	0.186
-301.793	495.622	0.200	-0.458
-300.778	-200.000	0.037	-0.284
-299.764	-76.024	0.235	-0.083
-298.749	-111.276	0.050	0.010
-297.735	730.169	-0.128	0.341
-296.720	186.501	-0.107	0.158
-295.705	-90.665	-0.110	-0.032
-294.691	-42.278	0.205	-0.104
-293.676	2.658	-0.357	-0.258
-292.662	432.998	-0.134	-0.291
-291.647	533.620	0.089	-0.212
-290.632	271.433	0.062	-0.110
-289.618	-28.078	0.142	-0.082
-288.603	-94.018	-0.226	-0.062
-287.589	-117.490	0.315	-0.057
-286.574	800.000	0.021	0.074
-285.559	76.837	-0.203	-0.215
-284.545	111.614	0.112	-0.134
-283.530	-3.906	-0.378	-0.262
-282.516	386.553	-0.067	-0.137
-281.501	-59.803	0.112	0.048
-280.486	-200.000	0.009	0.166
-279.472	-111.589	-0.196	-0.040
-278.457	36.189	0.078	0.069
-277.443	79.569	0.239	0.256
-276.428	800.000	-0.042	-0.118
-275.413	89.768	0.163	-0.181
-274.399	70.218	0.179	-0.184
-273.384	656.507	-0.068	-0.175
-272.370	-200.000	0.046	0.248
-271.355	122.531	0.172	-0.215
-270.340	234.678	-0.107	-0.176
-269.326	-66.113	0.201	-0.080
-268.311	-200.000	-0.061	0.400
-267.297	34.996	-0.074	-0.064
-266.282	79.710	-0.092	-0.099
-265.267	96.111	-0.210	-0.239
-264.253	20.518	0.193	-0.156
-263.238	-42.857	0.149	-0.075
-262.224	-200.000	0.029	-0.400
-261.209	11.538	0.155	-0.119
-260.195	800.000	-0.109	0.354
-259.180	359.212	-0.043	0.086
-258.165	38.780	0.181	-0.161
-257.151	188.546	-0.102	-0.152
-256.136	-86.470	0.433	-0.133
-255.122	-128.111	0.138	-0.020
-254.107	-200.000	-0.021	0.232
-253.092	-200.000	-0.004	-0.028
-252.078	196.333	-0.106	0.161
-251.063	-118.347	-0.199	0.035
-250.049	100.813	0.014	0.016
-249.034	285.360	-0.109	-0.196
-248.019	-200.000	-0.002	0.026
-247.005	210.943	0.063	-0.099
-245.990	-45.761	-0.413	-0.203
-244.976	-130.740	-0.033	-0.004
-243.961	-71.353	0.293	0.109
-242.946	-67.899	-0.148	0.058
-241.932	-171.850	-0.210	0.007
-240.917	-45.591	0.172	-0.085
-239.903	-94.223	-0.089	0.024
-238.888	800.000	0.014	-0.043
-237.873	-200.000	-0.025	-0.386
-236.859	-160.103	0.393	-0.021
-235.844	19.771	-0.159	-0.128
-234.830	-167.288	-0.149	-0.006
-233.815	-196.609	-0.373	-0.002
-232.800	800.000	0.023	0.088
-231.786	-200.000	0.084	-0.414
-230.771	-172.099	0.320	-0.010
-229.757	110.927	0.059	0.071
-228.742	75.069	-0.082	0.086
-227.727	-200.000	0.021	-0.220
-226.713	-66.747	0.376	0.148
-225.698	-128.591	-0.123	-0.017
-224.684	-121.952	-0.018	-0.003
-223.669	-111.663	-0.218	-0.044
-222.655	22.783	-0.424	-0.345
-221.640	-132.733	-0.152	0.019
-220.625	-120.486	0.182	-0.031
-219.611	-200.000	0.283	0.000
-218.596	287.738	0.106	-0.191
-217.582	-36.899	0.195	0.104
-216.567	800.000	0.162	0.477
-215.552	-48.803	0.171	0.082
-214.538	183.772	0.169	0.248
-213.523	122.480	-0.052	-0.065
-212.509	-73.010	-0.337	0.123
-211.494	3.776	-0.242	-0.176
-210.479	-200.000	0.024	-0.229
-209.465	800.000	-0.020	-0.070
-208.450	-136.345	0.205	0.024
-207.436	3.295	-0.230	-0.167
-206.421	136.082	0.219	0.284
-205.406	64.884	0.238	0.239
-204.392	-40.877	-0.355	-0.183
-203.377	-19.769	-0.253	-0.156
-202.363	-98.749	-0.147	-0.037
-201.348	122.541	-0.191	0.237
-200.333	101.836	0.126	0.146
-199.319	-85.230	-0.220	-0.068
-198.304	136.109	0.143	-0.186
-197.290	-58.045	-0.252	0.109
-196.275	-200.000	0.036	0.232
-195.260	-16.246	-0.129	0.081
-194.246	11.150	0.138	0.105
-193.231	498.232	-0.117	-0.267
-192.217	52.846	-0.029	0.028
-191.202	-68.027	-0.221	-0.086
-190.187	-77.683	0.075	0.026
-189.173	210.786	-0.196	0.307
-188.158	347.667	-0.152	-0.297
-187.144	242.941	-0.227	0.378
-186.129	-47.908	0.134	-0.064
-185.114	-0.378	0.183	-0.129
-184.100	-22.067	0.308	0.186
-183.085	-200.000	-0.011	-0.105
-182.071	-200.000	0.010	0.068
-181.056	126.737	-0.095	0.119
-180.042	-155.206	-0.333	0.022
-179.027	-111.036	-0.233	0.048
-178.012	559.430	0.124	0.299
-176.998	-100.459	-0.185	0.046
-175.983	-99.527	0.035	0.009
-174.969	-170.545	-0.269	-0.009
-173.954	70.859	-0.082	-0.084
-172.939	-167.245	-0.095	-0.004
-171.925	212.830	0.076	0.120
-170.910	-174.304	-0.192	0.006
-169.896	-39.649	0.083	-0.043
-168.881	-5.847	-0.292	0.199
-167.866	-200.000	0.009	0.345
-166.852	138.399	-0.062	-0.081
-165.837	-96.051	0.130	-0.034
-164.823	102.424	-0.033	-0.039
-163.808	-43.830	-0.117	0.058
-162.793	664.726	-0.090	0.232
-161.779	-200.000	-0.012	0.077
-160.764	-200.000	-0.043	-0.240
-159.750	147.898	0.212	-0.284
-158.735	3.438	-0.216	-0.156
-157.720	47.533	-0.283	0.262
-156.706	-131.602	0.100	0.013
-155.691	-26.481	0.287	0.167
-154.677	194.936	0.268	0.404
-153.662	800.000	0.055	0.195
-152.647	8.500	0.263	0.196
-151.633	-200.000	0.006	0.048
-150.618	228.522	-0.204	0.329
-149.604	-6.929	0.207	0.139
-148.589	-200.000	-0.002	-0.028
-147.574	-200.000	0.016	0.174
-146.560	125.386	0.216	0.271
-145.545	-95.888	-0.251	0.067
-144.531	-137.387	-0.174	0.020
-143.516	-200.000	-0.031	0.297
-142.502	-105.198	0.309	0.070
-141.487	126.401	0.166	-0.208
-140.472	101.040	0.072	0.083
-139.458	-3.672	-0.133	-0.092
-138.443	164.487	0.154	-0.216
-137.429	800.000	-0.044	0.188
-136.414	800.000	-0.028	0.114
-135.399	345.744	-0.098	0.190
-134.385	-119.247	-0.046	0.008
-133.370	-60.492	-0.133	-0.056
-132.356	550.935	0.102	0.242
-131.341	330.136	-0.241	-0.461
-130.326	-51.411	-0.290	-0.135
-129.312	-97.002	0.150	-0.039
-128.297	-54.972	0.235	0.105
-127.283	305.859	-0.183	-0.338
-126.268	-87.769	-0.382	0.114
-125.253	-7.817	-0.021	0.014
-124.239	30.206	-0.081	-0.069
-123.224	-200.000	0.028	0.145
-122.210	44.361	0.046	0.042
-121.195	-38.783	-0.268	0.140
