DTS Sentinel unit serial number:	SN413079Multiplexer serial number:	ORYXHardware model number:	OX4-SRSoftware version number:	ORYX F/W v4.00 Oryx Data Collector v3.7.2.0data status	okinstallation	princeton_trtdifferential loss correction	single-endedforward channel	channel 4reverse channel	N/Adate	2019/09/12time	07:07:11forward acquisition time	60.00reverse acquisition time	0.00gamma	496.2192k internal	0.2307k external	0.2307temperature offset calibration	1.0064default loss term (dB/km)	0.3790temperature slope calibration	1.0000multiplexer offset coefficient	1.0000multiplexer slope coefficient	1.0000fibre end	0.00T internal ref (°C)	32.19T ext. ref 1 (°C)	1.61T ext. ref 2 (°C)	27.57length (m)	temperature (°C)	Stokes	anti-Stokes-747.200	159.336	-0.129	0.182
-746.185	119.205	0.144	0.181
-745.171	127.975	-0.150	-0.194
-744.156	-200.000	0.052	0.353
-743.142	-200.000	0.034	-0.159
-742.127	-168.552	0.044	0.002
-741.112	134.010	-0.141	0.186
-740.098	-200.000	-0.053	0.669
-739.083	-74.560	-0.260	-0.095
-738.069	-200.000	0.064	0.340
-737.054	-138.821	0.143	0.016
-736.039	2.664	-0.284	0.209
-735.025	367.070	0.129	0.264
-734.010	-101.713	-0.272	0.067
-732.996	-2.938	-0.218	-0.155
-731.981	140.671	0.158	0.212
-730.966	-63.758	0.328	-0.137
-729.952	-5.844	0.207	0.144
-728.937	-200.000	-0.000	-0.205
-727.923	-124.755	0.110	0.017
-726.908	-200.000	-0.013	-0.267
-725.894	-200.000	-0.017	-0.177
-724.879	451.157	0.093	-0.208
-723.864	599.342	0.039	-0.099
-722.850	63.472	-0.039	-0.040
-721.835	-86.569	0.142	0.044
-720.821	612.255	-0.102	-0.258
-719.806	-117.813	-0.372	-0.068
-718.791	244.407	0.080	0.137
-717.777	-63.196	0.204	-0.085
-716.762	54.698	-0.225	-0.220
-715.748	45.410	0.077	0.072
-714.733	-40.527	0.073	0.039
-713.718	-74.526	0.218	0.080
-712.704	-38.256	0.167	-0.090
-711.689	-200.000	-0.012	0.239
-710.675	800.000	-0.094	0.335
-709.660	-0.891	0.188	-0.135
-708.645	-39.330	0.190	0.101
-707.631	-200.000	0.041	-0.261
-706.616	86.071	-0.168	-0.188
-705.602	-51.434	-0.331	-0.157
-704.587	-98.640	0.288	-0.075
-703.572	508.948	0.094	-0.222
-702.558	-200.000	-0.055	-0.275
-701.543	-130.057	0.387	-0.054
-700.529	207.750	-0.152	-0.242
-699.514	179.793	-0.059	-0.088
-698.499	-12.646	-0.217	-0.144
-697.485	104.596	0.028	-0.033
-696.470	158.552	0.111	-0.156
-695.456	-200.000	0.022	-0.120
-694.441	110.166	-0.211	-0.257
-693.426	-154.585	0.194	0.013
-692.412	-111.142	0.093	-0.019
-691.397	-67.727	-0.045	-0.018
-690.383	12.219	0.192	-0.150
-689.368	29.191	-0.016	-0.013
-688.354	12.434	0.102	0.080
-687.339	-49.207	0.024	0.012
-686.324	59.583	-0.043	-0.043
-685.310	27.713	0.152	0.130
-684.295	-16.199	-0.130	0.084
-683.281	-95.742	-0.123	-0.033
-682.266	198.726	0.049	-0.075
-681.251	-167.884	-0.125	-0.005
-680.237	-167.556	0.363	0.015
-679.222	-17.519	-0.060	0.038
-678.208	-111.480	0.142	-0.029
-677.193	-43.271	-0.100	0.051
-676.178	-200.000	-0.023	-0.214
-675.164	127.869	-0.191	-0.246
-674.149	501.269	0.058	-0.136
-673.135	-78.013	0.199	0.069
-672.120	160.331	-0.057	-0.080
-671.105	-110.248	0.332	0.070
-670.091	-104.669	0.383	-0.089
-669.076	65.834	-0.189	0.194
-668.062	800.000	0.045	-0.142
-667.047	800.000	-0.129	-0.414
-666.032	234.330	-0.097	-0.161
-665.018	551.718	-0.043	0.106
-664.003	-200.000	0.015	0.164
-662.989	277.804	0.178	-0.322
-661.974	800.000	-0.092	-0.303
-660.959	300.980	-0.111	-0.208
-659.945	-185.164	0.188	-0.003
-658.930	145.000	0.142	0.192
-657.916	-147.300	0.036	0.003
-656.901	381.783	0.029	0.060
-655.886	54.961	-0.130	0.127
-654.872	-200.000	0.064	0.360
-653.857	-200.000	-0.073	0.423
-652.843	136.614	-0.360	0.476
-651.828	-112.480	0.048	-0.010
-650.814	-30.050	-0.434	0.250
-649.799	-142.612	0.254	-0.025
-648.784	-135.275	-0.040	0.005
-647.770	-15.923	-0.146	0.094
-646.755	800.000	0.070	0.205
-645.741	-71.435	-0.159	0.060
-644.726	-77.944	-0.163	-0.057
-643.711	-11.725	-0.193	0.129
-642.697	-66.511	-0.131	0.053
-641.682	202.987	0.091	-0.142
-640.668	475.016	-0.066	0.152
-639.653	-52.045	-0.175	-0.082
-638.638	-21.390	-0.144	0.089
-637.624	-99.551	0.246	-0.063
-636.609	63.305	0.037	-0.037
-635.595	-71.670	-0.271	0.102
-634.580	-16.688	-0.238	0.153
-633.565	149.255	0.208	-0.285
-632.551	-112.455	-0.154	-0.031
-631.536	800.000	0.092	-0.281
-630.522	28.872	0.195	0.168
-629.507	25.610	0.117	0.098
-628.492	-72.423	-0.169	0.063
-627.478	188.213	0.073	-0.110
-626.463	-74.638	0.176	0.064
-625.449	800.000	0.054	0.160
-624.434	-46.869	-0.215	-0.106
-623.419	27.809	0.157	0.134
-622.405	238.975	-0.136	-0.229
-621.390	-61.594	-0.136	-0.058
-620.376	35.538	-0.075	-0.067
-619.361	192.969	0.155	-0.237
-618.346	40.550	0.181	-0.165
-617.332	800.000	-0.068	-0.236
-616.317	-200.000	-0.037	0.216
-615.303	800.000	0.079	-0.295
-614.288	65.695	-0.056	-0.058
-613.273	7.487	-0.025	-0.019
-612.259	-127.040	0.306	0.045
-611.244	484.252	-0.135	-0.310
-610.230	100.767	-0.174	0.205
-609.215	-74.587	0.132	0.048
-608.201	-200.000	0.002	0.205
-607.186	-200.000	-0.001	-0.029
-606.171	74.831	-0.040	0.042
-605.157	-200.000	0.027	-0.180
-604.142	-59.796	-0.149	-0.065
-603.128	-96.827	-0.300	0.080
-602.113	90.955	0.058	0.066
-601.098	-69.023	0.089	0.035
-600.084	-18.751	0.148	-0.093
-599.069	-200.000	-0.062	0.470
-598.055	45.977	-0.103	0.096
-597.040	-92.663	-0.185	0.052
-596.025	800.000	0.018	0.051
-595.011	-71.362	-0.196	0.074
-593.996	-200.000	0.015	-0.084
-592.982	-42.940	0.283	-0.145
-591.967	157.457	0.160	0.224
-590.952	-57.933	0.108	0.048
-589.938	220.535	0.140	-0.228
-588.923	-58.899	-0.154	-0.067
-587.909	753.836	-0.121	-0.331
-586.894	43.085	-0.224	0.206
-585.879	149.237	-0.131	0.179
-584.865	175.986	-0.228	0.334
-583.850	-200.000	-0.021	0.132
-582.836	259.984	-0.063	0.110
-581.821	517.104	0.094	0.221
-580.806	-82.612	-0.198	-0.065
-579.792	45.835	-0.164	0.153
-578.777	14.544	0.169	-0.133
-577.763	-111.379	0.105	0.022
-576.748	18.980	-0.195	0.158
-575.733	98.787	-0.088	0.103
-574.719	-200.000	0.003	0.156
-573.704	-21.328	0.297	0.183
-572.690	800.000	-0.188	0.645
-571.675	800.000	0.098	0.294
-570.661	58.074	0.207	0.205
-569.646	518.170	0.139	-0.329
-568.631	-66.379	-0.172	0.069
-567.617	362.481	0.110	-0.223
-566.602	800.000	0.086	0.275
-565.588	38.052	0.150	0.135
-564.573	-200.000	-0.013	-0.134
-563.558	144.662	0.169	-0.228
-562.544	-45.654	0.155	-0.077
-561.529	710.482	0.035	-0.093
-560.515	800.000	0.104	-0.323
-559.500	97.318	-0.125	-0.144
-558.485	-200.000	0.044	0.217
-557.471	118.362	0.138	-0.172
-556.456	-200.000	0.007	0.191
-555.442	800.000	-0.053	-0.215
-554.427	-200.000	-0.006	-0.487
-553.412	-155.177	-0.368	-0.024
-552.398	-53.145	-0.239	0.111
-551.383	800.000	0.072	0.256
-550.369	-117.525	-0.266	0.048
-549.354	147.841	0.120	-0.163
-548.339	-200.000	0.029	-0.196
-547.325	-121.070	0.326	0.055
-546.310	-144.753	-0.448	0.042
-545.296	118.154	0.303	-0.377
-544.281	-152.796	-0.056	-0.004
-543.266	78.658	-0.274	-0.296
-542.252	-133.317	0.197	-0.025
-541.237	792.410	-0.066	-0.184
-540.223	-64.828	0.179	0.073
-539.208	-200.000	0.033	0.151
-538.193	-49.889	0.095	-0.045
-537.179	-178.826	-0.313	0.007
-536.164	800.000	-0.093	-0.341
-535.150	-100.041	-0.292	-0.073
-534.135	69.834	0.178	-0.185
-533.121	261.068	0.068	-0.118
-532.106	800.000	0.080	0.231
-531.091	224.181	0.134	0.218
-530.077	-142.601	-0.382	0.038
-529.062	-41.254	0.229	-0.119
-528.048	375.020	0.089	-0.183
-527.033	-200.000	-0.009	0.137
-526.018	-46.464	-0.184	0.091
-525.004	-200.000	-0.023	0.169
-523.989	-80.173	-0.014	0.005
-522.975	800.000	0.094	-0.298
-521.960	-47.014	0.086	0.042
-520.945	-126.233	0.514	-0.077
-519.931	-132.447	0.194	-0.025
-518.916	365.442	0.141	-0.287
-517.902	56.037	-0.154	-0.151
-516.887	47.545	-0.250	-0.235
-515.872	7.948	0.299	-0.226
-514.858	48.406	-0.209	0.198
-513.843	-136.635	-0.092	-0.011
-512.829	87.344	0.084	-0.093
-511.814	115.860	0.175	-0.216
-510.799	-200.000	-0.020	-0.101
-509.785	800.000	-0.040	-0.172
-508.770	-50.497	0.276	0.131
-507.756	-200.000	-0.081	-0.377
-506.741	83.905	0.110	-0.121
-505.726	-32.955	-0.119	-0.067
-504.712	13.560	-0.217	-0.170
-503.697	-113.245	-0.273	0.054
-502.683	-200.000	-0.063	-0.295
-501.668	16.365	-0.340	0.270
-500.653	800.000	-0.121	0.384
-499.639	6.701	-0.172	0.129
-498.624	-146.193	-0.220	0.019
-497.610	-37.163	0.038	0.020
-496.595	800.000	0.078	0.276
-495.581	96.458	-0.070	0.081
-494.566	66.694	-0.160	-0.164
-493.551	-10.639	-0.098	-0.065
-492.537	-13.424	-0.068	0.045
-491.522	-200.000	-0.058	0.510
-490.508	167.150	-0.047	-0.068
-489.493	-154.676	-0.355	-0.024
-488.478	800.000	-0.077	0.266
-487.464	-200.000	-0.019	-0.138
-486.449	-200.000	0.039	-0.197
-485.435	-135.554	0.339	-0.041
-484.420	210.552	0.111	0.176
-483.405	-200.000	-0.004	-0.055
-482.391	-140.875	-0.234	0.024
-481.376	800.000	0.065	-0.212
-480.362	-87.564	-0.340	-0.103
-479.347	-39.498	0.051	-0.027
-478.332	412.884	-0.067	-0.144
-477.318	31.022	-0.205	0.177
-476.303	800.000	-0.089	-0.300
-475.289	-146.347	-0.175	-0.015
-474.274	124.002	0.068	-0.086
-473.259	-49.399	-0.106	-0.051
-472.245	387.299	-0.094	-0.195
-471.230	-66.380	0.067	0.027
-470.216	173.766	-0.224	0.325
-469.201	-31.662	0.330	-0.186
-468.186	29.962	0.235	0.202
-467.172	32.323	-0.165	0.144
-466.157	-41.253	-0.039	0.020
-465.143	-119.723	0.214	0.037
-464.128	-144.895	-0.143	0.013
-463.113	504.325	-0.101	0.235
-462.099	36.295	-0.127	-0.113
-461.084	-115.081	0.360	0.069
-460.070	-121.540	0.138	-0.023
-459.055	210.987	0.102	-0.162
-458.040	170.165	0.051	-0.073
-457.026	-118.005	0.230	-0.041
-456.011	444.595	0.030	-0.066
-454.997	240.342	0.215	-0.360
-453.982	-126.581	0.311	-0.046
-452.968	66.576	0.026	0.026
-451.953	-200.000	-0.014	-0.280
-450.938	-200.000	0.054	-0.329
-449.924	800.000	-0.025	0.094
-448.909	-200.000	0.012	0.172
-447.895	281.367	-0.126	-0.227
-446.880	-200.000	0.005	-0.051
-445.865	-137.865	0.279	0.031
-444.851	-200.000	0.049	-0.363
-443.836	800.000	-0.016	0.050
-442.822	719.023	-0.032	0.086
-441.807	-200.000	-0.065	-0.309
-440.792	800.000	-0.030	0.090
-439.778	-200.000	0.017	0.344
-438.763	35.901	0.076	-0.067
-437.749	163.403	0.144	-0.204
-436.734	-200.000	0.035	0.269
-435.719	63.450	0.090	-0.091
-434.705	702.939	0.126	-0.333
-433.690	110.099	-0.169	-0.204
-432.676	-124.185	0.188	0.030
-431.661	800.000	-0.044	0.167
-430.646	-200.000	-0.038	-0.331
-429.632	2.170	-0.215	-0.156
-428.617	213.361	-0.060	0.096
-427.603	-15.276	0.137	0.088
-426.588	344.519	-0.084	0.165
-425.573	-191.748	0.306	0.003
-424.559	187.839	-0.084	-0.126
-423.544	-164.346	-0.488	0.022
-422.530	800.000	0.083	-0.247
-421.515	-120.815	0.212	0.036
-420.500	50.386	0.120	0.113
-419.486	-97.882	-0.198	0.051
-418.471	800.000	-0.065	0.229
-417.457	189.022	0.031	0.047
-416.442	-25.890	0.092	0.054
-415.428	-9.008	0.116	0.078
-414.413	-100.976	-0.222	0.055
-413.398	-200.000	-0.038	-0.356
-412.384	-118.145	0.268	-0.048
-411.369	-200.000	-0.027	-0.317
-410.355	58.885	-0.120	0.118
-409.340	800.000	0.057	-0.246
-408.325	-125.622	-0.295	-0.045
-407.311	-139.266	0.100	-0.011
-406.296	162.613	0.128	-0.180
-405.282	80.971	0.230	0.249
-404.267	-140.544	-0.047	0.005
-403.252	233.187	-0.138	-0.228
-402.238	-200.000	0.016	0.307
-401.223	-200.000	0.020	-0.489
-400.209	-57.463	-0.031	-0.014
-399.194	-165.461	0.168	-0.007
-398.179	-9.480	0.290	-0.194
-397.165	-200.000	-0.014	0.064
-396.150	100.838	0.271	-0.315
-395.136	69.137	-0.169	-0.174
-394.121	-109.077	-0.224	0.048
-393.106	-45.677	-0.187	-0.093
-392.092	345.790	0.170	0.335
-391.077	-95.580	-0.276	-0.074
-390.063	-200.000	0.047	-0.451
-389.048	-20.592	-0.129	-0.080
-388.033	-54.899	0.017	-0.008
-387.019	-200.000	0.031	0.268
-386.004	-189.375	0.379	0.004
-384.990	-200.000	0.036	0.225
-383.975	288.590	0.072	-0.131
-382.960	191.447	-0.073	0.110
-381.946	3.224	-0.035	0.026
-380.931	-56.932	-0.208	0.092
-379.917	-47.209	0.375	-0.183
-378.902	-155.751	-0.068	-0.004
-377.888	-200.000	-0.017	0.079
-376.873	295.088	-0.042	0.077
-375.858	2.969	0.155	0.113
-374.844	506.133	-0.085	0.196
-373.829	-148.672	-0.151	-0.012
-372.815	16.405	0.119	-0.095
-371.800	-140.231	0.237	0.025
-370.785	45.215	-0.161	0.149
-369.771	-85.998	0.065	0.020
-368.756	209.000	0.195	-0.306
-367.742	-200.000	0.000	-0.184
-366.727	-183.134	-0.231	-0.004
-365.712	-102.829	0.162	-0.039
-364.698	15.349	0.297	-0.234
-363.683	-64.730	-0.042	0.017
-362.669	621.084	-0.131	0.330
-361.654	-26.739	-0.537	-0.315
-360.639	149.830	-0.141	0.191
-359.625	-200.000	0.019	0.087
-358.610	224.515	0.105	0.170
-357.596	-62.260	0.254	-0.106
-356.581	169.606	0.129	-0.184
-355.566	34.370	0.105	-0.092
-354.552	113.478	-0.098	-0.119
-353.537	125.711	-0.183	-0.232
-352.523	800.000	-0.058	0.186
-351.508	-143.313	0.100	0.010
-350.493	623.998	0.076	0.191
-349.479	-200.000	0.024	-0.118
-348.464	383.805	-0.151	0.311
-347.450	-200.000	-0.021	0.391
-346.435	15.010	0.262	-0.205
-345.420	-200.000	-0.004	0.386
-344.406	167.594	0.027	0.038
-343.391	-200.000	-0.087	-0.446
-342.377	-99.937	0.483	-0.121
-341.362	-24.372	-0.114	-0.068
-340.348	10.814	-0.358	-0.273
-339.333	-53.834	-0.105	-0.048
-338.318	570.204	-0.029	0.072
-337.304	-200.000	-0.023	-0.130
-336.289	236.018	0.085	0.141
-335.275	364.128	-0.158	0.317
-334.260	800.000	-0.049	0.194
-333.245	800.000	-0.063	0.219
-332.231	71.095	0.338	0.350
-331.216	12.315	-0.187	0.144
-330.202	214.449	-0.122	-0.193
-329.187	32.913	-0.099	-0.085
-328.172	800.000	0.067	0.189
-327.158	-200.000	0.008	0.048
-326.143	800.000	-0.036	-0.109
-325.129	-136.129	0.091	-0.011
-324.114	-94.240	-0.369	-0.101
-323.099	-68.908	-0.088	-0.034
-322.085	412.489	0.120	-0.254
-321.070	220.964	0.080	0.129
-320.056	-67.016	0.218	0.086
-319.041	-67.457	-0.339	-0.133
-318.026	-109.835	0.321	0.067
-317.012	-200.000	-0.038	-0.239
-315.997	-117.646	0.268	-0.048
-314.983	-200.000	0.002	-0.019
-313.968	61.489	0.113	-0.112
-312.953	-90.961	0.160	-0.046
-311.939	82.691	-0.150	0.163
-310.924	-2.658	0.364	0.255
-309.910	-146.157	0.392	-0.034
-308.895	298.253	0.080	0.147
-307.880	735.254	-0.029	-0.079
-306.866	-37.684	-0.115	0.061
-305.851	-122.938	-0.358	0.058
-304.837	-189.146	0.137	0.002
-303.822	351.981	-0.086	-0.171
-302.807	-49.938	0.190	-0.090
-301.793	199.680	-0.254	0.390
-300.778	-151.978	0.037	0.003
-299.764	19.463	0.191	-0.153
-298.749	800.000	0.030	-0.088
-297.735	15.795	0.060	-0.048
-296.720	-65.164	-0.055	-0.022
-295.705	126.832	0.117	0.148
-294.691	153.194	0.152	0.208
-293.676	94.212	0.058	-0.066
-292.662	-46.061	0.212	-0.105
-291.647	800.000	0.066	0.189
-290.632	300.185	0.065	0.120
-289.618	-83.149	-0.201	0.064
-288.603	545.255	-0.173	0.414
-287.589	169.487	0.080	0.114
-286.574	54.101	-0.109	0.104
-285.559	-98.998	0.050	-0.013
-284.545	278.393	-0.033	0.058
-283.530	-34.689	-0.148	-0.081
-282.516	800.000	-0.086	0.340
-281.501	168.084	-0.032	-0.046
-280.486	-200.000	0.014	0.209
-279.472	-78.412	0.088	-0.030
-278.457	739.231	0.091	0.245
-277.443	231.673	-0.142	0.233
-276.428	-110.146	-0.288	-0.060
-275.413	-200.000	0.070	0.444
-274.399	21.005	0.231	0.187
-273.384	800.000	-0.057	-0.190
-272.370	-114.871	0.316	-0.060
-271.355	108.543	0.011	0.013
-270.340	-97.074	-0.180	-0.047
-269.326	-85.957	0.093	0.029
-268.311	-116.814	-0.358	0.065
-267.297	45.006	0.057	-0.053
-266.282	548.061	0.098	-0.235
-265.267	-32.641	0.080	0.045
-264.253	800.000	0.078	-0.328
-263.238	800.000	0.085	-0.358
-262.224	-200.000	-0.030	0.251
-261.209	29.819	0.119	0.101
-260.195	-61.864	-0.458	0.191
-259.180	751.766	0.075	-0.202
-258.165	-112.739	0.450	0.089
-257.151	4.331	0.166	0.121
-256.136	-200.000	-0.015	-0.348
-255.122	-200.000	-0.012	0.060
-254.107	-139.687	-0.161	0.017
-253.092	386.028	-0.096	0.198
-252.078	-200.000	-0.026	-0.269
-251.063	-84.333	0.272	0.086
-250.049	-117.904	-0.163	-0.029
-249.034	800.000	-0.046	0.174
-248.019	124.014	-0.109	-0.137
-247.005	-200.000	0.002	0.093
-245.990	51.747	-0.184	0.175
-244.976	-144.985	-0.022	-0.002
-243.961	-69.432	0.081	-0.031
-242.946	528.751	0.081	-0.190
-241.932	-79.983	-0.115	0.038
-240.917	-75.061	0.339	-0.121
-239.903	87.495	-0.076	-0.084
-238.888	-12.937	-0.199	0.129
-237.873	41.874	0.138	0.124
-236.859	156.048	-0.265	0.365
-235.844	-162.855	0.241	0.012
-234.830	321.576	0.062	0.117
-233.815	-200.000	0.012	-0.359
-232.800	-10.817	-0.229	0.151
-231.786	205.530	-0.132	0.204
-230.771	400.117	0.157	0.328
-229.757	-200.000	0.003	-0.178
-228.742	-157.908	0.102	-0.006
-227.727	21.685	-0.166	0.134
-226.713	-200.000	-0.011	-0.309
-225.698	208.369	0.128	-0.199
-224.684	16.794	-0.138	-0.109
-223.669	-114.073	0.297	-0.057
-222.655	389.450	-0.021	-0.044
-221.640	57.394	0.295	0.286
-220.625	-46.703	-0.508	0.248
-219.611	39.619	0.175	0.156
-218.596	-101.923	0.318	-0.077
-217.582	-200.000	0.019	0.314
-216.567	-127.673	0.323	0.046
-215.552	59.576	-0.115	-0.113
-214.538	111.522	-0.168	-0.202
-213.523	87.772	-0.103	0.114
-212.509	-200.000	-0.046	-0.511
-211.494	-158.956	0.141	-0.008
-210.479	231.415	-0.042	0.068
-209.465	121.846	-0.190	0.236
-208.450	-135.670	0.111	0.013
-207.436	32.634	0.063	0.054
-206.421	132.646	0.180	0.232
-205.406	-109.235	-0.262	0.055
-204.392	-111.311	-0.070	-0.014
-203.377	-38.062	0.195	-0.103
-202.363	-200.000	0.011	0.096
-201.348	418.183	0.246	-0.523
-200.333	21.678	-0.154	0.125
-199.319	-30.304	0.059	0.033
-198.304	-200.000	0.017	-0.345
-197.290	35.688	-0.144	0.126
-196.275	800.000	-0.071	0.303
-195.260	800.000	0.063	-0.201
-194.246	-200.000	-0.059	0.268
-193.231	-63.992	0.133	-0.054
-192.217	-200.000	0.049	-0.253
-191.202	-200.000	0.033	0.307
-190.187	49.355	0.124	0.116
-189.173	800.000	0.075	-0.294
-188.158	154.192	-0.181	0.247
-187.144	-96.356	-0.145	-0.038
-186.129	108.801	0.197	0.235
-185.114	264.698	0.053	0.091
-184.100	-53.231	-0.334	-0.152
-183.085	308.237	0.214	0.397
-182.071	196.463	-0.117	-0.178
-181.056	-200.000	0.038	0.362
-180.042	800.000	-0.115	0.378
-179.027	-81.848	0.245	0.080
-178.012	-26.473	0.031	-0.018
-176.998	49.032	0.205	-0.191
-175.983	-200.000	-0.082	-0.386
-174.969	-91.925	0.123	-0.035
-173.954	189.977	-0.242	-0.361
-172.939	800.000	-0.034	0.105
-171.925	-167.146	-0.215	0.009
-170.910	488.492	0.073	-0.165
-169.896	800.000	0.105	-0.302
-168.881	47.279	-0.333	0.309
-167.866	130.107	0.105	0.133
-166.852	-71.987	-0.109	-0.040
-165.837	-78.855	0.196	0.066
-164.823	34.166	-0.300	0.260
-163.808	-167.376	0.214	-0.009
-162.793	158.329	-0.238	-0.329
-161.779	-42.235	-0.197	0.100
-160.764	46.459	-0.060	-0.056
-159.750	-12.365	0.397	0.258
-158.735	-90.679	-0.290	0.083
-157.720	754.626	-0.124	0.333
-156.706	120.276	-0.163	0.202
-155.691	-164.935	-0.222	0.010
-154.677	-85.071	0.099	-0.031
-153.662	24.450	0.152	-0.124
-152.647	35.048	0.045	0.039
-151.633	-56.916	0.133	0.058
-150.618	149.974	-0.176	0.238
-149.604	338.767	-0.110	-0.213
-148.589	-176.263	0.217	0.006
-147.574	12.619	0.044	-0.034
-146.560	800.000	0.082	-0.274
-145.545	-44.176	-0.045	-0.022
-144.531	97.214	0.147	0.168
-143.516	-17.946	0.214	0.133
-142.502	720.134	0.094	0.249
-141.487	-200.000	-0.041	0.402
-140.472	58.864	0.305	0.298
-139.458	185.203	0.407	0.600
-138.443	69.940	0.133	0.137
-137.429	-112.088	0.211	0.042
-136.414	173.425	0.064	-0.091
-135.399	1.713	-0.157	-0.112
-134.385	800.000	0.074	-0.261
-133.370	-163.917	-0.322	-0.015
-132.356	800.000	0.013	-0.053
-131.341	-21.137	-0.144	0.087
-130.326	548.270	0.054	0.129
-129.312	-133.206	-0.261	0.033
-128.297	71.455	0.248	0.256
-127.283	50.559	0.127	-0.119
-126.268	167.689	-0.093	0.131
-125.253	-111.282	0.248	-0.050
-124.239	421.935	0.134	-0.285
-123.224	-115.368	0.254	-0.048
-122.210	-200.000	0.027	0.166
-121.195	118.724	-0.030	0.037
