DTS Sentinel unit serial number:	SN413079Multiplexer serial number:	ORYXHardware model number:	OX4-SRSoftware version number:	ORYX F/W v4.00 Oryx Data Collector v3.7.2.0data status	okinstallation	princeton_trtdifferential loss correction	single-endedforward channel	channel 4reverse channel	N/Adate	2019/09/11time	08:31:11forward acquisition time	60.00reverse acquisition time	0.00gamma	496.2192k internal	0.2303k external	0.2303temperature offset calibration	0.9971default loss term (dB/km)	0.3790temperature slope calibration	1.0000multiplexer offset coefficient	1.0000multiplexer slope coefficient	1.0000fibre end	0.00T internal ref (°C)	33.14T ext. ref 1 (°C)	0.13T ext. ref 2 (°C)	30.91length (m)	temperature (°C)	Stokes	anti-Stokes-747.200	-38.656	-0.387	-0.208
-746.185	-87.520	-0.171	0.053
-745.171	-111.491	0.121	0.025
-744.156	-51.065	-0.205	0.098
-743.142	-200.000	0.018	0.283
-742.127	-78.849	0.285	0.099
-741.112	-200.000	0.014	-0.278
-740.098	47.379	-0.121	0.115
-739.083	-200.000	0.068	0.000
-738.069	-32.887	0.405	-0.229
-737.054	451.824	0.032	-0.072
-736.039	-62.272	-0.082	0.035
-735.025	-187.383	0.288	-0.004
-734.010	-129.641	-0.294	-0.041
-732.996	517.866	-0.086	-0.204
-731.981	-17.985	0.140	0.089
-730.966	50.270	0.055	0.052
-729.952	208.332	-0.018	0.029
-728.937	-200.000	0.001	-0.338
-727.923	46.723	-0.070	0.066
-726.908	-93.540	0.226	-0.064
-725.894	800.000	-0.050	-0.160
-724.879	-62.907	-0.044	-0.018
-723.864	-89.921	0.297	-0.088
-722.850	-177.435	-0.377	0.009
-721.835	312.133	0.058	0.111
-720.821	-63.723	-0.215	-0.090
-719.806	-83.959	0.241	-0.078
-718.791	336.701	-0.097	-0.192
-717.777	-200.000	0.028	-0.249
-716.762	-200.000	-0.063	0.310
-715.748	-56.318	-0.096	-0.044
-714.733	-159.135	-0.146	0.008
-713.718	-200.000	-0.013	0.068
-712.704	-200.000	-0.035	-0.168
-711.689	-121.380	0.202	0.034
-710.675	-123.567	0.194	0.031
-709.660	-91.541	-0.286	0.083
-708.645	-200.000	0.038	-0.192
-707.631	-46.827	-0.096	-0.048
-706.616	427.269	-0.081	-0.178
-705.602	-49.614	-0.047	-0.023
-704.587	-132.456	-0.542	-0.071
-703.572	10.066	0.320	0.247
-702.558	-183.507	-0.400	0.007
-701.543	-195.736	-0.369	0.003
-700.529	578.014	-0.081	0.202
-699.514	800.000	-0.038	0.166
-698.499	-73.547	-0.279	0.103
-697.485	783.123	-0.105	-0.291
-696.470	19.757	-0.164	-0.134
-695.456	-108.329	0.262	-0.058
-694.441	142.943	0.057	-0.077
-693.426	800.000	-0.047	0.206
-692.412	-200.000	0.005	0.047
-691.397	-122.185	0.313	0.052
-690.383	-80.062	-0.181	0.062
-689.368	-200.000	-0.016	-0.145
-688.354	150.420	0.052	0.072
-687.339	-200.000	0.052	-0.248
-686.324	55.677	-0.147	0.144
-685.310	-200.000	0.090	0.000
-684.295	211.905	0.167	0.267
-683.281	800.000	0.039	0.165
-682.266	62.134	0.109	0.111
-681.251	800.000	-0.074	0.267
-680.237	379.107	0.047	-0.099
-679.222	-89.447	0.299	0.089
-678.208	60.840	-0.036	0.037
-677.193	800.000	0.010	-0.046
-676.178	-40.495	-0.361	-0.190
-675.164	-36.362	0.338	-0.185
-674.149	-60.682	-0.303	0.130
-673.135	176.028	-0.139	-0.205
-672.120	-98.973	0.136	0.035
-671.105	2.078	-0.272	-0.200
-670.091	-198.904	0.331	0.002
-669.076	-113.811	0.179	-0.035
-668.062	-99.907	0.118	-0.030
-667.047	-122.340	-0.272	0.045
-666.032	-129.688	0.227	0.032
-665.018	-72.970	0.097	-0.036
-664.003	92.199	0.067	-0.077
-662.989	-200.000	0.028	0.161
-661.974	269.700	-0.090	0.160
-660.959	-89.608	0.346	-0.103
-659.945	166.771	0.146	0.211
-658.930	800.000	0.044	0.152
-657.916	201.925	-0.233	-0.365
-656.901	-48.449	-0.239	-0.117
-655.886	642.518	-0.156	-0.403
-654.872	247.352	-0.115	0.197
-653.857	271.161	0.063	-0.113
-652.843	150.441	-0.226	-0.311
-651.828	-102.885	0.366	0.088
-650.814	800.000	0.012	-0.042
-649.799	517.668	0.122	-0.289
-648.784	-200.000	0.005	0.035
-647.770	426.800	-0.044	0.095
-646.755	317.891	-0.142	0.273
-645.741	320.847	0.042	0.082
-644.726	5.103	-0.150	-0.112
-643.711	735.824	0.101	-0.275
-642.697	-200.000	-0.011	-0.384
-641.682	185.813	-0.124	0.188
-640.668	800.000	-0.092	0.281
-639.653	340.018	0.066	0.131
-638.638	-200.000	-0.014	-0.066
-637.624	-74.614	0.254	0.093
-636.609	94.902	0.149	-0.172
-635.595	557.537	-0.099	0.243
-634.580	-59.328	-0.265	-0.116
-633.565	-125.549	-0.216	0.033
-632.551	-200.000	0.014	-0.275
-631.536	-200.000	0.037	0.165
-630.522	-106.675	-0.271	0.061
-629.507	163.894	0.134	-0.192
-628.492	-79.190	0.292	-0.100
-627.478	-200.000	-0.001	0.229
-626.463	-28.507	0.253	0.148
-625.449	-155.491	0.085	0.006
-624.434	75.601	0.262	0.281
-623.419	800.000	-0.017	-0.059
-622.405	-11.493	0.104	0.069
-621.390	-200.000	-0.009	0.188
-620.376	-23.305	0.291	-0.177
-619.361	800.000	-0.028	0.092
-618.346	163.548	-0.111	-0.158
-617.332	-38.112	0.106	-0.057
-616.317	-183.813	-0.464	-0.008
-615.303	54.000	0.219	-0.213
-614.288	76.259	-0.223	-0.239
-613.273	-9.330	-0.111	0.075
-612.259	-200.000	0.210	0.001
-611.244	81.937	-0.199	0.218
-610.230	-200.000	0.020	-0.099
-609.215	-55.991	-0.021	0.010
-608.201	-143.618	-0.119	0.011
-607.186	132.569	0.108	0.142
-606.171	101.033	0.037	0.043
-605.157	51.614	-0.036	-0.035
-604.142	119.830	-0.237	-0.298
-603.128	-83.366	0.250	-0.081
-602.113	52.779	-0.115	0.111
-601.098	285.715	-0.020	0.037
-600.084	109.563	0.116	-0.141
-599.069	569.754	-0.077	0.189
-598.055	-200.000	0.086	-0.419
-597.040	800.000	-0.066	-0.222
-596.025	-200.000	-0.001	0.118
-595.011	-200.000	-0.013	0.289
-593.996	241.324	-0.078	0.132
-592.982	-36.716	-0.220	-0.120
-591.967	-139.153	-0.164	-0.018
-590.952	-200.000	-0.046	-0.360
-589.938	-114.599	0.224	-0.043
-588.923	210.187	-0.096	0.152
-587.909	108.599	-0.298	0.360
-586.894	-136.941	0.331	-0.038
-585.879	208.284	-0.110	-0.174
-584.865	-65.598	0.195	-0.079
-583.850	-200.000	-0.002	0.077
-582.836	3.461	0.059	0.043
-581.821	376.519	0.048	-0.099
-580.806	469.316	-0.062	-0.140
-579.792	14.766	-0.328	0.260
-578.777	800.000	-0.060	-0.199
-577.763	-200.000	-0.035	-0.160
-576.748	111.260	0.101	-0.123
-575.733	-200.000	-0.025	0.208
-574.719	-200.000	-0.006	0.388
-573.704	-25.776	-0.211	0.126
-572.690	15.233	0.141	0.112
-571.675	45.019	-0.230	0.214
-570.661	435.291	-0.063	-0.138
-569.646	3.243	-0.054	-0.040
-568.631	82.893	-0.140	-0.154
-567.617	26.679	-0.186	-0.158
-566.602	405.462	-0.056	-0.120
-565.588	127.089	-0.091	-0.116
-564.573	-200.000	-0.050	0.307
-563.558	19.490	0.226	0.184
-562.544	127.719	0.202	0.259
-561.529	318.383	0.111	-0.214
-560.515	-200.000	0.025	0.257
-559.500	-200.000	-0.020	0.142
-558.485	-149.636	-0.102	-0.008
-557.471	60.075	-0.143	0.143
-556.456	-4.386	-0.111	0.078
-555.442	-65.769	-0.434	-0.176
-554.427	219.412	0.108	0.175
-553.412	-200.000	-0.017	0.090
-552.398	-156.933	0.116	0.007
-551.383	54.326	-0.044	-0.043
-550.369	-200.000	-0.038	-0.198
-549.354	-200.000	0.087	-0.559
-548.339	244.689	0.160	0.272
-547.325	800.000	0.024	-0.072
-546.310	-13.005	-0.161	0.106
-545.296	-200.000	0.013	0.094
-544.281	-200.000	0.026	-0.247
-543.266	-162.866	-0.510	0.025
-542.252	800.000	-0.060	0.242
-541.237	-200.000	0.004	-0.082
-540.223	-200.000	0.001	-0.028
-539.208	-39.606	0.211	0.111
-538.193	-195.613	-0.335	-0.002
-537.179	-95.229	0.281	-0.076
-536.164	-80.220	-0.156	-0.053
-535.150	15.607	0.263	-0.209
-534.135	-200.000	-0.045	-0.280
-533.121	-200.000	0.002	0.108
-532.106	-66.994	0.375	-0.150
-531.091	4.723	-0.153	0.113
-530.077	-104.280	0.199	-0.047
-529.062	-200.000	-0.007	-0.092
-528.048	337.089	-0.022	-0.043
-527.033	43.576	0.105	0.097
-526.018	-109.252	-0.341	0.073
-525.004	-144.362	0.068	0.006
-523.989	152.933	-0.058	0.081
-522.975	-125.411	-0.217	-0.033
-521.960	769.599	-0.077	-0.212
-520.945	800.000	-0.065	-0.216
-519.931	1.143	-0.204	-0.148
-518.916	87.474	0.126	0.141
-517.902	63.069	-0.173	-0.175
-516.887	-45.565	0.382	-0.191
-515.872	-111.325	-0.285	-0.059
-514.858	-53.405	0.248	0.115
-513.843	-34.656	-0.040	0.022
-512.829	94.026	-0.095	-0.109
-511.814	392.043	0.075	0.158
-510.799	-122.381	0.134	-0.022
-509.785	197.478	-0.078	0.121
-508.770	-15.612	0.068	-0.044
-507.756	-28.413	0.152	-0.089
-506.741	388.180	-0.087	0.182
-505.726	-96.880	0.413	0.109
-504.712	-44.909	-0.235	-0.118
-503.697	-200.000	-0.014	0.131
-502.683	-100.507	-0.346	-0.086
-501.668	800.000	0.029	-0.113
-500.653	-107.677	0.065	-0.014
-499.639	10.379	-0.049	-0.037
-498.624	420.683	-0.036	0.079
-497.610	331.091	-0.052	-0.101
-496.595	-196.144	0.207	-0.001
-495.581	-143.618	-0.103	-0.010
-494.566	182.386	0.201	-0.299
-493.551	-161.018	0.411	0.022
-492.537	69.831	-0.098	0.102
-491.522	-113.487	-0.173	0.034
-490.508	-60.140	-0.272	-0.117
-489.493	104.686	-0.225	0.268
-488.478	800.000	-0.024	0.075
-487.464	-78.822	-0.266	-0.091
-486.449	35.431	-0.327	0.289
-485.435	199.789	-0.066	0.102
-484.420	-200.000	-0.360	-0.000
-483.405	160.424	-0.095	0.134
-482.391	17.447	-0.060	-0.048
-481.376	-122.182	0.233	0.038
-480.362	151.042	0.255	-0.349
-479.347	-115.535	0.296	-0.056
-478.332	-2.094	-0.202	0.143
-477.318	30.230	0.077	0.066
-476.303	-166.913	0.507	0.021
-475.289	-200.000	-0.046	0.259
-474.274	75.849	0.109	0.116
-473.259	115.086	0.061	-0.075
-472.245	800.000	0.070	0.235
-471.230	-59.202	-0.132	0.057
-470.216	262.135	-0.093	0.163
-469.201	80.819	-0.207	-0.225
-468.186	800.000	-0.028	-0.113
-467.172	-117.194	0.265	0.049
-466.157	105.756	0.162	-0.193
-465.143	131.271	0.174	-0.225
-464.128	528.368	0.096	-0.229
-463.113	800.000	0.093	0.294
-462.099	-81.129	0.119	0.040
-461.084	800.000	0.044	-0.166
-460.070	67.960	-0.095	0.098
-459.055	69.604	-0.181	-0.188
-458.040	442.971	-0.105	-0.231
-457.026	34.071	-0.241	-0.212
-456.011	-147.514	-0.576	-0.049
-454.997	-200.000	0.017	0.330
-453.982	800.000	0.039	0.116
-452.968	-200.000	-0.043	-0.310
-451.953	379.723	-0.158	0.327
-450.938	800.000	0.115	0.347
-449.924	-138.701	-0.059	-0.006
-448.909	73.616	-0.052	-0.054
-447.895	295.498	-0.088	0.161
-446.880	-200.000	0.020	0.093
-445.865	-33.202	0.343	0.191
-444.851	154.052	0.063	0.087
-443.836	198.587	0.138	-0.213
-442.822	160.686	-0.157	0.220
-441.807	-165.501	0.440	0.019
-440.792	55.300	-0.304	0.296
-439.778	-68.727	0.120	-0.047
-438.763	-200.000	0.020	0.104
-437.749	-200.000	0.000	-0.182
-436.734	-149.553	-0.308	0.025
-435.719	-200.000	-0.036	0.192
-434.705	11.606	0.200	-0.154
-433.690	175.089	0.082	0.120
-432.676	797.704	0.043	-0.118
-431.661	28.916	-0.120	-0.102
-430.646	800.000	-0.031	-0.104
-429.632	-200.000	0.030	0.321
-428.617	108.093	-0.145	0.174
-427.603	-42.934	-0.282	0.144
-426.588	-200.000	-0.008	-0.127
-425.573	-12.675	0.494	-0.324
-424.559	800.000	0.082	-0.247
-423.544	24.831	-0.074	-0.062
-422.530	-121.448	0.038	0.006
-421.515	403.839	0.153	-0.324
-420.500	696.753	-0.062	-0.163
-419.486	-51.317	-0.243	-0.114
-418.471	163.669	0.109	0.154
-417.457	-15.688	-0.154	-0.099
-416.442	-64.503	-0.024	-0.010
-415.428	145.745	-0.032	-0.043
-414.413	800.000	-0.013	0.038
-413.398	-120.473	0.415	-0.071
-412.384	646.035	-0.093	0.239
-411.369	36.526	0.105	0.094
-410.355	118.267	0.337	0.418
-409.340	-26.813	0.249	-0.146
-408.325	-130.331	0.117	-0.016
-407.311	9.329	0.133	0.101
-406.296	56.895	0.029	0.028
-405.282	-200.000	-0.007	0.177
-404.267	73.161	0.193	-0.202
-403.252	162.833	0.103	0.145
-402.238	-130.455	0.181	-0.025
-401.223	13.213	-0.109	-0.085
-400.209	605.874	0.092	-0.231
-399.194	-148.274	-0.122	0.010
-398.179	-200.000	-0.023	0.124
-397.165	-3.436	0.094	-0.065
-396.150	-147.794	0.130	-0.011
-395.136	-121.766	0.208	-0.035
-394.121	9.757	0.028	-0.021
-393.106	800.000	-0.031	0.121
-392.092	-150.624	0.247	-0.019
-391.077	-90.185	0.065	-0.019
-390.063	-81.068	0.389	0.129
-389.048	-16.569	-0.129	0.082
-388.033	577.309	-0.081	0.198
-387.019	800.000	0.076	-0.233
-386.004	-59.946	-0.303	-0.130
-384.990	136.355	0.062	0.081
-383.975	-200.000	0.004	-0.297
-382.960	-25.155	0.413	0.246
-381.946	-154.889	0.158	-0.010
-380.931	475.492	-0.077	0.174
-379.917	192.607	0.291	0.441
-378.902	425.873	-0.124	-0.268
-377.888	-51.848	-0.257	-0.120
-376.873	45.034	0.204	0.188
-375.858	-113.727	-0.052	0.010
-374.844	-18.627	-0.221	-0.138
-373.829	52.000	-0.173	0.166
-372.815	506.006	0.069	-0.161
-371.800	182.497	-0.131	0.194
-370.785	-92.911	0.224	0.063
-369.771	800.000	0.053	0.204
-368.756	261.102	-0.089	-0.154
-367.742	-126.260	-0.079	-0.012
-366.727	109.415	-0.152	-0.183
-365.712	232.986	-0.142	0.235
-364.698	800.000	-0.013	0.050
-363.683	-35.808	-0.258	0.140
-362.669	-42.678	-0.326	0.166
-361.654	116.659	-0.151	0.186
-360.639	242.923	0.123	0.207
-359.625	-200.000	0.011	0.179
-358.610	-16.849	-0.183	-0.116
-357.596	85.520	-0.068	-0.075
-356.581	218.715	-0.180	-0.288
-355.566	92.981	-0.256	-0.290
-354.552	404.325	-0.029	-0.062
-353.537	-200.000	0.041	0.452
-352.523	-167.680	0.368	-0.015
-351.508	106.771	-0.142	0.169
-350.493	-97.444	0.234	0.061
-349.479	800.000	-0.036	-0.153
-348.464	299.851	-0.077	-0.143
-347.450	5.977	-0.298	-0.221
-346.435	-37.427	-0.174	-0.093
-345.420	460.024	0.063	0.140
-344.406	-143.135	-0.035	-0.003
-343.391	8.069	0.164	-0.123
-342.377	60.741	0.149	0.148
-341.362	-200.000	0.001	0.142
-340.348	100.100	0.047	-0.055
-339.333	-163.325	-0.256	-0.012
-338.318	2.481	0.061	-0.044
-337.304	-174.811	-0.208	-0.006
-336.289	-200.000	-0.020	0.213
-335.275	-13.851	0.520	-0.337
-334.260	-200.000	-0.030	-0.180
-333.245	-19.676	0.025	-0.015
-332.231	800.000	-0.077	-0.224
-331.216	5.309	0.234	0.173
-330.202	-200.000	0.011	-0.473
-329.187	471.377	-0.152	-0.343
-328.172	-25.156	0.112	0.066
-327.158	130.455	-0.052	-0.066
-326.143	-84.878	0.437	-0.138
-325.129	217.908	0.150	0.239
-324.114	50.953	0.168	0.160
-323.099	117.651	-0.087	-0.108
-322.085	20.068	-0.065	-0.052
-321.070	-5.446	-0.184	-0.127
-320.056	342.120	-0.176	-0.344
-319.041	-197.118	0.263	0.002
-318.026	297.231	-0.122	0.224
-317.012	87.454	0.305	-0.338
-315.997	463.271	0.050	0.113
-314.983	-154.308	0.195	-0.013
-313.968	-45.596	-0.266	-0.132
-312.953	-200.000	-0.001	-0.037
-311.939	-200.000	-0.029	0.156
-310.924	-118.310	-0.081	-0.014
-309.910	-120.423	0.245	0.042
-308.895	-56.748	-0.074	0.033
-307.880	800.000	0.073	-0.222
-306.866	-135.982	-0.180	-0.021
-305.851	-125.028	-0.130	-0.020
-304.837	105.350	-0.101	0.119
-303.822	-200.000	0.019	0.149
-302.807	422.964	0.083	-0.179
-301.793	-123.140	-0.446	-0.072
-300.778	5.040	-0.216	0.159
-299.764	525.673	0.046	0.110
-298.749	800.000	0.062	0.218
-297.735	-200.000	-0.024	-0.258
-296.720	-200.000	0.041	-0.188
-295.705	-200.000	0.003	0.236
-294.691	369.264	0.126	-0.255
-293.676	-200.000	0.053	-0.417
-292.662	-6.867	-0.032	-0.021
-291.647	-200.000	0.060	0.309
-290.632	345.861	0.100	-0.197
-289.618	116.085	0.176	0.216
-288.603	-97.388	-0.167	0.043
-287.589	800.000	-0.070	0.240
-286.574	-200.000	0.005	-0.058
-285.559	-86.485	-0.259	0.080
-284.545	-200.000	-0.068	-0.423
-283.530	800.000	-0.015	0.048
-282.516	589.110	-0.027	-0.066
-281.501	215.779	0.057	0.090
-280.486	417.688	-0.154	-0.330
-279.472	620.492	0.045	0.113
-278.457	-67.814	0.149	-0.058
-277.443	-52.896	0.180	0.083
-276.428	-95.188	-0.278	-0.075
-275.413	-200.000	0.036	0.192
-274.399	333.852	-0.067	-0.130
-273.384	-200.000	0.009	0.301
-272.370	62.357	0.354	-0.354
-271.355	-86.736	-0.292	0.089
-270.340	-27.587	-0.095	-0.055
-269.326	60.668	-0.307	-0.304
-268.311	-200.000	-0.024	-0.276
-267.297	-200.000	-0.013	0.074
-266.282	112.681	-0.019	0.023
-265.267	62.011	0.063	-0.062
-264.253	147.629	-0.190	0.256
-263.238	-200.000	-0.046	0.285
-262.224	95.434	-0.202	0.230
-261.209	-74.553	-0.172	-0.062
-260.195	17.667	0.148	-0.118
-259.180	-2.110	-0.212	-0.149
-258.165	107.605	0.099	-0.117
-257.151	93.526	0.205	0.232
-256.136	800.000	-0.077	-0.263
-255.122	-5.348	-0.265	-0.182
-254.107	43.328	0.095	0.087
-253.092	220.833	0.326	0.523
-252.078	-140.353	-0.104	0.011
-251.063	-127.055	-0.377	-0.055
-250.049	800.000	-0.103	0.363
-249.034	-21.003	-0.182	0.111
-248.019	527.380	0.017	-0.041
-247.005	272.693	0.144	-0.254
-245.990	800.000	0.029	-0.099
-244.976	-10.682	-0.188	-0.124
-243.961	314.642	0.178	0.336
-242.946	-107.961	0.179	-0.039
-241.932	76.144	0.099	0.104
-240.917	-144.913	-0.148	0.014
-239.903	-200.000	-0.013	0.202
-238.888	-200.000	0.027	-0.187
-237.873	203.879	-0.087	-0.135
-236.859	-22.231	0.231	0.140
-235.844	-71.492	0.090	0.033
-234.830	-147.690	0.060	-0.005
-233.815	-52.836	-0.340	-0.157
-232.800	30.128	0.116	-0.099
-231.786	-76.053	-0.088	0.031
-230.771	681.545	0.164	0.425
-229.757	-131.429	0.324	0.043
-228.742	-200.000	-0.008	0.095
-227.727	-50.561	0.076	-0.036
-226.713	626.508	0.196	-0.494
-225.698	-200.000	0.060	-0.280
-224.684	-151.505	0.135	0.010
-223.669	-200.000	0.044	0.194
-222.655	800.000	-0.061	-0.262
-221.640	-97.632	0.443	-0.115
-220.625	544.353	0.166	-0.395
-219.611	-135.860	0.080	0.009
-218.596	800.000	0.158	0.487
-217.582	44.272	0.106	0.097
-216.567	-89.105	-0.144	0.043
-215.552	379.957	-0.130	0.265
-214.538	91.570	-0.086	-0.096
-213.523	800.000	-0.075	0.232
-212.509	-200.000	-0.002	-0.071
-211.494	150.375	-0.161	-0.218
-210.479	475.862	-0.063	0.142
-209.465	-129.414	-0.272	0.038
-208.450	-183.024	0.311	0.006
-207.436	351.318	-0.113	-0.223
-206.421	49.851	0.080	0.075
-205.406	-37.216	-0.185	0.099
-204.392	-200.000	0.055	-0.303
-203.377	58.656	-0.158	-0.155
-202.363	178.158	-0.185	0.270
-201.348	165.899	0.263	0.372
-200.333	-68.251	0.077	0.030
-199.319	-149.571	0.413	0.033
-198.304	-38.542	0.350	0.184
-197.290	80.166	0.213	-0.229
-196.275	-36.996	-0.239	0.128
-195.260	-44.249	0.126	-0.063
-194.246	-86.264	0.257	0.079
-193.231	-75.931	0.199	-0.070
-192.217	-67.572	-0.102	-0.040
-191.202	200.419	-0.078	0.119
-190.187	-151.282	-0.190	0.014
-189.173	360.863	-0.157	-0.313
-188.158	67.975	-0.064	0.065
-187.144	266.766	0.149	0.260
-186.129	395.193	-0.229	0.475
-185.114	800.000	0.037	0.151
-184.100	-74.385	0.059	-0.021
-183.085	-15.668	0.349	0.222
-182.071	-41.137	-0.284	-0.146
-181.056	-112.428	-0.413	-0.082
-180.042	-200.000	0.002	0.124
-179.027	522.360	-0.102	-0.239
-178.012	-96.288	0.186	-0.049
-176.998	133.634	-0.126	-0.163
-175.983	78.196	0.110	0.117
-174.969	109.418	-0.194	-0.231
-173.954	-96.869	0.099	0.026
-172.939	-200.000	-0.027	0.150
-171.925	18.156	-0.110	-0.087
-170.910	-100.109	-0.286	-0.071
-169.896	-200.000	-0.006	-0.092
-168.881	800.000	0.037	-0.127
-167.866	103.438	0.030	-0.036
-166.852	800.000	-0.103	-0.324
-165.837	510.769	-0.051	-0.119
-164.823	-54.559	0.274	-0.124
-163.808	717.685	-0.163	0.432
-162.793	-153.914	0.171	0.012
-161.779	-31.240	-0.124	-0.070
-160.764	73.990	-0.323	-0.338
-159.750	606.897	0.041	0.101
-158.735	201.494	0.125	0.192
-157.720	-130.057	0.226	-0.031
-156.706	19.842	0.051	0.041
-155.691	-61.553	0.227	-0.095
-154.677	800.000	0.048	0.136
-153.662	194.952	0.114	0.172
-152.647	-62.853	0.261	-0.108
-151.633	68.938	0.365	0.373
-150.618	-200.000	0.041	-0.243
-149.604	-112.341	0.130	-0.026
-148.589	800.000	-0.101	-0.288
-147.574	800.000	-0.125	-0.350
-146.560	-30.012	-0.335	-0.190
-145.545	800.000	-0.166	0.535
-144.531	-145.559	0.254	0.023
-143.516	800.000	0.075	0.278
-142.502	91.586	-0.096	0.108
-141.487	77.947	-0.012	-0.013
-140.472	800.000	-0.004	-0.018
-139.458	0.431	0.102	-0.073
-138.443	211.493	0.061	-0.095
-137.429	40.675	0.146	0.131
-136.414	-68.401	0.148	0.057
-135.399	203.569	0.214	0.330
-134.385	-200.000	-0.010	0.189
-133.370	-93.199	-0.023	-0.006
-132.356	-22.241	-0.139	-0.084
-131.341	-85.189	0.212	-0.066
-130.326	-55.791	0.218	0.097
-129.312	-200.000	-0.065	0.582
-128.297	-41.442	0.116	0.059
-127.283	-183.196	0.286	-0.005
-126.268	-91.817	-0.223	-0.063
-125.253	-98.001	-0.079	-0.020
-124.239	-60.636	-0.074	0.031
-123.224	31.260	0.501	-0.428
-122.210	201.289	-0.067	-0.102
