DTS Sentinel unit serial number:	SN413079Multiplexer serial number:	ORYXHardware model number:	OX4-SRSoftware version number:	ORYX F/W v4.00 Oryx Data Collector v3.7.2.0data status	okinstallation	princeton_trtdifferential loss correction	single-endedforward channel	channel 4reverse channel	N/Adate	2019/09/10time	19:55:11forward acquisition time	60.00reverse acquisition time	0.00gamma	496.2192k internal	0.2310k external	0.2310temperature offset calibration	0.9950default loss term (dB/km)	0.3790temperature slope calibration	1.0000multiplexer offset coefficient	1.0000multiplexer slope coefficient	1.0000fibre end	0.00T internal ref (°C)	32.75T ext. ref 1 (°C)	-0.31T ext. ref 2 (°C)	25.76length (m)	temperature (°C)	Stokes	anti-Stokes-747.200	-200.000	0.031	-0.147
-746.185	9.266	-0.235	0.181
-745.171	-200.000	-0.047	0.378
-744.156	-87.308	0.131	-0.040
-743.142	-89.248	0.190	0.057
-742.127	69.942	0.167	0.175
-741.112	-95.520	0.160	-0.043
-740.098	23.460	-0.253	0.211
-739.083	148.931	0.086	0.118
-738.069	-124.826	-0.167	0.026
-737.054	92.469	0.254	0.291
-736.039	-42.747	-0.246	-0.127
-735.025	45.152	0.290	0.272
-734.010	-110.938	-0.376	0.079
-732.996	228.597	0.091	0.151
-731.981	-200.000	0.073	0.363
-730.966	-147.590	-0.229	0.020
-729.952	45.304	0.111	-0.104
-728.937	324.192	-0.111	-0.216
-727.923	75.178	-0.250	-0.268
-726.908	71.274	-0.067	-0.070
-725.894	-200.000	0.006	0.423
-724.879	-123.977	-0.090	-0.014
-723.864	-200.000	-0.050	-0.269
-722.850	103.304	-0.212	-0.252
-721.835	663.238	-0.122	0.320
-720.821	-200.000	-0.013	-0.148
-719.806	120.747	0.203	-0.256
-718.791	14.727	-0.256	0.203
-717.777	-79.608	0.347	-0.119
-716.762	188.035	-0.058	0.089
-715.748	413.728	0.171	-0.370
-714.733	-33.932	-0.236	-0.132
-713.718	-200.000	-0.041	0.227
-712.704	-16.609	-0.137	-0.088
-711.689	384.196	0.070	0.147
-710.675	-25.329	0.184	0.110
-709.660	86.505	-0.080	-0.090
-708.645	-21.366	0.210	-0.130
-707.631	166.292	0.127	0.183
-706.616	800.000	-0.023	-0.072
-705.602	-75.414	-0.369	0.133
-704.587	436.233	-0.077	0.170
-703.572	-95.587	-0.197	0.054
-702.558	-119.420	-0.354	-0.062
-701.543	-60.724	-0.179	0.077
-700.529	241.744	0.082	0.139
-699.514	-165.839	-0.198	0.009
-698.499	423.331	-0.170	-0.370
-697.485	422.342	-0.018	0.040
-696.470	77.351	-0.122	0.132
-695.456	253.306	-0.260	0.450
-694.441	-200.000	0.038	0.316
-693.426	800.000	0.018	-0.063
-692.412	-62.779	-0.416	0.175
-691.397	-200.000	0.020	0.167
-690.383	-4.814	-0.278	-0.194
-689.368	33.558	-0.097	-0.085
-688.354	-84.907	0.111	0.035
-687.339	-77.051	0.330	-0.117
-686.324	-4.595	-0.089	0.062
-685.310	695.595	0.035	-0.094
-684.295	-200.000	-0.003	0.207
-683.281	363.902	-0.050	-0.102
-682.266	-73.635	-0.175	0.065
-681.251	-99.066	-0.215	-0.055
-680.237	186.973	-0.137	-0.207
-679.222	-36.212	0.017	0.010
-678.208	-200.000	-0.016	0.109
-677.193	-40.611	-0.090	0.047
-676.178	-72.889	-0.364	0.135
-675.164	800.000	-0.093	0.339
-674.149	-68.286	-0.108	0.043
-673.135	228.135	0.072	0.118
-672.120	-124.562	0.263	-0.041
-671.105	564.111	-0.083	0.205
-670.091	50.804	0.070	-0.067
-669.076	-200.000	0.006	-0.041
-668.062	-200.000	0.000	0.049
-667.047	25.203	0.042	-0.036
-666.032	-200.000	-0.033	-0.379
-665.018	44.800	-0.153	-0.143
-664.003	437.596	0.058	0.129
-662.989	800.000	-0.038	0.137
-661.974	233.142	-0.134	-0.223
-660.959	4.292	-0.233	-0.173
-659.945	-70.491	0.098	0.037
-658.930	-134.740	-0.037	-0.005
-657.916	-104.117	0.164	0.039
-656.901	-30.100	-0.145	-0.083
-655.886	-200.000	-0.021	-0.114
-654.872	-200.000	-0.013	0.157
-653.857	-200.000	0.011	0.336
-652.843	-103.146	-0.113	-0.027
-651.828	99.788	0.152	-0.178
-650.814	-74.595	-0.249	0.091
-649.799	-127.828	-0.095	0.014
-648.784	50.898	-0.321	0.308
-647.770	609.247	-0.034	-0.087
-646.755	186.334	-0.101	0.152
-645.741	114.907	-0.136	-0.168
-644.726	800.000	0.078	-0.312
-643.711	800.000	0.049	0.212
-642.697	63.921	0.068	0.069
-641.682	123.254	-0.081	0.102
-640.668	157.801	0.160	0.224
-639.653	-200.000	0.031	-0.228
-638.638	-200.000	0.005	-0.193
-637.624	743.047	0.089	0.241
-636.609	-143.871	-0.178	-0.017
-635.595	-200.000	-0.069	-0.460
-634.580	352.938	-0.101	0.202
-633.565	162.998	-0.108	0.154
-632.551	157.230	-0.289	0.405
-631.536	176.841	-0.235	0.345
-630.522	-8.064	0.275	-0.188
-629.507	-84.513	-0.324	0.103
-628.492	40.244	-0.267	0.243
-627.478	-120.727	0.163	0.028
-626.463	-133.814	-0.184	-0.023
-625.449	-121.771	0.328	-0.055
-624.434	224.811	0.112	0.183
-623.419	345.983	0.039	0.077
-622.405	800.000	-0.116	-0.345
-621.390	12.679	-0.344	-0.269
-620.376	-165.601	-0.190	0.008
-619.361	-200.000	-0.003	0.023
-618.346	44.391	0.204	0.190
-617.332	583.923	-0.108	0.267
-616.317	314.620	0.132	-0.251
-615.303	-200.000	0.015	-0.069
-614.288	-200.000	-0.022	0.195
-613.273	508.843	-0.038	-0.089
-612.259	38.811	-0.145	-0.131
-611.244	-42.548	0.125	-0.064
-610.230	800.000	0.125	-0.355
-609.215	-54.566	0.075	-0.034
-608.201	-99.985	0.201	0.051
-607.186	338.084	-0.132	-0.259
-606.171	281.997	-0.080	-0.145
-605.157	-73.618	0.389	-0.143
-604.142	-34.893	-0.162	-0.089
-603.128	-151.110	0.112	-0.008
-602.113	-19.877	-0.010	0.006
-601.098	30.210	0.236	-0.203
-600.084	-173.941	0.368	-0.011
-599.069	117.628	-0.113	0.141
-598.055	-200.000	0.058	-0.368
-597.040	-23.451	-0.118	-0.071
-596.025	800.000	0.054	0.195
-595.011	-110.064	-0.098	-0.021
-593.996	800.000	-0.042	0.141
-592.982	-15.797	-0.242	-0.155
-591.967	124.109	-0.251	0.319
-590.952	-77.318	0.226	0.079
-589.938	627.885	0.063	-0.161
-588.923	458.000	-0.191	-0.428
-587.909	211.672	-0.080	-0.126
-586.894	-200.000	-0.003	-0.071
-585.879	-75.117	0.419	-0.151
-584.865	-127.093	0.168	-0.025
-583.850	101.866	-0.095	0.112
-582.836	132.001	-0.225	-0.293
-581.821	-114.164	-0.164	-0.032
-580.806	673.603	-0.037	0.098
-579.792	230.718	0.109	0.180
-578.777	5.424	0.284	-0.212
-577.763	380.877	-0.057	0.118
-576.748	-56.741	-0.153	-0.069
-575.733	-105.465	0.079	-0.018
-574.719	29.534	0.197	0.169
-573.704	598.697	-0.049	0.123
-572.690	45.205	0.042	0.039
-571.675	-147.006	0.280	0.024
-570.661	-200.000	-0.013	-0.303
-569.646	-179.430	0.115	0.003
-568.631	93.925	0.110	0.125
-567.617	117.976	0.200	0.249
-566.602	137.364	0.251	-0.332
-565.588	-200.000	-0.098	0.000
-564.573	487.380	-0.121	0.277
-563.558	692.640	-0.043	0.114
-562.544	358.806	-0.129	0.259
-561.529	-200.000	0.020	0.295
-560.515	61.216	0.142	-0.142
-559.500	-108.393	-0.352	-0.077
-558.485	-200.000	-0.037	-0.193
-557.471	-29.231	-0.330	-0.191
-556.456	298.057	0.009	0.017
-555.442	-191.089	0.196	-0.002
-554.427	-200.000	0.017	-0.078
-553.412	-54.949	0.115	-0.052
-552.398	-116.152	0.188	-0.035
-551.383	-16.472	-0.112	-0.072
-550.369	-67.809	0.261	-0.103
-549.354	-200.000	-0.021	-0.117
-548.339	51.159	0.246	0.235
-547.325	-127.055	-0.148	-0.022
-546.310	22.584	-0.031	-0.026
-545.296	-55.517	-0.056	0.025
-544.281	-74.946	0.375	-0.135
-543.266	43.397	-0.158	0.145
-542.252	22.412	-0.206	-0.170
-541.237	219.048	0.024	-0.039
-540.223	-183.467	0.129	-0.002
-539.208	-16.876	-0.066	-0.042
-538.193	280.222	0.136	0.245
-537.179	441.345	0.047	0.105
-536.164	800.000	-0.125	-0.381
-535.150	-200.000	0.051	0.284
-534.135	-192.628	-0.252	0.002
-533.121	-94.624	0.223	-0.061
-532.106	-40.726	-0.115	-0.060
-531.091	-88.728	-0.269	-0.081
-530.077	378.785	-0.025	-0.051
-529.062	175.869	0.224	0.328
-528.048	-12.429	0.272	0.179
-527.033	-143.263	0.062	0.006
-526.018	93.365	-0.028	0.032
-525.004	-131.313	-0.220	-0.029
-523.989	-200.000	-0.030	-0.144
-522.975	277.740	-0.105	-0.189
-521.960	-200.000	-0.016	0.190
-520.945	104.598	-0.095	0.112
-519.931	80.511	0.129	0.139
-518.916	-200.000	0.006	0.266
-517.902	-200.000	-0.013	-0.062
-516.887	-102.607	0.154	-0.037
-515.872	-200.000	0.028	0.223
-514.858	-91.229	-0.225	-0.065
-513.843	-200.000	-0.018	-0.158
-512.829	-131.593	-0.218	0.029
-511.814	38.524	0.073	0.066
-510.799	588.212	-0.084	-0.209
-509.785	-162.483	-0.235	0.012
-508.770	70.504	0.087	0.090
-507.756	69.339	-0.125	-0.129
-506.741	270.449	0.154	-0.272
-505.726	-126.712	-0.124	-0.018
-504.712	216.764	0.159	0.254
-503.697	-200.000	-0.007	-0.178
-502.683	-24.501	-0.097	-0.058
-501.668	-200.000	0.042	0.473
-500.653	-41.215	0.141	0.073
-499.639	-89.446	-0.199	-0.059
-498.624	-159.189	0.185	-0.010
-497.610	-200.000	0.056	-0.264
-496.595	-87.463	0.236	0.072
-495.581	-200.000	-0.001	0.047
-494.566	294.282	-0.206	0.378
-493.551	-200.000	0.012	-0.081
-492.537	-92.663	0.147	0.041
-491.522	-96.430	0.361	-0.096
-490.508	744.550	-0.096	0.259
-489.493	800.000	0.024	0.074
-488.478	727.317	0.177	-0.475
-487.464	207.108	0.159	0.249
-486.449	27.810	0.122	0.104
-485.435	-101.169	-0.154	-0.038
-484.420	-41.782	0.047	0.024
-483.405	-90.745	-0.227	-0.066
-482.391	-53.606	-0.135	-0.062
-481.376	-60.096	0.261	-0.112
-480.362	-200.000	-0.032	-0.198
-479.347	-23.820	0.380	0.229
-478.332	-180.837	-0.278	0.006
-477.318	-43.772	-0.443	-0.224
-476.303	800.000	-0.020	0.056
-475.289	60.021	-0.005	-0.005
-474.274	-16.998	0.042	-0.027
-473.259	-200.000	0.014	0.249
-472.245	101.641	-0.126	-0.148
-471.230	-57.741	0.196	0.086
-470.216	-99.226	0.419	-0.106
-469.201	-7.647	-0.349	-0.237
-468.186	-73.396	0.079	-0.029
-467.172	21.097	-0.139	-0.113
-466.157	-24.898	-0.124	0.074
-465.143	-158.948	-0.340	0.019
-464.128	-153.732	0.109	-0.008
-463.113	86.909	0.334	-0.371
-462.099	-142.520	0.391	-0.039
-461.084	800.000	0.070	0.201
-460.070	-80.022	-0.560	-0.189
-459.055	198.609	0.110	0.169
-458.040	-200.000	-0.005	0.339
-457.026	-74.952	-0.272	-0.098
-456.011	-158.462	0.193	-0.011
-454.997	800.000	-0.112	-0.319
-453.982	-125.048	0.051	-0.008
-452.968	-156.546	0.171	-0.011
-451.953	-11.350	-0.349	0.231
-450.938	205.078	-0.100	-0.156
-449.924	36.822	-0.058	0.052
-448.909	38.529	0.256	0.229
-447.895	287.462	0.138	-0.250
-446.880	458.817	-0.069	0.153
-445.865	-28.864	0.211	0.122
-444.851	613.354	-0.066	0.166
-443.836	-104.254	-0.223	-0.052
-442.822	-124.653	-0.094	-0.015
-441.807	-200.000	0.004	0.018
-440.792	800.000	-0.103	0.290
-439.778	419.654	0.084	0.181
-438.763	160.637	-0.149	-0.208
-437.749	476.558	-0.077	-0.174
-436.734	53.868	0.130	-0.125
-435.719	21.055	0.137	-0.111
-434.705	132.393	0.238	0.308
-433.690	157.070	-0.110	-0.153
-432.676	343.025	-0.089	0.174
-431.661	-200.000	-0.003	0.097
-430.646	-200.000	-0.045	-0.369
-429.632	800.000	0.102	-0.287
-428.617	197.690	-0.189	-0.290
-427.603	242.353	-0.110	-0.185
-426.588	721.227	0.114	-0.305
-425.573	116.551	0.098	-0.121
-424.559	-39.624	-0.301	0.158
-423.544	116.288	-0.063	-0.077
-422.530	57.841	0.067	-0.065
-421.515	800.000	-0.009	0.037
-420.500	-85.450	-0.234	-0.073
-419.486	-11.477	-0.138	-0.091
-418.471	-60.351	-0.118	0.050
-417.457	144.339	0.200	0.268
-416.442	-200.000	0.015	-0.104
-415.428	800.000	-0.137	-0.433
-414.413	800.000	0.041	-0.146
-413.398	-99.796	0.074	-0.019
-412.384	348.557	0.072	-0.142
-411.369	134.460	-0.115	-0.149
-410.355	-167.073	0.197	-0.008
-409.340	-0.356	-0.251	-0.179
-408.325	-200.000	0.002	0.195
-407.311	124.630	-0.106	0.133
-406.296	84.906	0.147	0.161
-405.282	75.408	0.217	-0.230
-404.267	17.427	0.129	0.103
-403.252	611.328	-0.048	-0.119
-402.238	-167.907	-0.144	-0.006
-401.223	48.353	-0.217	-0.204
-400.209	-111.495	-0.247	-0.050
-399.194	644.815	0.093	-0.238
-398.179	144.677	0.137	0.184
-397.165	-200.000	-0.010	0.178
-396.150	800.000	-0.095	0.338
-395.136	379.230	0.061	0.126
-394.121	-95.837	-0.162	0.043
-393.106	800.000	0.032	-0.103
-392.092	-200.000	0.065	0.286
-391.077	168.329	-0.074	0.105
-390.063	-111.208	-0.209	0.043
-389.048	-52.683	0.092	-0.042
-388.033	474.117	-0.016	-0.037
-387.019	-200.000	-0.036	-0.170
-386.004	-9.661	0.227	-0.152
-384.990	-200.000	-0.012	-0.097
-383.975	117.437	0.051	-0.063
-382.960	-43.131	-0.068	0.034
-381.946	206.850	-0.090	0.140
-380.931	791.336	-0.101	0.278
-379.917	-187.448	0.219	0.003
-378.902	800.000	0.059	0.246
-377.888	299.126	-0.109	-0.201
-376.873	1.413	-0.173	0.125
-375.858	-81.339	0.091	-0.030
-374.844	105.592	-0.095	-0.112
-373.829	-200.000	0.013	0.095
-372.815	22.880	0.325	0.266
-371.800	42.688	0.154	0.140
-370.785	-75.483	-0.090	-0.032
-369.771	6.890	0.185	0.138
-368.756	629.182	-0.068	-0.172
-367.742	42.462	0.144	-0.131
-366.727	-121.643	0.149	0.025
-365.712	128.649	-0.044	0.057
-364.698	71.453	0.028	-0.029
-363.683	-200.000	-0.043	0.209
-362.669	800.000	-0.077	-0.325
-361.654	-23.567	0.185	-0.111
-360.639	182.927	0.175	0.259
-359.625	-162.704	0.048	0.002
-358.610	-154.466	-0.267	-0.018
-357.596	106.442	-0.126	-0.149
-356.581	-200.000	-0.042	-0.441
-355.566	36.151	0.154	0.136
-354.552	208.779	0.073	-0.115
-353.537	-122.744	-0.244	-0.039
-352.523	79.454	-0.056	0.060
-351.508	97.297	-0.154	0.176
-350.493	317.965	-0.205	0.387
-349.479	-200.000	-0.065	0.350
-348.464	-200.000	0.038	-0.297
-347.450	-33.012	-0.158	-0.088
-346.435	800.000	0.165	-0.470
-345.420	-183.473	-0.110	0.002
-344.406	446.375	0.184	0.405
-343.391	209.596	-0.247	0.388
-342.377	-112.682	0.373	-0.074
-341.362	-119.523	0.136	0.024
-340.348	151.621	0.173	-0.235
-339.333	-143.720	-0.377	0.036
-338.318	-87.706	0.221	-0.067
-337.304	-49.943	-0.040	-0.019
-336.289	12.315	-0.110	-0.085
-335.275	460.847	0.091	-0.203
-334.260	-57.491	-0.110	0.048
-333.245	-131.386	-0.230	0.030
-332.231	-49.841	0.155	0.073
-331.216	24.307	-0.056	-0.046
-330.202	-151.611	-0.163	0.012
-329.187	-100.137	-0.281	-0.070
-328.172	-146.123	0.224	0.020
-327.158	-131.762	0.402	-0.053
-326.143	439.062	-0.137	-0.299
-325.129	53.922	0.262	-0.252
-324.114	-33.965	0.248	0.137
-323.099	-49.826	-0.086	0.041
-322.085	420.146	0.054	-0.116
-321.070	800.000	0.068	-0.209
-320.056	-42.732	0.160	-0.081
-319.041	179.247	-0.155	-0.227
-318.026	-127.474	-0.113	-0.016
-317.012	-139.435	-0.489	-0.052
-315.997	500.429	0.107	0.246
-314.983	121.076	0.130	-0.162
-313.968	-200.000	-0.025	-0.364
-312.953	-29.183	-0.243	0.139
-311.939	800.000	0.148	0.525
-310.924	180.255	0.048	0.071
-309.910	230.805	-0.094	-0.154
-308.895	167.177	-0.037	0.053
-307.880	351.097	0.067	-0.132
-306.866	-142.219	0.289	0.029
-305.851	-6.138	-0.383	-0.261
-304.837	-200.000	-0.051	0.223
-303.822	800.000	-0.093	-0.257
-302.807	106.939	-0.062	0.073
-301.793	39.020	-0.100	-0.089
-300.778	-200.000	-0.079	-0.369
-299.764	27.410	0.164	-0.137
-298.749	267.308	0.087	-0.152
-297.735	129.988	0.092	-0.118
-296.720	-200.000	0.014	0.062
-295.705	46.802	0.155	0.144
-294.691	-200.000	0.003	0.310
-293.676	-0.467	-0.357	-0.253
-292.662	131.566	0.068	-0.088
-291.647	144.095	-0.083	-0.111
-290.632	-89.436	-0.156	-0.046
-289.618	-36.294	-0.308	-0.166
-288.603	-200.000	-0.007	0.090
-287.589	92.781	0.069	-0.077
-286.574	-37.040	0.317	0.169
-285.559	204.800	-0.127	-0.197
-284.545	8.758	-0.320	-0.240
-283.530	-12.744	0.040	-0.026
-282.516	80.823	0.083	-0.090
-281.501	-149.428	0.236	0.019
-280.486	13.259	-0.168	-0.130
-279.472	293.637	-0.052	0.095
-278.457	800.000	0.042	0.175
-277.443	-200.000	0.038	-0.324
-276.428	86.816	-0.158	-0.174
-275.413	-194.910	0.093	-0.001
-274.399	197.961	0.168	0.255
-273.384	59.983	-0.351	0.346
-272.370	165.339	-0.187	-0.263
-271.355	-200.000	0.006	-0.233
-270.340	39.268	0.053	-0.047
-269.326	800.000	-0.030	0.088
-268.311	-37.007	0.312	-0.167
-267.297	800.000	-0.101	0.321
-266.282	91.651	-0.048	0.054
-265.267	61.147	0.120	0.119
-264.253	245.173	0.117	0.196
-263.238	-54.494	0.113	0.051
-262.224	25.471	0.172	-0.142
-261.209	-200.000	-0.062	0.387
-260.195	-200.000	0.023	0.151
-259.180	350.209	-0.173	-0.341
-258.165	-121.697	0.243	-0.040
-257.151	-200.000	-0.027	-0.163
-256.136	76.361	-0.180	0.190
-255.122	-105.365	-0.286	0.065
-254.107	800.000	0.124	0.449
-253.092	-78.025	-0.054	-0.019
-252.078	101.927	-0.153	0.177
-251.063	79.311	0.072	0.076
-250.049	66.457	0.098	0.099
-249.034	47.720	0.102	-0.095
-248.019	484.344	-0.128	0.291
-247.005	-170.273	-0.198	-0.007
-245.990	45.278	0.287	0.264
-244.976	-200.000	-0.014	-0.136
-243.961	-165.817	-0.276	0.012
-242.946	-33.649	-0.236	0.130
-241.932	-200.000	-0.080	0.444
-240.917	-200.000	0.119	0.532
-239.903	-66.275	0.100	-0.039
-238.888	-49.256	-0.077	0.036
-237.873	477.342	0.052	0.116
-236.859	104.088	0.026	0.030
-235.844	-200.000	-0.001	0.162
-234.830	-101.140	-0.090	-0.022
-233.815	-158.137	0.171	-0.010
-232.800	574.027	0.059	-0.144
-231.786	-200.000	0.005	0.193
-230.771	-200.000	0.058	0.446
-229.757	-140.138	0.315	-0.033
-228.742	416.559	-0.210	0.447
-227.727	-137.330	0.141	0.016
-226.713	-120.796	-0.049	0.008
-225.698	-14.942	-0.188	0.120
-224.684	105.278	0.227	-0.267
-223.669	-80.964	-0.164	-0.054
-222.655	-42.635	0.045	0.023
-221.640	4.106	0.085	0.062
-220.625	800.000	0.079	0.306
-219.611	-64.339	0.250	-0.101
-218.596	800.000	0.058	0.232
-217.582	214.049	-0.068	0.107
-216.567	-102.565	0.314	-0.075
-215.552	359.153	0.130	-0.259
-214.538	137.362	-0.246	-0.320
-213.523	-8.586	0.162	-0.108
-212.509	-102.130	0.160	0.038
-211.494	-200.000	-0.006	0.039
-210.479	-67.895	-0.158	0.061
-209.465	-102.033	0.032	-0.008
-208.450	-54.903	0.432	-0.194
-207.436	300.772	-0.120	0.220
-206.421	109.555	0.194	-0.231
-205.406	-136.337	0.159	-0.018
-204.392	-200.000	-0.198	-0.000
-203.377	448.444	0.038	0.083
-202.363	-200.000	-0.022	0.111
-201.348	187.120	-0.150	-0.222
-200.333	319.841	-0.021	-0.040
-199.319	-120.095	-0.281	-0.048
-198.304	91.652	0.335	0.374
-197.290	-200.000	-0.014	0.173
-196.275	800.000	-0.073	0.208
-195.260	-55.431	0.073	-0.032
-194.246	-114.004	0.242	0.047
-193.231	-21.923	0.191	-0.115
-192.217	-68.769	0.142	-0.055
-191.202	-100.385	0.186	0.046
-190.187	-103.628	-0.130	0.030
-189.173	-71.200	0.243	0.091
-188.158	-79.598	0.175	0.059
-187.144	-73.260	-0.187	-0.068
-186.129	-200.000	0.025	-0.141
-185.114	-200.000	-0.063	0.274
-184.100	-53.087	0.123	0.056
-183.085	654.100	-0.058	-0.147
-182.071	644.825	0.036	0.092
-181.056	-40.117	-0.012	-0.006
-180.042	-200.000	-0.017	0.255
-179.027	-200.000	-0.010	0.281
-178.012	18.099	0.112	0.089
-176.998	79.848	-0.103	-0.110
-175.983	752.188	-0.084	-0.224
-174.969	-200.000	0.056	-0.504
-173.954	-50.943	0.125	-0.059
-172.939	-62.256	0.176	-0.073
-171.925	-23.788	-0.219	0.130
-170.910	-200.000	-0.028	0.139
-169.896	-30.996	0.041	-0.023
-168.881	230.682	-0.213	-0.346
-167.866	-200.000	-0.006	0.191
-166.852	4.264	-0.309	-0.225
-165.837	800.000	0.053	0.168
-164.823	-200.000	0.021	0.211
-163.808	66.785	-0.262	0.265
-162.793	-200.000	-0.016	-0.120
-161.779	180.113	0.011	-0.016
-160.764	-200.000	0.015	0.409
-159.750	631.593	-0.058	0.145
-158.735	-44.066	-0.140	0.070
-157.720	28.152	-0.242	-0.203
-156.706	-81.652	0.120	0.039
-155.691	-87.219	0.286	-0.086
-154.677	-11.063	0.218	-0.143
-153.662	26.620	0.230	0.191
-152.647	-200.000	-0.007	-0.197
-151.633	277.436	-0.122	-0.215
-150.618	100.931	-0.049	0.056
-149.604	259.417	-0.263	-0.450
-148.589	156.502	0.149	0.204
-147.574	800.000	-0.068	0.248
-146.560	-154.986	0.400	0.026
-145.545	-200.000	0.030	-0.304
-144.531	-74.261	-0.082	0.029
-143.516	-3.322	-0.202	0.139
-142.502	-60.459	-0.187	0.079
-141.487	-200.000	0.034	-0.153
-140.472	-66.042	0.245	0.097
-139.458	544.241	0.025	0.059
-138.443	-44.950	0.147	0.072
-137.429	413.218	0.031	-0.066
-136.414	15.284	0.240	-0.187
-135.399	335.441	-0.146	0.280
-134.385	-60.786	-0.262	0.110
-133.370	-30.761	0.177	-0.099
-132.356	26.581	-0.049	-0.041
-131.341	-55.625	0.059	-0.026
-130.326	12.412	0.327	-0.250
-129.312	162.161	0.126	-0.175
-128.297	5.521	-0.209	0.153
-127.283	191.426	-0.105	-0.156
-126.268	-66.105	-0.115	-0.045
-125.253	732.709	-0.117	0.309
-124.239	-154.483	0.148	-0.010
-123.224	-112.499	-0.062	-0.012
-122.210	137.288	0.275	0.357
