DTS Sentinel unit serial number:	SN413079Multiplexer serial number:	ORYXHardware model number:	OX4-SRSoftware version number:	ORYX F/W v4.00 Oryx Data Collector v3.7.2.0data status	okinstallation	princeton_trtdifferential loss correction	single-endedforward channel	channel 4reverse channel	N/Adate	2019/09/12time	00:59:11forward acquisition time	60.00reverse acquisition time	0.00gamma	496.2192k internal	0.2308k external	0.2308temperature offset calibration	1.0090default loss term (dB/km)	0.3790temperature slope calibration	1.0000multiplexer offset coefficient	1.0000multiplexer slope coefficient	1.0000fibre end	0.00T internal ref (°C)	33.19T ext. ref 1 (°C)	2.08T ext. ref 2 (°C)	27.35length (m)	temperature (°C)	Stokes	anti-Stokes-747.200	10.068	-0.106	0.082
-746.185	-200.000	-0.005	0.167
-745.171	-88.530	0.061	0.018
-744.156	-200.000	0.016	0.135
-743.142	-62.648	-0.178	-0.075
-742.127	800.000	-0.210	0.666
-741.112	143.532	0.075	-0.102
-740.098	145.036	0.184	-0.250
-739.083	-12.785	-0.286	-0.190
-738.069	28.655	-0.293	0.252
-737.054	-125.737	0.348	0.053
-736.039	421.756	-0.032	0.069
-735.025	-84.148	-0.084	0.027
-734.010	-52.587	-0.178	-0.083
-732.996	0.973	-0.294	-0.214
-731.981	-59.346	-0.224	0.098
-730.966	-65.481	0.137	0.056
-729.952	106.234	-0.010	0.012
-728.937	-200.000	-0.014	-0.439
-727.923	92.666	0.331	0.380
-726.908	430.171	0.081	-0.179
-725.894	800.000	-0.024	-0.069
-724.879	-135.755	0.168	-0.020
-723.864	349.562	-0.062	0.124
-722.850	383.406	-0.209	0.437
-721.835	-200.000	0.025	0.231
-720.821	88.255	0.217	0.244
-719.806	-188.345	-0.354	-0.005
-718.791	118.433	-0.132	-0.165
-717.777	-84.454	-0.257	0.082
-716.762	-200.000	0.004	0.144
-715.748	311.463	-0.059	-0.113
-714.733	-200.000	0.033	-0.256
-713.718	-137.578	-0.097	0.011
-712.704	-83.153	-0.165	-0.054
-711.689	794.220	0.088	-0.246
-710.675	85.827	-0.147	-0.164
-709.660	65.841	-0.169	-0.174
-708.645	1.662	-0.280	-0.204
-707.631	-149.307	-0.153	0.012
-706.616	-71.213	0.405	0.154
-705.602	288.015	-0.187	0.343
-704.587	33.736	-0.215	-0.190
-703.572	800.000	-0.027	0.086
-702.558	-41.461	-0.268	-0.140
-701.543	579.119	0.135	-0.336
-700.529	-150.651	-0.169	-0.013
-699.514	-152.393	0.389	0.028
-698.499	-200.000	-0.025	-0.187
-697.485	-113.033	0.182	0.036
-696.470	800.000	-0.018	0.078
-695.456	83.032	-0.209	0.231
-694.441	482.643	-0.111	0.255
-693.426	39.926	-0.063	0.058
-692.412	-74.020	-0.188	-0.069
-691.397	203.849	0.099	-0.155
-690.383	-81.538	0.210	0.070
-689.368	-139.127	-0.322	0.035
-688.354	541.149	0.157	0.379
-687.339	-200.000	-0.006	0.182
-686.324	800.000	0.035	0.146
-685.310	55.274	0.169	-0.165
-684.295	20.833	0.218	-0.179
-683.281	-19.162	0.224	-0.141
-682.266	-86.082	-0.085	-0.027
-681.251	-50.666	0.249	-0.119
-680.237	800.000	-0.038	0.107
-679.222	800.000	-0.065	0.238
-678.208	800.000	-0.121	-0.381
-677.193	-33.736	0.078	0.044
-676.178	291.908	0.156	0.289
-675.164	325.032	0.037	-0.071
-674.149	27.252	-0.169	0.144
-673.135	177.490	0.116	0.172
-672.120	-104.310	0.154	0.036
-671.105	199.440	-0.188	-0.291
-670.091	800.000	0.060	0.183
-669.076	377.388	-0.043	-0.089
-668.062	216.994	-0.057	0.092
-667.047	800.000	-0.024	0.086
-666.032	800.000	0.134	0.451
-665.018	-130.340	0.243	0.033
-664.003	-16.213	-0.125	-0.081
-662.989	99.158	-0.155	0.181
-661.974	46.891	0.077	-0.073
-660.959	783.721	0.019	0.053
-659.945	7.664	-0.223	0.169
-658.930	-200.000	0.012	-0.175
-657.916	-105.045	-0.149	-0.035
-656.901	216.874	0.102	0.165
-655.886	207.581	-0.108	0.171
-654.872	-200.000	-0.029	0.380
-653.857	0.560	-0.148	0.107
-652.843	-76.257	0.196	0.070
-651.828	-200.000	-0.047	-0.347
-650.814	-200.000	-0.034	-0.154
-649.799	-78.800	-0.269	-0.093
-648.784	800.000	0.050	-0.182
-647.770	-200.000	0.018	0.167
-646.755	7.542	0.160	-0.121
-645.741	800.000	-0.080	-0.234
-644.726	180.797	0.059	-0.087
-643.711	371.106	0.101	-0.207
-642.697	137.887	-0.048	0.064
-641.682	-3.484	0.160	-0.113
-640.668	156.779	-0.093	0.130
-639.653	250.617	0.085	0.146
-638.638	-107.222	0.120	-0.027
-637.624	-200.000	0.012	-0.382
-636.609	-14.182	0.449	0.293
-635.595	309.551	0.219	0.414
-634.580	800.000	0.026	0.087
-633.565	-103.528	0.034	0.008
-632.551	-200.000	0.010	0.209
-631.536	24.878	0.166	-0.139
-630.522	-150.941	0.176	-0.013
-629.507	-72.836	-0.061	0.023
-628.492	800.000	0.149	-0.450
-627.478	-57.077	-0.074	-0.033
-626.463	541.050	-0.090	-0.218
-625.449	-73.135	0.032	-0.012
-624.434	-46.923	0.167	0.082
-623.419	800.000	0.135	0.451
-622.405	800.000	-0.004	-0.017
-621.390	727.359	-0.063	-0.171
-620.376	-45.445	-0.349	-0.175
-619.361	-20.297	-0.176	-0.110
-618.346	-200.000	0.047	-0.230
-617.332	0.516	-0.141	-0.102
-616.317	800.000	0.026	-0.088
-615.303	-97.838	-0.187	0.049
-614.288	-111.469	0.135	0.028
-613.273	-13.682	-0.103	0.067
-612.259	-28.335	-0.259	0.151
-611.244	-200.000	0.005	-0.059
-610.230	-52.944	-0.138	-0.064
-609.215	-0.417	-0.046	-0.033
-608.201	-200.000	-0.047	0.247
-607.186	-200.000	0.006	0.062
-606.171	-102.618	0.409	-0.099
-605.157	19.419	0.211	0.171
-604.142	-200.000	0.040	0.376
-603.128	-200.000	-0.001	0.247
-602.113	-200.000	0.007	0.125
-601.098	-200.000	0.003	-0.025
-600.084	800.000	-0.062	-0.193
-599.069	-122.277	0.121	-0.020
-598.055	-23.160	-0.213	-0.130
-597.040	315.535	-0.117	-0.224
-596.025	55.107	0.070	0.068
-595.011	-152.841	-0.164	0.012
-593.996	206.671	0.076	-0.119
-592.982	30.626	0.227	-0.196
-591.967	-126.274	0.282	0.043
-590.952	-8.681	0.167	-0.113
-589.938	800.000	0.013	-0.038
-588.923	-15.276	0.144	-0.093
-587.909	46.928	-0.093	-0.087
-586.894	88.085	-0.099	-0.111
-585.879	416.772	-0.036	-0.077
-584.865	800.000	-0.167	-0.502
-583.850	-168.905	-0.358	0.014
-582.836	800.000	-0.096	-0.301
-581.821	-41.836	0.216	0.112
-580.806	-200.000	-0.008	-0.146
-579.792	-53.953	0.244	-0.112
-578.777	-200.000	0.004	-0.099
-577.763	249.012	-0.123	0.211
-576.748	-112.897	-0.213	-0.043
-575.733	532.557	-0.116	-0.276
-574.719	53.629	0.136	-0.132
-573.704	-200.000	0.034	0.202
-572.690	-200.000	0.009	-0.054
-571.675	800.000	-0.065	0.183
-570.661	26.145	-0.075	0.063
-569.646	-74.971	0.049	0.018
-568.631	-80.310	0.152	-0.051
-567.617	-200.000	0.038	-0.337
-566.602	82.234	0.277	-0.303
-565.588	198.849	0.048	0.074
-564.573	-128.549	-0.181	-0.026
-563.558	-200.000	0.065	0.321
-562.544	71.153	-0.145	0.152
-561.529	337.692	0.192	0.377
-560.515	800.000	-0.103	0.312
-559.500	284.691	-0.078	0.142
-558.485	181.966	0.224	-0.333
-557.471	800.000	0.118	-0.347
-556.456	-107.538	-0.245	0.054
-555.442	200.366	-0.047	-0.072
-554.427	800.000	-0.097	-0.346
-553.412	800.000	-0.078	0.313
-552.398	-65.156	-0.280	0.114
-551.383	-200.000	-0.048	0.278
-550.369	20.925	0.161	0.131
-549.354	-103.186	0.387	-0.092
-548.339	-25.446	-0.102	-0.061
-547.325	-154.398	0.154	0.010
-546.310	16.339	-0.094	0.075
-545.296	-113.747	0.053	0.010
-544.281	-39.917	-0.293	0.154
-543.266	-200.000	0.011	0.091
-542.252	602.562	0.065	-0.163
-541.237	-134.658	-0.227	0.028
-540.223	-160.123	0.219	-0.012
-539.208	-200.000	0.008	0.130
-538.193	-14.159	0.371	0.241
-537.179	246.687	-0.141	-0.240
-536.164	800.000	-0.113	0.416
-535.150	-96.676	0.255	0.068
-534.135	-146.969	0.127	0.011
-533.121	-56.143	-0.201	0.090
-532.106	-80.761	0.173	-0.058
-531.091	1.820	0.113	-0.082
-530.077	350.681	-0.030	0.061
-529.062	-200.000	-0.049	-0.305
-528.048	102.614	-0.061	0.072
-527.033	210.507	0.075	-0.119
-526.018	81.977	-0.073	0.080
-525.004	800.000	-0.052	-0.159
-523.989	253.230	0.061	-0.106
-522.975	139.557	-0.185	0.245
-521.960	168.819	-0.197	0.282
-520.945	475.917	0.121	0.274
-519.931	-2.610	0.271	-0.191
-518.916	-41.082	-0.403	0.210
-517.902	-185.355	-0.220	-0.003
-516.887	-99.635	-0.304	0.077
-515.872	-51.472	0.354	0.167
-514.858	191.081	-0.126	-0.191
-513.843	352.607	-0.071	-0.142
-512.829	30.833	-0.233	-0.201
-511.814	2.014	-0.112	-0.081
-510.799	-6.906	-0.378	-0.259
-509.785	800.000	-0.124	-0.373
-508.770	-92.519	0.076	-0.022
-507.756	96.356	-0.155	-0.179
-506.741	527.437	-0.045	-0.107
-505.726	-85.812	0.190	-0.059
-504.712	-40.464	-0.231	0.121
-503.697	-103.653	-0.181	0.043
-502.683	456.008	-0.042	-0.094
-501.668	115.765	0.223	-0.275
-500.653	-118.385	0.306	-0.055
-499.639	-135.546	0.268	0.032
-498.624	-131.753	0.235	-0.031
-497.610	127.910	0.065	0.083
-496.595	227.794	-0.191	-0.313
-495.581	-200.000	0.000	0.151
-494.566	-106.336	0.409	-0.092
-493.551	-82.983	0.209	0.068
-492.537	-200.000	0.023	-0.215
-491.522	-99.811	-0.104	-0.026
-490.508	-127.304	0.195	-0.029
-489.493	-36.259	-0.248	-0.135
-488.478	800.000	-0.015	0.058
-487.464	243.634	-0.060	-0.101
-486.449	17.918	-0.061	0.049
-485.435	-27.437	-0.350	-0.205
-484.420	800.000	0.042	-0.123
-483.405	-51.245	0.181	0.085
-482.391	-143.315	-0.139	0.013
-481.376	-35.438	-0.298	0.163
-480.362	-200.000	-0.026	0.192
-479.347	348.699	0.092	0.183
-478.332	-200.000	0.066	0.334
-477.318	277.273	-0.142	0.255
-476.303	-60.093	-0.153	0.066
-475.289	-200.000	-0.016	-0.279
-474.274	-200.000	-0.011	0.217
-473.259	61.725	-0.039	0.039
-472.245	-89.241	-0.072	0.021
-471.230	-100.309	0.205	0.051
-470.216	-36.212	-0.121	0.066
-469.201	16.372	-0.137	-0.109
-468.186	56.487	0.020	-0.019
-467.172	34.173	-0.234	0.205
-466.157	-58.872	0.165	-0.072
-465.143	680.400	-0.051	-0.134
-464.128	126.365	0.112	-0.142
-463.113	121.227	0.165	0.206
-462.099	-104.680	0.230	-0.053
-461.084	-181.713	0.169	0.003
-460.070	24.075	-0.213	0.177
-459.055	-200.000	0.022	0.264
-458.040	396.521	0.102	0.215
-457.026	800.000	0.038	-0.165
-456.011	-200.000	-0.020	-0.090
-454.997	-78.266	0.472	-0.163
-453.982	-6.579	0.130	-0.089
-452.968	582.647	-0.103	0.253
-451.953	339.847	0.083	-0.162
-450.938	-173.246	-0.169	-0.005
-449.924	148.772	-0.039	0.052
-448.909	-200.000	-0.012	0.268
-447.895	40.509	-0.223	-0.202
-446.880	87.775	0.083	-0.093
-445.865	100.961	0.041	-0.047
-444.851	-200.000	0.005	-0.183
-443.836	100.590	0.049	0.057
-442.822	64.058	-0.105	0.106
-441.807	-200.000	-0.067	0.391
-440.792	-135.292	0.236	-0.028
-439.778	163.993	0.174	-0.247
-438.763	110.132	0.088	0.107
-437.749	-200.000	-0.159	-0.001
-436.734	-200.000	0.005	-0.128
-435.719	-60.723	-0.182	-0.077
-434.705	-164.403	-0.259	-0.012
-433.690	155.898	0.053	-0.074
-432.676	45.570	-0.300	0.278
-431.661	-5.842	0.099	0.068
-430.646	315.427	-0.109	0.206
-429.632	169.481	0.235	0.337
-428.617	392.786	0.095	0.198
-427.603	800.000	0.045	0.167
-426.588	758.673	0.066	-0.180
-425.573	-199.524	0.241	0.001
-424.559	800.000	0.096	0.411
-423.544	-200.000	-0.045	-0.282
-422.530	-200.000	0.006	-0.250
-421.515	55.827	-0.078	0.075
-420.500	800.000	-0.075	0.283
-419.486	378.628	-0.032	-0.065
-418.471	800.000	-0.106	-0.444
-417.457	-79.687	0.039	0.013
-416.442	-200.000	0.040	-0.207
-415.428	169.503	-0.093	-0.133
-414.413	15.538	0.209	-0.165
-413.398	193.641	0.150	0.228
-412.384	-117.638	0.275	-0.050
-411.369	-200.000	-0.054	-0.366
-410.355	100.379	0.110	0.128
-409.340	-44.040	0.120	0.060
-408.325	-73.452	0.158	-0.058
-407.311	800.000	-0.141	0.410
-406.296	800.000	-0.042	-0.122
-405.282	800.000	0.059	0.184
-404.267	8.160	0.144	0.109
-403.252	800.000	0.106	0.310
-402.238	45.997	0.236	0.219
-401.223	-91.008	-0.417	0.120
-400.209	-200.000	0.019	-0.123
-399.194	800.000	-0.077	-0.296
-398.179	-109.910	-0.231	0.049
-397.165	-37.111	0.084	-0.045
-396.150	382.589	-0.144	-0.297
-395.136	165.428	0.221	-0.313
-394.121	-60.115	-0.232	-0.099
-393.106	304.897	0.085	0.159
-392.092	109.643	-0.129	-0.155
-391.077	360.456	0.074	-0.148
-390.063	-122.104	-0.404	-0.066
-389.048	397.619	-0.038	-0.079
-388.033	-165.161	0.147	0.007
-387.019	-64.176	0.071	-0.029
-386.004	-106.808	-0.322	0.072
-384.990	169.769	-0.083	-0.119
-383.975	800.000	0.063	-0.240
-382.960	118.453	-0.174	-0.215
-381.946	651.124	-0.055	0.142
-380.931	-200.000	0.017	-0.111
-379.917	-177.408	0.199	0.005
-378.902	-16.034	-0.412	-0.262
-377.888	-200.000	-0.092	0.000
-376.873	-21.620	0.239	0.146
-375.858	376.744	0.108	-0.221
-374.844	-166.801	-0.135	0.006
-373.829	-22.603	0.161	0.098
-372.815	703.575	-0.107	-0.282
-371.800	-33.325	-0.215	-0.119
-370.785	-13.944	0.363	0.235
-369.771	-14.496	-0.583	0.376
-368.756	-130.909	-0.092	0.012
-367.742	696.887	0.057	-0.149
-366.727	-15.452	0.180	0.115
-365.712	800.000	-0.101	0.297
-364.698	-34.837	0.161	-0.088
-363.683	626.089	0.037	-0.093
-362.669	33.920	0.272	0.237
-361.654	47.385	-0.092	0.086
-360.639	-99.781	0.282	0.071
-359.625	146.721	0.112	-0.150
-358.610	275.510	-0.121	0.216
-357.596	-62.652	0.342	-0.142
-356.581	-200.000	-0.030	-0.394
-355.566	447.965	0.095	0.209
-354.552	-48.962	-0.256	0.123
-353.537	-200.000	-0.002	0.127
-352.523	-72.384	0.160	0.059
-351.508	-200.000	-0.002	-0.112
-350.493	-77.017	-0.186	-0.065
-349.479	335.323	0.036	0.070
-348.464	15.653	0.138	-0.109
-347.450	106.071	-0.203	0.240
-346.435	523.348	0.102	0.240
-345.420	800.000	-0.051	0.179
-344.406	-200.000	-0.072	-0.420
-343.391	-58.932	-0.150	0.065
-342.377	147.332	-0.189	0.255
-341.362	-75.993	0.250	-0.088
-340.348	-23.107	-0.214	-0.129
-339.333	-158.083	-0.139	0.008
-338.318	-94.218	0.502	-0.137
-337.304	-200.000	0.050	0.225
-336.289	-200.000	0.009	0.112
-335.275	-9.242	-0.146	0.098
-334.260	413.035	-0.056	-0.119
-333.245	-200.000	0.058	-0.308
-332.231	-182.584	-0.353	-0.006
-331.216	-200.000	-0.023	-0.165
-330.202	-178.505	-0.061	-0.001
-329.187	-91.555	-0.166	0.047
-328.172	132.301	0.246	0.317
-327.158	-101.861	-0.175	0.042
-326.143	686.546	0.065	-0.170
-325.129	-42.938	-0.121	-0.061
-324.114	180.617	0.128	0.188
-323.099	262.729	0.056	0.098
-322.085	-99.660	-0.303	-0.076
-321.070	800.000	0.074	-0.242
-320.056	40.934	-0.349	-0.315
-319.041	-170.248	0.265	-0.009
-318.026	-72.050	0.294	-0.109
-317.012	770.556	-0.093	-0.252
-315.997	-94.841	-0.183	0.050
-314.983	-84.718	0.426	0.134
-313.968	18.935	0.156	-0.125
-312.953	-101.892	-0.307	-0.074
-311.939	8.089	-0.164	0.123
-310.924	152.852	-0.256	0.350
-309.910	-46.206	0.095	0.047
-308.895	195.960	0.106	-0.161
-307.880	-97.182	0.269	-0.070
-306.866	-52.900	0.075	0.034
-305.851	-200.000	-0.002	0.014
-304.837	-149.830	0.303	-0.024
-303.822	115.985	0.056	0.068
-302.807	-15.749	-0.255	0.163
-301.793	-9.544	0.086	0.057
-300.778	-200.000	0.045	0.203
-299.764	-59.947	-0.186	0.080
-298.749	278.922	0.005	0.008
-297.735	-200.000	-0.051	0.499
-296.720	800.000	-0.052	0.208
-295.705	-200.000	-0.002	0.040
-294.691	-148.862	-0.158	-0.013
-293.676	143.456	-0.060	-0.080
-292.662	800.000	-0.097	0.364
-291.647	-200.000	-0.015	-0.101
-290.632	98.160	0.167	0.192
-289.618	45.116	-0.113	-0.104
-288.603	314.545	0.109	0.205
-287.589	142.137	-0.309	0.409
-286.574	-89.116	0.293	-0.086
-285.559	-200.000	0.016	0.225
-284.545	-120.953	0.073	-0.012
-283.530	-119.429	-0.315	0.055
-282.516	-200.000	-0.003	-0.112
-281.501	-87.215	-0.260	-0.079
-280.486	330.850	0.142	0.274
-279.472	424.864	0.055	0.117
-278.457	228.368	-0.050	0.081
-277.443	-200.000	-0.012	0.105
-276.428	800.000	-0.054	-0.178
-275.413	160.519	0.204	0.284
-274.399	50.154	-0.104	0.098
-273.384	340.390	0.145	-0.283
-272.370	183.247	0.234	-0.345
-271.355	130.164	-0.188	0.240
-270.340	-30.596	0.217	0.123
-269.326	800.000	-0.062	0.205
-268.311	105.201	-0.121	-0.143
-267.297	800.000	0.026	0.107
-266.282	-60.961	0.154	-0.065
-265.267	120.356	0.101	-0.126
-264.253	-145.259	-0.289	-0.026
-263.238	-42.552	0.149	0.076
-262.224	-200.000	0.045	0.415
-261.209	-200.000	0.013	-0.246
-260.195	-2.326	0.225	-0.158
-259.180	-37.290	-0.379	-0.202
-258.165	778.725	0.063	0.173
-257.151	800.000	0.103	-0.371
-256.136	-18.298	-0.152	-0.095
-255.122	-94.293	-0.150	0.041
-254.107	800.000	-0.028	0.115
-253.092	370.072	-0.071	-0.144
-252.078	683.278	0.082	0.214
-251.063	-200.000	0.007	-0.188
-250.049	4.012	-0.149	0.108
-249.034	100.072	-0.173	-0.200
-248.019	800.000	-0.048	-0.138
-247.005	-18.887	0.117	0.073
-245.990	-137.137	-0.213	0.024
-244.976	-69.481	-0.177	0.067
-243.961	-62.064	0.234	0.097
-242.946	-200.000	-0.016	0.112
-241.932	-145.106	0.244	-0.022
-240.917	800.000	0.012	0.047
-239.903	54.957	0.116	-0.111
-238.888	-200.000	-0.028	0.140
-237.873	618.638	-0.168	0.419
-236.859	53.479	0.083	-0.080
-235.844	-39.008	0.093	-0.049
-234.830	-200.000	-0.005	-0.146
-233.815	-61.075	0.274	-0.115
-232.800	-141.755	-0.559	-0.056
-231.786	-58.956	-0.194	-0.083
-230.771	457.647	0.107	0.236
-229.757	-31.278	-0.111	0.062
-228.742	-44.993	0.174	0.086
-227.727	800.000	0.007	-0.019
-226.713	2.000	0.322	0.232
-225.698	23.977	0.181	0.148
-224.684	-39.495	-0.157	0.082
-223.669	28.554	-0.228	-0.192
-222.655	365.201	0.068	-0.136
-221.640	800.000	-0.119	0.412
-220.625	-5.391	0.401	0.274
-219.611	-200.000	-0.007	0.174
-218.596	-31.731	0.121	-0.068
-217.582	-24.484	-0.172	-0.102
-216.567	-67.602	0.072	0.028
-215.552	-105.681	0.394	-0.089
-214.538	-200.000	0.020	0.461
-213.523	-35.666	-0.318	0.171
-212.509	67.423	-0.194	0.197
-211.494	-39.342	0.105	-0.055
-210.479	193.456	-0.194	0.293
-209.465	-188.759	0.098	0.001
-208.450	47.473	0.234	-0.217
-207.436	-112.976	0.247	0.049
-206.421	106.832	-0.109	0.128
-205.406	531.924	-0.120	-0.284
-204.392	-82.843	0.154	-0.049
-203.377	114.667	-0.108	-0.130
-202.363	74.265	0.283	-0.295
-201.348	-46.841	-0.277	-0.135
-200.333	-200.000	0.003	-0.145
-199.319	135.659	-0.097	-0.125
-198.304	89.016	0.136	0.151
-197.290	800.000	0.065	-0.227
-196.275	368.778	0.152	-0.306
-195.260	498.540	-0.170	0.389
-194.246	-109.051	-0.140	-0.030
-193.231	548.596	-0.092	-0.219
-192.217	220.148	0.116	0.184
-191.202	-38.418	-0.089	0.047
-190.187	547.469	-0.040	0.094
-189.173	683.725	0.013	-0.033
-188.158	40.237	-0.321	-0.287
-187.144	-68.322	0.228	-0.088
-186.129	-83.783	0.116	0.037
-185.114	-200.000	0.043	0.256
-184.100	-180.900	-0.410	-0.008
-183.085	39.530	0.186	0.166
-182.071	-29.622	0.076	0.043
-181.056	800.000	0.042	-0.146
-180.042	-200.000	0.024	0.123
-179.027	69.858	-0.020	0.020
-178.012	19.959	0.291	-0.234
-176.998	377.733	-0.182	-0.371
-175.983	-19.012	-0.159	-0.098
-174.969	481.586	0.065	-0.146
-173.954	-200.000	-0.038	-0.224
-172.939	501.790	0.166	0.381
-171.925	15.332	-0.138	0.107
-170.910	-122.058	0.365	-0.060
-169.896	130.230	-0.155	-0.197
-168.881	-200.000	-0.017	-0.076
-167.866	561.880	0.054	0.130
-166.852	-85.850	-0.296	0.091
-165.837	800.000	0.081	-0.301
-164.823	20.257	0.346	-0.277
-163.808	800.000	0.065	-0.196
-162.793	-200.000	-0.028	0.520
-161.779	288.038	0.169	0.305
-160.764	143.023	-0.031	0.041
-159.750	-200.000	-0.049	-0.236
-158.735	646.860	0.016	0.042
-157.720	-23.419	-0.071	-0.042
-156.706	-200.000	-0.003	-0.274
-155.691	-55.551	-0.280	-0.124
-154.677	80.964	0.179	0.192
-153.662	5.009	-0.065	-0.048
-152.647	535.432	-0.170	-0.401
-151.633	54.009	-0.059	-0.056
-150.618	301.934	0.111	-0.204
-149.604	-156.225	0.058	0.004
-148.589	100.590	-0.020	0.023
-147.574	177.948	0.085	0.124
-146.560	-200.000	0.013	-0.096
-145.545	-200.000	-0.016	0.132
-144.531	-102.014	0.128	0.031
-143.516	-104.294	-0.154	0.035
-142.502	-30.530	0.156	-0.088
-141.487	-8.904	-0.284	0.189
-140.472	-131.483	0.238	0.031
-139.458	-24.063	-0.169	0.100
-138.443	-9.637	-0.376	-0.249
-137.429	167.373	-0.041	0.058
-136.414	800.000	0.067	-0.255
-135.399	-200.000	0.006	-0.131
-134.385	377.651	0.178	-0.360
-133.370	228.580	-0.105	0.169
-132.356	-102.103	-0.259	-0.062
-131.341	-200.000	0.011	0.315
-130.326	800.000	0.076	0.247
-129.312	117.968	0.029	-0.035
-128.297	343.539	-0.022	-0.043
-127.283	-200.000	0.039	-0.221
-126.268	-107.541	0.203	0.044
-125.253	-87.324	0.111	-0.033
-124.239	35.857	0.070	-0.061
-123.224	-200.000	0.065	0.757
-122.210	-200.000	0.048	0.367
-121.195	-141.404	0.463	0.047
