DTS Sentinel unit serial number:	SN413079Multiplexer serial number:	ORYXHardware model number:	OX4-SRSoftware version number:	ORYX F/W v4.00 Oryx Data Collector v3.7.2.0data status	okinstallation	princeton_trtdifferential loss correction	single-endedforward channel	channel 4reverse channel	N/Adate	2019/09/10time	23:23:11forward acquisition time	60.00reverse acquisition time	0.00gamma	496.2192k internal	0.2316k external	0.2316temperature offset calibration	0.9952default loss term (dB/km)	0.3790temperature slope calibration	1.0000multiplexer offset coefficient	1.0000multiplexer slope coefficient	1.0000fibre end	0.00T internal ref (°C)	29.78T ext. ref 1 (°C)	-0.31T ext. ref 2 (°C)	23.17length (m)	temperature (°C)	Stokes	anti-Stokes-747.200	180.160	-0.216	0.320
-746.185	141.052	0.091	0.122
-745.171	-94.372	-0.194	0.054
-744.156	89.051	0.116	0.131
-743.142	800.000	-0.080	-0.234
-742.127	140.796	-0.104	0.139
-741.112	-90.852	-0.263	0.077
-740.098	800.000	-0.023	-0.070
-739.083	-39.138	0.293	-0.156
-738.069	-200.000	-0.032	-0.168
-737.054	-200.000	-0.088	-0.477
-736.039	517.041	-0.028	-0.067
-735.025	674.326	-0.055	0.143
-734.010	-103.700	0.244	-0.058
-732.996	-14.716	-0.125	-0.082
-731.981	167.499	-0.198	-0.284
-730.966	800.000	-0.085	0.264
-729.952	-26.447	0.117	-0.069
-728.937	-97.723	-0.292	0.076
-727.923	-78.637	-0.062	-0.022
-726.908	135.930	-0.240	-0.317
-725.894	707.892	0.055	-0.146
-724.879	800.000	0.099	0.317
-723.864	-200.000	0.051	-0.257
-722.850	800.000	-0.079	-0.241
-721.835	-36.397	-0.110	-0.060
-720.821	-144.329	-0.370	-0.035
-719.806	-151.061	-0.248	0.019
-718.791	-200.000	-0.172	-0.000
-717.777	-200.000	0.005	-0.139
-716.762	-200.000	-0.058	-0.341
-715.748	-123.786	-0.459	-0.073
-714.733	-200.000	-0.004	-0.392
-713.718	-187.991	0.073	0.001
-712.704	470.142	0.136	-0.309
-711.689	-65.739	-0.162	-0.065
-710.675	-44.960	0.296	-0.149
-709.660	106.420	0.102	-0.123
-708.645	127.742	0.195	-0.251
-707.631	5.499	0.057	0.042
-706.616	-200.000	0.003	-0.114
-705.602	-18.360	-0.127	-0.080
-704.587	-54.835	0.042	-0.019
-703.572	-37.666	0.122	0.066
-702.558	-98.683	0.140	-0.036
-701.543	-103.046	0.010	-0.002
-700.529	57.103	0.160	-0.158
-699.514	-107.601	0.059	0.013
-698.499	-102.510	-0.492	-0.119
-697.485	-73.647	-0.146	0.054
-696.470	-76.370	-0.021	0.008
-695.456	225.576	-0.166	0.271
-694.441	-109.740	-0.061	-0.013
-693.426	168.329	0.112	0.162
-692.412	52.818	0.151	-0.146
-691.397	69.136	-0.274	-0.285
-690.383	619.596	0.062	-0.157
-689.368	112.849	0.069	0.084
-688.354	-34.634	-0.165	-0.091
-687.339	239.050	-0.132	0.221
-686.324	53.332	0.124	0.120
-685.310	151.364	0.029	-0.040
-684.295	431.939	-0.096	-0.210
-683.281	-200.000	-0.012	0.094
-682.266	287.947	-0.078	-0.142
-681.251	50.597	-0.099	-0.095
-680.237	-150.500	0.189	0.015
-679.222	113.800	-0.170	-0.209
-678.208	-180.027	-0.194	-0.004
-677.193	57.773	-0.158	0.156
-676.178	-142.781	-0.209	0.021
-675.164	583.002	-0.029	-0.073
-674.149	-84.274	-0.178	0.057
-673.135	-186.197	0.185	0.003
-672.120	800.000	-0.075	-0.228
-671.105	69.327	-0.266	0.276
-670.091	800.000	0.122	0.366
-669.076	101.721	-0.122	0.144
-668.062	-64.737	-0.118	0.048
-667.047	-144.033	-0.231	-0.022
-666.032	-90.295	0.300	0.088
-665.018	-133.906	0.295	0.037
-664.003	-110.029	-0.282	-0.060
-662.989	315.950	0.088	0.167
-661.974	436.655	-0.142	0.313
-660.959	-59.551	-0.116	-0.050
-659.945	494.975	0.089	0.206
-658.930	-90.279	-0.128	0.038
-657.916	-129.190	-0.083	-0.012
-656.901	-35.888	0.420	0.230
-655.886	-171.467	-0.158	0.005
-654.872	-200.000	0.007	-0.042
-653.857	-8.352	0.202	0.137
-652.843	-200.000	0.056	-0.294
-651.828	-110.824	0.147	-0.031
-650.814	-151.015	-0.198	-0.015
-649.799	-200.000	0.059	-0.323
-648.784	-200.000	-0.012	0.191
-647.770	-13.274	-0.100	0.065
-646.755	-111.337	0.174	-0.036
-645.741	-123.906	-0.142	0.023
-644.726	-156.088	0.315	0.020
-643.711	771.664	-0.023	-0.064
-642.697	-200.000	0.051	-0.267
-641.682	800.000	-0.065	0.190
-640.668	-200.000	-0.038	-0.394
-639.653	-12.150	-0.033	0.022
-638.638	688.787	-0.092	0.243
-637.624	-143.538	-0.321	-0.031
-636.609	-127.641	0.203	-0.030
-635.595	-200.000	0.091	-0.445
-634.580	-17.569	-0.247	0.157
-633.565	800.000	-0.068	0.262
-632.551	-139.646	0.213	0.023
-631.536	25.997	0.014	0.012
-630.522	17.857	-0.255	-0.205
-629.507	-200.000	-0.006	-0.253
-628.492	260.225	0.053	0.092
-627.478	-163.224	0.107	0.005
-626.463	-71.715	-0.134	0.050
-625.449	800.000	-0.028	-0.116
-624.434	257.125	-0.176	-0.305
-623.419	10.970	-0.122	-0.094
-622.405	-200.000	-0.001	0.035
-621.390	452.026	-0.158	0.353
-620.376	-45.727	-0.094	0.047
-619.361	-200.000	0.005	-0.098
-618.346	-200.000	-0.009	-0.118
-617.332	52.357	-0.196	-0.189
-616.317	89.863	-0.063	0.071
-615.303	800.000	-0.038	-0.121
-614.288	800.000	-0.029	0.090
-613.273	800.000	0.087	-0.378
-612.259	250.414	-0.086	-0.148
-611.244	661.100	0.053	0.139
-610.230	-146.300	0.348	0.031
-609.215	-87.955	0.227	-0.069
-608.201	-176.217	-0.402	-0.011
-607.186	266.754	-0.156	-0.275
-606.171	-200.000	0.076	-0.454
-605.157	800.000	-0.058	-0.179
-604.142	183.625	-0.034	0.051
-603.128	-200.000	0.014	0.079
-602.113	39.983	-0.127	0.115
-601.098	-200.000	-0.015	0.108
-600.084	445.487	-0.107	-0.236
-599.069	560.691	-0.057	-0.140
-598.055	800.000	0.079	-0.271
-597.040	-134.240	-0.056	0.007
-596.025	-200.000	0.024	0.296
-595.011	189.344	0.040	-0.061
-593.996	93.580	0.063	0.071
-592.982	-66.493	-0.166	-0.066
-591.967	-200.000	0.036	0.287
-590.952	282.385	0.016	0.029
-589.938	-116.757	-0.268	-0.050
-588.923	739.202	0.056	0.153
-587.909	-83.615	0.218	0.070
-586.894	1.262	-0.159	-0.115
-585.879	-151.420	0.193	0.014
-584.865	-7.839	0.093	-0.063
-583.850	171.900	-0.279	-0.403
-582.836	-51.434	-0.350	-0.165
-581.821	39.960	-0.182	0.164
-580.806	-75.932	0.288	0.103
-579.792	-200.000	0.072	0.416
-578.777	800.000	-0.049	-0.206
-577.763	-97.220	-0.136	0.036
-576.748	8.020	0.112	0.085
-575.733	-200.000	-0.010	-0.276
-574.719	-200.000	-0.017	0.213
-573.704	800.000	-0.074	-0.297
-572.690	48.147	-0.193	-0.181
-571.675	-103.162	-0.198	0.047
-570.661	401.873	0.146	0.308
-569.646	-200.000	-0.016	0.086
-568.631	-13.502	0.097	-0.063
-567.617	-58.952	-0.271	-0.118
-566.602	35.626	0.106	-0.093
-565.588	800.000	0.053	0.176
-564.573	800.000	0.062	-0.241
-563.558	-61.637	0.280	-0.118
-562.544	249.317	0.177	-0.302
-561.529	441.226	-0.048	0.105
-560.515	24.667	0.190	-0.159
-559.500	-129.701	-0.167	-0.023
-558.485	78.427	0.179	0.192
-557.471	83.806	0.124	-0.136
-556.456	-19.302	0.078	0.049
-555.442	800.000	-0.052	0.226
-554.427	-200.000	-0.022	-0.136
-553.412	-72.168	-0.239	0.089
-552.398	116.926	0.115	-0.142
-551.383	-200.000	0.028	-0.388
-550.369	-108.915	-0.253	0.054
-549.354	-200.000	0.025	0.118
-548.339	254.364	-0.116	0.200
-547.325	-74.998	-0.159	-0.057
-546.310	-63.757	0.171	0.070
-545.296	730.658	0.098	0.263
-544.281	-5.049	0.130	-0.090
-543.266	86.688	-0.268	-0.297
-542.252	98.685	-0.073	-0.084
-541.237	-131.828	-0.212	-0.028
-540.223	598.326	0.105	0.262
-539.208	-200.000	-0.003	0.245
-538.193	729.002	0.081	-0.218
-537.179	125.333	-0.186	-0.235
-536.164	315.294	0.118	0.224
-535.150	58.129	-0.033	0.033
-534.135	-21.004	-0.266	-0.164
-533.121	-200.000	0.010	-0.242
-532.106	13.864	0.242	0.189
-531.091	-144.136	0.464	0.044
-530.077	-80.632	0.163	-0.054
-529.062	800.000	0.060	-0.176
-528.048	118.877	-0.211	0.262
-527.033	-100.028	-0.137	0.034
-526.018	-45.112	0.326	0.163
-525.004	-20.477	0.098	-0.060
-523.989	387.263	0.139	-0.288
-522.975	-200.000	-0.006	-0.087
-521.960	545.709	0.068	0.164
-520.945	-200.000	-0.016	0.138
-519.931	800.000	-0.091	-0.272
-518.916	-163.424	-0.252	0.012
-517.902	-29.327	0.010	0.005
-516.887	-91.597	-0.147	0.042
-515.872	18.310	-0.380	0.305
-514.858	392.841	0.244	-0.510
-513.843	528.169	-0.111	-0.264
-512.829	273.759	-0.102	0.181
-511.814	-200.000	0.020	0.164
-510.799	42.722	0.146	0.134
-509.785	-118.254	0.105	0.019
-508.770	463.074	-0.083	0.187
-507.756	-168.772	-0.129	0.005
-506.741	173.537	0.177	0.257
-505.726	-67.174	0.088	0.035
-504.712	-200.000	0.046	0.415
-503.697	161.067	0.160	0.224
-502.683	-120.789	-0.517	0.088
-501.668	82.490	0.226	-0.246
-500.653	-108.864	-0.431	0.092
-499.639	-199.724	0.431	0.002
-498.624	-191.213	-0.236	0.002
-497.610	129.230	-0.107	-0.137
-496.595	-100.988	0.190	0.047
-495.581	800.000	-0.039	-0.136
-494.566	-19.050	0.114	-0.071
-493.551	56.608	0.185	-0.181
-492.537	-91.124	0.145	-0.042
-491.522	-167.461	0.250	0.010
-490.508	-146.841	-0.225	0.019
-489.493	337.584	-0.110	0.214
-488.478	577.037	-0.029	-0.072
-487.464	100.193	0.125	0.146
-486.449	-126.745	-0.263	-0.039
-485.435	-125.692	0.217	-0.033
-484.420	73.007	-0.154	0.161
-483.405	-14.965	-0.156	-0.101
-482.391	103.735	0.086	-0.101
-481.376	-141.288	-0.359	0.037
-480.362	343.923	-0.019	0.037
-479.347	28.154	-0.139	0.118
-478.332	-128.139	0.137	0.020
-477.318	-200.000	-0.011	0.077
-476.303	49.746	-0.047	0.044
-475.289	719.862	0.058	0.155
-474.274	-50.479	0.371	0.176
-473.259	-90.550	-0.060	0.017
-472.245	-2.618	-0.159	-0.112
-471.230	-111.101	0.267	0.055
-470.216	545.005	0.081	-0.194
-469.201	-31.936	0.223	0.125
-468.186	-34.757	-0.229	-0.125
-467.172	-149.853	-0.267	-0.021
-466.157	-132.202	-0.194	-0.025
-465.143	-140.946	-0.474	0.049
-464.128	153.084	-0.183	0.251
-463.113	-83.258	-0.241	0.078
-462.099	185.101	0.168	0.250
-461.084	-200.000	0.009	-0.094
-460.070	800.000	0.017	-0.069
-459.055	1.361	0.389	0.280
-458.040	-57.272	0.218	0.096
-457.026	56.009	-0.307	0.298
-456.011	-200.000	0.064	0.334
-454.997	-200.000	-0.010	0.434
-453.982	104.293	-0.206	0.243
-452.968	78.017	0.205	-0.219
-451.953	-170.311	0.318	-0.011
-450.938	-200.000	0.038	0.174
-449.924	-149.882	0.168	-0.013
-448.909	-200.000	-0.002	0.116
-447.895	-37.469	0.196	0.105
-446.880	77.179	0.083	-0.089
-445.865	-25.149	-0.177	0.105
-444.851	-11.118	-0.350	-0.231
-443.836	-66.739	0.157	0.062
-442.822	191.726	-0.032	-0.048
-441.807	-200.000	-0.017	-0.136
-440.792	-200.000	-0.055	0.296
-439.778	22.313	0.039	0.032
-438.763	-104.227	-0.250	0.058
-437.749	-200.000	-0.051	-0.249
-436.734	-76.185	-0.129	-0.046
-435.719	-37.188	0.198	0.106
-434.705	-129.069	0.272	0.038
-433.690	179.977	-0.077	-0.113
-432.676	-200.000	-0.039	-0.219
-431.661	800.000	0.094	-0.384
-430.646	-200.000	-0.044	0.347
-429.632	173.133	-0.134	0.194
-428.617	47.381	-0.179	-0.167
-427.603	-200.000	-0.030	-0.260
-426.588	-135.831	-0.233	0.028
-425.573	-143.799	0.225	0.021
-424.559	800.000	0.032	0.121
-423.544	-32.087	-0.030	0.017
-422.530	-104.643	-0.257	-0.059
-421.515	64.486	-0.179	-0.181
-420.500	350.220	-0.071	0.140
-419.486	-200.000	-0.002	0.279
-418.471	-89.858	0.377	-0.110
-417.457	236.587	0.048	-0.079
-416.442	182.974	0.066	-0.097
-415.428	-60.788	-0.139	-0.059
-414.413	-121.464	0.273	0.045
-413.398	64.343	-0.182	-0.184
-412.384	-200.000	-0.001	0.273
-411.369	-84.346	0.236	-0.075
-410.355	-200.000	0.003	-0.058
-409.340	148.706	-0.076	-0.103
-408.325	-37.972	-0.111	-0.059
-407.311	-37.420	0.183	-0.097
-406.296	402.762	0.099	-0.207
-405.282	58.615	-0.211	-0.207
-404.267	-55.170	-0.236	-0.106
-403.252	-200.000	-0.031	0.314
-402.238	8.592	0.150	-0.113
-401.223	536.525	0.185	-0.440
-400.209	69.492	0.187	0.193
-399.194	800.000	-0.093	0.311
-398.179	-67.623	0.255	-0.100
-397.165	-200.000	-0.044	0.203
-396.150	190.537	-0.119	-0.179
-395.136	800.000	0.053	-0.216
-394.121	-55.455	0.281	-0.126
-393.106	-105.391	0.107	0.024
-392.092	114.036	0.158	-0.192
-391.077	-160.453	0.192	0.010
-390.063	-200.000	0.011	0.092
-389.048	29.250	0.172	-0.146
-388.033	780.257	0.049	0.134
-387.019	110.303	-0.086	-0.103
-386.004	110.950	0.096	-0.115
-384.990	800.000	-0.118	-0.328
-383.975	-160.777	0.398	0.021
-382.960	-38.786	-0.372	0.196
-381.946	68.743	-0.065	0.066
-380.931	31.858	-0.121	0.104
-379.917	-30.424	0.097	0.055
-378.902	-87.174	0.173	0.052
-377.888	-200.000	0.113	-0.594
-376.873	-185.198	0.044	-0.001
-375.858	-34.310	0.095	-0.052
-374.844	-109.688	0.381	0.080
-373.829	-83.728	-0.135	0.043
-372.815	130.186	-0.349	-0.446
-371.800	-200.000	0.068	-0.523
-370.785	800.000	-0.043	-0.183
-369.771	800.000	-0.026	0.079
-368.756	20.090	0.042	0.034
-367.742	8.102	-0.108	0.081
-366.727	-51.861	-0.049	-0.023
-365.712	-39.887	0.216	0.113
-364.698	800.000	-0.090	0.256
-363.683	-14.982	0.051	-0.033
-362.669	800.000	0.032	0.110
-361.654	-97.925	-0.219	-0.056
-360.639	32.064	-0.104	0.090
-359.625	-107.084	-0.180	0.040
-358.610	-42.615	0.172	0.088
-357.596	-200.000	-0.029	0.282
-356.581	-57.709	-0.374	-0.163
-355.566	-134.476	-0.234	0.029
-354.552	-45.454	0.166	0.082
-353.537	-24.949	-0.080	0.047
-352.523	34.355	0.258	0.225
-351.508	26.968	0.119	0.100
-350.493	669.907	0.081	-0.208
-349.479	-128.632	0.456	0.064
-348.464	-22.641	0.426	-0.257
-347.450	219.367	-0.225	0.359
-346.435	-20.867	0.146	-0.089
-345.420	236.670	0.054	-0.089
-344.406	-41.053	0.123	-0.063
-343.391	-50.863	0.423	0.198
-342.377	-145.246	0.155	-0.014
-341.362	-29.463	0.147	-0.084
-340.348	-200.000	0.003	0.031
-339.333	-33.753	0.207	-0.114
-338.318	-6.478	0.057	0.039
-337.304	-71.841	0.406	0.151
-336.289	169.824	-0.097	-0.139
-335.275	800.000	0.024	-0.079
-334.260	-180.114	0.305	0.006
-333.245	362.405	-0.013	0.027
-332.231	-61.139	0.190	0.080
-331.216	120.388	-0.388	-0.480
-330.202	645.720	-0.041	-0.104
-329.187	-200.000	0.029	-0.144
-328.172	107.922	0.178	0.211
-327.158	499.294	-0.020	-0.046
-326.143	-169.222	-0.102	0.004
-325.129	290.643	-0.125	-0.227
-324.114	-44.886	0.290	0.144
-323.099	-100.814	0.292	-0.072
-322.085	466.126	-0.163	-0.364
-321.070	-148.320	-0.188	0.015
-320.056	-25.799	0.075	-0.044
-319.041	141.583	0.078	0.103
-318.026	800.000	-0.116	-0.322
-317.012	33.850	-0.193	0.167
-315.997	147.305	-0.076	0.102
-314.983	268.010	0.113	-0.197
-313.968	-200.000	-0.000	0.032
-312.953	-67.010	-0.375	0.147
-311.939	800.000	0.017	-0.057
-310.924	-200.000	0.032	0.331
-309.910	-57.980	-0.270	-0.117
-308.895	90.541	-0.186	-0.207
-307.880	-200.000	-0.041	0.421
-306.866	38.744	-0.293	-0.261
-305.851	-56.581	0.202	0.089
-304.837	123.949	-0.072	0.090
-303.822	332.420	0.189	0.364
-302.807	475.404	-0.056	0.126
-301.793	137.407	-0.197	0.256
-300.778	-200.000	-0.036	-0.287
-299.764	-46.402	0.221	-0.108
-298.749	-36.305	0.085	-0.046
-297.735	-200.000	0.025	0.188
-296.720	800.000	-0.062	0.244
-295.705	564.180	-0.072	0.174
-294.691	45.281	-0.089	0.081
-293.676	-109.611	-0.064	-0.013
-292.662	-102.335	0.212	-0.051
-291.647	5.998	-0.230	0.170
-290.632	-83.345	-0.177	-0.056
-289.618	192.683	-0.112	0.168
-288.603	-11.377	0.105	0.068
-287.589	-200.000	-0.043	0.301
-286.574	403.535	-0.098	-0.206
-285.559	-57.016	0.036	0.016
-284.545	-16.138	-0.123	0.078
-283.530	-104.250	0.250	-0.058
-282.516	-175.888	0.133	0.004
-281.501	-1.611	0.191	-0.134
-280.486	800.000	-0.048	0.158
-279.472	162.681	0.095	0.133
-278.457	800.000	-0.032	0.114
-277.443	-22.564	0.105	-0.063
-276.428	-141.189	-0.161	-0.016
-275.413	-142.929	-0.179	-0.017
-274.399	93.306	0.070	-0.079
-273.384	252.860	-0.258	-0.438
-272.370	-146.747	-0.230	-0.020
-271.355	94.128	-0.079	0.089
-270.340	74.312	0.196	-0.205
-269.326	-172.778	-0.055	-0.002
-268.311	800.000	-0.017	0.068
-267.297	800.000	0.081	-0.310
-266.282	447.904	-0.038	-0.083
-265.267	299.936	-0.061	-0.112
-264.253	800.000	-0.120	-0.484
-263.238	-90.418	-0.229	0.066
-262.224	79.201	0.161	0.171
-261.209	800.000	-0.099	-0.427
-260.195	-177.573	0.201	0.005
-259.180	-200.000	0.043	-0.225
-258.165	-166.337	0.294	0.012
-257.151	648.541	0.050	0.127
-256.136	473.733	-0.023	0.051
-255.122	-17.382	0.095	0.060
-254.107	-39.580	-0.368	0.191
-253.092	365.679	-0.164	0.328
-252.078	-61.793	0.319	0.133
-251.063	2.762	-0.313	-0.226
-250.049	-200.000	0.017	-0.123
-249.034	31.499	-0.066	-0.057
-248.019	800.000	-0.033	-0.133
-247.005	-86.022	-0.092	-0.028
-245.990	264.984	0.177	0.306
-244.976	5.162	-0.045	0.033
-243.961	478.623	0.024	-0.053
-242.946	23.583	-0.113	-0.092
-241.932	135.133	0.162	-0.209
-240.917	-73.012	0.218	0.079
-239.903	800.000	0.118	0.392
-238.888	-23.209	0.304	-0.182
-237.873	-77.918	0.093	0.032
-236.859	346.351	0.224	-0.437
-235.844	-85.158	0.343	-0.107
-234.830	306.380	0.111	-0.205
-233.815	-200.000	-0.043	-0.239
-232.800	62.320	0.143	-0.142
-231.786	-34.501	-0.138	0.075
-230.771	-109.270	-0.341	-0.072
-229.757	-200.000	0.004	0.149
-228.742	230.201	0.208	0.338
-227.727	800.000	-0.034	0.095
-226.713	-104.155	-0.126	-0.029
-225.698	-81.143	0.091	0.030
-224.684	-200.000	0.055	0.401
-223.669	-200.000	0.020	-0.109
-222.655	-60.561	0.212	-0.089
-221.640	34.769	0.070	-0.060
-220.625	246.504	-0.075	-0.126
-219.611	-42.337	-0.174	-0.088
-218.596	309.376	0.183	0.339
-217.582	-200.000	-0.009	0.099
-216.567	-115.148	-0.139	0.026
-215.552	150.561	0.062	0.083
-214.538	-200.000	0.022	0.215
-213.523	-52.490	-0.284	0.130
-212.509	72.410	-0.073	-0.075
-211.494	-69.656	0.227	0.086
-210.479	-24.956	-0.151	-0.089
-209.465	-68.869	-0.209	0.080
-208.450	149.083	0.271	-0.363
-207.436	385.969	0.107	-0.218
-206.421	20.758	-0.204	0.164
-205.406	-56.050	-0.083	-0.036
-204.392	-7.568	0.125	-0.084
-203.377	120.917	-0.099	-0.122
-202.363	325.122	-0.020	0.039
-201.348	-68.660	-0.344	0.132
-200.333	54.396	-0.120	0.115
-199.319	78.551	-0.126	0.134
-198.304	254.489	0.153	-0.260
-197.290	137.474	0.168	0.218
-196.275	-200.000	-0.009	0.151
-195.260	193.452	0.009	-0.013
-194.246	-200.000	0.122	0.650
-193.231	85.269	0.109	0.119
-192.217	-18.910	0.196	0.121
-191.202	49.634	-0.179	0.167
-190.187	-200.000	0.034	0.187
-189.173	-77.456	-0.290	0.100
-188.158	119.219	0.092	-0.113
-187.144	37.012	0.111	-0.097
-186.129	-200.000	-0.041	0.287
-185.114	422.095	0.138	0.295
-184.100	166.807	0.110	-0.155
-183.085	-4.131	-0.204	-0.140
-182.071	-14.495	-0.190	-0.121
-181.056	-200.000	-0.017	0.269
-180.042	-22.659	0.190	-0.114
-179.027	-200.000	-0.020	0.187
-178.012	85.901	-0.301	0.328
-176.998	189.683	0.119	0.176
-175.983	26.633	0.057	0.047
-174.969	-157.591	-0.198	-0.012
-173.954	-67.143	0.035	0.014
-172.939	28.299	-0.231	0.193
-171.925	297.570	-0.092	0.168
-170.910	444.241	0.131	-0.284
-169.896	-200.000	0.022	0.131
-168.881	208.353	-0.199	0.308
-167.866	4.284	-0.232	0.168
-166.852	-200.000	-0.045	-0.377
-165.837	-143.630	0.469	-0.044
-164.823	-150.279	-0.349	-0.027
-163.808	441.122	0.117	-0.254
-162.793	-200.000	-0.037	-0.467
-161.779	800.000	0.097	0.287
-160.764	719.767	-0.066	0.175
-159.750	56.736	-0.331	0.319
-158.735	138.266	0.062	0.081
-157.720	147.041	0.110	-0.147
-156.706	519.003	0.071	0.164
-155.691	-142.366	0.235	-0.023
-154.677	150.833	-0.060	0.081
-153.662	-200.000	0.090	-0.594
-152.647	-9.582	-0.054	0.035
-151.633	537.370	0.111	0.262
-150.618	6.932	0.129	0.095
-149.604	395.240	-0.052	0.108
-148.589	-53.248	0.254	0.115
-147.574	-34.518	-0.355	-0.192
-146.560	-114.254	-0.119	0.023
-145.545	69.406	0.114	0.116
-144.531	-76.574	-0.235	-0.082
-143.516	757.408	0.082	-0.218
-142.502	-50.949	-0.166	0.077
-141.487	39.721	-0.167	0.148
-140.472	256.707	0.124	0.211
-139.458	-200.000	0.011	0.109
-138.443	-70.266	0.015	0.005
-137.429	-49.725	-0.109	-0.051
-136.414	-105.078	0.307	-0.070
-135.399	54.631	0.076	0.073
-134.385	18.479	0.238	0.188
-133.370	51.527	0.105	-0.099
-132.356	0.681	0.050	-0.035
-131.341	63.511	0.128	-0.127
-130.326	-105.842	0.106	0.024
-129.312	-200.000	-0.002	-0.148
-128.297	-200.000	-0.019	0.128
-127.283	23.095	-0.223	-0.181
-126.268	800.000	-0.063	0.210
-125.253	68.455	0.057	0.058
-124.239	-167.384	-0.180	-0.007
-123.224	-200.000	0.056	0.260
-122.210	-123.802	0.139	0.022
-121.195	-64.496	0.195	0.078
