DTS Sentinel unit serial number:	SN413079Multiplexer serial number:	ORYXHardware model number:	OX4-SRSoftware version number:	ORYX F/W v4.00 Oryx Data Collector v3.7.2.0data status	okinstallation	princeton_trtdifferential loss correction	single-endedforward channel	channel 4reverse channel	N/Adate	2019/09/11time	15:39:11forward acquisition time	60.00reverse acquisition time	0.00gamma	496.2192k internal	0.2278k external	0.2278temperature offset calibration	1.0015default loss term (dB/km)	0.3790temperature slope calibration	1.0000multiplexer offset coefficient	1.0000multiplexer slope coefficient	1.0000fibre end	0.00T internal ref (°C)	42.81T ext. ref 1 (°C)	1.00T ext. ref 2 (°C)	37.24length (m)	temperature (°C)	Stokes	anti-Stokes-747.200	141.235	-0.211	0.288
-746.185	-17.924	-0.256	0.165
-745.171	375.084	-0.096	0.201
-744.156	-56.382	-0.054	-0.025
-743.142	-91.540	0.452	-0.133
-742.127	117.282	-0.243	0.308
-741.112	-76.882	-0.168	-0.060
-740.098	90.248	-0.081	0.094
-739.083	-133.762	0.195	-0.025
-738.069	62.886	-0.260	0.268
-737.054	162.746	0.061	-0.089
-736.039	240.663	-0.112	-0.193
-735.025	-200.000	-0.040	0.363
-734.010	20.975	-0.046	-0.038
-732.996	800.000	0.111	-0.353
-731.981	-186.549	-0.318	0.005
-730.966	194.576	0.174	-0.272
-729.952	-200.000	0.066	0.000
-728.937	-200.000	0.022	-0.155
-727.923	-127.365	0.120	-0.018
-726.908	-20.732	-0.167	0.105
-725.894	37.947	0.228	0.209
-724.879	92.730	-0.341	-0.396
-723.864	-97.970	-0.086	-0.023
-722.850	-45.906	-0.202	0.103
-721.835	-177.869	0.286	-0.007
-720.821	798.666	-0.058	-0.166
-719.806	-152.801	-0.352	-0.026
-718.791	513.247	0.102	-0.245
-717.777	800.000	-0.073	-0.225
-716.762	-200.000	0.006	-0.074
-715.748	-19.470	0.531	0.339
-714.733	316.949	-0.027	-0.052
-713.718	-2.125	-0.268	0.194
-712.704	-137.596	-0.138	0.016
-711.689	-69.358	-0.275	0.109
-710.675	-67.690	-0.142	-0.057
-709.660	800.000	-0.021	-0.066
-708.645	-200.000	-0.005	0.076
-707.631	-200.000	0.041	0.263
-706.616	-200.000	-0.025	-0.205
-705.602	-200.000	-0.020	0.273
-704.587	-114.939	-0.346	0.068
-703.572	-200.000	0.008	-0.176
-702.558	-167.661	0.013	-0.001
-701.543	-71.562	0.105	-0.040
-700.529	-200.000	-0.250	0.000
-699.514	34.284	-0.219	-0.197
-698.499	-24.333	-0.373	-0.228
-697.485	624.529	0.048	0.125
-696.470	47.336	-0.179	-0.172
-695.456	73.288	-0.221	-0.238
-694.441	369.666	-0.113	0.235
-693.426	-200.000	-0.054	0.323
-692.412	-123.007	-0.206	0.034
-691.397	-200.000	0.028	-0.211
-690.383	53.733	-0.116	-0.114
-689.368	-70.362	-0.311	-0.121
-688.354	-113.145	0.236	0.048
-687.339	-200.000	0.013	0.093
-686.324	-26.662	-0.116	0.070
-685.310	243.202	-0.083	0.143
-684.295	-113.369	-0.461	0.093
-683.281	60.934	-0.039	0.040
-682.266	-118.684	0.399	-0.072
-681.251	-37.624	-0.293	-0.161
-680.237	-200.000	-0.025	0.269
-679.222	111.623	0.155	0.192
-678.208	-41.089	-0.293	0.155
-677.193	163.023	-0.124	0.179
-676.178	212.099	-0.086	-0.139
-675.164	93.551	-0.222	-0.258
-674.149	597.239	-0.100	-0.253
-673.135	126.466	0.092	0.119
-672.120	-144.107	0.264	0.025
-671.105	403.245	-0.039	0.083
-670.091	-39.189	0.039	0.021
-669.076	-200.000	-0.020	0.253
-668.062	103.115	-0.199	0.239
-667.047	40.224	-0.176	-0.162
-666.032	-42.734	0.301	-0.157
-665.018	336.391	-0.171	-0.340
-664.003	761.736	-0.078	0.217
-662.989	-175.973	-0.172	-0.005
-661.974	-99.214	0.200	-0.052
-660.959	-30.290	0.090	0.052
-659.945	65.711	0.065	0.067
-658.930	-23.649	-0.039	0.024
-657.916	109.071	-0.060	-0.074
-656.901	-144.264	0.086	0.008
-655.886	247.109	0.218	0.377
-654.872	140.827	0.050	-0.068
-653.857	-100.969	0.209	-0.053
-652.843	18.938	-0.092	0.075
-651.828	130.536	-0.059	0.078
-650.814	215.990	0.109	0.178
-649.799	-200.000	-0.009	0.081
-648.784	800.000	0.028	0.088
-647.770	-102.608	-0.154	-0.038
-646.755	-124.488	0.335	-0.053
-645.741	5.298	0.285	-0.216
-644.726	143.314	-0.071	0.097
-643.711	-200.000	0.015	-0.133
-642.697	81.601	0.093	0.103
-641.682	-40.821	0.127	0.067
-640.668	118.074	-0.195	0.246
-639.653	167.836	-0.148	-0.215
-638.638	-79.821	-0.203	-0.070
-637.624	-104.179	0.095	0.023
-636.609	223.521	0.064	0.106
-635.595	-148.989	-0.171	0.014
-634.580	683.102	0.144	-0.386
-633.565	201.135	0.072	-0.113
-632.551	253.005	-0.111	0.194
-631.536	-200.000	0.064	0.298
-630.522	371.151	0.049	-0.102
-629.507	-9.193	-0.123	0.084
-628.492	-200.000	0.005	0.435
-627.478	-160.030	-0.065	0.004
-626.463	58.075	0.325	-0.326
-625.449	461.104	0.182	0.416
-624.434	-178.840	0.194	0.005
-623.419	800.000	0.085	0.328
-622.405	800.000	-0.091	0.293
-621.390	-4.894	-0.227	0.160
-620.376	136.558	-0.191	0.255
-619.361	787.859	0.074	-0.207
-618.346	-200.000	-0.002	-0.164
-617.332	-87.320	-0.212	0.066
-616.317	111.134	-0.254	-0.313
-615.303	155.807	0.058	0.083
-614.288	-99.120	-0.368	-0.096
-613.273	-139.195	0.268	-0.030
-612.259	-12.672	-0.105	-0.070
-611.244	-85.913	-0.195	0.062
-610.230	-200.000	0.006	-0.163
-609.215	103.509	-0.132	-0.158
-608.201	-77.565	-0.233	-0.083
-607.186	129.931	-0.148	0.194
-606.171	-82.849	0.099	-0.033
-605.157	-68.150	-0.133	-0.053
-604.142	-59.948	0.035	0.015
-603.128	-130.861	-0.008	0.001
-602.113	58.920	-0.025	-0.026
-601.098	-151.078	0.342	0.026
-600.084	-200.000	-0.023	0.121
-599.069	-200.000	0.011	-0.091
-598.055	161.096	0.042	0.060
-597.040	111.186	0.124	-0.153
-596.025	-63.404	0.106	-0.045
-595.011	600.928	-0.062	0.158
-593.996	219.733	0.105	-0.172
-592.982	-113.361	0.220	-0.044
-591.967	-124.176	-0.060	-0.010
-590.952	-200.000	-0.029	-0.169
-589.938	-41.897	-0.185	0.097
-588.923	-65.324	-0.127	0.052
-587.909	256.355	0.208	-0.366
-586.894	347.035	-0.058	-0.117
-585.879	-200.000	-0.023	-0.178
-584.865	2.743	-0.232	0.172
-583.850	77.996	0.253	0.276
-582.836	528.973	0.135	0.325
-581.821	-95.523	-0.033	0.009
-580.806	-22.060	-0.194	-0.121
-579.792	4.951	0.095	-0.072
-578.777	-200.000	0.013	0.178
-577.763	-87.422	-0.405	0.125
-576.748	-15.784	-0.111	0.072
-575.733	-113.047	0.331	-0.067
-574.719	-94.215	-0.214	0.060
-573.704	399.008	0.090	0.192
-572.690	-70.271	-0.161	-0.063
-571.675	101.831	0.173	-0.207
-570.661	-68.064	-0.255	-0.102
-569.646	-57.750	-0.121	-0.054
-568.631	-200.000	-0.040	0.314
-567.617	145.601	-0.125	0.171
-566.602	-134.638	0.292	-0.036
-565.588	-200.000	-0.060	-0.309
-564.573	-200.000	0.009	-0.505
-563.558	800.000	0.071	-0.205
-562.544	-77.205	0.218	-0.078
-561.529	246.103	0.154	0.265
-560.515	-129.121	0.309	0.044
-559.500	-128.105	-0.213	-0.031
-558.485	166.486	0.091	0.131
-557.471	-158.737	0.287	-0.017
-556.456	722.754	0.062	-0.170
-555.442	114.455	0.091	-0.113
-554.427	-78.585	0.150	-0.052
-553.412	-18.355	-0.227	0.145
-552.398	628.154	-0.068	-0.176
-551.383	5.141	0.321	0.242
-550.369	-67.454	-0.166	0.067
-549.354	17.963	0.086	0.070
-548.339	-89.717	0.267	0.080
-547.325	244.913	-0.072	0.123
-546.310	-82.219	-0.260	0.087
-545.296	0.832	-0.244	0.178
-544.281	219.493	0.119	0.195
-543.266	245.404	0.037	-0.063
-542.252	-56.864	0.127	-0.057
-541.237	38.474	-0.211	-0.192
-540.223	-122.465	0.136	-0.023
-539.208	684.501	-0.033	0.087
-538.193	-200.000	0.007	-0.085
-537.179	-109.508	0.178	0.038
-536.164	128.883	-0.193	-0.251
-535.150	800.000	0.041	0.162
-534.135	800.000	0.046	-0.206
-533.121	-76.073	-0.175	-0.063
-532.106	-13.669	0.016	0.010
-531.091	271.920	0.203	0.366
-530.077	-107.284	-0.096	0.022
-529.062	-200.000	-0.019	0.243
-528.048	-19.719	0.163	-0.103
-527.033	-200.000	-0.018	0.159
-526.018	-20.664	0.156	0.098
-525.004	168.068	-0.143	-0.208
-523.989	-36.484	-0.204	0.112
-522.975	-22.657	0.214	-0.132
-521.960	244.253	-0.129	-0.221
-520.945	153.933	0.199	-0.279
-519.931	-19.637	0.305	-0.193
-518.916	36.951	-0.074	-0.067
-517.902	-200.000	-0.029	-0.493
-516.887	800.000	0.073	-0.293
-515.872	356.547	0.137	-0.279
-514.858	-102.092	0.040	-0.010
-513.843	226.952	-0.088	0.145
-512.829	-91.289	0.102	-0.030
-511.814	140.713	0.140	0.189
-510.799	-101.354	-0.183	0.045
-509.785	-200.000	0.001	0.379
-508.770	457.941	-0.143	0.324
-507.756	145.531	0.049	-0.066
-506.741	-91.374	0.151	0.044
-505.726	76.828	0.022	0.024
-504.712	-200.000	-0.023	0.376
-503.697	-166.177	-0.348	0.015
-502.683	-11.327	0.197	0.132
-501.668	26.376	-0.162	0.138
-500.653	-197.125	-0.171	-0.001
-499.639	-200.000	-0.009	0.225
-498.624	154.824	0.207	-0.291
-497.610	-25.392	0.280	0.169
-496.595	-62.522	-0.332	0.140
-495.581	-39.372	-0.227	-0.121
-494.566	256.254	0.079	0.138
-493.551	-16.037	-0.306	-0.199
-492.537	94.870	0.083	0.096
-491.522	800.000	-0.055	-0.223
-490.508	-77.019	0.298	0.106
-489.493	-181.633	-0.169	-0.003
-488.478	583.854	-0.027	-0.067
-487.464	85.650	0.148	0.166
-486.449	338.628	0.087	0.173
-485.435	800.000	0.075	0.219
-484.420	-200.000	-0.009	0.152
-483.405	-127.688	0.333	-0.049
-482.391	-151.086	-0.092	0.007
-481.376	141.714	0.150	0.203
-480.362	-182.727	0.173	-0.003
-479.347	-200.000	0.072	-0.396
-478.332	212.007	-0.227	-0.365
-477.318	14.730	-0.226	0.180
-476.303	-157.079	0.312	-0.019
-475.289	103.736	0.169	0.202
-474.274	416.401	0.145	0.315
-473.259	-52.204	-0.083	0.039
-472.245	-71.862	-0.114	-0.043
-471.230	-56.970	0.208	-0.093
-470.216	381.771	-0.214	0.448
-469.201	-176.275	-0.198	-0.005
-468.186	800.000	0.088	-0.263
-467.172	101.039	-0.267	0.317
-466.157	-166.412	0.102	0.004
-465.143	-64.719	-0.114	0.047
-464.128	-44.373	-0.122	0.062
-463.113	-200.000	0.049	0.248
-462.099	-200.000	0.056	0.268
-461.084	-200.000	-0.014	-0.270
-460.070	153.983	-0.239	-0.334
-459.055	800.000	-0.097	-0.291
-458.040	800.000	-0.068	0.204
-457.026	5.329	0.311	-0.233
-456.011	502.724	-0.069	-0.162
-454.997	-97.778	0.038	-0.010
-453.982	800.000	0.020	-0.065
-452.968	-200.000	-0.081	0.000
-451.953	-41.111	-0.048	-0.025
-450.938	-11.539	0.264	0.177
-449.924	9.803	-0.282	-0.218
-448.909	91.228	-0.140	0.160
-447.895	527.436	0.059	0.143
-446.880	-117.502	0.187	-0.034
-445.865	-73.599	-0.202	-0.075
-444.851	-200.000	0.030	-0.134
-443.836	169.787	0.155	0.226
-442.822	-29.117	0.410	0.239
-441.807	-106.744	-0.164	-0.037
-440.792	106.008	-0.254	0.306
-439.778	427.339	-0.038	0.083
-438.763	-69.556	-0.293	0.114
-437.749	-148.231	-0.245	0.021
-436.734	-197.762	-0.228	-0.001
-435.719	-200.000	0.006	0.036
-434.705	98.876	-0.126	-0.148
-433.690	-51.422	0.135	0.064
-432.676	-122.380	-0.091	-0.015
-431.661	-67.625	-0.280	0.111
-430.646	119.891	0.058	0.073
-429.632	29.314	-0.354	-0.306
-428.617	-142.570	-0.219	0.022
-427.603	-200.000	0.026	-0.178
-426.588	-65.834	0.086	-0.035
-425.573	259.617	0.055	-0.097
-424.559	-122.472	0.227	0.038
-423.544	-26.587	-0.217	0.129
-422.530	-177.705	-0.280	-0.007
-421.515	-95.264	-0.253	0.069
-420.500	-69.813	0.407	-0.158
-419.486	15.463	0.216	0.173
-418.471	800.000	-0.041	-0.157
-417.457	399.691	-0.204	0.434
-416.442	90.950	0.053	-0.061
-415.428	-120.287	0.197	-0.034
-414.413	24.057	0.212	0.178
-413.398	186.374	-0.139	-0.210
-412.384	292.045	-0.134	-0.247
-411.369	328.710	0.172	0.337
-410.355	-114.952	-0.074	-0.014
-409.340	800.000	0.036	0.101
-408.325	-89.476	-0.009	-0.003
-407.311	800.000	-0.035	-0.123
-406.296	-165.673	0.194	0.009
-405.282	-200.000	-0.055	-0.336
-404.267	208.955	-0.189	0.301
-403.252	8.035	-0.039	-0.030
-402.238	375.777	0.111	0.230
-401.223	203.226	0.044	0.069
-400.209	150.997	-0.276	-0.382
-399.194	-59.217	0.087	0.038
-398.179	-45.568	-0.102	-0.051
-397.165	97.308	0.117	-0.136
-396.150	10.360	0.093	0.072
-395.136	-81.692	0.107	-0.036
-394.121	-11.566	-0.178	-0.119
-393.106	-45.691	-0.440	-0.221
-392.092	-200.000	-0.001	0.105
-391.077	-120.457	0.063	0.011
-390.063	609.527	-0.104	0.263
-389.048	-200.000	-0.014	0.185
-388.033	800.000	0.017	0.062
-387.019	-80.061	-0.152	-0.052
-386.004	800.000	0.029	0.127
-384.990	739.053	-0.100	0.271
-383.975	-44.736	-0.144	-0.073
-382.960	483.705	-0.075	0.172
-381.946	-11.262	-0.177	0.119
-380.931	800.000	0.043	-0.190
-379.917	-200.000	-0.011	0.146
-378.902	80.377	0.234	-0.256
-377.888	-181.505	0.161	0.003
-376.873	512.070	-0.045	0.106
-375.858	-17.857	-0.351	-0.223
-374.844	-111.230	0.147	0.031
-373.829	800.000	0.055	0.174
-372.815	-200.000	-0.045	-0.362
-371.800	258.264	0.095	-0.165
-370.785	-3.006	0.127	0.090
-369.771	48.475	-0.118	0.112
-368.756	-200.000	-0.051	0.000
-367.742	18.221	-0.137	-0.111
-366.727	-200.000	-0.003	-0.079
-365.712	-33.186	0.151	0.085
-364.698	-200.000	-0.041	-0.283
-363.683	-200.000	-0.009	0.270
-362.669	-127.498	0.319	0.047
-361.654	-200.000	-0.003	0.351
-360.639	316.388	-0.032	-0.061
-359.625	800.000	0.047	0.134
-358.610	116.078	-0.244	0.303
-357.596	183.753	-0.163	-0.245
-356.581	-200.000	0.051	-0.303
-355.566	800.000	0.057	-0.167
-354.552	-92.541	0.292	-0.083
-353.537	16.134	0.227	-0.182
-352.523	156.022	-0.088	0.122
-351.508	-69.094	0.043	0.017
-350.493	-200.000	0.042	0.336
-349.479	-200.000	-0.031	-0.159
-348.464	-112.528	0.299	-0.060
-347.450	276.937	-0.167	0.301
-346.435	-124.768	0.241	-0.038
-345.420	-120.757	0.146	-0.025
-344.406	-30.737	-0.348	-0.200
-343.391	-35.428	-0.108	-0.060
-342.377	-46.860	0.044	-0.022
-341.362	76.225	0.189	0.203
-340.348	-92.630	-0.277	-0.079
-339.333	-158.457	-0.236	-0.014
-338.318	-173.251	0.237	0.007
-337.304	316.827	0.139	0.267
-336.289	800.000	0.056	0.203
-335.275	-200.000	0.003	0.192
-334.260	605.089	-0.047	0.120
-333.245	228.120	0.161	0.265
-332.231	144.753	-0.225	-0.304
-331.216	40.671	-0.122	-0.112
-330.202	2.642	0.053	0.039
-329.187	255.810	0.128	0.222
-328.172	-21.982	-0.266	0.164
-327.158	-65.971	-0.264	-0.107
-326.143	800.000	-0.043	0.156
-325.129	66.134	0.117	0.121
-324.114	86.006	0.222	-0.247
-323.099	-35.540	-0.205	-0.113
-322.085	199.935	-0.084	0.130
-321.070	211.767	0.066	-0.105
-320.056	-140.863	0.156	-0.016
-319.041	80.739	0.147	-0.161
-318.026	-145.399	-0.259	-0.024
-317.012	-20.179	0.290	0.181
-315.997	237.870	-0.089	0.150
-314.983	-128.366	-0.272	0.039
-313.968	502.701	0.054	0.127
-312.953	-53.294	0.125	0.058
-311.939	190.303	-0.114	0.174
-310.924	-50.123	-0.053	0.026
-309.910	202.461	-0.030	-0.046
-308.895	-200.000	-0.014	-0.215
-307.880	-200.000	0.024	-0.173
-306.866	-149.559	-0.088	0.007
-305.851	120.382	-0.070	0.088
-304.837	168.439	0.153	-0.221
-303.822	-147.475	0.269	0.023
-302.807	800.000	-0.032	-0.121
-301.793	-113.717	0.368	0.073
-300.778	95.314	0.117	0.135
-299.764	231.719	0.073	-0.122
-298.749	-116.640	0.070	0.013
-297.735	-174.081	0.218	0.006
-296.720	96.575	0.256	-0.296
-295.705	157.852	0.129	0.180
-294.691	-140.468	0.600	-0.063
-293.676	-200.000	0.027	-0.204
-292.662	-156.803	-0.111	0.007
-291.647	467.062	-0.104	-0.235
-290.632	467.283	0.121	0.275
-289.618	37.914	0.041	0.037
-288.603	-66.363	0.186	-0.075
-287.589	-200.000	0.055	-0.270
-286.574	692.293	-0.079	0.208
-285.559	549.575	0.029	-0.070
-284.545	747.882	0.095	-0.260
-283.530	-145.919	0.429	-0.038
-282.516	363.954	0.102	-0.207
-281.501	-17.278	-0.102	-0.065
-280.486	-109.638	-0.324	0.069
-279.472	-200.000	0.001	0.064
-278.457	-200.000	0.011	0.084
-277.443	102.267	0.084	0.099
-276.428	181.486	-0.144	-0.214
-275.413	-35.485	0.136	-0.075
-274.399	800.000	-0.075	0.272
-273.384	800.000	0.060	-0.208
-272.370	54.472	-0.173	-0.169
-271.355	-200.000	-0.000	-0.159
-270.340	461.445	0.033	0.074
-269.326	-37.434	-0.290	-0.156
-268.311	74.607	-0.091	-0.096
-267.297	-193.999	0.326	0.003
-266.282	100.952	-0.015	0.018
-265.267	-200.000	0.008	0.144
-264.253	-121.644	-0.076	0.013
-263.238	255.849	0.092	0.159
-262.224	-63.760	-0.318	0.132
-261.209	-81.191	-0.329	-0.110
-260.195	800.000	-0.053	0.177
-259.180	-53.483	0.148	0.068
-258.165	26.607	-0.228	-0.193
-257.151	-172.417	0.214	0.007
-256.136	189.280	0.137	-0.207
-255.122	10.497	0.167	0.129
-254.107	139.737	-0.037	-0.049
-253.092	-72.299	0.105	-0.039
-252.078	-104.425	-0.161	0.038
-251.063	800.000	-0.024	-0.097
-250.049	-23.883	0.027	0.016
-249.034	-143.226	0.222	-0.022
-248.019	736.647	0.014	0.037
-247.005	14.824	-0.147	0.116
-245.990	72.129	-0.163	0.172
-244.976	-74.410	0.097	-0.035
-243.961	-200.000	-0.006	0.178
-242.946	448.938	0.118	0.262
-241.932	-159.571	0.263	0.015
-240.917	91.313	-0.276	-0.313
-239.903	-200.000	-0.009	-0.191
-238.888	262.014	-0.184	0.321
-237.873	-51.544	0.393	-0.185
-236.859	92.046	-0.213	0.242
-235.844	800.000	-0.040	-0.154
-234.830	-107.159	-0.272	0.061
-233.815	-200.000	0.038	-0.177
-232.800	-88.109	-0.079	0.024
-231.786	-105.707	0.163	-0.037
-230.771	-200.000	0.040	-0.231
-229.757	150.995	-0.101	0.139
-228.742	62.636	0.232	-0.234
-227.727	-116.444	0.338	0.063
-226.713	-1.868	0.335	-0.238
-225.698	233.437	-0.151	-0.252
-224.684	352.015	-0.040	0.080
-223.669	12.761	0.202	0.158
-222.655	139.196	0.025	0.034
-221.640	-85.739	0.065	-0.020
-220.625	-69.352	-0.252	-0.098
-219.611	-200.000	-0.075	0.572
-218.596	800.000	0.071	-0.227
-217.582	800.000	-0.055	0.178
-216.567	179.090	0.090	-0.132
-215.552	800.000	0.070	-0.243
-214.538	529.368	-0.043	0.103
-213.523	-1.497	0.274	-0.195
-212.509	41.679	0.054	0.049
-211.494	-200.000	0.070	0.309
-210.479	133.105	0.302	0.394
-209.465	-200.000	-0.020	0.242
-208.450	-163.729	-0.324	-0.015
-207.436	402.853	0.084	0.178
-206.421	-14.613	-0.220	0.143
-205.406	-162.096	0.183	0.009
-204.392	-200.000	0.011	-0.064
-203.377	267.732	0.022	0.039
-202.363	751.234	0.071	0.192
-201.348	-140.056	-0.263	0.028
-200.333	12.824	0.147	-0.115
-199.319	-200.000	0.037	-0.228
-198.304	-16.039	0.038	0.025
-197.290	601.630	0.116	0.292
-196.275	14.213	-0.238	-0.187
-195.260	-200.000	-0.075	-0.427
-194.246	-200.000	-0.008	0.286
-193.231	-58.476	0.228	0.100
-192.217	800.000	0.080	-0.295
-191.202	-117.296	0.202	0.037
-190.187	-159.079	-0.254	0.014
-189.173	-163.316	-0.229	0.011
-188.158	-38.943	0.103	-0.054
-187.144	89.709	-0.135	-0.152
-186.129	-200.000	-0.008	-0.071
-185.114	11.285	0.361	-0.278
-184.100	-200.000	0.010	0.057
-183.085	10.207	-0.502	-0.384
-182.071	45.059	-0.132	-0.122
-181.056	-200.000	0.030	-0.370
-180.042	53.526	-0.184	-0.178
-179.027	46.454	0.096	0.090
-178.012	-139.601	0.231	-0.025
-176.998	67.503	-0.197	-0.203
-175.983	-33.217	-0.138	0.077
-174.969	-115.084	-0.235	0.045
-173.954	-90.692	0.108	0.031
-172.939	2.588	-0.227	0.165
-171.925	-200.000	0.010	0.161
-170.910	297.025	-0.171	-0.316
-169.896	39.424	-0.148	-0.133
-168.881	155.228	-0.142	-0.197
-167.866	78.048	-0.297	-0.319
-166.852	-183.602	0.330	0.006
-165.837	-200.000	-0.044	-0.348
-164.823	344.276	0.064	-0.126
-163.808	38.901	0.178	0.160
-162.793	800.000	0.064	-0.227
-161.779	-88.454	-0.255	0.077
-160.764	-49.999	-0.214	0.102
-159.750	-200.000	-0.033	0.146
-158.735	-200.000	-0.039	-0.389
-157.720	25.997	0.132	-0.111
-156.706	284.305	0.174	0.316
-155.691	115.903	0.051	-0.062
-154.677	12.146	-0.099	0.077
-153.662	37.929	0.346	0.309
-152.647	800.000	-0.063	-0.211
-151.633	39.441	-0.362	-0.326
-150.618	-200.000	0.011	-0.335
-149.604	25.461	0.047	0.040
-148.589	49.108	-0.144	-0.136
-147.574	-18.736	0.198	-0.124
-146.560	-28.800	-0.422	0.244
-145.545	480.978	-0.048	-0.109
-144.531	800.000	-0.050	0.217
-143.516	4.240	-0.214	-0.158
-142.502	285.115	0.175	0.317
-141.487	800.000	0.101	0.326
-140.472	116.364	0.015	-0.018
-139.458	209.530	0.173	-0.273
-138.443	9.768	0.124	-0.094
-137.429	-68.267	0.278	0.109
-136.414	-200.000	0.014	-0.087
-135.399	275.585	0.249	0.445
-134.385	-64.782	0.538	-0.219
-133.370	106.244	0.189	-0.225
-132.356	175.707	-0.252	0.367
-131.341	12.809	-0.295	0.229
-130.326	-49.707	-0.128	0.061
-129.312	13.589	-0.106	-0.083
-128.297	-35.191	0.192	-0.105
-127.283	-200.000	-0.040	0.556
-126.268	-90.270	0.511	0.149
-125.253	98.020	0.214	-0.247
-124.239	-93.474	0.082	-0.023
-123.224	800.000	-0.043	0.127
-122.210	-50.140	-0.312	0.149
-121.195	660.747	0.148	-0.384
