DTS Sentinel unit serial number:	SN413079Multiplexer serial number:	ORYXHardware model number:	OX4-SRSoftware version number:	ORYX F/W v4.00 Oryx Data Collector v3.7.2.0data status	okinstallation	princeton_trtdifferential loss correction	single-endedforward channel	channel 4reverse channel	N/Adate	2019/09/10time	18:55:10forward acquisition time	60.00reverse acquisition time	0.00gamma	496.2192k internal	0.2305k external	0.2305temperature offset calibration	0.9938default loss term (dB/km)	0.3790temperature slope calibration	1.0000multiplexer offset coefficient	1.0000multiplexer slope coefficient	1.0000fibre end	0.00T internal ref (°C)	34.80T ext. ref 1 (°C)	-0.44T ext. ref 2 (°C)	26.94length (m)	temperature (°C)	Stokes	anti-Stokes-747.200	-49.091	0.181	0.088
-746.185	87.619	-0.222	0.250
-745.171	-34.869	0.227	-0.126
-744.156	226.768	-0.199	0.329
-743.142	-200.000	0.003	-0.219
-742.127	-143.395	-0.265	-0.026
-741.112	242.356	0.245	0.418
-740.098	0.045	-0.182	0.132
-739.083	205.052	0.141	-0.223
-738.069	54.444	-0.142	0.139
-737.054	125.184	0.152	-0.195
-736.039	-33.351	0.089	0.050
-735.025	9.651	0.147	0.113
-734.010	-132.816	-0.349	0.045
-732.996	-93.100	-0.172	0.049
-731.981	351.643	-0.080	0.160
-730.966	110.597	-0.110	-0.134
-729.952	18.770	-0.221	-0.180
-728.937	0.533	-0.170	-0.123
-727.923	38.086	-0.078	0.070
-726.908	46.775	-0.136	0.128
-725.894	800.000	0.042	0.176
-724.879	-200.000	0.000	-0.021
-723.864	198.983	-0.129	-0.200
-722.850	692.351	0.113	0.300
-721.835	296.016	-0.088	-0.165
-720.821	693.092	0.148	-0.396
-719.806	225.185	0.190	-0.313
-718.791	44.892	-0.101	-0.094
-717.777	-116.082	-0.118	0.022
-716.762	800.000	0.041	-0.160
-715.748	-89.600	0.292	0.087
-714.733	53.452	-0.264	-0.257
-713.718	-200.000	-0.054	-0.263
-712.704	155.613	0.118	-0.166
-711.689	31.442	0.078	-0.068
-710.675	74.665	0.065	-0.069
-709.660	-88.951	0.168	-0.051
-708.645	232.408	0.055	0.091
-707.631	-179.819	-0.253	-0.006
-706.616	582.731	0.057	-0.141
-705.602	-41.152	0.394	0.207
-704.587	-84.973	-0.082	0.026
-703.572	-176.263	-0.214	-0.006
-702.558	-93.978	0.148	-0.041
-701.543	194.390	-0.035	0.054
-700.529	117.260	-0.077	0.096
-699.514	-126.227	-0.457	0.069
-698.499	2.272	-0.178	-0.131
-697.485	-110.480	-0.144	-0.030
-696.470	-107.697	0.289	-0.064
-695.456	-37.485	0.130	-0.071
-694.441	47.092	-0.134	-0.127
-693.426	-74.338	0.314	-0.115
-692.412	-113.125	-0.233	0.047
-691.397	-137.303	-0.033	0.004
-690.383	-32.546	-0.095	-0.054
-689.368	14.302	-0.331	0.262
-688.354	-115.342	-0.410	-0.079
-687.339	800.000	0.046	-0.140
-686.324	261.769	0.045	-0.080
-685.310	-183.095	-0.219	0.004
-684.295	424.050	0.042	-0.091
-683.281	109.974	-0.048	0.059
-682.266	-200.000	-0.089	0.405
-681.251	-128.362	0.204	0.029
-680.237	-70.398	-0.102	-0.039
-679.222	-52.516	-0.148	0.069
-678.208	453.050	0.064	-0.143
-677.193	800.000	0.042	-0.139
-676.178	-1.756	0.068	-0.049
-675.164	-48.534	0.302	0.148
-674.149	72.033	-0.070	0.074
-673.135	-23.114	-0.214	-0.131
-672.120	-80.533	-0.234	-0.079
-671.105	-66.103	-0.050	-0.020
-670.091	-69.334	-0.487	0.190
-669.076	343.748	0.043	-0.085
-668.062	141.979	-0.003	0.004
-667.047	10.445	-0.159	0.123
-666.032	-102.164	-0.282	-0.069
-665.018	-200.000	0.055	-0.340
-664.003	172.201	-0.185	-0.271
-662.989	-200.000	0.048	-0.388
-661.974	-200.000	-0.031	-0.285
-660.959	-200.000	0.039	-0.355
-659.945	-200.000	-0.027	-0.125
-658.930	-29.660	0.083	-0.048
-657.916	205.693	-0.071	-0.112
-656.901	-31.999	-0.153	0.087
-655.886	722.292	-0.049	-0.132
-654.872	-158.420	-0.299	0.018
-653.857	-200.000	0.039	-0.205
-652.843	-200.000	-0.026	-0.130
-651.828	-200.000	0.024	0.328
-650.814	272.203	-0.047	-0.083
-649.799	308.488	-0.018	-0.033
-648.784	-200.000	-0.021	-0.177
-647.770	-149.530	-0.309	0.025
-646.755	360.014	-0.064	-0.130
-645.741	-118.370	-0.026	0.005
-644.726	-90.673	0.066	0.019
-643.711	-104.158	0.251	-0.059
-642.697	-85.309	-0.048	0.015
-641.682	-13.450	0.267	0.176
-640.668	194.480	0.093	-0.142
-639.653	-35.755	0.082	0.045
-638.638	-167.561	-0.098	0.004
-637.624	-96.308	-0.168	0.045
-636.609	72.490	-0.107	-0.113
-635.595	-200.000	0.034	0.323
-634.580	800.000	-0.082	-0.233
-633.565	322.813	-0.008	0.015
-632.551	800.000	-0.047	-0.151
-631.536	598.920	-0.098	0.246
-630.522	800.000	0.068	0.262
-629.507	-4.278	-0.167	0.117
-628.492	-35.890	0.273	-0.149
-627.478	-200.000	0.003	-0.107
-626.463	-68.773	-0.155	0.061
-625.449	800.000	-0.119	0.384
-624.434	-25.616	-0.247	-0.148
-623.419	-200.000	-0.010	0.159
-622.405	312.252	-0.218	0.414
-621.390	-166.073	0.186	-0.008
-620.376	33.389	-0.268	-0.236
-619.361	329.288	-0.212	-0.413
-618.346	-5.724	0.212	-0.147
-617.332	-0.035	-0.048	-0.035
-616.317	-95.091	-0.330	0.090
-615.303	-3.220	0.237	-0.167
-614.288	-200.000	-0.014	-0.204
-613.273	22.548	0.175	-0.145
-612.259	93.425	-0.127	-0.145
-611.244	186.352	0.137	-0.206
-610.230	-45.419	0.072	-0.036
-609.215	-65.328	0.170	0.069
-608.201	800.000	0.021	-0.078
-607.186	60.022	-0.181	-0.181
-606.171	-58.463	0.069	-0.030
-605.157	-200.000	0.009	-0.088
-604.142	-32.075	0.316	-0.179
-603.128	-103.125	-0.294	-0.070
-602.113	-200.000	0.001	-0.302
-601.098	87.432	0.124	-0.139
-600.084	800.000	-0.090	-0.377
-599.069	800.000	0.016	0.050
-598.055	-200.000	0.003	-0.350
-597.040	160.226	-0.151	-0.213
-596.025	159.711	-0.021	-0.029
-595.011	-4.198	-0.135	0.095
-593.996	652.370	-0.077	-0.200
-592.982	-46.474	0.038	-0.019
-591.967	-200.000	0.002	0.043
-590.952	-13.044	-0.101	0.066
-589.938	-200.000	-0.039	0.218
-588.923	120.201	0.228	0.286
-587.909	-200.000	-0.006	0.183
-586.894	217.515	0.032	-0.052
-585.879	-114.730	-0.362	0.070
-584.865	-200.000	0.022	-0.164
-583.850	-85.010	0.169	-0.054
-582.836	674.996	-0.057	0.150
-581.821	-128.501	-0.313	-0.045
-580.806	-7.282	0.517	-0.355
-579.792	112.298	-0.233	0.285
-578.777	-200.000	0.073	-0.328
-577.763	57.190	-0.234	-0.230
-576.748	-149.548	-0.135	-0.011
-575.733	591.276	-0.112	0.280
-574.719	95.189	-0.064	0.074
-573.704	22.802	0.032	-0.027
-572.690	800.000	0.075	-0.221
-571.675	800.000	-0.030	-0.114
-570.661	-85.304	-0.126	0.040
-569.646	-200.000	-0.043	-0.224
-568.631	384.715	-0.084	0.175
-567.617	800.000	-0.073	0.317
-566.602	-128.530	0.076	0.011
-565.588	-49.121	0.144	-0.069
-564.573	-200.000	0.018	-0.088
-563.558	-16.834	-0.164	-0.105
-562.544	604.271	0.036	-0.090
-561.529	-137.519	-0.194	0.022
-560.515	800.000	-0.091	0.322
-559.500	-30.895	-0.153	-0.087
-558.485	75.854	0.226	0.242
-557.471	88.678	0.077	0.086
-556.456	-18.663	-0.100	-0.063
-555.442	-158.047	0.301	0.018
-554.427	-200.000	-0.032	0.149
-553.412	-114.916	0.290	0.056
-552.398	87.931	0.162	-0.181
-551.383	-104.020	0.345	-0.081
-550.369	-200.000	0.043	0.291
-549.354	800.000	-0.071	0.203
-548.339	-78.135	0.252	-0.087
-547.325	-97.769	0.077	-0.020
-546.310	117.609	0.142	-0.177
-545.296	-200.000	0.011	-0.057
-544.281	44.303	-0.151	0.140
-543.266	-200.000	-0.016	-0.141
-542.252	-126.236	0.477	-0.072
-541.237	-58.922	0.202	-0.088
-540.223	774.396	0.052	-0.144
-539.208	95.977	0.095	0.109
-538.193	-116.362	-0.140	0.026
-537.179	158.325	0.288	0.404
-536.164	-48.838	0.253	-0.123
-535.150	4.960	0.180	0.134
-534.135	308.668	-0.053	-0.099
-533.121	158.493	0.255	-0.357
-532.106	800.000	0.026	0.076
-531.091	-39.647	0.121	-0.064
-530.077	633.138	0.079	0.201
-529.062	37.466	-0.199	-0.179
-528.048	-87.464	0.163	0.050
-527.033	-73.141	-0.301	-0.112
-526.018	-5.064	-0.205	0.142
-525.004	125.281	0.052	-0.066
-523.989	487.519	0.091	-0.210
-522.975	-200.000	0.047	0.245
-521.960	374.500	-0.210	-0.432
-520.945	-149.122	-0.195	-0.016
-519.931	70.886	0.116	-0.121
-518.916	-111.155	-0.283	-0.058
-517.902	202.629	-0.142	0.221
-516.887	-57.350	0.307	0.136
-515.872	-109.497	0.125	0.027
-514.858	800.000	-0.057	-0.183
-513.843	-63.157	0.216	-0.090
-512.829	-81.095	0.315	0.105
-511.814	-123.201	0.119	-0.019
-510.799	-22.704	-0.073	0.045
-509.785	-81.404	-0.197	0.066
-508.770	-200.000	0.007	0.037
-507.756	800.000	0.105	-0.314
-506.741	-200.000	-0.012	0.061
-505.726	800.000	-0.080	-0.325
-504.712	800.000	0.053	-0.228
-503.697	-147.903	-0.106	-0.009
-502.683	-52.918	-0.205	0.095
-501.668	-115.470	-0.244	0.046
-500.653	-29.691	-0.146	0.084
-499.639	374.578	0.113	0.231
-498.624	-152.919	0.211	0.015
-497.610	-72.287	0.207	0.077
-496.595	-200.000	-0.051	0.254
-495.581	158.346	0.017	-0.024
-494.566	-11.433	0.123	0.082
-493.551	-200.000	0.052	0.249
-492.537	54.959	-0.115	0.112
-491.522	58.991	0.236	-0.234
-490.508	3.148	-0.164	0.120
-489.493	800.000	-0.088	0.288
-488.478	787.882	-0.158	0.436
-487.464	26.605	-0.180	-0.152
-486.449	-125.722	-0.379	0.058
-485.435	121.002	-0.051	-0.063
-484.420	68.430	0.210	-0.217
-483.405	-170.213	-0.246	0.009
-482.391	532.069	-0.043	-0.102
-481.376	-10.824	-0.100	0.067
-480.362	-10.517	0.345	0.230
-479.347	-0.191	0.335	0.240
-478.332	-15.480	0.496	-0.319
-477.318	-122.613	-0.299	-0.049
-476.303	108.187	-0.069	0.083
-475.289	255.485	0.124	-0.214
-474.274	44.662	0.133	-0.123
-473.259	-200.000	0.009	-0.415
-472.245	6.619	-0.378	-0.283
-471.230	-154.529	0.062	-0.004
-470.216	-38.884	-0.134	-0.071
-469.201	-77.614	-0.283	0.099
-468.186	72.592	-0.069	0.072
-467.172	1.267	0.334	0.241
-466.157	673.591	-0.173	0.453
-465.143	-200.000	-0.010	0.270
-464.128	-168.929	0.038	0.001
-463.113	-110.655	0.266	-0.055
-462.099	-200.000	-0.037	0.218
-461.084	800.000	0.076	0.239
-460.070	-60.764	-0.145	-0.062
-459.055	181.795	0.016	0.024
-458.040	-91.924	-0.294	-0.084
-457.026	655.591	-0.023	-0.059
-456.011	-8.080	-0.280	-0.190
-454.997	-105.212	-0.070	-0.016
-453.982	-0.584	-0.193	-0.138
-452.968	-200.000	0.000	0.157
-451.953	-149.434	-0.389	0.031
-450.938	-70.465	-0.114	0.044
-449.924	-200.000	-0.028	0.185
-448.909	-123.297	0.204	0.033
-447.895	-59.918	0.070	-0.030
-446.880	800.000	-0.036	0.117
-445.865	229.156	-0.238	0.391
-444.851	793.715	-0.046	-0.126
-443.836	124.164	0.127	-0.160
-442.822	-3.212	-0.174	-0.122
-441.807	283.502	0.177	0.320
-440.792	-111.426	0.055	-0.011
-439.778	237.828	0.078	-0.130
-438.763	-59.730	-0.284	-0.122
-437.749	108.578	0.090	-0.109
-436.734	27.261	0.167	0.141
-435.719	-114.817	-0.210	-0.040
-434.705	-19.303	-0.089	-0.055
-433.690	-200.000	-0.042	0.194
-432.676	-27.231	0.065	-0.038
-431.661	-87.702	-0.335	-0.102
-430.646	135.251	0.248	0.324
-429.632	89.943	-0.190	-0.213
-428.617	-112.739	0.207	0.041
-427.603	-200.000	-0.002	0.093
-426.588	279.609	0.105	-0.189
-425.573	-161.526	-0.246	0.013
-424.559	-54.049	0.177	-0.081
-423.544	-115.273	0.370	-0.070
-422.530	-200.000	0.012	-0.332
-421.515	800.000	0.138	-0.394
-420.500	-27.167	-0.164	-0.096
-419.486	-200.000	-0.004	-0.297
-418.471	-17.558	0.352	0.222
-417.457	168.129	0.124	0.178
-416.442	800.000	-0.046	0.194
-415.428	127.382	0.202	-0.258
-414.413	-190.223	-0.173	-0.002
-413.398	193.550	0.041	0.062
-412.384	-197.014	-0.113	-0.001
-411.369	-44.620	0.133	0.067
-410.355	-8.133	-0.190	0.129
-409.340	-200.000	0.013	0.226
-408.325	-86.799	-0.211	-0.065
-407.311	-200.000	-0.127	0.692
-406.296	-65.683	-0.296	-0.119
-405.282	610.634	0.069	0.174
-404.267	26.341	-0.184	-0.155
-403.252	800.000	-0.053	0.176
-402.238	-92.993	0.214	-0.060
-401.223	-116.766	0.275	-0.051
-400.209	331.867	-0.131	-0.253
-399.194	80.951	0.141	-0.153
-398.179	-47.232	-0.370	0.181
-397.165	-200.000	-0.034	-0.156
-396.150	281.333	-0.080	-0.143
-395.136	763.295	0.086	-0.235
-394.121	73.003	0.215	0.226
-393.106	-97.023	0.135	0.035
-392.092	178.269	-0.026	-0.038
-391.077	312.622	0.076	0.144
-390.063	-56.853	0.231	0.102
-389.048	-145.368	0.176	-0.016
-388.033	-42.027	0.092	-0.047
-387.019	-164.133	0.012	0.001
-386.004	800.000	0.056	0.173
-384.990	-80.282	-0.183	0.061
-383.975	317.522	-0.067	-0.127
-382.960	-170.762	0.243	0.008
-381.946	-39.017	-0.260	0.137
-380.931	88.998	-0.177	0.198
-379.917	-200.000	-0.002	-0.187
-378.902	-200.000	-0.084	0.391
-377.888	-134.177	-0.270	-0.033
-376.873	12.008	0.258	-0.199
-375.858	527.591	0.064	-0.152
-374.844	174.249	-0.161	-0.234
-373.829	5.090	-0.216	-0.160
-372.815	-200.000	-0.016	0.242
-371.800	-149.520	-0.390	-0.031
-370.785	-47.347	-0.155	-0.076
-369.771	-152.820	0.002	-0.000
-368.756	308.882	0.128	0.239
-367.742	-110.792	0.257	-0.053
-366.727	800.000	0.139	0.472
-365.712	-43.285	0.112	-0.057
-364.698	-132.993	-0.170	-0.022
-363.683	78.230	-0.151	0.161
-362.669	-37.505	-0.125	0.067
-361.654	-41.965	0.170	0.087
-360.639	-200.000	-0.010	-0.108
-359.625	86.605	-0.226	0.250
-358.610	146.221	-0.143	-0.192
-357.596	-200.000	-0.060	0.341
-356.581	30.876	0.197	0.169
-355.566	800.000	-0.071	0.257
-354.552	338.825	0.137	0.267
-353.537	677.564	0.089	0.232
-352.523	433.419	0.103	0.224
-351.508	-38.144	0.300	0.160
-350.493	233.280	0.037	-0.061
-349.479	-150.310	-0.065	-0.005
-348.464	-80.191	0.356	0.120
-347.450	-56.050	0.157	-0.070
-346.435	-200.000	0.044	-0.362
-345.420	527.776	0.073	-0.172
-344.406	800.000	0.087	-0.303
-343.391	-47.163	0.232	-0.113
-342.377	-200.000	0.021	0.159
-341.362	-195.997	-0.147	0.001
-340.348	-200.000	0.058	0.270
-339.333	-75.394	-0.172	0.062
-338.318	-71.679	-0.092	-0.034
-337.304	73.818	-0.249	0.262
-336.289	-130.956	0.031	-0.004
-335.275	-9.173	0.087	0.058
-334.260	-200.000	-0.009	-0.153
-333.245	12.469	0.264	0.204
-332.231	-200.000	0.004	0.442
-331.216	-200.000	-0.012	-0.258
-330.202	-162.879	-0.044	-0.002
-329.187	203.882	-0.071	0.111
-328.172	-60.378	-0.097	-0.041
-327.158	-1.951	0.176	-0.124
-326.143	-76.715	-0.218	0.077
-325.129	-200.000	0.043	-0.200
-324.114	-38.835	-0.123	-0.065
-323.099	-97.906	-0.291	0.075
-322.085	-200.000	0.016	0.166
-321.070	-107.468	-0.070	0.015
-320.056	-7.745	0.335	-0.226
-319.041	-19.816	-0.178	0.110
-318.026	529.909	-0.116	-0.275
-317.012	-130.519	0.266	0.036
-315.997	-200.000	0.021	-0.134
-314.983	62.354	-0.096	-0.096
-313.968	-29.603	-0.083	0.047
-312.953	800.000	0.042	0.156
-311.939	-91.862	0.292	-0.083
-310.924	288.863	-0.098	0.177
-309.910	-106.476	-0.075	0.017
-308.895	58.864	0.098	-0.096
-307.880	338.336	-0.012	-0.024
-306.866	-11.303	0.159	-0.104
-305.851	127.352	-0.105	0.133
-304.837	743.356	-0.112	-0.302
-303.822	-200.000	0.040	0.198
-302.807	-200.000	-0.025	-0.163
-301.793	-103.501	-0.430	-0.101
-300.778	-26.079	0.119	-0.070
-299.764	800.000	0.046	-0.180
-298.749	-93.382	-0.341	-0.095
-297.735	-84.747	0.304	-0.096
-296.720	-23.842	-0.141	-0.084
-295.705	-127.440	0.283	-0.041
-294.691	304.841	-0.206	0.383
-293.676	-200.000	-0.002	0.286
-292.662	-200.000	-0.048	0.229
-291.647	-122.788	0.228	0.037
-290.632	800.000	-0.033	0.135
-289.618	32.684	0.325	-0.281
-288.603	293.265	-0.099	-0.180
-287.589	78.583	0.195	-0.209
-286.574	22.316	-0.154	-0.126
-285.559	-99.857	-0.082	-0.021
-284.545	-200.000	-0.026	-0.143
-283.530	-44.955	-0.250	0.125
-282.516	-183.059	-0.075	0.001
-281.501	-144.030	0.174	-0.016
-280.486	87.056	0.066	-0.072
-279.472	-146.948	0.192	-0.017
-278.457	800.000	-0.055	0.205
-277.443	-200.000	0.002	-0.138
-276.428	303.383	-0.101	-0.187
-275.413	738.186	-0.056	-0.150
-274.399	-110.487	0.099	-0.020
-273.384	-200.000	-0.045	-0.280
-272.370	658.712	0.049	-0.125
-271.355	-200.000	0.039	-0.226
-270.340	-200.000	-0.008	0.046
-269.326	-65.157	-0.175	-0.071
-268.311	-74.800	-0.295	-0.106
-267.297	197.132	0.162	-0.246
-266.282	-200.000	0.001	0.129
-265.267	-110.096	0.325	0.068
-264.253	-200.000	-0.037	0.175
-263.238	214.637	0.120	0.190
-262.224	203.248	0.145	0.223
-261.209	-200.000	-0.006	0.237
-260.195	-200.000	-0.059	-0.300
-259.180	29.634	-0.207	0.176
-258.165	195.519	0.078	0.119
-257.151	99.903	0.065	0.075
-256.136	-200.000	0.022	-0.381
-255.122	99.094	0.182	0.210
-254.107	800.000	0.079	-0.258
-253.092	-83.845	0.201	-0.064
-252.078	-22.538	-0.318	-0.192
-251.063	-140.020	-0.254	0.027
-250.049	98.876	0.131	0.151
-249.034	29.605	0.035	-0.030
-248.019	800.000	-0.035	0.108
-247.005	-200.000	-0.002	0.080
-245.990	-79.155	-0.069	0.023
-244.976	-200.000	0.007	0.154
-243.961	-83.834	0.203	0.064
-242.946	19.788	0.138	-0.111
-241.932	61.102	0.128	-0.126
-240.917	-52.706	-0.125	-0.058
-239.903	386.343	-0.069	-0.142
-238.888	-170.219	-0.634	0.022
-237.873	-200.000	0.003	-0.127
-236.859	-79.374	0.259	0.088
-235.844	-200.000	0.001	-0.196
-234.830	116.428	-0.078	0.095
-233.815	462.586	0.072	-0.161
-232.800	-200.000	0.012	-0.126
-231.786	404.870	0.053	0.111
-230.771	800.000	0.076	-0.251
-229.757	800.000	0.095	-0.368
-228.742	-89.278	-0.336	0.099
-227.727	-72.530	0.141	0.052
-226.713	-22.490	0.341	-0.206
-225.698	-161.081	-0.281	-0.015
-224.684	38.019	-0.137	0.122
-223.669	229.333	0.113	-0.184
-222.655	465.372	-0.088	0.195
-221.640	-135.620	0.133	-0.016
-220.625	800.000	-0.023	0.091
-219.611	509.750	0.151	0.350
-218.596	-93.242	0.313	-0.087
-217.582	-24.783	0.203	0.120
-216.567	183.793	0.207	0.305
-215.552	-93.728	0.184	-0.051
-214.538	-39.684	-0.324	-0.169
-213.523	-200.000	-0.003	0.190
-212.509	68.362	-0.192	-0.196
-211.494	-200.000	-0.001	-0.055
-210.479	-200.000	-0.027	0.158
-209.465	800.000	-0.091	0.261
-208.450	-161.611	0.321	0.016
-207.436	70.742	0.132	-0.136
-206.421	141.970	-0.148	-0.196
-205.406	58.786	0.135	-0.132
-204.392	-200.000	-0.117	-0.613
-203.377	-200.000	0.080	0.371
-202.363	-200.000	0.064	0.393
-201.348	800.000	0.039	-0.112
-200.333	-200.000	0.009	0.102
-199.319	-16.912	-0.178	0.112
-198.304	-27.070	-0.106	-0.062
-197.290	52.955	-0.096	0.092
-196.275	17.159	0.178	-0.141
-195.260	-200.000	0.022	-0.135
-194.246	800.000	-0.062	-0.245
-193.231	-44.321	0.318	0.159
-192.217	485.021	-0.081	0.184
-191.202	-144.504	-0.103	0.009
-190.187	-74.147	0.133	-0.048
-189.173	-200.000	0.006	-0.079
-188.158	-200.000	0.021	0.172
-187.144	-40.430	0.052	-0.027
-186.129	69.459	0.263	0.269
-185.114	-132.303	-0.063	0.008
-184.100	-131.255	-0.041	0.005
-183.085	325.148	-0.033	0.064
-182.071	185.706	0.050	0.074
-181.056	-200.000	-0.030	-0.299
-180.042	-200.000	0.059	0.314
-179.027	-129.173	-0.183	-0.025
-178.012	-190.796	0.304	0.003
-176.998	29.990	-0.130	0.110
-175.983	581.879	0.041	0.099
-174.969	-7.942	0.096	-0.064
-173.954	366.319	0.084	0.168
-172.939	-14.280	-0.211	-0.136
-171.925	368.613	-0.065	-0.130
-170.910	-200.000	0.052	0.548
-169.896	-60.808	-0.419	-0.177
-168.881	-89.760	-0.161	-0.047
-167.866	50.608	0.031	-0.030
-166.852	76.192	-0.110	-0.115
-165.837	657.759	-0.048	-0.123
-164.823	-16.866	-0.074	-0.047
-163.808	-66.642	0.093	-0.037
-162.793	800.000	0.088	0.277
-161.779	-200.000	0.046	-0.355
-160.764	-105.201	0.209	-0.047
-159.750	41.003	-0.040	0.036
-158.735	-52.542	-0.161	0.074
-157.720	-57.208	-0.184	0.081
-156.706	-200.000	-0.035	0.166
-155.691	28.644	-0.090	-0.076
-154.677	575.822	-0.077	0.188
-153.662	-200.000	0.057	0.604
-152.647	800.000	0.044	-0.131
-151.633	-200.000	-0.003	-0.178
-150.618	-40.521	0.215	-0.111
-149.604	72.635	-0.154	-0.160
-148.589	-168.568	0.141	0.005
-147.574	-110.938	0.053	-0.011
-146.560	-70.053	0.108	-0.041
-145.545	-109.852	-0.225	0.047
-144.531	-145.899	0.153	0.013
-143.516	-75.735	-0.129	-0.045
-142.502	-115.853	-0.268	0.050
-141.487	-200.000	-0.023	0.269
-140.472	-200.000	-0.027	0.389
-139.458	599.784	0.102	0.252
-138.443	-37.112	0.180	-0.096
-137.429	149.309	0.217	0.292
-136.414	123.943	-0.127	0.158
-135.399	33.867	-0.089	0.077
-134.385	45.173	0.017	-0.016
-133.370	-159.305	-0.347	-0.019
-132.356	22.619	0.177	0.144
-131.341	800.000	0.104	0.399
-130.326	-200.000	0.038	-0.453
-129.312	116.104	0.182	0.221
-128.297	164.238	0.191	0.267
-127.283	-169.341	-0.360	0.013
-126.268	239.471	-0.163	0.270
-125.253	-88.303	-0.107	0.032
-124.239	-80.458	-0.113	0.038
-123.224	154.681	-0.170	0.232
