DTS Sentinel unit serial number:	SN413079Multiplexer serial number:	ORYXHardware model number:	OX4-SRSoftware version number:	ORYX F/W v4.00 Oryx Data Collector v3.7.2.0data status	okinstallation	princeton_trtdifferential loss correction	single-endedforward channel	channel 4reverse channel	N/Adate	2019/09/10time	23:31:11forward acquisition time	60.00reverse acquisition time	0.00gamma	496.2192k internal	0.2316k external	0.2316temperature offset calibration	0.9951default loss term (dB/km)	0.3790temperature slope calibration	1.0000multiplexer offset coefficient	1.0000multiplexer slope coefficient	1.0000fibre end	0.00T internal ref (°C)	29.69T ext. ref 1 (°C)	-0.30T ext. ref 2 (°C)	23.15length (m)	temperature (°C)	Stokes	anti-Stokes-747.200	-200.000	0.023	0.104
-746.185	4.253	-0.198	0.147
-745.171	90.468	0.222	-0.252
-744.156	800.000	-0.057	0.184
-743.142	92.537	0.187	0.213
-742.127	-97.237	0.159	-0.042
-741.112	263.483	-0.132	0.233
-740.098	88.579	-0.222	-0.250
-739.083	93.251	-0.151	-0.173
-738.069	487.862	-0.242	0.560
-737.054	553.083	-0.023	0.056
-736.039	-103.083	-0.390	0.094
-735.025	-121.768	0.226	-0.038
-734.010	-145.814	-0.474	-0.043
-732.996	38.694	-0.119	-0.108
-731.981	55.370	0.129	-0.126
-730.966	-133.588	-0.179	-0.023
-729.952	-21.588	0.187	-0.115
-728.937	-123.290	0.048	0.008
-727.923	-184.109	0.270	-0.005
-726.908	800.000	-0.020	-0.069
-725.894	-50.590	-0.290	0.138
-724.879	-137.253	-0.109	-0.013
-723.864	338.756	0.157	0.309
-722.850	-8.352	-0.204	-0.139
-721.835	90.072	-0.162	-0.183
-720.821	708.634	-0.052	-0.140
-719.806	36.404	0.200	-0.178
-718.791	800.000	-0.100	-0.413
-717.777	51.776	-0.170	-0.163
-716.762	194.928	-0.050	-0.078
-715.748	223.563	-0.105	-0.172
-714.733	496.982	0.131	-0.304
-713.718	-80.693	-0.070	0.023
-712.704	84.299	-0.047	-0.052
-711.689	-77.018	-0.054	-0.019
-710.675	328.940	-0.135	-0.263
-709.660	-152.442	-0.171	-0.012
-708.645	-200.000	-0.012	0.105
-707.631	-86.385	0.096	-0.030
-706.616	-98.341	-0.182	0.047
-705.602	99.480	-0.143	-0.168
-704.587	-71.070	0.264	-0.100
-703.572	-200.000	-0.047	-0.240
-702.558	133.231	-0.106	-0.139
-701.543	-67.192	-0.135	-0.054
-700.529	-138.208	0.081	-0.009
-699.514	-104.738	-0.161	0.038
-698.499	800.000	0.031	-0.090
-697.485	-17.945	-0.042	0.027
-696.470	-180.498	0.092	0.002
-695.456	193.015	-0.230	0.352
-694.441	-69.589	-0.211	-0.082
-693.426	-26.352	0.248	-0.147
-692.412	374.468	-0.076	-0.156
-691.397	95.198	0.078	0.090
-690.383	-62.140	0.047	-0.020
-689.368	65.870	0.308	-0.315
-688.354	-139.789	0.196	-0.021
-687.339	-67.593	-0.133	0.053
-686.324	-200.000	-0.000	-0.401
-685.310	480.283	0.198	-0.453
-684.295	341.657	-0.169	-0.333
-683.281	-200.000	0.020	-0.182
-682.266	800.000	0.043	-0.150
-681.251	-133.923	-0.067	-0.008
-680.237	-200.000	-0.004	0.087
-679.222	519.287	-0.017	-0.039
-678.208	26.002	0.243	-0.204
-677.193	521.321	0.118	-0.281
-676.178	-194.973	-0.172	-0.001
-675.164	8.889	-0.198	-0.151
-674.149	198.322	0.080	0.124
-673.135	155.317	0.125	-0.173
-672.120	-200.000	-0.016	0.108
-671.105	306.935	0.121	-0.229
-670.091	-149.055	-0.349	0.028
-669.076	383.269	0.157	0.325
-668.062	-108.762	-0.300	0.065
-667.047	-127.509	-0.048	0.007
-666.032	-200.000	0.044	0.324
-665.018	61.202	-0.215	-0.215
-664.003	-113.917	0.321	0.063
-662.989	-13.055	-0.238	0.156
-661.974	304.541	-0.039	-0.073
-660.959	149.613	0.202	0.276
-659.945	-138.735	-0.090	0.010
-658.930	-156.813	0.174	-0.011
-657.916	-88.106	-0.271	-0.082
-656.901	-174.289	-0.052	0.002
-655.886	-126.286	-0.119	0.018
-654.872	283.085	0.103	-0.187
-653.857	-200.000	-0.021	0.340
-652.843	154.690	-0.138	0.191
-651.828	319.531	-0.076	0.146
-650.814	-200.000	-0.071	0.448
-649.799	-22.660	-0.220	0.134
-648.784	-1.501	0.116	-0.082
-647.770	-200.000	0.020	-0.238
-646.755	735.874	-0.132	0.356
-645.741	-16.838	0.128	-0.082
-644.726	43.349	-0.088	-0.081
-643.711	660.575	0.026	-0.068
-642.697	800.000	-0.026	0.117
-641.682	15.695	0.223	0.177
-640.668	-45.361	-0.176	-0.088
-639.653	92.176	-0.147	-0.167
-638.638	-8.768	0.200	0.135
-637.624	17.626	0.485	0.389
-636.609	-92.422	-0.171	0.049
-635.595	-44.175	-0.363	0.184
-634.580	-22.402	0.165	0.101
-633.565	11.055	0.092	-0.071
-632.551	-137.310	-0.345	-0.040
-631.536	56.652	0.186	0.183
-630.522	-93.031	0.409	-0.115
-629.507	49.132	0.199	-0.188
-628.492	354.052	-0.047	-0.094
-627.478	-200.000	-0.061	-0.319
-626.463	135.823	-0.149	-0.195
-625.449	-200.000	-0.042	0.248
-624.434	-53.746	0.032	0.015
-623.419	26.438	-0.184	-0.155
-622.405	619.555	-0.069	-0.176
-621.390	218.903	0.130	-0.209
-620.376	-160.208	0.439	-0.024
-619.361	49.715	-0.061	-0.058
-618.346	-81.074	-0.137	0.046
-617.332	-39.073	-0.151	-0.080
-616.317	633.812	0.010	-0.026
-615.303	-200.000	-0.019	-0.332
-614.288	-105.397	0.144	0.033
-613.273	-5.321	0.079	-0.055
-612.259	2.087	-0.110	0.080
-611.244	286.656	-0.027	0.050
-610.230	800.000	0.136	-0.419
-609.215	-200.000	-0.022	-0.400
-608.201	-200.000	0.009	-0.278
-607.186	112.080	0.180	0.219
-606.171	12.753	-0.199	0.154
-605.157	-179.295	0.438	-0.010
-604.142	222.904	0.220	0.357
-603.128	32.439	-0.215	0.187
-602.113	356.801	0.110	-0.222
-601.098	-10.335	-0.110	-0.073
-600.084	408.082	0.151	0.321
-599.069	-9.345	-0.048	0.032
-598.055	254.894	-0.152	0.262
-597.040	-35.312	-0.210	-0.115
-596.025	-65.807	-0.382	0.154
-595.011	-200.000	0.010	0.103
-593.996	233.323	0.088	-0.146
-592.982	-21.694	-0.131	0.080
-591.967	-200.000	-0.031	0.220
-590.952	14.662	-0.041	0.032
-589.938	-164.824	0.332	0.015
-588.923	-147.956	0.209	-0.017
-587.909	-48.942	-0.364	0.176
-586.894	-138.190	-0.182	-0.020
-585.879	-32.814	0.304	-0.170
-584.865	78.780	-0.063	0.067
-583.850	22.247	-0.136	-0.111
-582.836	58.085	0.141	0.139
-581.821	5.514	-0.222	0.165
-580.806	35.531	-0.138	-0.122
-579.792	-198.237	-0.196	-0.001
-578.777	800.000	-0.060	-0.233
-577.763	-65.898	0.241	-0.097
-576.748	312.182	-0.040	-0.076
-575.733	-135.006	0.227	-0.028
-574.719	201.108	0.134	0.208
-573.704	-43.249	0.193	0.098
-572.690	-116.678	0.496	-0.092
-571.675	-44.743	0.179	-0.090
-570.661	19.817	-0.080	-0.065
-569.646	-22.244	-0.177	-0.108
-568.631	-136.071	-0.191	0.023
-567.617	800.000	0.015	-0.060
-566.602	-68.181	0.248	-0.097
-565.588	-157.675	-0.076	-0.005
-564.573	153.744	-0.087	-0.120
-563.558	-122.127	-0.409	0.067
-562.544	-157.156	0.044	0.003
-561.529	-200.000	-0.004	-0.117
-560.515	-73.774	0.047	0.017
-559.500	21.186	-0.246	0.201
-558.485	-3.163	-0.064	0.045
-557.471	-164.233	-0.299	0.014
-556.456	-32.480	0.295	-0.165
-555.442	-110.014	-0.221	-0.047
-554.427	-200.000	0.007	-0.070
-553.412	-36.559	-0.214	-0.116
-552.398	-144.405	-0.119	0.011
-551.383	-200.000	0.003	-0.088
-550.369	-134.032	0.256	-0.032
-549.354	800.000	0.053	0.223
-548.339	-159.472	-0.463	0.026
-547.325	-104.922	-0.272	-0.063
-546.310	226.243	-0.072	-0.117
-545.296	800.000	0.086	0.339
-544.281	-36.757	-0.197	-0.106
-543.266	89.562	-0.073	0.082
-542.252	-110.440	0.119	0.025
-541.237	-132.379	0.168	-0.022
-540.223	-107.459	-0.497	0.109
-539.208	-178.733	0.089	-0.002
-538.193	-200.000	-0.032	-0.414
-537.179	286.610	-0.098	-0.178
-536.164	-200.000	0.017	0.199
-535.150	209.973	0.148	-0.233
-534.135	60.734	0.190	0.189
-533.121	-42.761	-0.235	-0.120
-532.106	-35.223	0.342	-0.187
-531.091	207.193	0.250	0.391
-530.077	-35.328	-0.099	-0.054
-529.062	53.765	-0.103	-0.100
-528.048	-61.989	-0.324	0.136
-527.033	-154.524	0.097	-0.006
-526.018	-200.000	-0.004	-0.203
-525.004	-200.000	0.007	-0.302
-523.989	-112.733	-0.166	0.033
-522.975	385.863	0.093	0.192
-521.960	-23.472	-0.246	0.148
-520.945	-132.813	0.279	0.036
-519.931	-200.000	0.003	-0.141
-518.916	-193.929	0.225	-0.002
-517.902	444.910	0.151	0.332
-516.887	-39.161	0.204	0.108
-515.872	-200.000	0.030	0.349
-514.858	606.166	-0.068	0.171
-513.843	52.014	0.160	0.153
-512.829	-129.127	0.371	0.052
-511.814	261.514	0.125	0.218
-510.799	613.665	0.067	0.168
-509.785	-69.985	-0.069	-0.026
-508.770	83.329	-0.017	0.019
-507.756	800.000	0.036	-0.118
-506.741	-24.811	0.095	0.057
-505.726	-122.902	-0.218	0.035
-504.712	-56.285	-0.347	0.155
-503.697	-125.151	-0.308	0.047
-502.683	-0.129	-0.102	-0.073
-501.668	-22.555	-0.079	-0.048
-500.653	-200.000	0.036	0.255
-499.639	-70.911	0.181	-0.068
-498.624	275.294	0.142	0.252
-497.610	5.817	-0.130	0.097
-496.595	-200.000	-0.008	0.139
-495.581	162.460	-0.118	-0.166
-494.566	75.806	0.148	-0.157
-493.551	-100.826	-0.099	0.024
-492.537	-130.005	-0.275	-0.038
-491.522	-107.105	0.324	-0.072
-490.508	-131.967	0.104	-0.014
-489.493	-100.408	0.084	0.021
-488.478	40.151	0.124	0.112
-487.464	6.127	-0.159	0.118
-486.449	-90.207	0.147	0.043
-485.435	-66.982	0.212	0.084
-484.420	800.000	0.020	-0.079
-483.405	-33.980	0.009	0.005
-482.391	346.451	-0.123	-0.242
-481.376	309.340	0.057	0.108
-480.362	-77.991	0.265	0.092
-479.347	-23.366	-0.199	0.120
-478.332	-65.086	-0.321	0.130
-477.318	623.234	-0.036	0.092
-476.303	800.000	0.020	0.073
-475.289	-37.454	0.054	-0.029
-474.274	35.864	-0.228	0.201
-473.259	131.617	0.128	0.165
-472.245	800.000	-0.103	-0.354
-471.230	-130.869	0.198	-0.027
-470.216	-108.111	0.536	-0.116
-469.201	403.711	0.095	-0.201
-468.186	-72.279	-0.064	0.024
-467.172	-74.823	-0.035	0.012
-466.157	312.666	0.054	0.101
-465.143	261.904	0.085	0.147
-464.128	162.431	-0.237	-0.333
-463.113	-14.889	-0.089	-0.057
-462.099	-66.012	0.336	0.134
-461.084	-63.939	0.156	0.064
-460.070	113.733	-0.071	-0.087
-459.055	-142.564	0.053	0.005
-458.040	-194.631	-0.136	0.001
-457.026	432.089	-0.052	-0.113
-456.011	-200.000	0.021	0.131
-454.997	-12.418	0.166	-0.109
-453.982	-67.368	0.264	-0.104
-452.968	800.000	0.031	-0.136
-451.953	-200.000	0.032	-0.185
-450.938	5.772	0.330	-0.245
-449.924	-200.000	-0.009	-0.080
-448.909	-200.000	-0.009	-0.143
-447.895	800.000	0.086	0.340
-446.880	800.000	0.017	-0.050
-445.865	800.000	0.042	0.129
-444.851	-81.417	-0.143	-0.047
-443.836	-23.481	0.169	-0.102
-442.822	84.845	-0.014	0.016
-441.807	-200.000	-0.055	0.476
-440.792	91.699	-0.035	-0.039
-439.778	522.673	0.051	0.119
-438.763	800.000	0.017	0.063
-437.749	54.278	-0.072	-0.069
-436.734	-150.855	0.076	-0.006
-435.719	742.654	0.044	-0.117
-434.705	-130.145	-0.219	-0.030
-433.690	-82.116	0.239	-0.078
-432.676	101.990	0.136	0.159
-431.661	36.559	-0.244	0.215
-430.646	-124.671	-0.143	-0.022
-429.632	10.268	0.051	-0.039
-428.617	-92.528	-0.103	-0.029
-427.603	428.404	0.095	0.205
-426.588	214.124	0.118	-0.187
-425.573	164.442	-0.033	0.046
-424.559	410.319	0.088	0.186
-423.544	325.360	-0.095	-0.182
-422.530	-95.925	-0.392	0.104
-421.515	-106.961	-0.076	-0.017
-420.500	-117.999	-0.080	-0.014
-419.486	-34.221	-0.151	-0.083
-418.471	800.000	-0.051	-0.197
-417.457	116.815	0.083	0.102
-416.442	800.000	-0.042	0.160
-415.428	-111.920	-0.297	-0.060
-414.413	217.343	-0.099	0.158
-413.398	75.021	0.227	0.239
-412.384	-5.411	-0.119	-0.082
-411.369	-111.361	0.106	-0.022
-410.355	-200.000	0.000	-0.105
-409.340	31.423	0.059	-0.050
-408.325	-14.222	-0.305	0.196
-407.311	-0.486	-0.144	-0.102
-406.296	800.000	-0.055	0.195
-405.282	44.149	-0.173	0.159
-404.267	40.612	-0.068	-0.061
-403.252	10.149	0.164	-0.125
-402.238	-22.340	-0.136	0.082
-401.223	-65.345	0.234	0.094
-400.209	116.788	0.101	0.124
-399.194	-200.000	0.014	0.158
-398.179	-200.000	0.051	0.263
-397.165	136.408	-0.069	0.090
-396.150	-200.000	0.016	0.157
-395.136	-200.000	0.039	0.200
-394.121	45.389	-0.269	0.248
-393.106	247.047	-0.042	0.071
-392.092	-120.483	0.079	0.013
-391.077	-200.000	-0.011	0.088
-390.063	677.693	0.039	-0.101
-389.048	-34.173	-0.257	-0.141
-388.033	12.029	-0.091	0.070
-387.019	-134.410	0.431	0.053
-386.004	-6.230	0.173	-0.118
-384.990	-200.000	-0.030	-0.217
-383.975	-80.017	-0.067	-0.023
-382.960	800.000	0.098	0.293
-381.946	-124.693	-0.263	0.041
-380.931	396.012	-0.277	0.577
-379.917	-38.996	0.367	0.193
-378.902	420.480	0.127	-0.272
-377.888	331.734	0.092	-0.177
-376.873	-17.455	-0.132	0.083
-375.858	-9.119	0.209	-0.139
-374.844	-200.000	0.006	0.174
-373.829	738.459	0.054	-0.143
-372.815	49.804	-0.093	0.088
-371.800	86.784	-0.317	-0.349
-370.785	258.413	-0.084	-0.145
-369.771	41.129	0.293	0.265
-368.756	-52.748	-0.261	0.120
-367.742	3.886	-0.071	0.052
-366.727	-200.000	0.005	-0.251
-365.712	-200.000	0.021	0.152
-364.698	291.713	-0.133	0.241
-363.683	331.168	0.081	-0.156
-362.669	-144.330	-0.282	-0.026
-361.654	219.215	-0.166	-0.265
-360.639	-20.985	-0.065	0.040
-359.625	0.452	0.205	0.146
-358.610	-200.000	0.022	-0.140
-357.596	-200.000	0.015	-0.498
-356.581	-200.000	-0.017	0.139
-355.566	-137.400	-0.152	0.017
-354.552	-200.000	-0.038	0.215
-353.537	130.138	-0.135	0.173
-352.523	-200.000	0.006	-0.056
-351.508	-112.811	0.049	0.010
-350.493	-107.959	-0.346	0.075
-349.479	31.714	-0.075	-0.064
-348.464	408.372	0.027	0.057
-347.450	287.625	0.067	0.121
-346.435	460.455	0.111	-0.246
-345.420	-149.118	0.324	0.026
-344.406	-57.673	-0.284	-0.124
-343.391	21.182	-0.112	-0.091
-342.377	800.000	-0.054	0.205
-341.362	6.453	0.198	0.147
-340.348	50.000	-0.316	-0.298
-339.333	387.425	0.180	0.372
-338.318	-200.000	-0.002	-0.234
-337.304	441.827	-0.166	-0.362
-336.289	-46.595	-0.209	-0.102
-335.275	68.105	-0.135	-0.138
-334.260	-78.744	-0.256	0.087
-333.245	800.000	0.024	0.095
-332.231	-22.864	0.276	0.166
-331.216	-88.996	0.388	-0.114
-330.202	800.000	0.040	-0.110
-329.187	572.157	-0.036	0.087
-328.172	800.000	-0.025	0.067
-327.158	-200.000	-0.034	-0.198
-326.143	-200.000	-0.022	0.096
-325.129	-175.830	0.161	-0.004
-324.114	-29.316	-0.104	0.059
-323.099	-50.830	0.154	0.072
-322.085	-117.429	-0.163	-0.029
-321.070	-43.516	-0.213	-0.107
-320.056	192.770	-0.132	0.198
-319.041	347.131	-0.042	-0.083
-318.026	-200.000	-0.068	-0.439
-317.012	-52.185	0.399	0.184
-315.997	302.841	-0.228	0.420
-314.983	145.656	-0.032	0.042
-313.968	-103.564	0.068	0.016
-312.953	-0.425	0.151	-0.107
-311.939	105.393	0.341	-0.402
-310.924	35.402	-0.086	0.075
-309.910	-43.561	0.296	0.149
-308.895	-172.956	0.058	-0.002
-307.880	800.000	0.041	0.143
-306.866	-200.000	-0.009	-0.115
-305.851	-109.149	0.282	-0.060
-304.837	-146.331	0.214	-0.019
-303.822	-200.000	-0.018	-0.367
-302.807	91.439	-0.176	-0.197
-301.793	-200.000	-0.017	-0.208
-300.778	157.917	-0.128	0.177
-299.764	800.000	-0.071	-0.273
-298.749	59.095	0.248	0.243
-297.735	98.318	0.081	-0.093
-296.720	-93.025	0.143	-0.040
-295.705	-200.000	-0.051	-0.315
-294.691	-146.472	-0.232	-0.020
-293.676	301.540	-0.176	-0.323
-292.662	170.655	-0.200	0.285
-291.647	-12.108	0.085	-0.055
-290.632	-110.932	0.010	-0.002
-289.618	-80.658	0.038	0.012
-288.603	126.327	-0.026	-0.033
-287.589	-200.000	0.010	0.306
-286.574	-98.188	-0.160	-0.041
-285.559	259.529	-0.071	0.122
-284.545	-200.000	-0.075	0.419
-283.530	-74.147	0.047	0.017
-282.516	245.652	-0.161	0.269
-281.501	-76.129	0.204	-0.072
-280.486	185.090	0.215	-0.317
-279.472	800.000	-0.048	-0.152
-278.457	148.312	0.076	0.103
-277.443	-46.621	-0.147	0.071
-276.428	32.428	-0.111	-0.095
-275.413	-133.017	-0.395	-0.050
-274.399	-197.639	0.195	-0.001
-273.384	-148.122	0.291	-0.024
-272.370	4.598	-0.184	-0.134
-271.355	-200.000	0.073	-0.521
-270.340	119.029	0.079	0.097
-269.326	-16.538	-0.071	0.045
-268.311	-85.388	-0.179	-0.055
-267.297	3.862	0.210	0.153
-266.282	122.507	-0.177	0.220
-265.267	253.302	-0.082	0.140
-264.253	-26.244	-0.336	-0.196
-263.238	-27.569	0.070	0.040
-262.224	453.383	-0.022	0.049
-261.209	-167.207	-0.415	-0.017
-260.195	-200.000	0.054	0.319
-259.180	-200.000	-0.007	0.086
-258.165	16.276	-0.050	-0.040
-257.151	-105.233	-0.357	-0.081
-256.136	102.746	-0.147	0.171
-255.122	-200.000	-0.040	-0.259
-254.107	-200.000	-0.013	-0.179
-253.092	116.000	-0.060	0.072
-252.078	-200.000	0.001	0.108
-251.063	800.000	0.089	-0.321
-250.049	-2.297	-0.331	-0.231
-249.034	-116.361	-0.188	-0.034
-248.019	-18.389	-0.232	-0.144
-247.005	800.000	-0.072	-0.202
-245.990	-114.868	0.290	0.055
-244.976	-90.024	0.323	-0.093
-243.961	-140.222	0.476	-0.050
-242.946	-162.689	0.075	-0.004
-241.932	-54.962	-0.174	0.078
-240.917	-200.000	0.074	-0.465
-239.903	32.318	-0.122	-0.105
-238.888	-83.180	0.358	0.114
-237.873	-14.426	0.476	0.304
-236.859	3.284	0.099	-0.071
-235.844	75.050	0.185	0.193
-234.830	-200.000	0.011	-0.281
-233.815	728.332	-0.184	-0.487
-232.800	-31.624	-0.271	-0.151
-231.786	-93.330	-0.031	0.009
-230.771	800.000	-0.064	-0.199
-229.757	276.301	0.084	-0.147
-228.742	189.363	-0.094	-0.140
-227.727	12.352	-0.041	0.031
-226.713	-200.000	0.061	0.275
-225.698	-64.815	-0.219	0.088
-224.684	-200.000	0.064	0.312
-223.669	114.580	0.146	-0.176
-222.655	81.899	0.208	-0.224
-221.640	276.085	-0.054	0.095
-220.625	587.430	-0.100	-0.245
-219.611	800.000	-0.057	0.158
-218.596	-148.056	0.235	0.019
-217.582	129.336	0.100	0.126
-216.567	-200.000	0.021	0.258
-215.552	-196.451	0.396	0.003
-214.538	-8.961	-0.060	-0.040
-213.523	83.834	0.301	0.326
-212.509	-41.516	-0.269	0.137
-211.494	529.016	-0.043	0.102
-210.479	-200.000	-0.106	-0.597
-209.465	69.479	0.109	-0.111
-208.450	-140.887	0.386	-0.039
-207.436	-50.514	-0.103	0.048
-206.421	15.498	-0.118	0.092
-205.406	52.379	0.172	0.163
-204.392	-36.391	0.121	0.065
-203.377	-154.950	-0.188	-0.012
-202.363	-200.000	-0.019	-0.381
-201.348	56.468	0.101	-0.097
-200.333	216.192	-0.034	-0.054
-199.319	36.939	0.307	-0.270
-198.304	-15.632	-0.284	-0.180
-197.290	-200.000	0.060	0.316
-196.275	-129.214	0.044	0.006
-195.260	1.289	-0.089	0.063
-194.246	-89.985	0.162	-0.047
-193.231	-30.612	0.042	0.023
-192.217	39.472	-0.061	0.054
-191.202	87.846	-0.041	-0.045
-190.187	-200.000	0.004	0.152
-189.173	-200.000	0.030	-0.290
-188.158	-0.364	0.426	-0.300
-187.144	150.017	0.194	-0.260
-186.129	-200.000	-0.043	0.244
-185.114	-200.000	-0.024	-0.265
-184.100	768.703	0.164	0.443
-183.085	314.053	-0.143	0.266
-182.071	-110.732	0.256	-0.052
-181.056	2.545	-0.333	-0.239
-180.042	-88.554	-0.225	0.066
-179.027	270.627	0.119	0.208
-178.012	-67.753	0.433	0.168
-176.998	-200.000	-0.041	-0.277
-175.983	2.342	-0.323	-0.231
-174.969	24.290	-0.433	-0.354
-173.954	800.000	0.067	0.241
-172.939	229.430	0.140	0.226
-171.925	-200.000	0.002	0.008
-170.910	-54.021	0.380	-0.171
-169.896	-72.978	0.193	-0.070
-168.881	153.328	-0.154	-0.208
-167.866	800.000	-0.054	0.165
-166.852	245.633	-0.020	0.033
-165.837	-200.000	-0.048	0.308
-164.823	-138.616	0.154	-0.017
-163.808	-3.116	-0.329	-0.227
-162.793	705.117	0.162	0.423
-161.779	462.585	-0.038	0.083
-160.764	281.071	-0.102	0.181
-159.750	-155.125	0.185	-0.012
-158.735	800.000	0.039	-0.156
-157.720	120.578	0.083	-0.102
-156.706	392.034	-0.161	0.332
-155.691	-38.049	0.300	-0.158
-154.677	-150.678	-0.279	0.021
-153.662	218.078	0.081	0.128
-152.647	-22.050	-0.276	-0.166
-151.633	447.277	0.121	0.264
-150.618	-111.315	-0.296	0.060
-149.604	42.619	0.262	0.236
-148.589	321.144	0.227	0.427
-147.574	-96.122	-0.242	0.063
-146.560	-185.322	-0.117	0.002
-145.545	-175.802	0.172	-0.005
-144.531	-200.000	0.020	-0.111
-143.516	-40.601	-0.051	-0.026
-142.502	-1.885	0.217	0.151
-141.487	136.996	0.218	0.282
-140.472	525.314	-0.038	0.088
-139.458	-200.000	-0.057	0.280
-138.443	-200.000	-0.058	-0.426
-137.429	208.369	-0.114	-0.176
-136.414	267.252	0.043	-0.074
-135.399	800.000	0.071	0.302
-134.385	-41.714	0.178	-0.090
-133.370	50.135	-0.185	-0.173
-132.356	76.086	-0.100	-0.105
-131.341	-114.540	-0.279	0.053
-130.326	-193.330	0.052	-0.000
-129.312	-108.019	0.112	-0.024
-128.297	-128.428	-0.485	-0.068
-127.283	-200.000	-0.051	0.266
-126.268	-124.467	-0.405	-0.062
-125.253	-104.868	0.070	-0.016
-124.239	194.858	-0.094	-0.142
-123.224	-149.731	-0.448	-0.035
-122.210	364.595	0.081	-0.161
