DTS Sentinel unit serial number:	SN413079Multiplexer serial number:	ORYXHardware model number:	OX4-SRSoftware version number:	ORYX F/W v4.00 Oryx Data Collector v3.7.2.0data status	okinstallation	princeton_trtdifferential loss correction	single-endedforward channel	channel 4reverse channel	N/Adate	2019/09/10time	18:59:10forward acquisition time	60.00reverse acquisition time	0.00gamma	496.2192k internal	0.2305k external	0.2305temperature offset calibration	0.9944default loss term (dB/km)	0.3790temperature slope calibration	1.0000multiplexer offset coefficient	1.0000multiplexer slope coefficient	1.0000fibre end	0.00T internal ref (°C)	34.62T ext. ref 1 (°C)	-0.34T ext. ref 2 (°C)	26.77length (m)	temperature (°C)	Stokes	anti-Stokes-747.200	-25.182	-0.185	0.112
-746.185	39.842	-0.146	0.134
-745.171	-49.294	-0.130	0.063
-744.156	122.003	-0.169	-0.214
-743.142	-159.778	-0.479	0.027
-742.127	-200.000	0.027	0.264
-741.112	-190.047	0.090	-0.001
-740.098	42.009	-0.212	-0.196
-739.083	-144.768	0.133	0.012
-738.069	-200.000	-0.017	0.136
-737.054	-83.359	-0.334	-0.109
-736.039	154.138	-0.127	-0.177
-735.025	-123.153	-0.200	0.033
-734.010	36.588	-0.364	0.327
-732.996	-95.781	-0.141	-0.038
-731.981	683.007	0.032	-0.085
-730.966	-172.638	-0.189	-0.006
-729.952	711.435	0.025	-0.067
-728.937	-68.228	-0.112	-0.044
-727.923	-172.173	-0.203	-0.007
-726.908	-87.829	-0.304	0.093
-725.894	800.000	-0.062	0.213
-724.879	100.833	0.043	0.051
-723.864	273.473	-0.074	-0.133
-722.850	195.642	-0.051	-0.078
-721.835	61.893	0.118	0.120
-720.821	-48.399	-0.259	0.127
-719.806	-113.375	-0.158	0.032
-718.791	-77.476	-0.106	-0.037
-717.777	765.526	0.130	0.359
-716.762	151.504	0.129	0.179
-715.748	634.297	0.023	-0.059
-714.733	-117.752	-0.354	-0.065
-713.718	-200.000	0.011	0.216
-712.704	443.762	0.051	0.113
-711.689	-18.304	0.201	-0.128
-710.675	29.160	-0.191	0.165
-709.660	-77.171	-0.200	-0.071
-708.645	-200.000	-0.001	-0.066
-707.631	88.544	-0.158	0.178
-706.616	-43.781	0.207	0.106
-705.602	-200.000	-0.012	-0.153
-704.587	554.060	-0.117	0.287
-703.572	557.288	-0.112	-0.274
-702.558	-154.181	0.300	0.021
-701.543	-139.229	0.233	0.026
-700.529	162.606	-0.270	-0.384
-699.514	16.626	-0.034	-0.028
-698.499	-97.150	-0.152	-0.040
-697.485	0.338	0.229	-0.166
-696.470	-65.051	0.061	-0.025
-695.456	-151.825	0.327	0.024
-694.441	273.933	-0.169	0.304
-693.426	-162.296	0.109	0.006
-692.412	86.961	0.030	0.034
-691.397	-53.847	0.173	-0.080
-690.383	17.919	-0.236	-0.191
-689.368	-97.206	-0.291	-0.077
-688.354	325.868	0.082	0.160
-687.339	490.210	0.057	0.133
-686.324	-200.000	0.018	-0.102
-685.310	-147.307	-0.131	0.011
-684.295	-133.298	0.090	-0.012
-683.281	361.595	-0.154	-0.313
-682.266	-1.914	0.018	0.013
-681.251	83.727	-0.176	-0.195
-680.237	-39.725	-0.253	0.134
-679.222	21.207	-0.162	0.134
-678.208	125.509	0.241	-0.308
-677.193	-173.592	0.274	0.008
-676.178	-8.496	0.209	-0.142
-675.164	211.474	-0.113	-0.181
-674.149	203.859	0.144	-0.227
-673.135	-106.679	-0.154	-0.035
-672.120	-8.693	0.144	0.098
-671.105	-156.031	0.163	-0.010
-670.091	-146.379	-0.114	0.010
-669.076	270.261	0.068	-0.121
-668.062	800.000	0.092	-0.399
-667.047	-34.891	0.303	-0.168
-666.032	422.923	-0.096	-0.209
-665.018	777.375	-0.098	-0.273
-664.003	139.910	-0.120	-0.161
-662.989	57.841	0.059	-0.058
-661.974	-200.000	-0.025	-0.175
-660.959	-200.000	0.037	0.211
-659.945	51.128	0.072	-0.069
-658.930	440.893	-0.014	-0.030
-657.916	800.000	-0.053	0.193
-656.901	-200.000	-0.025	0.141
-655.886	238.721	0.212	-0.357
-654.872	-89.772	0.190	-0.056
-653.857	53.451	0.105	-0.102
-652.843	290.628	-0.056	0.103
-651.828	-133.152	-0.140	-0.018
-650.814	19.332	-0.175	0.143
-649.799	7.523	-0.231	0.175
-648.784	800.000	0.020	-0.080
-647.770	-47.338	0.223	-0.110
-646.755	0.907	0.209	-0.152
-645.741	800.000	-0.067	-0.220
-644.726	800.000	0.043	0.144
-643.711	-115.463	0.081	-0.016
-642.697	90.664	0.151	-0.171
-641.682	-200.000	-0.005	-0.227
-640.668	83.243	0.130	-0.144
-639.653	215.989	-0.052	0.084
-638.638	-132.231	-0.201	-0.026
-637.624	86.502	0.195	-0.218
-636.609	193.974	-0.164	0.251
-635.595	799.778	-0.141	0.395
-634.580	150.379	0.077	-0.106
-633.565	55.320	0.121	0.118
-632.551	-200.000	-0.141	0.629
-631.536	-200.000	-0.066	0.388
-630.522	625.650	-0.098	-0.249
-629.507	-200.000	0.045	-0.213
-628.492	-200.000	0.002	0.017
-627.478	77.242	0.132	0.143
-626.463	-174.704	-0.443	-0.013
-625.449	-200.000	0.010	0.059
-624.434	800.000	0.049	-0.203
-623.419	-13.060	0.326	-0.215
-622.405	166.839	-0.230	-0.330
-621.390	-200.000	0.036	0.353
-620.376	69.449	0.032	-0.033
-619.361	800.000	-0.068	-0.200
-618.346	52.662	-0.188	0.182
-617.332	155.685	0.049	-0.069
-616.317	-200.000	-0.035	0.235
-615.303	24.161	0.104	0.087
-614.288	-75.119	0.111	0.040
-613.273	657.335	-0.032	-0.084
-612.259	-114.444	0.328	-0.064
-611.244	796.350	0.079	-0.220
-610.230	-143.761	-0.115	0.011
-609.215	-195.742	-0.221	-0.002
-608.201	-118.523	0.089	-0.016
-607.186	-153.820	0.206	0.014
-606.171	-176.796	0.312	0.008
-605.157	-120.453	-0.364	0.063
-604.142	352.491	0.190	-0.380
-603.128	800.000	-0.111	-0.310
-602.113	89.699	-0.188	-0.212
-601.098	81.113	0.028	-0.031
-600.084	105.996	0.060	0.072
-599.069	202.851	0.196	0.306
-598.055	104.738	-0.166	-0.198
-597.040	-200.000	-0.021	-0.170
-596.025	672.721	0.062	-0.164
-595.011	-44.220	-0.149	-0.075
-593.996	558.286	0.103	0.251
-592.982	-200.000	0.024	-0.162
-591.967	-15.056	0.099	-0.064
-590.952	228.721	0.189	-0.311
-589.938	160.329	-0.083	0.117
-588.923	176.461	-0.112	0.164
-587.909	-81.601	0.261	-0.087
-586.894	-200.000	-0.027	0.130
-585.879	106.070	0.264	0.316
-584.865	-115.343	-0.250	0.048
-583.850	342.118	-0.129	-0.256
-582.836	19.874	-0.216	0.176
-581.821	81.496	0.108	0.119
-580.806	-119.331	-0.208	-0.037
-579.792	-169.914	0.175	-0.006
-578.777	-85.006	0.150	-0.048
-577.763	800.000	-0.034	-0.130
-576.748	199.696	0.247	-0.384
-575.733	352.056	0.020	-0.041
-574.719	-53.756	-0.052	-0.024
-573.704	-54.905	0.128	0.059
-572.690	12.217	0.198	-0.154
-571.675	58.621	0.139	-0.138
-570.661	30.607	0.172	-0.149
-569.646	714.843	-0.075	-0.200
-568.631	-71.530	-0.342	-0.129
-567.617	-5.335	0.132	-0.092
-566.602	348.673	-0.114	-0.228
-565.588	-56.962	-0.140	-0.062
-564.573	474.583	-0.088	0.201
-563.558	-104.426	-0.101	-0.024
-562.544	-138.039	0.247	0.028
-561.529	-131.776	-0.028	0.004
-560.515	-200.000	-0.013	-0.220
-559.500	-86.017	0.231	-0.072
-558.485	-7.462	0.124	-0.084
-557.471	-30.709	0.237	-0.136
-556.456	800.000	-0.097	-0.425
-555.442	77.861	-0.087	0.093
-554.427	800.000	-0.033	-0.099
-553.412	763.438	-0.029	0.079
-552.398	-200.000	-0.209	-0.000
-551.383	-87.482	-0.241	-0.074
-550.369	443.666	0.121	-0.268
-549.354	-53.374	-0.112	0.052
-548.339	-69.010	-0.075	0.029
-547.325	-71.249	-0.219	0.083
-546.310	-200.000	0.030	-0.199
-545.296	670.629	-0.076	-0.198
-544.281	64.708	-0.524	-0.534
-543.266	-52.135	0.215	-0.101
-542.252	-112.115	-0.277	-0.056
-541.237	122.831	-0.017	0.021
-540.223	82.418	-0.291	-0.319
-539.208	-175.117	-0.179	-0.005
-538.193	317.153	0.087	-0.166
-537.179	-3.223	-0.107	0.075
-536.164	-200.000	0.047	-0.279
-535.150	-200.000	0.014	0.184
-534.135	272.693	0.133	-0.237
-533.121	-12.704	-0.156	-0.103
-532.106	316.179	-0.125	0.238
-531.091	-153.402	0.276	-0.019
-530.077	-200.000	-0.033	0.199
-529.062	-96.167	-0.302	-0.081
-528.048	170.509	0.036	0.051
-527.033	356.645	0.092	0.184
-526.018	-27.463	-0.277	-0.162
-525.004	-108.357	0.346	-0.075
-523.989	-42.335	0.283	-0.146
-522.975	172.987	-0.238	0.346
-521.960	0.465	-0.083	0.060
-520.945	-23.739	0.311	0.188
-519.931	-200.000	-0.032	-0.221
-518.916	95.729	-0.073	0.084
-517.902	-200.000	-0.011	0.051
-516.887	276.976	-0.081	0.146
-515.872	-18.262	0.107	-0.068
-514.858	3.409	-0.098	0.072
-513.843	-92.568	0.399	0.113
-512.829	-107.834	-0.328	0.072
-511.814	-122.232	0.232	-0.038
-510.799	232.531	-0.092	-0.153
-509.785	108.839	-0.222	-0.267
-508.770	800.000	-0.076	0.245
-507.756	-200.000	0.026	0.126
-506.741	193.693	0.157	-0.239
-505.726	48.223	-0.067	0.063
-504.712	111.319	0.181	0.220
-503.697	528.279	0.062	0.148
-502.683	83.158	0.213	-0.234
-501.668	-200.000	0.031	-0.149
-500.653	-7.904	-0.166	-0.113
-499.639	-43.924	0.191	0.097
-498.624	-200.000	0.033	0.271
-497.610	315.677	-0.055	-0.105
-496.595	-103.901	0.327	0.077
-495.581	-141.896	0.112	-0.011
-494.566	45.679	0.094	0.087
-493.551	129.493	-0.302	-0.388
-492.537	19.566	-0.540	-0.438
-491.522	550.945	0.048	-0.117
-490.508	60.013	0.086	0.086
-489.493	-87.589	-0.260	0.079
-488.478	-72.854	-0.187	0.069
-487.464	303.273	-0.115	0.215
-486.449	-90.898	0.137	0.040
-485.435	-200.000	-0.002	-0.129
-484.420	110.825	-0.158	0.192
-483.405	41.688	-0.392	0.358
-482.391	-200.000	-0.004	0.018
-481.376	800.000	0.032	-0.132
-480.362	-200.000	0.012	0.128
-479.347	-104.733	-0.244	-0.056
-478.332	8.698	0.141	0.107
-477.318	800.000	0.023	-0.068
-476.303	612.759	0.098	0.246
-475.289	585.865	-0.105	-0.260
-474.274	-82.558	-0.079	0.026
-473.259	-200.000	0.004	-0.085
-472.245	800.000	0.105	-0.298
-471.230	800.000	-0.030	0.102
-470.216	-18.460	0.271	0.170
-469.201	-76.625	-0.141	0.050
-468.186	-200.000	-0.011	0.168
-467.172	800.000	0.029	0.127
-466.157	317.006	-0.218	-0.415
-465.143	-69.322	-0.245	0.095
-464.128	-92.679	-0.295	0.083
-463.113	-200.000	-0.031	-0.276
-462.099	254.660	-0.065	-0.112
-461.084	167.258	-0.181	0.258
-460.070	-78.528	0.372	0.128
-459.055	558.442	-0.110	0.268
-458.040	-124.021	-0.083	0.013
-457.026	240.646	0.042	0.071
-456.011	-85.686	0.102	0.032
-454.997	-200.000	0.017	-0.209
-453.982	-162.134	0.190	-0.010
-452.968	190.823	0.026	0.039
-451.953	-200.000	-0.014	0.066
-450.938	381.345	0.116	-0.240
-449.924	-200.000	-0.049	0.363
-448.909	-200.000	-0.011	-0.068
-447.895	136.944	-0.149	-0.196
-446.880	519.789	0.176	-0.414
-445.865	37.771	-0.233	-0.208
-444.851	-200.000	-0.010	0.362
-443.836	800.000	0.048	-0.152
-442.822	117.393	0.104	-0.129
-441.807	76.331	-0.180	-0.192
-440.792	-200.000	-0.033	0.241
-439.778	41.484	-0.066	0.060
-438.763	68.377	-0.088	-0.090
-437.749	32.953	-0.178	0.155
-436.734	100.738	0.215	0.252
-435.719	-200.000	-0.033	-0.184
-434.705	124.755	0.212	-0.268
-433.690	-12.012	0.137	0.090
-432.676	-167.733	0.246	0.010
-431.661	-104.211	-0.465	0.109
-430.646	395.858	-0.236	0.496
-429.632	-200.000	-0.008	0.037
-428.617	-57.675	-0.194	-0.085
-427.603	-95.343	0.265	-0.072
-426.588	-141.122	-0.229	-0.024
-425.573	43.379	0.156	-0.143
-424.559	-200.000	0.006	-0.156
-423.544	800.000	-0.046	-0.164
-422.530	-35.669	-0.172	0.094
-421.515	13.332	-0.071	0.055
-420.500	718.240	-0.020	0.054
-419.486	-47.908	0.274	0.133
-418.471	-200.000	-0.015	-0.218
-417.457	123.873	-0.125	0.157
-416.442	-110.938	0.145	0.030
-415.428	-200.000	-0.027	-0.318
-414.413	65.992	-0.101	-0.103
-413.398	54.923	-0.042	-0.041
-412.384	-57.834	-0.578	0.254
-411.369	41.839	0.298	-0.271
-410.355	-48.139	0.299	0.145
-409.340	-160.485	0.264	-0.014
-408.325	-36.263	0.047	-0.025
-407.311	-39.839	-0.259	0.136
-406.296	-148.343	-0.183	0.015
-405.282	351.536	-0.058	0.115
-404.267	-93.269	-0.226	0.063
-403.252	61.086	0.197	-0.196
-402.238	-39.322	0.166	-0.087
-401.223	-200.000	-0.017	-0.080
-400.209	-19.585	-0.044	-0.027
-399.194	108.118	-0.207	-0.248
-398.179	372.810	-0.071	0.145
-397.165	76.110	0.060	0.064
-396.150	-200.000	-0.015	0.244
-395.136	-41.327	-0.202	0.104
-394.121	-54.358	0.252	-0.115
-393.106	-200.000	0.036	-0.347
-392.092	-200.000	0.064	-0.373
-391.077	800.000	-0.041	-0.165
-390.063	32.803	0.085	0.074
-389.048	800.000	-0.038	0.115
-388.033	-200.000	0.037	0.219
-387.019	-130.034	-0.344	-0.047
-386.004	800.000	-0.099	0.426
-384.990	-66.645	-0.469	-0.186
-383.975	131.181	-0.054	0.070
-382.960	800.000	0.093	0.346
-381.946	237.774	0.070	0.116
-380.931	-119.769	0.059	-0.010
-379.917	-200.000	-0.024	0.168
-378.902	43.963	-0.091	-0.084
-377.888	225.232	0.203	0.329
-376.873	199.663	-0.149	-0.230
-375.858	-88.911	-0.171	0.051
-374.844	43.524	0.088	-0.080
-373.829	226.008	-0.059	0.095
-372.815	79.589	-0.124	0.133
-371.800	-200.000	-0.004	-0.018
-370.785	-61.733	-0.220	0.093
-369.771	-49.561	-0.068	0.032
-368.756	-106.335	-0.106	0.024
-367.742	800.000	-0.063	0.245
-366.727	-12.430	-0.253	-0.166
-365.712	-200.000	0.005	0.033
-364.698	162.542	-0.131	-0.184
-363.683	-99.823	0.345	-0.087
-362.669	-120.194	-0.145	-0.025
-361.654	-23.462	0.097	0.058
-360.639	495.533	-0.091	-0.210
-359.625	39.476	0.037	-0.033
-358.610	800.000	0.078	0.246
-357.596	545.252	0.053	0.127
-356.581	-132.231	0.214	0.028
-355.566	-115.827	-0.058	-0.011
-354.552	90.053	0.128	-0.144
-353.537	800.000	0.124	0.381
-352.523	-143.612	-0.255	0.024
-351.508	-59.025	-0.111	0.048
-350.493	255.518	0.286	0.492
-349.479	-94.333	-0.369	0.101
-348.464	-200.000	-0.045	0.253
-347.450	-200.000	-0.033	-0.170
-346.435	-142.246	0.598	-0.059
-345.420	800.000	-0.065	0.228
-344.406	10.762	-0.486	0.372
-343.391	-200.000	0.021	-0.177
-342.377	-200.000	-0.043	-0.322
-341.362	119.635	0.114	0.142
-340.348	-57.903	-0.213	0.093
-339.333	-114.564	-0.274	0.053
-338.318	-68.050	-0.265	0.104
-337.304	-200.000	0.047	-0.238
-336.289	87.825	-0.176	-0.195
-335.275	42.644	0.154	-0.140
-334.260	37.824	0.047	-0.042
-333.245	-200.000	0.043	-0.442
-332.231	-123.527	-0.176	0.028
-331.216	-59.367	-0.151	0.065
-330.202	-15.648	-0.172	0.110
-329.187	-200.000	0.081	0.441
-328.172	749.326	0.041	0.111
-327.158	290.396	-0.135	0.245
-326.143	-189.975	-0.142	-0.002
-325.129	-162.193	-0.047	-0.002
-324.114	-200.000	-0.006	0.138
-323.099	178.678	0.208	0.304
-322.085	-42.994	0.243	-0.124
-321.070	60.398	0.147	0.146
-320.056	-76.228	-0.288	0.102
-319.041	-128.541	-0.249	0.035
-318.026	-106.095	0.042	-0.009
-317.012	-80.176	0.145	-0.048
-315.997	-37.981	0.121	0.064
-314.983	264.842	0.120	0.210
-313.968	29.791	-0.327	-0.279
-312.953	-94.352	-0.189	-0.052
-311.939	698.101	0.053	0.140
-310.924	72.548	-0.195	0.203
-309.910	-200.000	-0.057	0.265
-308.895	-200.000	-0.089	-0.427
-307.880	-76.884	0.123	0.043
-306.866	38.119	-0.127	-0.113
-305.851	800.000	0.070	-0.220
-304.837	-172.943	-0.282	-0.009
-303.822	248.101	-0.098	0.166
-302.807	50.775	0.066	-0.062
-301.793	6.386	0.127	-0.094
-300.778	11.942	0.169	0.130
-299.764	-200.000	0.005	-0.066
-298.749	207.267	0.098	-0.152
-297.735	620.776	-0.114	-0.288
-296.720	-200.000	0.032	-0.267
-295.705	194.917	-0.155	0.235
-294.691	-139.407	-0.071	0.008
-293.676	800.000	-0.011	-0.041
-292.662	-9.402	0.151	0.101
-291.647	-43.042	-0.116	0.059
-290.632	170.166	0.227	-0.324
-289.618	-34.909	0.358	0.195
-288.603	-71.101	0.310	0.116
-287.589	-94.223	-0.065	0.018
-286.574	-38.288	0.044	-0.023
-285.559	537.978	0.057	-0.134
-284.545	-200.000	0.006	-0.035
-283.530	249.035	-0.198	0.334
-282.516	-167.493	0.245	0.010
-281.501	19.460	-0.128	0.102
-280.486	-75.003	-0.078	0.028
-279.472	800.000	-0.075	-0.255
-278.457	10.938	-0.229	-0.175
-277.443	-200.000	0.007	0.070
-276.428	800.000	0.098	-0.333
-275.413	108.863	-0.054	-0.064
-274.399	-5.482	0.192	-0.131
-273.384	325.629	0.114	0.218
-272.370	-11.541	0.122	0.080
-271.355	96.957	0.140	-0.160
-270.340	-69.361	0.217	0.083
-269.326	-30.707	0.028	-0.016
-268.311	-124.375	0.373	0.058
-267.297	-38.899	0.101	-0.053
-266.282	-7.969	-0.152	0.102
-265.267	-66.207	-0.321	-0.128
-264.253	-102.646	-0.472	0.112
-263.238	221.752	0.221	-0.354
-262.224	-90.087	-0.298	0.087
-261.209	-92.672	0.299	0.084
-260.195	51.326	0.181	-0.172
-259.180	-156.563	-0.122	0.008
-258.165	-135.845	-0.020	0.002
-257.151	82.855	0.026	-0.028
-256.136	457.169	0.079	0.175
-255.122	-149.724	-0.409	-0.032
-254.107	83.253	0.166	-0.181
-253.092	-132.782	0.079	0.010
-252.078	357.207	0.087	0.173
-251.063	264.798	-0.025	0.044
-250.049	-5.144	-0.007	0.005
-249.034	800.000	-0.042	0.125
-248.019	-61.058	-0.192	-0.081
-247.005	180.801	-0.175	-0.256
-245.990	37.677	-0.162	0.144
-244.976	-78.292	0.285	-0.098
-243.961	-200.000	-0.024	0.114
-242.946	-88.804	0.254	0.075
-241.932	800.000	-0.063	-0.187
-240.917	7.445	0.177	0.132
-239.903	-23.677	0.085	0.051
-238.888	-200.000	0.019	0.140
-237.873	-34.826	0.031	0.017
-236.859	226.907	0.192	0.312
-235.844	-48.712	0.188	0.090
-234.830	57.620	0.296	0.289
-233.815	761.831	-0.111	0.300
-232.800	225.075	0.137	0.222
-231.786	-33.205	0.323	-0.179
-230.771	209.243	0.048	0.075
-229.757	800.000	0.113	0.416
-228.742	-123.326	0.437	-0.070
-227.727	800.000	-0.105	0.426
-226.713	-147.684	-0.126	0.011
-225.698	-200.000	0.011	0.133
-224.684	800.000	-0.104	-0.322
-223.669	-111.682	0.231	-0.047
-222.655	-200.000	0.009	-0.104
-221.640	-200.000	0.011	-0.087
-220.625	-71.541	-0.189	-0.071
-219.611	-28.125	0.075	-0.043
-218.596	-19.834	0.102	-0.063
-217.582	277.958	-0.089	-0.158
-216.567	669.742	0.144	-0.372
-215.552	171.929	-0.028	-0.040
-214.538	-200.000	0.045	0.283
-213.523	-112.180	0.021	-0.004
-212.509	800.000	0.015	0.043
-211.494	32.573	-0.180	-0.155
-210.479	-86.953	0.104	0.032
-209.465	640.169	0.084	-0.214
-208.450	358.530	0.106	-0.210
-207.436	125.715	-0.033	0.041
-206.421	800.000	0.153	-0.426
-205.406	-200.000	0.011	-0.094
-204.392	800.000	-0.122	0.367
-203.377	274.519	0.151	0.267
-202.363	245.153	0.084	-0.141
-201.348	-77.124	0.299	-0.104
-200.333	417.282	0.141	0.301
-199.319	-200.000	0.034	0.325
-198.304	-28.032	0.107	-0.062
-197.290	-106.312	0.052	-0.012
-196.275	-200.000	-0.032	0.161
-195.260	-88.689	0.305	-0.090
-194.246	800.000	0.062	0.205
-193.231	35.392	-0.264	0.231
-192.217	53.429	0.099	-0.094
-191.202	158.783	0.085	-0.117
-190.187	-173.693	-0.385	0.011
-189.173	-38.145	0.299	0.158
-188.158	220.579	-0.102	0.163
-187.144	116.761	0.066	0.081
-186.129	128.761	0.104	0.132
-185.114	-161.811	0.285	0.014
-184.100	800.000	0.038	-0.166
-183.085	-47.180	-0.020	-0.010
-182.071	-200.000	0.047	0.239
-181.056	135.209	-0.340	0.440
-180.042	-109.389	0.324	-0.068
-179.027	-85.884	0.444	-0.137
-178.012	-55.355	0.549	0.245
-176.998	-10.189	-0.256	-0.169
-175.983	-109.486	0.245	-0.052
-174.969	-126.921	-0.053	0.008
-173.954	25.098	0.268	-0.222
-172.939	-200.000	-0.034	0.322
-171.925	-97.827	-0.135	0.035
-170.910	342.420	0.035	0.068
-169.896	16.330	0.196	-0.154
-168.881	-34.704	0.176	0.096
-167.866	-121.827	0.068	-0.011
-166.852	440.435	-0.109	-0.236
-165.837	166.041	-0.186	-0.262
-164.823	-42.986	-0.299	0.151
-163.808	-92.947	-0.163	-0.045
-162.793	-200.000	-0.048	0.282
-161.779	104.364	-0.333	0.390
-160.764	-26.515	0.233	-0.136
-159.750	131.943	0.064	0.082
-158.735	69.717	0.152	0.156
-157.720	-200.000	0.018	0.319
-156.706	-60.373	0.237	0.100
-155.691	218.581	0.067	-0.106
-154.677	-200.000	-0.017	0.078
-153.662	-90.300	-0.162	-0.047
-152.647	-200.000	0.031	-0.273
-151.633	60.109	0.182	-0.179
-150.618	247.469	0.039	0.065
-149.604	264.017	0.075	0.130
-148.589	293.621	0.032	0.059
-147.574	240.868	0.086	-0.143
-146.560	3.520	-0.172	-0.125
-145.545	3.911	0.532	-0.386
-144.531	-9.624	0.389	0.258
-143.516	-19.906	0.170	-0.105
-142.502	-200.000	-0.016	0.136
-141.487	-33.546	-0.115	-0.063
-140.472	305.663	0.067	-0.124
-139.458	353.447	0.128	-0.253
-138.443	-162.427	0.439	-0.022
-137.429	-123.195	0.213	0.034
-136.414	800.000	-0.108	0.344
-135.399	-78.128	-0.012	-0.004
-134.385	-69.110	0.213	-0.082
-133.370	-200.000	0.003	-0.158
-132.356	800.000	0.078	-0.333
-131.341	731.223	-0.068	0.181
-130.326	-79.859	-0.036	0.012
-129.312	-103.275	0.460	0.108
-128.297	-200.000	-0.002	0.210
-127.283	389.486	-0.144	-0.297
-126.268	203.511	0.069	0.106
-125.253	-83.881	0.201	-0.064
-124.239	32.229	-0.257	0.220
-123.224	-200.000	0.031	0.278
-122.210	26.015	0.184	-0.152
-121.195	80.898	0.123	0.132
