DTS Sentinel unit serial number:	SN413079Multiplexer serial number:	ORYXHardware model number:	OX4-SRSoftware version number:	ORYX F/W v4.00 Oryx Data Collector v3.7.2.0data status	okinstallation	princeton_trtdifferential loss correction	single-endedforward channel	channel 4reverse channel	N/Adate	2019/09/12time	07:35:10forward acquisition time	60.00reverse acquisition time	0.00gamma	496.2192k internal	0.2305k external	0.2305temperature offset calibration	1.0063default loss term (dB/km)	0.3790temperature slope calibration	1.0000multiplexer offset coefficient	1.0000multiplexer slope coefficient	1.0000fibre end	0.00T internal ref (°C)	32.61T ext. ref 1 (°C)	1.64T ext. ref 2 (°C)	29.17length (m)	temperature (°C)	Stokes	anti-Stokes-747.200	-78.685	0.140	-0.049
-746.185	118.509	-0.083	-0.105
-745.171	-51.864	0.155	0.073
-744.156	-200.000	-0.066	0.488
-743.142	86.436	0.071	0.079
-742.127	30.193	-0.279	0.243
-741.112	161.249	-0.273	0.388
-740.098	141.492	0.082	0.110
-739.083	-58.104	-0.198	-0.088
-738.069	-200.000	-0.005	0.250
-737.054	-118.914	0.323	-0.058
-736.039	109.192	-0.098	-0.120
-735.025	67.666	0.154	0.160
-734.010	-86.939	-0.450	-0.140
-732.996	294.765	-0.175	0.326
-731.981	-82.513	-0.279	-0.092
-730.966	109.435	-0.307	-0.374
-729.952	-51.561	-0.088	-0.042
-728.937	-44.164	0.121	0.062
-727.923	506.031	-0.015	-0.035
-726.908	181.618	-0.150	0.225
-725.894	-200.000	-0.029	0.180
-724.879	-200.000	0.043	0.223
-723.864	-9.758	-0.022	-0.015
-722.850	-59.012	-0.102	0.045
-721.835	67.134	-0.104	0.108
-720.821	106.641	-0.118	-0.142
-719.806	-200.000	-0.004	-0.293
-718.791	-146.776	0.078	-0.007
-717.777	-90.057	-0.227	-0.067
-716.762	-77.467	0.054	0.019
-715.748	137.855	-0.075	-0.100
-714.733	-200.000	0.016	-0.211
-713.718	115.263	0.062	0.077
-712.704	-64.584	0.144	0.059
-711.689	88.587	0.169	-0.191
-710.675	342.158	0.276	-0.549
-709.660	66.964	0.175	-0.182
-708.645	288.482	-0.139	-0.256
-707.631	-23.700	0.524	-0.319
-706.616	800.000	0.034	-0.096
-705.602	27.327	-0.092	-0.079
-704.587	62.653	0.156	-0.159
-703.572	84.585	0.189	0.210
-702.558	-47.844	-0.432	-0.213
-701.543	43.041	-0.072	-0.067
-700.529	-200.000	0.003	0.350
-699.514	90.695	-0.169	0.192
-698.499	69.787	0.218	0.229
-697.485	-200.000	-0.037	-0.214
-696.470	11.289	0.109	-0.085
-695.456	-89.474	-0.301	-0.090
-694.441	-70.147	0.083	-0.032
-693.426	31.926	0.487	0.426
-692.412	74.313	0.128	0.137
-691.397	-85.411	-0.317	-0.100
-690.383	-153.610	0.444	0.031
-689.368	-200.000	0.065	0.402
-688.354	-78.743	-0.258	-0.090
-687.339	-88.316	0.122	-0.037
-686.324	277.543	-0.039	-0.071
-685.310	-200.000	0.044	-0.213
-684.295	-45.120	-0.149	0.075
-683.281	-83.023	-0.437	-0.143
-682.266	-26.580	0.250	0.149
-681.251	375.507	0.090	0.186
-680.237	-166.970	-0.257	0.011
-679.222	-192.101	-0.377	-0.004
-678.208	-200.000	0.046	-0.237
-677.193	-139.569	0.359	-0.039
-676.178	305.958	-0.063	0.118
-675.164	-200.000	-0.014	0.192
-674.149	451.904	0.077	0.174
-673.135	-200.000	0.029	0.141
-672.120	-200.000	-0.001	0.072
-671.105	237.846	-0.152	-0.255
-670.091	-85.458	-0.102	-0.032
-669.076	-200.000	-0.003	0.295
-668.062	-3.340	0.144	0.102
-667.047	30.561	-0.215	0.186
-666.032	-160.545	0.082	-0.004
-665.018	-9.628	-0.241	-0.163
-664.003	184.274	-0.070	-0.104
-662.989	-200.000	0.080	-0.534
-661.974	800.000	-0.046	-0.156
-660.959	-24.063	0.031	-0.019
-659.945	-104.479	-0.448	-0.105
-658.930	-14.051	-0.148	-0.097
-657.916	169.888	0.128	0.186
-656.901	-172.525	-0.107	0.003
-655.886	-200.000	-0.036	0.392
-654.872	57.264	-0.135	0.133
-653.857	221.593	-0.110	0.180
-652.843	-128.199	-0.198	0.029
-651.828	-18.213	-0.535	-0.340
-650.814	214.439	-0.159	0.256
-649.799	39.689	0.134	0.122
-648.784	-200.000	0.003	0.082
-647.770	54.870	-0.149	-0.146
-646.755	-153.812	0.299	0.021
-645.741	128.309	-0.132	-0.171
-644.726	-200.000	-0.023	0.104
-643.711	287.702	0.102	-0.187
-642.697	43.741	0.198	-0.184
-641.682	112.060	-0.099	0.121
-640.668	-200.000	-0.033	0.321
-639.653	-200.000	-0.005	0.026
-638.638	378.048	-0.069	-0.144
-637.624	71.232	-0.109	-0.115
-636.609	-71.905	0.172	0.065
-635.595	112.210	-0.178	-0.218
-634.580	-116.541	0.159	-0.030
-633.565	-200.000	0.020	0.417
-632.551	-106.961	-0.237	0.053
-631.536	-180.089	0.291	0.006
-630.522	-200.000	-0.003	-0.145
-629.507	759.658	-0.001	-0.004
-628.492	-200.000	-0.001	-0.143
-627.478	113.870	0.142	0.175
-626.463	-200.000	-0.007	0.266
-625.449	89.629	-0.094	-0.106
-624.434	281.207	0.249	0.451
-623.419	-84.599	-0.188	0.060
-622.405	354.280	0.027	-0.054
-621.390	16.513	-0.143	0.115
-620.376	173.335	-0.050	-0.073
-619.361	-85.305	-0.170	0.054
-618.346	-74.643	0.182	-0.066
-617.332	-89.875	0.380	0.113
-616.317	194.743	0.158	-0.242
-615.303	-30.885	0.364	0.208
-614.288	-83.668	-0.184	0.059
-613.273	379.064	-0.018	-0.037
-612.259	16.980	-0.151	0.121
-611.244	91.372	0.058	0.066
-610.230	84.799	-0.070	-0.077
-609.215	800.000	-0.055	-0.166
-608.201	67.024	0.091	0.094
-607.186	78.674	-0.088	0.095
-606.171	-54.700	0.231	-0.106
-605.157	33.449	0.074	0.065
-604.142	342.576	-0.143	-0.283
-603.128	15.913	0.192	0.153
-602.113	110.446	0.145	-0.177
-601.098	271.778	-0.166	0.296
-600.084	189.709	-0.145	-0.220
-599.069	-200.000	0.031	-0.269
-598.055	800.000	-0.124	0.448
-597.040	649.130	-0.064	0.167
-596.025	-67.312	-0.428	0.170
-595.011	67.611	-0.091	-0.095
-593.996	-39.018	-0.082	0.044
-592.982	-4.067	0.398	0.279
-591.967	-36.590	0.058	0.032
-590.952	165.434	-0.083	-0.119
-589.938	-86.975	0.180	-0.055
-588.923	800.000	-0.046	0.192
-587.909	742.628	0.057	0.156
-586.894	-156.756	-0.114	-0.007
-585.879	320.976	0.068	0.130
-584.865	69.738	-0.173	0.181
-583.850	-132.532	0.392	0.051
-582.836	41.296	-0.303	0.277
-581.821	-63.994	-0.386	0.160
-580.806	-16.552	-0.073	0.047
-579.792	800.000	0.094	0.370
-578.777	446.094	0.197	0.438
-577.763	-9.767	-0.282	0.190
-576.748	-99.988	-0.019	0.005
-575.733	273.737	0.109	-0.195
-574.719	-38.544	0.238	-0.127
-573.704	800.000	0.037	0.104
-572.690	12.451	-0.112	-0.087
-571.675	-200.000	-0.029	-0.156
-570.661	-200.000	-0.026	0.144
-569.646	-71.314	-0.182	0.069
-568.631	27.268	-0.154	-0.130
-567.617	-200.000	-0.006	0.160
-566.602	752.464	-0.061	-0.167
-565.588	-64.082	0.255	-0.105
-564.573	-29.616	0.082	0.047
-563.558	800.000	-0.052	-0.213
-562.544	211.203	-0.202	-0.322
-561.529	-64.679	-0.326	-0.134
-560.515	180.656	-0.103	-0.152
-559.500	-121.313	-0.037	0.006
-558.485	266.511	-0.260	0.459
-557.471	210.542	0.162	-0.256
-556.456	-160.949	0.374	-0.020
-555.442	-38.689	-0.178	-0.095
-554.427	-79.280	0.113	-0.039
-553.412	231.985	-0.083	-0.138
-552.398	115.697	-0.025	-0.031
-551.383	172.019	0.252	0.366
-550.369	94.023	0.192	0.220
-549.354	71.514	0.260	-0.273
-548.339	-26.116	-0.395	-0.234
-547.325	-142.078	-0.127	-0.013
-546.310	259.153	0.009	-0.015
-545.296	-200.000	0.014	0.187
-544.281	273.995	0.082	0.146
-543.266	800.000	0.123	-0.430
-542.252	359.741	0.110	0.223
-541.237	548.266	-0.106	0.256
-540.223	-31.515	-0.127	-0.072
-539.208	-135.328	0.166	0.020
-538.193	248.093	-0.156	0.266
-537.179	-66.859	0.244	-0.098
-536.164	210.160	0.153	-0.243
-535.150	-200.000	-0.038	-0.217
-534.135	694.991	-0.088	-0.233
-533.121	388.628	-0.088	-0.183
-532.106	-50.014	0.100	0.048
-531.091	77.104	0.133	-0.142
-530.077	23.033	-0.139	-0.115
-529.062	-200.000	-0.060	-0.378
-528.048	138.158	0.201	0.266
-527.033	202.111	-0.174	0.271
-526.018	-180.136	-0.424	-0.009
-525.004	-74.815	-0.126	-0.046
-523.989	138.423	0.136	0.180
-522.975	46.638	0.200	-0.187
-521.960	-54.622	0.135	-0.062
-520.945	-169.413	0.313	0.012
-519.931	614.010	0.033	-0.084
-518.916	223.957	-0.083	0.136
-517.902	171.958	0.127	-0.185
-516.887	-25.645	-0.154	0.092
-515.872	-200.000	0.029	0.284
-514.858	65.059	-0.053	0.054
-513.843	-200.000	-0.027	0.230
-512.829	-128.173	0.152	0.022
-511.814	40.590	0.281	0.256
-510.799	-123.857	-0.140	-0.022
-509.785	501.677	-0.096	0.224
-508.770	6.585	-0.220	-0.165
-507.756	-39.543	-0.181	0.096
-506.741	111.524	-0.185	-0.225
-505.726	-40.237	-0.107	0.056
-504.712	-32.260	-0.164	-0.093
-503.697	-163.824	-0.028	0.001
-502.683	20.189	0.159	0.129
-501.668	-110.635	-0.200	-0.042
-500.653	-46.102	0.205	-0.102
-499.639	358.272	0.145	-0.291
-498.624	-165.529	-0.176	0.008
-497.610	721.202	-0.050	0.134
-496.595	-64.887	-0.147	-0.060
-495.581	-129.208	0.088	-0.012
-494.566	-83.747	0.119	0.038
-493.551	800.000	-0.083	0.237
-492.537	480.599	-0.156	0.357
-491.522	-200.000	-0.019	0.521
-490.508	71.916	-0.347	-0.364
-489.493	-49.075	-0.230	0.111
-488.478	-40.465	0.164	-0.086
-487.464	-144.399	0.185	0.017
-486.449	161.795	0.153	0.216
-485.435	-200.000	-0.028	-0.433
-484.420	252.691	0.134	0.231
-483.405	-97.073	-0.030	0.008
-482.391	-137.031	-0.209	-0.024
-481.376	-200.000	-0.046	-0.456
-480.362	5.084	-0.310	-0.230
-479.347	-73.632	-0.180	-0.066
-478.332	-99.994	0.121	-0.031
-477.318	800.000	-0.120	-0.359
-476.303	-200.000	-0.028	-0.193
-475.289	800.000	-0.054	0.177
-474.274	-65.532	0.374	-0.151
-473.259	-200.000	0.019	-0.217
-472.245	-71.922	0.288	-0.108
-471.230	64.550	-0.105	-0.107
-470.216	-143.243	-0.195	0.019
-469.201	79.430	-0.055	0.060
-468.186	43.857	-0.045	-0.041
-467.172	800.000	-0.050	-0.167
-466.157	-128.743	0.358	0.051
-465.143	-200.000	0.010	0.131
-464.128	593.841	-0.179	0.445
-463.113	800.000	-0.156	-0.568
-462.099	-200.000	-0.018	-0.469
-461.084	800.000	0.014	-0.049
-460.070	-200.000	0.062	-0.375
-459.055	80.626	0.164	0.178
-458.040	800.000	0.081	0.247
-457.026	365.250	-0.112	-0.228
-456.011	397.028	0.158	-0.333
-454.997	-174.844	0.219	-0.006
-453.982	106.845	0.369	-0.441
-452.968	-189.886	-0.260	-0.003
-451.953	-200.000	0.009	0.039
-450.938	-200.000	-0.059	-0.335
-449.924	-200.000	-0.026	-0.163
-448.909	-93.684	0.273	-0.076
-447.895	4.967	0.124	-0.092
-446.880	-19.605	0.077	0.048
-445.865	-81.568	-0.107	0.035
-444.851	-200.000	0.001	0.127
-443.836	-94.076	-0.317	-0.087
-442.822	-200.000	0.323	0.001
-441.807	685.727	0.084	0.221
-440.792	-56.608	-0.177	0.079
-439.778	-200.000	-0.008	0.166
-438.763	-63.893	0.227	-0.093
-437.749	-200.000	0.007	0.136
-436.734	-30.161	0.094	-0.054
-435.719	-36.194	-0.118	-0.064
-434.705	800.000	0.100	-0.298
-433.690	405.384	0.246	-0.521
-432.676	-104.604	0.057	0.013
-431.661	46.486	-0.097	0.091
-430.646	-108.744	-0.197	-0.043
-429.632	242.866	0.103	-0.174
-428.617	290.491	-0.069	0.127
-427.603	-101.622	-0.329	-0.080
-426.588	-38.582	-0.207	0.110
-425.573	-62.022	0.323	-0.135
-424.559	389.677	0.064	0.134
-423.544	-200.000	0.029	-0.202
-422.530	800.000	0.088	0.341
-421.515	158.578	0.107	-0.149
-420.500	15.455	-0.156	0.123
-419.486	-200.000	-0.049	0.243
-418.471	505.723	0.019	-0.044
-417.457	-59.460	-0.314	-0.136
-416.442	407.772	-0.118	-0.252
-415.428	94.123	-0.023	0.026
-414.413	-200.000	0.033	-0.314
-413.398	800.000	-0.075	-0.310
-412.384	-123.433	-0.444	-0.071
-411.369	151.102	0.147	-0.202
-410.355	-200.000	-0.034	0.257
-409.340	-5.951	0.182	-0.125
-408.325	-120.985	-0.212	-0.036
-407.311	-66.458	-0.391	0.156
-406.296	208.230	-0.132	0.207
-405.282	279.693	0.077	-0.138
-404.267	4.037	-0.237	-0.174
-403.252	800.000	-0.016	0.053
-402.238	-77.035	0.271	0.095
-401.223	800.000	0.018	0.061
-400.209	310.189	-0.175	0.329
-399.194	-200.000	-0.013	0.098
-398.179	44.710	0.279	0.258
-397.165	239.196	-0.114	-0.190
-396.150	-200.000	-0.005	0.056
-395.136	381.051	-0.104	0.214
-394.121	-83.931	0.432	0.138
-393.106	-200.000	-0.024	0.124
-392.092	-113.874	-0.180	-0.035
-391.077	-200.000	0.002	0.212
-390.063	-85.865	0.242	0.075
-389.048	-108.018	-0.137	0.030
-388.033	19.661	0.187	0.151
-387.019	-91.354	-0.292	0.084
-386.004	-153.290	-0.099	-0.007
-384.990	-90.517	-0.186	0.054
-383.975	126.928	0.174	-0.222
-382.960	125.078	0.242	0.307
-381.946	-60.043	0.154	0.066
-380.931	-200.000	0.038	0.471
-379.917	800.000	-0.005	-0.016
-378.902	-83.671	-0.223	-0.071
-377.888	-146.729	-0.232	-0.020
-376.873	-37.253	0.282	-0.151
-375.858	35.980	-0.278	0.245
-374.844	64.844	-0.069	0.070
-373.829	127.076	0.079	-0.101
-372.815	47.963	-0.301	0.282
-371.800	800.000	0.052	0.201
-370.785	-200.000	0.021	0.145
-369.771	800.000	-0.164	-0.469
-368.756	-102.498	0.146	-0.035
-367.742	-200.000	-0.007	-0.086
-366.727	-200.000	0.019	0.347
-365.712	174.832	0.095	-0.138
-364.698	-22.607	0.303	-0.184
-363.683	-7.970	-0.336	-0.227
-362.669	-32.579	-0.177	-0.099
-361.654	-162.052	-0.132	-0.007
-360.639	645.904	0.091	-0.234
-359.625	800.000	-0.071	0.284
-358.610	-190.822	-0.361	-0.004
-357.596	800.000	-0.068	-0.203
-356.581	29.600	-0.265	0.226
-355.566	-200.000	-0.003	0.209
-354.552	9.940	-0.150	-0.114
-353.537	-200.000	-0.012	0.305
-352.523	234.491	0.051	-0.084
-351.508	-200.000	-0.019	0.157
-350.493	-200.000	-0.042	-0.339
-349.479	-98.505	-0.154	0.040
-348.464	-31.814	0.200	-0.112
-347.450	-91.212	0.212	-0.061
-346.435	800.000	0.127	-0.433
-345.420	71.869	0.025	0.026
-344.406	40.020	0.117	0.105
-343.391	-200.000	-0.003	-0.048
-342.377	800.000	-0.086	-0.360
-341.362	561.879	0.133	0.323
-340.348	-61.512	0.166	-0.070
-339.333	-38.011	0.166	-0.088
-338.318	40.151	-0.190	0.171
-337.304	208.001	0.050	-0.078
-336.289	47.968	-0.168	-0.158
-335.275	-165.280	-0.245	-0.011
-334.260	-200.000	0.053	-0.247
-333.245	-200.000	-0.003	-0.035
-332.231	-71.246	-0.277	0.104
-331.216	-165.398	-0.243	0.011
-330.202	-200.000	0.039	-0.207
-329.187	45.934	-0.144	0.133
-328.172	244.597	0.197	0.331
-327.158	325.989	0.153	0.294
-326.143	-164.637	-0.292	0.013
-325.129	58.562	-0.158	0.155
-324.114	-39.354	0.291	0.153
-323.099	-28.345	-0.233	0.135
-322.085	78.957	0.087	-0.093
-321.070	702.801	-0.053	-0.139
-320.056	-130.781	0.259	0.035
-319.041	-98.550	0.171	-0.044
-318.026	3.536	-0.026	0.019
-317.012	800.000	-0.034	-0.116
-315.997	117.535	0.196	0.241
-314.983	-58.908	-0.088	-0.038
-313.968	-84.459	-0.121	-0.038
-312.953	-200.000	-0.059	-0.284
-311.939	149.640	-0.011	-0.016
-310.924	-102.010	0.241	0.058
-309.910	408.813	0.075	0.158
-308.895	364.561	-0.157	-0.315
-307.880	-56.571	0.214	-0.095
-306.866	-64.839	0.059	-0.024
-305.851	25.258	-0.342	0.284
-304.837	278.839	-0.161	0.287
-303.822	-107.491	-0.066	0.014
-302.807	-100.984	0.406	0.100
-301.793	-90.638	0.118	0.034
-300.778	194.767	-0.078	0.118
-299.764	-39.785	0.272	-0.142
-298.749	456.612	0.165	-0.365
-297.735	-12.251	-0.109	-0.071
-296.720	-200.000	0.012	-0.234
-295.705	47.893	-0.051	-0.047
-294.691	-122.096	-0.225	-0.037
-293.676	-200.000	-0.020	-0.267
-292.662	67.637	-0.156	-0.159
-291.647	-69.935	0.089	-0.034
-290.632	800.000	-0.022	0.074
-289.618	236.966	-0.096	0.160
-288.603	-82.974	-0.385	0.124
-287.589	-123.581	-0.053	0.008
-286.574	12.158	0.176	-0.135
-285.559	-154.112	-0.207	-0.014
-284.545	37.124	-0.177	-0.157
-283.530	691.167	-0.101	-0.264
-282.516	323.674	0.051	-0.098
-281.501	273.122	0.071	0.125
-280.486	800.000	0.091	-0.371
-279.472	364.368	-0.083	-0.166
-278.457	-200.000	-0.101	-0.504
-277.443	38.703	-0.070	0.063
-276.428	61.000	-0.169	-0.168
-275.413	105.790	-0.080	0.094
-274.399	-200.000	0.021	-0.199
-273.384	-70.151	0.060	-0.023
-272.370	800.000	-0.035	-0.110
-271.355	97.928	0.106	0.122
-270.340	-26.972	0.206	0.120
-269.326	85.483	0.131	0.144
-268.311	800.000	-0.030	-0.112
-267.297	-200.000	-0.028	0.386
-266.282	800.000	0.101	-0.293
-265.267	32.295	0.077	-0.067
-264.253	288.918	0.043	-0.078
-263.238	800.000	-0.070	0.213
-262.224	-76.517	-0.437	-0.153
-261.209	-200.000	0.054	-0.288
-260.195	-107.670	0.268	-0.059
-259.180	297.681	0.151	-0.278
-258.165	-14.589	-0.042	0.027
-257.151	115.578	-0.113	0.138
-256.136	-84.899	-0.083	-0.026
-255.122	284.895	0.068	0.122
-254.107	-53.366	0.022	0.010
-253.092	-60.775	-0.167	-0.071
-252.078	-146.427	0.187	-0.016
-251.063	-200.000	-0.010	-0.244
-250.049	-101.320	0.508	0.124
-249.034	411.692	-0.047	-0.100
-248.019	-86.675	-0.173	0.053
-247.005	-200.000	0.041	-0.194
-245.990	-200.000	0.003	0.370
-244.976	137.790	0.141	0.184
-243.961	-200.000	-0.006	-0.083
-242.946	800.000	-0.088	-0.255
-241.932	-200.000	0.016	0.232
-240.917	-200.000	0.004	0.104
-239.903	83.836	0.123	-0.134
-238.888	-152.291	-0.283	-0.020
-237.873	296.520	0.167	-0.307
-236.859	-68.685	0.125	0.048
-235.844	444.266	0.039	0.086
-234.830	139.499	-0.195	0.256
-233.815	-108.758	0.194	0.041
-232.800	-35.440	0.100	-0.054
-231.786	4.017	0.112	0.082
-230.771	283.231	0.057	-0.103
-229.757	-105.843	0.270	0.061
-228.742	-53.334	-0.250	0.114
-227.727	800.000	-0.078	0.268
-226.713	-54.113	-0.265	-0.120
-225.698	281.184	-0.036	0.064
-224.684	0.177	0.163	0.116
-223.669	800.000	0.085	0.304
-222.655	51.166	-0.185	0.175
-221.640	-200.000	-0.008	0.060
-220.625	717.567	0.068	0.180
-219.611	-173.434	0.300	-0.009
-218.596	476.260	-0.104	0.235
-217.582	135.974	0.093	-0.120
-216.567	-37.874	-0.086	0.046
-215.552	-200.000	0.002	0.090
-214.538	508.373	0.021	-0.049
-213.523	800.000	0.065	0.209
-212.509	231.763	0.213	-0.348
-211.494	800.000	-0.060	-0.209
-210.479	-131.344	-0.257	0.034
-209.465	155.589	-0.284	-0.390
-208.450	-140.991	0.332	0.034
-207.436	-141.491	0.332	0.034
-206.421	-200.000	0.014	0.212
-205.406	-200.000	0.031	0.153
-204.392	254.230	0.222	0.379
-203.377	-200.000	0.007	0.082
-202.363	-3.881	0.093	0.065
-201.348	630.974	0.123	-0.311
-200.333	314.578	0.041	-0.076
-199.319	-129.518	0.291	0.040
-198.304	6.411	0.206	0.152
-197.290	800.000	-0.089	-0.305
-196.275	-1.597	0.046	-0.032
-195.260	-80.223	0.119	0.040
-194.246	-172.537	-0.142	0.004
-193.231	-80.696	0.288	0.095
-192.217	800.000	-0.072	0.220
-191.202	173.739	-0.136	0.196
-190.187	164.686	-0.219	-0.307
-189.173	-152.514	0.181	-0.013
-188.158	-50.040	0.410	0.193
-187.144	292.666	0.113	0.206
-186.129	2.514	-0.138	0.100
-185.114	-135.629	0.345	-0.041
-184.100	800.000	-0.052	0.152
-183.085	115.117	0.165	-0.201
-182.071	409.382	0.081	0.171
-181.056	-9.578	0.113	-0.075
-180.042	252.201	-0.180	-0.305
-179.027	-59.014	0.231	-0.099
-178.012	32.493	0.054	-0.047
-176.998	36.316	-0.061	0.053
-175.983	40.552	0.162	0.145
-174.969	-200.000	-0.029	-0.430
-173.954	-179.760	0.178	-0.004
-172.939	800.000	-0.071	-0.242
-171.925	800.000	-0.040	0.156
-170.910	-130.147	-0.028	0.004
-169.896	800.000	0.038	0.138
-168.881	210.889	-0.118	0.185
-167.866	-24.913	-0.148	0.087
-166.852	800.000	-0.038	0.161
-165.837	-171.778	0.223	0.007
-164.823	536.520	0.089	0.211
-163.808	77.901	-0.046	0.049
-162.793	-142.045	-0.194	-0.019
-161.779	800.000	-0.048	0.183
-160.764	152.859	0.026	-0.035
-159.750	-200.000	0.005	0.389
-158.735	320.817	0.043	-0.082
-157.720	55.776	0.248	0.239
-156.706	-52.453	-0.028	-0.013
-155.691	-18.799	-0.047	0.029
-154.677	-42.030	-0.134	-0.068
-153.662	-200.000	-0.022	0.395
-152.647	-117.598	-0.249	-0.045
-151.633	386.601	-0.162	-0.332
-150.618	800.000	-0.131	-0.497
-149.604	-48.282	0.314	0.151
-148.589	-104.786	0.099	0.023
-147.574	14.799	0.118	0.092
-146.560	394.721	0.125	0.258
-145.545	3.027	0.041	-0.029
-144.531	-40.471	-0.139	-0.072
-143.516	-200.000	-0.007	0.164
-142.502	800.000	0.043	-0.140
-141.487	-200.000	0.044	-0.317
-140.472	800.000	-0.035	0.136
-139.458	0.026	-0.148	-0.105
-138.443	-132.111	-0.176	-0.023
-137.429	-200.000	0.027	-0.142
-136.414	-103.417	0.323	0.076
-135.399	-124.170	0.041	-0.006
-134.385	353.300	-0.060	0.118
-133.370	61.640	0.297	0.294
-132.356	-53.680	-0.128	-0.058
-131.341	-99.954	-0.201	-0.050
-130.326	-200.000	-0.008	-0.048
-129.312	65.792	-0.163	0.164
-128.297	198.468	-0.101	0.154
-127.283	35.034	-0.238	0.207
-126.268	102.617	0.077	0.089
-125.253	800.000	0.050	-0.189
-124.239	347.070	-0.058	0.113
-123.224	-126.470	0.171	0.025
-122.210	800.000	-0.052	0.214
-121.195	-200.000	-0.006	-0.283
