DTS Sentinel unit serial number:	SN413079Multiplexer serial number:	ORYXHardware model number:	OX4-SRSoftware version number:	ORYX F/W v4.00 Oryx Data Collector v3.7.2.0data status	okinstallation	princeton_trtdifferential loss correction	single-endedforward channel	channel 4reverse channel	N/Adate	2019/09/12time	02:07:10forward acquisition time	60.00reverse acquisition time	0.00gamma	496.2192k internal	0.2308k external	0.2308temperature offset calibration	1.0094default loss term (dB/km)	0.3790temperature slope calibration	1.0000multiplexer offset coefficient	1.0000multiplexer slope coefficient	1.0000fibre end	0.00T internal ref (°C)	32.69T ext. ref 1 (°C)	2.07T ext. ref 2 (°C)	27.40length (m)	temperature (°C)	Stokes	anti-Stokes-747.200	209.256	-0.108	0.172
-746.185	800.000	-0.113	0.419
-745.171	65.731	-0.097	0.100
-744.156	12.731	-0.323	0.254
-743.142	2.129	0.130	-0.095
-742.127	-116.311	-0.320	-0.060
-741.112	-73.769	0.146	0.054
-740.098	-200.000	-0.003	0.077
-739.083	-200.000	-0.012	-0.197
-738.069	-6.604	-0.114	-0.079
-737.054	144.813	0.094	0.128
-736.039	282.137	-0.104	0.190
-735.025	-100.589	0.333	-0.084
-734.010	-63.527	-0.133	0.055
-732.996	-163.676	-0.032	0.002
-731.981	-25.114	-0.365	0.220
-730.966	47.763	0.019	-0.018
-729.952	172.356	-0.108	-0.158
-728.937	52.261	-0.210	-0.203
-727.923	800.000	-0.056	-0.172
-726.908	-200.000	-0.005	0.223
-725.894	363.523	-0.089	-0.182
-724.879	774.058	-0.048	-0.133
-723.864	-200.000	0.033	-0.219
-722.850	95.862	-0.376	-0.436
-721.835	259.790	0.197	-0.345
-720.821	-21.864	-0.310	-0.192
-719.806	322.777	-0.047	0.090
-718.791	58.716	-0.145	0.144
-717.777	-22.321	0.167	-0.103
-716.762	310.877	0.181	-0.345
-715.748	-32.968	-0.333	-0.187
-714.733	68.702	-0.155	-0.161
-713.718	101.726	0.311	-0.368
-712.704	-200.000	0.044	0.281
-711.689	-38.307	0.241	0.130
-710.675	95.333	0.075	-0.087
-709.660	800.000	-0.039	-0.153
-708.645	15.806	-0.053	-0.042
-707.631	11.778	0.138	-0.108
-706.616	-200.000	-0.011	0.080
-705.602	-200.000	0.007	0.093
-704.587	-200.000	0.023	-0.176
-703.572	-106.007	-0.071	-0.016
-702.558	800.000	0.078	-0.240
-701.543	45.016	-0.198	-0.185
-700.529	262.436	0.001	-0.002
-699.514	-72.896	0.134	0.050
-698.499	159.451	0.103	0.145
-697.485	561.891	-0.053	0.129
-696.470	-103.147	0.111	-0.027
-695.456	-89.741	-0.182	-0.054
-694.441	-35.832	0.225	0.124
-693.426	800.000	-0.056	-0.177
-692.412	-200.000	0.017	-0.350
-691.397	190.887	-0.054	-0.083
-690.383	-52.090	0.276	0.130
-689.368	-185.617	-0.200	-0.003
-688.354	-105.482	-0.124	-0.029
-687.339	-36.189	-0.245	-0.134
-686.324	-200.000	0.001	-0.301
-685.310	800.000	-0.078	0.302
-684.295	-108.200	-0.125	-0.028
-683.281	76.874	-0.112	-0.121
-682.266	94.534	-0.039	0.044
-681.251	272.386	-0.061	0.109
-680.237	138.856	-0.139	0.185
-679.222	-147.224	0.046	-0.004
-678.208	-46.380	0.163	0.081
-677.193	-7.282	0.138	-0.095
-676.178	-96.890	-0.272	-0.072
-675.164	-200.000	-0.003	0.117
-674.149	-98.684	-0.061	0.016
-673.135	104.979	0.143	0.171
-672.120	-80.825	-0.248	-0.084
-671.105	77.555	-0.237	0.256
-670.091	3.784	-0.164	0.121
-669.076	24.457	-0.209	-0.175
-668.062	188.345	-0.081	-0.123
-667.047	81.689	0.117	-0.129
-666.032	187.298	-0.213	-0.322
-665.018	-200.000	0.006	-0.092
-664.003	73.768	-0.040	0.042
-662.989	-58.640	-0.094	0.041
-661.974	13.931	-0.285	0.225
-660.959	45.161	-0.225	-0.210
-659.945	-102.865	-0.338	-0.081
-658.930	800.000	0.042	0.165
-657.916	-155.524	-0.307	0.020
-656.901	37.437	0.075	-0.067
-655.886	-73.153	-0.233	-0.087
-654.872	-106.519	0.094	-0.021
-653.857	-39.756	0.175	0.093
-652.843	-200.000	-0.047	0.354
-651.828	-92.195	-0.142	0.041
-650.814	120.517	0.125	-0.157
-649.799	535.238	-0.215	0.515
-648.784	-91.886	-0.072	-0.021
-647.770	-200.000	-0.036	-0.184
-646.755	237.036	-0.131	-0.219
-645.741	-16.082	0.346	-0.223
-644.726	161.050	0.219	-0.310
-643.711	32.758	-0.059	0.052
-642.697	-200.000	0.003	-0.201
-641.682	161.696	-0.071	-0.101
-640.668	48.810	0.203	0.193
-639.653	-120.723	0.335	0.057
-638.638	-22.631	0.177	0.108
-637.624	-200.000	-0.056	0.430
-636.609	-79.266	-0.113	-0.039
-635.595	-200.000	0.008	0.392
-634.580	-200.000	0.039	0.181
-633.565	311.556	-0.233	0.442
-632.551	-87.677	-0.184	-0.056
-631.536	-168.435	-0.273	-0.011
-630.522	-102.036	-0.106	-0.026
-629.507	19.442	-0.200	0.163
-628.492	-57.527	0.146	0.065
-627.478	757.954	-0.144	-0.393
-626.463	-138.056	-0.322	0.036
-625.449	389.932	-0.061	-0.127
-624.434	77.328	0.161	-0.173
-623.419	595.641	0.079	0.197
-622.405	-89.771	0.260	0.077
-621.390	445.181	0.060	0.134
-620.376	12.493	0.028	0.022
-619.361	489.492	-0.017	-0.039
-618.346	-36.005	0.159	-0.087
-617.332	64.506	-0.074	-0.076
-616.317	-200.000	0.036	-0.248
-615.303	800.000	-0.058	-0.203
-614.288	-36.561	0.029	-0.016
-613.273	531.506	0.117	0.281
-612.259	443.292	-0.200	-0.443
-611.244	-137.877	-0.263	-0.030
-610.230	-112.738	0.210	0.042
-609.215	-121.855	-0.218	-0.036
-608.201	-64.827	-0.138	-0.056
-607.186	-86.061	-0.118	-0.037
-606.171	56.400	-0.288	0.283
-605.157	-200.000	-0.015	0.082
-604.142	-108.994	-0.514	-0.111
-603.128	584.923	0.124	-0.308
-602.113	7.418	0.139	-0.105
-601.098	-101.155	0.132	0.033
-600.084	-88.303	-0.185	0.056
-599.069	187.947	-0.155	0.235
-598.055	130.743	-0.076	-0.099
-597.040	15.169	0.189	0.149
-596.025	-200.000	0.048	-0.440
-595.011	704.606	0.079	0.210
-593.996	-119.171	-0.119	0.021
-592.982	-200.000	0.053	-0.269
-591.967	-89.967	0.068	-0.020
-590.952	-3.819	0.208	-0.146
-589.938	-31.442	0.107	0.061
-588.923	23.104	-0.231	-0.192
-587.909	-58.438	0.041	0.018
-586.894	-48.855	-0.465	-0.225
-585.879	50.008	-0.238	-0.227
-584.865	130.905	-0.100	0.129
-583.850	265.742	-0.087	0.153
-582.836	180.730	0.036	-0.054
-581.821	80.623	-0.261	-0.284
-580.806	63.784	-0.118	-0.120
-579.792	-161.532	-0.075	0.004
-578.777	170.583	-0.181	-0.262
-577.763	5.892	0.300	-0.224
-576.748	67.169	0.197	0.203
-575.733	-45.651	0.284	-0.142
-574.719	-144.696	-0.103	-0.010
-573.704	-124.600	-0.208	-0.033
-572.690	-189.997	-0.293	0.003
-571.675	-200.000	0.020	0.180
-570.661	56.833	-0.315	0.310
-569.646	750.336	-0.105	-0.287
-568.631	712.514	-0.053	0.141
-567.617	347.542	0.045	-0.090
-566.602	-129.172	-0.107	0.015
-565.588	137.023	0.176	0.232
-564.573	412.395	0.011	0.025
-563.558	800.000	-0.117	0.337
-562.544	-92.164	0.197	0.056
-561.529	-109.086	-0.191	0.041
-560.515	-33.313	0.141	-0.078
-559.500	-109.874	0.125	-0.026
-558.485	51.441	0.242	-0.232
-557.471	-60.724	-0.299	0.128
-556.456	1.805	0.187	-0.136
-555.442	-115.275	-0.049	-0.009
-554.427	-200.000	-0.077	-0.371
-553.412	-200.000	-0.027	-0.135
-552.398	-112.763	-0.501	-0.100
-551.383	-12.146	-0.255	-0.169
-550.369	-105.403	-0.308	-0.071
-549.354	0.117	0.129	-0.093
-548.339	-53.551	-0.226	0.104
-547.325	146.605	-0.208	-0.282
-546.310	-42.527	0.128	-0.066
-545.296	-70.650	0.376	0.143
-544.281	-7.365	-0.210	-0.144
-543.266	368.182	0.098	-0.201
-542.252	-11.534	0.191	0.127
-541.237	-200.000	-0.005	0.058
-540.223	-55.411	-0.198	0.089
-539.208	-81.713	0.366	-0.121
-538.193	125.934	0.098	-0.124
-537.179	800.000	-0.101	0.287
-536.164	187.999	0.041	0.062
-535.150	152.231	0.030	0.041
-534.135	-138.337	-0.328	-0.037
-533.121	-4.507	-0.103	0.072
-532.106	-24.498	0.056	0.034
-531.091	-45.295	0.248	-0.124
-530.077	-103.854	0.361	0.085
-529.062	-12.713	0.150	0.099
-528.048	26.914	-0.283	0.239
-527.033	75.922	-0.076	-0.081
-526.018	-87.062	0.272	0.084
-525.004	250.066	0.183	0.313
-523.989	-200.000	0.016	0.220
-522.975	-37.475	0.072	0.039
-521.960	-34.101	0.454	-0.251
-520.945	99.995	-0.164	-0.192
-519.931	228.664	-0.134	0.220
-518.916	800.000	0.006	-0.021
-517.902	-26.951	0.303	0.178
-516.887	7.268	-0.060	0.045
-515.872	156.103	0.063	0.088
-514.858	-200.000	0.022	-0.271
-513.843	-128.531	-0.225	0.032
-512.829	251.583	-0.224	0.385
-511.814	800.000	-0.053	-0.210
-510.799	329.072	0.175	-0.339
-509.785	585.903	-0.046	0.114
-508.770	-200.000	-0.025	-0.330
-507.756	59.113	-0.088	-0.087
-506.741	509.748	0.109	0.255
-505.726	-200.000	-0.002	0.432
-504.712	228.657	-0.208	0.341
-503.697	-62.643	0.364	-0.152
-502.683	-94.159	-0.121	0.033
-501.668	74.284	0.052	0.055
-500.653	-53.555	0.125	0.057
-499.639	-151.517	0.043	-0.003
-498.624	-62.010	-0.122	-0.051
-497.610	77.423	0.172	0.184
-496.595	-43.929	-0.232	-0.117
-495.581	800.000	0.049	-0.207
-494.566	-68.821	-0.336	0.130
-493.551	-129.921	0.349	0.048
-492.537	-71.393	0.125	-0.047
-491.522	632.983	0.115	0.293
-490.508	13.820	0.450	0.352
-489.493	-165.085	-0.274	-0.012
-488.478	785.444	-0.044	-0.121
-487.464	-55.160	0.351	-0.159
-486.449	800.000	-0.064	-0.254
-485.435	800.000	0.068	-0.257
-484.420	-200.000	0.001	0.068
-483.405	400.453	0.102	-0.216
-482.391	-138.720	-0.439	0.048
-481.376	691.320	0.074	0.194
-480.362	-200.000	-0.000	0.035
-479.347	285.470	-0.183	-0.331
-478.332	644.106	0.144	0.369
-477.318	17.672	0.119	0.095
-476.303	225.357	-0.039	0.063
-475.289	-9.006	-0.099	0.067
-474.274	413.036	0.069	-0.148
-473.259	111.735	-0.138	-0.167
-472.245	-200.000	0.005	-0.213
-471.230	-20.193	-0.345	-0.214
-470.216	-111.224	-0.181	-0.037
-469.201	-74.433	-0.060	-0.022
-468.186	800.000	0.033	0.104
-467.172	-200.000	-0.005	-0.063
-466.157	300.708	0.119	0.221
-465.143	106.189	0.111	-0.132
-464.128	287.660	0.091	-0.166
-463.113	-76.288	-0.206	-0.073
-462.099	-157.240	0.251	0.015
-461.084	-67.239	0.192	0.076
-460.070	111.286	-0.158	0.191
-459.055	-90.065	-0.326	-0.095
-458.040	90.624	-0.061	0.068
-457.026	-200.000	-0.019	-0.259
-456.011	-200.000	-0.012	0.245
-454.997	10.928	0.052	-0.040
-453.982	12.153	0.148	0.115
-452.968	74.566	0.259	-0.274
-451.953	800.000	-0.040	-0.123
-450.938	-200.000	0.050	-0.243
-449.924	-200.000	-0.012	0.273
-448.909	465.231	-0.135	-0.303
-447.895	325.207	0.222	-0.427
-446.880	-1.123	-0.188	-0.133
-445.865	-200.000	0.030	0.211
-444.851	124.633	-0.128	0.161
-443.836	-146.502	0.141	0.012
-442.822	185.537	-0.183	0.273
-441.807	-139.326	0.101	0.011
-440.792	-200.000	0.002	-0.135
-439.778	313.067	0.090	-0.171
-438.763	-66.186	-0.343	-0.137
-437.749	-3.853	-0.248	-0.173
-436.734	63.055	0.059	0.059
-435.719	268.843	0.066	0.117
-434.705	-131.843	0.232	0.030
-433.690	27.213	-0.161	-0.136
-432.676	-158.947	0.188	0.011
-431.661	243.741	-0.129	-0.217
-430.646	-200.000	0.038	-0.171
-429.632	-37.757	-0.133	-0.071
-428.617	-86.340	0.393	0.121
-427.603	21.072	-0.272	0.222
-426.588	-78.227	0.207	-0.071
-425.573	175.444	-0.189	-0.275
-424.559	522.552	0.126	-0.297
-423.544	-87.439	0.133	0.041
-422.530	-84.351	-0.173	-0.055
-421.515	15.624	-0.040	0.031
-420.500	-188.938	-0.249	0.003
-419.486	-161.359	0.168	-0.009
-418.471	787.836	0.069	-0.191
-417.457	-200.000	-0.064	0.302
-416.442	422.039	0.253	0.545
-415.428	105.558	0.165	-0.196
-414.413	-127.817	-0.347	-0.050
-413.398	373.420	0.074	-0.152
-412.384	223.362	-0.177	-0.287
-411.369	275.339	-0.165	0.294
-410.355	-54.227	-0.190	-0.087
-409.340	22.030	0.318	0.260
-408.325	-71.258	-0.233	0.088
-407.311	-76.292	-0.158	-0.056
-406.296	2.518	0.211	0.153
-405.282	47.860	-0.142	0.133
-404.267	-177.379	-0.123	-0.003
-403.252	800.000	0.098	0.336
-402.238	-113.084	0.203	0.040
-401.223	306.859	-0.165	-0.308
-400.209	617.253	-0.066	-0.165
-399.194	-59.553	-0.396	-0.170
-398.179	666.218	0.151	-0.390
-397.165	800.000	-0.063	-0.207
-396.150	42.042	0.080	-0.073
-395.136	-46.369	0.208	-0.103
-394.121	-68.137	-0.245	-0.096
-393.106	368.496	0.090	-0.182
-392.092	-132.449	-0.284	0.037
-391.077	-200.000	-0.012	-0.073
-390.063	-35.773	0.197	0.107
-389.048	-145.146	0.195	-0.018
-388.033	-200.000	-0.045	0.303
-387.019	106.669	0.221	-0.262
-386.004	114.329	-0.274	-0.335
-384.990	103.405	0.361	-0.424
-383.975	-200.000	-0.014	0.133
-382.960	76.035	0.249	0.264
-381.946	-11.344	0.213	-0.140
-380.931	-147.361	0.199	0.017
-379.917	450.156	-0.121	0.267
-378.902	271.932	-0.135	-0.238
-377.888	-50.793	-0.095	-0.045
-376.873	800.000	-0.049	0.153
-375.858	467.522	0.010	-0.023
-374.844	-13.794	-0.258	0.167
-373.829	800.000	0.036	0.113
-372.815	402.287	-0.085	0.179
-371.800	-92.293	-0.264	-0.074
-370.785	-200.000	0.034	-0.368
-369.771	-64.524	-0.189	0.077
-368.756	800.000	0.102	0.290
-367.742	620.909	-0.084	-0.211
-366.727	20.064	0.060	-0.049
-365.712	-200.000	-0.030	0.205
-364.698	-159.599	-0.282	-0.016
-363.683	-60.752	0.433	-0.184
-362.669	-30.260	0.108	0.062
-361.654	66.029	-0.127	0.129
-360.639	0.674	0.003	-0.002
-359.625	-200.000	0.027	0.173
-358.610	530.373	-0.155	0.367
-357.596	-200.000	-0.012	0.219
-356.581	-10.349	-0.212	0.140
-355.566	-113.135	-0.478	-0.094
-354.552	-200.000	-0.018	0.156
-353.537	-56.976	-0.142	-0.063
-352.523	99.353	-0.101	0.117
-351.508	-160.304	0.155	0.008
-350.493	-116.622	0.428	0.079
-349.479	149.306	-0.250	0.339
-348.464	287.713	-0.059	-0.106
-347.450	-200.000	-0.014	0.232
-346.435	-51.624	0.457	-0.213
-345.420	800.000	-0.036	0.110
-344.406	800.000	0.094	0.295
-343.391	-57.108	-0.086	-0.038
-342.377	708.874	-0.046	-0.122
-341.362	-159.784	0.217	-0.012
-340.348	-109.344	0.244	-0.052
-339.333	276.570	0.070	-0.125
-338.318	-51.102	0.028	0.013
-337.304	-16.766	-0.057	0.036
-336.289	546.216	0.142	-0.339
-335.275	287.802	0.094	-0.170
-334.260	102.755	-0.168	0.197
-333.245	-153.212	0.132	0.009
-332.231	-30.626	-0.045	-0.026
-331.216	48.484	0.417	0.391
-330.202	232.737	0.066	-0.109
-329.187	-34.829	0.014	0.008
-328.172	45.119	0.124	0.115
-327.158	119.191	-0.243	0.301
-326.143	108.112	0.066	-0.079
-325.129	25.889	-0.335	-0.279
-324.114	-27.801	-0.225	-0.131
-323.099	-4.039	0.282	-0.195
-322.085	-73.865	0.339	-0.123
-321.070	91.157	0.182	-0.204
-320.056	372.518	-0.045	0.092
-319.041	-57.758	0.170	0.074
-318.026	-7.946	-0.131	-0.088
-317.012	-120.635	0.283	-0.048
-315.997	115.256	-0.134	-0.163
-314.983	89.115	0.170	-0.189
-313.968	329.740	-0.205	0.394
-312.953	380.240	0.169	0.347
-311.939	-30.578	-0.304	0.172
-310.924	-45.216	0.257	0.128
-309.910	105.210	0.137	-0.162
-308.895	-44.462	-0.156	0.078
-307.880	-200.000	0.043	0.324
-306.866	-3.030	0.180	0.126
-305.851	800.000	-0.106	0.405
-304.837	-133.227	0.234	0.030
-303.822	122.232	-0.128	0.159
-302.807	-200.000	0.035	-0.245
-301.793	800.000	0.114	0.334
-300.778	-200.000	-0.009	0.301
-299.764	-19.864	0.170	-0.105
-298.749	-200.000	-0.007	0.242
-297.735	-200.000	-0.001	-0.044
-296.720	-197.953	-0.210	0.001
-295.705	49.907	-0.192	-0.181
-294.691	-200.000	0.001	0.005
-293.676	-100.693	0.189	0.046
-292.662	-200.000	0.027	0.142
-291.647	800.000	0.170	0.476
-290.632	76.996	0.253	0.268
-289.618	36.138	-0.196	0.173
-288.603	101.187	0.080	0.093
-287.589	-200.000	0.064	-0.305
-286.574	-200.000	0.006	0.074
-285.559	-81.466	-0.385	0.126
-284.545	36.348	0.111	0.098
-283.530	-200.000	-0.037	0.307
-282.516	408.836	0.066	0.139
-281.501	-176.044	0.030	0.001
-280.486	-90.879	-0.278	-0.080
-279.472	84.611	0.302	-0.330
-278.457	543.850	-0.102	-0.244
-277.443	157.173	-0.169	0.233
-276.428	187.122	0.069	-0.102
-275.413	-68.772	0.255	-0.099
-274.399	111.105	-0.130	-0.157
-273.384	-200.000	0.032	-0.246
-272.370	-41.703	0.286	0.147
-271.355	28.398	-0.176	0.148
-270.340	-200.000	0.018	-0.174
-269.326	-26.563	-0.135	0.079
-268.311	56.569	0.084	0.082
-267.297	800.000	-0.036	0.120
-266.282	-200.000	-0.004	-0.170
-265.267	-171.408	0.194	-0.006
-264.253	642.913	0.134	0.340
-263.238	76.966	0.014	-0.015
-262.224	242.707	-0.056	0.093
-261.209	262.034	-0.239	-0.414
-260.195	-69.814	0.261	0.099
-259.180	-102.579	0.086	-0.021
-258.165	155.031	-0.097	0.133
-257.151	800.000	-0.081	0.295
-256.136	49.451	-0.083	-0.077
-255.122	-200.000	0.003	0.031
-254.107	-158.256	-0.462	0.027
-253.092	-99.293	-0.498	0.125
-252.078	-200.000	0.031	-0.139
-251.063	-66.951	-0.196	-0.077
-250.049	-200.000	-0.026	-0.421
-249.034	-200.000	0.012	-0.057
-248.019	255.901	-0.091	-0.156
-247.005	2.552	0.072	0.052
-245.990	-48.025	-0.041	0.020
-244.976	1.557	0.132	-0.095
-243.961	328.299	-0.122	-0.234
-242.946	800.000	0.042	-0.128
-241.932	-100.520	-0.366	-0.090
-240.917	-64.288	0.351	0.143
-239.903	-200.000	0.017	-0.409
-238.888	23.264	0.279	0.228
-237.873	199.003	-0.111	-0.169
-236.859	-200.000	-0.043	0.221
-235.844	-149.997	-0.306	0.024
-234.830	119.543	0.059	-0.073
-233.815	-119.240	0.309	-0.054
-232.800	432.872	0.176	0.381
-231.786	-99.666	-0.248	-0.062
-230.771	274.272	0.105	0.184
-229.757	-200.000	0.037	0.191
-228.742	111.682	-0.112	0.135
-227.727	-200.000	0.044	0.256
-226.713	608.916	0.110	0.274
-225.698	229.477	-0.024	-0.039
-224.684	-161.576	0.332	0.017
-223.669	-85.710	-0.182	-0.056
-222.655	269.736	-0.094	-0.165
-221.640	-173.807	-0.338	0.010
-220.625	116.807	-0.073	-0.089
-219.611	-151.731	0.298	0.022
-218.596	800.000	-0.063	-0.272
-217.582	-33.955	-0.257	-0.141
-216.567	148.331	0.139	0.187
-215.552	265.524	0.099	0.173
-214.538	47.211	0.293	-0.271
-213.523	-200.000	0.069	0.306
-212.509	126.110	-0.065	-0.082
-211.494	56.794	-0.089	-0.086
-210.479	800.000	0.038	0.115
-209.465	-200.000	0.013	0.229
-208.450	73.692	0.073	0.076
-207.436	-109.157	-0.175	0.037
-206.421	150.630	-0.082	-0.111
-205.406	-73.727	0.243	-0.088
-204.392	800.000	0.050	0.151
-203.377	-200.000	0.009	0.105
-202.363	140.865	0.034	-0.044
-201.348	-200.000	-0.010	0.046
-200.333	-159.551	-0.096	-0.005
-199.319	200.990	0.193	0.295
-198.304	-200.000	-0.029	-0.378
-197.290	39.297	0.162	-0.144
-196.275	-200.000	-0.002	0.139
-195.260	156.586	0.133	-0.183
-194.246	52.036	0.333	-0.315
-193.231	-139.971	0.125	0.013
-192.217	92.472	0.043	-0.049
-191.202	800.000	0.031	0.112
-190.187	-64.112	0.178	-0.072
-189.173	339.833	0.147	-0.284
-188.158	-1.752	-0.288	-0.202
-187.144	2.137	0.062	0.045
-186.129	-43.845	0.184	-0.092
-185.114	286.167	0.265	0.476
-184.100	-29.549	-0.422	0.240
-183.085	192.857	0.124	-0.186
-182.071	-64.022	-0.110	0.045
-181.056	800.000	0.109	-0.325
-180.042	117.043	-0.201	0.245
-179.027	196.579	0.194	0.293
-178.012	51.303	-0.180	-0.170
-176.998	209.829	-0.116	-0.181
-175.983	626.545	0.114	0.285
-174.969	800.000	-0.029	-0.084
-173.954	-60.295	-0.411	0.174
-172.939	-200.000	-0.015	0.195
-171.925	-11.033	-0.370	0.243
-170.910	74.524	0.268	0.280
-169.896	53.871	-0.228	-0.217
-168.881	-200.000	0.033	-0.316
-167.866	212.004	0.188	-0.295
-166.852	-200.000	-0.015	-0.336
-165.837	800.000	0.080	-0.249
-164.823	85.792	-0.185	-0.202
-163.808	15.764	0.070	0.055
-162.793	93.809	0.158	0.178
-161.779	520.463	0.155	0.361
-160.764	4.484	0.223	0.162
-159.750	-179.715	0.136	-0.003
-158.735	-200.000	-0.004	-0.241
-157.720	6.381	0.036	0.027
-156.706	-80.849	0.308	0.101
-155.691	-200.000	-0.026	-0.171
-154.677	-51.179	0.161	0.075
-153.662	-98.465	-0.039	0.010
-152.647	-76.389	0.172	0.060
-151.633	8.341	0.297	-0.222
-150.618	19.591	0.200	-0.160
-149.604	222.577	-0.198	-0.316
-148.589	-58.034	-0.324	0.141
-147.574	-173.145	-0.099	0.003
-146.560	18.276	-0.079	-0.062
-145.545	226.254	-0.048	0.078
-144.531	29.918	-0.083	-0.070
-143.516	800.000	0.079	-0.296
-142.502	349.161	0.146	-0.286
-141.487	-155.933	0.281	-0.018
-140.472	546.140	-0.054	0.129
-139.458	183.605	0.052	0.076
-138.443	588.020	-0.045	0.109
-137.429	-169.919	0.393	0.014
-136.414	-22.232	0.225	-0.136
-135.399	-200.000	0.035	0.188
-134.385	-50.982	0.260	0.121
-133.370	-200.000	0.056	-0.441
-132.356	-127.161	-0.380	0.055
-131.341	119.868	-0.180	0.221
-130.326	259.051	-0.105	-0.180
-129.312	-34.543	0.015	0.008
-128.297	-200.000	0.041	-0.233
-127.283	243.548	-0.063	-0.104
-126.268	-112.018	-0.183	0.037
-125.253	177.674	0.237	-0.343
-124.239	-81.899	-0.077	0.025
-123.224	440.964	-0.160	0.348
-122.210	-200.000	0.007	0.103
-121.195	-200.000	0.018	0.094
