DTS Sentinel unit serial number:	SN413079Multiplexer serial number:	ORYXHardware model number:	OX4-SRSoftware version number:	ORYX F/W v4.00 Oryx Data Collector v3.7.2.0data status	okinstallation	princeton_trtdifferential loss correction	single-endedforward channel	channel 4reverse channel	N/Adate	2019/09/12time	04:15:11forward acquisition time	60.00reverse acquisition time	0.00gamma	496.2192k internal	0.2310k external	0.2310temperature offset calibration	1.0099default loss term (dB/km)	0.3790temperature slope calibration	1.0000multiplexer offset coefficient	1.0000multiplexer slope coefficient	1.0000fibre end	0.00T internal ref (°C)	31.84T ext. ref 1 (°C)	2.22T ext. ref 2 (°C)	25.34length (m)	temperature (°C)	Stokes	anti-Stokes-747.200	-10.514	-0.089	-0.060
-746.185	27.689	-0.159	0.136
-745.171	65.388	-0.060	-0.061
-744.156	362.110	0.048	-0.098
-743.142	-200.000	0.025	0.122
-742.127	-43.787	-0.392	0.201
-741.112	-126.903	-0.091	-0.014
-740.098	354.730	-0.193	0.390
-739.083	-56.527	0.220	0.099
-738.069	-90.330	-0.295	0.087
-737.054	-78.524	-0.217	0.075
-736.039	320.878	-0.270	-0.522
-735.025	-14.937	0.289	-0.188
-734.010	800.000	0.067	-0.195
-732.996	2.231	-0.208	-0.152
-731.981	313.028	0.136	-0.259
-730.966	-85.436	-0.224	-0.071
-729.952	-49.460	-0.240	-0.116
-728.937	-89.573	-0.584	-0.174
-727.923	749.192	-0.070	-0.190
-726.908	-52.530	0.341	-0.160
-725.894	127.220	0.302	-0.388
-724.879	54.854	0.075	-0.074
-723.864	59.589	-0.254	-0.254
-722.850	-45.481	0.060	0.030
-721.835	9.018	0.099	0.076
-720.821	-110.814	-0.399	0.083
-719.806	4.053	0.132	-0.098
-718.791	-200.000	-0.004	-0.294
-717.777	-200.000	0.021	-0.118
-716.762	-104.787	0.209	0.049
-715.748	4.190	-0.079	0.058
-714.733	-200.000	-0.071	-0.416
-713.718	-200.000	0.065	-0.297
-712.704	-140.535	0.221	0.023
-711.689	291.485	0.098	-0.180
-710.675	-200.000	0.034	0.214
-709.660	-90.776	-0.181	0.053
-708.645	-59.511	-0.123	-0.054
-707.631	-77.411	-0.084	-0.030
-706.616	-200.000	0.003	0.063
-705.602	552.101	-0.182	-0.444
-704.587	-168.085	0.339	0.013
-703.572	103.012	0.269	0.320
-702.558	7.711	0.226	0.171
-701.543	-200.000	0.017	-0.229
-700.529	800.000	-0.138	0.448
-699.514	-200.000	-0.027	-0.186
-698.499	-200.000	-0.009	-0.219
-697.485	-107.153	-0.262	-0.059
-696.470	531.168	-0.080	0.192
-695.456	270.478	0.142	-0.254
-694.441	-200.000	-0.013	-0.285
-693.426	248.629	-0.246	-0.422
-692.412	-47.388	-0.289	0.142
-691.397	-62.900	-0.065	0.027
-690.383	426.445	-0.136	-0.297
-689.368	54.880	0.096	-0.094
-688.354	-102.262	0.040	-0.010
-687.339	-56.659	-0.201	0.090
-686.324	1.782	-0.362	-0.264
-685.310	28.444	-0.172	-0.148
-684.295	-200.000	-0.063	0.279
-683.281	30.048	-0.412	0.356
-682.266	-200.000	0.018	-0.216
-681.251	-35.265	-0.260	-0.143
-680.237	-3.145	0.138	0.098
-679.222	-75.848	0.221	0.079
-678.208	355.311	0.057	0.115
-677.193	-200.000	-0.012	-0.271
-676.178	800.000	0.063	-0.224
-675.164	-75.291	-0.212	0.077
-674.149	56.382	-0.062	0.061
-673.135	800.000	0.054	0.151
-672.120	-200.000	-0.013	-0.081
-671.105	24.225	-0.098	0.082
-670.091	6.199	-0.157	-0.118
-669.076	-106.074	-0.152	0.035
-668.062	-130.195	-0.302	0.042
-667.047	668.972	-0.013	-0.034
-666.032	800.000	0.121	0.351
-665.018	800.000	0.053	0.167
-664.003	244.542	-0.142	0.241
-662.989	800.000	-0.112	0.369
-661.974	-200.000	-0.065	-0.317
-660.959	800.000	-0.038	0.158
-659.945	-200.000	-0.007	0.361
-658.930	59.087	0.222	-0.222
-657.916	-200.000	0.077	-0.465
-656.901	-200.000	0.056	0.374
-655.886	-200.000	0.005	0.046
-654.872	41.546	-0.018	-0.016
-653.857	654.863	0.044	0.113
-652.843	-70.421	0.155	0.059
-651.828	-200.000	-0.018	-0.324
-650.814	343.268	-0.075	0.148
-649.799	50.034	-0.079	-0.075
-648.784	-38.525	0.197	0.105
-647.770	800.000	-0.079	-0.247
-646.755	-200.000	0.001	-0.207
-645.741	-200.000	-0.022	-0.145
-644.726	223.672	0.080	0.131
-643.711	93.557	0.347	-0.398
-642.697	-186.766	-0.506	-0.007
-641.682	-200.000	-0.004	-0.074
-640.668	800.000	-0.050	0.200
-639.653	-23.258	-0.349	0.213
-638.638	115.446	0.143	0.176
-637.624	800.000	-0.060	0.230
-636.609	180.674	0.153	0.227
-635.595	297.416	0.127	-0.236
-634.580	513.473	-0.165	-0.389
-633.565	-148.663	0.234	-0.019
-632.551	-131.957	0.084	0.011
-631.536	-200.000	0.021	0.209
-630.522	-200.000	-0.040	0.226
-629.507	-111.468	0.294	-0.061
-628.492	-200.000	-0.085	0.443
-627.478	263.067	0.023	-0.040
-626.463	20.328	0.297	-0.242
-625.449	-80.237	-0.219	-0.074
-624.434	-2.254	-0.109	0.078
-623.419	193.916	0.174	0.267
-622.405	-200.000	-0.073	-0.449
-621.390	-200.000	-0.080	-0.397
-620.376	-40.554	-0.287	-0.151
-619.361	35.321	0.087	-0.077
-618.346	-153.467	-0.126	0.009
-617.332	-55.699	-0.244	0.110
-616.317	45.523	-0.141	-0.132
-615.303	800.000	0.057	0.178
-614.288	94.178	0.118	-0.135
-613.273	-164.061	-0.195	-0.009
-612.259	23.140	-0.172	-0.143
-611.244	-18.053	-0.182	0.115
-610.230	164.297	-0.053	-0.075
-609.215	-56.095	-0.237	-0.107
-608.201	-119.600	-0.433	-0.076
-607.186	800.000	0.119	0.390
-606.171	-156.439	-0.203	-0.013
-605.157	-200.000	0.016	-0.187
-604.142	6.442	-0.221	-0.166
-603.128	266.110	-0.067	-0.119
-602.113	-178.329	0.129	0.003
-601.098	772.643	-0.162	-0.447
-600.084	-44.508	-0.086	0.044
-599.069	-96.101	0.421	-0.113
-598.055	-200.000	0.019	-0.245
-597.040	-75.018	-0.060	0.022
-596.025	-104.438	-0.214	-0.050
-595.011	-53.030	-0.112	-0.052
-593.996	800.000	0.047	-0.202
-592.982	231.138	-0.099	-0.163
-591.967	-32.066	-0.177	-0.100
-590.952	-200.000	-0.007	-0.191
-589.938	-137.409	-0.090	-0.010
-588.923	231.093	-0.052	-0.087
-587.909	-101.887	0.247	0.060
-586.894	8.920	-0.139	0.106
-585.879	-57.715	-0.156	-0.069
-584.865	-200.000	-0.040	0.203
-583.850	800.000	0.031	-0.093
-582.836	391.941	-0.082	0.173
-581.821	-200.000	0.032	0.301
-580.806	52.378	-0.292	0.281
-579.792	-20.269	0.128	0.080
-578.777	-200.000	0.006	-0.130
-577.763	56.157	0.037	0.036
-576.748	711.071	-0.065	-0.174
-575.733	-15.665	0.244	-0.157
-574.719	334.029	-0.024	-0.047
-573.704	12.063	0.212	0.165
-572.690	-107.939	0.053	-0.012
-571.675	-200.000	-0.054	-0.279
-570.661	-73.868	0.249	0.091
-569.646	-68.846	0.422	0.164
-568.631	-72.761	0.413	-0.153
-567.617	542.279	0.047	0.114
-566.602	-64.661	-0.144	-0.059
-565.588	-183.532	0.123	-0.002
-564.573	62.860	0.224	-0.226
-563.558	578.123	-0.086	-0.211
-562.544	-65.515	-0.151	0.061
-561.529	2.606	0.253	-0.185
-560.515	-54.287	0.281	-0.129
-559.500	-89.673	0.099	-0.029
-558.485	573.777	-0.097	-0.239
-557.471	-130.542	0.263	0.036
-556.456	-16.008	0.251	-0.161
-555.442	-200.000	0.013	0.138
-554.427	247.070	0.134	-0.228
-553.412	-15.698	-0.425	-0.273
-552.398	-50.739	-0.298	-0.141
-551.383	-121.764	-0.139	-0.023
-550.369	-30.712	0.189	0.108
-549.354	430.693	-0.087	0.190
-548.339	-90.654	0.348	-0.101
-547.325	-200.000	-0.013	0.107
-546.310	-115.112	-0.252	0.048
-545.296	109.854	-0.220	0.266
-544.281	8.949	-0.176	0.134
-543.266	-99.479	0.261	0.066
-542.252	-107.968	0.174	0.038
-541.237	-200.000	0.004	0.154
-540.223	-59.609	-0.144	0.062
-539.208	-200.000	0.006	-0.071
-538.193	800.000	0.023	0.084
-537.179	9.543	0.258	0.196
-536.164	95.213	-0.313	-0.359
-535.150	38.860	0.235	-0.211
-534.135	-12.408	0.095	0.063
-533.121	-37.096	-0.124	-0.067
-532.106	24.028	0.193	-0.160
-531.091	35.445	0.202	0.178
-530.077	-64.809	-0.359	-0.146
-529.062	-67.977	0.156	0.061
-528.048	-68.547	-0.341	0.133
-527.033	-95.776	-0.228	-0.061
-526.018	63.942	-0.079	0.079
-525.004	106.918	-0.100	0.119
-523.989	719.905	0.061	0.162
-522.975	-108.040	0.100	0.022
-521.960	-90.791	0.099	0.029
-520.945	-37.073	0.324	0.174
-519.931	800.000	-0.057	0.170
-518.916	752.900	-0.025	0.067
-517.902	235.843	-0.057	-0.094
-516.887	-48.924	-0.220	-0.106
-515.872	800.000	-0.095	0.302
-514.858	-160.632	-0.071	0.004
-513.843	101.466	0.224	0.263
-512.829	-200.000	-0.025	0.113
-511.814	-30.781	0.032	-0.018
-510.799	-172.252	-0.108	0.003
-509.785	-53.892	-0.389	-0.178
-508.770	-183.423	0.141	0.002
-507.756	14.072	-0.093	-0.073
-506.741	176.215	0.027	-0.039
-505.726	-44.382	-0.312	-0.157
-504.712	37.022	-0.160	0.143
-503.697	800.000	-0.073	-0.259
-502.683	321.431	0.094	-0.179
-501.668	6.552	0.041	-0.031
-500.653	217.011	-0.310	0.497
-499.639	162.745	0.065	0.091
-498.624	68.251	0.157	0.162
-497.610	20.703	0.136	0.111
-496.595	-134.139	0.021	0.003
-495.581	298.926	-0.118	0.217
-494.566	96.361	0.138	0.159
-493.551	-142.923	-0.465	-0.045
-492.537	350.975	0.080	0.159
-491.522	-200.000	0.043	0.327
-490.508	433.675	-0.012	0.026
-489.493	231.746	-0.085	0.141
-488.478	311.892	-0.073	-0.138
-487.464	-108.826	-0.321	0.069
-486.449	-91.819	-0.173	0.049
-485.435	-55.215	0.208	-0.094
-484.420	317.779	-0.136	0.259
-483.405	-200.000	0.055	0.303
-482.391	-200.000	0.014	0.207
-481.376	-128.861	0.110	-0.016
-480.362	800.000	0.063	-0.259
-479.347	54.774	0.022	-0.021
-478.332	800.000	0.073	-0.210
-477.318	19.456	-0.077	0.063
-476.303	-139.935	0.323	-0.034
-475.289	-67.394	-0.070	0.028
-474.274	210.690	0.113	-0.178
-473.259	758.673	0.084	0.230
-472.245	800.000	-0.024	0.077
-471.230	-149.324	0.124	-0.010
-470.216	-120.694	-0.489	0.083
-469.201	-200.000	0.080	0.351
-468.186	102.822	0.222	0.261
-467.172	-99.999	-0.073	0.018
-466.157	226.825	-0.042	0.068
-465.143	800.000	-0.075	0.297
-464.128	-99.021	0.406	0.103
-463.113	-200.000	0.028	-0.293
-462.099	-124.849	0.130	-0.020
-461.084	-200.000	-0.003	0.083
-460.070	-182.492	-0.140	-0.003
-459.055	-175.101	0.150	0.004
-458.040	-200.000	0.013	0.154
-457.026	-27.354	0.205	0.120
-456.011	-116.714	-0.128	0.024
-454.997	800.000	-0.057	-0.215
-453.982	-200.000	0.028	-0.136
-452.968	-125.430	-0.240	0.037
-451.953	800.000	0.096	-0.307
-450.938	-200.000	-0.028	-0.359
-449.924	-51.565	-0.109	0.051
-448.909	123.214	0.154	0.193
-447.895	-114.564	-0.500	-0.096
-446.880	-200.000	0.000	0.111
-445.865	250.427	0.113	-0.193
-444.851	800.000	-0.077	0.218
-443.836	-200.000	-0.069	-0.458
-442.822	750.798	-0.039	0.105
-441.807	-126.381	0.361	0.054
-440.792	800.000	0.012	0.052
-439.778	405.153	-0.117	0.247
-438.763	-51.109	-0.229	0.108
-437.749	-114.954	0.191	0.037
-436.734	76.785	0.250	0.266
-435.719	-116.698	0.173	-0.032
-434.705	368.548	-0.193	-0.392
-433.690	-15.781	-0.206	-0.132
-432.676	417.583	0.085	0.182
-431.661	-93.925	-0.276	0.076
-430.646	800.000	0.037	-0.120
-429.632	-57.840	-0.142	-0.062
-428.617	800.000	-0.029	0.082
-427.603	90.391	-0.092	0.104
-426.588	-2.154	-0.091	-0.064
-425.573	-150.560	0.121	0.009
-424.559	-26.451	0.112	0.066
-423.544	231.088	-0.037	-0.061
-422.530	76.631	-0.048	0.051
-421.515	-65.651	-0.182	0.073
-420.500	-200.000	0.004	0.144
-419.486	-145.321	-0.260	0.024
-418.471	800.000	0.103	-0.371
-417.457	56.289	0.195	0.190
-416.442	-12.020	0.254	0.167
-415.428	-200.000	0.034	0.249
-414.413	-144.297	-0.179	-0.017
-413.398	134.487	-0.218	0.284
-412.384	66.892	-0.172	-0.176
-411.369	437.688	-0.259	0.567
-410.355	512.048	-0.152	-0.354
-409.340	-13.648	0.179	0.116
-408.325	800.000	0.049	-0.184
-407.311	196.002	0.062	-0.095
-406.296	-95.047	0.359	0.097
-405.282	-36.761	0.267	-0.144
-404.267	-200.000	-0.007	-0.112
-403.252	-62.381	-0.181	-0.076
-402.238	-57.769	0.175	-0.077
-401.223	-200.000	-0.033	-0.283
-400.209	-40.806	-0.352	0.182
-399.194	-62.860	0.091	-0.038
-398.179	-200.000	0.008	-0.270
-397.165	-82.298	-0.216	-0.070
-396.150	-85.839	-0.278	-0.086
-395.136	-98.174	-0.111	-0.029
-394.121	149.186	-0.200	-0.271
-393.106	-200.000	0.007	0.120
-392.092	-178.965	-0.195	-0.004
-391.077	94.531	-0.140	0.159
-390.063	-8.982	-0.065	0.043
-389.048	17.098	-0.109	0.087
-388.033	-5.440	0.064	-0.044
-387.019	8.358	-0.229	0.172
-386.004	-95.678	-0.195	0.052
-384.990	142.116	0.046	0.061
-383.975	-66.004	-0.480	-0.192
-382.960	-86.532	-0.614	-0.188
-381.946	-26.910	0.162	0.095
-380.931	800.000	0.111	0.435
-379.917	-14.642	0.241	0.155
-378.902	238.599	0.073	-0.122
-377.888	43.750	0.115	0.105
-376.873	174.569	-0.149	-0.216
-375.858	-171.462	0.159	-0.005
-374.844	800.000	0.058	-0.238
-373.829	-3.522	0.252	-0.176
-372.815	-200.000	0.053	0.301
-371.800	0.371	0.364	0.260
-370.785	-76.252	-0.244	-0.086
-369.771	149.097	0.048	0.065
-368.756	-49.116	0.252	-0.121
-367.742	797.035	0.175	-0.482
-366.727	-8.102	0.196	-0.132
-365.712	-25.900	0.163	0.096
-364.698	117.759	0.260	-0.320
-363.683	101.549	0.214	0.250
-362.669	197.651	-0.208	-0.317
-361.654	-100.927	0.272	0.067
-360.639	13.338	-0.155	0.120
-359.625	-75.168	0.197	0.071
-358.610	248.762	-0.086	0.146
-357.596	44.941	-0.233	0.215
-356.581	139.408	-0.112	0.147
-355.566	-88.224	0.198	0.059
-354.552	-155.867	0.120	0.008
-353.537	59.466	-0.099	0.097
-352.523	564.725	0.062	0.150
-351.508	50.865	-0.059	-0.056
-350.493	-135.095	-0.129	-0.015
-349.479	30.091	0.149	0.127
-348.464	-137.561	0.400	-0.045
-347.450	-200.000	0.002	0.092
-346.435	-200.000	-0.053	-0.250
-345.420	-200.000	0.046	-0.231
-344.406	13.586	-0.206	0.160
-343.391	223.875	0.236	-0.381
-342.377	-15.380	0.207	0.132
-341.362	71.327	0.188	0.195
-340.348	162.067	-0.121	-0.170
-339.333	436.103	0.051	0.112
-338.318	-37.251	0.248	-0.133
-337.304	-117.800	-0.472	0.085
-336.289	-200.000	0.039	0.290
-335.275	94.590	0.228	-0.258
-334.260	800.000	0.073	-0.310
-333.245	519.470	0.113	-0.264
-332.231	800.000	0.063	0.224
-331.216	-21.104	0.242	-0.148
-330.202	78.381	-0.257	0.274
-329.187	-26.877	-0.103	-0.060
-328.172	82.268	0.242	-0.263
-327.158	800.000	0.088	0.318
-326.143	-77.667	0.235	0.081
-325.129	585.607	-0.068	0.167
-324.114	334.237	-0.116	0.225
-323.099	-59.707	0.118	0.051
-322.085	-119.528	-0.266	-0.046
-321.070	367.381	0.082	-0.166
-320.056	-1.361	0.066	0.047
-319.041	-200.000	-0.009	0.143
-318.026	-100.439	-0.360	0.089
-317.012	166.451	0.055	-0.078
-315.997	200.233	-0.128	0.196
-314.983	-123.598	0.050	-0.008
-313.968	-200.000	-0.026	0.138
-312.953	-200.000	0.014	-0.178
-311.939	118.581	-0.089	-0.110
-310.924	18.313	0.177	-0.141
-309.910	293.268	-0.095	0.173
-308.895	-200.000	-0.045	-0.271
-307.880	73.828	0.247	-0.259
-306.866	-15.429	-0.347	-0.222
-305.851	-200.000	-0.015	0.074
-304.837	103.904	0.248	0.291
-303.822	-48.064	-0.265	0.128
-302.807	800.000	0.026	-0.075
-301.793	23.684	-0.088	-0.072
-300.778	25.010	0.262	0.217
-299.764	-200.000	-0.001	0.386
-298.749	-84.312	0.116	-0.037
-297.735	-200.000	-0.070	-0.420
-296.720	47.765	-0.120	0.112
-295.705	140.864	-0.053	0.069
-294.691	74.296	0.153	-0.160
-293.676	-58.152	0.313	-0.136
-292.662	-175.185	-0.251	-0.007
-291.647	-97.438	-0.325	-0.084
-290.632	-27.164	-0.098	-0.057
-289.618	321.547	-0.055	-0.105
-288.603	-132.301	0.134	0.017
-287.589	3.568	0.026	0.019
-286.574	-156.090	0.238	0.015
-285.559	-61.628	-0.449	-0.188
-284.545	124.645	0.077	-0.097
-283.530	-83.678	-0.201	0.064
-282.516	-125.451	-0.099	0.015
-281.501	417.754	0.038	0.080
-280.486	-72.462	-0.207	0.076
-279.472	56.664	0.177	-0.172
-278.457	-200.000	0.027	-0.221
-277.443	99.888	0.116	0.135
-276.428	79.465	-0.113	-0.121
-275.413	-64.028	-0.393	-0.160
-274.399	-200.000	0.019	0.410
-273.384	-200.000	-0.021	-0.114
-272.370	-172.399	0.202	0.006
-271.355	-200.000	0.023	-0.606
-270.340	-1.246	0.219	-0.154
-269.326	-127.616	0.145	-0.021
-268.311	-7.124	0.187	0.126
-267.297	105.599	0.200	-0.236
-266.282	-108.271	-0.327	-0.070
-265.267	-142.076	0.240	0.024
-264.253	-36.371	-0.033	0.018
-263.238	96.369	0.158	0.180
-262.224	-162.186	-0.160	-0.008
-261.209	104.618	0.313	0.367
-260.195	-156.611	-0.257	0.016
-259.180	142.603	0.109	0.144
-258.165	-200.000	-0.004	-0.058
-257.151	-200.000	0.009	-0.221
-256.136	120.085	-0.143	-0.177
-255.122	226.317	0.264	0.427
-254.107	-200.000	0.003	-0.320
-253.092	800.000	0.028	-0.090
-252.078	800.000	0.110	0.314
-251.063	-92.576	0.201	-0.056
-250.049	315.774	0.303	-0.569
-249.034	-58.633	0.271	0.117
-248.019	-69.255	-0.145	0.055
-247.005	-11.472	-0.379	0.248
-245.990	-91.625	0.079	-0.022
-244.976	-0.842	-0.097	-0.068
-243.961	54.280	0.055	-0.053
-242.946	285.949	0.246	-0.442
-241.932	-14.109	-0.372	0.239
-240.917	800.000	-0.013	0.040
-239.903	159.540	-0.025	0.035
-238.888	800.000	0.034	0.100
-237.873	-132.173	0.164	0.021
-236.859	6.593	0.095	-0.070
-235.844	-200.000	0.023	-0.149
-234.830	260.814	0.154	0.265
-233.815	118.717	-0.136	0.167
-232.800	17.137	-0.039	-0.031
-231.786	-161.055	-0.019	-0.001
-230.771	530.679	0.092	0.217
-229.757	-66.246	-0.274	-0.109
-228.742	-200.000	-0.035	-0.228
-227.727	-21.787	0.123	-0.075
-226.713	-122.669	0.304	-0.049
-225.698	800.000	0.036	-0.100
-224.684	7.405	-0.255	-0.190
-223.669	-200.000	-0.023	-0.125
-222.655	67.252	0.120	0.122
-221.640	288.346	0.067	0.120
-220.625	-8.719	-0.291	-0.195
-219.611	175.640	-0.115	-0.166
-218.596	289.968	0.006	-0.011
-217.582	800.000	-0.014	0.045
-216.567	-200.000	0.059	0.326
-215.552	800.000	0.077	0.312
-214.538	111.395	0.139	0.167
-213.523	-200.000	0.008	0.205
-212.509	40.896	-0.318	-0.285
-211.494	-157.799	-0.100	-0.006
-210.479	-76.187	-0.118	-0.042
-209.465	90.960	0.165	-0.185
-208.450	78.277	0.308	-0.326
-207.436	-41.718	0.263	0.134
-206.421	140.131	-0.075	0.099
-205.406	-174.492	-0.274	-0.008
-204.392	-157.217	0.205	-0.012
-203.377	203.840	-0.276	0.425
-202.363	93.814	0.148	0.167
-201.348	-130.249	0.243	-0.033
-200.333	-175.997	-0.160	-0.004
-199.319	-97.191	-0.101	0.026
-198.304	226.551	-0.096	-0.155
-197.290	800.000	0.112	0.317
-196.275	318.994	0.162	0.305
-195.260	-2.724	-0.159	-0.111
-194.246	-200.000	-0.024	-0.122
-193.231	-200.000	0.014	0.298
-192.217	-29.029	0.184	0.105
-191.202	800.000	-0.085	-0.242
-190.187	-82.848	0.496	-0.159
-189.173	-200.000	-0.011	-0.052
-188.158	800.000	-0.042	0.172
-187.144	-200.000	-0.017	0.448
-186.129	-131.571	-0.176	0.023
-185.114	800.000	-0.002	0.009
-184.100	643.943	-0.044	-0.112
-183.085	-182.253	0.254	-0.005
-182.071	2.252	0.124	-0.089
-181.056	-126.203	-0.269	-0.040
-180.042	315.774	-0.027	0.051
-179.027	-129.307	0.199	-0.028
-178.012	22.014	0.236	-0.191
-176.998	182.548	-0.203	-0.297
-175.983	289.695	0.108	-0.195
-174.969	-200.000	-0.075	0.438
-173.954	224.094	-0.054	0.086
-172.939	411.849	-0.210	0.443
-171.925	800.000	0.136	0.381
-170.910	-20.694	0.263	0.160
-169.896	-2.609	0.119	-0.082
-168.881	-76.783	0.111	-0.039
-167.866	337.341	-0.009	0.017
-166.852	87.667	0.123	-0.135
-165.837	52.458	-0.164	-0.155
-164.823	-114.853	0.069	0.013
-163.808	-60.926	0.084	-0.035
-162.793	8.616	0.312	-0.233
-161.779	8.759	-0.013	0.010
-160.764	800.000	-0.032	0.092
-159.750	800.000	0.047	-0.157
-158.735	-67.285	-0.103	0.040
-157.720	-200.000	-0.051	-0.434
-156.706	-200.000	0.003	0.159
-155.691	-200.000	-0.011	-0.053
-154.677	125.367	-0.068	0.085
-153.662	-80.934	0.251	-0.082
-152.647	116.067	-0.140	0.170
-151.633	110.600	-0.110	-0.131
-150.618	63.270	0.067	-0.067
-149.604	-122.992	-0.083	0.013
-148.589	-101.744	0.155	-0.037
-147.574	-135.876	-0.108	0.013
-146.560	-200.000	0.008	0.070
-145.545	-123.907	0.218	-0.034
-144.531	82.121	0.103	-0.111
-143.516	-82.454	-0.161	0.052
-142.502	45.010	0.119	-0.109
-141.487	-171.567	-0.214	-0.007
-140.472	108.358	0.095	0.113
-139.458	-40.473	-0.180	-0.093
-138.443	-121.467	0.304	-0.050
-137.429	-200.000	0.005	0.170
-136.414	800.000	-0.037	-0.128
-135.399	-200.000	-0.026	-0.219
-134.385	36.976	0.310	-0.272
-133.370	-97.721	-0.134	-0.034
-132.356	800.000	0.038	-0.154
-131.341	169.294	0.169	0.239
-130.326	94.471	-0.118	0.133
-129.312	-123.660	0.363	-0.057
-128.297	131.252	-0.241	-0.307
-127.283	472.840	-0.089	-0.198
-126.268	710.645	-0.038	-0.099
-125.253	134.538	0.052	0.067
-124.239	38.183	0.118	-0.104
-123.224	-36.989	-0.280	-0.149
-122.210	713.287	0.153	0.403
-121.195	-20.478	0.330	0.201
