DTS Sentinel unit serial number:	SN413079Multiplexer serial number:	ORYXHardware model number:	OX4-SRSoftware version number:	ORYX F/W v4.00 Oryx Data Collector v3.7.2.0data status	okinstallation	princeton_trtdifferential loss correction	single-endedforward channel	channel 4reverse channel	N/Adate	2019/09/12time	02:03:10forward acquisition time	60.00reverse acquisition time	0.00gamma	496.2192k internal	0.2308k external	0.2308temperature offset calibration	1.0091default loss term (dB/km)	0.3790temperature slope calibration	1.0000multiplexer offset coefficient	1.0000multiplexer slope coefficient	1.0000fibre end	0.00T internal ref (°C)	32.75T ext. ref 1 (°C)	2.06T ext. ref 2 (°C)	27.14length (m)	temperature (°C)	Stokes	anti-Stokes-747.200	800.000	-0.127	-0.393
-746.185	-50.358	-0.029	0.014
-745.171	-200.000	0.026	-0.378
-744.156	98.805	-0.314	0.369
-743.142	74.648	0.110	-0.117
-742.127	619.131	-0.067	0.171
-741.112	-200.000	-0.024	0.214
-740.098	-106.450	-0.103	0.023
-739.083	157.050	-0.068	0.095
-738.069	611.466	-0.090	0.227
-737.054	-200.000	0.049	-0.269
-736.039	178.528	0.001	-0.002
-735.025	-55.211	-0.462	0.211
-734.010	-132.809	-0.164	0.021
-732.996	701.360	0.102	-0.272
-731.981	-200.000	0.039	-0.308
-730.966	800.000	-0.067	-0.215
-729.952	-8.567	0.025	-0.017
-728.937	-32.861	-0.202	0.114
-727.923	94.714	-0.062	-0.072
-726.908	-131.259	0.058	-0.008
-725.894	800.000	0.032	-0.099
-724.879	514.747	-0.093	-0.222
-723.864	21.432	0.033	0.028
-722.850	23.176	0.059	0.049
-721.835	-88.904	0.331	-0.100
-720.821	232.103	-0.213	-0.355
-719.806	800.000	-0.049	0.139
-718.791	60.776	0.183	-0.184
-717.777	203.371	-0.209	0.328
-716.762	-98.742	-0.316	0.082
-715.748	15.149	0.068	0.054
-714.733	228.927	-0.118	0.195
-713.718	-182.028	-0.183	0.004
-712.704	186.257	-0.154	0.232
-711.689	487.849	-0.155	0.359
-710.675	-200.000	-0.004	-0.130
-709.660	800.000	0.085	0.249
-708.645	285.604	0.052	0.095
-707.631	-200.000	-0.002	0.037
-706.616	-24.801	-0.116	-0.070
-705.602	13.938	0.122	0.096
-704.587	-39.834	0.086	-0.045
-703.572	21.948	0.217	0.179
-702.558	-173.204	-0.255	0.008
-701.543	88.913	0.154	-0.174
-700.529	-106.461	0.249	-0.056
-699.514	206.597	-0.084	-0.132
-698.499	135.354	0.087	0.114
-697.485	502.223	-0.130	0.305
-696.470	503.113	-0.069	-0.163
-695.456	33.491	0.193	-0.170
-694.441	-116.711	-0.233	-0.043
-693.426	226.982	-0.087	-0.144
-692.412	362.736	-0.082	0.168
-691.397	165.176	-0.061	-0.087
-690.383	121.873	0.046	-0.059
-689.368	-3.756	-0.232	-0.163
-688.354	398.040	-0.117	-0.247
-687.339	-106.125	0.198	0.045
-686.324	-200.000	0.025	0.269
-685.310	-200.000	0.017	-0.084
-684.295	-86.252	0.260	-0.081
-683.281	132.498	-0.221	-0.288
-682.266	51.316	0.189	-0.182
-681.251	-112.699	-0.157	-0.032
-680.237	417.876	0.137	-0.297
-679.222	-196.775	0.148	0.001
-678.208	252.188	0.068	-0.117
-677.193	165.269	-0.051	-0.073
-676.178	-200.000	-0.026	0.155
-675.164	-116.761	0.248	0.046
-674.149	800.000	-0.096	-0.315
-673.135	325.427	0.104	0.201
-672.120	-96.925	-0.157	-0.042
-671.105	-95.378	-0.323	0.088
-670.091	-200.000	0.026	0.129
-669.076	-200.000	0.003	0.116
-668.062	-200.000	-0.017	0.124
-667.047	-151.592	0.074	-0.006
-666.032	-200.000	0.032	-0.346
-665.018	-78.384	0.081	0.028
-664.003	125.637	0.135	0.173
-662.989	207.373	-0.311	-0.491
-661.974	-200.000	-0.021	-0.135
-660.959	-146.652	-0.161	-0.014
-659.945	-142.605	0.059	-0.006
-658.930	566.124	0.071	-0.175
-657.916	-68.752	0.247	0.097
-656.901	196.335	0.098	0.150
-655.886	-22.650	-0.104	-0.063
-654.872	-200.000	-0.024	-0.244
-653.857	-45.223	-0.150	0.076
-652.843	800.000	0.084	0.334
-651.828	-33.038	-0.036	0.020
-650.814	-173.996	-0.176	-0.005
-649.799	-126.487	-0.204	0.031
-648.784	-91.820	-0.267	-0.077
-647.770	-155.353	-0.488	0.032
-646.755	-43.624	0.403	-0.206
-645.741	57.102	-0.197	-0.195
-644.726	590.621	-0.164	0.411
-643.711	-134.982	0.466	0.057
-642.697	-200.000	-0.004	-0.069
-641.682	-200.000	0.031	0.167
-640.668	-44.441	0.096	0.048
-639.653	-200.000	0.033	-0.311
-638.638	-63.906	0.106	0.044
-637.624	-169.407	0.086	-0.003
-636.609	-2.229	0.216	-0.153
-635.595	-103.386	-0.356	-0.085
-634.580	119.355	-0.259	-0.325
-633.565	113.243	-0.227	-0.278
-632.551	-200.000	-0.006	-0.218
-631.536	16.325	-0.121	-0.096
-630.522	181.734	-0.102	0.152
-629.507	-102.674	0.162	-0.039
-628.492	-120.968	-0.497	0.084
-627.478	-120.946	-0.237	-0.040
-626.463	800.000	0.045	0.182
-625.449	800.000	0.021	0.080
-624.434	125.681	0.119	-0.152
-623.419	800.000	-0.068	0.224
-622.405	96.754	0.449	-0.521
-621.390	-101.393	-0.214	0.053
-620.376	635.633	-0.039	0.100
-619.361	107.936	-0.108	0.130
-618.346	5.418	-0.133	0.100
-617.332	-5.815	0.082	-0.057
-616.317	338.289	-0.073	-0.144
-615.303	38.751	0.232	0.209
-614.288	-101.595	-0.295	-0.073
-613.273	247.081	-0.025	0.043
-612.259	245.155	-0.145	-0.246
-611.244	-81.159	-0.160	0.053
-610.230	-107.969	0.202	0.044
-609.215	-200.000	0.057	0.349
-608.201	-200.000	0.005	0.102
-607.186	-163.943	-0.209	0.010
-606.171	-93.646	0.125	0.035
-605.157	-106.446	-0.256	0.058
-604.142	-105.070	-0.135	0.031
-603.128	195.974	-0.174	-0.267
-602.113	11.914	0.189	0.147
-601.098	356.246	-0.072	0.145
-600.084	201.382	0.088	-0.137
-599.069	-73.582	-0.103	-0.038
-598.055	2.968	-0.086	-0.063
-597.040	55.320	-0.224	0.219
-596.025	-154.988	0.383	0.025
-595.011	-17.382	0.193	-0.123
-593.996	-195.539	0.406	-0.003
-592.982	650.985	-0.060	0.156
-591.967	352.533	-0.031	0.061
-590.952	-8.147	0.328	-0.223
-589.938	-200.000	-0.016	0.182
-588.923	-102.921	0.084	-0.020
-587.909	-52.766	0.215	-0.100
-586.894	-200.000	0.022	0.319
-585.879	800.000	0.081	0.320
-584.865	-89.683	0.207	0.061
-583.850	-200.000	0.047	0.239
-582.836	6.418	0.333	-0.250
-581.821	46.119	0.292	-0.273
-580.806	-56.687	-0.157	-0.070
-579.792	-200.000	0.032	0.264
-578.777	101.616	-0.248	0.291
-577.763	-71.154	-0.009	-0.004
-576.748	-127.112	-0.331	-0.049
-575.733	273.115	-0.116	-0.206
-574.719	-184.759	0.206	0.003
-573.704	-39.642	-0.203	-0.107
-572.690	-52.938	-0.142	0.066
-571.675	3.930	-0.164	-0.121
-570.661	-200.000	-0.010	-0.266
-569.646	141.673	0.118	-0.158
-568.631	-160.905	-0.074	-0.004
-567.617	155.779	0.163	-0.227
-566.602	-200.000	-0.025	0.182
-565.588	-131.600	-0.103	-0.014
-564.573	-118.559	-0.269	0.048
-563.558	-68.744	0.107	0.042
-562.544	-75.843	-0.042	0.015
-561.529	112.779	-0.152	-0.186
-560.515	136.282	-0.325	-0.427
-559.500	800.000	-0.015	0.060
-558.485	180.511	0.098	0.146
-557.471	-73.620	-0.148	-0.054
-556.456	51.174	0.283	-0.271
-555.442	-20.873	-0.282	0.174
-554.427	-177.972	0.310	0.007
-553.412	-21.728	0.366	-0.225
-552.398	408.324	-0.108	-0.230
-551.383	-133.340	-0.322	0.041
-550.369	-200.000	-0.019	0.193
-549.354	-200.000	0.068	0.356
-548.339	-200.000	-0.002	-0.144
-547.325	18.042	-0.234	0.188
-546.310	107.472	0.118	0.141
-545.296	106.223	0.160	-0.191
-544.281	-191.931	-0.474	0.005
-543.266	800.000	0.084	-0.259
-542.252	-84.713	0.091	0.029
-541.237	-200.000	-0.054	-0.386
-540.223	7.122	0.056	0.042
-539.208	193.521	0.134	-0.204
-538.193	214.500	-0.184	-0.294
-537.179	-6.686	0.076	-0.052
-536.164	-200.000	0.023	-0.120
-535.150	114.646	0.276	0.339
-534.135	-117.946	0.238	0.043
-533.121	-66.078	-0.187	-0.075
-532.106	194.249	0.043	-0.065
-531.091	379.253	-0.068	0.141
-530.077	-67.171	-0.226	-0.090
-529.062	-76.628	0.112	-0.040
-528.048	-132.441	0.296	-0.038
-527.033	62.496	-0.093	-0.094
-526.018	-33.913	0.130	0.072
-525.004	800.000	0.145	-0.497
-523.989	-91.332	0.254	-0.073
-522.975	294.167	-0.056	-0.103
-521.960	-33.250	-0.229	-0.128
-520.945	800.000	-0.071	0.211
-519.931	-64.225	-0.166	0.068
-518.916	-132.942	0.138	0.018
-517.902	-200.000	-0.020	-0.249
-516.887	-169.281	-0.372	-0.014
-515.872	-126.005	-0.269	-0.041
-514.858	-21.588	0.204	-0.125
-513.843	-180.944	-0.318	-0.006
-512.829	207.560	0.073	0.114
-511.814	-8.174	0.302	-0.205
-510.799	175.610	-0.123	-0.179
-509.785	-89.770	0.135	0.040
-508.770	70.029	-0.131	0.136
-507.756	391.795	0.141	0.295
-506.741	-155.215	-0.222	-0.015
-505.726	253.092	-0.017	0.029
-504.712	800.000	0.094	-0.293
-503.697	27.249	0.107	-0.091
-502.683	-74.991	-0.337	-0.121
-501.668	45.972	-0.162	-0.151
-500.653	-23.240	0.104	0.063
-499.639	27.623	-0.127	0.108
-498.624	717.086	-0.033	0.088
-497.610	77.222	-0.112	0.120
-496.595	50.185	0.264	0.251
-495.581	454.844	-0.140	0.312
-494.566	-11.918	0.335	-0.221
-493.551	-200.000	0.030	0.245
-492.537	-80.659	-0.094	-0.031
-491.522	-64.294	0.134	0.055
-490.508	55.533	-0.200	-0.195
-489.493	-136.681	-0.171	0.020
-488.478	475.983	-0.102	-0.231
-487.464	-66.059	0.160	0.064
-486.449	-82.510	0.288	-0.094
-485.435	41.394	0.028	-0.025
-484.420	-200.000	-0.036	-0.227
-483.405	332.782	0.106	0.206
-482.391	-200.000	-0.030	0.164
-481.376	-129.445	0.183	-0.026
-480.362	-200.000	-0.022	-0.114
-479.347	-108.189	-0.438	-0.095
-478.332	-5.612	0.170	-0.117
-477.318	-22.669	-0.025	-0.015
-476.303	313.587	0.052	0.099
-475.289	-54.706	-0.194	0.088
-474.274	-49.054	0.093	0.045
-473.259	-6.433	-0.125	0.086
-472.245	-134.808	-0.082	0.010
-471.230	-96.455	0.203	0.054
-470.216	188.792	-0.126	0.190
-469.201	80.961	0.081	-0.087
-468.186	-58.180	0.178	0.078
-467.172	-49.360	-0.039	0.019
-466.157	778.753	-0.011	-0.029
-465.143	-35.693	0.298	-0.162
-464.128	55.909	-0.147	-0.143
-463.113	-141.843	-0.055	0.006
-462.099	22.707	0.084	-0.069
-461.084	-86.116	0.266	-0.083
-460.070	37.661	0.125	-0.111
-459.055	78.958	0.293	-0.316
-458.040	-6.897	0.085	-0.058
-457.026	-135.606	-0.197	-0.024
-456.011	0.604	-0.070	0.051
-454.997	27.841	-0.150	0.127
-453.982	183.666	0.091	0.135
-452.968	-200.000	-0.012	0.142
-451.953	138.941	-0.182	-0.241
-450.938	800.000	-0.149	0.492
-449.924	118.329	0.103	0.128
-448.909	-108.701	-0.292	0.063
-447.895	166.921	0.166	-0.237
-446.880	-95.367	-0.115	-0.031
-445.865	800.000	0.065	-0.237
-444.851	22.081	0.206	0.168
-443.836	-92.847	-0.223	0.063
-442.822	-200.000	0.070	-0.373
-441.807	-165.483	-0.136	-0.006
-440.792	444.532	-0.110	-0.243
-439.778	76.254	0.313	0.332
-438.763	-200.000	-0.020	-0.306
-437.749	646.418	-0.073	-0.188
-436.734	-86.962	-0.243	0.074
-435.719	-200.000	0.033	0.307
-434.705	-48.239	-0.199	0.096
-433.690	-200.000	0.015	0.159
-432.676	-122.742	-0.415	-0.067
-431.661	-200.000	0.052	0.248
-430.646	800.000	0.072	-0.248
-429.632	-200.000	0.031	0.239
-428.617	-11.697	0.147	-0.097
-427.603	-53.503	0.132	0.061
-426.588	-31.903	0.044	0.025
-425.573	-200.000	0.002	0.113
-424.559	-102.506	0.145	-0.035
-423.544	-134.756	-0.405	-0.049
-422.530	-67.149	0.278	0.110
-421.515	170.061	-0.112	-0.160
-420.500	-126.750	0.369	-0.055
-419.486	54.135	-0.114	-0.110
-418.471	318.324	-0.086	0.163
-417.457	-200.000	-0.002	0.013
-416.442	420.981	-0.032	-0.069
-415.428	-142.536	0.321	-0.032
-414.413	-28.505	0.258	0.149
-413.398	168.714	0.054	0.078
-412.384	199.438	-0.039	0.060
-411.369	197.522	0.079	-0.121
-410.355	-89.651	-0.237	-0.070
-409.340	48.404	-0.165	-0.155
-408.325	285.069	0.079	-0.143
-407.311	800.000	-0.030	-0.120
-406.296	-121.180	0.254	0.043
-405.282	662.870	-0.016	-0.041
-404.267	800.000	0.060	-0.228
-403.252	-2.528	-0.452	0.317
-402.238	-100.505	-0.116	0.029
-401.223	204.050	-0.141	-0.219
-400.209	-200.000	0.001	-0.435
-399.194	140.605	-0.130	0.172
-398.179	150.573	-0.053	-0.072
-397.165	-15.438	-0.108	0.069
-396.150	-200.000	-0.010	-0.087
-395.136	800.000	0.044	0.161
-394.121	-13.266	0.172	-0.112
-393.106	115.615	0.209	-0.256
-392.092	541.815	-0.089	-0.212
-391.077	-200.000	0.012	0.239
-390.063	385.030	0.090	0.187
-389.048	191.664	0.108	0.163
-388.033	101.887	-0.150	-0.175
-387.019	-129.780	0.317	-0.044
-386.004	1.162	0.242	-0.174
-384.990	-93.537	-0.158	-0.044
-383.975	73.953	0.082	-0.086
-382.960	-69.804	0.239	0.091
-381.946	-76.564	-0.140	-0.049
-380.931	-128.690	-0.338	-0.048
-379.917	-43.013	-0.250	-0.127
-378.902	-200.000	0.100	-0.507
-377.888	-17.412	-0.126	-0.080
-376.873	-87.072	-0.261	0.080
-375.858	-200.000	0.015	0.158
-374.844	566.142	-0.116	-0.282
-373.829	75.435	0.233	0.247
-372.815	376.563	0.115	0.235
-371.800	-69.856	-0.027	0.010
-370.785	-119.628	0.128	-0.022
-369.771	-200.000	0.105	0.592
-368.756	-200.000	-0.100	0.461
-367.742	-200.000	0.005	0.408
-366.727	-200.000	-0.002	0.074
-365.712	-126.787	0.334	-0.049
-364.698	800.000	0.013	-0.047
-363.683	-200.000	0.033	-0.257
-362.669	663.474	-0.056	0.144
-361.654	-120.408	-0.019	0.003
-360.639	-194.067	-0.077	-0.001
-359.625	-163.842	0.175	0.008
-358.610	800.000	-0.062	0.259
-357.596	266.560	0.174	0.304
-356.581	-144.136	-0.263	-0.025
-355.566	43.224	0.060	-0.055
-354.552	-200.000	-0.369	0.001
-353.537	-24.437	-0.128	-0.076
-352.523	800.000	-0.078	0.278
-351.508	-101.080	-0.194	-0.048
-350.493	-88.991	-0.129	0.038
-349.479	-200.000	0.122	0.592
-348.464	-3.547	0.116	-0.081
-347.450	800.000	-0.050	-0.213
-346.435	-163.905	0.249	-0.012
-345.420	492.571	0.069	0.158
-344.406	-200.000	0.026	0.286
-343.391	69.267	-0.229	-0.236
-342.377	-107.559	0.160	0.035
-341.362	-18.596	-0.073	-0.046
-340.348	71.396	0.056	-0.058
-339.333	-53.079	0.056	-0.026
-338.318	100.921	-0.090	-0.105
-337.304	-32.027	-0.330	-0.184
-336.289	264.525	-0.232	-0.403
-335.275	-10.634	0.246	0.163
-334.260	-141.388	-0.228	-0.023
-333.245	-200.000	0.008	-0.097
-332.231	412.494	0.117	0.249
-331.216	-124.816	0.208	-0.032
-330.202	800.000	-0.071	0.284
-329.187	-147.649	0.105	-0.009
-328.172	1.652	-0.145	0.105
-327.158	267.124	-0.114	0.199
-326.143	707.951	-0.150	-0.397
-325.129	94.035	-0.275	0.312
-324.114	-90.625	-0.188	0.054
-323.099	-68.553	0.266	0.103
-322.085	-55.374	0.366	0.164
-321.070	62.035	-0.138	0.138
-320.056	-118.282	0.240	-0.043
-319.041	-200.000	0.001	0.025
-318.026	800.000	-0.175	0.599
-317.012	119.924	0.027	0.033
-315.997	-200.000	0.001	-0.088
-314.983	-181.362	-0.057	-0.001
-313.968	146.535	-0.169	-0.226
-312.953	84.329	0.075	0.082
-311.939	263.436	0.074	0.128
-310.924	800.000	0.021	-0.061
-309.910	800.000	-0.046	0.130
-308.895	-200.000	0.002	0.051
-307.880	-32.440	-0.430	0.239
-306.866	-69.679	0.115	-0.044
-305.851	161.987	0.213	-0.298
-304.837	-160.485	-0.082	-0.004
-303.822	-163.043	0.148	-0.007
-302.807	-30.943	0.211	-0.119
-301.793	-70.447	0.145	0.055
-300.778	81.424	-0.197	0.212
-299.764	45.442	-0.111	0.102
-298.749	381.041	0.127	0.260
-297.735	93.595	0.220	0.249
-296.720	6.342	0.153	-0.113
-295.705	-121.016	0.166	-0.028
-294.691	-200.000	0.029	0.246
-293.676	-0.325	-0.220	-0.156
-292.662	7.819	-0.102	-0.077
-291.647	417.879	-0.107	0.229
-290.632	-150.778	0.320	-0.024
-289.618	11.954	-0.093	0.071
-288.603	-151.812	0.384	-0.028
-287.589	-65.930	-0.074	-0.030
-286.574	190.030	0.095	-0.142
-285.559	-141.451	-0.085	0.009
-284.545	-200.000	0.024	0.115
-283.530	800.000	-0.048	0.176
-282.516	166.113	-0.135	-0.191
-281.501	221.328	0.094	-0.151
-280.486	186.652	0.062	0.093
-279.472	447.356	-0.101	0.222
-278.457	-149.836	0.123	-0.010
-277.443	-200.000	-0.016	-0.119
-276.428	-108.981	0.272	-0.058
-275.413	20.365	0.103	-0.083
-274.399	283.592	-0.124	0.222
-273.384	800.000	0.080	0.270
-272.370	-68.112	0.041	-0.016
-271.355	-103.819	0.157	-0.037
-270.340	-175.529	-0.292	0.008
-269.326	-135.177	0.091	0.011
-268.311	-107.673	0.192	-0.042
-267.297	800.000	0.139	0.394
-266.282	-200.000	0.017	0.378
-265.267	32.475	0.185	-0.160
-264.253	-114.360	-0.325	0.062
-263.238	146.627	0.173	0.232
-262.224	594.420	0.064	-0.158
-261.209	-200.000	-0.010	0.338
-260.195	59.093	-0.286	0.281
-259.180	139.175	0.112	0.147
-258.165	26.118	-0.196	-0.163
-257.151	-12.854	0.187	0.122
-256.136	-5.778	-0.310	-0.212
-255.122	-121.363	-0.114	-0.019
-254.107	139.627	0.118	0.155
-253.092	800.000	-0.049	0.145
-252.078	-135.821	-0.242	-0.029
-251.063	339.483	0.048	-0.094
-250.049	-104.233	0.112	-0.026
-249.034	-17.519	0.190	-0.119
-248.019	236.615	0.123	-0.202
-247.005	100.362	0.164	-0.190
-245.990	-200.000	-0.035	-0.373
-244.976	-200.000	-0.044	-0.243
-243.961	149.449	-0.193	-0.261
-242.946	800.000	0.062	0.177
-241.932	-181.072	0.168	-0.003
-240.917	390.695	-0.046	-0.096
-239.903	-200.000	0.004	-0.107
-238.888	800.000	-0.099	-0.298
-237.873	274.254	0.086	-0.152
-236.859	-79.088	0.441	-0.149
-235.844	163.101	-0.065	-0.091
-234.830	-200.000	0.005	0.286
-233.815	59.480	0.091	0.089
-232.800	-200.000	-0.029	0.130
-231.786	2.603	0.127	0.092
-230.771	149.104	0.119	0.160
-229.757	800.000	-0.093	0.353
-228.742	-92.396	-0.267	0.075
-227.727	-200.000	-0.004	0.124
-226.713	-102.340	0.263	-0.063
-225.698	-0.288	0.203	-0.144
-224.684	-200.000	-0.001	-0.291
-223.669	-200.000	0.041	0.185
-222.655	800.000	-0.045	-0.164
-221.640	-200.000	-0.001	0.029
-220.625	800.000	0.073	-0.308
-219.611	-184.822	-0.053	-0.001
-218.596	666.589	-0.062	-0.161
-217.582	-62.876	-0.134	0.055
-216.567	-200.000	-0.038	0.244
-215.552	63.364	-0.082	-0.082
-214.538	-26.631	0.043	0.025
-213.523	-3.370	0.300	-0.208
-212.509	207.447	0.106	-0.164
-211.494	67.637	0.452	-0.459
-210.479	-22.802	-0.150	-0.090
-209.465	342.796	0.073	0.143
-208.450	-143.097	0.581	0.056
-207.436	77.312	0.135	-0.143
-206.421	64.494	-0.216	-0.217
-205.406	-200.000	0.057	-0.254
-204.392	276.186	0.087	-0.154
-203.377	-85.776	-0.143	-0.044
-202.363	-54.240	-0.141	-0.064
-201.348	255.954	-0.069	-0.119
-200.333	800.000	0.072	-0.229
-199.319	92.796	0.144	-0.162
-198.304	-200.000	-0.012	0.238
-197.290	75.145	-0.112	0.118
-196.275	-29.139	-0.169	0.096
-195.260	-200.000	-0.065	0.360
-194.246	-65.754	0.042	-0.017
-193.231	487.296	0.049	0.110
-192.217	72.697	-0.345	-0.358
-191.202	800.000	0.075	-0.230
-190.187	-39.425	0.254	0.132
-189.173	-200.000	-0.014	-0.300
-188.158	25.607	-0.092	0.076
-187.144	483.458	0.080	-0.180
-186.129	87.865	0.130	0.144
-185.114	-14.046	-0.296	0.190
-184.100	67.013	-0.224	0.227
-183.085	-38.608	-0.257	0.135
-182.071	-200.000	-0.009	-0.057
-181.056	2.536	0.162	0.117
-180.042	-92.915	-0.120	-0.033
-179.027	-70.360	0.200	0.075
-178.012	256.011	0.094	-0.160
-176.998	-89.365	0.251	0.073
-175.983	-54.349	-0.138	0.062
-174.969	-73.088	0.228	-0.083
-173.954	319.327	-0.042	0.079
-172.939	20.770	0.122	0.098
-171.925	-36.920	-0.289	0.154
-170.910	228.417	-0.140	-0.226
-169.896	10.253	0.131	0.099
-168.881	-91.168	0.066	-0.019
-167.866	140.960	-0.166	-0.218
-166.852	-115.030	-0.025	0.005
-165.837	30.533	-0.084	-0.072
-164.823	-200.000	-0.024	0.245
-163.808	45.995	-0.065	0.060
-162.793	45.610	0.114	0.104
-161.779	-200.000	-0.004	0.157
-160.764	46.315	-0.113	0.104
-159.750	-135.783	-0.102	0.012
-158.735	608.128	-0.123	0.306
-157.720	19.740	-0.151	-0.121
-156.706	-115.109	0.244	-0.046
-155.691	418.769	0.125	0.266
-154.677	-200.000	-0.021	0.344
-153.662	-36.796	-0.046	0.024
-152.647	-200.000	0.048	-0.313
-151.633	-23.351	0.135	0.081
-150.618	-200.000	0.025	0.246
-149.604	-41.907	0.223	-0.113
-148.589	-121.119	0.248	0.041
-147.574	-200.000	-0.029	0.433
-146.560	800.000	0.150	-0.466
-145.545	32.469	-0.249	-0.213
-144.531	-112.850	0.229	0.045
-143.516	-98.982	0.147	-0.037
-142.502	276.833	-0.213	-0.376
-141.487	800.000	-0.023	-0.062
-140.472	-12.632	0.062	-0.040
-139.458	-44.495	0.368	0.183
-138.443	800.000	-0.147	-0.427
-137.429	182.855	0.158	-0.231
-136.414	800.000	0.060	-0.232
-135.399	166.174	0.083	-0.117
-134.385	-200.000	-0.012	0.108
-133.370	800.000	-0.068	-0.215
-132.356	23.567	0.099	-0.081
-131.341	100.591	0.140	0.161
-130.326	-59.654	0.141	-0.060
-129.312	311.419	0.138	0.257
-128.297	-68.296	0.019	0.007
-127.283	-200.000	-0.036	0.167
-126.268	11.660	-0.175	0.133
-125.253	9.743	-0.033	-0.025
-124.239	-17.031	-0.239	-0.150
-123.224	-200.000	-0.077	-0.347
-122.210	-129.884	0.024	0.003
