DTS Sentinel unit serial number:	SN413079Multiplexer serial number:	ORYXHardware model number:	OX4-SRSoftware version number:	ORYX F/W v4.00 Oryx Data Collector v3.7.2.0data status	okinstallation	princeton_trtdifferential loss correction	single-endedforward channel	channel 4reverse channel	N/Adate	2019/09/11time	03:19:10forward acquisition time	60.00reverse acquisition time	0.00gamma	496.2192k internal	0.2316k external	0.2316temperature offset calibration	0.9950default loss term (dB/km)	0.3790temperature slope calibration	1.0000multiplexer offset coefficient	1.0000multiplexer slope coefficient	1.0000fibre end	0.00T internal ref (°C)	29.37T ext. ref 1 (°C)	-0.29T ext. ref 2 (°C)	24.11length (m)	temperature (°C)	Stokes	anti-Stokes-747.200	39.570	-0.062	0.057
-746.185	111.727	-0.209	0.255
-745.171	11.146	0.052	-0.040
-744.156	134.447	0.316	0.415
-743.142	37.504	-0.112	0.101
-742.127	137.736	-0.097	-0.129
-741.112	271.899	-0.080	0.143
-740.098	-55.353	0.045	-0.020
-739.083	326.714	0.134	-0.260
-738.069	11.034	-0.051	0.039
-737.054	-64.925	0.119	-0.049
-736.039	-143.247	-0.441	0.043
-735.025	-36.256	-0.197	0.108
-734.010	-89.818	0.251	-0.074
-732.996	13.078	-0.188	-0.147
-731.981	78.665	-0.249	-0.269
-730.966	215.467	0.073	-0.118
-729.952	538.816	0.073	-0.175
-728.937	-200.000	-0.073	-0.399
-727.923	35.581	0.172	-0.153
-726.908	-91.465	0.101	-0.029
-725.894	208.355	-0.090	0.142
-724.879	370.640	-0.148	0.305
-723.864	39.569	-0.089	-0.081
-722.850	-200.000	-0.004	0.113
-721.835	-200.000	0.076	-0.360
-720.821	55.246	-0.104	-0.101
-719.806	-200.000	-0.032	-0.256
-718.791	-87.565	-0.247	0.076
-717.777	800.000	0.027	0.082
-716.762	-200.000	-0.035	0.255
-715.748	800.000	0.039	-0.169
-714.733	-200.000	-0.016	-0.236
-713.718	7.807	-0.082	-0.062
-712.704	84.680	0.222	0.245
-711.689	230.020	-0.217	-0.359
-710.675	-176.331	0.290	0.008
-709.660	-128.352	-0.425	-0.061
-708.645	-200.000	0.067	-0.363
-707.631	226.855	-0.107	0.175
-706.616	-141.032	0.327	0.034
-705.602	278.444	-0.039	0.071
-704.587	73.827	-0.118	-0.125
-703.572	-55.793	0.269	-0.121
-702.558	-170.437	-0.196	0.007
-701.543	-200.000	-0.032	-0.247
-700.529	-78.364	0.228	0.079
-699.514	-200.000	0.015	-0.129
-698.499	14.332	0.178	-0.140
-697.485	66.911	0.216	-0.222
-696.470	-23.583	-0.361	0.219
-695.456	121.442	-0.270	0.340
-694.441	161.004	0.043	-0.061
-693.426	43.609	-0.455	0.421
-692.412	800.000	-0.109	0.472
-691.397	-74.084	-0.081	0.030
-690.383	-51.762	-0.137	0.065
-689.368	0.421	-0.033	0.024
-688.354	-147.912	0.133	-0.011
-687.339	-51.999	-0.405	0.190
-686.324	-200.000	0.010	0.382
-685.310	-53.841	-0.115	0.053
-684.295	-84.627	0.171	-0.055
-683.281	295.886	-0.133	-0.246
-682.266	53.701	-0.227	0.220
-681.251	-200.000	-0.005	0.094
-680.237	-200.000	0.052	0.265
-679.222	321.417	-0.118	-0.227
-678.208	214.659	0.110	-0.176
-677.193	142.418	0.041	0.054
-676.178	-200.000	0.032	0.220
-675.164	39.943	-0.279	0.253
-674.149	-63.404	0.062	-0.026
-673.135	200.397	-0.044	-0.069
-672.120	15.333	-0.312	-0.247
-671.105	249.656	0.031	0.054
-670.091	5.551	-0.215	0.160
-669.076	369.505	-0.032	-0.065
-668.062	161.102	0.133	-0.188
-667.047	-24.289	-0.115	0.069
-666.032	-200.000	-0.010	-0.099
-665.018	-197.855	0.186	0.001
-664.003	-101.556	0.067	-0.016
-662.989	800.000	-0.133	0.374
-661.974	325.287	0.048	0.093
-660.959	800.000	-0.018	-0.053
-659.945	604.035	0.125	0.313
-658.930	82.584	-0.227	-0.249
-657.916	-113.345	-0.127	-0.025
-656.901	87.583	-0.198	-0.222
-655.886	23.826	0.202	-0.168
-654.872	-200.000	-0.043	-0.310
-653.857	-85.692	0.048	-0.015
-652.843	-70.142	-0.224	0.086
-651.828	-125.136	0.179	-0.028
-650.814	470.778	0.073	-0.165
-649.799	358.129	0.091	-0.183
-648.784	60.594	-0.125	0.125
-647.770	256.359	-0.067	-0.115
-646.755	-64.681	0.172	-0.070
-645.741	-200.000	0.026	-0.409
-644.726	394.020	-0.093	-0.195
-643.711	-85.593	-0.089	0.028
-642.697	-200.000	-0.028	0.157
-641.682	736.762	0.034	-0.092
-640.668	27.047	0.105	-0.089
-639.653	-147.425	-0.135	0.012
-638.638	-200.000	-0.034	-0.317
-637.624	-200.000	0.037	-0.241
-636.609	210.091	-0.039	-0.061
-635.595	275.285	-0.084	-0.151
-634.580	74.107	-0.116	0.122
-633.565	800.000	0.108	-0.388
-632.551	449.231	-0.038	-0.085
-631.536	56.966	0.069	0.068
-630.522	30.413	0.082	-0.071
-629.507	6.576	-0.065	-0.048
-628.492	-10.112	0.215	0.144
-627.478	-200.000	-0.002	-0.053
-626.463	800.000	0.058	-0.180
-625.449	-200.000	0.065	-0.366
-624.434	-94.496	0.213	0.059
-623.419	-200.000	-0.026	-0.171
-622.405	-200.000	0.043	-0.233
-621.390	-200.000	0.047	-0.349
-620.376	362.080	-0.030	-0.061
-619.361	-15.299	0.196	0.126
-618.346	97.746	0.219	0.254
-617.332	17.562	-0.329	0.264
-616.317	-29.494	-0.088	-0.051
-615.303	-97.025	-0.486	-0.128
-614.288	98.010	0.183	0.213
-613.273	165.853	-0.081	0.115
-612.259	800.000	-0.028	-0.082
-611.244	-6.251	-0.222	0.152
-610.230	-109.180	0.085	-0.018
-609.215	25.509	0.074	0.062
-608.201	-200.000	-0.072	-0.391
-607.186	-28.600	-0.236	0.137
-606.171	-200.000	-0.017	0.269
-605.157	178.955	-0.127	-0.187
-604.142	-106.492	0.336	-0.076
-603.128	74.766	-0.214	-0.227
-602.113	-31.149	0.109	-0.062
-601.098	16.861	-0.192	-0.153
-600.084	-83.855	0.194	-0.062
-599.069	-124.717	-0.252	0.039
-598.055	-147.248	-0.238	0.020
-597.040	135.541	-0.128	-0.168
-596.025	-159.024	0.105	-0.006
-595.011	-125.788	0.127	0.019
-593.996	-67.785	0.309	-0.122
-592.982	-158.025	-0.232	0.014
-591.967	-110.103	-0.320	0.067
-590.952	98.234	0.196	-0.227
-589.938	-124.231	-0.165	-0.026
-588.923	-169.693	0.172	-0.006
-587.909	-116.615	0.107	-0.020
-586.894	261.509	0.070	0.123
-585.879	47.883	-0.105	0.099
-584.865	-200.000	0.070	0.315
-583.850	-59.672	0.174	0.075
-582.836	-189.788	-0.380	-0.004
-581.821	-40.325	-0.093	0.049
-580.806	3.668	0.255	0.187
-579.792	365.791	0.048	-0.097
-578.777	-200.000	0.037	-0.226
-577.763	800.000	-0.163	0.718
-576.748	22.743	0.101	-0.083
-575.733	23.148	-0.339	-0.280
-574.719	372.945	-0.036	0.073
-573.704	-200.000	0.020	-0.173
-572.690	213.555	0.342	-0.544
-571.675	317.266	0.118	-0.225
-570.661	164.056	-0.113	0.160
-569.646	-149.672	0.321	0.025
-568.631	39.679	0.044	-0.040
-567.617	-68.665	-0.150	-0.058
-566.602	133.959	0.199	-0.259
-565.588	-103.480	-0.109	0.026
-564.573	148.884	0.186	-0.254
-563.558	135.839	0.197	0.258
-562.544	-200.000	0.077	-0.405
-561.529	104.043	-0.230	-0.272
-560.515	-73.182	-0.108	0.040
-559.500	152.558	0.031	-0.043
-558.485	-118.814	-0.268	-0.047
-557.471	-21.173	0.191	0.117
-556.456	800.000	-0.118	0.372
-555.442	38.588	0.203	0.182
-554.427	-95.285	-0.360	0.097
-553.412	3.415	-0.097	0.071
-552.398	-98.744	-0.086	-0.022
-551.383	4.403	-0.244	-0.180
-550.369	-63.687	0.164	-0.068
-549.354	231.488	0.090	0.148
-548.339	95.340	0.071	-0.081
-547.325	800.000	-0.077	0.275
-546.310	-81.905	-0.257	-0.084
-545.296	-47.374	-0.065	0.032
-544.281	-192.502	-0.085	-0.001
-543.266	-200.000	0.002	0.244
-542.252	-48.627	0.178	-0.086
-541.237	141.528	-0.046	-0.062
-540.223	18.212	0.099	-0.079
-539.208	800.000	-0.184	-0.511
-538.193	275.116	0.016	-0.028
-537.179	-64.709	-0.298	0.121
-536.164	-16.076	-0.079	-0.051
-535.150	53.611	0.118	0.113
-534.135	-102.223	-0.247	-0.060
-533.121	800.000	0.020	-0.081
-532.106	489.323	0.116	-0.266
-531.091	-200.000	0.031	-0.314
-530.077	-105.903	0.104	-0.024
-529.062	40.351	-0.073	-0.066
-528.048	800.000	-0.097	0.363
-527.033	-200.000	-0.024	0.293
-526.018	93.590	0.048	-0.055
-525.004	120.752	-0.099	-0.124
-523.989	82.360	0.051	-0.055
-522.975	271.156	0.246	0.435
-521.960	-87.509	-0.198	-0.060
-520.945	-200.000	-0.011	-0.077
-519.931	297.420	-0.116	0.214
-518.916	67.914	-0.181	0.185
-517.902	-184.433	0.230	-0.004
-516.887	540.326	0.065	-0.156
-515.872	-200.000	-0.029	0.172
-514.858	800.000	-0.174	-0.618
-513.843	-200.000	0.022	0.159
-512.829	800.000	0.026	-0.071
-511.814	-71.980	-0.023	-0.009
-510.799	-200.000	-0.035	-0.173
-509.785	800.000	0.028	-0.103
-508.770	79.831	0.146	-0.158
-507.756	-123.356	0.215	0.034
-506.741	-102.412	0.099	-0.024
-505.726	-163.298	-0.146	-0.007
-504.712	108.570	0.142	-0.170
-503.697	-200.000	-0.097	0.495
-502.683	-200.000	-0.033	0.176
-501.668	68.193	-0.201	0.207
-500.653	-142.273	0.120	-0.012
-499.639	-110.747	-0.334	-0.069
-498.624	501.206	0.093	-0.216
-497.610	563.043	0.114	-0.277
-496.595	438.262	0.073	0.159
-495.581	-68.691	-0.301	0.117
-494.566	536.266	-0.159	-0.379
-493.551	-53.618	0.178	-0.082
-492.537	666.949	0.106	0.276
-491.522	549.959	0.057	0.137
-490.508	-111.717	-0.082	-0.017
-489.493	5.682	-0.096	0.071
-488.478	128.887	0.051	0.066
-487.464	-91.431	-0.381	-0.109
-486.449	-44.020	0.119	0.060
-485.435	17.964	0.199	-0.159
-484.420	-173.277	0.065	-0.002
-483.405	346.137	0.083	-0.163
-482.391	-200.000	0.047	0.225
-481.376	265.797	-0.058	0.101
-480.362	-107.219	0.223	0.049
-479.347	-200.000	-0.002	0.236
-478.332	-41.685	0.163	-0.084
-477.318	544.542	0.114	-0.272
-476.303	-134.237	-0.285	0.035
-475.289	-108.599	-0.073	0.016
-474.274	-145.181	0.014	0.001
-473.259	-106.442	0.535	-0.120
-472.245	-200.000	0.008	-0.104
-471.230	-163.722	-0.237	-0.011
-470.216	-146.881	-0.336	0.029
-469.201	664.337	-0.107	-0.278
-468.186	125.996	0.056	-0.071
-467.172	800.000	-0.118	0.442
-466.157	-200.000	0.073	0.368
-465.143	800.000	-0.031	0.099
-464.128	-140.209	-0.237	0.025
-463.113	62.109	-0.128	0.128
-462.099	-117.711	0.145	-0.026
-461.084	636.175	0.026	0.065
-460.070	-76.812	-0.038	-0.013
-459.055	240.150	0.187	-0.312
-458.040	529.119	0.111	-0.264
-457.026	-22.198	-0.177	0.108
-456.011	170.593	0.096	0.138
-454.997	567.230	-0.047	0.114
-453.982	354.261	0.129	-0.256
-452.968	-25.079	-0.079	0.047
-451.953	-200.000	0.048	0.397
-450.938	800.000	0.082	-0.230
-449.924	-191.436	-0.244	0.002
-448.909	-95.952	0.328	0.088
-447.895	740.423	-0.058	0.155
-446.880	-22.784	0.251	0.152
-445.865	378.975	0.099	-0.203
-444.851	92.053	-0.200	-0.226
-443.836	-44.606	-0.135	0.067
-442.822	549.181	-0.091	0.219
-441.807	527.635	0.099	0.234
-440.792	120.118	-0.215	0.267
-439.778	-77.469	-0.131	0.045
-438.763	545.965	-0.059	0.142
-437.749	630.550	0.107	0.270
-436.734	-200.000	0.003	0.119
-435.719	-27.418	-0.260	0.152
-434.705	-45.007	0.196	-0.098
-433.690	242.246	-0.070	-0.117
-432.676	25.363	0.250	-0.208
-431.661	356.559	-0.027	0.053
-430.646	63.815	0.239	-0.240
-429.632	75.966	0.238	0.252
-428.617	-200.000	0.002	0.087
-427.603	446.339	0.078	-0.172
-426.588	410.950	-0.089	-0.189
-425.573	37.107	0.204	-0.181
-424.559	121.810	0.045	0.056
-423.544	-23.615	0.254	0.152
-422.530	800.000	-0.142	-0.437
-421.515	-128.518	-0.210	0.030
-420.500	-171.905	-0.097	-0.003
-419.486	513.179	0.047	-0.109
-418.471	-74.601	0.268	-0.096
-417.457	377.480	-0.049	-0.101
-416.442	-88.104	0.349	-0.105
-415.428	1.218	-0.073	0.053
-414.413	-75.261	0.371	0.132
-413.398	-200.000	0.066	-0.382
-412.384	294.518	-0.046	0.084
-411.369	-116.625	0.186	-0.034
-410.355	-76.100	-0.099	0.035
-409.340	201.382	-0.161	-0.248
-408.325	-191.104	-0.138	0.001
-407.311	28.881	0.183	-0.155
-406.296	630.376	0.012	-0.029
-405.282	16.409	-0.277	-0.219
-404.267	-15.531	0.316	0.202
-403.252	-87.706	0.089	0.027
-402.238	-22.442	0.328	0.198
-401.223	226.624	-0.123	-0.200
-400.209	-200.000	0.124	-0.000
-399.194	-200.000	-0.009	0.094
-398.179	162.680	0.066	-0.093
-397.165	451.284	0.008	0.018
-396.150	-65.110	-0.030	-0.012
-395.136	-70.782	0.261	-0.098
-394.121	-122.877	0.102	0.016
-393.106	-52.575	0.273	0.126
-392.092	-2.509	0.264	0.184
-391.077	-200.000	0.001	0.163
-390.063	-89.979	0.179	0.052
-389.048	-151.735	-0.247	0.018
-388.033	156.641	0.092	-0.128
-387.019	439.427	0.101	-0.220
-386.004	800.000	0.026	0.081
-384.990	77.382	0.093	-0.099
-383.975	-141.103	0.223	0.023
-382.960	199.895	0.093	-0.143
-381.946	-140.309	0.282	-0.029
-380.931	-81.490	0.281	-0.092
-379.917	-14.365	-0.228	-0.146
-378.902	800.000	-0.038	0.137
-377.888	800.000	0.068	-0.260
-376.873	-88.787	-0.256	-0.076
-375.858	771.090	0.165	0.450
-374.844	-97.279	-0.345	-0.090
-373.829	-200.000	-0.001	-0.037
-372.815	-33.325	0.143	0.079
-371.800	-49.280	0.331	-0.158
-370.785	-13.327	0.221	0.143
-369.771	-105.688	-0.109	-0.025
-368.756	-58.384	-0.226	-0.098
-367.742	-100.847	0.117	-0.029
-366.727	-91.598	0.296	0.084
-365.712	800.000	-0.049	0.178
-364.698	-80.286	0.254	-0.085
-363.683	-200.000	0.007	0.032
-362.669	665.156	-0.168	0.433
-361.654	265.087	0.082	-0.142
-360.639	800.000	-0.099	0.277
-359.625	-107.711	-0.292	-0.064
-358.610	437.602	0.207	-0.450
-357.596	-33.216	0.088	0.049
-356.581	-53.901	-0.149	-0.068
-355.566	228.498	-0.195	0.317
-354.552	561.024	0.159	-0.382
-353.537	47.130	0.158	-0.147
-352.523	-200.000	0.018	0.257
-351.508	800.000	0.032	-0.136
-350.493	-112.902	0.157	0.031
-349.479	800.000	-0.046	-0.144
-348.464	-57.188	0.375	0.165
-347.450	620.235	0.054	-0.136
-346.435	-2.538	-0.236	-0.165
-345.420	-28.526	0.191	0.110
-344.406	494.619	0.072	0.165
-343.391	-200.000	-0.007	-0.222
-342.377	142.789	-0.197	0.261
-341.362	-99.208	-0.149	-0.038
-340.348	-171.041	0.187	0.006
-339.333	-200.000	-0.007	0.092
-338.318	-162.057	0.294	0.015
-337.304	-200.000	0.030	0.141
-336.289	-90.560	-0.178	-0.051
-335.275	-85.024	-0.173	0.054
-334.260	410.869	0.179	-0.378
-333.245	199.152	-0.028	0.042
-332.231	534.046	0.042	0.099
-331.216	9.696	-0.202	0.153
-330.202	-46.839	-0.113	-0.055
-329.187	-200.000	0.064	0.322
-328.172	-200.000	0.023	-0.165
-327.158	-197.993	0.159	-0.001
-326.143	241.334	0.034	0.057
-325.129	-200.000	-0.008	-0.194
-324.114	800.000	-0.029	-0.122
-323.099	115.022	-0.060	0.073
-322.085	213.609	0.111	-0.175
-321.070	-39.868	0.101	0.053
-320.056	-200.000	0.042	0.333
-319.041	-40.353	0.081	0.042
-318.026	36.583	0.198	0.175
-317.012	195.199	0.071	0.107
-315.997	-200.000	0.061	0.363
-314.983	303.266	0.058	-0.108
-313.968	-156.425	0.195	0.012
-312.953	-114.525	-0.199	-0.038
-311.939	-115.111	0.310	0.058
-310.924	-96.065	0.305	-0.081
-309.910	389.992	0.090	0.186
-308.895	-77.524	0.195	0.067
-307.880	-110.525	-0.270	-0.056
-306.866	124.726	0.252	-0.316
-305.851	416.889	0.072	-0.153
-304.837	-175.827	0.549	0.015
-303.822	-200.000	-0.014	-0.321
-302.807	-6.115	-0.386	0.262
-301.793	-57.808	0.074	0.032
-300.778	-120.029	0.062	0.011
-299.764	-49.203	0.222	0.106
-298.749	-186.362	0.120	0.002
-297.735	310.342	-0.048	0.089
-296.720	177.415	-0.045	-0.065
-295.705	136.075	-0.077	0.100
-294.691	-124.434	0.165	-0.026
-293.676	-200.000	-0.021	0.211
-292.662	-200.000	-0.006	-0.128
-291.647	-142.351	0.528	-0.052
-290.632	-92.750	-0.273	-0.076
-289.618	-200.000	-0.059	0.325
-288.603	-96.064	-0.206	-0.055
-287.589	-77.433	-0.115	-0.040
-286.574	-200.000	0.007	-0.245
-285.559	43.394	-0.227	0.206
-284.545	-200.000	0.020	-0.186
-283.530	121.648	0.046	-0.058
-282.516	800.000	-0.076	0.265
-281.501	-6.094	0.115	0.079
-280.486	800.000	-0.043	-0.173
-279.472	-60.661	-0.129	-0.054
-278.457	-133.091	-0.237	0.030
-277.443	375.666	-0.040	-0.081
-276.428	-78.139	0.283	0.097
-275.413	366.899	0.072	0.145
-274.399	-17.423	0.119	0.075
-273.384	-5.888	-0.165	-0.112
-272.370	-118.187	0.522	0.093
-271.355	-148.975	0.463	-0.037
-270.340	-46.106	-0.276	0.135
-269.326	-118.289	-0.108	-0.019
-268.311	26.364	-0.192	0.159
-267.297	435.025	-0.138	0.299
-266.282	-134.748	-0.266	-0.032
-265.267	-129.220	-0.395	0.055
-264.253	-200.000	-0.092	0.441
-263.238	-200.000	-0.016	-0.383
-262.224	9.438	0.248	0.186
-261.209	-77.860	-0.081	-0.028
-260.195	-197.835	0.157	-0.001
-259.180	-108.712	-0.131	0.028
-258.165	-80.575	0.379	-0.125
-257.151	-24.496	-0.157	-0.093
-256.136	-107.158	0.372	0.081
-255.122	-133.042	0.045	-0.006
-254.107	-134.552	-0.235	-0.029
-253.092	-66.733	-0.243	-0.096
-252.078	-138.540	0.102	-0.011
-251.063	159.196	-0.010	0.013
-250.049	-200.000	0.025	-0.139
-249.034	191.225	-0.109	-0.164
-248.019	134.762	-0.050	-0.065
-247.005	428.243	-0.002	0.004
-245.990	-142.455	0.046	0.005
-244.976	95.422	-0.366	-0.415
-243.961	-90.274	0.171	-0.049
-242.946	117.361	-0.106	-0.130
-241.932	44.925	-0.465	0.426
-240.917	-78.959	-0.490	-0.166
-239.903	-40.930	0.309	0.159
-238.888	719.902	-0.030	-0.079
-237.873	-2.899	-0.154	0.107
-236.859	303.929	-0.117	-0.216
-235.844	-95.011	-0.332	-0.089
-234.830	32.185	-0.251	-0.215
-233.815	4.904	-0.180	0.131
-232.800	-149.661	-0.553	0.043
-231.786	800.000	-0.124	0.401
-230.771	340.312	0.195	0.378
-229.757	95.539	0.250	-0.283
-228.742	115.184	0.219	0.265
-227.727	-200.000	-0.021	-0.271
-226.713	487.876	-0.064	-0.145
-225.698	38.194	-0.099	0.087
-224.684	47.013	-0.107	0.098
-223.669	800.000	0.117	-0.342
-222.655	23.106	-0.064	-0.052
-221.640	394.568	-0.141	0.292
-220.625	85.553	-0.216	0.236
-219.611	96.277	0.196	0.222
-218.596	124.601	-0.030	-0.038
-217.582	318.967	-0.084	-0.157
-216.567	385.724	-0.047	0.096
-215.552	-200.000	0.024	0.152
-214.538	-60.704	-0.238	-0.100
-213.523	58.170	0.071	-0.069
-212.509	114.099	0.212	0.256
-211.494	447.293	0.119	0.261
-210.479	479.258	0.116	0.262
-209.465	735.346	-0.099	-0.263
-208.450	-86.857	-0.076	-0.023
-207.436	800.000	0.139	0.381
-206.421	33.657	-0.333	0.287
-205.406	46.945	0.303	0.279
-204.392	549.824	-0.212	0.504
-203.377	-142.642	-0.112	-0.011
-202.363	-44.111	0.131	0.065
-201.348	-3.254	-0.027	0.018
-200.333	-153.202	0.167	-0.012
-199.319	118.320	-0.170	0.207
-198.304	563.822	0.052	-0.126
-197.290	10.022	-0.157	-0.118
-196.275	139.248	-0.145	0.189
-195.260	-74.924	0.147	-0.052
-194.246	192.764	0.074	-0.111
-193.231	6.744	0.104	-0.077
-192.217	-200.000	-0.024	0.225
-191.202	-140.081	-0.187	-0.019
-190.187	-200.000	-0.020	-0.126
-189.173	29.662	-0.177	0.149
-188.158	171.337	-0.161	0.229
-187.144	34.781	0.114	-0.099
-186.129	40.300	0.142	0.126
-185.114	-200.000	-0.038	0.179
-184.100	-200.000	0.012	-0.364
-183.085	800.000	-0.036	-0.151
-182.071	-200.000	-0.003	-0.051
-181.056	128.914	0.179	0.227
-180.042	84.720	0.239	-0.260
-179.027	-200.000	-0.056	-0.477
-178.012	678.405	0.074	0.190
-176.998	211.208	-0.059	0.092
-175.983	-138.178	-0.107	0.012
-174.969	800.000	0.085	0.281
-173.954	-200.000	-0.041	0.268
-172.939	-25.142	-0.233	0.137
-171.925	-43.961	-0.225	-0.112
-170.910	204.814	-0.185	-0.284
-169.896	19.576	-0.200	-0.159
-168.881	231.132	0.125	0.202
-167.866	224.025	-0.044	0.070
-166.852	239.316	-0.174	0.287
-165.837	552.355	0.107	0.255
-164.823	800.000	0.088	0.318
-163.808	-70.640	-0.071	-0.027
-162.793	-26.791	-0.436	0.252
-161.779	-77.871	-0.059	0.020
-160.764	-29.253	-0.189	0.107
-159.750	689.891	-0.107	-0.278
-158.735	-200.000	-0.007	0.063
-157.720	116.183	0.152	0.184
-156.706	-66.625	-0.457	-0.179
-155.691	800.000	0.044	-0.189
-154.677	-188.802	-0.323	-0.004
-153.662	240.629	0.042	-0.070
-152.647	-116.174	0.053	-0.010
-151.633	609.597	-0.041	-0.102
-150.618	-200.000	0.156	-0.000
-149.604	57.257	0.129	-0.124
-148.589	365.110	-0.068	-0.136
-147.574	-152.143	0.251	-0.018
-146.560	-200.000	-0.008	0.139
-145.545	0.294	0.100	-0.070
-144.531	-84.792	0.215	-0.067
-143.516	82.185	-0.075	0.080
-142.502	67.001	0.219	-0.221
-141.487	-194.917	0.071	0.001
-140.472	-142.512	-0.153	-0.015
-139.458	47.046	0.159	-0.147
-138.443	-200.000	-0.003	0.044
-137.429	-7.779	0.136	-0.091
-136.414	-200.000	0.046	-0.273
-135.399	286.177	0.140	0.249
-134.385	-144.705	-0.090	-0.008
-133.370	-134.975	0.067	0.008
-132.356	-64.716	0.459	0.184
-131.341	234.279	0.069	-0.112
-130.326	-200.000	-0.028	-0.272
-129.312	800.000	0.031	0.108
-128.297	-200.000	-0.040	0.232
-127.283	-45.277	0.219	0.107
-126.268	116.846	-0.063	0.076
-125.253	20.119	0.225	0.180
-124.239	800.000	0.029	-0.082
-123.224	44.090	0.283	-0.257
-122.210	537.442	-0.135	0.318
