DTS Sentinel unit serial number:	SN413079Multiplexer serial number:	ORYXHardware model number:	OX4-SRSoftware version number:	ORYX F/W v4.00 Oryx Data Collector v3.7.2.0data status	okinstallation	princeton_trtdifferential loss correction	single-endedforward channel	channel 4reverse channel	N/Adate	2019/09/12time	02:47:10forward acquisition time	60.00reverse acquisition time	0.00gamma	496.2192k internal	0.2309k external	0.2309temperature offset calibration	1.0090default loss term (dB/km)	0.3790temperature slope calibration	1.0000multiplexer offset coefficient	1.0000multiplexer slope coefficient	1.0000fibre end	0.00T internal ref (°C)	32.37T ext. ref 1 (°C)	2.10T ext. ref 2 (°C)	26.98length (m)	temperature (°C)	Stokes	anti-Stokes-747.200	-200.000	0.056	-0.480
-746.185	-200.000	-0.085	0.385
-745.171	-200.000	-0.075	0.374
-744.156	306.826	0.118	0.223
-743.142	800.000	-0.053	0.192
-742.127	-100.713	0.254	0.064
-741.112	-102.894	0.255	0.061
-740.098	-200.000	-0.013	0.531
-739.083	633.400	0.076	0.196
-738.069	-39.149	-0.663	0.354
-737.054	139.004	0.193	0.258
-736.039	-134.660	0.095	-0.012
-735.025	544.309	-0.203	0.493
-734.010	-89.479	-0.275	0.082
-732.996	-90.252	-0.281	-0.083
-731.981	746.645	0.077	0.211
-730.966	88.422	-0.068	0.076
-729.952	-200.000	0.049	-0.228
-728.937	-200.000	0.023	-0.166
-727.923	-200.000	-0.023	-0.315
-726.908	58.919	-0.219	-0.219
-725.894	800.000	-0.078	-0.235
-724.879	311.938	0.182	-0.346
-723.864	-123.696	-0.303	0.049
-722.850	-200.000	-0.006	-0.094
-721.835	-5.802	-0.090	0.063
-720.821	800.000	0.008	0.027
-719.806	334.579	0.053	-0.105
-718.791	101.881	-0.069	-0.081
-717.777	141.127	0.124	-0.166
-716.762	-185.990	0.173	-0.003
-715.748	800.000	0.045	0.145
-714.733	-54.680	0.149	0.069
-713.718	42.052	0.295	0.272
-712.704	-127.772	0.265	-0.039
-711.689	243.892	0.133	0.227
-710.675	800.000	0.110	0.310
-709.660	-200.000	-0.009	0.188
-708.645	445.339	-0.052	0.115
-707.631	-200.000	0.031	0.394
-706.616	750.843	0.044	0.122
-705.602	661.055	-0.062	0.163
-704.587	580.989	0.022	-0.054
-703.572	-200.000	-0.010	0.107
-702.558	800.000	0.071	0.224
-701.543	800.000	0.120	-0.429
-700.529	-32.509	0.218	-0.123
-699.514	199.193	-0.063	0.098
-698.499	-48.015	-0.301	0.148
-697.485	76.708	0.092	0.099
-696.470	-200.000	0.042	0.277
-695.456	-145.858	-0.099	0.009
-694.441	-72.102	0.051	-0.019
-693.426	164.601	0.072	-0.104
-692.412	-153.546	0.183	-0.013
-691.397	116.966	0.339	-0.422
-690.383	-200.000	-0.005	0.128
-689.368	-200.000	0.001	0.171
-688.354	4.668	0.061	-0.045
-687.339	73.188	0.163	0.172
-686.324	800.000	0.038	0.119
-685.310	800.000	0.078	0.274
-684.295	800.000	-0.092	0.268
-683.281	525.040	-0.059	0.140
-682.266	49.123	0.216	0.206
-681.251	-139.770	0.158	0.017
-680.237	-200.000	0.001	0.119
-679.222	-200.000	0.040	-0.332
-678.208	293.894	0.178	0.330
-677.193	-200.000	0.006	-0.092
-676.178	78.855	0.112	-0.121
-675.164	-120.417	0.288	0.050
-674.149	-200.000	0.054	0.300
-673.135	31.446	0.148	0.129
-672.120	-112.734	0.097	0.019
-671.105	15.759	-0.066	0.053
-670.091	800.000	-0.057	-0.204
-669.076	306.947	0.203	0.382
-668.062	-126.727	-0.149	-0.022
-667.047	800.000	-0.073	0.251
-666.032	18.898	0.237	0.192
-665.018	312.761	0.026	-0.050
-664.003	-200.000	0.059	0.404
-662.989	35.521	-0.026	0.023
-661.974	49.826	-0.083	-0.080
-660.959	800.000	0.120	-0.346
-659.945	199.033	-0.211	0.327
-658.930	800.000	-0.046	-0.153
-657.916	138.960	0.214	-0.285
-656.901	800.000	0.033	0.130
-655.886	-23.953	-0.304	0.184
-654.872	-200.000	0.019	0.099
-653.857	178.011	0.183	-0.270
-652.843	-135.507	0.243	-0.029
-651.828	162.682	-0.088	0.125
-650.814	20.466	-0.133	-0.109
-649.799	794.772	0.025	0.069
-648.784	68.725	-0.350	0.364
-647.770	493.610	0.120	0.278
-646.755	-29.217	-0.148	0.086
-645.741	-131.229	0.214	0.029
-644.726	-107.001	-0.178	0.040
-643.711	800.000	0.059	0.211
-642.697	800.000	-0.064	-0.234
-641.682	47.672	-0.392	0.370
-640.668	-37.561	-0.061	-0.033
-639.653	-10.469	-0.372	0.249
-638.638	-104.078	-0.634	0.149
-637.624	-58.159	-0.382	-0.169
-636.609	50.540	-0.163	0.156
-635.595	-200.000	-0.050	-0.394
-634.580	24.506	0.285	0.238
-633.565	-65.863	0.305	0.124
-632.551	-103.276	-0.116	-0.028
-631.536	800.000	-0.053	-0.174
-630.522	-149.470	0.400	0.032
-629.507	130.684	-0.192	-0.250
-628.492	-123.448	-0.495	-0.080
-627.478	-26.090	0.058	-0.034
-626.463	-162.154	-0.253	0.013
-625.449	-99.999	0.372	-0.094
-624.434	239.894	-0.185	0.311
-623.419	-98.938	-0.286	0.073
-622.405	241.832	-0.120	0.202
-621.390	191.109	0.007	-0.011
-620.376	-37.641	-0.317	-0.171
-619.361	36.786	-0.120	-0.108
-618.346	-84.623	-0.035	0.011
-617.332	-28.182	0.105	0.062
-616.317	-117.030	-0.103	-0.019
-615.303	73.138	0.293	-0.310
-614.288	156.783	0.109	-0.152
-613.273	-152.884	0.069	0.005
-612.259	-200.000	0.036	0.282
-611.244	800.000	-0.072	-0.208
-610.230	-200.000	-0.014	0.399
-609.215	-200.000	0.056	-0.312
-608.201	-141.841	-0.084	0.009
-607.186	-166.514	-0.342	0.014
-606.171	-97.543	-0.101	-0.026
-605.157	-71.645	-0.262	0.099
-604.142	82.001	0.230	-0.252
-603.128	320.856	-0.131	-0.251
-602.113	-200.000	-0.019	-0.140
-601.098	800.000	-0.068	-0.230
-600.084	328.398	0.246	-0.478
-599.069	68.879	-0.417	-0.432
-598.055	-68.561	-0.174	-0.068
-597.040	247.514	0.214	-0.366
-596.025	-10.132	-0.223	0.149
-595.011	-90.103	0.307	0.090
-593.996	-77.142	-0.493	-0.174
-592.982	-200.000	0.063	0.319
-591.967	152.729	0.090	0.124
-590.952	633.187	-0.199	0.510
-589.938	-200.000	0.111	0.523
-588.923	30.322	0.285	-0.246
-587.909	529.410	0.046	0.111
-586.894	95.080	0.190	-0.219
-585.879	-25.689	0.118	0.070
-584.865	77.472	0.353	-0.380
-583.850	-15.141	0.078	0.050
-582.836	-101.930	0.194	0.047
-581.821	800.000	-0.037	-0.122
-580.806	52.568	0.126	-0.121
-579.792	-200.000	0.001	0.111
-578.777	-99.498	0.404	0.103
-577.763	-163.371	-0.398	0.019
-576.748	222.369	-0.051	-0.083
-575.733	-82.539	-0.223	-0.073
-574.719	-141.130	0.297	-0.031
-573.704	800.000	-0.049	-0.199
-572.690	78.094	0.185	0.199
-571.675	40.652	0.070	-0.064
-570.661	564.746	0.046	-0.113
-569.646	55.466	0.083	0.081
-568.631	-156.188	-0.218	-0.014
-567.617	800.000	-0.093	-0.268
-566.602	87.533	-0.301	-0.336
-565.588	120.027	-0.210	0.263
-564.573	58.340	-0.246	0.243
-563.558	184.135	-0.165	-0.246
-562.544	-200.000	0.010	0.165
-561.529	800.000	0.141	-0.412
-560.515	-200.000	0.021	0.131
-559.500	-200.000	0.008	0.163
-558.485	-172.633	0.399	0.013
-557.471	-82.403	-0.131	-0.043
-556.456	-173.430	0.357	-0.011
-555.442	567.306	0.137	-0.336
-554.427	551.827	0.068	-0.165
-553.412	800.000	-0.025	-0.104
-552.398	-200.000	-0.015	-0.293
-551.383	295.419	0.152	-0.281
-550.369	-108.071	0.288	-0.063
-549.354	4.494	-0.087	-0.064
-548.339	-92.243	-0.175	0.050
-547.325	-115.158	0.463	-0.088
-546.310	226.183	0.077	0.125
-545.296	28.404	-0.035	0.030
-544.281	-90.896	0.069	-0.020
-543.266	-56.269	-0.134	0.060
-542.252	67.494	-0.171	-0.176
-541.237	117.427	0.192	-0.238
-540.223	28.963	-0.245	0.210
-539.208	308.604	0.075	0.141
-538.193	800.000	-0.055	-0.188
-537.179	-134.489	-0.361	-0.045
-536.164	175.905	0.091	0.133
-535.150	62.476	-0.086	0.087
-534.135	-200.000	-0.006	0.156
-533.121	28.135	-0.093	0.079
-532.106	-53.668	-0.347	-0.160
-531.091	81.423	0.083	0.090
-530.077	573.910	0.126	-0.309
-529.062	-164.735	0.501	-0.023
-528.048	115.541	-0.036	0.045
-527.033	13.571	0.104	-0.081
-526.018	220.377	-0.080	0.129
-525.004	-89.819	0.076	0.022
-523.989	-30.988	-0.173	-0.098
-522.975	-200.000	0.029	0.169
-521.960	535.606	-0.055	0.131
-520.945	73.940	-0.244	0.258
-519.931	-93.662	-0.192	0.053
-518.916	-35.715	-0.278	0.152
-517.902	44.141	0.201	-0.186
-516.887	190.634	-0.068	-0.104
-515.872	221.462	-0.011	0.017
-514.858	-143.367	0.230	-0.022
-513.843	131.834	0.015	0.020
-512.829	-153.522	-0.148	-0.010
-511.814	541.510	-0.054	0.131
-510.799	-200.000	-0.047	0.232
-509.785	-70.252	-0.227	0.087
-508.770	123.307	0.193	-0.243
-507.756	-77.904	-0.202	0.070
-506.741	166.772	-0.178	-0.254
-505.726	178.181	0.267	-0.393
-504.712	-200.000	0.037	-0.254
-503.697	-51.727	0.349	0.164
-502.683	222.197	0.073	0.119
-501.668	45.635	-0.191	0.178
-500.653	54.539	0.172	-0.167
-499.639	331.388	-0.046	-0.089
-498.624	-200.000	0.044	0.216
-497.610	-55.268	0.169	-0.076
-496.595	-101.443	-0.134	0.033
-495.581	-13.963	-0.382	0.248
-494.566	-200.000	-0.010	-0.055
-493.551	-200.000	0.040	-0.205
-492.537	-200.000	-0.039	-0.234
-491.522	128.365	0.050	-0.065
-490.508	7.529	0.202	-0.152
-489.493	176.640	0.067	-0.098
-488.478	-146.552	0.118	0.010
-487.464	-200.000	0.022	0.207
-486.449	347.924	0.164	0.325
-485.435	105.314	0.261	0.310
-484.420	-156.805	0.334	0.021
-483.405	230.841	0.064	-0.106
-482.391	800.000	0.086	0.307
-481.376	209.862	0.105	0.166
-480.362	-190.715	0.186	0.002
-479.347	22.210	0.131	-0.108
-478.332	74.823	-0.020	-0.022
-477.318	188.374	0.108	0.162
-476.303	86.842	0.135	-0.150
-475.289	256.262	0.116	-0.201
-474.274	406.229	-0.033	-0.071
-473.259	-200.000	-0.006	-0.163
-472.245	398.123	-0.124	0.261
-471.230	800.000	-0.042	-0.132
-470.216	-151.939	-0.098	-0.007
-469.201	-10.691	0.154	-0.103
-468.186	146.789	0.120	-0.162
-467.172	513.460	-0.065	0.153
-466.157	-200.000	-0.026	-0.201
-465.143	-180.207	0.074	-0.002
-464.128	476.909	0.037	0.085
-463.113	444.984	0.054	-0.118
-462.099	-57.615	0.231	0.102
-461.084	800.000	-0.163	0.464
-460.070	-5.947	-0.167	0.115
-459.055	49.807	-0.161	-0.153
-458.040	123.535	0.264	0.333
-457.026	-200.000	-0.049	-0.380
-456.011	792.700	-0.144	-0.398
-454.997	-59.544	-0.305	-0.132
-453.982	146.029	0.126	-0.170
-452.968	-53.564	0.261	-0.120
-451.953	-102.014	-0.092	-0.022
-450.938	123.168	-0.164	0.207
-449.924	-11.046	-0.104	-0.069
-448.909	0.593	0.242	0.174
-447.895	-75.722	-0.171	0.061
-446.880	-24.003	-0.081	0.049
-445.865	-39.807	0.067	0.035
-444.851	-70.270	-0.316	0.120
-443.836	-80.232	-0.160	0.054
-442.822	800.000	-0.113	0.352
-441.807	-30.659	-0.087	0.049
-440.792	-132.584	-0.270	0.035
-439.778	-115.487	-0.304	-0.057
-438.763	-200.000	-0.016	0.140
-437.749	83.845	-0.051	-0.056
-436.734	29.400	-0.028	-0.024
-435.719	235.312	0.087	0.145
-434.705	232.445	-0.125	-0.206
-433.690	-130.652	0.026	-0.003
-432.676	800.000	-0.106	-0.390
-431.661	-65.392	0.273	0.110
-430.646	65.202	0.056	-0.057
-429.632	-174.020	-0.124	-0.004
-428.617	-73.172	0.184	0.068
-427.603	-34.251	-0.289	-0.159
-426.588	-200.000	0.001	-0.087
-425.573	64.225	-0.042	0.043
-424.559	-136.003	-0.244	-0.029
-423.544	-17.420	-0.365	0.231
-422.530	-0.199	0.069	0.049
-421.515	-124.294	0.102	0.016
-420.500	419.390	-0.122	-0.263
-419.486	-110.976	0.224	-0.046
-418.471	181.168	0.122	-0.180
-417.457	-117.405	0.229	-0.042
-416.442	9.866	0.118	0.090
-415.428	34.300	0.061	0.053
-414.413	800.000	-0.079	-0.326
-413.398	-200.000	0.006	0.052
-412.384	-66.825	0.207	-0.082
-411.369	-89.395	0.217	0.064
-410.355	-200.000	0.020	-0.167
-409.340	149.451	-0.085	-0.116
-408.325	338.959	-0.059	-0.114
-407.311	-96.782	0.292	-0.077
-406.296	15.208	-0.118	0.093
-405.282	196.644	0.070	0.108
-404.267	800.000	0.130	0.476
-403.252	49.672	-0.190	0.179
-402.238	574.827	-0.046	0.112
-401.223	379.874	0.100	-0.205
-400.209	-52.661	-0.322	-0.149
-399.194	-3.327	-0.271	0.189
-398.179	800.000	-0.040	0.126
-397.165	-64.546	-0.344	-0.140
-396.150	2.693	-0.274	-0.199
-395.136	13.263	0.178	-0.139
-394.121	-123.203	-0.176	0.028
-393.106	-40.484	0.112	-0.058
-392.092	435.357	-0.069	-0.150
-391.077	800.000	-0.048	-0.144
-390.063	10.906	0.053	0.040
-389.048	-10.922	0.167	0.111
-388.033	-55.243	0.102	0.046
-387.019	195.331	0.059	-0.090
-386.004	-41.549	0.224	0.116
-384.990	757.854	-0.114	-0.309
-383.975	-3.849	-0.322	-0.224
-382.960	-88.483	-0.169	0.051
-381.946	800.000	0.092	-0.364
-380.931	41.086	0.358	-0.324
-379.917	-200.000	0.003	-0.087
-378.902	-17.177	0.335	0.211
-377.888	-37.511	-0.212	0.113
-376.873	508.887	-0.100	0.233
-375.858	-200.000	-0.014	-0.157
-374.844	266.147	0.171	-0.299
-373.829	-123.281	0.068	0.011
-372.815	-172.328	0.272	-0.009
-371.800	120.794	-0.134	0.167
-370.785	8.627	-0.046	0.035
-369.771	-18.068	-0.245	0.154
-368.756	216.047	0.057	0.091
-367.742	-8.548	-0.156	0.105
-366.727	292.818	0.170	0.311
-365.712	-200.000	-0.007	0.167
-364.698	-85.874	-0.101	-0.031
-363.683	281.200	-0.156	-0.279
-362.669	57.390	-0.165	0.161
-361.654	-88.694	-0.261	0.078
-360.639	-135.218	0.046	0.006
-359.625	24.198	0.099	0.082
-358.610	800.000	0.046	-0.195
-357.596	-179.774	-0.217	-0.005
-356.581	-117.813	0.125	0.022
-355.566	-94.221	0.432	0.118
-354.552	-1.742	0.042	0.030
-353.537	-117.058	-0.114	-0.021
-352.523	800.000	0.115	-0.339
-351.508	-69.105	-0.169	-0.065
-350.493	-166.189	-0.233	-0.010
-349.479	-200.000	0.019	0.129
-348.464	-18.891	-0.325	0.203
-347.450	22.613	0.130	-0.107
-346.435	-200.000	-0.024	0.219
-345.420	486.387	-0.099	-0.225
-344.406	68.196	-0.098	-0.100
-343.391	-114.229	0.318	-0.061
-342.377	183.554	-0.148	0.219
-341.362	60.426	0.231	0.229
-340.348	267.437	-0.112	0.196
-339.333	-120.108	0.222	0.038
-338.318	593.942	0.046	-0.114
-337.304	318.752	0.103	-0.196
-336.289	-200.000	-0.033	0.174
-335.275	-200.000	0.003	0.157
-334.260	-25.662	0.211	-0.124
-333.245	127.536	0.150	0.190
-332.231	-36.481	0.032	-0.017
-331.216	800.000	0.056	0.185
-330.202	-97.698	-0.214	-0.056
-329.187	-200.000	0.001	-0.216
-328.172	-116.044	0.086	-0.016
-327.158	-65.492	0.252	-0.101
-326.143	193.280	0.063	-0.095
-325.129	-55.422	0.566	-0.254
-324.114	-20.780	-0.144	0.089
-323.099	-70.932	0.230	0.086
-322.085	-36.817	-0.163	0.088
-321.070	-126.104	0.115	0.017
-320.056	-200.000	-0.034	0.269
-319.041	-54.081	-0.326	0.148
-318.026	23.805	0.074	0.061
-317.012	-91.056	-0.229	0.066
-315.997	-200.000	0.041	0.211
-314.983	800.000	0.079	0.270
-313.968	452.024	0.117	-0.259
-312.953	-69.290	0.330	0.127
-311.939	-92.261	0.223	0.063
-310.924	800.000	0.039	-0.168
-309.910	-95.403	0.315	0.085
-308.895	-135.019	-0.116	0.014
-307.880	252.981	0.045	-0.077
-306.866	454.395	0.043	0.095
-305.851	-113.987	0.171	0.033
-304.837	-6.225	0.193	0.131
-303.822	800.000	0.093	0.324
-302.807	800.000	0.102	0.326
-301.793	131.654	0.107	0.138
-300.778	172.654	-0.089	0.128
-299.764	-87.865	0.049	0.015
-298.749	514.236	0.127	0.297
-297.735	800.000	0.116	0.408
-296.720	354.886	-0.084	-0.168
-295.705	800.000	-0.123	-0.349
-294.691	800.000	-0.089	-0.348
-293.676	-170.085	-0.203	-0.007
-292.662	128.436	-0.286	-0.364
-291.647	228.038	0.095	0.155
-290.632	800.000	0.004	-0.016
-289.618	-200.000	0.004	-0.178
-288.603	68.064	0.134	0.137
-287.589	408.640	0.124	0.261
-286.574	50.152	-0.217	0.205
-285.559	-31.939	-0.144	0.080
-284.545	-200.000	-0.275	-0.001
-283.530	-78.143	-0.078	0.027
-282.516	36.654	0.154	0.136
-281.501	58.053	0.077	-0.076
-280.486	-143.261	0.058	0.006
-279.472	-200.000	0.055	0.294
-278.457	-117.680	-0.237	0.043
-277.443	-13.826	-0.306	0.197
-276.428	-118.318	-0.271	0.048
-275.413	-200.000	0.043	-0.218
-274.399	7.340	-0.184	0.137
-273.384	141.616	0.120	0.159
-272.370	74.849	0.105	-0.110
-271.355	-200.000	-0.013	-0.070
-270.340	483.696	-0.112	0.254
-269.326	-200.000	-0.070	0.373
-268.311	-24.400	0.121	0.072
-267.297	-127.871	-0.226	-0.032
-266.282	400.827	-0.187	0.391
-265.267	-112.454	-0.322	0.064
-264.253	420.445	0.011	-0.024
-263.238	-200.000	0.006	0.095
-262.224	3.063	-0.143	0.104
-261.209	-200.000	-0.073	0.318
-260.195	-71.259	-0.154	0.057
-259.180	-152.965	0.269	0.019
-258.165	-9.844	0.118	0.078
-257.151	95.291	0.202	0.229
-256.136	-107.668	-0.301	0.066
-255.122	-200.000	0.046	-0.336
-254.107	-172.551	0.488	-0.015
-253.092	621.698	-0.103	-0.259
-252.078	-170.791	0.054	0.002
-251.063	-97.504	0.112	0.029
-250.049	-144.355	-0.178	0.017
-249.034	72.125	0.060	-0.062
-248.019	-200.000	-0.018	-0.222
-247.005	34.320	0.118	0.103
-245.990	-53.707	-0.094	0.043
-244.976	-131.489	0.133	-0.017
-243.961	348.710	-0.192	-0.376
-242.946	187.190	-0.289	-0.430
-241.932	161.571	0.168	0.234
-240.917	-3.092	-0.184	-0.128
-239.903	134.694	0.105	-0.135
-238.888	3.122	0.145	0.105
-237.873	350.223	-0.016	-0.032
-236.859	-145.582	0.235	-0.021
-235.844	-98.013	0.277	-0.071
-234.830	16.048	0.209	-0.164
-233.815	-89.961	-0.189	-0.055
-232.800	68.629	-0.117	-0.119
-231.786	28.250	0.231	-0.194
-230.771	397.636	-0.053	0.110
-229.757	-63.527	0.222	-0.091
-228.742	143.774	0.064	-0.085
-227.727	-11.865	0.286	-0.187
-226.713	161.535	0.096	-0.133
-225.698	22.247	-0.145	0.118
-224.684	-200.000	0.065	-0.486
-223.669	-161.086	0.295	-0.015
-222.655	800.000	0.070	0.255
-221.640	328.145	0.074	-0.142
-220.625	-34.725	-0.184	-0.100
-219.611	800.000	-0.056	-0.187
-218.596	-55.285	0.455	-0.203
-217.582	-200.000	0.013	0.262
-216.567	800.000	0.091	-0.269
-215.552	-86.459	-0.188	0.058
-214.538	800.000	0.073	0.236
-213.523	800.000	0.172	0.561
-212.509	-157.735	-0.246	0.015
-211.494	-200.000	-0.018	-0.134
-210.479	39.763	0.057	-0.050
-209.465	110.776	-0.119	0.143
-208.450	-200.000	-0.104	-0.520
-207.436	-200.000	-0.040	-0.340
-206.421	-66.135	0.220	-0.087
-205.406	-200.000	-0.199	-0.001
-204.392	-64.115	0.011	0.004
-203.377	742.267	0.164	-0.438
-202.363	150.458	-0.125	0.168
-201.348	102.089	0.223	-0.259
-200.333	-95.295	-0.398	-0.107
-199.319	800.000	0.031	-0.088
-198.304	25.336	0.335	-0.277
-197.290	242.243	0.081	0.135
-196.275	232.703	-0.092	-0.150
-195.260	13.087	0.096	0.074
-194.246	-119.726	-0.165	-0.028
-193.231	74.220	0.156	-0.163
-192.217	428.484	0.218	-0.468
-191.202	-1.483	-0.252	-0.177
-190.187	-31.563	-0.000	0.000
-189.173	91.446	0.078	-0.087
-188.158	290.904	0.084	-0.152
-187.144	-91.906	0.120	0.034
-186.129	-88.523	-0.551	0.163
-185.114	56.042	-0.204	-0.196
-184.100	-200.000	0.021	-0.361
-183.085	111.213	-0.120	0.144
-182.071	0.318	0.054	-0.038
-181.056	-200.000	-0.016	0.209
-180.042	-7.200	-0.171	0.115
-179.027	96.744	-0.260	0.295
-178.012	800.000	0.046	-0.171
-176.998	800.000	-0.035	0.106
-175.983	285.737	0.080	0.144
-174.969	-43.805	-0.509	0.255
-173.954	-40.769	-0.514	0.265
-172.939	28.289	0.212	-0.178
-171.925	143.431	0.179	-0.237
-170.910	433.758	0.159	0.344
-169.896	77.622	0.108	-0.114
-168.881	446.436	-0.205	0.447
-167.866	57.066	0.293	0.283
-166.852	283.905	0.105	0.187
-165.837	800.000	0.096	0.314
-164.823	-200.000	0.051	0.270
-163.808	75.267	0.119	-0.125
-162.793	-85.420	0.180	0.056
-161.779	273.003	0.129	0.227
-160.764	-200.000	0.044	0.273
-159.750	-41.648	0.319	-0.163
-158.735	652.821	-0.052	-0.132
-157.720	189.244	0.218	-0.325
-156.706	-111.157	0.172	0.035
-155.691	-200.000	-0.002	0.402
-154.677	78.106	0.119	0.126
-153.662	-71.724	-0.139	-0.052
-152.647	362.302	-0.087	0.173
-151.633	237.572	0.199	0.328
-150.618	290.363	0.081	-0.146
-149.604	-155.668	-0.271	-0.017
-148.589	10.127	-0.221	0.167
-147.574	222.875	-0.188	0.301
-146.560	-73.646	-0.083	0.030
-145.545	27.131	0.086	0.072
-144.531	-200.000	-0.030	0.349
-143.516	169.411	0.033	0.046
-142.502	-55.346	0.178	-0.079
-141.487	105.614	-0.014	0.017
-140.472	-99.788	0.162	-0.040
-139.458	298.293	-0.149	0.272
-138.443	800.000	0.109	0.421
-137.429	62.687	0.225	0.223
-136.414	-86.683	0.273	0.083
-135.399	39.622	-0.083	0.074
-134.385	10.200	-0.260	-0.196
-133.370	210.808	0.158	-0.246
-132.356	-155.362	0.133	-0.009
-131.341	-21.924	-0.112	-0.068
-130.326	-200.000	0.005	0.139
-129.312	724.782	-0.028	0.073
-128.297	11.763	0.097	-0.074
-127.283	32.175	-0.280	0.240
-126.268	-200.000	0.033	0.215
-125.253	107.201	0.052	-0.061
-124.239	311.211	-0.051	-0.095
-123.224	-125.767	0.146	0.022
-122.210	-89.269	0.077	0.022
-121.195	-107.702	-0.211	-0.046
-120.180	800.000	0.089	0.316
-119.166	63.579	0.183	-0.182
