DTS Sentinel unit serial number:	SN413079Multiplexer serial number:	ORYXHardware model number:	OX4-SRSoftware version number:	ORYX F/W v4.00 Oryx Data Collector v3.7.2.0data status	okinstallation	princeton_trtdifferential loss correction	single-endedforward channel	channel 4reverse channel	N/Adate	2019/09/11time	01:15:10forward acquisition time	60.00reverse acquisition time	0.00gamma	496.2192k internal	0.2318k external	0.2318temperature offset calibration	0.9948default loss term (dB/km)	0.3790temperature slope calibration	1.0000multiplexer offset coefficient	1.0000multiplexer slope coefficient	1.0000fibre end	0.00T internal ref (°C)	29.12T ext. ref 1 (°C)	-0.30T ext. ref 2 (°C)	23.16length (m)	temperature (°C)	Stokes	anti-Stokes-747.200	296.998	0.084	0.157
-746.185	145.339	-0.133	0.180
-745.171	25.037	0.169	-0.142
-744.156	800.000	-0.077	0.307
-743.142	77.116	-0.104	0.111
-742.127	-149.479	0.330	-0.027
-741.112	1.323	-0.246	-0.179
-740.098	67.832	0.160	0.166
-739.083	-200.000	-0.066	-0.352
-738.069	44.712	0.136	0.126
-737.054	800.000	-0.033	0.097
-736.039	11.075	0.097	0.075
-735.025	25.470	0.249	-0.209
-734.010	154.773	0.077	0.107
-732.996	-80.523	-0.152	-0.051
-731.981	800.000	-0.077	0.240
-730.966	185.613	0.121	-0.182
-729.952	35.468	-0.276	0.246
-728.937	-73.852	-0.238	-0.088
-727.923	800.000	-0.076	0.234
-726.908	-36.918	-0.152	0.082
-725.894	-200.000	0.012	-0.314
-724.879	-166.720	-0.213	0.009
-723.864	-74.468	-0.180	-0.066
-722.850	-89.331	-0.146	0.044
-721.835	800.000	0.039	-0.166
-720.821	-200.000	0.018	0.192
-719.806	65.304	0.160	0.163
-718.791	-200.000	-0.019	-0.246
-717.777	216.178	-0.250	0.401
-716.762	800.000	-0.118	-0.383
-715.748	139.913	-0.032	0.043
-714.733	-48.085	0.078	-0.038
-713.718	-200.000	-0.025	-0.213
-712.704	334.150	-0.104	0.204
-711.689	55.158	-0.214	0.209
-710.675	-111.147	-0.545	0.113
-709.660	-49.938	-0.333	-0.159
-708.645	-108.141	0.137	0.030
-707.631	-22.999	-0.286	0.174
-706.616	10.186	-0.186	-0.143
-705.602	-100.489	0.171	-0.043
-704.587	0.852	-0.290	-0.210
-703.572	-52.884	0.080	-0.037
-702.558	-60.049	0.063	0.027
-701.543	-200.000	-0.035	-0.169
-700.529	-112.303	-0.188	-0.038
-699.514	-107.088	0.048	0.011
-698.499	-200.000	0.103	0.526
-697.485	133.767	-0.043	0.057
-696.470	-82.703	0.204	-0.067
-695.456	124.502	-0.077	-0.098
-694.441	-54.520	-0.203	-0.093
-693.426	-159.586	-0.052	-0.003
-692.412	31.364	-0.128	-0.111
-691.397	11.855	0.141	0.109
-690.383	-200.000	0.025	-0.321
-689.368	-200.000	0.013	-0.234
-688.354	-36.126	-0.252	-0.137
-687.339	128.268	-0.111	0.143
-686.324	-102.458	-0.124	0.030
-685.310	-200.000	-0.005	-0.077
-684.295	-0.229	-0.246	-0.177
-683.281	-91.195	-0.184	-0.053
-682.266	-147.104	0.483	0.042
-681.251	-10.321	0.149	0.100
-680.237	725.753	-0.057	-0.155
-679.222	234.266	-0.204	-0.339
-678.208	-177.158	-0.152	-0.004
-677.193	-125.595	-0.128	-0.020
-676.178	117.375	-0.095	0.118
-675.164	-15.477	0.167	-0.108
-674.149	23.652	-0.313	-0.260
-673.135	206.961	-0.103	0.161
-672.120	-23.730	0.281	-0.170
-671.105	-200.000	0.012	0.143
-670.091	-127.984	-0.278	0.040
-669.076	-16.465	0.350	-0.224
-668.062	-194.367	-0.095	0.001
-667.047	-98.698	0.284	0.073
-666.032	-106.242	-0.044	-0.010
-665.018	-200.000	0.039	-0.209
-664.003	-28.336	-0.014	-0.008
-662.989	-59.135	-0.201	0.087
-661.974	433.456	-0.093	-0.203
-660.959	39.824	0.049	0.045
-659.945	314.411	-0.225	-0.427
-658.930	-77.282	0.107	0.037
-657.916	728.944	-0.039	-0.105
-656.901	-54.035	-0.188	-0.086
-655.886	800.000	0.028	-0.108
-654.872	-120.403	-0.543	-0.093
-653.857	-2.880	-0.109	-0.077
-652.843	-143.092	-0.080	-0.008
-651.828	-93.367	-0.277	-0.077
-650.814	-200.000	0.041	0.204
-649.799	-12.184	0.271	-0.179
-648.784	69.807	0.179	-0.187
-647.770	378.938	-0.040	0.083
-646.755	482.343	0.037	0.084
-645.741	279.608	0.111	-0.200
-644.726	73.478	-0.252	-0.266
-643.711	-20.372	-0.125	0.078
-642.697	583.288	0.060	0.147
-641.682	223.745	0.116	-0.189
-640.668	-107.884	-0.376	-0.083
-639.653	381.628	0.132	-0.274
-638.638	-67.770	0.075	-0.030
-637.624	-133.402	-0.263	-0.033
-636.609	722.341	0.045	-0.120
-635.595	-60.955	0.206	0.088
-634.580	800.000	-0.049	-0.138
-633.565	511.044	0.115	-0.269
-632.551	74.423	0.174	0.184
-631.536	27.267	-0.199	-0.168
-630.522	230.024	-0.103	-0.169
-629.507	800.000	-0.012	0.035
-628.492	800.000	-0.089	-0.278
-627.478	800.000	-0.063	-0.221
-626.463	-72.375	-0.435	-0.162
-625.449	329.816	-0.086	0.166
-624.434	407.029	0.158	-0.335
-623.419	-26.742	0.145	0.086
-622.405	-200.000	-0.024	0.240
-621.390	-200.000	0.035	-0.345
-620.376	-49.173	-0.224	0.108
-619.361	207.743	0.161	-0.253
-618.346	-147.330	0.432	0.037
-617.332	33.642	-0.308	-0.270
-616.317	0.640	0.113	-0.081
-615.303	-200.000	0.008	-0.335
-614.288	30.657	-0.144	0.124
-613.273	778.245	0.138	0.380
-612.259	-200.000	0.047	0.359
-611.244	800.000	-0.089	0.270
-610.230	155.938	-0.116	-0.161
-609.215	-101.040	0.254	-0.063
-608.201	56.713	-0.157	0.154
-607.186	-125.506	0.297	0.046
-606.171	-200.000	0.023	0.168
-605.157	800.000	-0.045	-0.197
-604.142	-158.512	-0.275	-0.016
-603.128	-70.407	-0.151	-0.057
-602.113	246.469	-0.123	0.209
-601.098	-91.955	0.231	0.066
-600.084	756.991	-0.068	0.185
-599.069	12.683	-0.192	0.149
-598.055	-200.000	-0.013	0.415
-597.040	-75.903	-0.039	0.014
-596.025	37.130	0.166	-0.148
-595.011	107.379	-0.152	-0.182
-593.996	53.322	0.150	-0.144
-592.982	800.000	0.035	0.130
-591.967	65.320	0.130	0.132
-590.952	10.908	-0.184	0.141
-589.938	95.535	0.304	-0.348
-588.923	-68.204	0.277	0.108
-587.909	-90.536	0.148	0.043
-586.894	-37.029	0.285	-0.154
-585.879	29.175	-0.213	-0.182
-584.865	-145.636	0.113	-0.010
-583.850	-25.273	-0.012	-0.007
-582.836	14.370	-0.187	0.147
-581.821	11.330	-0.278	-0.214
-580.806	-187.133	0.181	-0.002
-579.792	394.151	-0.193	0.405
-578.777	-1.003	-0.050	0.036
-577.763	-117.603	0.068	0.012
-576.748	218.911	0.081	0.130
-575.733	-124.270	0.188	-0.030
-574.719	443.879	0.062	-0.136
-573.704	-55.044	0.159	0.072
-572.690	800.000	-0.038	-0.163
-571.675	-200.000	-0.038	-0.265
-570.661	-200.000	0.041	-0.184
-569.646	15.998	-0.029	0.023
-568.631	-33.454	-0.374	-0.208
-567.617	-200.000	-0.018	-0.253
-566.602	70.975	0.047	-0.049
-565.588	800.000	0.165	-0.487
-564.573	800.000	0.057	-0.174
-563.558	-200.000	0.006	-0.192
-562.544	-200.000	0.001	-0.038
-561.529	554.751	0.155	-0.375
-560.515	-122.917	-0.227	-0.037
-559.500	-200.000	-0.043	-0.197
-558.485	-10.272	0.226	0.151
-557.471	179.378	-0.107	-0.157
-556.456	-200.000	-0.065	0.289
-555.442	-111.560	-0.253	0.052
-554.427	-83.807	0.182	0.058
-553.412	-165.759	0.093	0.004
-552.398	105.327	-0.051	0.060
-551.383	-105.160	-0.176	-0.040
-550.369	-23.669	0.054	-0.032
-549.354	-10.370	-0.227	0.151
-548.339	54.339	0.025	0.024
-547.325	131.977	0.223	-0.288
-546.310	296.009	-0.247	0.454
-545.296	262.546	-0.169	0.295
-544.281	-40.212	-0.403	0.211
-543.266	106.527	-0.146	0.174
-542.252	359.373	-0.131	-0.263
-541.237	49.831	0.107	0.101
-540.223	-61.869	0.107	-0.045
-539.208	-14.065	-0.279	0.181
-538.193	-101.470	-0.349	0.085
-537.179	-141.106	0.052	-0.005
-536.164	0.502	-0.159	0.114
-535.150	-200.000	0.007	0.262
-534.135	-22.935	0.285	0.173
-533.121	241.891	0.093	0.156
-532.106	-200.000	0.079	-0.443
-531.091	-200.000	0.025	0.425
-530.077	633.838	-0.069	0.175
-529.062	70.037	0.211	-0.219
-528.048	-32.430	-0.242	-0.136
-527.033	-200.000	-0.003	-0.145
-526.018	233.662	-0.102	-0.168
-525.004	536.933	-0.064	-0.152
-523.989	188.770	0.143	0.214
-522.975	82.247	-0.242	0.263
-521.960	357.701	0.128	0.257
-520.945	175.478	-0.208	0.303
-519.931	-31.641	-0.039	-0.022
-518.916	-123.901	0.052	-0.008
-517.902	245.755	-0.244	-0.412
-516.887	-84.574	-0.157	0.050
-515.872	-70.768	0.178	-0.067
-514.858	800.000	-0.041	-0.135
-513.843	-72.468	0.292	0.108
-512.829	-47.066	-0.197	0.096
-511.814	-33.417	0.332	0.184
-510.799	439.592	-0.098	0.216
-509.785	55.297	-0.196	-0.190
-508.770	-83.378	0.207	0.066
-507.756	-57.038	0.245	-0.108
-506.741	300.018	-0.056	-0.103
-505.726	-200.000	-0.033	-0.183
-504.712	-200.000	0.026	0.181
-503.697	471.481	-0.227	-0.513
-502.683	800.000	0.084	0.332
-501.668	-71.041	-0.150	-0.057
-500.653	-200.000	-0.012	-0.087
-499.639	-23.013	0.113	-0.068
-498.624	-200.000	0.046	0.360
-497.610	56.557	-0.254	-0.248
-496.595	800.000	0.033	-0.093
-495.581	-57.044	0.169	0.075
-494.566	90.624	-0.128	-0.143
-493.551	-200.000	0.036	-0.293
-492.537	28.524	-0.160	-0.136
-491.522	-134.049	-0.213	0.026
-490.508	38.325	0.166	-0.148
-489.493	-119.564	-0.175	0.030
-488.478	43.684	0.199	0.183
-487.464	-45.074	0.306	0.153
-486.449	186.914	-0.143	-0.213
-485.435	-172.650	-0.390	-0.012
-484.420	-32.507	-0.045	-0.025
-483.405	-200.000	-0.018	0.321
-482.391	15.702	-0.073	0.057
-481.376	-3.882	-0.131	-0.091
-480.362	-200.000	0.073	0.396
-479.347	217.636	0.049	-0.079
-478.332	98.628	-0.093	0.108
-477.318	-148.269	-0.168	-0.014
-476.303	-92.839	0.256	0.072
-475.289	-81.901	0.319	-0.104
-474.274	591.036	0.109	-0.269
-473.259	800.000	0.031	-0.133
-472.245	-200.000	-0.045	-0.226
-471.230	-109.338	-0.226	-0.048
-470.216	-128.371	0.180	0.026
-469.201	-82.341	0.556	0.181
-468.186	-200.000	-0.002	-0.182
-467.172	16.786	-0.122	-0.096
-466.157	-94.027	-0.125	0.034
-465.143	589.197	-0.028	-0.069
-464.128	-128.007	-0.164	-0.024
-463.113	-55.311	0.128	0.058
-462.099	800.000	0.098	-0.325
-461.084	-53.187	0.171	-0.078
-460.070	-15.500	-0.103	-0.066
-459.055	86.227	0.053	0.058
-458.040	800.000	-0.055	0.185
-457.026	-84.992	0.063	0.020
-456.011	800.000	-0.049	0.183
-454.997	-117.964	0.333	0.060
-453.982	123.943	0.074	-0.093
-452.968	800.000	-0.056	0.213
-451.953	58.594	-0.182	-0.179
-450.938	36.770	0.285	-0.252
-449.924	183.953	-0.047	0.070
-448.909	240.322	-0.137	-0.229
-447.895	-127.343	0.119	0.017
-446.880	-82.699	0.188	-0.061
-445.865	-200.000	0.038	0.428
-444.851	-53.875	-0.081	-0.037
-443.836	800.000	0.042	-0.160
-442.822	10.999	-0.307	0.234
-441.807	0.477	-0.129	0.093
-440.792	-113.341	0.255	0.050
-439.778	12.702	-0.155	-0.119
-438.763	7.798	-0.068	0.051
-437.749	-30.713	-0.254	0.144
-436.734	800.000	-0.043	0.166
-435.719	800.000	0.021	-0.069
-434.705	33.835	0.171	-0.149
-433.690	-200.000	0.049	0.267
-432.676	156.767	-0.142	-0.196
-431.661	-192.820	0.127	-0.001
-430.646	-86.821	-0.170	0.052
-429.632	12.932	-0.159	-0.123
-428.617	-20.442	0.154	0.095
-427.603	175.328	0.091	-0.131
-426.588	800.000	-0.105	-0.325
-425.573	-64.482	0.281	-0.114
-424.559	50.555	-0.099	0.093
-423.544	-51.453	0.167	-0.078
-422.530	-88.854	0.442	0.131
-421.515	-82.927	-0.222	0.071
-420.500	-200.000	0.003	0.281
-419.486	-60.656	0.241	-0.102
-418.471	-200.000	0.000	-0.340
-417.457	283.721	0.043	-0.078
-416.442	-84.457	0.202	0.064
-415.428	-158.786	-0.351	0.020
-414.413	151.065	-0.088	-0.119
-413.398	-49.116	-0.090	-0.043
-412.384	151.664	-0.046	-0.062
-411.369	332.771	0.135	-0.261
-410.355	-136.927	-0.267	-0.031
-409.340	-197.749	0.117	-0.001
-408.325	-32.133	-0.282	0.158
-407.311	-126.976	-0.256	0.038
-406.296	95.557	-0.063	-0.072
-405.282	800.000	-0.043	0.177
-404.267	-142.760	0.255	-0.025
-403.252	-73.477	0.145	0.053
-402.238	28.323	-0.090	0.076
-401.223	-84.125	-0.117	-0.037
-400.209	-200.000	-0.003	-0.127
-399.194	441.025	-0.247	-0.540
-398.179	-200.000	0.052	0.369
-397.165	-144.176	0.249	-0.023
-396.150	155.211	0.022	-0.030
-395.136	-200.000	-0.030	0.240
-394.121	-127.650	-0.224	-0.032
-393.106	-101.093	-0.058	0.014
-392.092	42.832	-0.244	-0.222
-391.077	48.197	-0.059	-0.055
-390.063	366.249	-0.097	0.194
-389.048	-129.550	0.174	-0.024
-388.033	-118.873	-0.365	0.064
-387.019	-90.939	-0.074	-0.021
-386.004	23.362	-0.257	0.211
-384.990	-200.000	0.055	0.339
-383.975	-109.286	-0.108	-0.023
-382.960	-30.219	-0.081	-0.046
-381.946	-200.000	0.020	-0.393
-380.931	258.529	-0.082	-0.142
-379.917	-200.000	0.001	0.093
-378.902	10.800	-0.119	-0.091
-377.888	151.648	-0.060	-0.082
-376.873	99.080	0.224	0.258
-375.858	89.538	-0.047	0.052
-374.844	-49.504	0.193	-0.092
-373.829	343.846	0.071	0.138
-372.815	-91.368	-0.113	-0.032
-371.800	-34.429	0.171	-0.094
-370.785	265.658	-0.042	0.073
-369.771	-200.000	-0.019	0.129
-368.756	-152.982	-0.177	0.012
-367.742	-88.219	0.264	-0.079
-366.727	57.688	0.191	-0.186
-365.712	9.834	0.165	0.125
-364.698	-12.290	0.160	-0.104
-363.683	21.723	-0.296	0.240
-362.669	-179.953	0.228	-0.005
-361.654	-200.000	0.024	-0.196
-360.639	-200.000	-0.025	-0.152
-359.625	-40.049	-0.094	0.049
-358.610	34.466	-0.275	0.239
-357.596	74.013	-0.167	0.174
-356.581	-33.410	0.527	-0.291
-355.566	-36.341	0.194	0.104
-354.552	-103.709	0.189	0.044
-353.537	-151.829	0.039	0.003
-352.523	56.176	-0.190	0.184
-351.508	262.077	-0.168	0.290
-350.493	155.098	0.101	-0.138
-349.479	-200.000	0.029	0.378
-348.464	-200.000	0.007	0.207
-347.450	-122.521	-0.106	0.017
-346.435	-15.931	0.270	0.171
-345.420	55.927	0.179	0.173
-344.406	251.135	0.042	-0.071
-343.391	-95.284	0.163	0.044
-342.377	41.481	-0.173	-0.156
-341.362	-48.562	0.445	-0.213
-340.348	194.468	0.057	0.086
-339.333	420.482	0.073	0.155
-338.318	111.297	0.231	0.278
-337.304	144.231	-0.175	0.233
-336.289	-164.444	0.273	-0.012
-335.275	-200.000	-0.041	-0.371
-334.260	-135.922	0.119	0.014
-333.245	-200.000	-0.011	0.222
-332.231	163.520	-0.221	0.310
-331.216	-117.625	0.236	-0.042
-330.202	-46.882	-0.270	-0.131
-329.187	490.556	-0.063	-0.144
-328.172	-31.909	0.227	-0.126
-327.158	800.000	0.063	0.217
-326.143	14.364	-0.134	-0.104
-325.129	-50.854	-0.128	0.060
-324.114	800.000	0.003	-0.013
-323.099	-41.696	0.375	-0.191
-322.085	156.883	0.149	-0.205
-321.070	10.549	0.065	-0.049
-320.056	-200.000	0.017	0.196
-319.041	75.026	-0.195	-0.205
-318.026	800.000	0.107	-0.347
-317.012	-200.000	-0.040	0.195
-315.997	-97.286	0.064	-0.017
-314.983	-137.386	0.261	-0.029
-313.968	176.238	0.099	-0.143
-312.953	-63.070	-0.153	-0.063
-311.939	-84.544	-0.178	0.056
-310.924	215.329	-0.134	0.211
-309.910	177.136	0.054	0.079
-308.895	-20.184	0.133	-0.081
-307.880	-200.000	0.062	-0.308
-306.866	104.677	-0.159	-0.187
-305.851	-153.139	-0.065	-0.005
-304.837	63.770	0.467	0.467
-303.822	800.000	-0.058	-0.226
-302.807	582.910	0.057	0.138
-301.793	800.000	0.055	0.187
-300.778	353.133	-0.076	0.150
-299.764	-200.000	-0.025	0.143
-298.749	-82.827	0.124	0.040
-297.735	800.000	0.038	0.164
-296.720	83.834	-0.085	0.092
-295.705	-113.105	-0.237	0.047
-294.691	-99.460	0.400	-0.100
-293.676	-30.709	0.057	0.032
-292.662	800.000	-0.076	-0.296
-291.647	535.138	-0.104	-0.245
-290.632	195.167	0.142	0.215
-289.618	410.228	-0.214	0.451
-288.603	-30.260	-0.276	0.156
-287.589	177.951	-0.163	0.236
-286.574	-186.888	0.152	0.002
-285.559	-122.047	0.160	-0.026
-284.545	751.898	0.132	0.355
-283.530	-190.459	-0.066	-0.001
-282.516	-43.834	0.408	-0.204
-281.501	-75.851	0.147	0.052
-280.486	-200.000	-0.005	-0.163
-279.472	-200.000	-0.017	0.093
-278.457	-200.000	-0.025	0.165
-277.443	96.783	-0.362	-0.412
-276.428	114.282	0.222	0.268
-275.413	800.000	0.056	-0.205
-274.399	-13.310	-0.283	0.182
-273.384	-200.000	0.010	-0.078
-272.370	758.693	-0.068	-0.183
-271.355	-157.921	0.300	-0.018
-270.340	543.899	-0.092	-0.218
-269.326	-39.634	-0.157	0.081
-268.311	-96.539	0.058	0.015
-267.297	-61.662	-0.124	0.051
-266.282	250.005	-0.091	-0.154
-265.267	112.957	-0.114	-0.138
-264.253	-96.195	-0.132	0.035
-263.238	271.460	0.140	0.245
-262.224	297.186	-0.110	0.201
-261.209	-86.522	-0.206	-0.063
-260.195	-120.281	0.329	0.056
-259.180	439.130	-0.138	0.299
-258.165	-200.000	0.080	-0.383
-257.151	-69.375	0.280	0.107
-256.136	491.125	-0.028	0.063
-255.122	600.501	0.024	0.059
-254.107	-53.783	0.114	-0.052
-253.092	-160.620	-0.282	-0.015
-252.078	-200.000	-0.026	-0.296
-251.063	-198.103	0.259	0.002
-250.049	762.915	0.149	0.402
-249.034	-200.000	0.004	-0.141
-248.019	-200.000	-0.300	0.001
-247.005	-118.969	0.311	-0.054
-245.990	-6.571	-0.165	-0.112
-244.976	-5.307	-0.176	-0.120
-243.961	516.457	0.118	-0.274
-242.946	693.636	-0.113	0.294
-241.932	383.096	0.149	0.305
-240.917	94.089	0.061	0.068
-239.903	11.508	0.367	0.279
-238.888	181.533	0.213	0.310
-237.873	800.000	-0.096	0.379
-236.859	97.488	0.092	-0.105
-235.844	-149.280	-0.266	-0.021
-234.830	163.975	-0.134	0.187
-233.815	721.052	0.075	-0.197
-232.800	376.888	-0.156	0.317
-231.786	800.000	0.108	-0.364
-230.771	-50.942	0.168	-0.078
-229.757	38.408	0.243	-0.214
-228.742	-166.133	-0.398	0.017
-227.727	252.967	-0.120	-0.203
-226.713	421.158	0.032	-0.068
-225.698	-3.217	-0.223	-0.154
-224.684	236.511	0.067	0.109
-223.669	-200.000	0.028	0.140
-222.655	710.518	0.009	0.025
-221.640	-200.000	0.005	-0.149
-220.625	-20.969	0.152	-0.093
-219.611	-171.618	-0.248	-0.008
-218.596	-17.731	-0.142	-0.088
-217.582	77.976	0.101	-0.107
-216.567	-94.633	0.155	0.042
-215.552	-95.793	-0.336	-0.089
-214.538	775.006	-0.027	-0.072
-213.523	247.404	-0.130	0.219
-212.509	551.253	-0.115	-0.274
-211.494	-120.923	0.241	-0.040
-210.479	800.000	0.094	0.273
-209.465	-94.774	-0.189	0.051
-208.450	-124.426	0.100	0.015
-207.436	-200.000	0.064	0.319
-206.421	-54.052	-0.116	-0.052
-205.406	-25.598	0.129	0.075
-204.392	-72.994	-0.155	-0.056
-203.377	73.821	-0.201	0.209
-202.363	-77.355	0.137	-0.047
-201.348	-27.000	0.202	0.117
-200.333	139.551	-0.178	-0.233
-199.319	61.092	-0.102	0.100
-198.304	-121.271	-0.247	0.041
-197.290	-169.630	-0.172	-0.006
-196.275	800.000	-0.065	0.195
-195.260	-200.000	-0.078	0.368
-194.246	324.949	-0.052	0.098
-193.231	-100.266	-0.080	0.020
-192.217	109.857	-0.114	-0.135
-191.202	107.908	-0.173	0.204
-190.187	31.932	0.110	0.094
-189.173	48.542	-0.069	-0.064
-188.158	491.112	-0.038	0.085
-187.144	424.903	-0.115	-0.245
-186.129	-200.000	0.019	-0.203
-185.114	-140.507	-0.248	0.026
-184.100	-51.494	0.208	-0.096
-183.085	4.694	-0.278	0.203
-182.071	-63.517	0.336	-0.136
-181.056	-200.000	-0.054	-0.447
-180.042	627.229	-0.017	0.043
-179.027	34.587	0.212	0.184
-178.012	157.602	0.121	0.166
-176.998	800.000	0.030	0.092
-175.983	-117.912	-0.033	-0.006
-174.969	800.000	-0.098	-0.335
-173.954	140.202	0.139	-0.181
-172.939	306.168	0.204	0.376
-171.925	-23.039	0.158	-0.094
-170.910	800.000	-0.005	0.015
-169.896	-58.624	-0.028	-0.012
-168.881	-200.000	0.010	-0.350
-167.866	350.836	-0.055	-0.108
-166.852	-116.394	0.119	0.022
-165.837	-37.214	0.113	0.060
-164.823	87.898	0.067	0.073
-163.808	111.928	0.087	-0.104
-162.793	359.102	0.080	0.159
-161.779	-58.451	0.285	0.123
-160.764	-55.925	0.174	-0.077
-159.750	88.160	0.133	0.146
-158.735	800.000	-0.006	0.019
-157.720	-116.729	0.314	0.057
-156.706	-31.991	-0.199	0.110
-155.691	-122.605	-0.034	-0.005
-154.677	-139.822	-0.351	0.037
-153.662	-122.299	0.038	-0.006
-152.647	-148.888	-0.234	0.019
-151.633	-126.514	-0.094	0.014
-150.618	-52.434	0.283	-0.129
-149.604	123.685	0.128	-0.159
-148.589	-19.634	-0.171	-0.105
-147.574	130.454	0.170	0.215
-146.560	-16.531	-0.269	-0.169
-145.545	-96.284	-0.213	-0.056
-144.531	176.980	0.085	-0.122
-143.516	-27.962	0.295	0.169
-142.502	-68.700	-0.050	-0.019
-141.487	593.480	0.103	-0.253
-140.472	-200.000	0.039	0.246
-139.458	-200.000	0.038	-0.296
-138.443	484.775	0.091	0.205
-137.429	27.229	-0.097	-0.081
-136.414	-200.000	0.000	0.336
-135.399	800.000	-0.053	-0.175
-134.385	206.119	0.064	0.098
-133.370	-200.000	-0.011	0.239
-132.356	-200.000	-0.155	-0.000
-131.341	104.484	-0.314	0.366
-130.326	-77.766	0.276	0.094
-129.312	395.465	-0.074	0.153
-128.297	238.874	-0.089	0.146
-127.283	-28.819	0.110	0.062
-126.268	74.444	-0.149	0.155
-125.253	-44.109	-0.031	-0.016
-124.239	364.635	-0.108	0.214
-123.224	30.853	-0.212	-0.180
-122.210	17.134	-0.163	-0.127
