DTS Sentinel unit serial number:	SN413079Multiplexer serial number:	ORYXHardware model number:	OX4-SRSoftware version number:	ORYX F/W v4.00 Oryx Data Collector v3.7.2.0data status	okinstallation	princeton_trtdifferential loss correction	single-endedforward channel	channel 4reverse channel	N/Adate	2019/09/10time	22:35:11forward acquisition time	60.00reverse acquisition time	0.00gamma	496.2192k internal	0.2316k external	0.2316temperature offset calibration	0.9946default loss term (dB/km)	0.3790temperature slope calibration	1.0000multiplexer offset coefficient	1.0000multiplexer slope coefficient	1.0000fibre end	0.00T internal ref (°C)	30.31T ext. ref 1 (°C)	-0.31T ext. ref 2 (°C)	23.78length (m)	temperature (°C)	Stokes	anti-Stokes-747.200	-200.000	-0.003	-0.381
-746.185	-93.382	-0.110	-0.031
-745.171	106.225	0.080	0.096
-744.156	72.380	0.100	-0.106
-743.142	-98.858	-0.167	-0.043
-742.127	44.076	-0.184	0.170
-741.112	-36.298	-0.186	-0.101
-740.098	-129.266	0.075	-0.011
-739.083	-200.000	-0.008	0.150
-738.069	-102.970	0.139	0.033
-737.054	129.235	-0.259	0.335
-736.039	116.478	-0.056	-0.070
-735.025	87.315	0.066	-0.073
-734.010	126.172	0.159	-0.204
-732.996	-14.390	-0.142	0.092
-731.981	-193.845	-0.195	-0.002
-730.966	-136.962	-0.137	0.016
-729.952	124.961	0.232	0.295
-728.937	-74.640	0.168	0.061
-727.923	800.000	-0.081	-0.289
-726.908	239.201	-0.101	-0.171
-725.894	-98.655	-0.129	-0.033
-724.879	148.825	-0.116	-0.158
-723.864	10.649	-0.310	-0.239
-722.850	132.490	-0.029	-0.037
-721.835	583.492	0.066	-0.164
-720.821	262.501	0.122	0.214
-719.806	800.000	0.069	-0.293
-718.791	-200.000	0.041	-0.348
-717.777	-12.515	-0.130	0.086
-716.762	3.860	-0.190	0.140
-715.748	-37.535	-0.229	-0.123
-714.733	499.783	0.134	-0.312
-713.718	-106.614	0.122	0.027
-712.704	-153.524	0.249	-0.017
-711.689	-200.000	-0.005	-0.354
-710.675	800.000	0.016	-0.065
-709.660	-200.000	0.077	0.344
-708.645	-29.337	0.243	0.140
-707.631	-42.191	-0.312	0.161
-706.616	19.970	0.158	0.129
-705.602	-200.000	-0.021	-0.204
-704.587	21.120	-0.338	-0.277
-703.572	208.434	-0.119	0.189
-702.558	-52.178	0.360	0.169
-701.543	-200.000	0.006	-0.437
-700.529	-48.695	-0.209	0.101
-699.514	372.912	0.125	0.257
-698.499	304.129	-0.116	0.218
-697.485	-200.000	-0.013	-0.229
-696.470	350.356	-0.162	-0.323
-695.456	-200.000	0.011	-0.278
-694.441	800.000	-0.049	0.182
-693.426	800.000	-0.126	-0.359
-692.412	-72.879	-0.094	0.035
-691.397	-24.842	-0.080	-0.048
-690.383	-180.456	0.216	-0.005
-689.368	18.425	-0.379	-0.306
-688.354	800.000	-0.055	-0.210
-687.339	328.147	-0.158	0.306
-686.324	-82.754	-0.099	-0.032
-685.310	260.421	-0.074	0.129
-684.295	206.522	-0.139	0.218
-683.281	29.864	-0.007	-0.006
-682.266	-18.186	-0.121	0.077
-681.251	800.000	-0.079	-0.302
-680.237	-46.089	-0.114	-0.057
-679.222	-105.714	0.173	-0.039
-678.208	-152.512	-0.435	0.031
-677.193	67.953	0.113	-0.117
-676.178	800.000	-0.036	0.121
-675.164	800.000	-0.020	0.075
-674.149	159.722	-0.229	0.322
-673.135	68.044	-0.180	-0.186
-672.120	23.550	-0.197	0.164
-671.105	560.838	-0.036	0.089
-670.091	-200.000	0.000	-0.334
-669.076	48.032	0.189	-0.178
-668.062	800.000	-0.031	-0.108
-667.047	-72.348	-0.041	-0.015
-666.032	-31.542	-0.145	0.082
-665.018	-200.000	0.021	-0.138
-664.003	237.559	0.137	0.229
-662.989	-200.000	-0.067	-0.390
-661.974	-85.477	0.302	-0.095
-660.959	94.390	-0.190	-0.218
-659.945	-200.000	-0.032	0.201
-658.930	-67.256	-0.308	-0.122
-657.916	-42.565	0.134	-0.069
-656.901	-58.705	-0.199	0.087
-655.886	-162.216	-0.310	-0.016
-654.872	-114.185	0.335	-0.065
-653.857	556.623	-0.078	-0.189
-652.843	39.650	-0.164	-0.149
-651.828	108.901	0.103	0.125
-650.814	-40.023	0.328	0.173
-649.799	800.000	0.090	0.271
-648.784	-1.627	-0.147	0.104
-647.770	-111.809	-0.319	-0.065
-646.755	65.416	0.344	-0.351
-645.741	772.356	-0.035	0.096
-644.726	-144.494	0.217	0.020
-643.711	-79.871	0.059	-0.020
-642.697	-65.384	-0.273	0.111
-641.682	-200.000	-0.076	-0.450
-640.668	-131.396	-0.157	-0.021
-639.653	-63.034	0.402	0.168
-638.638	800.000	-0.102	-0.289
-637.624	-45.672	-0.165	-0.082
-636.609	212.718	-0.072	-0.115
-635.595	63.475	0.113	0.114
-634.580	-152.666	-0.167	0.012
-633.565	-155.545	0.494	-0.032
-632.551	200.058	-0.066	-0.103
-631.536	7.399	-0.194	0.146
-630.522	-200.000	-0.006	-0.307
-629.507	-200.000	0.023	-0.135
-628.492	8.860	0.063	-0.048
-627.478	188.375	0.115	0.174
-626.463	-200.000	0.013	0.079
-625.449	800.000	0.075	0.271
-624.434	-105.261	-0.152	-0.035
-623.419	-177.210	0.234	0.006
-622.405	88.978	0.194	-0.217
-621.390	-162.496	-0.608	0.030
-620.376	-200.000	0.007	0.126
-619.361	77.445	-0.293	-0.314
-618.346	82.201	-0.253	0.276
-617.332	-5.573	0.049	-0.034
-616.317	-200.000	0.003	-0.297
-615.303	-122.463	-0.042	0.007
-614.288	43.119	-0.192	-0.176
-613.273	800.000	0.071	-0.213
-612.259	140.170	0.047	-0.062
-611.244	-200.000	-0.015	0.230
-610.230	-96.050	0.208	0.056
-609.215	-57.407	-0.136	-0.060
-608.201	61.140	0.058	0.058
-607.186	-4.036	-0.137	-0.095
-606.171	204.258	0.052	0.081
-605.157	67.672	0.320	-0.329
-604.142	600.372	-0.151	-0.377
-603.128	-109.088	-0.136	0.029
-602.113	457.126	0.049	-0.109
-601.098	-73.366	0.240	0.088
-600.084	-98.153	-0.328	-0.085
-599.069	-135.790	0.139	-0.017
-598.055	-123.306	-0.347	0.056
-597.040	-200.000	-0.029	-0.130
-596.025	53.683	-0.331	0.320
-595.011	171.479	0.189	-0.273
-593.996	-105.248	0.100	-0.023
-592.982	800.000	-0.016	0.068
-591.967	52.129	-0.082	0.079
-590.952	-62.079	0.128	0.054
-589.938	-74.361	-0.023	0.008
-588.923	800.000	0.071	-0.252
-587.909	-27.011	0.206	-0.121
-586.894	-200.000	0.015	0.202
-585.879	301.057	-0.073	-0.135
-584.865	355.114	-0.114	-0.227
-583.850	35.869	-0.163	-0.144
-582.836	-200.000	0.025	0.319
-581.821	-0.363	0.245	-0.175
-580.806	165.496	-0.149	0.212
-579.792	9.284	-0.262	0.199
-578.777	394.605	-0.140	0.293
-577.763	17.311	-0.290	-0.232
-576.748	37.970	0.200	0.179
-575.733	-99.908	-0.292	0.073
-574.719	-114.054	0.294	-0.057
-573.704	97.306	0.202	-0.234
-572.690	-193.216	-0.075	0.001
-571.675	-200.000	-0.062	0.426
-570.661	-78.988	-0.150	0.051
-569.646	-45.368	-0.051	0.026
-568.631	-55.577	0.132	-0.060
-567.617	3.064	0.138	-0.101
-566.602	46.380	0.167	-0.156
-565.588	-200.000	0.034	-0.209
-564.573	-77.590	0.101	0.035
-563.558	-65.923	-0.064	-0.026
-562.544	-200.000	0.022	0.178
-561.529	800.000	-0.051	-0.204
-560.515	73.934	-0.219	-0.231
-559.500	161.939	-0.070	0.098
-558.485	-103.922	0.142	-0.033
-557.471	16.158	0.144	0.114
-556.456	-200.000	-0.027	-0.155
-555.442	-200.000	-0.024	0.110
-554.427	-143.713	-0.065	0.006
-553.412	800.000	-0.023	-0.075
-552.398	749.657	-0.117	0.318
-551.383	457.068	-0.102	-0.227
-550.369	-182.998	0.252	0.005
-549.354	-98.405	-0.215	0.055
-548.339	-200.000	-0.029	-0.151
-547.325	572.072	-0.161	-0.394
-546.310	120.667	-0.142	-0.177
-545.296	-200.000	0.014	-0.210
-544.281	27.775	0.273	-0.231
-543.266	-200.000	-0.025	-0.224
-542.252	21.432	-0.360	-0.294
-541.237	-4.703	0.321	-0.223
-540.223	-53.691	-0.331	0.152
-539.208	-200.000	0.008	0.346
-538.193	13.255	-0.252	-0.196
-537.179	-200.000	-0.017	0.183
-536.164	-3.336	0.319	0.223
-535.150	305.159	-0.098	0.184
-534.135	-114.027	0.055	-0.011
-533.121	800.000	0.025	0.080
-532.106	-1.375	-0.155	-0.110
-531.091	153.624	-0.097	-0.133
-530.077	439.059	0.023	0.050
-529.062	71.852	0.365	0.381
-528.048	-59.631	0.228	-0.098
-527.033	-149.289	0.135	-0.011
-526.018	-200.000	-0.036	0.200
-525.004	800.000	0.048	-0.171
-523.989	-33.058	-0.278	0.155
-522.975	-200.000	-0.016	-0.084
-521.960	-186.067	-0.096	-0.001
-520.945	-27.168	-0.364	-0.213
-519.931	-200.000	-0.016	0.142
-518.916	-73.708	0.320	0.117
-517.902	118.558	-0.061	0.075
-516.887	38.982	-0.342	-0.307
-515.872	-9.752	-0.333	-0.223
-514.858	204.438	0.044	-0.069
-513.843	84.040	0.168	0.184
-512.829	114.586	0.172	0.210
-511.814	-44.006	-0.263	0.133
-510.799	800.000	-0.085	-0.273
-509.785	-106.008	0.125	-0.028
-508.770	-15.364	0.088	-0.056
-507.756	800.000	-0.064	0.263
-506.741	-200.000	-0.028	-0.148
-505.726	34.620	0.059	-0.052
-504.712	-200.000	0.041	-0.193
-503.697	384.595	-0.054	-0.111
-502.683	-13.110	-0.130	0.085
-501.668	47.169	0.181	-0.169
-500.653	-50.534	-0.218	-0.103
-499.639	57.273	0.148	-0.145
-498.624	-171.761	0.274	0.009
-497.610	-100.919	0.161	0.040
-496.595	257.004	-0.134	0.231
-495.581	-200.000	-0.058	0.424
-494.566	222.289	-0.135	0.218
-493.551	-139.827	-0.079	0.008
-492.537	-200.000	0.057	0.295
-491.522	68.717	0.244	-0.251
-490.508	-98.299	-0.368	0.095
-489.493	-104.297	0.299	-0.069
-488.478	-142.950	0.142	-0.014
-487.464	38.945	-0.061	-0.055
-486.449	1.934	0.195	-0.141
-485.435	384.935	-0.025	-0.053
-484.420	-200.000	0.002	-0.117
-483.405	800.000	0.017	-0.064
-482.391	-200.000	0.071	-0.499
-481.376	69.180	-0.178	-0.183
-480.362	-200.000	0.018	-0.331
-479.347	105.202	0.116	0.137
-478.332	240.947	-0.150	0.251
-477.318	-200.000	0.015	-0.291
-476.303	348.045	0.086	-0.169
-475.289	-82.016	0.125	-0.041
-474.274	-98.806	0.154	0.039
-473.259	24.012	0.121	-0.100
-472.245	-4.257	-0.101	-0.070
-471.230	-50.490	-0.375	0.177
-470.216	800.000	-0.031	0.114
-469.201	58.182	-0.156	-0.153
-468.186	-77.597	-0.148	0.051
-467.172	-149.887	0.198	0.015
-466.157	-104.122	-0.322	0.075
-465.143	234.510	-0.079	0.131
-464.128	404.277	0.119	0.252
-463.113	121.828	0.131	-0.163
-462.099	-17.481	0.365	-0.230
-461.084	-102.165	-0.306	-0.074
-460.070	800.000	-0.098	-0.305
-459.055	-200.000	-0.010	0.059
-458.040	-48.201	0.196	0.095
-457.026	-31.338	0.447	0.252
-456.011	-50.608	-0.150	0.071
-454.997	26.410	0.245	-0.205
-453.982	-200.000	0.209	0.001
-452.968	30.785	0.064	-0.055
-451.953	-118.061	0.243	-0.043
-450.938	-186.459	-0.129	-0.002
-449.924	-200.000	0.042	0.325
-448.909	67.159	0.058	-0.059
-447.895	91.214	0.202	-0.227
-446.880	328.766	0.169	0.326
-445.865	63.095	0.064	0.064
-444.851	-97.026	0.253	0.066
-443.836	-75.410	-0.732	0.261
-442.822	-200.000	-0.008	0.211
-441.807	-200.000	0.014	0.084
-440.792	-2.618	0.256	-0.180
-439.778	106.800	0.098	0.116
-438.763	-200.000	0.028	0.150
-437.749	-200.000	0.038	0.171
-436.734	3.050	0.353	0.257
-435.719	-95.303	-0.335	0.090
-434.705	-18.328	0.146	0.091
-433.690	427.978	0.185	0.400
-432.676	-103.842	-0.252	-0.059
-431.661	800.000	-0.035	0.107
-430.646	-200.000	0.019	0.162
-429.632	6.595	-0.122	-0.090
-428.617	-97.370	-0.115	-0.030
-427.603	-198.764	0.191	-0.001
-426.588	248.771	-0.176	-0.299
-425.573	-50.146	-0.027	0.013
-424.559	370.657	-0.056	0.113
-423.544	-11.311	0.030	0.020
-422.530	-91.999	-0.080	0.023
-421.515	-89.252	0.038	0.011
-420.500	-5.960	0.325	0.222
-419.486	39.926	-0.341	0.306
-418.471	74.589	0.052	0.054
-417.457	168.308	-0.054	-0.077
-416.442	-73.192	-0.462	0.169
-415.428	-37.040	0.245	-0.131
-414.413	800.000	-0.043	-0.176
-413.398	625.374	0.080	0.201
-412.384	-105.280	-0.407	-0.093
-411.369	181.859	0.215	-0.317
-410.355	147.121	0.104	-0.140
-409.340	28.913	-0.271	0.230
-408.325	-35.799	-0.121	-0.065
-407.311	17.899	-0.218	0.173
-406.296	70.705	-0.151	0.156
-405.282	-200.000	-0.018	0.122
-404.267	351.916	0.106	-0.210
-403.252	-134.553	0.350	0.043
-402.238	-78.382	-0.365	-0.125
-401.223	800.000	-0.099	0.307
-400.209	800.000	0.044	-0.184
-399.194	325.918	-0.049	0.093
-398.179	-200.000	-0.023	-0.191
-397.165	398.720	0.202	-0.422
-396.150	217.189	-0.067	-0.107
-395.136	-87.948	0.253	-0.076
-394.121	0.723	-0.164	-0.117
-393.106	-81.873	-0.178	0.058
-392.092	587.121	-0.039	-0.095
-391.077	676.395	0.095	-0.246
-390.063	800.000	0.170	0.476
-389.048	3.446	0.072	-0.052
-388.033	-52.297	-0.099	0.046
-387.019	313.494	0.103	0.193
-386.004	-200.000	-0.008	0.158
-384.990	147.748	-0.145	0.195
-383.975	-200.000	0.013	0.188
-382.960	-38.099	0.332	0.176
-381.946	158.975	0.202	0.281
-380.931	363.364	0.066	-0.133
-379.917	-123.777	0.167	0.026
-378.902	-126.101	-0.210	0.031
-377.888	-80.269	0.336	0.112
-376.873	381.401	-0.036	0.074
-375.858	800.000	-0.098	0.424
-374.844	-100.599	0.346	-0.085
-373.829	454.194	0.047	-0.103
-372.815	97.949	0.315	-0.362
-371.800	236.598	0.068	-0.112
-370.785	-115.929	-0.177	0.033
-369.771	439.813	-0.143	-0.311
-368.756	159.915	-0.054	0.075
-367.742	-171.508	0.208	0.007
-366.727	-110.533	-0.100	0.021
-365.712	252.537	-0.080	0.136
-364.698	-125.851	0.102	0.015
-363.683	-0.591	0.215	-0.152
-362.669	39.667	-0.137	-0.123
-361.654	140.137	0.123	-0.162
-360.639	132.365	0.203	0.261
-359.625	-200.000	0.031	-0.155
-358.610	-122.621	-0.169	0.027
-357.596	-18.489	-0.275	0.172
-356.581	-36.340	-0.183	-0.098
-355.566	73.751	0.121	-0.126
-354.552	-117.657	-0.153	-0.027
-353.537	-69.213	0.273	0.105
-352.523	-200.000	-0.034	0.169
-351.508	-181.272	0.124	0.002
-350.493	-200.000	-0.023	-0.313
-349.479	177.721	0.118	0.171
-348.464	225.949	-0.085	0.138
-347.450	-13.296	-0.144	0.093
-346.435	-174.433	-0.265	-0.008
-345.420	-32.326	0.116	-0.065
-344.406	800.000	0.098	0.277
-343.391	314.263	-0.233	-0.438
-342.377	-8.325	-0.082	0.055
-341.362	800.000	-0.048	0.182
-340.348	-57.686	0.466	-0.203
-339.333	-200.000	-0.024	-0.140
-338.318	-83.245	0.216	0.069
-337.304	149.756	0.186	0.251
-336.289	42.863	0.151	-0.137
-335.275	74.641	0.080	-0.083
-334.260	-200.000	0.062	0.327
-333.245	800.000	0.058	0.220
-332.231	-181.674	-0.122	0.002
-331.216	-120.167	0.129	0.022
-330.202	-64.323	-0.349	0.141
-329.187	445.773	-0.185	0.405
-328.172	-6.930	-0.314	-0.213
-327.158	-200.000	0.015	-0.090
-326.143	-200.000	0.019	0.117
-325.129	-39.304	-0.085	-0.045
-324.114	60.705	0.230	-0.227
-323.099	-138.348	-0.278	0.031
-322.085	63.712	-0.125	0.125
-321.070	-37.847	-0.083	0.044
-320.056	-200.000	0.039	0.252
-319.041	-122.929	-0.491	-0.079
-318.026	726.469	0.102	-0.272
-317.012	-44.967	-0.286	-0.142
-315.997	260.804	-0.163	-0.281
-314.983	178.143	0.253	0.367
-313.968	-96.084	0.242	-0.064
-312.953	106.973	-0.123	-0.146
-311.939	-200.000	-0.033	-0.223
-310.924	-157.906	-0.253	-0.015
-309.910	26.806	-0.109	-0.091
-308.895	132.738	0.149	-0.191
-307.880	-67.227	-0.131	0.051
-306.866	-83.574	0.182	0.058
-305.851	-25.765	0.176	0.104
-304.837	-53.589	-0.150	-0.068
-303.822	-160.717	0.345	0.018
-302.807	-174.237	-0.177	0.005
-301.793	-156.105	-0.122	0.008
-300.778	-200.000	0.018	0.273
-299.764	224.834	0.181	-0.291
-298.749	-128.993	-0.248	-0.035
-297.735	-107.846	-0.407	-0.088
-296.720	408.249	0.066	0.138
-295.705	64.613	-0.234	0.235
-294.691	-200.000	-0.010	0.156
-293.676	-86.038	0.315	0.097
-292.662	-124.018	-0.258	0.040
-291.647	485.529	-0.050	-0.113
-290.632	-183.715	0.214	-0.004
-289.618	13.543	-0.136	-0.105
-288.603	-100.469	0.204	-0.050
-287.589	23.264	-0.118	0.096
-286.574	-44.688	0.348	-0.173
-285.559	-13.710	0.151	0.097
-284.545	-39.934	0.172	-0.089
-283.530	-96.332	-0.498	-0.131
-282.516	-40.794	-0.022	0.011
-281.501	727.789	0.093	0.247
-280.486	-200.000	-0.008	0.043
-279.472	-192.648	0.116	-0.001
-278.457	761.852	-0.160	0.432
-277.443	-71.800	-0.248	-0.092
-276.428	-125.418	0.360	0.054
-275.413	-105.557	-0.043	-0.010
-274.399	-132.702	0.313	0.040
-273.384	800.000	-0.017	-0.052
-272.370	-57.013	0.384	-0.169
-271.355	-200.000	-0.017	-0.249
-270.340	716.043	0.078	0.205
-269.326	-200.000	0.040	0.210
-268.311	-10.054	-0.382	0.252
-267.297	121.268	-0.081	0.100
-266.282	257.706	-0.155	-0.265
-265.267	236.522	-0.110	-0.182
-264.253	800.000	0.048	0.181
-263.238	596.165	-0.057	0.140
-262.224	-56.485	-0.225	0.099
-261.209	445.348	-0.037	0.082
-260.195	362.858	0.085	-0.169
-259.180	716.978	0.060	0.158
-258.165	444.347	0.267	-0.581
-257.151	-200.000	-0.047	0.319
-256.136	61.601	0.092	-0.091
-255.122	-76.585	0.182	-0.064
-254.107	182.900	-0.068	-0.099
-253.092	-13.109	0.158	-0.102
-252.078	-144.434	-0.258	0.024
-251.063	-200.000	0.017	0.154
-250.049	-22.708	-0.170	0.102
-249.034	-165.926	0.081	-0.003
-248.019	-200.000	-0.004	0.171
-247.005	216.628	0.186	-0.294
-245.990	800.000	-0.040	-0.139
-244.976	87.701	-0.115	0.126
-243.961	-150.949	-0.167	-0.013
-242.946	50.558	0.176	0.165
-241.932	113.024	-0.064	0.077
-240.917	-200.000	0.003	0.069
-239.903	-200.000	-0.003	-0.161
-238.888	-94.194	0.388	-0.106
-237.873	-78.520	0.190	-0.064
-236.859	7.109	0.147	-0.109
-235.844	228.901	0.145	0.235
-234.830	48.217	0.045	-0.042
-233.815	-200.000	0.010	-0.344
-232.800	167.262	0.125	-0.177
-231.786	-104.886	0.141	-0.032
-230.771	-10.689	0.177	-0.116
-229.757	-101.331	-0.036	0.009
-228.742	-65.491	0.234	-0.093
-227.727	800.000	0.036	-0.109
-226.713	-147.952	-0.231	0.019
-225.698	-200.000	0.030	-0.373
-224.684	100.620	0.046	0.053
-223.669	46.280	-0.078	-0.071
-222.655	800.000	-0.022	0.072
-221.640	-114.390	0.153	-0.029
-220.625	-200.000	0.021	0.151
-219.611	42.134	-0.078	0.070
-218.596	210.491	0.068	0.106
-217.582	-200.000	0.043	-0.199
-216.567	800.000	0.053	0.177
-215.552	-91.036	-0.163	0.046
-214.538	664.546	0.116	-0.298
-213.523	22.989	-0.084	-0.068
-212.509	200.859	0.172	0.262
-211.494	-27.147	-0.320	-0.185
-210.479	306.046	0.166	-0.306
-209.465	800.000	0.096	0.323
-208.450	62.165	0.235	0.233
-207.436	-200.000	0.010	0.112
-206.421	-200.000	-0.047	0.333
-205.406	-178.871	-0.109	-0.002
-204.392	-118.227	0.394	0.070
-203.377	-75.320	-0.223	0.079
-202.363	-5.077	-0.191	0.130
-201.348	291.218	-0.112	0.202
-200.333	-75.425	-0.468	-0.165
-199.319	-175.182	0.370	0.010
-198.304	100.167	-0.254	0.292
-197.290	-63.967	-0.375	-0.152
-196.275	-200.000	0.050	0.261
-195.260	-200.000	-0.022	0.117
-194.246	66.565	0.282	0.284
-193.231	-200.000	-0.010	-0.204
-192.217	178.046	0.054	0.078
-191.202	800.000	-0.070	0.237
-190.187	39.481	0.299	0.265
-189.173	45.656	0.120	0.109
-188.158	-23.130	-0.074	-0.044
-187.144	-124.273	-0.214	-0.033
-186.129	-113.927	0.206	-0.040
-185.114	-1.817	0.106	-0.074
-184.100	-200.000	-0.001	-0.219
-183.085	575.830	0.086	-0.209
-182.071	110.207	0.075	-0.090
-181.056	104.538	-0.058	-0.067
-180.042	538.777	-0.033	-0.078
-179.027	88.028	0.095	-0.104
-178.012	-122.371	0.104	0.017
-176.998	-200.000	0.043	0.279
-175.983	-89.117	-0.170	-0.050
-174.969	-200.000	-0.014	0.188
-173.954	-1.487	-0.291	-0.203
-172.939	15.280	-0.084	-0.065
-171.925	-11.338	0.067	0.044
-170.910	-200.000	-0.021	0.273
-169.896	-3.176	-0.116	0.080
-168.881	95.995	0.122	0.138
-167.866	-41.683	-0.081	0.041
-166.852	-175.985	-0.195	-0.005
-165.837	13.435	0.211	0.162
-164.823	107.315	0.125	-0.147
-163.808	-57.154	0.121	0.053
-162.793	-200.000	0.008	-0.224
-161.779	99.487	-0.173	-0.198
-160.764	-200.000	0.089	-0.413
-159.750	186.005	0.262	0.386
-158.735	274.483	0.024	-0.041
-157.720	800.000	-0.075	-0.227
-156.706	-76.333	-0.494	0.172
-155.691	800.000	0.098	0.354
-154.677	637.775	-0.026	-0.066
-153.662	-200.000	0.074	-0.329
-152.647	-178.213	0.092	0.002
-151.633	607.087	-0.062	0.153
-150.618	-56.047	0.031	0.014
-149.604	194.505	-0.090	0.134
-148.589	-138.307	-0.056	-0.006
-147.574	50.082	0.266	-0.248
-146.560	-98.176	-0.288	0.073
-145.545	-116.280	0.115	0.021
-144.531	-145.322	0.379	0.034
-143.516	-200.000	-0.020	0.135
-142.502	71.239	-0.068	-0.070
-141.487	3.763	-0.176	0.127
-140.472	268.728	-0.115	-0.199
-139.458	267.517	-0.150	0.260
-138.443	-200.000	-0.006	-0.200
-137.429	-148.809	0.443	-0.035
-136.414	-67.454	-0.146	0.057
-135.399	800.000	-0.083	-0.247
-134.385	43.639	0.106	-0.096
-133.370	-190.011	0.297	-0.003
-132.356	23.666	-0.219	0.178
-131.341	509.364	-0.094	0.215
-130.326	-200.000	0.026	0.143
-129.312	-200.000	-0.030	-0.170
-128.297	714.169	0.122	0.320
-127.283	40.537	0.128	0.114
-126.268	519.754	0.106	0.247
-125.253	-153.342	0.140	-0.010
-124.239	585.179	0.046	-0.111
-123.224	800.000	0.020	-0.079
-122.210	-200.000	0.052	-0.267
