DTS Sentinel unit serial number:	SN413079Multiplexer serial number:	ORYXHardware model number:	OX4-SRSoftware version number:	ORYX F/W v4.00 Oryx Data Collector v3.7.2.0data status	okinstallation	princeton_trtdifferential loss correction	single-endedforward channel	channel 4reverse channel	N/Adate	2019/09/11time	05:07:11forward acquisition time	60.00reverse acquisition time	0.00gamma	496.2192k internal	0.2315k external	0.2315temperature offset calibration	0.9946default loss term (dB/km)	0.3790temperature slope calibration	1.0000multiplexer offset coefficient	1.0000multiplexer slope coefficient	1.0000fibre end	0.00T internal ref (°C)	29.44T ext. ref 1 (°C)	-0.28T ext. ref 2 (°C)	23.44length (m)	temperature (°C)	Stokes	anti-Stokes-747.200	-78.305	0.334	-0.116
-746.185	-88.868	-0.549	-0.165
-745.171	-200.000	0.006	0.246
-744.156	800.000	-0.047	0.179
-743.142	-139.622	-0.143	-0.015
-742.127	229.070	-0.111	0.183
-741.112	-113.107	0.275	-0.055
-740.098	344.632	-0.097	-0.192
-739.083	-78.766	0.394	-0.136
-738.069	550.506	0.040	-0.097
-737.054	-200.000	-0.031	-0.169
-736.039	299.245	0.068	-0.127
-735.025	-104.471	0.076	0.018
-734.010	-200.000	-0.043	-0.198
-732.996	18.445	0.120	-0.097
-731.981	14.912	0.052	0.041
-730.966	800.000	-0.033	-0.124
-729.952	373.908	0.168	0.346
-728.937	257.572	-0.109	0.190
-727.923	447.922	-0.248	-0.552
-726.908	-200.000	-0.012	-0.188
-725.894	-86.856	-0.174	0.054
-724.879	-76.496	-0.408	0.145
-723.864	-106.398	-0.146	0.033
-722.850	41.262	0.314	0.288
-721.835	344.181	0.150	-0.298
-720.821	97.506	0.311	-0.361
-719.806	-66.756	-0.125	0.050
-718.791	136.470	-0.279	0.368
-717.777	-99.168	-0.239	0.061
-716.762	-200.000	0.006	-0.157
-715.748	-91.538	0.259	-0.075
-714.733	43.120	0.168	-0.156
-713.718	-69.975	-0.167	0.064
-712.704	-59.801	-0.200	-0.087
-711.689	800.000	-0.018	0.072
-710.675	-78.268	-0.320	-0.111
-709.660	88.105	0.212	0.238
-708.645	800.000	-0.075	-0.223
-707.631	-200.000	0.005	0.160
-706.616	-200.000	-0.021	-0.263
-705.602	70.042	-0.098	0.103
-704.587	-31.907	0.231	0.131
-703.572	-121.654	-0.111	-0.019
-702.558	-200.000	0.047	0.233
-701.543	169.279	0.116	0.168
-700.529	800.000	-0.105	-0.311
-699.514	59.928	-0.187	-0.187
-698.499	-69.840	-0.264	-0.102
-697.485	-200.000	0.023	-0.217
-696.470	62.540	0.128	-0.130
-695.456	-14.778	-0.065	0.042
-694.441	-29.196	0.245	-0.142
-693.426	76.555	0.135	-0.145
-692.412	137.520	0.067	-0.089
-691.397	-38.984	0.124	0.066
-690.383	87.334	0.144	0.162
-689.368	65.783	-0.342	-0.350
-688.354	-151.801	-0.164	0.012
-687.339	-86.613	-0.173	0.053
-686.324	800.000	0.031	-0.131
-685.310	800.000	-0.100	-0.339
-684.295	250.399	-0.159	-0.273
-683.281	-200.000	-0.005	-0.102
-682.266	156.503	0.065	0.091
-681.251	-150.197	0.217	0.017
-680.237	-200.000	-0.053	0.298
-679.222	360.265	-0.182	-0.368
-678.208	-200.000	-0.004	-0.155
-677.193	800.000	-0.091	-0.281
-676.178	-34.859	0.242	-0.133
-675.164	337.132	-0.131	0.258
-674.149	30.651	0.120	0.104
-673.135	-33.659	-0.177	0.098
-672.120	800.000	-0.044	-0.136
-671.105	-200.000	0.007	-0.034
-670.091	-200.000	0.090	-0.432
-669.076	-51.535	0.115	0.054
-668.062	447.696	0.080	-0.177
-667.047	-21.265	0.285	-0.176
-666.032	-62.680	0.449	0.188
-665.018	-200.000	-0.007	0.051
-664.003	-23.837	0.082	0.049
-662.989	-195.701	-0.188	-0.001
-661.974	-200.000	-0.008	-0.422
-660.959	-200.000	-0.003	0.120
-659.945	178.422	0.078	-0.114
-658.930	146.675	0.148	-0.201
-657.916	19.829	0.251	-0.204
-656.901	-134.317	-0.128	-0.016
-655.886	-197.726	0.461	0.003
-654.872	30.890	-0.090	0.078
-653.857	-200.000	-0.026	0.162
-652.843	-60.753	0.092	-0.039
-651.828	323.294	0.096	-0.186
-650.814	-200.000	0.041	0.258
-649.799	-53.790	0.273	-0.126
-648.784	-146.100	0.058	0.005
-647.770	-108.132	-0.107	-0.023
-646.755	-7.473	0.272	-0.186
-645.741	42.652	-0.101	0.093
-644.726	188.120	-0.164	0.247
-643.711	-21.558	-0.122	0.075
-642.697	-69.120	0.259	-0.101
-641.682	-127.770	-0.072	0.011
-640.668	317.332	0.150	0.287
-639.653	113.914	-0.068	-0.083
-638.638	-61.800	-0.091	-0.038
-637.624	-200.000	0.004	-0.216
-636.609	110.843	0.054	0.066
-635.595	-61.912	-0.086	0.036
-634.580	800.000	0.052	-0.156
-633.565	-200.000	0.013	0.455
-632.551	-90.627	0.186	0.054
-631.536	176.322	0.209	-0.306
-630.522	-58.788	0.386	0.168
-629.507	-6.424	0.355	-0.244
-628.492	-200.000	0.038	-0.280
-627.478	-200.000	0.020	-0.239
-626.463	234.957	0.132	-0.220
-625.449	331.441	0.061	-0.118
-624.434	101.328	-0.128	0.150
-623.419	6.047	-0.090	-0.068
-622.405	800.000	0.053	0.206
-621.390	100.163	0.143	-0.167
-620.376	252.166	0.074	0.127
-619.361	-200.000	-0.050	-0.336
-618.346	215.839	0.157	0.251
-617.332	291.363	-0.171	-0.314
-616.317	303.174	-0.189	-0.352
-615.303	82.732	-0.261	-0.285
-614.288	800.000	-0.048	0.183
-613.273	97.852	0.242	-0.281
-612.259	-200.000	0.003	0.088
-611.244	-65.310	-0.293	-0.119
-610.230	-74.952	-0.332	-0.120
-609.215	-80.835	-0.021	-0.007
-608.201	26.041	-0.042	-0.035
-607.186	-36.257	-0.133	0.072
-606.171	800.000	0.027	-0.105
-605.157	-107.290	0.211	-0.047
-604.142	195.166	0.091	0.139
-603.128	318.971	0.064	-0.121
-602.113	-1.784	-0.179	-0.127
-601.098	268.345	0.109	-0.192
-600.084	800.000	-0.072	-0.204
-599.069	101.232	0.116	0.136
-598.055	276.485	-0.113	-0.202
-597.040	47.663	0.207	0.194
-596.025	-53.072	-0.130	0.060
-595.011	77.738	-0.365	0.392
-593.996	56.900	-0.102	0.100
-592.982	-77.842	-0.408	-0.142
-591.967	34.391	-0.144	-0.126
-590.952	-128.401	-0.073	-0.011
-589.938	-145.344	0.084	0.008
-588.923	-46.393	-0.097	0.048
-587.909	-41.677	-0.215	-0.111
-586.894	40.346	-0.249	-0.225
-585.879	-124.626	-0.073	-0.011
-584.865	139.759	0.119	-0.158
-583.850	800.000	-0.057	-0.213
-582.836	-33.464	-0.349	-0.194
-581.821	-200.000	-0.010	0.160
-580.806	121.728	-0.104	0.131
-579.792	-96.713	-0.386	-0.102
-578.777	64.983	-0.175	-0.178
-577.763	-200.000	-0.047	-0.271
-576.748	-73.639	-0.216	0.079
-575.733	-200.000	0.007	-0.055
-574.719	-123.019	-0.405	0.066
-573.704	65.148	-0.153	-0.155
-572.690	7.428	0.255	-0.192
-571.675	-128.895	0.012	-0.002
-570.661	-31.502	-0.262	0.148
-569.646	-200.000	0.033	-0.285
-568.631	165.289	0.048	0.068
-567.617	-200.000	-0.030	0.147
-566.602	-7.137	-0.184	-0.125
-565.588	-4.930	0.182	0.126
-564.573	-141.438	-0.274	0.028
-563.558	21.175	-0.129	0.106
-562.544	-53.810	-0.284	-0.130
-561.529	-200.000	-0.006	-0.235
-560.515	-3.442	-0.177	0.124
-559.500	-200.000	-0.001	-0.111
-558.485	-200.000	0.008	-0.090
-557.471	-13.740	-0.185	0.121
-556.456	-23.049	0.465	0.282
-555.442	110.369	0.181	-0.219
-554.427	-200.000	-0.031	0.139
-553.412	462.745	-0.126	0.284
-552.398	800.000	0.045	-0.165
-551.383	-132.439	-0.261	-0.034
-550.369	80.598	-0.021	-0.023
-549.354	-200.000	-0.011	-0.118
-548.339	458.742	-0.086	0.192
-547.325	-200.000	0.002	0.042
-546.310	-83.311	-0.397	-0.128
-545.296	290.287	0.079	-0.144
-544.281	136.455	0.387	0.507
-543.266	228.955	0.046	0.075
-542.252	-133.925	0.183	-0.023
-541.237	800.000	0.034	-0.140
-540.223	403.238	-0.064	0.136
-539.208	116.679	-0.206	0.254
-538.193	23.741	0.422	0.349
-537.179	-86.516	-0.141	0.044
-536.164	-79.478	-0.336	0.114
-535.150	-200.000	0.057	-0.282
-534.135	-93.074	-0.237	-0.066
-533.121	-66.517	0.148	-0.059
-532.106	-65.073	0.048	-0.019
-531.091	255.998	0.061	-0.105
-530.077	48.471	0.143	-0.135
-529.062	-150.261	0.055	0.004
-528.048	-50.079	0.033	0.016
-527.033	-200.000	-0.027	-0.119
-526.018	363.340	0.066	-0.134
-525.004	-99.075	-0.271	0.069
-523.989	391.704	-0.160	-0.334
-522.975	220.094	0.205	0.331
-521.960	130.996	0.271	0.349
-520.945	-80.503	0.154	0.052
-519.931	800.000	0.086	-0.280
-518.916	-30.690	0.308	0.175
-517.902	800.000	0.095	0.417
-516.887	-143.762	-0.107	0.010
-515.872	103.022	-0.059	0.069
-514.858	-168.005	0.154	0.006
-513.843	529.073	-0.119	0.283
-512.829	46.398	-0.290	0.270
-511.814	-168.531	-0.359	-0.014
-510.799	-33.611	0.204	-0.113
-509.785	-160.036	0.301	-0.016
-508.770	-7.229	-0.178	0.121
-507.756	434.962	0.203	0.444
-506.741	782.538	-0.055	0.151
-505.726	257.663	-0.172	0.298
-504.712	800.000	-0.105	-0.292
-503.697	69.854	-0.228	0.236
-502.683	19.183	0.127	-0.102
-501.668	277.812	0.037	-0.067
-500.653	17.862	-0.032	-0.026
-499.639	-80.630	-0.290	0.097
-498.624	-61.382	-0.180	0.076
-497.610	127.105	0.055	0.069
-496.595	-200.000	-0.002	0.235
-495.581	-98.456	0.322	0.083
-494.566	-39.774	-0.279	-0.147
-493.551	151.895	0.060	0.082
-492.537	-54.220	-0.308	0.140
-491.522	-200.000	0.000	0.421
-490.508	-157.154	0.196	0.012
-489.493	-118.945	-0.327	-0.058
-488.478	26.117	0.313	-0.262
-487.464	-200.000	-0.066	0.313
-486.449	701.660	0.108	0.285
-485.435	-101.298	-0.220	-0.054
-484.420	-200.000	-0.015	0.109
-483.405	-152.133	0.391	0.028
-482.391	392.222	-0.065	-0.136
-481.376	600.705	-0.062	-0.156
-480.362	-200.000	-0.041	0.297
-479.347	-200.000	-0.021	0.343
-478.332	-175.691	-0.108	0.003
-477.318	437.544	-0.055	-0.120
-476.303	40.092	0.301	0.271
-475.289	-52.977	-0.104	-0.048
-474.274	-50.348	0.169	0.080
-473.259	800.000	-0.084	0.274
-472.245	35.023	0.215	0.188
-471.230	263.651	0.132	-0.231
-470.216	-49.587	-0.212	0.101
-469.201	4.708	-0.333	-0.245
-468.186	66.852	-0.172	-0.175
-467.172	35.571	-0.118	-0.104
-466.157	257.465	0.143	0.246
-465.143	45.460	-0.273	0.253
-464.128	-9.999	-0.151	-0.101
-463.113	-66.943	0.240	-0.095
-462.099	-120.635	-0.458	0.078
-461.084	-88.292	0.355	0.106
-460.070	-171.399	-0.528	-0.018
-459.055	800.000	-0.065	-0.267
-458.040	-141.019	0.182	-0.019
-457.026	-128.427	-0.161	-0.023
-456.011	-59.268	-0.039	-0.017
-454.997	133.533	-0.051	0.066
-453.982	423.185	0.148	-0.319
-452.968	-81.914	-0.061	0.020
-451.953	-62.140	-0.357	-0.149
-450.938	-62.467	-0.316	-0.132
-449.924	-200.000	-0.001	-0.044
-448.909	115.625	-0.046	0.057
-447.895	-24.172	-0.188	-0.112
-446.880	-200.000	-0.016	-0.099
-445.865	50.515	0.088	-0.083
-444.851	310.379	-0.074	0.138
-443.836	-200.000	-0.132	0.633
-442.822	-7.539	-0.174	0.118
-441.807	-56.311	-0.217	-0.097
-440.792	-200.000	0.039	0.260
-439.778	-98.386	-0.335	-0.086
-438.763	800.000	-0.049	-0.169
-437.749	-110.553	-0.120	-0.025
-436.734	255.488	0.085	-0.146
-435.719	174.883	0.116	0.169
-434.705	5.900	-0.173	0.128
-433.690	643.717	0.066	0.169
-432.676	-200.000	-0.045	-0.311
-431.661	747.512	-0.179	-0.482
-430.646	-131.242	-0.347	-0.046
-429.632	152.386	0.193	-0.264
-428.617	-200.000	-0.013	-0.134
-427.603	800.000	-0.076	0.257
-426.588	-200.000	0.029	0.131
-425.573	7.724	0.177	0.133
-424.559	198.846	0.175	0.267
-423.544	-200.000	-0.022	0.117
-422.530	-128.130	-0.171	0.024
-421.515	-200.000	0.001	-0.068
-420.500	-200.000	0.020	0.096
-419.486	-57.724	-0.142	-0.062
-418.471	561.483	-0.103	0.249
-417.457	-200.000	-0.040	0.265
-416.442	395.253	-0.191	0.398
-415.428	-155.470	-0.467	0.030
-414.413	59.353	0.323	-0.318
-413.398	-200.000	-0.005	0.053
-412.384	-22.537	-0.070	-0.043
-411.369	-11.107	0.235	0.155
-410.355	-52.002	0.041	0.019
-409.340	-200.000	0.132	-0.000
-408.325	152.035	-0.118	-0.161
-407.311	599.664	0.123	-0.306
-406.296	-57.956	0.365	0.159
-405.282	20.339	0.049	0.040
-404.267	-116.641	0.441	-0.081
-403.252	115.242	0.128	0.156
-402.238	-85.494	0.249	-0.077
-401.223	-13.274	0.224	-0.146
-400.209	-152.334	-0.052	0.004
-399.194	188.998	-0.115	0.173
-398.179	-200.000	-0.001	-0.019
-397.165	-168.695	0.224	-0.008
-396.150	51.751	0.093	-0.089
-395.136	603.752	-0.034	0.085
-394.121	-200.000	0.015	-0.088
-393.106	-68.845	0.157	0.060
-392.092	71.909	-0.176	-0.183
-391.077	800.000	-0.106	-0.343
-390.063	46.230	0.047	0.044
-389.048	-200.000	-0.033	0.302
-388.033	-154.068	0.240	-0.016
-387.019	-146.908	-0.092	-0.008
-386.004	274.740	-0.107	0.190
-384.990	-200.000	-0.044	0.342
-383.975	4.857	-0.243	0.179
-382.960	-13.762	0.247	-0.160
-381.946	541.248	0.118	-0.281
-380.931	-41.854	-0.195	0.100
-379.917	293.240	-0.194	0.354
-378.902	800.000	-0.035	0.136
-377.888	-99.589	-0.362	-0.091
-376.873	-200.000	0.037	-0.216
-375.858	-54.908	0.268	-0.121
-374.844	-200.000	0.088	0.490
-373.829	-200.000	0.020	0.271
-372.815	-57.379	-0.076	0.033
-371.800	535.989	0.051	-0.120
-370.785	-68.924	0.259	-0.100
-369.771	282.586	-0.087	0.156
-368.756	197.841	0.146	0.223
-367.742	259.362	-0.120	0.207
-366.727	195.428	0.091	-0.139
-365.712	-200.000	0.029	-0.205
-364.698	193.145	-0.041	0.061
-363.683	64.612	0.298	-0.300
-362.669	-112.152	0.324	0.065
-361.654	-170.675	0.137	-0.005
-360.639	-159.431	-0.138	0.008
-359.625	800.000	0.121	-0.390
-358.610	44.273	-0.112	-0.102
-357.596	-38.441	-0.233	-0.123
-356.581	56.680	-0.330	0.320
-355.566	15.653	-0.133	0.105
-354.552	54.339	-0.116	0.112
-353.537	-43.313	-0.267	0.135
-352.523	274.358	0.124	-0.219
-351.508	-133.088	-0.208	0.026
-350.493	494.511	0.016	0.037
-349.479	-99.392	-0.217	0.055
-348.464	800.000	0.039	-0.156
-347.450	284.985	0.096	0.172
-346.435	490.171	-0.020	0.047
-345.420	-3.624	-0.246	0.170
-344.406	-200.000	0.001	0.035
-343.391	40.891	-0.196	0.176
-342.377	23.866	0.344	-0.283
-341.362	51.493	0.084	0.080
-340.348	-45.910	0.047	0.023
-339.333	130.402	0.010	-0.013
-338.318	800.000	-0.085	0.343
-337.304	47.183	0.151	-0.140
-336.289	-58.244	0.091	0.040
-335.275	-144.045	0.193	-0.018
-334.260	-94.687	-0.286	-0.078
-333.245	-42.049	0.518	-0.264
-332.231	800.000	0.106	-0.455
-331.216	191.311	0.132	-0.198
-330.202	-73.036	0.152	-0.056
-329.187	68.176	-0.200	0.204
-328.172	241.301	0.213	0.354
-327.158	800.000	0.063	-0.247
-326.143	241.902	-0.100	0.166
-325.129	-157.521	-0.087	0.005
-324.114	-116.760	-0.280	0.051
-323.099	-200.000	-0.013	-0.208
-322.085	-138.296	0.471	0.052
-321.070	-41.129	0.103	-0.053
-320.056	-11.090	-0.094	0.062
-319.041	-200.000	-0.030	-0.272
-318.026	24.620	-0.093	0.077
-317.012	-50.991	-0.065	-0.031
-315.997	-85.733	0.062	0.019
-314.983	-6.360	-0.104	-0.071
-313.968	-137.773	-0.497	0.056
-312.953	-59.541	-0.213	0.091
-311.939	-147.665	0.239	0.020
-310.924	800.000	0.044	-0.142
-309.910	87.903	0.067	-0.073
-308.895	-132.716	0.384	0.049
-307.880	-200.000	-0.014	-0.167
-306.866	-200.000	-0.026	-0.229
-305.851	-94.824	-0.288	-0.078
-304.837	-200.000	-0.008	-0.102
-303.822	-103.380	0.306	0.072
-302.807	-1.431	0.213	0.149
-301.793	370.709	-0.151	-0.305
-300.778	-112.450	-0.472	-0.094
-299.764	-88.805	0.102	-0.030
-298.749	-51.338	0.444	0.207
-297.735	-127.565	0.297	-0.043
-296.720	800.000	0.035	-0.099
-295.705	5.797	-0.114	0.084
-294.691	-60.876	-0.011	0.005
-293.676	107.039	0.197	-0.233
-292.662	55.395	0.314	-0.302
-291.647	-134.514	-0.158	0.019
-290.632	306.825	-0.160	0.297
-289.618	-98.328	-0.053	-0.014
-288.603	800.000	0.143	-0.448
-287.589	800.000	0.111	0.305
-286.574	-1.646	0.225	0.158
-285.559	495.198	0.110	-0.252
-284.545	142.355	0.047	0.062
-283.530	-200.000	0.021	-0.111
-282.516	236.571	0.117	0.193
-281.501	-147.887	-0.059	-0.005
-280.486	-200.000	-0.011	-0.122
-279.472	-1.565	-0.045	0.031
-278.457	644.735	-0.107	-0.271
-277.443	254.653	0.119	-0.203
-276.428	-200.000	0.023	0.125
-275.413	51.401	-0.270	-0.255
-274.399	-101.727	-0.353	0.085
-273.384	-43.004	-0.113	0.057
-272.370	-200.000	0.007	-0.081
-271.355	414.871	-0.079	-0.167
-270.340	-39.876	-0.294	-0.153
-269.326	-200.000	0.034	-0.278
-268.311	357.812	0.220	-0.436
-267.297	384.280	0.096	-0.196
-266.282	-62.510	-0.045	0.019
-265.267	543.590	-0.048	0.114
-264.253	-141.755	-0.076	-0.008
-263.238	467.880	0.055	-0.123
-262.224	-200.000	0.057	-0.366
-261.209	38.469	-0.164	0.145
-260.195	-92.282	0.212	-0.059
-259.180	-200.000	0.000	0.066
-258.165	-138.524	0.232	-0.025
-257.151	-131.927	-0.166	-0.022
-256.136	-111.540	0.393	0.079
-255.122	800.000	0.037	-0.112
-254.107	-141.905	0.252	-0.025
-253.092	-200.000	-0.032	-0.191
-252.078	-54.684	0.251	0.113
-251.063	537.836	-0.067	-0.157
-250.049	-200.000	0.077	0.383
-249.034	-200.000	-0.004	0.026
-248.019	91.285	0.176	-0.196
-247.005	-29.156	0.190	0.109
-245.990	110.723	-0.061	-0.072
-244.976	280.974	-0.137	-0.243
-243.961	14.856	0.108	-0.084
-242.946	200.522	-0.096	-0.146
-241.932	-68.611	-0.153	-0.059
-240.917	8.774	-0.173	-0.130
-239.903	-200.000	-0.014	-0.067
-238.888	800.000	0.062	0.221
-237.873	11.165	-0.101	-0.077
-236.859	-155.125	-0.171	0.011
-235.844	800.000	0.086	0.319
-234.830	-139.587	0.084	-0.009
-233.815	-4.070	0.250	-0.172
-232.800	-121.926	0.322	-0.053
-231.786	459.125	0.116	0.256
-230.771	-168.638	-0.152	0.006
-229.757	-200.000	0.026	-0.337
-228.742	800.000	-0.094	-0.317
-227.727	800.000	0.074	0.216
-226.713	-8.378	-0.124	-0.083
-225.698	-36.844	0.226	-0.121
-224.684	76.338	0.111	-0.117
-223.669	253.940	-0.071	0.121
-222.655	57.241	0.179	0.173
-221.640	103.429	-0.297	0.346
-220.625	800.000	0.043	0.178
-219.611	187.561	-0.113	0.167
-218.596	395.280	0.117	-0.242
-217.582	186.040	-0.135	-0.199
-216.567	-200.000	0.006	0.288
-215.552	287.383	-0.146	0.262
-214.538	-80.251	0.303	0.101
-213.523	215.932	0.133	-0.210
-212.509	800.000	0.042	0.145
-211.494	85.436	0.071	-0.078
-210.479	-86.072	0.301	-0.092
-209.465	21.237	0.255	-0.205
-208.450	75.526	0.169	0.177
-207.436	800.000	-0.031	0.105
-206.421	-19.428	-0.170	-0.105
-205.406	56.120	-0.049	0.047
-204.392	-50.694	-0.230	0.107
-203.377	-74.988	0.120	0.043
-202.363	279.876	0.098	0.173
-201.348	51.995	-0.212	0.201
-200.333	-87.941	-0.197	0.059
-199.319	-183.160	0.321	-0.006
-198.304	-200.000	0.044	0.000
-197.290	228.963	0.122	0.198
-196.275	-200.000	-0.004	0.084
-195.260	153.773	-0.095	0.130
-194.246	-104.995	0.272	-0.062
-193.231	-102.037	-0.050	0.012
-192.217	-5.322	0.232	0.158
-191.202	-63.998	0.122	0.049
-190.187	-61.500	0.077	-0.032
-189.173	-140.608	0.187	-0.019
-188.158	18.263	0.093	0.074
-187.144	-130.324	0.267	0.036
-186.129	-11.715	-0.145	-0.095
-185.114	-46.378	0.294	0.143
-184.100	-140.298	0.355	-0.037
-183.085	-200.000	-0.101	-0.440
-182.071	-158.430	0.034	-0.002
-181.056	425.877	0.128	0.273
-180.042	800.000	-0.072	-0.281
-179.027	800.000	0.105	-0.288
-178.012	147.883	0.199	0.265
-176.998	738.139	-0.054	0.145
-175.983	-200.000	-0.051	-0.245
-174.969	-200.000	-0.028	0.186
-173.954	-200.000	-0.038	-0.193
-172.939	68.947	-0.357	0.363
-171.925	-200.000	0.043	0.191
-170.910	-98.202	0.260	-0.066
-169.896	800.000	0.067	0.204
-168.881	-200.000	-0.004	-0.145
-167.866	169.783	-0.012	-0.018
-166.852	405.098	0.048	-0.099
-165.837	-185.590	0.205	0.003
-164.823	-91.472	0.041	0.012
-163.808	597.674	-0.048	0.117
-162.793	-22.082	0.231	-0.139
-161.779	396.370	0.085	0.175
-160.764	95.270	0.038	-0.043
-159.750	-200.000	-0.025	-0.234
-158.735	800.000	0.041	0.117
-157.720	7.186	0.143	-0.105
-156.706	553.749	0.158	0.376
-155.691	23.932	0.054	0.044
-154.677	-200.000	0.008	-0.124
-153.662	766.486	0.028	-0.074
-152.647	23.065	-0.194	0.157
-151.633	99.331	-0.060	0.068
-150.618	-18.646	-0.201	-0.124
-149.604	-140.770	0.157	-0.016
-148.589	345.590	-0.092	0.180
-147.574	122.180	-0.066	-0.081
-146.560	617.636	-0.034	-0.086
-145.545	464.585	-0.110	0.243
-144.531	-200.000	-0.014	0.119
-143.516	263.376	-0.200	0.344
-142.502	-116.268	-0.141	0.026
-141.487	-138.164	0.505	-0.055
-140.472	800.000	-0.046	0.149
-139.458	-200.000	0.011	-0.308
-138.443	-18.831	-0.083	-0.051
-137.429	256.214	0.148	-0.251
-136.414	-151.156	-0.084	0.006
-135.399	-200.000	-0.005	0.415
-134.385	236.194	-0.107	0.175
-133.370	153.379	0.140	0.190
-132.356	-28.205	-0.191	0.109
-131.341	800.000	-0.032	0.119
-130.326	-64.286	-0.201	0.081
-129.312	-101.557	0.242	0.058
-128.297	14.720	0.376	-0.290
-127.283	102.741	0.084	-0.097
-126.268	-200.000	-0.066	-0.439
-125.253	-11.857	0.020	-0.013
-124.239	-96.435	0.312	-0.082
-123.224	-92.414	0.078	0.022
-122.210	-200.000	0.040	-0.328
