DTS Sentinel unit serial number:	SN413079Multiplexer serial number:	ORYXHardware model number:	OX4-SRSoftware version number:	ORYX F/W v4.00 Oryx Data Collector v3.7.2.0data status	okinstallation	princeton_trtdifferential loss correction	single-endedforward channel	channel 4reverse channel	N/Adate	2019/09/11time	13:59:11forward acquisition time	60.00reverse acquisition time	0.00gamma	496.2192k internal	0.2283k external	0.2283temperature offset calibration	1.0001default loss term (dB/km)	0.3790temperature slope calibration	1.0000multiplexer offset coefficient	1.0000multiplexer slope coefficient	1.0000fibre end	0.00T internal ref (°C)	41.87T ext. ref 1 (°C)	0.86T ext. ref 2 (°C)	37.42length (m)	temperature (°C)	Stokes	anti-Stokes-747.200	125.119	-0.245	-0.317
-746.185	618.467	-0.074	0.192
-745.171	-191.448	-0.239	-0.002
-744.156	-73.223	-0.220	-0.083
-743.142	800.000	0.085	0.283
-742.127	-200.000	-0.032	0.426
-741.112	-96.526	-0.055	0.015
-740.098	15.257	-0.368	-0.297
-739.083	187.830	0.177	0.272
-738.069	197.564	-0.069	0.108
-737.054	-200.000	0.013	0.236
-736.039	800.000	0.037	0.119
-735.025	266.966	0.223	0.401
-734.010	-114.916	-0.223	-0.044
-732.996	-35.298	-0.279	-0.156
-731.981	451.153	-0.102	0.231
-730.966	-68.451	-0.085	0.034
-729.952	-88.812	-0.016	0.005
-728.937	-200.000	0.005	0.161
-727.923	-55.783	-0.264	-0.121
-726.908	-200.000	0.022	-0.267
-725.894	70.638	0.170	-0.180
-724.879	-200.000	-0.041	-0.279
-723.864	-200.000	0.009	-0.465
-722.850	192.321	0.092	0.142
-721.835	151.849	0.117	0.164
-720.821	-200.000	0.021	-0.142
-719.806	-200.000	-0.015	0.268
-718.791	17.289	0.202	0.164
-717.777	-18.137	0.125	0.081
-716.762	-180.836	0.159	0.003
-715.748	141.992	0.169	-0.229
-714.733	295.145	-0.033	-0.062
-713.718	-200.000	-0.043	0.322
-712.704	-29.428	0.157	-0.092
-711.689	252.374	-0.092	0.160
-710.675	-36.878	-0.212	-0.117
-709.660	800.000	0.149	0.470
-708.645	-34.644	-0.248	-0.139
-707.631	-94.447	0.266	0.075
-706.616	-144.861	-0.448	-0.042
-705.602	-154.264	0.370	0.026
-704.587	-131.385	-0.267	-0.036
-703.572	189.849	-0.127	-0.195
-702.558	0.108	0.047	-0.035
-701.543	-200.000	-0.032	-0.202
-700.529	-200.000	0.034	-0.270
-699.514	800.000	-0.054	0.159
-698.499	387.574	0.114	-0.243
-697.485	-112.177	-0.200	0.041
-696.470	197.934	-0.155	-0.242
-695.456	800.000	-0.079	-0.256
-694.441	-82.680	0.281	0.093
-693.426	-200.000	0.014	-0.265
-692.412	102.306	-0.029	0.035
-691.397	407.651	-0.219	-0.475
-690.383	3.913	0.338	-0.253
-689.368	800.000	-0.084	-0.334
-688.354	-24.111	-0.256	-0.157
-687.339	-60.912	0.023	0.010
-686.324	-105.980	-0.165	-0.038
-685.310	-23.800	0.319	0.196
-684.295	-109.623	0.202	-0.044
-683.281	117.017	0.049	-0.062
-682.266	63.375	0.171	-0.176
-681.251	-15.342	-0.283	0.186
-680.237	36.278	-0.287	0.259
-679.222	119.591	0.119	0.151
-678.208	67.472	0.237	0.248
-677.193	-159.291	-0.172	0.010
-676.178	-85.667	0.191	-0.061
-675.164	-109.849	0.470	-0.101
-674.149	3.865	0.233	-0.175
-673.135	718.451	-0.047	-0.128
-672.120	82.201	-0.098	-0.109
-671.105	-83.189	-0.266	-0.088
-670.091	-76.783	-0.173	0.062
-669.076	-200.000	0.039	0.278
-668.062	-187.342	0.304	0.004
-667.047	231.232	-0.094	-0.158
-666.032	-200.000	0.032	-0.177
-665.018	180.987	-0.193	0.291
-664.003	-124.742	-0.087	-0.014
-662.989	116.565	-0.171	0.215
-661.974	-95.200	0.041	-0.011
-660.959	-152.228	-0.071	0.005
-659.945	53.999	0.203	0.200
-658.930	-43.924	0.154	0.079
-657.916	-10.187	0.266	-0.181
-656.901	-0.749	-0.225	0.163
-655.886	437.145	-0.044	-0.097
-654.872	29.049	-0.162	0.141
-653.857	265.645	-0.020	0.035
-652.843	124.436	0.106	0.137
-651.828	-200.000	0.017	0.198
-650.814	-73.817	0.079	0.029
-649.799	-200.000	-0.002	0.088
-648.784	5.768	0.286	0.217
-647.770	-134.158	0.061	0.008
-646.755	-38.406	-0.165	0.089
-645.741	23.458	0.200	-0.169
-644.726	83.876	0.161	-0.180
-643.711	800.000	0.049	-0.142
-642.697	-10.494	0.087	0.059
-641.682	234.873	0.182	0.307
-640.668	-104.375	-0.105	0.025
-639.653	16.735	0.141	-0.114
-638.638	32.976	-0.086	0.076
-637.624	-33.305	-0.214	0.121
-636.609	378.164	-0.203	0.424
-635.595	-200.000	-0.012	-0.147
-634.580	20.613	0.092	-0.076
-633.565	-108.819	-0.293	-0.064
-632.551	-200.000	0.035	-0.195
-631.536	27.806	-0.196	0.169
-630.522	800.000	-0.083	-0.243
-629.507	-81.472	-0.106	-0.036
-628.492	409.260	0.129	0.280
-627.478	800.000	-0.042	0.125
-626.463	145.105	-0.175	-0.240
-625.449	97.554	-0.087	-0.102
-624.434	-42.398	-0.373	0.195
-623.419	-200.000	0.053	-0.393
-622.405	-46.830	0.260	-0.130
-621.390	153.778	-0.121	-0.170
-620.376	800.000	-0.022	0.073
-619.361	136.014	-0.016	-0.022
-618.346	-200.000	-0.003	-0.020
-617.332	-200.000	0.044	0.277
-616.317	245.253	0.289	-0.497
-615.303	-22.693	0.210	-0.130
-614.288	-51.808	-0.202	-0.096
-613.273	133.335	0.130	0.171
-612.259	85.678	-0.054	0.061
-611.244	-165.397	0.337	-0.015
-610.230	-91.199	0.273	0.080
-609.215	-200.000	-0.045	-0.370
-608.201	-200.000	-0.004	0.033
-607.186	-200.000	0.029	-0.214
-606.171	-130.005	0.274	-0.038
-605.157	-171.687	0.164	0.006
-604.142	248.863	-0.106	-0.183
-603.128	37.791	0.291	0.264
-602.113	-94.685	-0.095	0.026
-601.098	-16.379	0.122	0.079
-600.084	-94.728	-0.321	0.089
-599.069	-74.202	0.236	0.087
-598.055	-104.650	0.201	0.047
-597.040	503.985	-0.082	0.193
-596.025	108.725	0.066	-0.080
-595.011	-126.127	-0.162	-0.025
-593.996	-59.211	-0.171	0.075
-592.982	-15.728	0.117	0.076
-591.967	4.214	-0.168	-0.125
-590.952	-173.453	-0.123	-0.004
-589.938	233.924	0.114	-0.193
-588.923	-200.000	-0.051	-0.296
-587.909	-102.345	0.122	0.030
-586.894	0.085	-0.235	-0.171
-585.879	214.314	0.096	0.155
-584.865	-84.630	0.332	0.107
-583.850	-138.257	0.214	-0.024
-582.836	800.000	0.059	0.195
-581.821	-54.422	-0.108	0.050
-580.806	170.859	0.265	0.388
-579.792	800.000	-0.177	0.513
-578.777	68.386	0.128	0.134
-577.763	761.396	-0.227	-0.630
-576.748	296.972	0.134	-0.252
-575.733	-200.000	-0.024	0.219
-574.719	-200.000	0.036	0.219
-573.704	-200.000	0.170	-0.000
-572.690	-33.933	0.161	-0.090
-571.675	190.023	-0.228	0.349
-570.661	-200.000	0.027	0.194
-569.646	52.882	-0.204	-0.199
-568.631	800.000	0.036	0.152
-567.617	-78.227	-0.161	0.057
-566.602	-136.733	-0.348	0.041
-565.588	-200.000	-0.019	0.276
-564.573	-200.000	-0.027	-0.142
-563.558	800.000	0.020	0.086
-562.544	-132.383	0.071	-0.009
-561.529	-70.412	-0.408	0.158
-560.515	800.000	0.054	0.228
-559.500	38.633	-0.118	-0.108
-558.485	-165.993	-0.280	0.012
-557.471	40.105	0.134	0.123
-556.456	-3.164	0.225	-0.160
-555.442	-151.263	0.273	0.021
-554.427	183.098	0.080	-0.121
-553.412	-127.630	0.097	-0.014
-552.398	-124.985	-0.241	-0.038
-551.383	90.130	-0.309	0.353
-550.369	-200.000	-0.005	0.285
-549.354	48.153	-0.009	-0.008
-548.339	800.000	0.109	0.420
-547.325	709.116	0.040	0.108
-546.310	-115.432	-0.404	-0.078
-545.296	245.223	-0.006	0.010
-544.281	20.495	0.210	0.173
-543.266	53.718	-0.209	0.204
-542.252	9.317	0.249	0.192
-541.237	-143.447	-0.416	0.041
-540.223	800.000	0.039	0.129
-539.208	141.455	-0.303	0.409
-538.193	-200.000	0.008	0.172
-537.179	-200.000	-0.014	-0.282
-536.164	421.879	-0.076	-0.166
-535.150	-95.592	-0.086	0.023
-534.135	-116.038	-0.100	-0.019
-533.121	511.983	0.200	-0.474
-532.106	5.861	0.094	0.071
-531.091	-171.492	0.348	-0.012
-530.077	-79.442	0.179	-0.062
-529.062	-200.000	-0.016	-0.177
-528.048	-106.952	-0.455	-0.103
-527.033	6.698	0.234	-0.177
-526.018	112.026	0.119	0.146
-525.004	91.090	0.200	-0.229
-523.989	176.227	0.131	0.194
-522.975	800.000	0.069	0.284
-521.960	10.562	0.068	0.053
-520.945	-134.745	-0.234	0.029
-519.931	-35.935	-0.095	-0.052
-518.916	74.047	-0.209	-0.223
-517.902	-92.201	-0.224	-0.064
-516.887	-92.464	0.039	-0.011
-515.872	101.383	0.082	-0.097
-514.858	4.806	-0.442	0.331
-513.843	-200.000	0.320	0.001
-512.829	512.512	-0.167	-0.395
-511.814	158.840	0.119	-0.169
-510.799	-200.000	-0.022	0.255
-509.785	-200.000	-0.012	0.279
-508.770	-101.093	-0.299	-0.075
-507.756	8.894	-0.170	0.130
-506.741	47.854	-0.086	0.082
-505.726	800.000	-0.061	-0.226
-504.712	694.799	0.019	0.051
-503.697	193.599	0.078	-0.121
-502.683	-13.145	0.172	0.114
-501.668	-85.735	0.091	0.029
-500.653	580.947	0.102	0.253
-499.639	-200.000	0.018	0.282
-498.624	-128.535	-0.270	-0.039
-497.610	-77.625	0.150	-0.053
-496.595	67.271	0.080	-0.083
-495.581	-82.923	0.132	0.043
-494.566	-200.000	-0.031	-0.203
-493.551	-71.413	0.076	0.029
-492.537	-100.977	0.193	-0.048
-491.522	-161.596	0.223	0.012
-490.508	-200.000	-0.026	-0.261
-489.493	92.601	0.138	0.159
-488.478	800.000	0.038	0.132
-487.464	-200.000	0.030	0.370
-486.449	-175.740	0.101	0.003
-485.435	-27.482	-0.345	0.204
-484.420	13.300	0.196	0.154
-483.405	800.000	-0.048	0.160
-482.391	-70.763	0.075	0.029
-481.376	-100.177	0.173	0.044
-480.362	-110.496	-0.130	-0.027
-479.347	218.079	0.110	-0.179
-478.332	-200.000	0.024	0.191
-477.318	-62.175	0.122	-0.052
-476.303	-38.303	-0.207	-0.111
-475.289	331.923	-0.086	-0.170
-474.274	194.840	-0.161	0.248
-473.259	-200.000	-0.081	-0.452
-472.245	-29.220	0.161	-0.094
-471.230	15.868	-0.157	0.126
-470.216	144.849	-0.156	-0.212
-469.201	-106.902	-0.134	0.030
-468.186	73.842	0.271	-0.289
-467.172	800.000	-0.034	0.102
-466.157	-78.122	-0.181	-0.063
-465.143	46.032	-0.134	0.127
-464.128	-21.019	0.199	-0.124
-463.113	-21.017	-0.339	-0.211
-462.099	-200.000	0.027	0.207
-461.084	-65.317	0.161	-0.066
-460.070	330.648	0.022	-0.043
-459.055	-200.000	0.014	-0.074
-458.040	386.390	0.083	0.174
-457.026	-128.988	0.445	0.063
-456.011	-200.000	0.054	-0.425
-454.997	-82.841	-0.145	0.047
-453.982	-200.000	-0.036	-0.192
-452.968	109.480	-0.077	-0.094
-451.953	800.000	0.070	-0.264
-450.938	-96.671	-0.184	-0.049
-449.924	800.000	-0.049	-0.192
-448.909	165.578	-0.093	-0.134
-447.895	19.163	-0.126	-0.103
-446.880	-129.190	0.076	0.011
-445.865	-164.156	-0.245	0.012
-444.851	72.925	0.364	-0.386
-443.836	800.000	0.097	-0.272
-442.822	-126.299	-0.243	-0.037
-441.807	-135.501	0.095	-0.011
-440.792	-200.000	-0.025	0.150
-439.778	8.061	0.164	-0.125
-438.763	-58.169	-0.075	-0.033
-437.749	673.414	-0.102	0.269
-436.734	-73.226	-0.181	0.067
-435.719	-173.017	0.414	0.013
-434.705	32.491	-0.199	0.174
-433.690	104.502	-0.120	0.144
-432.676	-200.000	0.006	0.151
-431.661	621.022	0.071	-0.182
-430.646	-103.395	0.051	0.012
-429.632	202.796	0.134	-0.211
-428.617	-121.532	0.191	0.032
-427.603	259.664	0.186	0.326
-426.588	154.344	0.253	-0.352
-425.573	249.664	0.128	0.220
-424.559	-70.276	0.318	0.123
-423.544	-200.000	-0.044	0.285
-422.530	52.979	0.171	-0.166
-421.515	54.063	-0.164	-0.160
-420.500	-28.918	-0.068	0.039
-419.486	274.635	-0.065	0.116
-418.471	-200.000	0.020	-0.139
-417.457	800.000	0.031	0.114
-416.442	-200.000	-0.002	-0.110
-415.428	114.159	-0.232	-0.287
-414.413	173.668	-0.242	-0.354
-413.398	153.589	-0.150	-0.209
-412.384	-200.000	0.009	-0.080
-411.369	186.473	-0.139	0.210
-410.355	-107.291	-0.020	0.004
-409.340	-98.896	0.157	0.040
-408.325	-200.000	-0.004	0.164
-407.311	-186.102	0.335	0.005
-406.296	352.712	-0.049	0.098
-405.282	-200.000	0.041	-0.197
-404.267	-200.000	-0.569	-0.001
-403.252	-27.512	-0.224	-0.132
-402.238	691.873	-0.069	-0.182
-401.223	-99.230	0.400	-0.103
-400.209	-91.303	-0.310	-0.090
-399.194	3.415	-0.110	-0.081
-398.179	800.000	-0.043	-0.161
-397.165	-200.000	-0.003	0.246
-396.150	-10.765	-0.074	-0.050
-395.136	-161.589	0.344	0.018
-394.121	130.902	-0.248	0.322
-393.106	121.738	-0.115	-0.146
-392.092	800.000	-0.073	-0.210
-391.077	16.381	0.309	0.247
-390.063	-32.442	0.294	-0.166
-389.048	-131.778	-0.244	-0.032
-388.033	-153.935	-0.390	-0.027
-387.019	-59.764	0.092	0.040
-386.004	-200.000	0.021	-0.106
-384.990	59.263	-0.122	-0.122
-383.975	195.511	-0.164	-0.253
-382.960	190.595	0.086	0.132
-381.946	800.000	0.073	-0.205
-380.931	-200.000	-0.018	0.195
-379.917	27.980	-0.137	0.117
-378.902	5.482	-0.049	-0.037
-377.888	-200.000	0.036	-0.160
-376.873	192.021	-0.201	-0.307
-375.858	-1.385	-0.124	-0.089
-374.844	-30.098	-0.199	0.114
-373.829	107.614	-0.254	-0.307
-372.815	-200.000	-0.048	-0.245
-371.800	56.912	-0.249	-0.246
-370.785	-125.560	0.031	0.005
-369.771	209.111	-0.036	-0.057
-368.756	-200.000	-0.053	-0.313
-367.742	127.973	0.283	0.364
-366.727	-200.000	-0.044	0.275
-365.712	267.790	0.070	0.124
-364.698	-200.000	0.047	0.245
-363.683	-200.000	-0.013	0.430
-362.669	-98.544	-0.184	0.048
-361.654	-37.926	-0.217	-0.117
-360.639	-45.163	-0.109	-0.055
-359.625	-148.436	-0.157	-0.013
-358.610	-200.000	0.023	0.139
-357.596	112.253	0.216	-0.265
-356.581	-34.449	-0.089	0.050
-355.566	-121.924	-0.047	0.008
-354.552	-64.422	-0.074	-0.030
-353.537	212.520	-0.132	0.210
-352.523	-78.242	0.179	0.062
-351.508	800.000	0.035	-0.115
-350.493	-200.000	-0.015	-0.260
-349.479	800.000	-0.063	-0.256
-348.464	-200.000	0.029	0.304
-347.450	-43.518	0.428	0.218
-346.435	150.363	-0.125	0.172
-345.420	-21.774	-0.100	-0.061
-344.406	-169.428	-0.310	0.012
-343.391	13.813	-0.136	0.107
-342.377	800.000	0.017	-0.069
-341.362	-27.140	-0.404	0.238
-340.348	800.000	-0.057	-0.211
-339.333	325.497	0.089	0.172
-338.318	-80.392	0.212	0.072
-337.304	-12.471	0.236	0.156
-336.289	-200.000	0.033	0.194
-335.275	-200.000	0.004	-0.102
-334.260	104.857	0.086	-0.103
-333.245	800.000	0.043	0.139
-332.231	70.857	0.062	0.065
-331.216	-8.258	-0.242	-0.165
-330.202	290.833	0.101	-0.186
-329.187	-200.000	0.020	0.432
-328.172	70.932	-0.076	-0.080
-327.158	69.546	-0.099	0.103
-326.143	800.000	0.019	0.079
-325.129	507.646	-0.085	0.199
-324.114	-88.503	0.196	0.059
-323.099	196.749	0.060	-0.092
-322.085	-136.867	-0.420	-0.049
-321.070	143.952	0.083	-0.112
-320.056	-90.349	0.276	0.081
-319.041	-165.355	-0.313	-0.014
-318.026	-62.502	-0.185	-0.078
-317.012	-200.000	-0.011	-0.068
-315.997	167.379	0.159	0.229
-314.983	800.000	-0.119	-0.351
-313.968	243.243	-0.056	-0.094
-312.953	-145.442	0.154	0.014
-311.939	-200.000	-0.008	0.137
-310.924	27.384	0.081	0.068
-309.910	206.674	0.158	-0.248
-308.895	-200.000	0.045	-0.206
-307.880	406.391	0.100	0.214
-306.866	1.923	-0.183	-0.134
-305.851	800.000	0.103	0.288
-304.837	-51.221	-0.205	0.097
-303.822	-132.240	0.328	0.043
-302.807	480.216	-0.130	0.299
-301.793	-65.115	0.428	-0.174
-300.778	490.833	-0.076	-0.176
-299.764	-200.000	-0.083	-0.427
-298.749	-200.000	-0.007	0.120
-297.735	56.225	0.266	0.261
-296.720	1.495	0.152	0.110
-295.705	1.420	0.176	0.127
-294.691	-133.050	-0.384	-0.049
-293.676	800.000	0.076	-0.313
-292.662	800.000	0.010	0.036
-291.647	-110.875	0.189	-0.039
-290.632	-96.433	-0.060	0.016
-289.618	265.010	-0.114	0.200
-288.603	140.837	-0.163	0.217
-287.589	-164.884	0.211	-0.010
-286.574	127.737	0.069	-0.088
-285.559	-200.000	0.000	-0.048
-284.545	244.653	-0.183	0.311
-283.530	200.709	-0.120	-0.187
-282.516	800.000	-0.094	-0.306
-281.501	375.636	-0.062	0.128
-280.486	-37.879	0.291	0.156
-279.472	-66.019	-0.163	-0.066
-278.457	-200.000	-0.009	0.093
-277.443	-14.192	0.310	-0.202
-276.428	-69.277	-0.140	-0.054
-275.413	-162.847	-0.125	-0.006
-274.399	163.567	0.051	-0.073
-273.384	133.339	0.145	0.189
-272.370	52.179	-0.087	0.084
-271.355	800.000	-0.026	0.098
-270.340	-30.336	-0.149	0.085
-269.326	-47.339	-0.397	-0.195
-268.311	-157.042	0.191	0.012
-267.297	332.588	0.167	-0.325
-266.282	-17.015	0.330	-0.210
-265.267	205.245	0.051	0.080
-264.253	-38.957	0.246	-0.131
-263.238	-200.000	-0.022	0.220
-262.224	218.194	0.137	0.221
-261.209	344.359	0.077	-0.153
-260.195	249.534	-0.217	-0.371
-259.180	-200.000	-0.006	-0.162
-258.165	-49.000	-0.468	-0.226
-257.151	-200.000	-0.021	-0.306
-256.136	800.000	-0.063	0.205
-255.122	-200.000	0.009	-0.151
-254.107	-106.719	0.364	-0.082
-253.092	-31.190	0.173	-0.098
-252.078	302.862	0.038	-0.072
-251.063	-200.000	-0.082	0.370
-250.049	272.539	0.083	0.148
-249.034	-71.556	0.284	0.107
-248.019	438.610	-0.159	-0.350
-247.005	118.927	-0.435	-0.542
-245.990	-107.820	0.087	-0.019
-244.976	800.000	0.044	0.167
-243.961	-81.682	-0.112	0.037
-242.946	66.467	0.102	0.105
-241.932	-27.440	-0.339	0.198
-240.917	-77.269	-0.249	0.087
-239.903	32.259	0.159	0.138
-238.888	800.000	0.032	0.120
-237.873	64.342	0.046	-0.046
-236.859	451.872	0.063	-0.141
-235.844	-30.298	-0.209	-0.120
-234.830	-77.995	-0.198	0.069
-233.815	-200.000	-0.023	-0.107
-232.800	-60.339	0.274	0.118
-231.786	192.256	-0.068	0.104
-230.771	-200.000	0.029	0.304
-229.757	412.944	-0.130	0.278
-228.742	-200.000	-0.039	0.231
-227.727	-200.000	0.003	0.140
-226.713	-140.097	-0.265	-0.028
-225.698	800.000	-0.067	-0.245
-224.684	-200.000	0.009	0.290
-223.669	354.547	0.218	0.436
-222.655	115.019	-0.226	-0.278
-221.640	-57.983	-0.280	0.123
-220.625	36.138	0.071	-0.063
-219.611	-47.648	0.160	-0.078
-218.596	-15.470	0.126	-0.081
-217.582	-72.809	-0.055	0.020
-216.567	36.263	-0.275	0.244
-215.552	291.204	0.095	-0.174
-214.538	-148.757	-0.246	-0.020
-213.523	-24.480	-0.073	-0.044
-212.509	800.000	0.087	0.283
-211.494	53.633	0.107	-0.103
-210.479	-200.000	-0.012	0.123
-209.465	290.588	-0.065	0.119
-208.450	-7.055	-0.049	0.034
-207.436	800.000	-0.055	0.180
-206.421	-117.556	-0.182	0.033
-205.406	-200.000	0.009	0.066
-204.392	-29.895	-0.230	0.132
-203.377	-60.733	0.435	-0.185
-202.363	-137.968	0.072	-0.008
-201.348	800.000	-0.020	0.083
-200.333	56.491	-0.120	0.118
-199.319	249.849	0.156	-0.265
-198.304	-61.618	0.373	-0.158
-197.290	-143.676	0.079	-0.008
-196.275	29.978	-0.068	0.059
-195.260	161.724	0.090	0.127
-194.246	-117.468	0.223	0.041
-193.231	-8.549	0.463	0.313
-192.217	-73.459	0.343	-0.126
-191.202	-119.365	0.439	-0.077
-190.187	-169.094	-0.403	0.015
-189.173	-31.926	0.175	-0.099
-188.158	287.120	-0.019	-0.034
-187.144	800.000	0.129	0.422
-186.129	11.155	-0.104	0.080
-185.114	800.000	0.079	-0.284
-184.100	-80.179	0.384	0.129
-183.085	-200.000	0.008	0.120
-182.071	-170.834	0.152	-0.005
-181.056	239.405	-0.063	-0.105
-180.042	243.498	0.080	-0.135
-179.027	-5.793	0.443	-0.305
-178.012	-53.953	-0.183	0.084
-176.998	12.147	0.178	-0.138
-175.983	-200.000	-0.048	-0.320
-174.969	800.000	-0.086	-0.251
-173.954	-200.000	-0.018	0.087
-172.939	-73.192	0.146	-0.054
-171.925	-200.000	0.039	0.273
-170.910	-62.476	0.193	-0.081
-169.896	225.973	0.154	0.250
-168.881	-130.329	0.168	-0.023
-167.866	-93.221	0.333	-0.093
-166.852	-87.028	-0.234	0.072
-165.837	-109.775	-0.167	-0.035
-164.823	-26.493	-0.306	0.180
-163.808	-28.651	0.285	-0.165
-162.793	-200.000	0.014	0.064
-161.779	49.080	0.143	-0.135
-160.764	-110.499	-0.049	-0.010
-159.750	-103.434	-0.398	-0.094
-158.735	-3.698	-0.143	-0.100
-157.720	-141.290	0.271	0.028
-156.706	-11.127	-0.153	-0.102
-155.691	-33.885	0.278	-0.154
-154.677	227.798	-0.170	-0.278
-153.662	-183.054	-0.503	0.009
-152.647	-136.936	0.173	0.020
-151.633	278.224	0.089	-0.160
-150.618	588.168	-0.015	0.038
-149.604	96.360	-0.254	0.292
-148.589	-80.808	-0.240	-0.080
-147.574	-200.000	0.001	0.074
-146.560	46.090	0.235	0.219
-145.545	77.457	-0.146	-0.156
-144.531	-89.376	-0.222	-0.066
-143.516	-42.053	0.158	0.081
-142.502	15.072	0.175	-0.138
-141.487	35.826	-0.195	-0.172
-140.472	-200.000	-0.016	-0.157
-139.458	-131.982	0.258	0.034
-138.443	-154.324	0.343	0.023
-137.429	44.647	0.233	0.215
-136.414	361.535	-0.256	0.515
-135.399	43.094	-0.144	-0.131
-134.385	165.268	-0.090	0.128
-133.370	-68.930	-0.063	0.024
-132.356	800.000	0.088	-0.364
-131.341	56.760	-0.145	0.142
-130.326	-32.207	0.157	0.088
-129.312	-200.000	0.018	0.117
-128.297	-200.000	0.063	0.472
-127.283	-74.965	0.272	0.098
-126.268	57.149	-0.210	0.206
-125.253	-23.525	0.263	-0.158
-124.239	-18.130	0.175	0.110
-123.224	14.057	-0.109	-0.085
-122.210	-139.933	-0.350	0.037
-121.195	16.058	0.086	0.068
