DTS Sentinel unit serial number:	SN413079Multiplexer serial number:	ORYXHardware model number:	OX4-SRSoftware version number:	ORYX F/W v4.00 Oryx Data Collector v3.7.2.0data status	okinstallation	princeton_trtdifferential loss correction	single-endedforward channel	channel 4reverse channel	N/Adate	2019/09/12time	06:07:11forward acquisition time	60.00reverse acquisition time	0.00gamma	496.2192k internal	0.2308k external	0.2308temperature offset calibration	1.0062default loss term (dB/km)	0.3790temperature slope calibration	1.0000multiplexer offset coefficient	1.0000multiplexer slope coefficient	1.0000fibre end	0.00T internal ref (°C)	32.12T ext. ref 1 (°C)	1.57T ext. ref 2 (°C)	27.35length (m)	temperature (°C)	Stokes	anti-Stokes-747.200	56.187	0.096	0.094
-746.185	800.000	-0.064	0.280
-745.171	655.350	0.062	0.161
-744.156	768.672	-0.128	0.353
-743.142	46.550	-0.236	-0.222
-742.127	800.000	0.088	0.266
-741.112	31.305	-0.275	-0.240
-740.098	-200.000	-0.011	-0.089
-739.083	85.313	0.070	0.079
-738.069	-9.149	-0.391	0.266
-737.054	-88.948	0.261	-0.079
-736.039	-200.000	0.007	-0.082
-735.025	-200.000	-0.044	0.216
-734.010	-164.052	-0.121	-0.006
-732.996	800.000	-0.056	0.178
-731.981	800.000	0.065	0.219
-730.966	-200.000	-0.081	0.475
-729.952	53.557	0.161	-0.157
-728.937	-200.000	-0.053	0.328
-727.923	-200.000	-0.050	0.345
-726.908	800.000	0.055	-0.161
-725.894	194.958	-0.117	-0.181
-724.879	-31.365	-0.322	-0.184
-723.864	13.166	-0.131	-0.103
-722.850	-24.252	0.161	0.098
-721.835	77.391	0.276	-0.298
-720.821	702.318	-0.150	-0.400
-719.806	800.000	-0.126	-0.463
-718.791	-200.000	0.004	0.047
-717.777	-200.000	0.023	0.251
-716.762	-82.971	0.036	0.012
-715.748	-76.960	0.127	-0.045
-714.733	330.809	-0.117	0.230
-713.718	-84.685	-0.057	-0.018
-712.704	-80.792	-0.167	-0.056
-711.689	-160.398	-0.178	0.010
-710.675	295.329	0.090	-0.167
-709.660	-132.685	0.174	0.023
-708.645	-49.298	-0.196	-0.095
-707.631	274.905	-0.065	-0.118
-706.616	120.422	-0.211	0.265
-705.602	-92.301	0.424	0.121
-704.587	-97.282	-0.113	-0.030
-703.572	35.132	0.097	0.086
-702.558	2.888	-0.407	-0.300
-701.543	286.606	-0.169	-0.310
-700.529	64.106	0.055	0.057
-699.514	67.414	0.131	0.136
-698.499	228.962	-0.072	0.119
-697.485	-63.565	0.060	-0.025
-696.470	-114.491	0.241	-0.047
-695.456	127.087	0.128	-0.164
-694.441	26.731	-0.176	-0.149
-693.426	-150.240	-0.251	-0.020
-692.412	448.243	0.070	0.157
-691.397	-18.728	-0.237	0.150
-690.383	40.969	-0.125	-0.114
-689.368	-167.364	-0.049	-0.002
-688.354	-127.944	-0.582	-0.085
-687.339	-107.830	0.364	0.080
-686.324	175.063	0.267	0.393
-685.310	-52.234	0.376	-0.177
-684.295	251.698	0.129	-0.223
-683.281	537.909	-0.118	-0.284
-682.266	-59.572	-0.075	-0.033
-681.251	-88.750	0.070	0.021
-680.237	699.197	-0.132	0.352
-679.222	-56.242	0.446	-0.201
-678.208	84.186	0.159	0.176
-677.193	284.036	-0.039	0.072
-676.178	-20.580	-0.251	-0.156
-675.164	-110.497	-0.062	0.013
-674.149	-87.756	0.471	-0.144
-673.135	51.700	-0.156	0.151
-672.120	800.000	0.055	0.233
-671.105	159.806	0.074	-0.104
-670.091	-12.875	-0.217	-0.143
-669.076	414.871	0.017	-0.036
-668.062	147.437	-0.148	-0.203
-667.047	98.982	0.108	0.127
-666.032	63.792	0.178	-0.181
-665.018	25.243	0.315	-0.266
-664.003	800.000	-0.025	-0.081
-662.989	800.000	-0.040	-0.129
-661.974	-53.490	-0.206	-0.095
-660.959	-200.000	-0.059	0.282
-659.945	141.419	0.130	0.174
-658.930	227.088	-0.160	0.263
-657.916	31.771	0.023	-0.020
-656.901	17.168	-0.284	-0.228
-655.886	-13.367	-0.075	-0.049
-654.872	125.182	0.125	-0.160
-653.857	35.482	0.269	0.239
-652.843	189.674	-0.145	-0.220
-651.828	800.000	0.088	0.261
-650.814	-162.852	0.302	0.015
-649.799	-54.360	-0.204	0.094
-648.784	39.181	0.211	0.191
-647.770	329.947	0.110	0.214
-646.755	-200.000	0.014	0.118
-645.741	-84.457	-0.571	-0.183
-644.726	175.395	0.151	-0.221
-643.711	746.167	-0.040	0.109
-642.697	-98.514	0.499	0.129
-641.682	470.153	-0.045	-0.102
-640.668	-180.187	-0.449	0.010
-639.653	-200.000	-0.039	0.285
-638.638	-118.352	-0.113	-0.020
-637.624	4.175	0.350	-0.260
-636.609	529.610	-0.109	-0.261
-635.595	-43.063	0.411	-0.211
-634.580	-25.491	-0.248	-0.148
-633.565	-162.825	-0.437	-0.022
-632.551	800.000	0.096	0.372
-631.536	-135.926	0.368	-0.044
-630.522	-200.000	-0.039	0.296
-629.507	800.000	0.095	-0.391
-628.492	3.847	-0.175	-0.129
-627.478	110.850	0.199	-0.243
-626.463	271.128	0.135	-0.241
-625.449	-38.123	0.084	-0.045
-624.434	358.732	-0.049	0.099
-623.419	-66.537	-0.153	-0.061
-622.405	800.000	-0.115	-0.407
-621.390	257.010	-0.152	0.264
-620.376	-200.000	0.028	-0.297
-619.361	154.785	-0.154	0.215
-618.346	372.441	-0.138	0.283
-617.332	113.018	0.307	-0.377
-616.317	-85.285	0.315	0.100
-615.303	48.413	0.071	0.067
-614.288	21.030	-0.315	-0.259
-613.273	-98.826	0.319	0.082
-612.259	26.383	-0.443	-0.375
-611.244	-200.000	-0.006	-0.276
-610.230	98.076	0.058	-0.067
-609.215	800.000	0.088	0.267
-608.201	-200.000	0.021	0.140
-607.186	-200.000	-0.017	-0.081
-606.171	-125.937	-0.105	-0.016
-605.157	800.000	-0.028	0.112
-604.142	-200.000	-0.247	0.001
-603.128	-140.240	0.160	0.017
-602.113	-200.000	0.005	-0.079
-601.098	-200.000	0.023	-0.118
-600.084	-63.459	0.234	-0.097
-599.069	248.544	-0.047	-0.081
-598.055	-192.773	0.233	0.002
-597.040	47.038	-0.154	0.145
-596.025	-134.583	0.276	0.034
-595.011	800.000	-0.097	0.352
-593.996	800.000	-0.098	-0.348
-592.982	143.511	-0.184	-0.248
-591.967	-2.493	-0.211	0.149
-590.952	800.000	0.027	-0.086
-589.938	44.944	0.361	-0.336
-588.923	138.960	0.309	-0.411
-587.909	30.234	-0.193	-0.166
-586.894	-27.627	-0.161	-0.095
-585.879	-98.647	-0.403	0.104
-584.865	58.782	-0.267	0.265
-583.850	-200.000	0.029	0.355
-582.836	194.016	0.062	0.095
-581.821	-146.157	0.269	0.024
-580.806	-200.000	-0.022	-0.128
-579.792	138.710	-0.179	0.238
-578.777	76.892	0.203	0.217
-577.763	407.177	0.121	0.259
-576.748	-200.000	0.057	-0.256
-575.733	-200.000	0.015	0.147
-574.719	-91.978	0.067	0.019
-573.704	24.277	0.066	0.055
-572.690	-121.042	-0.122	-0.021
-571.675	22.757	-0.219	0.181
-570.661	164.139	-0.011	0.015
-569.646	346.830	0.060	-0.119
-568.631	206.212	-0.132	-0.207
-567.617	800.000	0.094	-0.314
-566.602	693.593	0.078	-0.206
-565.588	486.031	0.025	-0.058
-564.573	105.539	0.104	0.124
-563.558	-61.473	0.297	0.126
-562.544	27.132	0.134	0.114
-561.529	-67.732	-0.094	0.037
-560.515	-200.000	0.017	0.231
-559.500	-153.495	-0.192	0.013
-558.485	15.998	-0.420	0.334
-557.471	-70.927	0.193	-0.073
-556.456	-193.818	0.043	0.000
-555.442	-200.000	-0.030	0.133
-554.427	48.816	-0.145	-0.137
-553.412	-200.000	-0.050	0.280
-552.398	-200.000	0.001	0.369
-551.383	-118.998	0.105	-0.019
-550.369	208.427	0.046	-0.073
-549.354	34.829	0.076	-0.067
-548.339	-200.000	-0.018	-0.244
-547.325	-200.000	0.008	0.112
-546.310	-1.770	-0.241	-0.171
-545.296	-17.526	-0.357	0.226
-544.281	-43.610	0.104	0.053
-543.266	-39.655	-0.093	-0.049
-542.252	-106.105	-0.203	-0.046
-541.237	-102.006	-0.361	-0.088
-540.223	-131.277	-0.169	-0.023
-539.208	-200.000	-0.038	-0.262
-538.193	-173.438	0.217	-0.007
-537.179	800.000	0.154	0.563
-536.164	800.000	0.056	0.191
-535.150	-43.153	0.138	0.071
-534.135	-49.664	-0.108	0.052
-533.121	-200.000	-0.020	0.089
-532.106	76.505	0.140	-0.150
-531.091	800.000	0.063	0.206
-530.077	-200.000	-0.029	-0.304
-529.062	-200.000	0.040	0.484
-528.048	-200.000	-0.027	0.193
-527.033	770.815	-0.151	0.415
-526.018	-200.000	-0.005	-0.170
-525.004	85.709	-0.161	0.179
-523.989	-200.000	0.016	-0.121
-522.975	-200.000	0.013	0.100
-521.960	-54.079	0.265	0.122
-520.945	800.000	0.031	-0.119
-519.931	290.705	-0.150	-0.275
-518.916	-39.721	-0.278	-0.146
-517.902	-200.000	-0.034	-0.228
-516.887	-112.932	-0.206	0.041
-515.872	0.128	0.064	0.046
-514.858	-78.944	-0.136	-0.047
-513.843	-200.000	-0.049	0.280
-512.829	-37.084	-0.161	0.087
-511.814	-114.601	-0.401	0.077
-510.799	-80.204	-0.068	0.023
-509.785	-55.494	0.148	0.067
-508.770	665.031	-0.098	0.255
-507.756	-200.000	-0.014	0.230
-506.741	-200.000	0.009	0.049
-505.726	4.601	-0.255	-0.188
-504.712	-200.000	-0.012	0.314
-503.697	-200.000	0.021	-0.291
-502.683	800.000	0.009	-0.037
-501.668	-200.000	-0.029	0.280
-500.653	136.957	-0.014	-0.019
-499.639	-200.000	0.019	-0.091
-498.624	800.000	-0.035	0.105
-497.610	-200.000	0.086	0.515
-496.595	148.910	-0.040	-0.055
-495.581	-200.000	0.011	0.188
-494.566	307.095	0.059	0.110
-493.551	368.230	0.163	-0.332
-492.537	-171.629	0.261	-0.009
-491.522	800.000	0.047	0.192
-490.508	247.490	0.147	-0.249
-489.493	0.627	-0.156	0.113
-488.478	-126.770	-0.118	-0.018
-487.464	80.294	0.082	-0.089
-486.449	212.661	-0.144	-0.229
-485.435	183.284	-0.080	-0.119
-484.420	786.263	0.084	0.233
-483.405	-138.544	-0.256	-0.028
-482.391	217.146	0.125	-0.200
-481.376	104.970	0.160	-0.189
-480.362	-121.869	-0.190	-0.032
-479.347	51.592	-0.259	-0.248
-478.332	406.067	0.078	-0.166
-477.318	-200.000	-0.039	0.195
-476.303	-62.716	0.163	0.068
-475.289	441.123	0.028	-0.063
-474.274	-125.331	0.015	0.002
-473.259	-200.000	-0.055	0.355
-472.245	6.326	0.429	-0.320
-471.230	11.253	-0.258	0.199
-470.216	-153.323	-0.333	-0.023
-469.201	93.396	-0.187	-0.213
-468.186	232.624	0.057	0.094
-467.172	-125.693	0.174	-0.026
-466.157	-150.813	0.131	-0.010
-465.143	-35.779	-0.066	-0.036
-464.128	121.948	-0.208	-0.261
-463.113	-64.232	0.157	-0.064
-462.099	-44.359	0.312	0.157
-461.084	34.053	-0.277	-0.243
-460.070	80.113	0.125	-0.136
-459.055	-87.686	0.241	-0.073
-458.040	358.880	0.013	-0.027
-457.026	91.440	-0.142	-0.161
-456.011	-53.545	-0.212	-0.098
-454.997	-24.147	0.164	-0.098
-453.982	-200.000	-0.016	-0.164
-452.968	127.117	0.109	0.139
-451.953	521.322	0.120	-0.284
-450.938	800.000	0.060	0.225
-449.924	-172.473	-0.133	0.004
-448.909	97.261	0.284	0.328
-447.895	119.715	0.025	0.031
-446.880	-35.344	0.148	-0.081
-445.865	-142.503	0.210	-0.021
-444.851	-179.737	-0.257	-0.006
-443.836	-200.000	0.009	0.106
-442.822	800.000	-0.109	-0.306
-441.807	34.217	-0.106	-0.093
-440.792	-97.481	-0.184	0.048
-439.778	-104.932	-0.256	-0.059
-438.763	-102.847	-0.138	-0.033
-437.749	-102.828	-0.131	-0.031
-436.734	-200.000	0.028	0.227
-435.719	-8.980	0.338	0.227
-434.705	242.410	0.075	0.126
-433.690	-100.626	-0.495	-0.123
-432.676	-90.134	-0.260	-0.076
-431.661	-200.000	0.007	-0.283
-430.646	-104.668	-0.189	0.044
-429.632	-200.000	0.000	0.278
-428.617	202.792	0.122	0.189
-427.603	168.732	-0.094	-0.135
-426.588	-14.787	0.301	-0.194
-425.573	-200.000	0.023	-0.251
-424.559	69.520	0.070	-0.072
-423.544	79.306	-0.065	0.070
-422.530	129.239	0.125	0.161
-421.515	800.000	0.029	-0.100
-420.500	-135.608	-0.203	-0.024
-419.486	-2.184	0.118	0.083
-418.471	8.246	-0.141	0.106
-417.457	-160.674	-0.065	0.003
-416.442	163.710	0.043	-0.060
-415.428	-132.786	0.227	-0.029
-414.413	800.000	0.096	-0.358
-413.398	443.986	0.051	-0.113
-412.384	119.352	0.308	-0.382
-411.369	0.700	0.111	0.080
-410.355	-200.000	0.043	0.263
-409.340	222.676	0.213	-0.344
-408.325	35.044	-0.022	-0.019
-407.311	505.401	0.078	-0.182
-406.296	-200.000	-0.068	0.395
-405.282	-200.000	0.059	-0.370
-404.267	40.684	0.253	0.229
-403.252	125.380	-0.061	-0.077
-402.238	-200.000	-0.063	-0.368
-401.223	-67.990	0.233	-0.091
-400.209	6.144	0.011	0.008
-399.194	-154.112	0.058	-0.004
-398.179	-142.285	-0.150	-0.015
-397.165	154.734	-0.161	0.222
-396.150	22.283	0.292	0.239
-395.136	800.000	-0.034	0.101
-394.121	-200.000	0.008	0.182
-393.106	39.584	0.053	0.048
-392.092	-4.039	0.133	-0.093
-391.077	377.461	-0.046	0.094
-390.063	42.029	0.233	0.212
-389.048	800.000	0.061	-0.195
-388.033	103.378	0.211	0.249
-387.019	38.198	-0.100	-0.089
-386.004	-98.947	0.368	0.094
-384.990	94.735	-0.205	-0.234
-383.975	-200.000	0.029	0.441
-382.960	18.834	-0.149	-0.120
-381.946	-148.150	0.180	0.015
-380.931	-200.000	0.016	0.114
-379.917	123.651	-0.099	-0.125
-378.902	573.027	0.056	-0.137
-377.888	230.999	-0.096	0.158
-376.873	748.631	-0.092	-0.249
-375.858	36.434	0.500	0.442
-374.844	280.569	0.226	0.405
-373.829	-145.196	0.117	0.011
-372.815	-41.992	0.159	0.082
-371.800	-113.943	-0.033	0.006
-370.785	-83.957	-0.087	0.028
-369.771	800.000	-0.053	0.160
-368.756	328.345	-0.064	0.123
-367.742	-151.249	0.395	0.030
-366.727	172.954	0.033	0.048
-365.712	-200.000	-0.068	-0.349
-364.698	-200.000	0.015	-0.075
-363.683	48.639	-0.192	-0.180
-362.669	800.000	0.075	-0.240
-361.654	-200.000	0.040	-0.442
-360.639	351.751	0.083	0.164
-359.625	-200.000	0.027	-0.359
-358.610	-178.808	-0.244	0.006
-357.596	563.391	0.103	-0.249
-356.581	38.325	-0.105	-0.094
-355.566	231.434	-0.109	-0.179
-354.552	800.000	0.074	0.247
-353.537	800.000	0.046	0.131
-352.523	257.032	0.038	0.065
-351.508	-117.524	-0.196	-0.036
-350.493	71.415	0.139	-0.144
-349.479	230.302	-0.117	-0.192
-348.464	-162.167	-0.176	0.009
-347.450	-46.091	0.231	-0.114
-346.435	-115.308	0.423	-0.080
-345.420	-119.966	-0.215	0.037
-344.406	-66.901	0.495	0.196
-343.391	800.000	0.094	0.319
-342.377	22.979	0.227	-0.186
-341.362	-169.187	-0.118	0.004
-340.348	1.104	-0.106	-0.076
-339.333	-33.593	0.166	-0.092
-338.318	429.917	0.121	-0.263
-337.304	-41.473	-0.147	0.076
-336.289	-19.384	0.101	-0.062
-335.275	-94.595	0.072	0.020
-334.260	800.000	-0.029	-0.119
-333.245	19.808	0.036	0.029
-332.231	275.883	-0.415	0.737
-331.216	-95.399	0.197	-0.053
-330.202	-77.228	0.168	0.059
-329.187	-129.146	0.117	0.016
-328.172	450.969	-0.048	-0.106
-327.158	-63.301	-0.053	0.022
-326.143	-106.616	0.178	0.040
-325.129	-73.102	0.132	-0.048
-324.114	-200.000	0.001	-0.297
-323.099	-35.283	-0.201	0.109
-322.085	26.915	0.126	0.106
-321.070	369.389	0.057	0.116
-320.056	48.173	-0.228	-0.213
-319.041	-53.243	-0.172	0.079
-318.026	550.869	-0.041	0.098
-317.012	-136.201	-0.282	0.033
-315.997	81.029	0.117	0.127
-314.983	-53.822	0.095	0.044
-313.968	-49.492	-0.424	0.202
-312.953	63.447	-0.111	-0.111
-311.939	-192.081	0.147	-0.001
-310.924	417.932	-0.061	-0.130
-309.910	-200.000	-0.116	-0.525
-308.895	-39.557	-0.126	-0.066
-307.880	-31.904	-0.061	-0.034
-306.866	368.218	0.107	-0.215
-305.851	256.978	-0.091	-0.156
-304.837	153.848	-0.156	0.213
-303.822	800.000	-0.060	-0.177
-302.807	6.010	0.230	0.170
-301.793	78.469	0.045	-0.048
-300.778	40.683	-0.161	-0.145
-299.764	-72.147	0.239	-0.088
-298.749	98.541	-0.189	-0.218
-297.735	121.071	0.062	0.077
-296.720	-80.265	0.418	0.140
-295.705	2.517	-0.124	0.090
-294.691	177.747	-0.165	0.240
-293.676	-133.931	0.330	0.041
-292.662	264.336	-0.062	0.108
-291.647	-161.906	-0.535	-0.027
-290.632	37.971	0.144	-0.128
-289.618	54.147	-0.347	0.333
-288.603	-200.000	0.008	-0.067
-287.589	304.685	-0.173	-0.322
-286.574	82.622	0.170	0.184
-285.559	234.797	0.172	0.283
-284.545	800.000	0.040	0.122
-283.530	-83.265	0.111	0.036
-282.516	-200.000	-0.026	0.181
-281.501	-134.905	0.145	0.018
-280.486	-100.406	0.318	-0.079
-279.472	146.709	0.180	0.241
-278.457	-5.678	-0.067	-0.046
-277.443	-200.000	-0.039	-0.370
-276.428	179.799	0.079	0.115
-275.413	-56.518	-0.199	-0.088
-274.399	-200.000	0.000	-0.023
-273.384	230.994	-0.020	-0.033
-272.370	-33.630	0.126	0.069
-271.355	397.183	0.034	-0.071
-270.340	346.497	-0.078	0.154
-269.326	-58.257	0.128	-0.055
-268.311	800.000	-0.059	0.180
-267.297	800.000	0.057	0.219
-266.282	123.343	0.124	-0.155
-265.267	-69.151	-0.024	0.009
-264.253	-200.000	0.031	-0.294
-263.238	102.277	-0.080	-0.093
-262.224	-9.669	0.093	-0.062
-261.209	243.506	-0.030	-0.050
-260.195	16.346	-0.176	-0.138
-259.180	69.717	0.114	0.118
-258.165	-200.000	0.021	-0.172
-257.151	-37.127	0.156	-0.083
-256.136	394.591	0.146	0.303
-255.122	800.000	0.039	-0.161
-254.107	88.980	-0.137	0.153
-253.092	345.820	-0.185	0.364
-252.078	-200.000	0.003	0.246
-251.063	-154.914	0.459	0.030
-250.049	-200.000	-0.009	0.058
-249.034	-162.368	0.483	0.024
-248.019	84.000	0.137	0.149
-247.005	-28.443	-0.153	-0.088
-245.990	125.451	0.185	0.233
-244.976	-29.273	0.360	-0.206
-243.961	-90.468	-0.500	0.144
-242.946	-43.987	0.150	0.075
-241.932	-200.000	0.006	0.285
-240.917	10.573	-0.180	0.137
-239.903	-96.814	-0.463	0.121
-238.888	-137.813	-0.197	-0.022
-237.873	45.434	-0.204	0.187
-236.859	11.898	-0.270	-0.207
-235.844	63.705	0.155	-0.155
-234.830	16.681	-0.115	0.091
-233.815	-147.173	0.111	-0.009
-232.800	-200.000	-0.047	0.308
-231.786	-200.000	-0.040	-0.464
-230.771	144.198	-0.264	0.351
-229.757	-72.503	0.257	0.095
-228.742	-46.769	0.161	-0.078
-227.727	127.070	-0.217	0.274
-226.713	235.233	-0.068	0.113
-225.698	-84.814	-0.118	0.037
-224.684	90.287	-0.242	-0.269
-223.669	183.010	-0.044	-0.064
-222.655	-27.227	0.298	-0.173
-221.640	31.662	-0.210	-0.180
-220.625	-200.000	-0.004	-0.265
-219.611	0.199	0.330	0.235
-218.596	39.797	-0.324	-0.289
-217.582	-200.000	-0.025	-0.140
-216.567	33.817	-0.213	0.185
-215.552	61.233	0.113	0.111
-214.538	800.000	-0.140	0.460
-213.523	-80.830	-0.032	-0.010
-212.509	-44.331	-0.265	0.132
-211.494	-65.348	0.162	0.065
-210.479	186.776	0.117	0.173
-209.465	409.239	0.083	0.174
-208.450	281.635	0.129	-0.230
-207.436	-90.865	-0.177	0.051
-206.421	173.511	-0.200	-0.287
-205.406	656.677	-0.086	-0.219
-204.392	-81.158	0.355	-0.117
-203.377	16.849	0.198	-0.156
-202.363	-200.000	0.021	0.214
-201.348	-32.472	0.067	-0.037
-200.333	26.871	-0.213	-0.178
-199.319	32.770	0.186	-0.160
-198.304	800.000	-0.120	0.334
-197.290	30.883	-0.103	-0.088
-196.275	800.000	0.050	0.187
-195.260	-89.348	-0.319	-0.094
-194.246	-200.000	-0.034	-0.167
-193.231	-200.000	0.034	-0.388
-192.217	223.339	-0.138	-0.221
-191.202	-104.018	0.243	0.056
-190.187	-138.258	-0.220	-0.024
-189.173	-200.000	-0.083	-0.472
-188.158	-43.830	0.424	0.212
-187.144	169.290	-0.055	-0.078
-186.129	154.154	0.089	-0.121
-185.114	-200.000	0.033	0.150
-184.100	-200.000	0.047	0.396
-183.085	41.865	-0.083	0.075
-182.071	-200.000	-0.001	0.375
-181.056	77.385	0.184	0.195
-180.042	-63.049	-0.106	-0.044
-179.027	341.035	0.097	-0.188
-178.012	126.384	0.128	-0.162
-176.998	-200.000	0.029	0.203
-175.983	-55.871	0.190	0.084
-174.969	-66.775	-0.089	0.035
-173.954	-40.041	0.207	-0.107
-172.939	243.943	-0.120	-0.200
-171.925	14.314	0.211	-0.164
-170.910	-125.989	-0.301	-0.045
-169.896	54.080	0.116	-0.111
-168.881	-67.970	-0.108	-0.042
-167.866	159.752	0.228	-0.315
-166.852	-19.463	0.219	-0.135
-165.837	422.594	0.050	0.106
-164.823	-200.000	-0.017	0.203
-163.808	-78.080	-0.142	0.049
-162.793	-68.011	-0.046	-0.018
-161.779	800.000	-0.045	0.179
-160.764	-46.538	-0.279	-0.136
-159.750	-48.237	0.298	0.143
-158.735	112.914	0.054	-0.065
-157.720	-200.000	-0.004	-0.139
-156.706	-59.726	-0.278	0.118
-155.691	-200.000	0.013	0.419
-154.677	506.911	-0.048	-0.111
-153.662	-200.000	-0.004	0.077
-152.647	-90.442	-0.310	-0.089
-151.633	-91.812	-0.271	0.076
-150.618	-167.101	-0.196	0.008
-149.604	-48.292	0.200	-0.096
-148.589	-23.055	-0.130	0.078
-147.574	-103.696	-0.338	0.079
-146.560	451.493	-0.070	-0.154
-145.545	-200.000	0.067	-0.380
-144.531	-116.038	-0.259	-0.048
-143.516	47.265	0.363	-0.336
-142.502	800.000	0.018	-0.072
-141.487	-96.894	-0.337	-0.088
-140.472	-33.257	-0.253	-0.139
-139.458	-200.000	-0.030	-0.165
-138.443	63.340	0.203	0.202
-137.429	800.000	-0.101	0.414
-136.414	-200.000	0.002	0.141
-135.399	-200.000	-0.026	-0.139
-134.385	-119.839	0.255	-0.044
-133.370	-58.968	-0.111	-0.047
-132.356	-33.538	0.336	-0.184
-131.341	87.848	0.130	0.143
-130.326	-138.572	0.436	0.048
-129.312	-200.000	0.021	0.303
-128.297	-104.451	-0.511	0.117
-127.283	35.871	-0.260	0.227
-126.268	-200.000	-0.068	0.504
-125.253	-171.940	-0.131	-0.004
-124.239	-200.000	0.022	0.102
-123.224	673.183	0.054	-0.140
-122.210	23.449	-0.237	-0.193
-121.195	97.913	-0.070	0.079
