DTS Sentinel unit serial number:	SN413079Multiplexer serial number:	ORYXHardware model number:	OX4-SRSoftware version number:	ORYX F/W v4.00 Oryx Data Collector v3.7.2.0data status	okinstallation	princeton_trtdifferential loss correction	single-endedforward channel	channel 4reverse channel	N/Adate	2019/09/11time	23:19:11forward acquisition time	60.00reverse acquisition time	0.00gamma	496.2192k internal	0.2309k external	0.2309temperature offset calibration	1.0080default loss term (dB/km)	0.3790temperature slope calibration	1.0000multiplexer offset coefficient	1.0000multiplexer slope coefficient	1.0000fibre end	0.00T internal ref (°C)	34.37T ext. ref 1 (°C)	1.84T ext. ref 2 (°C)	28.55length (m)	temperature (°C)	Stokes	anti-Stokes-747.200	505.949	-0.030	0.071
-746.185	22.452	-0.149	0.124
-745.171	-67.872	-0.074	0.029
-744.156	-11.795	-0.065	-0.044
-743.142	1.920	-0.198	0.145
-742.127	31.904	0.112	0.098
-741.112	-82.887	-0.081	0.026
-740.098	-200.000	-0.013	0.299
-739.083	-200.000	-0.035	0.251
-738.069	153.892	0.074	0.103
-737.054	-108.008	0.149	-0.033
-736.039	-117.373	-0.188	-0.035
-735.025	190.631	0.151	-0.231
-734.010	-200.000	-0.022	-0.296
-732.996	-200.000	0.007	-0.347
-731.981	-110.175	-0.267	0.056
-730.966	51.483	-0.289	-0.279
-729.952	-26.191	-0.084	0.050
-728.937	14.511	-0.189	-0.150
-727.923	-183.500	-0.224	0.004
-726.908	105.956	0.100	0.120
-725.894	-135.300	-0.605	-0.074
-724.879	-19.476	-0.067	0.042
-723.864	125.744	0.287	0.368
-722.850	178.574	-0.045	-0.066
-721.835	-74.850	0.181	0.066
-720.821	169.549	0.140	0.203
-719.806	610.382	-0.114	-0.290
-718.791	61.594	-0.046	0.046
-717.777	800.000	-0.062	-0.175
-716.762	74.103	-0.154	0.164
-715.748	-200.000	0.068	-0.321
-714.733	50.392	-0.121	-0.116
-713.718	66.376	-0.159	-0.163
-712.704	-176.959	-0.140	0.004
-711.689	496.747	0.094	0.220
-710.675	-200.000	-0.018	-0.153
-709.660	120.892	-0.090	-0.114
-708.645	-95.797	0.268	-0.073
-707.631	-200.000	0.017	-0.080
-706.616	402.210	-0.060	-0.129
-705.602	-200.000	-0.046	-0.298
-704.587	800.000	0.045	-0.130
-703.572	-200.000	0.017	-0.132
-702.558	-71.874	-0.350	-0.132
-701.543	324.138	-0.065	-0.126
-700.529	128.690	-0.200	-0.259
-699.514	-42.898	0.202	0.104
-698.499	-101.770	-0.056	0.014
-697.485	-51.379	-0.147	0.070
-696.470	569.053	0.070	-0.172
-695.456	-81.169	-0.171	-0.057
-694.441	88.558	-0.184	-0.208
-693.426	99.591	-0.191	0.224
-692.412	493.566	0.048	0.111
-691.397	0.791	0.243	-0.177
-690.383	225.081	0.032	-0.052
-689.368	-48.408	0.095	0.047
-688.354	-200.000	-0.001	0.081
-687.339	-200.000	-0.001	-0.024
-686.324	800.000	0.099	-0.408
-685.310	-62.430	-0.256	-0.108
-684.295	-36.774	-0.084	0.046
-683.281	-200.000	-0.021	-0.245
-682.266	111.664	-0.254	-0.310
-681.251	300.527	0.101	-0.189
-680.237	-136.474	-0.313	0.037
-679.222	61.542	-0.080	0.081
-678.208	-132.429	-0.112	-0.015
-677.193	304.660	-0.147	0.277
-676.178	-58.894	-0.312	-0.137
-675.164	800.000	-0.139	0.434
-674.149	-76.035	-0.065	-0.023
-673.135	181.585	-0.210	-0.312
-672.120	94.081	0.065	0.074
-671.105	-200.000	-0.026	-0.489
-670.091	321.516	0.186	-0.359
-669.076	-146.951	0.139	0.012
-668.062	188.928	-0.074	-0.112
-667.047	800.000	0.062	-0.200
-666.032	202.273	0.075	0.118
-665.018	-200.000	-0.016	-0.221
-664.003	-74.301	-0.221	-0.081
-662.989	535.239	-0.095	-0.229
-661.974	75.254	0.337	-0.360
-660.959	494.991	0.017	-0.040
-659.945	88.332	-0.160	0.180
-658.930	27.506	0.380	0.324
-657.916	-97.181	-0.346	-0.092
-656.901	-200.000	-0.048	0.287
-655.886	-200.000	-0.010	0.281
-654.872	800.000	-0.021	0.092
-653.857	800.000	-0.043	-0.176
-652.843	800.000	-0.061	-0.244
-651.828	-200.000	-0.005	-0.179
-650.814	-200.000	0.008	-0.338
-649.799	800.000	-0.038	0.154
-648.784	-107.457	-0.087	0.019
-647.770	-200.000	0.058	-0.359
-646.755	800.000	0.074	-0.213
-645.741	-200.000	-0.002	-0.184
-644.726	173.548	-0.015	0.022
-643.711	-200.000	-0.083	-0.403
-642.697	-55.737	-0.150	0.068
-641.682	-42.199	-0.421	0.218
-640.668	-58.336	-0.012	0.005
-639.653	-138.761	-0.051	-0.006
-638.638	112.007	-0.138	0.169
-637.624	516.759	-0.050	-0.118
-636.609	800.000	-0.073	0.244
-635.595	-140.054	-0.145	0.015
-634.580	-142.516	-0.255	-0.025
-633.565	237.308	-0.106	0.178
-632.551	800.000	0.053	-0.202
-631.536	84.047	0.169	-0.187
-630.522	-69.211	0.329	-0.128
-629.507	800.000	0.046	-0.165
-628.492	72.112	0.353	-0.372
-627.478	58.872	0.077	0.077
-626.463	61.480	0.137	0.138
-625.449	-77.936	-0.103	0.036
-624.434	800.000	-0.054	0.237
-623.419	174.010	-0.114	-0.167
-622.405	209.849	0.026	0.041
-621.390	72.180	0.167	-0.176
-620.376	-200.000	-0.011	0.061
-619.361	-200.000	0.029	0.227
-618.346	377.045	-0.015	0.030
-617.332	-64.117	-0.164	-0.068
-616.317	85.476	0.079	0.087
-615.303	33.771	0.124	0.109
-614.288	-155.359	-0.173	0.011
-613.273	527.756	-0.066	0.157
-612.259	49.740	-0.156	-0.148
-611.244	-108.579	0.191	0.041
-610.230	-19.264	-0.128	0.080
-609.215	9.045	-0.212	0.162
-608.201	-10.912	0.196	0.131
-607.186	-53.128	-0.158	-0.074
-606.171	-200.000	0.008	0.336
-605.157	-200.000	0.016	0.183
-604.142	-200.000	0.009	-0.108
-603.128	83.901	-0.329	-0.363
-602.113	-26.402	-0.154	-0.091
-601.098	-200.000	0.020	0.159
-600.084	-90.171	-0.290	-0.085
-599.069	558.298	0.011	0.026
-598.055	499.651	-0.139	0.324
-597.040	140.096	0.142	0.189
-596.025	-200.000	0.022	-0.303
-595.011	-44.832	0.214	-0.108
-593.996	-144.806	0.444	0.041
-592.982	800.000	-0.017	0.072
-591.967	-74.386	0.242	0.088
-590.952	16.054	-0.104	0.083
-589.938	-84.101	-0.018	-0.006
-588.923	49.624	0.131	0.124
-587.909	-64.873	-0.183	0.075
-586.894	-85.052	0.150	-0.047
-585.879	107.095	0.294	0.352
-584.865	-195.629	-0.503	-0.004
-583.850	553.427	0.037	0.089
-582.836	119.459	0.071	0.089
-581.821	-71.140	-0.070	-0.027
-580.806	800.000	0.045	-0.175
-579.792	-140.716	-0.049	0.005
-578.777	218.965	-0.010	0.016
-577.763	-200.000	0.009	0.271
-576.748	193.276	0.147	-0.224
-575.733	266.694	-0.068	0.119
-574.719	-52.384	0.166	-0.078
-573.704	-200.000	-0.081	-0.488
-572.690	-61.973	-0.214	0.090
-571.675	800.000	-0.007	0.027
-570.661	-200.000	-0.004	-0.238
-569.646	222.450	0.149	-0.241
-568.631	-200.000	-0.031	-0.280
-567.617	13.416	0.151	0.118
-566.602	-200.000	-0.006	0.093
-565.588	-141.334	0.122	-0.013
-564.573	800.000	0.049	-0.160
-563.558	37.002	-0.081	-0.072
-562.544	-108.786	-0.464	0.100
-561.529	800.000	-0.055	-0.216
-560.515	150.294	0.126	0.173
-559.500	-200.000	-0.001	0.023
-558.485	-29.480	0.263	-0.152
-557.471	-66.951	0.096	0.038
-556.456	-92.640	-0.094	-0.027
-555.442	34.724	0.213	0.188
-554.427	183.494	0.035	-0.052
-553.412	-193.133	-0.307	0.003
-552.398	-72.249	0.192	0.072
-551.383	-200.000	0.017	-0.282
-550.369	-80.326	-0.169	-0.057
-549.354	493.347	0.020	0.046
-548.339	173.081	0.192	0.279
-547.325	-200.000	0.032	0.210
-546.310	333.719	-0.078	-0.153
-545.296	115.356	-0.141	0.173
-544.281	-94.487	-0.207	-0.057
-543.266	294.394	0.098	0.180
-542.252	-71.638	-0.326	-0.123
-541.237	-125.325	-0.270	0.041
-540.223	-89.185	-0.239	0.071
-539.208	68.236	0.116	-0.120
-538.193	-46.299	0.156	-0.077
-537.179	-75.961	0.148	0.053
-536.164	114.361	-0.104	0.127
-535.150	256.340	0.041	-0.071
-534.135	34.621	0.184	0.162
-533.121	-38.586	-0.107	-0.057
-532.106	-200.000	0.037	0.219
-531.091	-89.365	0.048	0.014
-530.077	-12.963	0.413	-0.271
-529.062	800.000	0.015	-0.056
-528.048	-200.000	0.146	0.000
-527.033	-96.847	0.227	0.060
-526.018	-106.628	0.064	0.014
-525.004	96.443	0.263	-0.304
-523.989	503.440	0.053	-0.123
-522.975	-16.636	-0.213	-0.136
-521.960	-155.086	-0.157	-0.010
-520.945	-200.000	0.001	-0.342
-519.931	-93.479	0.107	-0.030
-518.916	142.775	-0.183	0.244
-517.902	188.393	0.191	-0.288
-516.887	79.725	-0.125	-0.135
-515.872	-71.273	0.201	-0.076
-514.858	260.170	-0.032	-0.056
-513.843	91.546	-0.228	0.257
-512.829	279.381	0.070	0.126
-511.814	-9.631	0.191	-0.128
-510.799	-54.029	0.198	-0.091
-509.785	-114.601	0.447	0.086
-508.770	25.158	-0.192	-0.161
-507.756	772.802	0.058	-0.160
-506.741	800.000	-0.041	-0.168
-505.726	-87.716	-0.166	-0.050
-504.712	-49.998	0.308	-0.147
-503.697	-140.991	-0.147	0.015
-502.683	-60.369	0.333	-0.143
-501.668	800.000	0.072	-0.259
-500.653	-45.972	0.022	-0.011
-499.639	-184.684	0.212	0.003
-498.624	-129.152	0.269	0.038
-497.610	368.579	-0.206	-0.420
-496.595	-200.000	-0.009	-0.149
-495.581	42.847	-0.025	-0.023
-494.566	-18.600	-0.097	0.061
-493.551	-86.757	-0.138	0.043
-492.537	-90.657	0.255	0.074
-491.522	-38.147	0.114	-0.061
-490.508	-200.000	-0.023	0.349
-489.493	0.038	-0.232	-0.166
-488.478	572.809	-0.042	0.103
-487.464	-21.678	0.059	0.036
-486.449	-25.185	-0.228	-0.136
-485.435	800.000	0.048	-0.147
-484.420	92.378	0.194	-0.220
-483.405	-149.844	-0.126	-0.010
-482.391	19.835	-0.309	0.250
-481.376	157.315	0.101	0.141
-480.362	-131.206	0.062	-0.008
-479.347	-75.086	0.297	-0.107
-478.332	57.250	0.171	0.168
-477.318	51.383	-0.161	0.154
-476.303	-147.903	-0.063	0.005
-475.289	-5.783	0.192	0.132
-474.274	213.407	-0.125	0.199
-473.259	-55.405	0.118	0.053
-472.245	-188.868	0.383	0.005
-471.230	-115.346	-0.109	-0.021
-470.216	-10.886	0.123	0.082
-469.201	-200.000	0.042	0.449
-468.186	-73.660	-0.177	-0.065
-467.172	-76.020	-0.189	0.067
-466.157	266.461	0.173	-0.304
-465.143	800.000	0.022	0.088
-464.128	-88.520	-0.335	-0.100
-463.113	-83.490	0.143	-0.046
-462.099	281.482	0.122	0.220
-461.084	166.795	0.096	-0.137
-460.070	52.965	-0.103	-0.099
-459.055	800.000	0.085	-0.309
-458.040	-104.068	0.111	0.026
-457.026	114.697	-0.156	-0.191
-456.011	800.000	-0.057	0.239
-454.997	-200.000	-0.015	-0.114
-453.982	800.000	0.078	-0.267
-452.968	-200.000	0.065	0.435
-451.953	-200.000	0.001	-0.044
-450.938	-88.320	-0.318	0.095
-449.924	800.000	0.058	-0.174
-448.909	96.023	0.137	0.157
-447.895	48.539	-0.155	0.146
-446.880	192.036	-0.091	-0.137
-445.865	-115.748	-0.208	0.039
-444.851	5.355	0.157	0.116
-443.836	-173.637	-0.180	0.005
-442.822	516.069	-0.040	-0.094
-441.807	-200.000	0.068	-0.415
-440.792	-200.000	-0.035	-0.314
-439.778	-27.626	0.055	0.032
-438.763	-189.419	0.330	0.004
-437.749	-14.845	-0.089	0.058
-436.734	186.706	-0.157	0.235
-435.719	-5.956	-0.133	-0.092
-434.705	-200.000	0.028	0.163
-433.690	-200.000	-0.015	-0.316
-432.676	-198.333	-0.208	0.001
-431.661	199.081	-0.115	-0.177
-430.646	-119.367	0.065	0.011
-429.632	-168.123	0.340	-0.013
-428.617	-200.000	0.014	-0.134
-427.603	373.178	-0.110	-0.225
-426.588	248.060	-0.123	0.210
-425.573	0.677	0.146	-0.105
-424.559	647.670	0.058	0.149
-423.544	-94.847	-0.108	0.029
-422.530	628.654	0.021	0.053
-421.515	-200.000	-0.002	0.120
-420.500	131.434	0.172	0.221
-419.486	-87.734	0.310	-0.094
-418.471	355.331	0.120	-0.240
-417.457	50.854	0.310	-0.295
-416.442	198.775	-0.147	0.225
-415.428	-128.529	0.229	0.033
-414.413	54.044	-0.223	-0.215
-413.398	205.897	0.104	0.162
-412.384	293.500	0.159	0.291
-411.369	-73.260	0.131	-0.048
-410.355	222.112	0.105	-0.169
-409.340	-23.355	-0.258	0.155
-408.325	-119.106	-0.266	-0.047
-407.311	-126.167	0.145	-0.022
-406.296	-148.514	-0.262	-0.022
-405.282	-200.000	0.023	0.266
-404.267	191.927	-0.094	-0.142
-403.252	-163.640	-0.058	-0.003
-402.238	247.960	-0.104	0.177
-401.223	-136.102	-0.283	-0.033
-400.209	40.996	-0.051	0.047
-399.194	11.875	-0.146	0.113
-398.179	-45.536	-0.132	-0.066
-397.165	-45.745	0.196	0.097
-396.150	-53.702	0.295	0.135
-395.136	120.633	-0.199	0.248
-394.121	-57.217	0.164	0.072
-393.106	369.173	-0.107	-0.216
-392.092	-31.045	0.295	0.167
-391.077	370.259	0.031	-0.064
-390.063	800.000	0.056	0.199
-389.048	-200.000	0.002	0.190
-388.033	53.915	0.121	-0.117
-387.019	-1.833	-0.216	0.152
-386.004	-25.494	0.203	0.120
-384.990	13.724	-0.310	-0.241
-383.975	-150.498	-0.152	-0.012
-382.960	-200.000	-0.004	0.053
-381.946	120.112	-0.252	0.313
-380.931	114.664	-0.122	-0.150
-379.917	111.133	-0.326	-0.393
-378.902	-200.000	-0.005	0.140
-377.888	-85.836	-0.287	-0.089
-376.873	548.721	0.048	-0.115
-375.858	50.597	-0.159	-0.151
-374.844	-53.256	0.079	-0.036
-373.829	-114.383	-0.137	-0.026
-372.815	-12.342	0.104	0.068
-371.800	-20.317	0.220	-0.136
-370.785	97.621	0.013	0.015
-369.771	-23.220	-0.355	0.214
-368.756	800.000	-0.137	-0.477
-367.742	-200.000	-0.017	-0.436
-366.727	315.110	-0.093	-0.176
-365.712	800.000	-0.088	0.326
-364.698	-200.000	0.040	0.193
-363.683	-200.000	0.011	-0.245
-362.669	-32.109	-0.460	-0.257
-361.654	289.733	-0.033	-0.060
-360.639	-63.109	-0.359	0.148
-359.625	-93.172	-0.053	0.015
-358.610	-56.535	0.227	-0.101
-357.596	23.944	-0.079	0.065
-356.581	357.202	-0.059	-0.118
-355.566	174.794	0.194	0.281
-354.552	15.549	0.243	0.191
-353.537	-200.000	0.001	-0.206
-352.523	31.447	-0.023	-0.020
-351.508	156.761	0.259	-0.358
-350.493	147.452	0.265	-0.358
-349.479	275.547	0.096	-0.171
-348.464	-135.067	-0.394	-0.048
-347.450	67.504	-0.351	-0.358
-346.435	800.000	0.022	-0.069
-345.420	322.282	-0.030	-0.057
-344.406	-4.202	0.313	0.217
-343.391	222.061	0.164	-0.264
-342.377	-128.967	-0.133	-0.019
-341.362	800.000	-0.083	0.244
-340.348	-148.725	-0.222	-0.018
-339.333	-3.245	-0.106	0.074
-338.318	-108.496	0.186	-0.040
-337.304	172.147	-0.162	0.233
-336.289	540.358	-0.088	-0.210
-335.275	-46.491	-0.291	-0.143
-334.260	-18.226	-0.294	0.184
-333.245	-195.920	-0.228	-0.002
-332.231	-115.396	-0.217	0.041
-331.216	108.609	0.189	0.225
-330.202	-200.000	0.008	0.297
-329.187	60.322	-0.192	0.190
-328.172	-82.236	-0.228	0.074
-327.158	38.829	-0.235	0.210
-326.143	-85.491	-0.127	-0.040
-325.129	-95.353	0.206	-0.055
-324.114	-45.677	0.051	0.025
-323.099	-137.470	0.260	-0.029
-322.085	-62.480	0.023	0.009
-321.070	190.538	0.156	0.234
-320.056	-200.000	-0.024	-0.203
-319.041	161.633	-0.031	0.044
-318.026	800.000	0.032	-0.102
-317.012	177.328	-0.058	0.084
-315.997	800.000	-0.114	-0.382
-314.983	237.339	-0.165	-0.274
-313.968	-110.046	-0.191	0.040
-312.953	800.000	0.037	0.119
-311.939	18.261	0.092	-0.073
-310.924	463.612	-0.066	0.147
-309.910	800.000	-0.037	0.128
-308.895	800.000	0.016	0.048
-307.880	-200.000	-0.024	-0.118
-306.866	107.728	0.223	-0.265
-305.851	-90.337	-0.203	0.059
-304.837	117.525	0.211	-0.259
-303.822	344.004	-0.066	0.130
-302.807	-54.250	0.297	0.135
-301.793	-88.691	-0.133	0.039
-300.778	-200.000	0.021	-0.140
-299.764	-109.083	-0.391	0.083
-298.749	800.000	-0.069	0.251
-297.735	800.000	-0.092	0.337
-296.720	-28.818	0.112	-0.064
-295.705	800.000	-0.147	0.517
-294.691	-11.464	-0.157	-0.103
-293.676	609.298	0.128	0.319
-292.662	65.700	-0.247	0.250
-291.647	574.339	0.119	-0.290
-290.632	35.345	-0.137	0.120
-289.618	261.560	0.145	-0.251
-288.603	-56.012	0.276	-0.123
-287.589	-86.838	-0.016	0.005
-286.574	-81.430	0.135	0.044
-285.559	20.556	-0.129	-0.104
-284.545	-92.858	-0.165	-0.046
-283.530	-49.816	0.114	0.054
-282.516	83.062	-0.187	0.203
-281.501	311.654	-0.069	0.129
-280.486	56.043	0.334	0.323
-279.472	423.664	-0.044	-0.095
-278.457	-200.000	0.035	-0.307
-277.443	-114.777	0.246	-0.047
-276.428	-11.449	-0.071	0.046
-275.413	21.350	-0.311	0.252
-274.399	109.312	0.147	0.176
-273.384	59.033	0.131	0.129
-272.370	57.466	0.308	0.300
-271.355	-66.579	0.173	0.068
-270.340	-120.679	-0.053	-0.009
-269.326	-200.000	-0.008	-0.205
-268.311	-200.000	0.013	-0.209
-267.297	-64.750	0.237	-0.096
-266.282	-45.619	-0.390	0.192
-265.267	800.000	0.089	-0.269
-264.253	613.564	0.108	-0.270
-263.238	2.293	-0.098	-0.071
-262.224	24.479	0.202	0.166
-261.209	-4.544	0.343	-0.236
-260.195	-15.960	-0.200	0.127
-259.180	585.388	-0.031	-0.075
-258.165	-57.376	-0.204	0.089
-257.151	47.481	-0.041	0.038
-256.136	442.952	-0.117	0.255
-255.122	-101.284	-0.282	0.069
-254.107	-200.000	0.013	-0.157
-253.092	313.429	-0.037	0.070
-252.078	102.883	0.244	0.285
-251.063	-200.000	-0.007	-0.322
-250.049	-200.000	-0.012	0.122
-249.034	-200.000	0.005	0.187
-248.019	335.368	-0.032	0.063
-247.005	226.235	0.056	-0.090
-245.990	647.836	0.162	0.412
-244.976	-200.000	-0.005	0.374
-243.961	-126.287	-0.104	-0.015
-242.946	800.000	-0.130	-0.526
-241.932	-200.000	0.016	0.207
-240.917	155.469	-0.177	0.243
-239.903	-183.538	0.122	0.002
-238.888	21.038	-0.046	0.037
-237.873	179.896	-0.015	-0.022
-236.859	-200.000	0.015	0.075
-235.844	529.938	0.143	0.337
-234.830	-25.743	0.134	0.079
-233.815	376.546	-0.048	-0.098
-232.800	-200.000	0.005	-0.234
-231.786	-28.834	0.344	0.197
-230.771	162.371	-0.087	-0.121
-229.757	420.756	0.031	-0.066
-228.742	273.996	0.150	0.265
-227.727	167.425	0.177	-0.250
-226.713	-81.627	0.139	-0.045
-225.698	-19.049	-0.222	-0.138
-224.684	800.000	-0.043	0.163
-223.669	-146.147	0.279	0.025
-222.655	14.197	-0.070	0.055
-221.640	-116.849	0.141	-0.026
-220.625	-50.084	-0.202	-0.095
-219.611	208.209	-0.204	-0.317
-218.596	-200.000	0.026	-0.129
-217.582	166.914	-0.241	-0.340
-216.567	-7.211	-0.348	0.235
-215.552	-72.214	-0.119	0.044
-214.538	-114.605	0.050	-0.010
-213.523	1.894	-0.200	-0.144
-212.509	800.000	-0.058	0.180
-211.494	42.617	-0.151	0.137
-210.479	272.282	0.029	0.051
-209.465	-36.199	0.038	-0.020
-208.450	-61.639	-0.205	0.086
-207.436	800.000	0.027	0.086
-206.421	-49.437	-0.159	0.076
-205.406	-11.093	-0.159	-0.104
-204.392	51.708	0.087	0.082
-203.377	-200.000	-0.018	0.159
-202.363	84.481	0.331	0.361
-201.348	-124.678	0.295	-0.046
-200.333	12.870	0.163	0.125
-199.319	63.296	0.160	0.159
-198.304	252.752	0.026	-0.044
-197.290	-20.721	0.035	-0.022
-196.275	-128.599	0.474	0.067
-195.260	0.531	-0.088	-0.062
-194.246	-200.000	0.076	0.419
-193.231	-96.567	-0.176	0.046
-192.217	-23.668	-0.046	-0.028
-191.202	47.555	-0.117	-0.108
-190.187	-142.499	0.092	0.009
-189.173	-200.000	-0.015	0.104
-188.158	86.428	0.152	-0.167
-187.144	52.501	0.082	0.077
-186.129	-125.404	0.251	0.038
-185.114	-200.000	0.033	-0.310
-184.100	351.928	-0.110	-0.216
-183.085	-200.000	0.003	-0.068
-182.071	39.127	0.093	-0.083
-181.056	-60.086	0.194	-0.082
-180.042	-27.939	0.361	-0.208
-179.027	647.679	0.067	-0.169
-178.012	800.000	-0.050	-0.144
-176.998	124.278	-0.179	0.224
-175.983	-27.527	0.284	0.164
-174.969	-113.262	0.279	0.054
-173.954	-200.000	-0.040	0.188
-172.939	-85.937	-0.273	0.084
-171.925	-72.407	-0.157	0.058
-170.910	-100.240	0.127	0.031
-169.896	454.679	-0.092	0.203
-168.881	206.824	0.062	0.096
-167.866	57.481	-0.285	0.276
-166.852	122.174	0.258	0.321
-165.837	-200.000	0.029	-0.354
-164.823	-153.601	0.191	0.013
-163.808	-38.537	0.267	0.140
-162.793	-132.660	-0.188	-0.024
-161.779	70.737	0.103	0.106
-160.764	-200.000	-0.039	-0.532
-159.750	-90.709	0.103	0.030
-158.735	0.136	0.156	0.110
-157.720	-152.000	0.208	-0.015
-156.706	239.297	0.081	-0.133
-155.691	56.797	-0.124	-0.120
-154.677	-82.388	0.315	-0.102
-153.662	-15.528	-0.085	0.054
-152.647	13.888	-0.096	0.074
-151.633	33.852	0.046	-0.040
-150.618	-45.433	-0.231	-0.114
-149.604	-200.000	0.015	0.206
-148.589	-70.469	0.195	0.073
-147.574	203.919	0.168	0.258
-146.560	-163.159	-0.339	0.016
-145.545	-61.414	-0.157	0.066
-144.531	716.848	-0.135	-0.357
-143.516	113.929	0.295	-0.356
-142.502	354.686	-0.203	0.401
-141.487	-33.527	0.157	0.086
-140.472	-200.000	0.024	0.172
-139.458	283.951	-0.154	0.275
-138.443	-189.814	-0.196	-0.002
-137.429	-80.465	0.423	-0.140
-136.414	121.564	-0.069	0.085
-135.399	-200.000	0.028	-0.129
-134.385	-150.391	0.301	-0.023
-133.370	222.941	-0.126	0.201
-132.356	-200.000	-0.026	0.356
-131.341	-42.437	0.136	-0.069
-130.326	-200.000	0.054	-0.238
-129.312	800.000	0.123	-0.427
-128.297	114.430	-0.078	-0.095
-127.283	-165.711	-0.116	-0.005
-126.268	800.000	0.072	-0.285
-125.253	674.071	0.110	-0.282
-124.239	-200.000	0.014	0.484
-123.224	800.000	0.138	-0.387
-122.210	-200.000	-0.033	-0.230
-121.195	800.000	-0.045	0.190
