DTS Sentinel unit serial number:	SN413079Multiplexer serial number:	ORYXHardware model number:	OX4-SRSoftware version number:	ORYX F/W v4.00 Oryx Data Collector v3.7.2.0data status	okinstallation	princeton_trtdifferential loss correction	single-endedforward channel	channel 4reverse channel	N/Adate	2019/09/10time	19:51:11forward acquisition time	60.00reverse acquisition time	0.00gamma	496.2192k internal	0.2310k external	0.2310temperature offset calibration	0.9949default loss term (dB/km)	0.3790temperature slope calibration	1.0000multiplexer offset coefficient	1.0000multiplexer slope coefficient	1.0000fibre end	0.00T internal ref (°C)	32.89T ext. ref 1 (°C)	-0.31T ext. ref 2 (°C)	25.75length (m)	temperature (°C)	Stokes	anti-Stokes-747.200	-200.000	-0.049	0.412
-746.185	743.966	-0.109	0.297
-745.171	313.825	0.183	0.350
-744.156	-125.208	0.051	-0.008
-743.142	-142.947	0.239	-0.024
-742.127	800.000	-0.138	0.445
-741.112	272.347	-0.113	-0.202
-740.098	221.304	-0.032	-0.052
-739.083	539.619	-0.137	-0.331
-738.069	238.411	0.123	-0.208
-737.054	-36.579	0.248	-0.136
-736.039	154.327	0.047	0.066
-735.025	-41.805	-0.128	-0.067
-734.010	-81.465	-0.239	0.080
-732.996	-200.000	-0.046	-0.206
-731.981	197.929	0.097	-0.151
-730.966	267.561	-0.229	-0.407
-729.952	-102.041	-0.222	0.054
-728.937	-200.000	0.041	-0.279
-727.923	-142.073	-0.400	-0.040
-726.908	-94.279	0.115	0.032
-725.894	-104.170	0.237	-0.056
-724.879	-200.000	0.009	-0.284
-723.864	-127.491	-0.101	0.015
-722.850	184.165	0.096	0.145
-721.835	800.000	-0.115	-0.340
-720.821	93.177	-0.288	-0.330
-719.806	-200.000	-0.034	-0.325
-718.791	246.748	-0.138	-0.237
-717.777	202.243	-0.126	0.197
-716.762	-93.251	-0.331	-0.093
-715.748	-48.436	-0.254	-0.124
-714.733	168.676	-0.106	0.154
-713.718	48.366	0.085	0.080
-712.704	370.172	0.088	0.181
-711.689	-133.194	0.239	0.031
-710.675	-9.132	0.070	-0.048
-709.660	-59.919	0.079	-0.034
-708.645	225.898	0.222	-0.366
-707.631	52.316	-0.300	0.290
-706.616	-200.000	-0.005	0.043
-705.602	-31.089	-0.255	0.146
-704.587	-200.000	0.028	0.246
-703.572	-52.712	-0.195	0.091
-702.558	-192.166	-0.091	0.001
-701.543	224.771	0.073	-0.120
-700.529	-49.696	0.400	-0.193
-699.514	68.310	0.151	0.156
-698.499	137.873	0.044	-0.058
-697.485	144.626	-0.127	-0.172
-696.470	-24.116	0.290	-0.175
-695.456	-200.000	0.131	0.000
-694.441	-104.364	-0.121	0.028
-693.426	-139.303	0.074	-0.008
-692.412	-64.313	-0.242	-0.100
-691.397	-34.446	0.127	0.070
-690.383	11.080	-0.254	-0.197
-689.368	-200.000	0.003	0.140
-688.354	151.601	0.154	0.213
-687.339	-94.961	-0.239	-0.065
-686.324	-80.634	-0.239	-0.081
-685.310	-14.244	0.290	-0.190
-684.295	56.345	0.266	-0.262
-683.281	117.464	-0.082	-0.102
-682.266	-20.309	-0.134	0.084
-681.251	130.990	0.117	-0.152
-680.237	-200.000	0.011	-0.137
-679.222	166.155	0.278	-0.398
-678.208	800.000	0.091	-0.285
-677.193	-6.025	0.128	-0.089
-676.178	307.604	-0.142	0.267
-675.164	-3.159	-0.252	-0.178
-674.149	236.183	0.198	0.331
-673.135	-200.000	0.014	0.268
-672.120	90.122	0.096	0.108
-671.105	800.000	0.046	-0.168
-670.091	-14.960	-0.073	0.047
-669.076	-108.614	0.273	-0.059
-668.062	-200.000	-0.002	-0.037
-667.047	-69.781	-0.482	0.187
-666.032	374.930	-0.051	-0.104
-665.018	-38.632	-0.247	-0.132
-664.003	17.498	-0.140	-0.113
-662.989	-69.852	-0.451	0.174
-661.974	87.484	-0.117	-0.131
-660.959	800.000	-0.067	0.248
-659.945	-65.662	-0.086	-0.035
-658.930	800.000	0.025	0.089
-657.916	338.685	-0.043	-0.085
-656.901	541.190	0.124	0.298
-655.886	125.744	0.185	0.237
-654.872	-156.930	0.400	-0.025
-653.857	31.154	0.291	-0.252
-652.843	27.911	-0.090	-0.077
-651.828	-81.537	0.045	-0.015
-650.814	-200.000	-0.001	-0.301
-649.799	-200.000	0.035	-0.262
-648.784	-166.904	-0.273	-0.011
-647.770	800.000	0.034	0.134
-646.755	116.301	0.128	0.158
-645.741	111.706	0.204	-0.249
-644.726	-103.518	0.129	0.031
-643.711	101.739	0.104	0.123
-642.697	-200.000	0.042	0.209
-641.682	-7.133	0.226	0.155
-640.668	-200.000	0.004	-0.043
-639.653	14.544	-0.351	-0.277
-638.638	-4.607	0.308	-0.215
-637.624	800.000	0.033	0.098
-636.609	141.593	-0.319	0.428
-635.595	13.933	0.206	-0.162
-634.580	-200.000	0.067	-0.335
-633.565	37.011	-0.066	-0.059
-632.551	-10.945	0.356	0.238
-631.536	-16.253	-0.382	0.245
-630.522	-65.251	-0.145	-0.059
-629.507	-16.492	-0.266	-0.171
-628.492	770.412	-0.140	-0.386
-627.478	-4.302	0.458	-0.320
-626.463	-32.648	0.164	0.092
-625.449	-40.945	-0.205	-0.107
-624.434	75.512	-0.092	0.098
-623.419	-54.625	-0.194	-0.089
-622.405	233.505	-0.015	0.026
-621.390	-200.000	-0.004	0.194
-620.376	-83.672	0.428	-0.138
-619.361	203.187	-0.251	0.392
-618.346	-116.398	-0.193	-0.036
-617.332	50.290	-0.109	0.104
-616.317	-40.243	0.082	-0.043
-615.303	-200.000	-0.001	0.190
-614.288	800.000	-0.089	0.271
-613.273	-45.725	-0.054	0.027
-612.259	800.000	0.064	0.265
-611.244	443.245	0.195	0.431
-610.230	800.000	0.039	0.112
-609.215	1.807	-0.249	-0.182
-608.201	269.336	0.093	-0.165
-607.186	189.479	-0.152	0.230
-606.171	-200.000	0.024	0.158
-605.157	-71.565	-0.205	-0.077
-604.142	-200.000	0.059	-0.483
-603.128	-131.137	-0.385	0.052
-602.113	-96.557	0.078	0.021
-601.098	-92.038	-0.048	0.014
-600.084	-129.281	-0.171	0.024
-599.069	-129.949	-0.290	-0.040
-598.055	77.766	0.204	0.219
-597.040	-131.756	-0.306	-0.040
-596.025	-142.490	-0.108	0.011
-595.011	545.185	-0.098	-0.235
-593.996	800.000	-0.150	-0.434
-592.982	234.696	0.190	0.316
-591.967	-183.690	0.090	0.002
-590.952	-8.630	0.152	-0.103
-589.938	150.468	-0.110	0.151
-588.923	-177.532	-0.283	-0.007
-587.909	15.366	0.306	0.243
-586.894	10.441	0.008	-0.006
-585.879	-34.309	0.405	-0.224
-584.865	-11.760	-0.126	0.083
-583.850	575.305	-0.018	0.043
-582.836	800.000	-0.042	-0.123
-581.821	-160.728	0.292	0.016
-580.806	-200.000	0.060	0.265
-579.792	800.000	0.099	0.340
-578.777	-108.573	-0.125	-0.027
-577.763	800.000	-0.212	0.684
-576.748	255.462	0.104	-0.179
-575.733	-137.926	-0.319	-0.036
-574.719	-0.259	0.140	0.100
-573.704	-64.939	-0.245	0.100
-572.690	-164.450	0.429	-0.020
-571.675	0.920	-0.187	-0.135
-570.661	148.669	0.230	0.314
-569.646	214.549	-0.165	0.264
-568.631	-200.000	-0.054	-0.415
-567.617	584.370	-0.173	-0.428
-566.602	-143.235	0.127	-0.012
-565.588	176.832	-0.288	-0.422
-564.573	-48.004	0.603	-0.294
-563.558	800.000	-0.088	-0.252
-562.544	212.238	-0.076	-0.121
-561.529	82.775	-0.119	-0.130
-560.515	329.256	0.083	0.161
-559.500	-90.960	-0.256	-0.074
-558.485	183.449	-0.250	-0.373
-557.471	419.164	0.036	0.077
-556.456	-200.000	-0.002	-0.017
-555.442	-23.968	-0.269	-0.162
-554.427	-180.649	-0.122	0.003
-553.412	800.000	0.134	-0.460
-552.398	-15.113	0.050	-0.032
-551.383	-36.364	0.120	0.065
-550.369	443.303	0.065	0.143
-549.354	-188.834	0.126	0.002
-548.339	800.000	0.046	0.191
-547.325	35.505	0.246	-0.218
-546.310	351.168	-0.117	-0.233
-545.296	214.534	0.192	-0.307
-544.281	-137.324	0.141	0.016
-543.266	31.080	-0.145	-0.125
-542.252	84.557	-0.239	0.264
-541.237	655.213	0.113	-0.293
-540.223	-137.163	-0.292	-0.034
-539.208	800.000	0.087	0.351
-538.193	83.073	0.024	-0.026
-537.179	238.159	0.149	-0.250
-536.164	752.988	-0.008	-0.022
-535.150	-139.954	0.370	-0.039
-534.135	318.864	0.194	0.370
-533.121	-55.998	-0.222	0.100
-532.106	-32.631	-0.122	-0.068
-531.091	20.502	-0.165	-0.134
-530.077	-54.550	-0.296	0.135
-529.062	738.914	0.065	0.177
-528.048	-12.923	0.229	-0.150
-527.033	76.951	-0.113	-0.121
-526.018	-159.037	0.400	0.023
-525.004	13.253	-0.198	-0.155
-523.989	-47.138	0.178	-0.087
-522.975	131.008	-0.193	-0.249
-521.960	-39.885	0.195	-0.102
-520.945	63.341	0.144	0.146
-519.931	71.554	0.184	-0.192
-518.916	228.901	-0.031	-0.052
-517.902	-200.000	0.029	-0.206
-516.887	575.423	0.100	-0.246
-515.872	622.712	-0.053	0.133
-514.858	-119.048	-0.213	0.038
-513.843	45.320	0.281	0.261
-512.829	218.905	0.116	0.186
-511.814	204.156	0.078	-0.121
-510.799	0.759	0.318	0.229
-509.785	-200.000	0.034	-0.183
-508.770	-119.333	0.081	0.014
-507.756	-113.773	0.120	-0.024
-506.741	-34.760	0.049	-0.027
-505.726	-151.006	-0.410	0.031
-504.712	-81.080	0.271	-0.090
-503.697	131.301	0.128	0.165
-502.683	-171.499	0.122	-0.004
-501.668	561.713	0.140	-0.341
-500.653	438.982	0.060	0.131
-499.639	-200.000	0.002	0.189
-498.624	404.608	0.103	0.218
-497.610	-112.185	0.076	0.015
-496.595	146.135	0.235	0.317
-495.581	-200.000	-0.001	-0.202
-494.566	-200.000	-0.051	-0.245
-493.551	13.355	-0.562	-0.438
-492.537	35.867	0.083	-0.073
-491.522	-136.037	0.195	-0.023
-490.508	113.007	-0.147	0.179
-489.493	-61.290	-0.126	-0.053
-488.478	-92.463	0.238	0.067
-487.464	800.000	-0.063	0.202
-486.449	-200.000	-0.024	-0.205
-485.435	800.000	-0.082	0.247
-484.420	800.000	-0.104	-0.317
-483.405	-115.940	-0.386	0.072
-482.391	-141.230	0.347	-0.036
-481.376	-124.171	0.140	0.022
-480.362	-200.000	0.037	0.284
-479.347	-74.139	-0.198	0.072
-478.332	243.333	0.118	-0.198
-477.318	185.349	-0.063	-0.094
-476.303	-19.813	0.073	0.045
-475.289	-64.630	0.120	-0.049
-474.274	-150.391	-0.122	-0.009
-473.259	800.000	-0.047	0.172
-472.245	-15.490	-0.106	-0.068
-471.230	-64.400	0.218	0.089
-470.216	-200.000	0.007	0.054
-469.201	-102.354	0.159	0.038
-468.186	-103.316	0.066	-0.016
-467.172	800.000	0.058	-0.177
-466.157	800.000	-0.058	-0.165
-465.143	-19.747	-0.239	0.149
-464.128	-200.000	-0.028	0.152
-463.113	-92.008	-0.199	0.057
-462.099	-200.000	0.040	0.200
-461.084	-7.219	-0.170	0.116
-460.070	-99.704	0.160	0.040
-459.055	-200.000	-0.022	-0.127
-458.040	-200.000	-0.005	0.029
-457.026	-200.000	0.021	0.215
-456.011	243.074	0.193	0.325
-454.997	-94.640	0.320	-0.087
-453.982	-200.000	-0.027	0.299
-452.968	800.000	0.046	-0.163
-451.953	-31.352	-0.331	0.187
-450.938	-149.394	-0.156	-0.012
-449.924	89.043	0.177	0.197
-448.909	-85.692	-0.329	-0.102
-447.895	-26.781	0.193	0.113
-446.880	-200.000	0.012	-0.192
-445.865	19.421	-0.147	-0.119
-444.851	800.000	0.055	-0.177
-443.836	-114.132	-0.192	0.037
-442.822	-138.883	-0.142	0.016
-441.807	360.349	0.194	0.390
-440.792	-117.787	-0.335	-0.060
-439.778	10.485	-0.146	-0.112
-438.763	712.003	-0.042	-0.111
-437.749	-118.545	0.332	0.059
-436.734	39.505	-0.155	0.139
-435.719	-47.408	-0.388	0.189
-434.705	-29.241	0.087	0.050
-433.690	-52.995	-0.107	-0.049
-432.676	3.840	-0.291	0.214
-431.661	34.951	0.079	-0.069
-430.646	-60.995	-0.184	0.078
-429.632	51.136	0.278	-0.264
-428.617	-200.000	-0.014	-0.265
-427.603	54.661	-0.128	0.124
-426.588	-200.000	-0.071	0.372
-425.573	138.763	0.210	0.277
-424.559	800.000	0.051	0.175
-423.544	-54.533	0.033	0.015
-422.530	-158.238	0.076	0.004
-421.515	-200.000	-0.029	-0.344
-420.500	139.395	-0.212	-0.280
-419.486	72.899	0.079	0.083
-418.471	800.000	0.052	0.144
-417.457	-83.486	0.380	-0.122
-416.442	-72.969	-0.122	0.045
-415.428	239.317	0.143	0.239
-414.413	-107.982	-0.081	0.018
-413.398	-21.352	-0.466	0.285
-412.384	-60.866	0.266	-0.113
-411.369	-97.462	0.183	0.048
-410.355	70.779	-0.231	0.240
-409.340	244.465	0.096	-0.161
-408.325	-200.000	0.034	-0.325
-407.311	-80.509	0.143	-0.048
-406.296	79.319	0.104	-0.112
-405.282	605.123	0.109	-0.272
-404.267	86.472	-0.145	-0.161
-403.252	367.135	-0.124	-0.251
-402.238	-200.000	-0.333	0.001
-401.223	148.321	0.019	-0.026
-400.209	-92.282	-0.247	0.070
-399.194	-60.922	-0.292	0.124
-398.179	101.506	-0.216	0.252
-397.165	-200.000	-0.036	-0.193
-396.150	800.000	-0.092	0.315
-395.136	-92.218	0.254	0.072
-394.121	800.000	-0.068	0.247
-393.106	0.824	-0.225	-0.162
-392.092	427.749	0.125	0.270
-391.077	-200.000	-0.009	-0.133
-390.063	-200.000	-0.039	0.176
-389.048	-78.046	0.074	-0.025
-388.033	800.000	0.158	-0.445
-387.019	89.581	0.108	-0.120
-386.004	-200.000	-0.009	0.082
-384.990	-130.745	0.403	0.054
-383.975	-26.153	0.408	0.240
-382.960	478.278	-0.041	0.093
-381.946	-200.000	-0.080	0.452
-380.931	-171.796	-0.273	0.009
-379.917	-200.000	-0.006	-0.153
-378.902	352.720	0.051	0.101
-377.888	695.213	-0.054	0.141
-376.873	-200.000	0.007	-0.126
-375.858	-117.665	-0.154	-0.028
-374.844	-196.835	-0.012	0.000
-373.829	-200.000	0.027	-0.212
-372.815	25.161	-0.162	-0.134
-371.800	85.423	0.146	-0.160
-370.785	800.000	-0.147	0.420
-369.771	-62.195	-0.087	-0.036
-368.756	-200.000	-0.008	0.337
-367.742	52.110	0.053	0.051
-366.727	-164.607	0.165	0.007
-365.712	-146.556	0.208	-0.018
-364.698	-90.080	-0.316	0.092
-363.683	77.500	-0.391	-0.416
-362.669	-166.014	0.141	-0.006
-361.654	709.133	-0.037	-0.098
-360.639	219.352	-0.275	0.440
-359.625	104.479	-0.221	-0.260
-358.610	31.947	-0.092	-0.080
-357.596	105.484	0.217	0.256
-356.581	-71.281	-0.236	0.089
-355.566	-71.594	0.274	0.103
-354.552	-36.870	-0.025	-0.013
-353.537	-73.992	0.155	-0.056
-352.523	42.978	0.104	-0.095
-351.508	33.748	0.164	-0.142
-350.493	-200.000	-0.014	-0.296
-349.479	-72.634	-0.228	-0.084
-348.464	45.580	0.058	-0.053
-347.450	54.828	-0.153	-0.148
-346.435	157.631	0.037	-0.051
-345.420	800.000	-0.057	0.245
-344.406	165.231	0.144	-0.203
-343.391	-200.000	0.028	0.127
-342.377	181.625	0.079	0.116
-341.362	-92.522	0.159	-0.045
-340.348	23.010	-0.315	-0.258
-339.333	-27.655	-0.365	0.212
-338.318	-102.084	0.323	0.078
-337.304	-200.000	0.004	-0.219
-336.289	-200.000	-0.019	-0.166
-335.275	-169.940	-0.125	-0.004
-334.260	202.523	-0.119	0.184
-333.245	9.108	0.372	-0.280
-332.231	-200.000	-0.088	0.586
-331.216	148.011	-0.099	-0.134
-330.202	216.928	0.159	-0.253
-329.187	37.103	0.118	0.104
-328.172	-139.648	-0.384	0.041
-327.158	-73.634	0.370	-0.135
-326.143	409.234	-0.050	-0.106
-325.129	438.221	-0.051	-0.111
-324.114	800.000	0.066	0.265
-323.099	-79.484	-0.149	-0.050
-322.085	-78.595	0.176	-0.060
-321.070	620.054	-0.105	-0.263
-320.056	469.548	-0.153	0.344
-319.041	800.000	0.133	0.377
-318.026	5.802	-0.152	-0.112
-317.012	-200.000	0.015	-0.184
-315.997	108.023	0.059	-0.070
-314.983	-200.000	0.013	0.133
-313.968	-96.637	0.053	-0.014
-312.953	-122.474	0.102	-0.017
-311.939	-200.000	0.011	0.102
-310.924	-21.677	-0.069	0.042
-309.910	-37.037	-0.128	0.069
-308.895	138.367	0.071	-0.093
-307.880	7.269	0.306	0.228
-306.866	284.750	0.097	-0.175
-305.851	800.000	0.068	0.265
-304.837	800.000	-0.009	-0.033
-303.822	50.440	-0.230	-0.217
-302.807	-89.327	0.387	-0.114
-301.793	800.000	-0.076	-0.265
-300.778	-78.793	0.171	-0.058
-299.764	120.276	0.247	0.305
-298.749	-200.000	-0.059	0.387
-297.735	-40.206	-0.377	-0.196
-296.720	96.992	0.131	0.150
-295.705	799.598	-0.102	-0.282
-294.691	-104.738	0.027	0.006
-293.676	-113.926	0.041	-0.008
-292.662	-172.546	0.221	-0.007
-291.647	8.504	0.062	-0.047
-290.632	-83.015	0.116	0.037
-289.618	-200.000	0.051	0.278
-288.603	-139.887	0.160	0.017
-287.589	62.762	0.053	0.053
-286.574	-200.000	0.015	-0.096
-285.559	441.997	0.014	-0.030
-284.545	-9.098	-0.181	-0.121
-283.530	78.899	0.211	0.226
-282.516	-58.165	-0.059	0.026
-281.501	50.412	-0.068	-0.064
-280.486	70.925	0.082	-0.085
-279.472	32.653	0.124	0.107
-278.457	-80.025	0.202	0.068
-277.443	26.722	-0.220	-0.184
-276.428	-200.000	-0.001	0.199
-275.413	-64.616	0.217	-0.088
-274.399	521.160	-0.015	0.036
-273.384	800.000	-0.066	-0.208
-272.370	1.538	0.213	0.153
-271.355	800.000	-0.014	0.061
-270.340	-36.279	-0.183	0.098
-269.326	-110.515	-0.183	-0.038
-268.311	53.900	0.228	0.218
-267.297	434.716	-0.022	-0.048
-266.282	-121.230	-0.188	0.031
-265.267	58.697	-0.065	-0.063
-264.253	117.643	0.100	-0.123
-263.238	64.404	-0.068	-0.068
-262.224	-20.119	-0.054	-0.033
-261.209	-200.000	-0.027	-0.150
-260.195	18.853	0.111	0.088
-259.180	-113.428	0.127	0.025
-258.165	-200.000	0.012	0.302
-257.151	800.000	0.014	-0.055
-256.136	50.592	-0.029	-0.027
-255.122	-28.249	0.199	0.115
-254.107	-29.596	0.242	0.138
-253.092	-200.000	0.010	-0.243
-252.078	-200.000	-0.061	-0.605
-251.063	443.923	0.015	0.033
-250.049	-49.731	-0.286	-0.135
-249.034	198.921	-0.014	0.021
-248.019	186.028	0.101	-0.150
-247.005	164.196	0.164	-0.231
-245.990	-68.869	-0.331	0.127
-244.976	389.449	0.107	-0.222
-243.961	188.952	0.132	0.197
-242.946	-200.000	-0.017	0.109
-241.932	281.085	-0.093	0.166
-240.917	-144.640	0.114	-0.010
-239.903	19.218	0.073	0.058
-238.888	69.812	-0.066	0.068
-237.873	317.065	0.197	-0.371
-236.859	800.000	0.051	-0.170
-235.844	-175.085	-0.231	-0.006
-234.830	-35.618	0.112	0.061
-233.815	90.896	0.035	-0.039
-232.800	-129.426	-0.134	-0.018
-231.786	-200.000	-0.008	0.095
-230.771	800.000	0.058	0.236
-229.757	148.711	0.077	-0.104
-228.742	-160.339	0.452	-0.024
-227.727	-53.046	-0.135	-0.062
-226.713	737.176	0.068	0.180
-225.698	-165.856	-0.056	-0.002
-224.684	-17.648	-0.055	-0.034
-223.669	-98.618	-0.099	0.025
-222.655	121.168	-0.050	-0.062
-221.640	478.450	0.094	-0.211
-220.625	112.524	-0.222	-0.267
-219.611	62.198	0.315	0.313
-218.596	216.484	-0.145	0.230
-217.582	800.000	0.049	-0.137
-216.567	-200.000	-0.011	-0.185
-215.552	-200.000	0.032	0.142
-214.538	-71.127	-0.242	0.090
-213.523	222.690	0.046	0.074
-212.509	106.451	0.075	-0.089
-211.494	135.492	-0.069	-0.089
-210.479	110.998	-0.345	0.413
-209.465	93.010	0.265	0.298
-208.450	196.859	-0.120	-0.182
-207.436	222.858	-0.011	-0.018
-206.421	-64.333	-0.077	-0.031
-205.406	-69.363	0.207	-0.079
-204.392	800.000	0.051	-0.204
-203.377	84.637	-0.239	0.260
-202.363	441.485	-0.132	-0.287
-201.348	-105.260	-0.297	0.067
-200.333	-79.682	0.288	-0.097
-199.319	238.795	-0.198	-0.327
-198.304	462.348	0.094	-0.209
-197.290	800.000	-0.049	0.180
-196.275	79.559	-0.044	0.047
-195.260	1.970	0.191	-0.137
-194.246	-116.876	-0.140	-0.025
-193.231	-151.424	-0.195	0.014
-192.217	-200.000	-0.036	0.161
-191.202	197.849	0.028	0.042
-190.187	-200.000	0.015	-0.155
-189.173	685.486	-0.104	-0.269
-188.158	-18.482	-0.197	-0.122
-187.144	11.534	-0.062	0.048
-186.129	-35.789	-0.218	0.117
-185.114	761.376	-0.146	-0.394
-184.100	-200.000	0.003	-0.237
-183.085	10.287	0.124	0.094
-182.071	-200.000	-0.033	-0.329
-181.056	-131.709	0.159	0.021
-180.042	-200.000	0.033	0.158
-179.027	-78.986	-0.344	-0.116
-178.012	-5.035	-0.130	0.089
-176.998	-200.000	-0.008	-0.114
-175.983	-200.000	-0.042	0.219
-174.969	800.000	0.077	0.216
-173.954	-200.000	0.037	0.175
-172.939	-148.981	0.263	0.021
-171.925	-38.251	-0.145	0.076
-170.910	90.790	0.235	0.262
-169.896	346.383	-0.142	0.277
-168.881	10.993	0.229	-0.174
-167.866	195.841	-0.204	-0.308
-166.852	-116.993	0.268	0.049
-165.837	-50.455	0.208	0.098
-164.823	-2.920	0.158	0.110
-163.808	-200.000	-0.022	0.145
-162.793	-136.751	0.453	0.052
-161.779	-48.815	-0.369	-0.176
-160.764	8.622	0.178	0.133
-159.750	130.027	0.047	0.059
-158.735	-87.235	-0.129	-0.039
-157.720	478.715	-0.101	0.227
-156.706	479.910	0.037	-0.082
-155.691	302.633	0.094	0.172
-154.677	800.000	-0.022	-0.083
-153.662	142.725	-0.201	-0.265
-152.647	-52.347	0.203	0.093
-151.633	195.129	-0.108	0.163
-150.618	289.022	0.158	0.284
-149.604	-169.923	-0.206	0.007
-148.589	-150.555	-0.246	-0.019
-147.574	303.909	-0.068	-0.126
-146.560	153.853	0.157	0.214
-145.545	800.000	0.105	0.325
-144.531	157.353	-0.122	-0.168
-143.516	-83.759	-0.321	-0.102
-142.502	-200.000	-0.035	-0.401
-141.487	647.896	0.034	0.087
-140.472	-200.000	-0.006	0.056
-139.458	8.190	-0.209	0.155
-138.443	401.811	-0.118	-0.247
-137.429	800.000	-0.074	-0.301
-136.414	800.000	-0.158	0.505
-135.399	48.221	-0.228	0.211
-134.385	-47.103	-0.215	-0.104
-133.370	-124.854	-0.131	-0.020
-132.356	-200.000	0.054	-0.236
-131.341	85.831	0.043	-0.047
-130.326	-105.183	0.142	-0.032
-129.312	-63.746	0.244	-0.099
-128.297	-200.000	-0.035	-0.246
-127.283	-91.707	-0.239	0.068
-126.268	-36.788	-0.186	-0.099
-125.253	108.866	-0.082	-0.097
-124.239	-38.893	-0.119	0.062
-123.224	-54.823	-0.159	0.071
-122.210	-48.880	-0.203	-0.097
-121.195	-23.087	-0.227	-0.136
