DTS Sentinel unit serial number:	SN413079Multiplexer serial number:	ORYXHardware model number:	OX4-SRSoftware version number:	ORYX F/W v4.00 Oryx Data Collector v3.7.2.0data status	okinstallation	princeton_trtdifferential loss correction	single-endedforward channel	channel 4reverse channel	N/Adate	2019/09/11time	09:15:10forward acquisition time	60.00reverse acquisition time	0.00gamma	496.2192k internal	0.2300k external	0.2300temperature offset calibration	0.9971default loss term (dB/km)	0.3790temperature slope calibration	1.0000multiplexer offset coefficient	1.0000multiplexer slope coefficient	1.0000fibre end	0.00T internal ref (°C)	34.37T ext. ref 1 (°C)	0.11T ext. ref 2 (°C)	30.77length (m)	temperature (°C)	Stokes	anti-Stokes-747.200	-92.244	-0.102	0.029
-746.185	-200.000	0.019	-0.226
-745.171	-3.397	0.295	-0.209
-744.156	74.554	-0.309	0.331
-743.142	-200.000	0.017	-0.173
-742.127	-200.000	0.042	0.200
-741.112	484.102	0.029	-0.067
-740.098	-101.402	-0.177	0.044
-739.083	353.087	0.099	-0.200
-738.069	-200.000	0.042	-0.270
-737.054	-21.348	0.285	-0.177
-736.039	-81.949	-0.261	0.087
-735.025	0.753	-0.213	-0.156
-734.010	74.174	-0.196	-0.210
-732.996	285.432	0.099	0.183
-731.981	103.035	0.091	0.109
-730.966	70.374	0.181	-0.191
-729.952	-120.974	-0.237	-0.041
-728.937	98.453	0.085	0.100
-727.923	-200.000	0.007	-0.147
-726.908	289.248	0.238	-0.440
-725.894	-67.785	-0.028	0.011
-724.879	-200.000	-0.040	0.208
-723.864	800.000	0.060	0.236
-722.850	-200.000	-0.038	0.321
-721.835	72.145	-0.229	-0.243
-720.821	800.000	-0.165	-0.553
-719.806	-154.664	-0.198	-0.013
-718.791	-23.673	-0.075	-0.046
-717.777	-49.863	-0.289	-0.140
-716.762	-200.000	0.010	-0.209
-715.748	-44.639	0.139	-0.071
-714.733	-39.056	-0.306	0.164
-713.718	7.996	-0.166	-0.127
-712.704	-0.564	-0.272	0.196
-711.689	38.440	0.146	-0.133
-710.675	-155.285	-0.171	0.011
-709.660	120.527	-0.234	-0.296
-708.645	-6.240	-0.268	0.186
-707.631	-79.015	0.266	-0.092
-706.616	800.000	0.069	0.287
-705.602	95.630	-0.070	-0.081
-704.587	9.254	-0.089	0.069
-703.572	800.000	-0.083	-0.247
-702.558	-22.574	-0.206	0.127
-701.543	-99.951	-0.270	0.069
-700.529	209.523	-0.174	-0.278
-699.514	-29.516	0.175	-0.102
-698.499	-200.000	0.009	0.300
-697.485	86.838	0.147	0.166
-696.470	50.058	0.166	0.160
-695.456	74.881	0.159	0.171
-694.441	-200.000	-0.021	-0.193
-693.426	-130.001	-0.350	-0.049
-692.412	2.540	-0.159	-0.117
-691.397	-66.061	-0.255	-0.104
-690.383	-103.662	-0.196	0.047
-689.368	469.893	0.117	0.267
-688.354	-86.336	-0.141	-0.044
-687.339	800.000	-0.038	-0.124
-686.324	-23.648	0.291	-0.178
-685.310	35.271	0.039	0.035
-684.295	461.316	0.044	0.099
-683.281	-200.000	0.035	-0.158
-682.266	-17.784	-0.161	0.103
-681.251	-65.502	-0.177	0.072
-680.237	148.409	0.067	0.093
-679.222	-200.000	-0.010	-0.072
-678.208	-18.904	-0.019	0.012
-677.193	-200.000	0.020	0.121
-676.178	-200.000	-0.032	-0.252
-675.164	800.000	0.073	-0.318
-674.149	-200.000	-0.018	-0.368
-673.135	73.165	-0.155	0.165
-672.120	-28.081	-0.264	-0.156
-671.105	-200.000	-0.064	-0.299
-670.091	800.000	0.052	-0.182
-669.076	-69.081	-0.209	-0.082
-668.062	-161.892	-0.071	-0.004
-667.047	44.024	-0.154	-0.144
-666.032	-200.000	-0.002	-0.195
-665.018	-127.429	-0.366	0.054
-664.003	-50.694	-0.162	0.078
-662.989	86.443	-0.244	-0.274
-661.974	800.000	0.097	0.276
-660.959	800.000	0.069	-0.226
-659.945	-39.583	-0.253	-0.135
-658.930	100.373	0.066	0.078
-657.916	-77.272	0.221	-0.078
-656.901	-7.159	0.100	0.069
-655.886	413.477	0.049	-0.106
-654.872	563.905	-0.164	-0.404
-653.857	-90.452	0.200	0.059
-652.843	3.600	0.211	0.156
-651.828	218.906	0.083	0.135
-650.814	-200.000	-0.107	0.605
-649.799	156.118	0.207	0.290
-648.784	7.444	0.072	0.055
-647.770	0.069	-0.122	-0.088
-646.755	94.536	0.245	-0.283
-645.741	-38.294	-0.197	-0.106
-644.726	89.058	-0.063	0.071
-643.711	407.809	0.084	0.181
-642.697	169.457	0.037	-0.053
-641.682	-135.427	0.189	0.023
-640.668	-200.000	-0.006	0.171
-639.653	45.413	-0.060	-0.056
-638.638	403.655	0.078	-0.166
-637.624	-200.000	-0.008	0.119
-636.609	-74.195	0.124	0.045
-635.595	365.425	-0.099	-0.202
-634.580	-86.305	0.152	0.047
-633.565	-115.747	0.102	0.019
-632.551	-56.960	-0.477	-0.214
-631.536	78.991	-0.312	-0.339
-630.522	256.645	0.154	0.268
-629.507	-200.000	0.022	-0.359
-628.492	-64.049	-0.347	0.144
-627.478	28.192	0.180	-0.154
-626.463	-147.566	-0.119	0.010
-625.449	506.762	0.051	0.121
-624.434	358.990	-0.135	0.274
-623.419	-53.560	-0.244	0.113
-622.405	-46.436	0.202	-0.101
-621.390	-115.069	-0.221	-0.043
-620.376	-172.367	0.341	-0.011
-619.361	-139.647	-0.245	-0.026
-618.346	-200.000	0.061	-0.278
-617.332	110.794	-0.052	0.064
-616.317	-46.282	0.093	-0.046
-615.303	-200.000	0.060	-0.329
-614.288	477.455	-0.065	0.149
-613.273	-11.982	-0.086	-0.057
-612.259	-200.000	-0.003	-0.093
-611.244	-200.000	0.005	-0.076
-610.230	-85.856	0.178	0.056
-609.215	-54.599	-0.336	-0.154
-608.201	103.351	-0.186	0.221
-607.186	-69.412	0.621	-0.242
-606.171	357.497	0.033	-0.067
-605.157	65.514	-0.180	-0.185
-604.142	675.065	0.038	-0.100
-603.128	42.510	-0.329	-0.304
-602.113	-103.270	-0.148	0.035
-601.098	-113.546	0.183	0.036
-600.084	-165.927	-0.162	0.007
-599.069	2.873	0.179	0.132
-598.055	-0.577	-0.221	0.159
-597.040	39.279	0.095	0.086
-596.025	-86.641	-0.285	-0.088
-595.011	-151.614	-0.212	0.016
-593.996	-23.621	-0.383	0.233
-592.982	82.197	0.276	-0.304
-591.967	800.000	-0.128	-0.401
-590.952	-77.894	0.106	0.037
-589.938	784.939	0.152	0.422
-588.923	-200.000	0.043	0.197
-587.909	-81.209	0.438	0.147
-586.894	-43.362	-0.251	0.129
-585.879	200.439	-0.021	-0.032
-584.865	1.344	-0.221	0.161
-583.850	198.115	-0.103	-0.159
-582.836	-200.000	-0.000	0.327
-581.821	-112.575	-0.122	-0.025
-580.806	61.411	-0.091	-0.092
-579.792	393.937	0.133	-0.281
-578.777	348.081	-0.042	0.084
-577.763	300.107	0.022	0.041
-576.748	800.000	-0.107	0.340
-575.733	-98.870	-0.343	-0.088
-574.719	-60.995	-0.142	-0.061
-573.704	-200.000	-0.113	0.000
-572.690	-200.000	0.018	-0.623
-571.675	800.000	-0.037	-0.166
-570.661	-200.000	0.026	0.121
-569.646	278.853	0.021	-0.038
-568.631	-113.052	-0.148	0.030
-567.617	-128.213	-0.353	-0.051
-566.602	800.000	-0.034	0.143
-565.588	57.213	-0.197	0.194
-564.573	713.284	-0.084	0.226
-563.558	745.776	0.071	-0.194
-562.544	-12.689	0.176	0.116
-561.529	170.944	0.045	0.065
-560.515	-200.000	0.014	-0.199
-559.500	-23.162	0.114	-0.070
-558.485	-200.000	-0.030	0.334
-557.471	-31.289	0.237	-0.135
-556.456	-200.000	-0.032	-0.450
-555.442	561.369	0.102	-0.250
-554.427	778.838	-0.131	-0.363
-553.412	800.000	0.119	-0.337
-552.398	-34.166	0.285	0.159
-551.383	800.000	-0.039	-0.133
-550.369	271.899	-0.064	-0.115
-549.354	-200.000	-0.001	-0.095
-548.339	28.963	-0.157	-0.135
-547.325	129.693	-0.051	0.066
-546.310	-200.000	-0.070	0.345
-545.296	5.319	0.095	0.071
-544.281	210.038	-0.118	0.187
-543.266	-10.195	0.286	0.192
-542.252	24.080	0.056	0.046
-541.237	253.333	0.073	-0.126
-540.223	-200.000	0.006	0.135
-539.208	-25.876	0.191	0.114
-538.193	683.663	-0.125	-0.330
-537.179	-88.748	-0.250	0.075
-536.164	-194.892	-0.071	-0.001
-535.150	123.728	0.136	-0.173
-534.135	-53.674	0.375	-0.174
-533.121	-200.000	0.006	0.165
-532.106	201.273	-0.112	0.174
-531.091	-200.000	0.054	-0.251
-530.077	16.195	-0.092	-0.073
-529.062	77.776	-0.129	0.139
-528.048	145.260	0.048	-0.065
-527.033	-146.819	0.251	0.022
-526.018	25.037	0.174	0.146
-525.004	800.000	0.029	-0.123
-523.989	-1.489	-0.138	-0.099
-522.975	125.549	-0.039	-0.050
-521.960	703.181	-0.070	0.187
-520.945	104.891	0.286	-0.341
-519.931	86.856	0.122	-0.136
-518.916	228.404	0.107	-0.176
-517.902	-63.309	-0.279	0.116
-516.887	-89.970	-0.163	-0.048
-515.872	-10.473	-0.046	0.031
-514.858	-200.000	0.009	-0.142
-513.843	-200.000	-0.080	-0.371
-512.829	-200.000	0.016	0.347
-511.814	-96.259	0.316	0.085
-510.799	140.982	0.198	0.265
-509.785	800.000	-0.082	-0.291
-508.770	512.567	-0.004	0.010
-507.756	413.921	-0.090	0.193
-506.741	-0.389	0.157	-0.113
-505.726	485.185	-0.071	0.164
-504.712	-162.851	0.164	-0.008
-503.697	242.356	-0.225	0.381
-502.683	-148.924	0.185	0.015
-501.668	800.000	-0.047	0.146
-500.653	-33.395	0.398	0.222
-499.639	-200.000	0.030	-0.250
-498.624	-12.393	-0.232	-0.153
-497.610	-200.000	-0.025	-0.200
-496.595	-200.000	0.009	-0.158
-495.581	-32.020	0.057	0.032
-494.566	-200.000	0.034	0.160
-493.551	-77.485	0.048	0.017
-492.537	-200.000	-0.030	-0.239
-491.522	-200.000	-0.047	0.247
-490.508	-120.581	-0.125	-0.021
-489.493	484.912	0.017	-0.038
-488.478	-31.960	0.232	-0.131
-487.464	-125.300	-0.093	-0.014
-486.449	-200.000	0.020	-0.244
-485.435	-170.662	0.253	-0.009
-484.420	-54.355	-0.251	0.115
-483.405	-200.000	-0.046	0.217
-482.391	-170.893	0.307	-0.011
-481.376	-49.492	-0.159	0.076
-480.362	130.333	-0.082	0.106
-479.347	-200.000	-0.006	-0.158
-478.332	275.079	0.107	0.192
-477.318	-100.592	0.119	0.030
-476.303	185.101	-0.132	-0.198
-475.289	12.616	-0.188	0.146
-474.274	207.826	-0.043	-0.068
-473.259	800.000	-0.071	-0.213
-472.245	-77.667	0.245	-0.086
-471.230	-200.000	0.039	0.315
-470.216	-200.000	0.006	0.109
-469.201	-45.675	-0.391	-0.195
-468.186	-52.780	-0.343	0.160
-467.172	234.202	0.127	-0.211
-466.157	-200.000	0.047	0.261
-465.143	-3.235	0.112	-0.079
-464.128	800.000	-0.020	-0.067
-463.113	655.859	-0.091	-0.237
-462.099	-68.839	0.169	-0.066
-461.084	-77.276	0.240	0.084
-460.070	184.228	0.120	0.180
-459.055	-74.091	0.162	-0.059
-458.040	137.843	-0.105	0.139
-457.026	-200.000	0.024	0.213
-456.011	-200.000	0.000	0.147
-454.997	-60.448	-0.038	-0.016
-453.982	35.054	-0.078	-0.069
-452.968	758.740	0.078	-0.214
-451.953	-5.397	0.167	-0.115
-450.938	268.578	0.020	0.035
-449.924	-32.698	-0.205	0.115
-448.909	-37.361	0.131	-0.071
-447.895	74.763	-0.255	0.271
-446.880	-4.024	0.329	-0.230
-445.865	72.754	0.004	-0.004
-444.851	800.000	-0.067	-0.270
-443.836	-92.672	-0.218	-0.062
-442.822	185.012	-0.187	0.279
-441.807	-113.793	0.248	0.049
-440.792	-112.384	-0.243	-0.049
-439.778	98.392	-0.044	-0.051
-438.763	-91.106	0.136	0.039
-437.749	-42.027	0.203	-0.105
-436.734	534.405	0.035	-0.084
-435.719	283.385	-0.087	0.158
-434.705	-131.714	0.163	-0.022
-433.690	51.148	0.096	0.092
-432.676	219.186	-0.062	-0.099
-431.661	240.911	-0.124	-0.208
-430.646	-73.161	-0.208	-0.077
-429.632	-36.883	0.152	0.082
-428.617	214.500	0.122	-0.194
-427.603	800.000	0.062	-0.250
-426.588	-200.000	0.015	0.121
-425.573	-90.197	-0.072	0.021
-424.559	14.972	0.076	0.060
-423.544	195.467	0.043	0.066
-422.530	231.738	-0.132	-0.218
-421.515	398.918	-0.002	0.005
-420.500	-63.744	-0.092	0.038
-419.486	11.189	0.070	-0.054
-418.471	165.600	0.027	-0.039
-417.457	-200.000	-0.026	0.117
-416.442	-131.755	0.275	0.036
-415.428	-8.928	-0.177	-0.119
-414.413	-200.000	0.142	0.001
-413.398	800.000	0.055	0.204
-412.384	-67.043	0.327	-0.130
-411.369	800.000	0.023	-0.072
-410.355	143.135	0.153	-0.205
-409.340	739.391	-0.091	-0.246
-408.325	-143.599	0.086	-0.008
-407.311	10.237	-0.202	-0.155
-406.296	95.718	-0.296	-0.340
-405.282	-109.424	-0.320	0.068
-404.267	294.135	0.088	0.163
-403.252	281.052	-0.115	-0.206
-402.238	-140.511	-0.253	-0.026
-401.223	214.402	0.125	-0.200
-400.209	-111.240	-0.202	0.042
-399.194	-200.000	0.026	-0.133
-398.179	-113.446	0.083	0.016
-397.165	35.321	-0.376	-0.332
-396.150	20.441	-0.427	-0.347
-395.136	-153.469	-0.290	-0.020
-394.121	-200.000	-0.004	0.110
-393.106	6.188	-0.212	-0.158
-392.092	800.000	0.023	0.101
-391.077	-76.258	-0.210	0.075
-390.063	-200.000	0.048	0.271
-389.048	121.116	0.118	0.148
-388.033	543.840	0.040	-0.095
-387.019	-134.452	0.179	0.022
-386.004	86.696	-0.130	0.144
-384.990	-200.000	0.253	-0.001
-383.975	800.000	-0.036	0.117
-382.960	-148.302	-0.375	-0.031
-381.946	800.000	0.049	0.143
-380.931	-145.213	0.193	-0.018
-379.917	-182.734	0.323	-0.006
-378.902	-22.044	-0.065	-0.040
-377.888	305.901	0.086	-0.161
-376.873	-200.000	0.069	-0.414
-375.858	-100.518	0.233	-0.058
-374.844	373.313	-0.095	-0.193
-373.829	-111.032	-0.226	-0.047
-372.815	800.000	0.009	-0.025
-371.800	123.906	0.193	0.244
-370.785	-134.287	0.347	-0.043
-369.771	-41.701	0.176	0.091
-368.756	-3.218	0.090	-0.063
-367.742	-200.000	0.038	-0.185
-366.727	-107.961	-0.078	0.017
-365.712	800.000	0.054	0.199
-364.698	-200.000	-0.065	0.322
-363.683	1.450	0.322	0.233
-362.669	-143.407	-0.090	0.009
-361.654	-200.000	-0.009	0.140
-360.639	-155.730	-0.190	-0.012
-359.625	-200.000	0.024	-0.147
-358.610	-200.000	0.028	0.227
-357.596	73.592	0.184	0.194
-356.581	559.833	-0.025	0.060
-355.566	65.535	0.088	0.090
-354.552	94.557	0.062	-0.071
-353.537	800.000	-0.130	0.410
-352.523	301.731	-0.119	-0.222
-351.508	124.358	0.086	0.109
-350.493	-159.323	-0.144	0.008
-349.479	-22.909	-0.115	-0.070
-348.464	-113.982	-0.219	0.043
-347.450	-175.297	-0.149	-0.004
-346.435	305.818	-0.092	-0.172
-345.420	-93.440	-0.112	-0.031
-344.406	-200.000	-0.022	-0.159
-343.391	104.784	0.029	-0.034
-342.377	394.701	0.125	0.262
-341.362	-138.511	0.122	-0.013
-340.348	69.171	-0.044	0.045
-339.333	-70.786	0.332	0.126
-338.318	368.493	-0.161	0.326
-337.304	-200.000	0.025	0.196
-336.289	-200.000	0.018	-0.220
-335.275	-73.283	-0.424	-0.156
-334.260	-92.849	-0.374	-0.105
-333.245	-79.247	-0.035	0.012
-332.231	128.228	0.126	0.161
-331.216	-117.922	0.181	0.033
-330.202	-140.220	0.299	0.032
-329.187	161.989	-0.095	-0.133
-328.172	-200.000	0.009	0.183
-327.158	-91.084	0.204	-0.059
-326.143	-111.793	-0.046	0.009
-325.129	0.844	-0.295	-0.212
-324.114	381.717	0.145	0.298
-323.099	523.926	0.060	0.141
-322.085	-77.132	0.469	0.164
-321.070	304.987	0.057	-0.106
-320.056	262.304	-0.117	-0.203
-319.041	106.753	0.085	-0.101
-318.026	-45.028	-0.197	0.099
-317.012	-200.000	0.034	-0.179
-315.997	-68.806	0.204	0.079
-314.983	44.858	0.175	0.162
-313.968	-87.059	0.247	-0.076
-312.953	-78.263	-0.181	0.062
-311.939	-68.734	-0.147	0.057
-310.924	-125.886	0.213	-0.032
-309.910	143.220	-0.283	0.377
-308.895	159.650	0.198	0.276
-307.880	800.000	0.039	0.138
-306.866	-200.000	0.001	-0.249
-305.851	-184.386	0.420	0.007
-304.837	-29.082	-0.197	-0.113
-303.822	-200.000	0.033	-0.265
-302.807	262.086	0.098	-0.170
-301.793	-156.210	0.072	-0.005
-300.778	-71.455	0.342	0.128
-299.764	176.734	0.132	-0.193
-298.749	-43.433	-0.108	-0.055
-297.735	75.868	0.147	-0.156
-296.720	800.000	-0.074	0.282
-295.705	-42.188	-0.090	-0.046
-294.691	-25.184	0.253	0.150
-293.676	275.327	-0.084	0.149
-292.662	-200.000	-0.043	-0.237
-291.647	-74.496	0.240	-0.087
-290.632	-39.793	0.311	0.163
-289.618	-138.089	-0.206	0.023
-288.603	-80.310	0.425	-0.142
-287.589	-200.000	0.020	0.093
-286.574	59.219	0.130	0.128
-285.559	800.000	0.101	0.312
-284.545	-200.000	0.008	0.216
-283.530	800.000	-0.027	-0.081
-282.516	-7.078	-0.004	0.002
-281.501	-136.166	0.166	-0.019
-280.486	41.697	-0.165	0.150
-279.472	54.212	0.220	0.212
-278.457	-200.000	-0.008	0.076
-277.443	100.120	0.122	-0.141
-276.428	-30.920	-0.040	-0.023
-275.413	-200.000	-0.017	-0.115
-274.399	204.560	-0.055	-0.086
-273.384	-31.690	0.207	0.116
-272.370	-172.286	0.145	0.005
-271.355	319.091	0.157	0.298
-270.340	-200.000	-0.032	-0.177
-269.326	-81.633	-0.179	0.059
-268.311	-62.708	0.040	0.016
-267.297	-200.000	-0.003	-0.174
-266.282	22.258	0.093	0.076
-265.267	45.541	-0.097	0.090
-264.253	-132.458	0.239	-0.031
-263.238	158.363	-0.075	0.105
-262.224	32.571	-0.143	-0.124
-261.209	-76.262	-0.098	-0.034
-260.195	362.691	0.078	0.158
-259.180	-200.000	-0.046	0.355
-258.165	-2.571	-0.270	-0.189
-257.151	-39.741	-0.236	-0.123
-256.136	387.201	0.061	0.126
-255.122	-151.122	-0.269	-0.020
-254.107	-46.273	0.269	-0.133
-253.092	-200.000	0.026	0.263
-252.078	4.861	0.105	-0.077
-251.063	-113.847	0.048	-0.009
-250.049	-200.000	0.055	0.290
-249.034	208.545	-0.096	0.151
-248.019	-200.000	0.071	0.344
-247.005	-95.355	-0.260	0.070
-245.990	-200.000	0.111	0.000
-244.976	-21.624	-0.269	0.164
-243.961	-200.000	-0.003	-0.137
-242.946	620.234	0.078	0.196
-241.932	-105.801	0.219	-0.049
-240.917	-200.000	0.021	-0.175
-239.903	159.793	-0.051	0.072
-238.888	91.786	0.113	-0.127
-237.873	-172.539	-0.440	-0.014
-236.859	-121.679	0.152	0.025
-235.844	203.236	0.172	-0.266
-234.830	-6.564	0.175	-0.119
-233.815	-116.632	0.131	0.024
-232.800	35.041	0.164	0.144
-231.786	-5.314	-0.167	0.115
-230.771	-12.137	0.194	-0.127
-229.757	-13.435	0.366	-0.237
-228.742	-96.024	-0.128	0.034
-227.727	-153.372	-0.288	0.020
-226.713	800.000	0.036	0.111
-225.698	800.000	0.063	0.277
-224.684	508.055	-0.209	0.486
-223.669	-15.976	0.289	0.184
-222.655	-68.824	0.142	0.055
-221.640	242.485	0.118	-0.197
-220.625	-67.738	-0.037	0.015
-219.611	232.837	-0.032	0.053
-218.596	-200.000	0.024	0.120
-217.582	-110.482	0.160	0.033
-216.567	-19.178	-0.065	0.040
-215.552	-200.000	0.003	-0.038
-214.538	-200.000	-0.019	-0.161
-213.523	0.552	-0.246	-0.176
-212.509	287.603	0.038	-0.069
-211.494	-36.205	-0.310	0.167
-210.479	-59.579	-0.137	0.059
-209.465	800.000	-0.092	-0.269
-208.450	800.000	-0.017	-0.072
-207.436	72.071	-0.163	-0.170
-206.421	-113.925	-0.071	-0.014
-205.406	-200.000	-0.038	0.220
-204.392	51.097	0.187	-0.177
-203.377	-22.474	0.212	0.128
-202.363	-200.000	-0.030	0.203
-201.348	800.000	-0.066	0.279
-200.333	375.706	-0.079	0.162
-199.319	33.114	0.377	0.327
-198.304	-80.192	-0.225	-0.075
-197.290	108.822	-0.221	-0.264
-196.275	800.000	0.043	-0.153
-195.260	-95.106	-0.249	0.067
-194.246	202.256	0.183	-0.282
-193.231	119.697	-0.175	0.216
-192.217	177.387	0.134	0.195
-191.202	133.946	0.155	-0.200
-190.187	-200.000	-0.479	-0.001
-189.173	489.566	0.095	-0.218
-188.158	37.844	0.035	-0.031
-187.144	-100.904	-0.385	-0.095
-186.129	-200.000	0.346	0.000
-185.114	-157.759	-0.296	0.018
-184.100	-200.000	0.056	-0.344
-183.085	800.000	0.047	-0.160
-182.071	318.001	0.174	0.329
-181.056	-193.515	-0.022	0.000
-180.042	645.176	-0.029	0.074
-179.027	19.427	-0.094	-0.075
-178.012	800.000	0.027	-0.115
-176.998	24.295	-0.075	-0.062
-175.983	800.000	0.101	0.305
-174.969	203.010	-0.113	0.174
-173.954	307.653	-0.127	-0.235
-172.939	800.000	-0.053	0.151
-171.925	-200.000	-0.041	0.433
-170.910	107.216	-0.094	0.111
-169.896	-60.106	-0.315	-0.134
-168.881	-72.000	-0.194	-0.072
-167.866	-200.000	0.061	-0.288
-166.852	-78.912	0.242	0.082
-165.837	800.000	-0.041	-0.122
-164.823	78.050	-0.285	0.303
-163.808	-125.255	-0.159	-0.024
-162.793	222.224	-0.134	0.216
-161.779	-68.040	-0.167	0.065
-160.764	-132.918	-0.174	0.022
-159.750	-33.863	0.114	-0.063
-158.735	-95.155	-0.468	-0.126
-157.720	120.927	0.147	0.182
-156.706	-94.498	0.554	-0.151
-155.691	74.571	0.118	-0.123
-154.677	-121.247	-0.129	-0.021
-153.662	60.140	0.128	0.126
-152.647	158.697	0.160	0.221
-151.633	800.000	-0.069	-0.246
-150.618	-45.612	0.205	-0.101
-149.604	-129.869	0.125	-0.017
-148.589	-29.155	0.088	-0.050
-147.574	-86.068	-0.384	-0.118
-146.560	384.900	0.021	-0.043
-145.545	-87.146	-0.306	-0.093
-144.531	-167.918	-0.196	-0.008
-143.516	205.249	0.158	0.244
-142.502	-200.000	-0.010	-0.179
-141.487	3.435	0.085	0.061
-140.472	109.106	-0.015	-0.017
-139.458	-102.186	-0.448	0.107
-138.443	-152.956	-0.111	-0.008
-137.429	800.000	0.119	0.379
-136.414	634.805	0.055	0.140
-135.399	-74.053	-0.406	0.147
-134.385	-19.112	0.173	0.107
-133.370	25.609	-0.304	-0.252
-132.356	-52.179	-0.180	0.083
-131.341	544.983	-0.033	-0.079
-130.326	-118.032	-0.218	-0.039
-129.312	34.984	-0.235	-0.205
-128.297	800.000	-0.096	-0.359
-127.283	-200.000	0.017	0.240
-126.268	48.980	0.375	0.351
-125.253	-200.000	-0.016	-0.164
-124.239	-200.000	0.016	0.258
-123.224	-40.918	0.158	-0.081
-122.210	8.307	0.402	0.301
-121.195	800.000	0.105	0.459
