DTS Sentinel unit serial number:	SN413079Multiplexer serial number:	ORYXHardware model number:	OX4-SRSoftware version number:	ORYX F/W v4.00 Oryx Data Collector v3.7.2.0data status	okinstallation	princeton_trtdifferential loss correction	single-endedforward channel	channel 4reverse channel	N/Adate	2019/09/11time	11:35:11forward acquisition time	60.00reverse acquisition time	0.00gamma	496.2192k internal	0.2290k external	0.2290temperature offset calibration	0.9971default loss term (dB/km)	0.3790temperature slope calibration	1.0000multiplexer offset coefficient	1.0000multiplexer slope coefficient	1.0000fibre end	0.00T internal ref (°C)	38.25T ext. ref 1 (°C)	0.17T ext. ref 2 (°C)	35.81length (m)	temperature (°C)	Stokes	anti-Stokes-747.200	383.263	0.073	-0.155
-746.185	-200.000	0.068	0.312
-745.171	201.423	-0.119	0.187
-744.156	-200.000	0.004	0.173
-743.142	-163.262	0.330	0.016
-742.127	-139.880	-0.384	0.042
-741.112	66.608	0.043	-0.045
-740.098	-139.542	-0.270	-0.030
-739.083	-200.000	-0.043	-0.212
-738.069	782.356	-0.097	0.271
-737.054	11.313	-0.319	0.250
-736.039	380.650	-0.090	-0.190
-735.025	0.028	0.110	-0.080
-734.010	800.000	-0.024	-0.083
-732.996	-200.000	0.030	-0.176
-731.981	-84.008	-0.235	0.077
-730.966	-83.356	0.201	-0.066
-729.952	-138.360	0.043	0.005
-728.937	427.969	0.117	0.260
-727.923	-46.973	-0.048	0.024
-726.908	-200.000	0.058	-0.295
-725.894	-147.008	-0.107	-0.009
-724.879	-50.711	-0.319	0.154
-723.864	119.803	-0.202	-0.257
-722.850	-64.653	0.346	0.144
-721.835	-44.005	0.150	-0.077
-720.821	562.244	-0.081	-0.202
-719.806	65.608	-0.083	-0.086
-718.791	800.000	0.040	-0.133
-717.777	-97.943	0.138	0.036
-716.762	-9.368	0.184	-0.126
-715.748	800.000	0.083	-0.334
-714.733	-101.011	-0.160	-0.040
-713.718	20.093	0.075	-0.062
-712.704	20.697	-0.391	-0.324
-711.689	-29.451	-0.029	0.017
-710.675	435.426	-0.011	-0.025
-709.660	-200.000	-0.017	-0.119
-708.645	-50.311	0.076	-0.037
-707.631	-200.000	0.017	0.244
-706.616	-110.592	-0.125	0.026
-705.602	-71.413	-0.193	0.074
-704.587	-47.898	-0.143	-0.071
-703.572	-120.783	-0.234	0.040
-702.558	-200.000	-0.032	-0.202
-701.543	-200.000	-0.035	0.215
-700.529	-200.000	0.048	-0.228
-699.514	-200.000	0.048	0.248
-698.499	-200.000	0.007	-0.149
-697.485	254.350	0.064	-0.112
-696.470	-114.814	-0.270	0.053
-695.456	-200.000	0.006	0.109
-694.441	-95.813	0.276	0.075
-693.426	-200.000	-0.021	-0.443
-692.412	156.154	0.048	0.067
-691.397	-65.631	-0.130	0.053
-690.383	-175.834	0.135	-0.004
-689.368	-128.640	-0.073	0.011
-688.354	-200.000	-0.052	-0.258
-687.339	382.203	0.008	0.017
-686.324	-85.066	-0.107	-0.034
-685.310	-72.730	-0.078	-0.029
-684.295	0.372	0.424	0.309
-683.281	-161.028	-0.264	0.014
-682.266	-62.151	-0.060	-0.025
-681.251	21.049	-0.047	-0.039
-680.237	195.583	-0.061	-0.095
-679.222	268.981	-0.101	-0.180
-678.208	-138.796	0.174	-0.019
-677.193	-200.000	-0.002	0.040
-676.178	-200.000	-0.002	-0.162
-675.164	-125.980	-0.074	0.011
-674.149	79.162	-0.172	0.189
-673.135	-51.179	-0.261	-0.125
-672.120	1.223	-0.215	0.158
-671.105	-200.000	0.014	0.167
-670.091	-126.318	0.295	-0.045
-669.076	-200.000	-0.004	-0.159
-668.062	101.980	-0.136	0.162
-667.047	55.899	-0.306	-0.303
-666.032	372.735	0.109	-0.226
-665.018	28.283	-0.232	-0.200
-664.003	95.522	0.245	-0.285
-662.989	-65.653	0.128	-0.052
-661.974	160.737	-0.119	-0.169
-660.959	-158.451	0.112	-0.007
-659.945	-95.264	-0.161	-0.044
-658.930	86.424	0.070	0.079
-657.916	-83.950	-0.231	0.075
-656.901	-47.485	-0.119	-0.059
-655.886	-101.588	0.267	0.066
-654.872	800.000	-0.085	-0.306
-653.857	178.143	0.156	0.232
-652.843	238.372	0.193	0.327
-651.828	-106.562	-0.228	0.052
-650.814	-200.000	-0.072	0.376
-649.799	-200.000	0.015	0.449
-648.784	800.000	0.043	-0.184
-647.770	-36.347	0.110	0.061
-646.755	-200.000	-0.012	-0.111
-645.741	-101.640	-0.011	-0.003
-644.726	81.529	-0.220	-0.242
-643.711	72.863	-0.135	0.144
-642.697	800.000	-0.013	0.049
-641.682	-87.557	0.110	0.034
-640.668	17.228	0.161	-0.131
-639.653	337.096	0.096	0.190
-638.638	-200.000	0.009	0.170
-637.624	81.071	0.226	-0.249
-636.609	80.689	0.211	-0.232
-635.595	800.000	0.074	-0.256
-634.580	800.000	0.079	0.347
-633.565	-154.879	0.212	0.014
-632.551	55.209	-0.081	-0.079
-631.536	29.326	0.158	0.137
-630.522	534.871	0.167	-0.404
-629.507	-113.581	-0.124	0.025
-628.492	-66.050	-0.282	-0.115
-627.478	28.701	-0.195	-0.168
-626.463	30.588	0.087	0.076
-625.449	199.936	0.061	-0.095
-624.434	-200.000	-0.031	-0.568
-623.419	53.565	-0.295	-0.289
-622.405	118.380	-0.133	0.167
-621.390	-200.000	-0.040	0.391
-620.376	0.205	0.214	0.155
-619.361	-54.822	0.035	0.016
-618.346	-129.159	0.170	0.024
-617.332	20.761	-0.154	-0.127
-616.317	-200.000	0.032	-0.153
-615.303	800.000	0.027	-0.085
-614.288	-5.756	-0.280	0.196
-613.273	800.000	0.035	-0.149
-612.259	-106.102	0.196	-0.045
-611.244	92.488	-0.269	-0.309
-610.230	-200.000	0.032	0.242
-609.215	151.614	-0.210	-0.291
-608.201	-98.512	-0.099	0.026
-607.186	-25.427	0.067	0.040
-606.171	-200.000	-0.035	0.259
-605.157	800.000	-0.051	-0.176
-604.142	381.105	-0.094	0.196
-603.128	38.619	-0.109	0.099
-602.113	167.391	-0.108	-0.157
-601.098	229.158	0.037	0.062
-600.084	800.000	0.039	-0.163
-599.069	300.019	0.056	0.106
-598.055	-118.716	-0.184	-0.033
-597.040	249.695	0.077	-0.133
-596.025	292.725	-0.121	-0.224
-595.011	-50.734	0.049	0.023
-593.996	318.500	0.120	0.231
-592.982	319.823	-0.027	0.053
-591.967	105.665	0.101	-0.121
-590.952	-131.054	-0.285	-0.039
-589.938	-130.664	-0.139	-0.019
-588.923	254.045	0.204	0.355
-587.909	285.198	0.164	0.301
-586.894	286.216	0.110	0.202
-585.879	-120.114	-0.155	-0.027
-584.865	-38.510	-0.048	-0.026
-583.850	-84.717	-0.189	0.061
-582.836	-32.318	-0.084	-0.048
-581.821	-57.826	-0.141	-0.063
-580.806	-200.000	-0.007	0.061
-579.792	-200.000	-0.023	-0.341
-578.777	60.870	0.143	-0.144
-577.763	-174.143	-0.262	-0.008
-576.748	73.194	-0.260	-0.277
-575.733	-200.000	-0.020	0.104
-574.719	-200.000	0.002	-0.088
-573.704	278.121	-0.102	-0.184
-572.690	-59.298	-0.115	0.050
-571.675	-104.615	-0.359	-0.084
-570.661	79.904	-0.124	0.135
-569.646	-19.634	-0.069	0.043
-568.631	446.692	-0.037	-0.083
-567.617	-200.000	-0.005	-0.070
-566.602	-24.880	-0.094	-0.057
-565.588	-40.416	-0.218	0.115
-564.573	800.000	0.064	0.184
-563.558	-84.778	-0.097	0.031
-562.544	-63.715	-0.184	-0.077
-561.529	-46.760	0.098	0.049
-560.515	-200.000	-0.016	-0.168
-559.500	-200.000	0.022	0.524
-558.485	-30.093	-0.205	-0.118
-557.471	-123.756	0.111	-0.018
-556.456	-103.357	0.148	-0.036
-555.442	-104.991	0.360	-0.084
-554.427	-54.648	-0.032	-0.015
-553.412	-200.000	-0.025	0.259
-552.398	53.015	0.082	-0.079
-551.383	424.288	-0.096	-0.209
-550.369	800.000	-0.064	-0.233
-549.354	-73.814	-0.282	0.104
-548.339	-99.209	0.164	0.042
-547.325	190.854	0.068	0.104
-546.310	-75.588	-0.107	-0.039
-545.296	321.468	-0.057	-0.110
-544.281	6.598	0.282	-0.213
-543.266	800.000	-0.086	-0.275
-542.252	-31.286	0.354	-0.202
-541.237	-200.000	0.007	0.338
-540.223	61.135	-0.321	0.324
-539.208	-141.469	0.139	0.014
-538.193	618.660	-0.130	0.332
-537.179	88.137	-0.098	0.111
-536.164	-160.280	0.386	-0.021
-535.150	-82.440	0.244	0.080
-534.135	94.569	0.053	0.061
-533.121	-115.357	0.218	-0.042
-532.106	-96.111	0.218	-0.059
-531.091	-104.887	-0.155	-0.036
-530.077	-67.204	0.103	-0.041
-529.062	-96.509	-0.280	0.075
-528.048	-200.000	-0.020	0.241
-527.033	162.464	0.147	-0.209
-526.018	-28.113	-0.148	0.087
-525.004	-200.000	0.034	-0.271
-523.989	10.159	-0.197	-0.152
-522.975	-200.000	0.034	-0.206
-521.960	44.690	-0.234	0.218
-520.945	140.574	-0.228	-0.306
-519.931	47.145	0.310	-0.293
-518.916	-200.000	-0.054	0.257
-517.902	64.871	0.025	-0.025
-516.887	-136.627	0.150	-0.018
-515.872	-200.000	-0.063	-0.343
-514.858	-150.503	0.153	-0.012
-513.843	132.051	-0.267	-0.349
-512.829	800.000	-0.083	-0.302
-511.814	106.655	0.089	-0.107
-510.799	-179.428	-0.170	0.004
-509.785	135.940	-0.146	0.193
-508.770	208.344	-0.038	-0.061
-507.756	-77.908	0.182	-0.064
-506.741	-74.677	-0.190	0.069
-505.726	5.937	0.457	-0.344
-504.712	-34.344	-0.175	-0.098
-503.697	206.236	0.068	0.108
-502.683	188.676	-0.141	0.215
-501.668	241.262	0.211	-0.358
-500.653	-74.755	-0.164	0.060
-499.639	58.975	-0.150	0.150
-498.624	-25.540	0.237	0.142
-497.610	-194.517	0.314	0.003
-496.595	-200.000	-0.003	0.047
-495.581	-22.522	-0.303	-0.186
-494.566	-200.000	-0.079	-0.377
-493.551	-95.594	-0.504	-0.137
-492.537	-50.506	0.107	-0.051
-491.522	-101.156	0.277	0.069
-490.508	374.017	-0.054	-0.111
-489.493	-13.317	-0.057	-0.038
-488.478	-69.931	-0.309	0.120
-487.464	-38.945	-0.075	-0.040
-486.449	-120.907	0.202	-0.034
-485.435	-200.000	-0.044	-0.350
-484.420	-144.247	0.220	-0.021
-483.405	-99.000	0.139	-0.036
-482.391	39.914	-0.148	0.135
-481.376	-167.470	-0.142	-0.006
-480.362	239.109	-0.026	0.044
-479.347	-14.023	0.209	0.137
-478.332	-150.972	0.385	-0.029
-477.318	-151.532	-0.142	0.011
-476.303	-187.421	0.616	0.008
-475.289	-200.000	-0.002	-0.235
-474.274	87.395	-0.077	-0.087
-473.259	1.172	-0.123	0.090
-472.245	87.596	-0.048	0.054
-471.230	-200.000	0.030	-0.382
-470.216	531.871	0.187	-0.449
-469.201	-30.634	0.272	-0.156
-468.186	-11.736	-0.164	0.109
-467.172	-200.000	0.040	-0.238
-466.157	327.356	0.014	-0.028
-465.143	800.000	0.063	0.235
-464.128	315.398	-0.087	0.167
-463.113	800.000	0.072	0.219
-462.099	-12.104	0.155	0.103
-461.084	334.731	-0.113	-0.221
-460.070	284.299	0.126	-0.229
-459.055	-200.000	0.022	0.172
-458.040	-22.316	0.119	0.073
-457.026	136.435	-0.072	-0.095
-456.011	4.555	-0.224	-0.166
-454.997	290.915	0.025	-0.046
-453.982	538.298	-0.213	-0.513
-452.968	-200.000	-0.053	-0.277
-451.953	-200.000	-0.063	0.308
-450.938	-4.238	-0.121	-0.085
-449.924	-20.241	0.323	-0.201
-448.909	-200.000	0.023	-0.145
-447.895	-91.511	-0.107	0.031
-446.880	687.730	0.128	0.339
-445.865	-200.000	-0.009	-0.169
-444.851	115.799	-0.289	-0.358
-443.836	-136.513	-0.080	0.009
-442.822	-79.882	-0.236	-0.080
-441.807	-134.549	-0.045	-0.006
-440.792	174.005	0.023	-0.033
-439.778	-76.402	0.511	-0.182
-438.763	317.889	0.111	0.213
-437.749	-21.629	-0.304	0.188
-436.734	-120.270	-0.185	-0.032
-435.719	-190.685	-0.090	0.001
-434.705	48.145	-0.228	-0.216
-433.690	-200.000	0.005	0.289
-432.676	61.477	0.302	-0.304
-431.661	-118.695	0.308	-0.055
-430.646	293.265	-0.135	-0.249
-429.632	399.062	0.032	0.068
-428.617	-200.000	-0.022	-0.210
-427.603	-15.385	-0.221	0.143
-426.588	136.796	-0.174	-0.230
-425.573	800.000	0.076	0.330
-424.559	-133.440	0.127	-0.016
-423.544	-6.631	0.037	0.026
-422.530	800.000	-0.062	-0.230
-421.515	-86.509	-0.187	0.058
-420.500	262.537	0.037	0.065
-419.486	-79.255	-0.219	-0.075
-418.471	146.961	0.255	-0.347
-417.457	-200.000	-0.056	-0.267
-416.442	762.601	-0.212	0.581
-415.428	-153.757	-0.272	0.019
-414.413	655.791	-0.050	0.129
-413.398	214.588	0.057	-0.091
-412.384	-22.442	0.276	-0.169
-411.369	157.499	-0.089	-0.124
-410.355	-123.148	0.346	0.056
-409.340	-137.039	0.203	0.024
-408.325	-136.343	-0.246	0.029
-407.311	41.117	-0.093	0.085
-406.296	-42.144	0.175	-0.090
-405.282	-37.547	-0.087	0.047
-404.267	18.145	-0.106	0.085
-403.252	-144.713	-0.280	-0.026
-402.238	-200.000	-0.003	-0.146
-401.223	85.977	0.274	-0.305
-400.209	-109.034	0.083	-0.018
-399.194	-148.926	-0.274	-0.022
-398.179	-90.302	0.343	0.101
-397.165	3.146	-0.118	0.087
-396.150	-150.057	-0.110	0.009
-395.136	-200.000	-0.015	-0.142
-394.121	-54.021	-0.185	0.085
-393.106	79.055	0.118	-0.128
-392.092	25.969	-0.085	-0.072
-391.077	-82.497	0.133	-0.044
-390.063	-110.959	0.347	-0.072
-389.048	-200.000	0.004	0.431
-388.033	439.581	0.191	0.421
-387.019	-200.000	-0.006	-0.313
-386.004	-50.676	-0.053	-0.025
-384.990	42.124	-0.098	0.090
-383.975	-200.000	0.056	0.249
-382.960	269.658	0.135	-0.239
-381.946	108.274	0.291	-0.351
-380.931	175.695	0.116	-0.170
-379.917	800.000	-0.089	-0.249
-378.902	-76.868	-0.068	-0.024
-377.888	-25.563	-0.274	-0.163
-376.873	82.291	0.096	-0.105
-375.858	-11.496	0.550	-0.365
-374.844	-145.649	0.173	0.016
-373.829	800.000	0.047	-0.151
-372.815	-40.421	0.287	0.151
-371.800	422.832	-0.094	0.204
-370.785	-25.801	0.233	-0.139
-369.771	-200.000	-0.007	-0.160
-368.756	-78.190	-0.131	-0.046
-367.742	-66.587	-0.275	0.110
-366.727	-200.000	0.055	0.295
-365.712	-35.166	-0.263	0.144
-364.698	-6.716	0.361	0.248
-363.683	235.416	-0.034	0.057
-362.669	-99.655	0.222	0.056
-361.654	65.897	-0.132	-0.135
-360.639	60.496	0.296	-0.296
-359.625	90.738	-0.193	-0.218
-358.610	147.349	0.090	-0.122
-357.596	-200.000	0.050	0.312
-356.581	-200.000	-0.025	-0.202
-355.566	800.000	-0.075	0.220
-354.552	-200.000	-0.003	0.271
-353.537	-57.759	-0.196	-0.086
-352.523	77.419	-0.096	0.103
-351.508	-90.526	-0.070	-0.020
-350.493	307.046	-0.065	0.121
-349.479	-132.189	-0.104	0.014
-348.464	-36.460	-0.127	-0.069
-347.450	378.831	-0.033	-0.068
-346.435	-86.273	0.140	0.043
-345.420	292.324	-0.095	0.175
-344.406	-15.000	0.328	-0.212
-343.391	27.432	0.168	-0.142
-342.377	-32.948	0.286	0.160
-341.362	-200.000	0.006	0.359
-340.348	-198.782	-0.225	-0.001
-339.333	-200.000	-0.025	0.124
-338.318	82.045	0.020	-0.022
-337.304	800.000	-0.029	0.101
-336.289	-22.591	-0.185	-0.113
-335.275	-127.629	0.577	-0.084
-334.260	-50.660	-0.212	0.101
-333.245	137.553	-0.170	0.224
-332.231	-200.000	0.010	-0.206
-331.216	800.000	0.011	-0.034
-330.202	133.924	0.101	-0.132
-329.187	-50.149	-0.352	-0.168
-328.172	-97.042	0.121	0.032
-327.158	-159.275	-0.097	-0.005
-326.143	-200.000	0.031	-0.150
-325.129	-78.925	0.111	-0.038
-324.114	11.402	0.171	0.132
-323.099	-66.930	-0.106	-0.042
-322.085	76.591	0.144	0.154
-321.070	800.000	-0.072	0.267
-320.056	-200.000	0.028	-0.328
-319.041	-67.782	0.203	0.080
-318.026	45.583	-0.168	0.156
-317.012	466.349	-0.099	0.224
-315.997	-134.230	0.273	-0.034
-314.983	181.736	-0.195	0.289
-313.968	86.963	-0.221	0.245
-312.953	233.261	0.084	-0.139
-311.939	-76.083	-0.382	-0.136
-310.924	800.000	0.172	0.491
-309.910	27.959	-0.386	0.328
-308.895	-200.000	-0.005	-0.103
-307.880	-145.425	-0.161	-0.015
-306.866	15.042	0.022	-0.018
-305.851	97.774	0.084	-0.097
-304.837	167.167	-0.145	-0.208
-303.822	103.691	0.188	0.223
-302.807	145.670	-0.079	0.107
-301.793	-48.751	0.048	0.023
-300.778	800.000	-0.098	0.296
-299.764	184.541	-0.119	-0.177
-298.749	-200.000	-0.029	0.145
-297.735	-131.603	0.098	0.013
-296.720	-200.000	0.073	0.407
-295.705	-156.081	0.390	-0.025
-294.691	65.858	-0.157	-0.161
-293.676	-49.853	-0.164	0.079
-292.662	141.999	-0.196	-0.261
-291.647	317.820	0.134	-0.255
-290.632	-200.000	0.007	-0.307
-289.618	1.595	0.060	0.044
-288.603	77.139	-0.063	-0.068
-287.589	-99.526	-0.075	0.019
-286.574	-60.600	0.282	-0.121
-285.559	-200.000	-0.021	0.142
-284.545	-200.000	-0.009	-0.055
-283.530	54.599	-0.141	0.136
-282.516	14.393	0.169	0.133
-281.501	800.000	-0.053	-0.154
-280.486	-15.730	0.137	0.088
-279.472	-55.877	0.435	0.196
-278.457	800.000	-0.026	-0.088
-277.443	-170.583	0.146	-0.005
-276.428	327.641	-0.121	0.233
-275.413	398.915	-0.092	0.193
-274.399	-200.000	-0.049	0.230
-273.384	-29.647	-0.145	-0.083
-272.370	365.721	0.042	0.086
-271.355	360.894	0.148	-0.299
-270.340	52.729	0.205	-0.197
-269.326	-200.000	0.005	0.089
-268.311	-200.000	0.038	0.322
-267.297	-200.000	0.075	0.381
-266.282	180.899	0.177	0.261
-265.267	71.136	0.082	-0.086
-264.253	9.169	0.247	-0.188
-263.238	800.000	-0.052	-0.154
-262.224	97.082	0.081	0.093
-261.209	800.000	0.055	-0.156
-260.195	119.403	0.079	0.098
-259.180	298.704	0.040	0.073
-258.165	-142.819	0.194	-0.019
-257.151	800.000	0.075	-0.242
-256.136	-88.242	-0.217	0.065
-255.122	-50.524	-0.219	0.104
-254.107	800.000	0.028	-0.080
-253.092	-80.860	-0.244	0.081
-252.078	-107.307	-0.303	0.067
-251.063	800.000	0.063	-0.256
-250.049	629.795	-0.106	0.270
-249.034	-71.711	0.147	-0.055
-248.019	-95.175	0.228	0.062
-247.005	-200.000	-0.011	0.064
-245.990	250.748	0.118	0.201
-244.976	-200.000	-0.040	0.355
-243.961	478.673	0.227	0.517
-242.946	800.000	-0.083	0.250
-241.932	371.617	0.075	0.154
-240.917	4.310	0.063	0.046
-239.903	-109.493	-0.052	0.011
-238.888	-82.309	-0.103	-0.034
-237.873	35.237	0.185	-0.163
-236.859	59.190	0.137	-0.135
-235.844	84.034	0.043	-0.047
-234.830	-24.081	-0.078	-0.047
-233.815	716.884	-0.061	0.164
-232.800	-200.000	0.011	-0.115
-231.786	110.754	-0.131	0.158
-230.771	132.260	0.137	0.177
-229.757	74.490	0.052	0.055
-228.742	107.480	-0.163	0.194
-227.727	-0.387	-0.122	-0.087
-226.713	-200.000	-0.004	-0.223
-225.698	-200.000	-0.018	0.226
-224.684	-200.000	0.042	0.276
-223.669	36.009	0.149	-0.131
-222.655	-5.194	-0.116	-0.080
-221.640	-135.880	-0.253	0.030
-220.625	306.550	-0.059	0.111
-219.611	-74.317	-0.038	-0.014
-218.596	-200.000	0.013	-0.157
-217.582	81.520	-0.165	-0.179
-216.567	-190.886	-0.106	0.001
-215.552	-5.240	0.175	0.121
-214.538	-200.000	0.047	0.388
-213.523	-200.000	0.011	0.296
-212.509	221.508	-0.108	0.175
-211.494	12.120	0.248	0.192
-210.479	218.157	0.117	0.187
-209.465	141.657	0.363	0.482
-208.450	84.337	0.071	-0.078
-207.436	-200.000	0.033	0.288
-206.421	-200.000	0.008	0.221
-205.406	475.627	-0.044	-0.101
-204.392	-200.000	0.039	0.326
-203.377	86.152	-0.082	-0.090
-202.363	179.350	0.179	-0.263
-201.348	800.000	0.112	0.385
-200.333	404.664	-0.170	-0.359
-199.319	4.626	-0.354	0.260
-198.304	-200.000	-0.023	0.337
-197.290	-200.000	-0.002	-0.020
-196.275	-156.778	0.138	-0.009
-195.260	-80.148	-0.254	0.085
-194.246	31.161	-0.235	0.202
-193.231	-85.084	0.204	-0.064
-192.217	27.946	-0.170	0.144
-191.202	-87.143	-0.108	0.033
-190.187	83.823	-0.092	-0.101
-189.173	-33.239	-0.400	-0.222
-188.158	-83.461	-0.303	0.097
-187.144	-200.000	-0.006	-0.044
-186.129	750.674	0.023	0.063
-185.114	-75.780	0.136	0.048
-184.100	-200.000	0.021	0.176
-183.085	259.833	-0.231	-0.400
-182.071	-113.894	-0.423	-0.082
-181.056	-14.112	0.123	0.080
-180.042	126.879	0.173	0.220
-179.027	95.565	0.192	0.220
-178.012	30.034	0.125	0.107
-176.998	-100.280	-0.086	0.022
-175.983	-140.287	-0.454	0.048
-174.969	-15.675	-0.580	-0.371
-173.954	140.081	0.126	-0.166
-172.939	-68.698	-0.103	-0.040
-171.925	-95.211	0.116	0.031
-170.910	-156.576	-0.176	-0.011
-169.896	-186.763	0.544	0.008
-168.881	148.843	0.199	-0.270
-167.866	-95.846	-0.215	-0.057
-166.852	800.000	-0.112	-0.429
-165.837	58.375	0.146	-0.144
-164.823	-67.299	-0.184	0.072
-163.808	800.000	-0.058	0.178
-162.793	691.811	0.022	-0.058
-161.779	156.256	-0.086	0.118
-160.764	800.000	-0.040	0.146
-159.750	420.321	-0.079	-0.170
-158.735	58.438	0.307	0.301
-157.720	85.324	0.179	0.197
-156.706	272.827	0.220	0.390
-155.691	73.611	0.099	0.104
-154.677	-38.127	0.166	0.088
-153.662	520.656	0.016	-0.039
-152.647	-138.785	0.357	-0.039
-151.633	-11.950	0.269	-0.177
-150.618	-87.182	0.143	0.044
-149.604	339.926	0.069	-0.135
-148.589	-63.144	0.212	0.088
-147.574	-159.647	0.103	0.006
-146.560	-200.000	0.029	0.130
-145.545	-200.000	-0.058	-0.404
-144.531	126.491	0.075	-0.095
-143.516	-200.000	-0.043	0.266
-142.502	4.867	0.260	0.191
-141.487	-184.597	0.244	0.004
-140.472	542.864	-0.119	0.284
-139.458	-110.804	-0.459	0.095
-138.443	70.141	0.141	0.146
-137.429	-90.911	0.376	0.108
-136.414	99.323	-0.200	0.231
-135.399	-136.995	-0.332	-0.038
-134.385	54.159	-0.131	-0.126
-133.370	-41.105	-0.167	0.086
-132.356	-200.000	-0.014	0.116
-131.341	-32.512	0.266	0.149
-130.326	800.000	-0.085	0.354
-129.312	-200.000	-0.000	0.005
-128.297	18.138	0.069	0.055
-127.283	91.405	-0.102	-0.114
-126.268	-143.524	0.198	0.019
-125.253	111.751	-0.116	-0.140
-124.239	800.000	-0.161	-0.562
-123.224	800.000	-0.096	-0.322
-122.210	289.461	0.305	0.554
