DTS Sentinel unit serial number:	SN413079Multiplexer serial number:	ORYXHardware model number:	OX4-SRSoftware version number:	ORYX F/W v4.00 Oryx Data Collector v3.7.2.0data status	okinstallation	princeton_trtdifferential loss correction	single-endedforward channel	channel 4reverse channel	N/Adate	2019/09/11time	00:15:11forward acquisition time	60.00reverse acquisition time	0.00gamma	496.2192k internal	0.2318k external	0.2318temperature offset calibration	0.9953default loss term (dB/km)	0.3790temperature slope calibration	1.0000multiplexer offset coefficient	1.0000multiplexer slope coefficient	1.0000fibre end	0.00T internal ref (°C)	29.31T ext. ref 1 (°C)	-0.29T ext. ref 2 (°C)	22.87length (m)	temperature (°C)	Stokes	anti-Stokes-747.200	190.261	0.197	0.300
-746.185	800.000	-0.070	0.275
-745.171	226.123	-0.111	0.183
-744.156	342.939	0.279	0.554
-743.142	4.873	-0.116	-0.086
-742.127	144.721	-0.160	0.216
-741.112	731.034	0.076	0.204
-740.098	313.873	0.024	0.046
-739.083	-28.553	0.213	-0.124
-738.069	-174.600	-0.084	0.002
-737.054	98.270	-0.196	0.228
-736.039	-71.452	-0.233	0.088
-735.025	-8.955	0.455	0.308
-734.010	248.516	-0.099	-0.170
-732.996	-3.430	-0.431	-0.303
-731.981	-54.756	-0.295	-0.135
-730.966	800.000	0.077	-0.232
-729.952	-54.528	-0.150	-0.069
-728.937	115.354	0.126	0.156
-727.923	-80.023	-0.275	-0.093
-726.908	-86.141	-0.132	0.041
-725.894	779.473	-0.036	-0.101
-724.879	-200.000	-0.054	-0.285
-723.864	113.960	0.040	-0.049
-722.850	-200.000	0.055	-0.287
-721.835	95.214	-0.129	-0.149
-720.821	-168.382	-0.011	0.000
-719.806	-38.353	-0.273	-0.146
-718.791	-2.052	0.286	-0.203
-717.777	-138.307	-0.428	-0.048
-716.762	-200.000	-0.050	-0.302
-715.748	-200.000	-0.024	0.151
-714.733	-11.537	-0.174	0.116
-713.718	-128.877	0.248	0.035
-712.704	373.486	0.038	-0.078
-711.689	-164.188	-0.167	0.008
-710.675	236.867	0.079	-0.132
-709.660	365.470	-0.072	-0.147
-708.645	-104.059	0.360	0.085
-707.631	800.000	0.057	-0.238
-706.616	-54.979	-0.037	0.017
-705.602	-200.000	-0.011	-0.096
-704.587	455.688	-0.082	-0.183
-703.572	446.781	-0.165	-0.367
-702.558	800.000	0.088	-0.249
-701.543	-22.582	-0.301	0.184
-700.529	-141.882	0.053	-0.005
-699.514	180.736	0.004	-0.005
-698.499	696.745	-0.062	0.164
-697.485	590.744	0.126	0.315
-696.470	800.000	-0.052	-0.178
-695.456	-39.809	0.160	-0.085
-694.441	-29.722	0.018	0.011
-693.426	-2.719	-0.326	-0.230
-692.412	242.771	0.211	0.357
-691.397	574.089	-0.076	-0.187
-690.383	444.053	0.080	0.177
-689.368	-47.439	-0.153	0.075
-688.354	-200.000	0.042	-0.299
-687.339	-200.000	-0.023	-0.295
-686.324	800.000	-0.084	-0.293
-685.310	123.537	-0.215	0.272
-684.295	87.356	-0.107	0.120
-683.281	-16.516	0.161	-0.103
-682.266	-148.337	0.155	0.013
-681.251	64.879	0.166	-0.169
-680.237	-145.132	0.350	-0.032
-679.222	562.466	-0.182	0.446
-678.208	-200.000	-0.012	0.063
-677.193	-200.000	0.028	0.144
-676.178	-200.000	-0.025	0.475
-675.164	-110.984	0.145	-0.030
-674.149	-147.411	-0.573	0.049
-673.135	-160.350	-0.269	-0.015
-672.120	-200.000	0.008	0.123
-671.105	-200.000	-0.022	-0.285
-670.091	196.371	-0.151	0.232
-669.076	-177.987	-0.226	-0.005
-668.062	-100.002	0.246	-0.062
-667.047	508.978	-0.132	0.310
-666.032	-27.113	-0.260	-0.153
-665.018	800.000	-0.128	-0.365
-664.003	800.000	0.073	-0.290
-662.989	-200.000	-0.025	0.112
-661.974	162.462	0.158	-0.223
-660.959	351.143	-0.103	-0.206
-659.945	404.830	0.038	0.080
-658.930	-131.910	-0.576	0.076
-657.916	128.549	0.086	0.111
-656.901	-117.135	-0.314	0.058
-655.886	106.119	0.156	-0.186
-654.872	-157.157	-0.106	-0.006
-653.857	-46.179	0.194	0.096
-652.843	-170.316	0.064	0.002
-651.828	311.321	0.049	0.092
-650.814	114.973	-0.054	-0.066
-649.799	52.998	0.268	0.259
-648.784	-152.862	-0.433	0.031
-647.770	-131.947	-0.070	0.009
-646.755	322.362	0.081	-0.155
-645.741	191.406	-0.070	0.107
-644.726	8.213	-0.165	-0.125
-643.711	-56.684	-0.131	-0.058
-642.697	800.000	-0.047	-0.148
-641.682	-170.919	0.353	0.012
-640.668	76.410	-0.058	-0.062
-639.653	-75.500	-0.279	-0.100
-638.638	411.557	-0.086	0.185
-637.624	-130.128	-0.273	-0.038
-636.609	800.000	-0.008	0.032
-635.595	-66.682	-0.189	-0.076
-634.580	-49.136	-0.287	-0.138
-633.565	76.432	-0.166	-0.177
-632.551	196.963	0.144	-0.221
-631.536	-200.000	0.021	-0.136
-630.522	177.698	0.081	-0.118
-629.507	-200.000	0.008	-0.231
-628.492	-86.647	-0.310	0.096
-627.478	-58.002	-0.174	0.077
-626.463	-31.149	-0.154	0.088
-625.449	255.487	-0.127	-0.219
-624.434	384.218	-0.098	-0.204
-623.419	800.000	0.098	-0.346
-622.405	-200.000	0.058	-0.299
-621.390	77.189	0.034	-0.037
-620.376	10.100	-0.194	0.149
-619.361	63.541	-0.258	-0.261
-618.346	720.265	-0.082	-0.219
-617.332	433.524	-0.140	0.305
-616.317	344.632	0.017	0.034
-615.303	-9.706	-0.152	-0.102
-614.288	-99.007	0.445	-0.114
-613.273	-18.681	0.022	0.014
-612.259	-97.623	0.280	0.073
-611.244	-10.627	0.055	0.037
-610.230	263.879	-0.017	0.030
-609.215	-124.089	0.308	0.049
-608.201	-200.000	-0.010	-0.094
-607.186	-200.000	0.011	-0.081
-606.171	461.742	-0.086	-0.192
-605.157	39.067	0.251	-0.226
-604.142	-45.411	0.157	-0.079
-603.128	-47.975	-0.169	-0.082
-602.113	-200.000	-0.028	0.315
-601.098	60.533	0.290	0.289
-600.084	-86.707	0.352	0.108
-599.069	-200.000	0.023	-0.194
-598.055	171.988	0.064	0.093
-597.040	-93.898	0.214	0.059
-596.025	137.054	0.160	0.210
-595.011	-55.971	-0.127	-0.057
-593.996	-18.916	0.214	0.134
-592.982	128.205	0.169	-0.216
-591.967	800.000	0.046	0.150
-590.952	-200.000	-0.003	-0.178
-589.938	-51.540	0.215	-0.101
-588.923	395.428	-0.146	-0.306
-587.909	204.954	-0.227	0.354
-586.894	-200.000	-0.164	-0.000
-585.879	17.380	0.229	-0.183
-584.865	68.276	0.053	0.055
-583.850	-59.275	-0.101	0.044
-582.836	-118.816	-0.390	0.069
-581.821	-47.922	0.355	0.173
-580.806	-21.300	0.084	0.051
-579.792	583.495	-0.095	-0.236
-578.777	212.454	-0.062	-0.098
-577.763	-135.164	0.282	-0.034
-576.748	785.922	-0.038	0.104
-575.733	-200.000	0.061	0.351
-574.719	-114.408	0.008	0.001
-573.704	225.833	-0.051	0.083
-572.690	35.461	0.076	0.067
-571.675	522.260	0.126	0.297
-570.661	560.404	0.137	-0.333
-569.646	-158.021	0.202	0.012
-568.631	-140.397	-0.271	-0.028
-567.617	17.333	0.112	0.090
-566.602	-47.764	-0.185	-0.090
-565.588	-200.000	-0.004	0.353
-564.573	7.131	-0.187	-0.141
-563.558	-142.788	-0.228	-0.022
-562.544	-36.302	0.259	-0.140
-561.529	28.628	-0.223	0.190
-560.515	209.042	0.164	0.257
-559.500	109.367	-0.092	-0.110
-558.485	-200.000	0.037	0.236
-557.471	17.482	0.016	-0.013
-556.456	513.875	0.134	-0.315
-555.442	-200.000	0.205	0.000
-554.427	800.000	0.073	-0.272
-553.412	-200.000	0.001	0.006
-552.398	295.232	0.075	0.139
-551.383	-200.000	0.002	-0.243
-550.369	61.352	0.210	0.210
-549.354	59.286	-0.144	-0.142
-548.339	-132.540	0.088	-0.011
-547.325	-200.000	-0.009	0.390
-546.310	-25.840	0.278	-0.164
-545.296	-200.000	-0.003	-0.048
-544.281	-105.326	-0.116	-0.027
-543.266	493.763	0.039	-0.091
-542.252	-40.694	-0.310	0.161
-541.237	-113.872	0.227	-0.044
-540.223	121.739	-0.045	0.056
-539.208	-29.908	-0.305	0.175
-538.193	-124.679	-0.078	-0.012
-537.179	129.106	-0.093	-0.119
-536.164	155.871	-0.287	-0.398
-535.150	-52.396	-0.184	-0.086
-534.135	-200.000	0.010	-0.137
-533.121	-57.128	-0.279	-0.123
-532.106	-200.000	0.042	-0.319
-531.091	175.519	-0.069	0.100
-530.077	269.424	0.109	0.191
-529.062	-182.909	0.310	-0.006
-528.048	-200.000	-0.037	0.402
-527.033	-17.524	-0.152	0.096
-526.018	-200.000	0.024	-0.186
-525.004	10.817	0.160	-0.123
-523.989	-35.444	-0.230	-0.125
-522.975	197.582	-0.100	0.154
-521.960	67.946	0.226	-0.232
-520.945	77.515	0.167	-0.179
-519.931	-48.232	-0.060	-0.029
-518.916	-92.369	-0.247	0.070
-517.902	-200.000	0.017	0.407
-516.887	800.000	-0.017	-0.070
-515.872	-200.000	-0.047	-0.215
-514.858	-1.661	-0.121	0.086
-513.843	174.324	0.262	0.380
-512.829	-40.979	0.135	0.070
-511.814	183.038	0.052	-0.077
-510.799	-144.747	0.172	-0.016
-509.785	-166.621	0.117	0.005
-508.770	800.000	-0.037	-0.132
-507.756	-200.000	-0.034	0.188
-506.741	-200.000	0.014	0.328
-505.726	-200.000	-0.056	-0.343
-504.712	-179.111	0.115	0.003
-503.697	56.412	-0.055	0.053
-502.683	-57.624	-0.227	0.100
-501.668	-53.822	-0.265	0.121
-500.653	50.180	0.129	-0.123
-499.639	800.000	-0.078	-0.328
-498.624	-41.942	-0.107	0.055
-497.610	125.076	0.066	0.083
-496.595	71.566	-0.154	-0.160
-495.581	299.591	-0.071	0.131
-494.566	-200.000	-0.298	0.001
-493.551	-200.000	0.009	0.120
-492.537	120.388	0.073	-0.090
-491.522	204.422	0.134	0.208
-490.508	-200.000	-0.050	-0.300
-489.493	-200.000	-0.015	0.134
-488.478	-200.000	0.008	-0.045
-487.464	-31.457	0.004	0.002
-486.449	-30.405	-0.164	-0.093
-485.435	-91.296	-0.284	0.081
-484.420	800.000	0.066	0.224
-483.405	-89.168	-0.093	-0.028
-482.391	-51.411	0.303	0.142
-481.376	-35.018	-0.301	-0.165
-480.362	-200.000	-0.020	-0.117
-479.347	130.352	0.098	0.126
-478.332	-200.000	-0.021	-0.210
-477.318	-44.780	0.052	0.026
-476.303	-200.000	-0.112	-0.504
-475.289	132.737	-0.253	0.326
-474.274	-41.675	-0.024	0.013
-473.259	800.000	0.016	0.054
-472.245	-39.625	-0.078	-0.041
-471.230	565.595	0.114	0.277
-470.216	-32.689	-0.184	-0.103
-469.201	-118.327	0.358	0.064
-468.186	-148.980	-0.182	-0.015
-467.172	16.423	0.044	-0.035
-466.157	-173.720	-0.245	0.007
-465.143	51.757	0.222	0.212
-464.128	-200.000	0.005	-0.102
-463.113	-200.000	-0.001	0.208
-462.099	-150.614	-0.259	-0.020
-461.084	-66.736	-0.149	-0.059
-460.070	545.071	0.152	0.365
-459.055	44.290	0.270	-0.248
-458.040	183.024	-0.222	0.328
-457.026	-43.706	-0.110	0.056
-456.011	315.830	0.078	-0.147
-454.997	565.423	-0.080	0.194
-453.982	800.000	-0.076	0.223
-452.968	-132.708	0.553	0.071
-451.953	191.342	-0.128	-0.193
-450.938	-54.002	-0.388	0.177
-449.924	278.734	-0.083	-0.149
-448.909	-4.691	-0.206	-0.142
-447.895	288.349	0.061	-0.111
-446.880	116.359	0.092	0.113
-445.865	-128.382	0.367	0.052
-444.851	317.311	0.044	0.083
-443.836	241.766	0.151	0.253
-442.822	-192.361	-0.486	0.005
-441.807	302.509	-0.126	0.234
-440.792	-91.760	0.142	0.040
-439.778	226.155	0.100	0.163
-438.763	-51.432	-0.183	0.086
-437.749	496.073	-0.095	0.218
-436.734	-200.000	0.015	0.115
-435.719	2.806	0.278	-0.202
-434.705	35.076	0.127	0.111
-433.690	800.000	-0.068	-0.270
-432.676	-128.155	0.182	-0.026
-431.661	88.896	-0.085	-0.095
-430.646	-42.204	-0.165	0.084
-429.632	144.071	0.121	-0.162
-428.617	92.211	0.314	0.354
-427.603	800.000	0.087	-0.256
-426.588	-98.429	0.205	-0.053
-425.573	-34.968	-0.417	-0.228
-424.559	61.249	0.190	-0.189
-423.544	231.605	0.108	0.178
-422.530	-200.000	-0.018	-0.334
-421.515	-53.725	0.080	0.037
-420.500	800.000	-0.042	0.155
-419.486	-60.681	0.055	-0.023
-418.471	701.302	0.153	0.404
-417.457	-200.000	0.000	-0.039
-416.442	12.968	-0.080	-0.062
-415.428	-24.264	-0.201	0.120
-414.413	96.645	-0.032	-0.037
-413.398	800.000	0.074	-0.241
-412.384	-117.097	-0.266	-0.048
-411.369	-200.000	0.001	-0.109
-410.355	-65.266	0.298	0.120
-409.340	203.829	-0.089	-0.138
-408.325	195.236	0.041	-0.062
-407.311	-200.000	-0.015	-0.163
-406.296	18.904	0.222	0.178
-405.282	-7.913	0.181	-0.122
-404.267	-76.579	0.231	-0.081
-403.252	-128.740	0.347	0.049
-402.238	800.000	-0.068	-0.216
-401.223	72.833	-0.234	-0.245
-400.209	-200.000	-0.006	0.047
-399.194	-200.000	-0.039	-0.246
-398.179	-200.000	0.008	-0.104
-397.165	141.913	0.181	0.240
-396.150	-42.096	0.231	0.118
-395.136	-111.581	-0.207	0.042
-394.121	800.000	-0.002	-0.009
-393.106	-200.000	0.011	0.357
-392.092	35.317	0.266	0.233
-391.077	154.220	-0.342	-0.468
-390.063	32.501	-0.237	-0.204
-389.048	280.721	0.106	0.190
-388.033	748.907	0.032	-0.087
-387.019	-9.216	-0.149	-0.100
-386.004	-34.717	0.271	0.148
-384.990	-200.000	-0.009	-0.086
-383.975	-200.000	-0.001	-0.005
-382.960	-172.174	0.126	0.004
-381.946	-101.699	0.183	0.044
-380.931	636.793	-0.055	0.140
-379.917	265.494	-0.113	0.197
-378.902	-83.727	0.070	0.022
-377.888	6.821	0.373	-0.277
-376.873	-111.981	-0.199	0.040
-375.858	108.846	0.135	-0.161
-374.844	-87.053	-0.045	0.014
-373.829	-117.503	0.027	-0.005
-372.815	-119.249	-0.157	-0.027
-371.800	46.356	0.096	-0.089
-370.785	-76.377	0.182	0.064
-369.771	349.245	0.116	0.228
-368.756	-200.000	0.004	-0.225
-367.742	-200.000	-0.003	0.050
-366.727	-200.000	0.007	-0.077
-365.712	-200.000	0.003	0.088
-364.698	199.440	-0.217	-0.332
-363.683	220.160	0.128	-0.205
-362.669	99.829	-0.182	0.210
-361.654	127.071	-0.180	0.227
-360.639	84.105	0.257	-0.280
-359.625	-131.712	-0.086	-0.011
-358.610	-83.078	0.165	-0.053
-357.596	167.072	-0.117	-0.166
-356.581	-39.634	-0.090	-0.047
-355.566	264.259	-0.103	0.178
-354.552	-110.511	0.209	0.043
-353.537	-200.000	-0.008	-0.069
-352.523	-159.853	-0.272	0.015
-351.508	30.484	0.288	0.245
-350.493	-128.964	0.255	-0.036
-349.479	66.476	0.082	-0.083
-348.464	406.543	0.030	0.064
-347.450	512.402	-0.070	0.163
-346.435	-200.000	-0.020	0.122
-345.420	105.511	-0.135	-0.159
-344.406	108.133	-0.202	-0.239
-343.391	-80.525	0.265	0.088
-342.377	-35.818	-0.199	-0.108
-341.362	-152.218	-0.109	-0.008
-340.348	87.514	-0.102	0.112
-339.333	253.611	-0.045	-0.076
-338.318	-200.000	-0.015	0.250
-337.304	-139.206	0.439	0.047
-336.289	52.139	0.105	0.099
-335.275	-163.588	0.315	0.015
-334.260	-200.000	0.051	0.371
-333.245	-2.674	-0.131	0.092
-332.231	-200.000	0.022	-0.127
-331.216	783.846	0.109	0.297
-330.202	417.366	0.112	-0.237
-329.187	-200.000	-0.012	-0.131
-328.172	-31.637	-0.495	0.277
-327.158	85.321	-0.238	-0.260
-326.143	22.546	-0.061	-0.050
-325.129	56.008	-0.080	0.078
-324.114	486.108	0.105	-0.238
-323.099	168.645	0.168	0.238
-322.085	-66.264	-0.221	0.088
-321.070	-200.000	0.051	0.251
-320.056	26.817	0.076	-0.064
-319.041	150.878	-0.240	0.325
-318.026	-70.882	0.400	0.150
-317.012	-73.880	0.273	-0.099
-315.997	-11.303	-0.263	0.172
-314.983	-140.522	-0.268	-0.028
-313.968	800.000	0.053	-0.162
-312.953	-21.764	0.277	-0.168
-311.939	-200.000	-0.004	-0.063
-310.924	-200.000	-0.067	-0.293
-309.910	5.968	-0.300	-0.221
-308.895	800.000	-0.072	0.226
-307.880	283.801	0.151	-0.271
-306.866	-40.786	0.203	0.105
-305.851	-129.636	-0.245	0.034
-304.837	112.427	0.107	-0.128
-303.822	604.259	0.043	-0.108
-302.807	800.000	-0.026	-0.101
-301.793	-77.368	-0.236	-0.082
-300.778	-111.291	0.169	0.034
-299.764	-88.868	0.427	0.126
-298.749	93.241	-0.119	-0.134
-297.735	789.194	-0.046	-0.124
-296.720	-85.001	-0.416	-0.130
-295.705	-200.000	0.058	-0.302
-294.691	-95.734	0.131	-0.035
-293.676	48.790	-0.174	0.162
-292.662	-25.764	0.203	-0.119
-291.647	-126.285	0.144	-0.021
-290.632	143.225	-0.191	-0.253
-289.618	35.576	-0.043	0.037
-288.603	271.478	-0.053	0.093
-287.589	-200.000	-0.038	-0.248
-286.574	555.566	-0.085	-0.203
-285.559	-200.000	0.012	0.365
-284.545	-44.926	-0.258	0.128
-283.530	-120.637	0.195	-0.033
-282.516	-101.402	0.112	-0.027
-281.501	-42.515	0.228	-0.116
-280.486	-175.216	-0.086	0.002
-279.472	87.368	0.078	-0.086
-278.457	207.410	-0.094	0.146
-277.443	-78.515	0.302	0.103
-276.428	800.000	0.084	0.305
-275.413	341.974	-0.114	-0.222
-274.399	60.574	-0.114	-0.112
-273.384	-55.360	0.051	0.023
-272.370	161.869	0.046	0.064
-271.355	-95.517	0.379	0.101
-270.340	800.000	-0.024	0.102
-269.326	567.613	0.081	-0.195
-268.311	49.315	0.122	-0.114
-267.297	380.816	-0.241	0.492
-266.282	125.466	-0.114	-0.142
-265.267	-84.502	0.133	-0.042
-264.253	-33.451	-0.390	-0.214
-263.238	133.021	-0.046	-0.059
-262.224	-200.000	-0.031	-0.139
-261.209	20.681	-0.072	0.058
-260.195	-200.000	0.006	-0.072
-259.180	32.316	0.200	-0.172
-258.165	800.000	0.029	0.106
-257.151	-132.130	-0.332	0.043
-256.136	-156.515	0.096	-0.006
-255.122	-200.000	0.028	0.227
-254.107	150.578	-0.298	-0.402
-253.092	-139.578	0.118	0.013
-252.078	196.173	0.020	0.030
-251.063	-199.253	-0.404	0.002
-250.049	33.385	-0.256	0.221
-249.034	-26.857	0.155	-0.090
-248.019	92.209	-0.453	0.507
-247.005	46.722	0.117	0.108
-245.990	800.000	0.134	-0.441
-244.976	76.551	0.141	-0.148
-243.961	125.782	-0.067	0.084
-242.946	147.516	0.220	0.294
-241.932	353.421	0.087	-0.171
-240.917	254.934	-0.114	-0.193
-239.903	333.550	-0.105	-0.201
-238.888	-15.717	-0.025	-0.016
-237.873	800.000	-0.017	-0.069
-236.859	174.708	0.190	0.273
-235.844	-200.000	-0.009	0.225
-234.830	32.400	0.079	0.067
-233.815	226.783	0.061	0.098
-232.800	-122.396	-0.095	-0.015
-231.786	-200.000	0.035	0.235
-230.771	66.879	-0.078	0.079
-229.757	36.309	-0.104	-0.091
-228.742	-73.248	-0.338	-0.123
-227.727	-61.769	0.451	0.187
-226.713	-17.542	-0.085	-0.053
-225.698	-200.000	-0.036	0.259
-224.684	800.000	0.067	0.213
-223.669	-183.709	-0.089	-0.002
-222.655	-43.085	0.251	-0.126
-221.640	-200.000	-0.047	-0.239
-220.625	-78.096	-0.137	0.047
-219.611	-69.045	-0.061	0.023
-218.596	-138.929	-0.053	0.006
-217.582	19.801	-0.326	0.260
-216.567	-22.571	-0.109	0.066
-215.552	-200.000	0.038	-0.174
-214.538	-79.041	-0.213	-0.072
-213.523	-200.000	-0.081	-0.381
-212.509	43.052	0.352	0.318
-211.494	-48.004	0.112	0.054
-210.479	223.839	0.043	0.068
-209.465	712.772	0.079	0.208
-208.450	143.141	-0.118	0.155
-207.436	-200.000	-0.009	0.137
-206.421	-164.262	-0.198	-0.009
-205.406	-139.071	0.169	0.018
-204.392	-200.000	0.072	0.349
-203.377	-83.138	0.117	-0.037
-202.363	107.441	0.218	0.258
-201.348	301.236	-0.057	0.105
-200.333	377.462	0.039	-0.079
-199.319	-200.000	-0.006	-0.361
-198.304	800.000	0.066	-0.210
-197.290	-110.540	0.258	-0.053
-196.275	800.000	-0.031	0.101
-195.260	335.851	0.144	0.277
-194.246	800.000	0.053	0.186
-193.231	-32.016	0.071	0.039
-192.217	79.223	0.150	0.159
-191.202	-104.348	0.116	-0.027
-190.187	788.977	-0.039	0.106
-189.173	800.000	-0.101	-0.418
-188.158	800.000	0.124	-0.460
-187.144	-86.102	-0.239	0.073
-186.129	-106.565	0.217	-0.048
-185.114	-200.000	0.021	0.306
-184.100	-200.000	0.024	0.138
-183.085	223.175	0.149	-0.238
-182.071	154.241	-0.076	0.104
-181.056	126.758	-0.166	-0.209
-180.042	-66.695	-0.506	0.198
-179.027	497.591	-0.122	-0.278
-178.012	17.651	0.408	0.321
-176.998	-27.044	0.252	0.146
-175.983	-134.294	-0.117	-0.014
-174.969	2.581	-0.045	0.032
-173.954	1.007	0.099	0.070
-172.939	256.003	-0.132	0.225
-171.925	66.158	-0.146	-0.146
-170.910	173.299	-0.119	-0.170
-169.896	-72.833	0.212	0.077
-168.881	282.851	-0.114	-0.202
-167.866	800.000	0.065	0.208
-166.852	800.000	0.073	0.222
-165.837	46.500	-0.191	0.176
-164.823	-200.000	-0.023	0.142
-163.808	244.185	0.124	0.206
-162.793	25.148	-0.285	0.234
-161.779	-200.000	0.016	-0.257
-160.764	118.094	-0.139	-0.169
-159.750	-149.321	0.297	-0.023
-158.735	343.288	-0.094	0.183
-157.720	112.960	0.200	-0.239
-156.706	800.000	-0.055	-0.156
-155.691	-163.250	-0.092	0.004
-154.677	-200.000	0.007	0.151
-153.662	-106.075	0.250	-0.056
-152.647	657.372	0.047	-0.119
-151.633	162.909	-0.068	-0.094
-150.618	275.220	-0.087	0.152
-149.604	-129.367	0.095	0.013
-148.589	-187.938	-0.291	-0.004
-147.574	-42.773	-0.117	-0.059
-146.560	800.000	-0.052	0.172
-145.545	800.000	0.045	0.136
-144.531	136.422	-0.223	-0.288
-143.516	152.530	0.049	0.067
-142.502	14.281	0.141	0.108
-141.487	-72.008	0.167	0.061
-140.472	35.707	0.271	-0.236
-139.458	497.505	0.116	-0.263
-138.443	502.292	0.066	-0.151
-137.429	-101.032	0.091	0.022
-136.414	800.000	-0.050	-0.138
-135.399	-5.571	-0.426	-0.289
-134.385	-71.616	0.288	-0.106
-133.370	-200.000	0.020	0.175
-132.356	114.847	-0.113	-0.136
-131.341	800.000	-0.023	-0.094
-130.326	800.000	0.066	0.205
-129.312	315.918	0.089	-0.167
-128.297	-101.912	0.068	0.016
-127.283	-47.601	0.196	-0.094
-126.268	-200.000	0.021	0.159
-125.253	-200.000	-0.049	0.545
-124.239	800.000	0.168	-0.508
-123.224	759.322	-0.030	-0.079
-122.210	-100.346	0.438	0.107
