DTS Sentinel unit serial number:	SN413079Multiplexer serial number:	ORYXHardware model number:	OX4-SRSoftware version number:	ORYX F/W v4.00 Oryx Data Collector v3.7.2.0data status	okinstallation	princeton_trtdifferential loss correction	single-endedforward channel	channel 4reverse channel	N/Adate	2019/09/10time	22:39:11forward acquisition time	60.00reverse acquisition time	0.00gamma	496.2192k internal	0.2316k external	0.2316temperature offset calibration	0.9947default loss term (dB/km)	0.3790temperature slope calibration	1.0000multiplexer offset coefficient	1.0000multiplexer slope coefficient	1.0000fibre end	0.00T internal ref (°C)	30.25T ext. ref 1 (°C)	-0.31T ext. ref 2 (°C)	23.61length (m)	temperature (°C)	Stokes	anti-Stokes-747.200	213.691	0.113	0.181
-746.185	-40.327	-0.088	0.047
-745.171	-84.061	0.192	0.062
-744.156	224.090	-0.107	0.175
-743.142	498.532	0.077	0.179
-742.127	-140.591	-0.230	-0.024
-741.112	-3.126	0.153	0.108
-740.098	341.512	0.247	0.489
-739.083	-145.017	0.121	-0.011
-738.069	800.000	-0.025	0.094
-737.054	-200.000	-0.002	-0.119
-736.039	-153.073	-0.331	0.024
-735.025	-49.583	0.487	0.235
-734.010	-157.059	-0.439	-0.027
-732.996	353.449	0.055	0.111
-731.981	-102.000	-0.237	-0.058
-730.966	-40.218	-0.197	-0.104
-729.952	16.061	0.110	0.088
-728.937	5.376	-0.238	0.178
-727.923	-200.000	-0.008	-0.061
-726.908	-89.170	0.300	0.090
-725.894	-29.240	0.170	-0.098
-724.879	-200.000	0.010	-0.238
-723.864	-79.047	-0.361	-0.124
-722.850	152.598	-0.213	-0.294
-721.835	203.459	0.117	0.183
-720.821	228.286	0.122	-0.201
-719.806	46.255	0.062	-0.058
-718.791	102.614	-0.202	-0.239
-717.777	464.743	-0.078	-0.176
-716.762	293.341	0.084	-0.155
-715.748	150.254	0.220	0.301
-714.733	3.449	-0.064	0.048
-713.718	800.000	0.053	-0.197
-712.704	-166.198	-0.202	-0.009
-711.689	-200.000	-0.019	0.114
-710.675	531.426	-0.128	0.305
-709.660	-137.176	-0.231	-0.027
-708.645	0.941	0.254	-0.184
-707.631	800.000	-0.115	0.363
-706.616	-36.465	-0.129	-0.070
-705.602	-26.701	0.301	-0.178
-704.587	-72.033	0.158	0.059
-703.572	432.210	0.108	0.237
-702.558	339.198	-0.094	-0.185
-701.543	99.837	0.089	0.104
-700.529	-16.752	0.077	0.049
-699.514	-46.313	-0.123	-0.061
-698.499	800.000	-0.079	-0.224
-697.485	553.912	-0.201	0.489
-696.470	800.000	-0.057	0.205
-695.456	286.970	-0.044	-0.081
-694.441	205.159	-0.067	-0.105
-693.426	800.000	-0.052	0.162
-692.412	800.000	-0.076	0.237
-691.397	164.726	0.283	0.404
-690.383	-54.216	-0.261	0.120
-689.368	62.311	0.082	-0.083
-688.354	-72.468	-0.074	0.028
-687.339	-41.359	0.359	0.187
-686.324	800.000	-0.062	-0.245
-685.310	136.715	0.248	-0.327
-684.295	455.757	0.047	0.105
-683.281	27.127	0.166	-0.141
-682.266	46.734	-0.078	0.073
-681.251	66.653	-0.192	-0.197
-680.237	-159.706	-0.113	0.006
-679.222	-0.265	-0.232	-0.167
-678.208	555.815	0.056	-0.136
-677.193	234.278	0.060	-0.100
-676.178	40.393	-0.088	-0.080
-675.164	72.509	0.089	-0.094
-674.149	22.944	-0.009	0.007
-673.135	-186.320	0.214	-0.003
-672.120	-86.944	-0.250	-0.077
-671.105	800.000	-0.089	-0.361
-670.091	623.092	-0.124	-0.316
-669.076	800.000	0.119	0.365
-668.062	218.105	0.120	0.194
-667.047	69.692	0.146	-0.151
-666.032	-145.071	-0.291	0.027
-665.018	56.467	-0.155	-0.152
-664.003	782.418	-0.140	0.388
-662.989	97.888	0.106	-0.124
-661.974	459.599	-0.164	-0.368
-660.959	-59.150	0.304	0.132
-659.945	8.707	-0.230	-0.175
-658.930	30.138	-0.217	0.187
-657.916	13.014	-0.227	-0.177
-656.901	-138.814	-0.327	0.036
-655.886	-123.576	-0.531	0.085
-654.872	-44.820	-0.153	0.077
-653.857	800.000	-0.023	-0.085
-652.843	-200.000	-0.033	0.154
-651.828	723.485	-0.116	0.313
-650.814	-200.000	0.075	0.365
-649.799	170.358	0.169	0.244
-648.784	-86.795	0.038	-0.012
-647.770	192.750	-0.081	0.124
-646.755	534.232	-0.086	-0.207
-645.741	75.049	-0.088	0.094
-644.726	800.000	0.037	0.151
-643.711	206.600	0.066	0.103
-642.697	800.000	-0.108	-0.432
-641.682	-200.000	0.007	-0.396
-640.668	-200.000	0.047	-0.351
-639.653	-200.000	-0.013	-0.509
-638.638	-200.000	-0.048	0.276
-637.624	-200.000	0.014	0.083
-636.609	229.664	-0.112	-0.184
-635.595	-44.879	0.200	0.101
-634.580	-200.000	0.010	0.237
-633.565	410.649	-0.114	-0.243
-632.551	-39.817	0.110	-0.058
-631.536	-200.000	-0.055	0.499
-630.522	55.246	0.174	0.169
-629.507	527.453	-0.062	0.147
-628.492	-161.973	-0.090	-0.005
-627.478	-9.830	-0.099	-0.067
-626.463	-47.778	0.085	-0.041
-625.449	785.839	-0.092	-0.256
-624.434	-52.405	-0.217	-0.101
-623.419	-91.719	-0.196	0.056
-622.405	241.879	0.091	-0.154
-621.390	-108.501	0.236	0.051
-620.376	73.517	0.197	0.208
-619.361	-141.831	-0.228	-0.023
-618.346	26.025	-0.114	0.096
-617.332	-200.000	-0.086	-0.410
-616.317	-200.000	-0.012	-0.286
-615.303	-200.000	-0.041	0.247
-614.288	-200.000	0.015	-0.340
-613.273	-128.643	-0.281	0.040
-612.259	-2.726	0.121	-0.085
-611.244	-96.676	-0.163	-0.043
-610.230	800.000	0.044	-0.173
-609.215	106.067	0.050	0.060
-608.201	-159.032	0.205	0.012
-607.186	137.931	-0.230	-0.304
-606.171	-200.000	-0.036	0.352
-605.157	-200.000	0.168	-0.000
-604.142	-34.634	-0.320	-0.176
-603.128	-200.000	-0.008	0.298
-602.113	82.082	-0.089	0.097
-601.098	-95.770	0.168	0.045
-600.084	-131.987	0.335	-0.044
-599.069	-4.981	-0.249	-0.173
-598.055	-107.934	0.281	0.061
-597.040	-124.079	0.157	-0.025
-596.025	36.544	0.231	-0.205
-595.011	-148.611	0.120	-0.010
-593.996	124.340	-0.107	0.136
-592.982	800.000	-0.123	-0.372
-591.967	-27.729	-0.046	-0.027
-590.952	-200.000	-0.011	0.148
-589.938	-55.973	-0.416	0.187
-588.923	-8.499	0.325	0.220
-587.909	13.155	0.283	-0.221
-586.894	-113.636	-0.150	-0.030
-585.879	-37.586	0.234	0.126
-584.865	-137.462	-0.296	0.034
-583.850	13.859	-0.105	0.082
-582.836	-56.749	0.194	-0.086
-581.821	-145.978	0.115	-0.010
-580.806	-5.843	-0.007	0.005
-579.792	-86.134	-0.394	-0.122
-578.777	800.000	-0.067	-0.225
-577.763	-148.357	-0.102	-0.008
-576.748	-118.999	-0.306	-0.054
-575.733	277.751	-0.079	-0.142
-574.719	786.354	-0.076	0.210
-573.704	-200.000	0.039	0.275
-572.690	18.869	0.085	0.069
-571.675	330.529	0.122	0.236
-570.661	115.911	-0.203	-0.250
-569.646	-16.374	0.242	0.155
-568.631	131.058	-0.182	-0.235
-567.617	98.181	-0.064	-0.074
-566.602	-76.220	0.108	0.038
-565.588	-200.000	-0.005	-0.072
-564.573	-46.547	-0.319	0.157
-563.558	-200.000	0.013	0.182
-562.544	-45.904	0.192	-0.095
-561.529	800.000	-0.020	-0.077
-560.515	-200.000	-0.003	-0.240
-559.500	-20.308	-0.130	-0.080
-558.485	751.859	0.130	-0.352
-557.471	-72.345	-0.172	-0.064
-556.456	18.568	0.295	-0.237
-555.442	432.131	0.090	-0.195
-554.427	66.931	-0.146	0.150
-553.412	356.547	-0.097	-0.194
-552.398	-11.091	-0.337	-0.224
-551.383	-121.719	0.299	-0.050
-550.369	800.000	0.022	-0.065
-549.354	-112.637	-0.077	-0.015
-548.339	20.222	-0.092	-0.074
-547.325	22.295	-0.076	-0.063
-546.310	60.904	0.191	-0.190
-545.296	-200.000	0.096	0.464
-544.281	-69.282	-0.044	0.017
-543.266	44.040	-0.054	-0.050
-542.252	-146.434	0.197	0.017
-541.237	168.598	-0.137	-0.196
-540.223	-123.157	-0.189	0.030
-539.208	-13.120	0.331	-0.216
-538.193	800.000	0.076	0.266
-537.179	340.183	0.169	0.332
-536.164	-200.000	0.019	0.166
-535.150	800.000	0.005	-0.021
-534.135	-200.000	0.018	-0.291
-533.121	-60.828	-0.040	0.017
-532.106	-26.747	-0.098	-0.058
-531.091	-7.396	0.029	-0.020
-530.077	-142.777	-0.129	-0.013
-529.062	-117.957	0.164	0.029
-528.048	214.877	-0.118	0.188
-527.033	-78.188	0.091	-0.032
-526.018	-22.308	-0.107	0.065
-525.004	18.684	0.164	-0.132
-523.989	-53.606	-0.211	-0.097
-522.975	-77.216	0.181	0.063
-521.960	800.000	0.057	-0.235
-520.945	-200.000	-0.044	-0.238
-519.931	338.128	0.115	-0.224
-518.916	-162.275	0.240	0.012
-517.902	-27.029	0.226	0.132
-516.887	-200.000	0.002	0.396
-515.872	-200.000	-0.003	0.100
-514.858	800.000	-0.018	0.053
-513.843	149.293	-0.167	0.227
-512.829	221.648	-0.154	-0.248
-511.814	-150.952	0.238	0.018
-510.799	102.853	0.119	0.140
-509.785	33.752	0.163	0.142
-508.770	-200.000	0.021	0.144
-507.756	-122.628	-0.125	0.020
-506.741	126.983	0.092	0.117
-505.726	11.462	0.255	0.196
-504.712	-62.874	-0.353	-0.147
-503.697	-60.559	0.456	-0.194
-502.683	-113.271	-0.096	-0.019
-501.668	-143.442	0.159	0.015
-500.653	-200.000	0.009	0.172
-499.639	-75.777	-0.207	-0.074
-498.624	-58.066	-0.102	-0.045
-497.610	-200.000	0.018	-0.177
-496.595	800.000	-0.018	-0.067
-495.581	-87.975	0.257	-0.078
-494.566	73.269	-0.142	-0.149
-493.551	-200.000	-0.004	-0.223
-492.537	-200.000	0.001	0.180
-491.522	-200.000	0.038	-0.304
-490.508	-72.847	0.240	-0.088
-489.493	424.584	-0.149	-0.321
-488.478	-120.154	-0.197	0.034
-487.464	-200.000	0.044	0.272
-486.449	-159.586	0.264	0.015
-485.435	800.000	-0.101	0.378
-484.420	-156.632	0.272	0.017
-483.405	81.254	-0.068	-0.074
-482.391	-83.145	-0.168	-0.054
-481.376	-11.120	-0.153	-0.101
-480.362	800.000	-0.020	0.064
-479.347	153.873	0.140	-0.192
-478.332	800.000	-0.036	-0.139
-477.318	800.000	-0.064	-0.238
-476.303	-110.673	0.077	0.016
-475.289	-59.779	-0.128	0.055
-474.274	581.250	0.102	-0.251
-473.259	-5.978	-0.176	0.121
-472.245	-200.000	-0.015	0.239
-471.230	-34.157	-0.335	-0.184
-470.216	516.263	0.119	-0.278
-469.201	-200.000	0.082	0.591
-468.186	-100.117	0.440	-0.110
-467.172	-185.820	-0.145	0.002
-466.157	640.666	0.100	0.255
-465.143	-22.142	-0.352	0.214
-464.128	297.122	0.053	0.097
-463.113	-200.000	-0.024	-0.225
-462.099	-82.339	0.059	-0.019
-461.084	-51.679	0.176	-0.082
-460.070	49.179	-0.225	0.212
-459.055	726.574	-0.116	-0.310
-458.040	-35.399	-0.212	0.115
-457.026	-72.229	0.130	0.048
-456.011	800.000	0.044	-0.175
-454.997	-200.000	0.006	-0.072
-453.982	-200.000	0.015	0.151
-452.968	-200.000	0.034	0.254
-451.953	-200.000	-0.026	-0.176
-450.938	-62.930	-0.067	-0.028
-449.924	-200.000	0.008	0.042
-448.909	-53.717	-0.272	-0.125
-447.895	-71.310	0.204	0.077
-446.880	-200.000	0.029	-0.155
-445.865	-137.621	0.126	0.014
-444.851	-200.000	0.040	0.208
-443.836	800.000	0.005	-0.015
-442.822	140.103	-0.116	0.153
-441.807	-94.656	-0.091	-0.025
-440.792	-146.465	0.375	0.033
-439.778	-152.476	0.130	-0.009
-438.763	316.812	0.189	-0.358
-437.749	-23.871	-0.204	0.122
-436.734	-200.000	0.001	0.013
-435.719	186.781	0.107	0.160
-434.705	-47.021	-0.275	-0.134
-433.690	-200.000	-0.023	0.118
-432.676	-79.071	0.250	0.085
-431.661	-133.942	-0.218	0.027
-430.646	1.113	-0.056	0.040
-429.632	-101.356	-0.426	-0.104
-428.617	-152.224	0.134	0.010
-427.603	-200.000	-0.007	0.092
-426.588	3.829	0.202	-0.148
-425.573	192.033	-0.072	-0.109
-424.559	-200.000	0.024	-0.352
-423.544	800.000	0.067	-0.271
-422.530	-67.131	0.183	0.072
-421.515	-200.000	-0.013	0.077
-420.500	-200.000	-0.001	-0.159
-419.486	-111.385	-0.533	0.109
-418.471	153.323	0.164	-0.224
-417.457	-152.227	0.258	-0.019
-416.442	-98.668	0.079	0.020
-415.428	-54.534	0.278	-0.126
-414.413	22.764	0.117	-0.096
-413.398	-172.904	-0.167	0.005
-412.384	639.294	-0.015	-0.038
-411.369	-7.312	-0.120	-0.081
-410.355	-34.353	0.295	-0.162
-409.340	13.938	0.390	0.303
-408.325	141.611	-0.117	0.155
-407.311	11.343	-0.135	0.104
-406.296	0.164	-0.209	0.149
-405.282	-52.766	0.225	-0.104
-404.267	-31.268	-0.096	0.054
-403.252	53.786	-0.211	-0.202
-402.238	183.427	0.044	-0.064
-401.223	266.372	0.108	0.189
-400.209	391.541	0.078	0.161
-399.194	6.183	0.180	0.134
-398.179	-30.420	-0.489	-0.277
-397.165	51.008	0.127	-0.120
-396.150	146.305	0.233	0.313
-395.136	-25.275	-0.337	-0.199
-394.121	27.478	0.152	-0.128
-393.106	551.562	-0.146	-0.350
-392.092	342.517	0.038	0.074
-391.077	-115.043	0.245	-0.047
-390.063	-20.334	0.250	-0.154
-389.048	553.316	-0.094	-0.226
-388.033	-200.000	0.016	-0.128
-387.019	-14.268	0.218	-0.140
-386.004	-132.143	0.455	-0.059
-384.990	-106.279	0.148	0.033
-383.975	-177.650	-0.249	0.006
-382.960	61.473	0.088	-0.088
-381.946	170.205	-0.046	-0.066
-380.931	35.382	-0.114	0.100
-379.917	-42.909	-0.165	-0.084
-378.902	-70.931	0.122	0.046
-377.888	-75.107	-0.426	0.152
-376.873	800.000	-0.084	0.338
-375.858	-200.000	-0.049	0.270
-374.844	14.267	-0.152	0.118
-373.829	190.951	-0.106	0.160
-372.815	28.071	-0.102	0.086
-371.800	800.000	0.012	-0.038
-370.785	-200.000	0.047	-0.249
-369.771	800.000	-0.068	-0.193
-368.756	7.694	-0.111	0.083
-367.742	-159.998	-0.077	-0.004
-366.727	-94.594	-0.412	0.112
-365.712	-67.249	0.232	-0.091
-364.698	136.525	0.308	-0.402
-363.683	93.743	-0.134	-0.152
-362.669	-173.752	-0.140	-0.004
-361.654	-29.214	0.311	-0.178
-360.639	-50.548	0.252	0.119
-359.625	-200.000	-0.008	0.187
-358.610	64.661	0.303	0.305
-357.596	-200.000	-0.037	0.236
-356.581	-21.928	-0.281	-0.171
-355.566	13.940	-0.143	0.111
-354.552	-10.759	-0.281	0.185
-353.537	6.597	0.205	-0.152
-352.523	516.872	-0.069	-0.161
-351.508	-144.474	0.128	0.012
-350.493	19.489	-0.508	-0.407
-349.479	486.910	-0.091	-0.208
-348.464	-200.000	0.297	-0.001
-347.450	-98.794	0.257	-0.065
-346.435	-100.361	0.246	-0.061
-345.420	128.892	-0.151	0.192
-344.406	-106.252	0.192	0.043
-343.391	137.795	-0.058	0.076
-342.377	-33.139	0.295	0.163
-341.362	-103.122	0.277	-0.065
-340.348	-200.000	0.002	0.236
-339.333	-200.000	-0.019	-0.385
-338.318	-200.000	0.004	-0.234
-337.304	318.983	-0.109	0.206
-336.289	-63.166	-0.094	-0.039
-335.275	18.552	-0.083	-0.066
-334.260	62.511	0.073	-0.073
-333.245	-70.329	-0.264	0.100
-332.231	-200.000	-0.044	-0.385
-331.216	262.901	0.175	0.302
-330.202	-83.204	0.498	-0.160
-329.187	-88.852	0.056	0.017
-328.172	425.769	0.014	0.030
-327.158	-175.742	-0.140	-0.004
-326.143	140.738	0.166	0.219
-325.129	136.089	0.276	-0.358
-324.114	292.731	-0.029	0.053
-323.099	-200.000	0.029	0.245
-322.085	-109.265	0.279	-0.059
-321.070	327.600	0.086	0.164
-320.056	678.272	0.078	0.203
-319.041	160.789	-0.104	-0.145
-318.026	-25.725	0.251	-0.147
-317.012	-193.260	-0.147	0.001
-315.997	-82.441	-0.236	-0.076
-314.983	1.105	0.253	0.181
-313.968	767.262	-0.052	-0.142
-312.953	178.170	-0.037	0.054
-311.939	-200.000	-0.010	-0.254
-310.924	800.000	-0.093	-0.255
-309.910	-200.000	-0.013	-0.057
-308.895	396.831	-0.198	0.413
-307.880	19.451	-0.151	0.121
-306.866	-60.359	0.086	-0.036
-305.851	-200.000	-0.011	-0.192
-304.837	-62.396	-0.466	0.193
-303.822	-80.502	-0.366	0.122
-302.807	-200.000	0.016	-0.202
-301.793	800.000	-0.109	0.438
-300.778	6.620	0.083	-0.062
-299.764	32.669	-0.197	-0.170
-298.749	800.000	0.082	0.281
-297.735	-129.576	0.103	-0.014
-296.720	800.000	0.108	0.423
-295.705	800.000	0.105	0.296
-294.691	-96.196	-0.233	-0.061
-293.676	-40.657	-0.112	-0.058
-292.662	-200.000	-0.074	0.436
-291.647	18.626	-0.218	0.174
-290.632	-96.857	-0.172	-0.045
-289.618	-15.351	0.246	-0.157
-288.603	378.469	0.205	0.416
-287.589	-200.000	-0.025	0.195
-286.574	-163.919	-0.116	-0.005
-285.559	800.000	0.048	-0.158
-284.545	570.816	-0.062	-0.151
-283.530	-200.000	-0.010	-0.119
-282.516	-24.455	-0.278	0.165
-281.501	-119.558	0.278	-0.048
-280.486	-185.552	-0.062	-0.001
-279.472	107.306	0.168	0.198
-278.457	152.233	0.211	0.287
-277.443	22.845	0.142	0.116
-276.428	-200.000	-0.007	-0.291
-275.413	315.359	-0.197	-0.370
-274.399	-64.817	-0.020	-0.008
-273.384	54.848	-0.070	0.067
-272.370	-140.576	0.154	-0.016
-271.355	110.231	0.162	0.193
-270.340	-72.540	-0.101	-0.037
-269.326	279.251	-0.108	-0.191
-268.311	-200.000	-0.088	0.532
-267.297	-147.279	0.137	0.012
-266.282	800.000	-0.066	-0.285
-265.267	8.992	0.060	0.045
-264.253	355.812	0.094	0.187
-263.238	-32.430	-0.086	-0.048
-262.224	-102.301	-0.046	0.011
-261.209	800.000	-0.055	0.176
-260.195	299.066	-0.155	0.284
-259.180	-12.862	-0.225	-0.146
-258.165	-29.140	-0.090	-0.051
-257.151	415.455	0.202	-0.427
-256.136	174.780	0.162	-0.234
-255.122	-200.000	-0.045	-0.290
-254.107	-138.233	-0.045	0.005
-253.092	-200.000	0.001	-0.084
-252.078	-78.616	0.436	0.148
-251.063	-200.000	-0.041	0.260
-250.049	137.534	-0.202	-0.263
-249.034	715.601	0.122	-0.323
-248.019	71.601	0.072	0.075
-247.005	-36.200	0.033	-0.018
-245.990	101.707	0.270	0.313
-244.976	-200.000	-0.014	0.066
-243.961	-93.863	-0.232	-0.063
-242.946	92.732	-0.273	0.306
-241.932	336.277	0.080	-0.153
-240.917	65.357	-0.224	-0.225
-239.903	800.000	-0.042	0.147
-238.888	-10.692	-0.197	-0.129
-237.873	-68.599	-0.138	-0.053
-236.859	-190.653	-0.071	-0.001
-235.844	74.735	0.121	0.126
-234.830	-29.192	-0.029	0.016
-233.815	-137.658	-0.229	0.026
-232.800	-200.000	0.042	0.203
-231.786	-74.631	0.353	0.126
-230.771	-200.000	-0.043	0.211
-229.757	-200.000	0.074	0.349
-228.742	9.240	0.130	0.098
-227.727	-26.192	0.204	-0.119
-226.713	800.000	0.068	0.283
-225.698	587.872	0.047	-0.115
-224.684	800.000	-0.096	0.278
-223.669	232.472	0.162	0.263
-222.655	58.412	0.113	0.110
-221.640	99.513	0.209	-0.240
-220.625	-6.954	-0.231	0.155
-219.611	140.329	-0.126	0.165
-218.596	800.000	-0.084	-0.230
-217.582	-96.974	0.154	0.040
-216.567	-70.487	0.207	0.078
-215.552	-200.000	0.060	0.311
-214.538	-200.000	0.056	0.346
-213.523	-114.105	0.261	0.050
-212.509	666.600	-0.072	0.185
-211.494	155.320	-0.152	-0.207
-210.479	-200.000	-0.049	0.238
-209.465	-163.892	0.033	-0.002
-208.450	194.405	-0.078	0.118
-207.436	11.849	-0.045	-0.034
-206.421	-82.057	-0.311	-0.101
-205.406	541.740	0.032	0.076
-204.392	800.000	0.016	0.053
-203.377	356.375	-0.150	-0.296
-202.363	-200.000	0.031	-0.345
-201.348	800.000	0.014	0.050
-200.333	800.000	-0.094	0.388
-199.319	-145.499	0.400	0.036
-198.304	800.000	0.008	-0.034
-197.290	-118.823	-0.103	0.018
-196.275	161.935	0.059	0.083
-195.260	800.000	-0.055	-0.214
-194.246	-95.444	-0.094	0.025
-193.231	123.468	-0.221	0.275
-192.217	-17.051	0.112	-0.070
-191.202	357.149	-0.074	-0.145
-190.187	800.000	-0.052	0.201
-189.173	-69.873	0.346	-0.131
-188.158	-26.775	-0.316	0.183
-187.144	-200.000	0.014	0.252
-186.129	-124.219	0.151	0.023
-185.114	-142.260	-0.295	-0.029
-184.100	800.000	0.072	-0.220
-183.085	96.251	0.106	0.121
-182.071	-12.747	0.012	-0.008
-181.056	-94.772	-0.276	-0.074
-180.042	-200.000	-0.004	-0.135
-179.027	-94.804	0.063	0.017
-178.012	-108.596	-0.392	-0.083
-176.998	79.574	0.147	0.156
-175.983	-59.198	0.158	0.068
-174.969	-129.510	0.304	-0.042
-173.954	-200.000	0.014	0.115
-172.939	495.322	0.050	0.113
-171.925	119.122	0.316	0.387
-170.910	120.882	0.095	0.117
-169.896	-148.227	-0.589	0.048
-168.881	-88.506	-0.140	0.041
-167.866	6.090	0.127	-0.093
-166.852	-125.745	0.379	0.057
-165.837	-121.032	-0.298	0.049
-164.823	-200.000	0.021	0.143
-163.808	-200.000	-0.015	-0.225
-162.793	-116.155	-0.258	0.047
-161.779	287.462	0.068	-0.122
-160.764	-109.171	0.369	-0.078
-159.750	-198.760	-0.217	-0.001
-158.735	146.857	-0.125	-0.166
-157.720	800.000	-0.051	0.170
-156.706	-8.663	0.046	-0.030
-155.691	-104.296	-0.044	0.010
-154.677	-157.898	-0.192	0.011
-153.662	144.277	0.053	-0.070
-152.647	36.807	-0.097	-0.085
-151.633	-125.414	-0.247	0.037
-150.618	599.401	0.107	0.262
-149.604	800.000	0.051	-0.193
-148.589	309.743	0.064	0.119
-147.574	-6.029	0.103	0.070
-146.560	-59.735	-0.407	-0.173
-145.545	-48.452	0.280	0.133
-144.531	123.324	0.003	-0.004
-143.516	-148.209	0.156	0.013
-142.502	154.051	-0.155	-0.211
-141.487	398.849	0.041	0.085
-140.472	26.292	-0.069	0.057
-139.458	-176.169	0.302	0.008
-138.443	-200.000	-0.020	0.355
-137.429	-200.000	0.315	-0.001
-136.414	-1.528	-0.167	0.117
-135.399	516.475	-0.227	0.525
-134.385	663.445	-0.040	0.101
-133.370	201.096	0.043	-0.066
-132.356	800.000	0.008	0.030
-131.341	-200.000	0.176	-0.000
-130.326	156.681	0.141	0.192
-129.312	198.554	-0.235	0.356
-128.297	-23.361	0.065	-0.039
-127.283	317.961	-0.096	0.179
-126.268	352.376	0.057	0.111
-125.253	-55.032	-0.106	0.047
-124.239	306.405	-0.140	-0.257
-123.224	-44.927	0.189	0.093
-122.210	-200.000	0.013	-0.389
