DTS Sentinel unit serial number:	SN413079Multiplexer serial number:	ORYXHardware model number:	OX4-SRSoftware version number:	ORYX F/W v4.00 Oryx Data Collector v3.7.2.0data status	okinstallation	princeton_trtdifferential loss correction	single-endedforward channel	channel 4reverse channel	N/Adate	2019/09/10time	19:23:11forward acquisition time	60.00reverse acquisition time	0.00gamma	496.2192k internal	0.2308k external	0.2308temperature offset calibration	0.9943default loss term (dB/km)	0.3790temperature slope calibration	1.0000multiplexer offset coefficient	1.0000multiplexer slope coefficient	1.0000fibre end	0.00T internal ref (°C)	33.70T ext. ref 1 (°C)	-0.37T ext. ref 2 (°C)	26.23length (m)	temperature (°C)	Stokes	anti-Stokes-747.200	145.703	0.148	-0.202
-746.185	60.106	0.310	0.312
-745.171	-42.806	-0.537	0.277
-744.156	605.547	0.060	0.153
-743.142	-73.705	0.119	0.044
-742.127	800.000	-0.110	0.350
-741.112	515.899	-0.102	-0.242
-740.098	223.021	-0.067	0.110
-739.083	-26.435	-0.229	-0.136
-738.069	438.096	0.059	0.130
-737.054	428.402	0.055	0.120
-736.039	800.000	-0.133	-0.511
-735.025	-57.588	0.229	-0.102
-734.010	10.302	-0.366	-0.283
-732.996	-135.709	-0.099	-0.012
-731.981	-125.224	0.181	-0.028
-730.966	-200.000	0.028	-0.124
-729.952	-80.386	0.368	0.125
-728.937	-43.347	0.026	-0.013
-727.923	-161.107	-0.311	0.017
-726.908	800.000	0.098	-0.418
-725.894	-113.790	0.216	-0.043
-724.879	-143.164	-0.385	-0.038
-723.864	-65.040	-0.256	0.105
-722.850	-21.891	0.112	0.069
-721.835	36.796	-0.271	0.243
-720.821	-134.956	-0.150	0.018
-719.806	-200.000	-0.054	0.367
-718.791	-9.433	-0.507	-0.344
-717.777	-195.280	-0.441	-0.003
-716.762	322.553	0.024	-0.047
-715.748	-13.021	-0.259	0.171
-714.733	108.206	0.032	0.039
-713.718	355.634	0.056	0.112
-712.704	-96.404	0.396	-0.106
-711.689	-200.000	-0.047	-0.238
-710.675	800.000	0.050	0.201
-709.660	-200.000	-0.015	0.434
-708.645	-97.152	-0.155	-0.041
-707.631	-200.000	-0.034	0.206
-706.616	-39.990	0.157	0.083
-705.602	-6.497	0.279	-0.193
-704.587	17.265	-0.235	-0.189
-703.572	-200.000	-0.012	0.073
-702.558	-78.851	-0.143	0.049
-701.543	584.098	-0.029	-0.073
-700.529	-200.000	0.025	-0.162
-699.514	-21.571	-0.093	-0.057
-698.499	-48.889	0.053	0.026
-697.485	-129.674	0.176	0.025
-696.470	364.366	-0.122	0.249
-695.456	-157.947	-0.301	-0.018
-694.441	-100.451	-0.093	0.023
-693.426	-200.000	0.005	0.099
-692.412	502.557	0.118	-0.277
-691.397	-43.678	-0.292	-0.149
-690.383	-200.000	0.053	-0.314
-689.368	-29.892	-0.099	-0.057
-688.354	115.457	-0.060	0.075
-687.339	-200.000	0.028	0.123
-686.324	197.203	-0.154	0.238
-685.310	700.691	0.078	0.209
-684.295	-200.000	0.020	-0.279
-683.281	-21.165	0.223	-0.138
-682.266	-200.000	0.003	-0.114
-681.251	-144.630	0.199	0.019
-680.237	-200.000	-0.024	-0.163
-679.222	-165.389	-0.282	0.013
-678.208	-50.010	-0.097	-0.047
-677.193	-200.000	-0.012	-0.282
-676.178	61.636	-0.076	-0.077
-675.164	-41.560	0.034	-0.018
-674.149	10.941	0.324	0.251
-673.135	-200.000	0.103	-0.467
-672.120	-88.551	0.120	0.036
-671.105	210.304	0.019	0.031
-670.091	250.314	0.108	0.186
-669.076	14.483	0.078	-0.062
-668.062	-89.114	0.046	0.014
-667.047	-86.063	-0.060	-0.019
-666.032	800.000	0.036	-0.140
-665.018	-200.000	-0.006	0.175
-664.003	123.592	0.101	0.128
-662.989	-171.967	-0.399	-0.013
-661.974	-63.867	-0.212	0.088
-660.959	800.000	-0.059	0.194
-659.945	53.931	0.161	0.157
-658.930	-200.000	0.011	0.076
-657.916	769.760	-0.098	0.270
-656.901	-25.311	-0.142	-0.085
-655.886	800.000	0.097	0.294
-654.872	-136.255	-0.227	0.027
-653.857	800.000	-0.033	-0.143
-652.843	166.517	0.386	-0.554
-651.828	173.832	-0.184	0.269
-650.814	800.000	-0.038	0.109
-649.799	164.870	-0.223	-0.318
-648.784	234.248	-0.063	-0.105
-647.770	-128.065	0.182	-0.026
-646.755	68.265	-0.163	-0.169
-645.741	800.000	-0.022	0.087
-644.726	19.107	0.026	0.021
-643.711	9.759	-0.041	0.032
-642.697	-74.725	-0.323	-0.117
-641.682	-96.328	-0.479	-0.128
-640.668	162.127	0.154	-0.218
-639.653	-74.116	-0.043	0.016
-638.638	-91.104	-0.154	-0.045
-637.624	637.694	-0.050	-0.128
-636.609	429.620	0.255	-0.558
-635.595	-25.494	0.437	-0.261
-634.580	-71.018	0.162	-0.062
-633.565	37.667	-0.131	-0.117
-632.551	-54.321	-0.275	-0.126
-631.536	12.933	-0.281	-0.220
-630.522	187.063	0.157	0.237
-629.507	-192.823	0.272	0.003
-628.492	-200.000	0.024	-0.138
-627.478	-51.171	0.208	0.099
-626.463	172.685	-0.119	-0.174
-625.449	217.193	0.071	-0.114
-624.434	800.000	-0.041	-0.171
-623.419	-200.000	-0.034	-0.213
-622.405	-101.972	-0.047	-0.011
-621.390	-112.367	-0.183	-0.037
-620.376	-200.000	-0.038	0.279
-619.361	-200.000	0.021	-0.190
-618.346	-183.100	-0.277	0.005
-617.332	-41.478	0.063	0.033
-616.317	-12.799	0.171	-0.112
-615.303	800.000	-0.077	0.272
-614.288	-71.167	-0.153	-0.058
-613.273	-72.662	0.215	-0.080
-612.259	183.519	-0.180	-0.269
-611.244	-52.529	-0.483	0.226
-610.230	-144.246	0.246	0.023
-609.215	-6.730	0.325	0.224
-608.201	27.512	-0.220	0.187
-607.186	-125.826	0.217	0.033
-606.171	99.324	0.338	0.395
-605.157	232.990	0.099	-0.165
-604.142	-147.286	0.270	0.023
-603.128	-54.972	-0.358	-0.163
-602.113	-94.009	0.206	0.057
-601.098	-200.000	-0.005	0.404
-600.084	-13.711	-0.264	-0.173
-599.069	-200.000	0.023	0.296
-598.055	-200.000	0.057	-0.258
-597.040	-90.275	0.161	-0.047
-596.025	800.000	-0.042	-0.121
-595.011	167.450	0.175	0.251
-593.996	-171.702	-0.270	-0.009
-592.982	-67.925	-0.132	-0.052
-591.967	207.872	-0.045	0.070
-590.952	800.000	0.028	-0.094
-589.938	-70.343	-0.248	0.095
-588.923	115.385	0.063	0.078
-587.909	385.702	0.026	0.054
-586.894	164.219	0.139	0.198
-585.879	-179.965	0.168	0.004
-584.865	48.892	-0.167	-0.158
-583.850	-200.000	-0.066	-0.379
-582.836	-9.426	-0.226	0.152
-581.821	-200.000	0.043	-0.232
-580.806	345.204	-0.092	0.182
-579.792	17.448	0.268	0.215
-578.777	25.935	0.110	0.093
-577.763	15.699	-0.120	0.096
-576.748	800.000	0.028	0.114
-575.733	-126.976	-0.221	0.033
-574.719	290.686	-0.117	-0.214
-573.704	800.000	-0.126	0.383
-572.690	-88.634	-0.152	0.046
-571.675	800.000	0.150	-0.464
-570.661	-200.000	-0.011	0.066
-569.646	-152.515	-0.390	0.028
-568.631	81.924	-0.104	-0.114
-567.617	291.555	-0.113	-0.208
-566.602	61.682	0.107	0.107
-565.588	-94.547	0.169	-0.046
-564.573	-70.129	0.311	0.120
-563.558	205.632	0.130	-0.203
-562.544	-113.286	-0.115	0.023
-561.529	-200.000	-0.041	0.288
-560.515	-146.291	-0.206	-0.018
-559.500	-23.448	-0.098	-0.059
-558.485	-35.262	-0.127	0.070
-557.471	-200.000	0.007	0.195
-556.456	800.000	-0.080	-0.237
-555.442	-200.000	-0.034	-0.195
-554.427	191.893	0.002	0.002
-553.412	-184.147	-0.181	0.003
-552.398	120.522	-0.100	0.126
-551.383	-59.357	-0.230	-0.100
-550.369	-53.044	0.171	0.079
-549.354	-57.848	-0.095	0.042
-548.339	-200.000	0.035	0.381
-547.325	725.169	0.177	-0.475
-546.310	30.491	0.084	-0.073
-545.296	162.645	-0.204	0.288
-544.281	-147.489	-0.099	-0.008
-543.266	714.299	0.033	0.087
-542.252	-19.911	-0.193	-0.120
-541.237	-45.780	0.220	-0.110
-540.223	86.391	0.226	0.251
-539.208	288.367	0.031	-0.056
-538.193	-92.346	-0.174	-0.050
-537.179	65.080	-0.189	0.192
-536.164	-200.000	0.004	-0.354
-535.150	504.413	-0.077	-0.179
-534.135	-44.327	-0.127	-0.064
-533.121	-23.599	-0.064	0.039
-532.106	-54.260	0.353	0.162
-531.091	-200.000	-0.025	-0.203
-530.077	-200.000	0.026	0.220
-529.062	33.977	0.059	0.052
-528.048	-159.508	-0.119	0.007
-527.033	-12.496	-0.260	-0.171
-526.018	672.639	-0.080	-0.210
-525.004	32.879	-0.196	-0.171
-523.989	800.000	0.113	-0.344
-522.975	-162.145	-0.140	-0.007
-521.960	-163.218	-0.365	-0.018
-520.945	-172.414	0.114	-0.004
-519.931	-3.763	0.252	-0.176
-518.916	-172.962	0.383	-0.012
-517.902	-200.000	-0.001	0.315
-516.887	-22.930	0.372	-0.226
-515.872	800.000	0.075	0.215
-514.858	800.000	-0.008	-0.021
-513.843	55.572	0.075	-0.073
-512.829	162.092	0.213	0.300
-511.814	-200.000	-0.007	0.275
-510.799	-56.589	0.110	0.049
-509.785	-61.379	0.251	0.106
-508.770	-82.548	-0.191	-0.062
-507.756	61.904	-0.185	0.186
-506.741	-100.658	0.124	-0.031
-505.726	-61.443	-0.267	0.113
-504.712	351.970	-0.106	-0.211
-503.697	283.033	-0.086	-0.155
-502.683	-136.372	-0.258	-0.030
-501.668	-63.882	-0.138	0.057
-500.653	800.000	-0.042	0.169
-499.639	275.298	0.060	-0.107
-498.624	203.493	-0.112	0.175
-497.610	91.941	0.111	0.126
-496.595	-200.000	0.054	-0.311
-495.581	-53.975	0.033	0.015
-494.566	-139.036	0.116	0.013
-493.551	-200.000	-0.004	-0.163
-492.537	20.931	-0.341	0.278
-491.522	353.560	0.052	-0.104
-490.508	800.000	-0.053	0.220
-489.493	-200.000	0.009	-0.199
-488.478	67.229	0.142	0.146
-487.464	800.000	0.024	-0.083
-486.449	60.923	-0.105	0.105
-485.435	-140.171	-0.136	-0.014
-484.420	-81.930	0.315	0.104
-483.405	-200.000	-0.007	0.223
-482.391	13.984	0.018	-0.014
-481.376	-192.106	-0.140	-0.001
-480.362	-112.514	-0.248	-0.050
-479.347	-97.826	-0.406	-0.106
-478.332	800.000	-0.014	-0.045
-477.318	15.496	0.168	0.133
-476.303	85.602	0.131	0.145
-475.289	-200.000	-0.026	-0.226
-474.274	800.000	0.085	0.272
-473.259	21.358	-0.019	0.016
-472.245	15.034	0.080	0.063
-471.230	-200.000	-0.025	-0.130
-470.216	-200.000	0.011	-0.231
-469.201	54.543	-0.157	0.152
-468.186	-25.158	-0.096	-0.057
-467.172	-200.000	0.000	0.042
-466.157	80.218	-0.237	0.257
-465.143	72.908	0.185	0.194
-464.128	323.276	-0.042	-0.081
-463.113	-140.520	-0.206	0.021
-462.099	-151.560	-0.370	-0.028
-461.084	86.353	0.101	0.112
-460.070	243.145	0.112	0.189
-459.055	-111.067	0.378	0.078
-458.040	-161.924	-0.209	-0.011
-457.026	800.000	-0.021	0.075
-456.011	115.688	0.091	0.111
-454.997	-63.297	-0.245	-0.101
-453.982	22.856	0.243	0.200
-452.968	-99.476	0.130	0.033
-451.953	-33.379	-0.089	0.050
-450.938	404.395	-0.066	0.139
-449.924	277.088	-0.147	0.262
-448.909	-90.151	-0.072	0.021
-447.895	-48.195	0.106	0.051
-446.880	686.069	0.076	-0.199
-445.865	577.053	-0.146	-0.357
-444.851	60.934	-0.120	0.120
-443.836	753.763	-0.101	-0.274
-442.822	-200.000	-0.057	0.387
-441.807	96.313	0.053	0.061
-440.792	90.116	0.247	0.277
-439.778	445.397	0.074	0.163
-438.763	514.241	-0.108	0.253
-437.749	-200.000	0.000	-0.080
-436.734	-87.510	-0.311	0.095
-435.719	104.765	-0.230	0.272
-434.705	96.658	-0.208	-0.239
-433.690	464.218	-0.081	-0.183
-432.676	-200.000	0.020	-0.263
-431.661	31.166	0.230	-0.198
-430.646	-200.000	-0.011	-0.241
-429.632	-200.000	-0.007	-0.516
-428.617	-125.880	0.098	-0.015
-427.603	-76.622	-0.299	-0.105
-426.588	-200.000	-0.027	0.120
-425.573	26.648	0.083	-0.070
-424.559	168.337	0.142	-0.203
-423.544	115.447	-0.135	0.166
-422.530	25.175	-0.147	0.123
-421.515	270.149	0.018	-0.031
-420.500	263.334	0.034	-0.059
-419.486	30.460	-0.132	0.113
-418.471	-200.000	-0.025	-0.227
-417.457	35.512	-0.165	-0.145
-416.442	-74.196	0.213	-0.077
-415.428	-133.309	0.053	-0.007
-414.413	35.781	-0.159	-0.140
-413.398	-90.006	0.095	0.028
-412.384	20.328	-0.072	-0.058
-411.369	183.993	-0.193	-0.286
-410.355	311.033	-0.093	-0.174
-409.340	-89.102	0.337	-0.100
-408.325	148.128	0.365	0.494
-407.311	-49.563	-0.401	0.192
-406.296	-200.000	-0.021	-0.161
-405.282	82.783	-0.184	-0.201
-404.267	-106.087	0.223	-0.050
-403.252	85.237	0.205	0.226
-402.238	62.460	-0.130	-0.130
-401.223	800.000	0.037	0.135
-400.209	4.733	0.143	-0.105
-399.194	-127.080	-0.153	0.022
-398.179	64.501	-0.106	-0.107
-397.165	800.000	0.056	-0.170
-396.150	800.000	-0.093	-0.292
-395.136	301.929	0.201	-0.372
-394.121	17.587	-0.048	-0.038
-393.106	526.568	0.141	0.334
-392.092	-58.409	0.267	-0.116
-391.077	168.181	0.177	0.252
-390.063	-19.342	0.041	-0.026
-389.048	800.000	0.026	-0.087
-388.033	-62.174	0.370	0.155
-387.019	-35.523	0.050	-0.027
-386.004	-30.908	0.219	0.124
-384.990	84.821	0.176	-0.193
-383.975	800.000	-0.039	0.143
-382.960	-173.819	-0.287	-0.009
-381.946	-200.000	0.051	0.235
-380.931	380.259	0.132	0.272
-379.917	-174.782	0.174	-0.005
-378.902	123.791	-0.074	0.093
-377.888	104.090	0.177	-0.209
-376.873	-200.000	-0.037	-0.324
-375.858	800.000	0.052	-0.184
-374.844	-34.711	0.122	-0.067
-373.829	261.681	0.113	-0.197
-372.815	89.321	-0.131	-0.146
-371.800	30.096	0.149	0.128
-370.785	229.928	-0.064	0.105
-369.771	-200.000	-0.002	0.142
-368.756	501.848	-0.044	-0.102
-367.742	2.321	-0.200	-0.145
-366.727	-162.362	-0.216	0.011
-365.712	-200.000	0.027	-0.323
-364.698	219.883	0.187	0.300
-363.683	-200.000	-0.027	-0.482
-362.669	-169.761	-0.117	0.004
-361.654	800.000	-0.116	-0.323
-360.639	-200.000	-0.024	-0.141
-359.625	65.282	0.198	-0.200
-358.610	-200.000	0.097	0.489
-357.596	76.758	0.278	-0.295
-356.581	-140.233	-0.134	-0.014
-355.566	-22.276	0.186	0.113
-354.552	-103.261	0.215	-0.051
-353.537	-67.275	-0.468	-0.184
-352.523	-47.968	0.268	-0.130
-351.508	-114.326	-0.368	-0.071
-350.493	195.121	0.191	-0.290
-349.479	35.959	0.140	-0.123
-348.464	11.476	-0.364	0.279
-347.450	-156.735	-0.250	-0.015
-346.435	-137.026	-0.295	-0.034
-345.420	86.428	-0.003	0.004
-344.406	-147.891	-0.138	-0.012
-343.391	-200.000	-0.083	-0.472
-342.377	-68.453	-0.099	0.038
-341.362	-200.000	-0.004	0.210
-340.348	563.065	-0.090	0.219
-339.333	185.146	-0.100	0.149
-338.318	-105.721	0.093	0.021
-337.304	-119.178	0.088	-0.015
-336.289	-52.500	-0.129	-0.060
-335.275	-200.000	-0.018	-0.167
-334.260	-79.563	0.577	0.195
-333.245	-189.585	0.063	0.001
-332.231	800.000	-0.059	0.211
-331.216	24.159	0.280	0.231
-330.202	-51.997	-0.212	0.099
-329.187	275.657	0.041	-0.072
-328.172	107.999	0.026	-0.032
-327.158	800.000	-0.034	0.142
-326.143	-200.000	-0.009	0.115
-325.129	-167.060	-0.323	0.013
-324.114	630.546	0.139	0.352
-323.099	-200.000	0.078	-0.440
-322.085	-200.000	-0.020	-0.119
-321.070	292.079	-0.095	-0.173
-320.056	5.895	0.168	0.124
-319.041	-88.276	0.203	0.061
-318.026	800.000	0.015	0.059
-317.012	44.669	-0.032	0.030
-315.997	74.868	-0.330	0.348
-314.983	290.925	0.062	0.112
-313.968	782.820	-0.084	-0.229
-312.953	-128.961	-0.243	0.034
-311.939	-200.000	0.017	0.537
-310.924	-200.000	-0.037	0.558
-309.910	59.291	-0.124	0.122
-308.895	-200.000	-0.023	-0.375
-307.880	800.000	-0.037	-0.107
-306.866	-200.000	0.002	0.382
-305.851	108.249	-0.305	0.364
-304.837	11.507	0.285	-0.218
-303.822	42.079	0.226	0.205
-302.807	-191.037	0.259	-0.003
-301.793	267.582	-0.147	-0.256
-300.778	-36.929	-0.511	-0.274
-299.764	-51.313	0.208	0.097
-298.749	-185.262	0.135	-0.002
-297.735	-99.802	0.182	-0.046
-296.720	-35.512	-0.180	-0.098
-295.705	-77.884	-0.172	0.059
-294.691	59.034	0.225	0.221
-293.676	800.000	-0.076	-0.213
-292.662	-200.000	0.035	0.404
-291.647	734.525	0.111	0.296
-290.632	-11.929	0.257	-0.168
-289.618	683.275	0.061	0.158
-288.603	-82.806	0.330	-0.106
-287.589	-67.014	0.103	-0.041
-286.574	59.859	-0.080	0.079
-285.559	-124.527	0.041	-0.006
-284.545	-11.716	0.227	0.149
-283.530	76.299	-0.194	-0.205
-282.516	-89.639	-0.237	0.070
-281.501	110.645	0.190	-0.228
-280.486	39.079	0.152	-0.136
-279.472	108.637	-0.109	0.130
-278.457	83.550	0.203	0.221
-277.443	44.572	-0.142	0.130
-276.428	-200.000	0.027	0.230
-275.413	-84.666	-0.149	0.047
-274.399	-92.768	-0.312	0.087
-273.384	800.000	-0.132	0.380
-272.370	29.785	0.191	0.162
-271.355	-65.529	0.259	-0.104
-270.340	298.021	-0.060	0.110
-269.326	-72.596	0.198	-0.073
-268.311	800.000	-0.052	0.153
-267.297	-44.187	0.125	-0.062
-266.282	800.000	-0.027	0.117
-265.267	123.904	-0.278	0.348
-264.253	-200.000	-0.049	-0.238
-263.238	-103.409	0.130	-0.031
-262.224	143.090	-0.049	0.065
-261.209	-130.246	0.051	-0.007
-260.195	10.458	0.146	-0.111
-259.180	-77.671	-0.287	0.099
-258.165	-200.000	-0.051	0.295
-257.151	192.244	-0.082	0.123
-256.136	56.869	-0.221	0.215
-255.122	59.677	0.109	0.107
-254.107	800.000	-0.051	0.188
-253.092	-93.369	0.141	-0.039
-252.078	-67.583	0.228	-0.089
-251.063	-49.153	-0.164	-0.078
-250.049	188.212	0.016	-0.023
-249.034	-28.826	0.231	0.132
-248.019	252.883	0.117	-0.199
-247.005	-66.177	0.116	-0.046
-245.990	-150.665	-0.359	0.027
-244.976	-117.900	-0.215	-0.038
-243.961	630.202	-0.275	-0.693
-242.946	89.158	0.151	0.167
-241.932	56.515	0.143	0.138
-240.917	800.000	-0.136	0.397
-239.903	-158.647	0.088	0.005
-238.888	-89.892	0.183	0.053
-237.873	75.894	0.018	-0.019
-236.859	216.844	-0.167	-0.264
-235.844	140.042	-0.107	0.141
-234.830	-23.249	0.046	0.027
-233.815	-114.506	-0.075	0.014
-232.800	719.580	0.058	0.153
-231.786	206.683	-0.008	-0.012
-230.771	800.000	-0.137	-0.435
-229.757	-200.000	0.010	-0.281
-228.742	152.052	0.207	-0.282
-227.727	-200.000	0.091	0.405
-226.713	-39.876	0.339	-0.176
-225.698	11.960	0.204	0.156
-224.684	-3.528	0.317	0.220
-223.669	127.411	0.091	-0.115
-222.655	285.254	0.219	-0.392
-221.640	800.000	-0.017	-0.063
-220.625	68.877	-0.123	0.126
-219.611	250.047	-0.149	-0.252
-218.596	579.125	0.116	-0.282
-217.582	473.856	-0.059	-0.133
-216.567	-77.961	-0.097	0.033
-215.552	26.905	-0.196	0.164
-214.538	-52.067	0.168	-0.077
-213.523	-78.183	0.121	-0.042
-212.509	-165.533	-0.074	-0.003
-211.494	306.731	-0.133	0.246
-210.479	-24.534	0.122	-0.072
-209.465	528.133	-0.030	0.070
-208.450	800.000	-0.120	0.424
-207.436	99.483	-0.043	-0.049
-206.421	-97.224	-0.109	-0.028
-205.406	130.451	-0.104	-0.132
-204.392	17.478	-0.027	0.021
-203.377	239.638	0.153	0.253
-202.363	10.937	-0.043	0.033
-201.348	-147.247	-0.238	0.020
-200.333	800.000	0.113	0.312
-199.319	371.063	-0.146	0.295
-198.304	-179.439	-0.118	0.003
-197.290	-200.000	0.062	0.279
-196.275	-70.671	0.151	0.057
-195.260	105.661	-0.238	-0.280
-194.246	-24.531	0.182	-0.108
-193.231	-200.000	-0.017	-0.088
-192.217	-114.565	-0.149	0.028
-191.202	340.430	0.202	0.392
-190.187	28.801	0.042	-0.036
-189.173	480.443	-0.206	0.465
-188.158	-130.517	-0.122	0.016
-187.144	-110.583	0.096	0.020
-186.129	-130.545	0.369	0.050
-185.114	53.064	-0.196	-0.186
-184.100	232.843	-0.055	-0.091
-183.085	335.537	-0.081	0.156
-182.071	95.130	0.164	0.185
-181.056	-62.530	0.070	-0.029
-180.042	90.391	0.165	-0.184
-179.027	5.114	-0.052	0.038
-178.012	201.360	0.221	0.338
-176.998	800.000	-0.005	-0.016
-175.983	-66.655	0.234	-0.092
-174.969	-151.802	0.449	-0.033
-173.954	-152.940	0.073	0.005
-172.939	283.182	0.054	0.097
-171.925	800.000	0.052	0.154
-170.910	-152.074	0.172	0.012
-169.896	129.541	0.120	-0.152
-168.881	531.037	0.088	0.206
-167.866	1.506	0.135	-0.097
-166.852	-137.562	0.352	0.039
-165.837	694.897	-0.136	-0.355
-164.823	168.189	0.158	-0.223
-163.808	-58.416	0.258	-0.111
-162.793	-80.254	0.056	-0.019
-161.779	-113.950	0.105	-0.020
-160.764	-129.386	-0.319	-0.044
-159.750	116.851	0.168	0.205
-158.735	-192.789	-0.149	-0.001
-157.720	-94.837	0.313	0.084
-156.706	286.592	0.145	-0.260
-155.691	660.558	0.100	-0.256
-154.677	800.000	-0.056	-0.160
-153.662	134.657	-0.088	-0.113
-152.647	225.223	0.110	-0.177
-151.633	-200.000	-0.036	-0.328
-150.618	147.099	-0.258	-0.344
-149.604	800.000	-0.071	0.242
-148.589	43.067	0.113	0.102
-147.574	3.840	-0.166	-0.121
-146.560	800.000	-0.054	0.172
-145.545	-200.000	0.002	-0.030
-144.531	105.650	-0.182	-0.214
-143.516	29.318	0.443	-0.373
-142.502	34.044	0.097	0.084
-141.487	385.113	0.047	-0.096
-140.472	-127.053	0.164	0.024
-139.458	460.514	0.031	-0.068
-138.443	-136.596	0.287	-0.033
-137.429	415.815	-0.102	-0.216
-136.414	484.918	0.158	-0.357
-135.399	464.150	0.022	-0.049
-134.385	-200.000	0.002	0.096
-133.370	100.433	0.069	0.080
-132.356	0.209	0.126	0.089
-131.341	-163.604	0.233	-0.011
-130.326	-61.420	-0.386	0.161
-129.312	398.281	-0.134	0.279
-128.297	180.385	-0.228	0.331
-127.283	-110.571	0.156	-0.032
-126.268	184.824	0.064	-0.095
-125.253	125.960	0.096	0.121
-124.239	92.829	-0.232	-0.260
-123.224	-200.000	-0.065	-0.406
-122.210	-166.728	-0.267	0.011
-121.195	-88.853	0.257	0.076
