DTS Sentinel unit serial number:	SN413079Multiplexer serial number:	ORYXHardware model number:	OX4-SRSoftware version number:	ORYX F/W v4.00 Oryx Data Collector v3.7.2.0data status	okinstallation	princeton_trtdifferential loss correction	single-endedforward channel	channel 4reverse channel	N/Adate	2019/09/10time	16:19:11forward acquisition time	60.00reverse acquisition time	0.00gamma	496.2192k internal	0.2295k external	0.2295temperature offset calibration	0.9939default loss term (dB/km)	0.3790temperature slope calibration	1.0000multiplexer offset coefficient	1.0000multiplexer slope coefficient	1.0000fibre end	0.00T internal ref (°C)	38.25T ext. ref 1 (°C)	-0.27T ext. ref 2 (°C)	30.75length (m)	temperature (°C)	Stokes	anti-Stokes-747.200	19.813	0.154	0.127
-746.185	575.882	0.185	0.463
-745.171	-47.197	0.311	-0.155
-744.156	126.703	-0.237	0.306
-743.142	800.000	-0.085	-0.265
-742.127	-102.019	-0.234	0.058
-741.112	800.000	0.112	0.374
-740.098	44.119	-0.311	0.291
-739.083	152.052	0.054	0.076
-738.069	453.531	-0.199	0.450
-737.054	190.807	-0.029	-0.045
-736.039	-17.376	-0.212	0.136
-735.025	57.628	0.087	0.087
-734.010	-40.524	-0.327	0.174
-732.996	-84.143	-0.587	0.190
-731.981	800.000	-0.063	-0.230
-730.966	22.267	-0.304	0.254
-729.952	-200.000	-0.084	-0.528
-728.937	-157.155	-0.067	-0.004
-727.923	-11.152	-0.360	-0.242
-726.908	-76.776	-0.117	-0.042
-725.894	800.000	0.039	-0.157
-724.879	-4.604	0.049	-0.035
-723.864	800.000	0.047	-0.154
-722.850	-97.905	-0.332	-0.088
-721.835	0.009	-0.290	0.211
-720.821	-162.453	-0.250	-0.013
-719.806	-47.757	-0.220	-0.109
-718.791	215.954	0.244	-0.396
-717.777	19.732	-0.123	-0.101
-716.762	-200.000	-0.055	-0.399
-715.748	-77.321	-0.293	-0.104
-714.733	12.795	-0.210	-0.165
-713.718	451.863	-0.044	0.099
-712.704	49.001	-0.089	0.086
-711.689	-84.361	-0.337	0.109
-710.675	-200.000	-0.049	-0.221
-709.660	263.136	0.026	-0.045
-708.645	298.861	-0.064	0.120
-707.631	28.740	0.278	0.241
-706.616	620.146	-0.061	-0.158
-705.602	13.710	-0.093	0.074
-704.587	390.549	0.092	0.195
-703.572	-91.470	-0.119	-0.035
-702.558	-165.082	-0.426	-0.019
-701.543	387.144	-0.098	-0.207
-700.529	-129.357	0.137	0.019
-699.514	149.200	-0.174	-0.240
-698.499	-200.000	-0.031	0.160
-697.485	-53.182	0.202	-0.095
-696.470	-147.319	-0.113	-0.010
-695.456	-4.346	0.107	0.076
-694.441	-87.457	0.324	0.100
-693.426	-104.717	0.163	-0.038
-692.412	-42.514	-0.147	-0.077
-691.397	-170.718	0.127	-0.004
-690.383	-84.155	0.382	0.124
-689.368	-200.000	-0.030	0.220
-688.354	656.925	-0.151	0.397
-687.339	800.000	-0.064	-0.194
-686.324	0.858	-0.228	-0.166
-685.310	49.782	0.103	-0.099
-684.295	800.000	-0.024	0.088
-683.281	42.672	-0.054	0.050
-682.266	333.972	-0.101	-0.199
-681.251	-188.612	0.108	-0.001
-680.237	-197.812	0.293	-0.002
-679.222	-24.555	-0.323	0.196
-678.208	22.804	-0.180	-0.150
-677.193	-200.000	0.030	-0.192
-676.178	37.538	-0.192	0.174
-675.164	-110.518	0.047	0.010
-674.149	-30.119	0.120	-0.069
-673.135	-91.900	0.058	-0.017
-672.120	13.151	-0.125	-0.099
-671.105	800.000	-0.022	-0.076
-670.091	79.956	-0.248	0.272
-669.076	149.127	-0.186	0.257
-668.062	203.785	0.121	0.191
-667.047	619.657	0.047	0.120
-666.032	-93.952	-0.117	-0.033
-665.018	-77.775	0.155	0.055
-664.003	220.383	0.144	-0.235
-662.989	771.062	0.057	-0.158
-661.974	727.742	0.055	0.150
-660.959	-59.053	-0.092	-0.040
-659.945	288.784	0.225	-0.416
-658.930	624.505	-0.080	-0.204
-657.916	113.308	-0.141	0.174
-656.901	800.000	0.053	0.157
-655.886	286.505	-0.042	-0.077
-654.872	243.070	0.144	-0.246
-653.857	-14.877	-0.158	-0.103
-652.843	351.656	0.091	0.183
-651.828	89.372	-0.302	-0.343
-650.814	-200.000	-0.000	-0.221
-649.799	800.000	-0.082	0.300
-648.784	-81.951	0.258	-0.086
-647.770	-200.000	-0.019	-0.110
-646.755	-58.356	-0.167	-0.074
-645.741	515.820	-0.163	0.387
-644.726	-0.967	0.094	-0.068
-643.711	-88.745	-0.254	-0.077
-642.697	-200.000	0.070	0.325
-641.682	-27.838	0.400	0.236
-640.668	-91.556	-0.130	0.038
-639.653	467.908	-0.133	-0.303
-638.638	800.000	0.103	0.315
-637.624	41.544	-0.037	-0.034
-636.609	701.697	0.033	-0.089
-635.595	-114.570	-0.441	-0.086
-634.580	-24.017	0.109	-0.066
-633.565	-82.256	0.183	0.061
-632.551	800.000	-0.009	0.039
-631.536	67.732	0.248	0.258
-630.522	-36.597	0.085	0.047
-629.507	800.000	0.074	-0.252
-628.492	-200.000	0.013	-0.225
-627.478	500.277	-0.115	-0.269
-626.463	-116.470	-0.217	0.041
-625.449	800.000	0.142	-0.412
-624.434	175.687	-0.040	0.060
-623.419	55.439	0.090	-0.089
-622.405	-122.038	0.165	-0.028
-621.390	596.400	0.089	-0.223
-620.376	-72.549	-0.180	-0.068
-619.361	45.410	0.249	0.234
-618.346	-151.491	-0.315	-0.024
-617.332	90.617	-0.147	0.167
-616.317	-115.107	0.194	-0.038
-615.303	416.721	-0.095	0.206
-614.288	-136.954	-0.229	0.027
-613.273	-5.786	-0.330	-0.230
-612.259	56.932	0.082	-0.081
-611.244	-7.527	-0.233	-0.160
-610.230	371.591	-0.096	-0.198
-609.215	481.172	-0.108	0.248
-608.201	330.409	0.105	0.205
-607.186	-58.870	-0.154	-0.068
-606.171	-0.365	-0.197	0.142
-605.157	-200.000	0.023	0.206
-604.142	-121.865	0.094	0.016
-603.128	800.000	0.117	0.376
-602.113	593.405	-0.158	0.396
-601.098	-200.000	-0.037	-0.173
-600.084	-200.000	-0.001	-0.259
-599.069	-200.000	-0.022	-0.266
-598.055	25.644	-0.285	0.241
-597.040	-54.617	-0.140	0.064
-596.025	-24.021	0.360	-0.219
-595.011	237.217	-0.065	0.110
-593.996	-62.839	0.456	-0.192
-592.982	119.354	0.178	-0.224
-591.967	-38.522	-0.222	-0.119
-590.952	501.820	0.095	-0.223
-589.938	137.572	0.064	0.085
-588.923	8.511	-0.171	-0.131
-587.909	211.377	-0.142	-0.227
-586.894	-25.575	0.174	-0.105
-585.879	309.476	-0.054	-0.103
-584.865	728.160	0.046	0.125
-583.850	30.687	0.077	-0.067
-582.836	156.545	0.120	-0.169
-581.821	133.075	-0.131	-0.172
-580.806	800.000	0.063	-0.251
-579.792	-13.988	-0.067	0.044
-578.777	-27.903	0.049	0.029
-577.763	-146.336	-0.191	0.017
-576.748	-200.000	0.033	0.407
-575.733	65.424	0.129	-0.132
-574.719	800.000	-0.110	-0.337
-573.704	10.116	0.224	-0.173
-572.690	-182.216	0.108	0.002
-571.675	-8.642	-0.059	-0.040
-570.661	-200.000	-0.016	0.238
-569.646	240.303	-0.120	-0.203
-568.631	800.000	-0.076	-0.326
-567.617	-154.491	-0.188	-0.013
-566.602	20.604	0.092	0.075
-565.588	-71.765	0.133	-0.050
-564.573	8.473	0.125	-0.095
-563.558	124.467	0.217	-0.278
-562.544	-89.231	0.106	-0.032
-561.529	35.814	-0.076	0.068
-560.515	-200.000	0.001	-0.321
-559.500	-139.450	0.116	0.013
-558.485	-200.000	0.027	0.162
-557.471	779.400	-0.077	-0.213
-556.456	-97.069	-0.187	0.050
-555.442	482.670	-0.104	-0.239
-554.427	43.748	0.130	-0.121
-553.412	-30.782	0.164	0.094
-552.398	-46.781	0.146	0.072
-551.383	-200.000	-0.025	0.151
-550.369	-200.000	-0.010	-0.308
-549.354	280.426	0.140	0.254
-548.339	-168.379	0.290	-0.011
-547.325	800.000	0.037	0.150
-546.310	-71.579	0.159	-0.060
-545.296	-107.386	-0.475	-0.106
-544.281	6.999	0.082	-0.062
-543.266	88.372	-0.215	-0.242
-542.252	133.760	0.118	0.155
-541.237	-22.161	-0.295	0.181
-540.223	-38.404	-0.355	-0.190
-539.208	99.506	-0.060	0.070
-538.193	-35.419	-0.150	-0.083
-537.179	-200.000	-0.032	0.172
-536.164	-66.508	-0.231	0.093
-535.150	-118.242	0.231	0.042
-534.135	800.000	0.046	0.155
-533.121	-94.308	0.250	0.069
-532.106	219.576	-0.046	0.074
-531.091	-29.925	0.236	0.136
-530.077	126.635	-0.119	0.153
-529.062	54.278	0.168	0.164
-528.048	-65.268	0.253	0.103
-527.033	531.486	0.046	-0.111
-526.018	-169.326	-0.095	0.004
-525.004	-200.000	-0.035	-0.157
-523.989	175.568	0.160	0.236
-522.975	-200.000	0.034	0.343
-521.960	-32.015	-0.128	-0.072
-520.945	-138.459	0.328	-0.037
-519.931	-200.000	0.028	0.262
-518.916	181.268	0.132	-0.197
-517.902	417.668	0.044	0.095
-516.887	157.007	-0.023	0.032
-515.872	548.740	-0.095	0.229
-514.858	3.125	-0.038	0.028
-513.843	-200.000	0.045	0.253
-512.829	-4.883	-0.220	0.154
-511.814	-75.744	-0.076	-0.027
-510.799	172.972	0.249	-0.363
-509.785	-200.000	0.021	-0.194
-508.770	-171.933	-0.244	-0.008
-507.756	-11.626	-0.168	-0.112
-506.741	37.351	0.217	-0.195
-505.726	-116.095	-0.236	0.044
-504.712	-100.985	-0.236	-0.059
-503.697	-104.761	0.276	-0.064
-502.683	-200.000	-0.045	-0.291
-501.668	800.000	0.117	-0.343
-500.653	800.000	-0.061	0.250
-499.639	-102.079	0.099	0.024
-498.624	800.000	0.059	0.197
-497.610	78.811	0.156	-0.169
-496.595	-167.169	0.087	-0.004
-495.581	-0.015	-0.037	-0.027
-494.566	18.157	-0.157	0.126
-493.551	-82.943	0.072	-0.024
-492.537	-59.630	-0.192	0.083
-491.522	-21.582	-0.041	0.025
-490.508	-200.000	0.027	0.273
-489.493	0.838	0.420	0.305
-488.478	-89.545	-0.118	-0.035
-487.464	-56.962	-0.403	0.180
-486.449	71.656	0.100	0.105
-485.435	-200.000	-0.082	0.499
-484.420	345.905	-0.070	0.139
-483.405	-113.673	0.237	0.047
-482.391	-200.000	0.086	0.407
-481.376	-101.130	0.143	-0.035
-480.362	800.000	-0.072	-0.220
-479.347	-15.532	0.149	-0.096
-478.332	174.946	-0.093	0.136
-477.318	-94.254	-0.342	-0.095
-476.303	104.384	-0.158	-0.188
-475.289	232.933	0.096	0.160
-474.274	129.351	0.124	-0.160
-473.259	369.864	0.120	-0.245
-472.245	800.000	-0.071	0.235
-471.230	345.243	0.244	0.484
-470.216	263.184	0.153	-0.269
-469.201	-200.000	-0.072	-0.389
-468.186	-200.000	-0.024	-0.286
-467.172	123.758	-0.099	-0.125
-466.157	130.665	-0.122	0.158
-465.143	-113.999	-0.328	0.064
-464.128	17.477	-0.054	0.044
-463.113	9.185	0.218	0.166
-462.099	0.859	-0.140	-0.102
-461.084	267.900	0.043	-0.076
-460.070	-200.000	-0.018	-0.247
-459.055	-8.483	0.444	-0.301
-458.040	-108.338	-0.338	-0.074
-457.026	-93.195	0.155	0.044
-456.011	800.000	-0.068	0.191
-454.997	-200.000	-0.014	0.256
-453.982	800.000	-0.100	0.406
-452.968	-200.000	-0.027	0.195
-451.953	800.000	0.028	-0.096
-450.938	-125.140	-0.299	0.046
-449.924	-103.304	0.292	0.070
-448.909	-141.299	0.250	-0.026
-447.895	-155.828	-0.260	-0.017
-446.880	308.082	0.243	0.459
-445.865	-44.766	0.205	0.103
-444.851	-94.856	0.108	-0.030
-443.836	-117.097	-0.118	-0.022
-442.822	48.518	-0.105	0.099
-441.807	-200.000	0.048	0.359
-440.792	-125.184	-0.271	0.042
-439.778	-0.511	-0.465	-0.334
-438.763	-81.226	-0.178	0.059
-437.749	-194.131	-0.122	0.001
-436.734	-84.396	-0.330	-0.105
-435.719	-76.861	-0.135	0.048
-434.705	800.000	0.083	-0.285
-433.690	-155.752	-0.206	0.013
-432.676	219.787	-0.261	-0.423
-431.661	-200.000	-0.004	0.239
-430.646	508.512	-0.079	-0.184
-429.632	353.813	0.045	0.091
-428.617	-24.570	-0.117	0.070
-427.603	-137.638	-0.337	-0.038
-426.588	203.611	0.193	-0.302
-425.573	-200.000	0.013	-0.060
-424.559	-71.997	-0.136	0.051
-423.544	141.566	0.211	0.283
-422.530	155.312	0.258	-0.359
-421.515	-195.887	-0.169	-0.001
-420.500	-19.430	-0.140	-0.087
-419.486	293.583	0.148	0.273
-418.471	-200.000	0.002	0.375
-417.457	169.115	0.106	-0.153
-416.442	-96.995	-0.427	-0.113
-415.428	-200.000	0.010	-0.070
-414.413	-200.000	0.059	-0.330
-413.398	-86.324	-0.231	0.072
-412.384	-200.000	-0.035	0.376
-411.369	-34.338	-0.213	0.118
-410.355	57.636	-0.147	-0.145
-409.340	-76.864	0.234	-0.082
-408.325	511.155	-0.010	0.025
-407.311	139.093	-0.113	0.150
-406.296	69.250	-0.009	0.009
-405.282	-154.068	-0.215	-0.015
-404.267	-21.842	0.246	-0.151
-403.252	-111.079	0.386	-0.080
-402.238	-113.234	0.192	-0.038
-401.223	529.020	0.075	0.179
-400.209	-48.890	-0.344	-0.166
-399.194	164.818	0.097	-0.138
-398.179	-29.986	0.102	-0.058
-397.165	-60.200	0.198	0.085
-396.150	-103.481	0.266	-0.063
-395.136	0.659	-0.100	0.072
-394.121	-26.548	-0.114	0.068
-393.106	-200.000	0.014	0.118
-392.092	18.789	-0.175	0.142
-391.077	-20.280	0.275	0.171
-390.063	-72.722	0.149	-0.055
-389.048	2.633	0.039	0.028
-388.033	-48.743	0.337	0.163
-387.019	-200.000	0.038	-0.171
-386.004	-14.391	-0.205	0.133
-384.990	526.150	-0.122	0.290
-383.975	-200.000	0.000	-0.106
-382.960	-1.540	0.200	-0.142
-381.946	-24.035	0.356	0.215
-380.931	-20.483	-0.150	0.093
-379.917	48.439	0.149	-0.140
-378.902	-14.486	-0.511	-0.332
-377.888	623.699	0.172	-0.436
-376.873	493.077	0.118	-0.273
-375.858	-24.597	-0.215	-0.129
-374.844	-83.776	0.106	0.034
-373.829	50.056	-0.205	0.195
-372.815	-137.144	-0.407	0.047
-371.800	99.892	-0.022	0.026
-370.785	-111.955	-0.166	0.034
-369.771	-19.218	-0.319	-0.199
-368.756	-74.717	0.398	-0.144
-367.742	-36.077	-0.306	0.167
-366.727	-168.363	0.161	-0.006
-365.712	48.753	0.011	-0.011
-364.698	-26.149	0.127	0.075
-363.683	-82.507	-0.215	0.070
-362.669	238.171	0.239	0.399
-361.654	35.435	-0.149	-0.131
-360.639	-103.507	0.250	0.059
-359.625	-63.864	-0.179	0.074
-358.610	800.000	0.056	0.169
-357.596	155.595	0.065	0.090
-356.581	-122.634	-0.023	0.004
-355.566	756.565	0.127	-0.345
-354.552	349.734	-0.225	-0.448
-353.537	-96.021	0.146	-0.039
-352.523	-64.178	-0.091	-0.037
-351.508	234.912	-0.077	0.127
-350.493	137.744	0.143	0.189
-349.479	176.846	0.169	0.248
-348.464	69.950	-0.034	0.036
-347.450	-200.000	0.350	-0.000
-346.435	-19.976	0.129	0.080
-345.420	198.952	-0.090	0.139
-344.406	-82.824	0.386	-0.126
-343.391	59.972	0.187	-0.186
-342.377	66.611	-0.159	-0.162
-341.362	-76.528	-0.132	-0.047
-340.348	113.229	0.218	-0.266
-339.333	-120.353	0.307	-0.053
-338.318	98.165	0.085	-0.099
-337.304	498.178	0.122	-0.283
-336.289	-200.000	-0.006	0.031
-335.275	448.044	0.119	-0.264
-334.260	-151.493	0.062	-0.005
-333.245	-15.696	-0.188	0.121
-332.231	28.871	-0.110	-0.094
-331.216	213.618	-0.102	-0.162
-330.202	0.468	0.179	0.129
-329.187	-108.288	0.387	0.084
-328.172	-200.000	0.008	-0.071
-327.158	-45.544	-0.273	0.136
-326.143	114.209	0.195	-0.239
-325.129	284.792	0.128	0.231
-324.114	-200.000	-0.025	-0.455
-323.099	-13.805	-0.214	0.139
-322.085	280.460	0.135	0.243
-321.070	66.202	-0.096	-0.098
-320.056	486.338	0.088	-0.202
-319.041	-65.934	-0.534	-0.215
-318.026	-94.408	-0.469	0.129
-317.012	57.567	0.064	0.063
-315.997	800.000	0.201	-0.585
-314.983	800.000	-0.164	-0.475
-313.968	10.099	0.112	-0.086
-312.953	-47.934	0.146	0.071
-311.939	-53.480	0.129	0.059
-310.924	-200.000	0.016	-0.244
-309.910	-128.998	-0.079	0.011
-308.895	-200.000	-0.043	0.353
-307.880	767.475	0.036	0.098
-306.866	-134.005	-0.216	-0.027
-305.851	-200.000	0.021	-0.179
-304.837	-106.197	0.350	0.079
-303.822	-200.000	0.048	0.417
-302.807	153.506	-0.180	-0.248
-301.793	546.493	0.152	-0.365
-300.778	-200.000	0.014	-0.106
-299.764	-168.338	-0.158	-0.006
-298.749	227.629	0.079	0.128
-297.735	-2.813	-0.176	0.123
-296.720	-86.931	-0.160	-0.049
-295.705	-107.403	0.129	-0.028
-294.691	-27.673	0.203	-0.119
-293.676	44.504	0.040	-0.037
-292.662	800.000	0.074	-0.276
-291.647	5.902	-0.049	0.036
-290.632	53.770	-0.150	0.145
-289.618	800.000	-0.116	0.461
-288.603	-30.685	-0.161	0.092
-287.589	109.584	-0.100	0.120
-286.574	407.751	-0.138	-0.294
-285.559	336.177	0.088	0.172
-284.545	-158.170	-0.411	0.024
-283.530	125.465	-0.183	-0.232
-282.516	329.566	-0.132	0.256
-281.501	-200.000	0.004	-0.411
-280.486	127.658	0.224	0.286
-279.472	573.246	0.085	0.207
-278.457	-200.000	-0.056	0.478
-277.443	594.655	-0.062	-0.153
-276.428	-29.650	-0.181	-0.104
-275.413	-86.276	0.164	0.051
-274.399	157.124	0.138	0.192
-273.384	242.386	0.319	0.535
-272.370	234.264	-0.130	0.216
-271.355	-149.719	0.240	0.019
-270.340	-5.323	0.233	0.161
-269.326	230.781	-0.086	-0.141
-268.311	-200.000	0.061	0.292
-267.297	-157.661	0.173	0.010
-266.282	412.347	0.052	0.110
-265.267	-200.000	-0.035	0.418
-264.253	-3.788	0.210	-0.146
-263.238	-125.827	-0.134	-0.020
-262.224	-110.596	-0.098	-0.020
-261.209	-162.818	0.249	-0.012
-260.195	-50.832	0.147	-0.069
-259.180	79.397	-0.103	0.111
-258.165	276.813	-0.053	-0.095
-257.151	-31.856	0.228	-0.128
-256.136	-97.794	-0.288	-0.075
-255.122	800.000	0.002	0.009
-254.107	-200.000	-0.007	-0.309
-253.092	800.000	0.053	0.152
-252.078	-184.682	0.259	-0.004
-251.063	-200.000	-0.017	0.257
-250.049	-200.000	-0.002	-0.098
-249.034	-200.000	0.035	-0.332
-248.019	101.786	-0.149	-0.174
-247.005	233.195	0.027	-0.045
-245.990	773.560	0.052	-0.142
-244.976	800.000	-0.057	0.159
-243.961	390.575	0.098	0.205
-242.946	800.000	-0.098	-0.291
-241.932	-89.115	-0.240	-0.071
-240.917	130.282	-0.226	-0.290
-239.903	800.000	-0.038	-0.145
-238.888	-129.453	0.080	-0.011
-237.873	-50.163	-0.223	0.106
-236.859	-9.339	-0.169	0.113
-235.844	800.000	0.060	0.229
-234.830	-200.000	0.019	-0.126
-233.815	178.511	0.197	0.288
-232.800	-72.405	0.142	0.053
-231.786	-115.388	-0.312	0.059
-230.771	-173.861	0.039	0.001
-229.757	289.824	0.105	0.191
-228.742	-161.763	-0.153	0.008
-227.727	162.141	-0.113	-0.159
-226.713	-131.927	-0.233	0.031
-225.698	-83.009	0.236	0.076
-224.684	-185.770	-0.071	-0.001
-223.669	178.226	-0.034	-0.050
-222.655	-200.000	-0.018	-0.102
-221.640	177.055	-0.093	0.136
-220.625	59.315	-0.130	-0.128
-219.611	-85.395	-0.195	0.061
-218.596	800.000	0.091	0.265
-217.582	83.649	-0.078	-0.085
-216.567	-200.000	0.080	-0.426
-215.552	44.421	0.160	0.147
-214.538	800.000	0.070	-0.203
-213.523	800.000	0.098	-0.385
-212.509	18.246	0.235	-0.188
-211.494	800.000	-0.097	0.417
-210.479	-200.000	-0.015	0.090
-209.465	225.059	0.200	0.324
-208.450	-200.000	0.024	0.231
-207.436	800.000	0.044	-0.125
-206.421	-191.273	0.322	-0.003
-205.406	-92.351	-0.131	0.037
-204.392	187.439	-0.069	0.103
-203.377	-200.000	-0.007	0.159
-202.363	-200.000	-0.009	-0.057
-201.348	-53.105	-0.183	-0.084
-200.333	-18.024	-0.199	-0.125
-199.319	-39.406	0.263	0.138
-198.304	-34.942	0.219	-0.120
-197.290	-111.561	0.253	0.051
-196.275	-142.660	-0.496	-0.049
-195.260	800.000	-0.012	0.045
-194.246	309.447	-0.147	0.274
-193.231	40.159	-0.216	-0.195
-192.217	-49.733	-0.068	0.032
-191.202	20.324	0.222	0.180
-190.187	-148.842	-0.271	0.022
-189.173	302.204	0.043	-0.080
-188.158	570.131	0.085	0.206
-187.144	800.000	-0.047	0.139
-186.129	-120.030	-0.235	-0.040
-185.114	-200.000	0.039	0.207
-184.100	800.000	0.047	-0.139
-183.085	-61.374	0.241	-0.101
-182.071	-138.941	-0.120	-0.013
-181.056	45.439	0.161	0.149
-180.042	-99.151	0.219	-0.055
-179.027	-14.884	0.303	-0.195
-178.012	26.194	0.223	0.186
-176.998	178.285	0.071	-0.104
-175.983	-123.440	0.091	0.014
-174.969	-200.000	-0.059	0.274
-173.954	69.922	0.076	-0.079
-172.939	800.000	-0.037	0.137
-171.925	169.293	0.089	0.127
-170.910	28.964	-0.267	-0.226
-169.896	-9.498	-0.096	0.064
-168.881	-200.000	-0.014	0.195
-167.866	-200.000	-0.003	0.139
-166.852	92.746	-0.218	-0.246
-165.837	800.000	-0.062	-0.193
-164.823	-54.476	0.229	0.104
-163.808	537.107	0.085	-0.201
-162.793	-200.000	-0.006	-0.204
-161.779	800.000	-0.057	0.241
-160.764	28.831	-0.048	0.041
-159.750	-200.000	-0.050	0.328
-158.735	-112.113	0.119	0.024
-157.720	325.076	0.074	-0.142
-156.706	-66.948	0.168	0.066
-155.691	-70.932	0.189	-0.071
-154.677	-88.862	0.163	0.048
-153.662	-56.808	-0.294	-0.130
-152.647	800.000	-0.047	-0.188
-151.633	-120.707	0.246	0.041
-150.618	138.793	0.148	0.194
-149.604	316.567	-0.161	0.304
-148.589	-21.322	-0.145	-0.088
-147.574	115.609	0.065	-0.079
-146.560	-1.028	0.145	-0.102
-145.545	106.543	0.109	-0.130
-144.531	-162.979	0.135	-0.007
-143.516	-3.389	0.106	-0.074
-142.502	-34.049	0.205	-0.113
-141.487	-200.000	0.028	0.158
-140.472	360.850	0.039	0.078
-139.458	-70.717	0.066	-0.025
-138.443	46.899	0.057	0.053
-137.429	127.504	-0.145	0.184
-136.414	53.659	0.125	-0.120
-135.399	130.682	0.184	-0.235
-134.385	-156.179	0.266	0.017
-133.370	108.067	-0.126	0.150
-132.356	-88.281	0.161	0.048
-131.341	-200.000	0.061	-0.340
-130.326	-200.000	0.007	0.212
-129.312	110.700	-0.146	0.176
-128.297	286.492	0.110	0.198
-127.283	-200.000	-0.012	0.107
-126.268	800.000	-0.109	0.378
-125.253	-96.419	-0.295	0.078
-124.239	306.255	-0.147	0.274
-123.224	218.552	-0.100	0.160
-122.210	-77.478	-0.123	-0.042
-121.195	-200.000	0.117	-0.553
