DTS Sentinel unit serial number:	SN413079Multiplexer serial number:	ORYXHardware model number:	OX4-SRSoftware version number:	ORYX F/W v4.00 Oryx Data Collector v3.7.2.0data status	okinstallation	princeton_trtdifferential loss correction	single-endedforward channel	channel 4reverse channel	N/Adate	2019/09/12time	06:47:11forward acquisition time	60.00reverse acquisition time	0.00gamma	496.2192k internal	0.2307k external	0.2307temperature offset calibration	1.0063default loss term (dB/km)	0.3790temperature slope calibration	1.0000multiplexer offset coefficient	1.0000multiplexer slope coefficient	1.0000fibre end	0.00T internal ref (°C)	32.14T ext. ref 1 (°C)	1.60T ext. ref 2 (°C)	27.32length (m)	temperature (°C)	Stokes	anti-Stokes-747.200	322.701	0.066	-0.127
-746.185	-200.000	0.009	0.197
-745.171	-140.076	0.375	0.040
-744.156	-16.493	0.176	-0.114
-743.142	-40.097	0.025	0.013
-742.127	-54.740	-0.165	0.076
-741.112	180.999	0.127	0.189
-740.098	-200.000	0.021	0.176
-739.083	52.958	0.317	-0.308
-738.069	-200.000	-0.044	0.316
-737.054	-200.000	-0.044	-0.226
-736.039	583.659	0.083	0.207
-735.025	-157.094	0.286	0.018
-734.010	-200.000	-0.003	-0.342
-732.996	-192.412	0.142	0.001
-731.981	-200.000	0.015	0.203
-730.966	525.670	-0.119	0.285
-729.952	-127.410	0.188	0.028
-728.937	-147.398	-0.376	-0.032
-727.923	800.000	-0.067	-0.268
-726.908	222.135	0.147	-0.241
-725.894	-122.640	0.242	-0.040
-724.879	-200.000	-0.014	0.237
-723.864	46.434	0.136	0.128
-722.850	388.816	0.094	0.198
-721.835	-42.456	0.239	0.124
-720.821	800.000	0.041	-0.152
-719.806	8.877	-0.269	-0.206
-718.791	388.268	0.126	0.265
-717.777	441.840	-0.159	0.353
-716.762	-8.397	0.109	0.074
-715.748	-25.843	0.064	-0.039
-714.733	-200.000	0.027	0.124
-713.718	-200.000	-0.022	-0.172
-712.704	527.157	-0.218	-0.522
-711.689	-49.128	-0.364	-0.177
-710.675	404.358	-0.059	-0.126
-709.660	-115.487	-0.175	0.033
-708.645	-29.410	-0.062	-0.036
-707.631	-200.000	0.031	0.252
-706.616	-27.802	-0.020	0.012
-705.602	-112.016	-0.229	-0.047
-704.587	-58.655	-0.142	0.062
-703.572	-127.190	0.113	-0.017
-702.558	-60.301	-0.184	-0.080
-701.543	-13.899	0.181	-0.119
-700.529	-105.360	0.298	-0.069
-699.514	-112.143	0.221	-0.045
-698.499	195.745	0.083	-0.129
-697.485	800.000	0.058	-0.205
-696.470	423.109	0.024	0.053
-695.456	-71.523	0.037	0.014
-694.441	-200.000	0.002	0.198
-693.426	36.294	-0.077	0.069
-692.412	-200.000	0.066	0.322
-691.397	18.090	0.352	0.285
-690.383	-132.292	-0.173	-0.023
-689.368	69.530	-0.105	-0.110
-688.354	332.151	0.044	0.086
-687.339	6.093	0.124	-0.093
-686.324	-200.000	-0.070	0.372
-685.310	142.365	-0.221	0.297
-684.295	-154.356	-0.294	0.020
-683.281	800.000	0.030	0.105
-682.266	-200.000	0.021	-0.278
-681.251	-60.046	-0.206	-0.089
-680.237	-105.871	-0.325	-0.074
-679.222	20.651	-0.056	-0.046
-678.208	800.000	0.067	-0.254
-677.193	-88.023	-0.287	-0.087
-676.178	-116.043	-0.284	0.054
-675.164	-200.000	-0.007	-0.034
-674.149	800.000	0.009	-0.029
-673.135	97.396	-0.095	-0.110
-672.120	15.417	0.393	0.313
-671.105	27.330	-0.371	0.316
-670.091	-200.000	0.029	0.163
-669.076	-200.000	0.020	-0.282
-668.062	39.803	-0.066	-0.060
-667.047	102.090	-0.058	0.068
-666.032	86.935	-0.123	0.138
-665.018	-98.953	0.085	-0.022
-664.003	800.000	-0.072	-0.210
-662.989	75.222	-0.100	0.107
-661.974	-200.000	-0.034	-0.163
-660.959	-34.609	0.158	-0.088
-659.945	100.887	-0.279	0.329
-658.930	-200.000	0.001	0.027
-657.916	-200.000	-0.042	0.244
-656.901	-93.627	-0.158	0.044
-655.886	-54.343	0.228	0.105
-654.872	-131.288	-0.560	-0.075
-653.857	-200.000	0.023	-0.135
-652.843	290.716	-0.064	-0.118
-651.828	747.314	0.098	-0.268
-650.814	4.442	-0.198	-0.147
-649.799	-200.000	-0.000	0.012
-648.784	202.137	0.135	0.211
-647.770	-113.095	-0.146	-0.029
-646.755	48.137	0.289	-0.273
-645.741	-200.000	-0.035	-0.387
-644.726	288.125	0.049	0.090
-643.711	800.000	-0.066	-0.205
-642.697	-142.577	-0.280	-0.028
-641.682	291.465	-0.115	0.211
-640.668	-121.466	0.056	-0.010
-639.653	-137.391	0.219	0.025
-638.638	34.652	-0.165	-0.146
-637.624	158.541	0.100	0.141
-636.609	717.597	-0.107	-0.287
-635.595	-46.556	0.055	-0.027
-634.580	-200.000	-0.015	0.241
-633.565	800.000	-0.059	-0.182
-632.551	800.000	-0.113	-0.323
-631.536	-110.828	-0.196	0.041
-630.522	180.891	0.033	-0.049
-629.507	42.102	0.057	0.052
-628.492	-183.284	-0.033	0.001
-627.478	-42.273	-0.317	0.164
-626.463	-126.478	0.126	0.019
-625.449	52.518	0.178	-0.172
-624.434	386.806	-0.076	-0.159
-623.419	-48.864	0.053	-0.026
-622.405	-36.363	0.143	-0.078
-621.390	104.149	0.254	0.303
-620.376	-80.128	0.103	0.035
-619.361	342.693	-0.105	-0.209
-618.346	800.000	-0.057	0.160
-617.332	-173.829	-0.039	-0.001
-616.317	118.173	-0.117	0.146
-615.303	11.678	0.125	0.097
-614.288	274.126	-0.068	-0.122
-613.273	-75.402	0.283	0.102
-612.259	-13.300	-0.174	-0.114
-611.244	-200.000	-0.024	-0.198
-610.230	-200.000	-0.058	-0.285
-609.215	-108.668	-0.248	0.054
-608.201	637.209	-0.083	-0.212
-607.186	107.421	0.031	0.038
-606.171	-72.994	0.201	0.075
-605.157	-22.922	-0.298	-0.182
-604.142	-115.236	-0.236	-0.045
-603.128	-2.635	-0.266	-0.189
-602.113	537.664	0.029	-0.070
-601.098	800.000	0.075	0.230
-600.084	-36.234	-0.315	0.172
-599.069	-48.035	-0.199	-0.097
-598.055	800.000	0.043	0.127
-597.040	-128.879	-0.020	0.003
-596.025	-179.720	-0.170	-0.004
-595.011	-200.000	0.058	0.334
-593.996	-200.000	-0.015	-0.231
-592.982	-65.325	0.202	0.082
-591.967	-200.000	0.004	-0.230
-590.952	30.572	0.181	-0.157
-589.938	-157.912	-0.246	-0.015
-588.923	-86.850	0.375	0.116
-587.909	-46.497	0.253	0.126
-586.894	449.169	0.103	-0.230
-585.879	202.611	-0.144	-0.225
-584.865	204.286	-0.111	0.174
-583.850	44.880	-0.130	-0.121
-582.836	122.452	0.129	-0.163
-581.821	-48.648	-0.100	0.049
-580.806	-200.000	0.024	-0.175
-579.792	-79.337	0.167	-0.057
-578.777	21.720	-0.074	-0.061
-577.763	218.594	0.076	0.123
-576.748	14.523	-0.198	0.156
-575.733	-143.691	-0.121	-0.012
-574.719	9.389	-0.247	0.189
-573.704	53.851	0.069	0.067
-572.690	3.499	0.162	-0.119
-571.675	150.972	-0.237	0.325
-570.661	-173.908	-0.274	0.008
-569.646	-200.000	0.056	0.271
-568.631	108.617	0.126	0.152
-567.617	92.426	-0.053	0.060
-566.602	341.198	-0.096	-0.190
-565.588	288.690	-0.093	-0.169
-564.573	-65.088	0.318	-0.130
-563.558	-200.000	-0.009	0.281
-562.544	-57.096	-0.223	0.099
-561.529	800.000	-0.089	-0.257
-560.515	44.689	-0.253	-0.235
-559.500	-190.721	-0.178	0.002
-558.485	13.291	-0.113	0.088
-557.471	-93.987	-0.151	0.042
-556.456	-190.313	-0.172	-0.002
-555.442	-133.234	0.084	-0.011
-554.427	56.552	-0.065	-0.063
-553.412	-66.707	0.187	-0.075
-552.398	-50.765	0.132	-0.062
-551.383	170.139	0.183	-0.264
-550.369	-0.799	0.277	-0.198
-549.354	-114.574	0.132	-0.026
-548.339	-200.000	0.037	0.220
-547.325	-101.198	0.241	0.059
-546.310	-71.747	-0.239	-0.090
-545.296	-101.156	0.099	-0.024
-544.281	-200.000	0.010	0.085
-543.266	-200.000	0.006	0.325
-542.252	5.216	0.048	-0.035
-541.237	-89.768	-0.104	-0.031
-540.223	-180.091	0.249	-0.005
-539.208	800.000	-0.035	0.113
-538.193	641.833	-0.121	0.311
-537.179	-64.791	-0.074	-0.030
-536.164	-122.937	0.130	-0.021
-535.150	-130.582	0.262	-0.036
-534.135	-80.100	-0.080	0.027
-533.121	-107.728	0.056	-0.012
-532.106	-200.000	-0.065	-0.456
-531.091	800.000	-0.052	0.179
-530.077	16.899	0.141	0.112
-529.062	59.289	0.167	0.165
-528.048	17.619	-0.095	0.076
-527.033	-97.505	0.160	-0.042
-526.018	-29.359	-0.177	-0.102
-525.004	35.161	0.192	0.170
-523.989	-10.861	0.078	-0.052
-522.975	43.557	-0.197	0.181
-521.960	-200.000	-0.007	-0.047
-520.945	59.047	-0.276	0.273
-519.931	-72.261	-0.157	-0.059
-518.916	206.166	-0.108	0.170
-517.902	-85.485	0.253	-0.079
-516.887	135.874	0.129	0.170
-515.872	-93.824	-0.298	0.083
-514.858	-117.940	-0.071	0.013
-513.843	-89.048	0.311	-0.093
-512.829	16.445	-0.112	0.089
-511.814	-200.000	-0.012	0.091
-510.799	800.000	0.112	-0.363
-509.785	238.352	0.090	0.151
-508.770	-83.832	0.028	0.009
-507.756	-7.823	0.226	0.154
-506.741	800.000	0.056	0.223
-505.726	-200.000	-0.003	-0.103
-504.712	77.749	0.155	-0.166
-503.697	-10.868	-0.215	0.143
-502.683	444.826	-0.187	0.414
-501.668	-200.000	0.019	0.205
-500.653	137.924	-0.040	-0.053
-499.639	329.212	0.117	0.227
-498.624	-125.122	-0.124	0.019
-497.610	800.000	-0.031	-0.091
-496.595	-136.293	-0.087	0.010
-495.581	690.313	0.086	0.225
-494.566	567.880	-0.033	0.080
-493.551	-47.111	-0.219	-0.108
-492.537	-48.481	0.265	0.128
-491.522	29.407	-0.214	-0.183
-490.508	192.934	-0.074	-0.112
-489.493	-147.178	-0.236	-0.020
-488.478	-12.063	-0.179	-0.118
-487.464	-51.429	-0.279	-0.131
-486.449	800.000	0.048	0.177
-485.435	-27.967	0.121	0.071
-484.420	729.761	0.055	-0.149
-483.405	-200.000	0.004	-0.107
-482.391	-4.424	-0.083	0.058
-481.376	-152.490	-0.290	0.021
-480.362	-200.000	0.015	-0.269
-479.347	-200.000	-0.020	0.098
-478.332	462.706	0.079	0.178
-477.318	12.900	-0.261	-0.203
-476.303	288.869	0.072	-0.131
-475.289	129.640	0.228	-0.293
-474.274	800.000	-0.026	0.098
-473.259	291.193	-0.131	0.240
-472.245	-200.000	0.028	0.186
-471.230	376.338	-0.019	0.038
-470.216	-185.091	0.397	-0.006
-469.201	800.000	-0.061	0.228
-468.186	65.485	0.084	0.085
-467.172	17.063	0.144	0.115
-466.157	-47.192	-0.184	-0.090
-465.143	-106.668	-0.301	-0.067
-464.128	533.229	-0.043	-0.102
-463.113	-200.000	-0.005	-0.102
-462.099	-200.000	0.032	0.154
-461.084	-150.971	0.315	0.024
-460.070	800.000	-0.051	-0.173
-459.055	-37.858	0.146	-0.078
-458.040	800.000	-0.086	-0.280
-457.026	141.969	0.108	-0.144
-456.011	-137.179	-0.203	-0.023
-454.997	71.539	-0.091	-0.095
-453.982	718.490	-0.187	-0.501
-452.968	654.873	0.041	0.105
-451.953	-200.000	0.025	0.369
-450.938	-72.271	-0.077	-0.029
-449.924	-110.028	0.317	0.067
-448.909	255.459	0.041	0.070
-447.895	76.300	-0.130	0.138
-446.880	-50.636	-0.091	0.043
-445.865	-115.279	-0.326	-0.062
-444.851	800.000	0.138	-0.413
-443.836	-24.713	0.161	0.096
-442.822	800.000	-0.094	0.321
-441.807	-29.634	-0.352	0.202
-440.792	555.048	-0.146	-0.352
-439.778	-68.495	0.255	-0.099
-438.763	501.348	0.004	-0.010
-437.749	34.522	-0.130	-0.114
-436.734	436.173	-0.089	-0.195
-435.719	601.275	0.123	-0.308
-434.705	-200.000	0.034	-0.165
-433.690	800.000	0.069	0.245
-432.676	227.170	0.117	-0.191
-431.661	-97.579	-0.056	0.015
-430.646	-93.492	0.271	-0.075
-429.632	-200.000	-0.013	0.255
-428.617	-65.035	0.122	-0.050
-427.603	800.000	0.085	-0.354
-426.588	-93.520	-0.146	0.041
-425.573	-27.218	0.134	-0.078
-424.559	-40.934	0.129	-0.067
-423.544	-71.266	-0.197	-0.074
-422.530	-200.000	-0.023	-0.176
-421.515	22.568	-0.107	-0.088
-420.500	-58.281	-0.065	0.029
-419.486	-60.481	-0.100	-0.043
-418.471	-200.000	-0.030	0.147
-417.457	-15.741	-0.056	-0.036
-416.442	-200.000	0.024	0.214
-415.428	800.000	-0.047	-0.145
-414.413	290.271	-0.104	-0.189
-413.398	-86.850	-0.088	0.027
-412.384	-84.653	0.161	-0.051
-411.369	20.925	-0.074	0.061
-410.355	800.000	-0.047	-0.133
-409.340	-200.000	-0.037	0.192
-408.325	-57.052	0.020	-0.009
-407.311	800.000	-0.080	0.228
-406.296	-200.000	0.128	0.001
-405.282	50.188	-0.032	-0.030
-404.267	-114.189	0.108	0.021
-403.252	-200.000	-0.014	-0.338
-402.238	-97.610	0.435	0.113
-401.223	-61.498	-0.096	0.040
-400.209	-16.583	0.215	-0.137
-399.194	-113.375	-0.075	0.015
-398.179	-146.848	-0.290	0.025
-397.165	97.686	0.219	-0.252
-396.150	-57.889	-0.235	0.103
-395.136	-200.000	0.021	-0.142
-394.121	28.185	0.183	0.155
-393.106	-32.818	0.220	-0.123
-392.092	-154.810	0.266	-0.018
-391.077	-145.661	0.265	0.024
-390.063	-200.000	0.054	0.309
-389.048	1.693	-0.095	-0.068
-388.033	-80.888	0.193	0.064
-387.019	-200.000	-0.023	-0.332
-386.004	-141.463	0.145	-0.015
-384.990	-200.000	-0.018	0.442
-383.975	-50.553	-0.233	0.110
-382.960	267.177	0.083	0.146
-381.946	178.207	0.024	-0.035
-380.931	23.635	-0.270	0.223
-379.917	-22.911	0.121	0.073
-378.902	-50.488	-0.118	-0.056
-377.888	440.008	-0.114	0.249
-376.873	-200.000	-0.010	0.156
-375.858	163.705	-0.119	0.168
-374.844	107.728	-0.202	-0.241
-373.829	752.520	-0.094	0.254
-372.815	800.000	0.053	-0.209
-371.800	-163.557	-0.063	0.003
-370.785	256.207	0.047	-0.080
-369.771	-24.780	-0.046	-0.027
-368.756	-74.167	-0.198	0.072
-367.742	2.009	0.052	0.037
-366.727	585.878	0.097	-0.238
-365.712	262.274	0.094	-0.164
-364.698	-23.089	-0.340	0.205
-363.683	218.728	0.102	-0.163
-362.669	14.017	-0.056	0.043
-361.654	-92.453	0.060	0.017
-360.639	-200.000	-0.077	0.429
-359.625	79.073	0.172	-0.185
-358.610	-141.086	0.281	-0.029
-357.596	-107.571	0.210	-0.046
-356.581	499.913	-0.038	-0.087
-355.566	22.287	-0.130	0.107
-354.552	800.000	-0.010	-0.035
-353.537	800.000	0.079	-0.274
-352.523	-60.106	0.076	0.033
-351.508	36.545	0.167	0.148
-350.493	273.985	-0.102	-0.181
-349.479	63.863	0.186	0.187
-348.464	-116.530	0.295	0.054
-347.450	-200.000	-0.024	0.188
-346.435	-87.103	-0.090	-0.027
-345.420	241.110	0.045	0.075
-344.406	107.142	0.168	0.199
-343.391	-11.363	0.115	-0.076
-342.377	800.000	0.068	-0.215
-341.362	-119.431	0.320	0.056
-340.348	6.515	0.205	0.153
-339.333	207.746	0.009	0.014
-338.318	800.000	-0.026	0.105
-337.304	173.994	0.084	-0.122
-336.289	-22.057	0.206	-0.125
-335.275	-113.216	-0.193	-0.038
-334.260	-113.496	-0.290	-0.057
-333.245	-96.839	-0.330	-0.087
-332.231	-200.000	0.041	-0.232
-331.216	-109.392	0.049	0.010
-330.202	220.177	0.145	0.232
-329.187	-200.000	-0.026	0.148
-328.172	23.080	0.062	0.051
-327.158	-80.614	-0.382	-0.127
-326.143	-200.000	0.012	0.108
-325.129	-17.692	-0.239	0.150
-324.114	-55.377	0.241	0.108
-323.099	800.000	-0.028	0.115
-322.085	-96.480	0.288	0.076
-321.070	-200.000	-0.035	0.352
-320.056	800.000	0.060	0.231
-319.041	-200.000	-0.001	-0.024
-318.026	670.003	0.055	-0.142
-317.012	-164.111	-0.166	-0.008
-315.997	534.325	0.027	0.064
-314.983	73.021	-0.239	0.250
-313.968	-94.076	0.274	0.075
-312.953	-200.000	0.055	0.423
-311.939	-155.121	0.293	-0.019
-310.924	-200.000	0.002	0.081
-309.910	69.865	0.088	-0.091
-308.895	-200.000	0.010	0.333
-307.880	800.000	-0.052	-0.146
-306.866	-200.000	-0.042	-0.253
-305.851	116.605	-0.189	0.232
-304.837	766.591	-0.079	0.216
-303.822	-200.000	0.034	-0.169
-302.807	-200.000	-0.040	-0.220
-301.793	-200.000	0.030	0.186
-300.778	-4.450	-0.183	-0.126
-299.764	-200.000	0.063	-0.551
-298.749	421.642	0.064	0.137
-297.735	396.581	-0.028	0.058
-296.720	-114.096	0.150	0.029
-295.705	-6.585	0.123	0.084
-294.691	-33.332	-0.303	-0.168
-293.676	-45.640	-0.112	0.055
-292.662	3.348	-0.238	-0.173
-291.647	-149.773	0.119	-0.009
-290.632	-83.672	-0.281	0.090
-289.618	396.453	0.103	-0.215
-288.603	800.000	0.111	0.401
-287.589	88.095	-0.116	0.129
-286.574	800.000	-0.004	-0.017
-285.559	258.446	0.057	0.098
-284.545	624.881	0.095	-0.240
-283.530	55.800	0.292	0.283
-282.516	-200.000	-0.024	-0.113
-281.501	-35.285	-0.248	-0.135
-280.486	-54.232	-0.125	-0.057
-279.472	162.679	-0.028	-0.039
-278.457	226.897	0.102	-0.166
-277.443	226.685	-0.093	-0.150
-276.428	-142.946	0.285	-0.028
-275.413	-200.000	-0.278	0.000
-274.399	156.206	-0.134	-0.184
-273.384	-0.801	0.222	0.157
-272.370	156.433	-0.372	0.513
-271.355	-157.859	0.108	0.006
-270.340	106.450	-0.143	-0.170
-269.326	-200.000	0.011	-0.222
-268.311	-200.000	-0.020	-0.157
-267.297	-17.425	0.139	-0.087
-266.282	52.442	-0.136	0.130
-265.267	648.994	0.060	-0.153
-264.253	-101.408	-0.078	-0.019
-263.238	-19.204	-0.416	-0.258
-262.224	-158.649	0.005	-0.000
-261.209	395.992	0.093	0.193
-260.195	-20.595	-0.122	-0.075
-259.180	-9.786	0.294	-0.195
-258.165	-200.000	-0.030	-0.184
-257.151	75.565	-0.143	0.151
-256.136	-1.964	0.143	0.100
-255.122	65.946	0.257	0.260
-254.107	-200.000	0.027	0.244
-253.092	800.000	-0.043	0.158
-252.078	-200.000	0.029	0.302
-251.063	-200.000	0.013	0.111
-250.049	100.848	-0.225	-0.261
-249.034	-118.151	-0.043	-0.008
-248.019	242.947	-0.047	-0.078
-247.005	-200.000	-0.033	0.205
-245.990	33.682	0.229	0.199
-244.976	-200.000	0.028	0.333
-243.961	-41.866	-0.138	-0.071
-242.946	800.000	0.067	0.275
-241.932	684.036	0.104	-0.271
-240.917	157.094	0.081	0.111
-239.903	43.820	0.138	0.126
-238.888	6.562	0.309	-0.229
-237.873	229.461	-0.108	0.175
-236.859	-200.000	-0.064	-0.281
-235.844	-51.444	0.223	-0.104
-234.830	60.229	-0.256	0.253
-233.815	8.507	-0.129	-0.097
-232.800	-9.918	-0.162	0.107
-231.786	99.680	0.087	0.100
-230.771	9.335	0.082	-0.062
-229.757	283.502	-0.017	-0.031
-228.742	800.000	-0.050	0.215
-227.727	-144.924	0.159	-0.015
-226.713	8.149	-0.293	-0.219
-225.698	-200.000	0.054	0.535
-224.684	-160.697	-0.393	-0.021
-223.669	58.302	-0.171	0.167
-222.655	303.564	-0.144	0.266
-221.640	-93.809	-0.147	-0.040
-220.625	232.044	-0.084	-0.137
-219.611	-60.537	-0.518	-0.219
-218.596	145.152	-0.160	0.214
-217.582	461.841	0.099	0.219
-216.567	48.336	0.142	0.132
-215.552	56.761	-0.324	-0.314
-214.538	558.462	0.106	-0.254
-213.523	80.298	-0.196	-0.210
-212.509	-200.000	-0.008	-0.284
-211.494	-200.000	0.000	-0.110
-210.479	800.000	-0.089	-0.304
-209.465	452.106	0.111	-0.244
-208.450	161.139	0.220	-0.306
-207.436	-104.962	-0.038	0.009
-206.421	-200.000	0.027	0.328
-205.406	132.562	-0.096	-0.123
-204.392	-200.000	0.045	-0.200
-203.377	145.409	0.064	-0.085
-202.363	-108.746	0.136	0.029
-201.348	-124.727	0.232	0.036
-200.333	-200.000	0.041	-0.304
-199.319	-200.000	-0.020	-0.205
-198.304	-200.000	-0.032	0.231
-197.290	-200.000	-0.003	0.139
-196.275	-106.784	0.180	-0.040
-195.260	-56.772	0.021	-0.009
-194.246	-200.000	-0.027	-0.180
-193.231	-78.780	0.308	0.105
-192.217	-84.389	-0.145	0.046
-191.202	132.681	0.087	0.112
-190.187	-41.541	0.261	0.134
-189.173	88.137	0.088	0.098
-188.158	-200.000	-0.013	0.097
-187.144	-200.000	-0.027	0.182
-186.129	-66.503	-0.112	-0.044
-185.114	356.905	0.182	-0.360
-184.100	536.160	0.101	-0.240
-183.085	-200.000	0.000	-0.083
-182.071	-71.940	0.256	0.095
-181.056	800.000	0.034	0.143
-180.042	41.550	-0.130	0.118
-179.027	-73.667	0.079	0.029
-178.012	800.000	0.074	0.223
-176.998	531.191	0.172	-0.404
-175.983	-146.110	-0.420	0.037
-174.969	48.370	0.151	-0.141
-173.954	-170.009	-0.364	-0.013
-172.939	168.899	-0.179	0.254
-171.925	-87.830	0.228	-0.068
-170.910	21.233	0.201	-0.163
-169.896	800.000	-0.017	-0.059
-168.881	-34.195	0.113	0.062
-167.866	-30.157	-0.120	0.068
-166.852	222.145	0.292	0.467
-165.837	16.838	0.147	-0.116
-164.823	-101.116	-0.153	0.037
-163.808	-83.216	-0.380	0.121
-162.793	252.665	0.049	0.084
-161.779	176.679	0.150	-0.217
-160.764	-157.558	0.257	0.015
-159.750	-131.824	-0.057	-0.007
-158.735	179.990	0.142	-0.207
-157.720	73.547	0.092	0.096
-156.706	466.902	0.164	-0.365
-155.691	-162.377	0.379	-0.019
-154.677	-109.199	0.315	0.066
-153.662	572.219	0.088	0.214
-152.647	-56.810	0.046	0.020
-151.633	800.000	0.094	-0.334
-150.618	-95.863	-0.155	-0.041
-149.604	-10.780	0.023	0.015
-148.589	-7.683	-0.095	-0.064
-147.574	68.868	-0.078	0.079
-146.560	-38.430	-0.176	0.092
-145.545	-0.201	-0.329	0.233
-144.531	800.000	-0.043	0.170
-143.516	800.000	-0.057	0.227
-142.502	59.957	-0.250	-0.246
-141.487	800.000	-0.052	0.181
-140.472	524.359	0.060	-0.140
-139.458	-120.797	0.199	-0.033
-138.443	228.507	0.078	0.127
-137.429	800.000	-0.141	-0.449
-136.414	94.876	0.264	0.298
-135.399	106.031	-0.065	0.076
-134.385	-117.003	-0.048	0.009
-133.370	-200.000	-0.032	-0.349
-132.356	800.000	-0.051	0.216
-131.341	800.000	0.039	-0.116
-130.326	-113.796	-0.044	0.008
-129.312	-65.318	0.227	-0.091
-128.297	-164.823	0.126	-0.006
-127.283	-100.094	-0.482	-0.119
-126.268	-13.234	0.018	0.012
-125.253	-200.000	0.032	0.339
-124.239	-46.757	-0.081	0.039
-123.224	53.602	-0.347	0.331
-122.210	20.834	-0.219	0.176
-121.195	82.582	-0.099	-0.107
