DTS Sentinel unit serial number:	SN413079Multiplexer serial number:	ORYXHardware model number:	OX4-SRSoftware version number:	ORYX F/W v4.00 Oryx Data Collector v3.7.2.0data status	okinstallation	princeton_trtdifferential loss correction	single-endedforward channel	channel 4reverse channel	N/Adate	2019/09/11time	02:51:10forward acquisition time	60.00reverse acquisition time	0.00gamma	496.2192k internal	0.2317k external	0.2317temperature offset calibration	0.9949default loss term (dB/km)	0.3790temperature slope calibration	1.0000multiplexer offset coefficient	1.0000multiplexer slope coefficient	1.0000fibre end	0.00T internal ref (°C)	29.25T ext. ref 1 (°C)	-0.31T ext. ref 2 (°C)	23.52length (m)	temperature (°C)	Stokes	anti-Stokes-747.200	223.945	-0.142	-0.233
-746.185	-3.536	0.033	-0.023
-745.171	-47.243	0.308	0.152
-744.156	-165.638	-0.131	-0.006
-743.142	-46.961	0.313	-0.155
-742.127	-80.662	0.278	0.094
-741.112	800.000	0.044	-0.143
-740.098	-167.635	-0.174	0.007
-739.083	-94.776	0.148	-0.041
-738.069	-200.000	0.032	0.171
-737.054	-200.000	0.027	0.137
-736.039	478.151	0.025	0.057
-735.025	-31.791	0.370	0.210
-734.010	-200.000	0.017	-0.155
-732.996	664.846	-0.114	-0.299
-731.981	-44.022	-0.064	-0.033
-730.966	800.000	-0.031	0.116
-729.952	-104.123	0.232	-0.055
-728.937	800.000	-0.055	-0.181
-727.923	-190.150	-0.545	0.006
-726.908	-51.803	-0.062	-0.029
-725.894	-100.400	-0.280	-0.070
-724.879	-119.129	-0.303	0.054
-723.864	107.207	-0.096	-0.116
-722.850	661.343	0.072	-0.188
-721.835	-39.261	-0.222	0.118
-720.821	-70.673	-0.326	-0.125
-719.806	-32.442	0.125	-0.071
-718.791	293.707	0.084	0.155
-717.777	187.653	-0.207	0.313
-716.762	-137.151	0.143	-0.016
-715.748	-200.000	-0.040	-0.373
-714.733	-60.678	0.209	0.090
-713.718	54.112	0.122	-0.119
-712.704	-95.835	-0.300	-0.081
-711.689	97.751	-0.094	0.109
-710.675	-158.912	0.345	0.020
-709.660	-200.000	-0.039	-0.215
-708.645	-161.552	0.131	-0.007
-707.631	513.218	-0.094	-0.221
-706.616	52.600	-0.239	-0.231
-705.602	711.826	0.144	0.385
-704.587	143.367	0.095	0.128
-703.572	33.693	0.181	-0.159
-702.558	-39.226	0.268	0.142
-701.543	-9.907	-0.238	-0.160
-700.529	-9.930	-0.097	0.066
-699.514	800.000	-0.103	0.367
-698.499	-52.433	-0.338	0.158
-697.485	-200.000	0.197	-0.001
-696.470	-200.000	-0.048	0.433
-695.456	-200.000	0.006	-0.133
-694.441	157.277	0.136	-0.190
-693.426	-40.272	0.065	0.034
-692.412	140.974	-0.145	-0.194
-691.397	-200.000	0.020	0.200
-690.383	-72.136	0.181	-0.068
-689.368	611.281	-0.056	0.141
-688.354	428.733	-0.119	0.260
-687.339	-20.605	-0.259	-0.161
-686.324	27.379	0.098	-0.083
-685.310	-78.525	0.210	0.073
-684.295	-139.743	-0.120	0.013
-683.281	-12.099	-0.256	0.170
-682.266	-42.856	-0.071	0.036
-681.251	-36.298	-0.177	0.096
-680.237	-169.632	-0.267	0.010
-679.222	800.000	-0.087	0.262
-678.208	97.861	0.075	0.087
-677.193	800.000	0.116	-0.388
-676.178	89.960	-0.166	-0.187
-675.164	-188.188	0.365	-0.005
-674.149	3.040	0.076	0.056
-673.135	-87.512	-0.220	0.067
-672.120	-8.714	0.223	-0.151
-671.105	-200.000	0.054	0.284
-670.091	113.088	-0.140	-0.171
-669.076	-33.045	-0.413	-0.231
-668.062	-100.527	-0.129	-0.032
-667.047	800.000	-0.125	-0.396
-666.032	96.429	0.135	0.156
-665.018	-144.475	-0.101	-0.009
-664.003	-200.000	-0.088	0.501
-662.989	-84.784	-0.136	-0.043
-661.974	-122.155	-0.371	0.061
-660.959	-52.765	-0.069	0.032
-659.945	66.279	0.067	0.068
-658.930	-64.330	-0.128	0.053
-657.916	54.813	-0.274	-0.267
-656.901	290.913	0.117	-0.214
-655.886	800.000	-0.124	0.347
-654.872	56.112	-0.317	0.311
-653.857	-138.458	0.400	-0.044
-652.843	-200.000	-0.024	-0.321
-651.828	-132.952	0.092	-0.012
-650.814	80.084	0.144	0.156
-649.799	-134.515	-0.438	-0.054
-648.784	35.003	0.103	-0.091
-647.770	97.748	0.320	-0.371
-646.755	-112.700	-0.229	-0.046
-645.741	-2.126	0.147	-0.104
-644.726	-52.834	0.113	-0.052
-643.711	294.231	-0.130	0.240
-642.697	-53.345	0.105	0.049
-641.682	319.778	0.121	-0.231
-640.668	187.832	-0.142	-0.214
-639.653	455.242	-0.159	0.356
-638.638	97.982	-0.105	-0.122
-637.624	800.000	-0.040	-0.136
-636.609	147.572	0.199	-0.271
-635.595	-69.460	-0.280	0.108
-634.580	-27.697	0.244	0.142
-633.565	367.943	-0.041	-0.084
-632.551	105.225	0.241	-0.287
-631.536	-200.000	-0.033	-0.413
-630.522	-88.816	-0.055	0.017
-629.507	211.115	0.181	0.286
-628.492	-90.670	0.349	-0.102
-627.478	-200.000	0.023	-0.143
-626.463	800.000	0.088	0.271
-625.449	-102.238	0.051	0.012
-624.434	-0.647	-0.170	0.122
-623.419	137.463	0.131	-0.173
-622.405	79.566	0.260	-0.281
-621.390	67.407	0.241	0.248
-620.376	221.060	-0.148	-0.240
-619.361	92.941	-0.238	-0.270
-618.346	-188.854	0.076	0.001
-617.332	175.202	-0.022	-0.032
-616.317	-200.000	0.029	0.203
-615.303	496.890	-0.092	0.212
-614.288	251.595	-0.089	0.152
-613.273	64.631	-0.146	0.148
-612.259	65.146	-0.186	-0.189
-611.244	173.204	0.102	-0.148
-610.230	11.731	0.082	0.063
-609.215	-78.986	0.273	-0.093
-608.201	226.481	0.249	0.407
-607.186	26.147	0.278	0.234
-606.171	-200.000	0.014	-0.148
-605.157	-3.857	0.301	-0.210
-604.142	-162.663	-0.098	-0.005
-603.128	800.000	-0.109	-0.306
-602.113	800.000	0.059	-0.240
-601.098	-153.661	-0.081	0.006
-600.084	-51.088	0.125	-0.059
-599.069	27.582	-0.053	-0.045
-598.055	-54.536	-0.079	0.036
-597.040	-124.452	-0.155	-0.024
-596.025	-77.660	0.304	-0.106
-595.011	565.550	0.170	-0.416
-593.996	-200.000	0.047	-0.218
-592.982	-115.713	0.069	-0.013
-591.967	-200.000	0.006	-0.105
-590.952	30.618	0.240	-0.206
-589.938	131.227	0.065	-0.084
-588.923	-24.996	-0.242	0.144
-587.909	314.044	0.078	-0.147
-586.894	-200.000	-0.055	0.290
-585.879	142.881	0.132	0.176
-584.865	-139.284	-0.255	-0.028
-583.850	-82.674	-0.275	0.090
-582.836	723.435	-0.089	-0.239
-581.821	-51.215	0.076	0.036
-580.806	28.458	-0.281	-0.239
-579.792	61.686	-0.167	-0.167
-578.777	-121.984	0.159	0.026
-577.763	-47.373	-0.180	-0.088
-576.748	-159.643	-0.101	-0.006
-575.733	-200.000	0.002	-0.119
-574.719	800.000	0.028	0.086
-573.704	-86.135	0.284	-0.088
-572.690	62.412	0.078	-0.079
-571.675	108.059	0.409	-0.491
-570.661	136.976	0.180	0.237
-569.646	-200.000	-0.017	0.350
-568.631	-200.000	0.034	0.200
-567.617	-33.816	-0.272	0.151
-566.602	458.373	-0.071	0.159
-565.588	-88.532	0.109	0.033
-564.573	800.000	0.047	-0.190
-563.558	-200.000	-0.030	-0.204
-562.544	1.039	-0.164	0.119
-561.529	-200.000	-0.013	0.202
-560.515	84.190	-0.202	-0.222
-559.500	68.820	0.035	-0.036
-558.485	43.416	0.025	0.023
-557.471	530.410	-0.080	0.191
-556.456	328.390	0.092	0.178
-555.442	-94.460	0.339	0.093
-554.427	244.423	0.024	-0.041
-553.412	-192.954	0.208	-0.002
-552.398	-106.456	0.071	0.016
-551.383	-113.051	0.263	0.052
-550.369	34.326	-0.208	-0.183
-549.354	-200.000	-0.055	-0.369
-548.339	800.000	0.101	-0.295
-547.325	800.000	0.006	0.025
-546.310	405.524	-0.051	-0.109
-545.296	-122.394	0.044	0.007
-544.281	198.928	-0.119	-0.183
-543.266	800.000	0.085	0.287
-542.252	16.467	0.116	-0.092
-541.237	-200.000	0.069	-0.416
-540.223	-200.000	0.014	-0.255
-539.208	-58.702	-0.102	-0.045
-538.193	-200.000	-0.008	0.363
-537.179	19.004	-0.452	-0.364
-536.164	155.305	-0.186	-0.257
-535.150	567.040	-0.110	0.268
-534.135	665.998	0.143	0.370
-533.121	-163.093	-0.332	-0.016
-532.106	84.312	0.176	-0.193
-531.091	-44.668	-0.335	0.168
-530.077	-118.771	-0.019	-0.003
-529.062	120.440	-0.270	0.336
-528.048	-30.378	0.109	-0.062
-527.033	71.618	-0.068	-0.071
-526.018	-200.000	-0.009	-0.325
-525.004	-144.308	-0.323	-0.030
-523.989	-3.140	0.258	-0.181
-522.975	90.115	-0.080	0.090
-521.960	-113.767	-0.093	-0.018
-520.945	733.044	-0.106	-0.284
-519.931	-22.432	0.402	0.244
-518.916	-139.927	0.066	0.007
-517.902	-200.000	0.049	0.387
-516.887	-68.918	0.360	-0.139
-515.872	-20.224	0.427	-0.264
-514.858	89.798	0.205	-0.230
-513.843	74.677	0.333	-0.352
-512.829	-41.354	0.257	0.133
-511.814	-122.516	0.253	-0.041
-510.799	-101.925	-0.108	-0.026
-509.785	15.099	0.185	0.145
-508.770	-118.434	-0.094	0.017
-507.756	-53.616	-0.090	-0.041
-506.741	235.055	-0.157	0.261
-505.726	-51.835	0.161	0.075
-504.712	-22.288	0.318	-0.193
-503.697	-177.971	-0.254	0.006
-502.683	800.000	-0.072	-0.253
-501.668	132.653	0.165	0.214
-500.653	-127.562	-0.228	-0.033
-499.639	53.659	-0.112	-0.108
-498.624	108.528	-0.099	-0.118
-497.610	800.000	-0.045	-0.148
-496.595	-49.464	0.106	0.051
-495.581	42.040	-0.283	0.257
-494.566	-200.000	-0.006	-0.116
-493.551	291.734	-0.177	-0.323
-492.537	129.197	0.128	0.164
-491.522	-113.241	0.305	0.060
-490.508	500.213	0.168	0.387
-489.493	150.620	0.014	0.019
-488.478	230.023	0.077	-0.127
-487.464	-200.000	0.032	0.247
-486.449	-109.078	0.154	0.033
-485.435	-65.632	0.037	0.015
-484.420	-200.000	-0.003	0.026
-483.405	150.334	-0.124	0.169
-482.391	-200.000	0.038	-0.340
-481.376	43.745	-0.291	-0.267
-480.362	-200.000	-0.018	-0.226
-479.347	-83.560	0.172	-0.055
-478.332	-200.000	0.001	0.080
-477.318	800.000	-0.061	-0.210
-476.303	-200.000	-0.012	-0.109
-475.289	-73.368	-0.395	0.145
-474.274	-77.111	0.114	0.040
-473.259	-200.000	0.009	-0.092
-472.245	-200.000	-0.000	-0.016
-471.230	48.293	0.203	-0.191
-470.216	101.479	0.111	0.130
-469.201	53.053	-0.091	0.088
-468.186	62.485	0.141	-0.141
-467.172	-8.249	-0.437	0.295
-466.157	-200.000	-0.035	-0.167
-465.143	-14.330	0.229	0.148
-464.128	800.000	-0.018	0.069
-463.113	-88.561	-0.303	-0.090
-462.099	-200.000	0.016	0.076
-461.084	399.418	0.126	0.265
-460.070	-119.711	-0.234	0.041
-459.055	186.698	0.094	-0.140
-458.040	-200.000	0.005	0.055
-457.026	-200.000	0.032	-0.164
-456.011	251.969	0.149	-0.253
-454.997	800.000	0.075	0.301
-453.982	-8.994	-0.187	0.125
-452.968	800.000	0.098	-0.316
-451.953	800.000	-0.099	-0.296
-450.938	-66.343	-0.277	-0.110
-449.924	800.000	0.045	-0.138
-448.909	-92.777	-0.056	0.016
-447.895	553.868	0.070	0.168
-446.880	-68.845	-0.100	-0.039
-445.865	800.000	0.106	0.311
-444.851	-31.084	0.205	-0.116
-443.836	-144.044	-0.329	0.031
-442.822	800.000	-0.093	0.318
-441.807	-133.438	0.063	0.008
-440.792	66.736	-0.160	-0.163
-439.778	800.000	-0.077	-0.281
-438.763	-200.000	0.004	0.200
-437.749	499.542	0.050	-0.116
-436.734	800.000	0.115	0.358
-435.719	-163.812	0.219	0.010
-434.705	218.198	-0.193	0.308
-433.690	-33.903	0.196	-0.108
-432.676	236.250	0.059	-0.098
-431.661	94.129	0.152	-0.173
-430.646	-82.670	-0.335	-0.109
-429.632	-111.232	-0.232	-0.047
-428.617	98.028	0.140	0.161
-427.603	68.671	0.075	0.077
-426.588	102.766	-0.057	-0.067
-425.573	193.647	-0.112	-0.170
-424.559	-46.779	-0.184	0.090
-423.544	173.796	-0.054	0.078
-422.530	-200.000	0.038	-0.350
-421.515	80.809	0.094	-0.101
-420.500	-91.375	0.152	0.044
-419.486	-93.425	0.197	-0.055
-418.471	7.508	0.252	0.188
-417.457	-200.000	-0.027	0.245
-416.442	-66.691	-0.258	0.102
-415.428	183.017	0.011	0.016
-414.413	-89.648	-0.247	-0.072
-413.398	-138.927	-0.196	-0.021
-412.384	-50.213	-0.116	0.055
-411.369	-200.000	-0.022	0.104
-410.355	23.200	-0.268	0.220
-409.340	-200.000	0.002	0.199
-408.325	44.797	-0.190	0.175
-407.311	-39.004	-0.173	0.091
-406.296	33.835	0.241	0.209
-405.282	-200.000	0.000	0.033
-404.267	118.764	-0.121	-0.150
-403.252	-127.299	0.197	0.029
-402.238	136.957	0.156	0.204
-401.223	-36.657	-0.141	-0.076
-400.209	122.058	-0.006	-0.007
-399.194	220.461	0.279	0.447
-398.179	-200.000	-0.003	-0.080
-397.165	-200.000	-0.008	-0.298
-396.150	174.883	0.272	0.393
-395.136	-9.198	-0.291	0.195
-394.121	-39.844	-0.132	0.069
-393.106	0.646	-0.229	0.164
-392.092	70.903	-0.128	-0.132
-391.077	-74.571	-0.175	-0.063
-390.063	374.396	-0.108	0.219
-389.048	130.118	0.258	0.330
-388.033	36.773	0.084	-0.074
-387.019	-99.612	-0.302	-0.076
-386.004	174.572	0.017	0.025
-384.990	-129.534	0.407	-0.056
-383.975	800.000	0.083	-0.246
-382.960	-200.000	-0.027	0.219
-381.946	-200.000	-0.037	-0.177
-380.931	-49.698	-0.303	0.144
-379.917	-175.161	0.252	0.007
-378.902	-14.662	-0.284	0.182
-377.888	54.008	-0.163	0.157
-376.873	-151.914	0.145	0.011
-375.858	800.000	-0.067	-0.191
-374.844	230.502	-0.158	0.259
-373.829	-33.245	-0.115	0.063
-372.815	178.105	0.217	-0.316
-371.800	-200.000	-0.048	-0.366
-370.785	-200.000	-0.013	-0.283
-369.771	11.853	-0.295	-0.227
-368.756	-178.760	-0.206	-0.005
-367.742	179.578	0.143	-0.208
-366.727	59.387	-0.169	-0.166
-365.712	34.805	0.222	0.194
-364.698	-200.000	0.027	-0.250
-363.683	-163.501	0.338	0.016
-362.669	116.554	-0.149	0.182
-361.654	72.351	-0.250	-0.260
-360.639	102.322	-0.050	0.058
-359.625	-39.225	0.246	-0.129
-358.610	17.873	0.067	-0.053
-357.596	-200.000	0.023	0.114
-356.581	207.924	0.093	-0.144
-355.566	-200.000	-0.032	-0.256
-354.552	122.336	0.023	-0.028
-353.537	-200.000	-0.063	-0.278
-352.523	107.507	0.072	-0.085
-351.508	48.346	-0.246	-0.229
-350.493	-141.095	-0.007	-0.001
-349.479	-95.846	-0.101	-0.027
-348.464	-47.638	0.319	0.154
-347.450	623.461	0.098	0.246
-346.435	-41.571	-0.240	0.123
-345.420	198.473	0.079	0.120
-344.406	-32.860	0.299	0.166
-343.391	-78.008	0.265	-0.091
-342.377	-17.755	-0.272	0.170
-341.362	-34.726	-0.194	0.106
-340.348	-134.239	0.076	0.009
-339.333	800.000	-0.098	-0.318
-338.318	-146.487	0.138	-0.012
-337.304	-200.000	0.044	0.260
-336.289	-200.000	0.070	0.340
-335.275	38.249	-0.146	-0.130
-334.260	-90.342	0.306	-0.088
-333.245	-200.000	0.007	0.070
-332.231	-145.313	0.232	-0.021
-331.216	800.000	0.012	-0.043
-330.202	-6.397	-0.313	0.213
-329.187	-200.000	-0.019	-0.149
-328.172	114.651	0.141	0.171
-327.158	-200.000	0.031	0.824
-326.143	-200.000	-0.005	-0.102
-325.129	-127.740	-0.159	0.023
-324.114	530.957	0.092	0.217
-323.099	-17.000	-0.354	-0.223
-322.085	-164.927	0.036	-0.002
-321.070	205.355	-0.134	-0.207
-320.056	-98.863	-0.145	0.037
-319.041	13.436	0.084	0.065
-318.026	-166.819	-0.324	-0.013
-317.012	-200.000	-0.080	0.448
-315.997	7.543	0.191	0.142
-314.983	318.093	-0.139	0.261
-313.968	-200.000	-0.025	0.113
-312.953	93.872	0.182	-0.206
-311.939	48.708	-0.196	0.183
-310.924	654.625	-0.035	0.090
-309.910	19.352	0.068	-0.055
-308.895	33.666	-0.128	0.111
-307.880	145.253	0.055	0.073
-306.866	-125.372	-0.423	-0.064
-305.851	-41.572	0.236	-0.121
-304.837	377.186	0.145	-0.295
-303.822	-184.096	-0.182	0.003
-302.807	242.852	0.122	-0.204
-301.793	-18.450	-0.123	-0.077
-300.778	-200.000	0.057	-0.572
-299.764	282.030	0.073	-0.130
-298.749	-158.796	0.256	-0.015
-297.735	315.098	-0.065	0.122
-296.720	800.000	-0.052	-0.172
-295.705	266.048	-0.204	-0.353
-294.691	237.237	0.182	0.300
-293.676	-41.895	-0.273	0.139
-292.662	-200.000	0.013	0.231
-291.647	-200.000	-0.074	0.442
-290.632	-138.133	0.289	-0.032
-289.618	-200.000	-0.029	0.266
-288.603	146.770	-0.252	0.337
-287.589	-79.308	-0.109	0.037
-286.574	-200.000	-0.016	-0.141
-285.559	40.024	0.017	-0.015
-284.545	149.941	0.030	-0.041
-283.530	268.792	0.162	-0.282
-282.516	-54.974	-0.123	-0.055
-281.501	73.105	0.035	0.036
-280.486	-103.064	-0.160	-0.038
-279.472	-90.663	-0.212	0.061
-278.457	-200.000	-0.042	0.337
-277.443	-112.766	-0.041	-0.008
-276.428	418.256	-0.100	-0.212
-275.413	800.000	-0.043	-0.130
-274.399	-92.639	-0.111	-0.031
-273.384	-127.494	0.427	-0.062
-272.370	-127.851	-0.064	-0.009
-271.355	407.877	-0.078	-0.164
-270.340	113.900	-0.252	0.305
-269.326	153.803	-0.192	0.261
-268.311	448.767	0.173	0.378
-267.297	-200.000	-0.004	-0.432
-266.282	-55.287	-0.182	-0.081
-265.267	-22.760	0.283	-0.170
-264.253	-69.840	0.147	0.056
-263.238	154.716	-0.122	0.167
-262.224	-200.000	0.022	-0.187
-261.209	132.758	0.152	-0.194
-260.195	800.000	0.026	-0.100
-259.180	129.360	0.288	-0.365
-258.165	-125.601	0.150	0.023
-257.151	212.464	-0.114	-0.178
-256.136	79.526	-0.085	-0.090
-255.122	179.578	-0.237	0.345
-254.107	572.150	0.003	-0.007
-253.092	7.641	0.176	-0.131
-252.078	800.000	0.046	-0.145
-251.063	-82.844	-0.186	0.060
-250.049	0.237	0.400	0.284
-249.034	-100.588	-0.106	-0.026
-248.019	78.876	-0.129	-0.137
-247.005	-73.143	-0.197	-0.072
-245.990	800.000	0.017	0.059
-244.976	800.000	-0.018	0.076
-243.961	-200.000	-0.036	-0.374
-242.946	-200.000	-0.051	-0.299
-241.932	5.222	-0.165	0.121
-240.917	-85.978	0.332	0.102
-239.903	-47.320	-0.210	0.102
-238.888	-200.000	-0.032	0.314
-237.873	93.144	-0.162	0.182
-236.859	-89.845	0.073	-0.021
-235.844	29.177	0.131	-0.110
-234.830	145.166	0.086	-0.114
-233.815	-161.173	0.043	-0.002
-232.800	-200.000	0.002	0.207
-231.786	-65.910	0.200	-0.079
-230.771	-70.705	-0.259	-0.097
-229.757	337.651	0.056	-0.107
-228.742	433.981	0.083	0.179
-227.727	800.000	-0.059	0.201
-226.713	-137.638	0.138	0.015
-225.698	-200.000	0.006	-0.174
-224.684	-182.883	-0.164	-0.003
-223.669	336.183	0.072	-0.139
-222.655	-49.286	0.219	-0.104
-221.640	-200.000	-0.011	0.083
-220.625	51.029	-0.076	0.072
-219.611	-93.959	0.244	-0.066
-218.596	-94.605	-0.156	-0.042
-217.582	-200.000	-0.023	0.266
-216.567	175.527	0.142	0.204
-215.552	232.119	0.020	0.032
-214.538	253.436	-0.110	0.187
-213.523	-14.015	-0.116	0.074
-212.509	-31.380	0.123	0.069
-211.494	35.899	-0.084	-0.073
-210.479	169.472	0.070	0.100
-209.465	103.681	-0.135	0.157
-208.450	-109.331	-0.356	-0.075
-207.436	488.257	-0.045	-0.102
-206.421	-111.543	0.256	0.052
-205.406	-181.865	-0.070	0.001
-204.392	-36.548	0.303	0.162
-203.377	-14.569	-0.294	0.188
-202.363	-200.000	0.009	-0.042
-201.348	459.507	0.148	0.326
-200.333	-9.498	-0.056	0.037
-199.319	212.332	0.182	0.284
-198.304	-151.881	-0.296	-0.021
-197.290	47.374	-0.076	0.070
-196.275	-123.181	-0.225	-0.036
-195.260	130.955	0.260	-0.331
-194.246	10.589	0.185	0.140
-193.231	16.674	-0.135	0.106
-192.217	-22.878	-0.159	-0.095
-191.202	-4.866	0.211	0.144
-190.187	70.273	-0.048	-0.050
-189.173	265.440	0.152	0.263
-188.158	-200.000	-0.011	0.133
-187.144	98.381	-0.024	-0.027
-186.129	-82.406	-0.099	-0.032
-185.114	800.000	-0.135	0.550
-184.100	281.809	0.039	-0.069
-183.085	-200.000	0.064	-0.285
-182.071	670.896	-0.058	0.149
-181.056	-31.115	0.280	-0.156
-180.042	-154.751	-0.056	-0.004
-179.027	800.000	0.025	-0.096
-178.012	800.000	-0.071	0.309
-176.998	-23.119	0.353	0.211
-175.983	800.000	0.063	0.260
-174.969	800.000	0.059	0.162
-173.954	-200.000	-0.006	-0.168
-172.939	-108.610	0.106	0.023
-171.925	-54.055	-0.021	0.010
-170.910	-81.192	0.186	-0.061
-169.896	-186.940	-0.310	-0.004
-168.881	-162.544	0.219	-0.011
-167.866	-21.426	0.102	-0.062
-166.852	59.830	0.096	-0.094
-165.837	36.975	-0.102	0.089
-164.823	800.000	-0.011	0.034
-163.808	-90.676	-0.286	0.082
-162.793	25.743	-0.113	-0.093
-161.779	51.257	0.242	0.227
-160.764	1.331	-0.048	0.034
-159.750	-68.098	0.044	0.017
-158.735	71.051	0.031	-0.032
-157.720	164.717	0.037	-0.052
-156.706	800.000	-0.062	0.248
-155.691	253.531	-0.121	0.204
-154.677	-119.622	0.320	0.055
-153.662	22.294	0.232	-0.187
-152.647	-48.449	-0.315	0.150
-151.633	800.000	-0.087	-0.276
-150.618	-200.000	0.022	-0.120
-149.604	172.736	0.062	0.089
-148.589	50.876	-0.216	0.202
-147.574	-200.000	0.032	-0.397
-146.560	394.101	0.132	-0.272
-145.545	800.000	0.063	-0.239
-144.531	-200.000	0.035	-0.181
-143.516	-79.957	0.170	-0.056
-142.502	39.832	-0.320	-0.284
-141.487	800.000	0.040	-0.150
-140.472	-200.000	0.013	-0.231
-139.458	77.104	0.091	0.096
-138.443	80.860	0.259	0.276
-137.429	-200.000	-0.031	0.244
-136.414	-200.000	-0.020	-0.148
-135.399	40.508	0.129	-0.115
-134.385	28.742	-0.174	-0.146
-133.370	-192.069	-0.347	0.003
-132.356	22.006	-0.205	-0.165
-131.341	-47.024	0.147	0.071
-130.326	-1.930	0.022	0.015
-129.312	189.690	0.168	0.248
-128.297	-200.000	0.058	-0.274
-127.283	-54.696	-0.127	0.057
-126.268	125.584	0.072	0.090
-125.253	155.645	0.065	0.088
-124.239	167.796	-0.137	-0.193
-123.224	19.843	0.043	0.034
-122.210	-200.000	-0.003	-0.028
-121.195	-68.214	-0.321	-0.123
