DTS Sentinel unit serial number:	SN413079Multiplexer serial number:	ORYXHardware model number:	OX4-SRSoftware version number:	ORYX F/W v4.00 Oryx Data Collector v3.7.2.0data status	okinstallation	princeton_trtdifferential loss correction	single-endedforward channel	channel 4reverse channel	N/Adate	2019/09/11time	11:55:10forward acquisition time	60.00reverse acquisition time	0.00gamma	496.2192k internal	0.2288k external	0.2288temperature offset calibration	0.9968default loss term (dB/km)	0.3790temperature slope calibration	1.0000multiplexer offset coefficient	1.0000multiplexer slope coefficient	1.0000fibre end	0.00T internal ref (°C)	39.05T ext. ref 1 (°C)	0.22T ext. ref 2 (°C)	37.29length (m)	temperature (°C)	Stokes	anti-Stokes-747.200	561.165	-0.059	0.147
-746.185	-79.524	-0.219	0.076
-745.171	-146.902	0.073	0.006
-744.156	201.353	0.140	0.222
-743.142	129.267	0.270	0.354
-742.127	800.000	0.160	0.515
-741.112	800.000	0.067	-0.260
-740.098	-82.632	-0.206	0.068
-739.083	108.346	-0.141	0.173
-738.069	-98.720	0.271	-0.071
-737.054	-13.728	-0.039	0.026
-736.039	-41.611	-0.203	0.107
-735.025	299.579	-0.105	-0.197
-734.010	800.000	-0.086	-0.245
-732.996	-30.391	0.133	-0.078
-731.981	47.684	0.075	-0.072
-730.966	-34.982	0.406	0.227
-729.952	800.000	0.093	-0.268
-728.937	-72.361	-0.203	0.077
-727.923	-59.021	-0.541	-0.239
-726.908	99.131	0.034	-0.041
-725.894	-27.926	0.071	0.042
-724.879	-142.992	-0.181	-0.018
-723.864	-200.000	-0.038	-0.190
-722.850	-87.405	0.272	-0.084
-721.835	-36.791	-0.438	-0.241
-720.821	-76.895	-0.073	0.026
-719.806	5.644	-0.134	-0.102
-718.791	195.054	-0.133	-0.206
-717.777	128.630	0.171	-0.224
-716.762	-190.342	0.162	-0.002
-715.748	-80.111	0.105	0.036
-714.733	-152.300	-0.164	0.012
-713.718	-28.208	0.217	-0.129
-712.704	-74.266	-0.227	0.084
-711.689	-200.000	-0.003	-0.334
-710.675	800.000	-0.053	-0.177
-709.660	443.624	0.186	0.418
-708.645	-200.000	0.034	0.386
-707.631	60.589	0.155	0.157
-706.616	-31.186	0.134	-0.078
-705.602	-135.865	0.107	-0.013
-704.587	-200.000	-0.050	-0.410
-703.572	-17.660	-0.199	0.128
-702.558	800.000	0.138	-0.491
-701.543	-65.072	0.198	-0.082
-700.529	270.685	0.066	-0.118
-699.514	-52.024	-0.101	0.048
-698.499	-179.788	-0.133	0.003
-697.485	182.320	-0.043	-0.065
-696.470	298.953	0.102	-0.193
-695.456	145.180	-0.166	-0.227
-694.441	-200.000	0.002	0.123
-693.426	95.584	-0.124	-0.144
-692.412	188.529	0.242	-0.370
-691.397	-31.874	-0.131	-0.075
-690.383	578.594	-0.135	-0.337
-689.368	33.028	0.208	-0.185
-688.354	40.039	0.212	-0.195
-687.339	715.221	-0.077	0.208
-686.324	-100.709	0.366	-0.092
-685.310	136.590	-0.241	0.322
-684.295	271.411	-0.090	0.162
-683.281	800.000	0.061	-0.209
-682.266	499.958	0.166	-0.392
-681.251	-200.000	0.029	-0.181
-680.237	679.426	-0.097	-0.257
-679.222	238.861	0.069	-0.117
-678.208	56.044	-0.136	0.135
-677.193	800.000	0.038	0.128
-676.178	800.000	-0.053	-0.209
-675.164	-96.659	-0.367	-0.099
-674.149	800.000	0.102	-0.304
-673.135	-58.240	-0.311	-0.139
-672.120	510.923	-0.138	-0.327
-671.105	1.934	0.087	-0.064
-670.091	-30.991	-0.153	-0.088
-669.076	16.713	0.091	0.074
-668.062	-61.422	-0.267	0.115
-667.047	198.453	-0.096	-0.150
-666.032	-159.783	-0.372	-0.021
-665.018	-50.392	-0.296	0.143
-664.003	-133.844	0.136	-0.017
-662.989	75.453	0.085	0.091
-661.974	-200.000	0.024	0.131
-660.959	-200.000	-0.003	-0.220
-659.945	-200.000	-0.070	0.373
-658.930	66.598	0.113	0.117
-657.916	-99.245	0.152	-0.039
-656.901	355.633	0.046	0.095
-655.886	114.825	-0.122	0.152
-654.872	-127.083	-0.237	-0.035
-653.857	-200.000	-0.029	-0.242
-652.843	800.000	0.071	-0.244
-651.828	15.349	-0.166	-0.133
-650.814	-200.000	0.020	-0.394
-649.799	800.000	0.114	-0.328
-648.784	-126.752	-0.189	0.029
-647.770	-48.761	0.171	0.084
-646.755	47.655	0.139	-0.133
-645.741	54.651	0.073	-0.072
-644.726	-120.241	-0.083	0.014
-643.711	-88.978	0.328	-0.099
-642.697	6.679	-0.285	-0.217
-641.682	167.335	-0.131	0.190
-640.668	-122.617	0.318	0.053
-639.653	55.923	-0.122	0.121
-638.638	-200.000	0.011	-0.086
-637.624	305.138	0.134	-0.254
-636.609	800.000	0.045	0.148
-635.595	-88.037	-0.219	-0.067
-634.580	556.882	-0.079	0.194
-633.565	-130.284	0.158	0.022
-632.551	95.785	0.137	0.160
-631.536	-50.091	-0.336	0.162
-630.522	-111.965	-0.223	0.046
-629.507	-200.000	0.026	0.159
-628.492	22.873	-0.367	-0.307
-627.478	159.545	0.030	0.043
-626.463	-200.000	0.015	0.106
-625.449	-55.718	-0.104	-0.047
-624.434	-166.512	-0.287	-0.012
-623.419	-34.365	0.114	-0.064
-622.405	-200.000	-0.004	0.122
-621.390	15.570	0.079	-0.063
-620.376	-200.000	0.001	-0.023
-619.361	-59.111	-0.463	-0.204
-618.346	70.249	0.057	-0.061
-617.332	-200.000	0.048	0.327
-616.317	800.000	-0.061	0.183
-615.303	137.363	0.120	0.160
-614.288	-2.433	0.130	-0.093
-613.273	502.101	0.027	0.063
-612.259	23.333	-0.302	-0.253
-611.244	31.950	0.067	0.059
-610.230	-200.000	0.039	0.254
-609.215	-200.000	0.007	0.223
-608.201	800.000	0.114	0.373
-607.186	226.428	-0.057	-0.095
-606.171	-6.273	0.246	-0.172
-605.157	-155.307	0.259	0.017
-604.142	800.000	-0.015	-0.042
-603.128	652.752	-0.080	-0.210
-602.113	-122.291	0.329	-0.055
-601.098	86.064	-0.313	-0.351
-600.084	-48.393	-0.156	0.077
-599.069	228.398	0.045	0.075
-598.055	-200.000	0.003	-0.088
-597.040	-95.405	-0.176	-0.048
-596.025	-90.113	0.470	0.139
-595.011	-132.064	-0.160	-0.021
-593.996	-149.254	0.412	-0.034
-592.982	101.603	-0.063	0.075
-591.967	439.009	-0.244	-0.543
-590.952	25.714	-0.293	-0.248
-589.938	-200.000	-0.049	-0.246
-588.923	800.000	0.056	0.173
-587.909	-173.646	-0.163	0.005
-586.894	800.000	-0.118	0.527
-585.879	3.392	-0.121	-0.090
-584.865	-102.927	-0.300	0.073
-583.850	-78.144	-0.289	-0.101
-582.836	9.865	-0.345	0.267
-581.821	-76.760	0.192	0.068
-580.806	-60.059	-0.216	-0.094
-579.792	128.879	-0.271	-0.352
-578.777	77.644	-0.156	0.169
-577.763	-200.000	0.038	0.309
-576.748	-3.536	-0.165	0.117
-575.733	-51.973	0.306	0.145
-574.719	11.913	0.125	-0.098
-573.704	772.564	0.073	-0.203
-572.690	-15.510	0.169	-0.110
-571.675	56.943	-0.161	0.160
-570.661	204.387	0.051	-0.081
-569.646	-47.717	0.187	0.092
-568.631	-85.692	0.183	0.058
-567.617	-200.000	-0.011	0.097
-566.602	99.018	-0.125	-0.147
-565.588	351.120	-0.061	-0.123
-564.573	70.717	-0.118	-0.124
-563.558	-33.050	-0.072	-0.041
-562.544	-53.991	-0.342	0.159
-561.529	800.000	-0.035	-0.108
-560.515	49.901	0.231	0.222
-559.500	112.108	-0.228	-0.281
-558.485	-71.899	0.286	-0.108
-557.471	148.381	0.074	-0.101
-556.456	-112.135	-0.091	0.019
-555.442	-77.111	-0.285	0.101
-554.427	184.869	-0.220	-0.331
-553.412	800.000	-0.039	-0.124
-552.398	348.058	0.035	0.070
-551.383	800.000	0.096	-0.300
-550.369	81.745	0.113	-0.125
-549.354	-81.201	0.162	0.054
-548.339	74.123	-0.154	-0.164
-547.325	800.000	0.020	-0.076
-546.310	165.467	0.194	0.280
-545.296	265.155	-0.107	0.190
-544.281	800.000	-0.169	-0.492
-543.266	-200.000	-0.003	0.017
-542.252	485.255	-0.135	0.314
-541.237	-200.000	0.011	-0.053
-540.223	-23.279	0.238	-0.146
-539.208	800.000	-0.099	-0.292
-538.193	-149.629	0.161	-0.013
-537.179	-151.860	0.053	-0.004
-536.164	-59.428	0.491	-0.215
-535.150	-127.550	0.269	-0.040
-534.135	124.639	0.158	0.203
-533.121	-200.000	0.029	-0.135
-532.106	524.383	-0.072	-0.173
-531.091	-200.000	-0.000	-0.016
-530.077	-9.748	0.269	0.182
-529.062	-29.890	0.285	0.165
-528.048	-10.191	-0.041	-0.028
-527.033	213.309	-0.079	0.127
-526.018	-50.751	0.042	-0.020
-525.004	-102.585	0.136	0.033
-523.989	710.043	-0.009	0.024
-522.975	-200.000	-0.008	-0.263
-521.960	800.000	-0.015	-0.051
-520.945	-36.490	0.134	-0.073
-519.931	-122.061	0.220	-0.037
-518.916	-92.526	0.568	-0.162
-517.902	-56.383	-0.326	0.147
-516.887	-49.451	-0.391	0.190
-515.872	-200.000	0.005	0.023
-514.858	153.174	-0.003	-0.004
-513.843	-158.881	0.145	0.008
-512.829	-200.000	0.028	-0.191
-511.814	32.544	-0.035	-0.031
-510.799	163.091	-0.220	0.314
-509.785	800.000	-0.018	0.065
-508.770	-138.629	0.180	-0.020
-507.756	-17.689	-0.081	0.052
-506.741	566.266	0.121	0.298
-505.726	-54.762	-0.335	-0.154
-504.712	-35.648	-0.124	0.069
-503.697	-94.243	0.148	-0.041
-502.683	-147.249	-0.136	0.012
-501.668	-53.533	0.093	-0.043
-500.653	22.228	0.110	0.092
-499.639	-200.000	-0.034	-0.173
-498.624	38.033	-0.064	0.058
-497.610	-117.340	-0.098	-0.018
-496.595	-200.000	0.027	0.152
-495.581	800.000	0.084	0.265
-494.566	-200.000	0.049	0.273
-493.551	131.937	-0.186	0.243
-492.537	-157.978	-0.323	-0.019
-491.522	714.820	-0.031	0.082
-490.508	-73.277	0.069	0.026
-489.493	-200.000	-0.059	0.302
-488.478	-92.110	-0.165	0.047
-487.464	-23.682	0.328	0.200
-486.449	58.405	0.147	-0.146
-485.435	178.453	0.357	-0.530
-484.420	108.484	0.145	-0.175
-483.405	-128.926	-0.152	0.022
-482.391	-51.253	-0.298	0.142
-481.376	-200.000	0.027	-0.162
-480.362	100.560	-0.085	0.100
-479.347	196.358	-0.038	0.059
-478.332	307.016	0.116	0.219
-477.318	-49.761	-0.017	0.008
-476.303	-150.380	0.223	0.017
-475.289	-21.746	0.195	0.120
-474.274	89.717	-0.314	-0.355
-473.259	262.235	0.033	-0.059
-472.245	-200.000	0.000	-0.066
-471.230	505.086	0.064	-0.151
-470.216	-200.000	-0.029	0.229
-469.201	310.365	-0.069	0.132
-468.186	-25.181	0.215	-0.129
-467.172	89.342	0.261	0.295
-466.157	-200.000	0.049	-0.235
-465.143	456.856	-0.055	-0.125
-464.128	2.340	-0.143	0.105
-463.113	-200.000	-0.019	0.330
-462.099	51.236	-0.005	-0.004
-461.084	-52.953	0.087	-0.041
-460.070	738.960	0.036	-0.097
-459.055	121.989	-0.115	-0.146
-458.040	45.205	-0.292	-0.273
-457.026	15.914	-0.129	-0.103
-456.011	396.274	-0.022	-0.046
-454.997	-76.926	0.441	0.156
-453.982	-200.000	-0.002	0.349
-452.968	-153.650	0.066	-0.005
-451.953	-32.523	0.088	0.049
-450.938	-200.000	-0.029	0.144
-449.924	149.471	-0.097	0.133
-448.909	292.655	-0.051	0.094
-447.895	59.350	0.208	0.207
-446.880	77.554	0.340	0.366
-445.865	-139.061	0.176	-0.019
-444.851	634.894	-0.049	0.127
-443.836	-144.874	-0.165	-0.015
-442.822	-21.422	-0.109	0.068
-441.807	-45.789	-0.333	-0.167
-440.792	80.123	-0.182	0.198
-439.778	-36.853	0.224	-0.122
-438.763	-200.000	-0.005	-0.268
-437.749	-93.067	-0.131	-0.037
-436.734	-184.492	0.223	0.004
-435.719	-126.080	0.181	0.028
-434.705	134.706	-0.137	-0.181
-433.690	800.000	0.090	-0.280
-432.676	-200.000	0.017	-0.423
-431.661	-200.000	-0.037	-0.301
-430.646	-62.718	0.279	-0.117
-429.632	-200.000	-0.061	-0.285
-428.617	-200.000	0.011	-0.114
-427.603	-200.000	0.013	0.063
-426.588	-35.828	-0.170	-0.093
-425.573	190.458	-0.019	0.029
-424.559	800.000	-0.024	-0.092
-423.544	55.661	-0.008	0.007
-422.530	-82.397	0.264	0.087
-421.515	-200.000	-0.013	0.273
-420.500	-160.718	0.121	0.006
-419.486	49.425	-0.095	-0.090
-418.471	-55.621	-0.297	0.134
-417.457	-106.199	0.130	0.029
-416.442	-25.379	-0.210	-0.125
-415.428	73.858	-0.093	-0.099
-414.413	-200.000	-0.044	-0.302
-413.398	800.000	-0.083	-0.235
-412.384	-56.480	-0.358	-0.161
-411.369	-52.356	0.127	-0.060
-410.355	800.000	0.057	-0.191
-409.340	800.000	-0.039	0.136
-408.325	15.948	0.145	0.116
-407.311	73.996	0.120	-0.127
-406.296	800.000	-0.091	-0.319
-405.282	54.357	-0.198	0.193
-404.267	-200.000	0.004	0.035
-403.252	-48.372	0.235	0.114
-402.238	576.989	0.021	0.052
-401.223	157.969	-0.120	0.169
-400.209	-104.586	-0.169	-0.039
-399.194	284.107	-0.116	0.210
-398.179	758.765	0.064	0.174
-397.165	800.000	0.049	0.170
-396.150	800.000	0.006	0.021
-395.136	-69.240	-0.136	0.053
-394.121	-72.295	-0.264	-0.099
-393.106	-0.968	-0.199	0.143
-392.092	800.000	-0.033	-0.142
-391.077	-117.130	-0.255	0.047
-390.063	-23.831	0.177	-0.107
-389.048	-104.710	0.205	-0.048
-388.033	-200.000	0.067	-0.304
-387.019	-151.514	-0.169	-0.013
-386.004	50.077	0.307	-0.293
-384.990	-200.000	-0.007	0.158
-383.975	-200.000	0.068	-0.426
-382.960	436.769	0.088	0.193
-381.946	-188.767	-0.411	-0.005
-380.931	-59.426	0.206	-0.089
-379.917	8.047	0.155	0.118
-378.902	159.592	-0.284	0.400
-377.888	-71.435	-0.097	-0.037
-376.873	-200.000	0.005	0.150
-375.858	-200.000	-0.050	0.239
-374.844	-144.655	0.536	0.050
-373.829	-200.000	0.020	0.286
-372.815	-56.184	-0.265	0.119
-371.800	-176.269	0.069	-0.002
-370.785	-87.379	0.171	-0.052
-369.771	-114.780	0.122	0.024
-368.756	-81.232	0.195	0.065
-367.742	7.463	-0.230	-0.174
-366.727	-99.165	0.225	0.057
-365.712	-200.000	-0.007	0.064
-364.698	564.895	0.072	-0.176
-363.683	-200.000	0.023	-0.383
-362.669	169.790	-0.221	-0.319
-361.654	-113.489	0.082	0.016
-360.639	-200.000	0.019	-0.317
-359.625	-95.851	-0.210	0.057
-358.610	-160.871	-0.204	-0.011
-357.596	142.972	-0.118	0.159
-356.581	-200.000	-0.013	0.148
-355.566	-69.564	-0.088	0.034
-354.552	121.740	-0.111	-0.140
-353.537	229.472	-0.084	-0.138
-352.523	-167.684	0.116	-0.005
-351.508	469.866	0.055	-0.125
-350.493	-13.791	-0.213	0.139
-349.479	-5.709	0.196	-0.136
-348.464	-3.951	-0.158	0.111
-347.450	-81.967	0.540	0.178
-346.435	-47.111	-0.143	0.070
-345.420	-25.523	0.034	0.021
-344.406	202.836	0.222	0.346
-343.391	-97.433	-0.190	-0.050
-342.377	-140.656	0.178	0.019
-341.362	24.952	-0.261	-0.218
-340.348	166.353	0.048	0.069
-339.333	-100.244	0.426	0.107
-338.318	63.063	0.138	0.139
-337.304	-200.000	0.002	-0.255
-336.289	-119.343	-0.146	-0.026
-335.275	-128.932	-0.224	0.032
-334.260	-76.855	0.049	0.017
-333.245	167.536	-0.194	-0.279
-332.231	98.827	-0.136	0.158
-331.216	-120.520	-0.188	0.032
-330.202	-45.791	0.115	0.057
-329.187	10.604	0.351	0.270
-328.172	-200.000	-0.047	-0.232
-327.158	73.790	0.072	0.076
-326.143	318.790	0.073	-0.140
-325.129	-200.000	-0.005	0.143
-324.114	97.597	0.042	0.049
-323.099	135.577	-0.246	0.323
-322.085	-200.000	-0.010	0.128
-321.070	-200.000	-0.010	-0.173
-320.056	19.767	0.161	-0.131
-319.041	89.481	-0.145	-0.163
-318.026	-29.319	-0.122	-0.070
-317.012	525.355	0.012	0.029
-315.997	-35.641	-0.225	-0.123
-314.983	29.697	-0.144	0.124
-313.968	269.659	0.125	0.221
-312.953	-52.992	-0.035	0.016
-311.939	-3.297	0.083	-0.058
-310.924	157.591	0.205	-0.286
-309.910	-25.497	-0.073	-0.043
-308.895	800.000	-0.056	-0.195
-307.880	-107.752	0.314	-0.069
-306.866	-116.610	0.082	0.015
-305.851	-66.180	-0.293	0.118
-304.837	465.543	-0.103	0.232
-303.822	-126.192	0.368	0.056
-302.807	1.850	-0.066	0.048
-301.793	116.861	-0.195	-0.241
-300.778	-200.000	0.013	-0.124
-299.764	-91.318	0.149	0.043
-298.749	26.210	-0.078	0.066
-297.735	-200.000	0.117	0.558
-296.720	86.799	0.252	0.280
-295.705	-200.000	0.108	-0.618
-294.691	-120.616	0.352	0.060
-293.676	-118.977	0.171	0.030
-292.662	-200.000	-0.005	-0.340
-291.647	288.877	0.080	0.147
-290.632	-111.874	-0.302	-0.061
-289.618	38.499	-0.024	-0.021
-288.603	-21.040	0.274	0.169
-287.589	5.253	-0.050	-0.037
-286.574	-53.432	-0.484	-0.223
-285.559	93.985	-0.201	-0.229
-284.545	-66.716	-0.163	0.065
-283.530	-146.415	-0.481	-0.042
-282.516	-200.000	-0.013	0.303
-281.501	-200.000	-0.001	0.348
-280.486	-200.000	-0.008	0.039
-279.472	-200.000	-0.027	0.137
-278.457	239.950	-0.010	0.017
-277.443	-98.187	0.202	0.052
-276.428	84.431	-0.187	-0.206
-275.413	-129.485	-0.143	-0.020
-274.399	29.807	0.111	-0.095
-273.384	47.536	0.211	-0.198
-272.370	302.246	0.025	-0.046
-271.355	-200.000	0.001	0.042
-270.340	-63.220	0.352	0.146
-269.326	-13.544	0.322	0.210
-268.311	-0.778	0.114	-0.081
-267.297	4.070	0.106	0.078
-266.282	-129.566	0.096	-0.013
-265.267	-200.000	-0.004	-0.083
-264.253	800.000	-0.114	0.355
-263.238	-200.000	0.014	-0.129
-262.224	-58.562	-0.102	-0.044
-261.209	138.462	-0.110	-0.145
-260.195	-192.728	0.278	-0.003
-259.180	-38.464	-0.199	0.106
-258.165	800.000	0.091	0.279
-257.151	246.563	-0.159	-0.270
-256.136	800.000	-0.040	0.163
-255.122	-61.422	0.322	0.136
-254.107	800.000	-0.080	0.279
-253.092	20.295	0.111	0.091
-252.078	-80.339	-0.207	0.070
-251.063	-81.444	0.108	0.036
-250.049	-94.032	-0.180	0.050
-249.034	-171.742	-0.388	0.013
-248.019	-9.130	0.261	-0.175
-247.005	559.494	0.063	0.154
-245.990	84.114	0.264	0.290
-244.976	-75.066	-0.498	-0.179
-243.961	101.782	0.195	0.228
-242.946	42.306	-0.092	-0.084
-241.932	-90.795	-0.071	-0.021
-240.917	-200.000	-0.002	-0.221
-239.903	-200.000	0.008	0.108
-238.888	219.142	-0.078	-0.125
-237.873	-65.625	0.287	-0.116
-236.859	24.006	0.291	0.241
-235.844	-67.603	-0.121	-0.048
-234.830	179.657	-0.130	0.191
-233.815	-168.152	0.134	-0.005
-232.800	-154.837	0.115	0.008
-231.786	161.752	0.100	0.141
-230.771	-34.790	0.150	-0.082
-229.757	-62.761	0.270	0.112
-228.742	-146.342	0.092	0.008
-227.727	-45.675	-0.175	-0.087
-226.713	121.334	0.053	-0.066
-225.698	-200.000	-0.253	-0.000
-224.684	-58.034	0.202	-0.089
-223.669	-40.198	-0.237	-0.124
-222.655	-9.544	0.180	0.121
-221.640	-19.995	0.270	-0.167
-220.625	282.372	0.116	0.208
-219.611	-139.467	-0.235	0.025
-218.596	189.172	-0.067	0.101
-217.582	18.908	0.175	0.141
-216.567	-17.881	-0.323	-0.203
-215.552	-15.117	-0.245	0.157
-214.538	-168.517	0.160	-0.006
-213.523	22.152	-0.230	0.189
-212.509	-149.740	0.057	0.005
-211.494	213.527	-0.211	0.335
-210.479	59.368	0.111	0.110
-209.465	-32.268	0.039	0.022
-208.450	-113.117	0.070	0.014
-207.436	398.390	-0.144	0.303
-206.421	463.795	-0.126	-0.283
-205.406	60.733	-0.100	-0.100
-204.392	-200.000	0.074	-0.342
-203.377	-88.340	0.210	-0.063
-202.363	-125.221	0.266	0.041
-201.348	-104.783	0.168	-0.039
-200.333	800.000	-0.062	-0.213
-199.319	577.070	0.010	-0.026
-198.304	124.105	-0.087	0.109
-197.290	-167.285	-0.085	-0.003
-196.275	-101.646	-0.333	0.081
-195.260	800.000	-0.033	0.130
-194.246	-182.436	0.316	-0.006
-193.231	800.000	0.029	0.085
-192.217	-113.284	-0.118	0.023
-191.202	-27.594	-0.254	-0.148
-190.187	-200.000	0.025	0.332
-189.173	43.050	0.083	-0.076
-188.158	202.569	-0.137	-0.212
-187.144	153.428	-0.113	-0.155
-186.129	-146.514	0.072	0.006
-185.114	-132.749	-0.166	0.021
-184.100	395.162	0.094	-0.197
-183.085	473.079	-0.073	0.166
-182.071	-200.000	0.035	-0.309
-181.056	134.312	0.236	-0.307
-180.042	-192.768	0.285	0.003
-179.027	134.282	0.214	-0.278
-178.012	-46.618	0.339	0.167
-176.998	72.085	-0.179	0.187
-175.983	34.974	-0.178	-0.156
-174.969	-200.000	-0.009	-0.145
-173.954	-47.846	0.235	0.114
-172.939	345.395	-0.131	-0.259
-171.925	-57.138	-0.254	0.112
-170.910	51.832	0.074	0.071
-169.896	73.880	-0.270	0.284
-168.881	15.746	0.232	-0.183
-167.866	-200.000	-0.037	-0.225
-166.852	-38.230	0.118	0.063
-165.837	-145.140	-0.295	-0.027
-164.823	-200.000	-0.049	-0.296
-163.808	-0.870	0.069	0.049
-162.793	416.654	-0.142	-0.304
-161.779	178.723	0.053	0.078
-160.764	-38.168	0.162	-0.086
-159.750	-200.000	-0.063	0.353
-158.735	-200.000	0.028	0.434
-157.720	614.088	0.083	-0.209
-156.706	-13.145	-0.271	0.177
-155.691	10.200	-0.150	-0.114
-154.677	168.687	0.173	0.247
-153.662	-55.810	-0.275	-0.123
-152.647	-183.108	0.520	-0.009
-151.633	-200.000	-0.045	0.291
-150.618	-124.349	-0.276	-0.043
-149.604	55.605	-0.135	0.131
-148.589	-148.067	-0.190	0.016
-147.574	105.041	-0.226	-0.267
-146.560	-36.503	-0.412	-0.222
-145.545	-191.985	0.144	-0.001
-144.531	13.186	-0.096	-0.074
-143.516	-200.000	-0.028	0.393
-142.502	55.206	0.081	-0.079
-141.487	-200.000	0.009	0.092
-140.472	800.000	-0.010	-0.032
-139.458	116.885	0.256	-0.315
-138.443	-132.855	0.141	-0.018
-137.429	-200.000	-0.036	0.195
-136.414	800.000	0.050	0.155
-135.399	-200.000	0.032	-0.176
-134.385	800.000	-0.049	0.152
-133.370	-151.170	0.054	0.004
-132.356	-141.700	-0.231	0.023
-131.341	-33.586	-0.055	-0.030
-130.326	800.000	0.124	0.395
-129.312	-34.847	-0.023	-0.012
-128.297	348.427	0.046	-0.091
-127.283	522.424	-0.153	-0.360
-126.268	-166.689	-0.290	-0.012
-125.253	-200.000	-0.002	0.246
-124.239	17.137	-0.231	0.183
-123.224	800.000	0.016	0.068
-122.210	184.245	0.192	0.284
-121.195	-200.000	0.021	-0.361
