DTS Sentinel unit serial number:	SN413079Multiplexer serial number:	ORYXHardware model number:	OX4-SRSoftware version number:	ORYX F/W v4.00 Oryx Data Collector v3.7.2.0data status	okinstallation	princeton_trtdifferential loss correction	single-endedforward channel	channel 4reverse channel	N/Adate	2019/09/12time	00:19:11forward acquisition time	60.00reverse acquisition time	0.00gamma	496.2192k internal	0.2308k external	0.2308temperature offset calibration	1.0086default loss term (dB/km)	0.3790temperature slope calibration	1.0000multiplexer offset coefficient	1.0000multiplexer slope coefficient	1.0000fibre end	0.00T internal ref (°C)	33.53T ext. ref 1 (°C)	2.01T ext. ref 2 (°C)	27.94length (m)	temperature (°C)	Stokes	anti-Stokes-747.200	516.394	-0.108	-0.256
-746.185	60.305	-0.264	0.265
-745.171	60.955	-0.154	0.155
-744.156	547.454	-0.210	0.512
-743.142	142.611	-0.097	0.131
-742.127	414.217	-0.140	0.303
-741.112	-8.762	0.315	0.215
-740.098	-18.843	0.241	0.153
-739.083	4.695	0.160	0.119
-738.069	330.853	0.142	0.279
-737.054	-126.555	0.387	0.058
-736.039	10.838	-0.139	-0.107
-735.025	71.207	-0.143	0.151
-734.010	-96.087	-0.240	0.065
-732.996	-143.612	-0.407	-0.039
-731.981	-91.532	-0.115	-0.033
-730.966	-162.799	-0.124	0.006
-729.952	235.939	-0.056	-0.094
-728.937	-110.784	-0.047	0.010
-727.923	54.333	0.170	0.167
-726.908	125.908	-0.058	-0.074
-725.894	283.931	0.074	0.135
-724.879	-152.764	-0.198	-0.014
-723.864	-3.616	-0.334	-0.236
-722.850	-200.000	-0.038	0.187
-721.835	-67.769	0.239	-0.095
-720.821	452.182	-0.144	0.322
-719.806	-200.000	0.038	-0.353
-718.791	-90.341	-0.383	-0.113
-717.777	-49.825	-0.163	0.079
-716.762	12.522	-0.138	-0.108
-715.748	-131.019	0.205	-0.028
-714.733	800.000	-0.080	-0.240
-713.718	35.990	-0.221	-0.197
-712.704	-9.993	-0.258	-0.174
-711.689	11.969	0.177	0.138
-710.675	376.292	-0.050	-0.103
-709.660	-61.499	0.196	0.084
-708.645	131.432	0.184	-0.240
-707.631	-200.000	0.016	-0.166
-706.616	-200.000	0.003	0.114
-705.602	-75.903	-0.224	0.080
-704.587	38.565	-0.130	-0.118
-703.572	-180.937	0.349	-0.007
-702.558	800.000	-0.101	-0.420
-701.543	-200.000	0.013	0.093
-700.529	231.178	-0.172	-0.286
-699.514	-113.258	-0.146	-0.029
-698.499	-200.000	-0.032	-0.269
-697.485	-200.000	-0.012	-0.145
-696.470	-195.970	-0.195	-0.001
-695.456	-98.259	0.208	0.054
-694.441	-23.523	-0.187	-0.114
-693.426	-29.705	0.061	0.035
-692.412	-167.029	-0.191	-0.008
-691.397	800.000	0.022	-0.070
-690.383	800.000	0.071	0.243
-689.368	-200.000	0.012	0.211
-688.354	524.769	0.038	-0.091
-687.339	-200.000	-0.001	-0.080
-686.324	-32.808	-0.246	0.139
-685.310	-200.000	-0.023	0.181
-684.295	495.520	0.076	-0.178
-683.281	-8.931	-0.357	-0.243
-682.266	137.335	-0.234	-0.311
-681.251	-142.748	-0.030	-0.003
-680.237	-200.000	-0.018	-0.238
-679.222	-200.000	-0.047	0.289
-678.208	-200.000	0.020	0.293
-677.193	-139.170	-0.179	-0.020
-676.178	800.000	-0.048	0.191
-675.164	192.769	0.075	0.114
-674.149	-200.000	-0.007	-0.110
-673.135	-33.603	0.090	0.051
-672.120	38.753	-0.241	0.218
-671.105	-57.857	-0.213	-0.094
-670.091	531.164	-0.051	0.122
-669.076	626.977	-0.051	0.131
-668.062	401.707	-0.034	0.072
-667.047	-62.907	-0.537	-0.225
-666.032	-141.776	0.150	0.015
-665.018	38.482	-0.142	-0.128
-664.003	-126.391	0.146	-0.022
-662.989	-55.602	-0.445	-0.202
-661.974	304.795	0.062	-0.117
-660.959	-78.827	-0.245	0.085
-659.945	3.976	-0.132	-0.098
-658.930	36.544	-0.132	-0.118
-657.916	57.466	-0.032	-0.032
-656.901	-200.000	0.050	-0.271
-655.886	-200.000	-0.070	-0.330
-654.872	27.019	-0.138	-0.117
-653.857	17.111	0.252	-0.202
-652.843	-60.949	-0.252	-0.108
-651.828	273.282	-0.036	0.064
-650.814	747.045	-0.124	-0.340
-649.799	-144.662	-0.104	0.010
-648.784	-200.000	0.009	0.218
-647.770	-13.181	-0.093	0.061
-646.755	236.883	0.144	-0.242
-645.741	-28.580	-0.186	0.109
-644.726	800.000	-0.074	0.250
-643.711	-112.714	0.355	-0.072
-642.697	-200.000	-0.005	0.152
-641.682	11.745	0.231	0.180
-640.668	-128.446	0.208	-0.030
-639.653	302.484	-0.147	-0.275
-638.638	-127.672	-0.139	-0.020
-637.624	-19.557	0.187	-0.117
-636.609	-57.645	-0.217	-0.096
-635.595	12.484	-0.061	0.048
-634.580	421.394	0.026	-0.056
-633.565	219.984	0.033	0.054
-632.551	-200.000	-0.018	0.138
-631.536	-200.000	0.006	-0.214
-630.522	-200.000	0.023	0.281
-629.507	16.081	-0.329	-0.262
-628.492	-200.000	-0.042	-0.316
-627.478	110.692	-0.105	-0.128
-626.463	-200.000	0.011	-0.172
-625.449	7.068	0.101	-0.076
-624.434	-53.851	-0.163	0.075
-623.419	301.947	-0.158	0.295
-622.405	-200.000	0.080	0.555
-621.390	-62.495	0.166	-0.070
-620.376	567.316	0.068	-0.166
-619.361	-137.678	-0.091	0.010
-618.346	132.345	0.076	-0.099
-617.332	289.539	0.066	0.122
-616.317	-200.000	0.013	-0.213
-615.303	-121.765	-0.155	0.026
-614.288	800.000	-0.035	-0.106
-613.273	68.351	-0.159	0.165
-612.259	-200.000	0.002	0.035
-611.244	-200.000	-0.010	0.142
-610.230	-56.757	0.149	0.067
-609.215	-200.000	0.009	-0.296
-608.201	800.000	0.042	0.147
-607.186	-16.330	0.118	0.076
-606.171	-80.341	-0.097	0.033
-605.157	422.312	0.097	0.210
-604.142	-58.611	0.273	-0.119
-603.128	97.065	-0.171	-0.198
-602.113	-30.835	-0.405	0.231
-601.098	-16.786	-0.296	0.189
-600.084	-112.148	0.302	-0.061
-599.069	-200.000	-0.010	-0.201
-598.055	490.508	-0.054	0.125
-597.040	-22.027	-0.487	0.299
-596.025	-200.000	-0.019	-0.264
-595.011	-200.000	-0.024	-0.310
-593.996	300.226	0.163	-0.303
-592.982	-200.000	0.004	-0.176
-591.967	0.354	-0.083	0.060
-590.952	-82.192	-0.332	-0.109
-589.938	800.000	0.031	0.100
-588.923	-58.926	-0.190	-0.083
-587.909	-141.789	-0.101	-0.010
-586.894	127.074	0.133	0.170
-585.879	-17.457	0.125	-0.080
-584.865	201.177	0.308	-0.479
-583.850	-15.181	-0.289	0.187
-582.836	462.791	-0.052	0.117
-581.821	-142.935	0.256	0.025
-580.806	-162.979	0.377	0.018
-579.792	-147.882	-0.440	0.037
-578.777	-7.711	-0.032	0.022
-577.763	-164.219	0.344	0.016
-576.748	800.000	-0.048	0.185
-575.733	-200.000	-0.002	0.105
-574.719	-200.000	0.001	-0.456
-573.704	800.000	0.015	0.061
-572.690	-200.000	0.043	0.204
-571.675	260.299	-0.177	0.309
-570.661	-50.038	0.210	0.101
-569.646	-100.567	0.107	-0.027
-568.631	92.941	-0.158	0.180
-567.617	67.350	-0.134	0.138
-566.602	-74.807	0.157	0.057
-565.588	-100.161	0.414	-0.104
-564.573	-72.813	-0.255	0.095
-563.558	-26.510	-0.361	0.213
-562.544	193.436	-0.111	0.170
-561.529	198.273	-0.262	-0.404
-560.515	-12.677	-0.114	-0.075
-559.500	-37.879	0.145	-0.078
-558.485	800.000	0.094	-0.305
-557.471	39.892	0.166	0.150
-556.456	312.759	0.093	0.177
-555.442	-43.248	0.211	-0.107
-554.427	-200.000	-0.024	-0.204
-553.412	-169.229	0.124	-0.005
-552.398	-74.779	0.139	0.050
-551.383	441.206	0.027	-0.060
-550.369	800.000	-0.029	-0.102
-549.354	368.310	-0.070	-0.143
-548.339	17.116	0.208	0.166
-547.325	171.666	0.273	0.396
-546.310	-200.000	0.051	-0.235
-545.296	-200.000	0.061	-0.454
-544.281	-36.983	-0.103	0.056
-543.266	-45.442	0.253	0.126
-542.252	800.000	0.032	0.117
-541.237	-134.085	0.045	-0.006
-540.223	-200.000	-0.029	0.336
-539.208	207.352	0.166	-0.260
-538.193	-109.402	0.501	0.107
-537.179	800.000	-0.056	0.181
-536.164	52.925	-0.068	-0.065
-535.150	-134.928	0.211	0.026
-534.135	-200.000	0.036	-0.262
-533.121	78.213	0.395	-0.425
-532.106	800.000	-0.023	0.083
-531.091	-200.000	0.091	-0.451
-530.077	-77.207	-0.146	0.051
-529.062	557.456	-0.115	0.278
-528.048	-20.215	0.196	0.122
-527.033	800.000	0.092	-0.305
-526.018	-158.643	-0.267	-0.015
-525.004	385.444	0.022	0.045
-523.989	-30.508	-0.156	-0.089
-522.975	-29.494	0.158	-0.091
-521.960	293.405	-0.049	-0.090
-520.945	-193.364	0.171	-0.002
-519.931	-61.832	0.272	-0.115
-518.916	-91.992	-0.319	0.091
-517.902	127.085	0.181	-0.231
-516.887	-200.000	-0.027	-0.195
-515.872	247.873	-0.146	-0.248
-514.858	-20.966	0.043	-0.026
-513.843	-34.414	0.245	-0.135
-512.829	800.000	-0.021	0.087
-511.814	72.405	-0.095	-0.099
-510.799	-129.909	-0.057	-0.008
-509.785	-200.000	0.017	0.113
-508.770	57.608	0.078	0.077
-507.756	-200.000	0.003	0.067
-506.741	-200.000	-0.053	-0.279
-505.726	-67.835	-0.444	0.175
-504.712	-195.888	0.080	0.001
-503.697	-36.438	-0.102	-0.055
-502.683	800.000	-0.098	-0.337
-501.668	129.084	-0.072	0.093
-500.653	65.171	-0.186	0.189
-499.639	-152.716	-0.107	0.008
-498.624	-49.138	0.205	0.099
-497.610	-17.430	0.264	-0.167
-496.595	-147.074	-0.063	0.005
-495.581	-200.000	-0.002	0.177
-494.566	34.728	0.123	-0.109
-493.551	-51.686	-0.271	-0.127
-492.537	-168.074	-0.152	-0.006
-491.522	-106.907	-0.166	0.037
-490.508	282.156	-0.216	0.390
-489.493	-104.507	0.392	0.091
-488.478	-34.134	-0.169	0.094
-487.464	86.622	0.256	0.285
-486.449	-70.236	-0.359	-0.137
-485.435	-42.589	-0.271	-0.139
-484.420	-127.579	-0.200	0.029
-483.405	-11.850	-0.197	0.130
-482.391	-200.000	0.077	-0.381
-481.376	800.000	0.029	0.093
-480.362	632.394	0.069	-0.175
-479.347	800.000	0.033	-0.102
-478.332	-116.483	0.274	0.051
-477.318	41.084	0.202	0.184
-476.303	-200.000	-0.013	0.174
-475.289	800.000	-0.094	0.266
-474.274	617.720	0.092	-0.232
-473.259	7.876	0.217	-0.164
-472.245	-17.952	0.226	-0.142
-471.230	-200.000	-0.024	-0.320
-470.216	-134.371	-0.379	-0.047
-469.201	-0.809	0.069	-0.049
-468.186	-68.410	-0.460	0.180
-467.172	-31.368	0.162	0.092
-466.157	-31.893	-0.135	-0.076
-465.143	-93.122	-0.232	0.065
-464.128	-200.000	-0.024	-0.230
-463.113	-200.000	-0.035	0.175
-462.099	-71.293	-0.308	0.116
-461.084	-200.000	0.047	0.342
-460.070	272.368	-0.064	-0.114
-459.055	800.000	-0.060	0.234
-458.040	-79.408	-0.071	-0.024
-457.026	-200.000	0.012	0.214
-456.011	527.389	-0.056	-0.133
-454.997	258.570	0.051	-0.088
-453.982	270.479	0.108	-0.190
-452.968	235.535	0.107	0.178
-451.953	-104.085	0.144	-0.034
-450.938	-200.000	-0.031	-0.138
-449.924	578.876	0.117	0.289
-448.909	42.222	0.237	0.216
-447.895	230.005	-0.035	-0.058
-446.880	105.659	-0.081	0.096
-445.865	800.000	0.031	-0.099
-444.851	800.000	0.050	0.205
-443.836	-81.242	-0.011	-0.004
-442.822	-160.566	0.189	-0.010
-441.807	36.284	0.178	-0.158
-440.792	800.000	0.059	-0.239
-439.778	-140.637	-0.285	0.030
-438.763	104.651	-0.272	-0.322
-437.749	334.911	0.069	0.135
-436.734	-79.630	-0.207	-0.070
-435.719	21.432	0.218	-0.178
-434.705	302.841	0.226	-0.420
-433.690	-200.000	-0.048	0.307
-432.676	-200.000	0.057	-0.485
-431.661	-31.554	-0.328	-0.185
-430.646	-200.000	0.023	-0.186
-429.632	800.000	-0.117	-0.351
-428.617	278.150	-0.146	-0.262
-427.603	38.002	-0.324	-0.289
-426.588	219.678	0.128	-0.206
-425.573	-128.734	0.203	0.029
-424.559	-4.165	0.193	0.134
-423.544	-11.284	0.176	0.116
-422.530	-33.218	0.204	0.113
-421.515	-200.000	-0.005	0.037
-420.500	53.363	-0.114	0.109
-419.486	-200.000	0.043	-0.324
-418.471	-85.806	0.097	-0.030
-417.457	472.179	-0.074	0.168
-416.442	-109.078	0.324	-0.069
-415.428	800.000	0.063	-0.197
-414.413	-53.691	0.531	-0.243
-413.398	49.183	0.070	-0.066
-412.384	12.309	-0.131	-0.101
-411.369	65.103	0.289	0.293
-410.355	-200.000	-0.034	-0.264
-409.340	-200.000	0.053	-0.339
-408.325	-132.399	-0.088	0.011
-407.311	-67.173	0.188	0.074
-406.296	176.632	0.177	-0.258
-405.282	-200.000	-0.147	-0.000
-404.267	-180.402	-0.060	-0.001
-403.252	-40.663	0.315	0.164
-402.238	45.387	-0.243	-0.225
-401.223	131.139	-0.135	-0.174
-400.209	-200.000	0.012	-0.096
-399.194	-136.534	0.216	-0.025
-398.179	-200.000	-0.018	-0.426
-397.165	397.151	0.217	-0.455
-396.150	33.226	0.120	0.105
-395.136	288.649	0.097	0.176
-394.121	242.157	-0.133	-0.223
-393.106	-66.844	0.235	-0.093
-392.092	-98.337	0.307	0.079
-391.077	-7.814	-0.174	0.118
-390.063	174.585	-0.080	-0.116
-389.048	-32.965	-0.123	0.069
-388.033	-127.512	0.054	-0.008
-387.019	-70.088	-0.176	0.067
-386.004	-67.157	-0.382	0.151
-384.990	135.593	-0.105	0.137
-383.975	-100.585	0.146	-0.036
-382.960	20.964	0.196	0.159
-381.946	-12.782	-0.239	0.156
-380.931	-68.166	-0.247	0.096
-379.917	350.573	-0.087	0.172
-378.902	-132.643	-0.388	0.050
-377.888	-200.000	-0.034	0.281
-376.873	-200.000	-0.011	-0.052
-375.858	-26.114	0.240	-0.141
-374.844	-200.000	-0.013	0.404
-373.829	-169.161	0.269	-0.010
-372.815	-15.768	-0.070	0.045
-371.800	-59.147	0.028	-0.012
-370.785	800.000	-0.084	0.301
-369.771	165.847	0.157	0.223
-368.756	415.411	-0.094	-0.201
-367.742	-119.260	-0.342	-0.060
-366.727	-200.000	0.297	0.000
-365.712	-69.914	0.224	-0.086
-364.698	390.814	0.028	-0.059
-363.683	-112.140	0.177	0.036
-362.669	-0.725	-0.317	0.225
-361.654	800.000	-0.013	-0.045
-360.639	-200.000	0.075	-0.391
-359.625	-44.944	-0.376	-0.187
-358.610	13.903	-0.061	-0.047
-357.596	-40.146	-0.187	-0.098
-356.581	-84.670	-0.174	-0.055
-355.566	298.947	0.160	-0.295
-354.552	1.803	-0.040	-0.029
-353.537	5.783	0.351	0.260
-352.523	-91.396	-0.186	0.053
-351.508	176.300	-0.264	-0.384
-350.493	64.138	0.057	0.057
-349.479	13.708	0.124	-0.096
-348.464	215.809	-0.118	0.187
-347.450	-137.383	0.214	0.024
-346.435	800.000	0.113	0.332
-345.420	67.562	0.157	-0.161
-344.406	98.077	-0.179	0.206
-343.391	-1.457	-0.196	-0.138
-342.377	-200.000	-0.029	-0.187
-341.362	-200.000	0.060	0.341
-340.348	-75.513	-0.102	0.036
-339.333	-161.837	0.083	0.004
-338.318	55.319	-0.284	0.274
-337.304	-200.000	-0.003	-0.090
-336.289	-87.820	0.190	0.057
-335.275	800.000	0.052	0.209
-334.260	-29.585	-0.114	-0.065
-333.245	54.589	-0.121	-0.117
-332.231	-200.000	-0.041	-0.302
-331.216	-74.960	-0.226	-0.081
-330.202	12.312	0.162	-0.125
-329.187	-132.742	-0.096	-0.012
-328.172	577.105	0.071	0.173
-327.158	-117.176	-0.308	0.056
-326.143	-13.542	-0.197	-0.128
-325.129	142.592	0.133	0.177
-324.114	35.157	0.157	-0.137
-323.099	-28.300	-0.469	-0.271
-322.085	-101.188	0.483	-0.118
-321.070	174.938	-0.162	-0.234
-320.056	-53.592	-0.159	0.073
-319.041	159.492	0.088	-0.123
-318.026	494.584	0.161	0.369
-317.012	-200.000	-0.053	0.334
-315.997	-93.032	0.306	0.085
-314.983	-50.452	-0.337	0.159
-313.968	-164.182	0.348	-0.016
-312.953	241.477	0.074	0.124
-311.939	115.953	0.118	-0.144
-310.924	-180.624	0.271	0.006
-309.910	-200.000	-0.013	0.079
-308.895	-150.029	0.026	0.002
-307.880	-3.819	-0.249	-0.173
-306.866	-44.656	0.085	0.043
-305.851	19.869	-0.353	0.284
-304.837	-114.466	0.147	-0.028
-303.822	43.073	-0.318	0.290
-302.807	-67.038	0.228	-0.090
-301.793	204.853	0.098	0.152
-300.778	-200.000	-0.012	-0.232
-299.764	-183.089	-0.244	-0.004
-298.749	39.266	0.061	-0.055
-297.735	112.385	0.240	-0.290
-296.720	-50.607	0.180	0.085
-295.705	8.277	0.358	0.268
-294.691	800.000	-0.078	-0.244
-293.676	475.545	0.052	-0.116
-292.662	364.333	0.050	0.101
-291.647	800.000	-0.087	-0.303
-290.632	-64.716	-0.195	0.079
-289.618	-76.335	-0.287	0.101
-288.603	-49.159	-0.077	0.037
-287.589	-200.000	-0.049	-0.289
-286.574	139.397	0.196	0.257
-285.559	507.347	0.082	-0.191
-284.545	691.116	0.102	-0.267
-283.530	377.011	-0.193	-0.393
-282.516	257.854	-0.180	-0.310
-281.501	356.097	-0.054	-0.108
-280.486	-79.882	-0.156	0.052
-279.472	121.968	-0.065	0.081
-278.457	23.614	-0.208	-0.171
-277.443	-200.000	0.040	0.187
-276.428	304.446	-0.071	0.131
-275.413	136.426	0.152	0.198
-274.399	-200.000	0.043	0.383
-273.384	312.556	-0.111	0.209
-272.370	142.644	-0.233	0.309
-271.355	-200.000	-0.009	0.105
-270.340	253.093	-0.110	-0.187
-269.326	79.335	0.072	0.077
-268.311	144.405	0.062	-0.083
-267.297	-24.491	0.306	0.182
-266.282	-94.288	-0.025	0.007
-265.267	99.782	0.243	-0.280
-264.253	800.000	-0.073	-0.223
-263.238	-76.102	-0.093	-0.033
-262.224	-72.564	0.247	0.091
-261.209	363.574	-0.136	0.273
-260.195	-200.000	-0.008	0.042
-259.180	-200.000	0.010	-0.042
-258.165	215.452	0.092	-0.145
-257.151	-137.587	0.067	-0.008
-256.136	-140.845	-0.203	0.021
-255.122	-78.354	-0.197	-0.067
-254.107	-200.000	0.042	0.188
-253.092	195.574	0.185	-0.281
-252.078	68.884	0.145	0.148
-251.063	-134.261	0.011	0.001
-250.049	204.603	0.084	-0.130
-249.034	-86.312	0.321	-0.099
-248.019	-119.475	-0.054	0.009
-247.005	276.561	0.071	0.127
-245.990	-144.155	-0.285	-0.027
-244.976	102.092	0.147	0.171
-243.961	-48.984	-0.303	0.144
-242.946	-100.266	0.192	0.047
-241.932	800.000	-0.136	0.427
-240.917	271.957	-0.166	0.291
-239.903	-200.000	0.024	0.262
-238.888	255.358	-0.163	0.278
-237.873	800.000	-0.014	0.054
-236.859	69.671	-0.041	-0.042
-235.844	18.462	-0.306	0.243
-234.830	-5.348	0.093	0.063
-233.815	-9.530	0.090	0.060
-232.800	-31.436	-0.210	0.118
-231.786	242.754	0.139	0.232
-230.771	174.401	0.095	0.137
-229.757	-22.723	0.243	0.146
-228.742	-9.996	0.098	-0.065
-227.727	-171.794	0.280	0.009
-226.713	-89.685	0.163	0.048
-225.698	-31.711	-0.163	0.091
-224.684	-144.270	-0.052	0.005
-223.669	-93.157	0.160	-0.044
-222.655	800.000	0.036	0.147
-221.640	-200.000	-0.029	0.232
-220.625	125.506	0.044	-0.055
-219.611	-136.011	0.272	-0.032
-218.596	-142.101	-0.347	0.034
-217.582	-200.000	-0.005	0.248
-216.567	468.050	-0.139	0.309
-215.552	142.955	-0.044	-0.058
-214.538	418.297	-0.085	0.180
-213.523	0.574	-0.286	0.204
-212.509	302.932	0.036	0.067
-211.494	788.028	-0.140	0.384
-210.479	800.000	0.002	0.009
-209.465	50.069	0.107	0.100
-208.450	-200.000	0.015	-0.080
-207.436	105.937	-0.086	-0.101
-206.421	-200.000	0.014	-0.123
-205.406	193.902	0.096	-0.145
-204.392	-27.278	0.196	0.114
-203.377	-46.498	0.140	0.068
-202.363	-200.000	-0.045	0.296
-201.348	710.737	0.144	-0.380
-200.333	29.242	-0.105	0.089
-199.319	-200.000	0.008	0.369
-198.304	-95.543	0.216	-0.058
-197.290	-27.987	-0.284	0.163
-196.275	-200.000	-0.001	-0.136
-195.260	-1.523	0.260	-0.182
-194.246	-200.000	-0.027	-0.284
-193.231	-200.000	0.054	0.266
-192.217	800.000	-0.127	0.431
-191.202	-123.464	0.064	-0.010
-190.187	-86.406	-0.159	0.049
-189.173	-44.327	-0.120	-0.060
-188.158	313.274	0.089	-0.166
-187.144	-128.947	0.047	0.007
-186.129	680.320	-0.054	0.141
-185.114	-12.064	0.179	0.117
-184.100	-200.000	0.060	0.267
-183.085	-140.983	-0.206	-0.021
-182.071	322.448	0.082	-0.156
-181.056	198.652	-0.077	-0.118
-180.042	800.000	0.135	-0.550
-179.027	-59.412	0.119	-0.051
-178.012	-52.417	0.175	0.080
-176.998	19.764	0.269	0.216
-175.983	406.923	-0.046	0.097
-174.969	-125.343	-0.121	-0.018
-173.954	-146.068	0.224	0.020
-172.939	-57.382	0.024	0.010
-171.925	-31.932	-0.112	-0.062
-170.910	-37.441	0.126	-0.067
-169.896	800.000	-0.029	-0.107
-168.881	111.065	-0.202	-0.241
-167.866	-103.008	-0.153	-0.036
-166.852	-37.129	-0.096	0.051
-165.837	303.633	-0.064	0.119
-164.823	800.000	-0.022	-0.087
-163.808	-64.084	0.177	0.072
-162.793	107.911	-0.229	0.271
-161.779	266.619	-0.064	0.112
-160.764	240.761	-0.048	0.079
-159.750	-148.899	-0.290	-0.023
-158.735	-143.165	0.157	-0.015
-157.720	740.048	0.039	-0.105
-156.706	583.151	0.086	0.210
-155.691	800.000	0.048	0.150
-154.677	-200.000	-0.014	0.105
-153.662	-26.239	-0.242	-0.141
-152.647	286.417	0.130	-0.233
-151.633	26.472	-0.266	-0.221
-150.618	350.020	0.040	-0.078
-149.604	-151.745	0.343	0.025
-148.589	-101.282	-0.275	-0.067
-147.574	800.000	-0.082	-0.328
-146.560	800.000	0.038	-0.162
-145.545	-87.815	-0.123	0.037
-144.531	800.000	0.087	-0.378
-143.516	-179.290	0.073	0.002
-142.502	-0.003	0.137	0.097
-141.487	-21.608	0.146	-0.089
-140.472	-132.684	0.370	-0.047
-139.458	146.713	-0.092	-0.123
-138.443	-85.295	-0.140	-0.043
-137.429	800.000	-0.126	-0.360
-136.414	-200.000	0.003	-0.134
-135.399	-51.099	-0.175	-0.081
-134.385	-138.731	-0.102	0.011
-133.370	-200.000	0.011	-0.161
-132.356	93.600	-0.284	0.319
-131.341	-7.196	-0.268	0.181
-130.326	-73.565	0.208	-0.075
-129.312	-163.099	0.087	-0.004
-128.297	-62.837	-0.282	-0.116
-127.283	-84.703	-0.245	0.077
-126.268	-200.000	-0.038	0.168
-125.253	800.000	0.048	0.157
-124.239	-116.305	-0.252	-0.046
-123.224	-125.545	0.038	-0.006
-122.210	-193.739	-0.204	0.002
