DTS Sentinel unit serial number:	SN413079Multiplexer serial number:	ORYXHardware model number:	OX4-SRSoftware version number:	ORYX F/W v4.00 Oryx Data Collector v3.7.2.0data status	okinstallation	princeton_trtdifferential loss correction	single-endedforward channel	channel 4reverse channel	N/Adate	2019/09/11time	19:07:11forward acquisition time	60.00reverse acquisition time	0.00gamma	496.2192k internal	0.2287k external	0.2287temperature offset calibration	1.0036default loss term (dB/km)	0.3790temperature slope calibration	1.0000multiplexer offset coefficient	1.0000multiplexer slope coefficient	1.0000fibre end	0.00T internal ref (°C)	41.86T ext. ref 1 (°C)	1.28T ext. ref 2 (°C)	34.12length (m)	temperature (°C)	Stokes	anti-Stokes-747.200	61.464	-0.059	0.060
-746.185	-111.164	-0.167	0.035
-745.171	-20.814	0.341	0.214
-744.156	-2.670	-0.217	0.155
-743.142	217.396	-0.105	0.171
-742.127	-121.728	-0.169	0.029
-741.112	-6.103	0.143	-0.100
-740.098	-123.147	0.228	-0.037
-739.083	-103.456	-0.246	-0.059
-738.069	-200.000	-0.021	-0.170
-737.054	-200.000	-0.001	-0.178
-736.039	-88.824	0.186	-0.057
-735.025	7.051	-0.109	-0.084
-734.010	800.000	0.107	0.309
-732.996	349.042	-0.114	-0.231
-731.981	-200.000	0.013	-0.277
-730.966	156.148	-0.167	-0.236
-729.952	-200.000	0.050	-0.296
-728.937	421.193	-0.144	-0.316
-727.923	-79.767	0.049	-0.017
-726.908	800.000	-0.083	-0.243
-725.894	-200.000	0.057	-0.316
-724.879	-200.000	0.023	-0.222
-723.864	15.169	-0.071	-0.057
-722.850	-200.000	-0.057	-0.444
-721.835	-200.000	0.022	0.308
-720.821	-200.000	0.009	-0.052
-719.806	-83.050	0.246	-0.081
-718.791	800.000	0.007	0.030
-717.777	800.000	-0.052	-0.174
-716.762	223.037	-0.115	-0.190
-715.748	800.000	0.028	-0.081
-714.733	-56.369	-0.054	-0.025
-713.718	398.898	-0.095	0.204
-712.704	-200.000	-0.004	0.096
-711.689	-23.660	0.163	-0.100
-710.675	800.000	-0.019	-0.064
-709.660	-200.000	-0.006	0.279
-708.645	-30.935	0.293	0.169
-707.631	33.070	0.051	0.045
-706.616	9.265	-0.032	0.025
-705.602	-200.000	-0.010	0.106
-704.587	-112.427	0.087	-0.018
-703.572	-58.241	0.108	-0.048
-702.558	-46.971	0.450	0.225
-701.543	-48.922	-0.311	0.153
-700.529	-101.575	0.211	-0.052
-699.514	800.000	-0.046	-0.159
-698.499	100.660	0.124	0.148
-697.485	-3.406	0.250	-0.178
-696.470	-200.000	0.004	-0.056
-695.456	-148.329	-0.418	0.035
-694.441	-8.787	-0.208	0.143
-693.426	189.328	-0.126	0.193
-692.412	-200.000	-0.004	-0.199
-691.397	800.000	0.033	0.117
-690.383	-12.841	-0.255	-0.170
-689.368	58.791	-0.165	0.166
-688.354	-44.293	-0.236	-0.121
-687.339	-86.593	0.232	-0.073
-686.324	249.633	0.032	-0.056
-685.310	-119.025	-0.249	-0.045
-684.295	800.000	-0.022	-0.061
-683.281	-200.000	-0.001	-0.164
-682.266	62.871	-0.238	-0.244
-681.251	-40.861	-0.191	-0.101
-680.237	214.437	-0.032	0.051
-679.222	800.000	0.112	-0.402
-678.208	9.188	0.240	0.186
-677.193	-70.498	0.199	-0.077
-676.178	-14.508	-0.176	0.116
-675.164	-166.333	-0.436	-0.019
-674.149	529.136	-0.058	-0.139
-673.135	6.297	-0.080	-0.061
-672.120	219.288	0.200	0.327
-671.105	800.000	0.024	0.081
-670.091	33.164	0.069	-0.061
-669.076	188.938	-0.044	0.068
-668.062	-118.591	-0.127	0.023
-667.047	38.542	0.359	0.327
-666.032	39.759	0.153	0.141
-665.018	800.000	-0.130	-0.474
-664.003	458.250	-0.008	0.018
-662.989	-88.967	0.159	-0.048
-661.974	-200.000	0.027	-0.209
-660.959	800.000	0.051	-0.161
-659.945	-141.795	0.309	-0.032
-658.930	-144.901	0.226	-0.021
-657.916	126.065	-0.171	-0.221
-656.901	800.000	0.077	-0.340
-655.886	-102.926	0.359	0.087
-654.872	-200.000	-0.022	-0.269
-653.857	800.000	-0.083	-0.324
-652.843	147.800	0.149	-0.205
-651.828	-105.981	-0.407	-0.094
-650.814	-200.000	-0.022	0.170
-649.799	51.387	0.092	0.089
-648.784	-200.000	-0.061	0.285
-647.770	98.461	-0.318	0.375
-646.755	800.000	0.033	0.103
-645.741	800.000	0.060	-0.190
-644.726	-135.256	0.406	-0.050
-643.711	11.291	0.058	0.045
-642.697	-136.614	0.336	0.040
-641.682	-144.613	0.291	-0.027
-640.668	-121.491	0.122	0.021
-639.653	153.048	0.029	0.041
-638.638	2.976	-0.247	-0.183
-637.624	-134.798	-0.309	0.038
-636.609	-200.000	0.006	-0.133
-635.595	-200.000	-0.039	-0.345
-634.580	-200.000	-0.014	0.373
-633.565	59.158	0.059	-0.060
-632.551	-61.338	0.387	-0.167
-631.536	-84.733	0.315	-0.101
-630.522	352.485	-0.117	-0.238
-629.507	-82.246	-0.379	-0.126
-628.492	-200.000	-0.030	-0.168
-627.478	219.277	-0.110	-0.179
-626.463	800.000	0.074	-0.225
-625.449	800.000	-0.075	-0.250
-624.434	169.446	0.124	-0.180
-623.419	-200.000	-0.026	-0.353
-622.405	28.638	-0.052	0.045
-621.390	800.000	-0.093	-0.265
-620.376	800.000	-0.022	-0.070
-619.361	18.810	0.195	-0.160
-618.346	-65.560	0.096	0.039
-617.332	-177.250	-0.209	-0.005
-616.317	235.086	0.071	-0.120
-615.303	-101.824	0.324	-0.080
-614.288	-200.000	0.005	0.120
-613.273	110.591	0.015	-0.018
-612.259	-200.000	0.028	0.170
-611.244	202.472	-0.247	-0.388
-610.230	-152.477	0.153	0.011
-609.215	144.339	0.032	0.043
-608.201	-135.606	0.215	-0.026
-607.186	-200.000	-0.032	-0.257
-606.171	91.573	-0.249	-0.286
-605.157	-56.559	-0.276	-0.125
-604.142	800.000	-0.058	0.164
-603.128	-200.000	-0.006	0.173
-602.113	800.000	-0.066	-0.215
-601.098	-168.391	-0.171	0.007
-600.084	662.822	0.039	0.102
-599.069	-200.000	-0.005	0.058
-598.055	-90.410	-0.106	-0.031
-597.040	-22.508	-0.015	-0.009
-596.025	-200.000	-0.024	-0.198
-595.011	-128.138	-0.235	-0.034
-593.996	-43.014	0.087	0.045
-592.982	-200.000	-0.035	-0.444
-591.967	800.000	0.112	-0.327
-590.952	342.715	0.033	0.066
-589.938	-200.000	-0.004	0.100
-588.923	800.000	-0.008	-0.036
-587.909	3.869	-0.161	-0.120
-586.894	-82.805	-0.156	-0.051
-585.879	-111.458	-0.287	-0.060
-584.865	59.339	0.097	0.098
-583.850	-139.780	-0.309	0.033
-582.836	-200.000	0.053	0.423
-581.821	648.662	-0.098	-0.256
-580.806	-33.767	-0.142	0.080
-579.792	174.331	-0.125	0.185
-578.777	-200.000	0.028	0.188
-577.763	-45.856	0.194	-0.098
-576.748	800.000	0.101	-0.327
-575.733	73.398	0.098	0.104
-574.719	152.246	0.111	0.155
-573.704	560.105	-0.040	0.097
-572.690	650.990	0.094	0.245
-571.675	-157.798	-0.303	0.018
-570.661	-200.000	-0.012	-0.192
-569.646	-200.000	-0.016	0.106
-568.631	14.968	-0.214	0.171
-567.617	-55.135	-0.190	0.087
-566.602	800.000	-0.102	0.305
-565.588	319.591	-0.065	0.126
-564.573	-9.432	-0.155	-0.106
-563.558	-9.582	-0.164	0.112
-562.544	31.595	-0.329	-0.288
-561.529	-67.557	0.395	-0.158
-560.515	-175.234	-0.336	-0.009
-559.500	-62.387	-0.292	-0.124
-558.485	48.635	0.105	0.100
-557.471	-200.000	0.005	0.245
-556.456	17.390	0.059	0.048
-555.442	451.154	-0.090	-0.203
-554.427	-18.379	-0.145	-0.092
-553.412	-144.892	-0.233	0.022
-552.398	-111.984	-0.314	0.064
-551.383	-7.757	-0.149	0.103
-550.369	10.389	-0.276	-0.214
-549.354	56.669	-0.312	-0.309
-548.339	-97.257	0.068	0.018
-547.325	153.902	0.120	-0.167
-546.310	139.917	-0.207	-0.278
-545.296	800.000	0.080	-0.345
-544.281	-200.000	-0.017	-0.365
-543.266	736.383	-0.031	0.085
-542.252	-102.574	0.099	0.024
-541.237	-200.000	0.005	0.245
-540.223	800.000	0.049	0.156
-539.208	-114.954	-0.198	-0.038
-538.193	-200.000	-0.050	0.448
-537.179	197.696	-0.109	-0.170
-536.164	-153.547	-0.315	0.022
-535.150	48.729	0.156	-0.149
-534.135	0.227	-0.106	0.077
-533.121	536.057	-0.095	0.228
-532.106	-90.461	-0.339	-0.100
-531.091	26.649	-0.147	0.125
-530.077	-200.000	-0.014	-0.137
-529.062	4.800	0.323	-0.242
-528.048	-46.924	-0.049	-0.024
-527.033	800.000	-0.023	0.070
-526.018	-200.000	0.010	-0.294
-525.004	32.345	-0.232	0.203
-523.989	-18.204	0.237	0.151
-522.975	-129.421	0.360	0.051
-521.960	-56.951	-0.294	-0.132
-520.945	-200.000	0.031	-0.141
-519.931	-61.913	0.163	0.069
-518.916	351.285	-0.086	-0.173
-517.902	-28.327	0.249	-0.146
-516.887	-61.137	0.391	-0.168
-515.872	-150.601	0.159	0.012
-514.858	-200.000	-0.006	-0.376
-513.843	800.000	0.068	-0.266
-512.829	225.566	0.112	-0.184
-511.814	800.000	0.029	-0.122
-510.799	-200.000	-0.004	-0.274
-509.785	-150.046	-0.257	0.020
-508.770	-107.929	0.236	-0.052
-507.756	183.512	-0.018	0.027
-506.741	-200.000	0.002	-0.086
-505.726	74.218	0.226	-0.241
-504.712	137.729	-0.061	-0.081
-503.697	157.053	0.182	0.255
-502.683	168.847	-0.095	-0.137
-501.668	145.600	-0.083	0.113
-500.653	800.000	-0.084	0.341
-499.639	-40.893	0.322	0.169
-498.624	800.000	0.071	-0.215
-497.610	127.474	0.102	0.131
-496.595	119.280	0.230	0.289
-495.581	-200.000	-0.001	-0.007
-494.566	-200.000	0.019	-0.195
-493.551	167.502	-0.131	-0.189
-492.537	-110.359	0.049	-0.010
-491.522	136.134	-0.208	0.275
-490.508	800.000	-0.042	-0.184
-489.493	360.771	0.098	-0.199
-488.478	303.258	0.196	0.368
-487.464	800.000	0.031	0.093
-486.449	-22.951	0.138	-0.085
-485.435	-134.689	0.243	0.030
-484.420	330.575	0.077	-0.151
-483.405	-47.684	0.158	0.078
-482.391	10.865	0.198	-0.154
-481.376	-15.165	0.221	-0.144
-480.362	408.062	-0.052	-0.111
-479.347	-83.720	-0.234	0.076
-478.332	44.487	-0.184	0.171
-477.318	29.536	0.144	0.125
-476.303	800.000	0.093	-0.318
-475.289	-200.000	-0.041	-0.224
-474.274	327.210	0.118	0.229
-473.259	-200.000	-0.011	-0.093
-472.245	574.152	-0.027	-0.067
-471.230	108.423	0.039	0.047
-470.216	303.051	0.043	-0.081
-469.201	-89.959	0.085	0.025
-468.186	-200.000	-0.019	0.285
-467.172	216.465	-0.076	0.123
-466.157	-21.025	-0.504	0.313
-465.143	8.145	0.104	-0.080
-464.128	-69.117	0.141	-0.055
-463.113	-200.000	0.008	-0.262
-462.099	-20.903	-0.279	0.174
-461.084	38.428	0.158	0.143
-460.070	-21.463	0.074	0.046
-459.055	-188.599	0.086	0.001
-458.040	-167.869	0.139	0.006
-457.026	-19.953	-0.137	-0.086
-456.011	21.486	-0.165	0.136
-454.997	192.953	0.091	-0.139
-453.982	-114.842	0.297	-0.057
-452.968	129.633	0.168	-0.217
-451.953	800.000	-0.082	-0.241
-450.938	-200.000	-0.032	0.150
-449.924	-200.000	-0.006	0.108
-448.909	233.974	-0.114	0.190
-447.895	-112.715	0.210	0.042
-446.880	147.009	-0.014	0.019
-445.865	16.307	-0.115	-0.092
-444.851	662.617	0.029	-0.075
-443.836	685.931	-0.064	0.169
-442.822	-34.966	0.144	0.080
-441.807	-200.000	-0.022	-0.098
-440.792	30.407	-0.283	0.245
-439.778	-9.750	0.226	0.152
-438.763	67.593	0.218	0.226
-437.749	-107.726	-0.086	0.019
-436.734	-86.910	0.229	-0.071
-435.719	-21.378	-0.108	-0.067
-434.705	-163.728	0.474	0.023
-433.690	179.346	-0.063	-0.093
-432.676	-128.203	-0.221	-0.032
-431.661	1.982	0.217	0.159
-430.646	340.068	0.144	0.284
-429.632	-21.690	0.219	0.135
-428.617	-126.731	0.258	-0.039
-427.603	-91.950	0.221	-0.064
-426.588	462.558	0.045	0.103
-425.573	-38.987	-0.116	0.062
-424.559	221.892	-0.087	-0.142
-423.544	-200.000	0.031	0.151
-422.530	-200.000	0.023	-0.170
-421.515	800.000	-0.079	-0.316
-420.500	6.738	-0.165	0.124
-419.486	470.836	0.086	-0.196
-418.471	230.764	-0.159	0.264
-417.457	-144.739	-0.327	0.030
-416.442	207.489	-0.234	-0.370
-415.428	-57.764	0.217	-0.096
-414.413	-75.895	0.187	0.067
-413.398	467.667	-0.100	-0.228
-412.384	800.000	-0.023	-0.092
-411.369	-111.247	-0.487	0.101
-410.355	791.522	-0.031	-0.086
-409.340	130.821	-0.064	0.083
-408.325	-190.942	0.228	0.002
-407.311	26.652	-0.385	-0.327
-406.296	-200.000	-0.047	-0.396
-405.282	-200.000	-0.029	0.196
-404.267	62.380	-0.125	0.127
-403.252	251.611	0.100	0.173
-402.238	-84.502	0.313	0.100
-401.223	-76.485	0.108	-0.038
-400.209	-178.425	-0.105	-0.002
-399.194	0.470	-0.072	0.052
-398.179	246.660	-0.066	-0.112
-397.165	239.554	-0.044	0.074
-396.150	-31.557	0.211	-0.120
-395.136	-191.051	-0.120	-0.001
-394.121	-0.508	0.173	0.124
-393.106	232.496	-0.152	0.252
-392.092	-200.000	-0.028	0.227
-391.077	-128.734	0.139	0.020
-390.063	-139.973	-0.190	-0.020
-389.048	-200.000	0.021	0.103
-388.033	93.465	-0.205	0.234
-387.019	-13.610	0.372	0.244
-386.004	45.674	-0.117	-0.109
-384.990	755.200	0.039	0.107
-383.975	312.268	0.082	0.155
-382.960	800.000	0.021	0.076
-381.946	-86.323	0.130	-0.041
-380.931	-63.049	-0.093	-0.039
-379.917	-21.931	0.162	0.099
-378.902	83.900	0.281	-0.310
-377.888	225.772	-0.147	0.242
-376.873	216.878	0.123	-0.197
-375.858	-6.866	0.166	0.114
-374.844	284.449	-0.124	-0.225
-373.829	-112.481	-0.099	0.020
-372.815	50.264	-0.081	-0.078
-371.800	38.545	0.080	0.072
-370.785	87.771	-0.067	0.075
-369.771	22.346	0.159	0.131
-368.756	8.018	-0.051	-0.039
-367.742	-128.117	-0.175	0.025
-366.727	-69.939	0.191	-0.074
-365.712	24.397	0.035	-0.029
-364.698	-150.576	0.099	0.008
-363.683	392.152	-0.068	0.142
-362.669	605.370	-0.155	-0.391
-361.654	-85.466	0.118	-0.037
-360.639	-20.927	0.185	0.114
-359.625	122.640	0.078	-0.099
-358.610	-79.959	0.246	-0.083
-357.596	-200.000	0.044	0.284
-356.581	16.271	0.067	-0.053
-355.566	800.000	-0.029	-0.092
-354.552	-12.569	-0.092	-0.060
-353.537	-97.993	-0.057	0.015
-352.523	-34.095	0.093	-0.052
-351.508	-141.577	0.369	0.038
-350.493	-101.043	-0.206	-0.051
-349.479	116.426	0.125	-0.155
-348.464	-56.952	-0.219	-0.098
-347.450	354.413	-0.101	0.203
-346.435	-200.000	0.007	0.034
-345.420	-152.075	-0.345	-0.025
-344.406	92.171	-0.145	-0.165
-343.391	800.000	-0.147	-0.425
-342.377	661.960	0.110	0.287
-341.362	258.778	-0.339	0.591
-340.348	-64.894	-0.043	-0.018
-339.333	-200.000	0.048	0.340
-338.318	-38.269	-0.057	-0.030
-337.304	207.993	0.024	0.038
-336.289	-57.123	0.082	0.036
-335.275	-200.000	0.021	0.164
-334.260	-200.000	0.016	0.282
-333.245	4.532	0.183	0.136
-332.231	-198.010	0.135	-0.001
-331.216	-200.000	-0.004	0.091
-330.202	-147.973	0.172	0.014
-329.187	64.199	0.139	0.141
-328.172	-14.598	-0.245	-0.159
-327.158	25.656	-0.236	-0.198
-326.143	37.561	0.244	-0.218
-325.129	-19.532	0.091	0.057
-324.114	308.967	-0.207	-0.390
-323.099	-200.000	0.262	-0.000
-322.085	-14.331	-0.085	-0.055
-321.070	55.792	0.183	0.179
-320.056	-55.137	-0.219	0.099
-319.041	172.473	0.050	-0.072
-318.026	-200.000	0.022	-0.174
-317.012	-26.005	0.097	0.057
-315.997	-0.940	-0.339	-0.242
-314.983	800.000	-0.065	0.237
-313.968	-200.000	0.002	0.115
-312.953	106.054	-0.097	-0.115
-311.939	-7.766	0.239	0.163
-310.924	-112.909	0.214	-0.043
-309.910	-200.000	0.034	0.206
-308.895	-78.170	0.252	0.088
-307.880	-7.188	0.271	0.185
-306.866	-97.384	-0.191	-0.050
-305.851	43.104	0.362	-0.333
-304.837	-200.000	-0.002	-0.189
-303.822	800.000	0.178	0.535
-302.807	204.194	0.171	0.267
-301.793	-123.475	-0.171	0.027
-300.778	220.781	0.131	0.212
-299.764	98.529	-0.057	-0.066
-298.749	800.000	-0.128	-0.413
-297.735	-113.861	-0.239	-0.047
-296.720	44.239	-0.168	0.155
-295.705	-121.488	0.215	0.036
-294.691	189.945	-0.106	0.160
-293.676	800.000	0.098	0.365
-292.662	-28.259	0.159	0.093
-291.647	-109.912	0.379	-0.080
-290.632	-107.424	0.173	-0.038
-289.618	330.516	-0.122	-0.236
-288.603	-200.000	0.001	0.035
-287.589	-200.000	-0.112	0.505
-286.574	534.668	0.045	0.109
-285.559	11.754	0.026	0.020
-284.545	-133.528	-0.090	-0.011
-283.530	800.000	0.040	0.153
-282.516	-0.407	-0.409	0.292
-281.501	800.000	-0.097	0.271
-280.486	-131.290	0.258	0.034
-279.472	139.820	-0.120	-0.160
-278.457	-58.179	0.079	-0.035
-277.443	-200.000	-0.007	0.171
-276.428	-200.000	-0.031	0.215
-275.413	330.630	0.180	0.348
-274.399	-14.394	-0.255	-0.165
-273.384	800.000	-0.043	-0.138
-272.370	800.000	0.106	-0.340
-271.355	-200.000	0.038	0.264
-270.340	-200.000	-0.021	-0.149
-269.326	-200.000	0.039	0.238
-268.311	-83.846	-0.119	-0.038
-267.297	99.152	0.134	0.156
-266.282	-200.000	0.005	0.196
-265.267	45.277	0.483	-0.448
-264.253	611.119	-0.071	-0.178
-263.238	-114.497	-0.399	-0.077
-262.224	-50.990	-0.153	0.072
-261.209	-200.000	0.007	-0.121
-260.195	-200.000	-0.047	0.290
-259.180	-76.618	0.172	-0.061
-258.165	-144.028	-0.273	-0.026
-257.151	-200.000	0.039	0.285
-256.136	7.192	-0.044	0.033
-255.122	116.527	0.292	0.360
-254.107	297.923	0.052	0.096
-253.092	800.000	-0.091	0.254
-252.078	-103.174	0.208	-0.049
-251.063	765.425	0.122	-0.335
-250.049	-64.285	-0.214	0.088
-249.034	-27.091	-0.076	-0.045
-248.019	-21.730	-0.195	-0.119
-247.005	26.129	-0.322	0.271
-245.990	-71.708	0.176	0.066
-244.976	-1.239	-0.127	-0.091
-243.961	-61.307	0.212	-0.090
-242.946	-125.475	-0.550	-0.084
-241.932	-200.000	-0.017	-0.226
-240.917	-13.345	-0.258	-0.168
-239.903	-95.619	-0.172	-0.046
-238.888	-200.000	-0.004	-0.116
-237.873	-137.706	0.063	0.007
-236.859	-42.640	0.529	0.271
-235.844	187.904	0.077	0.116
-234.830	203.725	0.254	0.396
-233.815	-21.651	-0.244	0.149
-232.800	-150.802	0.329	0.025
-231.786	391.885	-0.147	-0.307
-230.771	613.036	0.120	-0.301
-229.757	-101.156	0.367	-0.090
-228.742	28.089	0.200	0.170
-227.727	-158.765	-0.164	-0.009
-226.713	-137.059	-0.257	-0.030
-225.698	-79.950	0.344	-0.116
-224.684	79.211	-0.149	0.160
-223.669	-46.067	0.339	0.168
-222.655	100.734	-0.122	-0.143
-221.640	-15.118	-0.202	-0.130
-220.625	-200.000	0.025	-0.571
-219.611	-200.000	0.008	0.084
-218.596	800.000	-0.057	0.164
-217.582	384.886	0.167	0.346
-216.567	-200.000	0.006	-0.413
-215.552	-73.240	-0.184	-0.068
-214.538	1.916	0.176	0.128
-213.523	4.730	0.174	-0.128
-212.509	44.674	-0.124	0.114
-211.494	63.377	0.202	-0.204
-210.479	-200.000	-0.014	0.097
-209.465	129.474	-0.043	0.055
-208.450	128.648	0.086	0.110
-207.436	-88.935	-0.068	0.020
-206.421	263.641	-0.237	-0.414
-205.406	370.012	-0.050	0.102
-204.392	5.180	0.078	0.058
-203.377	-67.335	-0.206	-0.081
-202.363	800.000	-0.075	0.214
-201.348	768.881	0.124	-0.340
-200.333	-200.000	0.010	0.181
-199.319	-140.595	-0.193	0.020
-198.304	-52.907	0.302	-0.140
-197.290	157.229	0.188	-0.261
-196.275	-104.455	-0.288	-0.067
-195.260	-137.772	-0.089	-0.010
-194.246	354.098	-0.094	0.187
-193.231	66.149	0.071	-0.073
-192.217	800.000	-0.044	0.189
-191.202	761.782	0.008	0.021
-190.187	-137.517	-0.336	-0.038
-189.173	42.924	0.170	0.155
-188.158	296.368	-0.016	0.029
-187.144	-1.243	0.206	-0.146
-186.129	-55.046	-0.139	0.063
-185.114	-171.872	-0.155	0.005
-184.100	-115.841	0.132	0.025
-183.085	-200.000	-0.006	-0.206
-182.071	31.666	0.154	-0.133
-181.056	-138.001	0.215	0.024
-180.042	-3.024	-0.094	-0.066
-179.027	314.264	0.097	-0.182
-178.012	27.664	0.213	0.180
-176.998	203.722	-0.008	0.012
-175.983	300.031	-0.162	0.300
-174.969	25.200	0.155	0.129
-173.954	-63.643	-0.218	-0.090
-172.939	140.555	0.069	0.092
-171.925	-152.934	-0.194	0.014
-170.910	74.269	0.141	0.148
-169.896	-172.474	-0.301	-0.010
-168.881	237.878	-0.179	0.298
-167.866	2.265	-0.088	0.064
-166.852	19.839	-0.184	-0.149
-165.837	56.070	-0.048	0.047
-164.823	780.335	0.135	0.369
-163.808	-120.901	0.142	-0.024
-162.793	174.232	-0.072	-0.104
-161.779	26.809	-0.026	-0.022
-160.764	800.000	-0.056	0.194
-159.750	800.000	0.117	0.365
-158.735	-200.000	0.039	-0.294
-157.720	800.000	0.049	0.171
-156.706	-144.803	-0.237	-0.022
-155.691	-167.118	0.064	-0.003
-154.677	-200.000	0.016	0.227
-153.662	-89.454	-0.313	0.092
-152.647	-200.000	0.018	-0.195
-151.633	9.768	0.147	0.111
-150.618	-53.780	0.180	0.082
-149.604	410.975	0.075	-0.160
-148.589	-39.278	-0.177	0.093
-147.574	-102.984	0.238	-0.057
-146.560	624.852	0.063	-0.158
-145.545	800.000	0.072	-0.274
-144.531	-100.342	-0.114	-0.028
-143.516	-84.734	-0.059	0.019
-142.502	-45.305	0.220	-0.110
-141.487	-118.450	-0.116	0.021
-140.472	-44.765	-0.227	0.113
-139.458	8.791	-0.363	0.274
-138.443	210.261	0.124	-0.194
-137.429	-71.577	-0.112	0.042
-136.414	15.779	-0.151	-0.119
-135.399	480.168	0.045	-0.103
-134.385	345.134	0.137	0.270
-133.370	-0.181	-0.107	0.076
-132.356	113.344	-0.139	-0.169
-131.341	15.247	0.175	-0.138
-130.326	71.667	-0.246	0.255
-129.312	736.245	0.110	0.295
-128.297	-200.000	-0.020	-0.199
-127.283	-200.000	-0.001	-0.118
-126.268	-134.750	0.270	0.033
-125.253	-39.311	0.140	-0.074
-124.239	800.000	0.052	0.186
-123.224	-12.899	0.286	0.186
-122.210	-63.119	0.030	-0.012
-121.195	191.736	-0.049	0.074
