DTS Sentinel unit serial number:	SN413079Multiplexer serial number:	ORYXHardware model number:	OX4-SRSoftware version number:	ORYX F/W v4.00 Oryx Data Collector v3.7.2.0data status	okinstallation	princeton_trtdifferential loss correction	single-endedforward channel	channel 4reverse channel	N/Adate	2019/09/12time	05:23:11forward acquisition time	60.00reverse acquisition time	0.00gamma	496.2192k internal	0.2308k external	0.2308temperature offset calibration	1.0067default loss term (dB/km)	0.3790temperature slope calibration	1.0000multiplexer offset coefficient	1.0000multiplexer slope coefficient	1.0000fibre end	0.00T internal ref (°C)	31.87T ext. ref 1 (°C)	1.62T ext. ref 2 (°C)	27.27length (m)	temperature (°C)	Stokes	anti-Stokes-747.200	765.666	0.107	-0.296
-746.185	-8.625	-0.229	0.156
-745.171	18.534	-0.243	-0.197
-744.156	367.205	0.092	-0.189
-743.142	-158.267	-0.181	0.011
-742.127	101.991	0.150	0.178
-741.112	-97.364	-0.222	0.059
-740.098	-200.000	-0.044	0.247
-739.083	-99.921	0.177	0.045
-738.069	-59.499	-0.157	0.068
-737.054	131.055	0.120	0.156
-736.039	-200.000	-0.038	0.273
-735.025	-79.976	0.030	0.010
-734.010	-200.000	0.030	-0.263
-732.996	204.065	-0.107	-0.168
-731.981	164.756	0.058	-0.083
-730.966	-200.000	0.014	0.171
-729.952	125.005	-0.267	-0.341
-728.937	-101.829	0.154	-0.038
-727.923	161.354	-0.133	0.189
-726.908	244.492	0.245	0.418
-725.894	14.504	-0.208	-0.165
-724.879	472.569	0.182	-0.417
-723.864	328.077	-0.049	-0.095
-722.850	-72.321	0.107	-0.040
-721.835	800.000	-0.118	-0.340
-720.821	756.925	-0.101	0.277
-719.806	-200.000	0.006	-0.074
-718.791	75.660	-0.088	0.095
-717.777	387.905	-0.128	-0.269
-716.762	-108.198	0.210	-0.046
-715.748	204.679	0.114	0.179
-714.733	800.000	0.026	0.111
-713.718	-200.000	-0.013	0.328
-712.704	-33.952	0.278	0.155
-711.689	-60.001	-0.225	-0.098
-710.675	800.000	0.030	-0.107
-709.660	5.846	-0.104	0.078
-708.645	205.177	-0.031	-0.050
-707.631	50.337	0.138	-0.132
-706.616	-83.717	0.236	0.077
-705.602	-82.864	0.322	-0.106
-704.587	56.526	0.184	-0.182
-703.572	191.186	-0.271	-0.413
-702.558	6.679	0.194	-0.146
-701.543	94.939	-0.061	-0.070
-700.529	51.757	-0.093	0.090
-699.514	78.049	0.041	0.044
-698.499	-200.000	0.055	-0.298
-697.485	-200.000	0.041	-0.403
-696.470	-123.186	-0.155	-0.025
-695.456	-33.682	-0.101	-0.056
-694.441	-200.000	0.009	-0.132
-693.426	-0.971	-0.226	-0.162
-692.412	86.325	-0.150	-0.168
-691.397	-54.551	0.062	0.028
-690.383	375.824	-0.147	0.304
-689.368	81.804	0.204	0.224
-688.354	-177.793	0.143	-0.003
-687.339	-151.605	0.207	-0.016
-686.324	-158.044	0.140	-0.008
-685.310	93.867	-0.058	-0.067
-684.295	-141.294	0.237	-0.024
-683.281	-28.889	-0.180	0.105
-682.266	-200.000	0.010	0.084
-681.251	-132.900	0.060	-0.008
-680.237	-47.478	0.160	-0.079
-679.222	8.002	0.097	-0.074
-678.208	800.000	0.149	0.578
-677.193	462.979	0.057	-0.129
-676.178	506.560	-0.049	-0.114
-675.164	442.984	0.105	-0.234
-674.149	800.000	-0.094	-0.276
-673.135	800.000	0.062	-0.186
-672.120	-116.124	-0.203	0.038
-671.105	-33.983	0.191	-0.107
-670.091	-61.483	-0.212	-0.090
-669.076	29.284	-0.001	0.001
-668.062	-127.729	-0.038	-0.006
-667.047	800.000	-0.056	-0.184
-666.032	374.786	0.060	0.124
-665.018	742.307	0.099	0.268
-664.003	119.826	-0.211	0.265
-662.989	-132.959	0.232	0.030
-661.974	800.000	0.013	-0.054
-660.959	-70.841	-0.135	-0.052
-659.945	137.879	0.083	0.110
-658.930	-59.097	0.213	0.093
-657.916	470.312	0.118	0.270
-656.901	-152.863	0.077	0.006
-655.886	41.266	0.087	0.079
-654.872	-50.080	-0.401	0.193
-653.857	21.416	0.177	-0.146
-652.843	-20.154	-0.329	0.206
-651.828	800.000	-0.088	0.372
-650.814	-147.516	0.216	-0.018
-649.799	447.253	-0.153	-0.342
-648.784	-63.126	0.104	0.043
-647.770	78.109	0.044	-0.048
-646.755	-113.917	-0.432	0.085
-645.741	-109.933	-0.093	0.020
-644.726	-154.587	-0.351	-0.024
-643.711	-200.000	-0.041	-0.309
-642.697	517.151	-0.116	-0.274
-641.682	-108.140	0.390	-0.085
-640.668	-85.927	0.309	-0.097
-639.653	-117.063	-0.263	-0.049
-638.638	-117.188	0.327	-0.060
-637.624	-188.855	0.343	-0.004
-636.609	84.413	-0.052	-0.057
-635.595	35.007	-0.139	0.123
-634.580	-35.798	-0.189	0.104
-633.565	800.000	-0.035	0.106
-632.551	-155.237	-0.457	0.030
-631.536	-65.208	-0.134	-0.055
-630.522	800.000	-0.041	0.167
-629.507	111.177	0.066	-0.081
-628.492	-65.345	-0.185	-0.075
-627.478	-97.976	-0.122	-0.032
-626.463	-167.291	0.266	0.011
-625.449	-23.589	-0.085	-0.052
-624.434	296.729	0.048	0.090
-623.419	-37.920	0.227	-0.122
-622.405	708.736	-0.030	-0.081
-621.390	-200.000	0.010	-0.280
-620.376	33.599	0.107	0.094
-619.361	-200.000	-0.059	0.408
-618.346	155.849	0.140	0.195
-617.332	-143.202	-0.150	0.015
-616.317	691.536	0.087	0.232
-615.303	-163.632	0.207	-0.010
-614.288	-60.096	-0.271	-0.117
-613.273	396.677	0.035	-0.073
-612.259	-179.041	-0.259	-0.006
-611.244	53.423	-0.275	-0.266
-610.230	67.388	-0.114	-0.118
-609.215	5.983	-0.136	-0.101
-608.201	800.000	-0.039	-0.145
-607.186	-200.000	-0.022	-0.283
-606.171	-200.000	0.008	-0.292
-605.157	9.530	-0.055	0.042
-604.142	4.144	-0.359	-0.265
-603.128	55.184	0.137	0.134
-602.113	800.000	0.038	-0.135
-601.098	243.637	0.062	0.105
-600.084	-4.607	-0.066	0.046
-599.069	43.624	0.142	0.131
-598.055	-82.649	0.259	0.085
-597.040	-165.640	-0.191	0.008
-596.025	114.903	0.293	-0.361
-595.011	774.871	0.041	0.112
-593.996	727.021	-0.117	0.317
-592.982	148.660	0.043	-0.059
-591.967	125.914	-0.107	-0.136
-590.952	-200.000	0.026	0.235
-589.938	-200.000	-0.022	0.117
-588.923	-92.737	0.174	-0.049
-587.909	494.603	0.112	-0.260
-586.894	32.825	-0.178	-0.155
-585.879	800.000	-0.070	0.266
-584.865	58.414	-0.189	0.188
-583.850	-127.677	-0.307	-0.045
-582.836	-101.784	0.228	-0.056
-581.821	-28.851	-0.406	0.236
-580.806	-8.399	0.180	0.122
-579.792	-34.611	-0.241	-0.133
-578.777	-200.000	-0.009	0.087
-577.763	5.101	0.236	0.176
-576.748	-137.125	0.143	0.017
-575.733	800.000	0.116	-0.481
-574.719	-15.404	-0.351	-0.227
-573.704	-200.000	-0.011	0.071
-572.690	100.984	0.142	-0.167
-571.675	2.986	-0.045	0.033
-570.661	205.112	-0.076	0.120
-569.646	-151.303	0.211	0.016
-568.631	-200.000	0.004	0.165
-567.617	-200.000	0.008	0.142
-566.602	332.361	-0.104	-0.203
-565.588	458.440	0.067	0.151
-564.573	30.927	0.121	-0.104
-563.558	-106.699	0.263	0.059
-562.544	293.871	-0.109	0.200
-561.529	-200.000	0.046	-0.256
-560.515	-35.370	0.080	-0.044
-559.500	800.000	0.037	0.150
-558.485	305.955	-0.046	0.086
-557.471	-61.491	0.068	0.029
-556.456	616.979	0.079	-0.200
-555.442	-52.578	0.452	0.211
-554.427	-176.591	0.489	0.013
-553.412	-130.900	0.044	0.006
-552.398	-47.907	-0.178	0.087
-551.383	-99.008	0.185	-0.047
-550.369	-63.367	0.276	0.115
-549.354	29.623	-0.195	-0.167
-548.339	-138.899	-0.409	0.045
-547.325	137.857	-0.057	-0.075
-546.310	800.000	0.092	-0.308
-545.296	-63.333	-0.373	-0.155
-544.281	114.116	-0.215	-0.263
-543.266	-28.664	0.139	0.081
-542.252	-54.493	0.150	-0.069
-541.237	-113.425	-0.114	-0.023
-540.223	136.399	-0.094	0.124
-539.208	-128.282	-0.226	-0.032
-538.193	-114.533	-0.107	-0.021
-537.179	-180.410	-0.323	-0.007
-536.164	714.622	-0.102	0.272
-535.150	568.440	0.110	0.269
-534.135	800.000	-0.057	-0.168
-533.121	-73.264	-0.096	-0.035
-532.106	-87.947	0.168	-0.051
-531.091	77.807	-0.055	-0.059
-530.077	-91.454	0.322	-0.093
-529.062	-200.000	-0.003	0.171
-528.048	-166.902	-0.167	-0.007
-527.033	-200.000	-0.141	-0.001
-526.018	293.530	0.013	-0.024
-525.004	-117.398	0.278	0.051
-523.989	231.977	-0.133	0.220
-522.975	51.765	-0.118	0.113
-521.960	-8.443	0.080	0.054
-520.945	-113.046	0.366	-0.073
-519.931	-200.000	0.016	0.127
-518.916	160.727	-0.061	0.086
-517.902	-200.000	-0.006	0.127
-516.887	81.567	0.141	-0.153
-515.872	131.716	-0.134	0.174
-514.858	-100.008	0.175	-0.044
-513.843	-109.785	-0.246	-0.052
-512.829	707.577	0.116	0.308
-511.814	-12.548	0.116	0.076
-510.799	-183.534	-0.131	0.002
-509.785	-101.942	-0.295	-0.072
-508.770	-200.000	-0.009	-0.076
-507.756	-0.029	-0.189	-0.136
-506.741	-48.457	-0.347	0.168
-505.726	144.470	-0.152	0.204
-504.712	-65.213	0.147	0.060
-503.697	-125.899	-0.263	0.040
-502.683	164.230	0.121	0.171
-501.668	-111.289	0.067	-0.014
-500.653	268.426	-0.235	0.414
-499.639	-21.714	0.203	-0.124
-498.624	-113.820	-0.103	0.020
-497.610	203.616	-0.096	0.149
-496.595	-200.000	-0.015	-0.184
-495.581	34.013	0.134	0.117
-494.566	105.757	-0.258	0.307
-493.551	-200.000	0.047	0.280
-492.537	-133.058	0.205	-0.026
-491.522	800.000	0.064	-0.182
-490.508	60.416	-0.133	-0.132
-489.493	-200.000	-0.018	-0.170
-488.478	-99.137	0.192	-0.049
-487.464	-62.109	-0.010	-0.004
-486.449	-103.886	0.159	0.037
-485.435	-139.352	-0.132	-0.014
-484.420	6.534	0.280	-0.210
-483.405	-200.000	-0.020	0.174
-482.391	25.886	0.345	-0.290
-481.376	-64.248	-0.121	-0.050
-480.362	-9.533	0.261	0.175
-479.347	-133.708	0.081	0.010
-478.332	-179.925	0.308	-0.007
-477.318	91.829	0.127	-0.144
-476.303	-168.203	0.208	-0.008
-475.289	800.000	-0.010	-0.038
-474.274	-85.023	0.274	0.086
-473.259	-177.960	0.127	-0.003
-472.245	3.979	-0.180	-0.132
-471.230	748.196	0.038	0.104
-470.216	-200.000	-0.012	0.228
-469.201	800.000	-0.084	0.324
-468.186	-110.483	0.096	-0.020
-467.172	-200.000	-0.013	-0.122
-466.157	-64.422	-0.452	0.185
-465.143	542.174	0.045	0.108
-464.128	236.075	-0.200	0.332
-463.113	-200.000	0.026	0.332
-462.099	-135.014	-0.209	-0.025
-461.084	-200.000	-0.026	0.124
-460.070	-54.272	0.072	-0.033
-459.055	25.879	0.214	0.179
-458.040	31.626	-0.098	-0.085
-457.026	81.547	-0.151	-0.164
-456.011	109.105	0.142	-0.171
-454.997	-200.000	-0.007	0.091
-453.982	-200.000	0.052	-0.242
-452.968	-200.000	0.005	0.375
-451.953	636.168	0.060	-0.154
-450.938	21.838	0.390	-0.319
-449.924	-147.787	-0.219	0.018
-448.909	761.755	-0.119	-0.325
-447.895	300.715	-0.066	-0.122
-446.880	-163.938	-0.388	-0.018
-445.865	-52.582	-0.079	0.037
-444.851	34.055	0.354	0.310
-443.836	-162.602	0.385	0.019
-442.822	9.278	0.208	0.158
-441.807	800.000	-0.073	-0.235
-440.792	-200.000	-0.002	-0.268
-439.778	800.000	0.048	0.192
-438.763	19.200	0.128	-0.103
-437.749	427.120	-0.034	0.073
-436.734	-29.460	-0.132	0.076
-435.719	195.617	-0.098	0.150
-434.705	-200.000	0.008	0.241
-433.690	339.045	-0.100	-0.196
-432.676	-90.499	0.224	0.065
-431.661	-72.113	-0.100	-0.037
-430.646	199.681	-0.163	-0.251
-429.632	4.947	-0.333	-0.246
-428.617	88.036	-0.109	0.121
-427.603	336.724	-0.105	-0.204
-426.588	-124.918	-0.025	0.004
-425.573	42.251	0.119	0.108
-424.559	-31.098	-0.181	0.103
-423.544	435.656	-0.156	0.340
-422.530	-200.000	0.069	0.491
-421.515	-144.336	-0.031	0.003
-420.500	-68.399	0.117	-0.045
-419.486	-58.456	0.102	-0.045
-418.471	-200.000	0.007	-0.096
-417.457	-58.385	0.131	0.057
-416.442	185.220	0.158	0.235
-415.428	17.187	-0.293	-0.233
-414.413	-64.434	0.106	-0.043
-413.398	38.454	0.152	0.136
-412.384	-200.000	-0.023	0.222
-411.369	-118.323	0.303	0.054
-410.355	-20.574	0.253	-0.156
-409.340	195.231	0.211	-0.321
-408.325	-101.455	0.306	-0.075
-407.311	442.269	0.091	-0.201
-406.296	286.874	0.046	-0.083
-405.282	77.105	-0.053	-0.056
-404.267	-59.644	-0.112	-0.048
-403.252	183.897	0.153	0.227
-402.238	-39.342	-0.353	-0.186
-401.223	193.387	-0.111	0.169
-400.209	-47.439	-0.103	0.050
-399.194	166.973	-0.071	-0.101
-398.179	-200.000	0.035	-0.156
-397.165	-200.000	-0.018	0.312
-396.150	30.246	0.081	-0.070
-395.136	-134.967	0.314	0.038
-394.121	-92.146	-0.421	-0.119
-393.106	800.000	0.067	0.265
-392.092	15.533	0.335	0.264
-391.077	283.697	-0.283	-0.510
-390.063	-200.000	0.006	0.025
-389.048	348.572	-0.129	0.255
-388.033	-86.279	0.190	-0.059
-387.019	-200.000	0.019	0.349
-386.004	-68.674	0.289	-0.112
-384.990	-127.968	-0.106	-0.015
-383.975	800.000	-0.058	-0.163
-382.960	-133.628	-0.355	0.045
-381.946	-200.000	-0.012	-0.091
-380.931	71.620	0.213	-0.222
-379.917	773.387	0.010	-0.028
-378.902	-178.426	-0.310	-0.007
-377.888	290.047	-0.095	-0.173
-376.873	800.000	0.007	0.020
-375.858	-34.353	-0.199	-0.109
-374.844	159.758	0.372	-0.519
-373.829	800.000	-0.046	-0.169
-372.815	800.000	-0.118	0.353
-371.800	29.647	0.188	-0.160
-370.785	79.520	-0.162	-0.174
-369.771	9.720	-0.271	-0.206
-368.756	162.179	0.090	-0.126
-367.742	-116.928	0.030	0.006
-366.727	137.045	0.055	-0.072
-365.712	-39.569	0.101	0.053
-364.698	-188.396	0.146	0.002
-363.683	216.691	-0.076	0.121
-362.669	141.823	0.070	0.093
-361.654	671.158	0.066	-0.171
-360.639	-17.528	-0.170	-0.107
-359.625	238.249	0.193	-0.321
-358.610	-24.314	-0.126	-0.075
-357.596	144.391	0.249	-0.333
-356.581	-64.739	-0.184	0.075
-355.566	-164.651	0.346	-0.016
-354.552	41.010	-0.192	-0.173
-353.537	-200.000	0.021	0.187
-352.523	36.843	-0.140	0.124
-351.508	0.823	-0.086	0.061
-350.493	-141.119	-0.106	0.011
-349.479	-200.000	0.031	0.342
-348.464	25.174	0.280	0.233
-347.450	800.000	-0.022	0.089
-346.435	800.000	0.019	-0.065
-345.420	800.000	-0.081	-0.291
-344.406	-4.809	0.197	0.136
-343.391	-22.248	-0.245	-0.149
-342.377	-75.274	0.200	-0.072
-341.362	-61.005	0.220	0.093
-340.348	567.250	0.060	0.147
-339.333	132.759	-0.121	0.157
-338.318	438.184	-0.025	0.055
-337.304	138.898	-0.090	-0.119
-336.289	-88.404	-0.216	-0.064
-335.275	-200.000	0.044	-0.255
-334.260	344.445	0.070	-0.138
-333.245	341.725	-0.103	0.201
-332.231	-200.000	0.020	-0.288
-331.216	-115.795	-0.046	0.009
-330.202	-200.000	-0.022	-0.227
-329.187	138.990	-0.139	-0.183
-328.172	10.797	-0.157	0.120
-327.158	-200.000	-0.006	0.334
-326.143	-56.855	-0.189	0.084
-325.129	97.352	-0.061	-0.070
-324.114	421.151	0.161	0.345
-323.099	-114.393	0.178	-0.034
-322.085	-200.000	0.027	-0.181
-321.070	-200.000	0.272	0.001
-320.056	-200.000	-0.016	-0.085
-319.041	18.650	-0.050	0.040
-318.026	800.000	0.039	-0.147
-317.012	-178.134	0.530	-0.013
-315.997	-200.000	-0.002	0.168
-314.983	427.022	-0.171	-0.368
-313.968	207.215	-0.067	-0.104
-312.953	-200.000	0.054	0.308
-311.939	298.430	-0.221	0.406
-310.924	-129.937	-0.274	0.038
-309.910	-3.783	0.189	0.131
-308.895	-200.000	0.002	-0.171
-307.880	353.378	-0.032	-0.064
-306.866	-169.094	0.126	-0.005
-305.851	361.265	-0.083	-0.167
-304.837	292.743	0.197	-0.359
-303.822	800.000	0.111	0.459
-302.807	35.941	-0.187	0.164
-301.793	76.619	0.275	-0.291
-300.778	-10.691	0.182	0.120
-299.764	-68.735	0.245	0.095
-298.749	89.188	0.189	-0.211
-297.735	-42.486	0.269	0.137
-296.720	-165.850	0.233	0.010
-295.705	-12.408	0.116	0.076
-294.691	111.098	-0.054	-0.064
-293.676	800.000	-0.053	0.216
-292.662	82.018	-0.270	-0.292
-291.647	28.585	0.141	0.119
-290.632	800.000	0.096	-0.336
-289.618	-48.352	-0.037	0.018
-288.603	-161.699	0.295	-0.015
-287.589	-142.409	0.150	-0.015
-286.574	-173.617	0.112	-0.003
-285.559	800.000	-0.106	0.338
-284.545	-46.270	-0.197	0.097
-283.530	-200.000	0.059	-0.305
-282.516	56.408	0.205	-0.199
-281.501	-81.252	-0.141	0.047
-280.486	800.000	-0.109	0.308
-279.472	239.285	0.163	0.271
-278.457	-118.287	0.183	0.033
-277.443	-47.634	-0.184	-0.089
-276.428	-71.388	-0.293	-0.109
-275.413	71.445	0.277	-0.287
-274.399	123.209	0.112	0.140
-273.384	800.000	-0.081	-0.248
-272.370	109.858	0.052	0.062
-271.355	88.366	-0.170	-0.188
-270.340	435.776	0.131	0.285
-269.326	164.380	-0.139	-0.196
-268.311	-46.269	0.194	-0.095
-267.297	-162.660	0.196	-0.010
-266.282	-50.582	-0.117	-0.055
-265.267	15.871	-0.022	0.017
-264.253	-167.319	-0.013	-0.001
-263.238	-134.269	0.207	0.025
-262.224	-200.000	-0.023	0.221
-261.209	169.059	-0.242	-0.344
-260.195	-48.101	0.096	0.046
-259.180	-148.777	-0.134	0.011
-258.165	-36.445	0.219	0.118
-257.151	-133.602	-0.376	-0.047
-256.136	277.511	0.096	0.171
-255.122	-75.359	0.032	0.011
-254.107	360.130	0.158	0.315
-253.092	800.000	0.097	-0.340
-252.078	-200.000	0.013	-0.309
-251.063	-91.774	0.069	0.019
-250.049	800.000	0.069	-0.213
-249.034	55.169	0.180	0.174
-248.019	-30.537	-0.218	-0.123
-247.005	-157.236	-0.087	0.005
-245.990	-136.623	-0.077	-0.009
-244.976	244.075	0.248	-0.416
-243.961	-200.000	-0.021	0.150
-242.946	-138.324	-0.211	0.023
-241.932	11.028	-0.140	-0.107
-240.917	157.823	-0.118	0.164
-239.903	83.044	0.144	0.156
-238.888	96.435	0.317	-0.362
-237.873	-143.520	-0.110	0.010
-236.859	-148.352	0.204	-0.017
-235.844	-103.715	0.089	-0.021
-234.830	493.656	0.064	0.147
-233.815	-144.038	-0.505	-0.047
-232.800	42.343	0.223	-0.202
-231.786	-102.910	0.176	-0.042
-230.771	3.505	-0.129	0.093
-229.757	-132.695	0.054	-0.007
-228.742	-0.241	-0.094	0.067
-227.727	-31.909	0.182	0.102
-226.713	-135.035	-0.234	-0.028
-225.698	-200.000	-0.008	0.213
-224.684	51.760	0.040	-0.038
-223.669	-101.625	-0.231	0.056
-222.655	-103.408	-0.191	0.045
-221.640	-144.669	0.082	-0.007
-220.625	-200.000	-0.025	0.117
-219.611	-200.000	-0.064	0.614
-218.596	800.000	-0.068	0.227
-217.582	-200.000	0.032	0.148
-216.567	32.066	0.189	0.162
-215.552	-87.937	-0.185	-0.056
-214.538	84.703	-0.213	-0.232
-213.523	-150.589	-0.063	-0.005
-212.509	-160.726	-0.234	0.012
-211.494	-122.341	-0.332	-0.054
-210.479	-91.792	0.181	-0.051
-209.465	-106.729	-0.329	0.073
-208.450	19.871	0.155	0.124
-207.436	77.111	-0.117	0.123
-206.421	-200.000	0.030	0.201
-205.406	-10.606	-0.271	-0.179
-204.392	69.690	-0.188	0.192
-203.377	800.000	0.106	0.321
-202.363	-29.195	-0.185	0.106
-201.348	-60.522	-0.219	-0.093
-200.333	665.491	0.096	0.247
-199.319	-56.034	0.214	0.095
-198.304	152.322	-0.175	-0.238
-197.290	59.099	-0.111	-0.108
-196.275	-81.030	-0.188	-0.062
-195.260	-67.691	-0.076	0.030
-194.246	31.054	-0.152	-0.129
-193.231	116.976	0.184	-0.225
-192.217	-141.510	0.169	-0.017
-191.202	44.733	-0.163	0.149
-190.187	-200.000	-0.028	0.128
-189.173	800.000	-0.055	-0.170
-188.158	-200.000	-0.002	0.034
-187.144	-200.000	0.004	0.222
-186.129	104.930	0.142	-0.167
-185.114	800.000	0.100	-0.310
-184.100	800.000	0.167	-0.489
-183.085	306.516	-0.102	0.189
-182.071	180.945	0.221	0.323
-181.056	-96.148	-0.196	-0.052
-180.042	84.099	0.236	-0.256
-179.027	30.151	0.059	-0.050
-178.012	-76.120	-0.213	0.075
-176.998	105.972	0.045	0.053
-175.983	-31.537	0.011	-0.006
-174.969	18.980	0.190	0.151
-173.954	52.025	0.174	0.164
-172.939	-60.366	-0.027	0.011
-171.925	-200.000	-0.001	-0.194
-170.910	-200.000	-0.031	-0.164
-169.896	800.000	0.026	0.079
-168.881	338.428	0.160	0.309
-167.866	43.210	-0.060	-0.054
-166.852	48.223	-0.252	-0.234
-165.837	-200.000	-0.004	-0.381
-164.823	175.960	0.078	-0.113
-163.808	189.877	0.202	0.301
-162.793	-200.000	0.003	-0.056
-161.779	-163.463	0.095	0.004
-160.764	-26.363	-0.236	0.138
-159.750	800.000	0.114	0.335
-158.735	691.998	-0.055	0.144
-157.720	-200.000	0.022	-0.249
-156.706	-26.020	-0.103	0.060
-155.691	-200.000	-0.029	0.219
-154.677	-78.236	0.169	-0.058
-153.662	-127.736	0.289	0.041
-152.647	-119.479	-0.308	-0.053
-151.633	15.714	-0.299	0.234
-150.618	-42.329	-0.148	-0.075
-149.604	-200.000	-0.053	-0.277
-148.589	-200.000	0.003	-0.255
-147.574	339.798	-0.097	-0.187
-146.560	-83.548	-0.345	0.109
-145.545	800.000	0.068	0.195
-144.531	-200.000	0.010	-0.154
-143.516	800.000	-0.194	0.605
-142.502	625.362	-0.175	0.438
-141.487	213.129	0.271	0.425
-140.472	-78.231	0.082	-0.028
-139.458	62.525	0.186	0.184
-138.443	25.999	-0.358	-0.296
-137.429	357.917	0.177	-0.351
-136.414	-95.941	0.295	0.078
-135.399	-187.889	0.234	0.003
-134.385	-104.896	0.075	0.017
-133.370	-200.000	-0.000	0.109
-132.356	43.004	0.247	-0.223
-131.341	-89.330	-0.263	0.077
-130.326	-9.631	0.268	-0.177
-129.312	-47.718	0.326	0.157
-128.297	800.000	0.040	0.118
-127.283	-120.042	0.307	0.052
-126.268	591.219	-0.070	-0.172
-125.253	-148.974	-0.443	-0.035
-124.239	13.979	0.066	-0.051
-123.224	-105.389	0.107	0.024
-122.210	72.111	0.040	0.041
-121.195	800.000	0.016	-0.065
