DTS Sentinel unit serial number:	SN413079Multiplexer serial number:	ORYXHardware model number:	OX4-SRSoftware version number:	ORYX F/W v4.00 Oryx Data Collector v3.7.2.0data status	okinstallation	princeton_trtdifferential loss correction	single-endedforward channel	channel 4reverse channel	N/Adate	2019/09/11time	22:11:10forward acquisition time	60.00reverse acquisition time	0.00gamma	496.2192k internal	0.2306k external	0.2306temperature offset calibration	1.0072default loss term (dB/km)	0.3790temperature slope calibration	1.0000multiplexer offset coefficient	1.0000multiplexer slope coefficient	1.0000fibre end	0.00T internal ref (°C)	35.37T ext. ref 1 (°C)	1.74T ext. ref 2 (°C)	29.70length (m)	temperature (°C)	Stokes	anti-Stokes-747.200	-87.868	0.236	0.072
-746.185	-93.251	-0.301	-0.085
-745.171	134.376	0.054	0.071
-744.156	558.270	0.032	0.078
-743.142	-37.532	0.083	0.045
-742.127	-64.968	-0.285	-0.117
-741.112	800.000	-0.052	-0.229
-740.098	169.655	-0.175	0.255
-739.083	800.000	0.148	0.529
-738.069	-200.000	0.017	0.227
-737.054	468.612	0.079	0.181
-736.039	-120.354	-0.307	0.053
-735.025	3.875	0.198	0.147
-734.010	-63.038	0.096	-0.040
-732.996	-53.624	-0.189	0.088
-731.981	-105.412	-0.162	-0.038
-730.966	-174.504	0.159	0.005
-729.952	-200.000	-0.130	0.000
-728.937	-66.143	-0.067	-0.027
-727.923	800.000	-0.027	-0.104
-726.908	-107.303	-0.230	0.051
-725.894	-200.000	0.036	0.347
-724.879	316.301	-0.070	0.134
-723.864	18.000	-0.089	-0.072
-722.850	-159.636	-0.282	0.016
-721.835	-120.666	-0.280	-0.048
-720.821	-200.000	-0.040	0.246
-719.806	-200.000	-0.005	-0.146
-718.791	18.153	-0.190	-0.154
-717.777	46.690	-0.195	0.184
-716.762	-50.939	0.182	0.087
-715.748	180.133	0.152	0.226
-714.733	-57.885	0.030	-0.013
-713.718	7.136	0.081	0.061
-712.704	-200.000	0.043	-0.202
-711.689	-62.089	-0.159	0.067
-710.675	27.381	0.138	0.118
-709.660	-17.635	0.093	0.059
-708.645	-200.000	-0.001	-0.086
-707.631	25.602	-0.241	0.204
-706.616	709.689	-0.023	-0.061
-705.602	-92.770	-0.445	0.126
-704.587	234.645	0.091	-0.153
-703.572	800.000	-0.117	0.331
-702.558	4.531	-0.179	-0.133
-701.543	154.980	-0.116	-0.162
-700.529	-155.801	-0.355	0.023
-699.514	-200.000	-0.007	0.073
-698.499	219.285	0.068	-0.111
-697.485	-125.804	-0.271	0.042
-696.470	99.801	0.120	-0.141
-695.456	-131.830	-0.107	0.014
-694.441	72.633	0.275	-0.291
-693.426	800.000	0.045	0.133
-692.412	179.982	0.201	-0.300
-691.397	632.929	-0.124	-0.320
-690.383	-200.000	-0.024	-0.161
-689.368	-86.811	-0.326	0.101
-688.354	-15.984	-0.056	-0.036
-687.339	-125.931	-0.259	0.040
-686.324	-90.661	-0.243	0.071
-685.310	75.155	0.108	-0.115
-684.295	-55.968	0.239	0.108
-683.281	-19.156	-0.024	0.015
-682.266	298.666	-0.066	0.123
-681.251	-200.000	0.046	0.224
-680.237	-200.000	-0.009	-0.153
-679.222	-200.000	-0.006	0.173
-678.208	-36.783	0.120	0.065
-677.193	638.283	-0.034	0.089
-676.178	-63.365	0.237	0.099
-675.164	-56.981	-0.098	-0.044
-674.149	-120.199	0.433	0.075
-673.135	-200.000	-0.269	-0.000
-672.120	-0.012	-0.072	0.052
-671.105	-96.801	0.252	0.067
-670.091	36.370	0.032	0.029
-669.076	274.092	-0.032	0.057
-668.062	102.359	0.114	0.136
-667.047	-48.613	0.114	0.055
-666.032	171.550	-0.170	0.247
-665.018	-44.988	0.177	-0.090
-664.003	-200.000	0.032	-0.284
-662.989	41.849	-0.121	-0.112
-661.974	-200.000	-0.021	-0.459
-660.959	177.232	0.105	0.155
-659.945	800.000	0.056	0.175
-658.930	800.000	-0.075	-0.278
-657.916	-158.873	0.334	0.019
-656.901	-114.905	-0.210	-0.041
-655.886	800.000	-0.054	-0.183
-654.872	184.330	-0.223	-0.334
-653.857	-106.469	0.182	0.041
-652.843	128.570	-0.101	0.130
-651.828	269.814	0.089	-0.159
-650.814	-74.542	0.051	0.019
-649.799	-103.699	-0.288	-0.068
-648.784	220.147	0.122	0.197
-647.770	-113.472	0.122	0.024
-646.755	-200.000	0.003	0.089
-645.741	800.000	0.044	-0.174
-644.726	-67.477	-0.182	-0.072
-643.711	-200.000	-0.004	0.140
-642.697	-200.000	-0.062	0.564
-641.682	-200.000	-0.038	0.357
-640.668	-94.781	-0.326	-0.090
-639.653	549.220	-0.041	-0.099
-638.638	764.194	-0.091	-0.250
-637.624	-145.553	-0.225	0.020
-636.609	800.000	0.059	0.209
-635.595	-89.915	0.188	0.056
-634.580	-46.174	-0.205	0.102
-633.565	-145.061	0.168	0.015
-632.551	-200.000	-0.002	-0.062
-631.536	-117.648	-0.192	0.035
-630.522	39.787	-0.159	0.145
-629.507	-117.865	0.118	-0.021
-628.492	130.995	0.149	-0.193
-627.478	305.669	0.043	0.080
-626.463	-82.925	0.189	-0.062
-625.449	-166.823	-0.184	-0.008
-624.434	49.930	-0.240	-0.230
-623.419	75.810	0.274	-0.293
-622.405	-38.391	0.217	-0.116
-621.390	181.774	0.095	-0.141
-620.376	35.039	0.211	0.187
-619.361	200.500	-0.308	0.479
-618.346	-57.405	-0.363	0.161
-617.332	147.176	-0.078	0.106
-616.317	98.927	-0.046	-0.054
-615.303	-147.145	-0.261	0.023
-614.288	-98.805	0.132	-0.034
-613.273	-142.658	-0.255	0.025
-612.259	-91.658	-0.241	0.069
-611.244	620.971	0.161	0.410
-610.230	-96.396	-0.238	0.064
-609.215	-159.051	0.336	-0.019
-608.201	444.153	-0.195	-0.433
-607.186	30.428	-0.146	-0.126
-606.171	-82.739	-0.130	0.042
-605.157	-176.605	0.313	-0.008
-604.142	627.973	-0.057	0.145
-603.128	-200.000	0.023	-0.260
-602.113	800.000	-0.079	0.343
-601.098	116.046	-0.114	-0.141
-600.084	43.000	-0.245	0.226
-599.069	156.906	-0.203	0.284
-598.055	87.683	0.207	0.232
-597.040	509.541	0.108	-0.253
-596.025	55.510	-0.192	-0.188
-595.011	1.288	-0.360	-0.261
-593.996	113.827	-0.045	-0.056
-592.982	-80.317	0.101	0.034
-591.967	-131.993	0.334	0.044
-590.952	-87.810	0.113	0.034
-589.938	-200.000	-0.001	-0.026
-588.923	800.000	-0.012	-0.041
-587.909	-200.000	-0.018	0.190
-586.894	-47.905	-0.087	-0.043
-585.879	34.124	0.230	-0.202
-584.865	187.196	-0.163	-0.246
-583.850	-7.525	0.178	-0.122
-582.836	185.783	0.053	-0.079
-581.821	124.404	0.280	-0.355
-580.806	-200.000	-0.030	0.149
-579.792	90.944	-0.065	0.073
-578.777	-29.042	0.262	0.152
-577.763	24.075	-0.126	0.105
-576.748	131.002	-0.193	0.250
-575.733	-200.000	0.046	-0.345
-574.719	-148.213	-0.348	-0.029
-573.704	608.864	0.111	-0.281
-572.690	160.929	-0.206	-0.291
-571.675	-127.990	-0.128	0.019
-570.661	214.392	0.130	0.208
-569.646	400.385	0.044	-0.094
-568.631	-51.996	-0.099	0.046
-567.617	-120.307	-0.303	0.052
-566.602	20.782	0.305	0.250
-565.588	-25.592	-0.169	0.101
-564.573	89.355	0.205	0.231
-563.558	693.282	0.064	-0.170
-562.544	120.063	-0.131	0.164
-561.529	187.061	0.229	-0.345
-560.515	166.683	-0.284	0.407
-559.500	-154.174	0.102	0.007
-558.485	-41.319	0.110	0.057
-557.471	-98.030	-0.356	-0.093
-556.456	-129.720	0.093	-0.013
-555.442	800.000	0.035	0.120
-554.427	-97.259	0.393	-0.103
-553.412	-32.548	-0.270	0.152
-552.398	-200.000	0.086	0.398
-551.383	-51.449	-0.105	-0.050
-550.369	593.942	-0.015	0.037
-549.354	553.085	0.047	-0.114
-548.339	-84.271	-0.395	-0.126
-547.325	-115.553	0.180	0.034
-546.310	-117.042	0.086	0.016
-545.296	16.539	0.172	-0.137
-544.281	-116.351	0.177	-0.033
-543.266	-200.000	-0.034	0.270
-542.252	-39.919	0.134	0.070
-541.237	727.738	-0.145	-0.390
-540.223	-200.000	-0.103	-0.482
-539.208	-14.292	0.013	0.008
-538.193	-200.000	-0.001	0.179
-537.179	169.135	-0.062	-0.090
-536.164	232.069	-0.144	-0.239
-535.150	800.000	-0.042	0.131
-534.135	-200.000	0.049	0.260
-533.121	45.694	0.117	-0.109
-532.106	-118.070	-0.404	-0.073
-531.091	800.000	-0.065	0.222
-530.077	106.870	-0.110	0.131
-529.062	377.799	-0.117	0.241
-528.048	-74.688	-0.134	-0.048
-527.033	-122.139	0.221	0.036
-526.018	-46.357	-0.194	-0.096
-525.004	-142.545	0.199	-0.020
-523.989	-200.000	0.002	-0.071
-522.975	344.852	0.069	-0.136
-521.960	268.367	0.019	0.034
-520.945	-59.781	0.250	-0.108
-519.931	37.019	0.149	-0.133
-518.916	800.000	0.046	-0.164
-517.902	10.716	0.209	0.161
-516.887	51.658	-0.046	-0.044
-515.872	-68.017	-0.277	0.109
-514.858	36.469	-0.223	-0.198
-513.843	7.061	-0.055	0.041
-512.829	-121.694	0.146	0.024
-511.814	-97.454	-0.200	0.053
-510.799	12.111	-0.133	-0.103
-509.785	800.000	-0.059	0.187
-508.770	390.463	-0.157	-0.328
-507.756	800.000	-0.048	-0.204
-506.741	-200.000	0.055	-0.282
-505.726	387.929	0.111	0.231
-504.712	326.861	-0.120	-0.232
-503.697	534.740	-0.090	0.214
-502.683	107.923	-0.101	-0.122
-501.668	-30.914	-0.245	0.140
-500.653	-70.114	0.222	0.085
-499.639	-200.000	-0.007	-0.035
-498.624	39.230	-0.214	-0.193
-497.610	-30.078	0.257	-0.147
-496.595	-73.543	-0.054	-0.020
-495.581	-200.000	0.010	0.217
-494.566	29.568	-0.260	-0.223
-493.551	36.759	-0.307	0.274
-492.537	800.000	-0.070	0.224
-491.522	-173.672	0.292	0.009
-490.508	-200.000	0.056	0.261
-489.493	-51.588	-0.280	-0.132
-488.478	-65.688	-0.354	0.143
-487.464	800.000	-0.056	0.204
-486.449	467.656	-0.142	0.320
-485.435	39.240	0.063	-0.057
-484.420	89.620	0.216	-0.242
-483.405	496.622	-0.121	-0.280
-482.391	-167.891	0.251	0.010
-481.376	-134.678	-0.208	0.026
-480.362	-200.000	-0.062	0.295
-479.347	-200.000	-0.036	0.182
-478.332	-0.758	-0.331	-0.236
-477.318	84.699	0.082	-0.091
-476.303	143.740	0.110	-0.147
-475.289	17.862	0.054	0.044
-474.274	-89.844	-0.276	0.081
-473.259	-51.857	0.112	0.052
-472.245	64.861	-0.140	0.142
-471.230	-104.426	0.178	0.042
-470.216	-119.127	-0.337	-0.059
-469.201	-112.843	-0.276	-0.055
-468.186	-66.461	-0.194	-0.077
-467.172	-200.000	0.000	0.235
-466.157	348.440	-0.084	0.166
-465.143	18.291	-0.105	-0.084
-464.128	-36.192	0.210	0.114
-463.113	-155.388	0.359	-0.023
-462.099	678.208	0.121	0.317
-461.084	-160.975	-0.182	-0.010
-460.070	-26.936	-0.316	0.186
-459.055	-181.537	-0.097	-0.002
-458.040	-200.000	0.008	0.046
-457.026	734.711	0.070	0.189
-456.011	-25.207	0.106	0.063
-454.997	-46.564	0.191	-0.094
-453.982	139.930	-0.068	-0.091
-452.968	273.685	-0.072	0.128
-451.953	-156.920	-0.358	0.022
-450.938	-3.539	0.090	0.063
-449.924	-149.281	0.236	-0.019
-448.909	-151.706	0.332	-0.025
-447.895	214.385	-0.135	-0.215
-446.880	-31.849	-0.109	-0.061
-445.865	-50.742	-0.052	-0.025
-444.851	121.441	0.079	0.099
-443.836	-200.000	0.004	0.209
-442.822	-27.713	-0.273	-0.159
-441.807	-55.975	0.032	0.014
-440.792	-200.000	-0.030	-0.153
-439.778	800.000	0.052	-0.201
-438.763	325.670	0.095	-0.182
-437.749	3.635	0.332	0.243
-436.734	800.000	0.129	-0.538
-435.719	77.599	-0.161	0.172
-434.705	81.396	-0.055	0.060
-433.690	-65.458	0.292	0.118
-432.676	-200.000	0.010	-0.083
-431.661	13.387	0.184	-0.143
-430.646	-200.000	0.006	0.072
-429.632	44.800	0.055	0.051
-428.617	110.958	-0.344	-0.416
-427.603	-55.507	-0.063	-0.028
-426.588	-89.195	-0.307	0.091
-425.573	39.566	-0.085	0.076
-424.559	800.000	0.141	-0.420
-423.544	-105.334	0.152	0.035
-422.530	-93.833	0.161	-0.044
-421.515	-200.000	0.010	-0.157
-420.500	-65.312	-0.151	-0.061
-419.486	84.007	-0.110	-0.121
-418.471	-41.974	-0.254	-0.131
-417.457	122.628	0.213	0.267
-416.442	328.888	0.165	0.318
-415.428	97.397	0.052	-0.060
-414.413	-200.000	0.039	0.366
-413.398	-31.827	-0.146	-0.082
-412.384	-200.000	0.006	0.062
-411.369	800.000	0.056	0.180
-410.355	-62.460	-0.271	-0.113
-409.340	-106.583	0.101	0.023
-408.325	23.735	0.077	0.064
-407.311	42.507	-0.506	0.463
-406.296	132.663	0.114	-0.148
-405.282	800.000	-0.091	-0.330
-404.267	-61.561	-0.207	0.087
-403.252	27.713	0.114	0.097
-402.238	-200.000	0.017	-0.115
-401.223	203.804	-0.021	-0.033
-400.209	-176.002	0.207	0.006
-399.194	-134.174	0.343	0.042
-398.179	67.441	0.029	-0.030
-397.165	783.522	-0.032	-0.087
-396.150	-200.000	-0.030	0.177
-395.136	21.828	0.212	-0.173
-394.121	800.000	0.037	0.147
-393.106	152.259	-0.049	-0.067
-392.092	70.834	0.296	-0.307
-391.077	-20.181	0.306	0.189
-390.063	-47.445	-0.144	0.070
-389.048	800.000	-0.077	-0.267
-388.033	-15.669	0.399	-0.255
-387.019	-86.686	0.200	0.061
-386.004	577.724	0.126	0.309
-384.990	-200.000	0.026	-0.147
-383.975	16.273	-0.189	-0.150
-382.960	168.563	0.155	-0.222
-381.946	-8.342	0.095	-0.064
-380.931	-82.622	-0.094	-0.031
-379.917	-200.000	-0.009	-0.087
-378.902	-200.000	0.100	-0.527
-377.888	-200.000	-0.006	-0.136
-376.873	142.183	-0.175	0.232
-375.858	375.733	0.126	0.257
-374.844	-200.000	0.031	-0.231
-373.829	275.768	-0.107	-0.190
-372.815	49.533	0.238	-0.225
-371.800	125.521	0.157	0.198
-370.785	124.070	0.129	0.162
-369.771	614.582	0.043	-0.107
-368.756	14.588	0.247	0.193
-367.742	652.517	-0.028	0.072
-366.727	-200.000	0.020	0.227
-365.712	-30.238	0.080	-0.045
-364.698	-200.000	-0.002	0.557
-363.683	-59.343	-0.229	-0.099
-362.669	189.847	-0.068	-0.103
-361.654	-62.753	-0.289	0.120
-360.639	-39.755	0.177	0.093
-359.625	-173.621	-0.322	0.010
-358.610	-58.754	-0.244	-0.106
-357.596	-138.915	0.145	0.016
-356.581	40.227	0.029	-0.026
-355.566	-200.000	0.052	-0.272
-354.552	693.968	0.050	-0.133
-353.537	-7.641	-0.137	0.093
-352.523	-38.499	-0.372	0.197
-351.508	158.831	0.204	0.283
-350.493	26.858	-0.141	0.119
-349.479	47.179	0.108	-0.101
-348.464	-200.000	0.025	-0.116
-347.450	765.042	0.151	-0.410
-346.435	-77.961	-0.071	0.024
-345.420	369.314	-0.130	-0.263
-344.406	-61.429	0.025	-0.010
-343.391	-200.000	-0.004	0.147
-342.377	37.579	0.165	-0.147
-341.362	-200.000	-0.009	0.395
-340.348	-146.447	-0.261	0.023
-339.333	800.000	-0.054	0.201
-338.318	800.000	-0.021	0.072
-337.304	-200.000	0.047	-0.322
-336.289	-106.978	0.217	0.048
-335.275	-200.000	0.002	-0.058
-334.260	5.110	-0.186	-0.137
-333.245	-200.000	-0.033	-0.283
-332.231	800.000	0.065	-0.245
-331.216	-114.161	0.104	-0.020
-330.202	416.465	-0.104	0.222
-329.187	14.459	0.220	-0.172
-328.172	800.000	-0.063	-0.178
-327.158	46.093	-0.156	0.144
-326.143	65.923	-0.121	0.123
-325.129	0.098	-0.101	-0.072
-324.114	-116.714	0.098	-0.018
-323.099	800.000	0.051	-0.154
-322.085	-20.411	0.236	0.145
-321.070	800.000	0.049	-0.145
-320.056	800.000	-0.071	0.252
-319.041	60.043	-0.222	0.220
-318.026	-155.167	0.458	0.030
-317.012	-169.368	0.217	-0.008
-315.997	-200.000	-0.150	-0.001
-314.983	-200.000	0.102	-0.462
-313.968	-19.840	-0.276	-0.171
-312.953	-46.428	-0.172	-0.084
-311.939	-110.280	-0.350	0.073
-310.924	800.000	0.087	0.275
-309.910	-16.589	0.039	-0.025
-308.895	-84.099	0.220	0.070
-307.880	-97.723	-0.083	-0.021
-306.866	-200.000	0.043	0.235
-305.851	-200.000	-0.012	0.156
-304.837	-200.000	0.041	0.207
-303.822	-200.000	0.004	-0.040
-302.807	193.506	0.183	-0.277
-301.793	-200.000	0.002	0.146
-300.778	-122.576	0.061	0.010
-299.764	-164.318	0.207	-0.009
-298.749	-200.000	-0.074	0.355
-297.735	-95.018	0.119	0.032
-296.720	-200.000	-0.020	-0.169
-295.705	388.862	-0.117	-0.243
-294.691	-9.846	-0.412	-0.274
-293.676	-76.395	0.059	0.021
-292.662	-65.431	0.121	-0.049
-291.647	800.000	0.054	0.217
-290.632	28.363	0.140	-0.119
-289.618	-92.564	0.435	0.122
-288.603	-44.650	-0.123	-0.061
-287.589	798.399	-0.141	-0.389
-286.574	193.817	0.088	0.134
-285.559	195.423	-0.054	0.083
-284.545	-84.708	-0.141	0.044
-283.530	730.231	-0.020	0.053
-282.516	211.468	0.064	-0.101
-281.501	383.377	0.050	0.102
-280.486	105.420	-0.095	0.112
-279.472	-128.042	-0.350	0.050
-278.457	-63.508	-0.125	-0.051
-277.443	45.082	-0.104	-0.096
-276.428	-16.151	-0.160	0.102
-275.413	238.930	-0.109	0.181
-274.399	-141.168	0.454	0.046
-273.384	270.262	-0.069	0.121
-272.370	-73.364	-0.074	0.027
-271.355	-200.000	0.000	0.181
-270.340	158.688	-0.126	0.175
-269.326	-17.704	-0.136	0.085
-268.311	-200.000	0.054	-0.252
-267.297	632.114	-0.056	0.141
-266.282	30.597	-0.134	-0.115
-265.267	-18.070	-0.110	0.068
-264.253	-200.000	0.029	-0.192
-263.238	-200.000	-0.004	0.100
-262.224	405.345	0.048	-0.100
-261.209	-200.000	-0.014	0.074
-260.195	87.461	0.213	0.235
-259.180	80.137	0.078	-0.084
-258.165	-0.573	0.249	-0.176
-257.151	336.346	-0.177	-0.343
-256.136	800.000	-0.005	0.016
-255.122	172.751	0.140	-0.201
-254.107	-78.344	0.084	-0.029
-253.092	-121.589	-0.345	-0.057
-252.078	-200.000	-0.012	0.178
-251.063	-88.628	0.149	-0.044
-250.049	53.736	0.205	0.196
-249.034	800.000	0.020	-0.078
-248.019	215.552	0.062	-0.098
-247.005	-119.971	-0.267	-0.046
-245.990	-150.497	0.038	-0.003
-244.976	-105.867	0.241	0.054
-243.961	-21.835	0.251	0.152
-242.946	-200.000	0.010	0.062
-241.932	-200.000	0.000	0.137
-240.917	177.312	0.081	-0.117
-239.903	-51.582	-0.166	-0.077
-238.888	-4.427	0.267	0.184
-237.873	800.000	-0.036	-0.139
-236.859	-173.309	0.327	0.010
-235.844	-200.000	-0.008	0.106
-234.830	348.854	-0.077	-0.151
-233.815	800.000	0.100	-0.285
-232.800	709.797	0.044	-0.117
-231.786	42.145	-0.366	-0.331
-230.771	-200.000	-0.069	0.395
-229.757	125.452	0.061	-0.077
-228.742	-200.000	0.052	0.321
-227.727	-7.969	-0.080	-0.054
-226.713	28.229	-0.101	0.085
-225.698	221.203	0.043	-0.069
-224.684	800.000	-0.028	-0.117
-223.669	251.187	0.087	0.148
-222.655	205.287	-0.121	0.187
-221.640	57.445	0.085	-0.083
-220.625	-200.000	-0.029	0.172
-219.611	721.099	-0.040	0.107
-218.596	132.321	0.101	-0.129
-217.582	574.085	-0.062	-0.150
-216.567	132.212	-0.242	-0.311
-215.552	-200.000	0.035	0.162
-214.538	624.886	0.118	-0.298
-213.523	12.203	0.114	0.088
-212.509	-3.172	0.253	-0.176
-211.494	-24.662	-0.105	0.062
-210.479	42.490	-0.185	0.168
-209.465	-200.000	0.017	-0.187
-208.450	-112.461	0.240	0.048
-207.436	-33.089	0.161	-0.089
-206.421	326.463	-0.125	-0.239
-205.406	-75.571	0.329	0.116
-204.392	-200.000	0.040	0.286
-203.377	95.726	0.127	-0.144
-202.363	-157.055	0.249	0.015
-201.348	-132.515	-0.279	-0.036
-200.333	-61.143	0.369	-0.155
-199.319	-5.264	0.204	-0.139
-198.304	13.211	-0.316	-0.244
-197.290	-12.613	0.065	-0.042
-196.275	-38.230	-0.206	-0.109
-195.260	101.086	0.198	-0.229
-194.246	-69.062	0.175	0.067
-193.231	7.829	0.151	0.113
-192.217	-52.340	-0.087	0.040
-191.202	622.585	-0.134	0.336
-190.187	-200.000	0.026	-0.132
-189.173	-130.919	0.205	-0.027
-188.158	-110.101	0.284	0.059
-187.144	90.833	-0.133	0.149
-186.129	-200.000	0.002	-0.076
-185.114	35.144	-0.230	-0.200
-184.100	-200.000	-0.027	0.201
-183.085	44.468	0.140	0.128
-182.071	-60.262	0.133	0.056
-181.056	-200.000	-0.000	0.136
-180.042	262.286	0.191	0.330
-179.027	414.354	0.080	0.170
-178.012	-44.732	0.179	-0.089
-176.998	101.909	-0.104	-0.120
-175.983	79.435	-0.122	-0.130
-174.969	170.027	-0.074	0.105
-173.954	204.636	0.125	-0.193
-172.939	255.286	0.062	-0.106
-171.925	-5.549	0.147	0.100
-170.910	26.045	-0.207	0.172
-169.896	-32.881	0.287	0.159
-168.881	-55.879	-0.213	-0.094
-167.866	-66.607	-0.008	0.003
-166.852	800.000	0.093	-0.388
-165.837	800.000	0.189	-0.574
-164.823	-54.357	0.281	0.127
-163.808	-59.512	0.244	0.104
-162.793	-62.829	-0.287	-0.118
-161.779	51.374	0.222	0.209
-160.764	127.994	0.172	0.218
-159.750	-77.527	0.116	-0.040
-158.735	101.090	-0.097	0.112
-157.720	52.412	-0.092	0.087
-156.706	-124.871	0.130	-0.020
-155.691	-54.035	0.239	-0.108
-154.677	13.955	0.109	0.084
-153.662	-200.000	0.053	0.401
-152.647	-85.273	0.230	0.071
-151.633	54.825	-0.109	-0.104
-150.618	-105.133	-0.409	-0.093
-149.604	-74.564	0.249	0.089
-148.589	800.000	0.103	-0.329
-147.574	-100.314	-0.320	-0.079
-146.560	800.000	0.078	0.286
-145.545	100.703	0.242	0.280
-144.531	225.710	0.061	0.098
-143.516	-194.506	-0.113	0.001
-142.502	3.011	0.195	-0.141
-141.487	-98.626	0.060	-0.015
-140.472	79.430	0.125	0.133
-139.458	-42.159	0.166	0.084
-138.443	800.000	-0.031	-0.119
-137.429	753.293	-0.082	0.220
-136.414	-131.659	0.361	-0.047
-135.399	800.000	-0.096	-0.282
-134.385	95.945	0.184	-0.208
-133.370	-27.858	-0.215	0.124
-132.356	-200.000	0.025	-0.158
-131.341	-109.522	0.244	0.051
-130.326	542.931	0.079	-0.188
-129.312	800.000	-0.067	0.214
-128.297	-29.346	-0.149	0.085
-127.283	-118.036	-0.214	-0.038
-126.268	-7.526	-0.222	-0.149
-125.253	26.266	-0.087	-0.072
-124.239	-200.000	0.042	0.329
-123.224	-200.000	0.013	0.369
-122.210	800.000	0.019	0.057
-121.195	-67.716	-0.119	-0.046
-120.180	458.031	-0.064	0.141
