DTS Sentinel unit serial number:	SN413079Multiplexer serial number:	ORYXHardware model number:	OX4-SRSoftware version number:	ORYX F/W v4.00 Oryx Data Collector v3.7.2.0data status	okinstallation	princeton_trtdifferential loss correction	single-endedforward channel	channel 4reverse channel	N/Adate	2019/09/11time	22:03:11forward acquisition time	60.00reverse acquisition time	0.00gamma	496.2192k internal	0.2306k external	0.2306temperature offset calibration	1.0076default loss term (dB/km)	0.3790temperature slope calibration	1.0000multiplexer offset coefficient	1.0000multiplexer slope coefficient	1.0000fibre end	0.00T internal ref (°C)	35.50T ext. ref 1 (°C)	1.76T ext. ref 2 (°C)	29.60length (m)	temperature (°C)	Stokes	anti-Stokes-747.200	-150.158	0.206	-0.016
-746.185	-200.000	-0.036	0.221
-745.171	-4.619	0.042	-0.030
-744.156	-200.000	-0.008	0.124
-743.142	-8.153	-0.224	-0.154
-742.127	-24.806	-0.053	0.032
-741.112	46.050	-0.210	0.198
-740.098	800.000	-0.019	-0.061
-739.083	186.855	0.060	-0.091
-738.069	-39.213	0.055	-0.029
-737.054	-200.000	0.029	-0.220
-736.039	-48.653	-0.299	-0.146
-735.025	-48.262	0.046	-0.023
-734.010	-200.000	-0.055	0.263
-732.996	595.601	-0.195	-0.491
-731.981	4.533	-0.357	-0.266
-730.966	-200.000	-0.004	0.139
-729.952	-188.596	0.209	-0.003
-728.937	316.696	0.050	-0.097
-727.923	96.296	-0.026	-0.031
-726.908	-47.772	-0.114	0.056
-725.894	800.000	-0.075	-0.286
-724.879	-2.691	-0.434	0.309
-723.864	800.000	-0.051	-0.200
-722.850	-200.000	0.000	-0.071
-721.835	-99.532	0.045	-0.011
-720.821	504.353	-0.233	0.547
-719.806	-141.996	-0.369	-0.037
-718.791	-83.995	-0.067	0.022
-717.777	-111.768	-0.220	-0.045
-716.762	209.583	-0.148	-0.236
-715.748	800.000	0.065	-0.280
-714.733	-174.417	0.064	-0.002
-713.718	446.524	0.030	0.068
-712.704	-200.000	0.025	0.380
-711.689	79.286	0.076	-0.083
-710.675	800.000	0.039	-0.113
-709.660	-125.520	-0.061	0.009
-708.645	-200.000	-0.043	0.245
-707.631	-200.000	0.024	-0.363
-706.616	175.895	0.104	0.153
-705.602	39.655	0.116	-0.105
-704.587	-104.830	0.267	-0.062
-703.572	800.000	0.052	0.204
-702.558	35.203	-0.083	-0.074
-701.543	-200.000	0.021	-0.242
-700.529	38.057	-0.114	0.103
-699.514	541.719	-0.094	0.228
-698.499	-116.631	0.115	-0.021
-697.485	-200.000	0.000	-0.217
-696.470	800.000	0.063	0.203
-695.456	-200.000	0.016	-0.098
-694.441	666.256	0.191	-0.502
-693.426	-81.134	0.315	-0.106
-692.412	205.568	-0.051	-0.080
-691.397	-200.000	-0.030	0.133
-690.383	385.610	-0.129	-0.270
-689.368	-26.935	0.156	0.093
-688.354	-200.000	-0.018	0.212
-687.339	-16.416	0.245	-0.158
-686.324	268.725	-0.064	0.114
-685.310	-38.852	0.173	0.092
-684.295	-200.000	-0.029	-0.182
-683.281	800.000	0.171	0.536
-682.266	478.126	0.116	-0.267
-681.251	-5.393	0.160	-0.111
-680.237	7.299	-0.115	-0.087
-679.222	-26.050	-0.191	0.114
-678.208	-80.891	0.286	-0.096
-677.193	800.000	0.069	-0.243
-676.178	131.539	0.086	0.112
-675.164	-25.918	-0.186	-0.111
-674.149	-200.000	0.050	-0.336
-673.135	69.497	-0.239	-0.249
-672.120	-80.669	0.246	0.083
-671.105	112.143	-0.137	0.168
-670.091	237.026	-0.054	-0.091
-669.076	-15.753	0.343	0.221
-668.062	275.739	0.105	-0.189
-667.047	-160.656	0.293	-0.016
-666.032	406.538	0.100	-0.214
-665.018	800.000	-0.020	-0.061
-664.003	30.948	-0.057	-0.049
-662.989	-200.000	-0.017	-0.322
-661.974	59.755	0.240	-0.240
-660.959	-114.976	0.373	-0.072
-659.945	-200.000	0.046	-0.243
-658.930	129.767	-0.138	0.179
-657.916	320.146	-0.087	0.168
-656.901	469.848	0.073	-0.167
-655.886	-107.587	0.138	0.031
-654.872	18.187	0.360	0.291
-653.857	800.000	-0.031	-0.107
-652.843	37.631	0.140	0.126
-651.828	10.475	-0.095	0.074
-650.814	374.392	0.081	0.168
-649.799	-35.720	0.168	-0.093
-648.784	454.996	-0.091	-0.205
-647.770	-15.667	0.143	-0.092
-646.755	-148.396	-0.345	0.029
-645.741	713.935	0.061	-0.164
-644.726	-73.429	-0.185	0.069
-643.711	-107.820	0.130	-0.029
-642.697	-161.790	0.100	-0.005
-641.682	353.622	-0.087	0.175
-640.668	-15.025	-0.222	0.144
-639.653	-36.836	0.141	0.077
-638.638	55.007	-0.115	0.113
-637.624	-200.000	-0.024	-0.170
-636.609	161.891	0.249	-0.353
-635.595	57.139	-0.076	-0.075
-634.580	383.094	0.057	-0.120
-633.565	30.804	0.214	-0.186
-632.551	437.024	-0.237	0.523
-631.536	-200.000	0.039	-0.371
-630.522	-119.781	-0.154	-0.027
-629.507	800.000	0.027	-0.119
-628.492	33.022	0.191	0.168
-627.478	-72.047	-0.102	-0.038
-626.463	-101.338	-0.280	-0.069
-625.449	-88.906	-0.279	0.084
-624.434	437.313	0.154	0.341
-623.419	6.182	0.151	0.114
-622.405	-200.000	-0.044	-0.206
-621.390	11.641	-0.317	-0.246
-620.376	-200.000	0.051	0.272
-619.361	35.586	-0.182	-0.162
-618.346	202.774	-0.204	-0.320
-617.332	-66.295	0.126	0.051
-616.317	-66.563	0.378	-0.152
-615.303	-69.528	-0.186	0.072
-614.288	1.045	-0.224	-0.163
-613.273	-21.564	0.377	-0.233
-612.259	-200.000	-0.071	-0.401
-611.244	67.864	0.078	-0.081
-610.230	800.000	0.049	-0.162
-609.215	-200.000	-0.015	0.100
-608.201	361.209	0.119	-0.241
-607.186	-200.000	-0.008	-0.263
-606.171	-110.702	0.117	0.024
-605.157	-200.000	0.007	0.228
-604.142	55.415	0.131	-0.128
-603.128	-51.488	-0.248	-0.117
-602.113	399.486	0.035	0.074
-601.098	-140.476	0.054	-0.006
-600.084	-78.998	-0.156	0.054
-599.069	54.317	-0.177	-0.173
-598.055	-24.406	0.265	0.160
-597.040	-200.000	-0.040	0.209
-596.025	-200.000	-0.061	0.272
-595.011	-200.000	0.048	0.333
-593.996	95.938	-0.117	-0.136
-592.982	129.836	0.126	-0.162
-591.967	398.790	-0.085	0.181
-590.952	-200.000	0.002	-0.032
-589.938	-61.120	-0.065	-0.028
-588.923	740.770	-0.072	0.196
-587.909	362.214	0.082	0.167
-586.894	-123.770	0.256	-0.041
-585.879	-23.968	-0.224	0.135
-584.865	248.979	0.127	0.217
-583.850	18.339	-0.116	-0.094
-582.836	320.211	0.067	0.128
-581.821	131.534	0.073	-0.094
-580.806	-114.994	-0.070	-0.013
-579.792	303.480	-0.125	-0.235
-578.777	7.108	0.242	-0.182
-577.763	-200.000	0.021	-0.099
-576.748	-172.169	-0.254	-0.008
-575.733	60.532	0.241	-0.241
-574.719	521.946	-0.081	-0.191
-573.704	-200.000	-0.014	0.284
-572.690	-165.695	0.270	-0.012
-571.675	-69.488	-0.190	0.073
-570.661	-48.264	-0.197	-0.096
-569.646	-200.000	-0.004	-0.158
-568.631	-113.967	-0.031	0.006
-567.617	37.419	0.117	-0.105
-566.602	800.000	-0.016	0.054
-565.588	597.945	-0.119	-0.298
-564.573	-200.000	-0.020	0.110
-563.558	800.000	-0.133	-0.536
-562.544	800.000	0.185	-0.586
-561.529	-162.133	0.140	-0.007
-560.515	-200.000	0.001	-0.075
-559.500	-167.939	0.170	0.007
-558.485	-82.549	0.251	0.082
-557.471	800.000	-0.038	-0.160
-556.456	800.000	0.018	-0.059
-555.442	185.290	-0.106	-0.159
-554.427	-74.040	-0.093	0.034
-553.412	-6.326	0.303	-0.209
-552.398	151.436	0.154	0.212
-551.383	-200.000	-0.077	0.388
-550.369	-65.056	-0.117	-0.048
-549.354	177.368	0.098	-0.144
-548.339	-59.983	-0.176	0.076
-547.325	-66.430	0.217	-0.087
-546.310	-104.689	-0.451	0.105
-545.296	39.968	0.101	-0.092
-544.281	800.000	-0.050	0.203
-543.266	-166.842	0.144	0.006
-542.252	513.105	0.109	-0.257
-541.237	-25.294	0.119	0.071
-540.223	-200.000	0.014	0.076
-539.208	464.249	0.084	0.190
-538.193	203.079	-0.043	-0.068
-537.179	229.580	0.081	0.133
-536.164	296.871	-0.167	0.309
-535.150	800.000	0.069	0.228
-534.135	16.201	-0.206	-0.164
-533.121	14.064	-0.208	-0.164
-532.106	-77.316	-0.377	-0.132
-531.091	9.568	0.188	-0.144
-530.077	-200.000	0.032	0.312
-529.062	-200.000	0.040	0.231
-528.048	-200.000	0.031	0.168
-527.033	380.687	0.107	0.222
-526.018	73.250	-0.129	-0.136
-525.004	-200.000	0.030	0.139
-523.989	800.000	0.124	-0.409
-522.975	278.735	0.063	0.114
-521.960	-200.000	-0.011	-0.059
-520.945	496.944	0.115	0.266
-519.931	-200.000	0.025	0.130
-518.916	-142.736	-0.433	0.043
-517.902	800.000	0.054	-0.171
-516.887	55.819	-0.180	-0.176
-515.872	-88.993	0.144	-0.043
-514.858	800.000	0.053	0.192
-513.843	154.402	0.177	0.245
-512.829	32.728	-0.106	-0.092
-511.814	51.709	-0.239	-0.229
-510.799	-200.000	-0.003	-0.136
-509.785	-48.193	0.164	0.080
-508.770	501.967	0.061	0.143
-507.756	44.610	-0.142	0.132
-506.741	-185.227	-0.206	-0.003
-505.726	-200.000	-0.012	-0.078
-504.712	-160.522	0.188	0.010
-503.697	-45.473	-0.194	-0.097
-502.683	-122.144	-0.099	0.016
-501.668	-72.084	-0.296	0.111
-500.653	-87.294	0.283	0.086
-499.639	-14.692	-0.065	0.042
-498.624	-55.044	0.096	0.043
-497.610	800.000	-0.032	0.124
-496.595	800.000	0.026	-0.089
-495.581	-6.722	-0.227	0.155
-494.566	800.000	0.016	-0.047
-493.551	-96.239	-0.108	-0.029
-492.537	-119.557	0.040	0.007
-491.522	-110.042	0.153	-0.032
-490.508	-148.039	0.140	-0.012
-489.493	293.516	-0.064	-0.118
-488.478	-128.101	0.373	0.054
-487.464	-54.256	0.136	-0.062
-486.449	-126.879	0.321	-0.048
-485.435	425.416	0.099	0.215
-484.420	-118.384	-0.177	-0.032
-483.405	136.555	-0.070	0.092
-482.391	423.565	0.053	0.115
-481.376	-112.496	-0.396	-0.080
-480.362	37.106	-0.113	0.101
-479.347	440.418	-0.074	0.162
-478.332	-200.000	-0.033	0.206
-477.318	258.192	0.259	-0.449
-476.303	-119.748	-0.201	0.035
-475.289	-65.611	-0.077	-0.031
-474.274	601.668	0.042	-0.104
-473.259	-200.000	-0.035	0.222
-472.245	131.099	0.075	-0.097
-471.230	-200.000	-0.023	0.170
-470.216	34.204	0.098	-0.086
-469.201	-4.720	-0.199	0.138
-468.186	213.830	0.103	-0.165
-467.172	-200.000	-0.050	-0.277
-466.157	-200.000	0.023	-0.427
-465.143	16.310	-0.134	-0.106
-464.128	-133.994	-0.125	-0.016
-463.113	78.370	0.169	0.182
-462.099	800.000	-0.070	-0.198
-461.084	-200.000	0.027	0.132
-460.070	-200.000	0.016	0.150
-459.055	24.015	-0.198	-0.165
-458.040	72.021	0.247	0.259
-457.026	-200.000	-0.075	0.437
-456.011	-52.716	0.298	0.138
-454.997	113.790	0.327	0.400
-453.982	341.678	-0.130	0.256
-452.968	151.246	0.226	0.310
-451.953	63.516	-0.324	0.327
-450.938	176.274	-0.128	0.187
-449.924	730.537	-0.098	-0.263
-448.909	131.269	-0.044	-0.057
-447.895	218.108	-0.059	-0.094
-446.880	239.161	0.236	-0.394
-445.865	-22.711	0.310	0.188
-444.851	-133.543	-0.343	-0.043
-443.836	206.042	-0.152	-0.238
-442.822	800.000	0.024	0.070
-441.807	29.821	0.073	0.063
-440.792	-1.349	0.124	-0.088
-439.778	-200.000	0.012	-0.174
-438.763	800.000	0.052	-0.152
-437.749	77.994	0.075	-0.081
-436.734	84.508	-0.143	0.158
-435.719	-27.229	0.193	-0.113
-434.705	40.303	0.066	-0.060
-433.690	241.881	-0.060	-0.101
-432.676	86.769	0.098	-0.109
-431.661	270.345	-0.077	-0.135
-430.646	-30.755	0.026	0.015
-429.632	-200.000	0.007	-0.291
-428.617	-175.147	-0.306	0.009
-427.603	-161.437	0.052	0.003
-426.588	800.000	0.081	0.344
-425.573	-187.340	-0.496	0.007
-424.559	-160.743	-0.129	0.007
-423.544	-200.000	-0.050	0.318
-422.530	-86.169	0.320	-0.099
-421.515	-171.474	-0.170	0.006
-420.500	-31.251	0.282	0.160
-419.486	-200.000	0.003	0.029
-418.471	67.350	0.066	0.068
-417.457	-53.597	0.199	0.091
-416.442	668.803	-0.035	-0.091
-415.428	-151.427	0.202	-0.015
-414.413	800.000	-0.043	0.154
-413.398	800.000	-0.027	0.089
-412.384	800.000	-0.077	0.257
-411.369	273.641	-0.078	0.139
-410.355	-76.026	0.333	-0.118
-409.340	548.354	0.055	-0.132
-408.325	9.908	0.167	-0.127
-407.311	-29.882	-0.238	-0.136
-406.296	-25.176	0.222	-0.132
-405.282	800.000	-0.125	-0.451
-404.267	313.575	0.005	-0.010
-403.252	800.000	-0.136	0.509
-402.238	-200.000	0.026	0.228
-401.223	-175.488	0.167	-0.005
-400.209	302.246	-0.169	0.314
-399.194	-200.000	0.002	0.101
-398.179	-68.834	-0.125	0.048
-397.165	168.313	-0.119	-0.169
-396.150	-200.000	0.018	0.124
-395.136	-75.284	-0.138	0.049
-394.121	-78.017	0.230	-0.079
-393.106	49.170	-0.186	-0.175
-392.092	429.067	0.193	-0.419
-391.077	-25.571	0.051	-0.030
-390.063	-166.286	0.103	0.004
-389.048	800.000	0.100	-0.349
-388.033	-200.000	0.035	0.258
-387.019	-108.329	0.164	0.036
-386.004	-200.000	0.046	0.272
-384.990	-117.382	-0.115	0.021
-383.975	386.051	0.070	-0.144
-382.960	-130.506	-0.017	0.002
-381.946	-200.000	-0.010	0.238
-380.931	121.853	-0.050	0.062
-379.917	-52.588	-0.371	-0.172
-378.902	-200.000	0.012	0.079
-377.888	208.011	-0.062	-0.098
-376.873	-59.562	0.211	-0.091
-375.858	-51.893	-0.206	0.096
-374.844	339.279	0.074	0.145
-373.829	-126.844	-0.019	0.003
-372.815	800.000	-0.081	-0.322
-371.800	108.829	-0.079	-0.095
-370.785	-83.117	-0.110	-0.036
-369.771	673.293	-0.088	-0.230
-368.756	-190.295	0.171	-0.002
-367.742	-93.914	0.168	-0.046
-366.727	-104.673	-0.184	-0.042
-365.712	-200.000	0.026	0.174
-364.698	21.525	0.132	0.107
-363.683	197.812	0.162	-0.249
-362.669	225.873	0.149	0.243
-361.654	-25.514	0.105	0.062
-360.639	221.897	0.088	-0.141
-359.625	-16.618	-0.198	0.126
-358.610	800.000	0.045	0.181
-357.596	-103.342	0.056	-0.013
-356.581	-84.142	-0.109	-0.035
-355.566	-96.861	0.220	-0.058
-354.552	-92.061	0.217	-0.062
-353.537	-175.523	-0.051	0.001
-352.523	-63.803	0.484	-0.199
-351.508	-200.000	-0.022	0.247
-350.493	800.000	0.001	0.002
-349.479	66.523	-0.216	-0.220
-348.464	-153.959	-0.321	-0.022
-347.450	-200.000	0.011	-0.207
-346.435	800.000	-0.055	-0.153
-345.420	172.934	0.154	-0.222
-344.406	301.467	-0.304	0.563
-343.391	61.346	-0.113	0.112
-342.377	-200.000	-0.018	0.279
-341.362	-200.000	-0.023	-0.137
-340.348	137.159	0.244	0.319
-339.333	-200.000	0.015	0.418
-338.318	-200.000	-0.006	-0.129
-337.304	-67.314	-0.220	-0.086
-336.289	-26.332	0.121	-0.071
-335.275	-105.374	0.264	-0.060
-334.260	-200.000	0.030	-0.235
-333.245	346.188	0.118	-0.232
-332.231	27.247	-0.206	-0.173
-331.216	-200.000	0.034	0.169
-330.202	-120.119	-0.344	0.059
-329.187	-119.012	-0.370	-0.065
-328.172	-200.000	0.005	-0.204
-327.158	-110.513	-0.214	0.044
-326.143	55.702	0.191	0.185
-325.129	-131.694	0.225	0.030
-324.114	-61.020	0.073	0.031
-323.099	49.683	-0.216	-0.203
-322.085	168.330	0.108	-0.154
-321.070	-118.437	0.156	0.028
-320.056	-72.053	-0.213	-0.079
-319.041	776.543	0.067	0.184
-318.026	-39.972	0.210	-0.110
-317.012	43.952	-0.095	0.087
-315.997	299.989	-0.176	-0.325
-314.983	-36.682	0.055	-0.030
-313.968	116.260	0.134	0.164
-312.953	-131.000	-0.257	0.034
-311.939	160.291	0.073	-0.102
-310.924	-200.000	-0.037	0.243
-309.910	-200.000	0.040	0.216
-308.895	-200.000	-0.024	0.168
-307.880	-27.893	-0.094	0.055
-306.866	-126.198	0.314	0.047
-305.851	62.810	-0.126	0.126
-304.837	608.321	-0.052	0.130
-303.822	800.000	-0.056	-0.222
-302.807	17.341	0.188	-0.149
-301.793	53.497	-0.077	-0.074
-300.778	-200.000	-0.011	-0.242
-299.764	76.430	-0.127	-0.134
-298.749	460.211	-0.124	0.277
-297.735	188.011	0.159	0.237
-296.720	13.519	0.031	-0.024
-295.705	800.000	-0.018	0.066
-294.691	-200.000	0.007	-0.048
-293.676	800.000	0.104	0.306
-292.662	774.332	0.111	0.303
-291.647	-150.297	0.099	0.008
-290.632	84.052	0.213	-0.232
-289.618	-192.909	-0.252	0.002
-288.603	800.000	-0.101	0.287
-287.589	-114.226	0.128	0.025
-286.574	-47.630	-0.081	-0.039
-285.559	-91.235	0.286	-0.082
-284.545	-126.969	0.214	0.032
-283.530	109.303	-0.125	-0.149
-282.516	-200.000	-0.041	0.276
-281.501	-63.063	0.247	-0.102
-280.486	800.000	-0.075	0.294
-279.472	28.864	-0.251	0.213
-278.457	-24.049	-0.162	0.097
-277.443	198.220	0.046	0.071
-276.428	495.058	-0.135	0.309
-275.413	121.585	-0.157	-0.195
-274.399	61.288	0.338	0.335
-273.384	341.798	0.066	0.129
-272.370	800.000	0.110	-0.318
-271.355	60.676	0.064	-0.063
-270.340	-106.402	0.128	-0.029
-269.326	94.890	-0.088	0.099
-268.311	570.907	-0.089	0.216
-267.297	800.000	0.044	0.184
-266.282	72.867	0.084	0.087
-265.267	-11.596	0.072	0.048
-264.253	-15.395	-0.408	-0.260
-263.238	-100.687	0.315	0.078
-262.224	-121.582	0.170	-0.028
-261.209	-174.153	-0.109	0.003
-260.195	-200.000	-0.020	-0.156
-259.180	7.664	0.195	-0.145
-258.165	169.418	-0.104	-0.149
-257.151	547.782	-0.026	-0.063
-256.136	15.219	-0.356	0.278
-255.122	81.642	-0.123	0.133
-254.107	-200.000	0.002	0.055
-253.092	572.246	0.024	0.058
-252.078	373.397	0.054	0.110
-251.063	-200.000	-0.001	0.111
-250.049	-200.000	0.066	-0.358
-249.034	-200.000	0.018	-0.190
-248.019	22.050	0.180	-0.147
-247.005	-44.126	-0.308	-0.154
-245.990	800.000	-0.061	0.180
-244.976	96.868	-0.037	0.042
-243.961	800.000	0.046	0.131
-242.946	-6.019	0.211	-0.144
-241.932	-63.310	-0.330	-0.136
-240.917	130.251	-0.182	0.233
-239.903	-16.522	0.311	0.197
-238.888	167.972	0.102	0.145
-237.873	-169.941	-0.015	-0.001
-236.859	-14.455	0.062	0.040
-235.844	-31.904	0.444	-0.248
-234.830	-21.118	-0.285	0.174
-233.815	-51.115	-0.127	-0.059
-232.800	800.000	0.030	0.110
-231.786	-35.528	0.188	-0.102
-230.771	122.156	0.215	-0.267
-229.757	136.984	0.163	-0.212
-228.742	196.662	-0.211	0.320
-227.727	515.736	-0.083	0.193
-226.713	144.723	-0.227	0.302
-225.698	96.496	-0.181	-0.206
-224.684	35.313	0.035	0.031
-223.669	-13.087	0.137	-0.089
-222.655	517.693	0.030	-0.070
-221.640	-5.306	0.188	-0.129
-220.625	-163.673	-0.400	-0.019
-219.611	-113.897	-0.179	-0.035
-218.596	225.647	0.099	-0.160
-217.582	-41.973	0.320	-0.163
-216.567	-50.601	-0.067	0.031
-215.552	133.659	-0.083	0.107
-214.538	800.000	0.037	-0.159
-213.523	800.000	-0.019	-0.067
-212.509	-146.067	0.434	0.038
-211.494	1.491	0.148	-0.106
-210.479	800.000	-0.101	-0.316
-209.465	40.156	0.206	0.185
-208.450	331.942	0.173	-0.333
-207.436	-200.000	0.009	-0.158
-206.421	-200.000	-0.051	0.321
-205.406	-58.526	-0.025	-0.011
-204.392	88.256	-0.306	-0.338
-203.377	800.000	-0.089	-0.386
-202.363	-200.000	0.000	0.115
-201.348	-64.573	0.133	0.054
-200.333	152.118	0.145	-0.198
-199.319	-50.160	0.086	-0.040
-198.304	-157.932	0.163	-0.010
-197.290	-200.000	-0.001	-0.045
-196.275	-71.250	-0.403	-0.151
-195.260	-99.251	0.382	-0.096
-194.246	2.456	0.018	0.013
-193.231	800.000	-0.073	-0.230
-192.217	-200.000	-0.041	0.322
-191.202	277.279	-0.243	-0.431
-190.187	-31.021	0.252	0.142
-189.173	-4.183	0.358	0.247
-188.158	-50.681	-0.421	0.198
-187.144	-19.909	-0.123	-0.076
-186.129	-200.000	-0.015	0.079
-185.114	-135.581	-0.265	-0.031
-184.100	800.000	-0.072	0.251
-183.085	800.000	-0.054	-0.215
-182.071	9.278	0.094	-0.071
-181.056	800.000	-0.036	-0.099
-180.042	66.438	0.198	0.200
-179.027	-76.626	-0.170	-0.059
-178.012	-61.206	-0.477	-0.200
-176.998	-93.702	0.363	0.100
-175.983	1.842	0.326	0.234
-174.969	98.562	-0.089	-0.102
-173.954	-83.849	-0.097	0.031
-172.939	-39.258	0.326	0.170
-171.925	-200.000	-0.018	0.096
-170.910	-163.259	-0.157	0.007
-169.896	-90.735	-0.144	-0.041
-168.881	-91.318	-0.088	-0.025
-167.866	-139.061	0.286	0.031
-166.852	-200.000	-0.019	0.171
-165.837	598.376	-0.140	0.345
-164.823	47.100	-0.122	0.113
-163.808	-123.348	-0.220	-0.035
-162.793	-83.806	-0.351	0.111
-161.779	-200.000	0.006	-0.317
-160.764	25.633	-0.174	0.144
-159.750	-200.000	-0.011	0.083
-158.735	-45.604	0.226	-0.111
-157.720	220.596	-0.211	0.337
-156.706	-200.000	0.015	-0.193
-155.691	-14.651	-0.091	0.058
-154.677	142.857	-0.276	0.365
-153.662	464.980	0.228	-0.508
-152.647	800.000	-0.016	-0.060
-151.633	-29.828	0.349	0.198
-150.618	-33.903	0.332	-0.182
-149.604	-11.262	0.064	0.042
-148.589	-81.082	-0.228	0.075
-147.574	-88.822	0.275	-0.081
-146.560	-151.880	0.186	0.014
-145.545	55.150	-0.036	0.035
-144.531	800.000	-0.047	0.145
-143.516	122.997	0.108	-0.135
-142.502	-46.366	-0.255	-0.124
-141.487	-200.000	-0.030	0.253
-140.472	312.409	-0.059	0.110
-139.458	-98.642	-0.267	-0.068
-138.443	-80.325	-0.261	-0.087
-137.429	-188.774	-0.082	-0.001
-136.414	108.460	0.144	-0.171
-135.399	-75.133	0.262	0.093
-134.385	329.078	0.218	-0.416
-133.370	-60.168	-0.137	0.058
-132.356	107.586	0.080	0.094
-131.341	170.837	-0.097	0.138
-130.326	-163.110	0.097	0.005
-129.312	689.912	0.070	-0.182
-128.297	217.693	-0.076	0.120
-127.283	486.888	0.099	0.223
-126.268	-3.836	-0.128	0.088
-125.253	160.748	-0.107	-0.149
-124.239	-0.250	-0.042	-0.030
-123.224	0.107	-0.087	-0.062
-122.210	3.718	0.153	-0.111
-121.195	800.000	0.057	-0.223
