DTS Sentinel unit serial number:	SN413079Multiplexer serial number:	ORYXHardware model number:	OX4-SRSoftware version number:	ORYX F/W v4.00 Oryx Data Collector v3.7.2.0data status	okinstallation	princeton_trtdifferential loss correction	single-endedforward channel	channel 4reverse channel	N/Adate	2019/09/11time	11:39:10forward acquisition time	60.00reverse acquisition time	0.00gamma	496.2192k internal	0.2290k external	0.2290temperature offset calibration	0.9972default loss term (dB/km)	0.3790temperature slope calibration	1.0000multiplexer offset coefficient	1.0000multiplexer slope coefficient	1.0000fibre end	0.00T internal ref (°C)	38.41T ext. ref 1 (°C)	0.17T ext. ref 2 (°C)	35.78length (m)	temperature (°C)	Stokes	anti-Stokes-747.200	41.628	0.152	-0.141
-746.185	176.161	-0.222	0.330
-745.171	-39.741	0.037	0.020
-744.156	-112.211	-0.191	0.039
-743.142	284.769	-0.062	0.114
-742.127	800.000	-0.142	0.430
-741.112	315.588	0.077	0.149
-740.098	800.000	0.093	0.397
-739.083	-122.975	0.206	0.034
-738.069	-56.786	0.454	0.206
-737.054	-200.000	-0.017	0.193
-736.039	-200.000	0.002	0.164
-735.025	-100.952	0.193	0.049
-734.010	-151.998	0.146	-0.011
-732.996	19.838	-0.100	-0.082
-731.981	-78.841	-0.236	-0.082
-730.966	-200.000	-0.003	-0.299
-729.952	800.000	0.028	0.082
-728.937	-200.000	0.087	-0.440
-727.923	-2.249	-0.207	0.149
-726.908	-200.000	0.015	0.072
-725.894	-37.659	-0.097	-0.053
-724.879	-112.249	-0.256	0.053
-723.864	-46.507	-0.109	-0.055
-722.850	93.189	-0.207	0.240
-721.835	-185.224	-0.209	0.003
-720.821	-50.684	0.183	0.088
-719.806	102.890	-0.151	0.180
-718.791	46.637	0.071	-0.068
-717.777	-143.938	-0.212	-0.020
-716.762	800.000	-0.023	0.096
-715.748	-108.590	-0.422	-0.093
-714.733	-116.723	-0.131	-0.025
-713.718	800.000	-0.065	-0.186
-712.704	800.000	0.096	-0.297
-711.689	20.927	-0.230	-0.191
-710.675	35.934	0.117	0.105
-709.660	-200.000	-0.002	0.147
-708.645	-130.640	-0.165	-0.023
-707.631	371.106	-0.083	0.172
-706.616	-124.863	0.174	0.027
-705.602	-62.670	0.091	-0.039
-704.587	-200.000	0.006	-0.217
-703.572	-75.413	-0.157	-0.057
-702.558	-150.988	-0.182	-0.014
-701.543	121.080	0.194	-0.246
-700.529	800.000	0.051	-0.176
-699.514	-68.603	0.255	-0.101
-698.499	-70.316	0.269	-0.104
-697.485	539.140	-0.101	-0.245
-696.470	89.222	0.147	-0.167
-695.456	-138.225	0.235	0.027
-694.441	269.039	0.055	0.099
-693.426	-57.333	-0.155	0.070
-692.412	-104.571	-0.198	-0.047
-691.397	429.502	0.151	0.334
-690.383	57.231	-0.249	-0.248
-689.368	-23.383	0.043	0.026
-688.354	-200.000	-0.047	0.276
-687.339	-91.474	0.132	-0.039
-686.324	544.190	0.071	-0.174
-685.310	-31.182	-0.230	0.132
-684.295	-200.000	-0.025	0.160
-683.281	-200.000	0.010	-0.472
-682.266	-200.000	0.023	-0.190
-681.251	-2.024	0.082	-0.059
-680.237	-73.012	-0.211	0.079
-679.222	-152.769	0.136	0.010
-678.208	110.859	0.323	-0.397
-677.193	159.554	-0.256	0.364
-676.178	182.981	0.165	-0.249
-675.164	-52.428	-0.173	-0.082
-674.149	530.745	-0.035	-0.084
-673.135	17.817	0.155	-0.126
-672.120	327.373	0.164	0.322
-671.105	15.969	0.066	-0.053
-670.091	765.152	-0.084	0.233
-669.076	-149.630	-0.362	-0.029
-668.062	80.228	-0.132	-0.145
-667.047	-68.566	-0.080	0.032
-666.032	160.228	0.150	0.213
-665.018	297.870	0.037	0.070
-664.003	28.180	0.163	-0.141
-662.989	6.134	0.366	-0.277
-661.974	9.932	-0.204	-0.158
-660.959	182.341	0.117	0.176
-659.945	-200.000	-0.024	-0.334
-658.930	-200.000	0.001	0.106
-657.916	800.000	-0.025	0.071
-656.901	201.247	-0.016	0.025
-655.886	-107.587	0.261	0.058
-654.872	39.213	-0.217	0.198
-653.857	236.837	-0.170	-0.288
-652.843	800.000	-0.043	-0.133
-651.828	-67.608	-0.330	0.132
-650.814	21.083	0.228	-0.189
-649.799	243.310	0.122	-0.208
-648.784	800.000	-0.071	-0.210
-647.770	547.456	0.087	-0.212
-646.755	372.240	0.059	-0.123
-645.741	-200.000	-0.075	-0.411
-644.726	68.603	-0.186	-0.195
-643.711	454.969	-0.143	0.324
-642.697	-200.000	-0.033	0.157
-641.682	0.828	-0.026	0.019
-640.668	88.863	0.255	0.289
-639.653	-106.674	-0.139	0.032
-638.638	-88.113	0.208	0.064
-637.624	800.000	0.082	-0.235
-636.609	-181.509	-0.532	0.011
-635.595	-200.000	0.003	0.134
-634.580	-54.685	0.418	-0.193
-633.565	800.000	-0.068	-0.201
-632.551	422.816	-0.034	0.075
-631.536	153.838	-0.086	-0.121
-630.522	-126.356	-0.078	0.012
-629.507	-52.307	-0.238	0.113
-628.492	-115.766	0.250	-0.048
-627.478	127.606	-0.079	0.103
-626.463	-71.117	-0.144	-0.055
-625.449	-91.669	0.047	0.014
-624.434	800.000	0.034	-0.114
-623.419	-200.000	-0.018	-0.083
-622.405	-132.183	0.186	-0.025
-621.390	617.527	0.152	0.388
-620.376	-56.897	-0.086	0.039
-619.361	354.134	0.110	-0.222
-618.346	762.137	-0.098	0.270
-617.332	673.861	-0.032	0.085
-616.317	-153.634	-0.035	0.002
-615.303	-103.419	0.306	0.073
-614.288	-32.353	-0.349	0.199
-613.273	-38.347	0.067	0.036
-612.259	618.944	0.071	-0.182
-611.244	235.968	-0.085	-0.143
-610.230	-148.686	-0.293	-0.024
-609.215	135.977	-0.077	0.103
-608.201	-158.523	-0.157	0.009
-607.186	-15.712	0.324	0.210
-606.171	54.485	-0.166	0.163
-605.157	-81.828	0.149	0.050
-604.142	237.661	0.218	-0.368
-603.128	747.162	0.098	0.269
-602.113	-192.411	0.350	-0.003
-601.098	-200.000	0.019	-0.298
-600.084	-155.814	0.250	-0.016
-599.069	-10.237	-0.207	0.140
-598.055	-163.930	0.367	0.017
-597.040	-200.000	0.002	-0.044
-596.025	-11.622	-0.279	0.187
-595.011	131.153	-0.167	-0.218
-593.996	-138.853	0.081	-0.009
-592.982	45.821	-0.069	-0.065
-591.967	-127.213	0.168	-0.025
-590.952	-19.258	0.163	-0.103
-589.938	201.865	-0.242	-0.380
-588.923	109.703	0.273	-0.334
-587.909	401.870	-0.107	-0.228
-586.894	359.916	-0.097	-0.197
-585.879	800.000	-0.023	-0.091
-584.865	-200.000	-0.030	0.201
-583.850	-145.534	-0.136	-0.012
-582.836	227.043	0.069	-0.114
-581.821	203.165	-0.111	0.175
-580.806	800.000	0.077	-0.341
-579.792	-200.000	-0.052	-0.323
-578.777	54.930	0.189	0.185
-577.763	392.415	0.068	-0.144
-576.748	-111.253	0.077	-0.016
-575.733	-21.869	0.112	0.069
-574.719	-81.024	-0.353	-0.119
-573.704	-11.013	0.023	-0.015
-572.690	132.991	0.126	-0.166
-571.675	343.149	-0.068	0.136
-570.661	76.926	-0.070	0.076
-569.646	366.664	-0.031	-0.063
-568.631	64.314	-0.162	0.166
-567.617	-95.879	0.402	-0.109
-566.602	-15.715	0.140	0.091
-565.588	-118.145	0.064	0.012
-564.573	17.762	-0.058	-0.047
-563.558	-32.081	0.287	-0.163
-562.544	-41.461	0.163	-0.085
-561.529	800.000	0.050	-0.165
-560.515	-100.824	0.084	0.021
-559.500	-1.025	-0.165	-0.118
-558.485	800.000	0.042	0.151
-557.471	-111.155	0.193	0.040
-556.456	151.883	0.175	-0.242
-555.442	800.000	-0.066	-0.221
-554.427	-131.451	0.474	0.064
-553.412	-46.754	0.208	0.104
-552.398	-68.590	-0.164	-0.065
-551.383	338.744	0.044	0.088
-550.369	-178.381	-0.284	-0.007
-549.354	-60.222	-0.438	0.190
-548.339	-111.920	0.074	-0.015
-547.325	-8.578	-0.202	0.138
-546.310	629.536	0.135	-0.348
-545.296	800.000	-0.026	-0.112
-544.281	-200.000	0.012	-0.223
-543.266	-20.097	0.163	-0.102
-542.252	-11.286	-0.269	0.180
-541.237	-200.000	-0.002	-0.024
-540.223	143.316	0.055	-0.075
-539.208	800.000	-0.059	0.171
-538.193	-200.000	-0.270	-0.000
-537.179	243.522	-0.085	-0.145
-536.164	643.214	0.048	-0.125
-535.150	-200.000	-0.005	-0.049
-534.135	-26.853	0.329	0.196
-533.121	-67.281	-0.148	0.059
-532.106	-20.168	0.142	-0.089
-531.091	-75.989	-0.273	0.098
-530.077	-97.893	0.294	0.077
-529.062	123.897	-0.139	0.177
-528.048	278.960	0.057	0.103
-527.033	-50.382	0.192	0.092
-526.018	-80.489	-0.183	0.062
-525.004	-95.873	0.178	-0.048
-523.989	-200.000	0.041	-0.303
-522.975	-0.139	0.037	-0.027
-521.960	168.429	-0.032	0.046
-520.945	-144.914	0.211	0.020
-519.931	-200.000	0.023	0.392
-518.916	-110.924	0.132	-0.028
-517.902	-88.956	-0.044	0.013
-516.887	-111.081	0.309	0.064
-515.872	2.749	0.100	-0.073
-514.858	-48.438	0.067	-0.033
-513.843	800.000	0.061	0.213
-512.829	-119.849	0.336	-0.059
-511.814	-19.510	0.447	-0.281
-510.799	800.000	0.015	0.049
-509.785	184.303	0.082	-0.124
-508.770	583.535	0.065	-0.163
-507.756	179.653	-0.170	0.252
-506.741	-54.611	0.298	0.137
-505.726	56.261	-0.096	0.095
-504.712	-32.295	-0.307	0.174
-503.697	379.201	0.094	-0.195
-502.683	768.261	0.040	-0.110
-501.668	-65.005	-0.190	-0.078
-500.653	800.000	0.010	0.038
-499.639	89.739	-0.176	-0.200
-498.624	-33.024	-0.319	-0.180
-497.610	-89.141	-0.381	-0.114
-496.595	197.698	-0.068	0.105
-495.581	702.636	0.097	0.261
-494.566	-200.000	0.003	0.208
-493.551	-33.127	0.105	0.059
-492.537	-33.349	0.196	-0.110
-491.522	-103.024	0.270	0.065
-490.508	800.000	0.040	-0.172
-489.493	163.816	-0.029	0.042
-488.478	93.308	0.141	-0.162
-487.464	24.439	-0.166	0.140
-486.449	-0.381	-0.107	-0.077
-485.435	-200.000	-0.045	-0.205
-484.420	-200.000	-0.017	-0.119
-483.405	-200.000	-0.022	0.404
-482.391	-92.186	-0.051	-0.014
-481.376	-200.000	0.012	-0.060
-480.362	-137.062	-0.086	0.010
-479.347	222.370	-0.179	-0.292
-478.332	-200.000	-0.003	-0.041
-477.318	180.305	0.065	0.096
-476.303	-200.000	0.034	0.448
-475.289	249.479	-0.105	-0.180
-474.274	96.840	-0.149	0.173
-473.259	-200.000	0.005	0.156
-472.245	67.989	-0.051	-0.053
-471.230	-74.403	0.189	-0.069
-470.216	201.682	-0.092	-0.144
-469.201	800.000	-0.056	-0.219
-468.186	-114.400	-0.168	0.033
-467.172	-200.000	-0.009	0.167
-466.157	-200.000	0.035	-0.377
-465.143	-105.615	-0.163	0.037
-464.128	-45.014	0.169	-0.085
-463.113	-104.289	0.130	0.030
-462.099	-25.559	-0.098	-0.059
-461.084	-200.000	0.009	0.300
-460.070	800.000	-0.118	-0.414
-459.055	-200.000	0.013	0.273
-458.040	24.563	0.240	-0.201
-457.026	-59.511	0.476	0.207
-456.011	10.419	0.315	-0.243
-454.997	-200.000	-0.038	0.171
-453.982	800.000	-0.044	-0.179
-452.968	-114.606	-0.146	-0.028
-451.953	-13.922	0.278	0.182
-450.938	11.204	-0.149	0.115
-449.924	72.506	-0.240	0.253
-448.909	392.101	-0.121	0.254
-447.895	-200.000	-0.029	-0.235
-446.880	800.000	-0.072	0.291
-445.865	-70.104	-0.143	0.055
-444.851	123.800	-0.220	-0.280
-443.836	-18.197	-0.182	-0.115
-442.822	-26.221	-0.268	0.159
-441.807	-200.000	-0.003	-0.299
-440.792	200.881	-0.072	0.111
-439.778	757.464	0.094	0.257
-438.763	-200.000	-0.014	-0.217
-437.749	171.493	0.113	-0.164
-436.734	-27.625	0.338	0.198
-435.719	-200.000	0.034	-0.319
-434.705	-170.441	-0.111	-0.004
-433.690	-160.291	0.074	0.004
-432.676	453.297	-0.080	0.179
-431.661	-120.888	0.095	0.016
-430.646	-99.160	0.375	-0.096
-429.632	-140.080	0.168	-0.018
-428.617	-74.335	-0.155	-0.057
-427.603	-86.264	-0.242	0.076
-426.588	-111.372	-0.074	-0.015
-425.573	-200.000	-0.014	0.122
-424.559	-88.229	-0.028	0.008
-423.544	-200.000	-0.012	0.342
-422.530	-83.684	-0.441	0.143
-421.515	66.715	-0.044	-0.046
-420.500	800.000	-0.040	0.136
-419.486	-200.000	-0.030	0.298
-418.471	15.955	0.222	-0.177
-417.457	-200.000	-0.020	-0.113
-416.442	342.776	-0.132	-0.261
-415.428	800.000	-0.070	0.255
-414.413	59.211	0.100	0.099
-413.398	12.099	0.095	-0.074
-412.384	800.000	-0.125	-0.414
-411.369	329.070	-0.058	0.113
-410.355	0.527	-0.267	-0.193
-409.340	-126.190	-0.294	0.045
-408.325	20.103	-0.142	0.116
-407.311	208.172	0.122	-0.192
-406.296	800.000	0.035	-0.132
-405.282	-132.657	-0.105	-0.014
-404.267	238.577	-0.093	-0.156
-403.252	-39.023	0.232	-0.123
-402.238	-80.180	0.460	-0.156
-401.223	-200.000	-0.064	-0.343
-400.209	-127.365	0.530	-0.078
-399.194	-20.276	0.124	-0.077
-398.179	144.684	-0.142	0.191
-397.165	-66.740	0.120	-0.048
-396.150	-66.505	0.194	0.078
-395.136	-127.244	-0.289	-0.043
-394.121	800.000	-0.029	0.083
-393.106	-58.997	0.186	0.081
-392.092	80.237	-0.183	-0.199
-391.077	164.972	0.140	0.199
-390.063	-200.000	0.002	0.069
-389.048	-200.000	-0.058	0.000
-388.033	-200.000	0.026	0.264
-387.019	-200.000	0.021	0.245
-386.004	57.162	0.182	-0.180
-384.990	127.096	-0.024	-0.031
-383.975	-29.947	0.102	-0.059
-382.960	-90.541	-0.473	0.138
-381.946	-200.000	-0.008	-0.050
-380.931	-179.381	0.362	0.008
-379.917	132.844	0.113	-0.148
-378.902	463.949	0.157	-0.355
-377.888	-146.116	-0.159	-0.014
-376.873	-54.025	0.256	0.118
-375.858	800.000	0.099	0.304
-374.844	309.946	-0.140	-0.265
-373.829	-200.000	-0.017	-0.132
-372.815	-200.000	0.007	0.094
-371.800	118.374	0.069	-0.086
-370.785	-200.000	-0.019	0.188
-369.771	-200.000	-0.008	-0.364
-368.756	99.286	0.052	-0.060
-367.742	-78.241	0.051	-0.018
-366.727	76.203	-0.120	-0.129
-365.712	-60.411	-0.113	-0.048
-364.698	-47.745	-0.173	0.085
-363.683	800.000	-0.065	-0.189
-362.669	172.970	0.059	-0.086
-361.654	-200.000	-0.015	0.073
-360.639	475.179	0.047	-0.108
-359.625	-18.740	-0.088	0.056
-358.610	-15.812	-0.383	0.246
-357.596	-81.821	-0.197	-0.065
-356.581	800.000	-0.153	0.436
-355.566	545.665	-0.109	0.263
-354.552	-200.000	0.049	-0.279
-353.537	4.275	0.283	-0.209
-352.523	-112.669	0.120	0.024
-351.508	126.588	0.075	-0.096
-350.493	-200.000	0.005	-0.224
-349.479	-88.989	-0.234	0.070
-348.464	372.571	-0.116	0.238
-347.450	57.436	-0.290	0.286
-346.435	-200.000	-0.009	0.148
-345.420	800.000	-0.156	0.454
-344.406	120.188	0.006	-0.008
-343.391	-200.000	-0.001	-0.040
-342.377	50.688	-0.331	0.316
-341.362	2.561	-0.303	0.221
-340.348	-200.000	-0.021	0.278
-339.333	70.309	-0.163	0.170
-338.318	396.165	-0.117	-0.246
-337.304	-103.297	0.222	0.053
-336.289	310.908	-0.094	-0.177
-335.275	-46.570	-0.154	-0.076
-334.260	-132.719	0.289	-0.037
-333.245	-50.902	0.193	0.091
-332.231	-48.873	0.129	-0.062
-331.216	-148.225	0.304	-0.025
-330.202	800.000	-0.028	-0.106
-329.187	-5.720	0.201	-0.139
-328.172	-200.000	-0.014	0.106
-327.158	25.863	-0.157	-0.132
-326.143	148.591	-0.133	0.181
-325.129	800.000	0.046	0.144
-324.114	-200.000	-0.033	0.408
-323.099	-134.669	-0.326	-0.040
-322.085	-127.995	-0.133	0.019
-321.070	-27.392	0.111	-0.065
-320.056	-14.299	0.172	-0.112
-319.041	1.616	-0.193	-0.140
-318.026	-67.636	0.108	0.043
-317.012	447.058	0.094	-0.207
-315.997	79.437	0.102	-0.110
-314.983	35.490	-0.282	-0.249
-313.968	0.708	0.210	-0.151
-312.953	-81.579	-0.194	0.064
-311.939	-149.105	0.188	-0.015
-310.924	-98.644	-0.178	-0.046
-309.910	305.460	0.090	0.169
-308.895	-75.167	-0.265	0.096
-307.880	151.121	-0.090	0.123
-306.866	296.986	-0.128	0.237
-305.851	449.445	0.028	-0.063
-304.837	800.000	-0.074	0.264
-303.822	-176.758	-0.153	0.004
-302.807	-136.653	0.013	0.002
-301.793	47.631	-0.133	0.125
-300.778	7.375	0.238	-0.179
-299.764	409.819	-0.163	0.348
-298.749	800.000	0.128	-0.477
-297.735	310.116	-0.125	-0.236
-296.720	187.537	-0.173	0.260
-295.705	-200.000	0.034	-0.184
-294.691	-10.872	-0.443	-0.294
-293.676	-200.000	0.046	0.357
-292.662	800.000	0.076	0.274
-291.647	-117.543	0.177	0.032
-290.632	-42.412	-0.113	-0.058
-289.618	-40.150	0.229	0.120
-288.603	76.011	-0.037	0.039
-287.589	-180.658	0.097	0.002
-286.574	196.357	-0.200	0.306
-285.559	-200.000	-0.031	0.386
-284.545	55.666	-0.230	0.224
-283.530	90.520	-0.217	-0.244
-282.516	-107.536	0.117	-0.026
-281.501	-69.425	0.248	0.096
-280.486	-100.164	-0.431	0.108
-279.472	746.801	-0.059	-0.159
-278.457	800.000	0.025	-0.076
-277.443	800.000	-0.043	-0.133
-276.428	-151.067	-0.209	0.016
-275.413	-167.807	-0.357	0.014
-274.399	-158.697	0.145	0.008
-273.384	-10.054	0.141	0.094
-272.370	800.000	-0.070	-0.207
-271.355	-10.822	0.396	0.263
-270.340	-65.711	0.220	-0.089
-269.326	-200.000	-0.014	-0.130
-268.311	-200.000	-0.008	-0.119
-267.297	-48.647	-0.136	0.066
-266.282	-9.728	0.251	0.168
-265.267	-83.634	-0.166	0.053
-264.253	705.409	0.007	-0.018
-263.238	458.650	0.116	-0.259
-262.224	-32.661	0.378	0.211
-261.209	-139.150	-0.368	0.040
-260.195	-120.641	0.437	0.074
-259.180	-103.561	-0.319	-0.075
-258.165	-107.854	-0.129	0.028
-257.151	-20.491	0.200	0.123
-256.136	237.596	0.351	0.585
-255.122	-173.160	-0.103	0.003
-254.107	-161.634	-0.050	0.003
-253.092	-200.000	0.058	0.447
-252.078	25.390	0.057	-0.047
-251.063	82.834	0.089	-0.097
-250.049	45.013	0.195	-0.180
-249.034	-117.322	-0.105	-0.019
-248.019	-108.223	-0.247	-0.054
-247.005	92.768	-0.145	0.165
-245.990	-200.000	0.025	-0.160
-244.976	-200.000	0.051	-0.380
-243.961	394.906	-0.178	-0.373
-242.946	-29.867	-0.342	-0.196
-241.932	-160.188	0.276	-0.015
-240.917	-27.001	0.283	0.166
-239.903	800.000	0.080	-0.285
-238.888	-200.000	-0.012	0.167
-237.873	800.000	0.019	-0.071
-236.859	12.719	0.204	0.158
-235.844	-125.153	0.050	-0.008
-234.830	800.000	-0.038	-0.160
-233.815	-74.514	0.090	0.033
-232.800	-138.773	-0.149	0.016
-231.786	-27.723	0.343	-0.200
-230.771	282.371	0.069	-0.124
-229.757	-41.814	-0.101	0.052
-228.742	130.545	-0.156	0.201
-227.727	-84.499	0.102	0.032
-226.713	205.445	0.078	0.122
-225.698	233.240	-0.115	-0.191
-224.684	-71.295	-0.040	0.015
-223.669	110.021	0.217	0.261
-222.655	20.961	0.148	-0.120
-221.640	-77.216	0.466	-0.163
-220.625	-160.715	0.193	0.010
-219.611	27.220	0.077	-0.065
-218.596	252.720	0.066	0.113
-217.582	144.605	0.046	-0.061
-216.567	-200.000	-0.031	0.186
-215.552	161.509	-0.214	0.300
-214.538	23.256	-0.387	-0.319
-213.523	-200.000	0.011	-0.084
-212.509	32.182	-0.089	0.077
-211.494	-154.379	0.344	0.023
-210.479	118.793	0.055	-0.069
-209.465	174.370	0.111	0.161
-208.450	-39.661	-0.213	-0.112
-207.436	-24.721	0.245	0.146
-206.421	116.121	0.085	0.105
-205.406	-90.383	-0.310	-0.090
-204.392	160.332	-0.131	0.183
-203.377	355.835	-0.032	-0.064
-202.363	-73.763	0.157	0.057
-201.348	-172.687	0.224	0.007
-200.333	800.000	-0.054	0.230
-199.319	-200.000	-0.021	-0.142
-198.304	800.000	-0.045	-0.181
-197.290	254.240	-0.140	0.240
-196.275	-133.713	0.059	-0.007
-195.260	-167.200	-0.137	-0.006
-194.246	-2.349	0.283	-0.199
-193.231	157.482	-0.016	-0.023
-192.217	-148.609	-0.289	0.024
-191.202	-121.234	-0.348	0.058
-190.187	-150.314	-0.137	0.011
-189.173	-9.915	0.165	-0.110
-188.158	-200.000	0.034	0.221
-187.144	-200.000	0.006	-0.063
-186.129	61.409	-0.226	-0.225
-185.114	13.603	-0.082	-0.064
-184.100	-200.000	-0.027	-0.121
-183.085	26.453	0.190	-0.160
-182.071	-200.000	0.008	-0.230
-181.056	-200.000	0.058	0.256
-180.042	-31.345	0.120	0.068
-179.027	-114.023	-0.219	0.043
-178.012	-200.000	0.021	0.134
-176.998	-200.000	0.015	0.176
-175.983	800.000	-0.142	0.434
-174.969	-19.022	0.242	0.151
-173.954	-127.652	-0.122	0.018
-172.939	-98.871	0.109	-0.028
-171.925	325.885	-0.070	0.134
-170.910	-100.137	-0.207	-0.052
-169.896	30.624	0.133	-0.114
-168.881	473.838	-0.062	-0.140
-167.866	-105.160	0.228	0.052
-166.852	55.212	-0.286	-0.277
-165.837	800.000	0.103	0.287
-164.823	-96.679	0.118	-0.031
-163.808	226.154	-0.077	0.124
-162.793	174.483	-0.051	-0.074
-161.779	131.002	0.265	-0.340
-160.764	52.722	-0.417	0.399
-159.750	800.000	-0.052	0.180
-158.735	-200.000	0.014	0.161
-157.720	-155.060	0.046	0.003
-156.706	-200.000	0.009	0.049
-155.691	99.908	0.223	0.258
-154.677	-115.863	-0.199	0.037
-153.662	79.926	-0.224	-0.241
-152.647	800.000	0.105	0.351
-151.633	311.072	0.123	-0.230
-150.618	237.001	0.206	-0.342
-149.604	-61.793	0.177	0.074
-148.589	800.000	0.088	-0.346
-147.574	-128.194	-0.346	-0.049
-146.560	-41.446	-0.110	-0.057
-145.545	-19.005	0.217	0.135
-144.531	181.549	-0.200	-0.295
-143.516	-29.017	0.282	0.162
-142.502	9.112	0.425	0.322
-141.487	57.276	-0.349	-0.341
-140.472	-200.000	-0.052	-0.439
-139.458	800.000	0.028	0.085
-138.443	-43.299	-0.162	-0.082
-137.429	-117.665	0.487	0.088
-136.414	-200.000	0.031	0.258
-135.399	-115.702	0.119	0.022
-134.385	-200.000	0.016	0.190
-133.370	247.139	0.133	0.224
-132.356	13.581	0.151	-0.117
-131.341	-200.000	0.003	0.392
-130.326	-66.796	-0.136	-0.054
-129.312	-200.000	-0.005	0.285
-128.297	185.225	0.200	-0.296
-127.283	-158.109	0.247	-0.014
-126.268	213.367	-0.076	0.120
-125.253	250.523	-0.174	0.295
-124.239	-134.040	-0.338	0.042
-123.224	53.288	-0.263	-0.252
-122.210	-200.000	-0.032	-0.241
