DTS Sentinel unit serial number:	SN413079Multiplexer serial number:	ORYXHardware model number:	OX4-SRSoftware version number:	ORYX F/W v4.00 Oryx Data Collector v3.7.2.0data status	okinstallation	princeton_trtdifferential loss correction	single-endedforward channel	channel 4reverse channel	N/Adate	2019/09/11time	18:23:11forward acquisition time	60.00reverse acquisition time	0.00gamma	496.2192k internal	0.2275k external	0.2275temperature offset calibration	1.0028default loss term (dB/km)	0.3790temperature slope calibration	1.0000multiplexer offset coefficient	1.0000multiplexer slope coefficient	1.0000fibre end	0.00T internal ref (°C)	43.94T ext. ref 1 (°C)	1.15T ext. ref 2 (°C)	38.33length (m)	temperature (°C)	Stokes	anti-Stokes-747.200	800.000	-0.125	0.359
-746.185	270.397	-0.213	0.387
-745.171	-115.484	-0.183	0.035
-744.156	800.000	-0.024	0.075
-743.142	40.904	-0.245	-0.228
-742.127	313.114	-0.051	-0.099
-741.112	-140.898	0.397	-0.042
-740.098	200.293	0.229	0.363
-739.083	289.176	0.147	0.275
-738.069	41.440	-0.415	0.387
-737.054	125.796	0.190	-0.248
-736.039	511.200	0.096	-0.230
-735.025	-108.999	0.140	0.031
-734.010	-47.205	-0.105	-0.053
-732.996	-25.857	-0.167	0.101
-731.981	-113.511	0.413	-0.083
-730.966	800.000	0.013	-0.041
-729.952	-136.291	-0.461	0.055
-728.937	47.442	0.106	-0.102
-727.923	73.572	0.059	-0.064
-726.908	280.721	0.191	0.352
-725.894	-126.220	-0.296	0.046
-724.879	49.798	0.185	0.179
-723.864	9.295	-0.192	0.150
-722.850	259.583	-0.130	0.231
-721.835	800.000	0.022	-0.084
-720.821	-49.444	-0.191	-0.094
-719.806	-59.359	-0.070	-0.031
-718.791	-200.000	-0.026	-0.157
-717.777	-97.237	-0.117	-0.031
-716.762	484.561	-0.148	0.346
-715.748	296.895	-0.041	0.077
-714.733	-200.000	0.020	-0.637
-713.718	-200.000	0.038	-0.198
-712.704	-40.563	-0.089	-0.048
-711.689	122.414	-0.170	-0.219
-710.675	3.728	0.068	-0.051
-709.660	800.000	0.086	-0.263
-708.645	-200.000	-0.040	-0.228
-707.631	-200.000	0.010	-0.150
-706.616	-49.537	0.323	-0.159
-705.602	-47.641	-0.159	-0.079
-704.587	-0.790	-0.033	0.024
-703.572	-81.934	-0.380	0.128
-702.558	7.308	-0.107	-0.082
-701.543	800.000	-0.144	-0.420
-700.529	800.000	-0.105	-0.313
-699.514	15.105	0.105	0.085
-698.499	189.604	-0.099	0.152
-697.485	408.678	-0.094	-0.204
-696.470	-200.000	-0.008	0.230
-695.456	-10.905	0.326	-0.222
-694.441	203.941	-0.096	0.154
-693.426	-200.000	-0.041	0.210
-692.412	-200.000	-0.024	-0.128
-691.397	-200.000	-0.001	0.015
-690.383	-157.914	0.328	-0.020
-689.368	-134.919	-0.261	-0.032
-688.354	800.000	0.022	-0.062
-687.339	8.551	-0.358	-0.277
-686.324	800.000	0.083	0.246
-685.310	-17.553	-0.221	0.143
-684.295	117.971	-0.101	0.129
-683.281	769.560	-0.039	-0.110
-682.266	9.641	0.300	-0.234
-681.251	490.219	-0.054	-0.127
-680.237	-200.000	-0.013	-0.108
-679.222	-76.019	0.079	0.029
-678.208	-98.312	-0.367	0.097
-677.193	-87.052	-0.242	-0.076
-676.178	-2.094	-0.241	0.174
-675.164	-91.973	-0.105	-0.031
-674.149	-2.632	-0.155	0.111
-673.135	73.694	-0.149	0.161
-672.120	331.657	-0.104	-0.207
-671.105	76.651	0.081	-0.088
-670.091	108.319	-0.099	-0.121
-669.076	417.426	-0.024	0.053
-668.062	133.206	0.181	-0.241
-667.047	4.369	0.121	-0.091
-666.032	-58.256	-0.031	0.014
-665.018	-200.000	0.065	0.356
-664.003	800.000	0.021	0.071
-662.989	-172.583	-0.110	0.004
-661.974	89.993	-0.036	0.041
-660.959	93.175	0.152	0.177
-659.945	581.402	-0.074	-0.186
-658.930	261.130	-0.072	-0.128
-657.916	134.143	-0.235	-0.313
-656.901	-200.000	0.043	-0.344
-655.886	397.464	-0.044	0.094
-654.872	251.260	-0.064	-0.111
-653.857	-62.443	-0.159	0.068
-652.843	-200.000	-0.019	0.149
-651.828	-8.555	-0.241	-0.167
-650.814	-200.000	-0.042	-0.251
-649.799	800.000	-0.119	-0.401
-648.784	149.213	0.108	0.151
-647.770	-95.328	0.093	0.026
-646.755	626.466	0.107	0.279
-645.741	436.263	-0.063	0.142
-644.726	-71.083	0.337	-0.130
-643.711	-200.000	0.012	0.149
-642.697	-129.386	0.263	0.037
-641.682	325.922	0.107	0.209
-640.668	-180.060	-0.143	0.003
-639.653	-40.423	-0.267	-0.143
-638.638	-157.328	0.308	0.019
-637.624	-59.632	0.208	0.092
-636.609	567.714	-0.040	0.099
-635.595	46.406	-0.082	-0.078
-634.580	800.000	-0.020	0.080
-633.565	-34.760	-0.037	0.021
-632.551	800.000	0.034	0.114
-631.536	-169.954	-0.243	0.009
-630.522	441.908	-0.134	0.301
-629.507	-108.158	-0.237	0.053
-628.492	-168.188	0.052	-0.002
-627.478	-21.480	0.142	-0.089
-626.463	-200.000	-0.036	0.614
-625.449	203.820	0.128	-0.203
-624.434	69.927	-0.275	0.291
-623.419	-200.000	-0.002	-0.194
-622.405	-20.397	0.265	0.167
-621.390	128.374	-0.095	-0.125
-620.376	-112.222	-0.137	-0.028
-619.361	-182.039	0.182	-0.004
-618.346	-86.287	-0.235	-0.074
-617.332	-200.000	-0.073	-0.360
-616.317	-103.445	0.155	0.037
-615.303	-125.409	-0.205	-0.032
-614.288	67.591	-0.032	0.033
-613.273	800.000	0.063	0.189
-612.259	188.895	-0.217	-0.333
-611.244	-116.675	-0.124	0.023
-610.230	470.432	0.075	0.172
-609.215	-37.089	0.232	0.128
-608.201	-53.782	-0.224	0.105
-607.186	37.072	-0.333	0.302
-606.171	117.761	-0.105	0.133
-605.157	-73.345	-0.242	0.091
-604.142	122.352	0.244	-0.313
-603.128	65.863	-0.289	-0.301
-602.113	-26.586	0.050	-0.030
-601.098	-192.935	-0.317	-0.003
-600.084	-200.000	0.013	0.070
-599.069	800.000	0.054	0.175
-598.055	-74.278	0.132	0.049
-597.040	-71.088	-0.273	0.105
-596.025	-59.828	0.248	0.109
-595.011	11.663	-0.136	-0.107
-593.996	-23.999	-0.157	-0.096
-592.982	800.000	-0.028	-0.095
-591.967	-33.979	0.236	-0.133
-590.952	-70.098	0.233	0.091
-589.938	258.082	0.140	-0.247
-588.923	219.938	0.042	-0.069
-587.909	-200.000	-0.030	0.240
-586.894	-152.776	-0.096	0.007
-585.879	-200.000	-0.023	-0.111
-584.865	-103.779	-0.172	0.041
-583.850	184.818	-0.242	0.368
-582.836	-106.508	0.117	0.027
-581.821	253.939	0.061	-0.107
-580.806	116.606	0.205	-0.257
-579.792	101.589	0.129	0.154
-578.777	-132.013	-0.136	0.018
-577.763	-160.411	-0.431	0.024
-576.748	-150.326	-0.342	0.027
-575.733	-104.665	0.598	-0.141
-574.719	5.568	-0.218	0.165
-573.704	-200.000	0.015	-0.183
-572.690	-59.987	-0.323	0.141
-571.675	-39.259	-0.220	0.118
-570.661	800.000	0.067	0.266
-569.646	-184.645	-0.207	0.003
-568.631	-200.000	-0.051	-0.393
-567.617	800.000	0.125	-0.469
-566.602	-50.459	-0.328	-0.159
-565.588	-154.922	0.064	0.004
-564.573	-133.952	0.131	0.017
-563.558	168.163	0.037	-0.054
-562.544	390.084	0.165	-0.350
-561.529	526.368	0.043	0.103
-560.515	-200.000	0.041	0.377
-559.500	33.779	-0.290	0.258
-558.485	64.004	0.122	0.125
-557.471	335.372	0.134	0.266
-556.456	-82.215	0.317	-0.106
-555.442	-100.991	0.169	0.042
-554.427	169.457	-0.077	0.113
-553.412	-122.905	-0.084	0.014
-552.398	465.712	0.064	-0.146
-551.383	-69.374	0.192	-0.076
-550.369	800.000	-0.035	0.137
-549.354	-37.990	0.232	0.126
-548.339	435.396	0.095	0.211
-547.325	162.183	-0.114	-0.163
-546.310	-200.000	0.003	-0.131
-545.296	4.691	-0.250	0.188
-544.281	54.411	-0.071	0.070
-543.266	-200.000	0.027	-0.250
-542.252	-68.357	-0.291	0.116
-541.237	-59.957	0.375	0.164
-540.223	-10.183	-0.194	0.132
-539.208	-3.755	0.395	0.281
-538.193	-200.000	0.001	-0.143
-537.179	698.437	0.015	0.040
-536.164	800.000	-0.067	0.239
-535.150	51.751	0.262	0.255
-534.135	137.619	-0.054	0.072
-533.121	-200.000	-0.005	-0.094
-532.106	800.000	0.051	0.192
-531.091	-161.610	-0.139	-0.007
-530.077	-95.031	0.346	-0.096
-529.062	30.486	-0.220	-0.192
-528.048	-200.000	-0.030	0.294
-527.033	511.968	0.087	0.208
-526.018	800.000	-0.064	0.242
-525.004	-200.000	0.013	-0.272
-523.989	2.978	-0.139	0.103
-522.975	-155.062	-0.126	-0.008
-521.960	-200.000	0.070	0.387
-520.945	545.928	-0.142	-0.347
-519.931	-200.000	0.028	0.245
-518.916	-76.255	-0.094	-0.034
-517.902	-133.545	-0.294	-0.038
-516.887	57.715	0.149	0.148
-515.872	84.087	0.055	0.062
-514.858	37.578	0.066	-0.060
-513.843	-39.630	-0.296	-0.158
-512.829	335.304	-0.010	0.020
-511.814	800.000	0.016	0.061
-510.799	128.294	-0.272	-0.353
-509.785	79.409	-0.196	-0.214
-508.770	48.626	0.272	-0.260
-507.756	140.022	-0.155	0.208
-506.741	-76.328	-0.193	0.069
-505.726	272.456	-0.077	-0.139
-504.712	-104.786	-0.147	0.035
-503.697	-21.261	0.325	-0.203
-502.683	16.704	-0.256	0.207
-501.668	16.752	0.370	0.299
-500.653	280.398	-0.126	-0.229
-499.639	-41.311	0.190	-0.100
-498.624	-200.000	-0.020	0.186
-497.610	-200.000	0.024	-0.197
-496.595	-200.000	0.001	-0.054
-495.581	16.862	0.241	0.195
-494.566	-200.000	-0.016	0.235
-493.551	-89.169	-0.159	0.048
-492.537	-82.223	-0.267	-0.089
-491.522	-95.118	-0.158	0.043
-490.508	32.755	0.130	0.115
-489.493	-22.863	-0.091	-0.056
-488.478	418.312	-0.098	-0.214
-487.464	69.061	-0.199	0.208
-486.449	75.094	0.143	0.154
-485.435	136.389	-0.052	0.070
-484.420	-26.567	0.118	0.070
-483.405	248.580	0.064	-0.111
-482.391	366.867	-0.247	-0.508
-481.376	-154.535	-0.325	-0.022
-480.362	-200.000	0.022	-0.263
-479.347	-15.147	0.141	-0.092
-478.332	61.879	0.190	0.193
-477.318	-60.375	0.170	0.074
-476.303	-200.000	-0.067	0.323
-475.289	-200.000	-0.018	-0.270
-474.274	-200.000	-0.014	-0.274
-473.259	800.000	-0.063	0.263
-472.245	63.410	0.174	-0.178
-471.230	-160.857	-0.124	0.007
-470.216	54.661	0.105	0.103
-469.201	-200.000	0.035	0.444
-468.186	56.403	-0.102	0.101
-467.172	800.000	-0.081	-0.325
-466.157	83.643	0.072	0.080
-465.143	-179.611	-0.352	-0.008
-464.128	800.000	-0.071	-0.215
-463.113	751.433	-0.028	-0.077
-462.099	-79.882	0.117	-0.040
-461.084	-131.470	0.141	-0.019
-460.070	800.000	-0.033	0.107
-459.055	139.210	0.087	0.116
-458.040	-112.680	-0.272	0.055
-457.026	-150.131	0.191	-0.015
-456.011	-109.629	-0.361	0.077
-454.997	711.046	-0.105	0.283
-453.982	110.470	0.073	0.089
-452.968	137.796	-0.172	-0.230
-451.953	-200.000	-0.003	0.133
-450.938	98.152	-0.173	-0.203
-449.924	3.609	0.012	-0.009
-448.909	17.899	0.107	-0.087
-447.895	67.248	0.182	-0.189
-446.880	22.489	-0.121	-0.101
-445.865	75.453	0.097	-0.104
-444.851	-12.367	0.330	-0.220
-443.836	-200.000	0.047	-0.356
-442.822	-159.912	0.238	-0.013
-441.807	-142.588	-0.125	-0.012
-440.792	48.987	-0.340	0.326
-439.778	-9.350	0.018	0.012
-438.763	-8.674	0.255	0.174
-437.749	41.662	0.034	0.031
-436.734	-120.658	-0.358	-0.062
-435.719	87.432	-0.170	0.192
-434.705	-39.878	-0.329	-0.175
-433.690	62.374	0.116	0.118
-432.676	222.687	-0.254	-0.418
-431.661	-16.296	0.254	-0.164
-430.646	-93.817	-0.268	0.075
-429.632	-200.000	0.021	-0.127
-428.617	-200.000	-0.000	0.164
-427.603	-200.000	-0.002	-0.261
-426.588	-130.872	0.157	-0.021
-425.573	478.846	0.084	0.193
-424.559	-17.503	0.165	0.106
-423.544	146.279	-0.115	-0.158
-422.530	524.252	0.038	0.091
-421.515	800.000	-0.022	0.082
-420.500	-107.211	-0.127	0.028
-419.486	292.295	-0.025	0.046
-418.471	35.232	0.340	0.304
-417.457	-39.467	-0.080	0.043
-416.442	51.240	-0.107	-0.104
-415.428	-170.194	0.111	0.004
-414.413	496.389	0.072	-0.169
-413.398	-200.000	0.050	-0.390
-412.384	-124.978	0.142	-0.022
-411.369	113.686	-0.118	0.146
-410.355	795.051	-0.109	0.306
-409.340	-25.008	0.103	-0.062
-408.325	-85.372	-0.320	-0.101
-407.311	270.394	-0.084	0.151
-406.296	-117.120	0.201	-0.037
-405.282	-200.000	-0.010	0.047
-404.267	40.796	-0.105	-0.097
-403.252	-200.000	-0.020	-0.261
-402.238	373.951	0.114	0.235
-401.223	-138.158	-0.293	0.033
-400.209	112.881	0.137	-0.169
-399.194	-193.058	-0.130	0.001
-398.179	123.247	-0.264	0.336
-397.165	-200.000	-0.014	-0.190
-396.150	136.911	0.010	0.013
-395.136	29.688	-0.217	0.188
-394.121	613.074	0.095	0.241
-393.106	-118.269	0.016	0.003
-392.092	8.617	0.388	-0.297
-391.077	50.164	-0.388	-0.373
-390.063	259.189	0.054	-0.095
-389.048	-200.000	-0.002	-0.321
-388.033	23.543	-0.035	0.030
-387.019	-21.668	0.315	0.195
-386.004	-174.071	0.307	-0.009
-384.990	-120.156	-0.339	-0.059
-383.975	324.403	-0.022	-0.042
-382.960	-67.848	0.075	-0.030
-381.946	-69.301	0.168	0.066
-380.931	131.992	0.035	-0.046
-379.917	-200.000	-0.301	-0.001
-378.902	-182.789	-0.388	-0.007
-377.888	40.537	0.195	0.178
-376.873	-129.089	0.290	-0.041
-375.858	24.756	0.104	-0.088
-374.844	800.000	-0.042	0.130
-373.829	-87.912	-0.088	0.027
-372.815	127.963	0.160	-0.207
-371.800	433.636	-0.137	0.302
-370.785	-200.000	0.054	-0.717
-369.771	-200.000	-0.022	-0.282
-368.756	503.083	-0.080	-0.189
-367.742	-103.380	0.211	0.050
-366.727	114.766	0.093	-0.116
-365.712	-81.378	0.093	0.031
-364.698	-200.000	0.022	-0.148
-363.683	-59.429	0.339	-0.148
-362.669	800.000	0.030	-0.125
-361.654	118.521	0.125	-0.156
-360.639	-144.571	-0.238	0.022
-359.625	-90.844	-0.180	-0.053
-358.610	209.039	-0.116	-0.184
-357.596	-118.853	-0.152	-0.027
-356.581	-77.186	0.255	0.090
-355.566	462.339	-0.143	0.325
-354.552	155.944	0.053	0.074
-353.537	-29.447	-0.282	-0.164
-352.523	558.482	-0.072	0.176
-351.508	108.127	-0.135	-0.164
-350.493	-200.000	-0.023	-0.272
-349.479	-200.000	-0.029	-0.209
-348.464	-27.280	-0.077	-0.046
-347.450	800.000	0.037	-0.117
-346.435	174.090	-0.067	0.098
-345.420	-200.000	0.024	0.202
-344.406	-154.917	0.239	-0.016
-343.391	382.322	-0.088	-0.184
-342.377	800.000	0.098	0.312
-341.362	245.013	0.137	0.234
-340.348	177.391	-0.090	0.132
-339.333	-3.698	-0.244	0.172
-338.318	800.000	-0.082	-0.236
-337.304	63.369	-0.133	0.136
-336.289	380.611	0.286	0.596
-335.275	-153.563	0.036	0.003
-334.260	17.834	-0.122	0.099
-333.245	127.242	0.094	0.121
-332.231	47.795	-0.117	-0.111
-331.216	781.628	0.046	0.127
-330.202	-41.355	-0.145	-0.076
-329.187	83.476	-0.042	-0.046
-328.172	-56.131	-0.195	-0.088
-327.158	314.300	0.064	-0.123
-326.143	-14.630	0.352	0.230
-325.129	-200.000	0.005	-0.050
-324.114	-200.000	0.040	0.382
-323.099	-123.101	0.315	0.051
-322.085	-91.368	-0.104	-0.030
-321.070	-39.257	0.035	0.019
-320.056	800.000	0.021	0.072
-319.041	-54.231	0.219	-0.101
-318.026	-200.000	-0.041	-0.218
-317.012	-200.000	0.015	0.184
-315.997	114.807	-0.256	-0.317
-314.983	-4.919	0.343	-0.240
-313.968	197.175	-0.030	-0.047
-312.953	104.202	0.096	0.115
-311.939	-32.137	-0.081	-0.046
-310.924	161.252	-0.216	0.306
-309.910	129.638	-0.072	0.094
-308.895	42.050	0.195	-0.180
-307.880	-200.000	-0.002	-0.228
-306.866	-200.000	0.011	0.195
-305.851	292.275	-0.104	0.192
-304.837	-76.828	-0.143	0.051
-303.822	-72.562	0.208	0.078
-302.807	-200.000	0.065	-0.347
-301.793	479.763	0.121	-0.278
-300.778	161.441	0.108	0.154
-299.764	-10.752	0.343	-0.230
-298.749	800.000	0.015	0.050
-297.735	-200.000	-0.005	-0.213
-296.720	61.620	0.198	0.199
-295.705	149.294	-0.102	0.140
-294.691	79.506	-0.121	0.131
-293.676	-3.033	0.132	0.093
-292.662	17.685	0.133	-0.107
-291.647	146.657	-0.205	0.279
-290.632	18.950	0.184	-0.149
-289.618	14.654	-0.139	-0.110
-288.603	-67.956	-0.122	0.048
-287.589	734.254	-0.227	-0.616
-286.574	55.794	-0.192	-0.189
-285.559	242.922	0.111	0.189
-284.545	471.662	-0.139	-0.316
-283.530	737.778	0.074	-0.202
-282.516	-48.182	0.391	0.191
-281.501	-10.821	0.077	0.051
-280.486	-62.085	0.290	-0.123
-279.472	-0.834	0.177	0.127
-278.457	800.000	-0.081	0.261
-277.443	-55.775	0.365	0.165
-276.428	-200.000	0.001	0.110
-275.413	-110.426	0.295	-0.062
-274.399	152.478	0.037	-0.051
-273.384	-110.451	-0.362	-0.076
-272.370	-112.817	-0.194	-0.039
-271.355	-200.000	0.034	0.212
-270.340	59.880	0.069	-0.069
-269.326	55.073	-0.092	-0.090
-268.311	1.026	0.350	0.254
-267.297	-200.000	0.004	-0.191
-266.282	-144.072	0.479	-0.045
-265.267	58.410	0.154	-0.153
-264.253	-200.000	0.018	-0.198
-263.238	-17.872	-0.115	-0.073
-262.224	-7.583	0.118	-0.081
-261.209	-37.049	-0.348	-0.188
-260.195	-200.000	0.035	-0.284
-259.180	-168.448	-0.313	-0.012
-258.165	-74.107	-0.105	0.039
-257.151	42.495	-0.118	-0.109
-256.136	39.158	0.083	-0.075
-255.122	-200.000	0.012	-0.165
-254.107	240.014	0.143	-0.241
-253.092	-32.426	0.234	0.132
-252.078	448.188	-0.002	-0.004
-251.063	0.899	0.459	0.333
-250.049	139.523	0.009	-0.012
-249.034	183.145	-0.156	-0.232
-248.019	-170.408	0.340	0.012
-247.005	259.266	-0.032	-0.056
-245.990	4.880	-0.323	-0.241
-244.976	717.134	-0.101	-0.270
-243.961	151.840	0.109	-0.150
-242.946	800.000	0.085	0.278
-241.932	-132.455	-0.229	0.030
-240.917	16.794	-0.219	-0.175
-239.903	178.281	-0.036	0.054
-238.888	-98.664	0.059	0.015
-237.873	-74.765	0.216	-0.078
-236.859	-31.060	0.115	-0.066
-235.844	-131.071	0.292	-0.039
-234.830	-4.568	0.456	0.318
-233.815	-182.031	0.235	0.004
-232.800	-200.000	-0.044	0.249
-231.786	-1.105	-0.147	0.105
-230.771	-39.687	0.162	-0.086
-229.757	670.023	0.091	-0.239
-228.742	670.778	0.116	0.303
-227.727	-200.000	0.034	0.207
-226.713	120.860	-0.145	0.182
-225.698	-140.443	-0.133	-0.014
-224.684	247.763	0.092	-0.158
-223.669	-78.866	-0.088	0.030
-222.655	128.682	0.088	-0.114
-221.640	-200.000	-0.042	-0.524
-220.625	175.142	-0.130	0.190
-219.611	-120.077	0.056	-0.010
-218.596	800.000	-0.024	0.075
-217.582	-79.428	0.265	0.091
-216.567	-59.034	0.236	0.103
-215.552	-200.000	0.023	-0.171
-214.538	74.362	0.221	0.235
-213.523	-200.000	0.032	0.222
-212.509	-200.000	-0.070	0.358
-211.494	-200.000	-0.065	-0.289
-210.479	-138.789	0.280	-0.031
-209.465	-200.000	-0.008	-0.150
-208.450	199.749	0.122	0.190
-207.436	-122.783	-0.211	0.034
-206.421	-137.375	-0.399	0.046
-205.406	139.427	0.215	0.286
-204.392	86.165	0.049	-0.054
-203.377	-176.961	-0.264	0.007
-202.363	-139.665	-0.088	-0.009
-201.348	800.000	0.064	0.200
-200.333	233.321	-0.042	-0.069
-199.319	-64.650	-0.093	-0.038
-198.304	661.239	-0.098	0.254
-197.290	385.565	0.128	-0.266
-196.275	234.447	0.148	0.246
-195.260	-154.039	0.058	-0.004
-194.246	15.994	0.252	0.200
-193.231	-143.625	0.306	-0.029
-192.217	800.000	-0.038	0.110
-191.202	-102.947	0.405	0.097
-190.187	-44.353	-0.344	-0.174
-189.173	29.011	-0.031	0.026
-188.158	-35.156	0.211	0.116
-187.144	-114.512	-0.133	-0.026
-186.129	57.407	-0.138	0.136
-185.114	213.214	0.188	-0.299
-184.100	138.886	0.246	-0.326
-183.085	-12.116	-0.129	-0.085
-182.071	-50.004	0.175	-0.084
-181.056	365.517	0.068	-0.139
-180.042	-168.681	-0.105	-0.004
-179.027	359.109	-0.073	0.146
-178.012	166.293	-0.104	0.149
-176.998	-200.000	-0.017	-0.422
-175.983	691.914	0.031	0.082
-174.969	-200.000	0.045	0.227
-173.954	-100.367	-0.130	0.033
-172.939	399.021	-0.089	0.187
-171.925	-165.932	-0.333	0.014
-170.910	800.000	0.045	-0.183
-169.896	-200.000	0.048	0.232
-168.881	184.334	0.171	0.255
-167.866	160.054	-0.088	-0.124
-166.852	-172.011	-0.135	-0.004
-165.837	-84.910	-0.154	0.049
-164.823	-36.111	-0.255	-0.139
-163.808	108.485	0.131	-0.158
-162.793	238.159	0.090	-0.151
-161.779	682.021	-0.145	-0.382
-160.764	-138.104	-0.020	0.002
-159.750	-81.173	-0.133	0.044
-158.735	136.418	-0.090	0.119
-157.720	-200.000	0.031	0.232
-156.706	-200.000	0.015	-0.128
-155.691	-110.224	-0.225	0.047
-154.677	800.000	0.020	0.075
-153.662	424.486	-0.063	0.137
-152.647	287.063	-0.027	0.050
-151.633	471.064	0.124	-0.281
-150.618	-90.859	0.065	0.019
-149.604	204.843	-0.156	0.243
-148.589	-59.193	0.146	-0.063
-147.574	405.493	0.085	0.180
-146.560	-127.818	0.281	-0.041
-145.545	-147.083	0.309	0.027
-144.531	-142.173	0.172	0.017
-143.516	73.597	0.236	-0.249
-142.502	-54.896	-0.231	-0.105
-141.487	800.000	0.100	-0.354
-140.472	20.930	0.114	0.093
-139.458	-161.552	-0.206	0.011
-138.443	505.680	-0.173	0.404
-137.429	31.398	0.153	-0.132
-136.414	756.098	0.023	-0.063
-135.399	381.144	-0.050	-0.104
-134.385	-51.542	-0.130	-0.061
-133.370	-200.000	0.002	-0.012
-132.356	-153.088	0.099	0.007
-131.341	-104.072	0.355	-0.083
-130.326	245.598	-0.081	0.137
-129.312	-141.087	0.171	0.018
-128.297	-157.181	0.081	0.005
-127.283	-200.000	0.017	0.342
-126.268	94.849	-0.161	-0.184
-125.253	-142.769	0.257	-0.025
-124.239	-123.519	0.084	0.013
-123.224	693.113	-0.071	-0.188
-122.210	25.629	0.055	-0.046
-121.195	-47.048	-0.387	0.190
