DTS Sentinel unit serial number:	SN413079Multiplexer serial number:	ORYXHardware model number:	OX4-SRSoftware version number:	ORYX F/W v4.00 Oryx Data Collector v3.7.2.0data status	okinstallation	princeton_trtdifferential loss correction	single-endedforward channel	channel 4reverse channel	N/Adate	2019/09/12time	04:59:11forward acquisition time	60.00reverse acquisition time	0.00gamma	496.2192k internal	0.2309k external	0.2309temperature offset calibration	1.0074default loss term (dB/km)	0.3790temperature slope calibration	1.0000multiplexer offset coefficient	1.0000multiplexer slope coefficient	1.0000fibre end	0.00T internal ref (°C)	31.72T ext. ref 1 (°C)	1.76T ext. ref 2 (°C)	27.06length (m)	temperature (°C)	Stokes	anti-Stokes-747.200	631.346	0.135	-0.347
-746.185	-200.000	-0.001	0.382
-745.171	-200.000	-0.021	0.268
-744.156	-55.783	-0.336	0.152
-743.142	108.560	0.242	0.294
-742.127	-200.000	-0.104	0.477
-741.112	-109.778	0.420	0.090
-740.098	94.074	0.043	0.050
-739.083	132.084	-0.132	0.173
-738.069	-24.248	-0.017	0.011
-737.054	800.000	-0.029	0.108
-736.039	-81.892	-0.149	-0.050
-735.025	-151.521	0.090	-0.007
-734.010	-70.545	-0.164	0.063
-732.996	-61.861	-0.184	-0.078
-731.981	81.833	-0.114	0.126
-730.966	-99.207	0.204	-0.052
-729.952	-112.733	0.081	-0.016
-728.937	-67.177	-0.182	-0.073
-727.923	-159.961	-0.296	-0.016
-726.908	215.558	-0.014	0.023
-725.894	96.588	-0.280	0.325
-724.879	432.858	0.086	0.190
-723.864	145.415	0.020	0.027
-722.850	-62.768	0.235	-0.099
-721.835	11.809	-0.140	0.109
-720.821	-200.000	-0.073	-0.456
-719.806	46.057	0.112	-0.105
-718.791	-200.000	-0.039	-0.283
-717.777	-98.084	0.104	0.027
-716.762	283.531	-0.142	-0.259
-715.748	7.388	0.147	-0.112
-714.733	-35.181	-0.259	0.143
-713.718	800.000	-0.019	-0.063
-712.704	468.999	0.071	-0.162
-711.689	-200.000	0.040	-0.272
-710.675	262.960	0.260	-0.458
-709.660	116.915	-0.127	-0.158
-708.645	-20.060	-0.224	-0.140
-707.631	-138.688	-0.125	0.014
-706.616	-200.000	-0.010	-0.212
-705.602	123.044	-0.213	0.271
-704.587	-200.000	0.086	-0.436
-703.572	72.725	-0.022	0.023
-702.558	800.000	0.029	0.092
-701.543	80.845	-0.129	0.141
-700.529	-169.442	-0.229	0.008
-699.514	-104.543	-0.351	-0.082
-698.499	800.000	-0.056	0.166
-697.485	-200.000	-0.004	0.086
-696.470	800.000	0.152	-0.474
-695.456	-73.132	-0.311	-0.115
-694.441	197.430	0.038	0.059
-693.426	-71.219	0.262	-0.100
-692.412	-109.350	-0.265	0.057
-691.397	-200.000	-0.012	-0.095
-690.383	-121.761	0.101	0.017
-689.368	42.893	-0.223	-0.206
-688.354	-11.031	-0.149	-0.100
-687.339	800.000	-0.098	-0.295
-686.324	-144.618	-0.117	-0.011
-685.310	38.776	-0.111	-0.101
-684.295	369.914	0.249	-0.510
-683.281	-116.570	-0.044	-0.008
-682.266	-8.015	-0.341	-0.233
-681.251	276.739	-0.053	0.096
-680.237	456.241	-0.090	0.202
-679.222	396.529	-0.051	-0.108
-678.208	-107.205	0.081	-0.018
-677.193	-200.000	-0.020	0.150
-676.178	-23.508	-0.314	-0.191
-675.164	-53.266	-0.092	-0.043
-674.149	-200.000	0.049	0.237
-673.135	-200.000	0.014	0.196
-672.120	8.162	-0.205	0.156
-671.105	-93.897	-0.209	0.058
-670.091	-58.606	0.088	-0.039
-669.076	800.000	-0.071	-0.310
-668.062	-79.768	-0.028	0.009
-667.047	335.647	-0.042	-0.082
-666.032	-57.504	0.143	0.064
-665.018	274.188	-0.028	-0.050
-664.003	225.699	0.125	0.206
-662.989	-79.352	0.135	0.046
-661.974	-200.000	0.095	0.527
-660.959	-183.883	0.222	-0.004
-659.945	39.813	-0.235	-0.214
-658.930	800.000	0.147	0.462
-657.916	-200.000	0.012	-0.073
-656.901	-200.000	0.008	-0.337
-655.886	85.578	-0.162	-0.180
-654.872	-23.008	0.302	0.184
-653.857	-200.000	-0.051	0.242
-652.843	-77.916	-0.197	0.069
-651.828	57.383	0.088	-0.087
-650.814	727.682	0.073	-0.197
-649.799	-19.521	-0.233	-0.146
-648.784	-200.000	0.041	0.503
-647.770	71.564	0.047	-0.049
-646.755	800.000	0.116	-0.364
-645.741	0.866	0.302	0.219
-644.726	134.355	0.102	-0.134
-643.711	-25.868	0.415	-0.247
-642.697	211.036	-0.154	0.244
-641.682	598.802	-0.047	-0.119
-640.668	43.677	0.171	-0.159
-639.653	-55.182	0.305	-0.139
-638.638	-194.358	-0.117	0.001
-637.624	148.283	0.026	0.035
-636.609	-85.440	-0.232	-0.073
-635.595	114.080	-0.154	0.190
-634.580	-49.539	0.208	-0.100
-633.565	800.000	-0.061	-0.270
-632.551	42.644	-0.070	-0.064
-631.536	489.114	0.046	-0.106
-630.522	86.275	0.146	0.162
-629.507	33.228	-0.125	0.109
-628.492	68.646	0.223	-0.231
-627.478	-60.861	0.305	-0.130
-626.463	-75.492	0.121	0.044
-625.449	117.195	0.083	-0.103
-624.434	-32.770	0.240	-0.135
-623.419	212.130	-0.093	-0.149
-622.405	-128.691	-0.223	0.032
-621.390	-181.375	-0.163	-0.003
-620.376	800.000	0.004	-0.011
-619.361	-74.416	0.222	-0.081
-618.346	227.880	0.084	-0.138
-617.332	128.125	0.121	-0.156
-616.317	-75.117	-0.267	-0.097
-615.303	-200.000	-0.029	0.399
-614.288	-17.575	-0.104	0.066
-613.273	247.369	-0.212	0.362
-612.259	-103.676	-0.339	-0.080
-611.244	-200.000	-0.019	-0.187
-610.230	144.179	0.072	-0.097
-609.215	-70.995	-0.256	-0.097
-608.201	35.599	-0.147	-0.130
-607.186	-67.517	-0.014	0.005
-606.171	-39.533	-0.184	-0.097
-605.157	-53.317	-0.151	-0.070
-604.142	800.000	-0.060	-0.172
-603.128	452.160	-0.084	-0.188
-602.113	214.733	-0.086	-0.138
-601.098	-200.000	0.066	-0.308
-600.084	239.054	0.092	-0.155
-599.069	-111.304	0.030	0.006
-598.055	566.070	0.139	0.341
-597.040	-200.000	0.011	-0.066
-596.025	82.851	-0.349	0.383
-595.011	68.680	-0.096	-0.099
-593.996	800.000	0.026	0.094
-592.982	-31.756	-0.081	0.046
-591.967	-80.555	0.363	0.122
-590.952	-200.000	0.046	0.240
-589.938	-129.887	0.214	0.030
-588.923	-52.616	-0.054	-0.025
-587.909	-154.498	0.089	0.006
-586.894	18.500	0.380	0.306
-585.879	800.000	0.054	-0.225
-584.865	-1.763	-0.213	-0.152
-583.850	-200.000	-0.020	-0.313
-582.836	-110.121	-0.406	-0.086
-581.821	-62.034	0.050	-0.021
-580.806	16.294	0.325	-0.259
-579.792	-200.000	0.074	-0.401
-578.777	2.583	-0.218	-0.159
-577.763	-108.090	0.169	-0.037
-576.748	188.487	0.152	0.229
-575.733	788.395	-0.113	0.314
-574.719	-200.000	0.017	-0.206
-573.704	67.419	0.280	-0.288
-572.690	-109.668	0.376	0.080
-571.675	448.641	-0.201	0.446
-570.661	800.000	-0.078	0.227
-569.646	5.040	-0.098	-0.073
-568.631	800.000	-0.051	-0.144
-567.617	22.770	0.298	0.247
-566.602	800.000	0.147	0.417
-565.588	-200.000	-0.002	-0.350
-564.573	-200.000	0.014	-0.231
-563.558	31.934	0.139	-0.121
-562.544	-110.849	-0.213	-0.044
-561.529	-200.000	0.054	0.303
-560.515	-33.911	-0.318	0.177
-559.500	-109.157	-0.277	0.059
-558.485	-5.635	-0.267	-0.185
-557.471	-44.681	-0.112	-0.057
-556.456	-200.000	-0.016	0.113
-555.442	-130.966	-0.278	0.037
-554.427	712.512	-0.063	0.168
-553.412	-165.250	0.102	-0.005
-552.398	-105.477	0.152	-0.035
-551.383	-114.585	-0.197	0.038
-550.369	-200.000	-0.054	-0.430
-549.354	21.058	0.060	0.049
-548.339	-200.000	-0.023	0.317
-547.325	-200.000	0.033	-0.166
-546.310	545.554	0.097	-0.235
-545.296	-96.517	-0.212	0.056
-544.281	-69.116	0.197	-0.076
-543.266	7.977	-0.088	0.067
-542.252	-176.633	-0.472	0.012
-541.237	-12.293	0.098	0.065
-540.223	-124.782	-0.176	-0.027
-539.208	-108.077	0.147	-0.032
-538.193	71.110	-0.111	-0.116
-537.179	-200.000	-0.016	-0.145
-536.164	-79.736	-0.238	0.081
-535.150	-4.709	0.132	-0.092
-534.135	-123.920	0.058	0.009
-533.121	800.000	-0.123	-0.400
-532.106	199.484	0.140	-0.216
-531.091	193.253	-0.069	-0.105
-530.077	-71.207	0.190	0.072
-529.062	603.933	0.100	-0.250
-528.048	112.842	0.094	-0.115
-527.033	600.673	-0.098	0.244
-526.018	-55.981	-0.307	0.138
-525.004	117.192	0.173	-0.214
-523.989	-90.987	-0.294	-0.085
-522.975	71.275	-0.201	-0.210
-521.960	-114.966	0.175	0.034
-520.945	-124.022	-0.348	-0.055
-519.931	-200.000	-0.055	-0.242
-518.916	-65.732	0.103	-0.042
-517.902	726.861	-0.117	0.314
-516.887	-157.912	0.098	0.006
-515.872	308.385	-0.037	0.070
-514.858	2.339	0.266	0.193
-513.843	-200.000	-0.073	-0.377
-512.829	-86.427	-0.270	-0.084
-511.814	-27.612	-0.218	0.127
-510.799	-46.598	0.149	-0.073
-509.785	-200.000	0.035	0.216
-508.770	-187.158	-0.330	-0.005
-507.756	-49.773	0.234	0.112
-506.741	56.842	-0.101	0.099
-505.726	-34.573	-0.071	0.039
-504.712	404.428	0.014	-0.029
-503.697	680.706	0.070	0.185
-502.683	-62.467	-0.202	0.084
-501.668	-151.145	-0.152	0.011
-500.653	103.198	0.285	0.337
-499.639	-200.000	0.019	-0.109
-498.624	16.419	0.247	0.196
-497.610	-200.000	-0.020	-0.239
-496.595	-48.903	0.134	-0.065
-495.581	-139.330	0.211	-0.023
-494.566	16.247	0.165	-0.131
-493.551	-200.000	-0.041	-0.197
-492.537	324.380	-0.162	0.312
-491.522	66.321	0.198	-0.202
-490.508	59.974	-0.146	-0.145
-489.493	-132.704	0.312	0.040
-488.478	102.716	-0.121	0.143
-487.464	-21.858	-0.267	-0.163
-486.449	-200.000	-0.055	0.362
-485.435	6.137	-0.176	0.131
-484.420	-112.381	0.269	-0.054
-483.405	-95.860	0.268	-0.072
-482.391	-72.598	-0.169	-0.063
-481.376	205.660	0.145	0.227
-480.362	-58.155	0.127	0.055
-479.347	147.529	0.184	0.249
-478.332	169.484	-0.067	0.096
-477.318	302.607	0.222	0.413
-476.303	-10.129	-0.264	0.176
-475.289	1.167	-0.202	-0.146
-474.274	-200.000	-0.004	0.237
-473.259	-45.745	0.477	0.237
-472.245	327.320	0.202	-0.390
-471.230	-95.809	-0.226	0.061
-470.216	800.000	-0.054	-0.158
-469.201	-139.402	-0.146	0.016
-468.186	-200.000	0.022	0.267
-467.172	1.751	0.377	0.273
-466.157	-93.175	-0.270	-0.076
-465.143	700.096	0.071	0.188
-464.128	800.000	-0.109	0.400
-463.113	80.215	0.243	0.262
-462.099	44.640	0.031	0.028
-461.084	-151.965	-0.232	-0.017
-460.070	76.255	0.103	0.109
-459.055	-43.097	-0.057	0.029
-458.040	725.389	-0.034	0.091
-457.026	267.672	-0.106	-0.186
-456.011	301.195	-0.122	0.227
-454.997	43.834	-0.198	0.183
-453.982	-200.000	-0.022	-0.116
-452.968	204.069	-0.129	-0.200
-451.953	-200.000	0.023	0.241
-450.938	657.174	-0.136	-0.351
-449.924	77.120	-0.141	0.150
-448.909	-69.545	-0.169	0.065
-447.895	464.026	0.063	-0.142
-446.880	-155.555	-0.397	-0.026
-445.865	-86.508	0.219	-0.067
-444.851	43.861	-0.178	-0.164
-443.836	-200.000	0.052	-0.385
-442.822	-116.662	0.106	0.019
-441.807	146.602	-0.047	-0.063
-440.792	-67.817	0.309	-0.121
-439.778	221.902	-0.051	0.082
-438.763	-200.000	-0.041	0.417
-437.749	-123.829	-0.331	-0.053
-436.734	-123.920	-0.474	-0.075
-435.719	89.120	0.201	0.224
-434.705	-60.393	-0.306	-0.131
-433.690	-40.166	-0.378	-0.197
-432.676	-128.822	-0.213	0.030
-431.661	71.882	0.170	0.178
-430.646	-88.855	-0.065	0.019
-429.632	7.046	0.311	0.232
-428.617	777.925	-0.083	0.229
-427.603	-43.195	-0.325	-0.165
-426.588	71.649	0.054	0.056
-425.573	32.314	-0.204	-0.177
-424.559	-200.000	0.020	-0.163
-423.544	35.929	0.149	-0.131
-422.530	-77.387	-0.278	-0.097
-421.515	487.215	0.098	0.224
-420.500	-200.000	-0.018	-0.096
-419.486	-127.327	0.072	0.011
-418.471	-126.275	-0.149	-0.022
-417.457	521.401	-0.161	0.379
-416.442	-200.000	0.002	-0.195
-415.428	-6.451	0.152	-0.104
-414.413	184.688	0.148	0.219
-413.398	800.000	-0.029	0.092
-412.384	-69.054	0.281	-0.109
-411.369	-35.880	0.048	0.026
-410.355	-200.000	-0.032	0.179
-409.340	466.979	0.080	0.180
-408.325	-48.531	0.227	-0.110
-407.311	-200.000	-0.043	0.216
-406.296	-56.893	0.218	-0.097
-405.282	-149.622	0.029	-0.002
-404.267	-134.525	0.143	-0.017
-403.252	205.237	-0.006	0.009
-402.238	800.000	-0.013	-0.052
-401.223	-73.097	-0.149	0.055
-400.209	507.938	-0.049	0.114
-399.194	-125.296	-0.255	-0.039
-398.179	-141.498	0.151	-0.015
-397.165	-46.528	0.217	0.107
-396.150	273.301	0.305	0.540
-395.136	6.127	0.166	0.123
-394.121	-14.801	-0.150	-0.097
-393.106	800.000	0.062	0.175
-392.092	-101.729	0.137	-0.033
-391.077	-200.000	0.009	-0.360
-390.063	-120.730	0.220	-0.037
-389.048	-37.093	0.193	0.103
-388.033	-75.074	0.492	0.176
-387.019	-94.544	0.408	0.111
-386.004	91.500	0.092	0.103
-384.990	-200.000	-0.004	-0.055
-383.975	800.000	0.076	-0.258
-382.960	-74.648	-0.178	-0.064
-381.946	-12.180	0.079	0.052
-380.931	-48.312	-0.069	0.033
-379.917	-122.662	-0.221	0.036
-378.902	-200.000	-0.034	-0.197
-377.888	232.588	-0.032	-0.053
-376.873	-179.888	-0.094	-0.002
-375.858	-200.000	-0.041	0.435
-374.844	-200.000	-0.026	-0.267
-373.829	203.770	0.221	-0.342
-372.815	-200.000	-0.011	-0.084
-371.800	114.310	0.251	0.306
-370.785	-124.350	0.344	0.054
-369.771	-11.324	0.192	0.127
-368.756	214.075	-0.164	-0.260
-367.742	-150.952	-0.179	0.014
-366.727	800.000	0.057	0.238
-365.712	32.113	-0.336	0.290
-364.698	-200.000	0.007	0.069
-363.683	171.339	0.179	0.256
-362.669	-90.745	-0.085	0.025
-361.654	3.178	0.286	-0.208
-360.639	-59.966	-0.235	-0.100
-359.625	-107.931	0.073	0.016
-358.610	132.594	0.148	-0.191
-357.596	409.013	0.172	-0.365
-356.581	-90.130	0.149	0.043
-355.566	-200.000	0.018	0.147
-354.552	668.258	0.100	-0.258
-353.537	-200.000	-0.059	-0.334
-352.523	-27.868	-0.174	-0.101
-351.508	800.000	-0.033	-0.134
-350.493	-13.369	-0.032	0.021
-349.479	-7.448	0.090	0.061
-348.464	393.576	0.141	0.293
-347.450	-200.000	0.013	0.273
-346.435	40.247	0.128	0.116
-345.420	253.696	-0.138	0.236
-344.406	-39.258	-0.272	-0.143
-343.391	38.828	0.287	-0.257
-342.377	-200.000	0.019	0.171
-341.362	24.627	0.128	-0.106
-340.348	78.884	-0.130	0.139
-339.333	-103.961	0.148	0.035
-338.318	504.148	0.120	0.278
-337.304	-107.757	0.231	-0.050
-336.289	800.000	-0.039	0.116
-335.275	245.517	0.165	-0.278
-334.260	-110.534	-0.341	0.071
-333.245	-69.284	0.293	0.113
-332.231	244.408	0.246	0.413
-331.216	22.125	0.083	0.067
-330.202	-200.000	0.025	-0.167
-329.187	-80.271	-0.057	-0.019
-328.172	7.324	0.142	-0.106
-327.158	-35.918	0.098	-0.053
-326.143	168.095	-0.179	0.255
-325.129	227.552	0.064	-0.103
-324.114	14.930	0.011	-0.009
-323.099	-42.515	-0.137	0.070
-322.085	-117.217	0.268	0.049
-321.070	-52.417	-0.189	-0.087
-320.056	169.515	0.153	-0.218
-319.041	323.312	-0.107	0.204
-318.026	84.502	0.107	0.117
-317.012	412.892	-0.098	0.208
-315.997	800.000	-0.094	0.289
-314.983	90.285	-0.155	0.174
-313.968	800.000	0.018	0.062
-312.953	29.384	-0.200	0.170
-311.939	-200.000	0.021	-0.210
-310.924	163.515	0.170	-0.238
-309.910	-36.680	0.117	-0.063
-308.895	50.039	0.146	0.138
-307.880	60.701	-0.149	-0.148
-306.866	-43.358	-0.062	0.031
-305.851	23.541	-0.111	-0.091
-304.837	-180.089	-0.226	0.005
-303.822	-39.139	0.054	-0.028
-302.807	800.000	-0.098	-0.362
-301.793	678.324	0.086	0.222
-300.778	159.282	-0.116	0.161
-299.764	800.000	0.045	-0.135
-298.749	-47.661	0.262	-0.127
-297.735	-41.506	-0.104	0.054
-296.720	185.941	0.176	0.261
-295.705	1.953	0.089	-0.064
-294.691	-200.000	0.027	0.398
-293.676	45.895	-0.154	0.142
-292.662	576.365	-0.069	-0.168
-291.647	373.585	0.123	-0.250
-290.632	19.546	0.025	-0.020
-289.618	800.000	-0.022	-0.096
-288.603	800.000	0.075	0.325
-287.589	800.000	0.061	-0.252
-286.574	591.266	0.074	0.182
-285.559	-123.818	0.490	-0.077
-284.545	-103.652	0.480	-0.112
-283.530	800.000	-0.039	-0.158
-282.516	-20.616	-0.427	-0.262
-281.501	26.399	0.221	0.184
-280.486	800.000	0.053	0.169
-279.472	-175.473	-0.473	-0.013
-278.457	-40.464	-0.197	0.102
-277.443	99.627	-0.039	-0.045
-276.428	-200.000	0.018	0.251
-275.413	-200.000	0.005	-0.120
-274.399	-36.297	0.239	-0.129
-273.384	251.599	-0.234	-0.397
-272.370	-16.714	-0.220	0.139
-271.355	336.135	0.101	-0.195
-270.340	-200.000	-0.017	-0.164
-269.326	333.471	-0.201	0.388
-268.311	201.764	0.003	-0.005
-267.297	82.053	-0.184	-0.199
-266.282	-174.480	-0.165	-0.005
-265.267	-136.253	0.208	0.024
-264.253	109.145	0.274	-0.327
-263.238	800.000	0.048	0.136
-262.224	259.017	-0.050	0.086
-261.209	304.259	-0.084	-0.155
-260.195	526.206	-0.066	0.156
-259.180	3.701	0.229	0.167
-258.165	-137.638	-0.260	-0.029
-257.151	-144.878	0.261	0.024
-256.136	800.000	-0.048	0.175
-255.122	105.056	-0.201	0.236
-254.107	245.290	-0.083	0.140
-253.092	-55.955	-0.026	-0.012
-252.078	-29.859	0.118	-0.067
-251.063	671.643	0.078	0.202
-250.049	-120.078	-0.120	-0.020
-249.034	77.117	-0.246	0.261
-248.019	-54.702	0.178	-0.080
-247.005	91.309	0.118	0.132
-245.990	800.000	-0.052	-0.149
-244.976	41.995	-0.225	-0.203
-243.961	800.000	0.045	-0.130
-242.946	36.989	-0.199	-0.175
-241.932	30.821	-0.122	0.104
-240.917	-174.840	-0.120	-0.003
-239.903	-75.779	0.323	0.114
-238.888	-80.503	-0.302	0.100
-237.873	-59.605	-0.319	0.136
-236.859	547.756	0.144	0.343
-235.844	-200.000	0.020	0.235
-234.830	-200.000	0.053	-0.238
-233.815	-171.633	0.094	-0.003
-232.800	-200.000	0.012	0.303
-231.786	89.854	-0.306	0.340
-230.771	3.033	0.203	0.147
-229.757	26.979	0.126	0.106
-228.742	43.135	-0.359	-0.326
-227.727	139.682	0.219	-0.287
-226.713	800.000	-0.054	-0.152
-225.698	-45.571	0.128	0.063
-224.684	-200.000	-0.137	0.000
-223.669	-44.843	-0.197	0.098
-222.655	30.865	0.044	0.038
-221.640	-20.344	0.146	0.090
-220.625	-200.000	-0.061	-0.394
-219.611	312.575	-0.105	0.196
-218.596	-74.936	0.133	0.048
-217.582	-200.000	-0.005	-0.100
-216.567	-46.173	0.081	-0.039
-215.552	-170.046	-0.033	-0.001
-214.538	800.000	-0.038	0.161
-213.523	800.000	0.091	-0.387
-212.509	-200.000	-0.008	-0.055
-211.494	770.574	0.047	-0.127
-210.479	24.536	-0.247	0.203
-209.465	-88.498	-0.108	0.032
-208.450	800.000	0.093	-0.300
-207.436	-200.000	0.038	0.506
-206.421	-200.000	0.058	0.313
-205.406	-200.000	0.070	-0.603
-204.392	564.107	0.112	0.269
-203.377	-200.000	-0.037	-0.164
-202.363	292.935	0.091	0.165
-201.348	152.211	-0.121	0.165
-200.333	224.189	0.135	0.217
-199.319	8.460	-0.132	-0.099
-198.304	738.306	0.009	-0.024
-197.290	155.268	0.168	0.230
-196.275	37.158	-0.090	-0.079
-195.260	800.000	0.011	-0.046
-194.246	22.377	0.197	0.160
-193.231	800.000	0.025	-0.094
-192.217	-63.846	0.283	0.115
-191.202	135.447	-0.133	-0.172
-190.187	-125.959	0.276	-0.041
-189.173	-200.000	-0.031	-0.145
-188.158	-55.975	-0.323	-0.143
-187.144	-0.371	-0.127	-0.090
-186.129	24.141	0.402	-0.330
-185.114	-64.873	-0.193	0.078
-184.100	-105.956	-0.306	-0.069
-183.085	-200.000	-0.004	0.108
-182.071	129.018	0.182	0.231
-181.056	-111.731	-0.083	0.017
-180.042	21.465	0.041	-0.033
-179.027	17.593	0.215	0.170
-178.012	-118.709	-0.360	-0.063
-176.998	484.841	-0.055	0.124
-175.983	800.000	-0.070	-0.299
-174.969	-94.471	-0.177	0.048
-173.954	191.303	-0.187	-0.280
-172.939	114.010	-0.094	-0.114
-171.925	-64.516	0.175	-0.071
-170.910	369.836	-0.242	-0.486
-169.896	800.000	0.040	-0.124
-168.881	-144.113	-0.322	-0.030
-167.866	-200.000	-0.003	-0.259
-166.852	55.539	0.114	0.110
-165.837	-36.979	-0.120	-0.064
-164.823	5.104	-0.303	-0.221
-163.808	-48.565	0.230	0.110
-162.793	110.942	0.262	-0.313
-161.779	-100.953	-0.177	-0.043
-160.764	-105.045	0.190	0.043
-159.750	-150.550	-0.044	0.003
-158.735	79.039	-0.168	-0.178
-157.720	306.301	0.110	-0.203
-156.706	-200.000	-0.014	-0.177
-155.691	-16.668	-0.020	-0.013
-154.677	97.190	0.131	0.149
-153.662	-111.689	0.138	-0.028
-152.647	712.855	-0.079	-0.207
-151.633	-158.211	0.150	-0.009
-150.618	-82.106	-0.339	-0.110
-149.604	-162.499	0.129	-0.006
-148.589	-160.435	-0.136	-0.007
-147.574	-200.000	-0.053	0.557
-146.560	-138.176	0.581	-0.064
-145.545	288.437	-0.115	-0.206
-144.531	-200.000	-0.042	0.323
-143.516	107.658	-0.160	0.189
-142.502	-156.267	0.027	0.002
-141.487	41.692	0.057	-0.051
-140.472	73.743	-0.160	0.166
-139.458	502.993	-0.027	-0.063
-138.443	-200.000	0.017	0.112
-137.429	800.000	0.146	0.568
-136.414	800.000	-0.059	0.249
-135.399	-140.444	-0.202	0.021
-134.385	-200.000	-0.002	-0.220
-133.370	-200.000	0.014	0.256
-132.356	800.000	0.016	0.053
-131.341	110.590	0.029	0.034
-130.326	-144.751	0.316	-0.029
-129.312	800.000	-0.053	0.190
-128.297	-200.000	0.017	0.281
-127.283	247.103	0.126	-0.210
-126.268	-104.207	0.283	0.065
-125.253	-95.114	-0.300	-0.080
-124.239	-52.402	0.334	-0.153
-123.224	131.385	0.210	-0.267
-122.210	594.070	-0.105	-0.258
-121.195	-200.000	0.004	0.110
