DTS Sentinel unit serial number:	SN413079Multiplexer serial number:	ORYXHardware model number:	OX4-SRSoftware version number:	ORYX F/W v4.00 Oryx Data Collector v3.7.2.0data status	okinstallation	princeton_trtdifferential loss correction	single-endedforward channel	channel 4reverse channel	N/Adate	2019/09/12time	04:35:11forward acquisition time	60.00reverse acquisition time	0.00gamma	496.2192k internal	0.2311k external	0.2311temperature offset calibration	1.0137default loss term (dB/km)	0.3790temperature slope calibration	1.0000multiplexer offset coefficient	1.0000multiplexer slope coefficient	1.0000fibre end	0.00T internal ref (°C)	31.62T ext. ref 1 (°C)	2.79T ext. ref 2 (°C)	26.84length (m)	temperature (°C)	Stokes	anti-Stokes-747.200	13.516	0.179	0.141
-746.185	-200.000	0.039	0.413
-745.171	-200.000	-0.071	0.394
-744.156	-200.000	-0.001	0.091
-743.142	-40.145	-0.310	0.164
-742.127	-53.944	0.233	0.108
-741.112	133.033	-0.348	-0.456
-740.098	-200.000	-0.009	-0.056
-739.083	671.350	0.068	-0.178
-738.069	-200.000	-0.019	0.179
-737.054	-200.000	0.019	0.189
-736.039	145.828	0.106	-0.144
-735.025	800.000	0.076	0.247
-734.010	188.496	-0.208	-0.315
-732.996	800.000	0.028	0.118
-731.981	800.000	-0.113	0.408
-730.966	-125.761	-0.319	-0.049
-729.952	800.000	-0.067	-0.274
-728.937	800.000	0.048	0.201
-727.923	-200.000	0.026	0.179
-726.908	-89.552	0.152	-0.045
-725.894	-67.017	-0.272	-0.109
-724.879	-169.952	-0.358	-0.013
-723.864	-22.450	0.021	0.013
-722.850	-29.865	0.189	0.109
-721.835	-200.000	0.015	0.069
-720.821	34.501	-0.208	-0.184
-719.806	238.915	-0.150	0.252
-718.791	-127.371	-0.313	0.046
-717.777	291.432	-0.138	-0.255
-716.762	-100.508	0.284	0.071
-715.748	536.486	-0.023	0.055
-714.733	-200.000	-0.010	0.199
-713.718	-58.805	0.053	-0.023
-712.704	-55.073	-0.125	0.057
-711.689	-30.705	-0.222	0.127
-710.675	-5.932	0.386	0.268
-709.660	127.416	-0.114	0.147
-708.645	-112.688	0.437	0.088
-707.631	-112.193	-0.280	0.057
-706.616	-27.428	0.157	0.093
-705.602	-128.599	-0.118	0.017
-704.587	-200.000	0.032	0.166
-703.572	-10.757	0.091	0.061
-702.558	-200.000	-0.027	-0.205
-701.543	800.000	0.084	0.243
-700.529	-200.000	0.064	0.288
-699.514	-35.009	-0.129	0.071
-698.499	-102.449	-0.048	-0.012
-697.485	-200.000	0.006	0.205
-696.470	-115.510	-0.146	-0.028
-695.456	28.411	0.150	-0.128
-694.441	-16.129	-0.240	-0.155
-693.426	396.427	-0.082	-0.174
-692.412	35.418	0.038	0.034
-691.397	-62.939	-0.218	0.091
-690.383	3.889	-0.213	-0.158
-689.368	109.929	0.021	-0.026
-688.354	102.211	-0.233	-0.276
-687.339	123.287	0.155	-0.196
-686.324	-153.169	0.118	-0.008
-685.310	478.295	-0.023	0.052
-684.295	-200.000	0.035	-0.239
-683.281	800.000	-0.080	-0.231
-682.266	-34.207	-0.205	-0.114
-681.251	-62.958	0.095	-0.040
-680.237	-17.446	-0.117	0.074
-679.222	64.036	-0.177	0.180
-678.208	454.466	-0.185	-0.416
-677.193	-68.872	-0.343	-0.134
-676.178	-104.575	0.278	0.065
-675.164	800.000	0.024	0.104
-674.149	-32.785	0.368	0.207
-673.135	-72.558	-0.133	0.050
-672.120	211.865	-0.085	0.135
-671.105	120.718	-0.107	0.135
-670.091	800.000	-0.047	-0.155
-669.076	800.000	-0.052	-0.151
-668.062	-80.814	0.078	-0.026
-667.047	-76.999	0.208	-0.074
-666.032	23.627	-0.140	-0.117
-665.018	-200.000	-0.021	-0.132
-664.003	-69.451	0.168	-0.065
-662.989	168.176	-0.113	0.163
-661.974	-200.000	-0.033	-0.167
-660.959	-200.000	-0.025	-0.164
-659.945	-200.000	-0.066	-0.396
-658.930	279.583	-0.111	0.201
-657.916	-122.830	0.376	0.061
-656.901	-47.570	0.110	-0.054
-655.886	-117.195	-0.400	-0.074
-654.872	30.094	0.137	0.118
-653.857	-78.717	0.178	0.061
-652.843	-50.153	-0.214	0.103
-651.828	483.658	-0.119	-0.275
-650.814	800.000	0.087	0.326
-649.799	-35.556	0.024	0.013
-648.784	-66.149	-0.346	-0.140
-647.770	474.201	-0.049	0.113
-646.755	-200.000	-0.011	0.151
-645.741	27.714	-0.117	-0.100
-644.726	-86.178	-0.099	0.031
-643.711	60.204	0.204	-0.204
-642.697	97.330	-0.206	0.240
-641.682	800.000	0.046	0.178
-640.668	-104.347	-0.515	-0.121
-639.653	173.290	0.233	-0.339
-638.638	79.220	-0.137	0.148
-637.624	-13.114	-0.199	0.131
-636.609	-200.000	0.020	0.124
-635.595	-200.000	-0.050	0.285
-634.580	-200.000	0.005	0.043
-633.565	-200.000	0.056	-0.338
-632.551	800.000	-0.017	0.056
-631.536	65.531	0.185	-0.190
-630.522	-28.189	-0.228	0.133
-629.507	73.512	-0.135	0.143
-628.492	-18.773	-0.210	0.132
-627.478	-200.000	-0.022	-0.151
-626.463	-129.721	0.106	-0.015
-625.449	-16.413	0.242	0.155
-624.434	-200.000	-0.024	0.264
-623.419	72.339	-0.056	0.059
-622.405	383.395	0.075	-0.156
-621.390	65.274	0.148	0.151
-620.376	800.000	-0.043	-0.173
-619.361	800.000	0.056	0.187
-618.346	102.041	-0.099	0.117
-617.332	800.000	0.019	-0.080
-616.317	-200.000	0.056	-0.298
-615.303	-6.385	-0.230	0.158
-614.288	710.175	0.094	0.252
-613.273	-103.921	-0.207	-0.049
-612.259	800.000	0.036	0.138
-611.244	-4.570	0.294	-0.205
-610.230	480.515	0.093	0.212
-609.215	491.808	-0.102	0.235
-608.201	800.000	-0.052	-0.186
-607.186	-200.000	-0.041	-0.481
-606.171	191.619	0.118	0.179
-605.157	62.538	-0.140	-0.142
-604.142	-66.567	-0.271	0.109
-603.128	-81.386	-0.307	0.102
-602.113	260.184	-0.101	-0.176
-601.098	-69.733	-0.134	-0.052
-600.084	142.920	0.187	-0.251
-599.069	-200.000	-0.093	-0.450
-598.055	139.844	-0.170	-0.226
-597.040	124.693	0.114	-0.145
-596.025	123.506	-0.162	0.205
-595.011	-51.943	-0.103	-0.049
-593.996	-163.469	0.161	-0.008
-592.982	-26.683	0.273	0.161
-591.967	-200.000	0.379	-0.001
-590.952	-200.000	-0.014	-0.261
-589.938	-65.563	-0.099	0.040
-588.923	102.005	-0.055	-0.065
-587.909	43.768	-0.206	0.190
-586.894	-200.000	0.156	0.000
-585.879	-200.000	0.036	-0.293
-584.865	84.706	0.204	-0.225
-583.850	375.267	-0.027	0.055
-582.836	-200.000	0.011	-0.065
-581.821	-200.000	0.038	-0.403
-580.806	0.826	-0.313	0.226
-579.792	-124.827	-0.051	0.008
-578.777	-13.059	0.143	-0.094
-577.763	363.296	-0.028	0.058
-576.748	32.527	-0.122	0.107
-575.733	-180.187	0.427	-0.009
-574.719	447.087	0.055	-0.122
-573.704	182.236	-0.056	-0.083
-572.690	77.335	-0.115	0.123
-571.675	488.551	0.238	-0.547
-570.661	20.869	0.024	-0.019
-569.646	-174.855	-0.194	-0.006
-568.631	-200.000	0.014	0.145
-567.617	-198.470	-0.158	-0.001
-566.602	-200.000	-0.040	-0.277
-565.588	-94.126	-0.159	0.044
-564.573	29.757	0.193	0.166
-563.558	-200.000	0.004	-0.226
-562.544	-109.582	0.060	-0.013
-561.529	-46.281	0.074	0.037
-560.515	270.379	0.093	0.165
-559.500	-79.469	0.257	-0.088
-558.485	-134.074	0.236	-0.029
-557.471	3.163	0.056	-0.041
-556.456	-200.000	0.022	-0.140
-555.442	-37.043	0.267	-0.144
-554.427	30.796	-0.179	-0.154
-553.412	4.323	-0.175	-0.130
-552.398	-81.804	-0.142	-0.047
-551.383	-150.048	0.671	-0.053
-550.369	10.921	0.203	0.156
-549.354	-200.000	-0.005	-0.244
-548.339	310.793	0.064	-0.121
-547.325	319.474	-0.134	-0.256
-546.310	8.884	-0.370	-0.281
-545.296	-152.031	0.083	0.006
-544.281	-200.000	-0.022	0.133
-543.266	-15.766	-0.180	-0.116
-542.252	800.000	0.041	0.145
-541.237	179.075	-0.141	-0.207
-540.223	9.477	0.152	0.116
-539.208	-90.077	0.385	-0.113
-538.193	-25.976	0.100	-0.059
-537.179	-121.177	-0.032	0.005
-536.164	-200.000	-0.006	-0.124
-535.150	212.598	0.067	-0.106
-534.135	-54.553	0.153	-0.070
-533.121	-200.000	0.021	0.116
-532.106	-100.241	0.363	0.091
-531.091	552.682	0.056	-0.135
-530.077	20.904	-0.259	-0.211
-529.062	-200.000	-0.069	0.342
-528.048	-69.325	0.039	0.015
-527.033	-65.265	0.130	-0.053
-526.018	-39.847	-0.248	-0.130
-525.004	164.805	0.259	-0.367
-523.989	-162.502	-0.285	-0.014
-522.975	800.000	-0.084	0.296
-521.960	-157.687	0.218	0.013
-520.945	-13.711	-0.109	0.071
-519.931	0.811	0.037	-0.027
-518.916	13.733	0.161	0.126
-517.902	705.117	-0.085	0.225
-516.887	-117.948	0.289	0.052
-515.872	-65.733	0.081	0.033
-514.858	-200.000	-0.005	0.127
-513.843	800.000	0.075	-0.269
-512.829	65.317	0.085	-0.086
-511.814	-116.416	-0.132	-0.025
-510.799	-3.602	-0.093	-0.065
-509.785	-183.716	0.265	-0.005
-508.770	-200.000	0.035	-0.400
-507.756	-200.000	0.040	-0.279
-506.741	172.117	0.128	0.185
-505.726	-11.678	0.100	-0.066
-504.712	-59.464	-0.086	0.037
-503.697	-137.677	0.180	-0.020
-502.683	121.945	-0.128	-0.161
-501.668	-200.000	-0.013	0.236
-500.653	-8.088	-0.049	0.033
-499.639	113.193	0.093	0.113
-498.624	-149.227	0.102	-0.008
-497.610	508.763	0.117	0.272
-496.595	800.000	0.089	0.250
-495.581	219.116	0.090	0.145
-494.566	445.504	-0.096	-0.211
-493.551	-17.389	-0.179	-0.113
-492.537	-107.222	0.270	-0.060
-491.522	-87.428	-0.233	-0.071
-490.508	115.341	0.085	-0.105
-489.493	800.000	0.089	-0.280
-488.478	27.262	0.117	0.099
-487.464	800.000	0.012	0.049
-486.449	329.207	0.133	-0.257
-485.435	-36.425	-0.194	-0.105
-484.420	173.776	0.142	0.206
-483.405	800.000	-0.031	-0.125
-482.391	177.587	-0.112	0.164
-481.376	11.111	0.330	-0.253
-480.362	-52.102	0.023	0.011
-479.347	-151.503	-0.194	-0.014
-478.332	-72.669	-0.539	-0.200
-477.318	-200.000	-0.041	0.345
-476.303	-200.000	0.048	0.359
-475.289	-161.105	-0.152	-0.008
-474.274	-60.184	-0.153	0.065
-473.259	-200.000	-0.011	0.261
-472.245	609.061	-0.065	-0.164
-471.230	-77.797	0.239	0.083
-470.216	233.372	0.110	-0.181
-469.201	-200.000	0.016	0.147
-468.186	741.874	-0.073	-0.196
-467.172	259.864	-0.040	0.069
-466.157	-173.266	-0.101	0.003
-465.143	-200.000	0.020	0.119
-464.128	-189.367	-0.178	-0.002
-463.113	-200.000	-0.038	0.180
-462.099	-118.247	-0.226	0.040
-461.084	635.629	0.043	-0.109
-460.070	133.379	-0.052	-0.067
-459.055	68.843	-0.250	0.258
-458.040	-68.768	-0.157	-0.061
-457.026	800.000	-0.042	-0.137
-456.011	-67.767	-0.131	0.051
-454.997	-78.331	0.206	0.071
-453.982	800.000	0.060	-0.230
-452.968	11.471	0.210	0.162
-451.953	-90.448	0.403	-0.117
-450.938	171.353	0.164	-0.236
-449.924	-200.000	-0.059	0.348
-448.909	129.218	-0.056	0.072
-447.895	-69.753	-0.280	-0.107
-446.880	334.600	-0.063	0.123
-445.865	592.920	-0.063	0.155
-444.851	800.000	-0.025	0.090
-443.836	-64.580	0.042	0.017
-442.822	46.910	0.120	0.112
-441.807	-200.000	-0.015	-0.083
-440.792	-146.100	0.183	0.016
-439.778	88.056	-0.218	0.243
-438.763	-200.000	-0.017	0.089
-437.749	800.000	0.049	0.150
-436.734	-200.000	-0.037	0.238
-435.719	-97.350	-0.160	0.042
-434.705	-38.374	0.060	0.032
-433.690	-57.314	-0.074	-0.032
-432.676	-200.000	0.046	-0.228
-431.661	180.122	-0.011	-0.016
-430.646	-200.000	0.045	0.351
-429.632	-158.142	-0.121	0.007
-428.617	453.244	-0.165	-0.367
-427.603	-75.634	0.323	0.115
-426.588	-101.628	-0.082	-0.020
-425.573	800.000	-0.050	-0.193
-424.559	-49.034	-0.165	0.079
-423.544	774.449	-0.140	0.383
-422.530	23.559	-0.197	0.163
-421.515	-27.113	0.189	-0.110
-420.500	353.539	-0.162	0.323
-419.486	-43.443	0.234	-0.118
-418.471	-38.083	-0.332	-0.177
-417.457	-200.000	-0.024	0.167
-416.442	-49.270	0.111	0.053
-415.428	-7.427	-0.078	0.053
-414.413	170.305	-0.208	-0.298
-413.398	18.918	0.093	-0.074
-412.384	746.896	0.034	-0.091
-411.369	800.000	-0.082	0.321
-410.355	-200.000	0.027	0.218
-409.340	-200.000	-0.016	-0.103
-408.325	800.000	0.097	-0.316
-407.311	800.000	0.098	0.288
-406.296	119.227	0.085	0.105
-405.282	101.772	-0.151	0.177
-404.267	-31.717	-0.095	0.053
-403.252	123.326	0.181	-0.227
-402.238	680.456	0.047	0.123
-401.223	260.483	0.062	0.107
-400.209	34.590	-0.148	0.130
-399.194	18.583	-0.150	0.120
-398.179	-22.981	-0.117	0.070
-397.165	505.092	0.124	0.287
-396.150	50.971	0.275	0.262
-395.136	-98.127	-0.208	-0.054
-394.121	403.813	-0.104	-0.220
-393.106	-200.000	0.013	0.106
-392.092	-90.414	-0.252	0.073
-391.077	-111.969	-0.152	-0.031
-390.063	140.048	-0.269	0.355
-389.048	-145.896	0.129	-0.011
-388.033	-35.288	-0.468	-0.255
-387.019	-200.000	0.022	0.150
-386.004	-120.000	-0.290	-0.050
-384.990	800.000	0.064	-0.204
-383.975	271.929	0.193	-0.340
-382.960	-84.493	-0.238	0.075
-381.946	-7.465	0.117	0.079
-380.931	249.349	0.078	-0.132
-379.917	71.542	0.127	0.132
-378.902	430.961	-0.074	0.160
-377.888	-200.000	0.017	-0.303
-376.873	-200.000	-0.014	0.183
-375.858	-200.000	0.021	0.269
-374.844	-197.139	0.298	0.002
-373.829	-83.260	-0.257	-0.083
-372.815	159.623	-0.085	-0.119
-371.800	528.072	-0.084	0.198
-370.785	87.788	-0.059	0.065
-369.771	297.730	-0.087	-0.159
-368.756	-185.490	-0.193	0.003
-367.742	-32.256	0.180	0.101
-366.727	402.841	-0.062	0.130
-365.712	126.946	-0.064	0.081
-364.698	-200.000	0.011	0.324
-363.683	-185.040	-0.135	0.002
-362.669	42.154	-0.134	0.122
-361.654	-99.381	0.144	-0.036
-360.639	-87.154	-0.250	0.076
-359.625	-113.625	0.222	0.043
-358.610	-200.000	0.028	0.304
-357.596	-137.586	0.231	0.026
-356.581	-200.000	0.037	0.253
-355.566	-131.272	-0.066	0.009
-354.552	550.296	-0.074	-0.178
-353.537	574.684	0.116	0.282
-352.523	-38.261	0.204	0.108
-351.508	-43.041	0.063	0.032
-350.493	320.320	0.086	0.164
-349.479	50.406	-0.143	0.135
-348.464	-200.000	-0.001	-0.129
-347.450	191.164	-0.067	0.101
-346.435	-149.607	0.477	-0.038
-345.420	-86.659	-0.437	-0.134
-344.406	800.000	-0.077	-0.271
-343.391	-162.768	-0.266	-0.013
-342.377	39.517	-0.098	0.088
-341.362	-200.000	-0.016	0.136
-340.348	402.792	-0.124	0.262
-339.333	-6.025	-0.291	0.199
-338.318	-108.330	0.143	-0.031
-337.304	-162.258	0.305	-0.015
-336.289	-114.289	-0.129	-0.025
-335.275	-141.276	0.014	0.001
-334.260	371.822	-0.080	0.162
-333.245	-200.000	-0.011	-0.093
-332.231	-58.473	0.100	0.043
-331.216	480.004	-0.117	0.266
-330.202	800.000	0.058	-0.228
-329.187	-200.000	-0.099	0.448
-328.172	-155.989	-0.122	-0.008
-327.158	800.000	-0.074	0.286
-326.143	-7.331	-0.088	0.060
-325.129	76.351	-0.026	0.027
-324.114	-137.323	0.293	0.033
-323.099	-200.000	0.011	-0.110
-322.085	-79.863	0.087	-0.029
-321.070	-200.000	-0.023	0.231
-320.056	111.890	-0.109	-0.131
-319.041	-22.389	0.178	-0.108
-318.026	-129.276	0.436	-0.061
-317.012	8.947	-0.110	-0.083
-315.997	-18.975	0.079	0.049
-314.983	-111.184	0.322	0.066
-313.968	-130.436	-0.055	-0.007
-312.953	154.296	-0.067	-0.092
-311.939	1.537	0.328	-0.235
-310.924	-146.860	-0.112	-0.010
-309.910	399.599	-0.017	-0.035
-308.895	-200.000	-0.011	0.255
-307.880	-50.434	0.311	0.147
-306.866	-148.850	0.111	-0.009
-305.851	516.640	0.104	-0.242
-304.837	-100.782	-0.104	0.026
-303.822	-200.000	-0.026	-0.173
-302.807	800.000	-0.041	0.144
-301.793	98.947	0.092	0.106
-300.778	-200.000	0.010	-0.068
-299.764	165.585	-0.146	-0.205
-298.749	-27.140	-0.342	-0.199
-297.735	-65.425	0.095	0.038
-296.720	340.114	-0.155	0.301
-295.705	24.890	0.183	0.151
-294.691	-52.152	-0.201	-0.093
-293.676	273.381	0.156	0.275
-292.662	-21.376	0.171	-0.104
-291.647	37.366	-0.287	-0.254
-290.632	800.000	0.083	-0.263
-289.618	91.302	0.269	0.302
-288.603	512.948	-0.098	-0.227
-287.589	-82.433	0.107	0.035
-286.574	776.743	-0.026	-0.070
-285.559	-49.553	0.182	-0.087
-284.545	-135.244	-0.140	-0.017
-283.530	241.981	-0.191	0.318
-282.516	494.575	0.090	-0.206
-281.501	-39.647	0.261	-0.136
-280.486	-63.291	-0.084	-0.034
-279.472	800.000	-0.031	-0.127
-278.457	164.348	0.246	-0.346
-277.443	800.000	0.044	-0.175
-276.428	-200.000	0.002	-0.172
-275.413	351.201	-0.063	-0.125
-274.399	-94.811	0.113	0.030
-273.384	-114.033	-0.113	-0.022
-272.370	-21.917	0.372	0.226
-271.355	-3.444	-0.148	-0.103
-270.340	98.089	0.062	0.071
-269.326	65.375	-0.242	-0.244
-268.311	623.055	0.113	-0.284
-267.297	800.000	-0.033	-0.133
-266.282	110.072	0.362	-0.432
-265.267	-180.357	-0.215	-0.004
-264.253	-200.000	-0.012	-0.389
-263.238	-32.952	0.212	0.117
-262.224	-200.000	0.035	-0.259
-261.209	476.932	-0.112	0.253
-260.195	25.249	0.103	0.086
-259.180	196.134	0.041	-0.063
-258.165	800.000	-0.115	0.359
-257.151	138.730	-0.146	-0.191
-256.136	-200.000	0.006	0.182
-255.122	-196.109	0.343	-0.002
-254.107	-200.000	-0.013	-0.229
-253.092	-7.632	0.046	-0.031
-252.078	-129.151	0.137	0.019
-251.063	-96.273	0.161	-0.043
-250.049	-150.203	0.179	0.014
-249.034	-92.314	0.074	0.021
-248.019	-131.193	0.260	0.034
-247.005	800.000	-0.083	-0.247
-245.990	119.146	-0.034	0.042
-244.976	-200.000	0.006	0.147
-243.961	-200.000	-0.032	0.488
-242.946	585.347	0.026	-0.062
-241.932	11.449	0.255	0.195
-240.917	1.928	0.131	0.094
-239.903	-16.239	0.322	0.204
-238.888	-200.000	-0.026	0.237
-237.873	74.998	0.164	0.172
-236.859	-26.029	0.034	-0.020
-235.844	800.000	0.081	0.224
-234.830	695.005	-0.086	-0.225
-233.815	-137.665	0.441	-0.049
-232.800	306.779	-0.055	-0.102
-231.786	511.811	-0.021	-0.049
-230.771	57.995	0.076	0.074
-229.757	800.000	0.051	0.218
-228.742	130.607	-0.134	0.171
-227.727	-200.000	0.040	0.289
-226.713	-200.000	0.028	-0.399
-225.698	130.491	0.264	-0.337
-224.684	-35.770	-0.110	0.059
-223.669	-154.505	0.035	-0.002
-222.655	-25.654	-0.267	-0.157
-221.640	22.097	-0.184	0.149
-220.625	50.523	-0.125	0.118
-219.611	-187.167	0.124	0.002
-218.596	73.381	-0.091	0.095
-217.582	-78.898	-0.385	-0.130
-216.567	208.086	0.067	-0.105
-215.552	-200.000	0.012	0.071
-214.538	-46.465	-0.131	0.064
-213.523	-70.055	0.119	-0.045
-212.509	-163.975	0.106	-0.005
-211.494	-200.000	0.013	-0.253
-210.479	722.425	0.028	-0.073
-209.465	-89.261	-0.160	0.047
-208.450	-149.739	-0.196	-0.015
-207.436	280.194	0.004	-0.007
-206.421	-200.000	-0.070	0.331
-205.406	-7.314	-0.191	-0.129
-204.392	-145.799	-0.300	0.027
-203.377	17.327	0.076	0.060
-202.363	213.472	-0.115	0.181
-201.348	-54.956	0.099	-0.044
-200.333	276.689	-0.068	0.120
-199.319	-107.168	0.174	0.038
-198.304	-47.368	0.238	-0.115
-197.290	-20.571	-0.203	-0.124
-196.275	-68.480	0.261	-0.101
-195.260	-88.096	0.368	-0.110
-194.246	-100.599	-0.310	-0.076
-193.231	32.840	-0.241	-0.207
-192.217	213.691	-0.063	0.099
-191.202	539.094	-0.020	-0.047
-190.187	800.000	0.039	0.109
-189.173	125.517	0.109	0.137
-188.158	112.249	-0.029	0.035
-187.144	800.000	0.105	-0.336
-186.129	-200.000	-0.010	0.508
-185.114	145.212	-0.200	0.266
-184.100	222.895	-0.111	0.177
-183.085	93.253	-0.233	-0.261
-182.071	-200.000	-0.002	0.082
-181.056	800.000	0.047	0.129
-180.042	-200.000	0.034	-0.384
-179.027	551.863	-0.024	0.058
-178.012	176.735	0.155	0.224
-176.998	-45.090	-0.131	-0.065
-175.983	800.000	0.055	-0.205
-174.969	762.963	-0.067	-0.179
-173.954	800.000	0.049	-0.208
-172.939	226.686	0.115	-0.185
-171.925	317.248	0.095	-0.179
-170.910	216.577	-0.055	-0.087
-169.896	-46.514	0.201	0.098
-168.881	694.997	-0.029	0.076
-167.866	-96.929	-0.269	0.070
-166.852	-200.000	0.060	0.266
-165.837	-116.832	-0.258	-0.047
-164.823	-200.000	-0.003	-0.352
-163.808	-200.000	0.005	-0.027
-162.793	-200.000	0.039	0.250
-161.779	8.985	0.131	0.098
-160.764	224.605	-0.103	-0.165
-159.750	-200.000	-0.007	-0.048
-158.735	-161.520	-0.271	0.014
-157.720	-66.900	-0.138	-0.054
-156.706	800.000	-0.070	-0.220
-155.691	-200.000	-0.046	-0.605
-154.677	-144.612	-0.242	-0.022
-153.662	800.000	0.036	0.153
-152.647	-200.000	0.029	0.188
-151.633	-54.831	0.311	0.139
-150.618	598.434	-0.074	0.183
-149.604	-143.296	0.330	-0.031
-148.589	86.435	0.210	-0.229
-147.574	54.559	0.055	0.052
-146.560	26.505	0.186	0.155
-145.545	-200.000	-0.046	0.488
-144.531	-117.320	-0.106	-0.019
-143.516	549.021	0.206	0.490
-142.502	-81.149	0.147	-0.048
-141.487	-41.495	-0.116	0.059
-140.472	-160.052	-0.311	0.017
-139.458	-90.862	-0.083	0.024
-138.443	-34.599	0.165	-0.089
-137.429	-200.000	-0.025	0.257
-136.414	52.821	-0.169	-0.160
-135.399	-90.357	-0.067	-0.019
-134.385	78.558	0.126	0.134
-133.370	-180.173	0.214	-0.004
-132.356	124.180	-0.120	0.150
-131.341	-3.334	-0.198	0.137
-130.326	-27.731	0.156	-0.090
-129.312	-163.051	0.433	0.021
-128.297	-63.346	0.263	-0.107
-127.283	-14.062	-0.022	0.014
-126.268	-89.752	0.136	-0.039
-125.253	253.394	-0.198	0.335
-124.239	800.000	-0.076	-0.228
-123.224	-200.000	-0.032	-0.507
-122.210	275.669	0.081	-0.143
