DTS Sentinel unit serial number:	SN413079Multiplexer serial number:	ORYXHardware model number:	OX4-SRSoftware version number:	ORYX F/W v4.00 Oryx Data Collector v3.7.2.0data status	okinstallation	princeton_trtdifferential loss correction	single-endedforward channel	channel 4reverse channel	N/Adate	2019/09/12time	05:39:11forward acquisition time	60.00reverse acquisition time	0.00gamma	496.2192k internal	0.2308k external	0.2308temperature offset calibration	1.0064default loss term (dB/km)	0.3790temperature slope calibration	1.0000multiplexer offset coefficient	1.0000multiplexer slope coefficient	1.0000fibre end	0.00T internal ref (°C)	32.00T ext. ref 1 (°C)	1.61T ext. ref 2 (°C)	27.53length (m)	temperature (°C)	Stokes	anti-Stokes-747.200	-85.556	0.226	0.071
-746.185	690.403	0.091	0.241
-745.171	598.730	0.052	-0.132
-744.156	-113.358	-0.288	0.058
-743.142	-200.000	0.045	-0.203
-742.127	29.149	-0.220	0.190
-741.112	99.241	-0.140	-0.164
-740.098	194.356	-0.059	-0.091
-739.083	140.778	0.208	-0.279
-738.069	51.921	-0.110	0.106
-737.054	-200.000	0.056	-0.263
-736.039	-63.392	-0.247	-0.103
-735.025	150.659	-0.278	0.384
-734.010	27.435	0.260	-0.222
-732.996	111.957	-0.212	0.260
-731.981	800.000	-0.082	0.275
-730.966	-134.793	0.116	0.014
-729.952	-92.193	-0.333	-0.095
-728.937	345.504	-0.169	-0.336
-727.923	209.063	-0.062	-0.099
-726.908	800.000	0.033	0.129
-725.894	-200.000	0.005	-0.244
-724.879	49.906	-0.177	-0.169
-723.864	800.000	0.074	0.218
-722.850	150.888	0.023	0.032
-721.835	-103.521	-0.173	-0.041
-720.821	-195.025	-0.273	-0.002
-719.806	-58.734	0.177	-0.078
-718.791	-40.650	-0.296	0.156
-717.777	-76.601	-0.283	0.101
-716.762	800.000	-0.063	0.190
-715.748	-200.000	0.002	0.159
-714.733	346.713	-0.098	0.195
-713.718	-133.769	-0.334	-0.042
-712.704	-47.028	-0.151	-0.075
-711.689	-107.891	-0.368	-0.081
-710.675	-164.375	0.084	-0.004
-709.660	-94.361	-0.112	0.031
-708.645	233.630	-0.129	0.216
-707.631	800.000	0.044	0.150
-706.616	543.381	-0.194	0.469
-705.602	-26.621	0.357	0.212
-704.587	-172.543	-0.052	-0.002
-703.572	505.143	-0.077	0.180
-702.558	51.483	0.276	0.266
-701.543	-94.395	-0.042	0.012
-700.529	118.202	-0.094	0.118
-699.514	20.367	0.150	0.123
-698.499	66.479	-0.221	-0.228
-697.485	-200.000	0.058	-0.321
-696.470	-200.000	0.040	-0.273
-695.456	-74.186	0.288	-0.106
-694.441	647.817	0.051	0.133
-693.426	-46.718	-0.078	-0.039
-692.412	-50.735	0.256	0.122
-691.397	215.139	-0.101	0.162
-690.383	657.895	-0.065	0.169
-689.368	-85.803	-0.307	0.097
-688.354	2.515	0.156	0.115
-687.339	-101.620	-0.067	-0.016
-686.324	800.000	-0.075	-0.254
-685.310	7.982	-0.120	0.091
-684.295	800.000	-0.026	-0.085
-683.281	-107.653	0.157	0.035
-682.266	13.541	-0.388	0.306
-681.251	-15.253	0.058	0.038
-680.237	800.000	-0.055	0.221
-679.222	-38.377	0.288	0.155
-678.208	250.735	-0.110	-0.190
-677.193	-76.025	-0.542	0.194
-676.178	-114.524	0.178	-0.035
-675.164	-102.680	-0.115	0.028
-674.149	-163.320	-0.108	-0.005
-673.135	-60.007	0.071	-0.031
-672.120	263.920	0.078	0.138
-671.105	104.491	0.061	-0.073
-670.091	49.939	0.187	0.179
-669.076	-200.000	0.023	0.343
-668.062	-200.000	0.046	0.267
-667.047	130.015	-0.108	0.141
-666.032	-150.634	0.379	0.029
-665.018	-76.026	-0.205	0.074
-664.003	-54.886	0.047	0.021
-662.989	-200.000	-0.012	0.205
-661.974	-56.359	-0.186	0.084
-660.959	70.883	-0.017	-0.018
-659.945	-49.933	0.176	0.085
-658.930	46.116	-0.089	0.083
-657.916	82.322	-0.081	0.089
-656.901	-144.752	-0.128	0.012
-655.886	-161.445	0.503	-0.026
-654.872	-200.000	0.037	-0.473
-653.857	-182.766	-0.164	-0.003
-652.843	173.710	-0.083	-0.121
-651.828	-200.000	-0.015	0.129
-650.814	-32.568	-0.204	0.115
-649.799	-174.367	-0.085	0.002
-648.784	118.019	-0.262	-0.327
-647.770	-200.000	-0.052	-0.412
-646.755	480.052	-0.100	0.229
-645.741	-32.181	-0.177	0.100
-644.726	-116.641	-0.189	-0.035
-643.711	11.710	0.149	0.116
-642.697	-29.038	-0.220	-0.128
-641.682	-200.000	-0.013	-0.070
-640.668	-74.623	-0.251	-0.092
-639.653	-64.756	-0.087	0.036
-638.638	-146.227	0.388	-0.035
-637.624	-200.000	-0.005	-0.165
-636.609	-34.435	0.158	0.087
-635.595	491.829	0.116	-0.270
-634.580	-200.000	0.054	-0.292
-633.565	-76.024	-0.256	0.092
-632.551	528.277	-0.102	-0.244
-631.536	-31.910	0.418	0.237
-630.522	-200.000	0.013	-0.058
-629.507	-109.448	0.181	-0.039
-628.492	387.770	-0.107	0.224
-627.478	44.668	0.134	-0.125
-626.463	-165.111	-0.422	-0.019
-625.449	203.652	0.147	-0.231
-624.434	121.756	-0.043	-0.054
-623.419	-105.255	0.226	0.052
-622.405	-2.272	0.279	-0.198
-621.390	184.226	-0.209	0.313
-620.376	-169.423	-0.171	-0.006
-619.361	800.000	-0.040	0.113
-618.346	307.581	-0.160	-0.302
-617.332	-79.565	-0.234	-0.080
-616.317	294.825	0.118	0.218
-615.303	-200.000	-0.012	-0.068
-614.288	-75.884	0.163	0.058
-613.273	-200.000	0.023	-0.146
-612.259	-200.000	-0.005	0.137
-611.244	2.998	-0.261	-0.192
-610.230	-200.000	0.011	0.247
-609.215	136.010	0.073	0.096
-608.201	-154.053	-0.159	-0.011
-607.186	-175.322	-0.442	0.012
-606.171	-200.000	-0.005	-0.207
-605.157	294.340	-0.063	-0.117
-604.142	13.923	-0.167	0.132
-603.128	-115.429	-0.413	0.079
-602.113	111.177	0.010	0.012
-601.098	108.571	-0.152	-0.184
-600.084	-119.585	0.302	-0.053
-599.069	-95.098	-0.217	-0.059
-598.055	-52.194	-0.210	0.099
-597.040	84.877	-0.084	-0.093
-596.025	-109.639	0.203	-0.043
-595.011	276.377	0.051	0.091
-593.996	23.848	-0.080	-0.067
-592.982	-200.000	-0.003	0.221
-591.967	-132.335	0.139	0.018
-590.952	795.626	0.094	0.261
-589.938	153.131	0.194	-0.268
-588.923	-157.340	0.290	-0.018
-587.909	-135.642	-0.012	-0.001
-586.894	-200.000	-0.016	0.180
-585.879	-15.856	-0.173	0.112
-584.865	-200.000	-0.068	-0.405
-583.850	800.000	-0.042	-0.171
-582.836	18.225	-0.168	-0.136
-581.821	299.504	0.204	-0.379
-580.806	-33.777	-0.124	-0.069
-579.792	800.000	-0.056	-0.168
-578.777	-131.969	-0.080	-0.011
-577.763	0.168	-0.394	-0.284
-576.748	205.542	-0.163	0.255
-575.733	-200.000	-0.038	0.195
-574.719	-200.000	-0.011	0.100
-573.704	178.070	-0.117	-0.173
-572.690	-200.000	-0.001	0.219
-571.675	56.027	0.034	0.033
-570.661	-145.164	-0.233	0.021
-569.646	-31.127	-0.191	-0.109
-568.631	289.658	0.068	0.124
-567.617	-200.000	0.002	0.260
-566.602	-17.091	0.149	-0.095
-565.588	-34.428	0.176	0.097
-564.573	107.325	0.030	0.036
-563.558	-200.000	0.010	0.145
-562.544	2.114	0.212	0.155
-561.529	217.593	-0.079	-0.126
-560.515	-136.009	0.308	-0.037
-559.500	-200.000	0.015	-0.350
-558.485	800.000	0.047	-0.184
-557.471	-157.733	-0.140	-0.008
-556.456	465.356	0.098	-0.221
-555.442	-200.000	0.006	-0.210
-554.427	-103.506	0.140	-0.033
-553.412	-200.000	0.043	0.193
-552.398	70.430	-0.110	-0.114
-551.383	-101.373	-0.152	0.037
-550.369	-58.294	-0.214	-0.094
-549.354	-157.396	-0.109	-0.007
-548.339	-52.923	0.373	-0.173
-547.325	712.263	0.093	0.248
-546.310	23.919	-0.165	0.138
-545.296	176.047	0.237	0.348
-544.281	-197.871	-0.139	0.001
-543.266	33.924	-0.149	0.131
-542.252	412.245	0.075	-0.160
-541.237	-173.074	0.267	-0.008
-540.223	-200.000	-0.022	0.270
-539.208	89.064	-0.133	-0.149
-538.193	30.279	-0.143	-0.123
-537.179	180.677	0.184	0.272
-536.164	-106.534	-0.133	-0.030
-535.150	44.701	0.150	0.139
-534.135	37.716	0.032	0.029
-533.121	55.230	-0.053	0.051
-532.106	-63.731	0.403	-0.167
-531.091	-25.915	-0.038	-0.022
-530.077	114.894	-0.090	-0.110
-529.062	745.760	0.068	0.186
-528.048	-47.760	-0.176	0.086
-527.033	603.280	0.090	0.226
-526.018	94.915	-0.108	0.124
-525.004	-92.856	-0.261	0.073
-523.989	-200.000	-0.000	-0.124
-522.975	-136.454	-0.339	-0.040
-521.960	320.619	0.105	0.202
-520.945	-124.134	0.083	0.013
-519.931	-53.512	-0.076	0.035
-518.916	-200.000	0.051	0.382
-517.902	-147.080	-0.161	-0.014
-516.887	-81.237	-0.239	-0.079
-515.872	206.105	-0.106	0.167
-514.858	-200.000	0.013	0.094
-513.843	655.766	-0.046	0.120
-512.829	476.791	-0.151	0.344
-511.814	-48.443	-0.282	0.137
-510.799	800.000	0.031	-0.130
-509.785	-200.000	0.059	0.496
-508.770	-41.435	0.099	0.051
-507.756	22.800	0.066	-0.055
-506.741	178.842	-0.074	0.110
-505.726	321.512	-0.003	-0.006
-504.712	-200.000	-0.014	0.181
-503.697	-45.682	-0.146	-0.073
-502.683	30.031	-0.176	-0.151
-501.668	20.406	0.071	0.058
-500.653	-127.392	-0.381	-0.056
-499.639	-128.926	-0.109	0.015
-498.624	-108.622	0.311	0.067
-497.610	-119.605	-0.165	-0.029
-496.595	175.357	-0.193	0.281
-495.581	30.371	0.175	-0.150
-494.566	800.000	-0.023	0.085
-493.551	-27.131	-0.108	0.064
-492.537	-115.978	-0.088	-0.017
-491.522	158.757	-0.117	0.164
-490.508	800.000	-0.076	0.269
-489.493	-96.113	-0.261	0.070
-488.478	122.342	0.104	0.131
-487.464	800.000	0.055	0.240
-486.449	183.552	-0.082	-0.122
-485.435	-200.000	0.154	-0.000
-484.420	452.006	0.088	-0.195
-483.405	-99.819	-0.525	-0.132
-482.391	59.441	-0.162	-0.161
-481.376	121.463	0.067	-0.084
-480.362	-88.862	0.074	-0.022
-479.347	-200.000	-0.029	0.211
-478.332	-21.474	-0.060	-0.037
-477.318	435.358	-0.155	-0.339
-476.303	156.785	-0.059	0.081
-475.289	-200.000	-0.015	0.237
-474.274	192.180	-0.077	0.117
-473.259	-70.260	0.203	-0.078
-472.245	-59.567	0.278	-0.120
-471.230	267.061	0.049	0.085
-470.216	-156.329	-0.310	-0.020
-469.201	13.089	-0.033	0.025
-468.186	651.917	0.047	0.120
-467.172	329.509	0.133	-0.257
-466.157	101.057	-0.048	-0.056
-465.143	153.829	0.196	-0.271
-464.128	-136.868	-0.122	-0.014
-463.113	-200.000	0.005	0.160
-462.099	165.309	-0.211	0.299
-461.084	-47.924	-0.034	0.017
-460.070	-85.507	0.201	0.063
-459.055	84.139	-0.309	-0.339
-458.040	81.599	0.240	-0.260
-457.026	-200.000	-0.068	-0.353
-456.011	368.535	-0.156	0.317
-454.997	-200.000	0.014	0.091
-453.982	800.000	-0.078	0.221
-452.968	-200.000	-0.053	-0.272
-451.953	-200.000	-0.002	-0.085
-450.938	316.337	0.067	-0.127
-449.924	138.570	-0.160	0.211
-448.909	-200.000	-0.005	-0.302
-447.895	-131.044	-0.288	0.039
-446.880	-186.930	0.071	0.001
-445.865	-38.189	0.038	-0.020
-444.851	615.192	-0.023	-0.058
-443.836	-138.173	-0.185	-0.021
-442.822	771.565	0.046	-0.126
-441.807	-200.000	-0.039	0.736
-440.792	287.756	0.255	-0.463
-439.778	-125.536	0.044	0.007
-438.763	-99.341	-0.284	0.072
-437.749	58.069	0.054	-0.053
-436.734	336.000	-0.089	-0.173
-435.719	464.268	0.102	-0.230
-434.705	-200.000	-0.064	-0.385
-433.690	150.244	0.106	-0.145
-432.676	74.683	0.145	0.154
-431.661	-53.446	0.194	0.089
-430.646	-106.124	-0.159	-0.036
-429.632	-25.387	0.127	-0.076
-428.617	-200.000	0.045	-0.267
-427.603	60.338	-0.134	0.133
-426.588	-183.937	0.406	-0.007
-425.573	114.659	0.114	0.139
-424.559	800.000	0.100	0.417
-423.544	-127.303	-0.076	-0.011
-422.530	589.447	-0.099	0.244
-421.515	238.491	0.204	-0.339
-420.500	184.745	-0.123	-0.183
-419.486	-27.661	-0.092	-0.054
-418.471	800.000	-0.069	0.269
-417.457	-200.000	0.020	0.170
-416.442	258.376	0.078	0.134
-415.428	79.266	0.175	-0.188
-414.413	620.581	-0.170	0.429
-413.398	800.000	0.049	-0.190
-412.384	731.181	-0.097	0.259
-411.369	-112.990	0.282	-0.056
-410.355	134.904	-0.027	-0.035
-409.340	-48.049	-0.142	0.069
-408.325	-69.218	-0.010	-0.004
-407.311	-72.555	-0.282	0.104
-406.296	83.680	-0.071	-0.077
-405.282	83.718	0.164	0.180
-404.267	253.011	0.083	-0.142
-403.252	118.271	-0.301	-0.372
-402.238	-83.280	-0.165	-0.053
-401.223	800.000	-0.119	-0.482
-400.209	-66.567	0.178	-0.071
-399.194	-200.000	-0.017	0.266
-398.179	-93.365	-0.280	-0.078
-397.165	-200.000	-0.013	-0.282
-396.150	272.522	-0.093	-0.165
-395.136	-124.484	-0.124	0.019
-394.121	395.419	0.175	-0.365
-393.106	-200.000	-0.059	-0.391
-392.092	-200.000	-0.012	0.283
-391.077	215.588	-0.156	0.248
-390.063	-59.834	0.149	0.064
-389.048	-200.000	0.046	-0.230
-388.033	-68.713	0.133	0.052
-387.019	-108.612	-0.131	-0.028
-386.004	19.065	0.317	-0.254
-384.990	800.000	-0.056	0.204
-383.975	-34.163	0.137	-0.075
-382.960	109.389	-0.105	-0.126
-381.946	27.092	0.230	-0.194
-380.931	266.854	-0.122	0.214
-379.917	-64.981	-0.150	-0.061
-378.902	-181.305	0.381	-0.008
-377.888	-200.000	-0.040	0.224
-376.873	-200.000	0.002	-0.158
-375.858	-78.957	-0.393	0.134
-374.844	151.274	0.169	0.230
-373.829	274.019	0.166	0.294
-372.815	-29.215	0.023	0.013
-371.800	-122.110	0.301	0.049
-370.785	-130.891	0.273	0.037
-369.771	673.711	-0.050	0.130
-368.756	378.966	-0.043	0.089
-367.742	78.441	0.250	-0.268
-366.727	-200.000	0.019	0.088
-365.712	800.000	0.045	-0.138
-364.698	-200.000	0.030	0.369
-363.683	-2.816	-0.212	-0.148
-362.669	446.301	-0.126	-0.276
-361.654	-23.934	-0.289	0.173
-360.639	-194.295	-0.167	0.001
-359.625	185.205	0.025	0.037
-358.610	-41.289	0.349	0.180
-357.596	102.159	0.260	0.304
-356.581	-70.439	-0.328	-0.125
-355.566	230.224	-0.180	-0.294
-354.552	-200.000	0.014	-0.193
-353.537	-45.626	0.170	-0.084
-352.523	20.818	0.239	0.194
-351.508	-81.002	0.253	-0.084
-350.493	-200.000	-0.004	-0.086
-349.479	-200.000	0.516	-0.002
-348.464	455.068	0.139	-0.309
-347.450	89.705	0.166	-0.185
-346.435	-67.105	-0.124	-0.049
-345.420	-200.000	-0.046	0.217
-344.406	35.608	0.122	0.107
-343.391	233.089	0.066	0.109
-342.377	20.644	0.140	-0.114
-341.362	492.840	0.050	0.116
-340.348	69.009	0.048	-0.049
-339.333	83.159	0.147	0.160
-338.318	-158.612	0.128	-0.007
-337.304	-112.223	0.448	-0.090
-336.289	-50.674	-0.071	0.034
-335.275	800.000	-0.089	0.302
-334.260	162.093	-0.129	0.181
-333.245	-161.040	0.327	0.017
-332.231	-85.118	-0.060	0.019
-331.216	55.045	0.161	0.155
-330.202	-200.000	0.005	-0.285
-329.187	-144.682	-0.336	0.031
-328.172	67.227	-0.022	0.023
-327.158	358.030	0.243	-0.486
-326.143	249.025	-0.212	-0.359
-325.129	-7.513	-0.159	0.108
-324.114	683.684	0.117	0.306
-323.099	337.724	-0.082	-0.160
-322.085	82.099	-0.133	0.144
-321.070	159.530	-0.115	-0.161
-320.056	-83.001	0.379	-0.122
-319.041	-106.186	0.093	0.021
-318.026	-200.000	0.022	0.177
-317.012	-200.000	0.018	0.189
-315.997	-19.746	0.155	0.096
-314.983	-9.284	-0.113	-0.076
-313.968	76.427	0.294	-0.311
-312.953	-200.000	-0.025	0.318
-311.939	-200.000	-0.022	0.168
-310.924	-200.000	0.104	0.472
-309.910	4.727	0.252	0.185
-308.895	-200.000	0.001	0.447
-307.880	-200.000	-0.024	0.486
-306.866	-22.797	0.236	-0.142
-305.851	-200.000	-0.013	0.154
-304.837	-102.359	0.388	-0.093
-303.822	34.070	-0.132	-0.115
-302.807	187.103	0.081	0.121
-301.793	687.070	-0.032	0.083
-300.778	342.150	0.219	0.428
-299.764	-119.382	0.302	0.052
-298.749	221.923	-0.055	-0.088
-297.735	-200.000	-0.006	0.182
-296.720	5.469	-0.148	0.109
-295.705	263.253	-0.066	0.115
-294.691	311.951	0.243	0.456
-293.676	800.000	0.046	0.191
-292.662	-68.406	-0.288	0.112
-291.647	71.480	-0.181	0.188
-290.632	118.803	-0.189	-0.233
-289.618	-54.992	-0.228	0.102
-288.603	-200.000	0.006	-0.033
-287.589	506.429	-0.042	-0.096
-286.574	437.483	0.005	-0.010
-285.559	-200.000	-0.001	-0.335
-284.545	7.357	-0.194	0.144
-283.530	4.737	0.263	0.193
-282.516	-56.070	0.209	0.093
-281.501	99.775	-0.070	0.081
-280.486	478.751	0.116	-0.262
-279.472	-124.595	0.142	-0.022
-278.457	-96.368	-0.091	-0.024
-277.443	-85.955	0.155	0.048
-276.428	143.135	-0.200	0.266
-275.413	-77.130	-0.209	0.073
-274.399	82.558	-0.189	-0.205
-273.384	-32.389	0.152	0.085
-272.370	-84.488	-0.137	-0.043
-271.355	118.408	-0.287	-0.353
-270.340	-200.000	-0.041	-0.371
-269.326	-1.858	-0.136	0.096
-268.311	-200.000	0.011	-0.093
-267.297	-200.000	0.034	-0.571
-266.282	237.058	0.201	-0.333
-265.267	-81.246	-0.008	-0.002
-264.253	-57.427	-0.063	0.027
-263.238	-70.166	0.172	0.065
-262.224	-154.396	0.241	0.016
-261.209	234.067	0.068	-0.111
-260.195	-83.210	-0.195	0.063
-259.180	800.000	-0.079	-0.241
-258.165	11.450	0.225	-0.172
-257.151	-118.226	-0.063	0.011
-256.136	1.938	-0.140	-0.101
-255.122	413.374	0.116	-0.245
-254.107	-122.995	-0.207	-0.033
-253.092	-152.126	0.311	-0.023
-252.078	800.000	0.012	0.048
-251.063	-200.000	0.009	-0.205
-250.049	-61.288	0.234	0.098
-249.034	-106.986	0.227	0.050
-248.019	-94.797	0.157	0.043
-247.005	102.345	0.086	0.100
-245.990	67.824	-0.153	-0.156
-244.976	233.289	-0.055	0.090
-243.961	-64.433	0.164	-0.066
-242.946	-200.000	-0.026	0.320
-241.932	-200.000	-0.044	0.238
-240.917	-200.000	-0.007	0.085
-239.903	-200.000	-0.000	0.075
-238.888	111.220	-0.112	0.135
-237.873	101.337	0.125	0.145
-236.859	800.000	0.014	-0.061
-235.844	137.548	0.021	-0.028
-234.830	-101.915	0.153	-0.037
-233.815	680.399	0.132	0.344
-232.800	713.135	0.071	-0.186
-231.786	178.412	-0.196	-0.285
-230.771	-163.526	0.277	0.013
-229.757	24.388	-0.241	-0.199
-228.742	170.680	0.100	-0.143
-227.727	-96.876	-0.096	-0.025
-226.713	800.000	0.045	-0.157
-225.698	-34.002	-0.307	0.168
-224.684	725.738	-0.105	0.278
-223.669	-44.875	0.162	0.081
-222.655	-125.598	-0.323	0.049
-221.640	271.794	0.155	0.271
-220.625	-170.915	0.339	-0.012
-219.611	800.000	-0.041	0.155
-218.596	-186.079	-0.212	-0.003
-217.582	-200.000	-0.019	0.228
-216.567	-25.853	-0.108	-0.064
-215.552	-20.616	-0.184	-0.112
-214.538	315.229	0.067	-0.126
-213.523	800.000	-0.028	-0.094
-212.509	-59.819	0.307	-0.131
-211.494	-200.000	-0.017	-0.089
-210.479	-200.000	0.017	-0.246
-209.465	7.691	0.133	0.099
-208.450	115.927	0.135	-0.164
-207.436	189.519	0.070	-0.105
-206.421	145.195	0.176	-0.234
-205.406	800.000	0.026	-0.091
-204.392	-200.000	0.033	0.190
-203.377	17.413	-0.018	0.014
-202.363	800.000	0.052	-0.226
-201.348	800.000	0.112	0.392
-200.333	764.721	0.062	-0.167
-199.319	-131.997	-0.300	-0.039
-198.304	-179.139	0.346	-0.008
-197.290	307.077	-0.068	-0.125
-196.275	333.913	-0.075	0.145
-195.260	-1.211	-0.234	0.165
-194.246	16.604	0.160	-0.126
-193.231	-51.361	-0.128	-0.059
-192.217	-11.080	-0.140	-0.092
-191.202	-136.046	0.382	0.045
-190.187	85.655	-0.181	0.198
-189.173	-200.000	0.022	-0.164
-188.158	388.690	0.208	0.428
-187.144	800.000	0.071	-0.195
-186.129	-172.028	0.381	-0.012
-185.114	42.047	0.096	-0.087
-184.100	-200.000	-0.038	-0.359
-183.085	65.082	-0.259	0.260
-182.071	-103.942	-0.286	0.066
-181.056	305.447	0.066	-0.121
-180.042	25.887	-0.016	0.014
-179.027	800.000	-0.131	0.457
-178.012	129.323	0.083	-0.105
-176.998	-200.000	-0.013	-0.304
-175.983	178.251	0.107	0.156
-174.969	-42.210	-0.279	-0.141
-173.954	-63.437	-0.194	-0.079
-172.939	-88.923	-0.240	0.071
-171.925	-200.000	0.030	-0.000
-170.910	-200.000	0.010	0.066
-169.896	-84.910	0.463	-0.144
-168.881	-200.000	0.021	-0.098
-167.866	88.842	0.235	0.260
-166.852	-45.529	0.149	-0.073
-165.837	-200.000	-0.005	-0.026
-164.823	-95.243	0.436	0.117
-163.808	-7.950	-0.098	0.066
-162.793	557.771	0.051	-0.122
-161.779	41.213	-0.352	-0.316
-160.764	-67.219	0.201	-0.078
-159.750	800.000	0.027	-0.085
-158.735	68.511	0.082	0.084
-157.720	257.412	-0.102	-0.174
-156.706	53.251	0.066	0.063
-155.691	-67.358	-0.156	0.061
-154.677	-82.257	0.056	0.018
-153.662	-81.497	-0.230	-0.075
-152.647	-200.000	0.012	-0.136
-151.633	-112.067	0.135	-0.027
-150.618	477.887	-0.113	-0.255
-149.604	-3.132	-0.465	0.322
-148.589	-200.000	-0.017	0.083
-147.574	424.076	-0.025	-0.053
-146.560	800.000	-0.061	-0.234
-145.545	-200.000	-0.050	0.314
-144.531	127.786	0.175	0.221
-143.516	-82.353	0.251	0.081
-142.502	800.000	-0.066	-0.279
-141.487	-111.401	0.100	0.020
-140.472	-26.042	-0.100	-0.058
-139.458	-49.107	-0.419	-0.199
-138.443	-85.237	-0.244	-0.076
-137.429	-134.102	0.209	-0.026
-136.414	800.000	0.132	-0.396
-135.399	29.329	-0.210	0.177
-134.385	-200.000	-0.008	-0.060
-133.370	-27.835	0.200	-0.115
-132.356	-137.716	0.409	-0.046
-131.341	194.832	-0.149	0.225
-130.326	800.000	-0.089	0.367
-129.312	-200.000	-0.081	0.384
-128.297	13.135	-0.206	0.158
-127.283	800.000	0.056	0.192
-126.268	27.873	-0.194	0.163
-125.253	-111.282	-0.073	0.015
-124.239	338.389	0.140	-0.271
-123.224	-72.341	0.072	0.027
-122.210	800.000	0.037	0.149
