DTS Sentinel unit serial number:	SN413079Multiplexer serial number:	ORYXHardware model number:	OX4-SRSoftware version number:	ORYX F/W v4.00 Oryx Data Collector v3.7.2.0data status	okinstallation	princeton_trtdifferential loss correction	single-endedforward channel	channel 4reverse channel	N/Adate	2019/09/10time	23:35:10forward acquisition time	60.00reverse acquisition time	0.00gamma	496.2192k internal	0.2317k external	0.2317temperature offset calibration	0.9951default loss term (dB/km)	0.3790temperature slope calibration	1.0000multiplexer offset coefficient	1.0000multiplexer slope coefficient	1.0000fibre end	0.00T internal ref (°C)	29.66T ext. ref 1 (°C)	-0.32T ext. ref 2 (°C)	23.04length (m)	temperature (°C)	Stokes	anti-Stokes-747.200	-94.107	0.155	-0.043
-746.185	800.000	0.049	0.157
-745.171	20.120	-0.266	0.217
-744.156	426.014	-0.056	0.121
-743.142	-39.424	0.139	-0.074
-742.127	-146.339	-0.184	-0.016
-741.112	-200.000	-0.007	-0.197
-740.098	-73.500	0.334	0.124
-739.083	33.369	-0.053	0.047
-738.069	150.826	-0.294	0.404
-737.054	128.813	0.087	0.113
-736.039	17.881	-0.197	-0.159
-735.025	77.299	0.162	-0.174
-734.010	-38.504	-0.435	0.233
-732.996	-144.479	-0.277	-0.026
-731.981	55.141	0.114	0.112
-730.966	-117.112	-0.374	0.069
-729.952	-89.860	-0.343	0.102
-728.937	180.513	-0.118	0.176
-727.923	-53.660	-0.208	0.096
-726.908	26.317	0.257	-0.217
-725.894	-200.000	-0.056	-0.289
-724.879	-200.000	0.010	-0.186
-723.864	5.219	-0.182	0.136
-722.850	800.000	-0.085	-0.253
-721.835	800.000	0.057	0.245
-720.821	-47.488	-0.366	-0.180
-719.806	-86.924	0.113	0.035
-718.791	-56.508	0.152	-0.068
-717.777	192.883	-0.073	-0.111
-716.762	41.214	0.029	-0.026
-715.748	38.043	-0.157	-0.141
-714.733	-200.000	-0.038	-0.243
-713.718	109.291	-0.036	-0.044
-712.704	32.309	0.082	0.072
-711.689	131.711	-0.043	-0.056
-710.675	800.000	0.018	0.068
-709.660	-32.109	0.327	0.185
-708.645	-200.000	0.019	0.129
-707.631	540.215	0.191	-0.460
-706.616	77.965	-0.138	0.149
-705.602	-12.938	0.100	-0.066
-704.587	689.542	-0.082	0.217
-703.572	-92.638	0.421	-0.119
-702.558	194.604	0.158	0.242
-701.543	207.239	-0.113	-0.178
-700.529	-5.887	0.231	0.160
-699.514	-117.858	-0.091	0.016
-698.499	-137.017	0.094	0.011
-697.485	93.495	-0.156	-0.179
-696.470	41.350	0.227	0.208
-695.456	362.836	-0.095	-0.192
-694.441	-97.385	0.183	-0.048
-693.426	164.437	-0.088	-0.125
-692.412	667.229	-0.091	-0.238
-691.397	-47.674	0.033	-0.016
-690.383	-144.605	0.099	0.009
-689.368	-70.460	-0.224	0.086
-688.354	-200.000	0.087	-0.474
-687.339	-200.000	-0.004	-0.058
-686.324	-20.820	0.164	-0.102
-685.310	-71.810	-0.184	0.069
-684.295	-166.174	-0.272	-0.012
-683.281	248.335	-0.060	0.103
-682.266	-155.120	-0.149	-0.010
-681.251	484.632	-0.033	-0.075
-680.237	429.326	-0.136	0.297
-679.222	156.656	0.108	0.150
-678.208	800.000	-0.137	-0.401
-677.193	-8.189	0.152	-0.103
-676.178	57.115	-0.151	0.149
-675.164	-142.227	-0.088	0.009
-674.149	72.893	-0.178	-0.187
-673.135	-162.757	-0.337	0.017
-672.120	33.546	-0.086	0.076
-671.105	-134.147	-0.204	0.025
-670.091	471.463	0.120	0.272
-669.076	54.340	-0.241	-0.234
-668.062	-71.397	-0.219	0.083
-667.047	-200.000	0.007	-0.165
-666.032	-76.437	-0.024	-0.008
-665.018	124.946	0.150	0.190
-664.003	-141.165	-0.291	-0.030
-662.989	441.226	0.054	0.118
-661.974	441.883	0.111	-0.246
-660.959	61.606	-0.063	-0.063
-659.945	-77.751	0.403	-0.141
-658.930	800.000	-0.035	0.129
-657.916	-14.910	-0.056	0.037
-656.901	135.194	-0.040	-0.052
-655.886	-74.046	0.083	0.030
-654.872	59.626	0.133	-0.132
-653.857	181.866	-0.055	0.082
-652.843	-176.660	0.345	0.009
-651.828	-9.998	-0.125	-0.084
-650.814	24.385	-0.283	-0.236
-649.799	-4.282	-0.444	0.310
-648.784	54.670	-0.174	0.169
-647.770	-163.161	-0.068	-0.003
-646.755	-89.435	-0.260	0.077
-645.741	-78.259	0.250	-0.086
-644.726	-200.000	0.068	0.329
-643.711	-200.000	-0.038	-0.176
-642.697	162.517	0.287	-0.405
-641.682	-200.000	-0.026	-0.121
-640.668	77.805	-0.174	-0.187
-639.653	499.332	-0.177	0.412
-638.638	-17.171	0.271	0.172
-637.624	-49.035	-0.082	-0.039
-636.609	-200.000	0.061	0.399
-635.595	-54.444	0.079	0.036
-634.580	-200.000	0.036	0.613
-633.565	800.000	-0.015	-0.053
-632.551	3.350	-0.317	-0.233
-631.536	-200.000	0.041	-0.346
-630.522	281.609	0.172	0.310
-629.507	-200.000	-0.053	-0.242
-628.492	146.269	-0.127	-0.172
-627.478	-71.259	0.144	0.054
-626.463	87.168	-0.188	-0.209
-625.449	70.104	-0.247	-0.257
-624.434	13.691	0.014	0.011
-623.419	-84.484	-0.179	-0.057
-622.405	-20.548	-0.037	0.023
-621.390	741.907	-0.059	0.159
-620.376	-200.000	-0.024	0.212
-619.361	663.431	-0.006	-0.016
-618.346	-200.000	0.028	-0.286
-617.332	-200.000	0.008	-0.214
-616.317	-159.520	0.180	0.010
-615.303	-200.000	-0.043	-0.365
-614.288	-56.819	-0.180	0.080
-613.273	314.055	-0.090	0.171
-612.259	-61.588	-0.245	-0.104
-611.244	116.468	-0.120	0.148
-610.230	488.257	-0.142	-0.327
-609.215	-36.068	0.030	-0.016
-608.201	32.934	-0.094	0.082
-607.186	119.331	-0.180	0.224
-606.171	19.989	0.059	-0.048
-605.157	-73.671	-0.292	0.107
-604.142	-88.727	0.063	-0.019
-603.128	31.079	-0.273	-0.236
-602.113	116.804	0.120	0.148
-601.098	-145.737	-0.342	-0.031
-600.084	200.350	0.137	-0.211
-599.069	-193.662	0.215	-0.002
-598.055	-43.814	0.241	0.122
-597.040	800.000	-0.082	0.321
-596.025	800.000	-0.111	-0.353
-595.011	24.800	0.096	0.080
-593.996	-200.000	0.014	0.106
-592.982	192.290	-0.021	0.032
-591.967	211.943	-0.176	-0.279
-590.952	-111.553	0.076	0.016
-589.938	363.137	-0.094	-0.190
-588.923	-90.863	-0.163	-0.047
-587.909	-151.160	0.129	-0.010
-586.894	85.462	0.074	0.082
-585.879	-83.395	0.219	0.071
-584.865	90.346	0.143	-0.161
-583.850	-147.820	0.018	0.002
-582.836	-15.420	-0.349	-0.224
-581.821	-13.584	-0.111	-0.072
-580.806	-67.653	-0.386	0.152
-579.792	427.774	-0.083	-0.180
-578.777	0.242	-0.093	0.066
-577.763	-127.966	0.183	0.026
-576.748	-200.000	-0.027	-0.218
-575.733	-27.943	-0.272	-0.158
-574.719	-200.000	0.009	0.248
-573.704	800.000	-0.036	-0.140
-572.690	-2.243	-0.246	-0.173
-571.675	800.000	0.087	0.268
-570.661	438.525	0.124	-0.272
-569.646	800.000	-0.066	0.264
-568.631	-152.139	-0.279	-0.020
-567.617	-86.937	0.088	-0.027
-566.602	800.000	-0.052	-0.184
-565.588	800.000	-0.070	0.222
-564.573	-200.000	0.022	-0.129
-563.558	-7.005	0.090	-0.062
-562.544	-200.000	0.001	0.275
-561.529	592.892	-0.061	-0.151
-560.515	-61.976	-0.212	0.089
-559.500	391.950	-0.044	0.091
-558.485	532.337	-0.085	0.202
-557.471	-200.000	-0.016	0.072
-556.456	-200.000	-0.032	-0.237
-555.442	7.771	-0.056	-0.042
-554.427	404.130	-0.155	0.327
-553.412	173.011	0.243	0.351
-552.398	133.602	-0.095	-0.123
-551.383	176.073	-0.070	0.102
-550.369	120.080	-0.203	0.253
-549.354	-200.000	-0.003	0.017
-548.339	545.659	0.117	-0.282
-547.325	800.000	0.061	0.171
-546.310	-150.403	0.145	0.011
-545.296	-1.982	0.134	0.095
-544.281	99.356	0.235	-0.273
-543.266	-200.000	0.005	0.065
-542.252	230.873	-0.020	0.033
-541.237	-200.000	0.033	-0.248
-540.223	2.262	0.193	-0.140
-539.208	-6.866	0.173	-0.118
-538.193	-93.716	-0.246	-0.068
-537.179	800.000	0.034	0.095
-536.164	620.723	-0.071	-0.180
-535.150	134.813	-0.240	-0.313
-534.135	-197.895	0.236	0.001
-533.121	-120.999	-0.341	-0.057
-532.106	121.966	-0.210	0.264
-531.091	-200.000	0.032	-0.167
-530.077	384.876	0.083	-0.173
-529.062	-200.000	-0.025	-0.213
-528.048	39.916	0.248	0.223
-527.033	-16.446	-0.175	-0.111
-526.018	160.041	0.048	-0.067
-525.004	800.000	0.090	0.328
-523.989	-200.000	-0.012	0.394
-522.975	251.528	-0.073	0.125
-521.960	-64.463	-0.208	0.085
-520.945	-119.168	0.146	0.026
-519.931	-124.635	0.316	0.049
-518.916	-200.000	-0.067	0.354
-517.902	-83.052	0.210	-0.068
-516.887	-103.929	-0.336	-0.079
-515.872	483.205	0.031	0.071
-514.858	632.367	0.066	0.167
-513.843	-200.000	0.019	-0.136
-512.829	-65.776	-0.157	-0.063
-511.814	698.993	0.025	-0.067
-510.799	800.000	0.036	-0.100
-509.785	-127.070	-0.594	0.087
-508.770	305.494	0.102	0.190
-507.756	800.000	0.033	-0.128
-506.741	-119.695	0.236	-0.041
-505.726	39.743	-0.207	-0.186
-504.712	-158.247	-0.246	0.014
-503.697	8.516	0.214	0.161
-502.683	-71.712	-0.129	-0.048
-501.668	-57.975	0.259	-0.114
-500.653	407.509	-0.037	0.079
-499.639	525.521	-0.050	-0.117
-498.624	-25.874	0.119	0.070
-497.610	57.960	0.069	0.068
-496.595	27.450	-0.172	-0.145
-495.581	800.000	-0.043	-0.130
-494.566	-15.227	-0.202	0.130
-493.551	159.004	0.137	0.190
-492.537	-59.784	0.049	-0.021
-491.522	-31.014	0.078	0.044
-490.508	800.000	0.066	-0.256
-489.493	452.637	0.083	0.184
-488.478	90.291	0.175	0.196
-487.464	-200.000	0.008	-0.129
-486.449	-197.002	0.201	-0.001
-485.435	-76.004	0.240	0.085
-484.420	800.000	-0.099	-0.287
-483.405	41.882	0.143	-0.130
-482.391	-85.682	-0.280	-0.087
-481.376	718.019	0.145	-0.386
-480.362	-41.817	0.320	-0.164
-479.347	-82.697	-0.205	0.066
-478.332	-129.070	0.183	0.026
-477.318	-29.558	0.087	-0.050
-476.303	-200.000	-0.056	0.346
-475.289	-152.255	-0.372	0.027
-474.274	-42.446	0.212	0.109
-473.259	243.450	-0.035	-0.060
-472.245	-200.000	0.094	0.551
-471.230	-161.041	-0.289	-0.015
-470.216	69.405	0.096	0.099
-469.201	-200.000	-0.000	0.089
-468.186	172.841	-0.088	-0.127
-467.172	14.154	-0.134	0.104
-466.157	-200.000	-0.001	0.198
-465.143	800.000	0.008	0.025
-464.128	49.357	-0.374	-0.352
-463.113	-56.677	0.190	-0.084
-462.099	-146.645	-0.106	0.009
-461.084	-175.785	-0.162	-0.004
-460.070	186.628	-0.112	-0.166
-459.055	-200.000	-0.044	-0.201
-458.040	-95.279	-0.118	-0.032
-457.026	85.475	-0.173	0.191
-456.011	739.599	-0.077	0.206
-454.997	503.958	0.150	-0.349
-453.982	124.539	-0.128	-0.162
-452.968	-20.423	0.158	-0.097
-451.953	509.564	-0.064	-0.150
-450.938	-4.332	-0.065	0.045
-449.924	-125.897	-0.108	-0.016
-448.909	59.479	-0.293	0.289
-447.895	800.000	-0.066	0.243
-446.880	-115.738	0.230	-0.043
-445.865	561.614	-0.099	0.239
-444.851	199.085	-0.027	0.042
-443.836	-56.505	-0.234	-0.104
-442.822	-127.637	0.507	-0.073
-441.807	735.184	-0.063	-0.169
-440.792	800.000	-0.103	0.301
-439.778	-58.318	-0.004	0.002
-438.763	-5.430	-0.059	-0.041
-437.749	14.250	0.215	-0.168
-436.734	-114.644	0.333	0.064
-435.719	-129.944	-0.274	0.038
-434.705	-200.000	-0.023	-0.225
-433.690	169.372	-0.067	-0.096
-432.676	70.735	-0.341	-0.353
-431.661	-10.308	0.118	0.078
-430.646	-80.383	0.119	0.040
-429.632	-22.544	-0.042	-0.025
-428.617	-80.975	0.083	0.028
-427.603	106.966	-0.106	-0.126
-426.588	-200.000	-0.025	0.129
-425.573	-54.823	0.117	0.053
-424.559	-71.801	-0.291	-0.108
-423.544	800.000	-0.026	0.101
-422.530	7.518	0.158	-0.119
-421.515	168.921	-0.301	0.429
-420.500	365.828	-0.066	0.132
-419.486	5.706	0.213	0.157
-418.471	5.265	-0.336	0.248
-417.457	43.711	-0.222	-0.203
-416.442	-200.000	0.010	-0.100
-415.428	315.078	0.121	0.229
-414.413	-15.308	0.104	-0.067
-413.398	-200.000	0.050	-0.256
-412.384	-65.341	0.124	-0.050
-411.369	94.728	-0.071	-0.081
-410.355	-145.167	0.328	-0.030
-409.340	800.000	0.038	0.115
-408.325	4.164	-0.087	0.064
-407.311	800.000	0.055	-0.213
-406.296	-56.825	-0.221	-0.098
-405.282	-170.748	0.262	-0.009
-404.267	-50.384	0.114	-0.054
-403.252	-60.462	-0.125	-0.053
-402.238	58.554	0.058	0.057
-401.223	-121.482	0.169	0.028
-400.209	-30.927	0.212	0.120
-399.194	56.083	0.087	0.085
-398.179	39.239	-0.217	-0.194
-397.165	800.000	-0.146	-0.427
-396.150	-10.803	0.353	-0.233
-395.136	-200.000	0.068	-0.321
-394.121	-52.328	-0.333	-0.154
-393.106	107.957	-0.066	-0.079
-392.092	-62.955	0.193	-0.080
-391.077	196.608	-0.080	0.122
-390.063	45.334	0.103	-0.095
-389.048	304.240	0.175	0.324
-388.033	0.964	-0.164	-0.117
-387.019	79.785	0.092	-0.098
-386.004	94.858	0.190	0.216
-384.990	-131.581	0.142	0.019
-383.975	42.866	0.109	0.100
-382.960	79.516	0.033	-0.035
-381.946	-159.473	-0.068	0.004
-380.931	-43.850	0.226	0.113
-379.917	292.505	0.179	-0.326
-378.902	346.504	-0.093	0.183
-377.888	-200.000	0.016	-0.222
-376.873	8.606	-0.113	0.085
-375.858	-67.702	-0.275	0.107
-374.844	8.718	-0.051	0.038
-373.829	-96.271	-0.449	0.119
-372.815	-65.955	0.095	0.038
-371.800	-77.120	0.072	-0.025
-370.785	54.003	0.186	0.178
-369.771	397.959	0.131	0.274
-368.756	46.196	-0.221	0.204
-367.742	281.847	0.081	0.144
-366.727	-70.318	-0.384	0.145
-365.712	-77.017	0.331	0.115
-364.698	437.532	-0.100	0.218
-363.683	-121.583	-0.302	0.050
-362.669	468.412	0.045	-0.101
-361.654	-107.958	-0.197	-0.043
-360.639	147.930	-0.086	0.116
-359.625	-200.000	-0.057	-0.342
-358.610	-187.634	-0.122	-0.002
-357.596	-8.460	-0.258	-0.173
-356.581	27.658	-0.171	0.143
-355.566	800.000	0.110	-0.399
-354.552	-72.537	-0.533	0.196
-353.537	-7.485	0.094	0.063
-352.523	-32.884	0.149	0.082
-351.508	90.330	0.094	0.105
-350.493	-56.052	-0.248	-0.110
-349.479	26.774	0.346	-0.289
-348.464	678.855	0.170	-0.441
-347.450	114.099	0.130	-0.158
-346.435	73.131	-0.222	0.231
-345.420	-26.129	0.256	-0.150
-344.406	-59.630	0.099	0.042
-343.391	380.032	0.145	0.297
-342.377	205.165	0.111	-0.172
-341.362	800.000	-0.033	0.112
-340.348	543.200	-0.072	-0.172
-339.333	-33.666	0.148	-0.081
-338.318	-16.409	-0.192	-0.122
-337.304	181.253	-0.117	-0.172
-336.289	-109.955	-0.129	0.027
-335.275	-12.783	0.103	0.067
-334.260	-84.113	-0.042	-0.013
-333.245	64.001	0.182	0.182
-332.231	519.684	0.113	0.263
-331.216	-94.313	-0.246	-0.067
-330.202	67.557	0.338	-0.344
-329.187	-200.000	0.050	0.294
-328.172	260.090	0.026	-0.044
-327.158	228.034	0.024	0.038
-326.143	353.825	-0.062	-0.122
-325.129	79.971	0.299	-0.320
-324.114	-144.234	-0.059	0.006
-323.099	-4.031	-0.363	0.251
-322.085	-96.925	0.224	0.058
-321.070	149.766	0.207	0.279
-320.056	-72.499	0.263	-0.097
-319.041	-69.505	0.048	-0.018
-318.026	-176.119	0.058	0.002
-317.012	-75.623	0.135	-0.048
-315.997	800.000	0.028	-0.098
-314.983	323.271	0.076	-0.144
-313.968	-102.019	0.272	0.065
-312.953	-200.000	0.043	0.311
-311.939	313.557	-0.169	-0.316
-310.924	-177.800	0.337	-0.008
-309.910	-200.000	-0.007	0.112
-308.895	19.445	-0.337	0.270
-307.880	108.373	0.217	-0.257
-306.866	-200.000	0.015	0.136
-305.851	-32.876	-0.161	0.089
-304.837	423.042	-0.170	0.364
-303.822	82.928	0.328	0.355
-302.807	-65.095	-0.226	0.091
-301.793	-200.000	0.265	0.001
-300.778	-86.981	-0.348	0.106
-299.764	-139.656	0.217	-0.023
-298.749	36.103	-0.315	-0.276
-297.735	-51.270	-0.250	-0.116
-296.720	357.515	0.096	-0.190
-295.705	-44.544	0.303	-0.151
-294.691	-100.243	0.289	0.071
-293.676	-177.261	0.031	0.001
-292.662	-200.000	-0.074	-0.349
-291.647	-69.617	-0.259	0.099
-290.632	128.877	-0.097	0.123
-289.618	4.865	0.058	-0.042
-288.603	-200.000	0.037	-0.299
-287.589	800.000	-0.056	0.207
-286.574	-32.578	0.349	-0.193
-285.559	-142.297	-0.299	0.029
-284.545	764.935	-0.019	0.050
-283.530	741.049	0.055	0.147
-282.516	137.316	-0.077	-0.100
-281.501	-52.930	0.134	0.062
-280.486	159.699	0.122	0.169
-279.472	166.409	0.328	-0.462
-278.457	-200.000	0.003	0.020
-277.443	-200.000	0.022	-0.160
-276.428	-173.023	-0.084	-0.003
-275.413	800.000	0.088	0.254
-274.399	800.000	0.009	0.033
-273.384	7.948	0.206	0.154
-272.370	800.000	-0.057	-0.221
-271.355	-93.896	-0.141	0.038
-270.340	-158.007	0.156	0.009
-269.326	-87.915	0.320	-0.096
-268.311	215.936	-0.056	0.088
-267.297	800.000	-0.075	-0.228
-266.282	-83.068	0.181	-0.058
-265.267	-130.011	-0.304	-0.041
-264.253	-44.442	-0.252	-0.125
-263.238	-147.131	0.273	0.023
-262.224	800.000	0.067	0.217
-261.209	629.606	0.112	0.282
-260.195	406.790	0.109	0.229
-259.180	-0.917	0.103	0.072
-258.165	91.337	0.092	0.102
-257.151	800.000	-0.019	0.058
-256.136	-145.923	-0.065	0.006
-255.122	-113.607	-0.291	0.057
-254.107	-200.000	0.008	0.129
-253.092	-56.455	0.232	-0.102
-252.078	170.492	0.203	0.288
-251.063	800.000	-0.059	-0.218
-250.049	-169.075	0.151	0.006
-249.034	189.437	-0.021	-0.032
-248.019	39.382	-0.120	0.107
-247.005	-109.626	-0.103	-0.021
-245.990	-13.729	0.140	0.090
-244.976	-44.317	0.192	-0.096
-243.961	7.215	0.056	-0.042
-242.946	-200.000	0.069	-0.361
-241.932	190.997	-0.115	-0.172
-240.917	-55.380	-0.329	-0.146
-239.903	800.000	-0.053	-0.174
-238.888	-200.000	0.058	0.372
-237.873	-63.196	0.178	0.073
-236.859	-200.000	-0.021	-0.331
-235.844	785.584	0.069	-0.187
-234.830	-4.592	-0.396	-0.272
-233.815	-110.057	0.138	0.029
-232.800	-150.097	0.020	0.002
-231.786	-37.899	0.150	-0.079
-230.771	-57.742	0.177	-0.077
-229.757	-141.767	0.027	-0.003
-228.742	33.871	-0.261	0.225
-227.727	156.807	0.071	0.098
-226.713	-43.762	-0.125	-0.063
-225.698	695.074	-0.074	0.193
-224.684	-112.865	0.319	-0.063
-223.669	-56.969	-0.114	0.050
-222.655	-14.013	0.153	-0.098
-221.640	-142.698	0.380	0.037
-220.625	-54.158	0.204	-0.092
-219.611	-48.665	-0.338	0.161
-218.596	133.913	-0.154	-0.198
-217.582	27.656	0.194	0.162
-216.567	280.199	0.078	-0.139
-215.552	-106.271	-0.385	-0.086
-214.538	-31.233	0.161	0.090
-213.523	171.037	-0.065	0.093
-212.509	-27.286	0.145	0.084
-211.494	-161.071	-0.107	0.006
-210.479	-39.781	0.330	0.171
-209.465	209.759	0.110	-0.171
-208.450	-125.784	0.232	0.035
-207.436	-200.000	0.048	0.297
-206.421	-45.708	0.157	0.077
-205.406	-183.564	0.101	0.002
-204.392	-112.563	-0.128	0.025
-203.377	-20.224	-0.183	0.112
-202.363	-95.765	0.063	-0.017
-201.348	-10.705	-0.086	0.057
-200.333	-78.294	-0.195	-0.066
-199.319	92.974	-0.231	0.258
-198.304	175.914	-0.152	-0.219
-197.290	15.709	0.207	-0.161
-196.275	5.099	-0.135	0.098
-195.260	-200.000	0.018	0.263
-194.246	-13.913	0.239	0.153
-193.231	-1.741	0.225	0.157
-192.217	-52.437	-0.222	-0.102
-191.202	800.000	-0.018	0.051
-190.187	364.202	-0.089	-0.177
-189.173	800.000	-0.062	-0.194
-188.158	-41.544	0.135	0.069
-187.144	21.048	0.247	0.198
-186.129	-30.370	-0.442	0.249
-185.114	-113.569	0.277	-0.054
-184.100	73.322	0.223	-0.231
-183.085	-200.000	-0.005	0.204
-182.071	356.997	0.087	0.173
-181.056	-200.000	0.011	0.054
-180.042	28.544	0.377	0.316
-179.027	-56.434	0.205	-0.090
-178.012	138.892	-0.086	-0.112
-176.998	-200.000	0.009	-0.104
-175.983	294.154	-0.158	0.285
-174.969	-137.929	0.182	0.020
-173.954	89.048	-0.100	0.110
-172.939	-123.124	-0.187	-0.030
-171.925	-46.697	0.179	-0.087
-170.910	-200.000	0.009	-0.141
-169.896	352.919	-0.040	0.079
-168.881	-27.354	0.152	0.088
-167.866	-95.932	0.131	0.035
-166.852	63.053	0.198	0.197
-165.837	-137.847	-0.282	-0.031
-164.823	710.799	-0.078	-0.203
-163.808	167.896	0.145	0.204
-162.793	-150.582	-0.177	0.013
-161.779	-200.000	-0.000	-0.088
-160.764	328.693	0.136	-0.259
-159.750	-200.000	0.008	-0.345
-158.735	25.204	0.174	0.143
-157.720	523.662	0.150	-0.349
-156.706	-200.000	-0.006	0.139
-155.691	-31.171	0.282	-0.157
-154.677	-200.000	0.000	0.056
-153.662	104.741	0.191	0.223
-152.647	-54.828	0.107	0.048
-151.633	-58.096	-0.158	0.068
-150.618	-103.944	0.160	-0.037
-149.604	-61.252	0.146	-0.061
-148.589	321.824	0.105	0.198
-147.574	361.284	0.105	-0.207
-146.560	148.891	-0.399	-0.534
-145.545	-200.000	0.000	0.046
-144.531	290.472	0.197	0.353
-143.516	-200.000	-0.010	0.170
-142.502	280.426	0.223	0.394
-141.487	-200.000	-0.029	-0.160
-140.472	390.526	0.102	0.209
-139.458	-16.718	-0.089	0.055
-138.443	-164.017	-0.054	0.002
-137.429	222.421	0.120	-0.191
-136.414	-51.513	0.168	0.078
-135.399	-6.204	-0.125	-0.084
-134.385	-121.841	-0.162	0.026
-133.370	-200.000	-0.050	-0.254
-132.356	306.622	0.074	0.136
-131.341	-200.000	0.037	0.501
-130.326	-200.000	0.065	-0.305
-129.312	-95.310	0.110	-0.029
-128.297	-80.123	-0.171	0.057
-127.283	50.301	0.105	0.098
-126.268	800.000	-0.088	-0.317
-125.253	593.609	0.222	0.542
-124.239	498.591	-0.044	0.101
-123.224	381.636	-0.096	0.196
-122.210	4.108	-0.163	-0.118
-121.195	92.557	0.228	-0.254
-120.180	189.088	-0.129	-0.191
-119.166	-30.757	0.152	-0.085
