DTS Sentinel unit serial number:	SN413079Multiplexer serial number:	ORYXHardware model number:	OX4-SRSoftware version number:	ORYX F/W v4.00 Oryx Data Collector v3.7.2.0data status	okinstallation	princeton_trtdifferential loss correction	single-endedforward channel	channel 4reverse channel	N/Adate	2019/09/11time	05:03:11forward acquisition time	60.00reverse acquisition time	0.00gamma	496.2192k internal	0.2316k external	0.2316temperature offset calibration	0.9945default loss term (dB/km)	0.3790temperature slope calibration	1.0000multiplexer offset coefficient	1.0000multiplexer slope coefficient	1.0000fibre end	0.00T internal ref (°C)	29.48T ext. ref 1 (°C)	-0.24T ext. ref 2 (°C)	23.43length (m)	temperature (°C)	Stokes	anti-Stokes-747.200	-100.886	0.337	-0.084
-746.185	369.401	0.148	0.303
-745.171	-200.000	-0.028	-0.172
-744.156	476.390	-0.101	0.230
-743.142	-36.294	-0.085	0.046
-742.127	14.005	0.189	0.149
-741.112	171.685	-0.165	-0.240
-740.098	-118.104	0.409	0.074
-739.083	-24.123	-0.091	-0.055
-738.069	5.715	-0.382	0.286
-737.054	541.469	-0.094	-0.226
-736.039	472.965	0.106	-0.241
-735.025	-87.914	0.074	-0.023
-734.010	693.495	0.150	-0.398
-732.996	-75.395	-0.335	-0.121
-731.981	-119.750	-0.312	0.054
-730.966	800.000	0.032	-0.137
-729.952	-200.000	-0.015	-0.246
-728.937	-112.755	-0.137	-0.027
-727.923	-200.000	0.012	-0.126
-726.908	99.761	-0.113	0.132
-725.894	-200.000	-0.062	0.299
-724.879	24.164	-0.094	-0.078
-723.864	-109.845	0.264	-0.056
-722.850	30.377	-0.303	-0.262
-721.835	-66.117	-0.120	-0.048
-720.821	-66.684	-0.347	-0.139
-719.806	800.000	0.036	-0.104
-718.791	-200.000	-0.023	-0.157
-717.777	22.819	0.193	-0.160
-716.762	-148.808	-0.294	-0.024
-715.748	-101.307	0.038	-0.009
-714.733	91.908	0.189	0.215
-713.718	563.119	0.098	0.240
-712.704	412.424	-0.066	-0.142
-711.689	-13.762	-0.057	0.038
-710.675	210.151	-0.128	-0.204
-709.660	800.000	-0.009	0.025
-708.645	123.967	0.089	0.113
-707.631	-200.000	-0.005	-0.075
-706.616	-200.000	-0.012	-0.206
-705.602	341.060	0.052	0.103
-704.587	-68.134	0.261	0.103
-703.572	-200.000	-0.062	-0.299
-702.558	-200.000	-0.054	-0.417
-701.543	357.730	0.045	0.090
-700.529	397.275	0.077	-0.163
-699.514	-112.852	-0.275	0.055
-698.499	-12.173	0.157	0.104
-697.485	-139.472	-0.236	0.026
-696.470	116.741	-0.164	-0.203
-695.456	800.000	-0.032	-0.099
-694.441	-6.369	0.100	0.069
-693.426	-56.493	-0.176	0.079
-692.412	800.000	-0.044	0.140
-691.397	-136.541	0.251	-0.029
-690.383	8.590	-0.161	-0.122
-689.368	128.817	-0.101	-0.130
-688.354	317.203	0.043	-0.082
-687.339	-139.601	0.286	-0.031
-686.324	-153.890	-0.218	-0.015
-685.310	-158.367	0.155	0.009
-684.295	25.385	-0.190	-0.160
-683.281	-42.453	0.090	0.047
-682.266	-138.409	0.134	0.015
-681.251	-178.905	0.216	0.005
-680.237	106.819	0.130	-0.156
-679.222	48.005	0.285	-0.269
-678.208	536.329	-0.043	0.103
-677.193	138.075	0.155	0.205
-676.178	-200.000	0.026	0.204
-675.164	148.122	-0.085	-0.116
-674.149	97.626	0.184	-0.214
-673.135	15.702	-0.142	0.113
-672.120	-90.705	0.084	0.025
-671.105	-200.000	-0.015	0.071
-670.091	800.000	-0.077	0.245
-669.076	41.993	0.057	-0.052
-668.062	-200.000	-0.076	-0.453
-667.047	-200.000	0.043	0.411
-666.032	-16.974	-0.286	-0.182
-665.018	-93.232	0.298	-0.084
-664.003	80.615	0.037	-0.040
-662.989	-133.059	-0.301	0.039
-661.974	800.000	0.019	0.058
-660.959	1.949	0.148	0.108
-659.945	503.838	-0.038	-0.089
-658.930	-24.434	-0.247	0.149
-657.916	137.319	-0.166	-0.219
-656.901	-110.588	0.052	-0.011
-655.886	-29.241	-0.177	-0.103
-654.872	-200.000	0.001	-0.030
-653.857	60.946	-0.214	0.215
-652.843	800.000	-0.096	0.349
-651.828	-200.000	0.017	-0.170
-650.814	22.574	0.213	-0.176
-649.799	61.669	-0.134	-0.134
-648.784	-161.490	0.383	0.020
-647.770	-65.309	-0.168	0.068
-646.755	-25.345	0.052	0.031
-645.741	-200.000	0.041	0.203
-644.726	-200.000	0.001	-0.237
-643.711	90.580	0.103	-0.116
-642.697	-44.348	-0.157	-0.079
-641.682	-200.000	0.018	-0.156
-640.668	76.385	-0.007	0.007
-639.653	-130.511	-0.156	-0.021
-638.638	-20.283	-0.167	0.104
-637.624	800.000	-0.041	-0.124
-636.609	69.764	0.111	-0.115
-635.595	-200.000	-0.054	-0.328
-634.580	-200.000	0.006	-0.197
-633.565	-200.000	0.028	0.322
-632.551	218.783	0.138	0.222
-631.536	-200.000	0.058	-0.311
-630.522	-148.914	-0.144	0.012
-629.507	-103.873	-0.183	0.043
-628.492	-32.755	0.169	-0.095
-627.478	-200.000	0.010	0.095
-626.463	-119.673	-0.120	0.021
-625.449	94.395	-0.062	0.072
-624.434	-44.419	-0.180	-0.091
-623.419	-178.467	0.415	-0.010
-622.405	-50.455	-0.121	0.058
-621.390	-84.915	-0.146	-0.046
-620.376	14.347	-0.055	0.043
-619.361	-63.696	0.354	0.146
-618.346	63.769	-0.167	0.169
-617.332	-100.621	-0.081	-0.020
-616.317	-105.464	-0.251	0.057
-615.303	52.224	-0.243	-0.233
-614.288	-166.096	0.496	0.021
-613.273	800.000	-0.105	0.360
-612.259	-177.648	-0.210	-0.005
-611.244	-200.000	-0.050	0.310
-610.230	501.238	-0.178	0.414
-609.215	37.152	0.102	-0.091
-608.201	358.878	0.048	0.098
-607.186	-103.824	-0.044	0.010
-606.171	88.521	0.033	-0.037
-605.157	-200.000	0.034	0.327
-604.142	-146.817	-0.352	0.031
-603.128	-136.920	0.107	0.012
-602.113	-160.206	-0.055	0.003
-601.098	-102.911	-0.277	0.066
-600.084	-89.321	0.300	-0.089
-599.069	61.919	0.114	-0.115
-598.055	-46.678	0.062	-0.030
-597.040	11.303	-0.093	0.072
-596.025	191.760	-0.094	-0.142
-595.011	-40.869	0.078	-0.041
-593.996	-165.672	-0.331	0.014
-592.982	-127.135	-0.187	-0.028
-591.967	-87.154	-0.091	-0.028
-590.952	283.338	0.095	0.172
-589.938	139.656	0.277	0.367
-588.923	149.751	-0.135	0.184
-587.909	72.246	-0.156	0.164
-586.894	2.286	0.158	0.115
-585.879	82.702	-0.064	0.070
-584.865	-200.000	-0.018	-0.160
-583.850	121.305	0.189	0.237
-582.836	2.686	-0.338	-0.247
-581.821	-200.000	-0.041	0.318
-580.806	-200.000	-0.004	0.123
-579.792	-94.805	0.464	0.127
-578.777	-117.557	0.520	0.095
-577.763	-88.527	0.271	0.081
-576.748	95.693	0.035	-0.040
-575.733	-197.196	0.155	-0.001
-574.719	168.002	-0.190	-0.272
-573.704	27.150	0.258	-0.218
-572.690	-135.401	-0.187	-0.022
-571.675	90.821	-0.185	-0.209
-570.661	-66.758	-0.256	-0.102
-569.646	800.000	-0.026	0.103
-568.631	-200.000	-0.015	0.124
-567.617	-51.835	-0.289	-0.135
-566.602	-52.285	0.128	-0.060
-565.588	66.278	-0.073	-0.075
-564.573	289.508	-0.167	-0.304
-563.558	782.524	0.100	0.277
-562.544	800.000	0.041	0.167
-561.529	-31.897	-0.107	-0.060
-560.515	541.952	-0.064	-0.154
-559.500	800.000	-0.050	0.199
-558.485	-61.399	-0.281	-0.119
-557.471	64.248	0.297	-0.301
-556.456	-200.000	0.029	0.197
-555.442	-200.000	0.018	0.105
-554.427	-124.518	-0.106	0.017
-553.412	3.931	-0.306	0.225
-552.398	-136.843	0.265	0.031
-551.383	-200.000	0.036	0.259
-550.369	61.709	0.148	-0.148
-549.354	68.554	0.071	-0.073
-548.339	210.347	-0.132	-0.208
-547.325	-48.823	0.139	0.067
-546.310	631.869	-0.079	-0.200
-545.296	-94.108	-0.192	0.053
-544.281	-200.000	-0.013	0.319
-543.266	41.369	-0.108	-0.098
-542.252	-88.451	0.297	0.089
-541.237	-177.971	-0.221	-0.005
-540.223	29.974	-0.127	-0.109
-539.208	-85.527	-0.184	-0.058
-538.193	-162.498	-0.178	0.009
-537.179	415.831	-0.160	0.344
-536.164	430.200	-0.058	0.125
-535.150	470.784	0.137	0.309
-534.135	-17.033	0.073	0.046
-533.121	-2.085	0.142	-0.100
-532.106	-27.640	0.133	0.078
-531.091	700.052	0.073	-0.194
-530.077	142.957	-0.304	-0.406
-529.062	92.989	-0.124	0.141
-528.048	46.558	0.134	0.124
-527.033	-63.307	-0.167	-0.069
-526.018	264.023	0.097	0.169
-525.004	800.000	0.006	0.020
-523.989	0.128	0.166	-0.119
-522.975	-9.524	-0.119	0.080
-521.960	253.740	0.055	-0.094
-520.945	-44.921	-0.160	0.080
-519.931	-200.000	-0.007	-0.194
-518.916	-50.723	0.169	0.080
-517.902	-200.000	0.051	-0.432
-516.887	232.826	-0.124	-0.204
-515.872	306.633	0.092	-0.171
-514.858	575.469	-0.108	-0.264
-513.843	-145.781	-0.225	-0.020
-512.829	800.000	0.051	-0.177
-511.814	84.697	-0.157	-0.173
-510.799	48.033	-0.162	0.152
-509.785	10.970	0.253	0.194
-508.770	-70.977	0.253	0.096
-507.756	377.427	-0.046	0.094
-506.741	-40.490	-0.064	-0.034
-505.726	34.910	0.059	-0.052
-504.712	-117.205	0.351	0.064
-503.697	52.044	-0.232	-0.222
-502.683	-64.678	-0.097	0.040
-501.668	-200.000	-0.012	0.246
-500.653	-200.000	0.022	-0.174
-499.639	43.362	0.135	-0.124
-498.624	-56.139	0.181	-0.081
-497.610	102.425	0.170	-0.199
-496.595	726.169	-0.194	-0.518
-495.581	-125.175	-0.206	0.032
-494.566	28.297	-0.311	-0.264
-493.551	324.551	0.125	-0.240
-492.537	-111.301	0.431	0.088
-491.522	-60.673	-0.295	-0.125
-490.508	289.389	-0.188	-0.342
-489.493	-75.893	-0.123	0.044
-488.478	-200.000	-0.021	-0.123
-487.464	507.942	0.008	0.019
-486.449	-164.420	-0.148	-0.007
-485.435	-112.368	-0.045	-0.009
-484.420	25.429	0.175	0.146
-483.405	-105.786	-0.364	-0.082
-482.391	25.190	-0.067	-0.056
-481.376	-113.349	0.201	-0.040
-480.362	3.717	-0.152	0.112
-479.347	-18.620	-0.346	0.216
-478.332	800.000	0.063	-0.185
-477.318	-154.912	0.378	-0.025
-476.303	-144.823	-0.322	-0.030
-475.289	32.293	0.202	0.175
-474.274	72.125	0.042	0.044
-473.259	-109.256	0.325	0.069
-472.245	-200.000	0.069	-0.459
-471.230	46.246	0.362	-0.336
-470.216	-67.937	0.237	-0.093
-469.201	281.333	-0.029	0.052
-468.186	-188.357	-0.274	0.003
-467.172	-1.460	0.297	0.210
-466.157	247.809	0.125	0.211
-465.143	-200.000	0.011	0.262
-464.128	0.346	-0.016	0.011
-463.113	-200.000	-0.029	-0.186
-462.099	2.282	0.294	-0.213
-461.084	291.626	0.053	0.097
-460.070	-128.609	-0.093	0.013
-459.055	165.417	0.147	0.208
-458.040	800.000	0.077	0.254
-457.026	-200.000	0.258	0.000
-456.011	-106.942	-0.471	0.104
-454.997	286.255	-0.053	0.096
-453.982	187.781	-0.025	0.038
-452.968	578.629	-0.013	0.032
-451.953	800.000	0.081	0.307
-450.938	800.000	0.102	-0.311
-449.924	-106.667	-0.271	-0.060
-448.909	343.714	0.126	-0.248
-447.895	-91.271	0.121	0.035
-446.880	138.525	0.150	0.198
-445.865	-11.057	0.210	0.139
-444.851	141.168	-0.251	0.333
-443.836	-173.835	-0.346	0.010
-442.822	428.355	-0.127	-0.274
-441.807	150.804	0.152	0.207
-440.792	-200.000	-0.016	0.282
-439.778	-200.000	-0.018	-0.121
-438.763	-200.000	-0.051	-0.286
-437.749	-160.769	0.135	0.007
-436.734	-200.000	-0.025	-0.167
-435.719	-200.000	-0.019	0.181
-434.705	800.000	-0.026	0.098
-433.690	223.123	-0.101	-0.163
-432.676	-71.862	0.340	-0.127
-431.661	-137.858	0.460	-0.052
-430.646	-30.780	0.231	-0.131
-429.632	-200.000	0.017	-0.361
-428.617	-53.029	0.068	-0.031
-427.603	-200.000	-0.029	0.218
-426.588	30.299	-0.159	-0.136
-425.573	6.530	0.131	-0.097
-424.559	-41.322	0.050	0.026
-423.544	-200.000	0.074	0.363
-422.530	-146.968	-0.482	-0.041
-421.515	800.000	-0.073	-0.294
-420.500	-200.000	-0.015	-0.102
-419.486	-200.000	0.014	-0.073
-418.471	-200.000	0.044	0.327
-417.457	125.508	-0.051	-0.064
-416.442	370.275	-0.201	-0.407
-415.428	-200.000	-0.064	0.320
-414.413	-142.001	0.240	-0.024
-413.398	-146.739	-0.109	0.009
-412.384	-95.448	-0.114	0.031
-411.369	262.976	-0.200	-0.348
-410.355	-18.345	0.273	0.170
-409.340	-89.854	-0.235	0.069
-408.325	571.541	-0.019	-0.046
-407.311	140.129	0.095	-0.125
-406.296	-24.064	0.178	0.106
-405.282	-200.000	-0.003	-0.127
-404.267	208.650	-0.219	-0.342
-403.252	645.454	-0.111	-0.282
-402.238	-150.020	0.355	-0.028
-401.223	800.000	-0.061	0.210
-400.209	-200.000	-0.048	-0.222
-399.194	-200.000	0.024	0.181
-398.179	-148.397	-0.075	0.006
-397.165	146.449	0.115	0.155
-396.150	-78.978	0.148	0.050
-395.136	13.293	0.096	0.075
-394.121	-115.215	-0.264	0.050
-393.106	-200.000	0.079	-0.396
-392.092	-200.000	-0.019	0.199
-391.077	137.171	0.176	-0.230
-390.063	210.272	0.142	0.223
-389.048	36.608	0.127	-0.112
-388.033	-94.735	-0.416	0.113
-387.019	-23.031	0.210	-0.127
-386.004	800.000	-0.020	0.064
-384.990	98.389	0.188	0.216
-383.975	-200.000	0.005	-0.118
-382.960	46.241	0.292	0.270
-381.946	102.338	0.113	-0.132
-380.931	171.235	0.094	-0.134
-379.917	453.221	-0.032	-0.070
-378.902	-64.211	0.151	-0.061
-377.888	-110.565	0.328	0.068
-376.873	193.170	-0.260	0.392
-375.858	125.578	-0.170	0.214
-374.844	-84.911	0.109	-0.034
-373.829	-115.932	-0.181	0.034
-372.815	800.000	-0.040	-0.137
-371.800	492.158	0.063	0.144
-370.785	-1.083	0.075	0.053
-369.771	36.317	0.084	0.074
-368.756	-74.342	0.182	-0.066
-367.742	-200.000	0.022	-0.156
-366.727	-90.752	-0.247	0.071
-365.712	260.409	-0.120	-0.207
-364.698	686.100	0.096	-0.251
-363.683	-61.604	0.117	-0.049
-362.669	160.388	-0.220	-0.306
-361.654	-122.915	-0.177	0.029
-360.639	534.109	0.157	0.372
-359.625	-79.094	0.245	0.083
-358.610	58.673	-0.025	-0.024
-357.596	87.245	0.211	-0.232
-356.581	-105.716	0.160	0.036
-355.566	-168.996	0.280	0.010
-354.552	-162.266	0.174	0.009
-353.537	-52.903	-0.248	0.114
-352.523	800.000	0.051	0.200
-351.508	-25.369	-0.308	0.182
-350.493	2.204	-0.082	-0.059
-349.479	-200.000	0.000	-0.198
-348.464	185.572	-0.171	-0.254
-347.450	211.649	0.100	-0.157
-346.435	-34.047	0.420	-0.230
-345.420	-113.930	-0.435	0.084
-344.406	-91.469	-0.350	-0.100
-343.391	526.691	0.058	-0.136
-342.377	-107.145	-0.166	0.037
-341.362	50.515	-0.179	-0.169
-340.348	-22.784	0.054	0.032
-339.333	520.480	0.168	0.393
-338.318	-200.000	0.015	-0.289
-337.304	-35.918	-0.216	0.116
-336.289	-133.457	0.228	0.029
-335.275	-200.000	0.001	-0.225
-334.260	263.799	-0.200	0.346
-333.245	-84.161	-0.138	0.044
-332.231	800.000	0.095	0.340
-331.216	800.000	-0.039	-0.125
-330.202	82.611	-0.093	-0.100
-329.187	229.427	-0.187	0.304
-328.172	-33.428	-0.384	0.212
-327.158	113.078	0.092	0.112
-326.143	800.000	-0.040	0.113
-325.129	122.815	-0.033	0.041
-324.114	-13.297	-0.261	0.169
-323.099	110.616	-0.045	-0.054
-322.085	34.156	-0.094	0.082
-321.070	-200.000	-0.009	-0.280
-320.056	-94.559	0.188	-0.051
-319.041	-75.810	-0.168	0.059
-318.026	344.640	0.113	-0.220
-317.012	-28.914	0.270	-0.155
-315.997	-181.330	0.285	-0.006
-314.983	-200.000	-0.028	0.314
-313.968	-71.297	-0.194	0.073
-312.953	-111.292	-0.260	0.053
-311.939	81.655	-0.092	0.099
-310.924	38.685	0.151	0.134
-309.910	-200.000	-0.005	0.102
-308.895	-200.000	-0.021	0.112
-307.880	-70.870	-0.386	0.145
-306.866	-61.591	0.109	-0.046
-305.851	330.545	0.130	-0.250
-304.837	-24.456	0.199	-0.118
-303.822	-109.168	-0.103	0.022
-302.807	-129.390	-0.467	0.065
-301.793	-142.348	0.701	-0.069
-300.778	-68.784	0.076	-0.029
-299.764	800.000	-0.032	-0.135
-298.749	-99.745	-0.195	0.049
-297.735	-142.378	0.015	-0.001
-296.720	90.021	-0.120	-0.134
-295.705	83.206	0.324	-0.351
-294.691	48.679	0.062	0.058
-293.676	496.774	0.137	0.314
-292.662	42.492	-0.106	0.096
-291.647	101.430	-0.186	-0.215
-290.632	-124.467	-0.055	0.009
-289.618	91.875	0.063	-0.070
-288.603	-24.907	0.332	0.196
-287.589	-200.000	-0.002	-0.128
-286.574	-75.555	0.176	0.062
-285.559	-200.000	0.005	0.143
-284.545	178.770	0.047	-0.068
-283.530	-36.919	0.234	0.125
-282.516	141.873	-0.144	0.190
-281.501	476.921	0.072	0.162
-280.486	-200.000	-0.039	0.328
-279.472	0.535	0.195	0.138
-278.457	-46.045	0.278	-0.136
-277.443	-148.260	0.151	0.012
-276.428	-93.222	-0.158	-0.044
-275.413	-69.537	0.186	0.071
-274.399	182.983	0.051	0.075
-273.384	-100.284	-0.244	-0.060
-272.370	-154.279	-0.450	0.030
-271.355	-90.213	0.289	0.083
-270.340	-65.557	0.277	0.111
-269.326	-26.130	-0.137	0.080
-268.311	37.795	0.343	-0.303
-267.297	70.970	-0.289	-0.298
-266.282	153.097	0.081	-0.111
-265.267	-200.000	0.053	-0.344
-264.253	-116.924	0.261	-0.048
-263.238	300.071	0.067	0.123
-262.224	800.000	-0.077	-0.287
-261.209	-52.130	-0.202	0.093
-260.195	242.832	0.016	0.026
-259.180	-60.351	0.446	0.188
-258.165	-69.356	0.125	-0.048
-257.151	-200.000	0.032	-0.381
-256.136	163.180	0.068	-0.095
-255.122	-26.755	-0.157	0.091
-254.107	5.238	-0.144	-0.105
-253.092	-66.877	-0.244	-0.096
-252.078	124.754	0.107	0.134
-251.063	-92.214	0.318	0.089
-250.049	-142.513	-0.597	0.058
-249.034	-173.735	0.354	-0.010
-248.019	195.023	0.127	0.191
-247.005	-200.000	0.031	-0.359
-245.990	243.628	0.075	0.124
-244.976	-200.000	0.007	-0.199
-243.961	-98.733	0.224	-0.057
-242.946	-117.854	-0.365	0.065
-241.932	105.687	0.068	-0.080
-240.917	-108.352	-0.360	-0.077
-239.903	-68.864	-0.356	-0.136
-238.888	-195.183	0.164	0.001
-237.873	-200.000	0.041	-0.232
-236.859	-102.666	-0.043	-0.010
-235.844	362.832	0.143	0.285
-234.830	-168.837	-0.161	-0.006
-233.815	49.255	0.268	0.250
-232.800	-200.000	0.239	-0.001
-231.786	71.375	-0.118	0.121
-230.771	135.902	0.100	-0.130
-229.757	-114.847	-0.116	0.022
-228.742	-149.821	0.220	-0.017
-227.727	-72.928	0.218	-0.079
-226.713	800.000	0.107	-0.342
-225.698	-40.040	0.260	0.134
-224.684	148.112	0.079	-0.106
-223.669	304.792	0.025	-0.047
-222.655	-8.391	-0.200	-0.133
-221.640	275.162	0.155	-0.273
-220.625	-141.072	0.076	0.008
-219.611	-200.000	-0.081	0.000
-218.596	792.651	-0.096	-0.261
-217.582	212.784	0.073	-0.114
-216.567	800.000	0.075	0.288
-215.552	10.988	-0.289	0.219
-214.538	800.000	-0.033	0.097
-213.523	800.000	0.017	-0.060
-212.509	-90.523	-0.473	-0.136
-211.494	797.683	0.032	0.086
-210.479	-200.000	-0.043	-0.228
-209.465	-49.812	-0.243	0.114
-208.450	84.574	-0.127	-0.138
-207.436	-200.000	-0.023	0.295
-206.421	344.771	0.236	0.459
-205.406	54.876	-0.076	0.073
-204.392	800.000	-0.017	0.062
-203.377	-38.941	-0.182	0.095
-202.363	-36.165	-0.271	0.145
-201.348	351.119	0.153	0.300
-200.333	-104.376	0.244	-0.056
-199.319	-168.288	0.277	-0.011
-198.304	-156.717	-0.418	-0.026
-197.290	-7.594	0.171	0.115
-196.275	800.000	0.055	-0.162
-195.260	-200.000	-0.036	-0.182
-194.246	8.353	0.257	0.192
-193.231	32.841	0.112	-0.096
-192.217	-196.079	-0.241	0.002
-191.202	26.822	-0.234	0.195
-190.187	800.000	-0.012	0.045
-189.173	772.719	-0.089	-0.242
-188.158	800.000	-0.063	-0.234
-187.144	-200.000	-0.001	-0.143
-186.129	118.401	0.093	0.114
-185.114	-133.619	-0.459	0.057
-184.100	780.950	0.249	0.674
-183.085	84.727	-0.117	0.127
-182.071	20.956	0.260	0.209
-181.056	384.732	0.128	0.261
-180.042	-140.237	-0.303	0.031
-179.027	-126.775	0.211	-0.031
-178.012	568.624	0.059	0.141
-176.998	-29.415	0.256	-0.145
-175.983	-200.000	-0.014	0.289
-174.969	165.837	-0.220	0.308
-173.954	-4.211	0.204	0.140
-172.939	58.357	0.183	-0.178
-171.925	-125.466	-0.265	-0.040
-170.910	322.657	-0.109	0.206
-169.896	532.108	0.095	0.222
-168.881	-133.455	0.116	-0.014
-167.866	17.307	-0.283	-0.222
-166.852	702.749	-0.162	-0.422
-165.837	-25.453	-0.287	0.168
-164.823	800.000	-0.079	0.287
-163.808	-27.449	-0.247	-0.142
-162.793	-200.000	-0.043	0.226
-161.779	-74.155	-0.158	-0.057
-160.764	125.418	0.057	-0.071
-159.750	780.927	0.109	-0.294
-158.735	-3.480	0.276	-0.190
-157.720	124.532	-0.103	-0.128
-156.706	28.547	0.219	0.183
-155.691	173.759	0.088	-0.126
-154.677	800.000	0.058	-0.180
-153.662	-77.708	0.154	-0.053
-152.647	-164.358	-0.286	0.013
-151.633	47.056	0.037	0.034
-150.618	-35.270	0.143	-0.077
-149.604	6.841	0.250	-0.184
-148.589	95.091	-0.174	-0.196
-147.574	800.000	0.182	-0.510
-146.560	88.043	0.086	-0.095
-145.545	171.600	0.189	0.268
-144.531	800.000	0.036	0.133
-143.516	-12.070	-0.289	0.187
-142.502	86.042	0.196	0.214
-141.487	-3.005	0.113	0.078
-140.472	800.000	-0.029	-0.087
-139.458	800.000	-0.085	-0.315
-138.443	698.250	-0.080	-0.207
-137.429	-87.376	-0.181	-0.054
-136.414	-114.433	0.075	0.014
-135.399	800.000	0.054	0.165
-134.385	-98.766	-0.242	0.061
-133.370	-44.132	-0.199	-0.099
-132.356	-144.180	-0.095	-0.009
-131.341	10.208	-0.047	-0.036
-130.326	7.163	-0.239	-0.176
-129.312	506.370	0.192	0.441
-128.297	800.000	0.120	0.346
-127.283	178.975	0.055	0.079
-126.268	-142.960	-0.077	-0.007
-125.253	278.005	-0.160	-0.282
-124.239	-86.417	-0.298	-0.090
-123.224	-17.283	-0.270	-0.168
-122.210	-200.000	-0.042	0.296
-121.195	-94.006	0.194	0.053
