DTS Sentinel unit serial number:	SN413079Multiplexer serial number:	ORYXHardware model number:	OX4-SRSoftware version number:	ORYX F/W v4.00 Oryx Data Collector v3.7.2.0data status	okinstallation	princeton_trtdifferential loss correction	single-endedforward channel	channel 4reverse channel	N/Adate	2019/09/11time	06:07:11forward acquisition time	60.00reverse acquisition time	0.00gamma	496.2192k internal	0.2315k external	0.2315temperature offset calibration	0.9948default loss term (dB/km)	0.3790temperature slope calibration	1.0000multiplexer offset coefficient	1.0000multiplexer slope coefficient	1.0000fibre end	0.00T internal ref (°C)	29.44T ext. ref 1 (°C)	-0.18T ext. ref 2 (°C)	23.91length (m)	temperature (°C)	Stokes	anti-Stokes-747.200	-9.190	0.019	0.013
-746.185	428.995	-0.139	0.305
-745.171	87.170	0.117	-0.131
-744.156	-200.000	0.011	0.329
-743.142	210.334	-0.095	-0.151
-742.127	46.218	-0.135	-0.126
-741.112	41.475	0.216	-0.198
-740.098	236.092	-0.069	0.115
-739.083	-57.220	0.135	-0.060
-738.069	-200.000	0.056	0.377
-737.054	250.110	-0.020	-0.034
-736.039	800.000	-0.018	-0.067
-735.025	121.584	-0.120	-0.152
-734.010	64.331	-0.188	-0.191
-732.996	210.818	-0.124	0.198
-731.981	-85.092	0.127	0.040
-730.966	45.407	-0.088	0.082
-729.952	-26.019	-0.159	-0.095
-728.937	-71.616	0.052	0.020
-727.923	572.388	-0.066	0.163
-726.908	-48.931	-0.271	0.131
-725.894	25.760	-0.200	0.169
-724.879	612.226	0.048	-0.121
-723.864	-200.000	0.073	0.417
-722.850	-200.000	-0.075	-0.422
-721.835	11.940	0.049	-0.038
-720.821	-49.970	-0.343	0.165
-719.806	-6.778	0.213	-0.146
-718.791	27.972	-0.114	0.097
-717.777	-95.053	-0.334	-0.091
-716.762	800.000	-0.035	0.108
-715.748	-151.495	-0.284	-0.021
-714.733	-15.587	0.256	0.165
-713.718	7.981	-0.090	0.069
-712.704	-74.055	-0.162	0.059
-711.689	136.013	0.038	0.051
-710.675	202.387	0.033	-0.051
-709.660	146.128	0.052	-0.071
-708.645	361.505	-0.053	-0.108
-707.631	-16.835	-0.294	0.188
-706.616	-24.969	0.306	0.184
-705.602	800.000	0.081	-0.277
-704.587	223.911	0.064	0.105
-703.572	-21.220	0.177	0.110
-702.558	64.208	0.210	-0.214
-701.543	386.884	0.071	0.149
-700.529	-58.008	0.218	-0.096
-699.514	145.412	0.220	0.298
-698.499	-92.279	0.267	0.076
-697.485	-66.809	0.107	-0.043
-696.470	-141.782	0.406	0.041
-695.456	179.606	-0.196	0.291
-694.441	-53.150	0.115	0.053
-693.426	602.955	-0.017	-0.043
-692.412	-144.152	-0.213	0.020
-691.397	-52.704	-0.080	-0.037
-690.383	345.121	-0.151	-0.299
-689.368	263.166	0.039	-0.068
-688.354	-34.549	0.173	-0.096
-687.339	389.021	0.087	0.182
-686.324	-137.956	-0.255	-0.029
-685.310	-102.909	0.306	0.073
-684.295	-73.970	0.042	0.016
-683.281	-200.000	-0.016	-0.296
-682.266	-101.901	-0.112	-0.027
-681.251	128.106	0.190	-0.244
-680.237	-200.000	-0.011	0.126
-679.222	-200.000	0.039	0.238
-678.208	800.000	-0.016	-0.052
-677.193	143.097	-0.034	-0.046
-676.178	80.955	-0.028	-0.030
-675.164	113.400	-0.168	0.206
-674.149	-2.497	-0.211	0.150
-673.135	-101.188	0.160	0.039
-672.120	-162.819	-0.142	-0.007
-671.105	-86.398	-0.189	-0.059
-670.091	0.491	0.386	0.279
-669.076	95.728	-0.256	0.295
-668.062	-80.716	0.106	-0.036
-667.047	72.305	0.257	-0.271
-666.032	38.656	-0.153	-0.138
-665.018	30.103	0.178	-0.153
-664.003	279.263	0.245	-0.442
-662.989	116.769	-0.175	-0.217
-661.974	-4.658	0.073	0.051
-660.959	75.034	0.043	0.046
-659.945	-182.294	-0.452	-0.008
-658.930	157.324	-0.142	0.198
-657.916	166.676	0.188	0.269
-656.901	247.148	0.089	0.152
-655.886	93.043	0.085	0.097
-654.872	-35.308	-0.295	-0.162
-653.857	-200.000	0.007	-0.289
-652.843	800.000	0.061	-0.196
-651.828	-143.698	0.296	-0.028
-650.814	-14.193	-0.179	0.116
-649.799	-43.448	0.075	-0.038
-648.784	9.533	-0.240	-0.183
-647.770	195.493	-0.119	0.183
-646.755	-53.746	0.053	0.024
-645.741	-16.096	-0.208	-0.133
-644.726	-102.808	0.175	0.042
-643.711	481.120	-0.034	-0.079
-642.697	800.000	-0.105	-0.439
-641.682	426.562	-0.118	0.256
-640.668	800.000	-0.054	0.215
-639.653	-120.641	-0.091	-0.016
-638.638	-19.294	-0.236	-0.148
-637.624	516.223	-0.089	0.211
-636.609	-168.556	0.255	0.010
-635.595	-33.461	-0.421	0.235
-634.580	-75.989	-0.197	-0.070
-633.565	112.394	0.148	-0.180
-632.551	78.742	0.025	-0.026
-631.536	248.210	-0.079	0.135
-630.522	-42.575	0.128	-0.066
-629.507	-200.000	-0.023	0.136
-628.492	-41.108	-0.064	-0.033
-627.478	-83.906	0.098	0.032
-626.463	800.000	0.125	0.369
-625.449	262.649	-0.065	-0.114
-624.434	-200.000	0.013	-0.225
-623.419	174.666	0.045	-0.065
-622.405	-166.037	-0.058	-0.002
-621.390	4.573	-0.444	0.329
-620.376	-74.926	-0.106	0.038
-619.361	79.136	0.297	-0.321
-618.346	332.509	0.075	0.147
-617.332	-200.000	0.016	-0.300
-616.317	214.972	0.007	-0.012
-615.303	148.861	0.194	0.264
-614.288	-100.269	0.061	0.015
-613.273	-200.000	0.025	-0.259
-612.259	122.787	0.325	-0.409
-611.244	-100.385	-0.081	-0.020
-610.230	800.000	0.072	0.227
-609.215	-86.008	0.364	-0.113
-608.201	800.000	0.092	-0.263
-607.186	-200.000	0.002	-0.027
-606.171	-200.000	-0.010	0.096
-605.157	-130.853	-0.284	0.038
-604.142	-175.260	-0.372	-0.010
-603.128	-68.404	0.133	-0.052
-602.113	120.847	-0.170	-0.213
-601.098	800.000	-0.060	-0.181
-600.084	-79.723	-0.265	-0.090
-599.069	-200.000	0.020	-0.095
-598.055	-128.811	0.240	0.034
-597.040	514.493	0.024	-0.057
-596.025	-200.000	0.099	0.508
-595.011	82.891	-0.043	-0.047
-593.996	-179.537	-0.453	0.010
-592.982	-77.732	0.249	0.087
-591.967	-126.727	-0.236	-0.035
-590.952	384.688	0.101	-0.209
-589.938	-200.000	-0.032	0.316
-588.923	313.503	-0.104	-0.198
-587.909	-200.000	-0.007	-0.112
-586.894	163.456	-0.066	-0.094
-585.879	800.000	0.079	-0.306
-584.865	-116.473	0.082	-0.015
-583.850	328.104	-0.055	-0.107
-582.836	71.419	-0.190	-0.198
-581.821	-200.000	-0.014	-0.205
-580.806	800.000	0.022	0.079
-579.792	-181.675	0.155	0.003
-578.777	54.468	0.196	0.190
-577.763	-109.565	-0.194	0.041
-576.748	-122.512	-0.258	-0.042
-575.733	-200.000	0.016	0.227
-574.719	-200.000	-0.042	0.249
-573.704	-22.069	-0.078	0.048
-572.690	54.727	-0.098	-0.095
-571.675	-200.000	-0.006	0.098
-570.661	-130.941	-0.431	0.058
-569.646	-77.474	0.226	0.079
-568.631	-130.379	-0.170	0.023
-567.617	-66.104	-0.354	-0.142
-566.602	-84.638	-0.062	0.020
-565.588	35.265	-0.234	0.207
-564.573	-85.712	0.095	0.030
-563.558	47.435	0.267	0.250
-562.544	-133.234	-0.144	0.018
-561.529	-75.723	-0.384	-0.137
-560.515	637.893	0.013	-0.034
-559.500	12.658	0.164	-0.128
-558.485	115.892	-0.198	-0.243
-557.471	800.000	-0.050	-0.151
-556.456	417.084	-0.132	0.284
-555.442	73.773	-0.183	0.193
-554.427	-72.665	-0.126	-0.047
-553.412	127.974	0.139	-0.178
-552.398	-75.475	-0.291	-0.104
-551.383	-23.932	-0.042	-0.025
-550.369	-116.002	-0.049	-0.009
-549.354	-68.750	0.271	-0.105
-548.339	-112.539	0.433	-0.087
-547.325	528.536	-0.154	-0.364
-546.310	-151.247	0.108	0.008
-545.296	-200.000	0.015	-0.174
-544.281	-37.457	-0.229	0.123
-543.266	-18.530	-0.119	0.075
-542.252	12.977	0.222	0.173
-541.237	-11.603	0.214	0.141
-540.223	-200.000	0.065	-0.311
-539.208	-200.000	-0.054	0.271
-538.193	26.210	0.232	0.195
-537.179	45.212	-0.184	0.171
-536.164	125.195	0.200	0.254
-535.150	-200.000	-0.003	0.018
-534.135	-45.759	-0.091	0.045
-533.121	-200.000	-0.029	0.402
-532.106	21.991	-0.077	-0.063
-531.091	-200.000	0.012	-0.434
-530.077	-121.922	0.189	0.031
-529.062	79.993	-0.204	0.220
-528.048	800.000	0.077	-0.217
-527.033	-200.000	-0.052	-0.270
-526.018	-200.000	0.018	0.302
-525.004	278.407	0.106	-0.189
-523.989	-89.973	0.231	-0.068
-522.975	324.818	-0.098	-0.188
-521.960	-38.975	0.077	0.041
-520.945	-29.241	-0.146	0.084
-519.931	237.268	-0.038	0.063
-518.916	-57.532	-0.061	-0.027
-517.902	286.422	0.148	-0.268
-516.887	-61.778	0.315	0.132
-515.872	800.000	0.029	-0.102
-514.858	135.228	-0.052	-0.068
-513.843	75.448	0.263	0.279
-512.829	800.000	-0.079	-0.308
-511.814	-67.965	-0.274	0.107
-510.799	-7.077	0.230	-0.157
-509.785	26.113	0.231	-0.193
-508.770	155.588	-0.140	-0.194
-507.756	-200.000	-0.022	0.241
-506.741	-92.070	0.359	-0.102
-505.726	82.324	0.239	-0.261
-504.712	227.896	-0.138	0.225
-503.697	-200.000	-0.107	0.619
-502.683	-200.000	0.009	-0.216
-501.668	-193.591	0.288	0.002
-500.653	-137.297	-0.453	0.052
-499.639	116.358	-0.172	0.212
-498.624	450.624	-0.127	0.282
-497.610	77.352	-0.134	-0.143
-496.595	-21.924	0.192	0.117
-495.581	45.943	-0.085	0.079
-494.566	623.022	-0.072	-0.183
-493.551	-108.727	-0.208	-0.045
-492.537	383.002	-0.134	0.277
-491.522	-56.402	0.156	0.070
-490.508	-105.524	-0.232	-0.053
-489.493	-200.000	0.006	-0.112
-488.478	27.857	0.054	-0.045
-487.464	800.000	-0.056	-0.236
-486.449	800.000	0.065	0.240
-485.435	-200.000	0.001	-0.147
-484.420	-79.308	-0.059	-0.020
-483.405	256.810	0.081	0.140
-482.391	-39.663	0.333	0.175
-481.376	210.813	0.127	-0.200
-480.362	93.849	-0.207	-0.236
-479.347	531.477	-0.076	-0.179
-478.332	-200.000	-0.005	0.286
-477.318	-42.825	-0.061	0.031
-476.303	-200.000	0.002	-0.276
-475.289	117.462	-0.139	0.172
-474.274	-91.678	0.151	-0.043
-473.259	225.864	0.097	0.157
-472.245	-200.000	-0.088	0.406
-471.230	156.231	0.187	0.259
-470.216	-151.944	0.104	0.008
-469.201	-200.000	0.012	0.208
-468.186	-18.548	-0.102	-0.064
-467.172	-22.977	0.351	-0.212
-466.157	-123.643	0.175	0.028
-465.143	-200.000	0.029	0.144
-464.128	38.059	-0.301	-0.269
-463.113	-150.600	-0.145	0.011
-462.099	-162.588	0.251	-0.012
-461.084	216.562	-0.135	-0.215
-460.070	126.518	-0.228	-0.289
-459.055	137.320	0.093	-0.122
-458.040	-48.328	0.152	0.074
-457.026	-200.000	-0.003	-0.275
-456.011	124.774	0.214	0.270
-454.997	212.405	-0.227	-0.358
-453.982	-200.000	0.055	-0.284
-452.968	-200.000	-0.076	-0.353
-451.953	-54.302	0.110	-0.050
-450.938	71.455	-0.226	-0.235
-449.924	4.770	0.249	0.183
-448.909	177.446	-0.103	0.151
-447.895	800.000	0.042	-0.135
-446.880	242.748	0.136	0.228
-445.865	3.853	-0.355	0.259
-444.851	-200.000	-0.035	-0.170
-443.836	-157.641	-0.205	-0.012
-442.822	193.200	-0.090	-0.137
-441.807	-87.774	0.278	-0.084
-440.792	115.923	-0.059	0.072
-439.778	102.913	0.007	0.008
-438.763	-200.000	-0.080	-0.394
-437.749	345.468	-0.054	-0.106
-436.734	-72.667	-0.180	0.067
-435.719	-104.248	0.058	-0.014
-434.705	586.498	0.053	-0.130
-433.690	-4.572	0.336	0.232
-432.676	-46.654	0.138	-0.068
-431.661	-200.000	-0.035	0.211
-430.646	143.070	0.088	0.118
-429.632	-12.463	-0.064	0.042
-428.617	18.359	-0.359	0.287
-427.603	47.857	-0.095	0.089
-426.588	-194.897	0.236	-0.002
-425.573	50.118	0.186	0.175
-424.559	-107.864	-0.175	0.038
-423.544	232.110	0.130	0.214
-422.530	97.978	0.190	0.219
-421.515	162.172	-0.104	-0.146
-420.500	32.502	0.067	-0.058
-419.486	523.196	-0.037	0.088
-418.471	631.110	0.019	-0.048
-417.457	-200.000	0.014	0.079
-416.442	470.599	0.063	0.142
-415.428	-200.000	0.004	-0.239
-414.413	-83.765	0.081	0.026
-413.398	-168.822	-0.329	-0.012
-412.384	-161.109	0.165	-0.009
-411.369	22.095	-0.239	0.195
-410.355	255.487	-0.172	0.294
-409.340	-200.000	-0.038	-0.293
-408.325	-27.334	0.226	0.131
-407.311	800.000	0.053	0.202
-406.296	-47.610	-0.096	-0.047
-405.282	441.797	0.050	0.109
-404.267	782.576	0.136	-0.372
-403.252	-41.465	-0.272	0.140
-402.238	130.282	-0.154	-0.197
-401.223	-200.000	0.000	-0.144
-400.209	-200.000	0.005	-0.184
-399.194	-200.000	0.025	-0.135
-398.179	-200.000	0.033	0.225
-397.165	272.810	0.289	0.510
-396.150	800.000	0.016	0.049
-395.136	-200.000	-0.025	0.145
-394.121	382.020	0.108	0.221
-393.106	-109.208	0.201	0.043
-392.092	800.000	0.081	-0.226
-391.077	17.468	-0.143	0.113
-390.063	489.808	0.112	-0.255
-389.048	84.306	0.156	-0.170
-388.033	-152.819	0.399	0.028
-387.019	471.145	0.247	-0.556
-386.004	81.858	-0.065	-0.070
-384.990	-200.000	0.005	0.142
-383.975	67.244	-0.124	-0.126
-382.960	-15.300	0.039	-0.025
-381.946	174.338	-0.170	0.245
-380.931	-200.000	0.033	0.229
-379.917	239.947	0.026	-0.044
-378.902	21.577	-0.049	-0.040
-377.888	70.807	-0.205	0.212
-376.873	687.545	-0.163	-0.425
-375.858	-200.000	0.011	-0.099
-374.844	326.827	-0.047	0.090
-373.829	-95.040	0.168	-0.045
-372.815	-121.509	-0.040	-0.007
-371.800	800.000	-0.017	-0.065
-370.785	202.403	-0.044	0.068
-369.771	-107.557	0.502	0.110
-368.756	516.197	0.097	0.227
-367.742	359.016	0.073	0.147
-366.727	210.958	0.032	-0.049
-365.712	-16.855	0.182	0.115
-364.698	-200.000	0.068	0.300
-363.683	129.045	0.102	0.131
-362.669	800.000	-0.052	-0.188
-361.654	-77.122	0.503	0.175
-360.639	8.280	-0.113	0.085
-359.625	121.799	0.067	-0.083
-358.610	800.000	0.064	0.198
-357.596	246.560	0.089	0.151
-356.581	-0.519	0.174	-0.123
-355.566	-170.665	-0.123	0.004
-354.552	-62.975	-0.161	0.067
-353.537	-124.775	0.248	0.038
-352.523	23.473	0.220	-0.180
-351.508	800.000	0.081	-0.272
-350.493	-170.885	-0.145	0.005
-349.479	83.108	-0.106	0.115
-348.464	-112.088	-0.088	0.018
-347.450	-125.544	0.155	-0.023
-346.435	333.611	-0.044	-0.085
-345.420	175.538	-0.157	-0.228
-344.406	800.000	-0.082	0.260
-343.391	-106.747	0.245	-0.054
-342.377	65.615	-0.078	-0.079
-341.362	29.122	0.114	0.096
-340.348	-60.482	-0.169	-0.072
-339.333	38.110	-0.139	0.124
-338.318	176.546	0.086	-0.124
-337.304	9.456	-0.188	-0.142
-336.289	-126.189	0.305	0.046
-335.275	596.438	-0.118	-0.292
-334.260	-200.000	0.021	0.096
-333.245	800.000	0.058	-0.192
-332.231	87.932	-0.408	0.451
-331.216	-85.798	0.084	0.026
-330.202	-62.816	0.056	-0.023
-329.187	-40.543	0.175	-0.091
-328.172	-80.581	0.251	0.083
-327.158	-70.514	-0.156	-0.059
-326.143	-200.000	0.050	0.287
-325.129	-14.189	0.126	0.081
-324.114	462.526	0.138	0.307
-323.099	-117.985	-0.384	0.068
-322.085	303.453	0.043	-0.080
-321.070	707.465	-0.006	0.016
-320.056	800.000	-0.124	0.352
-319.041	445.241	-0.016	0.036
-318.026	275.352	-0.216	-0.381
-317.012	-65.162	-0.384	-0.154
-315.997	-200.000	-0.002	0.094
-314.983	-16.614	0.079	0.050
-313.968	-59.908	0.154	0.066
-312.953	292.684	-0.112	0.203
-311.939	800.000	-0.035	-0.124
-310.924	-200.000	0.042	0.221
-309.910	-35.727	0.351	-0.190
-308.895	-2.355	-0.101	0.071
-307.880	478.967	-0.161	-0.363
-306.866	-200.000	0.038	-0.175
-305.851	800.000	-0.054	-0.193
-304.837	-76.272	0.097	0.034
-303.822	206.320	0.147	0.228
-302.807	400.928	0.031	0.065
-301.793	800.000	-0.025	-0.073
-300.778	-5.325	0.133	0.091
-299.764	212.699	0.152	-0.238
-298.749	-140.398	-0.109	0.011
-297.735	-87.976	-0.096	-0.029
-296.720	426.223	0.177	0.379
-295.705	-81.564	0.264	-0.086
-294.691	199.257	-0.105	0.161
-293.676	-40.070	-0.267	0.139
-292.662	-54.836	0.349	-0.157
-291.647	-114.324	0.404	-0.077
-290.632	-91.553	-0.021	-0.006
-289.618	2.790	0.051	0.037
-288.603	664.127	0.054	0.139
-287.589	12.396	-0.184	0.141
-286.574	154.926	-0.193	0.264
-285.559	369.233	0.128	0.257
-284.545	116.014	-0.015	0.018
-283.530	-200.000	-0.019	-0.147
-282.516	-19.446	0.249	0.154
-281.501	-147.029	-0.117	0.010
-280.486	540.954	0.113	-0.267
-279.472	-30.575	0.449	0.253
-278.457	-40.669	-0.179	-0.092
-277.443	-125.742	-0.094	0.014
-276.428	348.128	-0.079	-0.155
-275.413	-69.996	-0.147	0.056
-274.399	61.336	0.325	0.322
-273.384	-84.142	0.233	-0.073
-272.370	48.467	0.141	-0.132
-271.355	314.899	-0.107	-0.201
-270.340	185.327	0.100	-0.148
-269.326	666.564	0.108	-0.278
-268.311	800.000	0.060	-0.181
-267.297	-200.000	0.015	-0.108
-266.282	170.761	0.139	0.198
-265.267	-20.606	-0.224	-0.137
-264.253	162.810	0.209	0.292
-263.238	-113.765	0.071	0.014
-262.224	531.019	0.013	-0.031
-261.209	-200.000	-0.054	0.322
-260.195	1.527	0.073	-0.052
-259.180	-200.000	-0.024	-0.160
-258.165	-53.731	-0.318	-0.144
-257.151	11.731	0.104	-0.080
-256.136	-5.902	-0.262	0.178
-255.122	8.968	-0.268	0.201
-254.107	-114.682	0.493	0.094
-253.092	-96.013	0.379	-0.100
-252.078	-67.355	0.350	0.137
-251.063	380.692	-0.067	0.137
-250.049	-61.942	-0.205	-0.085
-249.034	-79.021	0.231	-0.078
-248.019	-114.976	-0.070	-0.013
-247.005	800.000	-0.071	0.218
-245.990	800.000	-0.080	0.252
-244.976	800.000	0.104	0.343
-243.961	-68.538	0.308	0.119
-242.946	283.294	-0.175	-0.312
-241.932	285.193	-0.104	-0.185
-240.917	-29.796	-0.353	-0.200
-239.903	374.959	0.054	0.108
-238.888	347.785	0.117	-0.229
-237.873	114.712	0.089	0.107
-236.859	-200.000	0.040	0.262
-235.844	120.634	0.110	0.136
-234.830	70.945	0.055	0.056
-233.815	42.651	-0.277	-0.251
-232.800	605.188	-0.015	0.037
-231.786	37.659	0.180	-0.159
-230.771	72.891	-0.064	0.066
-229.757	8.303	-0.108	0.081
-228.742	800.000	0.040	0.132
-227.727	233.963	0.078	-0.127
-226.713	99.808	-0.150	0.173
-225.698	92.950	-0.113	0.127
-224.684	476.163	-0.083	-0.186
-223.669	-200.000	0.034	-0.216
-222.655	-113.176	-0.241	0.047
-221.640	-112.872	-0.591	0.116
-220.625	71.550	0.130	-0.134
-219.611	355.698	-0.115	-0.226
-218.596	-200.000	0.005	0.040
-217.582	-200.000	0.047	-0.322
-216.567	-200.000	0.058	-0.327
-215.552	-98.102	-0.262	0.067
-214.538	20.476	-0.308	0.247
-213.523	233.599	-0.280	0.458
-212.509	-200.000	-0.003	0.243
-211.494	175.822	-0.041	0.059
-210.479	18.940	-0.050	-0.040
-209.465	-147.201	-0.389	0.033
-208.450	-159.663	0.109	0.006
-207.436	-70.879	-0.296	-0.111
-206.421	-175.537	0.205	0.006
-205.406	-199.544	0.326	-0.002
-204.392	266.654	0.159	-0.275
-203.377	381.799	-0.093	0.190
-202.363	-14.979	0.371	-0.236
-201.348	-200.000	-0.020	0.206
-200.333	-100.002	-0.197	-0.049
-199.319	91.323	-0.237	-0.264
-198.304	118.492	0.158	-0.193
-197.290	-48.060	0.151	0.072
-196.275	466.911	-0.113	-0.250
-195.260	-39.163	-0.322	-0.168
-194.246	49.689	0.152	0.142
-193.231	169.101	0.167	0.236
-192.217	-2.128	-0.204	0.142
-191.202	130.375	0.059	0.075
-190.187	-104.371	-0.196	-0.045
-189.173	-200.000	-0.015	-0.183
-188.158	275.087	-0.185	0.324
-187.144	-82.398	-0.278	-0.089
-186.129	165.023	0.258	-0.361
-185.114	-36.464	0.068	-0.037
-184.100	150.360	0.118	-0.159
-183.085	-1.282	-0.104	0.073
-182.071	-21.411	0.130	0.079
-181.056	15.637	-0.131	0.102
-180.042	-126.182	0.040	0.006
-179.027	-66.289	-0.432	-0.171
-178.012	-60.828	0.229	-0.096
-176.998	-102.067	-0.178	0.042
-175.983	183.577	-0.078	-0.114
-174.969	-200.000	-0.034	-0.177
-173.954	39.031	0.176	0.156
-172.939	53.868	0.288	-0.274
-171.925	44.062	0.241	0.219
-170.910	604.720	-0.153	-0.379
-169.896	-143.728	-0.297	0.028
-168.881	-71.907	0.330	-0.122
-167.866	-26.802	0.302	-0.175
-166.852	135.076	0.129	0.166
-165.837	-73.673	0.185	0.067
-164.823	-67.195	0.305	-0.119
-163.808	-4.586	-0.229	-0.157
-162.793	800.000	-0.021	0.068
-161.779	-1.878	0.072	-0.050
-160.764	-143.648	-0.250	0.024
-159.750	157.819	0.039	0.053
-158.735	-117.374	0.300	-0.054
-157.720	-200.000	-0.011	-0.244
-156.706	183.320	-0.243	0.355
-155.691	-105.023	-0.131	0.030
-154.677	-0.404	-0.199	-0.140
-153.662	75.304	-0.147	0.153
-152.647	800.000	0.056	0.181
-151.633	205.317	0.061	0.093
-150.618	1.369	0.372	0.265
-149.604	-29.075	0.062	0.035
-148.589	500.253	0.111	-0.254
-147.574	-29.266	0.334	0.189
-146.560	-66.101	0.422	0.167
-145.545	800.000	0.061	-0.233
-144.531	-200.000	-0.004	-0.044
-143.516	78.031	0.032	-0.034
-142.502	-196.328	0.343	0.002
-141.487	-131.671	-0.480	0.062
-140.472	68.048	0.115	-0.117
-139.458	-69.408	0.091	0.035
-138.443	218.033	0.215	0.339
-137.429	-82.359	-0.245	0.079
-136.414	-65.563	0.116	0.046
-135.399	-200.000	-0.004	0.025
-134.385	-128.870	0.289	-0.040
-133.370	800.000	-0.145	0.460
-132.356	-17.602	-0.156	-0.097
-131.341	124.144	0.149	0.185
-130.326	-40.927	0.116	-0.059
-129.312	-195.545	0.239	-0.002
-128.297	576.183	-0.075	-0.182
-127.283	60.624	0.231	0.227
-126.268	586.151	-0.082	-0.200
-125.253	-108.191	0.129	0.028
-124.239	47.551	0.253	0.233
-123.224	-200.000	-0.012	-0.145
-122.210	93.426	0.122	0.137
-121.195	-200.000	0.016	-0.102
-120.180	79.631	0.154	-0.164
