DTS Sentinel unit serial number:	SN413079Multiplexer serial number:	ORYXHardware model number:	OX4-SRSoftware version number:	ORYX F/W v4.00 Oryx Data Collector v3.7.2.0data status	okinstallation	princeton_trtdifferential loss correction	single-endedforward channel	channel 4reverse channel	N/Adate	2019/09/10time	17:55:11forward acquisition time	60.00reverse acquisition time	0.00gamma	496.2192k internal	0.2298k external	0.2298temperature offset calibration	0.9939default loss term (dB/km)	0.3790temperature slope calibration	1.0000multiplexer offset coefficient	1.0000multiplexer slope coefficient	1.0000fibre end	0.00T internal ref (°C)	37.30T ext. ref 1 (°C)	-0.38T ext. ref 2 (°C)	29.84length (m)	temperature (°C)	Stokes	anti-Stokes-747.200	663.609	0.113	0.297
-746.185	-159.883	0.218	-0.012
-745.171	141.158	0.088	0.119
-744.156	-156.668	-0.234	0.015
-743.142	201.295	-0.127	-0.199
-742.127	-97.074	-0.135	0.036
-741.112	-200.000	0.002	0.220
-740.098	800.000	-0.164	0.535
-739.083	-200.000	0.019	-0.116
-738.069	-37.535	-0.192	-0.105
-737.054	-119.053	0.445	-0.080
-736.039	85.234	-0.116	0.130
-735.025	800.000	0.032	0.118
-734.010	-200.000	0.013	0.072
-732.996	-79.799	-0.289	0.099
-731.981	178.563	0.211	-0.314
-730.966	140.813	-0.159	-0.214
-729.952	75.514	0.158	-0.171
-728.937	198.416	-0.108	-0.169
-727.923	-134.752	-0.047	-0.006
-726.908	-103.633	-0.113	-0.027
-725.894	-200.000	0.009	0.067
-724.879	800.000	0.041	0.135
-723.864	-106.925	-0.060	-0.014
-722.850	96.459	-0.050	-0.059
-721.835	336.361	0.095	0.189
-720.821	149.087	-0.062	-0.086
-719.806	19.688	0.043	-0.035
-718.791	56.036	-0.079	0.078
-717.777	-57.868	-0.179	-0.080
-716.762	6.151	-0.199	-0.150
-715.748	800.000	-0.042	-0.186
-714.733	-100.183	-0.099	-0.025
-713.718	343.594	0.074	0.147
-712.704	231.368	-0.191	-0.319
-711.689	-10.172	0.211	-0.143
-710.675	13.791	-0.152	-0.121
-709.660	156.687	0.046	-0.065
-708.645	-41.789	-0.045	0.023
-707.631	800.000	-0.046	0.143
-706.616	571.928	0.021	0.052
-705.602	29.719	-0.208	-0.180
-704.587	71.677	-0.132	-0.140
-703.572	800.000	-0.022	0.094
-702.558	-79.659	-0.167	-0.057
-701.543	314.730	0.122	0.235
-700.529	-5.023	-0.153	0.107
-699.514	-157.563	0.296	0.018
-698.499	-80.755	-0.122	-0.041
-697.485	61.940	-0.182	0.185
-696.470	800.000	-0.043	-0.121
-695.456	-33.932	-0.396	0.222
-694.441	-130.312	-0.580	0.080
-693.426	-30.184	0.065	0.038
-692.412	-89.935	-0.188	-0.056
-691.397	164.983	-0.171	-0.246
-690.383	-61.882	0.050	0.021
-689.368	17.106	-0.273	0.220
-688.354	-109.216	-0.225	0.049
-687.339	576.828	-0.097	-0.242
-686.324	-80.726	-0.243	-0.082
-685.310	6.827	0.132	-0.100
-684.295	-87.903	-0.183	0.056
-683.281	-120.721	0.200	0.034
-682.266	-125.262	0.381	-0.059
-681.251	35.099	-0.082	0.073
-680.237	264.242	0.045	0.080
-679.222	-133.807	0.127	-0.016
-678.208	86.882	0.027	-0.030
-677.193	-200.000	0.024	-0.118
-676.178	-113.715	-0.113	-0.022
-675.164	472.158	-0.100	0.229
-674.149	-58.818	0.156	-0.069
-673.135	242.988	0.067	-0.113
-672.120	568.960	-0.113	-0.281
-671.105	16.908	-0.341	-0.275
-670.091	-200.000	-0.020	-0.479
-669.076	184.932	-0.153	-0.230
-668.062	139.707	-0.169	0.227
-667.047	-70.481	-0.232	-0.089
-666.032	-200.000	-0.013	0.208
-665.018	39.569	-0.110	0.100
-664.003	-41.994	0.289	-0.151
-662.989	-200.000	0.014	0.239
-661.974	-122.775	-0.315	0.052
-660.959	800.000	0.115	0.348
-659.945	-164.915	-0.240	-0.011
-658.930	-87.039	0.280	-0.087
-657.916	-42.690	0.275	-0.143
-656.901	646.335	-0.134	0.349
-655.886	800.000	-0.070	0.263
-654.872	125.898	0.125	0.161
-653.857	-200.000	-0.015	0.193
-652.843	800.000	-0.058	-0.167
-651.828	319.950	-0.060	-0.115
-650.814	-110.360	-0.583	0.123
-649.799	800.000	-0.018	-0.079
-648.784	151.907	-0.133	0.185
-647.770	-163.477	-0.229	-0.011
-646.755	-30.607	0.121	-0.070
-645.741	142.224	0.175	-0.237
-644.726	8.187	-0.221	0.169
-643.711	761.815	-0.027	0.074
-642.697	-200.000	-0.019	0.201
-641.682	152.649	-0.230	-0.319
-640.668	-200.000	0.021	0.106
-639.653	-200.000	0.070	-0.365
-638.638	492.059	-0.087	0.203
-637.624	-74.494	0.126	-0.046
-636.609	-200.000	-0.018	-0.204
-635.595	188.740	-0.085	0.129
-634.580	-200.000	0.029	-0.163
-633.565	-104.254	-0.159	0.038
-632.551	-49.955	-0.167	0.081
-631.536	-189.117	-0.325	-0.004
-630.522	-76.810	0.261	0.093
-629.507	-116.738	-0.178	-0.033
-628.492	-200.000	-0.027	-0.146
-627.478	328.017	0.103	0.202
-626.463	205.294	-0.126	0.198
-625.449	400.366	0.081	0.172
-624.434	18.735	0.145	0.118
-623.419	800.000	-0.031	-0.119
-622.405	-1.960	0.160	-0.114
-621.390	-200.000	0.035	-0.329
-620.376	87.539	-0.005	0.006
-619.361	-86.887	-0.078	0.024
-618.346	800.000	-0.035	0.138
-617.332	-115.926	0.427	0.081
-616.317	-0.764	-0.445	0.320
-615.303	90.871	-0.082	0.093
-614.288	-63.615	-0.242	0.101
-613.273	800.000	-0.077	0.338
-612.259	33.570	0.076	0.067
-611.244	35.175	-0.183	0.163
-610.230	97.321	-0.107	0.124
-609.215	255.889	0.212	0.370
-608.201	-85.374	-0.278	-0.088
-607.186	212.282	-0.133	0.213
-606.171	769.398	-0.049	0.137
-605.157	77.360	-0.166	0.179
-604.142	-200.000	-0.033	-0.362
-603.128	800.000	-0.033	-0.104
-602.113	-146.892	0.175	-0.015
-601.098	440.009	-0.083	0.183
-600.084	-52.373	0.052	-0.024
-599.069	-200.000	-0.033	-0.411
-598.055	-139.419	0.184	-0.020
-597.040	-120.624	0.163	-0.028
-596.025	157.242	-0.220	-0.310
-595.011	-63.447	0.256	-0.107
-593.996	76.751	-0.094	-0.101
-592.982	-109.599	0.153	0.033
-591.967	-60.448	-0.222	-0.096
-590.952	49.818	0.209	0.200
-589.938	-108.762	0.234	0.051
-588.923	460.809	-0.186	-0.422
-587.909	-74.855	-0.117	-0.042
-586.894	-200.000	0.016	-0.167
-585.879	297.013	-0.160	0.299
-584.865	200.801	0.066	0.103
-583.850	-1.623	-0.077	-0.055
-582.836	800.000	-0.002	-0.009
-581.821	441.623	-0.182	0.403
-580.806	-53.295	0.160	-0.075
-579.792	168.154	0.045	-0.065
-578.777	-61.689	0.215	-0.091
-577.763	518.049	-0.045	-0.108
-576.748	481.058	0.033	-0.077
-575.733	-149.325	0.164	-0.013
-574.719	-200.000	-0.034	-0.174
-573.704	-200.000	-0.002	-0.122
-572.690	78.361	-0.057	-0.062
-571.675	-34.458	-0.283	0.157
-570.661	440.777	0.016	0.036
-569.646	-52.289	-0.441	0.207
-568.631	495.150	-0.074	-0.173
-567.617	-26.501	0.184	0.109
-566.602	-80.384	0.136	-0.046
-565.588	-172.851	0.083	0.003
-564.573	259.014	0.066	-0.115
-563.558	-7.938	0.028	0.019
-562.544	-200.000	-0.013	-0.153
-561.529	-59.623	0.248	-0.108
-560.515	127.369	0.131	-0.169
-559.500	-157.700	-0.210	-0.013
-558.485	419.587	-0.059	0.129
-557.471	-40.853	0.193	-0.101
-556.456	-124.139	-0.220	0.035
-555.442	583.857	-0.109	-0.272
-554.427	-200.000	-0.046	-0.365
-553.412	-103.469	-0.225	-0.054
-552.398	-89.744	0.167	0.049
-551.383	315.116	0.099	-0.189
-550.369	800.000	-0.062	-0.221
-549.354	-200.000	0.027	-0.348
-548.339	22.219	0.280	0.232
-547.325	-12.555	0.406	0.269
-546.310	-44.012	-0.122	0.062
-545.296	-193.621	0.160	-0.001
-544.281	800.000	-0.065	-0.220
-543.266	-95.196	-0.145	-0.039
-542.252	-200.000	-0.023	0.110
-541.237	325.547	-0.041	-0.080
-540.223	-49.989	-0.241	0.116
-539.208	800.000	-0.078	-0.269
-538.193	44.976	0.046	-0.043
-537.179	-31.450	0.106	-0.060
-536.164	-200.000	-0.056	-0.476
-535.150	-71.670	-0.400	-0.151
-534.135	347.166	-0.174	0.347
-533.121	3.258	0.095	0.070
-532.106	218.204	0.196	0.317
-531.091	218.209	-0.067	-0.109
-530.077	2.406	-0.100	-0.074
-529.062	15.705	0.221	-0.176
-528.048	-200.000	-0.026	0.247
-527.033	-200.000	-0.074	0.375
-526.018	-41.480	-0.174	0.091
-525.004	95.752	-0.086	0.099
-523.989	49.879	-0.243	0.232
-522.975	800.000	0.083	-0.312
-521.960	-135.540	0.279	-0.034
-520.945	800.000	-0.041	-0.119
-519.931	-38.956	0.283	-0.151
-518.916	-55.083	0.130	-0.059
-517.902	-50.395	-0.298	-0.142
-516.887	-27.257	0.143	-0.085
-515.872	-145.597	0.110	0.010
-514.858	-53.542	0.057	0.026
-513.843	-200.000	-0.010	-0.086
-512.829	-200.000	0.023	0.148
-511.814	194.474	0.093	0.142
-510.799	191.702	0.131	0.200
-509.785	-101.921	-0.055	0.013
-508.770	-118.438	-0.276	-0.049
-507.756	781.460	-0.034	-0.095
-506.741	-167.294	0.173	0.007
-505.726	154.904	0.132	-0.183
-504.712	77.778	0.128	0.138
-503.697	296.674	0.074	-0.137
-502.683	-45.121	-0.159	-0.080
-501.668	-47.309	0.196	-0.097
-500.653	-54.941	-0.228	0.104
-499.639	-21.059	0.112	0.070
-498.624	119.457	0.076	-0.095
-497.610	720.805	-0.100	0.268
-496.595	-11.791	-0.487	0.324
-495.581	-200.000	0.019	-0.129
-494.566	-41.599	0.316	-0.164
-493.551	-27.934	-0.134	-0.078
-492.537	-79.023	0.313	0.108
-491.522	-200.000	0.030	0.159
-490.508	71.888	0.276	0.291
-489.493	-18.875	-0.131	0.083
-488.478	88.317	0.155	0.174
-487.464	-22.961	-0.150	-0.091
-486.449	252.720	-0.051	0.088
-485.435	-122.087	-0.379	0.063
-484.420	-200.000	0.023	-0.254
-483.405	-68.930	0.244	0.095
-482.391	67.216	-0.155	-0.160
-481.376	67.123	-0.137	-0.141
-480.362	-200.000	-0.002	-0.016
-479.347	554.651	0.027	0.065
-478.332	-168.236	-0.143	0.006
-477.318	-200.000	-0.009	-0.089
-476.303	2.351	0.259	-0.189
-475.289	-200.000	0.067	0.377
-474.274	17.396	-0.188	-0.151
-473.259	4.036	0.169	-0.125
-472.245	187.485	-0.142	0.214
-471.230	-147.094	0.457	0.039
-470.216	-200.000	0.004	0.051
-469.201	546.977	-0.039	0.095
-468.186	-71.687	0.309	-0.116
-467.172	550.045	-0.065	-0.158
-466.157	-27.480	-0.301	-0.177
-465.143	170.644	0.109	0.157
-464.128	-10.087	-0.162	0.109
-463.113	800.000	-0.064	0.264
-462.099	-157.988	-0.133	-0.008
-461.084	-96.272	0.453	0.121
-460.070	17.053	-0.196	-0.157
-459.055	-29.453	0.103	0.059
-458.040	-174.213	0.219	-0.006
-457.026	-97.749	0.364	0.095
-456.011	127.137	0.085	-0.109
-454.997	464.975	-0.040	-0.090
-453.982	357.728	-0.169	-0.341
-452.968	-200.000	0.033	-0.315
-451.953	106.014	0.300	0.358
-450.938	141.733	-0.051	0.068
-449.924	-92.176	0.027	-0.008
-448.909	800.000	-0.112	-0.314
-447.895	15.442	0.046	-0.036
-446.880	160.573	0.039	-0.054
-445.865	555.671	-0.143	-0.348
-444.851	-125.722	-0.141	-0.022
-443.836	332.247	0.137	-0.267
-442.822	112.560	-0.143	-0.174
-441.807	800.000	-0.012	-0.037
-440.792	-136.970	0.088	0.010
-439.778	364.649	-0.129	-0.261
-438.763	1.521	0.397	-0.288
-437.749	16.937	0.158	-0.126
-436.734	155.119	0.177	-0.246
-435.719	-30.914	-0.421	-0.240
-434.705	-200.000	0.019	0.164
-433.690	-96.434	0.232	0.062
-432.676	701.144	0.042	0.113
-431.661	227.705	0.043	0.070
-430.646	169.842	0.068	-0.098
-429.632	-200.000	-0.067	0.319
-428.617	-100.881	-0.256	-0.063
-427.603	-92.777	0.287	0.081
-426.588	-41.821	0.303	0.156
-425.573	800.000	0.041	-0.117
-424.559	-30.085	-0.205	-0.118
-423.544	9.354	-0.096	-0.073
-422.530	-200.000	0.021	0.106
-421.515	266.704	-0.126	0.222
-420.500	800.000	-0.071	0.236
-419.486	-34.299	0.316	-0.175
-418.471	-43.279	0.201	0.103
-417.457	61.848	-0.115	0.115
-416.442	-132.605	0.365	-0.047
-415.428	-139.022	0.218	0.024
-414.413	179.883	-0.092	0.136
-413.398	-22.195	-0.393	0.240
-412.384	152.555	0.052	0.072
-411.369	288.697	0.106	-0.194
-410.355	124.284	0.161	-0.204
-409.340	-17.006	0.168	-0.107
-408.325	549.636	-0.110	-0.265
-407.311	-15.843	-0.085	0.055
-406.296	143.726	0.177	0.238
-405.282	18.336	0.147	-0.119
-404.267	129.388	-0.293	-0.377
-403.252	169.320	0.189	0.272
-402.238	-200.000	-0.005	-0.096
-401.223	-15.254	0.329	-0.212
-400.209	-116.312	-0.178	0.033
-399.194	-53.348	-0.193	-0.089
-398.179	-80.564	-0.113	-0.038
-397.165	-33.253	0.277	0.154
-396.150	34.492	0.238	0.209
-395.136	800.000	-0.017	-0.069
-394.121	-200.000	0.007	0.049
-393.106	41.772	0.246	-0.224
-392.092	800.000	0.084	0.311
-391.077	-200.000	-0.018	-0.173
-390.063	296.849	0.018	-0.034
-389.048	-136.035	-0.155	0.018
-388.033	-172.594	-0.067	0.002
-387.019	150.011	-0.037	0.051
-386.004	348.870	-0.091	0.180
-384.990	-70.549	-0.271	-0.103
-383.975	7.232	0.063	-0.047
-382.960	-200.000	-0.020	0.327
-381.946	-79.213	0.388	0.133
-380.931	-42.751	-0.370	-0.189
-379.917	-123.112	0.340	0.055
-378.902	-69.948	-0.099	0.038
-377.888	100.502	-0.074	0.086
-376.873	579.704	-0.081	0.200
-375.858	800.000	0.059	-0.189
-374.844	7.974	-0.374	0.282
-373.829	77.051	0.220	-0.235
-372.815	341.400	-0.085	0.167
-371.800	-84.374	0.168	-0.054
-370.785	-79.906	-0.077	0.026
-369.771	-18.536	-0.328	-0.206
-368.756	82.026	-0.101	0.110
-367.742	633.637	0.093	-0.238
-366.727	528.648	-0.094	-0.223
-365.712	-156.103	-0.321	0.020
-364.698	355.517	0.180	0.361
-363.683	-115.608	-0.244	0.046
-362.669	-94.340	-0.367	0.101
-361.654	800.000	-0.100	0.329
-360.639	287.497	0.111	0.202
-359.625	-85.649	-0.224	0.070
-358.610	13.306	0.081	-0.063
-357.596	-45.272	-0.172	-0.086
-356.581	-106.272	0.127	0.029
-355.566	18.845	-0.148	-0.119
-354.552	-200.000	-0.040	0.313
-353.537	295.050	0.189	0.348
-352.523	-29.616	0.316	-0.182
-351.508	-62.581	-0.174	0.073
-350.493	800.000	-0.075	-0.229
-349.479	480.477	0.070	-0.160
-348.464	190.306	0.117	-0.176
-347.450	-170.497	-0.209	0.007
-346.435	80.077	-0.112	0.121
-345.420	611.422	-0.124	-0.311
-344.406	-129.506	0.087	0.012
-343.391	88.303	-0.106	-0.118
-342.377	269.204	0.118	-0.208
-341.362	200.059	-0.124	0.192
-340.348	0.561	-0.146	0.105
-339.333	-94.816	-0.321	0.087
-338.318	-200.000	0.014	0.116
-337.304	404.036	-0.082	-0.173
-336.289	436.200	-0.193	0.422
-335.275	98.146	0.030	0.035
-334.260	-175.577	-0.182	-0.005
-333.245	-200.000	0.034	-0.373
-332.231	108.218	0.162	0.194
-331.216	-61.103	0.290	-0.123
-330.202	-120.783	-0.495	-0.084
-329.187	-200.000	-0.018	0.176
-328.172	-200.000	0.008	-0.166
-327.158	-177.140	-0.298	0.007
-326.143	-125.260	-0.247	-0.038
-325.129	-65.074	-0.059	-0.024
-324.114	-200.000	0.006	0.329
-323.099	-121.123	-0.295	-0.050
-322.085	-200.000	0.084	-0.374
-321.070	78.635	-0.188	0.202
-320.056	-200.000	-0.014	0.189
-319.041	116.645	-0.264	0.325
-318.026	579.141	0.147	0.361
-317.012	-102.558	0.129	0.031
-315.997	-76.074	-0.313	-0.111
-314.983	800.000	-0.046	-0.173
-313.968	-200.000	-0.044	-0.245
-312.953	-80.329	-0.410	-0.137
-311.939	-172.439	-0.240	0.008
-310.924	-85.740	0.148	-0.046
-309.910	-170.934	0.192	-0.007
-308.895	800.000	0.144	-0.451
-307.880	-126.887	-0.359	-0.053
-306.866	64.192	0.117	0.118
-305.851	-199.178	0.129	0.001
-304.837	-200.000	-0.000	0.039
-303.822	-35.288	0.082	0.045
-302.807	344.135	0.052	0.103
-301.793	502.123	0.122	0.282
-300.778	-126.406	0.260	-0.039
-299.764	-157.771	0.161	0.010
-298.749	214.347	0.202	-0.320
-297.735	-177.216	0.331	0.008
-296.720	85.282	0.120	0.132
-295.705	182.828	-0.087	0.129
-294.691	800.000	0.020	-0.081
-293.676	97.147	0.187	0.215
-292.662	302.236	0.253	0.469
-291.647	33.256	0.308	-0.268
-290.632	-145.069	0.132	0.012
-289.618	-200.000	0.001	0.134
-288.603	-53.284	0.053	0.024
-287.589	-89.023	0.232	-0.069
-286.574	133.811	-0.227	-0.295
-285.559	-183.533	-0.434	0.008
-284.545	571.522	-0.155	0.378
-283.530	4.732	-0.271	0.200
-282.516	800.000	0.054	0.223
-281.501	9.159	-0.254	0.193
-280.486	326.765	0.109	-0.210
-279.472	-61.843	-0.245	0.103
-278.457	-50.917	0.067	-0.031
-277.443	-76.487	-0.166	-0.058
-276.428	10.332	0.042	-0.032
-275.413	22.680	0.162	-0.133
-274.399	800.000	-0.139	0.413
-273.384	-95.119	-0.391	0.106
-272.370	119.953	-0.196	-0.243
-271.355	-200.000	0.036	-0.261
-270.340	36.972	-0.215	0.191
-269.326	97.016	0.061	0.070
-268.311	-99.492	-0.066	-0.017
-267.297	147.415	-0.078	-0.105
-266.282	-200.000	-0.014	-0.089
-265.267	800.000	-0.020	0.063
-264.253	122.848	0.145	-0.182
-263.238	-90.749	0.397	0.115
-262.224	54.937	0.021	-0.021
-261.209	-200.000	-0.016	0.102
-260.195	-61.370	0.171	0.072
-259.180	-0.171	0.130	-0.093
-258.165	-200.000	-0.000	0.061
-257.151	93.485	-0.177	-0.201
-256.136	-200.000	0.008	0.482
-255.122	-138.340	0.283	-0.031
-254.107	-33.351	-0.319	-0.177
-253.092	-123.438	0.093	0.015
-252.078	352.940	-0.101	0.201
-251.063	214.498	0.111	-0.177
-250.049	-200.000	0.005	0.127
-249.034	-200.000	-0.013	0.315
-248.019	-200.000	-0.005	0.243
-247.005	118.781	0.232	-0.287
-245.990	-200.000	0.043	-0.451
-244.976	-106.147	-0.181	0.041
-243.961	180.475	0.173	-0.255
-242.946	0.161	0.247	0.177
-241.932	291.133	0.146	-0.267
-240.917	711.451	0.096	-0.255
-239.903	-200.000	-0.017	0.076
-238.888	-80.950	-0.107	-0.035
-237.873	83.928	0.277	-0.302
-236.859	555.408	-0.075	0.181
-235.844	-200.000	-0.031	0.155
-234.830	105.290	0.194	-0.229
-233.815	60.401	0.126	0.125
-232.800	11.853	-0.201	0.155
-231.786	-56.022	0.151	-0.068
-230.771	-56.674	0.077	-0.034
-229.757	221.662	0.172	0.277
-228.742	-200.000	0.011	-0.187
-227.727	86.546	-0.273	-0.302
-226.713	-119.431	-0.232	0.040
-225.698	-113.842	-0.032	0.006
-224.684	-100.915	0.267	0.066
-223.669	-47.728	0.319	-0.155
-222.655	110.849	0.078	0.094
-221.640	-49.163	-0.140	0.067
-220.625	385.521	-0.097	-0.200
-219.611	53.032	-0.064	0.061
-218.596	-4.873	0.362	0.250
-217.582	-121.265	0.095	-0.016
-216.567	75.631	0.053	0.056
-215.552	-32.857	0.248	0.138
-214.538	-200.000	0.010	0.163
-213.523	-26.268	-0.332	0.195
-212.509	12.341	0.241	-0.185
-211.494	50.184	-0.176	-0.166
-210.479	203.429	0.128	-0.198
-209.465	436.115	-0.041	-0.090
-208.450	129.673	0.046	-0.059
-207.436	-115.726	-0.250	0.047
-206.421	-98.889	-0.177	0.045
-205.406	-72.575	-0.097	-0.036
-204.392	21.729	0.344	-0.280
-203.377	-8.629	0.103	-0.069
-202.363	730.982	0.097	-0.259
-201.348	248.886	-0.091	-0.154
-200.333	206.654	0.055	0.086
-199.319	-200.000	-0.000	0.259
-198.304	-151.254	0.130	0.010
-197.290	800.000	-0.060	0.176
-196.275	-87.256	-0.315	0.096
-195.260	-115.965	0.429	0.080
-194.246	-11.093	0.206	0.136
-193.231	-44.298	-0.145	-0.073
-192.217	800.000	0.067	0.224
-191.202	-50.873	0.380	0.178
-190.187	-23.443	0.167	-0.100
-189.173	78.415	-0.065	0.070
-188.158	225.804	0.079	0.127
-187.144	-49.957	0.354	0.168
-186.129	-94.229	-0.098	-0.027
-185.114	-78.194	0.151	0.052
-184.100	-200.000	-0.019	-0.155
-183.085	-73.452	-0.217	-0.079
-182.071	-93.268	0.420	-0.117
-181.056	-200.000	0.037	0.200
-180.042	38.762	0.143	-0.127
-179.027	29.559	0.220	-0.187
-178.012	-137.179	-0.311	-0.035
-176.998	800.000	0.057	0.202
-175.983	365.048	-0.068	0.136
-174.969	-125.590	0.188	0.029
-173.954	800.000	-0.034	0.128
-172.939	-72.735	-0.484	-0.178
-171.925	-39.979	0.156	-0.081
-170.910	359.113	-0.142	0.284
-169.896	-97.654	0.236	0.061
-168.881	289.731	-0.060	0.108
-167.866	-124.783	-0.415	0.064
-166.852	-93.954	-0.303	0.083
-165.837	-12.259	-0.193	-0.126
-164.823	-94.845	-0.173	0.047
-163.808	341.013	-0.077	0.150
-162.793	57.560	-0.121	-0.118
-161.779	-33.029	-0.126	-0.070
-160.764	172.678	-0.173	0.249
-159.750	-59.812	0.328	-0.140
-158.735	-22.645	-0.136	0.082
-157.720	152.147	0.118	-0.161
-156.706	-130.225	-0.265	-0.036
-155.691	114.067	-0.055	-0.066
-154.677	126.182	0.165	0.209
-153.662	-115.003	0.333	-0.063
-152.647	-200.000	-0.029	-0.139
-151.633	-170.930	0.255	0.009
-150.618	-24.165	0.208	-0.124
-149.604	-200.000	0.025	0.330
-148.589	-200.000	0.016	0.446
-147.574	-81.620	0.222	-0.073
-146.560	800.000	-0.113	-0.442
-145.545	4.781	-0.218	0.160
-144.531	-200.000	-0.010	0.247
-143.516	-7.069	-0.035	0.024
-142.502	153.396	0.187	0.255
-141.487	18.617	-0.041	0.033
-140.472	-42.478	0.035	-0.018
-139.458	-34.172	0.167	0.091
-138.443	-147.315	-0.209	-0.018
-137.429	68.985	0.452	-0.463
-136.414	800.000	-0.072	-0.205
-135.399	322.001	-0.186	0.353
-134.385	800.000	-0.013	-0.043
-133.370	-189.037	-0.240	-0.003
-132.356	71.724	-0.044	0.045
-131.341	-87.561	0.258	0.078
-130.326	425.829	-0.075	0.162
-129.312	-89.465	0.618	0.181
-128.297	-21.869	0.112	-0.068
-127.283	463.411	-0.071	0.157
-126.268	-200.000	0.081	0.497
-125.253	-59.830	-0.069	-0.030
-124.239	72.875	-0.025	-0.026
-123.224	-200.000	0.035	-0.209
-122.210	128.928	-0.229	-0.291
-121.195	36.520	0.157	-0.138
