DTS Sentinel unit serial number:	SN413079Multiplexer serial number:	ORYXHardware model number:	OX4-SRSoftware version number:	ORYX F/W v4.00 Oryx Data Collector v3.7.2.0data status	okinstallation	princeton_trtdifferential loss correction	single-endedforward channel	channel 4reverse channel	N/Adate	2019/09/11time	13:47:11forward acquisition time	60.00reverse acquisition time	0.00gamma	496.2192k internal	0.2283k external	0.2283temperature offset calibration	1.0004default loss term (dB/km)	0.3790temperature slope calibration	1.0000multiplexer offset coefficient	1.0000multiplexer slope coefficient	1.0000fibre end	0.00T internal ref (°C)	41.92T ext. ref 1 (°C)	0.86T ext. ref 2 (°C)	36.04length (m)	temperature (°C)	Stokes	anti-Stokes-747.200	570.936	-0.071	0.178
-746.185	800.000	-0.162	0.497
-745.171	-39.970	-0.084	-0.045
-744.156	-200.000	-0.009	0.067
-743.142	155.394	0.060	0.085
-742.127	800.000	0.045	0.158
-741.112	-117.422	-0.208	-0.039
-740.098	81.583	-0.335	0.372
-739.083	-200.000	-0.024	0.128
-738.069	-200.000	-0.015	0.467
-737.054	232.649	-0.251	-0.424
-736.039	800.000	0.023	0.081
-735.025	-13.087	0.219	0.146
-734.010	800.000	0.099	-0.282
-732.996	-32.700	0.011	0.006
-731.981	165.274	0.121	0.176
-730.966	-200.000	-0.011	-0.244
-729.952	453.144	-0.012	0.028
-728.937	-40.992	-0.328	-0.174
-727.923	7.846	0.184	-0.142
-726.908	-60.127	0.135	0.059
-725.894	150.845	0.061	0.086
-724.879	-133.878	-0.360	-0.046
-723.864	-200.000	-0.016	0.225
-722.850	-21.315	-0.080	-0.050
-721.835	177.401	0.175	0.261
-720.821	53.461	0.036	-0.036
-719.806	-78.868	-0.067	-0.023
-718.791	-32.850	0.496	-0.283
-717.777	113.548	0.108	0.134
-716.762	-200.000	-0.036	-0.309
-715.748	108.599	-0.244	0.300
-714.733	587.749	-0.069	-0.175
-713.718	-7.342	0.126	0.088
-712.704	-200.000	0.012	-0.163
-711.689	-129.609	-0.283	-0.040
-710.675	562.976	-0.100	-0.247
-709.660	119.844	0.223	0.284
-708.645	318.882	0.207	0.402
-707.631	457.306	0.034	0.078
-706.616	-166.963	0.328	0.014
-705.602	-143.720	-0.340	-0.033
-704.587	-200.000	-0.025	0.206
-703.572	3.766	-0.091	0.069
-702.558	-200.000	0.006	-0.117
-701.543	202.099	0.206	0.326
-700.529	800.000	0.121	0.347
-699.514	-154.944	-0.136	-0.009
-698.499	-65.590	-0.257	-0.106
-697.485	800.000	-0.026	0.101
-696.470	-200.000	0.051	0.296
-695.456	-108.238	-0.177	0.039
-694.441	800.000	0.060	-0.196
-693.426	333.239	0.135	-0.268
-692.412	-200.000	0.031	-0.151
-691.397	197.632	-0.130	-0.204
-690.383	-200.000	-0.003	-0.014
-689.368	29.827	0.207	-0.181
-688.354	-37.126	-0.063	-0.035
-687.339	-122.152	-0.138	0.023
-686.324	164.743	-0.019	-0.027
-685.310	-187.304	-0.267	0.004
-684.295	314.824	0.062	0.119
-683.281	30.382	-0.262	0.230
-682.266	-123.459	-0.263	0.043
-681.251	800.000	0.077	-0.243
-680.237	-200.000	0.067	-0.303
-679.222	621.902	-0.041	-0.105
-678.208	83.901	0.175	0.196
-677.193	-121.534	-0.390	0.066
-676.178	350.914	-0.090	-0.183
-675.164	-43.435	-0.130	-0.067
-674.149	-56.037	-0.389	0.177
-673.135	-200.000	-0.020	-0.095
-672.120	97.685	-0.125	0.147
-671.105	43.647	-0.182	0.170
-670.091	-200.000	-0.001	-0.374
-669.076	-40.168	-0.306	-0.163
-668.062	-49.655	-0.289	-0.141
-667.047	-200.000	0.002	0.279
-666.032	-69.757	-0.233	0.091
-665.018	-58.341	-0.306	0.136
-664.003	310.766	0.112	-0.215
-662.989	-74.601	0.523	-0.193
-661.974	-124.063	0.118	0.019
-660.959	45.522	0.142	0.134
-659.945	-182.229	0.380	0.007
-658.930	-53.892	-0.314	-0.146
-657.916	-126.882	-0.312	-0.047
-656.901	54.657	0.084	0.083
-655.886	-68.673	-0.341	0.135
-654.872	241.073	0.040	-0.068
-653.857	53.066	0.065	0.064
-652.843	-125.147	-0.147	-0.023
-651.828	800.000	-0.042	-0.148
-650.814	800.000	-0.052	-0.201
-649.799	14.411	-0.147	0.118
-648.784	-69.352	-0.268	-0.105
-647.770	800.000	-0.089	-0.262
-646.755	80.753	-0.032	0.035
-645.741	313.131	0.083	0.159
-644.726	132.561	-0.211	-0.278
-643.711	31.651	-0.149	0.131
-642.697	800.000	0.051	0.213
-641.682	-118.428	-0.082	0.015
-640.668	-156.368	-0.269	-0.017
-639.653	231.607	0.232	-0.390
-638.638	-200.000	0.024	0.308
-637.624	159.241	-0.098	-0.139
-636.609	-136.302	0.106	-0.013
-635.595	20.170	0.185	-0.153
-634.580	-40.232	-0.137	-0.073
-633.565	-200.000	0.007	-0.051
-632.551	406.353	-0.097	-0.209
-631.536	-200.000	0.012	0.302
-630.522	10.021	-0.109	-0.085
-629.507	-17.953	-0.108	-0.069
-628.492	-200.000	0.043	-0.263
-627.478	453.867	-0.038	-0.087
-626.463	-127.665	0.217	0.032
-625.449	85.383	-0.125	-0.141
-624.434	-56.847	-0.072	0.033
-623.419	-189.306	-0.468	0.006
-622.405	1.792	0.070	-0.052
-621.390	6.520	0.231	-0.176
-620.376	213.713	-0.080	-0.129
-619.361	-12.286	0.217	-0.145
-618.346	17.211	-0.087	-0.071
-617.332	-200.000	-0.027	-0.130
-616.317	70.115	-0.054	0.057
-615.303	64.671	0.073	0.075
-614.288	-31.103	0.114	0.066
-613.273	-127.968	0.184	0.027
-612.259	-200.000	-0.024	0.144
-611.244	-10.589	0.081	-0.055
-610.230	-144.138	0.264	-0.025
-609.215	-72.172	0.047	-0.018
-608.201	316.299	0.017	0.034
-607.186	103.959	0.140	0.168
-606.171	-200.000	0.035	-0.211
-605.157	-11.243	-0.400	-0.270
-604.142	-39.053	-0.490	0.263
-603.128	-51.684	-0.342	-0.163
-602.113	138.953	0.168	-0.226
-601.098	-91.885	0.252	-0.073
-600.084	-85.437	-0.115	-0.037
-599.069	-200.000	-0.025	-0.385
-598.055	-160.899	-0.278	-0.015
-597.040	177.430	-0.239	-0.355
-596.025	-130.937	-0.206	0.028
-595.011	275.787	0.083	-0.150
-593.996	-122.368	0.301	-0.050
-592.982	253.962	-0.091	-0.159
-591.967	-200.000	0.007	0.050
-590.952	650.053	0.066	-0.171
-589.938	-200.000	-0.028	-0.134
-588.923	-53.195	-0.200	0.094
-587.909	-53.988	-0.269	-0.125
-586.894	38.886	0.234	0.214
-585.879	-153.133	-0.478	-0.034
-584.865	337.923	-0.090	0.178
-583.850	-200.000	-0.006	0.103
-582.836	188.649	-0.117	-0.179
-581.821	-200.000	-0.066	0.361
-580.806	401.001	0.092	-0.197
-579.792	549.004	-0.159	-0.388
-578.777	141.360	0.063	-0.086
-577.763	739.420	0.063	0.174
-576.748	276.429	-0.057	0.104
-575.733	-109.499	0.235	-0.051
-574.719	-166.215	0.261	-0.011
-573.704	-167.937	0.122	0.005
-572.690	-151.402	0.359	0.027
-571.675	146.847	0.136	0.187
-570.661	-75.199	-0.220	-0.080
-569.646	-88.980	0.186	-0.056
-568.631	132.292	-0.128	0.168
-567.617	50.313	-0.148	-0.143
-566.602	-30.597	0.210	-0.122
-565.588	-10.853	-0.101	0.068
-564.573	97.462	0.167	0.195
-563.558	-11.552	0.082	-0.055
-562.544	-200.000	-0.004	0.150
-561.529	4.200	-0.102	0.077
-560.515	263.749	0.095	0.168
-559.500	433.982	0.071	-0.158
-558.485	112.840	0.148	-0.183
-557.471	-95.755	-0.149	0.040
-556.456	-21.295	0.344	-0.214
-555.442	-27.158	0.087	0.052
-554.427	124.340	-0.012	-0.016
-553.412	20.025	-0.075	0.062
-552.398	-200.000	0.011	-0.071
-551.383	-83.013	0.106	0.035
-550.369	-149.969	-0.207	-0.016
-549.354	-150.583	0.618	-0.048
-548.339	126.932	-0.222	0.287
-547.325	398.343	-0.144	0.306
-546.310	253.120	0.087	-0.151
-545.296	231.430	-0.141	-0.235
-544.281	-84.829	0.198	-0.063
-543.266	201.175	-0.110	0.173
-542.252	152.840	0.034	-0.048
-541.237	-33.297	-0.140	-0.079
-540.223	-200.000	-0.046	0.292
-539.208	-200.000	-0.016	0.100
-538.193	-59.560	-0.159	0.070
-537.179	-107.926	0.081	0.018
-536.164	51.943	0.209	0.203
-535.150	570.382	-0.059	0.146
-534.135	120.899	-0.064	-0.081
-533.121	81.311	0.129	-0.142
-532.106	317.271	0.037	0.072
-531.091	43.050	0.112	-0.104
-530.077	-176.938	-0.612	0.016
-529.062	-200.000	-0.009	-0.419
-528.048	64.595	-0.288	0.296
-527.033	-72.634	-0.218	-0.082
-526.018	117.514	0.161	0.201
-525.004	-141.821	0.374	0.038
-523.989	800.000	0.014	-0.054
-522.975	385.593	-0.104	0.219
-521.960	40.732	0.207	-0.190
-520.945	-26.088	0.137	0.082
-519.931	-32.338	0.134	0.076
-518.916	105.443	-0.250	0.301
-517.902	424.520	0.049	-0.108
-516.887	-200.000	0.022	0.124
-515.872	800.000	0.038	-0.115
-514.858	-97.098	-0.146	0.039
-513.843	-137.782	-0.177	-0.020
-512.829	-72.286	-0.351	0.132
-511.814	-200.000	0.119	-0.000
-510.799	-200.000	-0.021	0.160
-509.785	394.364	-0.077	0.163
-508.770	-180.305	-0.244	-0.005
-507.756	-144.258	-0.316	0.030
-506.741	260.454	-0.094	0.165
-505.726	800.000	-0.043	0.145
-504.712	-96.801	0.365	0.098
-503.697	-200.000	-0.032	-0.470
-502.683	-200.000	0.012	-0.229
-501.668	-142.363	-0.024	-0.002
-500.653	-103.080	0.096	-0.023
-499.639	-42.636	0.157	0.082
-498.624	78.106	-0.147	-0.160
-497.610	302.364	0.165	-0.310
-496.595	70.708	-0.134	-0.142
-495.581	-124.321	-0.345	-0.055
-494.566	294.106	-0.147	-0.273
-493.551	-200.000	-0.085	0.457
-492.537	-17.383	0.088	-0.056
-491.522	62.157	-0.219	0.222
-490.508	52.365	-0.151	-0.146
-489.493	-94.217	-0.167	-0.046
-488.478	10.637	-0.213	0.165
-487.464	40.493	-0.219	0.201
-486.449	50.775	0.053	-0.051
-485.435	-102.179	0.129	0.032
-484.420	-128.301	0.354	-0.051
-483.405	-138.666	0.173	-0.019
-482.391	-88.073	0.249	0.076
-481.376	137.525	-0.226	-0.300
-480.362	377.204	0.076	0.158
-479.347	-163.845	0.168	0.008
-478.332	68.616	0.175	0.183
-477.318	-42.256	-0.305	0.159
-476.303	251.605	-0.044	-0.076
-475.289	478.429	0.059	-0.136
-474.274	-83.351	0.200	-0.065
-473.259	26.460	-0.301	-0.256
-472.245	-19.082	0.234	-0.148
-471.230	47.318	-0.076	-0.072
-470.216	-134.277	0.203	0.025
-469.201	-75.647	-0.050	0.018
-468.186	331.382	0.089	0.175
-467.172	-27.482	-0.093	-0.055
-466.157	191.923	-0.239	-0.366
-465.143	-159.069	-0.188	0.011
-464.128	100.000	-0.189	-0.223
-463.113	61.322	-0.071	-0.072
-462.099	480.872	0.069	0.160
-461.084	502.527	0.021	-0.049
-460.070	-120.225	-0.163	0.028
-459.055	-67.176	-0.389	-0.156
-458.040	-106.737	0.185	0.042
-457.026	267.184	-0.105	-0.187
-456.011	800.000	-0.077	-0.217
-454.997	-200.000	-0.014	-0.133
-453.982	-118.251	-0.205	0.037
-452.968	228.607	0.079	0.132
-451.953	-102.216	-0.279	-0.068
-450.938	-200.000	-0.059	-0.305
-449.924	-4.167	-0.143	-0.101
-448.909	-89.407	0.068	0.020
-447.895	444.853	0.085	0.190
-446.880	101.732	0.142	-0.168
-445.865	270.195	0.219	-0.391
-444.851	-75.535	-0.126	0.045
-443.836	15.207	0.146	-0.116
-442.822	9.752	0.142	-0.109
-441.807	-33.691	-0.070	-0.039
-440.792	-55.044	-0.181	0.083
-439.778	-200.000	-0.008	0.136
-438.763	86.450	-0.061	-0.068
-437.749	-70.961	0.307	0.117
-436.734	446.032	-0.033	-0.074
-435.719	132.928	-0.157	-0.206
-434.705	-140.615	0.569	0.060
-433.690	450.023	-0.127	0.285
-432.676	377.011	-0.028	0.057
-431.661	-54.351	-0.054	-0.025
-430.646	-200.000	0.039	-0.250
-429.632	-153.693	-0.189	0.013
-428.617	-175.562	-0.070	0.002
-427.603	-83.593	0.112	-0.036
-426.588	19.949	-0.063	-0.051
-425.573	-200.000	-0.028	-0.237
-424.559	16.709	-0.164	-0.132
-423.544	-84.456	-0.331	-0.106
-422.530	48.573	-0.055	0.052
-421.515	-133.053	-0.365	0.047
-420.500	146.143	-0.141	0.192
-419.486	-83.325	-0.322	0.105
-418.471	-22.116	0.101	0.062
-417.457	-103.156	0.126	-0.030
-416.442	-76.430	0.157	-0.056
-415.428	-145.817	0.343	-0.031
-414.413	-98.721	0.407	0.105
-413.398	7.113	-0.065	0.049
-412.384	-47.894	0.228	-0.112
-411.369	-84.110	-0.151	0.048
-410.355	-200.000	0.024	-0.230
-409.340	226.851	-0.159	-0.262
-408.325	-145.230	0.365	-0.034
-407.311	-200.000	-0.017	-0.176
-406.296	-175.472	0.301	0.008
-405.282	-10.730	0.255	0.171
-404.267	-81.940	0.242	0.080
-403.252	-200.000	0.028	0.183
-402.238	58.636	0.225	-0.224
-401.223	706.627	-0.074	-0.197
-400.209	-35.172	0.032	0.018
-399.194	-108.538	-0.165	-0.036
-398.179	50.636	-0.190	-0.182
-397.165	527.903	-0.109	-0.261
-396.150	-81.100	0.346	0.116
-395.136	-159.802	-0.106	0.006
-394.121	-200.000	-0.002	-0.104
-393.106	-13.677	0.278	-0.182
-392.092	-56.281	0.335	0.151
-391.077	201.302	0.223	-0.347
-390.063	22.255	0.196	-0.162
-389.048	27.896	0.219	0.187
-388.033	474.285	0.152	0.347
-387.019	-156.841	0.198	-0.012
-386.004	-200.000	0.033	0.152
-384.990	-200.000	-0.002	-0.097
-383.975	800.000	-0.026	0.108
-382.960	-200.000	-0.022	-0.324
-381.946	371.389	-0.034	0.070
-380.931	43.139	-0.255	-0.235
-379.917	-200.000	0.011	-0.133
-378.902	491.114	0.089	0.207
-377.888	33.065	-0.171	0.150
-376.873	-158.625	0.303	-0.018
-375.858	800.000	0.045	0.174
-374.844	-148.977	-0.385	0.031
-373.829	-26.963	0.253	0.150
-372.815	-23.208	-0.268	-0.163
-371.800	74.704	0.059	0.063
-370.785	424.473	-0.035	-0.077
-369.771	-169.078	0.157	0.006
-368.756	73.176	-0.177	-0.188
-367.742	12.310	0.318	-0.248
-366.727	-200.000	-0.012	0.464
-365.712	-71.111	-0.157	-0.060
-364.698	-158.544	0.297	0.017
-363.683	-46.182	-0.090	0.045
-362.669	-94.674	0.182	-0.050
-361.654	267.333	-0.053	-0.093
-360.639	-26.026	-0.179	-0.106
-359.625	800.000	-0.048	0.171
-358.610	-14.297	-0.104	0.068
-357.596	-99.684	-0.087	0.022
-356.581	-25.577	0.475	0.284
-355.566	327.176	0.043	0.084
-354.552	-200.000	-0.041	0.215
-353.537	-149.506	0.500	0.040
-352.523	-69.190	0.179	-0.070
-351.508	-32.774	0.156	0.087
-350.493	395.401	-0.215	0.455
-349.479	800.000	0.036	-0.125
-348.464	83.783	-0.096	0.106
-347.450	-153.293	0.166	0.012
-346.435	347.503	0.084	0.168
-345.420	274.629	-0.096	0.171
-344.406	-68.718	-0.117	0.046
-343.391	-200.000	-0.020	-0.152
-342.377	800.000	0.044	0.150
-341.362	311.695	-0.032	0.061
-340.348	59.207	0.243	0.242
-339.333	-163.503	-0.535	-0.026
-338.318	124.046	0.190	0.242
-337.304	-200.000	0.010	-0.169
-336.289	-41.778	0.169	-0.087
-335.275	800.000	0.135	0.517
-334.260	117.121	0.133	-0.166
-333.245	169.441	-0.147	0.212
-332.231	-66.576	-0.153	-0.061
-331.216	772.039	0.134	0.368
-330.202	455.779	-0.174	-0.390
-329.187	-27.980	-0.242	-0.142
-328.172	-107.476	0.114	-0.025
-327.158	-200.000	-0.005	-0.252
-326.143	-139.547	0.157	0.017
-325.129	-50.926	-0.295	0.140
-324.114	-60.912	0.339	-0.145
-323.099	275.964	-0.084	0.151
-322.085	474.245	0.052	0.119
-321.070	-101.987	-0.080	-0.020
-320.056	-200.000	-0.037	0.217
-319.041	-24.597	0.055	-0.033
-318.026	204.337	0.096	0.151
-317.012	-28.812	0.254	0.148
-315.997	-67.163	-0.354	0.141
-314.983	-111.305	-0.446	0.092
-313.968	-67.244	-0.097	-0.039
-312.953	140.408	-0.108	-0.145
-311.939	61.448	-0.102	-0.102
-310.924	-200.000	0.008	0.068
-309.910	402.479	0.048	0.101
-308.895	-200.000	0.021	-0.120
-307.880	-200.000	0.041	-0.269
-306.866	219.480	-0.127	0.206
-305.851	25.432	-0.048	-0.040
-304.837	-22.004	-0.319	-0.195
-303.822	-152.632	0.333	0.024
-302.807	800.000	0.047	0.203
-301.793	-63.312	0.067	-0.028
-300.778	210.965	-0.055	0.088
-299.764	224.517	-0.068	0.111
-298.749	71.939	0.133	-0.140
-297.735	-58.617	0.059	-0.026
-296.720	-154.090	-0.119	0.008
-295.705	-200.000	-0.057	-0.292
-294.691	-71.660	0.157	0.059
-293.676	800.000	-0.150	0.537
-292.662	-200.000	-0.024	0.259
-291.647	800.000	-0.043	-0.147
-290.632	-67.583	-0.113	-0.045
-289.618	-121.393	-0.223	-0.038
-288.603	-104.694	-0.250	-0.058
-287.589	-43.067	0.082	0.042
-286.574	-151.156	-0.135	-0.010
-285.559	610.224	-0.047	-0.119
-284.545	157.140	0.183	-0.256
-283.530	-25.035	0.098	0.059
-282.516	-200.000	0.003	-0.049
-281.501	-118.828	0.155	-0.028
-280.486	-131.189	0.125	0.017
-279.472	800.000	-0.038	-0.163
-278.457	-189.508	-0.050	-0.001
-277.443	34.761	0.163	-0.143
-276.428	-200.000	-0.020	-0.144
-275.413	-120.457	0.088	0.015
-274.399	622.459	-0.009	-0.023
-273.384	153.470	0.146	-0.202
-272.370	313.825	-0.033	-0.062
-271.355	-200.000	0.016	-0.099
-270.340	188.594	-0.122	-0.184
-269.326	-62.905	-0.189	-0.079
-268.311	497.827	-0.073	0.169
-267.297	-18.726	0.066	-0.042
-266.282	710.693	-0.171	-0.455
-265.267	34.122	-0.218	-0.191
-264.253	800.000	-0.134	0.382
-263.238	-81.684	0.142	0.047
-262.224	-42.024	-0.096	0.049
-261.209	-108.573	0.130	0.028
-260.195	800.000	0.064	0.215
-259.180	399.917	0.225	0.475
-258.165	-92.250	0.442	-0.126
-257.151	-90.894	0.198	0.058
-256.136	-200.000	-0.023	0.132
-255.122	245.137	0.185	-0.313
-254.107	340.919	0.176	-0.347
-253.092	115.824	-0.174	-0.215
-252.078	3.466	-0.156	0.114
-251.063	800.000	0.024	-0.091
-250.049	-174.102	0.126	-0.004
-249.034	55.649	0.188	0.183
-248.019	179.003	-0.071	0.105
-247.005	62.439	0.043	-0.043
-245.990	21.543	-0.215	0.176
-244.976	-99.489	-0.246	-0.062
-243.961	-4.569	-0.045	-0.031
-242.946	442.484	-0.114	0.252
-241.932	90.222	-0.045	-0.051
-240.917	-148.927	-0.119	0.010
-239.903	-2.255	0.115	0.081
-238.888	-67.610	-0.270	-0.106
-237.873	310.055	0.011	-0.021
-236.859	-165.619	0.095	-0.004
-235.844	45.790	-0.171	0.159
-234.830	178.878	-0.204	0.301
-233.815	-100.283	0.165	0.041
-232.800	91.869	-0.132	-0.149
-231.786	-47.486	-0.148	0.073
-230.771	-32.780	0.078	0.044
-229.757	-200.000	0.048	-0.373
-228.742	111.289	0.099	0.120
-227.727	292.263	0.144	0.263
-226.713	-200.000	-0.001	-0.187
-225.698	-200.000	-0.008	0.268
-224.684	-200.000	-0.006	-0.158
-223.669	-92.427	0.071	0.020
-222.655	-148.664	0.029	-0.002
-221.640	-63.776	-0.035	-0.014
-220.625	-39.904	0.116	-0.061
-219.611	6.175	-0.036	0.027
-218.596	-14.374	-0.135	0.088
-217.582	-197.407	-0.071	0.000
-216.567	-69.755	0.337	-0.130
-215.552	-200.000	0.043	-0.222
-214.538	24.939	0.284	0.237
-213.523	-132.186	0.140	0.018
-212.509	155.323	0.115	0.159
-211.494	567.896	0.116	0.284
-210.479	-200.000	-0.045	0.218
-209.465	-200.000	-0.041	0.282
-208.450	51.455	0.209	0.199
-207.436	-54.938	-0.294	0.133
-206.421	-29.686	0.305	-0.175
-205.406	280.324	-0.016	-0.030
-204.392	224.833	0.102	0.167
-203.377	-200.000	0.030	-0.163
-202.363	75.227	0.075	0.080
-201.348	-200.000	0.045	0.317
-200.333	-200.000	-0.008	-0.347
-199.319	-63.535	-0.221	-0.091
-198.304	368.498	0.016	-0.034
-197.290	30.379	0.145	-0.125
-196.275	800.000	-0.049	-0.167
-195.260	-59.748	-0.006	0.002
-194.246	372.789	-0.164	0.335
-193.231	-20.810	0.123	0.076
-192.217	60.196	-0.334	0.332
-191.202	-56.055	0.161	0.072
-190.187	-106.529	-0.356	-0.080
-189.173	120.693	0.080	0.100
-188.158	362.879	-0.057	0.116
-187.144	60.811	0.178	-0.178
-186.129	-168.155	0.053	0.002
-185.114	10.383	-0.106	0.081
-184.100	181.342	0.137	-0.202
-183.085	-49.958	0.184	-0.088
-182.071	42.990	0.233	0.214
-181.056	-28.149	-0.087	0.050
-180.042	-165.706	-0.355	-0.015
-179.027	195.339	0.187	0.286
-178.012	384.425	-0.142	0.294
-176.998	-67.780	0.400	0.157
-175.983	-200.000	0.004	-0.209
-174.969	74.138	-0.102	-0.108
-173.954	721.258	-0.041	0.109
-172.939	-116.425	-0.143	-0.027
-171.925	-64.181	-0.176	-0.072
-170.910	34.644	-0.304	0.267
-169.896	262.485	0.305	0.531
-168.881	49.567	0.128	0.121
-167.866	800.000	0.176	0.508
-166.852	-16.411	0.061	-0.039
-165.837	-105.073	0.193	0.044
-164.823	-90.339	0.097	0.028
-163.808	800.000	0.062	-0.191
-162.793	-13.550	-0.208	0.135
-161.779	-53.416	0.189	-0.087
-160.764	106.605	-0.082	-0.098
-159.750	114.778	-0.080	0.098
-158.735	-90.493	0.209	-0.061
-157.720	-95.429	-0.113	-0.031
-156.706	8.232	0.119	0.090
-155.691	800.000	-0.073	-0.239
-154.677	30.029	-0.319	0.273
-153.662	-119.288	0.256	0.045
-152.647	-200.000	0.066	-0.355
-151.633	-200.000	0.008	0.188
-150.618	-200.000	0.216	-0.001
-149.604	800.000	0.054	-0.210
-148.589	-200.000	0.004	-0.047
-147.574	315.687	-0.140	-0.266
-146.560	286.749	-0.246	0.445
-145.545	40.458	0.214	-0.194
-144.531	178.919	-0.017	0.025
-143.516	184.660	-0.151	0.225
-142.502	140.942	0.030	0.040
-141.487	48.775	0.058	-0.055
-140.472	-144.543	-0.304	0.028
-139.458	800.000	0.105	0.396
-138.443	-123.370	0.148	0.024
-137.429	431.195	0.020	0.044
-136.414	-97.369	0.179	0.047
-135.399	-118.958	0.263	-0.046
-134.385	-148.058	0.283	0.024
-133.370	-122.164	0.106	0.017
-132.356	84.708	0.305	-0.335
-131.341	403.743	-0.054	-0.113
-130.326	-81.501	-0.164	0.054
-129.312	800.000	-0.050	0.182
-128.297	462.310	-0.074	0.167
-127.283	-93.463	-0.194	0.054
-126.268	-131.834	-0.359	0.047
-125.253	552.557	-0.037	-0.089
-124.239	57.152	-0.306	0.300
-123.224	-122.015	0.145	0.024
-122.210	129.565	0.132	0.170
