DTS Sentinel unit serial number:	SN413079Multiplexer serial number:	ORYXHardware model number:	OX4-SRSoftware version number:	ORYX F/W v4.00 Oryx Data Collector v3.7.2.0data status	okinstallation	princeton_trtdifferential loss correction	single-endedforward channel	channel 4reverse channel	N/Adate	2019/09/11time	02:35:11forward acquisition time	60.00reverse acquisition time	0.00gamma	496.2192k internal	0.2317k external	0.2317temperature offset calibration	0.9949default loss term (dB/km)	0.3790temperature slope calibration	1.0000multiplexer offset coefficient	1.0000multiplexer slope coefficient	1.0000fibre end	0.00T internal ref (°C)	29.25T ext. ref 1 (°C)	-0.30T ext. ref 2 (°C)	23.28length (m)	temperature (°C)	Stokes	anti-Stokes-747.200	-42.966	-0.138	-0.071
-746.185	800.000	-0.057	0.167
-745.171	202.568	0.086	-0.134
-744.156	-200.000	-0.028	0.621
-743.142	-200.000	-0.007	-0.303
-742.127	-141.894	-0.344	-0.035
-741.112	209.767	-0.028	0.044
-740.098	800.000	0.034	0.099
-739.083	323.252	0.052	0.100
-738.069	227.414	-0.255	-0.420
-737.054	626.275	-0.119	-0.305
-736.039	-86.468	-0.201	0.062
-735.025	-45.240	0.392	-0.197
-734.010	-67.387	-0.364	-0.145
-732.996	-200.000	0.008	0.073
-731.981	-61.415	0.320	0.136
-730.966	800.000	-0.041	0.124
-729.952	-167.208	-0.559	-0.023
-728.937	-73.324	-0.317	-0.117
-727.923	59.985	0.137	-0.136
-726.908	-200.000	-0.045	0.199
-725.894	519.458	0.091	-0.216
-724.879	240.296	-0.075	-0.127
-723.864	-153.724	-0.204	-0.014
-722.850	50.367	-0.145	-0.139
-721.835	-9.708	0.127	0.086
-720.821	273.151	-0.080	-0.142
-719.806	0.985	-0.327	-0.237
-718.791	800.000	0.023	-0.069
-717.777	-141.803	0.241	0.024
-716.762	160.409	-0.083	-0.117
-715.748	-78.434	-0.070	-0.024
-714.733	125.672	0.159	0.202
-713.718	-113.387	0.029	0.006
-712.704	-200.000	-0.019	-0.262
-711.689	57.861	-0.189	0.187
-710.675	-113.677	0.244	0.048
-709.660	36.805	0.258	0.231
-708.645	-59.996	-0.205	0.089
-707.631	114.833	0.194	0.239
-706.616	48.389	-0.205	-0.194
-705.602	-166.278	-0.555	-0.024
-704.587	-96.052	-0.394	-0.106
-703.572	144.202	0.288	-0.389
-702.558	-200.000	-0.051	0.327
-701.543	-117.549	-0.233	-0.042
-700.529	800.000	-0.086	0.300
-699.514	59.952	-0.133	0.132
-698.499	150.182	0.106	-0.145
-697.485	-200.000	0.040	0.253
-696.470	509.172	-0.036	-0.084
-695.456	-200.000	-0.014	0.262
-694.441	383.614	0.015	-0.030
-693.426	59.226	-0.270	-0.269
-692.412	61.708	0.133	-0.134
-691.397	-200.000	-0.009	-0.344
-690.383	169.793	-0.182	0.263
-689.368	-200.000	-0.010	0.153
-688.354	-142.838	0.060	-0.006
-687.339	231.844	0.047	0.078
-686.324	7.864	0.266	0.201
-685.310	-131.105	-0.241	0.032
-684.295	-79.196	-0.102	-0.035
-683.281	-132.709	-0.197	-0.025
-682.266	-45.708	0.186	0.093
-681.251	339.607	0.083	-0.163
-680.237	-66.085	-0.175	0.070
-679.222	-9.253	0.255	0.172
-678.208	-113.789	-0.290	-0.057
-677.193	438.157	0.134	-0.295
-676.178	-196.498	-0.209	-0.001
-675.164	-26.544	-0.040	-0.023
-674.149	-6.592	0.126	-0.086
-673.135	25.681	-0.107	0.090
-672.120	800.000	0.022	0.090
-671.105	-28.974	0.211	-0.123
-670.091	242.803	0.074	-0.126
-669.076	-66.385	-0.344	-0.138
-668.062	12.345	-0.203	-0.158
-667.047	-200.000	0.062	-0.352
-666.032	-200.000	0.025	-0.137
-665.018	-27.986	-0.338	-0.197
-664.003	-130.961	0.215	0.029
-662.989	-117.456	0.463	-0.085
-661.974	131.576	0.140	-0.182
-660.959	-54.773	-0.092	0.042
-659.945	-133.421	0.289	-0.037
-658.930	-200.000	-0.054	-0.483
-657.916	-122.681	0.285	-0.047
-656.901	800.000	-0.041	-0.135
-655.886	-195.170	0.323	-0.002
-654.872	-200.000	-0.001	-0.278
-653.857	9.802	-0.126	-0.096
-652.843	12.292	-0.075	-0.059
-651.828	-68.794	-0.253	-0.099
-650.814	-200.000	0.015	-0.263
-649.799	-71.011	0.229	0.087
-648.784	222.027	0.088	0.144
-647.770	-61.721	-0.236	0.100
-646.755	-200.000	-0.007	0.133
-645.741	559.153	0.021	-0.051
-644.726	93.997	0.126	-0.145
-643.711	508.885	-0.080	0.187
-642.697	-200.000	0.052	-0.260
-641.682	420.861	-0.137	-0.297
-640.668	346.310	0.073	-0.145
-639.653	-43.042	0.015	0.008
-638.638	125.987	0.083	-0.106
-637.624	563.910	-0.121	-0.294
-636.609	-69.800	-0.039	0.015
-635.595	-200.000	-0.005	0.202
-634.580	134.096	0.120	0.157
-633.565	800.000	-0.046	0.145
-632.551	32.149	0.205	-0.178
-631.536	34.408	-0.230	0.202
-630.522	-147.392	-0.070	0.006
-629.507	-200.000	-0.003	0.147
-628.492	-80.313	-0.246	-0.083
-627.478	621.232	0.123	0.313
-626.463	221.182	0.053	0.086
-625.449	134.351	0.137	-0.180
-624.434	61.786	-0.106	-0.106
-623.419	800.000	0.037	-0.127
-622.405	81.110	-0.129	0.140
-621.390	106.283	-0.122	0.146
-620.376	-123.495	-0.285	-0.046
-619.361	58.345	-0.286	0.283
-618.346	0.559	0.042	-0.030
-617.332	-200.000	0.007	0.216
-616.317	-99.877	0.183	0.046
-615.303	-200.000	-0.011	0.107
-614.288	-121.812	-0.248	0.041
-613.273	-89.694	-0.317	-0.093
-612.259	-200.000	-0.032	-0.210
-611.244	-72.999	-0.110	0.041
-610.230	-3.468	-0.086	0.060
-609.215	-127.558	-0.160	0.023
-608.201	-3.814	-0.216	0.151
-607.186	800.000	-0.036	-0.108
-606.171	-70.205	-0.292	0.112
-605.157	61.121	-0.153	0.153
-604.142	-40.757	0.127	0.066
-603.128	-98.430	0.226	0.058
-602.113	-118.067	-0.054	0.010
-601.098	-200.000	-0.012	-0.053
-600.084	-200.000	0.002	0.318
-599.069	-74.465	0.322	0.117
-598.055	381.466	0.057	0.117
-597.040	34.063	0.012	-0.010
-596.025	249.345	-0.095	-0.161
-595.011	117.441	-0.063	-0.078
-593.996	-200.000	-0.024	0.123
-592.982	-23.695	-0.323	-0.195
-591.967	91.532	-0.181	-0.204
-590.952	662.418	-0.067	0.175
-589.938	800.000	-0.033	-0.146
-588.923	-200.000	-0.003	-0.123
-587.909	800.000	0.035	0.100
-586.894	11.237	-0.040	0.031
-585.879	-172.205	-0.190	-0.006
-584.865	-81.327	-0.240	-0.080
-583.850	-56.117	-0.200	0.089
-582.836	-200.000	-0.030	0.225
-581.821	800.000	-0.023	-0.077
-580.806	20.040	-0.118	-0.096
-579.792	-200.000	-0.017	0.174
-578.777	-126.200	-0.231	-0.035
-577.763	-148.939	-0.122	-0.010
-576.748	100.825	-0.265	-0.309
-575.733	800.000	-0.107	0.321
-574.719	131.609	0.056	-0.073
-573.704	499.681	0.215	0.499
-572.690	11.754	0.127	-0.098
-571.675	77.126	0.239	-0.255
-570.661	189.599	-0.057	0.086
-569.646	-149.439	-0.146	-0.012
-568.631	800.000	0.028	0.101
-567.617	-200.000	0.006	0.035
-566.602	-200.000	0.145	0.001
-565.588	-8.634	0.057	0.039
-564.573	-52.060	-0.394	-0.184
-563.558	-106.975	-0.083	-0.018
-562.544	-119.251	0.157	-0.028
-561.529	-200.000	0.041	-0.332
-560.515	-200.000	-0.035	-0.164
-559.500	214.111	0.025	-0.041
-558.485	-200.000	-0.012	0.143
-557.471	69.374	0.396	-0.410
-556.456	-106.909	0.291	-0.065
-555.442	71.753	-0.151	-0.158
-554.427	-66.172	-0.244	0.098
-553.412	-200.000	0.034	-0.194
-552.398	-77.134	-0.183	0.064
-551.383	-200.000	0.012	-0.147
-550.369	51.253	0.165	-0.158
-549.354	-53.180	-0.270	-0.124
-548.339	-17.715	0.179	0.113
-547.325	-200.000	-0.020	0.183
-546.310	-47.796	-0.170	-0.083
-545.296	280.249	-0.050	-0.089
-544.281	800.000	0.060	-0.244
-543.266	75.376	0.113	-0.120
-542.252	-200.000	-0.018	0.128
-541.237	-200.000	0.090	0.444
-540.223	-48.943	0.355	-0.171
-539.208	97.744	-0.078	-0.090
-538.193	-200.000	0.007	-0.111
-537.179	-149.774	-0.240	0.019
-536.164	-189.869	-0.139	-0.002
-535.150	800.000	-0.053	-0.152
-534.135	-54.161	0.342	-0.156
-533.121	800.000	0.093	-0.340
-532.106	-182.015	-0.026	0.001
-531.091	131.070	0.074	-0.095
-530.077	88.757	0.173	-0.194
-529.062	39.165	-0.094	0.084
-528.048	-200.000	0.066	0.325
-527.033	-200.000	-0.053	0.365
-526.018	12.561	0.204	0.158
-525.004	-200.000	0.011	0.134
-523.989	150.129	-0.078	0.106
-522.975	-56.469	-0.220	0.098
-521.960	48.191	-0.111	-0.104
-520.945	-49.806	-0.166	0.079
-519.931	193.655	0.036	-0.054
-518.916	-200.000	-0.051	-0.230
-517.902	-55.084	0.234	-0.105
-516.887	-200.000	-0.018	0.205
-515.872	-200.000	0.062	0.373
-514.858	-33.509	-0.053	0.029
-513.843	-155.363	0.193	-0.013
-512.829	800.000	-0.118	0.445
-511.814	134.473	-0.133	-0.173
-510.799	-200.000	0.011	-0.140
-509.785	-200.000	-0.037	-0.186
-508.770	-40.364	-0.221	-0.115
-507.756	-200.000	0.037	-0.237
-506.741	11.725	0.337	-0.260
-505.726	-200.000	-0.049	-0.222
-504.712	109.932	0.137	-0.165
-503.697	235.005	0.161	-0.266
-502.683	-34.256	0.415	-0.229
-501.668	-67.377	-0.355	0.140
-500.653	-138.342	0.280	0.031
-499.639	157.366	-0.119	-0.165
-498.624	-200.000	-0.048	0.424
-497.610	-144.970	0.365	-0.033
-496.595	-200.000	0.012	0.147
-495.581	-33.152	0.268	0.149
-494.566	-200.000	-0.002	-0.040
-493.551	-77.544	-0.152	0.053
-492.537	-129.629	0.168	-0.023
-491.522	-200.000	-0.029	-0.141
-490.508	800.000	-0.020	-0.076
-489.493	-30.718	-0.085	-0.048
-488.478	-200.000	0.007	0.073
-487.464	-148.426	-0.172	0.014
-486.449	-26.019	-0.252	-0.149
-485.435	-78.538	-0.311	0.107
-484.420	253.287	-0.118	-0.202
-483.405	-34.977	-0.096	0.052
-482.391	-200.000	0.047	-0.217
-481.376	-200.000	0.068	0.382
-480.362	-180.301	0.124	-0.003
-479.347	55.160	-0.269	0.260
-478.332	-60.519	0.018	0.008
-477.318	-130.012	-0.208	-0.029
-476.303	-71.995	0.180	-0.067
-475.289	-200.000	0.011	0.244
-474.274	-19.647	-0.141	0.087
-473.259	-96.888	-0.369	-0.097
-472.245	45.773	0.041	0.038
-471.230	216.882	0.067	-0.107
-470.216	-39.454	-0.202	-0.106
-469.201	-7.343	0.173	0.117
-468.186	800.000	0.061	-0.170
-467.172	0.429	0.110	0.079
-466.157	-118.090	0.116	0.021
-465.143	-91.633	-0.299	-0.085
-464.128	-200.000	-0.043	0.286
-463.113	90.007	-0.065	0.072
-462.099	-118.286	0.245	-0.044
-461.084	378.868	0.101	-0.208
-460.070	108.933	-0.116	-0.139
-459.055	-200.000	-0.040	0.196
-458.040	111.874	0.049	0.059
-457.026	258.673	-0.135	-0.232
-456.011	-54.580	-0.181	0.082
-454.997	35.142	-0.052	0.046
-453.982	143.475	-0.053	-0.071
-452.968	81.997	-0.172	0.186
-451.953	-85.287	-0.272	-0.085
-450.938	-52.114	-0.059	-0.028
-449.924	98.964	0.269	0.311
-448.909	54.748	0.167	0.161
-447.895	161.043	-0.097	-0.136
-446.880	-20.697	-0.108	-0.066
-445.865	-7.989	-0.101	-0.068
-444.851	89.556	0.127	-0.141
-443.836	88.696	0.158	-0.175
-442.822	148.919	-0.032	-0.043
-441.807	-200.000	0.007	-0.130
-440.792	-200.000	0.039	0.171
-439.778	99.546	-0.101	-0.117
-438.763	695.425	0.015	-0.039
-437.749	-200.000	0.007	-0.052
-436.734	61.941	0.001	0.001
-435.719	388.235	-0.107	-0.222
-434.705	-25.361	-0.066	0.039
-433.690	-41.056	0.348	0.180
-432.676	-10.557	-0.081	-0.054
-431.661	-200.000	0.003	0.246
-430.646	-73.084	0.146	0.053
-429.632	29.601	0.131	0.111
-428.617	-103.615	-0.223	0.052
-427.603	135.725	0.083	-0.108
-426.588	-42.874	-0.082	-0.042
-425.573	8.713	-0.123	-0.093
-424.559	800.000	0.113	0.379
-423.544	800.000	0.090	0.317
-422.530	268.338	0.072	-0.127
-421.515	321.687	0.123	-0.234
-420.500	-102.497	-0.157	-0.038
-419.486	-36.881	0.084	0.045
-418.471	-200.000	0.052	-0.463
-417.457	800.000	-0.043	0.170
-416.442	-200.000	0.096	0.000
-415.428	280.794	0.167	0.299
-414.413	-127.895	-0.068	0.010
-413.398	225.360	0.079	0.128
-412.384	800.000	0.048	0.159
-411.369	-0.545	0.156	0.111
-410.355	-56.797	0.074	-0.033
-409.340	-99.698	0.212	0.053
-408.325	-134.106	-0.276	0.034
-407.311	57.269	-0.063	0.061
-406.296	-113.475	-0.272	-0.053
-405.282	-200.000	-0.025	0.208
-404.267	16.830	0.178	0.141
-403.252	-200.000	0.007	0.186
-402.238	-2.373	-0.257	-0.180
-401.223	800.000	-0.169	0.557
-400.209	-18.758	-0.014	-0.009
-399.194	197.904	0.062	0.095
-398.179	6.988	0.157	0.117
-397.165	-138.029	0.279	-0.031
-396.150	726.497	-0.032	-0.085
-395.136	-60.143	0.097	-0.041
-394.121	106.374	0.062	0.074
-393.106	-145.494	-0.396	-0.036
-392.092	-15.549	-0.353	-0.225
-391.077	-147.670	0.506	-0.042
-390.063	148.559	0.191	0.258
-389.048	-23.251	-0.119	0.072
-388.033	45.822	0.148	-0.137
-387.019	-30.430	-0.139	0.078
-386.004	174.828	0.138	0.199
-384.990	-106.305	-0.201	0.045
-383.975	800.000	0.097	0.292
-382.960	-200.000	0.001	0.263
-381.946	-156.907	-0.265	0.016
-380.931	-200.000	0.002	0.172
-379.917	-54.691	0.276	-0.125
-378.902	-89.947	-0.238	-0.069
-377.888	213.280	-0.251	-0.396
-376.873	-200.000	-0.202	-0.001
-375.858	-200.000	-0.022	0.169
-374.844	-69.643	0.301	0.115
-373.829	7.674	0.152	0.114
-372.815	21.359	-0.097	0.078
-371.800	72.136	0.130	0.135
-370.785	-200.000	-0.249	-0.001
-369.771	8.727	-0.185	-0.139
-368.756	-56.851	0.032	-0.014
-367.742	-80.530	-0.215	-0.071
-366.727	123.367	-0.082	-0.103
-365.712	-62.522	-0.062	-0.026
-364.698	-163.065	0.063	-0.003
-363.683	57.998	0.228	0.223
-362.669	136.409	0.207	-0.269
-361.654	-200.000	-0.019	0.179
-360.639	-141.561	0.276	0.028
-359.625	-200.000	0.055	0.343
-358.610	90.009	0.174	0.194
-357.596	-200.000	0.001	0.064
-356.581	18.541	-0.164	-0.131
-355.566	138.525	-0.100	-0.131
-354.552	-200.000	-0.017	-0.380
-353.537	-98.539	0.219	0.056
-352.523	202.994	-0.193	-0.298
-351.508	-19.751	0.281	-0.173
-350.493	-52.401	0.178	-0.082
-349.479	337.948	-0.018	-0.036
-348.464	170.480	0.088	-0.126
-347.450	263.844	-0.066	-0.115
-346.435	5.479	0.101	-0.074
-345.420	-174.821	0.160	0.005
-344.406	-200.000	-0.076	0.346
-343.391	-200.000	-0.011	0.183
-342.377	402.922	0.035	0.073
-341.362	-69.294	-0.276	-0.106
-340.348	-92.311	0.141	0.039
-339.333	229.128	-0.171	-0.278
-338.318	-200.000	-0.021	0.095
-337.304	-82.122	0.257	0.084
-336.289	76.259	0.325	0.342
-335.275	-200.000	-0.032	0.190
-334.260	-200.000	-0.009	-0.398
-333.245	301.846	-0.191	0.351
-332.231	-13.868	0.196	0.126
-331.216	-200.000	-0.011	-0.050
-330.202	-200.000	-0.003	-0.083
-329.187	-44.778	0.075	-0.037
-328.172	13.463	-0.224	-0.173
-327.158	-51.157	0.173	0.081
-326.143	-81.375	-0.255	0.084
-325.129	800.000	0.054	-0.208
-324.114	-45.689	0.079	0.039
-323.099	18.240	0.059	-0.047
-322.085	115.968	-0.272	0.331
-321.070	-23.876	0.069	0.041
-320.056	-200.000	0.002	0.064
-319.041	-154.215	0.314	-0.021
-318.026	52.279	-0.204	-0.194
-317.012	128.746	-0.116	0.147
-315.997	4.031	-0.192	0.140
-314.983	116.752	0.059	0.073
-313.968	-140.907	-0.195	0.020
-312.953	-20.553	-0.271	-0.166
-311.939	679.380	0.069	0.179
-310.924	24.399	0.403	0.332
-309.910	-200.000	0.015	-0.102
-308.895	-62.684	-0.067	0.028
-307.880	-116.379	-0.092	0.017
-306.866	-107.108	-0.320	0.070
-305.851	43.427	0.243	0.221
-304.837	-161.970	-0.408	0.021
-303.822	-175.210	0.170	-0.005
-302.807	-81.112	-0.193	-0.064
-301.793	311.205	-0.038	0.071
-300.778	441.813	-0.029	-0.062
-299.764	-7.945	0.237	0.159
-298.749	89.886	0.224	-0.249
-297.735	116.123	0.102	-0.124
-296.720	78.935	0.133	0.141
-295.705	-200.000	0.031	0.162
-294.691	360.715	0.060	-0.120
-293.676	800.000	0.076	-0.233
-292.662	-149.055	0.090	-0.007
-291.647	-23.810	0.226	-0.134
-290.632	265.682	-0.069	0.119
-289.618	64.895	0.280	-0.281
-288.603	69.616	-0.041	0.042
-287.589	800.000	-0.025	-0.075
-286.574	29.000	0.233	0.196
-285.559	-200.000	-0.011	-0.216
-284.545	74.773	0.300	-0.314
-283.530	285.455	0.064	0.116
-282.516	115.329	0.201	-0.244
-281.501	-39.702	-0.167	-0.087
-280.486	85.336	-0.097	-0.106
-279.472	800.000	-0.043	-0.138
-278.457	168.004	-0.167	-0.237
-277.443	-188.490	0.114	-0.001
-276.428	481.347	-0.048	-0.108
-275.413	91.401	0.092	-0.103
-274.399	40.961	-0.175	0.157
-273.384	458.905	-0.084	0.186
-272.370	288.891	0.039	0.070
-271.355	-110.063	0.254	0.053
-270.340	-46.439	-0.223	-0.109
-269.326	269.033	-0.025	0.043
-268.311	121.088	-0.143	-0.177
-267.297	-77.674	-0.167	-0.057
-266.282	-200.000	-0.025	-0.133
-265.267	800.000	0.039	0.136
-264.253	-200.000	0.032	-0.240
-263.238	-200.000	0.005	0.222
-262.224	133.633	0.141	0.182
-261.209	610.182	0.123	0.304
-260.195	13.247	0.118	0.091
-259.180	-44.248	-0.190	0.095
-258.165	-12.832	0.360	-0.233
-257.151	461.525	0.011	0.025
-256.136	-50.946	0.105	0.049
-255.122	-125.963	0.073	-0.011
-254.107	-92.145	0.153	0.043
-253.092	-118.805	0.120	-0.021
-252.078	-10.035	-0.143	-0.095
-251.063	-200.000	0.083	0.378
-250.049	-200.000	-0.067	0.291
-249.034	-167.899	-0.295	-0.011
-248.019	-124.677	-0.081	-0.012
-247.005	147.400	0.123	-0.164
-245.990	-200.000	0.031	-0.138
-244.976	-79.322	0.232	-0.078
-243.961	-136.563	0.277	-0.032
-242.946	-42.538	0.142	-0.072
-241.932	166.902	0.137	-0.192
-240.917	44.012	-0.206	-0.188
-239.903	800.000	-0.045	0.185
-238.888	800.000	-0.071	-0.197
-237.873	-200.000	-0.005	-0.114
-236.859	65.418	-0.088	-0.088
-235.844	-143.686	0.253	-0.024
-234.830	299.460	0.249	0.456
-233.815	-200.000	0.063	0.303
-232.800	-200.000	0.006	-0.146
-231.786	-37.088	-0.070	-0.037
-230.771	73.182	-0.097	-0.100
-229.757	-105.433	0.376	0.085
-228.742	-200.000	0.014	0.064
-227.727	82.702	0.225	-0.242
-226.713	262.180	-0.144	0.248
-225.698	410.475	0.077	0.162
-224.684	15.957	-0.327	-0.256
-223.669	800.000	-0.087	-0.277
-222.655	35.380	0.100	0.087
-221.640	-25.424	0.192	0.112
-220.625	800.000	0.042	-0.158
-219.611	9.885	-0.118	0.089
-218.596	213.492	-0.075	0.117
-217.582	800.000	-0.041	0.164
-216.567	-200.000	-0.010	0.163
-215.552	217.044	0.225	-0.355
-214.538	14.442	-0.171	-0.133
-213.523	604.579	0.134	0.332
-212.509	-152.847	-0.273	-0.019
-211.494	125.693	0.124	0.155
-210.479	-28.989	-0.263	0.150
-209.465	-192.091	0.130	0.001
-208.450	800.000	0.101	-0.415
-207.436	-135.570	0.069	-0.008
-206.421	-72.944	0.376	0.137
-205.406	112.283	-0.124	0.149
-204.392	-200.000	-0.001	-0.061
-203.377	-82.756	0.400	-0.128
-202.363	-166.371	-0.151	0.006
-201.348	-20.621	0.188	0.114
-200.333	289.533	-0.143	0.258
-199.319	45.359	0.152	-0.139
-198.304	-200.000	0.012	-0.125
-197.290	112.266	-0.220	-0.263
-196.275	43.156	0.363	-0.329
-195.260	47.416	-0.103	0.095
-194.246	-200.000	-0.073	-0.332
-193.231	-200.000	0.001	-0.071
-192.217	800.000	-0.018	0.061
-191.202	800.000	-0.116	0.351
-190.187	5.835	0.132	-0.097
-189.173	107.015	-0.010	0.012
-188.158	-200.000	0.062	0.278
-187.144	198.349	0.123	-0.187
-186.129	-111.380	-0.069	-0.014
-185.114	19.018	0.202	-0.160
-184.100	58.566	0.163	0.158
-183.085	25.605	0.122	0.101
-182.071	-200.000	-0.012	-0.180
-181.056	800.000	0.138	-0.592
-180.042	-200.000	-0.023	-0.267
-179.027	658.280	0.121	-0.308
-178.012	176.590	0.027	0.039
-176.998	114.399	0.242	-0.291
-175.983	303.418	0.069	-0.127
-174.969	105.448	-0.090	0.105
-173.954	800.000	0.090	-0.272
-172.939	-22.627	0.175	-0.104
-171.925	-12.754	-0.226	-0.146
-170.910	800.000	-0.059	0.189
-169.896	319.034	0.034	0.064
-168.881	800.000	-0.075	0.273
-167.866	271.608	-0.172	0.300
-166.852	800.000	0.102	0.307
-165.837	8.949	-0.023	-0.017
-164.823	-137.714	-0.396	-0.044
-163.808	61.354	0.113	0.112
-162.793	-149.982	-0.156	0.012
-161.779	-200.000	0.005	-0.410
-160.764	800.000	-0.037	-0.114
-159.750	800.000	0.057	-0.238
-158.735	-200.000	0.024	-0.223
-157.720	233.524	-0.106	0.172
-156.706	-200.000	0.007	-0.073
-155.691	21.446	-0.229	-0.184
-154.677	182.668	0.159	0.233
-153.662	-173.691	-0.203	0.006
-152.647	-72.927	-0.450	0.164
-151.633	-10.101	0.110	-0.073
-150.618	79.964	0.080	-0.085
-149.604	-150.911	-0.257	0.019
-148.589	4.396	-0.140	-0.102
-147.574	121.386	-0.107	-0.132
-146.560	-79.821	-0.123	0.041
-145.545	-119.612	-0.034	-0.006
-144.531	-200.000	-0.034	-0.257
-143.516	-124.742	0.081	-0.012
-142.502	123.647	0.203	0.251
-141.487	89.452	0.135	0.149
-140.472	-7.310	-0.194	0.130
-139.458	135.578	0.116	0.149
-138.443	695.225	-0.092	-0.239
-137.429	-32.403	0.189	-0.104
-136.414	-200.000	-0.016	0.096
-135.399	12.947	-0.087	0.066
-134.385	-200.000	0.057	0.305
-133.370	-136.565	0.469	0.054
-132.356	-200.000	0.007	0.055
-131.341	196.253	0.143	0.215
-130.326	800.000	0.061	-0.234
-129.312	58.172	0.124	-0.120
-128.297	-200.000	-0.057	0.404
-127.283	800.000	0.019	-0.070
-126.268	36.649	0.077	-0.067
-125.253	800.000	-0.014	0.056
-124.239	-180.517	-0.242	0.005
-123.224	356.980	0.036	-0.072
-122.210	-49.002	0.299	0.142
