DTS Sentinel unit serial number:	SN413079Multiplexer serial number:	ORYXHardware model number:	OX4-SRSoftware version number:	ORYX F/W v4.00 Oryx Data Collector v3.7.2.0data status	okinstallation	princeton_trtdifferential loss correction	single-endedforward channel	channel 4reverse channel	N/Adate	2019/09/11time	21:31:11forward acquisition time	60.00reverse acquisition time	0.00gamma	496.2192k internal	0.2305k external	0.2305temperature offset calibration	1.0063default loss term (dB/km)	0.3790temperature slope calibration	1.0000multiplexer offset coefficient	1.0000multiplexer slope coefficient	1.0000fibre end	0.00T internal ref (°C)	36.00T ext. ref 1 (°C)	1.57T ext. ref 2 (°C)	29.79length (m)	temperature (°C)	Stokes	anti-Stokes-747.200	479.026	0.054	0.124
-746.185	6.608	-0.068	0.051
-745.171	-158.681	-0.277	-0.016
-744.156	220.030	-0.254	0.415
-743.142	800.000	-0.142	0.448
-742.127	-147.795	-0.379	-0.032
-741.112	-200.000	0.073	-0.355
-740.098	58.116	-0.142	0.142
-739.083	-64.460	0.364	-0.150
-738.069	219.209	-0.050	-0.082
-737.054	-136.736	-0.345	0.040
-736.039	-118.696	0.167	-0.030
-735.025	-200.000	-0.087	0.495
-734.010	-200.000	0.012	0.206
-732.996	-78.740	-0.230	0.080
-731.981	-76.580	-0.054	-0.019
-730.966	38.908	0.111	-0.101
-729.952	24.918	-0.164	-0.139
-728.937	-138.934	-0.076	-0.008
-727.923	-174.830	0.141	0.004
-726.908	-190.344	0.196	0.002
-725.894	114.161	-0.073	-0.090
-724.879	-34.744	-0.199	-0.111
-723.864	-123.529	0.291	0.047
-722.850	-21.412	0.258	-0.160
-721.835	-8.401	-0.120	-0.082
-720.821	314.470	-0.122	0.234
-719.806	-122.676	0.075	0.012
-718.791	182.822	-0.018	0.026
-717.777	-7.905	-0.318	-0.218
-716.762	-200.000	-0.004	0.067
-715.748	800.000	-0.128	-0.442
-714.733	-200.000	-0.031	-0.316
-713.718	-0.044	0.093	-0.067
-712.704	29.299	-0.079	0.068
-711.689	-33.318	-0.575	0.323
-710.675	-200.000	-0.039	-0.326
-709.660	800.000	0.103	-0.427
-708.645	800.000	0.028	-0.094
-707.631	34.963	-0.071	-0.063
-706.616	-86.886	0.217	0.067
-705.602	-38.805	-0.292	-0.156
-704.587	612.250	0.017	0.043
-703.572	119.931	0.190	-0.240
-702.558	-108.427	0.368	0.081
-701.543	-0.649	-0.213	0.153
-700.529	390.542	-0.055	0.115
-699.514	800.000	-0.080	0.244
-698.499	-72.878	-0.185	0.069
-697.485	-62.957	0.096	0.041
-696.470	494.736	-0.057	0.132
-695.456	11.233	-0.297	-0.231
-694.441	-102.331	0.402	-0.098
-693.426	743.502	-0.093	-0.255
-692.412	300.616	-0.093	-0.173
-691.397	-200.000	-0.015	0.153
-690.383	-173.654	0.125	0.004
-689.368	800.000	0.072	-0.241
-688.354	-51.065	-0.241	-0.115
-687.339	-48.377	-0.094	0.046
-686.324	-82.567	-0.101	0.033
-685.310	35.818	-0.198	0.177
-684.295	213.708	0.075	0.120
-683.281	270.193	-0.261	-0.466
-682.266	-105.413	-0.228	0.053
-681.251	-8.002	0.090	-0.061
-680.237	800.000	-0.035	0.107
-679.222	800.000	-0.080	0.283
-678.208	-200.000	-0.019	0.207
-677.193	-68.379	-0.292	0.115
-676.178	-200.000	-0.012	0.310
-675.164	-200.000	0.044	-0.236
-674.149	-38.101	-0.121	0.065
-673.135	-200.000	0.008	0.041
-672.120	-76.017	-0.108	-0.039
-671.105	-59.705	0.200	-0.087
-670.091	-12.923	-0.046	0.030
-669.076	-200.000	-0.012	-0.251
-668.062	-155.846	-0.060	-0.004
-667.047	678.036	-0.160	0.422
-666.032	77.543	0.127	-0.137
-665.018	-200.000	-0.015	0.158
-664.003	67.184	-0.292	-0.302
-662.989	-40.803	0.225	0.118
-661.974	-101.820	0.171	0.042
-660.959	-200.000	0.023	-0.159
-659.945	-29.758	0.104	0.060
-658.930	-123.634	-0.201	-0.032
-657.916	192.143	0.282	-0.432
-656.901	25.427	-0.258	-0.218
-655.886	172.767	0.104	0.151
-654.872	-11.859	-0.225	-0.150
-653.857	-97.053	-0.114	0.030
-652.843	57.485	0.208	-0.206
-651.828	-54.513	0.080	0.037
-650.814	-141.186	0.205	-0.021
-649.799	59.736	0.158	-0.158
-648.784	-200.000	-0.003	-0.312
-647.770	111.611	0.095	-0.117
-646.755	-53.833	0.182	-0.084
-645.741	800.000	0.016	0.055
-644.726	800.000	-0.071	-0.248
-643.711	-42.207	0.176	-0.091
-642.697	800.000	0.076	0.266
-641.682	800.000	-0.036	-0.101
-640.668	-200.000	-0.005	-0.163
-639.653	7.070	-0.169	-0.128
-638.638	800.000	0.063	-0.186
-637.624	-73.927	0.451	-0.166
-636.609	553.479	-0.021	-0.051
-635.595	-77.708	-0.168	0.059
-634.580	602.946	0.087	-0.218
-633.565	800.000	-0.056	-0.226
-632.551	-81.317	-0.443	0.148
-631.536	267.426	-0.109	0.194
-630.522	214.740	-0.045	0.072
-629.507	381.014	-0.040	-0.083
-628.492	800.000	0.039	-0.157
-627.478	-69.751	-0.177	0.069
-626.463	-200.000	0.032	0.221
-625.449	-200.000	0.014	-0.061
-624.434	-200.000	0.057	0.289
-623.419	-200.000	-0.011	-0.089
-622.405	757.841	-0.138	-0.378
-621.390	-120.758	-0.263	-0.045
-620.376	-164.608	0.259	0.012
-619.361	113.403	0.014	0.018
-618.346	-64.470	0.097	0.040
-617.332	-200.000	-0.000	0.065
-616.317	800.000	0.173	-0.541
-615.303	162.601	0.146	-0.208
-614.288	-95.848	-0.492	-0.133
-613.273	184.447	-0.125	0.188
-612.259	-200.000	0.029	0.133
-611.244	97.433	0.135	-0.156
-610.230	-33.581	0.219	-0.123
-609.215	-200.000	0.013	-0.066
-608.201	97.931	-0.019	-0.022
-607.186	44.548	0.193	0.180
-606.171	-200.000	0.020	0.296
-605.157	248.904	-0.124	-0.212
-604.142	-200.000	0.053	-0.298
-603.128	-123.733	-0.103	0.017
-602.113	73.719	0.186	-0.197
-601.098	800.000	0.023	0.079
-600.084	-200.000	-0.011	0.231
-599.069	-200.000	-0.029	0.176
-598.055	-32.351	-0.187	-0.105
-597.040	42.519	-0.086	-0.079
-596.025	-200.000	0.040	0.216
-595.011	347.009	-0.101	-0.201
-593.996	175.052	0.104	-0.153
-592.982	-140.519	0.044	-0.005
-591.967	195.832	0.243	-0.374
-590.952	-200.000	-0.004	-0.332
-589.938	81.682	-0.095	0.105
-588.923	-77.150	-0.368	-0.130
-587.909	112.380	-0.126	-0.154
-586.894	-200.000	0.045	-0.312
-585.879	-98.926	0.179	-0.046
-584.865	-108.609	-0.159	0.034
-583.850	-3.269	0.326	-0.230
-582.836	800.000	0.093	0.316
-581.821	449.662	0.169	0.377
-580.806	88.437	-0.214	0.241
-579.792	49.936	-0.185	-0.176
-578.777	249.366	0.094	0.161
-577.763	34.407	0.326	-0.288
-576.748	250.982	-0.053	0.091
-575.733	-64.664	-0.101	-0.041
-574.719	-122.522	-0.060	-0.010
-573.704	-27.996	-0.057	-0.033
-572.690	-75.262	-0.218	0.079
-571.675	135.535	0.160	0.210
-570.661	-99.039	0.187	0.048
-569.646	-200.000	-0.024	-0.444
-568.631	800.000	-0.059	-0.192
-567.617	-39.768	-0.331	0.175
-566.602	-88.387	0.188	-0.057
-565.588	-117.035	-0.226	0.042
-564.573	-98.478	0.093	0.024
-563.558	-152.715	0.111	-0.008
-562.544	800.000	0.049	0.185
-561.529	-3.063	-0.243	0.172
-560.515	-200.000	-0.005	-0.060
-559.500	67.795	-0.009	0.010
-558.485	-26.971	-0.337	0.199
-557.471	21.343	-0.223	0.183
-556.456	-200.000	-0.035	-0.256
-555.442	531.609	0.130	0.311
-554.427	250.558	0.148	0.254
-553.412	-200.000	-0.003	0.277
-552.398	86.726	0.094	-0.105
-551.383	800.000	-0.123	-0.378
-550.369	-34.972	0.154	-0.085
-549.354	-200.000	0.021	-0.193
-548.339	63.134	0.365	0.369
-547.325	-144.122	-0.306	0.029
-546.310	-69.813	-0.232	0.090
-545.296	159.234	0.049	0.068
-544.281	-35.155	-0.098	0.054
-543.266	800.000	-0.050	-0.169
-542.252	-200.000	-0.012	-0.089
-541.237	-200.000	-0.019	0.117
-540.223	-200.000	0.045	0.300
-539.208	-104.684	0.180	0.042
-538.193	-135.827	0.174	0.021
-537.179	672.352	-0.042	-0.109
-536.164	-16.636	-0.195	0.125
-535.150	215.370	-0.060	0.096
-534.135	-200.000	0.007	-0.034
-533.121	-200.000	-0.024	0.549
-532.106	34.626	-0.040	-0.036
-531.091	-48.952	-0.247	-0.119
-530.077	-168.293	0.425	0.017
-529.062	532.398	-0.095	-0.228
-528.048	-17.761	-0.128	-0.081
-527.033	-200.000	0.062	0.314
-526.018	800.000	0.061	-0.193
-525.004	-65.937	0.092	-0.037
-523.989	625.964	0.101	0.257
-522.975	800.000	0.139	0.449
-521.960	-39.534	0.245	-0.129
-520.945	23.873	-0.212	0.176
-519.931	-64.743	0.134	-0.055
-518.916	-200.000	0.037	-0.436
-517.902	88.411	-0.182	-0.204
-516.887	800.000	0.068	-0.203
-515.872	-146.939	-0.026	-0.002
-514.858	-200.000	-0.038	0.354
-513.843	182.068	-0.145	-0.215
-512.829	218.846	0.064	-0.103
-511.814	-71.796	0.146	0.055
-510.799	-1.715	0.035	0.025
-509.785	-200.000	0.005	-0.132
-508.770	-76.380	0.147	0.052
-507.756	134.222	0.027	-0.035
-506.741	-200.000	0.068	-0.342
-505.726	-122.681	0.216	0.035
-504.712	-200.000	-0.002	-0.110
-503.697	-200.000	-0.015	-0.151
-502.683	800.000	0.089	0.254
-501.668	800.000	0.049	0.181
-500.653	93.501	0.379	0.433
-499.639	43.977	0.103	0.095
-498.624	800.000	-0.115	-0.442
-497.610	465.575	-0.128	-0.289
-496.595	-63.961	-0.247	-0.102
-495.581	6.123	0.114	0.085
-494.566	-52.204	0.114	0.053
-493.551	163.943	-0.244	0.347
-492.537	-165.680	-0.084	-0.004
-491.522	-176.257	0.032	0.001
-490.508	223.472	0.017	0.027
-489.493	2.100	-0.095	-0.069
-488.478	86.119	0.086	0.096
-487.464	-170.958	-0.213	-0.007
-486.449	-200.000	-0.066	0.511
-485.435	-44.122	0.181	-0.092
-484.420	-31.414	-0.063	-0.036
-483.405	-99.823	0.149	0.037
-482.391	-96.694	0.077	0.020
-481.376	-112.951	0.001	0.000
-480.362	282.186	0.082	-0.147
-479.347	-20.130	0.229	0.142
-478.332	-200.000	-0.024	0.153
-477.318	-59.293	-0.339	-0.147
-476.303	-21.474	-0.067	-0.041
-475.289	800.000	0.056	0.215
-474.274	73.550	0.160	-0.169
-473.259	-200.000	0.064	0.297
-472.245	-90.469	0.160	-0.047
-471.230	800.000	0.030	-0.088
-470.216	580.976	-0.036	0.089
-469.201	-31.093	-0.083	-0.047
-468.186	-9.968	0.391	0.262
-467.172	-75.625	0.114	-0.041
-466.157	377.812	0.179	-0.368
-465.143	-59.246	-0.215	-0.093
-464.128	212.013	-0.052	-0.083
-463.113	-26.282	0.181	-0.107
-462.099	-200.000	0.002	-0.236
-461.084	-160.428	0.161	0.009
-460.070	-131.887	0.262	-0.034
-459.055	-183.165	0.403	-0.007
-458.040	800.000	0.050	-0.165
-457.026	-200.000	0.038	0.191
-456.011	-33.059	-0.283	0.158
-454.997	-200.000	0.010	0.113
-453.982	154.675	-0.340	0.471
-452.968	-192.994	0.054	-0.000
-451.953	-157.541	-0.343	-0.021
-450.938	-112.068	-0.474	0.096
-449.924	-200.000	-0.073	-0.372
-448.909	-25.507	0.106	-0.063
-447.895	227.671	-0.071	-0.116
-446.880	263.469	0.026	0.045
-445.865	800.000	-0.031	-0.132
-444.851	56.329	0.263	0.257
-443.836	-143.020	-0.232	0.023
-442.822	-78.602	0.123	-0.042
-441.807	122.390	0.177	-0.223
-440.792	31.295	0.212	0.183
-439.778	28.782	0.114	-0.097
-438.763	-200.000	-0.042	0.304
-437.749	61.991	-0.187	0.188
-436.734	-39.767	-0.087	0.046
-435.719	-130.030	-0.376	0.052
-434.705	800.000	-0.042	-0.157
-433.690	328.943	0.100	-0.194
-432.676	131.621	-0.115	-0.148
-431.661	276.409	-0.093	-0.167
-430.646	716.513	-0.119	-0.317
-429.632	-200.000	0.028	-0.277
-428.617	-200.000	-0.023	-0.317
-427.603	469.995	0.076	0.172
-426.588	484.989	-0.040	-0.092
-425.573	-111.417	0.287	0.059
-424.559	-0.123	-0.132	0.095
-423.544	7.899	-0.303	-0.228
-422.530	60.667	0.230	-0.229
-421.515	-81.835	0.163	0.054
-420.500	38.973	0.284	0.255
-419.486	800.000	0.023	-0.092
-418.471	-200.000	0.009	-0.150
-417.457	-15.427	-0.113	0.073
-416.442	-99.787	0.134	-0.034
-415.428	-161.705	0.187	-0.010
-414.413	-118.366	0.119	0.021
-413.398	-115.741	-0.075	-0.014
-412.384	-105.463	0.430	0.098
-411.369	479.959	-0.021	-0.048
-410.355	-200.000	-0.001	0.139
-409.340	711.011	-0.072	0.192
-408.325	-200.000	0.048	0.289
-407.311	-122.095	-0.209	-0.034
-406.296	-163.428	0.089	0.004
-405.282	260.104	-0.146	0.253
-404.267	-156.494	-0.215	0.013
-403.252	800.000	0.027	-0.112
-402.238	102.296	-0.177	-0.207
-401.223	146.276	0.157	-0.211
-400.209	-200.000	-0.023	0.158
-399.194	-59.005	0.164	0.071
-398.179	250.110	-0.088	-0.149
-397.165	-200.000	0.023	-0.101
-396.150	523.297	-0.052	0.122
-395.136	-84.779	0.221	0.070
-394.121	-13.715	0.247	-0.161
-393.106	-160.128	0.176	-0.010
-392.092	-124.175	-0.192	-0.030
-391.077	-200.000	-0.003	0.139
-390.063	-200.000	-0.056	0.247
-389.048	653.095	-0.197	-0.507
-388.033	-200.000	0.032	0.162
-387.019	-144.921	-0.072	-0.007
-386.004	41.379	0.277	0.251
-384.990	-200.000	-0.003	-0.028
-383.975	22.672	0.172	0.141
-382.960	20.870	-0.186	0.151
-381.946	-17.310	-0.202	-0.127
-380.931	43.183	-0.051	0.047
-379.917	44.322	-0.279	0.257
-378.902	800.000	-0.024	-0.071
-377.888	230.916	0.077	0.127
-376.873	-18.178	-0.088	-0.055
-375.858	-46.182	-0.153	-0.075
-374.844	172.443	0.067	-0.096
-373.829	-200.000	-0.031	-0.243
-372.815	101.013	-0.076	-0.089
-371.800	240.234	0.223	-0.372
-370.785	26.247	-0.066	-0.056
-369.771	312.495	0.067	0.126
-368.756	-88.812	0.309	0.092
-367.742	800.000	0.081	0.282
-366.727	800.000	-0.030	0.115
-365.712	217.750	-0.120	-0.192
-364.698	800.000	-0.027	-0.087
-363.683	-7.078	0.326	-0.222
-362.669	-131.728	-0.254	-0.033
-361.654	-162.679	0.221	-0.011
-360.639	-32.586	0.180	0.101
-359.625	17.371	-0.176	0.140
-358.610	-107.587	0.205	-0.045
-357.596	800.000	-0.023	0.068
-356.581	-31.702	-0.197	0.111
-355.566	-18.541	-0.174	-0.109
-354.552	97.979	-0.042	-0.048
-353.537	-185.442	-0.191	0.003
-352.523	-12.438	0.344	0.226
-351.508	19.670	-0.008	-0.006
-350.493	77.764	-0.050	0.054
-349.479	-200.000	0.023	-0.265
-348.464	63.859	0.094	0.095
-347.450	-183.175	-0.262	-0.005
-346.435	-127.514	-0.305	-0.044
-345.420	39.659	0.107	0.096
-344.406	53.924	-0.120	0.115
-343.391	-170.919	0.124	0.004
-342.377	50.832	0.109	0.103
-341.362	-109.584	0.205	0.043
-340.348	800.000	-0.063	0.179
-339.333	87.339	0.166	-0.183
-338.318	-65.942	-0.230	-0.092
-337.304	37.191	-0.242	-0.214
-336.289	31.948	-0.147	0.127
-335.275	-109.576	-0.050	-0.011
-334.260	129.636	0.126	0.161
-333.245	383.441	0.120	0.248
-332.231	366.654	0.158	0.319
-331.216	-134.517	-0.276	0.034
-330.202	-62.628	-0.220	0.091
-329.187	352.317	0.182	-0.361
-328.172	43.490	-0.070	0.064
-327.158	406.811	-0.065	-0.138
-326.143	-45.926	-0.083	0.041
-325.129	-77.306	-0.342	-0.119
-324.114	482.404	-0.126	0.287
-323.099	23.426	-0.096	-0.079
-322.085	381.193	0.128	-0.262
-321.070	-0.087	-0.275	0.196
-320.056	800.000	-0.024	0.087
-319.041	-200.000	-0.003	-0.150
-318.026	24.096	-0.043	0.035
-317.012	49.852	-0.084	0.079
-315.997	111.075	0.380	-0.458
-314.983	172.876	-0.197	-0.284
-313.968	-98.298	0.265	-0.068
-312.953	-39.350	-0.210	0.110
-311.939	800.000	-0.038	0.116
-310.924	581.171	-0.031	0.076
-309.910	117.891	-0.259	0.319
-308.895	-124.954	0.351	-0.054
-307.880	-59.789	0.139	-0.060
-306.866	-40.478	-0.406	-0.211
-305.851	800.000	0.043	0.140
-304.837	-11.506	0.114	-0.075
-303.822	-71.400	-0.580	-0.217
-302.807	101.518	0.200	0.233
-301.793	-200.000	0.001	-0.157
-300.778	-31.769	0.035	0.020
-299.764	-150.226	0.079	0.006
-298.749	-163.414	-0.338	0.016
-297.735	-145.816	0.212	0.019
-296.720	-72.621	-0.217	0.080
-295.705	800.000	-0.099	-0.296
-294.691	-136.388	-0.212	0.025
-293.676	-178.467	0.100	-0.002
-292.662	32.841	-0.209	-0.181
-291.647	-94.108	0.353	-0.097
-290.632	800.000	0.119	-0.350
-289.618	-58.531	0.117	-0.051
-288.603	-124.152	-0.153	-0.024
-287.589	59.202	0.217	-0.213
-286.574	800.000	-0.074	-0.269
-285.559	363.221	-0.138	0.278
-284.545	-135.076	-0.186	-0.022
-283.530	-50.076	0.143	0.068
-282.516	-37.834	0.117	0.062
-281.501	196.575	-0.058	0.089
-280.486	-135.461	0.169	0.020
-279.472	-101.230	-0.332	-0.081
-278.457	48.082	-0.275	0.257
-277.443	334.985	0.068	0.132
-276.428	-200.000	-0.007	0.115
-275.413	800.000	-0.012	-0.052
-274.399	121.470	-0.115	0.143
-273.384	614.642	-0.029	0.073
-272.370	104.445	-0.048	-0.056
-271.355	-175.043	0.249	-0.007
-270.340	31.749	-0.137	-0.117
-269.326	-200.000	-0.023	-0.104
-268.311	151.995	0.185	-0.252
-267.297	-200.000	-0.024	-0.129
-266.282	5.192	0.255	0.188
-265.267	-200.000	-0.022	0.233
-264.253	44.036	0.247	0.226
-263.238	239.373	-0.162	0.270
-262.224	-13.183	0.039	0.025
-261.209	-92.297	-0.268	0.075
-260.195	83.715	-0.166	-0.180
-259.180	-44.919	-0.174	-0.086
-258.165	-46.824	0.059	0.029
-257.151	1.182	0.034	-0.024
-256.136	145.332	0.162	0.216
-255.122	174.364	-0.095	0.137
-254.107	34.997	-0.165	0.144
-253.092	-44.188	0.334	0.167
-252.078	-200.000	-0.004	0.096
-251.063	-126.206	0.536	-0.080
-250.049	-37.013	-0.313	-0.167
-249.034	-200.000	0.042	0.353
-248.019	-200.000	-0.004	-0.330
-247.005	53.026	-0.131	-0.125
-245.990	10.919	-0.104	-0.079
-244.976	-200.000	0.039	0.615
-243.961	-36.433	-0.255	-0.137
-242.946	146.166	0.187	0.250
-241.932	800.000	0.052	0.202
-240.917	800.000	-0.053	0.149
-239.903	-139.278	0.314	0.034
-238.888	800.000	-0.037	0.119
-237.873	-200.000	-0.020	-0.160
-236.859	-200.000	0.007	-0.199
-235.844	-53.324	-0.305	0.139
-234.830	645.345	-0.132	0.336
-233.815	800.000	0.079	-0.265
-232.800	-14.290	-0.390	0.251
-231.786	-12.328	-0.026	0.017
-230.771	-124.139	0.227	0.035
-229.757	133.072	-0.121	0.156
-228.742	-137.481	0.212	0.024
-227.727	290.232	-0.143	-0.260
-226.713	-72.304	0.168	-0.062
-225.698	-69.538	0.259	0.099
-224.684	54.200	0.132	-0.127
-223.669	18.123	0.133	-0.106
-222.655	-158.133	-0.053	-0.003
-221.640	-90.337	0.396	0.115
-220.625	-166.884	0.183	-0.008
-219.611	-53.708	0.193	0.088
-218.596	-80.856	0.337	0.111
-217.582	130.756	0.273	0.350
-216.567	-115.054	0.087	-0.016
-215.552	193.042	-0.078	0.118
-214.538	-49.156	-0.393	-0.187
-213.523	-52.448	-0.200	0.092
-212.509	800.000	-0.034	0.094
-211.494	17.326	0.230	-0.182
-210.479	-63.216	0.126	-0.052
-209.465	-106.675	0.282	0.063
-208.450	-28.117	-0.177	0.102
-207.436	28.564	0.226	0.190
-206.421	-37.251	0.031	0.017
-205.406	-38.426	-0.188	0.099
-204.392	-157.781	-0.144	0.008
-203.377	-200.000	0.063	0.316
-202.363	800.000	-0.095	-0.317
-201.348	709.926	-0.038	0.101
-200.333	-200.000	0.012	-0.328
-199.319	50.369	-0.164	0.155
-198.304	-43.820	-0.261	0.131
-197.290	26.141	0.161	-0.134
-196.275	1.935	-0.162	0.116
-195.260	12.111	0.088	0.068
-194.246	-200.000	0.022	-0.171
-193.231	157.101	-0.100	-0.138
-192.217	77.792	0.094	-0.100
-191.202	-38.047	-0.181	-0.096
-190.187	-200.000	0.018	0.147
-189.173	-47.123	0.027	0.013
-188.158	29.391	-0.216	-0.182
-187.144	-48.662	0.179	0.086
-186.129	-123.610	-0.180	-0.028
-185.114	-200.000	0.017	0.107
-184.100	79.027	0.096	-0.103
-183.085	800.000	0.069	-0.240
-182.071	-200.000	0.029	0.387
-181.056	747.998	-0.049	0.133
-180.042	-16.309	-0.173	0.109
-179.027	-200.000	0.039	0.302
-178.012	800.000	-0.026	0.097
-176.998	-13.613	0.204	0.131
-175.983	-200.000	-0.013	0.083
-174.969	281.493	0.032	0.056
-173.954	-96.285	-0.429	-0.113
-172.939	200.099	-0.231	-0.354
-171.925	333.401	0.059	0.114
-170.910	-154.503	-0.181	-0.012
-169.896	-40.572	0.099	0.051
-168.881	412.099	0.058	0.123
-167.866	-14.653	0.186	-0.119
-166.852	-42.856	0.079	0.040
-165.837	577.955	0.043	-0.104
-164.823	308.240	-0.037	-0.068
-163.808	800.000	0.120	-0.371
-162.793	-181.353	-0.350	-0.007
-161.779	-25.139	0.325	-0.192
-160.764	512.113	-0.160	0.371
-159.750	-170.563	0.410	-0.014
-158.735	-200.000	0.027	0.195
-157.720	-200.000	0.029	0.169
-156.706	800.000	0.045	-0.169
-155.691	24.918	-0.144	0.118
-154.677	-200.000	0.028	-0.244
-153.662	8.313	-0.320	-0.239
-152.647	-200.000	-0.032	-0.152
-151.633	443.907	0.069	0.150
-150.618	-200.000	0.004	0.311
-149.604	75.379	0.252	0.264
-148.589	-10.223	-0.087	0.057
-147.574	292.198	0.092	-0.167
-146.560	-26.515	0.087	-0.051
-145.545	169.832	0.013	-0.018
-144.531	800.000	0.129	-0.455
-143.516	-200.000	0.028	0.217
-142.502	-132.951	0.445	-0.056
-141.487	-146.781	-0.159	0.014
-140.472	303.181	-0.049	0.090
-139.458	644.213	-0.061	-0.154
-138.443	183.745	-0.158	0.232
-137.429	308.968	-0.067	0.125
-136.414	770.018	0.099	0.269
-135.399	177.195	0.119	0.173
-134.385	-49.676	-0.263	0.124
-133.370	148.238	0.125	0.168
-132.356	18.384	0.159	0.127
-131.341	-127.474	0.308	-0.044
-130.326	-101.011	0.235	0.057
-129.312	-36.242	-0.268	-0.144
-128.297	-9.111	-0.151	-0.100
-127.283	-200.000	0.014	0.076
-126.268	99.976	-0.086	-0.099
-125.253	35.751	-0.350	-0.306
-124.239	800.000	-0.085	-0.274
-123.224	-50.565	-0.119	-0.056
-122.210	-123.370	-0.186	-0.029
