DTS Sentinel unit serial number:	SN413079Multiplexer serial number:	ORYXHardware model number:	OX4-SRSoftware version number:	ORYX F/W v4.00 Oryx Data Collector v3.7.2.0data status	okinstallation	princeton_trtdifferential loss correction	single-endedforward channel	channel 4reverse channel	N/Adate	2019/09/11time	19:11:11forward acquisition time	60.00reverse acquisition time	0.00gamma	496.2192k internal	0.2289k external	0.2289temperature offset calibration	1.0033default loss term (dB/km)	0.3790temperature slope calibration	1.0000multiplexer offset coefficient	1.0000multiplexer slope coefficient	1.0000fibre end	0.00T internal ref (°C)	41.61T ext. ref 1 (°C)	1.27T ext. ref 2 (°C)	33.75length (m)	temperature (°C)	Stokes	anti-Stokes-747.200	47.960	0.285	0.272
-746.185	539.302	0.065	0.159
-745.171	-200.000	-0.049	-0.401
-744.156	65.967	-0.275	0.286
-743.142	-95.541	0.275	0.076
-742.127	-200.000	0.036	0.200
-741.112	41.011	-0.329	0.304
-740.098	-72.417	0.423	0.161
-739.083	207.302	-0.185	-0.295
-738.069	486.221	0.067	0.157
-737.054	-200.000	-0.027	0.193
-736.039	177.051	-0.069	0.103
-735.025	-163.488	0.108	0.005
-734.010	-139.346	-0.106	0.012
-732.996	-196.376	-0.162	-0.001
-731.981	151.999	-0.170	-0.237
-730.966	237.078	0.135	-0.229
-729.952	-161.447	-0.420	0.022
-728.937	-200.000	-0.053	-0.270
-727.923	140.129	-0.178	-0.241
-726.908	-177.690	-0.243	-0.006
-725.894	-95.284	-0.101	0.028
-724.879	-127.692	-0.252	-0.037
-723.864	-177.250	-0.275	-0.007
-722.850	235.254	0.126	-0.212
-721.835	156.443	-0.196	-0.277
-720.821	-17.870	-0.216	0.139
-719.806	127.406	-0.250	-0.324
-718.791	44.509	0.153	0.144
-717.777	-167.418	0.271	-0.011
-716.762	-35.257	-0.219	-0.122
-715.748	-29.507	-0.120	0.070
-714.733	169.648	-0.021	0.030
-713.718	476.286	0.066	-0.153
-712.704	262.667	-0.110	0.196
-711.689	-114.542	-0.132	0.026
-710.675	-93.961	-0.096	0.027
-709.660	-200.000	0.001	0.238
-708.645	-200.000	-0.033	-0.237
-707.631	800.000	-0.058	0.212
-706.616	-200.000	0.051	0.284
-705.602	253.711	0.114	0.199
-704.587	-106.594	-0.111	0.025
-703.572	70.110	-0.041	0.043
-702.558	-144.873	-0.436	-0.041
-701.543	800.000	-0.064	0.275
-700.529	-200.000	-0.051	0.331
-699.514	28.692	-0.336	0.291
-698.499	186.628	0.225	-0.342
-697.485	-200.000	0.031	0.292
-696.470	107.721	-0.105	0.128
-695.456	800.000	0.040	-0.141
-694.441	464.836	0.118	-0.271
-693.426	-15.697	-0.340	-0.222
-692.412	-13.188	0.173	0.115
-691.397	312.265	0.241	0.462
-690.383	800.000	-0.090	-0.288
-689.368	800.000	0.048	-0.188
-688.354	-44.206	-0.101	-0.052
-687.339	-72.054	-0.309	-0.117
-686.324	-200.000	0.030	-0.226
-685.310	-160.691	0.044	-0.002
-684.295	110.752	-0.159	0.196
-683.281	800.000	-0.098	0.381
-682.266	-96.920	0.168	-0.045
-681.251	-181.430	-0.142	-0.003
-680.237	800.000	0.070	-0.272
-679.222	38.341	0.129	-0.117
-678.208	-200.000	0.032	-0.200
-677.193	-184.416	-0.389	0.006
-676.178	293.694	0.030	0.057
-675.164	792.343	0.052	-0.146
-674.149	800.000	-0.118	-0.483
-673.135	-126.951	-0.335	0.050
-672.120	10.867	-0.210	-0.164
-671.105	800.000	-0.045	0.189
-670.091	-140.571	-0.437	-0.046
-669.076	10.910	-0.185	0.144
-668.062	72.508	0.148	-0.157
-667.047	800.000	0.084	-0.249
-666.032	21.022	-0.089	0.074
-665.018	-200.000	0.007	-0.104
-664.003	116.507	-0.239	0.299
-662.989	-69.890	-0.062	-0.024
-661.974	20.874	-0.153	-0.127
-660.959	49.093	0.127	-0.122
-659.945	-90.374	0.212	0.063
-658.930	800.000	0.100	-0.406
-657.916	-30.582	-0.154	-0.089
-656.901	-68.510	-0.169	0.067
-655.886	203.596	-0.167	-0.264
-654.872	283.429	0.164	0.301
-653.857	235.340	-0.024	0.040
-652.843	118.885	-0.082	0.104
-651.828	-193.352	-0.460	-0.004
-650.814	-200.000	0.012	0.080
-649.799	800.000	0.057	0.244
-648.784	-19.335	0.163	-0.103
-647.770	212.747	-0.099	-0.159
-646.755	170.700	0.118	0.173
-645.741	-70.991	-0.132	-0.051
-644.726	-200.000	0.008	0.229
-643.711	-93.825	-0.095	-0.027
-642.697	56.958	0.260	0.259
-641.682	-153.373	0.383	0.027
-640.668	54.229	-0.179	-0.175
-639.653	-102.606	0.294	-0.072
-638.638	-18.932	-0.276	0.175
-637.624	-9.794	-0.596	0.405
-636.609	-12.794	-0.176	0.117
-635.595	240.338	-0.129	0.219
-634.580	-49.945	0.212	-0.103
-633.565	-49.836	0.164	-0.080
-632.551	-69.737	-0.079	-0.031
-631.536	-70.710	-0.174	0.067
-630.522	-170.258	-0.343	-0.012
-629.507	800.000	-0.083	-0.249
-628.492	-109.232	0.449	0.097
-627.478	-200.000	0.018	-0.182
-626.463	138.690	0.170	-0.228
-625.449	46.318	0.218	0.207
-624.434	-70.400	-0.363	0.140
-623.419	-200.000	0.015	-0.329
-622.405	-95.718	0.165	-0.045
-621.390	-34.344	-0.295	0.165
-620.376	371.125	0.121	0.251
-619.361	-105.089	-0.343	0.080
-618.346	-200.000	-0.007	0.128
-617.332	-122.336	-0.180	-0.030
-616.317	229.100	-0.120	0.199
-615.303	-22.143	-0.275	-0.170
-614.288	44.555	-0.194	-0.182
-613.273	242.675	-0.111	0.189
-612.259	-54.030	-0.129	0.060
-611.244	615.721	-0.090	-0.231
-610.230	-157.972	0.163	-0.010
-609.215	800.000	-0.051	0.156
-608.201	-200.000	-0.019	0.256
-607.186	-123.056	0.258	0.042
-606.171	63.934	-0.110	0.113
-605.157	270.511	0.271	-0.485
-604.142	-86.313	-0.385	-0.121
-603.128	144.827	-0.022	0.030
-602.113	-111.753	0.404	-0.083
-601.098	-98.965	0.403	0.104
-600.084	-87.512	-0.172	0.053
-599.069	-169.931	0.152	0.006
-598.055	-200.000	-0.409	0.002
-597.040	-200.000	-0.031	-0.304
-596.025	113.898	-0.096	-0.119
-595.011	79.028	-0.306	-0.333
-593.996	355.026	-0.104	-0.211
-592.982	460.630	-0.045	-0.101
-591.967	121.993	0.065	-0.083
-590.952	68.457	-0.079	0.082
-589.938	120.500	-0.071	0.090
-588.923	-137.628	0.086	-0.010
-587.909	-51.086	-0.097	-0.046
-586.894	800.000	-0.062	0.207
-585.879	41.909	0.286	-0.264
-584.865	-42.996	0.066	-0.034
-583.850	585.797	0.018	0.044
-582.836	-46.844	-0.132	-0.066
-581.821	-151.912	-0.185	0.014
-580.806	380.700	-0.075	-0.157
-579.792	-28.405	0.100	0.059
-578.777	-136.884	0.064	0.007
-577.763	-200.000	-0.019	0.133
-576.748	800.000	0.042	-0.118
-575.733	204.228	0.144	-0.227
-574.719	333.710	0.074	0.146
-573.704	513.093	0.088	0.210
-572.690	332.720	-0.034	-0.068
-571.675	7.427	0.127	-0.097
-570.661	-151.965	-0.102	0.008
-569.646	-28.821	0.147	-0.086
-568.631	22.146	-0.140	0.116
-567.617	218.287	-0.078	-0.127
-566.602	-122.797	-0.063	-0.010
-565.588	223.434	-0.024	-0.039
-564.573	31.702	0.061	0.053
-563.558	578.584	0.030	0.075
-562.544	106.102	0.173	0.208
-561.529	-94.043	0.410	0.114
-560.515	-200.000	0.002	-0.288
-559.500	-1.669	0.199	-0.143
-558.485	356.458	0.044	-0.089
-557.471	284.880	-0.168	0.307
-556.456	-90.004	-0.305	0.091
-555.442	-200.000	-0.308	-0.000
-554.427	241.102	-0.108	-0.183
-553.412	-25.867	0.332	-0.199
-552.398	436.842	-0.084	0.185
-551.383	82.114	-0.180	0.198
-550.369	-110.566	-0.194	-0.041
-549.354	-200.000	0.022	-0.307
-548.339	343.391	0.020	-0.039
-547.325	-100.500	0.045	-0.011
-546.310	18.559	0.383	-0.312
-545.296	800.000	0.086	-0.283
-544.281	608.870	-0.145	-0.368
-543.266	15.504	0.212	0.169
-542.252	-47.346	0.272	0.134
-541.237	-35.868	-0.099	0.055
-540.223	-200.000	-0.014	0.194
-539.208	409.175	0.101	0.218
-538.193	-105.626	0.106	0.024
-537.179	54.058	-0.340	-0.333
-536.164	-94.878	0.199	-0.055
-535.150	152.569	-0.188	-0.261
-534.135	-78.285	0.289	-0.101
-533.121	14.109	-0.104	0.082
-532.106	-165.176	-0.047	0.002
-531.091	-60.169	-0.129	-0.056
-530.077	-27.354	0.095	0.056
-529.062	800.000	-0.045	-0.181
-528.048	-200.000	-0.011	-0.119
-527.033	800.000	0.051	0.163
-526.018	-113.279	-0.178	0.036
-525.004	175.136	-0.062	-0.091
-523.989	-91.876	-0.236	-0.068
-522.975	-200.000	0.025	-0.113
-521.960	231.321	-0.151	-0.252
-520.945	-2.141	0.120	0.086
-519.931	235.159	0.110	0.185
-518.916	-200.000	-0.002	0.037
-517.902	-14.886	0.105	-0.068
-516.887	-200.000	0.034	0.309
-515.872	500.165	-0.061	-0.144
-514.858	128.651	-0.258	0.334
-513.843	-47.440	0.085	-0.042
-512.829	-106.455	-0.389	0.088
-511.814	-29.544	0.065	-0.037
-510.799	48.868	0.208	0.199
-509.785	-169.502	0.193	0.007
-508.770	9.275	-0.192	-0.148
-507.756	-200.000	0.214	-0.001
-506.741	-200.000	0.049	-0.534
-505.726	800.000	-0.021	-0.071
-504.712	-200.000	0.018	0.111
-503.697	7.774	0.041	-0.031
-502.683	-129.017	-0.424	-0.060
-501.668	-61.564	0.321	0.137
-500.653	800.000	-0.062	0.268
-499.639	-109.372	0.026	0.006
-498.624	800.000	0.078	-0.249
-497.610	-85.761	0.148	0.047
-496.595	73.259	-0.085	0.091
-495.581	68.490	0.223	-0.233
-494.566	108.073	-0.192	-0.232
-493.551	43.244	-0.079	-0.073
-492.537	103.714	0.118	0.140
-491.522	6.377	0.257	0.193
-490.508	-65.108	-0.405	0.166
-489.493	-95.317	0.222	0.061
-488.478	-13.875	0.068	0.045
-487.464	-200.000	-0.008	-0.230
-486.449	-49.553	0.342	-0.165
-485.435	3.682	0.179	-0.133
-484.420	-200.000	-0.025	-0.230
-483.405	-132.972	0.113	0.015
-482.391	-178.209	0.032	-0.001
-481.376	800.000	-0.075	0.284
-480.362	800.000	0.110	0.337
-479.347	155.766	0.074	-0.104
-478.332	-97.078	-0.067	0.018
-477.318	592.771	0.062	-0.154
-476.303	75.706	-0.203	-0.217
-475.289	-47.877	-0.260	-0.128
-474.274	-125.262	-0.275	-0.043
-473.259	308.648	-0.085	-0.160
-472.245	53.896	-0.123	-0.120
-471.230	-200.000	0.047	-0.473
-470.216	26.362	0.048	0.040
-469.201	643.392	-0.115	0.298
-468.186	204.126	0.234	-0.367
-467.172	552.691	0.031	0.076
-466.157	-51.867	0.090	-0.043
-465.143	-32.365	-0.393	-0.222
-464.128	-23.827	0.122	0.074
-463.113	-89.418	0.167	-0.050
-462.099	3.580	-0.052	-0.039
-461.084	-20.441	0.129	-0.080
-460.070	34.548	0.166	-0.147
-459.055	139.835	-0.135	0.180
-458.040	-200.000	-0.016	0.143
-457.026	800.000	-0.028	-0.121
-456.011	-59.984	0.331	-0.143
-454.997	-200.000	0.051	0.366
-453.982	-200.000	-0.022	-0.148
-452.968	-200.000	0.026	-0.420
-451.953	119.881	-0.049	-0.062
-450.938	-15.590	-0.238	0.154
-449.924	17.419	0.229	-0.184
-448.909	-140.911	-0.061	-0.006
-447.895	129.399	0.196	0.253
-446.880	-200.000	0.014	0.111
-445.865	-89.044	0.325	0.098
-444.851	54.075	0.081	0.078
-443.836	800.000	0.100	0.283
-442.822	118.119	0.117	0.146
-441.807	-153.023	0.218	0.016
-440.792	-200.000	-0.029	0.266
-439.778	-200.000	0.060	0.450
-438.763	-91.084	-0.157	-0.046
-437.749	-146.102	0.259	-0.023
-436.734	315.972	0.037	-0.070
-435.719	-125.771	0.234	-0.036
-434.705	800.000	0.064	-0.242
-433.690	180.866	-0.214	-0.318
-432.676	522.040	0.016	0.037
-431.661	1.560	-0.147	0.107
-430.646	-200.000	0.029	-0.239
-429.632	-86.423	-0.146	0.045
-428.617	56.452	0.057	0.056
-427.603	-196.214	-0.039	0.000
-426.588	-38.635	0.146	0.078
-425.573	800.000	0.089	-0.335
-424.559	800.000	0.038	-0.118
-423.544	-200.000	0.002	-0.161
-422.530	58.554	-0.054	0.054
-421.515	179.841	-0.067	-0.100
-420.500	-200.000	-0.014	0.177
-419.486	358.711	0.046	-0.092
-418.471	28.734	-0.251	-0.215
-417.457	800.000	0.058	0.174
-416.442	-39.352	0.218	-0.116
-415.428	-200.000	-0.006	-0.128
-414.413	-35.419	-0.238	0.131
-413.398	363.277	0.242	-0.493
-412.384	113.511	-0.091	-0.112
-411.369	-103.989	0.303	0.072
-410.355	-101.364	-0.101	-0.025
-409.340	-46.356	0.137	-0.068
-408.325	-48.019	0.093	0.045
-407.311	-200.000	0.045	0.217
-406.296	-8.828	-0.180	0.122
-405.282	45.868	-0.095	0.089
-404.267	105.866	0.127	0.152
-403.252	-117.452	-0.201	0.037
-402.238	-200.000	0.021	-0.109
-401.223	-200.000	-0.044	-0.243
-400.209	-79.949	0.115	-0.039
-399.194	200.406	-0.149	-0.232
-398.179	136.986	0.179	0.236
-397.165	758.777	0.065	-0.179
-396.150	310.197	-0.119	-0.226
-395.136	147.956	-0.153	-0.208
-394.121	-13.174	0.300	-0.197
-393.106	68.656	-0.175	-0.181
-392.092	-200.000	0.000	-0.168
-391.077	12.621	0.103	0.080
-390.063	-140.062	0.198	0.021
-389.048	-96.838	-0.156	0.041
-388.033	491.261	-0.066	-0.153
-387.019	-130.276	-0.307	0.042
-386.004	128.331	-0.147	0.189
-384.990	-200.000	0.033	-0.207
-383.975	-16.054	0.211	-0.136
-382.960	4.567	0.194	-0.144
-381.946	-102.295	0.320	0.078
-380.931	-140.366	0.308	-0.032
-379.917	-200.000	0.010	0.151
-378.902	-151.626	0.322	-0.024
-377.888	-162.048	-0.221	-0.011
-376.873	-137.782	0.266	-0.030
-375.858	-170.349	-0.166	-0.006
-374.844	-11.193	-0.257	-0.171
-373.829	-53.329	0.187	-0.087
-372.815	319.056	0.024	0.045
-371.800	-126.923	-0.311	0.046
-370.785	422.806	0.112	0.244
-369.771	-41.723	-0.282	-0.146
-368.756	-123.083	-0.352	0.057
-367.742	551.756	0.220	-0.535
-366.727	-95.337	0.025	0.007
-365.712	-45.628	-0.282	0.141
-364.698	800.000	0.028	-0.106
-363.683	37.261	-0.328	-0.293
-362.669	351.394	0.086	0.173
-361.654	60.784	-0.083	0.083
-360.639	800.000	-0.035	0.119
-359.625	218.986	0.053	0.086
-358.610	-90.736	-0.089	-0.026
-357.596	659.918	-0.052	-0.134
-356.581	231.439	0.175	0.290
-355.566	-23.836	-0.182	-0.110
-354.552	-175.470	-0.292	-0.008
-353.537	-200.000	0.016	0.277
-352.523	267.839	0.095	-0.168
-351.508	-167.162	-0.408	-0.017
-350.493	-200.000	-0.035	-0.174
-349.479	-27.473	-0.167	-0.098
-348.464	206.199	-0.057	0.089
-347.450	-200.000	-0.050	-0.449
-346.435	-200.000	0.010	-0.330
-345.420	110.361	0.167	0.202
-344.406	136.562	0.333	0.438
-343.391	158.172	0.073	-0.103
-342.377	119.576	-0.213	0.267
-341.362	-200.000	-0.034	0.159
-340.348	-200.000	0.004	0.066
-339.333	260.890	0.146	-0.254
-338.318	1.927	0.514	0.374
-337.304	-127.737	-0.075	-0.011
-336.289	-30.231	-0.025	-0.015
-335.275	-38.920	-0.154	0.082
-334.260	198.960	0.083	-0.128
-333.245	800.000	0.062	0.239
-332.231	-200.000	-0.068	0.537
-331.216	176.809	-0.198	-0.291
-330.202	-64.998	0.296	-0.120
-329.187	-88.451	0.068	0.020
-328.172	268.925	0.077	0.136
-327.158	-83.129	-0.315	0.102
-326.143	-73.437	0.143	-0.052
-325.129	800.000	-0.053	-0.175
-324.114	-176.357	-0.219	0.006
-323.099	578.972	-0.149	0.367
-322.085	55.108	-0.216	0.210
-321.070	-99.659	-0.211	0.053
-320.056	-200.000	-0.023	0.109
-319.041	-200.000	-0.024	0.165
-318.026	162.374	0.233	0.330
-317.012	-18.991	-0.200	0.126
-315.997	-19.146	-0.151	-0.095
-314.983	-140.473	-0.174	0.018
-313.968	-200.000	-0.001	-0.259
-312.953	491.104	-0.032	-0.073
-311.939	-200.000	-0.003	0.022
-310.924	-148.980	0.385	-0.031
-309.910	-200.000	-0.025	-0.136
-308.895	-200.000	-0.044	0.208
-307.880	-200.000	-0.008	-0.094
-306.866	9.549	0.126	-0.096
-305.851	488.083	0.110	0.254
-304.837	81.625	0.171	0.187
-303.822	-200.000	0.027	-0.237
-302.807	108.470	0.177	0.213
-301.793	-100.507	-0.186	0.046
-300.778	800.000	0.107	0.387
-299.764	-200.000	-0.063	0.313
-298.749	269.463	-0.061	0.108
-297.735	-200.000	-0.242	-0.001
-296.720	-200.000	0.034	0.413
-295.705	-12.628	0.030	0.020
-294.691	-148.459	-0.273	-0.022
-293.676	126.561	-0.210	-0.268
-292.662	-32.371	-0.202	-0.113
-291.647	-42.006	-0.496	0.256
-290.632	-200.000	-0.023	0.304
-289.618	57.532	0.293	0.288
-288.603	-113.246	-0.193	-0.038
-287.589	-42.194	0.263	0.135
-286.574	29.227	0.087	0.074
-285.559	33.990	0.058	0.051
-284.545	-32.095	-0.394	-0.222
-283.530	-101.993	0.193	-0.047
-282.516	30.104	0.183	-0.157
-281.501	304.708	-0.121	0.225
-280.486	466.789	0.114	0.256
-279.472	-153.094	-0.069	0.005
-278.457	-91.158	0.111	-0.032
-277.443	-2.732	0.454	0.320
-276.428	-93.056	0.165	0.046
-275.413	612.819	-0.085	0.214
-274.399	310.443	-0.054	0.101
-273.384	-200.000	-0.018	0.306
-272.370	57.314	-0.061	0.060
-271.355	322.693	0.024	-0.045
-270.340	174.342	-0.126	0.183
-269.326	-137.820	-0.382	-0.043
-268.311	-200.000	0.002	0.075
-267.297	118.370	-0.066	-0.082
-266.282	-200.000	0.001	0.101
-265.267	-200.000	0.063	0.281
-264.253	123.609	-0.090	0.113
-263.238	-19.858	-0.087	-0.054
-262.224	54.445	0.096	0.093
-261.209	-98.838	-0.155	0.040
-260.195	-79.045	0.183	0.063
-259.180	40.983	-0.121	-0.110
-258.165	-76.525	0.104	-0.037
-257.151	-59.306	-0.010	0.004
-256.136	-159.903	-0.384	-0.021
-255.122	-35.194	-0.180	0.099
-254.107	97.575	0.149	0.172
-253.092	800.000	-0.082	0.272
-252.078	237.899	-0.217	0.362
-251.063	252.655	-0.058	0.099
-250.049	-114.733	0.281	0.054
-249.034	-61.764	0.263	-0.111
-248.019	800.000	-0.028	-0.112
-247.005	800.000	-0.062	-0.247
-245.990	39.375	0.137	0.123
-244.976	28.976	0.080	0.068
-243.961	55.969	0.167	0.163
-242.946	-200.000	-0.012	-0.068
-241.932	-56.867	-0.072	0.032
-240.917	26.128	0.047	-0.039
-239.903	-64.243	-0.230	0.094
-238.888	-63.743	-0.059	-0.024
-237.873	-107.533	0.300	-0.066
-236.859	220.452	0.084	0.135
-235.844	-16.227	-0.188	0.120
-234.830	800.000	0.027	0.116
-233.815	-135.534	0.211	0.025
-232.800	115.132	-0.044	0.054
-231.786	440.986	0.032	-0.071
-230.771	525.996	-0.201	-0.475
-229.757	-200.000	-0.021	-0.109
-228.742	-86.763	-0.181	0.056
-227.727	217.344	-0.074	-0.119
-226.713	3.550	-0.065	-0.048
-225.698	-200.000	0.015	0.077
-224.684	-200.000	0.027	-0.480
-223.669	-200.000	-0.012	0.281
-222.655	656.873	0.056	0.144
-221.640	563.778	-0.022	0.053
-220.625	-18.707	-0.280	0.175
-219.611	430.171	0.076	0.165
-218.596	-60.377	-0.218	-0.093
-217.582	-200.000	0.010	-0.109
-216.567	192.959	0.087	-0.132
-215.552	-119.476	0.032	0.006
-214.538	-107.677	0.049	-0.011
-213.523	277.315	-0.125	-0.223
-212.509	800.000	-0.079	0.249
-211.494	-61.467	0.193	0.082
-210.479	-174.804	-0.200	-0.006
-209.465	158.379	-0.083	-0.116
-208.450	342.877	-0.061	-0.121
-207.436	17.242	0.129	-0.103
-206.421	800.000	0.112	0.342
-205.406	-86.772	-0.027	-0.008
-204.392	46.001	-0.242	-0.225
-203.377	-130.459	0.114	0.015
-202.363	-200.000	-0.023	0.263
-201.348	-35.673	0.178	-0.097
-200.333	20.470	0.348	-0.283
-199.319	-78.678	-0.144	0.049
-198.304	36.733	0.048	0.043
-197.290	800.000	0.053	-0.159
-196.275	-200.000	0.009	-0.466
-195.260	800.000	-0.060	-0.253
-194.246	324.174	0.055	0.106
-193.231	800.000	0.032	0.091
-192.217	32.332	-0.208	0.181
-191.202	-9.758	-0.098	0.066
-190.187	-200.000	-0.057	-0.264
-189.173	395.242	0.132	0.276
-188.158	800.000	0.101	-0.368
-187.144	99.990	0.081	0.094
-186.129	-0.634	0.345	-0.246
-185.114	-30.985	0.372	-0.211
-184.100	-200.000	0.015	-0.221
-183.085	395.952	0.086	-0.181
-182.071	-101.000	0.362	-0.089
-181.056	604.555	-0.126	0.315
-180.042	-104.174	0.084	0.020
-179.027	290.597	-0.042	0.076
-178.012	50.532	-0.202	0.191
-176.998	-200.000	0.075	0.349
-175.983	-200.000	-0.020	0.153
-174.969	42.277	0.208	0.189
-173.954	151.052	0.116	-0.158
-172.939	-144.304	-0.255	0.024
-171.925	322.709	0.052	0.099
-170.910	-200.000	-0.014	0.112
-169.896	160.462	0.032	0.044
-168.881	-200.000	0.063	-0.405
-167.866	-57.666	-0.222	-0.098
-166.852	-30.792	-0.147	-0.084
-165.837	-200.000	0.042	0.216
-164.823	-70.148	0.122	-0.046
-163.808	281.531	-0.141	-0.253
-162.793	-79.430	-0.065	0.022
-161.779	101.731	0.130	-0.152
-160.764	39.128	0.215	0.193
-159.750	57.669	0.228	-0.223
-158.735	662.609	0.042	0.109
-157.720	96.964	0.100	-0.115
-156.706	-141.134	0.323	-0.033
-155.691	-38.605	0.119	-0.063
-154.677	169.489	-0.073	0.104
-153.662	-143.101	-0.244	0.024
-152.647	-200.000	0.052	-0.232
-151.633	-200.000	0.017	0.487
-150.618	-200.000	0.035	0.244
-149.604	-200.000	0.066	-0.384
-148.589	-200.000	-0.063	-0.281
-147.574	-69.932	-0.275	0.105
-146.560	-200.000	0.017	0.176
-145.545	800.000	-0.008	-0.023
-144.531	50.858	0.022	-0.021
-143.516	-200.000	-0.020	-0.266
-142.502	7.346	-0.326	0.244
-141.487	-95.207	0.285	-0.077
-140.472	-55.129	0.357	0.161
-139.458	269.245	-0.044	0.078
-138.443	770.450	-0.063	0.171
-137.429	74.645	-0.122	0.128
-136.414	-70.008	0.235	0.090
-135.399	-134.283	-0.236	0.029
-134.385	-76.017	-0.290	0.103
-133.370	-200.000	0.055	-0.412
-132.356	800.000	-0.067	-0.237
-131.341	-66.365	-0.375	-0.149
-130.326	154.937	-0.052	-0.071
-129.312	259.595	0.068	-0.117
-128.297	-8.399	-0.118	0.079
-127.283	84.033	-0.063	0.069
-126.268	54.357	-0.158	-0.152
-125.253	-200.000	0.008	0.191
-124.239	247.278	-0.143	0.241
-123.224	-187.775	0.138	-0.002
-122.210	-74.168	0.099	-0.036
