DTS Sentinel unit serial number:	SN413079Multiplexer serial number:	ORYXHardware model number:	OX4-SRSoftware version number:	ORYX F/W v4.00 Oryx Data Collector v3.7.2.0data status	okinstallation	princeton_trtdifferential loss correction	single-endedforward channel	channel 4reverse channel	N/Adate	2019/09/11time	19:15:10forward acquisition time	60.00reverse acquisition time	0.00gamma	496.2192k internal	0.2290k external	0.2290temperature offset calibration	1.0040default loss term (dB/km)	0.3790temperature slope calibration	1.0000multiplexer offset coefficient	1.0000multiplexer slope coefficient	1.0000fibre end	0.00T internal ref (°C)	41.36T ext. ref 1 (°C)	1.29T ext. ref 2 (°C)	33.56length (m)	temperature (°C)	Stokes	anti-Stokes-747.200	800.000	0.036	-0.113
-746.185	229.704	0.124	0.208
-745.171	-200.000	-0.006	-0.101
-744.156	800.000	-0.104	0.386
-743.142	54.965	0.109	-0.108
-742.127	24.558	-0.223	0.189
-741.112	-200.000	-0.036	0.250
-740.098	70.151	0.044	0.047
-739.083	-200.000	-0.063	0.287
-738.069	22.951	0.237	-0.199
-737.054	235.928	0.027	-0.045
-736.039	8.013	-0.175	-0.134
-735.025	111.841	0.075	-0.092
-734.010	372.754	-0.066	-0.136
-732.996	800.000	0.037	0.165
-731.981	277.732	0.115	0.209
-730.966	-123.272	-0.203	-0.033
-729.952	-132.865	0.145	-0.019
-728.937	224.577	-0.130	0.215
-727.923	-103.791	0.086	0.021
-726.908	90.907	0.123	-0.142
-725.894	203.451	-0.054	0.085
-724.879	547.251	0.064	0.156
-723.864	-30.960	-0.165	-0.095
-722.850	30.374	0.050	0.044
-721.835	-85.514	-0.283	0.090
-720.821	-103.779	-0.334	0.080
-719.806	800.000	0.101	0.286
-718.791	-154.947	0.175	-0.012
-717.777	-141.353	-0.069	0.007
-716.762	-157.664	-0.212	0.013
-715.748	13.055	-0.158	-0.125
-714.733	161.945	0.128	0.183
-713.718	-48.993	-0.280	0.137
-712.704	-106.351	-0.136	-0.031
-711.689	-200.000	0.039	-0.307
-710.675	-92.859	0.109	0.031
-709.660	-6.586	-0.058	-0.041
-708.645	-19.786	-0.314	-0.199
-707.631	33.327	0.080	0.071
-706.616	170.692	0.037	-0.054
-705.602	-73.573	-0.317	-0.118
-704.587	-200.000	0.008	0.234
-703.572	39.119	0.129	-0.118
-702.558	493.477	0.071	-0.166
-701.543	-64.548	0.240	0.100
-700.529	61.909	0.179	-0.183
-699.514	181.241	0.214	-0.323
-698.499	-190.640	-0.072	0.001
-697.485	800.000	0.044	-0.142
-696.470	-200.000	0.056	-0.473
-695.456	270.715	-0.205	-0.369
-694.441	-200.000	-0.012	0.060
-693.426	-200.000	-0.007	-0.172
-692.412	-200.000	0.082	-0.378
-691.397	-170.348	0.137	0.005
-690.383	-47.510	0.067	0.033
-689.368	800.000	-0.056	-0.193
-688.354	58.187	-0.148	0.149
-687.339	-41.653	0.337	0.177
-686.324	85.684	-0.101	0.113
-685.310	-128.754	0.212	-0.031
-684.295	-138.211	-0.256	0.029
-683.281	-35.369	-0.087	-0.049
-682.266	-148.043	0.093	0.008
-681.251	309.245	0.142	0.271
-680.237	117.756	-0.087	-0.109
-679.222	58.905	-0.215	-0.216
-678.208	-200.000	0.029	0.173
-677.193	624.316	-0.137	0.352
-676.178	-122.440	0.285	-0.047
-675.164	39.197	0.215	-0.196
-674.149	800.000	0.037	0.151
-673.135	202.698	-0.041	-0.064
-672.120	800.000	0.067	0.257
-671.105	440.789	0.252	-0.563
-670.091	-200.000	0.037	0.253
-669.076	57.443	0.083	-0.082
-668.062	43.857	0.164	0.153
-667.047	148.416	0.068	-0.094
-666.032	-81.979	-0.154	-0.051
-665.018	123.275	-0.099	0.127
-664.003	-39.256	0.221	0.118
-662.989	-200.000	-0.025	0.237
-661.974	-91.615	-0.167	0.049
-660.959	183.858	0.113	-0.171
-659.945	52.223	0.061	-0.059
-658.930	-40.978	0.129	0.068
-657.916	-104.262	0.112	0.026
-656.901	-62.395	-0.134	-0.057
-655.886	724.181	-0.124	-0.338
-654.872	-86.416	0.145	-0.046
-653.857	134.495	-0.129	-0.171
-652.843	-200.000	0.046	-0.238
-651.828	-57.760	0.062	0.028
-650.814	-200.000	0.007	0.176
-649.799	-200.000	-0.032	-0.260
-648.784	-200.000	0.036	-0.229
-647.770	800.000	-0.043	0.175
-646.755	439.485	-0.084	0.187
-645.741	-23.426	-0.329	0.202
-644.726	800.000	-0.154	0.462
-643.711	347.670	0.129	0.260
-642.697	-59.046	-0.197	0.087
-641.682	104.999	-0.109	-0.131
-640.668	16.337	0.172	-0.138
-639.653	-19.295	0.144	0.091
-638.638	0.168	-0.099	-0.072
-637.624	182.044	-0.032	0.048
-636.609	-166.451	-0.146	0.006
-635.595	600.673	-0.098	0.250
-634.580	-44.252	-0.158	0.081
-633.565	-101.252	-0.276	-0.069
-632.551	392.634	0.037	0.078
-631.536	800.000	-0.057	0.220
-630.522	-101.149	-0.473	-0.118
-629.507	110.500	0.150	-0.183
-628.492	800.000	0.079	-0.250
-627.478	-89.286	-0.238	0.072
-626.463	-105.286	-0.133	0.031
-625.449	-18.338	-0.148	0.095
-624.434	-36.824	-0.177	-0.097
-623.419	104.825	0.212	-0.255
-622.405	-200.000	0.022	0.235
-621.390	404.493	-0.064	-0.137
-620.376	567.096	-0.184	-0.456
-619.361	-52.962	0.343	0.161
-618.346	-163.203	-0.252	0.012
-617.332	-35.951	0.382	-0.211
-616.317	99.364	0.170	-0.201
-615.303	-11.860	0.422	0.282
-614.288	180.064	-0.094	-0.141
-613.273	-124.827	-0.411	-0.065
-612.259	800.000	-0.081	-0.279
-611.244	-88.307	-0.212	0.065
-610.230	-70.001	0.191	0.074
-609.215	-37.831	-0.141	0.077
-608.201	800.000	-0.044	0.142
-607.186	115.238	-0.252	0.314
-606.171	800.000	-0.081	0.281
-605.157	533.659	-0.086	-0.207
-604.142	800.000	0.106	-0.325
-603.128	559.509	-0.014	0.035
-602.113	-163.329	-0.310	-0.015
-601.098	-155.164	0.117	-0.008
-600.084	-126.241	0.111	-0.017
-599.069	10.661	-0.065	0.050
-598.055	39.589	-0.060	-0.055
-597.040	312.239	-0.056	-0.107
-596.025	-33.471	-0.121	-0.068
-595.011	54.562	-0.083	0.081
-593.996	-200.000	0.017	0.235
-592.982	224.366	0.136	0.223
-591.967	-134.802	0.368	-0.045
-590.952	24.522	0.100	0.084
-589.938	-125.929	-0.128	-0.020
-588.923	-184.262	-0.171	0.003
-587.909	483.035	-0.046	-0.106
-586.894	-90.008	-0.182	-0.054
-585.879	56.494	0.179	0.178
-584.865	650.950	0.096	0.250
-583.850	-112.669	0.253	0.051
-582.836	-27.837	0.258	-0.152
-581.821	800.000	-0.020	0.082
-580.806	-114.942	0.289	0.056
-579.792	115.851	-0.192	0.239
-578.777	217.487	-0.037	0.060
-577.763	528.844	-0.090	-0.215
-576.748	800.000	0.017	-0.072
-575.733	800.000	-0.019	-0.055
-574.719	308.071	-0.175	-0.332
-573.704	-27.465	-0.267	-0.158
-572.690	286.865	-0.127	0.234
-571.675	172.790	-0.052	0.077
-570.661	320.064	-0.014	-0.026
-569.646	-200.000	0.001	0.064
-568.631	13.160	0.215	0.169
-567.617	49.916	0.196	-0.188
-566.602	-200.000	-0.045	0.284
-565.588	4.890	-0.231	0.173
-564.573	581.378	-0.025	-0.062
-563.558	-28.114	0.110	-0.064
-562.544	-88.009	-0.154	-0.047
-561.529	800.000	-0.087	0.273
-560.515	-9.618	0.355	-0.241
-559.500	72.310	-0.084	-0.089
-558.485	154.758	0.078	-0.108
-557.471	76.579	0.196	-0.211
-556.456	121.997	-0.052	-0.067
-555.442	-200.000	0.229	0.000
-554.427	99.492	0.232	0.273
-553.412	-88.548	0.208	0.063
-552.398	-32.894	-0.131	0.074
-551.383	312.650	0.163	-0.312
-550.369	53.866	-0.146	-0.143
-549.354	-56.695	0.099	0.044
-548.339	-200.000	-0.054	-0.246
-547.325	800.000	-0.021	0.067
-546.310	-79.368	0.259	-0.089
-545.296	800.000	-0.008	-0.030
-544.281	800.000	0.145	0.467
-543.266	-200.000	-0.018	-0.107
-542.252	192.443	0.036	-0.056
-541.237	42.096	-0.101	0.093
-540.223	0.665	-0.198	-0.144
-539.208	-200.000	0.050	0.289
-538.193	5.599	-0.193	-0.145
-537.179	66.887	-0.142	0.146
-536.164	60.273	-0.175	-0.176
-535.150	-41.217	0.296	0.155
-534.135	191.603	-0.077	-0.118
-533.121	-106.784	-0.081	-0.018
-532.106	1.294	0.115	0.084
-531.091	122.853	0.090	0.115
-530.077	496.125	-0.154	-0.360
-529.062	-53.349	0.120	-0.056
-528.048	-66.976	-0.288	-0.115
-527.033	-105.309	0.252	0.058
-526.018	-115.102	-0.244	-0.047
-525.004	2.035	0.277	0.203
-523.989	523.613	0.113	0.271
-522.975	-24.738	0.243	-0.146
-521.960	-25.317	0.376	-0.226
-520.945	800.000	0.021	-0.088
-519.931	44.268	-0.106	-0.099
-518.916	-200.000	0.045	0.240
-517.902	168.269	0.134	0.194
-516.887	405.404	-0.053	0.113
-515.872	800.000	0.050	-0.190
-514.858	-200.000	0.015	0.310
-513.843	4.838	-0.070	-0.052
-512.829	149.481	-0.160	0.220
-511.814	-83.900	0.198	-0.064
-510.799	-59.215	0.124	-0.054
-509.785	-110.177	-0.305	-0.065
-508.770	660.922	-0.084	0.219
-507.756	-200.000	0.014	0.108
-506.741	-1.884	-0.207	-0.148
-505.726	800.000	-0.063	-0.202
-504.712	66.658	0.247	0.255
-503.697	-200.000	-0.016	0.113
-502.683	30.179	0.092	-0.080
-501.668	-54.267	0.132	0.061
-500.653	88.546	0.094	-0.106
-499.639	6.794	0.046	0.034
-498.624	166.780	-0.056	-0.081
-497.610	800.000	-0.066	-0.261
-496.595	260.870	0.079	-0.139
-495.581	-48.394	-0.291	-0.142
-494.566	87.425	-0.212	0.238
-493.551	351.578	0.094	-0.190
-492.537	41.347	0.389	-0.357
-491.522	-200.000	0.001	-0.243
-490.508	328.396	0.120	0.233
-489.493	-148.295	0.416	0.035
-488.478	56.777	0.232	-0.229
-487.464	-36.381	0.130	-0.071
-486.449	-200.000	-0.014	-0.168
-485.435	-45.010	0.232	0.117
-484.420	-113.316	-0.078	0.016
-483.405	-56.793	-0.239	-0.107
-482.391	-90.273	-0.016	-0.005
-481.376	140.508	-0.083	-0.111
-480.362	-172.632	-0.041	-0.001
-479.347	-102.022	0.107	-0.026
-478.332	245.905	0.160	0.273
-477.318	101.653	0.085	0.101
-476.303	123.522	-0.092	-0.117
-475.289	-52.966	0.108	0.050
-474.274	-21.322	0.193	0.120
-473.259	85.313	0.260	0.290
-472.245	-50.731	0.141	0.067
-471.230	-19.299	0.213	-0.134
-470.216	404.147	-0.079	0.168
-469.201	11.443	-0.203	0.157
-468.186	-25.177	0.324	-0.194
-467.172	-200.000	0.025	0.131
-466.157	-43.609	-0.281	0.144
-465.143	83.190	-0.126	0.139
-464.128	9.807	-0.299	0.229
-463.113	-119.457	0.310	0.054
-462.099	68.647	0.096	-0.100
-461.084	-102.000	-0.115	0.028
-460.070	164.763	-0.147	0.210
-459.055	-33.059	0.086	-0.048
-458.040	-143.200	-0.088	-0.009
-457.026	-161.268	-0.205	-0.011
-456.011	-200.000	0.013	-0.071
-454.997	-129.987	0.375	0.052
-453.982	148.592	0.052	-0.071
-452.968	163.279	0.229	-0.325
-451.953	17.201	-0.019	0.016
-450.938	-127.574	-0.231	-0.034
-449.924	83.096	-0.174	-0.192
-448.909	334.562	-0.089	-0.174
-447.895	800.000	0.055	-0.225
-446.880	-112.760	-0.213	0.043
-445.865	451.143	-0.086	0.193
-444.851	-96.371	-0.089	-0.024
-443.836	141.887	0.146	-0.196
-442.822	-200.000	-0.026	-0.137
-441.807	3.171	-0.312	-0.230
-440.792	-200.000	-0.002	0.081
-439.778	-126.307	0.264	0.040
-438.763	-38.496	-0.094	-0.050
-437.749	149.314	-0.131	0.179
-436.734	10.701	0.135	0.104
-435.719	52.540	0.048	0.047
-434.705	-200.000	0.009	0.140
-433.690	-100.911	0.225	-0.056
-432.676	20.321	0.029	0.024
-431.661	199.105	-0.193	0.299
-430.646	106.239	-0.123	-0.148
-429.632	-16.798	0.168	0.107
-428.617	-136.295	-0.120	-0.014
-427.603	41.727	-0.191	0.175
-426.588	800.000	-0.052	-0.162
-425.573	243.452	0.124	-0.210
-424.559	-200.000	0.083	-0.000
-423.544	107.003	0.161	0.193
-422.530	36.855	-0.178	-0.159
-421.515	77.609	0.119	-0.128
-420.500	-43.799	-0.073	0.037
-419.486	800.000	-0.059	-0.256
-418.471	-110.896	-0.116	-0.024
-417.457	31.041	0.199	0.172
-416.442	251.981	-0.110	0.189
-415.428	-200.000	0.080	-0.540
-414.413	-90.400	-0.147	-0.043
-413.398	-166.158	0.138	-0.006
-412.384	-70.938	-0.123	-0.047
-411.369	218.488	-0.031	-0.050
-410.355	-166.575	0.207	-0.009
-409.340	-65.620	0.154	0.063
-408.325	429.630	-0.044	-0.097
-407.311	250.922	-0.054	-0.092
-406.296	-120.675	-0.214	-0.037
-405.282	407.840	0.120	-0.257
-404.267	-12.191	-0.250	-0.165
-403.252	-67.640	-0.074	-0.029
-402.238	-77.324	0.190	-0.067
-401.223	-137.762	-0.334	-0.038
-400.209	-1.286	-0.028	-0.020
-399.194	-200.000	-0.026	-0.167
-398.179	8.566	-0.414	-0.315
-397.165	-24.705	0.055	-0.033
-396.150	-200.000	0.004	0.088
-395.136	-80.664	0.381	-0.128
-394.121	-200.000	-0.034	0.193
-393.106	-200.000	0.033	-0.278
-392.092	800.000	0.120	-0.355
-391.077	42.852	0.109	-0.100
-390.063	6.192	-0.334	0.250
-389.048	-96.917	0.458	0.121
-388.033	166.725	-0.133	0.191
-387.019	277.114	-0.151	0.272
-386.004	0.787	0.090	0.065
-384.990	28.532	-0.088	-0.075
-383.975	-0.331	-0.054	-0.039
-382.960	-200.000	-0.084	-0.415
-381.946	-200.000	0.026	-0.200
-380.931	646.147	-0.061	-0.158
-379.917	-200.000	-0.017	-0.243
-378.902	115.463	0.165	-0.204
-377.888	74.913	0.270	0.287
-376.873	653.671	0.088	-0.227
-375.858	30.970	0.249	-0.215
-374.844	2.752	-0.266	0.195
-373.829	-10.126	-0.147	0.099
-372.815	-140.947	0.096	0.010
-371.800	-22.081	0.296	0.181
-370.785	800.000	-0.098	0.315
-369.771	-33.347	0.174	-0.097
-368.756	-127.747	-0.238	-0.035
-367.742	800.000	-0.097	-0.307
-366.727	-24.325	-0.217	0.130
-365.712	25.469	0.220	-0.184
-364.698	217.606	-0.129	-0.207
-363.683	439.969	0.097	0.214
-362.669	-100.280	0.218	0.055
-361.654	50.555	0.234	0.223
-360.639	-100.770	0.112	0.028
-359.625	-200.000	-0.033	0.436
-358.610	-21.599	-0.158	0.097
-357.596	-200.000	-0.012	-0.099
-356.581	800.000	0.054	-0.168
-355.566	-200.000	-0.003	0.660
-354.552	-144.835	0.170	-0.016
-353.537	267.051	-0.159	-0.280
-352.523	716.839	0.069	-0.184
-351.508	-200.000	0.029	0.152
-350.493	-102.891	-0.145	0.035
-349.479	-44.197	-0.305	-0.155
-348.464	65.581	-0.099	0.101
-347.450	-5.735	0.259	0.179
-346.435	211.637	-0.118	-0.187
-345.420	-200.000	0.054	-0.329
-344.406	151.821	0.186	-0.255
-343.391	-74.292	-0.226	-0.083
-342.377	-89.826	-0.253	-0.075
-341.362	-48.256	-0.066	-0.032
-340.348	-7.559	-0.299	-0.204
-339.333	12.793	0.102	-0.079
-338.318	-68.852	-0.204	-0.079
-337.304	142.241	0.159	-0.213
-336.289	20.432	0.209	-0.170
-335.275	-5.958	-0.337	-0.233
-334.260	18.210	-0.159	0.128
-333.245	-183.213	0.190	-0.003
-332.231	-122.086	-0.429	0.071
-331.216	187.726	0.148	0.223
-330.202	277.686	-0.064	-0.115
-329.187	143.610	-0.215	-0.289
-328.172	230.657	0.057	0.093
-327.158	-103.961	-0.236	-0.056
-326.143	-95.514	0.335	0.091
-325.129	-200.000	-0.081	0.480
-324.114	-25.103	0.224	-0.134
-323.099	430.745	-0.030	0.066
-322.085	-200.000	0.001	-0.099
-321.070	800.000	-0.076	0.213
-320.056	800.000	-0.097	-0.294
-319.041	-132.332	-0.054	0.007
-318.026	-200.000	0.019	-0.156
-317.012	30.372	0.190	-0.164
-315.997	249.229	0.014	0.023
-314.983	-123.158	-0.364	0.059
-313.968	-114.501	0.108	0.021
-312.953	-187.234	-0.246	-0.003
-311.939	60.724	-0.268	0.268
-310.924	-48.659	0.287	-0.139
-309.910	-25.574	0.187	-0.111
-308.895	-167.794	0.103	-0.004
-307.880	-178.226	0.245	0.006
-306.866	-67.870	0.188	0.074
-305.851	253.564	-0.143	-0.246
-304.837	220.773	0.109	-0.177
-303.822	105.518	-0.088	-0.105
-302.807	274.580	0.093	-0.165
-301.793	-200.000	0.014	0.191
-300.778	-45.813	-0.059	-0.029
-299.764	-115.166	-0.180	0.034
-298.749	800.000	0.077	0.261
-297.735	-82.708	-0.187	-0.061
-296.720	238.788	-0.064	-0.107
-295.705	-200.000	-0.001	0.087
-294.691	-200.000	-0.001	-0.018
-293.676	86.032	-0.158	0.175
-292.662	66.897	0.123	0.126
-291.647	-200.000	0.006	0.071
-290.632	-29.338	0.134	0.077
-289.618	-146.173	-0.127	-0.011
-288.603	126.612	-0.123	0.156
-287.589	59.728	-0.080	0.080
-286.574	-200.000	-0.004	0.054
-285.559	-156.169	-0.458	-0.029
-284.545	-117.227	0.291	0.053
-283.530	-7.254	0.155	0.106
-282.516	58.887	0.263	0.260
-281.501	351.763	-0.074	0.148
-280.486	800.000	-0.113	0.400
-279.472	199.953	-0.025	-0.038
-278.457	-69.329	0.254	0.098
-277.443	-97.160	-0.196	0.051
-276.428	-102.594	0.206	0.050
-275.413	-200.000	0.005	0.221
-274.399	424.220	0.168	-0.364
-273.384	73.419	0.272	-0.286
-272.370	35.639	-0.111	0.098
-271.355	87.719	-0.125	-0.139
-270.340	63.446	0.169	-0.170
-269.326	-166.885	0.311	-0.013
-268.311	183.781	-0.100	-0.149
-267.297	173.960	-0.055	-0.079
-266.282	-51.381	0.064	0.030
-265.267	-19.709	-0.237	0.148
-264.253	-121.775	-0.197	0.033
-263.238	-92.376	-0.155	0.044
-262.224	-200.000	-0.000	0.103
-261.209	5.178	-0.122	-0.091
-260.195	-200.000	-0.009	0.195
-259.180	-40.627	0.234	0.122
-258.165	-56.514	-0.333	0.149
-257.151	800.000	0.051	-0.146
-256.136	382.281	0.170	0.351
-255.122	-200.000	0.008	-0.156
-254.107	800.000	-0.065	0.194
-253.092	107.917	-0.067	-0.080
-252.078	11.787	-0.266	0.205
-251.063	223.664	0.083	0.135
-250.049	-89.674	-0.173	0.051
-249.034	257.778	-0.258	0.445
-248.019	-109.509	0.124	0.026
-247.005	45.809	0.170	-0.158
-245.990	338.428	-0.049	0.096
-244.976	-170.269	-0.242	-0.009
-243.961	-63.536	0.180	0.074
-242.946	15.016	0.145	0.114
-241.932	-132.662	0.184	-0.024
-240.917	-135.761	0.297	0.035
-239.903	164.921	-0.088	0.125
-238.888	459.314	-0.023	-0.052
-237.873	800.000	0.074	-0.251
-236.859	-49.459	0.149	0.071
-235.844	-99.396	-0.288	0.073
-234.830	-55.262	-0.249	0.112
-233.815	-168.628	0.063	0.002
-232.800	800.000	0.081	0.276
-231.786	-200.000	0.016	0.132
-230.771	-91.799	-0.135	0.038
-229.757	-13.389	0.364	0.237
-228.742	-200.000	0.029	-0.198
-227.727	154.406	0.043	-0.059
-226.713	414.889	-0.115	0.245
-225.698	377.704	-0.116	-0.237
-224.684	-32.982	-0.141	0.078
-223.669	7.091	0.182	0.136
-222.655	-83.582	0.246	0.079
-221.640	75.251	-0.064	-0.068
-220.625	287.575	-0.066	0.119
-219.611	571.249	0.049	-0.120
-218.596	-134.821	0.330	-0.040
-217.582	-101.492	0.146	-0.036
-216.567	19.885	-0.169	0.136
-215.552	142.547	0.104	0.138
-214.538	800.000	0.091	0.274
-213.523	381.264	0.096	-0.197
-212.509	-172.840	0.399	0.012
-211.494	-125.272	0.079	-0.012
-210.479	-106.291	0.310	-0.070
-209.465	-134.592	0.277	-0.034
-208.450	55.693	-0.059	-0.057
-207.436	310.457	0.064	-0.120
-206.421	-78.798	0.148	-0.051
-205.406	-200.000	-0.002	0.157
-204.392	-39.101	-0.285	-0.150
-203.377	410.996	-0.090	-0.192
-202.363	-27.543	0.359	-0.209
-201.348	33.810	0.156	-0.136
-200.333	800.000	0.040	-0.166
-199.319	-56.827	0.089	0.039
-198.304	-25.418	-0.216	0.128
-197.290	-97.879	-0.301	-0.078
-196.275	-105.167	0.177	0.041
-195.260	-200.000	-0.069	0.403
-194.246	800.000	0.137	0.542
-193.231	800.000	-0.067	-0.234
-192.217	-97.736	0.245	-0.064
-191.202	313.866	0.093	-0.176
-190.187	800.000	-0.086	-0.240
-189.173	-164.895	-0.041	0.002
-188.158	650.798	0.110	0.283
-187.144	-65.399	-0.229	0.092
-186.129	-17.668	-0.145	0.091
-185.114	-77.059	-0.086	0.030
-184.100	225.536	-0.117	0.190
-183.085	11.634	0.279	0.215
-182.071	145.489	-0.176	-0.236
-181.056	264.397	0.092	0.160
-180.042	19.666	0.063	0.051
-179.027	74.796	-0.083	0.088
-178.012	162.316	-0.141	0.199
-176.998	-200.000	0.053	-0.329
-175.983	800.000	-0.082	-0.301
-174.969	-177.360	-0.076	-0.002
-173.954	-66.484	0.084	0.033
-172.939	-107.380	0.135	0.030
-171.925	26.085	-0.082	-0.069
-170.910	54.313	0.062	-0.060
-169.896	-200.000	0.032	-0.393
-168.881	-119.504	-0.178	-0.031
-167.866	-74.724	-0.181	-0.065
-166.852	800.000	0.057	0.219
-165.837	-200.000	0.001	0.323
-164.823	-150.305	0.109	-0.008
-163.808	73.804	0.047	-0.049
-162.793	-159.882	-0.354	0.019
-161.779	800.000	0.028	0.099
-160.764	460.191	0.100	-0.223
-159.750	-200.000	-0.049	0.276
-158.735	800.000	-0.070	-0.293
-157.720	146.343	0.110	-0.147
-156.706	-66.598	-0.173	0.069
-155.691	-71.340	-0.210	-0.079
-154.677	800.000	-0.075	-0.316
-153.662	-200.000	0.005	0.172
-152.647	303.463	-0.106	-0.196
-151.633	-200.000	0.081	0.405
-150.618	69.601	0.163	-0.168
-149.604	370.687	0.102	0.206
-148.589	16.890	0.201	-0.160
-147.574	-149.226	-0.315	-0.025
-146.560	-200.000	-0.019	0.256
-145.545	-35.858	0.066	0.036
-144.531	137.809	-0.110	-0.144
-143.516	-74.636	-0.214	-0.077
-142.502	76.701	-0.067	0.071
-141.487	-125.291	0.224	0.034
-140.472	111.355	0.230	-0.278
-139.458	800.000	-0.018	0.074
-138.443	-200.000	0.015	0.121
-137.429	-200.000	0.004	0.024
-136.414	314.577	-0.184	0.347
-135.399	800.000	0.041	-0.113
-134.385	-91.360	-0.311	-0.089
-133.370	57.060	-0.367	-0.358
-132.356	298.232	0.212	0.389
-131.341	-180.183	0.083	-0.002
-130.326	212.873	0.092	-0.145
-129.312	376.735	0.164	-0.335
-128.297	-200.000	-0.002	-0.079
-127.283	22.737	0.257	0.211
-126.268	82.064	0.080	-0.087
-125.253	86.182	0.106	-0.117
-124.239	387.245	0.148	-0.306
-123.224	72.493	0.190	-0.199
-122.210	-200.000	0.000	-0.127
-121.195	178.965	0.104	-0.152
-120.180	-47.759	0.168	0.082
