DTS Sentinel unit serial number:	SN413079Multiplexer serial number:	ORYXHardware model number:	OX4-SRSoftware version number:	ORYX F/W v4.00 Oryx Data Collector v3.7.2.0data status	okinstallation	princeton_trtdifferential loss correction	single-endedforward channel	channel 4reverse channel	N/Adate	2019/09/11time	00:11:11forward acquisition time	60.00reverse acquisition time	0.00gamma	496.2192k internal	0.2318k external	0.2318temperature offset calibration	0.9949default loss term (dB/km)	0.3790temperature slope calibration	1.0000multiplexer offset coefficient	1.0000multiplexer slope coefficient	1.0000fibre end	0.00T internal ref (°C)	29.37T ext. ref 1 (°C)	-0.29T ext. ref 2 (°C)	22.90length (m)	temperature (°C)	Stokes	anti-Stokes-747.200	-103.007	0.226	-0.054
-746.185	-132.311	-0.163	0.021
-745.171	81.931	-0.103	-0.113
-744.156	-153.290	0.335	0.024
-743.142	433.664	-0.056	-0.122
-742.127	528.874	0.093	-0.222
-741.112	156.165	-0.190	0.265
-740.098	53.865	-0.288	-0.280
-739.083	-161.109	0.325	0.017
-738.069	384.849	-0.121	0.251
-737.054	133.991	0.041	-0.054
-736.039	-88.695	-0.313	-0.094
-735.025	-115.120	0.539	-0.103
-734.010	-115.596	-0.090	0.017
-732.996	-52.672	-0.417	-0.195
-731.981	-200.000	0.025	-0.462
-730.966	-64.333	-0.128	-0.053
-729.952	-3.216	0.082	0.057
-728.937	-57.958	0.205	-0.091
-727.923	10.816	0.082	-0.063
-726.908	-98.877	-0.025	-0.007
-725.894	-81.117	-0.331	-0.111
-724.879	-115.439	0.201	0.038
-723.864	-76.222	-0.383	0.136
-722.850	800.000	0.040	0.151
-721.835	126.828	-0.035	-0.045
-720.821	-122.249	-0.211	-0.035
-719.806	403.603	0.159	-0.338
-718.791	30.721	0.224	-0.194
-717.777	-97.107	-0.259	-0.069
-716.762	-138.892	-0.110	-0.012
-715.748	178.490	-0.122	0.179
-714.733	-200.000	0.004	-0.043
-713.718	749.458	-0.068	0.187
-712.704	-150.605	-0.242	0.019
-711.689	244.495	0.143	-0.243
-710.675	496.052	-0.092	0.215
-709.660	-152.701	-0.123	0.009
-708.645	82.237	0.121	-0.133
-707.631	800.000	0.093	0.277
-706.616	-161.284	0.313	-0.016
-705.602	-151.213	0.348	0.026
-704.587	-200.000	0.041	-0.315
-703.572	-119.849	0.448	-0.078
-702.558	524.143	0.022	-0.053
-701.543	19.981	-0.054	-0.044
-700.529	127.798	-0.144	-0.186
-699.514	-33.304	-0.138	0.077
-698.499	765.514	-0.053	0.146
-697.485	-200.000	-0.017	-0.112
-696.470	-73.973	0.206	-0.076
-695.456	800.000	0.155	-0.456
-694.441	563.315	0.089	-0.218
-693.426	-200.000	-0.035	-0.199
-692.412	17.352	0.130	0.104
-691.397	800.000	0.028	-0.096
-690.383	27.420	0.090	-0.076
-689.368	-200.000	-0.024	-0.215
-688.354	55.653	-0.136	-0.134
-687.339	212.262	0.047	0.075
-686.324	-200.000	0.020	-0.091
-685.310	15.838	0.115	0.091
-684.295	-95.226	-0.285	0.078
-683.281	-200.000	0.064	0.289
-682.266	-200.000	0.046	-0.369
-681.251	-43.338	0.082	0.042
-680.237	-36.497	-0.167	-0.091
-679.222	-151.823	0.169	-0.012
-678.208	49.297	0.109	-0.104
-677.193	308.685	0.047	-0.089
-676.178	171.769	-0.047	-0.068
-675.164	-10.317	0.166	-0.111
-674.149	236.772	-0.049	-0.083
-673.135	165.651	-0.032	0.046
-672.120	-24.740	0.065	-0.039
-671.105	243.678	-0.229	0.388
-670.091	15.688	-0.143	0.114
-669.076	-133.197	0.183	0.023
-668.062	-200.000	-0.061	-0.383
-667.047	-42.808	-0.129	-0.066
-666.032	11.768	-0.372	0.288
-665.018	84.913	0.080	-0.089
-664.003	800.000	-0.055	-0.225
-662.989	-189.447	-0.342	-0.004
-661.974	-200.000	0.047	-0.229
-660.959	-200.000	-0.007	-0.129
-659.945	-200.000	0.044	-0.284
-658.930	13.769	0.254	0.199
-657.916	75.742	0.216	0.230
-656.901	23.346	0.518	-0.430
-655.886	72.638	0.056	0.059
-654.872	53.630	-0.287	-0.278
-653.857	-74.922	0.089	0.032
-652.843	800.000	0.082	-0.262
-651.828	3.053	0.196	-0.143
-650.814	-48.496	-0.260	0.126
-649.799	-90.144	-0.339	-0.100
-648.784	634.879	0.057	0.146
-647.770	737.666	0.138	-0.374
-646.755	-119.586	-0.254	0.044
-645.741	-128.672	0.421	0.060
-644.726	785.734	-0.088	-0.244
-643.711	60.949	0.315	-0.315
-642.697	58.051	0.201	0.199
-641.682	-128.193	-0.142	0.020
-640.668	-192.806	-0.278	-0.003
-639.653	-51.318	-0.089	-0.042
-638.638	-200.000	-0.032	-0.221
-637.624	-75.110	0.329	-0.118
-636.609	-200.000	-0.004	0.320
-635.595	-200.000	-0.028	-0.164
-634.580	95.217	-0.222	0.255
-633.565	-76.112	0.377	0.134
-632.551	1.166	-0.084	-0.061
-631.536	71.048	-0.181	-0.189
-630.522	-85.955	0.170	0.053
-629.507	-200.000	-0.022	-0.177
-628.492	-107.944	0.126	0.028
-627.478	411.941	0.113	0.242
-626.463	800.000	0.078	-0.274
-625.449	-43.035	-0.156	-0.080
-624.434	22.224	0.108	-0.089
-623.419	-161.846	0.308	0.016
-622.405	-111.859	0.134	0.027
-621.390	29.851	0.213	-0.183
-620.376	170.798	-0.117	0.169
-619.361	800.000	0.043	0.175
-618.346	389.114	-0.033	-0.069
-617.332	307.089	-0.110	-0.206
-616.317	800.000	0.047	0.164
-615.303	54.476	-0.248	0.241
-614.288	-49.114	0.175	0.084
-613.273	-200.000	0.052	0.363
-612.259	-6.363	-0.135	0.093
-611.244	-167.040	0.422	0.017
-610.230	800.000	0.016	-0.047
-609.215	800.000	-0.115	-0.351
-608.201	-74.479	0.228	-0.083
-607.186	-122.389	-0.233	0.038
-606.171	-93.465	-0.339	-0.094
-605.157	-122.140	0.272	0.045
-604.142	-200.000	-0.031	-0.245
-603.128	-79.333	0.200	-0.068
-602.113	-200.000	-0.045	0.293
-601.098	416.618	-0.178	0.382
-600.084	296.221	-0.044	0.081
-599.069	-200.000	0.029	0.415
-598.055	800.000	-0.027	-0.079
-597.040	-99.551	-0.134	0.034
-596.025	-25.999	-0.230	0.136
-595.011	-62.960	-0.269	-0.112
-593.996	800.000	0.036	-0.153
-592.982	-200.000	-0.015	0.361
-591.967	-200.000	0.006	0.367
-590.952	53.227	-0.118	0.113
-589.938	-158.073	0.183	0.011
-588.923	-115.801	0.102	-0.019
-587.909	-51.006	0.169	0.080
-586.894	800.000	-0.106	0.321
-585.879	140.266	-0.205	0.272
-584.865	760.240	0.047	-0.128
-583.850	-147.088	-0.212	-0.018
-582.836	20.845	-0.295	0.240
-581.821	657.618	-0.072	-0.186
-580.806	122.466	-0.253	-0.318
-579.792	-46.064	0.226	-0.112
-578.777	105.466	-0.099	-0.117
-577.763	525.681	-0.123	0.292
-576.748	-166.840	0.057	-0.002
-575.733	-33.880	0.196	-0.109
-574.719	39.202	-0.166	0.150
-573.704	773.950	0.032	0.089
-572.690	-46.689	-0.339	0.167
-571.675	-45.073	0.270	-0.135
-570.661	-186.533	0.061	-0.001
-569.646	3.287	-0.123	0.090
-568.631	-97.860	-0.335	0.087
-567.617	-200.000	0.000	-0.049
-566.602	179.375	-0.232	-0.342
-565.588	631.918	-0.015	0.039
-564.573	-72.721	-0.106	0.039
-563.558	9.714	-0.118	0.090
-562.544	126.351	-0.026	0.034
-561.529	-142.841	0.188	0.018
-560.515	800.000	-0.059	-0.197
-559.500	42.035	-0.140	0.128
-558.485	136.129	-0.365	-0.478
-557.471	512.942	0.040	-0.093
-556.456	446.729	0.142	-0.313
-555.442	-37.568	-0.134	-0.072
-554.427	285.613	0.047	-0.085
-553.412	-200.000	-0.018	-0.300
-552.398	-95.757	-0.356	-0.096
-551.383	76.325	-0.179	-0.190
-550.369	800.000	0.067	-0.275
-549.354	-88.543	0.183	0.055
-548.339	72.705	0.236	0.248
-547.325	-41.786	0.211	0.109
-546.310	-158.367	0.162	-0.009
-545.296	11.960	0.118	-0.091
-544.281	29.863	-0.168	0.144
-543.266	-46.225	-0.208	-0.103
-542.252	211.350	-0.096	0.152
-541.237	199.989	0.149	-0.230
-540.223	-200.000	0.047	-0.346
-539.208	447.098	-0.065	-0.143
-538.193	-47.422	-0.175	0.085
-537.179	49.144	-0.299	0.282
-536.164	-52.325	0.164	-0.076
-535.150	139.800	0.202	0.267
-534.135	80.084	0.093	-0.100
-533.121	-100.440	-0.299	-0.074
-532.106	284.657	0.072	0.129
-531.091	-61.454	-0.293	0.124
-530.077	691.336	0.066	0.174
-529.062	800.000	0.043	0.142
-528.048	-16.226	-0.312	-0.199
-527.033	-114.691	-0.637	-0.122
-526.018	426.310	0.050	-0.107
-525.004	-139.799	-0.288	0.031
-523.989	-200.000	0.007	-0.099
-522.975	800.000	-0.039	0.147
-521.960	-200.000	0.007	0.040
-520.945	194.814	-0.017	-0.026
-519.931	-200.000	0.018	-0.212
-518.916	-57.416	0.223	-0.098
-517.902	-200.000	0.011	-0.191
-516.887	-200.000	0.020	-0.137
-515.872	-147.323	0.087	0.007
-514.858	312.521	-0.044	-0.084
-513.843	-17.935	0.099	0.063
-512.829	-99.310	0.195	0.049
-511.814	-63.364	-0.186	-0.077
-510.799	800.000	0.053	-0.231
-509.785	33.890	-0.097	-0.084
-508.770	-13.650	-0.345	0.224
-507.756	58.679	-0.226	-0.222
-506.741	249.829	-0.096	-0.164
-505.726	454.397	-0.081	0.181
-504.712	-127.426	0.181	0.026
-503.697	-113.864	0.366	0.071
-502.683	-91.596	-0.090	0.026
-501.668	-141.329	0.280	0.028
-500.653	-54.867	-0.147	-0.067
-499.639	-6.968	0.133	-0.090
-498.624	250.174	0.071	0.121
-497.610	-37.660	0.187	-0.100
-496.595	-73.966	-0.242	-0.088
-495.581	47.958	-0.161	-0.151
-494.566	-123.290	0.269	-0.043
-493.551	-140.598	-0.346	-0.036
-492.537	-96.546	0.203	0.054
-491.522	-200.000	0.067	-0.425
-490.508	-75.537	-0.341	-0.121
-489.493	-200.000	-0.062	0.291
-488.478	17.880	-0.126	-0.101
-487.464	-200.000	-0.006	-0.063
-486.449	-184.370	-0.291	-0.005
-485.435	-65.993	-0.222	0.089
-484.420	-200.000	-0.014	-0.316
-483.405	390.595	-0.086	0.178
-482.391	125.240	0.187	-0.236
-481.376	64.751	0.164	0.166
-480.362	-200.000	0.005	-0.097
-479.347	-59.071	0.156	0.068
-478.332	705.824	-0.125	-0.330
-477.318	-200.000	-0.316	-0.001
-476.303	-180.398	0.250	-0.005
-475.289	-200.000	-0.008	-0.128
-474.274	-54.618	0.078	-0.035
-473.259	181.400	0.146	0.215
-472.245	-135.049	0.240	-0.029
-471.230	-200.000	0.023	0.435
-470.216	246.207	0.070	-0.118
-469.201	-200.000	-0.007	-0.126
-468.186	-104.029	0.169	-0.039
-467.172	-137.341	-0.248	-0.028
-466.157	1.625	-0.177	-0.128
-465.143	222.571	-0.261	0.421
-464.128	-200.000	-0.001	0.047
-463.113	-200.000	0.006	0.028
-462.099	800.000	0.089	0.259
-461.084	-165.099	-0.143	-0.006
-460.070	-0.025	0.290	0.207
-459.055	8.705	0.178	0.134
-458.040	-57.912	0.166	-0.073
-457.026	83.306	-0.040	-0.043
-456.011	-112.232	0.187	0.038
-454.997	-102.966	-0.427	-0.102
-453.982	90.108	0.243	-0.271
-452.968	703.263	0.125	0.330
-451.953	5.236	0.151	0.111
-450.938	-200.000	0.002	-0.239
-449.924	28.600	-0.215	-0.182
-448.909	800.000	-0.042	-0.141
-447.895	90.823	-0.030	0.034
-446.880	87.019	0.097	0.107
-445.865	21.795	-0.237	-0.193
-444.851	-189.733	0.141	-0.002
-443.836	72.992	0.211	-0.220
-442.822	-200.000	0.032	-0.146
-441.807	766.659	-0.116	-0.316
-440.792	13.684	-0.096	0.075
-439.778	91.291	-0.201	-0.226
-438.763	196.311	0.164	0.250
-437.749	-188.074	0.079	0.001
-436.734	347.932	-0.085	-0.168
-435.719	-90.944	0.106	0.030
-434.705	41.144	0.194	-0.175
-433.690	-153.662	0.287	-0.020
-432.676	299.186	-0.105	-0.193
-431.661	96.082	-0.068	0.078
-430.646	800.000	0.139	-0.411
-429.632	800.000	-0.111	-0.347
-428.617	-65.952	0.301	0.120
-427.603	-162.398	-0.452	-0.022
-426.588	-200.000	-0.001	-0.145
-425.573	398.787	0.107	0.223
-424.559	-115.264	-0.190	0.036
-423.544	-42.140	-0.301	-0.154
-422.530	-62.745	-0.238	-0.099
-421.515	-111.744	-0.135	0.027
-420.500	88.434	0.288	-0.319
-419.486	-200.000	0.048	0.331
-418.471	-72.700	-0.131	-0.048
-417.457	-7.151	-0.063	0.043
-416.442	-107.541	0.209	0.046
-415.428	468.920	-0.061	0.138
-414.413	397.358	0.137	0.285
-413.398	-200.000	-0.076	0.353
-412.384	800.000	-0.047	0.142
-411.369	-200.000	0.007	0.127
-410.355	1.599	-0.029	0.021
-409.340	228.106	0.193	0.313
-408.325	-6.299	-0.063	-0.043
-407.311	176.405	-0.101	0.147
-406.296	-1.872	-0.148	0.104
-405.282	-155.047	-0.209	-0.014
-404.267	106.687	0.085	0.101
-403.252	190.745	-0.062	-0.093
-402.238	70.308	-0.066	-0.068
-401.223	-116.410	-0.069	-0.013
-400.209	800.000	-0.013	0.046
-399.194	-23.448	0.222	0.133
-398.179	-80.371	-0.248	-0.083
-397.165	800.000	-0.158	-0.551
-396.150	381.987	0.187	-0.383
-395.136	504.350	-0.081	-0.186
-394.121	-27.571	-0.217	0.126
-393.106	528.878	-0.098	-0.231
-392.092	8.671	0.187	-0.140
-391.077	-57.480	-0.228	0.100
-390.063	-200.000	0.009	0.405
-389.048	84.783	-0.139	0.152
-388.033	-139.162	0.105	0.011
-387.019	171.251	-0.245	0.351
-386.004	-94.945	0.400	-0.108
-384.990	-112.914	0.087	0.017
-383.975	138.260	-0.062	-0.081
-382.960	11.095	-0.150	0.115
-381.946	-200.000	0.028	0.122
-380.931	320.228	-0.049	-0.093
-379.917	-200.000	-0.000	0.104
-378.902	89.338	0.114	-0.127
-377.888	-82.932	0.218	-0.070
-376.873	339.838	-0.113	0.219
-375.858	-146.401	0.235	0.020
-374.844	-48.415	-0.067	-0.032
-373.829	-98.011	0.232	-0.060
-372.815	67.830	-0.336	-0.343
-371.800	-200.000	-0.085	0.421
-370.785	613.519	0.063	0.157
-369.771	800.000	-0.003	0.009
-368.756	-38.547	0.108	-0.057
-367.742	215.414	-0.092	0.146
-366.727	83.320	0.188	-0.204
-365.712	-200.000	-0.027	0.336
-364.698	-169.459	-0.127	-0.005
-363.683	-171.157	0.514	-0.017
-362.669	-46.241	0.333	-0.163
-361.654	69.692	0.343	-0.352
-360.639	-200.000	0.022	-0.185
-359.625	147.502	-0.422	-0.567
-358.610	-78.892	-0.265	-0.090
-357.596	-91.333	0.276	0.079
-356.581	-120.805	-0.129	0.022
-355.566	-144.696	0.124	-0.011
-354.552	-21.864	0.337	-0.204
-353.537	180.716	0.213	0.311
-352.523	3.784	-0.222	0.162
-351.508	280.652	-0.183	-0.325
-350.493	4.340	0.148	-0.108
-349.479	286.549	-0.090	-0.162
-348.464	800.000	0.065	0.182
-347.450	800.000	0.100	0.338
-346.435	74.912	-0.135	-0.142
-345.420	-22.851	-0.046	0.028
-344.406	-129.746	0.159	-0.022
-343.391	-140.655	-0.188	-0.019
-342.377	-153.212	-0.293	0.020
-341.362	-27.326	-0.210	-0.122
-340.348	-200.000	-0.067	0.353
-339.333	122.830	0.244	0.305
-338.318	766.177	-0.084	-0.228
-337.304	-21.803	-0.387	0.235
-336.289	-60.233	0.129	0.055
-335.275	800.000	-0.089	0.372
-334.260	800.000	0.109	-0.460
-333.245	-75.291	0.101	0.036
-332.231	200.109	0.151	0.230
-331.216	800.000	-0.062	0.229
-330.202	-152.737	-0.238	0.017
-329.187	-67.990	-0.258	0.100
-328.172	699.961	-0.155	0.407
-327.158	-138.445	-0.346	0.038
-326.143	49.811	-0.278	0.261
-325.129	18.341	0.270	0.215
-324.114	188.235	0.204	-0.304
-323.099	-200.000	0.016	0.080
-322.085	-54.473	-0.504	-0.227
-321.070	-200.000	0.008	-0.275
-320.056	800.000	0.145	0.413
-319.041	27.352	0.027	0.023
-318.026	-200.000	-0.082	0.411
-317.012	-181.975	-0.095	0.002
-315.997	-200.000	-0.031	0.317
-314.983	-1.391	-0.329	-0.231
-313.968	800.000	0.028	-0.083
-312.953	784.061	-0.119	0.325
-311.939	-200.000	-0.010	0.234
-310.924	191.069	0.118	0.176
-309.910	-163.372	-0.099	0.005
-308.895	51.623	0.130	-0.123
-307.880	312.661	0.070	0.131
-306.866	-200.000	-0.004	-0.066
-305.851	414.155	0.062	0.130
-304.837	77.170	0.031	0.032
-303.822	-22.242	0.238	-0.144
-302.807	53.555	-0.192	-0.183
-301.793	-9.692	-0.338	-0.224
-300.778	341.157	0.087	0.169
-299.764	457.127	-0.076	0.169
-298.749	-200.000	-0.060	-0.388
-297.735	-200.000	0.004	-0.087
-296.720	132.396	-0.247	0.317
-295.705	175.231	0.147	-0.212
-294.691	-51.819	0.174	0.081
-293.676	-47.833	-0.173	-0.083
-292.662	-116.047	0.492	0.091
-291.647	369.712	0.079	-0.160
-290.632	-2.785	0.130	0.090
-289.618	12.939	-0.069	0.053
-288.603	-165.507	-0.058	-0.003
-287.589	92.626	0.329	0.370
-286.574	-91.917	0.142	-0.040
-285.559	800.000	0.076	-0.271
-284.545	449.709	-0.104	-0.228
-283.530	-83.634	0.445	-0.141
-282.516	800.000	-0.035	-0.108
-281.501	-105.504	-0.303	0.068
-280.486	-47.435	0.164	0.079
-279.472	-200.000	0.019	0.203
-278.457	66.784	0.278	-0.281
-277.443	309.631	0.157	0.292
-276.428	265.991	0.152	-0.263
-275.413	43.345	0.112	-0.102
-274.399	800.000	0.031	-0.091
-273.384	-145.672	-0.241	-0.021
-272.370	-37.429	0.436	0.231
-271.355	91.524	0.236	0.264
-270.340	55.660	0.060	0.058
-269.326	-200.000	0.083	-0.382
-268.311	-12.966	-0.167	0.108
-267.297	367.524	-0.087	0.175
-266.282	800.000	0.104	0.387
-265.267	-118.725	-0.370	0.065
-264.253	-184.189	-0.251	-0.004
-263.238	497.409	-0.014	0.033
-262.224	-87.159	-0.197	-0.060
-261.209	124.551	0.183	0.229
-260.195	-200.000	-0.008	0.303
-259.180	-59.423	0.120	-0.051
-258.165	130.862	-0.075	-0.095
-257.151	-200.000	-0.006	-0.144
-256.136	102.897	-0.148	-0.173
-255.122	604.155	-0.082	-0.203
-254.107	110.852	-0.183	0.219
-253.092	800.000	0.053	-0.153
-252.078	245.356	0.107	-0.179
-251.063	-200.000	-0.020	-0.096
-250.049	800.000	-0.085	-0.334
-249.034	700.582	0.090	0.234
-248.019	134.532	0.184	0.237
-247.005	-77.856	0.229	0.078
-245.990	-143.738	-0.262	-0.025
-244.976	-200.000	-0.018	-0.215
-243.961	466.174	0.089	0.198
-242.946	-200.000	0.019	0.387
-241.932	-28.807	-0.187	-0.107
-240.917	-101.279	0.270	0.065
-239.903	-200.000	-0.025	0.357
-238.888	-122.003	0.147	0.024
-237.873	-200.000	-0.006	0.184
-236.859	800.000	0.086	-0.245
-235.844	410.332	-0.048	-0.100
-234.830	-62.334	0.412	0.170
-233.815	-200.000	0.009	-0.048
-232.800	215.252	0.081	0.128
-231.786	16.472	-0.095	-0.075
-230.771	-200.000	0.083	-0.418
-229.757	-41.271	-0.332	-0.170
-228.742	-123.322	0.144	0.023
-227.727	739.025	0.055	0.146
-226.713	-38.723	-0.198	0.104
-225.698	306.738	-0.039	-0.073
-224.684	1.176	0.241	0.172
-223.669	155.780	0.160	0.219
-222.655	800.000	-0.091	0.292
-221.640	50.296	-0.044	-0.042
-220.625	8.978	0.418	-0.312
-219.611	-51.344	-0.316	-0.146
-218.596	407.194	-0.095	0.198
-217.582	346.175	-0.052	-0.102
-216.567	-21.797	0.244	0.147
-215.552	371.380	0.086	0.172
-214.538	-94.781	0.350	0.094
-213.523	-200.000	-0.058	-0.403
-212.509	-96.201	0.272	0.071
-211.494	-200.000	-0.014	-0.105
-210.479	-155.031	-0.148	0.010
-209.465	-32.313	0.178	0.098
-208.450	186.286	0.125	-0.184
-207.436	218.901	0.064	-0.101
-206.421	-83.734	0.097	0.031
-205.406	-40.670	-0.202	0.104
-204.392	-137.732	0.150	0.017
-203.377	800.000	0.036	-0.119
-202.363	101.110	0.132	-0.152
-201.348	-200.000	0.016	-0.178
-200.333	-35.543	-0.273	-0.147
-199.319	58.302	0.047	0.046
-198.304	255.940	-0.038	0.065
-197.290	800.000	0.029	-0.083
-196.275	-79.252	0.288	-0.097
-195.260	800.000	-0.021	0.083
-194.246	-47.568	-0.182	0.087
-193.231	238.746	0.187	0.307
-192.217	800.000	-0.040	0.172
-191.202	-83.365	-0.139	-0.044
-190.187	465.419	0.106	-0.236
-189.173	-17.514	0.421	0.263
-188.158	-200.000	-0.002	0.125
-187.144	-102.832	0.454	0.107
-186.129	-25.567	0.342	0.200
-185.114	71.528	0.171	-0.176
-184.100	-37.135	-0.157	0.083
-183.085	-106.177	0.091	-0.020
-182.071	2.281	-0.240	-0.172
-181.056	-35.639	-0.192	-0.103
-180.042	-77.507	-0.190	-0.065
-179.027	-187.244	0.122	0.002
-178.012	-58.507	0.013	0.006
-176.998	-21.119	0.276	0.167
-175.983	-6.622	0.146	-0.098
-174.969	66.957	0.102	-0.103
-173.954	208.998	-0.118	-0.184
-172.939	18.780	0.127	-0.100
-171.925	-153.473	0.097	0.007
-170.910	189.011	-0.095	0.141
-169.896	-103.210	-0.302	-0.071
-168.881	-200.000	0.004	-0.305
-167.866	-130.949	0.559	-0.074
-166.852	-99.063	-0.296	0.074
-165.837	146.641	0.158	-0.211
-164.823	800.000	-0.071	0.237
-163.808	-88.399	-0.228	-0.067
-162.793	14.450	-0.147	0.114
-161.779	-200.000	0.034	0.215
-160.764	99.232	-0.167	0.190
-159.750	-200.000	0.016	0.128
-158.735	12.684	0.118	-0.090
-157.720	34.890	0.052	-0.045
-156.706	-180.431	0.196	0.004
-155.691	6.201	0.200	0.147
-154.677	-200.000	0.022	-0.452
-153.662	-122.259	-0.276	-0.045
-152.647	800.000	0.015	0.053
-151.633	57.091	0.167	0.161
-150.618	-82.690	0.106	-0.034
-149.604	-200.000	0.080	-0.425
-148.589	-200.000	-0.013	0.215
-147.574	633.981	0.089	-0.224
-146.560	611.330	0.067	-0.166
-145.545	19.536	-0.422	-0.336
-144.531	-86.708	0.112	0.034
-143.516	-36.633	-0.055	0.029
-142.502	-150.696	0.469	0.035
-141.487	-200.000	0.039	-0.304
-140.472	394.918	-0.055	0.113
-139.458	44.965	0.064	-0.058
-138.443	800.000	0.116	0.343
-137.429	-200.000	-0.053	0.491
-136.414	-14.619	0.333	0.211
-135.399	-200.000	-0.085	-0.395
-134.385	222.390	0.094	0.150
-133.370	-200.000	-0.004	0.034
-132.356	74.629	-0.298	0.309
-131.341	477.447	0.058	-0.130
-130.326	800.000	-0.052	-0.208
-129.312	-200.000	0.022	0.126
-128.297	4.202	-0.103	0.075
-127.283	-37.182	-0.201	-0.106
-126.268	-39.308	0.082	-0.043
-125.253	-200.000	0.014	0.137
-124.239	-200.000	0.058	0.334
-123.224	-193.776	-0.199	-0.002
-122.210	787.097	0.132	-0.358
-121.195	167.252	-0.075	0.105
