DTS Sentinel unit serial number:	SN413079Multiplexer serial number:	ORYXHardware model number:	OX4-SRSoftware version number:	ORYX F/W v4.00 Oryx Data Collector v3.7.2.0data status	okinstallation	princeton_trtdifferential loss correction	single-endedforward channel	channel 4reverse channel	N/Adate	2019/09/11time	21:55:11forward acquisition time	60.00reverse acquisition time	0.00gamma	496.2192k internal	0.2306k external	0.2306temperature offset calibration	1.0068default loss term (dB/km)	0.3790temperature slope calibration	1.0000multiplexer offset coefficient	1.0000multiplexer slope coefficient	1.0000fibre end	0.00T internal ref (°C)	35.62T ext. ref 1 (°C)	1.71T ext. ref 2 (°C)	29.69length (m)	temperature (°C)	Stokes	anti-Stokes-747.200	-43.914	0.260	0.133
-746.185	171.369	-0.193	0.282
-745.171	-50.239	0.142	0.068
-744.156	-143.714	-0.222	-0.021
-743.142	800.000	0.037	0.128
-742.127	780.863	-0.140	0.391
-741.112	-200.000	0.031	-0.156
-740.098	-76.111	0.460	0.165
-739.083	133.816	-0.234	0.308
-738.069	117.184	0.048	0.060
-737.054	-111.218	0.121	-0.025
-736.039	-15.469	-0.099	0.064
-735.025	-70.403	-0.104	0.040
-734.010	-200.000	-0.012	-0.124
-732.996	-51.257	0.198	0.094
-731.981	35.293	0.119	0.106
-730.966	800.000	0.037	0.116
-729.952	-200.000	0.018	0.093
-728.937	220.966	-0.150	-0.245
-727.923	127.948	-0.022	-0.028
-726.908	-40.271	-0.140	0.074
-725.894	-200.000	0.023	-0.246
-724.879	110.861	-0.176	0.215
-723.864	-138.837	0.347	0.038
-722.850	800.000	0.072	0.282
-721.835	2.855	-0.205	0.151
-720.821	202.707	0.025	0.039
-719.806	24.658	0.098	-0.083
-718.791	96.300	-0.254	-0.295
-717.777	-200.000	0.027	-0.344
-716.762	-28.698	-0.230	-0.135
-715.748	159.953	0.146	0.207
-714.733	401.323	0.088	-0.187
-713.718	-16.485	-0.126	-0.081
-712.704	50.504	0.174	-0.167
-711.689	127.951	0.099	-0.128
-710.675	272.974	-0.148	-0.266
-709.660	-200.000	0.028	0.207
-708.645	7.959	-0.137	0.104
-707.631	-81.515	0.139	-0.046
-706.616	-109.691	0.313	-0.067
-705.602	-200.000	0.008	-0.176
-704.587	148.291	0.084	-0.115
-703.572	-200.000	-0.098	-0.469
-702.558	-200.000	-0.029	0.133
-701.543	-200.000	0.024	0.266
-700.529	-200.000	0.011	0.140
-699.514	-154.907	-0.227	0.015
-698.499	-38.063	0.153	-0.082
-697.485	-129.209	-0.133	-0.019
-696.470	-200.000	-0.003	-0.018
-695.456	-200.000	0.001	-0.022
-694.441	-23.786	-0.070	0.042
-693.426	-35.585	0.106	-0.058
-692.412	-200.000	-0.007	0.337
-691.397	-178.363	0.279	-0.007
-690.383	-186.553	0.107	-0.002
-689.368	687.464	0.078	-0.206
-688.354	-47.529	0.413	-0.204
-687.339	-184.002	0.265	0.005
-686.324	-124.959	0.220	0.034
-685.310	256.532	0.178	-0.310
-684.295	228.417	-0.101	-0.167
-683.281	-164.396	0.097	0.005
-682.266	-200.000	-0.000	0.125
-681.251	-200.000	-0.029	-0.322
-680.237	-52.587	-0.225	-0.105
-679.222	-108.713	0.277	0.060
-678.208	-200.000	0.028	-0.186
-677.193	-120.939	-0.317	0.054
-676.178	-91.335	0.142	0.041
-675.164	7.647	-0.219	0.166
-674.149	148.576	-0.102	-0.140
-673.135	-114.815	-0.323	0.062
-672.120	8.891	0.095	-0.072
-671.105	-140.076	-0.270	-0.029
-670.091	206.372	-0.023	-0.037
-669.076	-29.364	0.158	-0.092
-668.062	606.843	-0.070	0.177
-667.047	15.558	0.323	0.257
-666.032	-200.000	-0.001	0.032
-665.018	-200.000	0.033	-0.320
-664.003	800.000	0.046	0.181
-662.989	22.638	0.204	0.170
-661.974	505.555	-0.101	0.237
-660.959	-133.277	-0.240	0.031
-659.945	34.413	-0.238	0.211
-658.930	800.000	0.046	0.195
-657.916	-81.707	0.291	0.097
-656.901	79.958	-0.356	0.388
-655.886	187.589	0.071	0.107
-654.872	220.642	0.045	-0.073
-653.857	171.286	0.099	-0.144
-652.843	-42.190	0.150	-0.077
-651.828	189.882	0.053	-0.081
-650.814	47.772	-0.088	0.083
-649.799	711.047	0.117	-0.315
-648.784	-51.698	0.111	-0.053
-647.770	-200.000	-0.010	0.307
-646.755	410.656	-0.079	-0.169
-645.741	-67.144	-0.212	0.085
-644.726	205.474	0.171	0.269
-643.711	-60.182	-0.379	0.164
-642.697	-56.047	-0.192	0.087
-641.682	509.910	0.127	-0.298
-640.668	-5.523	0.165	0.114
-639.653	17.861	-0.231	0.186
-638.638	-200.000	0.011	0.208
-637.624	12.619	-0.052	-0.041
-636.609	292.653	0.175	-0.322
-635.595	800.000	-0.041	-0.128
-634.580	-23.036	0.088	0.054
-633.565	131.461	0.122	-0.159
-632.551	64.454	-0.204	0.208
-631.536	-200.000	0.020	0.146
-630.522	800.000	-0.032	0.103
-629.507	-51.368	-0.280	-0.133
-628.492	-82.713	0.208	-0.068
-627.478	-133.699	0.172	-0.022
-626.463	800.000	-0.062	-0.267
-625.449	6.484	-0.090	0.068
-624.434	-156.282	0.137	-0.009
-623.419	-200.000	0.021	-0.293
-622.405	-89.797	0.143	0.042
-621.390	-28.086	0.517	0.303
-620.376	-128.299	-0.201	0.029
-619.361	-47.440	0.238	0.117
-618.346	-168.173	-0.549	0.022
-617.332	800.000	-0.103	0.358
-616.317	526.890	0.036	0.086
-615.303	-32.658	0.265	-0.149
-614.288	144.961	-0.060	0.081
-613.273	-144.786	-0.362	0.034
-612.259	-106.337	0.216	0.049
-611.244	-176.167	0.215	0.006
-610.230	-134.341	-0.392	0.049
-609.215	188.048	-0.049	-0.074
-608.201	-39.774	0.251	-0.133
-607.186	800.000	-0.073	0.206
-606.171	800.000	0.061	-0.196
-605.157	81.296	-0.213	-0.233
-604.142	-200.000	-0.048	0.247
-603.128	36.213	-0.272	0.242
-602.113	-98.634	-0.176	-0.045
-601.098	426.864	0.078	0.169
-600.084	-200.000	-0.024	0.112
-599.069	-200.000	-0.006	-0.412
-598.055	-200.000	0.096	-0.521
-597.040	-126.772	-0.231	-0.034
-596.025	715.520	-0.040	-0.108
-595.011	331.671	0.153	0.299
-593.996	-200.000	-0.048	-0.363
-592.982	95.163	0.146	-0.168
-591.967	-112.461	0.464	0.094
-590.952	-71.773	-0.163	-0.061
-589.938	-12.816	0.016	-0.011
-588.923	345.367	-0.159	-0.315
-587.909	-25.247	-0.151	-0.091
-586.894	194.384	0.222	-0.341
-585.879	-53.676	-0.175	-0.081
-584.865	228.720	-0.067	0.111
-583.850	11.159	0.327	0.253
-582.836	76.597	0.149	-0.159
-581.821	-91.567	-0.126	-0.036
-580.806	-108.385	-0.199	-0.043
-579.792	-200.000	-0.035	0.161
-578.777	-15.254	0.188	-0.121
-577.763	53.350	-0.165	0.160
-576.748	0.061	-0.161	-0.116
-575.733	-200.000	0.055	-0.468
-574.719	-115.083	-0.269	-0.052
-573.704	-146.296	-0.272	0.024
-572.690	-125.328	-0.403	-0.062
-571.675	-174.884	0.148	0.004
-570.661	-200.000	-0.037	-0.221
-569.646	-87.272	-0.325	-0.100
-568.631	-188.615	-0.360	-0.005
-567.617	9.734	-0.152	-0.117
-566.602	116.962	0.133	-0.165
-565.588	-126.354	-0.205	0.031
-564.573	800.000	0.034	0.122
-563.558	-31.150	0.092	-0.053
-562.544	-200.000	-0.045	-0.240
-561.529	-200.000	0.014	0.138
-560.515	-200.000	-0.032	0.273
-559.500	-35.106	-0.205	-0.113
-558.485	101.257	0.077	-0.090
-557.471	-60.316	-0.180	0.077
-556.456	-134.009	-0.130	0.016
-555.442	3.177	-0.146	0.107
-554.427	351.909	-0.089	-0.178
-553.412	-49.101	0.396	0.191
-552.398	19.390	-0.032	-0.026
-551.383	-102.100	-0.096	0.023
-550.369	59.466	0.207	-0.206
-549.354	-179.000	-0.335	0.008
-548.339	224.981	0.246	-0.401
-547.325	-10.784	-0.195	-0.130
-546.310	-200.000	-0.015	0.181
-545.296	111.139	-0.124	0.151
-544.281	800.000	-0.028	0.110
-543.266	-91.059	-0.119	0.035
-542.252	-24.732	-0.043	-0.026
-541.237	362.609	-0.075	-0.152
-540.223	-200.000	-0.029	-0.194
-539.208	800.000	0.080	0.255
-538.193	35.080	0.163	0.144
-537.179	-78.400	-0.156	-0.054
-536.164	800.000	0.020	-0.072
-535.150	-200.000	-0.022	0.431
-534.135	-38.658	-0.139	-0.074
-533.121	46.716	0.158	0.148
-532.106	-72.661	-0.117	-0.043
-531.091	-30.120	0.165	0.095
-530.077	-52.137	-0.157	0.073
-529.062	-21.801	-0.117	-0.072
-528.048	-97.298	0.112	0.029
-527.033	-62.221	-0.270	0.113
-526.018	64.075	-0.152	0.154
-525.004	-200.000	-0.012	-0.284
-523.989	227.915	0.084	0.137
-522.975	30.651	-0.135	0.116
-521.960	-108.548	-0.163	-0.035
-520.945	304.695	0.131	-0.245
-519.931	-82.796	0.148	-0.048
-518.916	-39.382	0.069	0.037
-517.902	-73.769	-0.228	0.084
-516.887	452.575	-0.028	-0.064
-515.872	-115.319	0.410	0.078
-514.858	145.528	0.149	0.202
-513.843	117.493	-0.149	-0.185
-512.829	243.701	-0.198	-0.335
-511.814	252.270	0.081	-0.139
-510.799	-130.802	0.243	0.033
-509.785	800.000	0.055	0.175
-508.770	46.307	-0.252	0.235
-507.756	-2.742	-0.164	-0.116
-506.741	-53.370	0.069	-0.032
-505.726	450.144	0.040	0.088
-504.712	-34.331	0.184	0.102
-503.697	253.503	0.155	0.267
-502.683	705.284	0.169	0.448
-501.668	-12.960	0.360	-0.236
-500.653	52.377	-0.087	-0.083
-499.639	-200.000	0.077	-0.350
-498.624	43.900	-0.343	-0.317
-497.610	-200.000	0.025	-0.284
-496.595	60.238	0.087	-0.087
-495.581	-40.561	-0.163	-0.085
-494.566	-56.725	0.161	0.072
-493.551	70.149	0.086	0.090
-492.537	-200.000	0.041	0.282
-491.522	-47.685	-0.097	-0.047
-490.508	-155.397	-0.430	0.028
-489.493	-158.838	-0.117	-0.007
-488.478	800.000	0.023	-0.094
-487.464	-168.052	-0.323	0.013
-486.449	-58.466	0.212	-0.093
-485.435	-75.793	0.348	-0.124
-484.420	-2.913	0.240	-0.169
-483.405	30.472	0.304	0.262
-482.391	-79.473	0.045	0.015
-481.376	119.547	-0.217	-0.271
-480.362	402.749	0.110	-0.234
-479.347	-200.000	0.019	0.272
-478.332	-25.625	-0.065	0.039
-477.318	-27.811	-0.282	-0.165
-476.303	379.413	-0.130	-0.268
-475.289	81.686	0.251	-0.273
-474.274	-200.000	0.027	0.224
-473.259	-55.328	-0.143	0.064
-472.245	800.000	-0.174	-0.495
-471.230	17.660	0.049	0.039
-470.216	207.742	0.116	-0.183
-469.201	298.497	-0.081	-0.151
-468.186	-66.556	-0.090	-0.036
-467.172	-91.822	-0.025	0.007
-466.157	-138.701	0.246	0.027
-465.143	227.616	-0.055	-0.089
-464.128	176.298	0.095	0.139
-463.113	333.979	-0.091	0.177
-462.099	32.115	-0.223	0.193
-461.084	331.861	0.221	0.429
-460.070	161.881	0.013	-0.018
-459.055	272.794	-0.089	0.158
-458.040	-23.265	0.169	0.102
-457.026	800.000	0.049	-0.159
-456.011	-50.566	-0.230	-0.109
-454.997	86.017	-0.154	0.170
-453.982	800.000	0.010	0.039
-452.968	115.264	-0.122	-0.150
-451.953	80.742	0.149	0.161
-450.938	293.382	0.085	0.157
-449.924	102.286	0.055	-0.065
-448.909	64.121	-0.037	0.038
-447.895	107.893	0.266	-0.318
-446.880	76.974	-0.080	-0.086
-445.865	-200.000	-0.052	0.319
-444.851	52.607	-0.332	0.319
-443.836	75.705	-0.136	0.145
-442.822	-200.000	0.046	-0.328
-441.807	99.479	-0.143	0.166
-440.792	-135.099	0.326	-0.039
-439.778	552.380	0.102	0.247
-438.763	82.285	-0.210	-0.229
-437.749	90.344	-0.157	0.177
-436.734	5.563	0.056	0.041
-435.719	-200.000	0.023	0.326
-434.705	-12.211	-0.283	0.186
-433.690	800.000	-0.081	-0.347
-432.676	800.000	-0.031	0.122
-431.661	147.752	0.259	0.351
-430.646	-84.675	-0.198	0.063
-429.632	52.533	-0.120	0.115
-428.617	197.401	0.221	-0.338
-427.603	185.332	0.105	-0.156
-426.588	80.188	-0.194	0.210
-425.573	284.407	-0.101	-0.182
-424.559	-176.007	0.069	-0.002
-423.544	-200.000	-0.003	0.021
-422.530	-200.000	-0.045	0.372
-421.515	-200.000	-0.043	-0.290
-420.500	423.773	-0.252	0.545
-419.486	101.640	0.198	0.232
-418.471	79.868	0.089	0.096
-417.457	297.108	0.059	-0.108
-416.442	81.327	0.041	0.044
-415.428	-200.000	-0.010	0.053
-414.413	-49.504	0.081	-0.039
-413.398	310.528	-0.162	0.305
-412.384	166.602	-0.060	0.085
-411.369	-81.491	0.081	-0.027
-410.355	-111.768	-0.085	-0.017
-409.340	-200.000	0.024	-0.167
-408.325	-79.205	-0.367	-0.125
-407.311	800.000	-0.079	0.297
-406.296	534.731	0.107	0.254
-405.282	-73.102	0.284	0.105
-404.267	800.000	0.077	0.251
-403.252	123.482	0.033	0.042
-402.238	21.984	0.014	-0.011
-401.223	107.791	-0.055	0.065
-400.209	-1.644	-0.122	-0.086
-399.194	158.638	0.029	0.040
-398.179	532.977	0.038	0.090
-397.165	-95.457	0.438	0.118
-396.150	-200.000	-0.002	-0.016
-395.136	173.662	0.294	-0.426
-394.121	300.179	0.069	0.128
-393.106	46.509	-0.203	-0.189
-392.092	-132.541	0.336	0.043
-391.077	18.372	0.179	0.143
-390.063	-200.000	-0.001	-0.093
-389.048	19.826	0.162	0.131
-388.033	462.904	-0.144	0.322
-387.019	-63.925	-0.218	-0.089
-386.004	-15.697	0.143	-0.092
-384.990	800.000	0.027	-0.113
-383.975	66.893	-0.347	0.355
-382.960	-94.357	-0.318	0.087
-381.946	-40.758	0.093	-0.048
-380.931	-58.758	-0.332	0.144
-379.917	87.759	-0.074	-0.083
-378.902	-154.788	0.041	0.003
-377.888	-128.292	0.117	-0.017
-376.873	800.000	0.107	-0.296
-375.858	12.974	-0.111	0.086
-374.844	117.511	-0.078	-0.096
-373.829	64.753	0.027	-0.027
-372.815	132.788	-0.138	0.179
-371.800	800.000	-0.018	-0.066
-370.785	104.450	-0.122	-0.144
-369.771	170.096	0.143	0.205
-368.756	109.812	-0.150	0.180
-367.742	-200.000	-0.002	-0.096
-366.727	-175.357	0.126	0.003
-365.712	-112.520	0.326	0.065
-364.698	31.129	0.017	0.015
-363.683	800.000	0.083	-0.357
-362.669	-167.044	0.320	0.013
-361.654	294.072	-0.140	-0.256
-360.639	-169.865	-0.208	0.007
-359.625	-200.000	-0.016	-0.134
-358.610	32.225	-0.238	0.206
-357.596	410.031	0.232	-0.492
-356.581	800.000	0.161	-0.482
-355.566	308.837	-0.081	0.152
-354.552	800.000	0.033	-0.093
-353.537	62.432	0.316	-0.316
-352.523	38.282	-0.214	0.191
-351.508	-2.836	0.207	-0.145
-350.493	233.326	0.155	-0.256
-349.479	-104.722	0.238	0.055
-348.464	437.291	-0.035	-0.076
-347.450	18.194	-0.221	0.176
-346.435	-153.497	0.167	0.012
-345.420	387.328	0.104	0.215
-344.406	-200.000	-0.002	-0.014
-343.391	78.265	0.176	-0.188
-342.377	-200.000	-0.025	0.204
-341.362	-200.000	-0.034	0.215
-340.348	236.507	0.152	0.252
-339.333	215.759	0.119	0.189
-338.318	110.473	0.182	0.219
-337.304	-42.184	0.088	0.045
-336.289	-123.992	0.148	-0.023
-335.275	-184.885	0.314	0.005
-334.260	104.087	0.047	0.056
-333.245	-52.464	-0.024	-0.011
-332.231	-25.329	0.051	0.030
-331.216	331.441	0.155	0.299
-330.202	539.568	0.045	0.107
-329.187	-128.680	0.225	0.032
-328.172	-81.265	0.252	0.083
-327.158	-200.000	0.056	-0.307
-326.143	-71.900	-0.366	-0.136
-325.129	148.086	-0.137	0.185
-324.114	97.185	0.160	0.183
-323.099	-42.628	0.194	-0.099
-322.085	141.832	0.108	0.143
-321.070	800.000	-0.043	-0.164
-320.056	-105.344	0.380	0.086
-319.041	693.025	0.106	-0.279
-318.026	141.123	-0.184	-0.244
-317.012	14.916	-0.169	0.132
-315.997	-40.197	0.282	0.147
-314.983	491.327	0.123	0.281
-313.968	800.000	0.080	-0.250
-312.953	-41.279	0.285	0.147
-311.939	-42.748	-0.350	0.178
-310.924	-72.861	0.109	0.040
-309.910	-86.304	0.215	-0.066
-308.895	101.760	0.042	0.049
-307.880	101.203	0.060	-0.070
-306.866	-200.000	-0.001	0.450
-305.851	-118.422	0.125	-0.022
-304.837	-96.990	0.090	0.024
-303.822	153.218	-0.125	-0.171
-302.807	691.557	0.046	0.122
-301.793	-105.026	-0.346	0.079
-300.778	-61.322	0.262	-0.110
-299.764	-25.482	-0.343	0.203
-298.749	-127.490	-0.308	-0.045
-297.735	98.722	-0.214	-0.247
-296.720	-147.382	-0.213	0.018
-295.705	427.608	-0.121	-0.261
-294.691	-200.000	-0.028	-0.173
-293.676	34.358	-0.229	-0.200
-292.662	-7.155	0.220	0.149
-291.647	-132.957	0.231	0.029
-290.632	44.503	-0.118	0.108
-289.618	-136.412	-0.072	-0.008
-288.603	660.592	0.098	-0.253
-287.589	188.703	-0.219	-0.327
-286.574	-91.941	0.156	-0.044
-285.559	152.828	-0.023	0.032
-284.545	-200.000	-0.054	-0.257
-283.530	800.000	0.115	-0.454
-282.516	-200.000	-0.027	0.129
-281.501	-200.000	0.024	0.265
-280.486	90.053	-0.237	-0.264
-279.472	107.239	0.145	-0.172
-278.457	800.000	0.049	-0.208
-277.443	-27.255	-0.183	0.106
-276.428	63.784	0.273	0.274
-275.413	65.400	-0.275	-0.278
-274.399	695.389	0.062	-0.162
-273.384	-131.339	0.246	-0.033
-272.370	-123.362	-0.205	0.033
-271.355	-119.758	-0.180	-0.031
-270.340	-71.358	-0.131	0.049
-269.326	-150.382	0.259	0.020
-268.311	-13.127	-0.240	0.156
-267.297	-108.941	-0.110	0.023
-266.282	456.445	0.018	0.040
-265.267	169.672	0.048	0.068
-264.253	36.794	-0.180	-0.159
-263.238	-22.715	-0.278	-0.167
-262.224	386.891	0.071	0.147
-261.209	201.385	0.051	0.078
-260.195	-200.000	-0.011	-0.050
-259.180	74.555	0.154	0.162
-258.165	45.293	-0.157	0.144
-257.151	-200.000	-0.190	-0.001
-256.136	101.743	0.075	0.088
-255.122	-43.208	-0.063	0.032
-254.107	800.000	0.059	0.231
-253.092	-33.123	0.265	0.147
-252.078	56.793	-0.043	-0.042
-251.063	402.407	-0.084	0.175
-250.049	441.945	0.135	0.295
-249.034	155.586	-0.118	-0.162
-248.019	110.716	0.083	0.100
-247.005	-94.210	0.159	0.043
-245.990	-88.633	-0.278	0.083
-244.976	26.798	-0.153	0.128
-243.961	9.514	-0.122	-0.092
-242.946	-200.000	0.047	0.248
-241.932	219.355	0.201	-0.321
-240.917	-115.505	0.175	-0.033
-239.903	-37.947	-0.175	0.093
-238.888	-200.000	-0.028	-0.543
-237.873	-74.098	0.182	0.066
-236.859	-200.000	-0.030	-0.395
-235.844	-17.706	-0.262	-0.164
-234.830	-200.000	-0.001	0.215
-233.815	800.000	0.019	0.053
-232.800	-200.000	-0.025	-0.187
-231.786	-200.000	0.228	-0.001
-230.771	186.067	0.122	0.180
-229.757	33.678	0.189	0.164
-228.742	800.000	-0.020	-0.056
-227.727	800.000	0.092	-0.300
-226.713	-14.328	0.382	-0.245
-225.698	-200.000	0.015	-0.209
-224.684	9.473	0.181	0.136
-223.669	-200.000	-0.017	0.348
-222.655	-200.000	-0.027	0.244
-221.640	-98.950	-0.135	0.034
-220.625	-2.795	0.393	0.274
-219.611	-163.654	-0.497	-0.023
-218.596	-62.367	0.045	0.019
-217.582	-72.173	-0.233	0.086
-216.567	64.537	-0.106	0.107
-215.552	-200.000	0.012	-0.149
-214.538	-123.501	0.373	0.059
-213.523	9.287	0.204	0.154
-212.509	-109.774	0.191	-0.040
-211.494	365.607	-0.046	0.092
-210.479	490.918	0.032	-0.073
-209.465	35.630	-0.076	0.066
-208.450	-200.000	0.001	-0.276
-207.436	-5.001	0.104	-0.072
-206.421	107.679	0.139	0.165
-205.406	23.992	0.291	-0.239
-204.392	-172.440	-0.208	0.007
-203.377	-200.000	0.013	-0.361
-202.363	-200.000	0.028	-0.212
-201.348	-200.000	0.001	-0.027
-200.333	46.961	0.012	-0.011
-199.319	14.920	0.226	0.176
-198.304	-52.493	-0.104	0.048
-197.290	-200.000	0.003	0.154
-196.275	-14.108	0.068	-0.044
-195.260	262.992	-0.055	-0.094
-194.246	-31.494	-0.078	-0.044
-193.231	46.507	0.085	-0.079
-192.217	35.990	0.286	-0.251
-191.202	76.729	-0.158	0.167
-190.187	28.195	-0.132	-0.111
-189.173	249.660	-0.038	0.064
-188.158	411.011	-0.108	0.227
-187.144	-30.350	-0.389	0.220
-186.129	277.171	-0.200	0.355
-185.114	25.651	0.341	-0.282
-184.100	-200.000	-0.016	0.115
-183.085	-200.000	-0.009	-0.064
-182.071	54.108	-0.344	-0.330
-181.056	17.463	-0.368	0.291
-180.042	685.485	-0.096	0.248
-179.027	150.675	-0.105	-0.142
-178.012	280.755	-0.057	-0.102
-176.998	-84.039	0.184	-0.058
-175.983	-155.739	0.264	0.017
-174.969	28.505	-0.168	0.142
-173.954	148.624	-0.177	0.238
-172.939	647.272	-0.089	0.227
-171.925	-200.000	-0.006	0.239
-170.910	-40.578	0.159	-0.082
-169.896	80.102	0.194	-0.207
-168.881	-200.000	0.002	0.150
-167.866	226.594	0.183	-0.296
-166.852	-200.000	0.016	-0.153
-165.837	-107.339	0.191	-0.042
-164.823	286.165	0.061	0.110
-163.808	-5.345	0.080	0.055
-162.793	-149.439	-0.082	0.006
-161.779	759.419	-0.057	-0.154
-160.764	-131.401	0.139	0.018
-159.750	-200.000	0.005	0.230
-158.735	-54.797	0.253	-0.114
-157.720	-112.784	0.200	0.039
-156.706	418.833	0.107	0.227
-155.691	162.001	-0.074	0.104
-154.677	73.456	0.307	-0.320
-153.662	481.278	-0.149	-0.336
-152.647	232.361	-0.104	-0.169
-151.633	800.000	-0.025	0.075
-150.618	800.000	-0.104	-0.389
-149.604	-200.000	-0.023	0.169
-148.589	800.000	-0.057	0.206
-147.574	-165.030	0.283	0.013
-146.560	176.031	-0.103	0.148
-145.545	-197.776	-0.058	0.000
-144.531	141.332	-0.136	-0.179
-143.516	137.592	0.021	0.027
-142.502	-11.867	0.160	-0.104
-141.487	-19.631	0.340	0.209
-140.472	800.000	0.069	-0.228
-139.458	-113.248	-0.126	0.025
-138.443	-157.727	-0.114	0.007
-137.429	52.803	0.042	-0.040
-136.414	40.481	0.070	-0.063
-135.399	163.009	-0.094	-0.131
-134.385	147.079	0.134	0.179
-133.370	800.000	0.062	-0.230
-132.356	-200.000	0.030	-0.306
-131.341	-38.612	0.181	0.095
-130.326	356.010	0.139	-0.275
-129.312	-49.393	-0.032	0.015
-128.297	-86.229	0.433	-0.133
-127.283	658.981	0.045	0.114
-126.268	90.557	-0.193	-0.215
-125.253	-57.401	-0.032	-0.014
-124.239	-109.817	-0.197	-0.041
-123.224	800.000	-0.033	-0.092
-122.210	105.317	0.072	0.084
-121.195	396.382	0.086	-0.178
-120.180	-116.123	-0.245	-0.045
