DTS Sentinel unit serial number:	SN413079Multiplexer serial number:	ORYXHardware model number:	OX4-SRSoftware version number:	ORYX F/W v4.00 Oryx Data Collector v3.7.2.0data status	okinstallation	princeton_trtdifferential loss correction	single-endedforward channel	channel 4reverse channel	N/Adate	2019/09/11time	06:43:10forward acquisition time	60.00reverse acquisition time	0.00gamma	496.2192k internal	0.2314k external	0.2314temperature offset calibration	0.9947default loss term (dB/km)	0.3790temperature slope calibration	1.0000multiplexer offset coefficient	1.0000multiplexer slope coefficient	1.0000fibre end	0.00T internal ref (°C)	29.77T ext. ref 1 (°C)	-0.16T ext. ref 2 (°C)	24.77length (m)	temperature (°C)	Stokes	anti-Stokes-747.200	-96.110	0.302	-0.081
-746.185	-155.708	-0.292	-0.019
-745.171	-91.249	-0.372	0.108
-744.156	-92.832	-0.128	0.036
-743.142	-100.445	-0.286	-0.072
-742.127	51.752	0.151	0.146
-741.112	35.031	0.194	-0.172
-740.098	-200.000	0.003	0.240
-739.083	-130.542	0.111	-0.015
-738.069	51.115	0.286	0.275
-737.054	72.823	0.101	0.107
-736.039	104.445	-0.087	-0.103
-735.025	-67.369	-0.206	-0.082
-734.010	106.530	0.061	-0.073
-732.996	-200.000	-0.061	-0.299
-731.981	-106.625	-0.223	0.050
-730.966	510.173	-0.024	-0.056
-729.952	-100.666	-0.250	0.063
-728.937	-77.235	-0.218	0.077
-727.923	-200.000	-0.016	0.120
-726.908	-36.545	0.268	-0.146
-725.894	-41.889	-0.245	0.127
-724.879	800.000	0.048	-0.166
-723.864	321.771	0.054	-0.104
-722.850	228.770	0.212	-0.350
-721.835	12.224	-0.063	-0.049
-720.821	800.000	-0.065	-0.202
-719.806	132.392	-0.138	-0.180
-718.791	-177.948	0.313	-0.008
-717.777	609.772	-0.111	-0.280
-716.762	-153.904	0.428	0.030
-715.748	-62.634	0.312	-0.131
-714.733	-20.807	0.391	-0.243
-713.718	-44.130	-0.088	-0.045
-712.704	79.946	-0.149	0.162
-711.689	-194.788	0.130	-0.001
-710.675	-200.000	0.081	0.369
-709.660	-22.418	-0.096	-0.059
-708.645	-91.283	-0.145	0.042
-707.631	34.049	0.189	0.166
-706.616	200.759	-0.114	0.177
-705.602	178.857	0.137	0.203
-704.587	-54.007	-0.225	-0.104
-703.572	-112.563	0.282	-0.057
-702.558	349.829	0.158	-0.316
-701.543	800.000	0.085	0.300
-700.529	-184.576	0.237	-0.004
-699.514	-33.060	0.125	-0.070
-698.499	395.141	-0.050	-0.105
-697.485	-200.000	-0.041	-0.216
-696.470	-62.625	0.199	0.084
-695.456	800.000	-0.035	-0.120
-694.441	-200.000	0.013	-0.172
-693.426	-11.875	-0.045	0.030
-692.412	-75.207	-0.317	-0.114
-691.397	800.000	0.072	0.311
-690.383	-95.196	-0.291	-0.079
-689.368	-200.000	-0.446	0.001
-688.354	102.147	-0.095	0.113
-687.339	264.971	0.083	-0.147
-686.324	81.602	0.080	-0.088
-685.310	92.916	0.079	0.090
-684.295	52.924	0.253	0.245
-683.281	-7.160	0.201	-0.138
-682.266	206.815	-0.091	0.143
-681.251	714.782	0.099	-0.267
-680.237	330.083	-0.246	-0.478
-679.222	-124.207	-0.207	-0.033
-678.208	-119.467	-0.170	-0.030
-677.193	-200.000	-0.014	-0.096
-676.178	224.787	0.087	0.143
-675.164	96.602	0.161	0.187
-674.149	565.872	-0.125	-0.307
-673.135	-75.079	0.172	0.062
-672.120	67.523	-0.083	-0.085
-671.105	442.828	0.155	-0.344
-670.091	99.195	-0.139	-0.162
-669.076	143.696	0.059	-0.079
-668.062	-46.269	-0.259	-0.129
-667.047	25.562	-0.124	-0.104
-666.032	-164.090	-0.348	0.016
-665.018	-178.294	0.087	-0.002
-664.003	-39.072	-0.086	0.046
-662.989	7.848	0.222	0.169
-661.974	115.364	-0.092	-0.113
-660.959	-75.461	0.072	-0.026
-659.945	800.000	0.123	-0.368
-658.930	-117.273	-0.212	0.039
-657.916	51.522	-0.153	-0.147
-656.901	-200.000	0.008	0.073
-655.886	800.000	-0.089	-0.263
-654.872	-131.139	-0.277	-0.037
-653.857	11.825	-0.273	0.212
-652.843	800.000	0.027	-0.113
-651.828	-200.000	0.024	-0.133
-650.814	-200.000	-0.004	-0.056
-649.799	-200.000	0.002	-0.098
-648.784	-131.685	0.130	0.017
-647.770	490.253	0.053	0.123
-646.755	33.219	-0.178	-0.156
-645.741	-200.000	-0.007	0.143
-644.726	27.203	-0.104	0.088
-643.711	800.000	0.059	-0.185
-642.697	113.242	-0.153	0.188
-641.682	231.938	0.047	0.078
-640.668	-200.000	-0.011	-0.053
-639.653	-200.000	0.012	-0.336
-638.638	-46.353	0.063	-0.031
-637.624	-52.012	0.035	-0.017
-636.609	260.350	0.249	0.434
-635.595	-92.604	-0.053	-0.015
-634.580	58.476	0.145	0.144
-633.565	79.757	-0.056	-0.061
-632.551	-197.928	0.244	-0.001
-631.536	-200.000	-0.079	-0.550
-630.522	-125.429	0.352	-0.054
-629.507	-66.735	0.060	0.024
-628.492	-96.420	0.395	0.106
-627.478	-82.054	-0.127	-0.042
-626.463	-121.089	-0.335	-0.057
-625.449	-200.000	-0.007	0.039
-624.434	368.870	0.067	0.137
-623.419	221.473	0.163	-0.264
-622.405	109.060	-0.073	0.088
-621.390	-120.661	-0.102	-0.017
-620.376	90.842	0.143	-0.162
-619.361	-89.170	0.131	-0.039
-618.346	800.000	-0.038	-0.119
-617.332	219.091	-0.263	-0.424
-616.317	-2.210	-0.201	0.142
-615.303	800.000	0.069	-0.228
-614.288	-200.000	0.026	0.404
-613.273	800.000	0.078	0.325
-612.259	-31.965	-0.264	0.149
-611.244	-113.749	0.126	0.025
-610.230	-95.322	0.299	0.081
-609.215	-200.000	0.019	0.210
-608.201	-149.524	-0.130	-0.010
-607.186	15.694	-0.282	0.224
-606.171	133.173	-0.054	-0.070
-605.157	681.162	-0.080	-0.210
-604.142	-75.131	-0.413	-0.149
-603.128	-61.747	0.205	-0.086
-602.113	251.451	-0.139	-0.238
-601.098	800.000	0.046	-0.186
-600.084	-26.895	-0.348	-0.205
-599.069	83.202	-0.162	0.178
-598.055	-200.000	0.013	-0.272
-597.040	52.499	0.190	0.183
-596.025	152.302	0.220	0.302
-595.011	-138.380	0.150	0.017
-593.996	-69.372	-0.327	0.126
-592.982	-33.151	-0.318	0.178
-591.967	-144.585	0.284	0.026
-590.952	4.180	-0.152	0.112
-589.938	-71.210	-0.054	0.020
-588.923	-200.000	0.009	-0.182
-587.909	-149.707	-0.284	-0.023
-586.894	-195.120	0.191	0.001
-585.879	-200.000	-0.042	-0.196
-584.865	-200.000	0.027	0.445
-583.850	191.977	0.148	-0.225
-582.836	-92.589	-0.100	0.028
-581.821	665.631	0.055	0.143
-580.806	-34.727	-0.236	0.130
-579.792	-168.207	0.221	0.009
-578.777	-87.317	-0.343	0.105
-577.763	153.238	-0.053	0.073
-576.748	303.395	-0.091	-0.170
-575.733	-200.000	-0.025	-0.207
-574.719	800.000	-0.124	-0.388
-573.704	-200.000	-0.028	-0.218
-572.690	-200.000	-0.013	0.162
-571.675	310.335	0.038	-0.071
-570.661	38.930	-0.126	-0.113
-569.646	-200.000	0.010	0.072
-568.631	94.456	0.151	-0.173
-567.617	107.527	-0.107	-0.128
-566.602	-135.265	-0.264	0.032
-565.588	-132.725	0.114	0.015
-564.573	-200.000	-0.033	0.285
-563.558	601.007	0.149	0.373
-562.544	800.000	0.039	0.141
-561.529	121.378	-0.264	0.331
-560.515	381.542	-0.091	-0.187
-559.500	614.208	-0.056	0.142
-558.485	-200.000	-0.022	-0.141
-557.471	-40.068	0.152	-0.080
-556.456	-81.045	-0.143	0.048
-555.442	65.319	-0.182	0.185
-554.427	363.715	-0.119	0.241
-553.412	-70.936	0.316	0.120
-552.398	124.618	0.215	-0.273
-551.383	85.033	-0.056	-0.062
-550.369	-132.874	-0.142	-0.018
-549.354	59.592	0.276	0.273
-548.339	-66.816	-0.472	-0.188
-547.325	479.973	-0.056	-0.127
-546.310	-200.000	0.049	0.262
-545.296	800.000	-0.103	0.354
-544.281	-47.668	-0.211	-0.103
-543.266	242.322	-0.224	-0.377
-542.252	-200.000	-0.022	0.242
-541.237	123.680	-0.134	0.169
-540.223	-200.000	-0.011	0.128
-539.208	-200.000	-0.031	0.144
-538.193	-31.494	0.082	-0.046
-537.179	-200.000	0.007	0.168
-536.164	-78.244	-0.050	-0.017
-535.150	72.921	-0.091	0.096
-534.135	-200.000	0.006	0.161
-533.121	481.153	0.135	-0.308
-532.106	448.005	0.102	-0.227
-531.091	12.992	0.143	0.112
-530.077	-165.780	0.338	0.015
-529.062	-104.501	0.168	0.039
-528.048	344.322	0.058	-0.115
-527.033	180.166	-0.129	0.190
-526.018	800.000	-0.064	-0.188
-525.004	-200.000	-0.014	-0.275
-523.989	-102.868	-0.402	-0.096
-522.975	187.043	-0.222	0.332
-521.960	7.197	0.215	0.161
-520.945	-8.116	-0.202	0.137
-519.931	-96.767	-0.458	-0.121
-518.916	-36.331	-0.245	0.133
-517.902	120.052	0.061	-0.076
-516.887	663.812	-0.058	-0.151
-515.872	-71.961	-0.283	0.106
-514.858	-50.477	0.126	0.060
-513.843	137.657	-0.281	-0.369
-512.829	-200.000	-0.025	0.331
-511.814	-200.000	0.013	-0.157
-510.799	-111.825	-0.090	-0.018
-509.785	-55.630	0.198	0.089
-508.770	134.797	-0.115	0.151
-507.756	23.423	-0.100	-0.082
-506.741	-84.130	0.052	-0.017
-505.726	81.760	0.203	-0.221
-504.712	105.569	-0.111	0.132
-503.697	91.112	-0.292	-0.329
-502.683	-155.065	-0.171	-0.011
-501.668	-105.827	0.205	0.047
-500.653	8.870	0.428	0.324
-499.639	800.000	0.033	0.108
-498.624	380.478	0.116	-0.239
-497.610	-84.000	-0.209	0.067
-496.595	-200.000	-0.040	-0.307
-495.581	-74.287	0.281	-0.102
-494.566	-142.544	-0.341	-0.034
-493.551	123.370	0.070	0.088
-492.537	800.000	0.068	0.276
-491.522	-33.956	0.345	0.190
-490.508	-200.000	-0.001	-0.169
-489.493	29.635	0.097	0.083
-488.478	800.000	-0.119	0.474
-487.464	76.388	0.181	0.193
-486.449	-200.000	0.054	0.363
-485.435	-124.757	-0.533	-0.083
-484.420	-175.135	-0.175	-0.005
-483.405	54.203	0.357	0.345
-482.391	-94.828	0.065	-0.018
-481.376	-133.933	-0.153	-0.019
-480.362	81.642	-0.105	-0.114
-479.347	237.210	-0.121	-0.202
-478.332	-90.184	-0.087	0.025
-477.318	561.608	0.031	-0.075
-476.303	-200.000	0.012	-0.066
-475.289	260.262	0.046	-0.079
-474.274	-141.770	-0.308	-0.031
-473.259	3.807	-0.126	0.092
-472.245	46.330	-0.258	0.240
-471.230	-93.753	0.379	0.105
-470.216	-76.897	-0.422	0.148
-469.201	-141.842	0.298	-0.030
-468.186	175.677	-0.095	0.138
-467.172	-200.000	-0.025	0.455
-466.157	-37.597	-0.191	0.102
-465.143	-115.385	0.529	-0.100
-464.128	-200.000	-0.005	0.091
-463.113	44.313	-0.155	-0.142
-462.099	-200.000	-0.001	-0.431
-461.084	-42.127	-0.191	-0.098
-460.070	-158.323	-0.069	0.004
-459.055	-200.000	-0.015	-0.112
-458.040	-0.117	0.145	-0.103
-457.026	-153.595	-0.240	0.017
-456.011	-200.000	0.041	-0.191
-454.997	-5.979	0.084	0.058
-453.982	-142.703	0.289	0.028
-452.968	56.866	-0.242	0.236
-451.953	800.000	-0.042	0.163
-450.938	-155.786	-0.388	0.025
-449.924	397.035	-0.108	-0.226
-448.909	16.515	0.053	-0.042
-447.895	387.643	0.069	0.143
-446.880	-52.939	0.339	-0.156
-445.865	177.325	0.182	-0.266
-444.851	66.627	-0.100	-0.102
-443.836	-24.424	-0.238	-0.142
-442.822	54.987	0.148	0.143
-441.807	-200.000	0.000	0.228
-440.792	800.000	0.029	-0.115
-439.778	-140.619	0.421	0.044
-438.763	139.475	-0.078	-0.102
-437.749	383.582	0.085	-0.176
-436.734	-59.125	0.230	-0.099
-435.719	-136.016	0.356	0.042
-434.705	29.200	0.098	0.084
-433.690	-59.958	0.220	0.094
-432.676	-71.604	-0.147	0.055
-431.661	143.243	0.156	0.208
-430.646	395.985	-0.052	0.109
-429.632	-111.074	0.139	-0.029
-428.617	-200.000	-0.039	0.222
-427.603	55.929	0.396	-0.385
-426.588	-0.983	0.191	-0.135
-425.573	339.082	-0.197	-0.384
-424.559	-24.017	-0.064	0.038
-423.544	217.797	-0.066	-0.105
-422.530	83.278	-0.218	0.237
-421.515	141.778	0.176	0.234
-420.500	-53.235	-0.152	0.070
-419.486	292.611	0.081	-0.147
-418.471	58.139	-0.170	-0.167
-417.457	-41.471	0.356	-0.183
-416.442	-33.364	-0.367	0.203
-415.428	117.746	0.078	-0.096
-414.413	-14.277	-0.257	0.166
-413.398	800.000	-0.102	0.383
-412.384	800.000	0.043	0.144
-411.369	-171.318	0.204	0.007
-410.355	800.000	0.041	-0.178
-409.340	-58.331	-0.169	-0.073
-408.325	4.642	0.104	-0.076
-407.311	-18.706	-0.062	-0.039
-406.296	227.465	-0.200	-0.326
-405.282	256.105	0.126	-0.217
-404.267	244.895	-0.084	0.141
-403.252	-200.000	0.054	-0.294
-402.238	614.616	-0.121	-0.304
-401.223	277.021	0.065	0.116
-400.209	541.295	-0.059	0.142
-399.194	800.000	0.037	-0.120
-398.179	-40.006	0.360	0.188
-397.165	692.386	-0.070	-0.184
-396.150	207.042	0.101	-0.158
-395.136	281.214	-0.115	0.205
-394.121	282.915	-0.230	0.413
-393.106	-200.000	-0.014	0.303
-392.092	-200.000	0.043	0.265
-391.077	43.078	0.247	-0.226
-390.063	70.038	0.144	-0.148
-389.048	-200.000	0.010	-0.156
-388.033	-200.000	0.005	-0.143
-387.019	-81.824	0.113	-0.037
-386.004	-15.774	-0.244	0.155
-384.990	-200.000	0.018	-0.104
-383.975	-139.668	-0.323	-0.034
-382.960	-200.000	-0.051	-0.265
-381.946	-55.972	0.342	-0.153
-380.931	-44.972	0.311	-0.155
-379.917	-94.581	0.171	-0.046
-378.902	436.691	-0.119	-0.259
-377.888	178.804	0.071	0.103
-376.873	44.537	-0.143	0.132
-375.858	751.925	-0.096	0.258
-374.844	-200.000	0.012	-0.056
-373.829	29.928	-0.107	0.091
-372.815	126.406	0.076	-0.096
-371.800	-68.849	0.273	-0.105
-370.785	96.272	0.142	0.162
-369.771	-70.094	0.121	0.046
-368.756	-107.894	-0.072	0.016
-367.742	-200.000	0.026	-0.172
-366.727	-99.788	-0.203	-0.051
-365.712	-86.117	-0.092	0.028
-364.698	308.617	0.208	-0.387
-363.683	-72.991	-0.245	0.090
-362.669	-200.000	-0.001	0.044
-361.654	155.978	0.269	0.370
-360.639	-21.941	0.315	0.192
-359.625	241.581	-0.133	0.222
-358.610	-200.000	0.016	-0.153
-357.596	-65.711	0.244	0.098
-356.581	-200.000	-0.047	-0.243
-355.566	160.254	0.086	-0.120
-354.552	449.165	-0.062	0.136
-353.537	525.562	-0.072	0.169
-352.523	-54.387	-0.234	0.106
-351.508	205.080	-0.089	-0.138
-350.493	-97.633	-0.550	0.142
-349.479	260.039	0.191	-0.329
-348.464	66.298	-0.159	0.161
-347.450	138.589	0.150	0.197
-346.435	231.807	-0.092	0.150
-345.420	740.160	0.038	0.101
-344.406	-175.147	0.171	-0.005
-343.391	797.414	-0.079	0.219
-342.377	136.437	0.115	0.149
-341.362	-99.610	0.091	-0.023
-340.348	800.000	-0.049	0.154
-339.333	72.308	0.131	-0.136
-338.318	431.598	0.236	0.510
-337.304	-200.000	-0.040	-0.325
-336.289	-200.000	0.007	0.194
-335.275	-20.212	-0.338	-0.208
-334.260	-1.006	-0.122	-0.086
-333.245	553.811	0.012	-0.030
-332.231	-52.099	0.113	0.052
-331.216	-200.000	0.036	0.169
-330.202	800.000	-0.012	-0.049
-329.187	5.273	0.045	-0.033
-328.172	-200.000	0.008	-0.077
-327.158	33.823	0.207	-0.179
-326.143	44.372	0.298	0.273
-325.129	-200.000	0.044	0.342
-324.114	643.190	0.048	0.121
-323.099	-85.421	0.175	-0.054
-322.085	-58.702	-0.190	-0.082
-321.070	357.545	-0.191	0.380
-320.056	-122.068	0.206	0.034
-319.041	292.458	0.093	0.168
-318.026	-200.000	-0.000	0.141
-317.012	108.897	-0.161	-0.192
-315.997	-28.755	-0.162	0.093
-314.983	-63.357	0.116	-0.048
-313.968	474.755	-0.177	-0.399
-312.953	29.219	0.056	-0.047
-311.939	-200.000	-0.003	0.057
-310.924	-183.942	-0.213	-0.004
-309.910	-57.996	0.231	-0.101
-308.895	-99.712	-0.180	0.045
-307.880	109.869	0.137	-0.164
-306.866	-30.902	-0.198	0.111
-305.851	-110.642	-0.273	0.056
-304.837	-67.612	-0.075	0.029
-303.822	800.000	-0.063	0.202
-302.807	11.848	0.106	-0.081
-301.793	800.000	0.055	0.166
-300.778	-200.000	0.090	0.444
-299.764	-200.000	0.037	-0.192
-298.749	109.915	0.244	-0.292
-297.735	207.363	0.039	0.061
-296.720	800.000	0.039	0.122
-295.705	465.672	0.155	-0.345
-294.691	268.228	-0.136	-0.237
-293.676	16.972	0.212	-0.167
-292.662	330.665	0.185	0.356
-291.647	-0.664	-0.259	-0.183
-290.632	-3.755	0.148	0.103
-289.618	564.480	0.131	0.316
-288.603	-108.340	0.172	-0.037
-287.589	115.813	-0.184	-0.225
-286.574	-134.563	0.396	-0.048
-285.559	-146.909	0.142	0.012
-284.545	800.000	0.042	0.167
-283.530	225.392	0.101	0.163
-282.516	-61.528	0.146	0.061
-281.501	-200.000	-0.002	-0.355
-280.486	54.809	-0.133	0.128
-279.472	642.865	-0.231	-0.586
-278.457	-52.825	-0.058	0.027
-277.443	-200.000	0.080	0.359
-276.428	-136.970	0.187	0.021
-275.413	-156.297	-0.016	-0.001
-274.399	523.832	-0.038	0.090
-273.384	800.000	0.043	-0.156
-272.370	800.000	0.073	-0.270
-271.355	-200.000	-0.006	0.324
-270.340	-72.404	-0.304	-0.112
-269.326	368.633	-0.127	-0.255
-268.311	-49.216	0.218	-0.104
-267.297	-200.000	0.055	-0.335
-266.282	-121.854	-0.167	-0.027
-265.267	-106.887	-0.258	0.057
-264.253	319.440	0.075	-0.141
-263.238	129.029	-0.195	-0.247
-262.224	2.102	0.206	0.148
-261.209	23.255	-0.260	0.213
-260.195	158.522	-0.184	-0.255
-259.180	59.649	0.024	0.024
-258.165	-69.542	-0.314	0.120
-257.151	134.543	-0.107	0.138
-256.136	-158.316	0.320	-0.019
-255.122	160.438	0.017	-0.023
-254.107	-108.738	0.225	-0.048
-253.092	-200.000	-0.006	0.174
-252.078	248.016	0.088	-0.149
-251.063	-160.099	-0.121	0.007
-250.049	-110.333	-0.325	0.067
-249.034	290.948	-0.178	-0.323
-248.019	109.541	0.139	-0.165
-247.005	-200.000	0.045	-0.262
-245.990	53.782	0.122	-0.116
-244.976	-150.953	0.150	-0.011
-243.961	-111.971	-0.039	-0.008
-242.946	-51.462	0.268	-0.125
-241.932	-112.086	-0.171	0.034
-240.917	-142.693	0.370	0.036
-239.903	-53.089	-0.168	-0.077
-238.888	85.745	-0.398	-0.435
-237.873	-200.000	0.021	-0.406
-236.859	-200.000	0.014	-0.062
-235.844	102.969	-0.201	0.234
-234.830	800.000	0.070	0.194
-233.815	-148.600	-0.241	0.020
-232.800	15.055	-0.159	-0.123
-231.786	39.426	-0.114	0.101
-230.771	-3.122	0.128	-0.088
-229.757	199.004	-0.098	0.150
-228.742	162.750	0.227	0.317
-227.727	-175.399	0.365	0.010
-226.713	-200.000	0.019	-0.310
-225.698	-172.120	-0.231	0.007
-224.684	100.609	0.237	-0.274
-223.669	-200.000	-0.050	-0.217
-222.655	66.692	0.244	-0.246
-221.640	109.006	-0.144	-0.171
-220.625	-109.398	-0.097	0.020
-219.611	26.153	-0.139	-0.115
-218.596	199.084	-0.074	-0.113
-217.582	-200.000	-0.039	0.204
-216.567	800.000	0.079	0.303
-215.552	-13.196	0.153	-0.099
-214.538	800.000	0.049	-0.143
-213.523	-165.071	0.427	-0.019
-212.509	113.748	0.026	0.031
-211.494	261.592	-0.145	-0.249
-210.479	65.394	0.281	0.283
-209.465	303.764	-0.041	-0.075
-208.450	-32.575	0.071	0.039
-207.436	800.000	0.056	0.199
-206.421	217.404	0.136	-0.215
-205.406	-25.024	0.382	0.225
-204.392	118.514	0.075	-0.092
-203.377	-200.000	0.024	0.293
-202.363	800.000	-0.057	0.197
-201.348	108.723	-0.108	-0.128
-200.333	800.000	-0.090	0.307
-199.319	423.549	-0.030	-0.064
-198.304	-102.985	-0.092	-0.022
-197.290	-48.391	0.181	0.086
-196.275	800.000	-0.126	-0.355
-195.260	-86.432	0.336	0.103
-194.246	60.420	-0.160	-0.157
-193.231	40.025	0.183	0.164
-192.217	578.477	-0.055	0.134
-191.202	360.691	0.119	0.237
-190.187	119.106	0.121	0.149
-189.173	-200.000	-0.030	-0.207
-188.158	-41.021	0.215	-0.110
-187.144	14.955	0.169	-0.131
-186.129	-200.000	0.004	-0.210
-185.114	-82.654	0.227	0.073
-184.100	-133.519	0.136	0.017
-183.085	706.332	0.068	0.177
-182.071	-68.002	0.067	-0.026
-181.056	58.710	0.335	-0.326
-180.042	7.550	0.225	0.167
-179.027	155.784	0.114	0.155
-178.012	-147.229	-0.098	0.008
-176.998	800.000	0.102	-0.413
-175.983	-200.000	-0.028	0.189
-174.969	-181.296	-0.203	0.004
-173.954	-137.578	0.152	-0.017
-172.939	800.000	-0.043	0.120
-171.925	-57.094	-0.365	0.159
-170.910	268.380	-0.068	0.119
-169.896	-53.820	-0.248	-0.112
-168.881	21.209	-0.264	-0.213
-167.866	-200.000	0.007	0.234
-166.852	-16.592	0.071	-0.044
-165.837	-50.507	-0.225	-0.105
-164.823	-167.279	0.363	-0.015
-163.808	137.888	0.225	-0.292
-162.793	-22.662	-0.263	-0.157
-161.779	-118.888	-0.105	0.018
-160.764	255.147	-0.175	0.296
-159.750	-105.988	-0.142	0.032
-158.735	-119.082	0.224	-0.039
-157.720	8.032	-0.178	-0.132
-156.706	-56.837	0.255	0.112
-155.691	216.119	0.143	0.225
-154.677	800.000	-0.059	-0.256
-153.662	-50.128	-0.096	0.045
-152.647	182.864	-0.140	0.205
-151.633	-60.033	-0.201	-0.085
-150.618	-97.138	0.151	-0.039
-149.604	15.652	0.160	0.125
-148.589	-55.822	-0.227	0.101
-147.574	-155.902	0.160	0.010
-146.560	440.302	0.127	-0.274
-145.545	613.050	0.084	-0.209
-144.531	280.435	-0.112	0.198
-143.516	-83.480	-0.297	-0.094
-142.502	218.568	0.038	-0.060
-141.487	-36.083	-0.307	0.164
-140.472	-133.889	0.596	0.073
-139.458	-200.000	-0.036	-0.265
-138.443	349.611	0.135	0.264
-137.429	404.277	0.147	-0.306
-136.414	90.031	0.313	0.346
-135.399	-200.000	0.039	-0.470
-134.385	-119.071	-0.356	-0.062
-133.370	-200.000	-0.016	-0.161
-132.356	62.163	0.322	-0.318
-131.341	158.578	0.040	-0.055
-130.326	-76.606	0.294	0.102
-129.312	-131.708	0.240	-0.031
-128.297	37.066	-0.050	0.044
-127.283	-84.236	0.156	-0.049
-126.268	-22.976	-0.084	-0.050
-125.253	-51.983	0.152	-0.070
-124.239	-160.160	0.196	-0.011
-123.224	800.000	-0.053	-0.185
-122.210	-200.000	0.078	-0.345
