DTS Sentinel unit serial number:	SN413079Multiplexer serial number:	ORYXHardware model number:	OX4-SRSoftware version number:	ORYX F/W v4.00 Oryx Data Collector v3.7.2.0data status	okinstallation	princeton_trtdifferential loss correction	single-endedforward channel	channel 4reverse channel	N/Adate	2019/09/12time	02:31:10forward acquisition time	60.00reverse acquisition time	0.00gamma	496.2192k internal	0.2309k external	0.2309temperature offset calibration	1.0089default loss term (dB/km)	0.3790temperature slope calibration	1.0000multiplexer offset coefficient	1.0000multiplexer slope coefficient	1.0000fibre end	0.00T internal ref (°C)	32.45T ext. ref 1 (°C)	2.06T ext. ref 2 (°C)	27.23length (m)	temperature (°C)	Stokes	anti-Stokes-747.200	800.000	-0.023	-0.067
-746.185	406.970	-0.078	0.167
-745.171	772.082	0.061	-0.168
-744.156	460.325	0.191	0.432
-743.142	128.355	0.210	-0.272
-742.127	731.889	0.057	0.154
-741.112	-41.622	0.166	0.086
-740.098	-98.954	0.101	0.026
-739.083	74.667	-0.061	-0.066
-738.069	-108.879	-0.098	-0.021
-737.054	9.824	-0.172	0.132
-736.039	-26.565	0.104	0.062
-735.025	-200.000	0.008	-0.144
-734.010	80.044	0.231	0.252
-732.996	144.933	-0.043	0.059
-731.981	305.591	-0.145	0.275
-730.966	-93.219	0.331	-0.093
-729.952	-200.000	0.036	0.321
-728.937	256.054	-0.098	0.171
-727.923	-200.000	-0.027	-0.193
-726.908	39.004	-0.318	-0.288
-725.894	-200.000	0.001	-0.091
-724.879	325.826	-0.031	0.060
-723.864	-162.808	0.145	-0.007
-722.850	-139.098	0.066	-0.007
-721.835	111.806	0.057	-0.069
-720.821	-198.356	-0.320	-0.002
-719.806	-200.000	-0.030	-0.237
-718.791	6.557	0.412	-0.310
-717.777	-77.541	0.187	0.066
-716.762	800.000	-0.060	0.235
-715.748	-62.173	0.117	-0.050
-714.733	-200.000	-0.058	-0.379
-713.718	-111.615	0.212	0.044
-712.704	800.000	-0.061	0.268
-711.689	175.464	0.095	-0.140
-710.675	-200.000	0.052	-0.639
-709.660	143.501	0.139	-0.187
-708.645	-200.000	-0.000	0.024
-707.631	-115.645	0.229	0.044
-706.616	149.094	0.104	0.143
-705.602	114.788	-0.074	0.091
-704.587	257.603	0.014	-0.025
-703.572	-200.000	-0.076	-0.408
-702.558	-112.497	-0.324	-0.066
-701.543	-200.000	-0.006	-0.046
-700.529	-15.328	0.350	0.227
-699.514	474.654	-0.103	-0.235
-698.499	-35.258	-0.059	0.033
-697.485	11.238	0.246	-0.191
-696.470	-65.449	0.093	-0.038
-695.456	800.000	0.039	-0.154
-694.441	167.206	-0.052	-0.075
-693.426	494.969	-0.095	0.221
-692.412	-84.911	0.131	-0.042
-691.397	113.702	-0.037	-0.045
-690.383	-131.998	-0.113	0.015
-689.368	-172.029	0.106	0.003
-688.354	-3.686	-0.032	0.023
-687.339	141.813	-0.149	-0.200
-686.324	-18.197	-0.105	0.067
-685.310	-25.714	-0.131	0.078
-684.295	716.678	0.097	-0.262
-683.281	18.399	0.156	-0.127
-682.266	339.736	0.037	-0.073
-681.251	769.521	0.094	-0.259
-680.237	-85.657	-0.142	-0.045
-679.222	-200.000	-0.065	-0.297
-678.208	-64.501	0.119	-0.049
-677.193	-122.149	-0.327	0.054
-676.178	295.528	-0.130	0.241
-675.164	-12.616	-0.141	0.093
-674.149	-200.000	0.012	-0.101
-673.135	768.491	-0.030	-0.082
-672.120	3.670	0.344	0.254
-671.105	-4.319	-0.062	-0.043
-670.091	284.964	-0.038	0.069
-669.076	-86.849	-0.210	0.065
-668.062	-18.800	0.137	-0.087
-667.047	-172.482	-0.340	-0.011
-666.032	800.000	-0.119	0.474
-665.018	40.187	-0.285	-0.260
-664.003	38.748	-0.120	-0.108
-662.989	-117.640	0.117	0.021
-661.974	-151.333	0.249	-0.019
-660.959	-83.769	-0.336	-0.109
-659.945	114.622	-0.133	-0.164
-658.930	-0.880	0.095	-0.068
-657.916	249.788	0.090	0.154
-656.901	303.107	0.047	-0.088
-655.886	17.556	0.087	-0.070
-654.872	-33.110	-0.158	-0.089
-653.857	29.463	0.215	-0.185
-652.843	-200.000	-0.001	-0.099
-651.828	618.073	-0.030	0.076
-650.814	-62.040	0.096	0.040
-649.799	152.215	-0.065	-0.090
-648.784	-0.547	0.202	-0.145
-647.770	-159.897	0.135	0.007
-646.755	-100.434	0.247	0.062
-645.741	-33.075	-0.429	0.241
-644.726	-22.960	-0.165	-0.101
-643.711	-115.790	0.191	0.036
-642.697	-199.032	0.231	-0.001
-641.682	-200.000	0.050	0.241
-640.668	129.334	-0.136	0.175
-639.653	-200.000	0.002	-0.190
-638.638	-200.000	0.067	-0.381
-637.624	-48.506	0.115	-0.056
-636.609	175.074	0.048	0.070
-635.595	16.639	-0.104	0.083
-634.580	-17.298	0.302	0.192
-633.565	74.282	-0.143	-0.152
-632.551	13.050	-0.161	-0.126
-631.536	-200.000	0.016	0.140
-630.522	-82.548	-0.214	0.070
-629.507	-128.651	0.435	-0.062
-628.492	-200.000	0.008	-0.137
-627.478	-200.000	-0.015	0.114
-626.463	799.188	-0.072	0.200
-625.449	800.000	-0.030	-0.093
-624.434	-35.480	-0.045	-0.025
-623.419	51.116	-0.212	-0.203
-622.405	403.458	-0.088	0.187
-621.390	436.449	-0.036	0.079
-620.376	68.740	0.225	0.233
-619.361	-94.958	-0.173	0.047
-618.346	257.000	-0.046	-0.080
-617.332	-200.000	0.012	-0.189
-616.317	-200.000	0.001	-0.062
-615.303	-47.226	-0.256	-0.126
-614.288	-76.985	0.103	0.036
-613.273	19.611	-0.091	0.074
-612.259	-176.123	-0.103	-0.003
-611.244	383.686	0.018	0.038
-610.230	533.946	0.053	0.127
-609.215	-184.417	0.309	0.005
-608.201	-200.000	0.011	0.148
-607.186	-200.000	-0.004	0.384
-606.171	-140.826	-0.133	-0.014
-605.157	-200.000	-0.022	-0.170
-604.142	-105.423	-0.103	-0.024
-603.128	89.825	0.149	-0.168
-602.113	-148.436	-0.207	0.017
-601.098	-200.000	0.055	-0.260
-600.084	99.645	-0.113	-0.132
-599.069	48.738	0.400	-0.379
-598.055	-61.914	-0.206	-0.087
-597.040	-120.167	-0.190	-0.033
-596.025	-69.221	-0.021	-0.008
-595.011	-120.103	0.295	0.051
-593.996	-63.319	-0.162	0.068
-592.982	7.825	-0.100	0.076
-591.967	39.792	0.213	-0.193
-590.952	92.046	0.043	-0.049
-589.938	-83.880	0.209	-0.067
-588.923	800.000	-0.070	0.293
-587.909	800.000	-0.063	-0.200
-586.894	34.340	-0.130	0.115
-585.879	-200.000	-0.041	0.271
-584.865	3.120	-0.111	0.082
-583.850	-86.140	-0.068	0.021
-582.836	147.266	0.123	0.167
-581.821	22.044	0.145	0.120
-580.806	71.145	0.282	0.295
-579.792	-200.000	0.007	-0.044
-578.777	-82.540	-0.194	-0.064
-577.763	-47.307	-0.252	-0.124
-576.748	-83.416	0.095	-0.031
-575.733	42.329	0.136	0.125
-574.719	800.000	-0.080	-0.239
-573.704	28.620	0.195	-0.166
-572.690	-128.833	-0.354	0.050
-571.675	279.352	-0.202	-0.364
-570.661	-40.411	0.272	0.143
-569.646	594.915	-0.078	0.196
-568.631	-121.239	0.203	-0.034
-567.617	800.000	-0.086	-0.372
-566.602	317.046	-0.037	0.070
-565.588	355.768	-0.085	0.170
-564.573	-137.638	-0.112	0.013
-563.558	309.310	0.090	0.170
-562.544	-200.000	-0.010	0.150
-561.529	-65.712	0.191	0.077
-560.515	24.162	0.137	0.114
-559.500	-180.038	-0.204	0.004
-558.485	294.440	0.111	-0.204
-557.471	111.266	-0.136	-0.165
-556.456	-162.111	-0.311	0.016
-555.442	170.814	-0.108	-0.156
-554.427	-76.146	-0.218	-0.078
-553.412	800.000	0.048	-0.201
-552.398	52.184	-0.185	-0.178
-551.383	192.849	0.072	-0.110
-550.369	34.677	0.118	-0.104
-549.354	-200.000	0.020	-0.326
-548.339	223.501	0.189	-0.307
-547.325	126.195	0.103	0.131
-546.310	100.939	-0.120	-0.141
-545.296	-25.771	-0.049	-0.029
-544.281	363.495	-0.053	-0.107
-543.266	-172.233	-0.612	0.020
-542.252	-109.524	0.098	0.021
-541.237	-200.000	0.023	0.139
-540.223	-200.000	-0.023	-0.206
-539.208	81.499	-0.233	-0.254
-538.193	132.849	-0.073	-0.095
-537.179	-163.785	-0.061	-0.003
-536.164	271.693	-0.106	0.189
-535.150	-101.225	-0.162	-0.040
-534.135	1.842	0.175	-0.127
-533.121	162.623	0.162	0.229
-532.106	46.027	-0.125	0.116
-531.091	6.505	0.090	-0.068
-530.077	800.000	-0.003	0.011
-529.062	195.244	0.195	0.299
-528.048	248.415	-0.146	-0.249
-527.033	-18.349	0.035	-0.022
-526.018	568.436	0.073	0.179
-525.004	40.475	-0.116	0.105
-523.989	57.906	0.324	-0.319
-522.975	377.056	0.068	0.141
-521.960	-48.500	-0.286	0.139
-520.945	800.000	0.086	0.341
-519.931	46.858	-0.152	0.142
-518.916	-200.000	-0.007	-0.290
-517.902	44.391	0.060	0.055
-516.887	-33.230	-0.110	0.061
-515.872	-55.228	-0.113	0.051
-514.858	-134.842	-0.284	0.035
-513.843	220.495	-0.090	0.145
-512.829	20.241	-0.139	-0.113
-511.814	800.000	-0.040	-0.152
-510.799	-181.325	0.138	0.003
-509.785	-121.573	-0.175	-0.029
-508.770	0.022	-0.435	0.312
-507.756	413.528	-0.067	-0.144
-506.741	186.324	-0.013	0.019
-505.726	-2.521	-0.164	-0.115
-504.712	-200.000	-0.006	-0.152
-503.697	-34.795	-0.250	-0.137
-502.683	-60.420	-0.077	-0.033
-501.668	-75.858	-0.074	-0.026
-500.653	-109.234	-0.166	-0.036
-499.639	83.719	-0.239	0.262
-498.624	777.833	0.055	-0.151
-497.610	302.754	0.116	0.217
-496.595	42.883	-0.250	0.229
-495.581	314.589	-0.061	0.115
-494.566	158.700	-0.125	0.175
-493.551	495.028	-0.077	-0.177
-492.537	-200.000	0.013	-0.235
-491.522	-200.000	0.040	0.258
-490.508	-167.193	0.100	-0.004
-489.493	-136.549	0.196	0.023
-488.478	-174.105	0.361	-0.011
-487.464	-73.159	0.214	0.079
-486.449	-200.000	-0.009	-0.098
-485.435	-57.360	0.123	0.054
-484.420	800.000	-0.129	0.377
-483.405	361.972	-0.027	-0.055
-482.391	51.046	0.057	-0.055
-481.376	-171.132	-0.093	0.003
-480.362	16.094	-0.079	0.063
-479.347	-113.466	0.125	-0.025
-478.332	-200.000	0.049	0.233
-477.318	-95.517	0.138	0.037
-476.303	70.437	-0.178	-0.185
-475.289	-116.486	-0.317	-0.059
-474.274	-200.000	0.019	-0.311
-473.259	-200.000	-0.080	0.398
-472.245	18.929	0.360	-0.290
-471.230	-147.178	-0.283	0.024
-470.216	-148.335	-0.340	-0.028
-469.201	-134.526	-0.370	0.045
-468.186	-55.966	-0.346	0.155
-467.172	-141.675	0.337	-0.034
-466.157	800.000	-0.072	-0.266
-465.143	800.000	0.119	0.342
-464.128	-200.000	0.008	0.048
-463.113	800.000	0.009	-0.032
-462.099	-200.000	0.054	-0.278
-461.084	-79.946	-0.048	0.016
-460.070	-17.071	-0.266	-0.169
-459.055	-127.344	0.098	-0.014
-458.040	-33.354	-0.074	0.041
-457.026	-200.000	0.007	-0.048
-456.011	773.686	-0.039	-0.106
-454.997	-124.509	0.074	-0.012
-453.982	23.935	0.079	-0.066
-452.968	291.531	0.073	0.134
-451.953	-200.000	-0.092	0.420
-450.938	46.118	0.100	-0.093
-449.924	6.332	0.092	-0.069
-448.909	20.361	0.164	-0.133
-447.895	-41.346	-0.075	0.039
-446.880	800.000	0.041	-0.172
-445.865	800.000	-0.042	-0.120
-444.851	-80.760	-0.182	0.061
-443.836	264.297	0.065	-0.114
-442.822	706.200	0.054	0.144
-441.807	-200.000	0.067	-0.350
-440.792	415.201	0.055	0.118
-439.778	-51.986	-0.349	0.163
-438.763	132.761	0.227	-0.294
-437.749	-46.807	0.211	-0.104
-436.734	-200.000	-0.012	-0.071
-435.719	62.784	-0.038	0.038
-434.705	-34.606	-0.205	0.113
-433.690	40.272	0.115	0.103
-432.676	122.272	-0.157	-0.197
-431.661	-33.137	0.107	0.060
-430.646	-18.732	0.414	0.259
-429.632	10.675	-0.140	-0.107
-428.617	582.099	-0.051	-0.126
-427.603	-169.990	0.076	0.003
-426.588	-200.000	-0.012	0.357
-425.573	-136.724	-0.234	-0.027
-424.559	-116.071	0.266	0.050
-423.544	174.588	-0.269	-0.390
-422.530	272.554	0.060	0.106
-421.515	800.000	0.086	0.239
-420.500	70.667	-0.118	0.122
-419.486	17.332	0.229	0.182
-418.471	-72.373	-0.110	-0.041
-417.457	800.000	-0.044	0.154
-416.442	-98.621	0.312	0.080
-415.428	-87.843	-0.085	-0.026
-414.413	-82.602	0.018	-0.006
-413.398	116.261	0.202	-0.249
-412.384	-50.720	0.249	0.117
-411.369	155.632	-0.070	0.097
-410.355	-135.709	0.184	0.022
-409.340	800.000	-0.052	-0.176
-408.325	-91.290	0.012	-0.003
-407.311	108.935	-0.113	-0.136
-406.296	-21.045	-0.184	0.113
-405.282	402.140	0.161	-0.338
-404.267	105.742	-0.097	0.115
-403.252	-13.504	-0.251	0.163
-402.238	-141.038	-0.333	-0.034
-401.223	-95.056	-0.323	-0.087
-400.209	132.154	0.245	-0.316
-399.194	-75.721	0.516	-0.183
-398.179	800.000	-0.050	0.200
-397.165	20.103	-0.244	-0.197
-396.150	-101.736	0.126	-0.031
-395.136	-103.655	-0.325	0.076
-394.121	381.769	0.120	-0.247
-393.106	30.643	0.180	0.154
-392.092	-133.740	-0.096	-0.012
-391.077	44.883	0.277	0.255
-390.063	56.304	0.058	0.056
-389.048	4.823	-0.405	-0.299
-388.033	342.340	0.107	-0.211
-387.019	-200.000	0.086	0.402
-386.004	388.157	0.041	0.084
-384.990	303.637	0.159	0.295
-383.975	285.970	-0.145	-0.262
-382.960	131.358	-0.150	-0.194
-381.946	800.000	0.061	0.196
-380.931	-61.084	-0.216	-0.091
-379.917	-66.123	0.196	-0.078
-378.902	513.911	-0.049	-0.115
-377.888	-113.979	-0.227	-0.044
-376.873	570.146	0.083	0.202
-375.858	71.303	0.083	-0.087
-374.844	292.049	0.089	-0.163
-373.829	11.753	0.268	-0.206
-372.815	-200.000	-0.009	0.175
-371.800	-197.210	-0.428	0.003
-370.785	10.601	0.133	0.101
-369.771	-102.801	-0.223	-0.053
-368.756	-65.954	0.154	-0.062
-367.742	285.781	0.152	0.275
-366.727	403.040	-0.258	0.543
-365.712	-111.583	0.064	0.013
-364.698	108.664	-0.101	-0.121
-363.683	138.672	0.083	0.109
-362.669	800.000	0.092	0.313
-361.654	-200.000	-0.019	-0.175
-360.639	-18.335	0.219	-0.137
-359.625	-106.237	0.238	-0.053
-358.610	26.785	-0.244	-0.204
-357.596	395.780	-0.071	-0.148
-356.581	52.601	-0.227	0.217
-355.566	278.021	-0.103	0.183
-354.552	-55.965	-0.129	-0.057
-353.537	-89.468	-0.182	0.053
-352.523	7.648	0.219	-0.164
-351.508	138.257	-0.225	0.295
-350.493	-5.240	0.206	-0.142
-349.479	-132.624	-0.201	-0.026
-348.464	69.838	0.099	0.102
-347.450	24.331	-0.101	-0.083
-346.435	-6.779	0.104	-0.071
-345.420	341.672	0.036	-0.071
-344.406	-200.000	-0.001	-0.243
-343.391	152.458	-0.216	-0.295
-342.377	159.246	-0.175	0.243
-341.362	148.717	0.098	-0.132
-340.348	-45.067	-0.387	-0.193
-339.333	-124.352	0.084	-0.013
-338.318	54.258	0.083	-0.080
-337.304	187.552	0.195	-0.292
-336.289	-1.430	0.225	-0.159
-335.275	224.558	0.076	0.123
-334.260	-160.781	0.256	-0.014
-333.245	-142.050	0.351	-0.035
-332.231	-79.612	0.074	0.025
-331.216	-67.570	-0.235	0.092
-330.202	-96.593	-0.232	-0.061
-329.187	32.168	0.128	0.111
-328.172	800.000	0.093	0.282
-327.158	-56.779	-0.340	-0.150
-326.143	-41.670	0.114	0.058
-325.129	-64.581	-0.492	0.199
-324.114	363.085	0.110	0.220
-323.099	-200.000	-0.039	0.210
-322.085	-93.502	0.212	-0.059
-321.070	-82.027	-0.036	0.012
-320.056	800.000	-0.022	0.072
-319.041	735.499	0.048	-0.128
-318.026	35.086	0.080	-0.070
-317.012	39.596	0.162	0.145
-315.997	-16.363	-0.147	0.093
-314.983	-200.000	0.035	-0.192
-313.968	36.804	-0.221	-0.195
-312.953	519.205	-0.049	-0.115
-311.939	-21.450	-0.139	0.084
-310.924	26.841	-0.157	0.132
-309.910	-200.000	0.045	0.226
-308.895	-8.805	-0.097	0.065
-307.880	-200.000	-0.008	-0.162
-306.866	800.000	-0.026	-0.099
-305.851	-30.844	-0.174	0.098
-304.837	-30.086	0.177	0.100
-303.822	-89.986	0.392	0.114
-302.807	800.000	-0.041	0.170
-301.793	9.278	-0.066	-0.050
-300.778	-200.000	0.004	-0.229
-299.764	-123.065	-0.283	0.045
-298.749	-56.385	0.443	-0.196
-297.735	389.155	-0.061	-0.125
-296.720	29.374	-0.192	-0.163
-295.705	85.610	0.128	0.141
-294.691	-122.641	0.240	0.039
-293.676	572.428	0.096	0.232
-292.662	-122.937	0.184	-0.030
-291.647	-89.138	-0.218	0.064
-290.632	-87.098	0.171	0.052
-289.618	-122.463	0.112	-0.018
-288.603	-200.000	0.029	-0.253
-287.589	-112.186	0.322	-0.065
-286.574	-115.718	-0.162	-0.030
-285.559	182.444	0.125	-0.183
-284.545	18.977	-0.092	-0.074
-283.530	-52.076	0.257	0.119
-282.516	-9.601	-0.040	0.027
-281.501	24.622	-0.046	-0.038
-280.486	-28.974	-0.270	-0.155
-279.472	82.928	0.105	-0.114
-278.457	-62.919	0.221	0.091
-277.443	800.000	-0.070	0.294
-276.428	800.000	-0.050	0.158
-275.413	800.000	0.047	-0.136
-274.399	-141.913	0.069	-0.007
-273.384	73.191	0.180	0.187
-272.370	-127.116	-0.259	-0.038
-271.355	800.000	-0.019	-0.062
-270.340	-200.000	0.033	-0.306
-269.326	-42.976	-0.194	-0.098
-268.311	-180.794	0.368	0.007
-267.297	150.340	-0.168	0.227
-266.282	800.000	0.048	0.204
-265.267	137.998	-0.150	-0.196
-264.253	800.000	0.069	-0.206
-263.238	-2.521	-0.072	-0.050
-262.224	51.435	-0.066	-0.062
-261.209	800.000	0.060	0.186
-260.195	-144.742	0.208	-0.019
-259.180	-200.000	0.018	0.182
-258.165	593.027	-0.018	-0.044
-257.151	2.809	0.107	-0.077
-256.136	-108.542	-0.149	-0.032
-255.122	650.004	-0.023	-0.059
-254.107	430.818	0.013	0.028
-253.092	-4.968	0.280	-0.192
-252.078	-200.000	0.019	-0.171
-251.063	-69.809	-0.220	0.084
-250.049	119.731	0.124	0.153
-249.034	-200.000	0.027	0.000
-248.019	101.144	-0.027	-0.032
-247.005	92.771	-0.195	0.219
-245.990	-62.366	0.239	-0.099
-244.976	-108.609	0.175	-0.037
-243.961	-200.000	-0.073	-0.489
-242.946	737.173	-0.070	0.187
-241.932	-200.000	0.012	-0.061
-240.917	-30.861	0.119	0.067
-239.903	-86.882	0.337	0.102
-238.888	220.748	0.043	0.068
-237.873	130.060	0.091	-0.116
-236.859	-37.112	0.207	0.110
-235.844	-55.641	0.285	0.127
-234.830	800.000	0.121	-0.384
-233.815	800.000	0.045	0.196
-232.800	27.126	0.179	-0.149
-231.786	-71.571	0.138	-0.051
-230.771	149.643	-0.103	0.139
-229.757	48.287	-0.223	0.208
-228.742	158.670	0.164	0.227
-227.727	-12.122	-0.128	-0.083
-226.713	-63.271	0.137	-0.056
-225.698	-154.446	-0.204	-0.014
-224.684	-43.968	0.100	-0.050
-223.669	-106.986	-0.157	-0.035
-222.655	106.652	0.094	0.111
-221.640	284.852	0.083	-0.148
-220.625	34.956	-0.082	-0.071
-219.611	-89.037	0.247	0.073
-218.596	-88.084	0.251	-0.075
-217.582	-14.891	-0.231	0.147
-216.567	800.000	-0.026	0.077
-215.552	390.858	0.066	0.136
-214.538	172.572	-0.120	0.172
-213.523	-200.000	-0.018	0.129
-212.509	332.300	0.069	0.132
-211.494	-19.730	-0.161	0.099
-210.479	-15.499	-0.152	-0.096
-209.465	231.269	0.213	0.347
-208.450	-110.879	-0.107	-0.022
-207.436	-99.274	-0.175	0.044
-206.421	31.520	0.230	0.197
-205.406	211.602	0.249	-0.390
-204.392	21.144	0.174	-0.140
-203.377	-200.000	0.005	-0.070
-202.363	682.165	0.028	-0.074
-201.348	-200.000	-0.065	0.383
-200.333	-29.205	-0.173	0.099
-199.319	800.000	0.116	-0.425
-198.304	-200.000	0.075	-0.340
-197.290	-200.000	-0.097	0.459
-196.275	-200.000	-0.016	-0.124
-195.260	669.912	0.064	0.165
-194.246	114.059	0.274	-0.331
-193.231	685.220	-0.119	-0.308
-192.217	55.919	0.092	0.088
-191.202	-200.000	0.031	0.150
-190.187	800.000	0.067	-0.190
-189.173	-156.778	0.107	0.007
-188.158	26.754	-0.113	0.094
-187.144	-137.405	-0.251	-0.028
-186.129	11.206	0.167	0.127
-185.114	800.000	-0.181	-0.518
-184.100	377.843	-0.072	0.147
-183.085	78.153	0.070	0.074
-182.071	-121.326	0.225	-0.037
-181.056	-76.001	-0.437	-0.154
-180.042	86.438	-0.196	0.215
-179.027	800.000	0.059	0.172
-178.012	-200.000	0.026	-0.237
-176.998	202.075	0.130	0.199
-175.983	-200.000	0.003	0.115
-174.969	-46.182	-0.231	0.113
-173.954	800.000	0.128	-0.405
-172.939	298.068	0.080	0.146
-171.925	800.000	0.021	-0.076
-170.910	272.531	0.037	-0.064
-169.896	209.775	0.151	0.235
-168.881	800.000	-0.069	0.199
-167.866	-200.000	0.013	0.180
-166.852	-200.000	-0.027	0.139
-165.837	-8.648	-0.231	-0.154
-164.823	-200.000	-0.002	0.148
-163.808	-96.226	0.292	0.077
-162.793	23.564	-0.141	-0.115
-161.779	-200.000	0.010	0.219
-160.764	165.505	0.094	0.132
-159.750	-200.000	0.093	0.425
-158.735	-19.985	-0.127	0.078
-157.720	-178.276	0.494	-0.011
-156.706	-136.936	0.556	0.063
-155.691	442.561	-0.089	0.193
-154.677	-146.750	-0.265	-0.023
-153.662	-82.972	0.362	0.116
-152.647	-86.937	0.165	-0.050
-151.633	-200.000	0.011	-0.350
-150.618	800.000	0.043	-0.125
-149.604	800.000	0.035	0.105
-148.589	18.066	0.360	0.285
-147.574	37.660	-0.055	0.048
-146.560	-51.224	-0.133	-0.062
-145.545	-100.868	0.089	-0.022
-144.531	-47.307	0.276	0.133
-143.516	130.798	0.109	0.139
-142.502	-56.773	-0.120	0.053
-141.487	479.796	-0.072	-0.163
-140.472	156.101	0.059	-0.081
-139.458	-57.136	0.361	0.158
-138.443	800.000	-0.032	0.116
-137.429	118.329	-0.304	0.372
-136.414	-146.167	0.125	0.011
-135.399	-200.000	-0.002	-0.088
-134.385	-117.455	0.490	0.088
-133.370	-18.865	-0.193	-0.119
-132.356	-200.000	0.020	-0.149
-131.341	800.000	0.087	0.325
-130.326	329.392	-0.121	0.231
-129.312	406.637	0.027	0.057
-128.297	-137.233	0.056	0.006
-127.283	-112.797	0.169	0.033
-126.268	-12.276	0.081	-0.052
-125.253	-64.876	-0.105	-0.042
-124.239	171.241	0.174	0.247
-123.224	800.000	0.039	0.132
-122.210	134.727	-0.116	-0.149
-121.195	-200.000	0.014	-0.206
