DTS Sentinel unit serial number:	SN413079Multiplexer serial number:	ORYXHardware model number:	OX4-SRSoftware version number:	ORYX F/W v4.00 Oryx Data Collector v3.7.2.0data status	okinstallation	princeton_trtdifferential loss correction	single-endedforward channel	channel 4reverse channel	N/Adate	2019/09/12time	05:31:11forward acquisition time	60.00reverse acquisition time	0.00gamma	496.2192k internal	0.2308k external	0.2308temperature offset calibration	1.0066default loss term (dB/km)	0.3790temperature slope calibration	1.0000multiplexer offset coefficient	1.0000multiplexer slope coefficient	1.0000fibre end	0.00T internal ref (°C)	31.94T ext. ref 1 (°C)	1.61T ext. ref 2 (°C)	27.41length (m)	temperature (°C)	Stokes	anti-Stokes-747.200	-24.128	0.123	0.075
-746.185	112.914	0.174	0.215
-745.171	-152.182	0.045	0.003
-744.156	800.000	-0.058	0.181
-743.142	-62.091	-0.249	0.106
-742.127	158.041	0.202	0.285
-741.112	225.921	-0.084	0.139
-740.098	-51.247	-0.188	0.089
-739.083	138.497	-0.249	0.332
-738.069	-200.000	-0.032	0.489
-737.054	148.455	0.131	-0.179
-736.039	-59.617	-0.139	-0.061
-735.025	-200.000	-0.018	0.157
-734.010	302.356	-0.073	-0.137
-732.996	-20.291	0.059	0.037
-731.981	-200.000	0.007	0.235
-730.966	-103.221	0.339	0.081
-729.952	-149.308	0.261	0.021
-728.937	-127.096	-0.161	0.024
-727.923	59.047	-0.128	0.128
-726.908	800.000	0.069	-0.234
-725.894	141.444	-0.049	0.066
-724.879	202.141	0.116	-0.181
-723.864	800.000	-0.044	-0.175
-722.850	-106.691	-0.233	0.053
-721.835	-23.510	0.221	0.135
-720.821	344.254	-0.089	0.178
-719.806	-200.000	0.012	0.191
-718.791	209.117	0.203	-0.323
-717.777	75.126	-0.170	0.182
-716.762	196.936	0.123	0.190
-715.748	-129.849	-0.102	0.014
-714.733	73.351	-0.161	-0.171
-713.718	800.000	-0.033	-0.133
-712.704	-24.892	-0.251	0.151
-711.689	-9.036	-0.031	-0.021
-710.675	-64.166	0.215	0.089
-709.660	-153.471	0.053	0.004
-708.645	131.100	-0.052	0.068
-707.631	163.296	-0.098	0.140
-706.616	209.877	0.060	-0.095
-705.602	800.000	0.129	-0.364
-704.587	-100.678	0.269	-0.067
-703.572	-200.000	0.019	0.494
-702.558	800.000	0.094	-0.337
-701.543	-86.444	0.292	-0.091
-700.529	800.000	0.044	0.129
-699.514	63.961	0.284	-0.290
-698.499	800.000	-0.059	-0.213
-697.485	162.695	0.186	0.265
-696.470	72.548	0.228	0.241
-695.456	-200.000	-0.019	0.106
-694.441	800.000	0.076	-0.282
-693.426	263.200	0.089	0.157
-692.412	53.613	0.134	-0.131
-691.397	800.000	0.106	0.298
-690.383	-0.992	-0.074	0.053
-689.368	195.256	-0.202	0.312
-688.354	-161.354	0.043	0.002
-687.339	331.461	-0.175	-0.341
-686.324	-0.504	-0.171	-0.123
-685.310	-200.000	0.046	0.203
-684.295	-79.645	-0.174	0.060
-683.281	26.439	-0.349	-0.296
-682.266	36.013	-0.153	-0.137
-681.251	-200.000	0.011	-0.324
-680.237	800.000	-0.114	0.374
-679.222	667.406	-0.057	0.149
-678.208	286.063	0.165	0.302
-677.193	-103.939	0.181	0.043
-676.178	-124.361	-0.242	-0.038
-675.164	-113.437	0.373	0.074
-674.149	-62.675	0.169	0.071
-673.135	-91.582	0.168	0.048
-672.120	-102.648	0.284	-0.069
-671.105	-49.258	0.067	0.032
-670.091	622.605	0.045	0.115
-669.076	120.619	-0.211	-0.265
-668.062	-200.000	0.062	-0.306
-667.047	-200.000	0.357	0.001
-666.032	-75.211	-0.224	0.081
-665.018	90.292	-0.200	-0.226
-664.003	800.000	-0.126	0.421
-662.989	-200.000	0.021	0.123
-661.974	422.413	-0.110	0.240
-660.959	-163.700	0.129	0.006
-659.945	-200.000	-0.011	-0.206
-658.930	122.006	0.176	-0.223
-657.916	84.848	-0.102	-0.114
-656.901	36.161	0.116	-0.104
-655.886	-152.181	-0.200	0.015
-654.872	28.879	-0.160	-0.138
-653.857	-48.433	0.225	-0.110
-652.843	171.380	0.036	-0.053
-651.828	-127.860	0.365	0.053
-650.814	-29.059	-0.215	-0.125
-649.799	800.000	-0.078	0.220
-648.784	-200.000	0.001	-0.160
-647.770	-200.000	-0.044	0.237
-646.755	-32.234	-0.266	-0.150
-645.741	235.817	-0.075	-0.126
-644.726	32.456	0.103	-0.090
-643.711	-37.509	0.116	-0.063
-642.697	93.365	0.165	-0.189
-641.682	-137.123	-0.435	-0.050
-640.668	-32.836	0.310	0.174
-639.653	28.108	-0.131	0.112
-638.638	-25.745	-0.126	-0.075
-637.624	-93.041	0.242	0.068
-636.609	250.162	0.115	0.198
-635.595	-25.469	-0.154	-0.092
-634.580	-104.534	-0.217	-0.051
-633.565	-200.000	-0.023	-0.106
-632.551	409.793	0.047	0.100
-631.536	-106.004	-0.383	-0.087
-630.522	208.476	-0.130	-0.206
-629.507	800.000	-0.032	-0.116
-628.492	-22.657	-0.095	0.058
-627.478	-139.167	0.298	-0.033
-626.463	-134.021	0.565	-0.071
-625.449	-104.660	-0.091	0.021
-624.434	622.455	-0.177	-0.452
-623.419	-58.063	-0.293	-0.129
-622.405	103.051	-0.137	-0.162
-621.390	-197.850	0.166	-0.001
-620.376	2.848	-0.158	0.116
-619.361	-84.816	-0.236	0.075
-618.346	-136.907	-0.113	0.013
-617.332	-200.000	-0.001	0.148
-616.317	-130.837	-0.167	-0.023
-615.303	121.780	-0.112	-0.141
-614.288	-36.752	0.134	0.073
-613.273	-38.560	0.303	0.162
-612.259	45.084	-0.114	0.106
-611.244	-86.840	-0.318	0.098
-610.230	800.000	-0.064	0.196
-609.215	482.124	-0.092	-0.212
-608.201	-74.399	-0.226	0.082
-607.186	-81.305	-0.189	-0.063
-606.171	-120.096	0.199	-0.034
-605.157	141.207	0.257	-0.344
-604.142	-200.000	-0.077	-0.368
-603.128	-200.000	0.048	0.271
-602.113	-134.506	0.302	0.037
-601.098	204.816	0.209	-0.327
-600.084	-145.897	0.202	0.018
-599.069	-125.954	0.066	-0.010
-598.055	-168.354	-0.422	-0.016
-597.040	-200.000	0.075	0.612
-596.025	74.218	-0.137	0.145
-595.011	-58.190	0.132	0.058
-593.996	611.704	0.149	-0.376
-592.982	-200.000	0.007	-0.213
-591.967	-200.000	0.009	-0.108
-590.952	-200.000	0.007	0.132
-589.938	246.345	0.061	0.104
-588.923	-87.172	-0.078	0.024
-587.909	204.439	-0.169	0.265
-586.894	382.700	0.155	0.321
-585.879	-200.000	-0.038	-0.235
-584.865	-16.079	-0.149	0.095
-583.850	800.000	-0.107	0.324
-582.836	800.000	-0.039	0.162
-581.821	-136.104	-0.212	0.025
-580.806	-129.998	-0.351	-0.048
-579.792	341.728	0.106	-0.210
-578.777	135.487	0.056	-0.074
-577.763	-131.062	-0.372	0.050
-576.748	53.140	0.148	-0.143
-575.733	-200.000	0.019	0.212
-574.719	183.688	0.333	-0.498
-573.704	-2.855	-0.280	-0.198
-572.690	521.036	-0.130	0.309
-571.675	101.382	0.090	0.106
-570.661	-14.126	-0.204	0.133
-569.646	-39.350	-0.279	0.148
-568.631	-155.097	0.411	0.027
-567.617	-115.069	-0.112	-0.021
-566.602	-122.703	0.075	-0.012
-565.588	50.973	-0.146	0.140
-564.573	544.821	0.076	-0.183
-563.558	-200.000	0.091	-0.482
-562.544	-200.000	0.059	-0.526
-561.529	23.033	-0.063	0.052
-560.515	101.925	-0.173	0.204
-559.500	22.432	-0.184	0.151
-558.485	-122.272	0.347	0.057
-557.471	190.232	-0.139	-0.211
-556.456	229.259	0.081	-0.134
-555.442	116.327	-0.025	-0.031
-554.427	34.282	-0.230	0.202
-553.412	-11.712	0.118	-0.078
-552.398	275.474	0.098	-0.176
-551.383	-71.502	-0.340	-0.128
-550.369	1.542	0.101	-0.073
-549.354	79.247	-0.062	-0.067
-548.339	67.180	-0.131	0.135
-547.325	800.000	-0.057	0.181
-546.310	61.461	-0.039	-0.039
-545.296	-128.440	-0.091	-0.013
-544.281	130.278	0.168	-0.217
-543.266	-200.000	-0.033	0.170
-542.252	-200.000	-0.003	-0.099
-541.237	413.222	-0.052	-0.112
-540.223	800.000	-0.057	-0.236
-539.208	115.506	0.123	0.152
-538.193	-200.000	-0.019	0.225
-537.179	-70.210	0.086	0.033
-536.164	54.025	-0.161	-0.156
-535.150	-200.000	0.004	0.399
-534.135	-200.000	0.064	0.354
-533.121	-122.224	-0.111	0.018
-532.106	99.720	-0.292	-0.341
-531.091	-2.108	0.211	-0.149
-530.077	-98.814	0.205	-0.053
-529.062	-200.000	-0.006	-0.393
-528.048	800.000	0.116	0.355
-527.033	9.715	-0.113	-0.086
-526.018	47.329	-0.014	0.013
-525.004	-154.804	-0.083	0.006
-523.989	493.004	-0.073	0.168
-522.975	-158.258	0.332	-0.020
-521.960	800.000	0.103	-0.366
-520.945	139.899	0.237	0.314
-519.931	251.834	0.050	0.086
-518.916	800.000	0.047	-0.166
-517.902	-200.000	-0.029	-0.253
-516.887	800.000	0.030	-0.103
-515.872	366.659	-0.170	0.346
-514.858	-56.322	0.239	-0.107
-513.843	279.732	-0.135	-0.243
-512.829	-99.828	0.304	0.077
-511.814	-200.000	-0.016	-0.122
-510.799	800.000	-0.012	-0.045
-509.785	13.212	0.220	-0.171
-508.770	-200.000	0.001	0.261
-507.756	-124.322	0.063	-0.010
-506.741	-64.279	-0.152	0.062
-505.726	17.387	-0.166	-0.133
-504.712	-200.000	-0.014	0.146
-503.697	223.232	-0.177	0.288
-502.683	800.000	0.044	-0.132
-501.668	-80.324	-0.117	-0.039
-500.653	800.000	0.055	-0.232
-499.639	-4.209	0.203	-0.142
-498.624	82.095	-0.074	0.081
-497.610	465.205	-0.115	0.259
-496.595	-80.064	0.255	-0.086
-495.581	518.888	-0.017	-0.040
-494.566	-200.000	0.010	0.089
-493.551	-46.349	-0.074	-0.036
-492.537	-125.457	0.275	-0.042
-491.522	-9.014	-0.065	0.044
-490.508	137.407	-0.115	-0.151
-489.493	-21.485	-0.004	-0.003
-488.478	-200.000	0.038	-0.392
-487.464	246.622	-0.250	-0.425
-486.449	-200.000	0.010	-0.096
-485.435	291.761	-0.116	0.213
-484.420	182.519	-0.169	0.250
-483.405	94.477	-0.054	-0.061
-482.391	233.443	-0.046	0.077
-481.376	-20.409	-0.063	0.039
-480.362	120.616	0.296	0.370
-479.347	-45.569	-0.202	-0.101
-478.332	-42.009	-0.231	0.119
-477.318	-7.606	-0.317	0.216
-476.303	135.654	0.133	0.174
-475.289	406.089	0.043	0.091
-474.274	53.096	0.161	-0.155
-473.259	-5.102	0.175	-0.121
-472.245	-99.982	0.169	0.042
-471.230	-119.790	0.071	-0.012
-470.216	800.000	0.051	0.198
-469.201	196.110	-0.177	-0.272
-468.186	-200.000	0.035	-0.183
-467.172	-61.890	0.013	-0.006
-466.157	116.767	0.176	-0.217
-465.143	-81.316	-0.099	-0.033
-464.128	124.086	-0.164	-0.208
-463.113	82.717	0.044	0.048
-462.099	133.694	-0.077	0.100
-461.084	800.000	0.083	0.285
-460.070	-200.000	-0.016	-0.239
-459.055	-200.000	-0.026	0.245
-458.040	42.403	-0.170	0.155
-457.026	800.000	-0.070	-0.195
-456.011	-29.918	0.335	0.192
-454.997	116.378	0.190	-0.234
-453.982	111.422	0.016	0.020
-452.968	800.000	0.006	0.017
-451.953	152.703	0.141	-0.193
-450.938	-32.005	-0.331	-0.186
-449.924	135.946	0.176	0.231
-448.909	77.336	-0.134	0.144
-447.895	-160.886	0.124	0.007
-446.880	78.559	-0.100	-0.107
-445.865	202.846	-0.279	0.434
-444.851	-200.000	-0.035	-0.274
-443.836	21.544	0.087	0.071
-442.822	-179.199	-0.310	-0.007
-441.807	-111.870	0.311	0.063
-440.792	800.000	-0.049	-0.186
-439.778	-200.000	-0.025	0.135
-438.763	18.803	0.251	-0.202
-437.749	668.592	-0.153	-0.398
-436.734	800.000	0.050	-0.221
-435.719	-52.313	-0.245	0.114
-434.705	-200.000	0.020	0.154
-433.690	-3.491	0.103	-0.072
-432.676	-115.706	0.156	0.029
-431.661	-200.000	-0.055	-0.269
-430.646	-73.719	0.238	0.087
-429.632	-105.907	-0.132	-0.030
-428.617	660.563	-0.093	0.240
-427.603	39.512	0.187	0.168
-426.588	39.082	-0.174	-0.156
-425.573	84.263	0.131	0.144
-424.559	-200.000	-0.040	0.417
-423.544	800.000	-0.092	-0.258
-422.530	232.444	-0.196	0.323
-421.515	-200.000	-0.045	0.290
-420.500	31.010	0.096	0.083
-419.486	81.189	0.122	0.133
-418.471	414.505	-0.034	0.072
-417.457	800.000	-0.104	0.416
-416.442	-158.716	0.230	0.013
-415.428	-114.029	0.284	0.055
-414.413	-46.026	0.127	-0.063
-413.398	-29.958	-0.065	-0.037
-412.384	-68.780	0.290	-0.112
-411.369	800.000	-0.097	-0.318
-410.355	-200.000	-0.015	-0.235
-409.340	-106.642	-0.150	0.034
-408.325	-44.690	0.154	-0.077
-407.311	-12.853	0.331	-0.216
-406.296	800.000	-0.137	-0.474
-405.282	397.475	0.088	-0.185
-404.267	-89.873	-0.457	0.134
-403.252	800.000	0.081	-0.238
-402.238	-11.874	0.119	0.078
-401.223	141.879	-0.070	0.094
-400.209	387.534	0.081	-0.167
-399.194	-200.000	0.007	0.384
-398.179	15.833	0.104	-0.082
-397.165	543.364	-0.160	-0.382
-396.150	800.000	-0.021	-0.067
-395.136	800.000	-0.090	-0.384
-394.121	-68.483	-0.314	-0.122
-393.106	57.037	-0.083	0.081
-392.092	97.582	-0.114	0.132
-391.077	293.181	-0.166	-0.303
-390.063	-71.262	-0.093	0.035
-389.048	-121.090	-0.378	-0.064
-388.033	-3.032	0.163	0.114
-387.019	-128.493	0.454	-0.065
-386.004	-200.000	-0.069	0.415
-384.990	800.000	0.043	0.164
-383.975	-19.803	-0.136	-0.084
-382.960	113.142	0.162	0.197
-381.946	-104.873	0.110	0.025
-380.931	66.337	-0.022	-0.023
-379.917	-33.110	0.205	-0.114
-378.902	173.033	0.059	0.085
-377.888	-50.619	0.180	0.085
-376.873	-21.283	0.097	0.059
-375.858	21.191	-0.262	-0.213
-374.844	24.655	-0.087	0.072
-373.829	-200.000	0.017	0.106
-372.815	800.000	-0.070	-0.240
-371.800	800.000	-0.052	-0.171
-370.785	300.239	-0.121	0.223
-369.771	-200.000	0.017	-0.173
-368.756	-154.019	0.189	-0.013
-367.742	-200.000	-0.055	-0.307
-366.727	800.000	-0.036	-0.152
-365.712	57.607	-0.205	-0.200
-364.698	8.665	-0.047	0.036
-363.683	239.421	-0.153	-0.256
-362.669	-107.126	0.076	-0.017
-361.654	-120.165	-0.212	-0.036
-360.639	-60.492	0.229	-0.097
-359.625	-54.729	0.159	-0.072
-358.610	-200.000	0.024	-0.295
-357.596	367.161	-0.022	0.044
-356.581	54.703	-0.165	-0.159
-355.566	329.319	0.028	-0.053
-354.552	-90.631	-0.446	0.129
-353.537	653.272	0.028	0.073
-352.523	-71.611	0.346	-0.129
-351.508	-60.531	-0.120	0.051
-350.493	800.000	-0.041	0.152
-349.479	-164.427	0.097	-0.004
-348.464	800.000	0.016	-0.052
-347.450	271.869	-0.158	0.278
-346.435	65.862	0.187	0.190
-345.420	-200.000	0.022	-0.361
-344.406	276.129	-0.104	-0.184
-343.391	-113.964	0.137	0.027
-342.377	-19.095	0.207	0.129
-341.362	207.014	-0.136	0.212
-340.348	-81.906	-0.451	0.148
-339.333	-145.629	0.270	0.024
-338.318	-200.000	-0.005	0.150
-337.304	616.566	-0.112	0.280
-336.289	-200.000	0.052	0.334
-335.275	-200.000	-0.023	-0.102
-334.260	120.305	-0.237	0.294
-333.245	-200.000	0.053	0.301
-332.231	312.137	0.076	-0.144
-331.216	173.622	0.087	0.125
-330.202	-50.509	0.169	0.080
-329.187	291.858	-0.139	-0.253
-328.172	84.442	-0.031	-0.034
-327.158	89.447	0.137	-0.152
-326.143	156.573	0.058	-0.080
-325.129	437.340	0.094	0.204
-324.114	-200.000	-0.056	-0.260
-323.099	137.317	0.070	0.091
-322.085	37.660	-0.308	0.273
-321.070	201.719	0.224	0.345
-320.056	-37.068	0.238	0.128
-319.041	800.000	0.100	0.302
-318.026	-181.401	0.292	-0.006
-317.012	-158.750	0.393	-0.023
-315.997	-5.294	0.027	-0.018
-314.983	43.784	0.212	0.194
-313.968	-200.000	-0.001	-0.148
-312.953	64.826	0.084	-0.085
-311.939	-176.011	-0.366	0.010
-310.924	-156.453	0.235	-0.015
-309.910	-16.120	-0.147	-0.093
-308.895	592.680	-0.114	0.282
-307.880	-200.000	0.052	-0.319
-306.866	-79.377	-0.220	0.074
-305.851	-200.000	-0.013	-0.267
-304.837	107.201	-0.195	0.232
-303.822	-45.791	-0.257	0.127
-302.807	-200.000	-0.015	0.133
-301.793	-200.000	0.060	-0.354
-300.778	-103.833	-0.350	0.082
-299.764	80.280	0.144	-0.154
-298.749	-200.000	0.000	-0.117
-297.735	-200.000	0.006	-0.052
-296.720	60.766	-0.124	-0.122
-295.705	-44.565	-0.344	-0.172
-294.691	248.633	0.064	0.107
-293.676	-110.430	-0.127	-0.026
-292.662	2.333	-0.260	0.188
-291.647	-140.943	-0.260	-0.027
-290.632	-57.023	0.373	0.164
-289.618	-194.129	-0.096	0.001
-288.603	-200.000	0.049	-0.275
-287.589	-51.925	-0.185	0.086
-286.574	-25.716	0.407	0.240
-285.559	-68.359	0.120	0.046
-284.545	116.993	-0.121	-0.148
-283.530	-128.583	0.214	0.030
-282.516	800.000	0.015	0.054
-281.501	133.583	-0.205	0.264
-280.486	-2.741	0.268	-0.187
-279.472	608.870	-0.158	0.393
-278.457	-96.001	0.229	-0.061
-277.443	-82.707	-0.062	-0.020
-276.428	2.481	-0.007	0.005
-275.413	188.887	0.054	0.080
-274.399	-180.319	0.148	-0.003
-273.384	178.088	-0.155	0.225
-272.370	391.244	0.050	0.104
-271.355	321.806	-0.186	-0.353
-270.340	800.000	-0.053	-0.221
-269.326	-200.000	-0.013	0.166
-268.311	-179.513	-0.055	0.001
-267.297	-85.920	-0.297	-0.092
-266.282	-103.218	0.291	0.069
-265.267	-142.088	0.128	-0.013
-264.253	800.000	0.060	-0.242
-263.238	26.332	0.098	0.081
-262.224	11.008	-0.174	0.133
-261.209	-34.426	0.066	-0.036
-260.195	791.516	-0.060	-0.166
-259.180	800.000	-0.065	-0.238
-258.165	-55.249	-0.077	0.034
-257.151	-35.901	0.044	-0.024
-256.136	-126.299	0.122	-0.018
-255.122	-86.016	0.153	0.047
-254.107	208.553	0.282	0.440
-253.092	219.470	-0.035	-0.055
-252.078	-155.896	0.063	-0.004
-251.063	224.514	0.068	-0.110
-250.049	142.137	0.078	-0.103
-249.034	-2.908	0.085	0.059
-248.019	-200.000	-0.046	0.255
-247.005	301.741	-0.086	0.159
-245.990	-200.000	-0.055	0.308
-244.976	692.876	0.078	0.205
-243.961	41.744	-0.045	-0.040
-242.946	-91.710	-0.509	-0.144
-241.932	-51.842	0.144	-0.067
-240.917	-30.644	0.170	-0.096
-239.903	-34.565	-0.166	0.091
-238.888	800.000	0.078	0.281
-237.873	-55.685	0.147	0.066
-236.859	-199.009	0.182	-0.001
-235.844	-83.632	-0.408	0.130
-234.830	13.016	0.193	0.148
-233.815	649.813	-0.078	-0.198
-232.800	800.000	-0.023	-0.085
-231.786	-71.917	0.354	0.131
-230.771	-9.428	0.148	-0.098
-229.757	-135.913	-0.452	0.053
-228.742	-167.891	0.188	-0.007
-227.727	-119.904	0.183	-0.031
-226.713	-42.968	0.009	0.004
-225.698	-12.671	-0.171	-0.111
-224.684	100.896	0.284	0.328
-223.669	125.166	0.176	0.221
-222.655	-200.000	-0.032	0.145
-221.640	-139.954	0.156	-0.016
-220.625	-7.076	-0.297	0.200
-219.611	-27.279	0.090	0.052
-218.596	-67.843	-0.366	0.142
-217.582	-200.000	0.049	-0.364
-216.567	-200.000	-0.001	-0.107
-215.552	-5.576	0.170	-0.116
-214.538	215.151	-0.148	-0.234
-213.523	-70.444	0.127	-0.048
-212.509	504.037	-0.029	-0.067
-211.494	513.127	-0.019	0.043
-210.479	142.221	0.106	0.140
-209.465	538.133	-0.041	0.098
-208.450	-111.950	0.125	-0.025
-207.436	-83.814	0.118	0.037
-206.421	-78.129	0.311	0.106
-205.406	701.704	-0.081	-0.213
-204.392	-50.380	0.431	0.203
-203.377	800.000	-0.039	-0.108
-202.363	351.151	0.148	0.291
-201.348	-200.000	-0.054	0.000
-200.333	85.749	-0.048	-0.053
-199.319	-15.279	-0.479	-0.305
-198.304	-93.480	-0.176	0.048
-197.290	-200.000	0.019	-0.111
-196.275	49.270	0.304	-0.284
-195.260	719.135	0.043	-0.113
-194.246	24.007	0.084	-0.069
-193.231	546.062	0.126	0.300
-192.217	-121.908	-0.148	-0.024
-191.202	-111.647	0.394	0.079
-190.187	324.940	-0.089	0.169
-189.173	135.809	-0.151	0.195
-188.158	358.906	0.111	-0.220
-187.144	-200.000	0.046	0.305
-186.129	20.374	0.068	-0.055
-185.114	-200.000	-0.026	0.243
-184.100	-200.000	-0.053	0.304
-183.085	-42.130	0.021	0.011
-182.071	-62.991	0.194	-0.080
-181.056	158.143	-0.322	-0.444
-180.042	-148.303	-0.099	-0.008
-179.027	19.209	0.351	-0.280
-178.012	-200.000	-0.023	-0.328
-176.998	143.071	-0.061	-0.080
-175.983	-200.000	0.006	0.078
-174.969	-83.939	-0.141	-0.044
-173.954	19.013	-0.033	-0.026
-172.939	800.000	-0.064	-0.225
-171.925	151.798	0.257	0.348
-170.910	-200.000	-0.046	0.425
-169.896	-158.724	0.275	-0.016
-168.881	456.440	0.113	0.248
-167.866	800.000	0.085	-0.237
-166.852	-71.676	0.334	-0.124
-165.837	-52.771	0.443	0.203
-164.823	-117.899	0.205	0.036
-163.808	-101.341	-0.181	-0.044
-162.793	74.890	-0.201	-0.211
-161.779	-121.008	-0.146	0.024
-160.764	17.410	0.221	0.174
-159.750	325.373	0.145	0.275
-158.735	-200.000	-0.012	0.144
-157.720	61.986	0.071	0.070
-156.706	540.865	0.094	-0.223
-155.691	38.428	-0.256	-0.227
-154.677	-200.000	-0.036	0.219
-153.662	-112.362	-0.151	0.030
-152.647	21.436	-0.091	0.073
-151.633	-200.000	0.002	0.131
-150.618	800.000	0.052	0.155
-149.604	800.000	0.058	-0.232
-148.589	-56.834	-0.064	0.028
-147.574	-26.365	0.200	-0.116
-146.560	-6.314	-0.121	-0.082
-145.545	-200.000	0.057	0.324
-144.531	800.000	0.020	-0.061
-143.516	-170.699	0.293	-0.010
-142.502	-200.000	0.041	0.370
-141.487	-25.177	-0.257	0.151
-140.472	94.693	-0.067	-0.075
-139.458	105.765	-0.102	-0.120
-138.443	-145.951	-0.486	0.043
-137.429	-154.411	0.146	-0.010
-136.414	-200.000	-0.014	0.197
-135.399	-100.113	-0.304	0.075
-134.385	47.018	-0.320	-0.296
-133.370	-36.509	0.329	-0.176
-132.356	188.385	-0.062	-0.091
-131.341	-143.237	0.043	-0.004
-130.326	-200.000	-0.081	0.426
-129.312	312.632	-0.191	0.356
-128.297	-98.824	-0.404	0.102
-127.283	153.987	0.142	0.193
-126.268	59.709	0.071	-0.070
-125.253	198.850	0.156	-0.237
-124.239	-200.000	-0.058	0.349
-123.224	-200.000	0.023	0.164
-122.210	-67.710	0.153	-0.060
-121.195	-47.335	0.027	0.013
