DTS Sentinel unit serial number:	SN413079Multiplexer serial number:	ORYXHardware model number:	OX4-SRSoftware version number:	ORYX F/W v4.00 Oryx Data Collector v3.7.2.0data status	okinstallation	princeton_trtdifferential loss correction	single-endedforward channel	channel 4reverse channel	N/Adate	2019/09/12time	07:31:11forward acquisition time	60.00reverse acquisition time	0.00gamma	496.2192k internal	0.2305k external	0.2305temperature offset calibration	1.0063default loss term (dB/km)	0.3790temperature slope calibration	1.0000multiplexer offset coefficient	1.0000multiplexer slope coefficient	1.0000fibre end	0.00T internal ref (°C)	32.52T ext. ref 1 (°C)	1.63T ext. ref 2 (°C)	29.08length (m)	temperature (°C)	Stokes	anti-Stokes-747.200	168.560	0.114	0.165
-746.185	800.000	-0.208	0.707
-745.171	-28.479	0.237	0.139
-744.156	800.000	0.053	0.188
-743.142	118.200	0.261	-0.328
-742.127	239.172	-0.064	0.108
-741.112	64.066	-0.245	0.251
-740.098	91.383	-0.201	0.229
-739.083	-200.000	0.068	-0.471
-738.069	-200.000	-0.005	-0.131
-737.054	-106.298	-0.203	-0.046
-736.039	-200.000	-0.035	0.284
-735.025	680.296	0.145	0.384
-734.010	-146.258	-0.502	-0.045
-732.996	455.166	0.118	-0.265
-731.981	-116.329	-0.121	-0.023
-730.966	-31.810	-0.040	0.023
-729.952	-200.000	0.011	0.217
-728.937	24.512	-0.123	0.104
-727.923	229.403	-0.049	0.082
-726.908	158.616	0.058	-0.082
-725.894	468.839	-0.066	0.151
-724.879	-200.000	0.018	-0.198
-723.864	1.714	0.018	0.013
-722.850	-200.000	-0.049	-0.320
-721.835	-81.421	0.092	-0.031
-720.821	800.000	-0.043	0.178
-719.806	-78.550	0.200	-0.070
-718.791	312.058	-0.113	-0.215
-717.777	-200.000	0.003	0.053
-716.762	177.721	0.109	-0.162
-715.748	800.000	0.047	-0.141
-714.733	800.000	-0.109	-0.437
-713.718	-200.000	-0.098	0.452
-712.704	104.864	0.107	0.128
-711.689	-55.849	0.269	-0.122
-710.675	800.000	-0.124	0.350
-709.660	15.880	-0.325	0.260
-708.645	-104.486	-0.085	0.020
-707.631	800.000	0.084	0.279
-706.616	-156.760	0.128	-0.008
-705.602	-154.060	-0.247	-0.017
-704.587	-200.000	-0.008	-0.112
-703.572	-74.759	-0.123	0.045
-702.558	800.000	0.088	-0.306
-701.543	-135.171	0.241	0.029
-700.529	800.000	-0.048	0.138
-699.514	-177.084	-0.203	0.005
-698.499	-57.439	0.183	-0.082
-697.485	-60.737	0.214	0.092
-696.470	-115.287	-0.098	-0.019
-695.456	-200.000	-0.018	0.239
-694.441	500.331	0.056	-0.130
-693.426	171.921	-0.108	-0.157
-692.412	-166.804	-0.206	-0.009
-691.397	-68.591	0.145	0.057
-690.383	32.092	0.197	-0.172
-689.368	64.728	-0.174	-0.178
-688.354	99.729	0.181	-0.213
-687.339	-200.000	-0.035	-0.238
-686.324	-128.525	0.122	-0.018
-685.310	-2.808	-0.286	0.203
-684.295	-78.797	-0.434	0.150
-683.281	299.941	-0.107	0.201
-682.266	139.451	-0.184	-0.246
-681.251	35.503	-0.144	0.128
-680.237	126.253	0.109	0.140
-679.222	-21.711	-0.165	0.102
-678.208	85.396	0.101	0.113
-677.193	-138.571	0.234	-0.026
-676.178	61.552	-0.205	-0.207
-675.164	15.025	-0.197	0.157
-674.149	100.494	-0.228	-0.269
-673.135	-200.000	0.018	-0.146
-672.120	-200.000	-0.012	-0.163
-671.105	25.387	-0.019	0.016
-670.091	370.029	0.102	-0.211
-669.076	-63.642	-0.398	0.166
-668.062	-42.313	-0.323	-0.167
-667.047	487.783	-0.121	-0.280
-666.032	-75.480	0.400	-0.144
-665.018	111.345	-0.248	0.304
-664.003	114.100	0.254	0.314
-662.989	-200.000	0.001	-0.230
-661.974	31.183	-0.387	-0.337
-660.959	800.000	0.187	0.534
-659.945	800.000	-0.016	0.055
-658.930	-21.921	0.139	-0.086
-657.916	-171.988	-0.296	0.010
-656.901	-54.183	0.456	-0.210
-655.886	64.133	0.140	0.143
-654.872	53.247	-0.113	0.109
-653.857	25.985	-0.084	0.071
-652.843	-109.083	0.339	0.073
-651.828	25.034	-0.162	0.136
-650.814	96.376	0.118	-0.137
-649.799	256.478	-0.271	-0.471
-648.784	-136.958	0.132	-0.015
-647.770	-166.281	-0.072	0.003
-646.755	13.197	-0.224	0.176
-645.741	14.861	-0.166	-0.132
-644.726	-18.661	-0.240	0.152
-643.711	-141.073	-0.080	0.008
-642.697	189.519	-0.155	-0.235
-641.682	155.520	0.061	0.085
-640.668	113.119	-0.141	0.174
-639.653	75.282	0.226	0.242
-638.638	272.716	-0.088	-0.157
-637.624	-105.470	-0.182	-0.042
-636.609	51.807	-0.048	0.046
-635.595	-67.514	0.179	-0.071
-634.580	-120.161	-0.133	-0.023
-633.565	-200.000	-0.039	-0.259
-632.551	-200.000	-0.008	-0.041
-631.536	-30.303	-0.156	-0.090
-630.522	-87.254	-0.121	-0.037
-629.507	-14.710	-0.193	0.126
-628.492	191.564	-0.180	-0.274
-627.478	-200.000	0.013	0.190
-626.463	46.773	0.236	0.222
-625.449	-51.091	-0.316	-0.150
-624.434	-107.127	0.310	-0.069
-623.419	529.420	-0.180	-0.430
-622.405	-200.000	-0.035	0.334
-621.390	-66.560	-0.026	0.010
-620.376	-200.000	0.016	-0.187
-619.361	-31.783	-0.013	0.007
-618.346	-43.827	-0.310	-0.158
-617.332	108.224	0.205	-0.248
-616.317	60.207	-0.080	-0.080
-615.303	325.250	0.027	-0.052
-614.288	-53.457	0.292	-0.135
-613.273	-60.735	0.068	-0.029
-612.259	-156.054	-0.061	-0.004
-611.244	391.244	0.174	-0.365
-610.230	-52.254	0.184	-0.086
-609.215	56.500	0.159	0.157
-608.201	-200.000	0.006	0.101
-607.186	-93.279	-0.141	0.040
-606.171	800.000	-0.073	-0.237
-605.157	800.000	-0.049	0.183
-604.142	800.000	-0.058	0.222
-603.128	258.606	0.074	0.129
-602.113	-87.289	0.329	-0.101
-601.098	227.991	-0.205	0.338
-600.084	-91.314	-0.302	0.087
-599.069	-80.654	0.485	-0.163
-598.055	-34.514	0.162	-0.090
-597.040	9.739	0.272	0.209
-596.025	-60.496	-0.044	0.019
-595.011	-113.793	0.113	0.022
-593.996	-25.686	-0.244	0.146
-592.982	76.751	-0.403	-0.432
-591.967	-160.108	0.213	-0.012
-590.952	-200.000	-0.011	0.217
-589.938	800.000	0.066	-0.196
-588.923	162.782	0.119	0.169
-587.909	-95.001	0.052	-0.014
-586.894	-11.728	0.164	0.109
-585.879	-200.000	-0.007	-0.082
-584.865	800.000	0.137	-0.404
-583.850	-23.080	-0.192	-0.117
-582.836	-200.000	-0.054	0.272
-581.821	-200.000	-0.010	0.073
-580.806	-83.318	0.214	0.069
-579.792	-151.893	-0.173	-0.013
-578.777	-200.000	-0.013	-0.164
-577.763	800.000	-0.081	-0.236
-576.748	-96.184	0.060	-0.016
-575.733	-200.000	-0.051	-0.295
-574.719	-80.367	0.117	-0.039
-573.704	-145.693	0.328	0.030
-572.690	-105.069	-0.148	0.034
-571.675	-13.046	0.339	0.223
-570.661	-43.671	-0.076	-0.039
-569.646	15.760	0.300	0.239
-568.631	11.881	0.122	-0.095
-567.617	-200.000	-0.050	0.290
-566.602	11.591	0.131	-0.101
-565.588	-200.000	0.016	-0.129
-564.573	-127.005	0.178	0.026
-563.558	187.258	-0.100	0.151
-562.544	800.000	0.059	0.237
-561.529	-200.000	-0.065	0.295
-560.515	223.022	0.079	0.128
-559.500	-28.773	-0.156	-0.091
-558.485	-200.000	-0.026	0.385
-557.471	49.409	-0.197	0.187
-556.456	-112.342	-0.224	0.045
-555.442	-200.000	0.024	0.275
-554.427	-200.000	-0.076	-0.381
-553.412	-48.378	-0.251	-0.122
-552.398	-60.156	-0.065	-0.028
-551.383	-126.171	0.107	-0.016
-550.369	274.430	0.162	0.290
-549.354	-200.000	-0.015	-0.221
-548.339	383.327	-0.095	-0.197
-547.325	166.582	0.256	0.367
-546.310	138.024	0.186	0.246
-545.296	92.189	0.036	-0.041
-544.281	-200.000	0.060	-0.428
-543.266	-200.000	0.050	0.286
-542.252	-200.000	0.036	-0.194
-541.237	151.606	-0.202	0.277
-540.223	23.722	0.198	0.164
-539.208	242.338	-0.075	-0.127
-538.193	-200.000	-0.019	-0.323
-537.179	-58.202	0.118	-0.052
-536.164	457.021	0.101	0.225
-535.150	-79.826	-0.080	-0.027
-534.135	800.000	-0.118	-0.405
-533.121	119.178	0.185	-0.231
-532.106	171.907	-0.056	0.081
-531.091	-55.920	0.097	0.044
-530.077	167.144	-0.187	0.268
-529.062	-200.000	-0.028	0.146
-528.048	800.000	0.091	-0.271
-527.033	119.276	-0.086	-0.107
-526.018	315.483	-0.076	0.144
-525.004	106.749	-0.053	-0.064
-523.989	148.008	-0.120	0.163
-522.975	54.489	-0.131	0.127
-521.960	30.009	0.308	-0.265
-520.945	-146.955	-0.200	0.017
-519.931	-155.573	0.178	0.012
-518.916	-135.417	-0.106	-0.013
-517.902	-200.000	-0.013	-0.172
-516.887	-159.219	-0.068	0.004
-515.872	-96.398	0.278	0.074
-514.858	-200.000	0.019	0.222
-513.843	128.795	0.124	0.160
-512.829	-82.881	-0.159	-0.052
-511.814	800.000	-0.078	-0.244
-510.799	-200.000	-0.001	0.326
-509.785	-55.062	0.273	0.124
-508.770	161.565	-0.027	-0.039
-507.756	-59.168	-0.142	-0.062
-506.741	-5.507	0.132	0.091
-505.726	-39.659	0.313	0.165
-504.712	-200.000	-0.024	0.197
-503.697	167.098	0.123	-0.177
-502.683	-164.323	0.321	-0.015
-501.668	800.000	0.039	-0.131
-500.653	-200.000	0.033	0.223
-499.639	-200.000	0.075	0.404
-498.624	-200.000	-0.001	0.081
-497.610	-178.406	-0.055	0.001
-496.595	-170.552	0.166	-0.006
-495.581	-37.500	0.246	-0.132
-494.566	-104.333	0.181	0.042
-493.551	144.391	-0.133	0.179
-492.537	-138.083	0.205	-0.023
-491.522	11.502	0.071	0.055
-490.508	163.529	0.008	-0.011
-489.493	87.051	0.138	0.153
-488.478	-53.967	0.335	0.154
-487.464	-118.750	-0.027	0.005
-486.449	-187.780	0.036	-0.000
-485.435	3.636	-0.093	0.069
-484.420	55.445	-0.257	-0.250
-483.405	87.248	0.036	0.040
-482.391	-200.000	0.036	-0.201
-481.376	7.149	-0.028	0.021
-480.362	55.824	-0.060	0.059
-479.347	15.384	-0.319	0.252
-478.332	17.173	-0.044	-0.035
-477.318	114.773	0.190	0.233
-476.303	-200.000	-0.009	0.401
-475.289	314.975	-0.294	0.558
-474.274	800.000	-0.152	0.440
-473.259	305.747	-0.062	-0.115
-472.245	-200.000	0.037	-0.172
-471.230	-200.000	-0.012	0.081
-470.216	-112.464	0.164	-0.033
-469.201	-23.132	-0.077	-0.047
-468.186	-23.235	0.093	-0.056
-467.172	-43.682	-0.168	0.085
-466.157	-41.479	-0.136	-0.070
-465.143	-165.296	-0.295	-0.013
-464.128	-200.000	0.017	0.115
-463.113	-76.373	-0.047	-0.017
-462.099	641.515	0.008	-0.022
-461.084	-119.008	-0.130	0.023
-460.070	-150.509	-0.258	-0.020
-459.055	22.847	-0.162	-0.134
-458.040	119.213	-0.179	-0.223
-457.026	-40.617	0.254	-0.132
-456.011	141.407	0.159	-0.211
-454.997	-23.350	-0.130	-0.079
-453.982	312.194	-0.105	0.199
-452.968	314.118	0.094	0.177
-451.953	800.000	-0.053	0.210
-450.938	800.000	0.086	0.278
-449.924	-131.697	0.123	-0.016
-448.909	80.335	0.108	0.117
-447.895	326.512	0.067	-0.129
-446.880	166.122	0.172	-0.245
-445.865	-59.173	0.207	0.090
-444.851	23.780	-0.106	-0.088
-443.836	800.000	0.069	-0.282
-442.822	55.750	-0.117	0.114
-441.807	89.778	-0.279	0.314
-440.792	-35.810	-0.088	-0.048
-439.778	146.233	-0.100	-0.134
-438.763	-65.912	-0.330	-0.133
-437.749	-52.887	-0.197	-0.091
-436.734	-3.928	0.115	0.080
-435.719	-200.000	-0.046	-0.263
-434.705	-200.000	0.047	0.284
-433.690	7.204	-0.131	-0.099
-432.676	-134.912	-0.153	-0.019
-431.661	800.000	0.094	-0.291
-430.646	-81.975	-0.313	-0.103
-429.632	42.896	-0.224	-0.205
-428.617	800.000	-0.008	0.031
-427.603	81.929	0.018	-0.019
-426.588	-58.279	0.392	0.171
-425.573	-200.000	-0.015	-0.141
-424.559	-200.000	-0.001	0.021
-423.544	-200.000	-0.009	0.347
-422.530	514.303	-0.035	-0.083
-421.515	-200.000	0.046	-0.318
-420.500	95.128	-0.018	0.020
-419.486	-103.344	0.150	-0.036
-418.471	-200.000	0.075	-0.348
-417.457	-180.643	0.109	-0.002
-416.442	-76.565	-0.165	0.058
-415.428	-176.434	0.324	0.008
-414.413	-200.000	-0.021	-0.289
-413.398	-74.149	-0.228	0.083
-412.384	-101.272	0.291	-0.071
-411.369	272.643	-0.126	-0.223
-410.355	-200.000	-0.071	-0.405
-409.340	516.162	0.100	0.235
-408.325	-200.000	-0.013	-0.149
-407.311	-200.000	-0.033	-0.388
-406.296	4.637	0.317	-0.234
-405.282	38.452	-0.185	0.165
-404.267	683.960	0.089	-0.232
-403.252	163.355	0.070	0.099
-402.238	-167.257	0.558	0.023
-401.223	-15.944	0.053	0.034
-400.209	317.438	0.177	-0.336
-399.194	-31.684	0.259	-0.146
-398.179	36.088	0.117	0.104
-397.165	-200.000	-0.028	-0.186
-396.150	-29.265	-0.249	0.143
-395.136	-95.998	0.204	0.055
-394.121	-52.158	-0.160	0.075
-393.106	47.679	-0.012	-0.011
-392.092	-200.000	0.019	0.118
-391.077	-162.751	0.292	0.014
-390.063	800.000	-0.071	-0.310
-389.048	800.000	0.021	-0.083
-388.033	13.001	-0.139	-0.108
-387.019	54.563	0.170	-0.165
-386.004	-200.000	-0.002	0.223
-384.990	800.000	0.062	0.201
-383.975	99.573	0.075	-0.087
-382.960	279.289	0.059	0.106
-381.946	-64.201	0.129	0.053
-380.931	800.000	-0.036	-0.110
-379.917	-73.787	-0.234	-0.085
-378.902	367.126	-0.065	0.132
-377.888	460.809	0.126	0.281
-376.873	355.130	-0.147	-0.294
-375.858	124.708	0.113	-0.142
-374.844	-121.026	0.346	-0.058
-373.829	-58.860	0.175	0.076
-372.815	43.231	-0.262	0.240
-371.800	-10.969	-0.110	0.073
-370.785	-93.627	0.269	0.074
-369.771	99.606	0.086	-0.099
-368.756	-86.386	0.229	-0.071
-367.742	403.650	-0.069	0.145
-366.727	-34.018	-0.217	-0.120
-365.712	114.665	0.087	-0.106
-364.698	-4.143	-0.402	0.279
-363.683	204.895	0.154	-0.240
-362.669	800.000	-0.165	0.486
-361.654	-62.115	-0.040	-0.017
-360.639	-161.097	0.354	-0.019
-359.625	-33.172	-0.100	-0.055
-358.610	-200.000	0.001	-0.061
-357.596	-87.230	-0.041	-0.012
-356.581	-184.759	0.140	-0.002
-355.566	-111.960	0.285	-0.058
-354.552	-200.000	0.017	-0.080
-353.537	329.499	-0.149	0.287
-352.523	-0.811	-0.296	-0.210
-351.508	800.000	0.168	-0.487
-350.493	387.326	-0.200	-0.414
-349.479	-82.357	0.298	0.097
-348.464	-11.933	0.136	-0.090
-347.450	-102.201	-0.149	0.036
-346.435	781.873	0.068	0.185
-345.420	-200.000	0.032	0.199
-344.406	-54.083	-0.358	0.163
-343.391	-121.972	-0.109	-0.018
-342.377	389.619	0.141	0.293
-341.362	-72.688	0.185	0.068
-340.348	56.721	0.178	0.174
-339.333	79.715	0.302	-0.324
-338.318	65.860	-0.167	0.169
-337.304	-152.208	-0.214	0.016
-336.289	-139.142	-0.073	-0.008
-335.275	-200.000	-0.049	0.369
-334.260	-20.956	-0.084	0.051
-333.245	-169.003	-0.140	-0.005
-332.231	362.756	0.067	-0.135
-331.216	125.330	0.037	0.047
-330.202	56.903	-0.095	0.092
-329.187	127.824	-0.105	-0.134
-328.172	-69.205	-0.266	-0.102
-327.158	-200.000	-0.020	0.273
-326.143	-200.000	-0.002	0.446
-325.129	-86.469	-0.284	-0.087
-324.114	-144.976	0.311	0.028
-323.099	277.286	0.179	-0.318
-322.085	328.060	0.144	-0.276
-321.070	-73.414	0.175	0.064
-320.056	-4.798	0.250	-0.173
-319.041	-174.634	-0.116	-0.003
-318.026	-200.000	-0.022	0.316
-317.012	-67.374	-0.113	0.044
-315.997	57.998	-0.046	-0.045
-314.983	75.466	-0.065	-0.068
-313.968	47.101	-0.105	0.097
-312.953	527.082	-0.034	-0.080
-311.939	-105.805	0.197	0.044
-310.924	-82.270	0.379	0.123
-309.910	197.198	-0.070	-0.107
-308.895	-127.461	-0.228	0.033
-307.880	222.629	0.078	-0.126
-306.866	533.372	-0.105	0.250
-305.851	-200.000	-0.019	-0.098
-304.837	36.250	-0.148	0.130
-303.822	102.602	0.116	-0.136
-302.807	415.837	0.208	-0.443
-301.793	-200.000	0.022	-0.126
-300.778	-200.000	0.033	0.214
-299.764	796.358	-0.074	0.203
-298.749	-99.668	-0.222	-0.056
-297.735	-200.000	0.026	-0.372
-296.720	27.512	0.272	-0.229
-295.705	533.901	0.044	-0.105
-294.691	-76.548	0.219	0.077
-293.676	-52.024	0.027	0.013
-292.662	40.826	-0.116	0.105
-291.647	223.347	0.185	-0.299
-290.632	-40.034	-0.438	0.228
-289.618	98.764	0.128	0.148
-288.603	-136.328	0.084	0.010
-287.589	-152.660	-0.185	0.013
-286.574	306.816	-0.136	-0.254
-285.559	-200.000	-0.037	0.179
-284.545	-200.000	0.083	0.371
-283.530	31.207	-0.218	0.187
-282.516	514.155	-0.138	0.321
-281.501	-140.332	0.134	-0.014
-280.486	-59.596	-0.438	-0.188
-279.472	328.234	-0.089	-0.170
-278.457	-119.195	-0.596	-0.104
-277.443	-151.903	0.010	-0.001
-276.428	317.920	-0.163	0.308
-275.413	156.343	-0.152	-0.209
-274.399	47.844	-0.094	-0.088
-273.384	-23.972	0.383	-0.229
-272.370	-146.042	-0.266	-0.023
-271.355	651.809	-0.080	0.205
-270.340	-200.000	0.008	-0.152
-269.326	799.639	-0.021	-0.057
-268.311	499.701	-0.069	0.159
-267.297	21.102	0.170	0.138
-266.282	260.442	0.178	-0.307
-265.267	-200.000	0.001	0.018
-264.253	800.000	-0.041	0.126
-263.238	315.843	0.161	-0.303
-262.224	-57.094	0.393	0.173
-261.209	-37.263	-0.248	0.132
-260.195	173.096	-0.198	-0.285
-259.180	157.514	0.184	-0.255
-258.165	800.000	-0.063	-0.174
-257.151	-200.000	0.027	-0.218
-256.136	-200.000	0.001	-0.186
-255.122	-78.392	-0.276	-0.094
-254.107	-200.000	0.005	0.264
-253.092	2.711	-0.127	-0.092
-252.078	-154.316	-0.163	0.011
-251.063	-197.749	-0.192	0.001
-250.049	298.959	-0.084	0.155
-249.034	-56.223	-0.238	0.106
-248.019	-200.000	0.031	0.294
-247.005	800.000	-0.130	0.383
-245.990	-16.814	-0.163	-0.103
-244.976	-47.351	-0.196	0.095
-243.961	-200.000	0.054	-0.260
-242.946	-48.851	0.216	-0.103
-241.932	178.398	-0.056	-0.082
-240.917	51.164	-0.179	-0.169
-239.903	181.915	0.096	-0.141
-238.888	-15.285	-0.099	0.063
-237.873	-158.246	0.329	-0.019
-236.859	-200.000	-0.000	0.140
-235.844	-200.000	-0.007	0.570
-234.830	-0.187	0.131	-0.093
-233.815	-128.913	0.046	0.006
-232.800	-48.686	-0.156	0.075
-231.786	201.747	0.158	0.242
-230.771	-200.000	0.011	-0.138
-229.757	800.000	0.082	-0.330
-228.742	178.904	-0.173	-0.252
-227.727	64.652	-0.004	0.004
-226.713	800.000	0.022	0.095
-225.698	21.317	-0.123	0.099
-224.684	-73.282	0.347	-0.127
-223.669	542.895	0.105	0.251
-222.655	800.000	-0.079	0.298
-221.640	438.423	-0.043	-0.094
-220.625	402.986	-0.121	0.253
-219.611	-200.000	-0.031	0.250
-218.596	-32.522	0.232	-0.129
-217.582	288.553	0.267	-0.482
-216.567	-120.742	0.150	0.025
-215.552	-57.067	-0.189	0.083
-214.538	-136.656	-0.085	-0.010
-213.523	-42.638	-0.198	-0.101
-212.509	-65.651	0.192	-0.077
-211.494	-7.946	0.385	0.259
-210.479	-136.875	0.155	0.018
-209.465	315.420	-0.094	0.177
-208.450	-200.000	0.005	-0.051
-207.436	84.198	0.046	0.050
-206.421	493.996	0.102	0.232
-205.406	-21.752	0.111	0.068
-204.392	-98.334	-0.144	-0.037
-203.377	-60.947	-0.148	-0.062
-202.363	-76.887	0.174	0.061
-201.348	0.138	-0.030	-0.021
-200.333	-61.980	-0.355	-0.148
-199.319	800.000	-0.116	-0.356
-198.304	-109.830	0.201	-0.042
-197.290	-47.470	0.150	-0.073
-196.275	-64.861	-0.217	-0.087
-195.260	244.214	-0.159	0.265
-194.246	-200.000	-0.004	-0.137
-193.231	-200.000	0.014	-0.079
-192.217	-61.611	0.169	-0.071
-191.202	68.712	-0.212	-0.217
-190.187	184.990	0.116	-0.171
-189.173	59.041	0.228	-0.223
-188.158	-59.830	0.130	-0.055
-187.144	36.927	-0.150	0.132
-186.129	268.193	0.053	-0.092
-185.114	-200.000	-0.020	0.257
-184.100	-55.382	-0.166	0.074
-183.085	-90.612	0.057	0.016
-182.071	-200.000	-0.019	0.195
-181.056	800.000	0.037	-0.162
-180.042	-54.798	0.049	-0.022
-179.027	-150.223	-0.046	0.004
-178.012	-111.845	-0.183	-0.037
-176.998	-107.532	-0.024	-0.005
-175.983	133.374	0.111	-0.143
-174.969	-200.000	-0.026	0.230
-173.954	-150.189	0.307	0.024
-172.939	800.000	0.082	0.251
-171.925	-26.522	-0.242	0.141
-170.910	204.414	-0.107	-0.165
-169.896	-118.137	0.049	-0.009
-168.881	-91.514	0.190	-0.054
-167.866	-200.000	0.019	-0.103
-166.852	-200.000	0.001	0.119
-165.837	-131.113	0.114	0.015
-164.823	258.080	0.181	0.310
-163.808	65.270	-0.208	0.209
-162.793	800.000	-0.121	-0.339
-161.779	29.779	0.048	-0.041
-160.764	-154.151	-0.400	0.027
-159.750	-98.977	-0.062	0.016
-158.735	218.915	0.117	0.187
-157.720	-64.216	-0.342	-0.139
-156.706	58.728	-0.006	0.005
-155.691	402.252	0.162	0.339
-154.677	159.110	-0.076	0.105
-153.662	111.436	0.176	-0.211
-152.647	-141.118	-0.229	0.023
-151.633	292.701	-0.104	0.188
-150.618	433.192	0.155	0.334
-149.604	-200.000	-0.007	-0.197
-148.589	32.116	-0.123	0.105
-147.574	118.806	0.094	0.115
-146.560	-69.453	0.063	0.024
-145.545	-57.596	-0.119	0.052
-144.531	-200.000	-0.019	0.088
-143.516	615.654	-0.082	-0.205
-142.502	-17.790	0.284	0.177
-141.487	800.000	-0.092	0.262
-140.472	53.960	0.215	0.205
-139.458	177.668	0.288	0.417
-138.443	208.892	-0.194	0.302
-137.429	127.581	0.088	0.111
-136.414	-63.063	0.330	0.135
-135.399	800.000	-0.095	0.292
-134.385	-138.268	-0.109	0.012
-133.370	-200.000	0.013	0.083
-132.356	242.736	0.075	-0.125
-131.341	-200.000	0.056	-0.447
-130.326	800.000	0.108	-0.313
-129.312	-30.561	0.103	-0.058
-128.297	-200.000	-0.073	0.533
-127.283	-200.000	-0.018	0.150
-126.268	-200.000	-0.001	0.013
-125.253	637.231	-0.081	0.204
-124.239	-200.000	-0.022	-0.402
-123.224	111.287	0.072	-0.086
-122.210	186.787	-0.125	0.185
