DTS Sentinel unit serial number:	SN413079Multiplexer serial number:	ORYXHardware model number:	OX4-SRSoftware version number:	ORYX F/W v4.00 Oryx Data Collector v3.7.2.0data status	okinstallation	princeton_trtdifferential loss correction	single-endedforward channel	channel 4reverse channel	N/Adate	2019/09/10time	16:39:11forward acquisition time	60.00reverse acquisition time	0.00gamma	496.2192k internal	0.2297k external	0.2297temperature offset calibration	0.9940default loss term (dB/km)	0.3790temperature slope calibration	1.0000multiplexer offset coefficient	1.0000multiplexer slope coefficient	1.0000fibre end	0.00T internal ref (°C)	37.87T ext. ref 1 (°C)	-0.28T ext. ref 2 (°C)	30.25length (m)	temperature (°C)	Stokes	anti-Stokes-747.200	102.809	-0.125	0.149
-746.185	532.132	-0.063	0.153
-745.171	63.096	0.146	0.149
-744.156	-111.758	-0.392	0.081
-743.142	-97.798	0.221	0.058
-742.127	-200.000	-0.013	0.235
-741.112	-170.072	0.387	-0.014
-740.098	-63.646	-0.293	0.123
-739.083	-60.597	-0.307	0.133
-738.069	157.929	0.283	0.400
-737.054	-129.796	-0.201	-0.028
-736.039	65.475	0.267	0.276
-735.025	179.888	-0.063	-0.094
-734.010	-112.663	0.225	-0.046
-732.996	-200.000	0.006	0.309
-731.981	178.352	-0.271	-0.404
-730.966	-200.000	-0.032	0.324
-729.952	30.308	-0.199	-0.174
-728.937	67.616	-0.245	0.255
-727.923	-98.962	0.170	-0.044
-726.908	-94.577	0.157	-0.044
-725.894	597.059	0.159	0.401
-724.879	-200.000	0.027	-0.221
-723.864	159.695	0.071	-0.101
-722.850	153.211	-0.066	0.092
-721.835	157.918	0.127	0.180
-720.821	39.298	-0.178	-0.163
-719.806	-67.492	-0.253	0.101
-718.791	-110.630	-0.180	-0.038
-717.777	-200.000	-0.017	-0.221
-716.762	185.830	-0.178	-0.270
-715.748	-200.000	-0.009	-0.198
-714.733	-113.567	0.251	0.050
-713.718	-10.114	0.143	0.097
-712.704	138.917	-0.148	-0.198
-711.689	-200.000	0.015	-0.263
-710.675	129.895	-0.282	-0.368
-709.660	297.404	0.065	0.122
-708.645	800.000	0.071	0.277
-707.631	148.494	0.215	0.297
-706.616	71.802	-0.075	0.080
-705.602	351.963	-0.061	0.124
-704.587	-59.607	0.111	-0.049
-703.572	665.095	-0.084	-0.221
-702.558	-47.362	-0.178	-0.088
-701.543	-200.000	-0.040	0.225
-700.529	-95.273	0.354	0.097
-699.514	442.934	-0.055	0.122
-698.499	-19.333	-0.194	0.123
-697.485	-200.000	-0.075	-0.374
-696.470	-126.458	-0.048	0.007
-695.456	576.495	0.108	-0.269
-694.441	800.000	0.076	-0.281
-693.426	-38.316	-0.251	-0.136
-692.412	-200.000	-0.033	0.244
-691.397	-2.009	0.225	0.161
-690.383	187.109	0.088	-0.134
-689.368	-56.040	-0.145	-0.066
-688.354	-62.603	-0.116	-0.049
-687.339	31.512	0.204	0.179
-686.324	6.946	-0.206	-0.157
-685.310	-200.000	0.011	-0.257
-684.295	-54.506	-0.324	-0.149
-683.281	-70.633	-0.046	-0.018
-682.266	-127.316	0.100	0.015
-681.251	266.007	-0.061	0.108
-680.237	21.282	-0.028	0.023
-679.222	676.122	-0.064	-0.170
-678.208	198.663	0.146	-0.228
-677.193	308.580	-0.183	0.348
-676.178	83.236	0.064	-0.071
-675.164	-200.000	-0.013	0.223
-674.149	18.638	0.141	-0.115
-673.135	-200.000	-0.150	0.001
-672.120	-86.143	-0.450	0.141
-671.105	53.644	0.276	0.270
-670.091	100.857	-0.183	0.217
-669.076	-200.000	0.028	0.206
-668.062	-59.843	-0.202	-0.088
-667.047	-1.124	-0.310	-0.223
-666.032	800.000	-0.078	0.276
-665.018	-10.780	0.258	0.174
-664.003	-99.915	0.081	-0.021
-662.989	-118.502	-0.305	0.055
-661.974	672.495	-0.138	-0.365
-660.959	-200.000	-0.028	-0.322
-659.945	320.877	-0.148	0.286
-658.930	-112.649	-0.194	-0.039
-657.916	800.000	-0.067	-0.256
-656.901	-130.699	0.385	0.053
-655.886	-145.411	-0.381	-0.035
-654.872	-56.749	-0.343	0.155
-653.857	161.104	-0.183	-0.260
-652.843	-117.872	0.250	0.046
-651.828	-157.464	0.256	-0.016
-650.814	478.486	0.157	0.363
-649.799	-116.985	0.194	0.036
-648.784	36.107	-0.102	-0.091
-647.770	173.984	0.139	0.205
-646.755	39.365	-0.220	0.200
-645.741	-89.520	0.122	-0.037
-644.726	153.381	-0.033	0.045
-643.711	-66.536	-0.150	0.061
-642.697	-16.135	0.158	0.102
-641.682	44.334	0.212	-0.198
-640.668	238.708	0.057	-0.096
-639.653	9.348	0.100	0.077
-638.638	-143.943	-0.245	0.023
-637.624	28.670	-0.072	0.062
-636.609	329.390	-0.079	0.155
-635.595	522.838	-0.115	0.276
-634.580	422.619	-0.202	0.441
-633.565	9.395	-0.178	0.137
-632.551	-63.090	-0.153	0.064
-631.536	32.440	-0.143	0.126
-630.522	800.000	-0.015	0.058
-629.507	-16.452	0.100	-0.065
-628.492	800.000	-0.042	0.120
-627.478	24.394	-0.159	-0.134
-626.463	554.873	-0.125	-0.305
-625.449	-98.283	-0.434	0.113
-624.434	-37.672	-0.075	-0.041
-623.419	526.532	0.285	-0.683
-622.405	232.312	0.102	-0.170
-621.390	-107.648	0.392	0.087
-620.376	213.895	0.225	0.362
-619.361	29.760	0.134	0.116
-618.346	-200.000	0.071	-0.455
-617.332	-100.623	-0.326	0.082
-616.317	800.000	-0.018	0.058
-615.303	293.342	0.086	-0.159
-614.288	33.503	0.035	-0.031
-613.273	-142.002	0.133	-0.013
-612.259	-200.000	-0.004	0.325
-611.244	-11.395	-0.129	0.087
-610.230	177.192	-0.070	-0.104
-609.215	-200.000	0.030	-0.162
-608.201	-60.390	-0.192	-0.083
-607.186	181.858	0.070	0.104
-606.171	-142.275	0.334	0.034
-605.157	103.820	0.248	0.296
-604.142	107.103	-0.122	0.147
-603.128	39.865	-0.182	0.166
-602.113	206.490	0.018	-0.029
-601.098	312.434	0.160	-0.305
-600.084	189.787	0.030	0.046
-599.069	-71.001	0.020	-0.008
-598.055	800.000	-0.072	0.210
-597.040	75.791	-0.255	-0.274
-596.025	211.067	-0.226	-0.361
-595.011	-200.000	0.018	-0.262
-593.996	-70.467	-0.071	0.027
-592.982	-131.714	-0.148	-0.020
-591.967	800.000	0.009	0.036
-590.952	-72.418	0.269	-0.101
-589.938	13.233	-0.229	-0.180
-588.923	-198.511	0.083	0.000
-587.909	53.126	-0.290	0.282
-586.894	800.000	0.014	0.043
-585.879	355.312	0.057	-0.115
-584.865	800.000	0.072	-0.228
-583.850	77.011	0.094	0.101
-582.836	-200.000	-0.037	-0.196
-581.821	800.000	0.115	0.325
-580.806	800.000	-0.095	0.288
-579.792	-151.725	0.132	-0.010
-578.777	-134.150	0.122	0.015
-577.763	-100.213	-0.139	-0.035
-576.748	-71.068	-0.172	0.066
-575.733	-74.889	0.181	0.066
-574.719	-151.457	-0.127	-0.010
-573.704	-80.783	0.121	0.041
-572.690	-41.914	-0.189	-0.098
-571.675	-75.585	-0.018	-0.006
-570.661	-149.415	-0.170	0.014
-569.646	-63.447	0.276	0.115
-568.631	800.000	0.022	0.079
-567.617	-94.992	-0.088	0.024
-566.602	52.063	0.231	0.223
-565.588	800.000	0.030	-0.118
-564.573	-72.217	-0.037	0.014
-563.558	-200.000	0.004	-0.377
-562.544	800.000	0.010	-0.041
-561.529	94.125	-0.054	0.062
-560.515	800.000	0.071	-0.293
-559.500	800.000	-0.072	-0.206
-558.485	5.369	0.085	0.063
-557.471	-81.511	0.256	0.085
-556.456	-53.297	-0.220	-0.102
-555.442	-25.543	0.126	-0.076
-554.427	-200.000	-0.026	-0.213
-553.412	-200.000	0.031	0.367
-552.398	-157.897	0.472	-0.028
-551.383	800.000	0.033	0.140
-550.369	-105.039	0.206	-0.048
-549.354	15.926	-0.104	-0.083
-548.339	88.341	-0.285	0.321
-547.325	-122.763	-0.170	-0.028
-546.310	372.263	0.164	-0.337
-545.296	-79.487	0.214	-0.073
-544.281	259.053	-0.143	-0.249
-543.266	-150.353	-0.198	0.015
-542.252	288.920	-0.024	0.045
-541.237	582.101	-0.108	0.269
-540.223	-63.074	-0.127	-0.053
-539.208	-200.000	-0.045	-0.233
-538.193	424.053	-0.211	-0.459
-537.179	97.411	0.107	-0.124
-536.164	173.369	0.122	-0.178
-535.150	45.764	0.111	0.104
-534.135	-104.880	-0.316	-0.073
-533.121	-176.663	-0.168	0.004
-532.106	368.436	-0.145	0.297
-531.091	-3.470	0.254	-0.179
-530.077	272.706	-0.237	-0.423
-529.062	800.000	0.041	-0.119
-528.048	-92.266	0.110	-0.031
-527.033	151.722	0.276	-0.381
-526.018	61.744	-0.215	-0.216
-525.004	-19.050	0.285	0.179
-523.989	-95.429	-0.127	-0.035
-522.975	111.380	0.133	0.163
-521.960	-200.000	0.030	-0.153
-520.945	97.891	0.339	-0.395
-519.931	302.113	-0.027	0.050
-518.916	-200.000	-0.020	-0.457
-517.902	800.000	-0.044	0.150
-516.887	800.000	0.065	-0.201
-515.872	-149.425	-0.048	-0.004
-514.858	257.616	-0.075	-0.131
-513.843	279.486	-0.112	-0.202
-512.829	-58.714	0.236	-0.103
-511.814	-30.479	0.075	0.043
-510.799	505.141	-0.084	0.196
-509.785	94.457	0.124	-0.143
-508.770	531.836	0.124	0.297
-507.756	-157.328	0.435	0.027
-506.741	436.688	-0.143	-0.315
-505.726	631.583	-0.150	0.384
-504.712	-12.064	-0.239	0.158
-503.697	167.510	0.139	0.200
-502.683	-200.000	0.013	-0.166
-501.668	10.903	0.053	-0.041
-500.653	51.792	0.224	-0.216
-499.639	180.197	-0.264	-0.392
-498.624	800.000	-0.052	-0.148
-497.610	-200.000	0.005	-0.040
-496.595	56.069	0.308	0.302
-495.581	-18.721	0.236	-0.149
-494.566	-15.666	0.095	-0.061
-493.551	-96.794	-0.293	0.078
-492.537	800.000	-0.097	-0.367
-491.522	-147.470	0.111	0.010
-490.508	-200.000	-0.013	-0.412
-489.493	-152.850	0.452	0.032
-488.478	-62.660	-0.105	0.044
-487.464	-78.006	0.153	-0.053
-486.449	-125.938	0.324	0.049
-485.435	800.000	-0.085	0.359
-484.420	280.159	-0.242	0.438
-483.405	611.440	0.082	-0.209
-482.391	800.000	-0.030	-0.129
-481.376	240.058	-0.141	0.237
-480.362	80.487	0.004	-0.005
-479.347	-164.603	0.365	-0.017
-478.332	235.935	0.109	0.181
-477.318	800.000	-0.111	-0.361
-476.303	-68.372	-0.112	0.044
-475.289	77.963	0.097	0.104
-474.274	-200.000	0.006	-0.082
-473.259	-12.469	-0.170	-0.112
-472.245	567.271	-0.058	-0.143
-471.230	251.632	0.058	-0.100
-470.216	167.824	-0.128	-0.184
-469.201	-64.917	0.360	-0.147
-468.186	800.000	-0.064	-0.179
-467.172	111.717	0.122	0.149
-466.157	-10.608	0.111	-0.074
-465.143	-166.273	-0.121	-0.005
-464.128	-200.000	0.029	0.236
-463.113	249.110	-0.093	0.159
-462.099	-171.783	0.374	-0.012
-461.084	-200.000	-0.005	-0.037
-460.070	126.260	0.126	0.160
-459.055	-75.984	-0.078	-0.028
-458.040	-200.000	0.016	-0.373
-457.026	-115.150	0.060	0.011
-456.011	-4.471	-0.547	0.382
-454.997	37.987	0.040	-0.036
-453.982	132.078	0.165	-0.214
-452.968	-118.339	0.265	0.048
-451.953	-164.400	-0.483	0.022
-450.938	-94.513	0.240	0.066
-449.924	-168.648	0.295	0.011
-448.909	-45.220	-0.278	-0.140
-447.895	-86.788	-0.510	0.157
-446.880	129.434	0.019	0.025
-445.865	-52.050	-0.272	0.128
-444.851	800.000	0.143	0.492
-443.836	13.941	-0.368	0.289
-442.822	16.261	-0.133	-0.106
-441.807	-122.222	-0.181	-0.030
-440.792	-21.259	0.028	0.017
-439.778	678.067	-0.082	-0.214
-438.763	-120.353	0.384	-0.066
-437.749	-200.000	0.028	-0.150
-436.734	-200.000	0.067	0.396
-435.719	-132.380	0.368	-0.048
-434.705	800.000	-0.096	-0.289
-433.690	800.000	0.072	-0.283
-432.676	-101.163	0.160	-0.040
-431.661	-200.000	0.000	-0.072
-430.646	-31.804	0.371	0.210
-429.632	70.082	-0.116	0.121
-428.617	-161.619	-0.204	0.011
-427.603	264.346	0.124	0.217
-426.588	-139.499	-0.146	0.016
-425.573	421.998	-0.050	-0.108
-424.559	127.838	-0.029	-0.037
-423.544	208.447	-0.028	-0.044
-422.530	-200.000	-0.047	0.477
-421.515	218.918	-0.115	0.185
-420.500	-126.960	-0.062	0.009
-419.486	122.805	0.050	-0.063
-418.471	-23.602	0.321	0.194
-417.457	102.039	-0.150	-0.177
-416.442	-200.000	0.034	-0.152
-415.428	-79.013	0.082	-0.028
-414.413	-200.000	0.001	-0.035
-413.398	-200.000	-0.030	-0.221
-412.384	-200.000	-0.057	0.261
-411.369	-97.950	-0.204	0.053
-410.355	-69.018	0.109	-0.042
-409.340	-20.962	-0.182	-0.112
-408.325	520.598	0.080	0.189
-407.311	-200.000	0.030	-0.204
-406.296	-98.127	0.229	0.059
-405.282	55.126	0.250	0.244
-404.267	27.540	-0.081	-0.068
-403.252	-36.944	-0.377	-0.204
-402.238	65.861	0.125	-0.127
-401.223	-112.519	0.406	-0.082
-400.209	-83.587	0.290	-0.093
-399.194	-40.766	-0.253	0.132
-398.179	800.000	-0.071	-0.202
-397.165	800.000	0.079	0.272
-396.150	-200.000	-0.008	0.337
-395.136	-63.148	-0.148	-0.062
-394.121	800.000	0.101	-0.289
-393.106	-111.874	-0.270	-0.055
-392.092	66.399	-0.191	0.196
-391.077	-90.910	0.411	-0.119
-390.063	155.890	-0.170	-0.236
-389.048	-200.000	0.003	-0.103
-388.033	-200.000	-0.048	-0.245
-387.019	800.000	0.027	-0.096
-386.004	-115.640	0.128	0.024
-384.990	-108.809	-0.109	0.023
-383.975	39.952	0.244	0.221
-382.960	-174.094	-0.294	0.009
-381.946	-83.265	0.343	0.111
-380.931	211.866	-0.122	0.193
-379.917	-38.265	-0.090	0.048
-378.902	-76.017	0.422	-0.150
-377.888	-39.961	0.114	-0.060
-376.873	-52.344	-0.170	0.079
-375.858	114.113	-0.205	0.252
-374.844	800.000	0.066	-0.291
-373.829	343.263	-0.039	-0.077
-372.815	-79.227	0.117	0.040
-371.800	167.650	-0.097	0.139
-370.785	-200.000	0.010	0.408
-369.771	800.000	0.074	-0.237
-368.756	-54.358	0.273	0.125
-367.742	-200.000	-0.030	0.185
-366.727	800.000	0.065	-0.203
-365.712	-200.000	0.023	0.194
-364.698	-47.464	0.336	-0.164
-363.683	158.503	-0.112	-0.157
-362.669	800.000	-0.026	-0.098
-361.654	-200.000	0.075	-0.487
-360.639	283.937	0.089	-0.161
-359.625	-200.000	-0.008	-0.064
-358.610	-74.369	-0.192	-0.070
-357.596	-200.000	-0.031	0.301
-356.581	-177.703	0.193	-0.005
-355.566	-200.000	-0.049	0.481
-354.552	-82.448	-0.247	-0.081
-353.537	-39.015	-0.146	0.077
-352.523	85.772	0.355	0.393
-351.508	-200.000	0.003	-0.164
-350.493	164.992	0.112	-0.159
-349.479	-200.000	0.003	0.028
-348.464	800.000	-0.088	-0.277
-347.450	-97.475	-0.354	0.093
-346.435	322.832	0.095	0.183
-345.420	27.440	0.243	-0.206
-344.406	12.846	0.223	-0.173
-343.391	-200.000	0.008	-0.462
-342.377	800.000	-0.072	0.260
-341.362	63.952	0.140	-0.142
-340.348	-200.000	-0.048	0.238
-339.333	-200.000	0.057	0.256
-338.318	-200.000	-0.053	0.250
-337.304	-101.987	-0.158	-0.038
-336.289	-53.393	0.085	0.039
-335.275	-56.637	-0.083	0.037
-334.260	-28.882	0.449	0.260
-333.245	-100.036	0.099	-0.025
-332.231	4.018	0.136	-0.100
-331.216	-115.930	0.253	0.047
-330.202	174.827	-0.076	-0.111
-329.187	-65.680	-0.320	0.129
-328.172	-200.000	-0.007	-0.040
-327.158	93.938	-0.132	-0.150
-326.143	74.200	-0.184	0.194
-325.129	-10.756	-0.249	0.166
-324.114	-200.000	0.056	-0.255
-323.099	126.934	-0.242	-0.308
-322.085	-200.000	-0.029	-0.132
-321.070	-116.397	0.037	-0.007
-320.056	-80.435	-0.285	0.096
-319.041	-140.657	-0.259	-0.027
-318.026	-114.385	0.342	0.066
-317.012	410.380	0.102	-0.216
-315.997	-104.910	-0.081	0.019
-314.983	0.847	0.111	0.080
-313.968	-200.000	0.025	0.123
-312.953	19.101	-0.024	-0.020
-311.939	-200.000	0.001	0.036
-310.924	109.267	-0.094	0.113
-309.910	128.385	-0.130	0.166
-308.895	-200.000	0.022	0.121
-307.880	165.751	0.041	0.059
-306.866	-48.667	-0.097	-0.047
-305.851	-101.229	-0.125	-0.031
-304.837	27.479	0.076	0.065
-303.822	-141.351	0.306	0.031
-302.807	-69.192	-0.144	-0.056
-301.793	-119.999	0.210	-0.036
-300.778	800.000	0.045	0.136
-299.764	153.659	0.183	0.251
-298.749	-87.627	-0.290	-0.088
-297.735	-38.306	-0.176	-0.094
-296.720	118.223	-0.189	0.234
-295.705	320.737	0.019	0.036
-294.691	306.578	0.172	0.321
-293.676	-72.121	0.115	0.043
-292.662	-138.130	0.177	0.020
-291.647	-127.128	0.451	-0.066
-290.632	38.185	-0.189	0.169
-289.618	61.432	-0.171	0.171
-288.603	-61.251	0.397	-0.168
-287.589	-24.028	0.190	-0.114
-286.574	800.000	-0.084	0.272
-285.559	800.000	-0.067	0.238
-284.545	-200.000	-0.007	0.145
-283.530	7.239	0.262	0.196
-282.516	335.827	0.109	0.212
-281.501	-200.000	0.020	0.367
-280.486	66.660	-0.186	0.190
-279.472	-22.292	0.100	-0.061
-278.457	-0.235	-0.162	0.115
-277.443	-77.841	0.197	-0.068
-276.428	800.000	0.049	0.154
-275.413	-200.000	-0.162	-0.000
-274.399	-129.931	0.090	-0.012
-273.384	-64.432	-0.181	0.074
-272.370	-155.111	-0.077	0.005
-271.355	-112.311	0.163	0.033
-270.340	-12.000	0.239	-0.157
-269.326	331.999	0.045	0.087
-268.311	800.000	-0.018	0.067
-267.297	-200.000	-0.016	-0.322
-266.282	800.000	0.103	0.376
-265.267	-115.325	0.411	-0.078
-264.253	800.000	0.011	0.037
-263.238	-87.552	0.488	-0.148
-262.224	33.148	-0.193	0.168
-261.209	48.105	-0.218	0.205
-260.195	-200.000	0.012	-0.187
-259.180	-79.621	0.319	-0.108
-258.165	52.896	0.106	-0.102
-257.151	88.936	-0.153	-0.170
-256.136	39.711	-0.267	0.240
-255.122	475.501	0.211	0.477
-254.107	361.482	0.123	0.247
-253.092	-200.000	-0.046	-0.565
-252.078	-147.161	-0.237	-0.020
-251.063	-40.102	-0.125	-0.065
-250.049	800.000	0.102	-0.335
-249.034	-200.000	0.001	-0.263
-248.019	363.300	0.056	-0.113
-247.005	-113.810	-0.187	-0.036
-245.990	-89.276	0.291	0.086
-244.976	523.588	-0.099	0.234
-243.961	800.000	-0.127	0.467
-242.946	-200.000	-0.033	-0.252
-241.932	246.825	0.041	0.070
-240.917	-15.947	-0.133	0.085
-239.903	-161.510	-0.209	-0.011
-238.888	-145.304	-0.163	-0.015
-237.873	-123.467	0.146	-0.023
-236.859	139.580	-0.146	0.192
-235.844	289.687	-0.091	-0.165
-234.830	104.858	-0.212	-0.250
-233.815	155.926	0.059	-0.081
-232.800	-90.679	0.131	-0.038
-231.786	-200.000	0.037	-0.255
-230.771	-41.781	0.331	-0.170
-229.757	-133.040	-0.363	0.046
-228.742	113.241	-0.303	0.368
-227.727	-49.098	-0.463	-0.222
-226.713	13.520	-0.320	-0.249
-225.698	-56.572	-0.298	0.132
-224.684	29.576	0.269	0.229
-223.669	792.727	-0.092	0.254
-222.655	116.435	-0.160	0.196
-221.640	-78.868	0.264	-0.090
-220.625	-200.000	0.025	-0.133
-219.611	-200.000	-0.029	-0.196
-218.596	-200.000	-0.063	-0.391
-217.582	800.000	-0.024	-0.080
-216.567	-200.000	0.032	0.174
-215.552	-97.652	0.117	0.030
-214.538	492.432	0.075	0.171
-213.523	-163.148	-0.098	-0.005
-212.509	-130.534	-0.373	0.050
-211.494	-200.000	0.010	-0.196
-210.479	36.647	0.050	-0.044
-209.465	-111.795	-0.003	-0.001
-208.450	-200.000	0.003	0.211
-207.436	-123.565	-0.326	-0.052
-206.421	-17.956	-0.021	0.013
-205.406	-94.445	0.069	-0.019
-204.392	3.830	-0.109	-0.080
-203.377	-63.980	0.130	-0.053
-202.363	-140.959	-0.264	-0.027
-201.348	-168.765	-0.201	0.008
-200.333	-170.020	0.111	-0.004
-199.319	-200.000	0.029	-0.140
-198.304	-59.488	-0.173	-0.074
-197.290	-200.000	-0.040	-0.313
-196.275	4.815	-0.141	-0.104
-195.260	21.794	0.081	0.066
-194.246	38.030	0.201	0.179
-193.231	-53.571	-0.061	-0.028
-192.217	-26.064	0.117	-0.069
-191.202	-125.664	0.057	-0.009
-190.187	287.122	0.077	0.139
-189.173	-200.000	-0.025	-0.218
-188.158	218.993	-0.220	-0.352
-187.144	-89.595	0.175	0.051
-186.129	-200.000	-0.009	0.086
-185.114	-60.131	0.202	-0.086
-184.100	-10.728	0.070	-0.046
-183.085	-200.000	-0.068	0.612
-182.071	-51.599	-0.090	0.042
-181.056	800.000	-0.033	0.130
-180.042	-72.015	-0.230	0.085
-179.027	-183.075	0.324	-0.006
-178.012	148.105	0.020	0.027
-176.998	-200.000	-0.007	-0.328
-175.983	-200.000	0.022	0.147
-174.969	134.306	0.204	0.264
-173.954	363.599	0.105	-0.211
-172.939	-101.219	-0.353	-0.086
-171.925	-59.460	-0.131	0.056
-170.910	-73.203	0.065	-0.024
-169.896	68.730	-0.158	-0.162
-168.881	120.242	-0.141	0.175
-167.866	-200.000	0.060	0.283
-166.852	-72.550	-0.108	-0.040
-165.837	800.000	-0.027	-0.119
-164.823	86.076	0.227	0.249
-163.808	241.654	-0.155	0.258
-162.793	-144.377	-0.201	-0.019
-161.779	293.944	0.138	0.252
-160.764	-110.537	-0.157	-0.032
-159.750	178.060	-0.200	0.291
-158.735	245.109	-0.117	-0.197
-157.720	-200.000	0.003	0.075
-156.706	104.590	0.128	-0.150
-155.691	-36.697	-0.118	0.063
-154.677	-101.864	0.148	0.036
-153.662	-94.386	-0.184	0.050
-152.647	-65.737	-0.152	-0.061
-151.633	-31.428	-0.184	-0.103
-150.618	-200.000	0.020	-0.103
-149.604	-99.295	0.147	0.037
-148.589	-150.633	-0.234	0.018
-147.574	680.312	0.154	0.401
-146.560	-200.000	0.027	0.174
-145.545	-162.726	-0.069	-0.003
-144.531	367.429	-0.186	-0.375
-143.516	206.332	-0.033	0.052
-142.502	-85.168	0.132	0.041
-141.487	-90.836	-0.030	-0.009
-140.472	-86.793	-0.309	0.094
-139.458	-84.663	0.171	-0.054
-138.443	-200.000	-0.040	0.199
-137.429	-68.296	0.123	-0.048
-136.414	51.144	-0.234	-0.221
-135.399	-79.269	0.271	-0.092
-134.385	277.772	-0.180	0.320
-133.370	-88.463	-0.283	0.084
-132.356	155.495	-0.058	-0.080
-131.341	-77.272	0.359	-0.125
-130.326	-200.000	-0.105	0.512
-129.312	254.215	0.141	0.241
-128.297	584.088	-0.131	-0.321
-127.283	-35.203	0.106	-0.057
-126.268	-200.000	0.047	0.243
-125.253	-159.803	0.077	-0.004
-124.239	-16.922	0.246	0.155
-123.224	-109.409	0.201	-0.042
