DTS Sentinel unit serial number:	SN413079Multiplexer serial number:	ORYXHardware model number:	OX4-SRSoftware version number:	ORYX F/W v4.00 Oryx Data Collector v3.7.2.0data status	okinstallation	princeton_trtdifferential loss correction	single-endedforward channel	channel 4reverse channel	N/Adate	2019/09/12time	00:43:11forward acquisition time	60.00reverse acquisition time	0.00gamma	496.2192k internal	0.2309k external	0.2309temperature offset calibration	1.0092default loss term (dB/km)	0.3790temperature slope calibration	1.0000multiplexer offset coefficient	1.0000multiplexer slope coefficient	1.0000fibre end	0.00T internal ref (°C)	33.31T ext. ref 1 (°C)	2.06T ext. ref 2 (°C)	28.06length (m)	temperature (°C)	Stokes	anti-Stokes-747.200	181.025	0.044	-0.066
-746.185	-115.901	-0.151	0.029
-745.171	-154.360	-0.034	0.002
-744.156	-89.021	-0.493	0.148
-743.142	-200.000	0.011	-0.072
-742.127	-200.000	-0.049	0.268
-741.112	-163.015	-0.248	-0.012
-740.098	47.514	-0.267	0.253
-739.083	800.000	0.067	-0.244
-738.069	-150.071	-0.249	-0.020
-737.054	449.105	0.123	0.275
-736.039	-172.025	-0.544	0.018
-735.025	12.079	0.337	-0.263
-734.010	86.894	0.064	0.071
-732.996	124.182	0.153	0.195
-731.981	-85.552	-0.318	-0.100
-730.966	-155.307	0.252	-0.017
-729.952	-16.617	0.260	-0.167
-728.937	-200.000	0.005	-0.040
-727.923	71.540	-0.176	-0.185
-726.908	-29.862	-0.025	-0.015
-725.894	800.000	0.063	0.218
-724.879	-132.088	-0.421	-0.056
-723.864	173.908	0.010	-0.014
-722.850	84.098	0.037	0.041
-721.835	131.955	0.136	0.178
-720.821	800.000	-0.069	0.241
-719.806	-25.913	0.232	-0.138
-718.791	457.383	-0.177	-0.400
-717.777	249.959	0.056	0.096
-716.762	303.744	-0.067	0.126
-715.748	800.000	0.034	0.124
-714.733	-68.339	0.359	0.141
-713.718	56.399	0.156	-0.153
-712.704	-46.864	0.258	0.128
-711.689	8.200	-0.238	-0.182
-710.675	-131.137	0.165	-0.022
-709.660	10.221	0.193	0.149
-708.645	-35.135	0.163	-0.090
-707.631	-49.999	0.330	0.159
-706.616	-8.286	0.230	0.157
-705.602	-51.663	-0.175	0.083
-704.587	355.580	-0.111	-0.223
-703.572	-60.132	0.123	-0.053
-702.558	-75.473	-0.179	0.065
-701.543	-27.503	-0.150	0.089
-700.529	800.000	0.055	-0.202
-699.514	-16.173	-0.183	-0.118
-698.499	451.351	-0.109	-0.243
-697.485	-131.991	-0.131	0.017
-696.470	151.032	0.108	-0.149
-695.456	-200.000	0.012	0.183
-694.441	-200.000	0.014	0.300
-693.426	-200.000	-0.048	0.271
-692.412	152.562	-0.136	-0.189
-691.397	-200.000	0.000	0.264
-690.383	-55.998	0.164	0.074
-689.368	148.476	-0.169	-0.232
-688.354	146.587	-0.024	-0.032
-687.339	222.162	-0.070	-0.114
-686.324	243.722	0.248	0.422
-685.310	-118.077	0.049	0.009
-684.295	800.000	0.108	0.397
-683.281	297.387	0.126	-0.234
-682.266	-200.000	-0.023	0.106
-681.251	-200.000	0.033	0.181
-680.237	-81.328	-0.290	-0.097
-679.222	-113.091	-0.157	-0.031
-678.208	-159.310	-0.408	-0.023
-677.193	-200.000	0.033	-0.211
-676.178	-94.486	0.185	0.051
-675.164	-200.000	0.008	-0.068
-674.149	169.254	-0.196	0.284
-673.135	79.287	-0.196	0.213
-672.120	723.542	0.082	0.222
-671.105	800.000	0.106	0.441
-670.091	-178.426	0.061	0.001
-669.076	314.880	-0.128	0.245
-668.062	-145.519	-0.230	0.021
-667.047	75.693	0.116	-0.124
-666.032	137.308	0.031	-0.042
-665.018	348.056	0.100	0.200
-664.003	537.012	-0.098	0.236
-662.989	1.678	-0.282	0.206
-661.974	-149.773	-0.131	-0.010
-660.959	-49.510	0.228	-0.110
-659.945	-200.000	-0.026	0.225
-658.930	-200.000	-0.009	0.178
-657.916	-129.631	0.134	0.019
-656.901	-62.021	0.245	-0.103
-655.886	329.686	-0.092	0.180
-654.872	800.000	0.016	-0.061
-653.857	33.520	-0.132	-0.116
-652.843	162.371	0.139	0.197
-651.828	800.000	0.021	0.081
-650.814	-130.432	-0.265	0.036
-649.799	16.028	-0.227	-0.181
-648.784	-15.249	-0.378	-0.245
-647.770	601.817	-0.099	0.249
-646.755	-147.595	-0.231	0.020
-645.741	161.028	-0.101	0.143
-644.726	514.206	-0.043	0.102
-643.711	-107.848	-0.281	0.062
-642.697	-12.560	0.594	0.392
-641.682	800.000	-0.080	0.350
-640.668	-12.787	0.398	-0.262
-639.653	-115.888	-0.127	-0.024
-638.638	-44.437	0.130	-0.066
-637.624	-123.961	-0.347	-0.055
-636.609	673.403	-0.092	-0.241
-635.595	302.696	0.066	-0.124
-634.580	75.603	0.041	-0.044
-633.565	594.551	0.061	0.152
-632.551	800.000	-0.121	-0.367
-631.536	376.451	-0.053	-0.110
-630.522	-200.000	0.011	0.199
-629.507	105.094	-0.138	0.165
-628.492	18.557	0.189	-0.153
-627.478	99.587	-0.178	-0.208
-626.463	-131.993	0.341	0.045
-625.449	-110.635	-0.180	-0.038
-624.434	-147.498	0.094	-0.008
-623.419	-141.751	-0.050	-0.005
-622.405	77.552	-0.151	-0.162
-621.390	245.794	0.154	-0.262
-620.376	16.204	0.292	-0.232
-619.361	246.746	-0.160	-0.273
-618.346	252.088	0.146	-0.252
-617.332	392.838	-0.082	-0.173
-616.317	-200.000	-0.018	-0.338
-615.303	-11.896	0.125	-0.083
-614.288	114.993	-0.116	0.143
-613.273	-106.551	-0.166	-0.037
-612.259	-121.923	-0.326	0.054
-611.244	-75.085	-0.510	-0.185
-610.230	557.125	-0.065	-0.157
-609.215	-167.009	0.078	0.003
-608.201	800.000	0.031	-0.106
-607.186	-41.388	0.333	-0.173
-606.171	183.668	0.128	-0.192
-605.157	-6.624	0.035	0.024
-604.142	201.003	0.099	0.153
-603.128	141.162	0.075	0.101
-602.113	17.444	-0.262	-0.210
-601.098	788.279	0.160	0.444
-600.084	-183.641	0.143	0.002
-599.069	51.122	0.021	0.020
-598.055	74.013	0.086	-0.091
-597.040	102.537	-0.139	0.164
-596.025	-50.932	0.331	-0.157
-595.011	800.000	0.074	0.225
-593.996	-110.325	0.228	0.048
-592.982	-88.039	-0.490	-0.149
-591.967	30.523	0.211	-0.182
-590.952	-184.150	0.091	-0.002
-589.938	-200.000	-0.003	-0.177
-588.923	39.246	0.042	-0.038
-587.909	159.301	-0.254	0.357
-586.894	719.974	0.102	-0.275
-585.879	-73.361	0.118	0.044
-584.865	800.000	0.066	-0.235
-583.850	202.059	0.133	0.208
-582.836	800.000	-0.046	0.149
-581.821	176.831	0.162	-0.238
-580.806	-89.791	0.079	0.023
-579.792	103.892	0.129	0.153
-578.777	183.014	-0.024	0.035
-577.763	69.147	-0.061	-0.064
-576.748	-200.000	-0.029	0.189
-575.733	-29.369	0.282	0.163
-574.719	32.087	-0.018	0.016
-573.704	-200.000	0.061	-0.290
-572.690	24.294	-0.112	0.094
-571.675	-80.374	-0.398	0.134
-570.661	-93.996	0.260	0.072
-569.646	-200.000	0.018	-0.264
-568.631	-200.000	-0.015	0.337
-567.617	15.008	-0.058	0.046
-566.602	-83.304	0.413	-0.134
-565.588	44.714	-0.060	0.055
-564.573	-28.135	-0.311	0.182
-563.558	-82.746	-0.117	-0.038
-562.544	-93.830	0.051	-0.014
-561.529	-169.953	-0.097	0.004
-560.515	-46.474	-0.246	0.122
-559.500	17.483	0.318	-0.255
-558.485	-29.199	-0.360	0.208
-557.471	-147.376	-0.237	-0.020
-556.456	-121.051	0.335	-0.057
-555.442	-109.754	-0.239	-0.051
-554.427	-81.145	0.168	-0.056
-553.412	363.204	0.095	0.193
-552.398	-15.385	0.195	-0.126
-551.383	-190.518	0.145	0.002
-550.369	4.169	-0.134	0.099
-549.354	-46.624	0.073	-0.036
-548.339	20.614	0.239	0.195
-547.325	-104.466	0.229	0.053
-546.310	4.130	-0.220	0.162
-545.296	-200.000	-0.021	0.442
-544.281	-156.456	-0.235	0.015
-543.266	-200.000	-0.012	-0.185
-542.252	800.000	0.135	-0.397
-541.237	800.000	0.156	-0.521
-540.223	-176.426	0.129	0.003
-539.208	170.624	-0.115	-0.166
-538.193	8.764	0.067	0.051
-537.179	-56.798	-0.047	0.021
-536.164	-70.494	-0.241	0.092
-535.150	49.305	-0.137	-0.130
-534.135	-200.000	0.025	-0.134
-533.121	116.950	-0.043	0.053
-532.106	518.724	0.020	0.047
-531.091	261.348	-0.176	-0.306
-530.077	247.113	0.077	0.131
-529.062	317.548	0.045	-0.085
-528.048	800.000	-0.083	0.236
-527.033	-107.401	0.186	0.041
-526.018	688.069	0.126	-0.333
-525.004	800.000	0.027	0.081
-523.989	265.744	0.036	0.063
-522.975	800.000	0.063	0.229
-521.960	-200.000	-0.007	0.117
-520.945	-131.527	-0.168	0.022
-519.931	-200.000	-0.025	-0.262
-518.916	-200.000	0.021	-0.105
-517.902	-200.000	0.001	-0.118
-516.887	800.000	0.063	-0.199
-515.872	-140.129	-0.084	0.009
-514.858	-49.753	0.284	-0.136
-513.843	-67.055	0.141	0.056
-512.829	69.364	0.159	-0.165
-511.814	35.571	0.091	0.080
-510.799	-159.039	0.254	0.014
-509.785	-59.107	-0.051	0.022
-508.770	-200.000	0.003	-0.354
-507.756	800.000	-0.094	0.382
-506.741	-35.455	0.164	0.090
-505.726	-7.853	-0.068	-0.046
-504.712	177.252	-0.176	0.259
-503.697	-125.532	-0.206	-0.031
-502.683	-200.000	-0.002	0.015
-501.668	-151.269	0.148	-0.011
-500.653	-129.882	-0.157	-0.022
-499.639	-143.896	-0.356	0.034
-498.624	-200.000	0.024	0.115
-497.610	-200.000	-0.002	-0.115
-496.595	-200.000	-0.009	0.193
-495.581	-6.781	0.204	0.140
-494.566	348.024	-0.053	-0.104
-493.551	321.368	0.042	-0.081
-492.537	-14.493	-0.039	0.025
-491.522	800.000	-0.091	-0.353
-490.508	-41.592	-0.332	0.172
-489.493	5.651	-0.089	0.066
-488.478	-13.388	-0.047	0.030
-487.464	205.229	0.052	-0.082
-486.449	219.120	0.139	0.223
-485.435	159.496	0.208	0.291
-484.420	-46.859	0.098	-0.048
-483.405	-85.430	-0.312	-0.098
-482.391	465.887	-0.101	0.227
-481.376	-17.072	0.274	-0.174
-480.362	-28.184	-0.284	0.165
-479.347	-95.033	-0.079	-0.022
-478.332	-200.000	-0.045	0.254
-477.318	-200.000	-0.001	-0.240
-476.303	-140.546	-0.110	-0.011
-475.289	-5.834	-0.261	-0.180
-474.274	-115.212	-0.055	-0.010
-473.259	-117.079	-0.183	0.033
-472.245	125.639	-0.200	0.254
-471.230	-129.568	-0.340	-0.047
-470.216	157.061	-0.145	0.202
-469.201	200.838	-0.117	-0.181
-468.186	800.000	0.010	-0.033
-467.172	800.000	-0.035	-0.145
-466.157	-90.351	-0.192	0.056
-465.143	800.000	0.013	0.047
-464.128	567.892	-0.098	-0.238
-463.113	-103.080	-0.172	-0.041
-462.099	188.689	-0.128	0.192
-461.084	57.538	-0.088	0.087
-460.070	17.970	-0.185	0.148
-459.055	-200.000	0.011	0.177
-458.040	-200.000	0.011	-0.129
-457.026	-200.000	-0.054	-0.292
-456.011	-140.654	-0.356	0.037
-454.997	-106.803	-0.101	-0.022
-453.982	-190.174	0.102	0.001
-452.968	62.503	0.151	-0.151
-451.953	34.002	0.170	-0.149
-450.938	-95.148	-0.095	0.026
-449.924	55.241	0.118	0.114
-448.909	264.106	-0.183	0.320
-447.895	189.382	0.270	-0.407
-446.880	156.670	-0.184	0.255
-445.865	-92.458	0.264	-0.075
-444.851	-114.771	0.321	0.062
-443.836	-0.553	-0.173	-0.123
-442.822	179.737	0.144	-0.211
-441.807	369.050	-0.071	-0.143
-440.792	10.906	-0.174	-0.133
-439.778	421.774	-0.176	0.380
-438.763	-167.957	-0.150	0.006
-437.749	-200.000	0.011	-0.440
-436.734	-117.915	0.063	0.011
-435.719	63.516	0.203	0.205
-434.705	53.258	0.075	-0.072
-433.690	-117.592	-0.256	-0.046
-432.676	-88.642	-0.130	-0.039
-431.661	112.195	0.276	-0.335
-430.646	-200.000	0.057	-0.479
-429.632	-200.000	-0.271	-0.001
-428.617	-71.926	0.226	0.085
-427.603	-12.604	-0.367	0.240
-426.588	559.528	0.078	-0.190
-425.573	-200.000	0.084	0.426
-424.559	407.753	-0.139	-0.296
-423.544	-158.059	0.095	0.006
-422.530	326.425	-0.103	0.198
-421.515	-159.580	-0.084	0.005
-420.500	139.521	-0.290	0.383
-419.486	241.924	-0.077	0.129
-418.471	800.000	0.110	0.369
-417.457	57.408	0.093	0.091
-416.442	92.306	-0.155	-0.176
-415.428	-75.585	-0.328	-0.117
-414.413	-23.589	-0.144	-0.087
-413.398	-200.000	0.367	-0.001
-412.384	58.545	0.123	0.121
-411.369	800.000	0.100	-0.391
-410.355	-200.000	-0.020	-0.091
-409.340	-200.000	-0.023	0.162
-408.325	800.000	-0.046	0.164
-407.311	60.892	-0.121	-0.120
-406.296	17.177	0.236	-0.188
-405.282	-200.000	-0.023	-0.102
-404.267	-200.000	-0.088	-0.392
-403.252	-200.000	-0.030	0.150
-402.238	-107.008	0.453	-0.100
-401.223	396.242	-0.098	0.204
-400.209	-166.317	0.085	-0.004
-399.194	111.838	0.226	0.273
-398.179	-140.892	-0.210	-0.022
-397.165	1.712	0.117	0.084
-396.150	-44.871	0.393	0.196
-395.136	-109.709	0.199	-0.042
-394.121	432.181	-0.056	0.122
-393.106	520.125	0.035	-0.081
-392.092	411.201	-0.113	0.241
-391.077	-200.000	0.045	0.202
-390.063	9.127	0.087	0.066
-389.048	-91.471	-0.097	0.028
-388.033	-200.000	-0.030	0.187
-387.019	222.550	0.091	-0.147
-386.004	574.930	0.042	-0.104
-384.990	-123.858	-0.273	-0.043
-383.975	-66.102	0.321	0.128
-382.960	-87.621	-0.265	-0.080
-381.946	-200.000	-0.005	-0.091
-380.931	-60.136	-0.171	0.073
-379.917	800.000	0.122	0.338
-378.902	45.431	0.090	0.083
-377.888	-93.722	-0.215	-0.060
-376.873	340.159	-0.080	0.156
-375.858	198.875	0.162	0.249
-374.844	704.050	0.107	0.282
-373.829	77.740	-0.108	-0.115
-372.815	41.505	-0.217	0.197
-371.800	-200.000	0.033	0.180
-370.785	141.776	-0.089	-0.118
-369.771	-11.298	0.161	-0.106
-368.756	27.944	0.168	-0.142
-367.742	116.466	-0.090	-0.111
-366.727	330.256	-0.065	-0.126
-365.712	130.002	-0.226	0.290
-364.698	470.036	-0.051	-0.114
-363.683	5.247	0.193	-0.142
-362.669	34.622	0.087	-0.076
-361.654	53.836	0.198	-0.191
-360.639	-52.309	0.164	0.076
-359.625	-160.624	0.129	-0.007
-358.610	-62.894	-0.161	-0.067
-357.596	-200.000	-0.040	0.287
-356.581	-97.749	-0.299	-0.077
-355.566	-138.227	0.116	0.013
-354.552	372.354	0.225	0.457
-353.537	-200.000	-0.005	-0.371
-352.523	-37.712	0.326	-0.174
-351.508	12.894	0.150	0.116
-350.493	-200.000	-0.023	0.163
-349.479	20.121	-0.116	0.094
-348.464	573.674	0.128	-0.311
-347.450	27.628	-0.113	-0.095
-346.435	160.886	0.138	-0.192
-345.420	-44.163	-0.187	-0.094
-344.406	551.544	0.058	-0.140
-343.391	44.028	0.198	0.181
-342.377	77.764	-0.130	-0.139
-341.362	792.810	-0.059	0.162
-340.348	190.449	-0.078	-0.117
-339.333	800.000	-0.114	-0.399
-338.318	800.000	0.074	-0.244
-337.304	-99.998	0.186	-0.046
-336.289	-126.153	0.277	0.041
-335.275	800.000	0.131	0.364
-334.260	-101.618	0.062	-0.015
-333.245	250.009	-0.084	0.143
-332.231	800.000	-0.053	0.149
-331.216	190.344	0.040	-0.061
-330.202	800.000	0.054	-0.221
-329.187	-200.000	0.144	-0.633
-328.172	-200.000	-0.008	-0.057
-327.158	800.000	-0.038	-0.111
-326.143	-5.699	0.087	0.059
-325.129	-81.626	-0.287	0.094
-324.114	800.000	0.079	0.247
-323.099	-200.000	0.011	0.062
-322.085	-6.394	-0.174	0.119
-321.070	121.377	-0.033	0.042
-320.056	42.931	-0.196	-0.178
-319.041	403.946	0.192	-0.405
-318.026	800.000	-0.036	-0.123
-317.012	131.498	-0.005	0.006
-315.997	-23.882	-0.087	0.052
-314.983	132.714	0.083	0.107
-313.968	-40.761	0.230	-0.119
-312.953	-200.000	-0.006	0.123
-311.939	12.172	-0.212	0.163
-310.924	44.713	-0.110	-0.101
-309.910	-158.509	-0.420	-0.024
-308.895	259.267	0.071	0.122
-307.880	295.663	-0.225	-0.412
-306.866	-51.522	-0.144	0.067
-305.851	-10.440	0.240	0.159
-304.837	35.743	-0.173	0.152
-303.822	210.344	0.089	0.140
-302.807	-54.991	0.086	-0.039
-301.793	800.000	-0.064	-0.233
-300.778	216.870	-0.152	-0.242
-299.764	800.000	-0.108	0.314
-298.749	98.148	0.158	-0.182
-297.735	327.884	-0.143	-0.274
-296.720	800.000	-0.061	-0.175
-295.705	-54.682	0.115	-0.052
-294.691	-57.254	0.018	-0.008
-293.676	80.857	0.128	0.138
-292.662	-89.980	-0.323	-0.094
-291.647	246.636	0.006	0.010
-290.632	-52.756	-0.110	-0.051
-289.618	-74.659	-0.260	-0.094
-288.603	-69.151	0.221	0.085
-287.589	172.895	0.144	0.207
-286.574	65.964	-0.171	0.173
-285.559	149.200	-0.258	-0.349
-284.545	96.925	0.082	-0.094
-283.530	-70.620	0.088	0.033
-282.516	-136.436	-0.308	0.036
-281.501	91.112	0.161	-0.180
-280.486	36.746	0.079	-0.070
-279.472	-110.216	-0.156	-0.033
-278.457	-200.000	-0.026	0.296
-277.443	521.810	0.059	0.137
-276.428	362.938	-0.167	-0.335
-275.413	9.734	0.492	0.372
-274.399	319.306	-0.214	0.405
-273.384	147.323	0.192	0.257
-272.370	25.044	0.180	-0.149
-271.355	800.000	0.075	-0.304
-270.340	52.215	0.255	-0.243
-269.326	-180.511	-0.297	-0.006
-268.311	-107.528	0.138	-0.030
-267.297	-39.320	0.031	0.016
-266.282	-200.000	-0.068	-0.475
-265.267	327.388	-0.033	0.063
-264.253	-15.434	0.152	0.097
-263.238	-200.000	-0.022	0.161
-262.224	-76.057	0.115	-0.041
-261.209	-200.000	-0.027	-0.151
-260.195	800.000	0.054	0.159
-259.180	-72.177	-0.116	-0.043
-258.165	-200.000	0.008	-0.160
-257.151	-87.416	-0.145	0.044
-256.136	-128.785	-0.121	-0.017
-255.122	83.538	-0.051	0.056
-254.107	-76.687	0.211	0.074
-253.092	194.097	0.183	0.276
-252.078	-27.282	-0.369	0.214
-251.063	-200.000	-0.019	-0.197
-250.049	800.000	-0.120	0.437
-249.034	-134.271	-0.118	0.014
-248.019	-200.000	-0.042	-0.304
-247.005	-133.317	-0.068	-0.009
-245.990	-22.511	0.181	0.109
-244.976	800.000	0.079	0.233
-243.961	800.000	-0.076	-0.262
-242.946	-200.000	-0.042	-0.207
-241.932	90.606	0.365	0.407
-240.917	-200.000	-0.044	0.430
-239.903	800.000	-0.088	-0.259
-238.888	-122.801	-0.123	-0.020
-237.873	257.839	0.115	0.198
-236.859	241.725	0.090	0.151
-235.844	-200.000	-0.101	0.446
-234.830	579.135	-0.044	0.108
-233.815	579.714	0.109	-0.265
-232.800	-163.867	-0.253	-0.012
-231.786	96.702	-0.239	-0.273
-230.771	-53.269	0.182	0.083
-229.757	18.970	-0.172	0.137
-228.742	123.973	-0.018	-0.023
-227.727	-2.874	-0.158	-0.110
-226.713	72.642	-0.159	-0.165
-225.698	178.731	-0.181	-0.264
-224.684	-200.000	0.017	-0.152
-223.669	-24.114	0.242	-0.144
-222.655	-27.892	0.184	0.106
-221.640	28.006	0.198	0.166
-220.625	-94.118	0.256	0.070
-219.611	69.712	0.261	-0.268
-218.596	153.034	0.075	-0.102
-217.582	206.312	-0.164	-0.253
-216.567	-118.109	-0.210	-0.037
-215.552	22.584	-0.205	-0.167
-214.538	-130.824	-0.102	0.014
-213.523	-200.000	0.071	0.339
-212.509	-126.780	0.140	0.021
-211.494	-69.183	-0.182	0.070
-210.479	71.179	0.178	0.183
-209.465	800.000	-0.079	-0.315
-208.450	55.126	-0.193	0.186
-207.436	-92.209	0.405	-0.114
-206.421	104.231	-0.061	0.071
-205.406	-71.764	0.251	0.093
-204.392	167.138	-0.048	0.068
-203.377	56.903	0.103	-0.100
-202.363	-200.000	0.041	-0.488
-201.348	-88.499	0.147	0.044
-200.333	800.000	-0.096	0.324
-199.319	-200.000	-0.007	-0.100
-198.304	800.000	-0.013	0.042
-197.290	-115.808	0.324	-0.060
-196.275	24.651	0.045	0.037
-195.260	-200.000	-0.022	0.112
-194.246	-99.008	-0.169	0.043
-193.231	-19.653	0.332	-0.205
-192.217	-81.324	0.114	0.037
-191.202	538.175	-0.123	-0.290
-190.187	-38.985	-0.135	0.071
-189.173	285.136	0.084	0.151
-188.158	800.000	-0.034	0.129
-187.144	-40.530	0.074	0.038
-186.129	-200.000	0.006	0.198
-185.114	-81.107	0.204	-0.067
-184.100	-200.000	0.018	-0.186
-183.085	-115.005	0.085	0.016
-182.071	-31.446	0.091	-0.051
-181.056	146.640	0.128	-0.170
-180.042	-0.353	0.095	-0.067
-179.027	-200.000	0.099	0.506
-178.012	80.729	0.129	-0.138
-176.998	-92.736	0.308	-0.086
-175.983	-172.378	-0.180	-0.006
-174.969	800.000	0.038	0.137
-173.954	800.000	0.068	0.220
-172.939	16.580	0.216	-0.170
-171.925	-200.000	-0.010	0.154
-170.910	800.000	0.188	0.714
-169.896	303.242	0.033	0.060
-168.881	-55.324	0.365	0.163
-167.866	-200.000	-0.031	0.384
-166.852	555.741	-0.050	0.120
-165.837	-43.853	0.114	0.057
-164.823	136.336	0.108	-0.140
-163.808	-200.000	0.008	0.137
-162.793	-200.000	-0.055	0.267
-161.779	7.399	0.185	-0.138
-160.764	-149.281	-0.059	-0.005
-159.750	-200.000	0.008	0.085
-158.735	800.000	-0.063	0.189
-157.720	-102.405	0.126	-0.030
-156.706	800.000	-0.124	0.392
-155.691	-56.917	-0.104	0.046
-154.677	-48.478	-0.172	0.082
-153.662	-32.123	-0.333	0.185
-152.647	-90.890	0.278	-0.079
-151.633	205.200	0.093	0.143
-150.618	-22.246	-0.041	-0.025
-149.604	783.694	-0.051	-0.139
-148.589	800.000	0.012	0.034
-147.574	406.400	-0.153	0.320
-146.560	1.625	0.079	0.057
-145.545	13.726	0.293	-0.226
-144.531	314.923	0.096	-0.179
-143.516	311.127	0.171	-0.319
-142.502	24.056	0.141	-0.116
-141.487	-200.000	-0.043	-0.262
-140.472	789.869	0.124	0.338
-139.458	70.173	0.385	0.395
-138.443	617.519	0.041	0.101
-137.429	13.834	0.186	-0.144
-136.414	-62.615	0.105	0.043
-135.399	451.163	0.173	0.378
-134.385	124.553	-0.198	-0.247
-133.370	-28.216	-0.069	-0.040
-132.356	-78.953	-0.289	-0.098
-131.341	244.756	0.234	-0.389
-130.326	800.000	-0.073	-0.221
-129.312	-164.751	-0.314	0.014
-128.297	-48.931	0.036	0.017
-127.283	-200.000	0.015	0.092
-126.268	-200.000	-0.009	0.048
-125.253	103.812	0.163	0.190
-124.239	-2.092	-0.066	0.046
-123.224	-200.000	0.025	-0.219
-122.210	10.984	-0.150	-0.113
-121.195	-56.590	0.057	-0.025
-120.180	-41.764	0.109	-0.055
