DTS Sentinel unit serial number:	SN413079Multiplexer serial number:	ORYXHardware model number:	OX4-SRSoftware version number:	ORYX F/W v4.00 Oryx Data Collector v3.7.2.0data status	okinstallation	princeton_trtdifferential loss correction	single-endedforward channel	channel 4reverse channel	N/Adate	2019/09/11time	08:07:11forward acquisition time	60.00reverse acquisition time	0.00gamma	496.2192k internal	0.2305k external	0.2305temperature offset calibration	1.1274default loss term (dB/km)	0.3790temperature slope calibration	1.0000multiplexer offset coefficient	1.0000multiplexer slope coefficient	1.0000fibre end	0.00T internal ref (°C)	32.31T ext. ref 1 (°C)	19.85T ext. ref 2 (°C)	28.61length (m)	temperature (°C)	Stokes	anti-Stokes-747.200	3.885	-0.214	-0.159
-746.185	649.983	0.073	0.190
-745.171	-200.000	0.032	0.246
-744.156	800.000	-0.057	0.225
-743.142	-116.778	-0.337	-0.063
-742.127	121.866	0.202	0.256
-741.112	-200.000	-0.028	-0.228
-740.098	800.000	-0.075	0.298
-739.083	61.368	0.068	-0.069
-738.069	286.356	-0.100	-0.184
-737.054	-200.000	-0.028	-0.230
-736.039	800.000	-0.086	-0.312
-735.025	800.000	-0.012	0.039
-734.010	800.000	-0.050	-0.200
-732.996	-162.064	-0.404	-0.021
-731.981	234.557	0.141	-0.236
-730.966	-109.484	-0.156	-0.033
-729.952	339.544	-0.050	-0.100
-728.937	-200.000	0.002	0.594
-727.923	39.312	0.163	0.149
-726.908	349.329	-0.252	-0.506
-725.894	-200.000	0.017	-0.230
-724.879	-135.180	0.141	-0.017
-723.864	338.193	-0.041	-0.081
-722.850	-118.884	-0.548	-0.098
-721.835	12.776	0.281	-0.220
-720.821	-50.112	-0.070	-0.034
-719.806	800.000	-0.141	-0.442
-718.791	-123.008	-0.380	0.062
-717.777	-171.393	-0.250	-0.008
-716.762	6.137	-0.170	-0.128
-715.748	692.589	-0.061	-0.162
-714.733	-200.000	0.003	0.027
-713.718	78.642	0.309	-0.336
-712.704	158.589	-0.101	-0.142
-711.689	315.269	0.083	0.159
-710.675	-200.000	-0.012	-0.194
-709.660	-134.078	-0.137	0.017
-708.645	471.419	0.085	0.194
-707.631	-200.000	-0.006	-0.183
-706.616	470.063	0.135	-0.308
-705.602	138.270	0.089	-0.118
-704.587	-24.971	-0.219	-0.132
-703.572	219.686	0.204	0.332
-702.558	-30.413	0.251	0.145
-701.543	140.597	0.262	-0.351
-700.529	219.285	0.144	0.234
-699.514	-200.000	-0.018	-0.203
-698.499	33.964	0.262	-0.231
-697.485	383.209	-0.157	-0.328
-696.470	350.464	0.265	-0.532
-695.456	171.628	0.105	-0.153
-694.441	339.829	-0.082	-0.163
-693.426	800.000	0.067	0.262
-692.412	800.000	-0.048	-0.149
-691.397	-43.271	-0.219	0.112
-690.383	-59.934	0.212	-0.092
-689.368	-200.000	0.011	-0.058
-688.354	-135.122	0.201	-0.025
-687.339	-97.768	0.203	0.053
-686.324	7.381	0.074	-0.056
-685.310	6.119	0.443	-0.334
-684.295	800.000	0.040	0.140
-683.281	17.257	-0.414	-0.334
-682.266	-137.618	-0.320	0.037
-681.251	284.204	-0.144	-0.263
-680.237	287.452	0.119	0.219
-679.222	120.356	0.115	0.145
-678.208	281.625	-0.181	-0.329
-677.193	-200.000	-0.010	0.072
-676.178	-82.630	-0.314	-0.103
-675.164	-200.000	-0.007	0.327
-674.149	202.471	0.137	0.214
-673.135	-117.199	-0.022	-0.004
-672.120	392.185	-0.053	0.112
-671.105	-68.591	0.317	0.124
-670.091	800.000	-0.071	-0.274
-669.076	222.545	-0.045	-0.074
-668.062	800.000	0.077	-0.329
-667.047	118.793	-0.190	0.238
-666.032	-169.208	-0.298	0.011
-665.018	-200.000	-0.128	-0.000
-664.003	155.314	0.195	0.273
-662.989	-95.398	0.433	-0.118
-661.974	567.691	0.008	0.019
-660.959	-91.196	0.421	-0.122
-659.945	-105.238	0.046	-0.011
-658.930	-26.455	-0.054	0.032
-657.916	-42.137	-0.062	-0.032
-656.901	24.046	-0.141	0.118
-655.886	54.665	-0.096	0.094
-654.872	69.740	-0.207	0.217
-653.857	800.000	0.134	0.406
-652.843	-79.399	-0.183	-0.063
-651.828	-54.458	0.231	-0.106
-650.814	175.806	-0.154	0.226
-649.799	-200.000	-0.008	-0.118
-648.784	15.814	-0.145	0.116
-647.770	-64.810	-0.187	-0.077
-646.755	-24.162	0.269	-0.163
-645.741	-63.456	0.062	-0.026
-644.726	-80.713	0.052	0.017
-643.711	-147.028	-0.061	-0.005
-642.697	-107.831	0.248	0.055
-641.682	-200.000	-0.046	-0.450
-640.668	-61.268	0.284	0.121
-639.653	506.144	-0.077	0.182
-638.638	800.000	-0.115	0.364
-637.624	-200.000	-0.032	0.150
-636.609	76.784	-0.217	0.233
-635.595	194.399	0.174	-0.268
-634.580	477.522	0.018	0.041
-633.565	-84.213	-0.339	0.109
-632.551	185.617	0.234	-0.352
-631.536	-111.511	-0.455	0.094
-630.522	153.074	-0.141	0.196
-629.507	-136.735	-0.263	0.031
-628.492	800.000	0.069	0.295
-627.478	-151.835	-0.314	-0.023
-626.463	-55.576	-0.189	0.086
-625.449	-44.329	-0.284	-0.144
-624.434	163.352	0.193	-0.274
-623.419	-97.712	0.114	-0.030
-622.405	-130.963	0.115	-0.016
-621.390	-113.513	-0.531	-0.105
-620.376	-123.798	-0.227	0.036
-619.361	33.843	-0.215	0.190
-618.346	201.875	-0.252	0.394
-617.332	5.813	0.195	-0.146
-616.317	-200.000	-0.028	-0.165
-615.303	26.581	0.127	-0.108
-614.288	187.546	-0.121	-0.183
-613.273	4.553	0.088	-0.065
-612.259	-80.195	0.223	-0.076
-611.244	-64.587	0.072	-0.029
-610.230	22.512	-0.236	-0.195
-609.215	79.464	-0.171	-0.186
-608.201	-200.000	0.038	-0.333
-607.186	32.047	0.113	0.098
-606.171	-58.468	-0.177	-0.078
-605.157	-200.000	0.050	0.280
-604.142	295.340	-0.128	0.237
-603.128	3.734	0.282	-0.209
-602.113	-200.000	0.000	-0.422
-601.098	-158.734	-0.142	-0.008
-600.084	-24.562	0.196	0.118
-599.069	-200.000	-0.020	0.266
-598.055	181.039	-0.136	0.202
-597.040	-68.637	0.160	-0.063
-596.025	-200.000	0.012	0.146
-595.011	2.013	0.137	-0.100
-593.996	222.149	0.073	0.119
-592.982	-34.952	-0.260	0.143
-591.967	-113.566	0.277	0.055
-590.952	-2.834	-0.067	-0.047
-589.938	18.758	-0.047	0.038
-588.923	-54.338	-0.147	0.068
-587.909	484.401	-0.073	0.169
-586.894	-131.689	-0.453	-0.060
-585.879	616.141	-0.073	0.185
-584.865	-64.780	0.509	0.208
-583.850	-70.130	-0.439	0.169
-582.836	243.653	0.034	0.058
-581.821	-17.991	0.184	0.116
-580.806	-1.987	-0.209	-0.149
-579.792	-11.222	-0.186	-0.124
-578.777	385.036	0.037	-0.076
-577.763	568.562	0.111	-0.272
-576.748	-200.000	0.007	-0.062
-575.733	97.567	0.118	0.137
-574.719	-95.429	0.169	-0.046
-573.704	-53.665	0.277	0.128
-572.690	-129.995	-0.097	0.013
-571.675	588.065	0.066	0.164
-570.661	43.148	0.208	0.192
-569.646	41.059	-0.227	-0.207
-568.631	-200.000	-0.057	-0.367
-567.617	593.383	-0.074	-0.184
-566.602	-166.871	-0.126	0.005
-565.588	-55.323	-0.233	-0.106
-564.573	-200.000	-0.041	-0.226
-563.558	-200.000	0.020	0.238
-562.544	-162.821	-0.275	-0.014
-561.529	31.828	0.118	-0.102
-560.515	38.084	-0.299	0.269
-559.500	-200.000	0.020	-0.163
-558.485	800.000	0.092	-0.281
-557.471	-55.173	-0.356	-0.162
-556.456	-20.348	-0.042	-0.026
-555.442	-200.000	-0.058	-0.356
-554.427	-135.379	0.277	0.033
-553.412	53.064	-0.247	-0.239
-552.398	723.003	-0.111	-0.298
-551.383	-136.499	0.169	0.020
-550.369	-116.245	0.224	-0.042
-549.354	-21.029	0.123	0.076
-548.339	-200.000	-0.021	-0.099
-547.325	426.654	0.084	0.182
-546.310	15.038	0.040	0.031
-545.296	-200.000	0.005	-0.037
-544.281	-34.068	-0.267	-0.148
-543.266	-200.000	0.020	-0.180
-542.252	495.751	-0.083	0.194
-541.237	-200.000	-0.003	0.043
-540.223	-148.306	-0.083	0.007
-539.208	-200.000	0.006	0.144
-538.193	48.651	0.047	0.044
-537.179	-60.564	0.380	0.163
-536.164	-62.948	0.256	-0.107
-535.150	-98.891	0.418	0.107
-534.135	-36.733	0.112	-0.061
-533.121	19.917	-0.072	0.059
-532.106	-200.000	-0.047	0.339
-531.091	-200.000	-0.040	-0.217
-530.077	74.186	-0.251	0.266
-529.062	-20.832	0.085	0.053
-528.048	-200.000	0.031	0.226
-527.033	197.172	-0.075	0.116
-526.018	-127.019	0.185	0.027
-525.004	195.227	0.126	0.193
-523.989	53.470	-0.288	-0.279
-522.975	375.670	0.250	0.515
-521.960	527.251	-0.084	-0.201
-520.945	6.029	-0.245	-0.183
-519.931	-148.660	0.382	-0.031
-518.916	-85.149	-0.104	0.033
-517.902	-119.815	0.342	0.060
-516.887	-35.503	0.115	-0.063
-515.872	-135.163	-0.241	0.029
-514.858	800.000	-0.080	0.307
-513.843	-22.063	0.141	-0.086
-512.829	315.314	-0.080	-0.151
-511.814	800.000	0.090	-0.382
-510.799	-110.784	-0.403	0.084
-509.785	-200.000	0.001	-0.138
-508.770	-185.662	-0.037	0.001
-507.756	-28.345	-0.228	0.133
-506.741	67.660	-0.146	-0.151
-505.726	-106.396	0.154	0.035
-504.712	800.000	0.150	0.491
-503.697	-103.402	-0.366	0.087
-502.683	215.272	-0.131	0.209
-501.668	3.565	-0.159	0.117
-500.653	-98.633	0.251	-0.065
-499.639	-94.628	0.144	0.039
-498.624	283.924	-0.143	0.259
-497.610	190.011	0.093	0.140
-496.595	-200.000	0.027	0.137
-495.581	2.976	-0.263	-0.193
-494.566	67.203	-0.197	-0.203
-493.551	-136.602	0.066	-0.008
-492.537	596.036	0.023	-0.057
-491.522	10.271	0.141	-0.108
-490.508	-200.000	-0.056	-0.323
-489.493	50.908	-0.230	0.219
-488.478	-50.504	-0.036	0.017
-487.464	-156.693	0.465	-0.029
-486.449	615.628	0.143	0.361
-485.435	-35.875	-0.086	-0.047
-484.420	-200.000	-0.053	0.430
-483.405	-200.000	0.026	-0.156
-482.391	-103.975	-0.191	-0.045
-481.376	273.241	-0.016	-0.028
-480.362	744.784	0.024	-0.065
-479.347	400.003	0.111	0.235
-478.332	70.238	-0.097	0.100
-477.318	44.835	-0.130	-0.120
-476.303	173.217	-0.040	-0.058
-475.289	-103.538	-0.237	-0.056
-474.274	-114.170	-0.177	-0.034
-473.259	132.140	0.046	-0.059
-472.245	-200.000	-0.004	0.238
-471.230	-85.683	0.121	-0.038
-470.216	90.515	0.116	0.131
-469.201	-59.174	-0.171	-0.074
-468.186	119.652	0.077	0.096
-467.172	-143.495	-0.107	-0.010
-466.157	-0.455	-0.130	0.093
-465.143	-74.511	0.319	0.116
-464.128	-111.016	-0.265	-0.055
-463.113	-144.850	-0.456	-0.042
-462.099	57.116	-0.151	0.148
-461.084	169.510	-0.045	-0.064
-460.070	-4.272	-0.187	-0.130
-459.055	10.011	0.272	0.208
-458.040	118.537	0.104	0.129
-457.026	271.768	0.043	0.076
-456.011	94.203	0.301	-0.344
-454.997	-97.404	-0.314	-0.082
-453.982	-75.403	0.200	0.072
-452.968	41.956	-0.213	-0.194
-451.953	-200.000	-0.006	0.083
-450.938	-57.868	0.125	0.055
-449.924	116.676	0.179	-0.221
-448.909	-8.771	0.047	0.032
-447.895	-23.311	-0.269	-0.162
-446.880	546.022	-0.062	-0.148
-445.865	-200.000	-0.029	-0.362
-444.851	167.880	-0.288	0.412
-443.836	462.202	-0.039	0.087
-442.822	284.561	-0.083	0.151
-441.807	52.646	0.142	0.137
-440.792	142.473	0.180	0.240
-439.778	800.000	-0.065	-0.197
-438.763	-52.099	-0.099	-0.046
-437.749	80.169	-0.261	-0.282
-436.734	-79.506	0.100	0.034
-435.719	325.771	-0.126	-0.243
-434.705	35.801	-0.337	0.298
-433.690	-142.322	0.231	0.023
-432.676	-200.000	-0.030	-0.143
-431.661	-54.309	0.206	0.094
-430.646	-29.205	-0.079	0.046
-429.632	-112.819	0.131	0.026
-428.617	280.166	0.136	0.245
-427.603	-129.189	0.492	-0.069
-426.588	-105.754	0.156	0.035
-425.573	196.036	-0.060	0.092
-424.559	573.397	0.038	-0.093
-423.544	386.362	0.060	-0.125
-422.530	800.000	-0.076	-0.270
-421.515	382.264	0.119	-0.247
-420.500	297.893	0.137	-0.253
-419.486	-82.772	0.118	0.038
-418.471	-107.660	-0.250	-0.055
-417.457	110.357	0.181	0.219
-416.442	70.999	0.257	0.267
-415.428	-200.000	-0.023	0.316
-414.413	8.355	-0.098	0.074
-413.398	-129.273	-0.194	0.027
-412.384	-200.000	0.038	0.240
-411.369	43.819	-0.291	-0.267
-410.355	208.962	0.029	-0.045
-409.340	-48.417	-0.101	-0.049
-408.325	-35.474	0.169	0.092
-407.311	-200.000	-0.004	-0.247
-406.296	-10.260	-0.269	-0.179
-405.282	800.000	0.050	0.168
-404.267	223.938	0.062	-0.101
-403.252	142.821	0.118	-0.158
-402.238	208.023	0.145	0.228
-401.223	-82.509	-0.183	-0.060
-400.209	-44.721	0.382	-0.191
-399.194	800.000	0.089	-0.307
-398.179	-200.000	0.003	-0.170
-397.165	800.000	0.023	-0.077
-396.150	288.201	-0.090	-0.163
-395.136	800.000	0.045	0.151
-394.121	71.519	0.225	-0.234
-393.106	800.000	-0.029	-0.102
-392.092	-58.830	-0.218	-0.095
-391.077	603.361	0.123	0.306
-390.063	-104.045	-0.066	0.015
-389.048	369.256	0.071	0.145
-388.033	-150.984	0.232	-0.018
-387.019	26.748	-0.301	0.253
-386.004	-118.583	0.240	-0.043
-384.990	463.402	0.112	0.250
-383.975	-128.207	0.496	0.071
-382.960	800.000	0.036	0.112
-381.946	105.333	-0.159	-0.188
-380.931	-22.461	0.080	0.048
-379.917	167.723	0.032	-0.046
-378.902	-200.000	-0.089	0.495
-377.888	800.000	-0.028	0.114
-376.873	44.927	0.024	-0.022
-375.858	-12.644	-0.117	-0.077
-374.844	357.750	-0.061	0.121
-373.829	800.000	0.016	0.065
-372.815	-19.634	-0.055	-0.034
-371.800	522.710	0.117	0.276
-370.785	-200.000	-0.029	-0.270
-369.771	121.904	-0.101	0.126
-368.756	489.400	0.075	0.172
-367.742	-58.035	0.251	-0.110
-366.727	49.980	0.084	0.080
-365.712	-59.603	-0.336	0.145
-364.698	800.000	-0.042	0.138
-363.683	-16.252	0.277	0.176
-362.669	69.219	0.085	-0.088
-361.654	800.000	-0.009	0.028
-360.639	-200.000	-0.051	0.238
-359.625	-200.000	0.010	0.058
-358.610	82.317	-0.199	-0.217
-357.596	-171.448	-0.157	0.005
-356.581	-6.033	0.164	-0.113
-355.566	3.618	0.264	-0.193
-354.552	-200.000	0.027	0.175
-353.537	-17.645	0.279	0.175
-352.523	-133.793	0.129	-0.016
-351.508	-38.399	-0.245	0.130
-350.493	120.351	0.165	0.205
-349.479	482.432	0.071	-0.162
-348.464	77.325	-0.091	0.097
-347.450	-161.666	0.079	0.004
-346.435	-200.000	0.032	0.244
-345.420	-45.827	0.202	-0.100
-344.406	174.796	0.093	-0.135
-343.391	-131.661	0.172	-0.023
-342.377	102.643	0.044	-0.051
-341.362	-126.440	0.168	0.025
-340.348	790.265	0.020	-0.054
-339.333	-200.000	-0.014	0.115
-338.318	800.000	0.173	0.586
-337.304	-133.675	0.534	-0.067
-336.289	99.287	0.147	-0.171
-335.275	204.788	-0.140	-0.217
-334.260	356.001	-0.121	-0.241
-333.245	-107.068	0.309	-0.068
-332.231	800.000	0.107	-0.299
-331.216	-175.491	-0.361	0.010
-330.202	800.000	0.020	0.069
-329.187	-200.000	-0.007	-0.120
-328.172	418.097	-0.141	-0.302
-327.158	800.000	-0.092	-0.376
-326.143	55.213	0.268	-0.260
-325.129	800.000	-0.023	-0.084
-324.114	32.497	0.292	0.252
-323.099	-158.473	0.234	0.014
-322.085	-125.919	-0.115	-0.017
-321.070	-200.000	0.016	0.149
-320.056	-118.497	-0.395	-0.070
-319.041	800.000	0.027	0.105
-318.026	800.000	-0.050	0.144
-317.012	-200.000	-0.009	0.175
-315.997	-41.041	-0.009	0.004
-314.983	125.522	0.157	-0.198
-313.968	-200.000	0.094	-0.424
-312.953	-1.446	0.083	0.058
-311.939	70.003	-0.200	-0.206
-310.924	198.678	0.211	0.324
-309.910	-73.535	0.233	0.085
-308.895	307.404	0.104	0.195
-307.880	93.636	-0.227	-0.257
-306.866	162.650	0.156	0.220
-305.851	116.289	-0.134	0.164
-304.837	117.218	-0.125	0.154
-303.822	-200.000	0.001	-0.128
-302.807	329.352	-0.021	-0.040
-301.793	-138.946	0.162	0.018
-300.778	-2.733	0.095	-0.066
-299.764	7.568	-0.094	-0.071
-298.749	19.525	0.207	0.166
-297.735	-157.901	-0.368	0.022
-296.720	-102.142	0.210	-0.051
-295.705	800.000	0.128	-0.383
-294.691	-200.000	0.086	0.402
-293.676	-20.323	-0.114	-0.070
-292.662	51.478	-0.184	-0.175
-291.647	-95.110	-0.466	-0.126
-290.632	-26.028	-0.167	-0.098
-289.618	-34.808	0.172	0.094
-288.603	-82.137	0.078	-0.026
-287.589	-118.010	0.220	0.039
-286.574	-19.458	-0.303	-0.187
-285.559	-65.843	0.118	-0.047
-284.545	-200.000	-0.003	0.130
-283.530	-138.612	0.171	-0.019
-282.516	-177.332	-0.244	-0.006
-281.501	-108.395	-0.097	-0.021
-280.486	77.117	-0.277	0.294
-279.472	117.727	0.060	0.074
-278.457	-200.000	0.063	0.373
-277.443	-0.757	0.057	-0.040
-276.428	532.571	0.071	-0.168
-275.413	-23.145	0.148	0.089
-274.399	252.438	0.066	0.112
-273.384	600.353	-0.031	0.078
-272.370	-77.802	-0.228	0.079
-271.355	358.078	-0.138	0.276
-270.340	-200.000	-0.006	-0.148
-269.326	-40.882	0.106	0.055
-268.311	-200.000	0.047	0.286
-267.297	209.537	0.083	0.130
-266.282	800.000	-0.020	0.087
-265.267	112.685	-0.203	-0.246
-264.253	-58.939	0.342	0.147
-263.238	-109.690	0.445	0.094
-262.224	-129.439	-0.193	0.027
-261.209	-200.000	-0.049	0.242
-260.195	-192.273	-0.150	-0.001
-259.180	88.318	-0.250	0.277
-258.165	-178.033	0.303	-0.007
-257.151	-74.286	0.390	0.141
-256.136	-200.000	-0.058	0.442
-255.122	139.233	0.108	-0.142
-254.107	34.341	0.102	-0.089
-253.092	-165.387	-0.272	-0.012
-252.078	-62.203	0.113	0.047
-251.063	11.864	-0.099	-0.076
-250.049	-200.000	-0.027	0.155
-249.034	800.000	-0.068	-0.288
-248.019	-47.958	-0.110	-0.053
-247.005	-175.033	0.204	-0.006
-245.990	167.188	0.152	-0.215
-244.976	335.101	-0.105	-0.203
-243.961	110.874	0.114	-0.137
-242.946	-91.951	-0.174	-0.049
-241.932	-73.490	-0.123	0.045
-240.917	-200.000	0.027	-0.219
-239.903	552.554	-0.037	-0.090
-238.888	-200.000	-0.004	-0.094
-237.873	-65.579	-0.157	-0.063
-236.859	-200.000	-0.004	-0.022
-235.844	-103.409	0.113	-0.027
-234.830	119.680	-0.157	0.194
-233.815	-55.189	-0.069	0.031
-232.800	-109.624	-0.268	0.056
-231.786	-122.820	0.175	0.028
-230.771	-200.000	-0.000	0.468
-229.757	49.019	0.068	0.063
-228.742	-63.137	-0.189	-0.078
-227.727	-39.695	-0.324	-0.169
-226.713	-200.000	0.052	-0.350
-225.698	-122.016	0.069	0.011
-224.684	119.793	0.256	0.316
-223.669	800.000	-0.168	-0.540
-222.655	-200.000	-0.024	-0.296
-221.640	241.440	0.257	-0.427
-220.625	-200.000	0.025	-0.236
-219.611	427.956	0.057	-0.123
-218.596	800.000	0.054	0.188
-217.582	-200.000	0.062	-0.330
-216.567	-200.000	-0.012	-0.187
-215.552	413.813	0.108	0.228
-214.538	163.098	-0.117	-0.164
-213.523	-116.404	-0.210	0.039
-212.509	-200.000	-0.015	0.211
-211.494	13.544	-0.348	0.269
-210.479	353.789	0.144	-0.286
-209.465	290.771	-0.177	0.321
-208.450	-196.417	-0.191	0.001
-207.436	-162.722	0.223	-0.011
-206.421	-2.670	-0.212	-0.148
-205.406	-18.660	-0.411	-0.255
-204.392	-16.906	0.179	0.113
-203.377	-14.812	0.104	-0.066
-202.363	-83.479	-0.284	0.091
-201.348	220.417	0.061	0.097
-200.333	-147.777	0.104	-0.009
-199.319	800.000	-0.072	0.305
-198.304	112.286	0.122	-0.146
-197.290	-200.000	0.062	-0.356
-196.275	-160.615	-0.332	0.018
-195.260	-200.000	0.033	0.316
-194.246	-127.577	0.325	-0.047
-193.231	69.624	0.057	0.059
-192.217	-42.675	0.209	-0.106
-191.202	-200.000	0.001	-0.092
-190.187	292.865	0.107	0.194
-189.173	424.774	-0.061	0.131
-188.158	732.580	0.079	-0.211
-187.144	-200.000	-0.001	0.155
-186.129	210.628	0.029	-0.046
-185.114	-72.331	0.133	0.049
-184.100	342.095	-0.122	0.237
-183.085	-7.780	0.236	-0.158
-182.071	-200.000	0.085	-0.470
-181.056	800.000	-0.099	-0.308
-180.042	-172.507	0.422	0.013
-179.027	456.307	-0.089	0.198
-178.012	-131.896	0.099	0.013
-176.998	-88.889	-0.413	0.122
-175.983	-11.558	-0.059	0.039
-174.969	-200.000	-0.017	-0.139
-173.954	-31.513	-0.214	0.119
-172.939	52.490	0.020	-0.019
-171.925	-102.720	-0.267	-0.063
-170.910	800.000	0.049	-0.195
-169.896	206.197	0.089	-0.138
-168.881	-163.674	-0.188	0.009
-167.866	511.126	-0.068	0.158
-166.852	130.961	0.148	0.189
-165.837	-116.826	0.262	0.048
-164.823	800.000	-0.026	0.095
-163.808	-119.115	0.435	0.076
-162.793	-96.756	0.267	0.070
-161.779	-200.000	-0.074	-0.375
-160.764	436.886	0.119	-0.258
-159.750	58.806	0.165	-0.162
-158.735	-46.893	0.189	-0.092
-157.720	-158.251	-0.490	0.028
-156.706	166.682	0.253	0.357
-155.691	-155.352	-0.056	-0.004
-154.677	-155.769	0.090	0.006
-153.662	800.000	-0.060	-0.240
-152.647	800.000	-0.063	-0.183
-151.633	341.143	-0.133	-0.259
-150.618	-22.592	-0.145	-0.087
-149.604	-31.116	0.182	0.102
-148.589	31.747	0.254	0.217
-147.574	-14.762	0.403	-0.257
-146.560	-144.667	-0.142	0.013
-145.545	-83.510	-0.073	0.023
-144.531	163.701	0.163	0.227
-143.516	-200.000	-0.035	-0.317
-142.502	800.000	-0.095	0.384
-141.487	126.387	-0.173	-0.217
-140.472	-200.000	0.012	-0.171
-139.458	-68.103	0.206	0.080
-138.443	-102.420	0.381	-0.091
-137.429	245.500	0.118	0.197
-136.414	-167.076	-0.232	0.009
-135.399	-54.172	-0.224	-0.101
-134.385	-146.033	-0.144	-0.013
-133.370	718.280	-0.043	-0.113
-132.356	-200.000	-0.030	0.190
-131.341	400.808	0.114	0.237
-130.326	348.688	-0.054	-0.107
-129.312	90.588	-0.148	-0.165
-128.297	24.574	-0.127	-0.104
-127.283	396.978	-0.030	-0.061
-126.268	-27.747	0.159	-0.092
-125.253	82.864	0.247	0.267
-124.239	-200.000	-0.007	0.037
-123.224	-34.320	-0.221	-0.120
-122.210	-6.624	0.311	-0.210
