DTS Sentinel unit serial number:	SN413079Multiplexer serial number:	ORYXHardware model number:	OX4-SRSoftware version number:	ORYX F/W v4.00 Oryx Data Collector v3.7.2.0data status	okinstallation	princeton_trtdifferential loss correction	single-endedforward channel	channel 4reverse channel	N/Adate	2019/09/11time	01:23:11forward acquisition time	60.00reverse acquisition time	0.00gamma	496.2192k internal	0.2318k external	0.2318temperature offset calibration	0.9948default loss term (dB/km)	0.3790temperature slope calibration	1.0000multiplexer offset coefficient	1.0000multiplexer slope coefficient	1.0000fibre end	0.00T internal ref (°C)	29.12T ext. ref 1 (°C)	-0.31T ext. ref 2 (°C)	23.30length (m)	temperature (°C)	Stokes	anti-Stokes-747.200	800.000	-0.055	0.171
-746.185	488.289	-0.118	0.273
-745.171	24.863	-0.135	0.113
-744.156	481.590	-0.161	0.371
-743.142	800.000	-0.060	0.185
-742.127	-200.000	-0.016	0.337
-741.112	-52.071	-0.070	0.033
-740.098	-61.309	-0.168	0.072
-739.083	24.979	0.088	-0.074
-738.069	-114.580	0.065	0.013
-737.054	-162.942	0.405	0.020
-736.039	28.446	0.188	0.161
-735.025	684.356	0.089	0.235
-734.010	16.743	0.428	-0.343
-732.996	-74.896	-0.387	-0.141
-731.981	162.147	-0.078	-0.111
-730.966	-123.266	-0.218	0.035
-729.952	-200.000	-0.114	0.000
-728.937	412.069	-0.172	-0.370
-727.923	-83.974	0.144	0.046
-726.908	39.385	-0.286	-0.259
-725.894	-156.526	-0.161	0.010
-724.879	-125.212	-0.109	0.017
-723.864	0.823	-0.144	0.104
-722.850	-85.931	-0.317	-0.099
-721.835	-139.881	-0.312	0.033
-720.821	-28.503	-0.291	-0.169
-719.806	80.606	-0.148	-0.161
-718.791	-109.920	0.249	-0.053
-717.777	50.068	0.330	-0.315
-716.762	365.265	-0.186	-0.378
-715.748	34.390	-0.209	-0.184
-714.733	27.531	0.384	-0.327
-713.718	55.740	-0.312	-0.305
-712.704	-125.231	0.335	0.052
-711.689	-92.589	0.056	0.016
-710.675	38.847	-0.187	0.169
-709.660	-66.583	-0.031	0.012
-708.645	48.216	-0.157	0.148
-707.631	29.229	-0.133	0.115
-706.616	273.010	0.088	-0.158
-705.602	349.993	0.076	-0.152
-704.587	-200.000	0.011	0.053
-703.572	353.475	0.190	-0.380
-702.558	461.441	-0.063	0.142
-701.543	-148.390	0.240	0.020
-700.529	800.000	-0.081	-0.340
-699.514	-81.968	0.359	0.119
-698.499	-200.000	0.144	0.001
-697.485	231.993	0.112	-0.185
-696.470	608.300	-0.060	0.151
-695.456	-152.632	0.132	0.010
-694.441	-94.329	-0.130	-0.036
-693.426	182.516	0.016	0.025
-692.412	-124.023	-0.193	0.031
-691.397	800.000	-0.041	-0.174
-690.383	-34.781	0.062	-0.034
-689.368	-83.170	0.173	0.056
-688.354	328.364	-0.248	-0.482
-687.339	800.000	0.059	0.185
-686.324	-10.453	-0.167	-0.112
-685.310	124.866	-0.018	-0.023
-684.295	39.341	0.098	-0.089
-683.281	-200.000	0.021	-0.391
-682.266	68.149	-0.032	-0.033
-681.251	-136.112	0.437	-0.052
-680.237	107.185	0.103	-0.124
-679.222	16.196	0.311	-0.248
-678.208	220.618	0.194	-0.313
-677.193	19.606	-0.197	0.160
-676.178	-200.000	0.021	0.245
-675.164	63.953	0.105	-0.106
-674.149	286.563	0.116	0.211
-673.135	800.000	0.032	-0.137
-672.120	-200.000	-0.017	0.134
-671.105	173.078	-0.017	-0.025
-670.091	326.751	-0.057	-0.109
-669.076	-67.749	-0.259	-0.102
-668.062	21.205	-0.265	-0.217
-667.047	-118.244	0.073	0.013
-666.032	-112.204	-0.255	-0.052
-665.018	43.071	-0.174	-0.161
-664.003	20.711	0.144	0.118
-662.989	339.659	-0.110	-0.217
-661.974	239.310	0.040	-0.067
-660.959	423.818	-0.106	-0.229
-659.945	108.285	-0.245	-0.295
-658.930	-46.577	0.401	-0.198
-657.916	-131.594	0.155	0.021
-656.901	-11.421	-0.066	0.044
-655.886	800.000	-0.034	-0.102
-654.872	210.710	-0.191	0.303
-653.857	365.648	0.042	0.086
-652.843	-200.000	-0.038	0.350
-651.828	597.166	0.121	0.302
-650.814	-78.022	0.357	0.124
-649.799	538.037	0.054	0.129
-648.784	-87.079	0.257	0.079
-647.770	21.834	-0.249	-0.205
-646.755	-26.791	-0.348	-0.205
-645.741	-40.113	0.186	0.098
-644.726	-200.000	0.037	0.280
-643.711	800.000	0.054	-0.207
-642.697	265.367	-0.008	0.014
-641.682	-66.427	-0.181	-0.073
-640.668	296.888	0.063	-0.116
-639.653	-122.775	0.117	-0.019
-638.638	-200.000	-0.033	0.170
-637.624	115.305	-0.132	0.162
-636.609	-34.856	-0.047	0.026
-635.595	70.098	-0.078	-0.081
-634.580	-200.000	0.023	0.111
-633.565	-36.039	-0.218	-0.119
-632.551	-69.063	-0.133	-0.052
-631.536	12.966	0.162	0.126
-630.522	-115.534	0.377	0.072
-629.507	-119.654	0.085	0.015
-628.492	800.000	-0.068	0.282
-627.478	396.459	-0.223	-0.469
-626.463	431.811	0.039	0.085
-625.449	-2.113	-0.239	-0.169
-624.434	800.000	0.035	-0.149
-623.419	-200.000	0.026	-0.280
-622.405	8.514	-0.231	-0.175
-621.390	-200.000	0.010	0.349
-620.376	-92.065	-0.278	0.079
-619.361	-10.665	-0.332	-0.221
-618.346	-128.976	0.102	-0.014
-617.332	-200.000	-0.042	-0.219
-616.317	133.242	-0.148	-0.192
-615.303	-140.814	-0.233	0.024
-614.288	-106.428	0.352	0.079
-613.273	712.443	0.101	0.270
-612.259	-108.790	0.063	0.014
-611.244	-106.015	0.319	-0.072
-610.230	-60.412	-0.092	-0.039
-609.215	528.840	-0.029	0.068
-608.201	430.335	-0.078	-0.169
-607.186	-71.434	0.089	0.034
-606.171	624.314	0.136	-0.345
-605.157	-20.593	-0.169	-0.105
-604.142	-121.754	0.366	-0.061
-603.128	21.593	-0.031	0.025
-602.113	-43.607	0.012	-0.006
-601.098	282.398	-0.035	-0.064
-600.084	291.405	0.093	0.170
-599.069	-200.000	0.023	-0.410
-598.055	-200.000	-0.004	-0.117
-597.040	121.808	0.122	-0.153
-596.025	-35.446	0.080	-0.044
-595.011	225.399	0.114	0.185
-593.996	211.339	0.158	0.251
-592.982	-69.357	-0.192	0.074
-591.967	-199.903	0.306	0.002
-590.952	-65.980	0.102	0.041
-589.938	24.911	-0.153	0.127
-588.923	-30.758	-0.202	0.115
-587.909	-75.807	0.220	-0.079
-586.894	404.805	0.159	0.338
-585.879	800.000	-0.025	0.084
-584.865	-200.000	0.001	0.268
-583.850	176.834	-0.169	0.248
-582.836	800.000	0.080	0.240
-581.821	-34.073	-0.035	-0.020
-580.806	800.000	0.064	0.208
-579.792	34.190	-0.231	0.202
-578.777	-88.849	-0.262	0.078
-577.763	-200.000	-0.022	-0.104
-576.748	-8.713	-0.190	0.128
-575.733	480.124	0.063	0.144
-574.719	25.333	-0.257	0.215
-573.704	-54.379	-0.059	0.027
-572.690	138.786	0.177	-0.234
-571.675	45.209	0.149	-0.138
-570.661	-200.000	-0.023	0.172
-569.646	800.000	-0.009	-0.034
-568.631	-86.013	0.295	0.092
-567.617	44.449	-0.245	0.226
-566.602	800.000	-0.005	0.014
-565.588	-25.221	-0.229	0.136
-564.573	800.000	0.030	-0.085
-563.558	-154.828	0.037	-0.002
-562.544	428.100	0.139	-0.303
-561.529	399.259	0.133	-0.280
-560.515	-79.026	-0.025	-0.009
-559.500	111.895	0.097	0.118
-558.485	-14.363	-0.362	0.235
-557.471	-7.791	-0.070	-0.047
-556.456	-113.541	0.274	-0.054
-555.442	-146.123	-0.170	0.015
-554.427	11.868	0.069	-0.053
-553.412	-34.226	0.156	0.086
-552.398	-200.000	-0.007	0.177
-551.383	-11.170	-0.110	0.073
-550.369	196.312	0.119	-0.183
-549.354	-45.962	-0.217	0.108
-548.339	-200.000	-0.014	0.084
-547.325	-50.191	0.177	-0.084
-546.310	130.515	-0.093	0.119
-545.296	90.389	-0.138	-0.155
-544.281	609.155	-0.086	-0.217
-543.266	-200.000	0.015	0.139
-542.252	-70.189	-0.102	0.039
-541.237	-120.756	0.551	-0.094
-540.223	-200.000	-0.014	-0.202
-539.208	-200.000	0.033	-0.191
-538.193	-200.000	0.087	-0.418
-537.179	-110.070	0.219	0.046
-536.164	-47.696	-0.346	-0.168
-535.150	156.046	-0.127	0.176
-534.135	267.085	0.133	0.234
-533.121	-200.000	-0.013	-0.063
-532.106	-85.848	0.103	-0.032
-531.091	-200.000	0.032	-0.504
-530.077	94.041	-0.237	0.270
-529.062	109.453	-0.196	0.236
-528.048	-66.980	0.139	0.055
-527.033	22.849	-0.272	0.224
-526.018	626.201	-0.136	-0.344
-525.004	318.140	0.060	0.114
-523.989	137.970	0.130	-0.171
-522.975	-200.000	0.084	0.373
-521.960	135.488	-0.086	-0.112
-520.945	-200.000	0.053	-0.234
-519.931	127.469	0.268	-0.342
-518.916	-19.265	0.080	0.050
-517.902	-61.464	0.402	0.169
-516.887	165.494	-0.208	0.295
-515.872	-200.000	-0.045	-0.201
-514.858	-86.944	0.120	-0.037
-513.843	22.569	0.106	0.087
-512.829	575.059	-0.031	-0.077
-511.814	79.036	0.375	-0.403
-510.799	800.000	-0.052	-0.155
-509.785	15.063	-0.188	0.148
-508.770	634.581	-0.101	0.257
-507.756	-89.463	-0.176	0.052
-506.741	800.000	0.035	-0.108
-505.726	105.583	0.165	0.195
-504.712	217.564	-0.202	0.323
-503.697	194.874	-0.058	-0.088
-502.683	-52.441	-0.202	0.093
-501.668	62.621	-0.228	0.228
-500.653	-108.227	0.279	0.060
-499.639	-1.234	0.165	0.117
-498.624	150.621	0.157	0.213
-497.610	337.571	-0.114	0.223
-496.595	60.911	0.233	0.231
-495.581	58.683	-0.112	-0.110
-494.566	31.889	-0.151	-0.131
-493.551	-200.000	0.041	-0.215
-492.537	91.530	-0.160	0.180
-491.522	-1.050	0.129	-0.091
-490.508	-194.120	0.119	-0.001
-489.493	-35.744	-0.225	0.122
-488.478	43.735	0.187	-0.172
-487.464	800.000	-0.063	-0.175
-486.449	-121.583	0.353	-0.059
-485.435	800.000	0.019	-0.065
-484.420	800.000	0.084	0.255
-483.405	-38.435	0.229	0.121
-482.391	-87.747	0.213	0.064
-481.376	127.875	-0.086	0.110
-480.362	-148.183	0.216	-0.018
-479.347	800.000	0.155	-0.492
-478.332	800.000	0.074	-0.287
-477.318	122.600	-0.165	-0.206
-476.303	91.522	-0.062	0.070
-475.289	-200.000	-0.033	0.352
-474.274	-11.259	-0.195	0.128
-473.259	613.145	0.104	-0.260
-472.245	-70.047	0.133	0.051
-471.230	-86.655	-0.081	-0.025
-470.216	134.868	0.057	0.074
-469.201	800.000	0.050	0.208
-468.186	-119.695	0.139	0.024
-467.172	145.151	0.110	-0.147
-466.157	51.611	0.171	-0.163
-465.143	43.471	0.016	0.015
-464.128	-142.937	0.279	-0.027
-463.113	-36.075	-0.359	-0.194
-462.099	250.132	0.172	-0.292
-461.084	-39.688	-0.180	-0.094
-460.070	-118.979	0.289	0.051
-459.055	34.538	-0.015	-0.013
-458.040	-10.496	-0.208	-0.138
-457.026	800.000	-0.057	-0.165
-456.011	93.146	-0.076	-0.086
-454.997	202.216	0.232	0.358
-453.982	-18.902	-0.239	-0.149
-452.968	348.673	-0.058	0.115
-451.953	48.542	-0.189	-0.177
-450.938	-124.306	-0.074	-0.012
-449.924	-165.565	0.352	0.015
-448.909	800.000	0.078	0.233
-447.895	-22.631	0.158	0.096
-446.880	215.480	0.140	0.222
-445.865	-90.150	-0.330	0.096
-444.851	-200.000	0.015	-0.104
-443.836	437.372	0.066	-0.145
-442.822	-200.000	-0.067	-0.309
-441.807	780.532	-0.046	0.126
-440.792	-200.000	0.048	-0.384
-439.778	-154.155	0.341	-0.023
-438.763	149.704	-0.129	0.175
-437.749	27.427	0.286	-0.241
-436.734	212.546	0.132	-0.208
-435.719	-16.811	-0.222	0.140
-434.705	39.256	-0.077	0.069
-433.690	16.547	0.149	0.118
-432.676	-151.892	-0.113	-0.008
-431.661	-102.602	-0.339	-0.081
-430.646	122.196	0.025	0.032
-429.632	-117.354	-0.445	-0.081
-428.617	419.170	0.123	-0.262
-427.603	329.527	0.097	-0.186
-426.588	800.000	-0.094	-0.407
-425.573	-132.892	0.385	-0.049
-424.559	-200.000	0.033	-0.177
-423.544	-20.600	0.115	-0.070
-422.530	-105.530	0.318	0.072
-421.515	118.521	-0.183	0.226
-420.500	660.608	0.016	0.041
-419.486	-60.602	-0.055	-0.024
-418.471	-83.969	0.082	-0.026
-417.457	-200.000	0.026	0.146
-416.442	39.639	0.169	-0.152
-415.428	800.000	-0.051	0.193
-414.413	14.795	0.088	0.069
-413.398	-9.409	-0.100	-0.067
-412.384	-85.969	0.183	0.057
-411.369	-200.000	-0.003	-0.201
-410.355	220.545	-0.033	0.053
-409.340	-11.876	-0.148	-0.097
-408.325	237.456	0.134	0.221
-407.311	0.470	0.107	0.076
-406.296	94.189	0.069	0.079
-405.282	-43.526	-0.241	0.121
-404.267	-200.000	0.033	-0.206
-403.252	-17.934	0.242	-0.152
-402.238	28.707	0.239	-0.202
-401.223	-18.827	-0.257	-0.160
-400.209	-128.475	0.153	0.022
-399.194	800.000	-0.045	0.150
-398.179	800.000	-0.042	-0.164
-397.165	-95.842	-0.389	0.104
-396.150	714.363	-0.017	0.044
-395.136	-95.121	0.180	0.049
-394.121	467.009	-0.077	-0.173
-393.106	-82.167	-0.176	0.057
-392.092	-72.870	-0.182	0.067
-391.077	-200.000	-0.014	0.095
-390.063	6.794	0.222	0.165
-389.048	246.950	-0.118	0.199
-388.033	230.862	-0.188	0.307
-387.019	800.000	-0.057	-0.217
-386.004	104.800	-0.112	0.132
-384.990	800.000	-0.017	-0.060
-383.975	-114.873	0.017	-0.003
-382.960	10.599	-0.169	-0.129
-381.946	35.712	-0.247	0.216
-380.931	133.469	-0.109	-0.140
-379.917	-47.440	-0.183	0.089
-378.902	-44.655	-0.147	0.073
-377.888	-61.949	-0.134	-0.056
-376.873	218.438	0.031	-0.050
-375.858	-95.121	0.154	0.041
-374.844	11.459	-0.422	-0.323
-373.829	800.000	0.058	-0.171
-372.815	-19.818	-0.156	0.096
-371.800	-200.000	-0.029	-0.443
-370.785	-200.000	0.004	0.189
-369.771	-135.614	-0.125	-0.015
-368.756	800.000	-0.058	0.216
-367.742	85.204	-0.175	0.192
-366.727	-43.972	0.148	0.074
-365.712	800.000	0.086	0.254
-364.698	-46.817	0.228	0.111
-363.683	-200.000	-0.063	-0.323
-362.669	-200.000	-0.044	-0.397
-361.654	-182.860	-0.149	0.003
-360.639	450.119	-0.081	-0.179
-359.625	326.425	0.024	0.046
-358.610	620.631	-0.072	-0.180
-357.596	-29.047	0.349	0.200
-356.581	121.090	-0.014	-0.017
-355.566	-126.921	-0.120	-0.018
-354.552	-8.490	-0.200	0.134
-353.537	58.622	0.262	0.257
-352.523	-135.399	-0.328	0.039
-351.508	221.142	0.147	-0.235
-350.493	64.959	0.099	0.099
-349.479	-186.459	-0.322	-0.005
-348.464	45.033	0.448	-0.411
-347.450	-200.000	0.038	-0.259
-346.435	800.000	-0.111	-0.457
-345.420	-39.448	0.419	0.219
-344.406	800.000	-0.083	-0.354
-343.391	-133.682	0.219	-0.027
-342.377	128.913	-0.222	-0.282
-341.362	800.000	-0.150	0.515
-340.348	-105.121	0.073	-0.017
-339.333	284.517	-0.069	0.124
-338.318	-167.491	0.218	-0.009
-337.304	295.265	0.038	0.069
-336.289	186.100	-0.093	0.138
-335.275	57.426	0.171	0.167
-334.260	16.885	-0.063	-0.049
-333.245	-82.970	-0.337	-0.108
-332.231	624.041	0.056	0.140
-331.216	91.861	-0.173	0.193
-330.202	224.037	-0.143	-0.230
-329.187	-157.752	0.268	-0.016
-328.172	-55.230	0.116	-0.052
-327.158	4.042	-0.391	0.285
-326.143	-200.000	0.078	0.512
-325.129	305.050	0.171	0.317
-324.114	800.000	-0.027	-0.095
-323.099	-200.000	0.011	0.078
-322.085	-144.317	0.177	0.016
-321.070	800.000	-0.080	-0.302
-320.056	29.374	-0.171	0.145
-319.041	38.110	0.152	-0.135
-318.026	-120.143	-0.073	-0.012
-317.012	-200.000	-0.029	0.319
-315.997	-200.000	0.020	0.124
-314.983	177.170	0.211	0.306
-313.968	800.000	-0.090	-0.324
-312.953	-96.729	-0.160	-0.042
-311.939	-200.000	-0.050	-0.366
-310.924	800.000	0.014	-0.043
-309.910	-53.941	0.060	-0.027
-308.895	278.977	0.018	0.032
-307.880	95.505	0.171	-0.194
-306.866	-200.000	0.077	-0.340
-305.851	-75.423	-0.085	0.030
-304.837	-88.936	-0.268	-0.079
-303.822	217.399	-0.085	-0.134
-302.807	-50.298	0.360	0.169
-301.793	64.540	-0.283	0.284
-300.778	52.322	0.242	0.230
-299.764	-71.847	0.120	0.044
-298.749	427.592	-0.077	-0.166
-297.735	-200.000	-0.010	0.285
-296.720	800.000	0.037	0.132
-295.705	487.525	-0.069	-0.155
-294.691	-200.000	-0.018	-0.261
-293.676	-43.950	0.327	-0.164
-292.662	304.727	-0.020	0.038
-291.647	301.185	-0.042	0.078
-290.632	372.884	0.162	0.327
-289.618	58.240	0.085	-0.082
-288.603	-200.000	0.025	-0.141
-287.589	800.000	0.100	-0.316
-286.574	-84.755	-0.305	-0.095
-285.559	-49.539	-0.198	-0.094
-284.545	-90.082	0.270	0.078
-283.530	-200.000	-0.023	-0.236
-282.516	-75.941	0.277	-0.097
-281.501	198.601	-0.027	0.041
-280.486	339.985	-0.098	-0.189
-279.472	0.761	0.078	-0.055
-278.457	102.583	-0.107	-0.124
-277.443	149.924	-0.260	-0.351
-276.428	63.466	0.024	-0.024
-275.413	81.529	-0.207	-0.223
-274.399	251.421	-0.165	-0.279
-273.384	-39.082	0.285	-0.149
-272.370	681.977	-0.055	-0.143
-271.355	244.962	-0.023	-0.038
-270.340	-200.000	-0.025	-0.378
-269.326	-200.000	-0.034	0.181
-268.311	-79.036	0.053	0.018
-267.297	432.740	0.080	-0.172
-266.282	533.536	0.040	-0.094
-265.267	-39.876	-0.213	0.110
-264.253	-157.216	0.150	0.009
-263.238	-200.000	0.044	0.370
-262.224	442.284	-0.071	0.154
-261.209	443.452	-0.187	0.406
-260.195	231.896	-0.065	-0.106
-259.180	800.000	-0.095	0.267
-258.165	-66.696	-0.092	-0.036
-257.151	-71.458	0.094	0.035
-256.136	276.462	0.146	0.257
-255.122	-53.820	-0.267	0.121
-254.107	-168.833	0.187	0.007
-253.092	562.729	-0.080	0.193
-252.078	-140.417	-0.059	0.006
-251.063	378.260	-0.151	-0.307
-250.049	800.000	-0.073	-0.248
-249.034	3.126	-0.069	0.050
-248.019	800.000	-0.058	0.225
-247.005	-100.157	0.206	-0.051
-245.990	-19.731	0.227	0.139
-244.976	-20.719	-0.409	0.249
-243.961	47.786	0.221	0.205
-242.946	-200.000	-0.013	0.098
-241.932	187.845	-0.136	0.202
-240.917	457.422	0.035	0.077
-239.903	-120.940	0.029	-0.005
-238.888	-200.000	0.048	0.208
-237.873	800.000	0.037	0.112
-236.859	-36.652	-0.246	0.131
-235.844	186.779	-0.183	-0.270
-234.830	-12.523	-0.034	-0.022
-233.815	-97.425	-0.044	0.011
-232.800	178.610	-0.251	0.364
-231.786	-200.000	0.019	0.295
-230.771	-109.399	0.354	0.074
-229.757	55.985	0.251	-0.242
-228.742	6.736	0.247	-0.182
-227.727	14.512	0.159	-0.123
-226.713	-200.000	0.020	-0.201
-225.698	-55.381	-0.169	-0.075
-224.684	-200.000	-0.272	0.001
-223.669	411.648	-0.077	0.162
-222.655	-61.290	0.104	0.043
-221.640	340.717	0.081	-0.157
-220.625	-65.335	0.250	0.100
-219.611	38.867	0.220	-0.195
-218.596	11.075	-0.016	0.012
-217.582	-17.097	0.219	-0.137
-216.567	123.217	0.192	-0.239
-215.552	-200.000	-0.003	-0.016
-214.538	-91.229	-0.267	-0.076
-213.523	-6.402	-0.003	-0.002
-212.509	18.724	-0.132	0.105
-211.494	800.000	-0.038	0.126
-210.479	-200.000	-0.031	0.155
-209.465	-3.695	-0.156	-0.107
-208.450	-200.000	0.000	0.069
-207.436	800.000	-0.059	0.233
-206.421	7.212	0.086	-0.063
-205.406	-158.424	0.080	0.005
-204.392	800.000	-0.037	-0.110
-203.377	-200.000	-0.036	0.333
-202.363	277.777	0.116	-0.205
-201.348	325.052	0.204	0.387
-200.333	-34.327	0.229	0.124
-199.319	-200.000	-0.028	0.133
-198.304	13.660	-0.332	0.256
-197.290	24.293	-0.063	0.052
-196.275	407.972	0.096	0.200
-195.260	-102.597	-0.090	0.021
-194.246	-110.049	-0.315	0.065
-193.231	-200.000	-0.017	-0.187
-192.217	125.394	0.190	0.238
-191.202	-110.589	-0.204	0.042
-190.187	800.000	0.040	-0.161
-189.173	-25.050	0.255	0.149
-188.158	113.171	-0.193	0.231
-187.144	90.739	-0.187	0.208
-186.129	-93.170	-0.259	0.071
-185.114	-183.895	-0.505	-0.008
-184.100	-200.000	-0.014	-0.327
-183.085	-60.982	-0.252	0.106
-182.071	24.482	-0.142	-0.116
-181.056	51.445	0.039	-0.036
-180.042	-121.944	0.532	0.087
-179.027	130.403	0.164	-0.208
-178.012	-200.000	-0.024	-0.186
-176.998	185.281	0.112	0.165
-175.983	399.397	0.107	0.221
-174.969	253.107	-0.192	0.324
-173.954	-29.754	0.190	0.107
-172.939	-200.000	0.053	0.354
-171.925	617.957	-0.091	0.225
-170.910	720.726	0.078	0.205
-169.896	-4.675	0.361	-0.247
-168.881	-188.943	0.161	-0.002
-167.866	453.590	0.179	-0.393
-166.852	393.983	0.068	-0.141
-165.837	-63.347	-0.212	-0.086
-164.823	-161.994	-0.546	-0.027
-163.808	51.105	0.100	0.094
-162.793	40.929	-0.310	-0.277
-161.779	134.765	-0.009	-0.012
-160.764	-80.890	-0.196	0.064
-159.750	-145.202	0.221	-0.020
-158.735	-150.895	0.055	-0.004
-157.720	317.601	-0.207	-0.387
-156.706	-80.462	0.290	-0.096
-155.691	-116.397	0.393	0.072
-154.677	-88.600	-0.183	-0.054
-153.662	-153.900	0.284	0.019
-152.647	-25.182	0.116	-0.068
-151.633	321.487	-0.082	0.154
-150.618	-200.000	0.052	0.243
-149.604	-140.920	0.180	0.018
-148.589	800.000	-0.055	0.227
-147.574	-13.755	0.237	-0.151
-146.560	-93.951	0.120	-0.033
-145.545	30.702	0.091	-0.077
-144.531	-126.401	0.097	-0.014
-143.516	-72.332	-0.104	-0.038
-142.502	-85.382	-0.192	0.059
-141.487	61.175	-0.224	-0.220
-140.472	-200.000	0.031	-0.327
-139.458	-21.910	0.234	0.141
-138.443	-124.230	0.304	0.047
-137.429	-27.712	-0.124	-0.071
-136.414	203.312	-0.172	0.263
-135.399	257.862	0.091	-0.156
-134.385	-44.944	-0.130	0.064
-133.370	-88.962	-0.291	0.085
-132.356	390.982	-0.118	0.242
-131.341	5.472	-0.098	0.072
-130.326	760.242	0.173	-0.464
-129.312	-36.949	0.400	0.212
-128.297	-126.669	0.197	0.029
-127.283	-131.107	-0.542	0.071
-126.268	-105.619	0.174	-0.039
-125.253	25.734	-0.255	-0.210
-124.239	68.293	0.105	-0.106
-123.224	-200.000	0.035	0.358
-122.210	-59.107	0.323	-0.137
-121.195	-141.034	0.321	0.033
-120.180	152.248	0.089	0.120
