DTS Sentinel unit serial number:	SN413079Multiplexer serial number:	ORYXHardware model number:	OX4-SRSoftware version number:	ORYX F/W v4.00 Oryx Data Collector v3.7.2.0data status	okinstallation	princeton_trtdifferential loss correction	single-endedforward channel	channel 4reverse channel	N/Adate	2019/09/10time	23:43:10forward acquisition time	60.00reverse acquisition time	0.00gamma	496.2192k internal	0.2317k external	0.2317temperature offset calibration	0.9947default loss term (dB/km)	0.3790temperature slope calibration	1.0000multiplexer offset coefficient	1.0000multiplexer slope coefficient	1.0000fibre end	0.00T internal ref (°C)	29.56T ext. ref 1 (°C)	-0.32T ext. ref 2 (°C)	23.02length (m)	temperature (°C)	Stokes	anti-Stokes-747.200	-196.080	0.223	-0.002
-746.185	-47.378	-0.074	-0.037
-745.171	-122.453	0.204	0.034
-744.156	-10.523	-0.003	0.002
-743.142	-200.000	-0.030	0.248
-742.127	449.964	-0.090	0.201
-741.112	-55.687	0.212	-0.096
-740.098	-200.000	0.007	-0.083
-739.083	-101.588	-0.075	-0.018
-738.069	-200.000	-0.107	0.507
-737.054	217.785	0.102	-0.164
-736.039	-81.509	-0.278	-0.093
-735.025	89.427	-0.080	0.090
-734.010	119.133	-0.173	-0.217
-732.996	-179.110	0.185	0.004
-731.981	312.681	-0.120	0.229
-730.966	-123.272	0.372	-0.060
-729.952	-200.000	-0.003	0.112
-728.937	-36.961	0.098	-0.053
-727.923	-48.223	0.016	-0.008
-726.908	-146.833	0.119	0.010
-725.894	-200.000	-0.017	0.143
-724.879	182.599	-0.239	-0.356
-723.864	74.983	-0.190	-0.202
-722.850	-12.023	-0.271	-0.180
-721.835	17.464	-0.186	-0.149
-720.821	-170.737	-0.329	0.011
-719.806	-91.090	-0.317	0.092
-718.791	113.170	0.086	0.105
-717.777	-200.000	0.006	-0.258
-716.762	-7.105	0.049	-0.034
-715.748	800.000	-0.039	-0.112
-714.733	-92.925	-0.134	-0.038
-713.718	212.298	-0.076	0.121
-712.704	-200.000	0.012	-0.286
-711.689	-133.726	-0.350	0.044
-710.675	793.193	0.038	0.104
-709.660	-103.102	-0.402	-0.096
-708.645	-200.000	-0.008	-0.331
-707.631	-178.737	-0.428	0.010
-706.616	800.000	0.041	-0.139
-705.602	27.559	0.103	-0.088
-704.587	-200.000	-0.001	-0.115
-703.572	-15.834	-0.113	-0.073
-702.558	30.178	-0.165	0.142
-701.543	-200.000	-0.055	0.314
-700.529	-173.507	0.362	0.011
-699.514	-200.000	-0.262	0.000
-698.499	-200.000	-0.046	-0.327
-697.485	-84.163	-0.112	-0.036
-696.470	353.223	-0.079	-0.158
-695.456	237.587	0.211	-0.354
-694.441	-200.000	-0.042	-0.202
-693.426	-116.209	0.204	0.038
-692.412	-143.968	0.284	0.027
-691.397	155.381	-0.198	-0.276
-690.383	72.531	0.078	0.082
-689.368	-200.000	0.015	-0.147
-688.354	-42.754	-0.175	-0.090
-687.339	-71.634	-0.342	0.129
-686.324	-200.000	-0.000	-0.147
-685.310	-56.479	-0.172	-0.077
-684.295	-138.192	0.199	0.022
-683.281	15.147	-0.306	-0.243
-682.266	-78.215	0.139	-0.048
-681.251	134.637	-0.379	0.497
-680.237	-200.000	0.000	0.171
-679.222	800.000	0.095	0.383
-678.208	-50.987	-0.191	-0.091
-677.193	146.959	0.122	-0.166
-676.178	-36.084	0.069	0.038
-675.164	215.001	0.169	-0.271
-674.149	-40.385	-0.264	-0.138
-673.135	-77.522	0.135	0.047
-672.120	-3.385	-0.345	-0.243
-671.105	800.000	-0.065	-0.204
-670.091	-200.000	0.019	-0.099
-669.076	84.374	0.064	-0.071
-668.062	268.445	-0.223	0.394
-667.047	-2.120	-0.206	-0.146
-666.032	-200.000	-0.254	0.000
-665.018	-200.000	0.036	0.167
-664.003	147.079	-0.223	0.303
-662.989	-167.376	-0.092	-0.004
-661.974	800.000	-0.140	0.513
-660.959	195.258	-0.013	-0.020
-659.945	-61.230	-0.350	0.149
-658.930	800.000	-0.019	-0.067
-657.916	411.431	-0.043	0.093
-656.901	-200.000	-0.007	-0.177
-655.886	-200.000	0.006	0.060
-654.872	106.126	-0.154	-0.184
-653.857	307.762	0.110	0.208
-652.843	245.209	0.100	-0.170
-651.828	61.224	0.075	0.076
-650.814	-182.190	0.249	0.005
-649.799	-15.591	-0.248	-0.160
-648.784	-200.000	-0.062	0.292
-647.770	120.361	0.110	0.138
-646.755	237.379	-0.021	-0.035
-645.741	21.867	0.090	-0.074
-644.726	-200.000	-0.002	-0.014
-643.711	-200.000	-0.026	-0.154
-642.697	27.761	-0.252	-0.214
-641.682	-136.643	0.081	-0.009
-640.668	204.342	-0.170	0.265
-639.653	235.385	0.153	0.255
-638.638	6.821	-0.130	0.097
-637.624	191.448	-0.084	0.128
-636.609	-163.432	0.354	0.017
-635.595	338.640	-0.091	0.178
-634.580	-12.195	-0.121	-0.080
-633.565	530.459	-0.039	-0.093
-632.551	-200.000	-0.020	-0.171
-631.536	139.037	0.134	0.178
-630.522	64.954	-0.162	0.165
-629.507	414.202	-0.023	0.049
-628.492	273.414	-0.175	0.311
-627.478	-200.000	0.018	0.184
-626.463	203.128	0.099	-0.154
-625.449	-68.507	-0.266	-0.104
-624.434	-28.822	-0.289	-0.167
-623.419	-200.000	0.052	-0.262
-622.405	-44.334	0.312	-0.157
-621.390	-200.000	-0.032	-0.325
-620.376	-200.000	0.031	-0.254
-619.361	-119.115	-0.089	-0.016
-618.346	111.582	0.148	0.179
-617.332	-13.890	0.237	0.154
-616.317	440.873	-0.134	-0.296
-615.303	800.000	-0.090	-0.267
-614.288	-29.577	0.147	-0.084
-613.273	-148.657	-0.045	-0.004
-612.259	347.694	0.018	-0.036
-611.244	305.725	-0.174	0.327
-610.230	22.223	0.144	0.119
-609.215	134.788	-0.173	0.226
-608.201	-200.000	0.011	-0.148
-607.186	55.739	0.111	0.108
-606.171	-200.000	-0.039	-0.185
-605.157	-60.767	0.352	-0.150
-604.142	701.462	-0.137	-0.363
-603.128	800.000	-0.084	-0.291
-602.113	-59.380	-0.233	-0.101
-601.098	800.000	-0.038	-0.119
-600.084	-124.312	0.187	0.029
-599.069	-200.000	-0.002	-0.339
-598.055	-191.863	0.291	-0.003
-597.040	98.148	0.133	0.155
-596.025	240.427	-0.184	0.308
-595.011	-10.903	0.210	0.140
-593.996	44.256	-0.143	-0.132
-592.982	-46.355	0.187	0.092
-591.967	19.409	-0.227	-0.184
-590.952	-200.000	-0.012	-0.478
-589.938	-19.070	-0.340	0.213
-588.923	-103.564	-0.031	-0.007
-587.909	-200.000	0.011	-0.345
-586.894	800.000	0.055	-0.232
-585.879	10.021	-0.163	-0.124
-584.865	800.000	0.102	-0.335
-583.850	800.000	-0.092	-0.286
-582.836	800.000	0.016	0.050
-581.821	148.190	-0.017	-0.023
-580.806	352.686	0.150	0.299
-579.792	173.621	0.198	-0.288
-578.777	-200.000	0.017	-0.105
-577.763	279.059	-0.123	0.221
-576.748	-200.000	-0.218	-0.001
-575.733	-60.378	0.151	0.065
-574.719	3.567	-0.122	0.090
-573.704	800.000	-0.062	0.207
-572.690	131.115	0.042	-0.054
-571.675	96.493	-0.072	0.083
-570.661	-57.873	-0.169	-0.074
-569.646	119.188	0.057	-0.071
-568.631	574.016	0.184	0.450
-567.617	109.120	0.175	0.210
-566.602	-13.135	-0.262	-0.171
-565.588	58.274	-0.233	0.230
-564.573	-199.282	-0.176	0.001
-563.558	-46.151	0.112	-0.055
-562.544	800.000	-0.010	-0.035
-561.529	-31.950	-0.107	-0.060
-560.515	44.495	-0.261	0.241
-559.500	-200.000	-0.196	0.000
-558.485	146.941	0.137	-0.185
-557.471	-200.000	0.012	-0.185
-556.456	646.608	0.066	-0.170
-555.442	508.409	-0.145	0.339
-554.427	267.148	-0.124	-0.219
-553.412	800.000	-0.056	-0.181
-552.398	-127.493	0.262	-0.038
-551.383	-81.627	0.500	-0.165
-550.369	252.659	-0.156	0.267
-549.354	-37.766	0.179	0.096
-548.339	-71.418	0.220	-0.083
-547.325	212.573	-0.065	-0.103
-546.310	-150.962	0.347	-0.026
-545.296	202.295	-0.219	0.339
-544.281	800.000	0.068	0.252
-543.266	800.000	-0.069	-0.220
-542.252	-200.000	-0.026	0.140
-541.237	-6.492	-0.319	-0.218
-540.223	40.442	-0.311	0.282
-539.208	800.000	-0.089	-0.347
-538.193	-200.000	0.054	-0.267
-537.179	800.000	-0.075	-0.308
-536.164	-200.000	-0.013	-0.278
-535.150	-111.831	0.061	0.012
-534.135	-90.332	0.116	0.034
-533.121	72.921	0.213	0.224
-532.106	144.499	0.198	0.265
-531.091	-51.445	0.381	0.179
-530.077	-71.006	-0.129	0.049
-529.062	3.047	-0.186	-0.136
-528.048	226.777	-0.131	0.213
-527.033	436.548	0.074	0.161
-526.018	-86.216	-0.244	0.075
-525.004	-89.018	0.414	0.123
-523.989	-176.204	0.131	0.003
-522.975	172.437	0.121	-0.175
-521.960	-200.000	0.070	0.354
-520.945	-29.535	0.092	-0.053
-519.931	20.585	0.172	0.140
-518.916	-2.571	-0.126	0.089
-517.902	495.682	-0.094	-0.216
-516.887	-200.000	0.057	0.330
-515.872	-14.935	-0.226	0.146
-514.858	-200.000	0.038	0.317
-513.843	26.459	0.256	0.215
-512.829	420.903	0.143	0.307
-511.814	-92.899	0.088	-0.025
-510.799	-109.384	0.209	-0.044
-509.785	-128.312	-0.096	0.014
-508.770	134.317	-0.019	0.025
-507.756	706.277	-0.038	-0.102
-506.741	65.981	-0.323	-0.329
-505.726	-78.536	0.381	-0.131
-504.712	-175.826	0.112	-0.003
-503.697	-130.967	-0.369	-0.049
-502.683	420.163	0.118	-0.253
-501.668	-108.331	-0.114	-0.025
-500.653	115.471	0.052	0.063
-499.639	800.000	-0.059	0.167
-498.624	-100.909	0.390	0.096
-497.610	800.000	0.066	-0.205
-496.595	185.631	0.041	-0.061
-495.581	-109.761	-0.089	-0.019
-494.566	800.000	-0.048	0.169
-493.551	530.811	0.012	-0.029
-492.537	-200.000	0.022	-0.208
-491.522	259.776	-0.077	-0.133
-490.508	122.728	0.148	0.186
-489.493	171.053	0.130	0.187
-488.478	224.462	-0.081	0.131
-487.464	-87.590	0.057	-0.017
-486.449	84.238	-0.094	-0.102
-485.435	-88.861	0.168	-0.050
-484.420	95.345	0.143	-0.163
-483.405	-9.138	-0.288	-0.193
-482.391	195.622	-0.240	-0.365
-481.376	29.102	0.076	-0.064
-480.362	21.860	0.080	-0.065
-479.347	-125.705	-0.109	0.017
-478.332	-9.033	0.210	-0.141
-477.318	800.000	-0.074	-0.319
-476.303	-81.522	-0.288	-0.095
-475.289	26.947	-0.274	0.230
-474.274	-38.465	-0.155	0.082
-473.259	800.000	-0.113	-0.356
-472.245	-6.729	-0.228	-0.155
-471.230	800.000	0.031	0.089
-470.216	-200.000	0.002	0.235
-469.201	800.000	0.053	0.207
-468.186	81.380	0.119	-0.128
-467.172	-97.777	0.296	0.077
-466.157	413.355	-0.062	0.133
-465.143	382.081	-0.083	0.171
-464.128	-107.713	0.028	0.006
-463.113	-200.000	-0.053	0.295
-462.099	-119.913	-0.158	0.027
-461.084	132.713	-0.129	-0.166
-460.070	61.426	0.375	-0.373
-459.055	800.000	0.030	-0.098
-458.040	-24.699	-0.035	0.021
-457.026	589.549	0.094	0.231
-456.011	-38.997	-0.163	0.086
-454.997	-117.152	-0.347	-0.063
-453.982	227.093	0.101	0.164
-452.968	-175.036	-0.294	0.008
-451.953	-200.000	0.033	-0.198
-450.938	-5.201	-0.123	0.085
-449.924	-200.000	-0.017	0.131
-448.909	-119.376	-0.272	0.047
-447.895	800.000	0.113	0.332
-446.880	-200.000	-0.021	0.153
-445.865	-59.982	-0.278	-0.119
-444.851	145.167	-0.174	-0.233
-443.836	800.000	-0.043	-0.159
-442.822	800.000	0.024	-0.082
-441.807	-115.398	0.065	0.012
-440.792	496.121	-0.147	0.338
-439.778	-45.627	0.267	-0.132
-438.763	-35.160	0.350	-0.191
-437.749	-42.539	-0.125	0.064
-436.734	92.719	-0.270	0.305
-435.719	-200.000	0.007	-0.097
-434.705	-117.919	0.201	-0.036
-433.690	-8.152	-0.220	-0.148
-432.676	44.209	0.283	0.259
-431.661	-200.000	-0.006	-0.087
-430.646	-117.814	0.173	-0.031
-429.632	26.922	-0.194	0.163
-428.617	22.292	-0.057	-0.046
-427.603	308.053	-0.058	-0.108
-426.588	47.284	0.228	-0.212
-425.573	-124.640	0.452	-0.070
-424.559	-81.607	0.279	0.092
-423.544	61.179	-0.101	-0.100
-422.530	-104.846	-0.282	0.065
-421.515	260.462	0.175	0.302
-420.500	-200.000	-0.004	-0.240
-419.486	-200.000	0.027	0.344
-418.471	-200.000	0.005	-0.096
-417.457	-200.000	-0.040	0.207
-416.442	59.766	0.065	0.064
-415.428	-156.159	0.144	-0.009
-414.413	-16.040	-0.175	-0.112
-413.398	215.807	0.300	-0.476
-412.384	-121.401	-0.105	0.018
-411.369	9.938	-0.044	-0.033
-410.355	16.208	-0.229	0.180
-409.340	192.894	0.158	-0.238
-408.325	-200.000	-0.009	0.184
-407.311	563.031	-0.188	0.454
-406.296	-29.122	-0.281	-0.161
-405.282	33.481	-0.391	0.339
-404.267	85.129	-0.222	-0.243
-403.252	473.266	0.035	0.079
-402.238	-8.451	0.137	-0.092
-401.223	-200.000	-0.044	0.196
-400.209	2.677	0.098	0.071
-399.194	30.587	0.460	-0.393
-398.179	250.608	0.144	-0.245
-397.165	-74.543	0.106	-0.038
-396.150	-155.780	0.094	-0.006
-395.136	-20.343	0.304	-0.187
-394.121	48.200	-0.171	0.159
-393.106	-200.000	-0.018	0.155
-392.092	-88.926	0.114	-0.034
-391.077	-149.552	0.227	0.018
-390.063	-148.054	-0.260	0.022
-389.048	-46.980	-0.099	-0.048
-388.033	-73.675	0.146	0.053
-387.019	-44.256	0.064	-0.032
-386.004	800.000	-0.060	-0.195
-384.990	-143.767	-0.210	0.020
-383.975	-68.699	0.032	0.012
-382.960	267.755	0.108	0.189
-381.946	-200.000	-0.017	0.107
-380.931	-36.607	0.287	-0.154
-379.917	-19.834	-0.398	0.246
-378.902	-197.819	-0.205	-0.001
-377.888	-52.415	-0.324	-0.150
-376.873	800.000	-0.078	-0.233
-375.858	-109.374	0.218	0.046
-374.844	-18.799	0.303	0.188
-373.829	-36.232	-0.257	-0.138
-372.815	-200.000	-0.027	0.182
-371.800	-200.000	0.011	-0.141
-370.785	122.077	-0.173	-0.216
-369.771	88.618	0.117	-0.130
-368.756	-94.607	0.335	0.091
-367.742	33.371	-0.048	-0.041
-366.727	800.000	0.062	-0.191
-365.712	352.671	0.025	-0.049
-364.698	-177.702	-0.219	0.005
-363.683	-177.392	-0.213	0.005
-362.669	800.000	0.044	0.174
-361.654	-55.998	-0.204	0.091
-360.639	253.625	-0.088	-0.150
-359.625	224.340	0.102	-0.164
-358.610	800.000	-0.143	0.499
-357.596	5.192	0.268	-0.197
-356.581	-200.000	0.001	0.195
-355.566	-89.128	-0.281	0.083
-354.552	552.875	0.038	-0.091
-353.537	31.591	-0.072	-0.062
-352.523	-200.000	0.001	-0.058
-351.508	-148.006	0.397	-0.033
-350.493	-200.000	0.033	0.227
-349.479	-140.305	-0.137	0.014
-348.464	53.969	0.183	0.176
-347.450	-67.541	-0.177	-0.069
-346.435	71.599	0.181	0.188
-345.420	-200.000	0.012	0.314
-344.406	-200.000	-0.003	0.023
-343.391	70.009	0.161	0.166
-342.377	-82.325	0.323	-0.105
-341.362	93.476	0.208	0.235
-340.348	-110.008	0.337	-0.070
-339.333	88.957	0.190	0.211
-338.318	-124.922	-0.207	0.032
-337.304	-115.260	0.084	0.016
-336.289	-144.306	-0.139	-0.013
-335.275	800.000	-0.033	-0.125
-334.260	-64.687	-0.154	0.062
-333.245	-200.000	-0.003	0.115
-332.231	-200.000	-0.020	-0.164
-331.216	-192.897	0.334	0.003
-330.202	398.998	0.076	0.159
-329.187	204.278	-0.169	0.260
-328.172	-200.000	-0.181	0.000
-327.158	223.667	0.132	0.211
-326.143	-200.000	0.027	0.295
-325.129	145.045	0.140	0.187
-324.114	-149.533	0.066	-0.005
-323.099	247.271	-0.115	-0.193
-322.085	-145.336	-0.439	-0.039
-321.070	-200.000	0.016	-0.119
-320.056	-97.869	-0.055	0.014
-319.041	-200.000	-0.017	0.143
-318.026	-44.045	0.147	-0.073
-317.012	-69.849	0.167	0.063
-315.997	-29.628	-0.237	0.135
-314.983	-32.413	-0.146	0.081
-313.968	-70.309	0.079	0.030
-312.953	96.870	-0.108	0.123
-311.939	800.000	-0.068	-0.219
-310.924	-142.279	0.162	-0.016
-309.910	-145.865	-0.089	-0.008
-308.895	-200.000	0.021	-0.179
-307.880	-200.000	-0.106	0.623
-306.866	-98.015	0.117	-0.030
-305.851	184.850	0.192	0.283
-304.837	293.528	-0.038	0.070
-303.822	162.804	0.121	0.169
-302.807	152.582	-0.199	-0.271
-301.793	339.167	0.116	0.225
-300.778	-168.800	-0.191	0.007
-299.764	360.733	-0.187	-0.372
-298.749	210.245	-0.131	-0.205
-297.735	55.384	-0.192	0.185
-296.720	-66.589	0.292	-0.115
-295.705	-87.758	0.284	-0.085
-294.691	177.311	0.178	0.258
-293.676	10.778	0.179	-0.136
-292.662	800.000	-0.053	-0.203
-291.647	-91.594	-0.257	0.073
-290.632	165.998	0.202	-0.284
-289.618	248.050	0.110	0.185
-288.603	-166.221	0.200	-0.008
-287.589	155.686	0.309	-0.423
-286.574	800.000	0.049	-0.138
-285.559	84.942	-0.111	0.122
-284.545	28.608	0.267	0.224
-283.530	-200.000	0.023	-0.286
-282.516	-98.587	-0.108	0.027
-281.501	58.471	-0.077	-0.075
-280.486	67.206	-0.174	0.177
-279.472	-17.638	0.228	0.143
-278.457	-200.000	0.015	-0.208
-277.443	-116.267	0.122	0.022
-276.428	-74.098	-0.236	-0.085
-275.413	-200.000	0.040	0.298
-274.399	800.000	0.132	-0.439
-273.384	271.164	-0.167	0.292
-272.370	42.994	0.181	0.164
-271.355	-156.105	0.263	-0.017
-270.340	574.568	0.154	-0.373
-269.326	-18.755	-0.133	0.083
-268.311	-40.039	0.172	-0.089
-267.297	-200.000	0.027	-0.153
-266.282	-18.610	-0.131	-0.081
-265.267	800.000	0.166	-0.541
-264.253	-29.264	0.193	-0.110
-263.238	178.421	0.111	-0.162
-262.224	205.524	0.183	-0.282
-261.209	76.869	0.206	-0.217
-260.195	-70.542	-0.233	-0.088
-259.180	-200.000	-0.016	0.237
-258.165	-46.107	0.066	0.032
-257.151	7.224	0.137	-0.102
-256.136	-200.000	0.081	0.355
-255.122	-149.855	0.185	-0.014
-254.107	-200.000	0.012	-0.057
-253.092	-116.382	0.277	0.051
-252.078	9.518	-0.120	-0.090
-251.063	800.000	-0.134	-0.368
-250.049	-106.586	0.306	0.068
-249.034	-16.406	-0.071	0.045
-248.019	72.230	0.169	0.175
-247.005	800.000	0.051	0.155
-245.990	-148.624	-0.351	-0.028
-244.976	-200.000	-0.001	0.311
-243.961	-200.000	0.031	0.262
-242.946	-144.440	-0.075	0.007
-241.932	-160.641	-0.186	0.010
-240.917	172.900	-0.119	-0.170
-239.903	199.716	-0.115	0.175
-238.888	-123.476	0.191	0.030
-237.873	179.487	-0.083	0.120
-236.859	251.110	0.128	0.216
-235.844	13.113	0.159	-0.122
-234.830	-52.154	-0.238	0.109
-233.815	-62.233	0.090	0.037
-232.800	-200.000	-0.012	-0.284
-231.786	-111.745	0.311	0.063
-230.771	-200.000	-0.027	-0.224
-229.757	-76.124	0.159	-0.056
-228.742	-183.918	-0.050	0.001
-227.727	67.343	-0.104	-0.106
-226.713	-107.863	-0.281	-0.061
-225.698	-158.868	-0.295	-0.017
-224.684	-179.106	-0.165	0.004
-223.669	-61.846	-0.228	-0.095
-222.655	153.607	-0.313	-0.426
-221.640	-39.300	0.216	0.112
-220.625	65.260	0.244	-0.245
-219.611	-87.221	0.122	-0.037
-218.596	-28.147	-0.314	0.180
-217.582	-110.306	0.467	-0.096
-216.567	-200.000	-0.060	-0.334
-215.552	-200.000	-0.008	-0.277
-214.538	207.034	-0.146	-0.225
-213.523	800.000	-0.029	-0.102
-212.509	800.000	0.068	0.191
-211.494	146.194	0.090	0.120
-210.479	-19.231	-0.146	-0.090
-209.465	110.848	0.465	-0.555
-208.450	143.551	-0.202	0.267
-207.436	195.834	-0.073	0.110
-206.421	-24.983	0.257	-0.151
-205.406	-200.000	0.007	0.107
-204.392	-200.000	-0.053	0.234
-203.377	546.601	-0.102	0.243
-202.363	-55.044	-0.236	-0.105
-201.348	800.000	0.110	0.327
-200.333	-200.000	-0.029	0.242
-199.319	-200.000	0.077	-0.375
-198.304	-56.593	-0.112	0.049
-197.290	296.726	0.050	0.090
-196.275	-200.000	0.036	-0.232
-195.260	-50.459	0.243	0.113
-194.246	83.002	-0.100	0.108
-193.231	-200.000	-0.053	0.234
-192.217	16.378	-0.334	0.261
-191.202	800.000	-0.067	0.189
-190.187	281.815	0.018	0.031
-189.173	800.000	-0.083	0.259
-188.158	-20.529	0.283	-0.173
-187.144	-200.000	0.022	0.299
-186.129	53.396	-0.219	0.208
-185.114	50.857	0.259	-0.243
-184.100	50.701	-0.203	0.191
-183.085	-90.292	-0.401	0.115
-182.071	-50.949	0.106	0.049
-181.056	-89.049	-0.130	-0.038
-180.042	-68.554	-0.376	0.144
-179.027	10.582	-0.297	-0.224
-178.012	-87.666	0.078	0.023
-176.998	-80.591	0.157	0.052
-175.983	-25.378	-0.139	-0.081
-174.969	707.932	-0.020	-0.052
-173.954	-187.650	0.200	0.003
-172.939	469.385	0.021	-0.046
-171.925	-200.000	-0.074	-0.486
-170.910	-200.000	0.031	-0.139
-169.896	-3.538	-0.173	0.119
-168.881	136.067	0.063	-0.081
-167.866	24.577	0.207	-0.170
-166.852	125.511	-0.166	-0.207
-165.837	614.828	0.165	0.410
-164.823	-40.646	-0.311	0.160
-163.808	-137.499	-0.091	-0.010
-162.793	55.456	0.116	0.111
-161.779	-25.564	-0.463	0.270
-160.764	-146.849	0.069	-0.006
-159.750	163.646	0.138	-0.192
-158.735	-81.341	-0.259	0.084
-157.720	7.699	-0.116	-0.086
-156.706	198.433	0.166	0.251
-155.691	306.388	0.047	0.087
-154.677	179.634	-0.146	-0.212
-153.662	-100.159	0.286	0.071
-152.647	160.021	-0.086	0.119
-151.633	-200.000	0.022	0.135
-150.618	-180.339	0.034	-0.001
-149.604	211.096	-0.077	-0.120
-148.589	-5.146	0.170	-0.116
-147.574	-27.802	0.232	0.133
-146.560	-200.000	-0.028	-0.127
-145.545	800.000	0.105	0.297
-144.531	-119.557	0.440	-0.075
-143.516	2.759	0.175	0.126
-142.502	-100.962	0.214	-0.052
-141.487	-161.197	0.237	-0.012
-140.472	-200.000	0.041	0.433
-139.458	39.577	0.048	-0.043
-138.443	-200.000	0.031	-0.187
-137.429	495.812	-0.133	-0.302
-136.414	59.493	0.396	-0.386
-135.399	-200.000	0.044	-0.218
-134.385	-200.000	-0.001	-0.108
-133.370	800.000	0.078	-0.286
-132.356	-1.479	0.206	-0.144
-131.341	150.487	-0.086	-0.116
-130.326	39.610	0.308	0.273
-129.312	-200.000	0.026	-0.134
-128.297	-200.000	0.010	-0.166
-127.283	-24.930	0.294	0.172
-126.268	48.255	0.167	-0.154
-125.253	35.531	-0.221	0.192
-124.239	-13.465	0.214	-0.137
-123.224	39.735	0.439	-0.389
-122.210	-122.356	-0.122	0.020
