DTS Sentinel unit serial number:	SN413079Multiplexer serial number:	ORYXHardware model number:	OX4-SRSoftware version number:	ORYX F/W v4.00 Oryx Data Collector v3.7.2.0data status	okinstallation	princeton_trtdifferential loss correction	single-endedforward channel	channel 4reverse channel	N/Adate	2019/09/12time	03:07:11forward acquisition time	60.00reverse acquisition time	0.00gamma	496.2192k internal	0.2309k external	0.2309temperature offset calibration	1.0094default loss term (dB/km)	0.3790temperature slope calibration	1.0000multiplexer offset coefficient	1.0000multiplexer slope coefficient	1.0000fibre end	0.00T internal ref (°C)	32.28T ext. ref 1 (°C)	2.12T ext. ref 2 (°C)	27.41length (m)	temperature (°C)	Stokes	anti-Stokes-747.200	-22.932	0.249	-0.153
-746.185	9.233	-0.226	-0.174
-745.171	-1.423	0.182	-0.131
-744.156	800.000	0.047	0.192
-743.142	1.439	-0.274	-0.200
-742.127	-9.746	0.122	0.082
-741.112	51.650	0.185	-0.179
-740.098	364.908	0.102	0.209
-739.083	425.964	0.065	-0.142
-738.069	46.350	0.202	0.191
-737.054	-200.000	0.046	-0.244
-736.039	-121.203	0.170	0.029
-735.025	77.595	-0.053	-0.058
-734.010	-132.725	0.132	-0.017
-732.996	3.004	0.095	-0.070
-731.981	-56.380	-0.230	-0.104
-730.966	800.000	-0.026	0.095
-729.952	63.278	0.160	0.163
-728.937	433.773	-0.093	-0.206
-727.923	-200.000	0.013	0.091
-726.908	-106.559	-0.360	-0.081
-725.894	-136.148	-0.103	0.012
-724.879	80.930	-0.161	-0.176
-723.864	-21.265	0.104	-0.065
-722.850	7.741	0.192	-0.146
-721.835	-46.862	-0.062	-0.031
-720.821	-200.000	0.037	0.237
-719.806	-200.000	-0.015	0.343
-718.791	-200.000	0.009	-0.236
-717.777	602.115	-0.119	0.299
-716.762	-37.682	-0.309	0.167
-715.748	-35.280	0.252	-0.139
-714.733	-57.305	-0.391	0.175
-713.718	90.482	-0.214	-0.244
-712.704	-113.995	-0.057	-0.011
-711.689	6.006	0.231	0.173
-710.675	-60.036	-0.206	-0.089
-709.660	-200.000	-0.051	0.243
-708.645	88.302	0.187	-0.211
-707.631	800.000	-0.071	-0.271
-706.616	522.223	-0.040	-0.095
-705.602	-38.951	-0.488	-0.261
-704.587	-157.590	0.191	-0.012
-703.572	-0.812	0.118	-0.085
-702.558	322.725	0.111	-0.214
-701.543	-200.000	-0.013	-0.147
-700.529	-132.388	0.263	-0.034
-699.514	-200.000	-0.052	0.330
-698.499	-200.000	-0.028	-0.188
-697.485	-28.907	0.223	-0.130
-696.470	-32.628	-0.184	-0.104
-695.456	766.051	0.086	-0.236
-694.441	67.044	-0.206	-0.213
-693.426	800.000	-0.025	0.092
-692.412	800.000	0.090	0.348
-691.397	213.395	-0.159	-0.255
-690.383	-14.587	0.175	-0.114
-689.368	-143.615	-0.124	0.012
-688.354	-153.853	-0.283	0.020
-687.339	-52.756	-0.269	0.126
-686.324	800.000	-0.014	0.054
-685.310	393.993	-0.105	-0.223
-684.295	132.280	-0.155	0.202
-683.281	-49.089	0.353	-0.171
-682.266	-52.315	0.260	-0.122
-681.251	553.612	0.042	0.103
-680.237	-200.000	-0.091	0.483
-679.222	-101.054	-0.298	0.074
-678.208	-10.909	-0.150	-0.100
-677.193	119.989	-0.122	-0.154
-676.178	40.780	-0.153	-0.140
-675.164	-200.000	0.013	0.190
-674.149	44.465	-0.215	0.200
-673.135	800.000	0.054	0.161
-672.120	-43.455	-0.089	0.046
-671.105	-14.295	0.186	0.122
-670.091	-149.142	-0.244	0.020
-669.076	800.000	0.098	0.331
-668.062	104.459	0.107	-0.127
-667.047	76.489	-0.183	-0.196
-666.032	233.942	0.061	-0.102
-665.018	122.884	-0.077	-0.098
-664.003	-15.689	0.080	-0.051
-662.989	46.330	-0.264	0.248
-661.974	-80.393	-0.336	0.114
-660.959	92.469	0.172	0.196
-659.945	-22.421	-0.071	-0.044
-658.930	-32.501	0.318	-0.180
-657.916	-200.000	0.011	-0.131
-656.901	113.619	0.034	-0.042
-655.886	-40.748	-0.149	0.078
-654.872	-91.823	-0.059	0.017
-653.857	-136.741	-0.045	-0.005
-652.843	231.058	0.022	-0.036
-651.828	-121.025	-0.103	0.017
-650.814	-110.893	-0.210	0.044
-649.799	-200.000	0.043	-0.335
-648.784	-58.769	-0.163	0.072
-647.770	-32.913	-0.309	0.174
-646.755	-200.000	-0.034	0.172
-645.741	-131.717	0.284	-0.038
-644.726	28.606	-0.318	-0.272
-643.711	-47.410	-0.350	0.172
-642.697	-60.303	0.160	0.069
-641.682	-22.028	0.177	0.109
-640.668	723.359	-0.060	-0.160
-639.653	-97.357	-0.097	-0.026
-638.638	800.000	-0.096	0.273
-637.624	-53.577	0.386	0.179
-636.609	-69.877	-0.221	-0.085
-635.595	-55.467	0.075	-0.034
-634.580	-68.785	-0.140	0.055
-633.565	190.264	-0.168	-0.256
-632.551	453.238	-0.034	-0.077
-631.536	110.734	-0.230	-0.280
-630.522	-200.000	0.006	-0.114
-629.507	70.162	0.263	0.275
-628.492	-46.230	0.115	-0.057
-627.478	-113.826	0.116	0.023
-626.463	-200.000	0.002	0.132
-625.449	-118.921	0.142	-0.025
-624.434	-32.477	-0.128	0.072
-623.419	27.133	-0.170	0.144
-622.405	-200.000	0.095	0.426
-621.390	-62.251	0.163	-0.069
-620.376	-141.248	0.199	-0.020
-619.361	409.139	-0.106	0.227
-618.346	-200.000	-0.028	-0.256
-617.332	-15.208	0.198	0.128
-616.317	-84.285	0.196	-0.063
-615.303	-40.316	0.246	0.129
-614.288	-3.895	-0.283	0.199
-613.273	-111.748	0.139	-0.029
-612.259	-52.773	0.141	0.066
-611.244	-81.874	0.197	0.065
-610.230	37.767	-0.213	0.191
-609.215	713.283	0.103	0.275
-608.201	-62.779	0.242	0.101
-607.186	-125.407	0.153	-0.024
-606.171	77.129	0.270	0.290
-605.157	-142.556	-0.062	0.006
-604.142	192.167	-0.190	-0.290
-603.128	-95.078	0.269	0.073
-602.113	184.071	0.137	-0.205
-601.098	-20.906	-0.422	-0.262
-600.084	50.363	0.107	0.102
-599.069	331.148	0.209	-0.407
-598.055	-22.000	-0.051	-0.031
-597.040	-200.000	0.030	0.251
-596.025	62.997	-0.210	0.213
-595.011	-137.542	0.269	0.031
-593.996	-19.936	-0.265	0.165
-592.982	470.533	-0.071	-0.161
-591.967	222.936	-0.193	-0.315
-590.952	-65.620	0.161	0.065
-589.938	-134.173	-0.168	-0.021
-588.923	-33.025	0.129	-0.072
-587.909	6.478	0.358	0.269
-586.894	-200.000	-0.041	-0.201
-585.879	-144.797	-0.344	0.032
-584.865	391.373	0.128	-0.269
-583.850	111.649	-0.090	0.110
-582.836	800.000	0.071	-0.202
-581.821	-200.000	0.017	0.144
-580.806	738.366	0.107	0.289
-579.792	-91.908	-0.203	-0.058
-578.777	-102.141	0.107	-0.026
-577.763	-54.976	0.014	-0.007
-576.748	-105.318	-0.306	0.070
-575.733	-121.715	-0.239	0.040
-574.719	345.022	-0.087	-0.173
-573.704	-167.503	0.061	0.002
-572.690	93.730	-0.175	0.200
-571.675	16.997	-0.129	0.103
-570.661	78.819	-0.023	0.025
-569.646	196.082	0.168	-0.257
-568.631	-143.160	-0.240	-0.023
-567.617	800.000	-0.061	-0.179
-566.602	-76.422	-0.177	-0.063
-565.588	17.972	0.333	0.268
-564.573	-200.000	-0.006	-0.089
-563.558	360.893	-0.038	0.077
-562.544	-60.860	0.210	-0.090
-561.529	108.211	0.126	-0.152
-560.515	-112.515	0.190	0.038
-559.500	94.732	-0.273	0.313
-558.485	-73.743	0.091	-0.034
-557.471	428.851	-0.066	-0.144
-556.456	-116.437	-0.260	-0.048
-555.442	-63.311	-0.508	0.211
-554.427	-154.807	-0.397	0.026
-553.412	483.739	-0.036	-0.082
-552.398	86.065	-0.242	0.269
-551.383	-200.000	0.044	0.222
-550.369	582.176	-0.049	-0.122
-549.354	-5.618	-0.013	-0.009
-548.339	86.970	-0.214	-0.239
-547.325	-200.000	0.034	-0.188
-546.310	-23.694	0.250	-0.151
-545.296	-200.000	-0.016	-0.196
-544.281	-83.610	0.203	-0.065
-543.266	105.285	0.050	0.060
-542.252	114.331	-0.130	-0.160
-541.237	-200.000	-0.018	-0.160
-540.223	-167.270	-0.104	0.004
-539.208	-93.527	-0.212	-0.059
-538.193	-60.459	-0.265	0.113
-537.179	-43.005	0.100	0.051
-536.164	-41.595	0.113	0.058
-535.150	-27.028	-0.144	0.085
-534.135	-194.695	0.105	0.001
-533.121	-200.000	0.057	-0.384
-532.106	-64.927	-0.210	0.086
-531.091	-35.847	0.183	0.100
-530.077	-55.422	-0.185	0.084
-529.062	-118.671	0.192	0.034
-528.048	-45.532	-0.201	0.100
-527.033	800.000	-0.033	0.138
-526.018	188.088	0.016	-0.024
-525.004	245.217	0.195	-0.331
-523.989	-45.348	-0.253	0.127
-522.975	135.847	0.165	0.217
-521.960	-62.672	-0.362	0.151
-520.945	137.638	0.235	0.310
-519.931	359.874	0.058	0.117
-518.916	-83.153	-0.245	-0.079
-517.902	-74.166	-0.106	0.039
-516.887	-160.128	-0.064	0.004
-515.872	-10.520	0.222	0.148
-514.858	-200.000	-0.099	0.000
-513.843	32.637	-0.144	0.125
-512.829	545.739	-0.105	-0.253
-511.814	-39.580	0.097	0.051
-510.799	800.000	0.043	0.155
-509.785	-158.797	0.336	-0.019
-508.770	-123.362	-0.277	-0.045
-507.756	97.758	-0.098	0.114
-506.741	192.202	-0.151	0.230
-505.726	-139.334	0.163	0.018
-504.712	-113.491	-0.257	-0.051
-503.697	-66.687	0.128	0.051
-502.683	-200.000	0.343	0.001
-501.668	15.847	0.164	-0.130
-500.653	-200.000	-0.055	-0.251
-499.639	800.000	-0.046	0.151
-498.624	-79.886	-0.102	-0.035
-497.610	-103.917	-0.313	0.074
-496.595	-57.664	0.232	-0.102
-495.581	562.112	-0.085	-0.206
-494.566	-140.488	-0.205	0.021
-493.551	-200.000	0.003	0.344
-492.537	-112.328	-0.362	0.073
-491.522	341.016	0.149	-0.293
-490.508	800.000	0.027	0.097
-489.493	-148.767	0.123	0.010
-488.478	-200.000	0.018	0.085
-487.464	242.823	-0.275	-0.464
-486.449	800.000	0.146	0.501
-485.435	195.723	-0.105	-0.160
-484.420	-58.358	0.313	-0.137
-483.405	-45.084	-0.227	-0.114
-482.391	44.027	-0.220	0.202
-481.376	61.946	0.120	0.120
-480.362	-21.708	0.122	-0.074
-479.347	-128.592	-0.299	0.042
-478.332	-38.931	0.221	0.117
-477.318	25.209	-0.086	-0.072
-476.303	-157.543	0.327	0.020
-475.289	-78.759	0.266	-0.091
-474.274	-77.722	-0.125	-0.043
-473.259	89.503	-0.168	0.189
-472.245	-200.000	0.011	-0.104
-471.230	-136.845	-0.238	-0.027
-470.216	-85.571	-0.131	-0.041
-469.201	-13.967	0.197	-0.128
-468.186	373.771	-0.146	0.299
-467.172	125.268	-0.102	0.130
-466.157	800.000	-0.054	-0.173
-465.143	356.961	0.170	0.340
-464.128	390.191	0.082	-0.172
-463.113	-122.880	-0.210	0.034
-462.099	49.446	0.158	-0.149
-461.084	-75.028	-0.011	-0.004
-460.070	800.000	-0.034	0.101
-459.055	-11.759	0.190	-0.126
-458.040	-60.807	0.159	-0.067
-457.026	-200.000	-0.039	0.199
-456.011	-200.000	-0.013	-0.306
-454.997	238.930	0.077	0.128
-453.982	542.592	-0.095	-0.227
-452.968	-150.984	0.198	-0.015
-451.953	442.746	0.036	-0.079
-450.938	273.950	0.108	-0.193
-449.924	598.822	0.035	0.088
-448.909	-200.000	0.004	-0.121
-447.895	-200.000	0.020	-0.245
-446.880	380.717	0.140	0.289
-445.865	-61.116	0.157	-0.067
-444.851	-2.940	0.106	0.074
-443.836	-67.803	0.077	-0.030
-442.822	-200.000	0.052	-0.409
-441.807	96.523	0.163	0.188
-440.792	-94.562	0.248	-0.068
-439.778	276.562	-0.195	-0.347
-438.763	-57.927	-0.145	-0.064
-437.749	-13.647	-0.168	0.109
-436.734	-87.522	-0.170	-0.051
-435.719	-51.508	-0.302	0.142
-434.705	33.488	-0.099	-0.086
-433.690	142.906	-0.077	0.102
-432.676	34.392	0.073	-0.064
-431.661	-57.473	0.164	-0.072
-430.646	-137.798	0.057	0.006
-429.632	-54.302	0.076	0.035
-428.617	321.839	-0.039	0.074
-427.603	119.043	0.153	-0.189
-426.588	224.199	-0.102	0.165
-425.573	253.670	0.217	-0.372
-424.559	-23.432	0.359	0.216
-423.544	-0.963	-0.172	-0.122
-422.530	173.293	0.142	0.205
-421.515	-138.224	0.106	0.012
-420.500	-121.989	-0.256	-0.042
-419.486	-200.000	0.011	0.053
-418.471	292.147	0.222	-0.406
-417.457	51.018	0.185	-0.176
-416.442	800.000	0.042	0.158
-415.428	-200.000	-0.008	0.278
-414.413	-200.000	0.028	0.248
-413.398	-200.000	0.070	0.411
-412.384	-10.906	0.237	-0.157
-411.369	-130.071	0.318	-0.044
-410.355	430.711	0.080	0.175
-409.340	98.647	0.190	0.219
-408.325	-200.000	0.021	0.278
-407.311	-9.709	-0.136	-0.091
-406.296	138.043	0.130	-0.171
-405.282	108.346	0.176	-0.210
-404.267	-200.000	-0.003	-0.033
-403.252	-12.882	-0.046	0.030
-402.238	624.562	-0.075	0.191
-401.223	-200.000	0.031	-0.178
-400.209	490.565	-0.098	0.224
-399.194	-200.000	-0.046	0.377
-398.179	3.801	-0.232	0.170
-397.165	-60.867	0.188	0.080
-396.150	-46.372	0.235	-0.116
-395.136	-47.225	-0.109	0.053
-394.121	-99.403	0.412	0.104
-393.106	-71.640	-0.234	0.088
-392.092	164.795	-0.144	-0.204
-391.077	162.370	-0.124	0.174
-390.063	-99.559	0.219	0.055
-389.048	247.760	0.041	-0.069
-388.033	800.000	-0.054	0.214
-387.019	-120.836	-0.365	0.062
-386.004	76.368	0.072	0.076
-384.990	138.663	-0.254	0.334
-383.975	800.000	-0.056	-0.178
-382.960	140.191	0.154	-0.204
-381.946	-200.000	-0.013	0.220
-380.931	183.987	0.165	0.245
-379.917	800.000	0.041	0.175
-378.902	800.000	0.014	-0.048
-377.888	72.308	0.200	-0.208
-376.873	-200.000	0.076	-0.337
-375.858	113.654	-0.384	0.467
-374.844	149.581	0.195	0.265
-373.829	-73.523	-0.165	-0.060
-372.815	-113.571	0.252	-0.049
-371.800	800.000	-0.107	-0.363
-370.785	-63.860	-0.175	0.072
-369.771	14.887	0.122	0.096
-368.756	416.586	-0.098	-0.209
-367.742	267.529	0.023	0.041
-366.727	-43.880	-0.363	-0.183
-365.712	36.404	0.204	0.180
-364.698	-200.000	0.001	0.106
-363.683	77.512	0.194	-0.207
-362.669	-53.069	0.104	-0.048
-361.654	-200.000	-0.009	-0.107
-360.639	-76.424	-0.194	-0.068
-359.625	-16.880	0.192	0.121
-358.610	-200.000	0.049	-0.270
-357.596	-115.294	-0.284	-0.054
-356.581	104.388	-0.066	-0.078
-355.566	9.927	0.092	-0.070
-354.552	-69.003	0.094	-0.036
-353.537	64.160	-0.264	-0.266
-352.523	183.120	0.143	-0.212
-351.508	800.000	0.070	0.234
-350.493	800.000	0.027	-0.082
-349.479	-19.971	-0.232	0.143
-348.464	-47.504	-0.075	-0.037
-347.450	208.291	-0.073	0.115
-346.435	-200.000	0.033	-0.185
-345.420	25.664	-0.373	-0.311
-344.406	456.264	0.139	-0.308
-343.391	800.000	0.041	-0.154
-342.377	-130.710	-0.415	-0.056
-341.362	-143.197	0.066	0.006
-340.348	-142.870	-0.098	-0.010
-339.333	199.522	-0.035	0.054
-338.318	58.403	0.210	-0.206
-337.304	-25.179	-0.120	0.071
-336.289	-107.839	0.217	-0.047
-335.275	-161.697	-0.265	-0.014
-334.260	-200.000	0.010	-0.143
-333.245	110.151	-0.139	0.167
-332.231	-6.173	0.135	-0.092
-331.216	675.955	0.125	-0.325
-330.202	800.000	-0.022	-0.084
-329.187	-147.567	-0.173	-0.015
-328.172	147.038	0.109	0.147
-327.158	10.826	0.093	0.071
-326.143	-92.141	-0.199	-0.056
-325.129	-200.000	0.022	-0.267
-324.114	-57.355	0.133	-0.058
-323.099	-69.535	0.103	-0.039
-322.085	8.618	-0.295	0.222
-321.070	-55.035	-0.346	0.156
-320.056	-200.000	-0.031	-0.178
-319.041	-69.350	-0.181	0.069
-318.026	-129.379	-0.112	-0.016
-317.012	213.844	0.074	-0.117
-315.997	123.618	0.191	-0.239
-314.983	20.308	-0.156	0.126
-313.968	100.866	0.141	-0.164
-312.953	-200.000	-0.003	-0.174
-311.939	-64.547	-0.133	-0.054
-310.924	9.987	0.154	0.117
-309.910	40.392	-0.142	0.128
-308.895	20.263	0.417	-0.337
-307.880	383.580	-0.078	0.161
-306.866	-16.974	0.206	-0.130
-305.851	132.017	-0.039	-0.050
-304.837	-48.481	0.188	-0.090
-303.822	24.783	0.126	0.104
-302.807	143.562	0.189	0.251
-301.793	-200.000	-0.065	-0.310
-300.778	424.896	0.109	0.235
-299.764	481.851	-0.073	-0.166
-298.749	-200.000	-0.008	0.222
-297.735	-59.911	-0.385	0.164
-296.720	-29.142	0.087	-0.050
-295.705	-194.391	0.134	-0.001
-294.691	-26.149	-0.081	-0.047
-293.676	-200.000	0.024	0.345
-292.662	800.000	0.046	-0.157
-291.647	-39.410	-0.174	0.091
-290.632	56.562	-0.135	0.131
-289.618	591.079	0.186	0.457
-288.603	228.072	-0.154	-0.250
-287.589	-124.073	-0.170	0.027
-286.574	-200.000	0.016	0.203
-285.559	-36.010	-0.020	0.011
-284.545	67.811	-0.306	0.312
-283.530	-117.000	-0.193	0.035
-282.516	38.277	-0.104	0.093
-281.501	-200.000	0.014	-0.224
-280.486	-131.209	-0.282	-0.037
-279.472	800.000	0.102	-0.372
-278.457	87.430	-0.127	-0.141
-277.443	76.550	-0.092	-0.097
-276.428	800.000	-0.080	0.290
-275.413	148.113	0.178	0.239
-274.399	43.146	-0.234	-0.213
-273.384	56.078	-0.216	-0.209
-272.370	-200.000	0.014	-0.172
-271.355	-177.988	0.167	0.004
-270.340	-47.268	-0.197	0.096
-269.326	-9.318	-0.125	0.083
-268.311	800.000	-0.050	-0.184
-267.297	-128.897	0.311	0.044
-266.282	-200.000	-0.022	-0.102
-265.267	517.135	0.102	0.238
-264.253	-200.000	-0.007	-0.091
-263.238	15.829	0.363	-0.285
-262.224	-200.000	-0.069	-0.307
-261.209	800.000	-0.146	-0.435
-260.195	51.550	0.046	0.044
-259.180	175.634	-0.027	0.038
-258.165	-64.033	0.172	-0.070
-257.151	-14.522	-0.124	0.080
-256.136	52.205	0.127	-0.120
-255.122	4.822	-0.208	0.152
-254.107	-124.635	0.526	-0.081
-253.092	800.000	0.035	-0.135
-252.078	-45.661	0.418	0.206
-251.063	716.192	-0.091	0.239
-250.049	-135.862	-0.130	-0.015
-249.034	800.000	-0.047	0.163
-248.019	13.903	0.022	0.017
-247.005	-200.000	0.006	0.095
-245.990	-83.484	0.280	0.089
-244.976	-51.555	0.250	0.116
-243.961	83.589	0.017	0.018
-242.946	-194.194	0.232	0.002
-241.932	61.298	0.151	0.150
-240.917	-101.493	0.322	-0.078
-239.903	48.550	0.117	-0.109
-238.888	196.763	0.055	-0.084
-237.873	183.250	-0.132	0.195
-236.859	-125.951	0.032	-0.005
-235.844	415.533	-0.146	-0.310
-234.830	132.530	-0.124	0.159
-233.815	40.873	0.325	0.292
-232.800	10.295	0.085	0.065
-231.786	-96.933	0.125	0.033
-230.771	-79.924	0.432	0.145
-229.757	-154.065	-0.161	-0.011
-228.742	-92.216	0.298	0.084
-227.727	-53.740	0.347	-0.158
-226.713	-23.895	-0.137	0.082
-225.698	-200.000	-0.005	-0.183
-224.684	-79.965	-0.264	-0.088
-223.669	-36.138	-0.119	0.064
-222.655	-200.000	0.015	-0.090
-221.640	11.651	-0.117	-0.089
-220.625	-200.000	-0.030	-0.385
-219.611	265.089	-0.037	-0.064
-218.596	-200.000	0.033	0.159
-217.582	293.643	-0.135	0.245
-216.567	-59.664	-0.110	0.047
-215.552	-62.820	-0.090	-0.037
-214.538	183.741	0.169	0.249
-213.523	-42.780	0.195	0.099
-212.509	-88.072	-0.379	-0.113
-211.494	466.576	0.052	0.117
-210.479	14.369	-0.050	0.038
-209.465	-200.000	0.023	-0.375
-208.450	354.560	0.081	-0.161
-207.436	-200.000	-0.002	0.079
-206.421	143.339	0.202	-0.268
-205.406	48.072	-0.298	-0.277
-204.392	699.632	-0.061	-0.160
-203.377	800.000	-0.015	-0.043
-202.363	216.605	0.012	0.019
-201.348	-83.125	-0.100	-0.032
-200.333	327.027	-0.139	-0.265
-199.319	508.825	-0.132	-0.305
-198.304	-200.000	-0.003	0.286
-197.290	-60.007	-0.266	0.113
-196.275	-162.620	0.281	0.014
-195.260	20.510	0.076	0.061
-194.246	-115.142	-0.137	0.026
-193.231	16.951	0.137	0.108
-192.217	111.907	-0.103	0.124
-191.202	208.103	0.209	-0.325
-190.187	-173.967	-0.143	-0.004
-189.173	44.091	-0.100	-0.091
-188.158	-135.162	0.093	0.011
-187.144	460.278	0.117	-0.260
-186.129	800.000	0.173	0.511
-185.114	35.835	0.064	-0.056
-184.100	-200.000	-0.013	0.110
-183.085	-200.000	-0.019	-0.107
-182.071	2.516	-0.196	-0.141
-181.056	164.991	0.279	0.392
-180.042	46.897	0.268	-0.248
-179.027	-16.025	0.148	-0.094
-178.012	-24.779	-0.173	0.102
-176.998	-40.407	0.149	-0.077
-175.983	-109.580	-0.074	0.016
-174.969	-113.122	-0.192	-0.038
-173.954	-68.743	0.216	0.083
-172.939	129.610	-0.043	-0.055
-171.925	10.354	0.124	0.094
-170.910	683.173	0.072	0.186
-169.896	216.913	0.095	0.151
-168.881	-56.030	0.139	-0.061
-167.866	-154.820	0.233	-0.015
-166.852	-39.484	-0.156	0.081
-165.837	73.464	-0.252	-0.262
-164.823	228.004	0.035	-0.057
-163.808	-101.402	-0.064	0.016
-162.793	206.081	-0.196	0.302
-161.779	-39.787	-0.168	-0.087
-160.764	-200.000	-0.005	0.071
-159.750	-131.723	0.407	0.053
-158.735	-87.188	-0.229	-0.069
-157.720	134.942	0.070	-0.090
-156.706	-200.000	-0.002	-0.042
-155.691	60.929	0.119	-0.117
-154.677	-71.685	-0.105	0.039
-153.662	120.663	0.224	0.276
-152.647	-98.630	-0.399	0.101
-151.633	-200.000	0.027	0.360
-150.618	3.478	0.025	0.018
-149.604	800.000	-0.027	0.109
-148.589	573.300	-0.110	-0.266
-147.574	24.210	-0.090	0.074
-146.560	-104.351	-0.275	-0.063
-145.545	-115.930	-0.246	0.046
-144.531	65.391	0.211	0.211
-143.516	-138.596	0.365	0.040
-142.502	39.958	-0.170	-0.152
-141.487	36.429	-0.254	-0.222
-140.472	15.418	-0.170	0.132
-139.458	-36.321	0.170	0.091
-138.443	-87.990	-0.343	-0.102
-137.429	-95.129	-0.208	-0.056
-136.414	5.053	-0.217	0.158
-135.399	-62.987	0.109	-0.045
-134.385	-116.591	-0.111	-0.020
-133.370	-138.653	0.189	-0.020
-132.356	800.000	0.082	-0.286
-131.341	192.512	0.017	0.025
-130.326	-200.000	-0.025	0.218
-129.312	525.854	0.060	-0.141
-128.297	136.350	-0.117	0.152
-127.283	-200.000	0.011	0.101
-126.268	733.703	-0.085	0.225
-125.253	-44.638	-0.208	-0.103
-124.239	2.281	0.147	-0.106
-123.224	-145.100	0.401	0.036
-122.210	800.000	0.027	0.099
-121.195	-200.000	0.067	0.313
