DTS Sentinel unit serial number:	SN413079Multiplexer serial number:	ORYXHardware model number:	OX4-SRSoftware version number:	ORYX F/W v4.00 Oryx Data Collector v3.7.2.0data status	okinstallation	princeton_trtdifferential loss correction	single-endedforward channel	channel 4reverse channel	N/Adate	2019/09/11time	20:31:10forward acquisition time	60.00reverse acquisition time	0.00gamma	496.2192k internal	0.2303k external	0.2303temperature offset calibration	1.0058default loss term (dB/km)	0.3790temperature slope calibration	1.0000multiplexer offset coefficient	1.0000multiplexer slope coefficient	1.0000fibre end	0.00T internal ref (°C)	37.58T ext. ref 1 (°C)	1.49T ext. ref 2 (°C)	30.88length (m)	temperature (°C)	Stokes	anti-Stokes-747.200	-200.000	-0.019	0.251
-746.185	-89.252	-0.271	0.081
-745.171	86.412	0.222	0.249
-744.156	-200.000	0.025	0.185
-743.142	514.851	-0.057	-0.136
-742.127	289.644	0.208	0.384
-741.112	-172.914	0.145	-0.005
-740.098	800.000	-0.066	-0.191
-739.083	5.899	0.119	0.090
-738.069	-52.838	0.179	0.084
-737.054	-200.000	0.014	0.112
-736.039	-46.065	-0.186	0.093
-735.025	-28.154	0.093	0.055
-734.010	-97.863	-0.539	0.142
-732.996	-151.746	0.117	-0.009
-731.981	118.638	-0.104	0.131
-730.966	557.235	0.144	0.353
-729.952	-153.029	-0.187	-0.013
-728.937	-200.000	-0.016	-0.265
-727.923	173.726	0.111	-0.163
-726.908	-200.000	0.031	-0.222
-725.894	45.835	0.217	0.204
-724.879	-152.869	0.185	-0.013
-723.864	143.121	-0.196	-0.265
-722.850	800.000	0.077	-0.240
-721.835	75.630	0.058	0.063
-720.821	-200.000	0.036	-0.168
-719.806	207.651	0.201	-0.320
-718.791	-135.046	-0.177	0.022
-717.777	-200.000	-0.018	0.240
-716.762	-48.417	0.124	-0.061
-715.748	12.738	0.245	0.192
-714.733	-35.777	0.239	-0.132
-713.718	-120.898	-0.309	-0.053
-712.704	-21.714	-0.165	0.102
-711.689	50.161	0.270	0.259
-710.675	800.000	-0.037	0.137
-709.660	800.000	-0.076	-0.231
-708.645	-177.212	-0.228	-0.006
-707.631	-124.205	0.297	-0.047
-706.616	-200.000	-0.080	0.383
-705.602	-162.918	0.209	-0.010
-704.587	-16.417	0.202	0.130
-703.572	150.285	-0.182	-0.252
-702.558	800.000	0.078	-0.249
-701.543	-81.463	0.334	-0.112
-700.529	197.585	0.168	-0.260
-699.514	44.734	0.208	0.194
-698.499	-116.375	-0.247	-0.047
-697.485	383.787	-0.059	0.123
-696.470	0.962	-0.102	-0.075
-695.456	-200.000	-0.007	0.085
-694.441	-70.657	-0.049	0.019
-693.426	-200.000	-0.009	0.210
-692.412	-89.185	0.252	0.076
-691.397	-139.048	-0.332	-0.037
-690.383	-86.795	-0.370	-0.115
-689.368	136.122	-0.165	0.218
-688.354	2.861	0.160	0.118
-687.339	800.000	-0.124	-0.352
-686.324	-120.210	0.200	0.035
-685.310	226.581	0.216	-0.357
-684.295	12.764	-0.045	0.036
-683.281	441.306	0.069	-0.155
-682.266	51.452	0.355	-0.342
-681.251	252.727	-0.029	-0.050
-680.237	165.799	0.121	0.174
-679.222	-200.000	-0.015	0.247
-678.208	-109.743	0.059	-0.013
-677.193	-58.834	-0.040	0.017
-676.178	800.000	0.069	-0.239
-675.164	-200.000	-0.011	-0.220
-674.149	71.675	-0.187	0.197
-673.135	280.922	-0.182	0.332
-672.120	-200.000	0.040	-0.325
-671.105	35.101	0.215	0.191
-670.091	-115.354	-0.188	0.036
-669.076	694.814	-0.102	-0.271
-668.062	-200.000	-0.016	0.134
-667.047	-16.800	-0.047	0.030
-666.032	-200.000	-0.071	0.000
-665.018	-200.000	0.012	0.203
-664.003	-96.615	-0.318	-0.085
-662.989	800.000	-0.043	-0.125
-661.974	70.544	0.335	0.352
-660.959	800.000	0.034	-0.098
-659.945	239.797	0.110	0.185
-658.930	-32.065	-0.087	-0.049
-657.916	800.000	0.055	-0.198
-656.901	210.560	0.064	-0.102
-655.886	95.329	0.084	-0.097
-654.872	191.111	0.192	-0.293
-653.857	543.817	0.105	0.255
-652.843	800.000	-0.101	0.343
-651.828	-5.876	-0.197	-0.137
-650.814	177.355	-0.143	0.211
-649.799	800.000	0.112	-0.321
-648.784	-95.007	-0.156	0.043
-647.770	-200.000	-0.036	0.454
-646.755	-200.000	0.009	-0.071
-645.741	629.099	-0.091	-0.233
-644.726	29.305	-0.219	-0.189
-643.711	-200.000	-0.039	-0.256
-642.697	360.213	-0.076	0.155
-641.682	-20.401	-0.175	0.109
-640.668	120.057	0.109	0.137
-639.653	78.709	-0.345	-0.374
-638.638	-200.000	-0.042	-0.210
-637.624	-200.000	0.026	-0.182
-636.609	-149.645	0.205	0.016
-635.595	0.622	0.128	0.093
-634.580	3.726	-0.087	-0.065
-633.565	-68.866	0.143	-0.056
-632.551	149.028	-0.118	-0.163
-631.536	-148.887	-0.226	-0.019
-630.522	179.834	-0.153	0.228
-629.507	49.968	-0.198	0.190
-628.492	-90.138	-0.132	-0.039
-627.478	249.575	0.117	-0.201
-626.463	-86.130	0.059	-0.018
-625.449	-142.888	-0.094	0.009
-624.434	86.365	0.065	-0.073
-623.419	5.476	0.239	0.179
-622.405	-35.584	0.285	0.157
-621.390	201.348	-0.068	-0.106
-620.376	1.788	0.278	0.203
-619.361	-14.493	0.258	0.169
-618.346	-166.101	-0.304	0.013
-617.332	-83.692	0.141	-0.046
-616.317	273.604	0.212	-0.380
-615.303	800.000	0.156	-0.452
-614.288	340.158	-0.072	0.143
-613.273	127.509	0.028	0.036
-612.259	-158.333	0.049	0.003
-611.244	20.587	-0.217	-0.178
-610.230	434.878	0.130	0.287
-609.215	-200.000	-0.058	0.318
-608.201	-200.000	-0.051	0.396
-607.186	-200.000	0.039	0.278
-606.171	-106.936	0.152	-0.034
-605.157	31.355	0.135	-0.118
-604.142	-200.000	0.012	-0.197
-603.128	45.479	-0.110	-0.103
-602.113	504.399	-0.040	-0.093
-601.098	-124.936	-0.154	0.024
-600.084	-200.000	-0.048	-0.392
-599.069	15.932	-0.083	0.066
-598.055	-1.951	0.063	0.045
-597.040	-130.589	0.195	0.027
-596.025	-115.152	-0.229	0.044
-595.011	800.000	0.068	0.206
-593.996	460.032	-0.140	0.317
-592.982	-200.000	-0.069	0.468
-591.967	3.985	0.042	0.031
-590.952	23.586	0.220	-0.184
-589.938	-65.035	0.128	0.053
-588.923	-41.485	0.300	0.156
-587.909	-200.000	0.070	-0.394
-586.894	-112.921	-0.471	0.094
-585.879	-200.000	-0.007	-0.090
-584.865	479.075	0.101	0.232
-583.850	-17.119	0.373	-0.238
-582.836	38.842	0.042	-0.038
-581.821	101.119	-0.208	0.245
-580.806	444.950	0.075	-0.166
-579.792	324.556	0.049	-0.096
-578.777	21.283	-0.452	-0.372
-577.763	-161.010	0.272	-0.014
-576.748	228.856	0.029	-0.047
-575.733	-71.343	0.330	0.125
-574.719	-91.390	-0.252	-0.073
-573.704	-200.000	0.038	0.194
-572.690	79.190	0.136	-0.148
-571.675	800.000	0.016	0.060
-570.661	-200.000	-0.001	-0.292
-569.646	-200.000	0.038	-0.197
-568.631	86.745	0.238	-0.266
-567.617	800.000	0.014	0.057
-566.602	163.325	-0.070	-0.100
-565.588	-6.144	-0.269	-0.186
-564.573	-136.488	0.177	0.021
-563.558	82.858	-0.266	-0.293
-562.544	16.388	-0.123	0.098
-561.529	185.193	0.151	-0.226
-560.515	197.012	0.118	-0.183
-559.500	-180.933	-0.120	0.002
-558.485	800.000	0.116	-0.489
-557.471	800.000	-0.049	-0.141
-556.456	-17.084	0.053	-0.034
-555.442	-46.240	0.111	-0.055
-554.427	800.000	-0.047	-0.137
-553.412	-200.000	0.078	0.000
-552.398	-130.078	-0.036	0.005
-551.383	585.406	-0.067	0.168
-550.369	-200.000	0.040	-0.377
-549.354	33.889	-0.138	0.122
-548.339	83.289	-0.208	-0.229
-547.325	214.772	-0.079	0.126
-546.310	88.917	-0.211	0.238
-545.296	20.350	-0.054	0.044
-544.281	-132.734	0.155	-0.020
-543.266	-66.877	0.127	-0.051
-542.252	-3.193	-0.254	-0.179
-541.237	-200.000	0.051	-0.462
-540.223	-55.137	0.291	-0.132
-539.208	-26.423	0.193	-0.114
-538.193	-68.244	-0.225	-0.088
-537.179	-49.740	-0.155	-0.075
-536.164	41.334	-0.141	0.129
-535.150	513.657	0.173	-0.408
-534.135	-153.428	-0.144	0.010
-533.121	438.119	-0.081	0.178
-532.106	214.957	0.075	-0.120
-531.091	-200.000	0.016	-0.212
-530.077	-104.256	0.315	-0.074
-529.062	10.817	0.153	-0.118
-528.048	-102.753	0.232	0.056
-527.033	-141.763	0.281	0.029
-526.018	-200.000	-0.012	0.178
-525.004	229.232	0.185	-0.305
-523.989	-124.297	0.217	0.034
-522.975	77.791	-0.137	-0.147
-521.960	-87.995	-0.491	-0.149
-520.945	44.680	-0.315	-0.293
-519.931	-32.128	0.222	-0.125
-518.916	619.024	0.061	-0.156
-517.902	800.000	-0.060	0.244
-516.887	16.036	0.231	-0.184
-515.872	-120.210	0.034	-0.006
-514.858	-35.659	-0.033	-0.018
-513.843	800.000	0.112	-0.323
-512.829	162.744	0.080	0.114
-511.814	-143.234	0.394	-0.038
-510.799	35.563	-0.101	-0.090
-509.785	-73.784	0.262	-0.096
-508.770	-200.000	0.039	0.360
-507.756	-200.000	-0.023	0.194
-506.741	-66.301	0.241	0.097
-505.726	-138.506	0.535	0.059
-504.712	-118.536	0.111	-0.020
-503.697	637.600	-0.143	0.368
-502.683	184.386	-0.127	0.190
-501.668	-36.847	0.299	-0.162
-500.653	13.430	-0.318	-0.249
-499.639	-23.969	-0.225	0.136
-498.624	76.791	-0.141	0.151
-497.610	87.187	0.104	0.116
-496.595	794.269	-0.165	-0.459
-495.581	569.349	-0.052	0.127
-494.566	-50.008	0.228	-0.109
-493.551	-200.000	-0.005	0.156
-492.537	-24.530	-0.428	-0.257
-491.522	-80.358	0.234	-0.079
-490.508	222.185	0.127	-0.206
-489.493	290.531	0.107	0.195
-488.478	-200.000	0.016	0.253
-487.464	220.434	0.150	0.242
-486.449	-92.221	-0.145	-0.041
-485.435	800.000	-0.045	-0.165
-484.420	189.344	-0.035	0.053
-483.405	800.000	0.065	-0.183
-482.391	550.682	0.047	-0.114
-481.376	800.000	-0.074	0.301
-480.362	-88.854	-0.125	-0.037
-479.347	-200.000	0.005	0.074
-478.332	-19.455	-0.252	0.157
-477.318	237.571	0.177	0.296
-476.303	-200.000	0.025	-0.116
-475.289	64.158	0.190	-0.193
-474.274	239.863	0.117	-0.196
-473.259	336.351	0.122	-0.239
-472.245	47.958	-0.070	-0.066
-471.230	-76.962	-0.089	-0.031
-470.216	-200.000	-0.016	-0.093
-469.201	138.908	-0.088	-0.116
-468.186	800.000	-0.098	-0.286
-467.172	-123.883	0.067	-0.011
-466.157	-163.806	0.114	0.005
-465.143	417.240	-0.108	0.232
-464.128	-86.434	-0.168	0.052
-463.113	587.609	0.177	0.440
-462.099	-200.000	0.001	0.249
-461.084	800.000	-0.041	0.168
-460.070	410.229	0.107	0.228
-459.055	-200.000	-0.018	-0.176
-458.040	-12.605	-0.084	0.055
-457.026	50.628	-0.178	-0.170
-456.011	605.080	0.133	0.332
-454.997	406.908	-0.127	-0.270
-453.982	16.576	0.216	0.172
-452.968	255.961	-0.013	-0.023
-451.953	-7.474	-0.066	0.045
-450.938	-200.000	0.015	0.231
-449.924	19.739	-0.196	-0.159
-448.909	-200.000	-0.029	0.351
-447.895	113.786	0.065	-0.080
-446.880	800.000	0.047	-0.133
-445.865	-176.772	0.298	0.008
-444.851	73.025	-0.244	-0.257
-443.836	116.409	0.176	0.218
-442.822	-147.356	-0.248	0.021
-441.807	-77.266	-0.217	-0.076
-440.792	-67.553	0.113	0.045
-439.778	-38.332	-0.047	-0.025
-438.763	800.000	0.070	0.228
-437.749	-200.000	-0.035	0.262
-436.734	-95.561	0.171	0.046
-435.719	262.231	-0.182	-0.318
-434.705	-124.694	-0.161	0.025
-433.690	98.459	-0.049	-0.057
-432.676	57.765	-0.179	0.176
-431.661	289.106	-0.231	0.421
-430.646	-200.000	0.037	-0.187
-429.632	-200.000	0.016	0.111
-428.617	24.887	0.193	-0.161
-427.603	-174.907	0.244	-0.007
-426.588	289.689	0.135	-0.246
-425.573	157.184	0.138	0.192
-424.559	149.752	-0.103	-0.141
-423.544	-62.635	0.359	-0.150
-422.530	-19.607	-0.377	-0.235
-421.515	800.000	0.025	-0.094
-420.500	788.571	-0.041	-0.115
-419.486	-107.425	0.194	-0.043
-418.471	-25.436	-0.358	-0.213
-417.457	-133.451	0.134	0.017
-416.442	62.436	0.318	0.319
-415.428	38.390	-0.228	-0.204
-414.413	-82.378	0.131	0.043
-413.398	24.910	-0.205	-0.171
-412.384	528.750	-0.048	0.114
-411.369	-32.223	0.340	0.191
-410.355	-168.820	-0.274	0.010
-409.340	519.032	-0.031	-0.072
-408.325	-153.710	-0.140	0.010
-407.311	-41.994	-0.113	0.058
-406.296	-200.000	0.014	0.182
-405.282	-200.000	0.115	0.586
-404.267	64.064	-0.341	-0.345
-403.252	106.011	-0.014	0.017
-402.238	-167.586	0.296	-0.012
-401.223	-171.594	0.212	-0.007
-400.209	12.688	0.086	0.067
-399.194	136.158	-0.189	-0.247
-398.179	-121.616	-0.041	0.007
-397.165	36.666	-0.209	0.186
-396.150	-200.000	-0.007	0.043
-395.136	-200.000	0.006	0.151
-394.121	139.974	-0.086	0.114
-393.106	96.910	0.118	0.136
-392.092	-101.021	-0.213	-0.052
-391.077	267.239	-0.152	0.267
-390.063	-200.000	-0.001	0.044
-389.048	-11.924	0.244	-0.161
-388.033	10.957	-0.061	-0.047
-387.019	-200.000	0.020	0.253
-386.004	800.000	0.026	0.093
-384.990	-77.114	-0.244	-0.086
-383.975	-200.000	-0.014	-0.074
-382.960	216.972	-0.022	-0.035
-381.946	-200.000	-0.000	0.017
-380.931	117.707	-0.063	0.078
-379.917	40.127	0.117	-0.105
-378.902	-0.705	0.049	0.035
-377.888	682.390	0.090	0.235
-376.873	241.482	-0.197	0.330
-375.858	-44.727	-0.118	-0.059
-374.844	-98.398	0.311	-0.080
-373.829	-25.542	0.018	-0.011
-372.815	78.988	0.090	-0.097
-371.800	100.172	-0.162	0.188
-370.785	727.472	-0.121	0.323
-369.771	17.678	0.164	0.131
-368.756	553.950	-0.133	-0.321
-367.742	89.363	0.232	-0.260
-366.727	-36.323	-0.187	-0.101
-365.712	411.689	-0.123	0.261
-364.698	166.994	-0.029	0.041
-363.683	800.000	-0.082	0.315
-362.669	241.161	-0.112	-0.187
-361.654	135.991	0.253	-0.331
-360.639	-78.826	0.300	0.103
-359.625	-152.704	-0.311	-0.022
-358.610	507.254	-0.055	-0.127
-357.596	-200.000	0.073	0.349
-356.581	-135.278	-0.128	-0.015
-355.566	-200.000	0.027	-0.198
-354.552	-93.791	0.253	-0.070
-353.537	-62.442	-0.126	0.052
-352.523	-34.030	0.086	-0.048
-351.508	-156.679	-0.082	0.005
-350.493	-44.500	-0.193	0.097
-349.479	-200.000	0.031	0.214
-348.464	-82.536	0.163	-0.053
-347.450	-200.000	-0.032	0.204
-346.435	-85.987	-0.038	0.012
-345.420	-137.893	0.340	-0.038
-344.406	-166.418	0.474	0.020
-343.391	-13.538	-0.121	0.079
-342.377	-195.787	-0.156	-0.001
-341.362	-89.014	0.249	-0.074
-340.348	-200.000	-0.027	-0.445
-339.333	800.000	-0.087	0.323
-338.318	475.289	-0.063	0.144
-337.304	-200.000	-0.008	-0.088
-336.289	33.493	0.062	-0.054
-335.275	28.247	-0.121	0.102
-334.260	-22.971	-0.148	-0.089
-333.245	-200.000	0.022	-0.311
-332.231	120.247	0.153	0.191
-331.216	-102.204	-0.191	0.046
-330.202	167.946	0.070	0.100
-329.187	-64.287	0.304	0.124
-328.172	-0.309	-0.208	-0.148
-327.158	366.075	-0.130	-0.263
-326.143	519.255	0.188	0.442
-325.129	-120.394	0.281	-0.048
-324.114	-200.000	-0.006	-0.363
-323.099	129.623	-0.089	-0.114
-322.085	23.141	0.124	0.102
-321.070	-147.564	0.158	0.013
-320.056	-5.672	-0.207	-0.142
-319.041	-25.688	-0.143	-0.085
-318.026	-200.000	0.068	0.354
-317.012	24.828	-0.246	-0.205
-315.997	-117.943	0.318	-0.057
-314.983	160.355	-0.083	-0.116
-313.968	-200.000	0.043	0.250
-312.953	-184.274	-0.378	0.006
-311.939	-200.000	-0.072	-0.326
-310.924	-200.000	0.007	-0.263
-309.910	-59.403	-0.239	0.103
-308.895	-54.575	-0.079	-0.036
-307.880	33.349	-0.329	0.286
-306.866	-200.000	-0.017	0.266
-305.851	800.000	0.018	0.057
-304.837	12.144	-0.354	-0.273
-303.822	57.797	0.061	0.060
-302.807	800.000	0.111	0.422
-301.793	-132.008	0.146	0.019
-300.778	-126.363	0.095	-0.014
-299.764	-12.157	0.245	-0.160
-298.749	-200.000	0.085	0.486
-297.735	-112.151	-0.226	0.045
-296.720	480.832	0.054	0.124
-295.705	28.684	-0.118	0.100
-294.691	25.715	0.139	-0.116
-293.676	473.207	-0.139	-0.314
-292.662	-93.158	0.287	-0.080
-291.647	629.248	-0.036	0.092
-290.632	-200.000	-0.012	0.080
-289.618	-200.000	-0.014	-0.086
-288.603	159.473	0.158	0.221
-287.589	50.036	0.270	-0.255
-286.574	800.000	-0.071	0.225
-285.559	-112.656	-0.243	0.048
-284.545	-200.000	-0.007	0.248
-283.530	-171.769	0.160	0.005
-282.516	-48.183	0.054	-0.026
-281.501	93.328	-0.228	0.258
-280.486	244.012	0.231	-0.388
-279.472	-200.000	-0.001	-0.620
-278.457	108.645	0.112	-0.134
-277.443	800.000	-0.111	0.317
-276.428	51.411	-0.140	-0.133
-275.413	-200.000	-0.058	0.287
-274.399	-200.000	0.004	0.465
-273.384	243.422	-0.292	-0.490
-272.370	112.318	0.057	0.068
-271.355	524.498	0.037	0.088
-270.340	46.617	-0.130	0.121
-269.326	61.919	-0.330	-0.329
-268.311	53.946	-0.034	-0.033
-267.297	149.425	-0.130	0.176
-266.282	-120.718	-0.208	-0.035
-265.267	-125.306	-0.088	0.013
-264.253	311.620	0.143	-0.269
-263.238	71.702	0.055	0.058
-262.224	19.768	-0.445	-0.358
-261.209	-90.614	-0.287	0.083
-260.195	-200.000	-0.011	-0.156
-259.180	-82.132	-0.201	-0.065
-258.165	207.780	-0.018	0.028
-257.151	-135.422	0.145	0.017
-256.136	-3.671	-0.106	0.073
-255.122	-3.169	-0.130	0.091
-254.107	800.000	0.114	0.366
-253.092	74.753	0.022	-0.023
-252.078	-162.841	0.200	-0.010
-251.063	-170.529	-0.203	-0.007
-250.049	-200.000	-0.086	-0.444
-249.034	800.000	-0.055	-0.162
-248.019	36.231	-0.326	-0.287
-247.005	-78.354	-0.286	-0.098
-245.990	56.698	-0.064	-0.063
-244.976	-200.000	0.024	0.275
-243.961	-82.688	-0.220	-0.071
-242.946	-200.000	0.011	0.077
-241.932	-123.114	-0.214	-0.034
-240.917	-75.049	0.132	0.047
-239.903	-64.389	-0.177	-0.072
-238.888	233.996	-0.119	0.195
-237.873	781.605	0.046	-0.126
-236.859	109.606	0.195	0.233
-235.844	97.081	-0.245	0.280
-234.830	439.398	0.159	0.346
-233.815	433.935	0.079	0.172
-232.800	-7.202	-0.105	-0.071
-231.786	20.036	0.219	-0.176
-230.771	-200.000	0.012	0.077
-229.757	-99.010	-0.090	-0.023
-228.742	800.000	0.049	-0.188
-227.727	-200.000	0.001	0.101
-226.713	-128.826	-0.139	-0.020
-225.698	-200.000	-0.014	-0.090
-224.684	-200.000	-0.033	0.239
-223.669	800.000	-0.069	0.298
-222.655	-110.334	-0.360	-0.075
-221.640	-162.314	-0.161	-0.008
-220.625	439.039	-0.081	-0.175
-219.611	134.378	-0.270	-0.350
-218.596	-17.365	-0.228	0.143
-217.582	632.143	0.059	0.150
-216.567	42.910	0.391	-0.356
-215.552	230.780	0.119	0.194
-214.538	136.062	0.196	0.254
-213.523	800.000	-0.037	0.126
-212.509	-64.745	0.189	-0.077
-211.494	-148.635	0.423	-0.034
-210.479	524.441	0.021	-0.050
-209.465	271.680	0.217	0.381
-208.450	7.086	-0.155	0.115
-207.436	-40.119	-0.097	-0.051
-206.421	585.527	0.146	0.358
-205.406	-200.000	-0.016	0.109
-204.392	34.887	0.295	-0.258
-203.377	-8.964	0.149	-0.099
-202.363	-138.786	-0.223	-0.024
-201.348	123.334	0.082	0.103
-200.333	-189.470	0.261	0.003
-199.319	-135.517	0.137	-0.016
-198.304	85.943	0.092	0.101
-197.290	30.316	0.123	0.105
-196.275	-200.000	-0.044	0.244
-195.260	489.244	0.083	-0.188
-194.246	380.840	0.054	0.111
-193.231	60.988	-0.109	0.107
-192.217	-143.416	0.373	-0.036
-191.202	-67.135	-0.184	0.072
-190.187	66.524	0.148	0.150
-189.173	800.000	-0.066	0.283
-188.158	-136.914	0.106	-0.012
-187.144	429.336	-0.057	-0.122
-186.129	46.608	0.167	-0.155
-185.114	-122.602	0.324	-0.052
-184.100	-113.755	-0.099	-0.019
-183.085	1.936	-0.131	0.094
-182.071	-124.359	0.231	0.036
-181.056	-50.285	-0.023	-0.011
-180.042	207.295	-0.138	-0.215
-179.027	-20.806	-0.230	0.140
-178.012	-200.000	-0.029	0.185
-176.998	150.796	0.260	0.353
-175.983	508.183	0.094	0.216
-174.969	-178.418	-0.089	-0.002
-173.954	-114.221	0.035	-0.007
-172.939	-64.475	-0.267	-0.108
-171.925	-69.290	-0.218	0.084
-170.910	-70.249	0.230	-0.087
-169.896	-7.466	-0.209	-0.141
-168.881	-86.232	0.347	-0.107
-167.866	-64.596	0.193	0.078
-166.852	7.856	-0.136	-0.102
-165.837	-200.000	-0.020	0.224
-164.823	69.582	0.074	0.076
-163.808	-199.532	0.275	-0.001
-162.793	-39.621	-0.254	-0.133
-161.779	-138.849	-0.094	0.010
-160.764	575.624	-0.087	0.211
-159.750	56.622	0.154	-0.150
-158.735	132.159	0.272	0.349
-157.720	140.804	0.110	0.144
-156.706	597.383	-0.138	-0.342
-155.691	-167.784	-0.145	0.006
-154.677	-36.972	0.251	0.134
-153.662	-139.713	-0.323	0.034
-152.647	-45.602	0.147	-0.073
-151.633	162.068	0.055	0.076
-150.618	-144.479	0.063	0.006
-149.604	30.203	-0.344	0.292
-148.589	19.954	-0.093	0.074
-147.574	71.245	0.035	0.036
-146.560	-200.000	0.006	0.358
-145.545	153.795	0.166	0.226
-144.531	-200.000	0.020	-0.111
-143.516	-57.376	-0.158	-0.069
-142.502	-159.726	0.200	0.011
-141.487	-79.954	-0.121	0.041
-140.472	-34.942	0.197	0.107
-139.458	222.910	0.058	0.092
-138.443	800.000	-0.036	0.105
-137.429	-200.000	-0.003	-0.080
-136.414	87.075	0.114	-0.126
-135.399	-106.366	0.216	-0.048
-134.385	531.103	-0.095	0.223
-133.370	172.268	0.036	-0.051
-132.356	77.353	0.130	0.138
-131.341	252.355	0.099	-0.168
-130.326	-98.836	0.332	0.084
-129.312	384.392	0.009	-0.018
-128.297	0.174	-0.232	-0.165
-127.283	-40.999	0.154	0.079
-126.268	1.611	0.258	0.185
-125.253	-175.663	0.290	0.008
-124.239	800.000	0.030	-0.115
-123.224	54.144	0.107	0.103
-122.210	39.825	-0.135	-0.121
-121.195	-92.106	0.222	-0.062
