DTS Sentinel unit serial number:	SN413079Multiplexer serial number:	ORYXHardware model number:	OX4-SRSoftware version number:	ORYX F/W v4.00 Oryx Data Collector v3.7.2.0data status	okinstallation	princeton_trtdifferential loss correction	single-endedforward channel	channel 4reverse channel	N/Adate	2019/09/11time	00:23:10forward acquisition time	60.00reverse acquisition time	0.00gamma	496.2192k internal	0.2317k external	0.2317temperature offset calibration	0.9951default loss term (dB/km)	0.3790temperature slope calibration	1.0000multiplexer offset coefficient	1.0000multiplexer slope coefficient	1.0000fibre end	0.00T internal ref (°C)	29.27T ext. ref 1 (°C)	-0.30T ext. ref 2 (°C)	22.85length (m)	temperature (°C)	Stokes	anti-Stokes-747.200	447.080	-0.050	0.111
-746.185	-72.497	0.222	-0.083
-745.171	-200.000	0.035	-0.233
-744.156	-200.000	-0.014	0.124
-743.142	-108.037	0.288	-0.063
-742.127	800.000	-0.046	0.140
-741.112	281.189	-0.142	-0.257
-740.098	-200.000	0.023	0.117
-739.083	552.808	0.100	0.243
-738.069	800.000	0.060	0.196
-737.054	66.400	0.055	-0.056
-736.039	-38.977	0.186	-0.099
-735.025	-140.418	0.259	0.027
-734.010	-27.914	0.185	-0.108
-732.996	-29.969	0.126	0.072
-731.981	-107.886	0.093	0.020
-730.966	-200.000	0.019	0.096
-729.952	290.832	-0.135	-0.249
-728.937	800.000	-0.009	-0.034
-727.923	-200.000	0.010	-0.571
-726.908	-127.206	0.160	0.024
-725.894	56.914	0.089	-0.088
-724.879	800.000	-0.117	0.349
-723.864	-200.000	-0.019	-0.172
-722.850	86.382	0.064	-0.071
-721.835	-200.000	0.016	0.330
-720.821	252.867	-0.040	0.070
-719.806	-25.968	-0.307	0.183
-718.791	800.000	-0.131	-0.444
-717.777	-62.776	0.013	-0.006
-716.762	56.044	-0.038	-0.038
-715.748	-200.000	0.011	0.166
-714.733	-200.000	0.078	-0.567
-713.718	-120.575	-0.365	0.063
-712.704	47.199	-0.088	-0.083
-711.689	-200.000	-0.022	0.126
-710.675	171.713	0.086	0.125
-709.660	-133.821	0.202	0.025
-708.645	118.971	0.124	-0.155
-707.631	-200.000	-0.058	-0.327
-706.616	-62.675	-0.150	0.063
-705.602	79.873	0.080	-0.087
-704.587	-200.000	-0.043	-0.397
-703.572	-8.232	-0.211	-0.144
-702.558	411.538	-0.112	0.241
-701.543	-200.000	0.435	0.002
-700.529	-2.640	-0.180	-0.127
-699.514	369.048	0.063	-0.129
-698.499	-200.000	0.035	-0.382
-697.485	-200.000	-0.012	-0.323
-696.470	0.266	0.145	0.105
-695.456	25.367	-0.267	-0.224
-694.441	169.539	0.085	-0.122
-693.426	-135.969	-0.306	0.036
-692.412	-42.598	0.242	0.124
-691.397	-68.469	-0.166	-0.065
-690.383	376.620	-0.118	-0.244
-689.368	-76.501	0.347	-0.123
-688.354	124.215	-0.050	-0.064
-687.339	28.292	-0.129	0.110
-686.324	17.163	0.217	-0.173
-685.310	77.734	-0.162	-0.174
-684.295	-76.792	-0.155	0.055
-683.281	-127.389	-0.435	0.064
-682.266	600.521	-0.023	0.059
-681.251	800.000	0.056	-0.232
-680.237	-52.625	0.187	-0.087
-679.222	177.958	0.075	-0.111
-678.208	106.771	-0.188	-0.225
-677.193	-200.000	-0.046	-0.472
-676.178	800.000	0.038	0.145
-675.164	-47.642	0.116	-0.057
-674.149	-195.283	0.047	-0.000
-673.135	186.540	0.154	-0.232
-672.120	-32.911	-0.228	0.128
-671.105	-200.000	-0.034	0.171
-670.091	-70.772	0.305	-0.116
-669.076	-200.000	0.019	-0.443
-668.062	-115.447	0.084	-0.016
-667.047	-200.000	-0.015	-0.185
-666.032	-9.933	0.264	0.177
-665.018	-27.351	-0.031	0.018
-664.003	224.915	-0.133	-0.217
-662.989	-46.931	-0.227	-0.112
-661.974	234.359	-0.266	-0.442
-660.959	-129.120	0.273	-0.039
-659.945	125.116	-0.052	-0.066
-658.930	350.806	-0.055	-0.110
-657.916	-23.335	0.227	0.138
-656.901	-35.612	0.066	0.036
-655.886	-50.330	0.051	-0.025
-654.872	-39.760	0.073	0.038
-653.857	800.000	-0.073	-0.243
-652.843	-105.095	0.352	-0.081
-651.828	84.978	0.229	0.254
-650.814	21.199	-0.090	-0.074
-649.799	269.441	0.112	-0.198
-648.784	325.880	0.187	0.360
-647.770	304.692	-0.079	0.147
-646.755	20.403	0.289	-0.236
-645.741	250.501	-0.198	-0.339
-644.726	35.702	0.140	-0.124
-643.711	-4.000	0.101	-0.070
-642.697	800.000	-0.004	0.015
-641.682	234.382	-0.105	-0.174
-640.668	422.662	-0.092	0.200
-639.653	-96.287	0.077	0.021
-638.638	-108.917	0.427	0.092
-637.624	-200.000	0.003	0.038
-636.609	-150.185	-0.637	-0.050
-635.595	-27.068	0.173	0.102
-634.580	16.067	0.106	-0.084
-633.565	-118.475	0.324	-0.058
-632.551	-81.897	-0.470	-0.155
-631.536	21.804	-0.158	-0.130
-630.522	-15.739	-0.442	0.284
-629.507	15.486	-0.333	-0.264
-628.492	-131.308	0.373	-0.050
-627.478	-75.796	0.303	0.108
-626.463	-142.803	-0.361	-0.035
-625.449	-91.627	-0.059	-0.017
-624.434	-101.150	-0.068	-0.017
-623.419	-200.000	0.032	0.153
-622.405	-48.977	-0.136	-0.066
-621.390	98.179	-0.229	-0.265
-620.376	18.303	0.121	0.098
-619.361	-54.945	-0.042	0.019
-618.346	-175.306	-0.037	-0.001
-617.332	207.871	-0.043	-0.067
-616.317	526.747	-0.061	0.145
-615.303	334.637	-0.166	-0.324
-614.288	-112.387	0.124	0.025
-613.273	168.884	0.157	0.225
-612.259	-60.994	0.008	-0.003
-611.244	-200.000	0.050	0.385
-610.230	40.389	-0.233	0.211
-609.215	48.580	0.186	-0.176
-608.201	-42.221	0.232	0.120
-607.186	223.868	0.119	-0.193
-606.171	-13.840	0.231	-0.151
-605.157	24.946	0.176	0.147
-604.142	-89.645	-0.068	0.020
-603.128	-56.112	0.273	-0.122
-602.113	0.276	-0.134	-0.096
-601.098	-200.000	0.030	0.168
-600.084	-105.138	0.273	0.063
-599.069	-200.000	-0.004	-0.023
-598.055	-63.536	0.174	0.072
-597.040	800.000	-0.105	-0.372
-596.025	-46.652	0.051	-0.025
-595.011	-107.769	-0.222	-0.049
-593.996	119.577	0.134	0.167
-592.982	-112.414	-0.118	0.024
-591.967	-104.973	0.299	0.069
-590.952	-183.726	-0.204	0.004
-589.938	-91.576	0.066	0.019
-588.923	-200.000	0.002	0.187
-587.909	800.000	-0.088	0.270
-586.894	607.949	-0.109	0.274
-585.879	786.984	0.107	-0.295
-584.865	800.000	-0.064	0.247
-583.850	-200.000	-0.016	0.377
-582.836	-200.000	-0.012	0.218
-581.821	-200.000	-0.019	0.249
-580.806	101.685	-0.187	-0.219
-579.792	27.834	-0.163	0.138
-578.777	-87.696	0.386	-0.117
-577.763	-200.000	0.012	-0.102
-576.748	409.479	-0.089	0.190
-575.733	33.426	-0.098	0.085
-574.719	113.978	0.149	0.182
-573.704	-83.701	0.338	0.109
-572.690	-94.798	0.222	-0.061
-571.675	60.930	0.080	0.080
-570.661	-200.000	0.027	-0.265
-569.646	-200.000	0.014	0.338
-568.631	-141.971	0.229	0.023
-567.617	-35.886	-0.306	0.167
-566.602	-200.000	-0.026	-0.216
-565.588	82.266	-0.010	-0.011
-564.573	50.716	0.205	-0.195
-563.558	-88.397	-0.084	0.025
-562.544	-200.000	-0.043	0.291
-561.529	800.000	0.059	-0.234
-560.515	103.661	0.108	0.128
-559.500	-86.523	-0.377	0.116
-558.485	800.000	0.115	-0.451
-557.471	-200.000	0.014	-0.137
-556.456	770.235	0.037	0.102
-555.442	133.704	-0.241	-0.314
-554.427	800.000	-0.163	0.544
-553.412	-200.000	-0.031	0.167
-552.398	-200.000	-0.008	0.206
-551.383	-81.102	0.192	-0.064
-550.369	-136.580	0.518	0.060
-549.354	44.352	0.086	0.080
-548.339	30.463	0.249	-0.214
-547.325	285.610	0.076	-0.138
-546.310	159.373	-0.053	-0.074
-545.296	-200.000	0.056	0.255
-544.281	-200.000	-0.009	0.252
-543.266	0.193	0.243	-0.174
-542.252	-77.299	0.052	0.018
-541.237	-19.686	0.142	-0.088
-540.223	-51.545	-0.345	0.162
-539.208	26.002	0.183	-0.154
-538.193	-133.500	-0.257	0.032
-537.179	-71.756	0.216	0.081
-536.164	800.000	0.047	-0.142
-535.150	270.977	0.138	-0.244
-534.135	-200.000	-0.037	-0.202
-533.121	-70.042	0.295	0.113
-532.106	-52.880	-0.218	-0.101
-531.091	3.487	-0.207	-0.151
-530.077	-99.728	0.108	-0.027
-529.062	6.154	-0.101	0.075
-528.048	170.465	0.106	0.152
-527.033	-81.525	0.214	-0.071
-526.018	249.426	0.192	-0.327
-525.004	800.000	-0.059	-0.252
-523.989	-200.000	0.068	-0.309
-522.975	282.473	-0.104	0.188
-521.960	16.585	-0.153	0.121
-520.945	-52.175	-0.274	0.128
-519.931	800.000	-0.078	-0.281
-518.916	601.426	0.124	-0.309
-517.902	-89.203	0.241	0.071
-516.887	-200.000	0.003	0.114
-515.872	1.841	0.329	0.238
-514.858	163.212	0.161	0.228
-513.843	-26.275	0.091	0.054
-512.829	152.145	-0.153	-0.209
-511.814	-70.896	0.166	0.063
-510.799	23.437	0.201	0.166
-509.785	-200.000	0.089	-0.438
-508.770	28.574	-0.141	-0.120
-507.756	514.623	-0.111	0.261
-506.741	219.862	-0.069	-0.112
-505.726	-36.996	-0.199	-0.107
-504.712	27.508	0.268	0.226
-503.697	418.793	-0.122	0.261
-502.683	108.844	0.125	-0.150
-501.668	-200.000	-0.067	0.374
-500.653	460.748	0.077	0.173
-499.639	-200.000	-0.012	0.085
-498.624	58.616	-0.162	-0.160
-497.610	-48.985	0.105	-0.051
-496.595	-200.000	0.007	-0.086
-495.581	-200.000	-0.000	-0.043
-494.566	-200.000	0.028	0.252
-493.551	-62.690	-0.407	0.169
-492.537	-200.000	0.027	-0.134
-491.522	168.477	-0.093	0.133
-490.508	-138.934	0.117	-0.013
-489.493	-120.914	-0.295	-0.050
-488.478	222.999	0.146	0.236
-487.464	-200.000	-0.053	-0.361
-486.449	39.702	0.158	-0.142
-485.435	-200.000	0.172	0.000
-484.420	57.303	-0.167	0.164
-483.405	275.988	-0.047	0.083
-482.391	172.474	-0.191	0.276
-481.376	213.451	-0.111	0.176
-480.362	-51.933	0.095	-0.044
-479.347	-51.463	0.139	0.065
-478.332	-200.000	0.055	0.335
-477.318	270.622	-0.212	0.373
-476.303	-52.285	0.283	-0.131
-475.289	-121.406	0.128	0.021
-474.274	-27.445	-0.246	-0.143
-473.259	2.340	0.090	0.065
-472.245	54.292	0.247	0.238
-471.230	85.628	-0.328	0.362
-470.216	-119.509	-0.284	-0.049
-469.201	367.776	-0.202	-0.409
-468.186	182.391	-0.054	-0.080
-467.172	-91.130	0.305	-0.088
-466.157	-200.000	-0.064	0.281
-465.143	178.750	0.108	0.159
-464.128	-185.844	-0.131	0.002
-463.113	46.300	-0.152	-0.141
-462.099	-200.000	0.000	-0.121
-461.084	396.908	-0.129	-0.270
-460.070	69.887	-0.252	0.260
-459.055	123.336	-0.132	-0.166
-458.040	341.645	-0.105	-0.206
-457.026	51.818	-0.184	-0.176
-456.011	495.894	-0.108	-0.249
-454.997	-32.772	0.019	0.010
-453.982	356.667	0.083	-0.166
-452.968	140.260	0.122	-0.161
-451.953	-51.483	-0.187	-0.088
-450.938	-200.000	-0.001	0.032
-449.924	-165.853	-0.142	0.006
-448.909	-6.942	-0.207	0.141
-447.895	757.041	-0.068	-0.185
-446.880	34.865	-0.146	0.128
-445.865	-89.828	-0.273	0.080
-444.851	282.224	0.082	-0.148
-443.836	800.000	0.046	-0.154
-442.822	-37.475	-0.380	0.203
-441.807	510.089	-0.187	0.435
-440.792	63.205	0.208	0.209
-439.778	800.000	0.097	-0.326
-438.763	-194.317	0.209	-0.002
-437.749	-16.517	0.294	0.186
-436.734	86.504	-0.196	0.217
-435.719	195.481	0.085	0.129
-434.705	-96.491	0.496	-0.131
-433.690	-200.000	0.016	-0.378
-432.676	41.933	-0.332	-0.302
-431.661	-10.579	-0.130	0.086
-430.646	259.706	0.172	-0.297
-429.632	609.728	0.200	0.501
-428.617	-149.286	0.077	-0.006
-427.603	-200.000	-0.026	-0.227
-426.588	116.056	0.145	0.177
-425.573	-71.317	-0.144	-0.054
-424.559	-76.826	-0.196	0.069
-423.544	-175.404	0.222	-0.006
-422.530	38.166	-0.192	-0.171
-421.515	-42.322	0.088	-0.045
-420.500	225.418	0.095	0.154
-419.486	-200.000	0.001	0.175
-418.471	-198.855	-0.226	-0.001
-417.457	-200.000	0.074	-0.337
-416.442	2.351	-0.233	0.169
-415.428	-57.302	0.158	-0.069
-414.413	-65.548	-0.169	0.068
-413.398	-11.869	-0.013	0.008
-412.384	-200.000	0.007	-0.307
-411.369	-15.114	-0.365	0.234
-410.355	431.047	0.110	0.238
-409.340	569.327	0.142	0.344
-408.325	19.775	-0.028	0.023
-407.311	-88.948	0.089	0.026
-406.296	-13.419	0.287	-0.186
-405.282	153.918	-0.089	-0.123
-404.267	-121.545	-0.242	-0.040
-403.252	-67.659	-0.027	-0.011
-402.238	338.274	-0.048	-0.093
-401.223	-36.815	-0.089	0.048
-400.209	573.971	-0.132	0.320
-399.194	69.981	0.094	-0.097
-398.179	800.000	-0.047	0.186
-397.165	222.247	-0.147	0.237
-396.150	-145.964	-0.257	-0.023
-395.136	20.527	-0.123	0.099
-394.121	181.523	0.242	0.355
-393.106	-200.000	-0.005	-0.322
-392.092	-200.000	0.019	-0.123
-391.077	-182.894	0.156	-0.003
-390.063	-45.289	0.218	0.108
-389.048	-122.989	-0.245	0.039
-388.033	-137.299	-0.477	0.054
-387.019	-77.309	-0.078	0.027
-386.004	100.491	-0.114	0.132
-384.990	56.906	-0.146	-0.142
-383.975	171.045	-0.109	-0.156
-382.960	-126.447	0.077	-0.011
-381.946	-35.536	-0.076	0.041
-380.931	418.187	0.040	-0.086
-379.917	-78.604	-0.340	0.116
-378.902	800.000	-0.079	-0.262
-377.888	-200.000	-0.028	0.322
-376.873	200.361	-0.124	-0.190
-375.858	-200.000	-0.006	-0.214
-374.844	-77.662	0.246	0.085
-373.829	-37.068	0.144	-0.077
-372.815	54.430	0.098	-0.094
-371.800	181.542	0.075	0.110
-370.785	-40.800	0.169	0.087
-369.771	567.992	0.139	-0.337
-368.756	-26.618	0.296	-0.173
-367.742	48.525	0.373	0.349
-366.727	-200.000	-0.046	0.212
-365.712	131.852	0.152	-0.195
-364.698	208.978	-0.098	0.153
-363.683	-86.395	-0.017	0.005
-362.669	164.454	0.048	0.068
-361.654	39.563	0.097	-0.087
-360.639	88.253	-0.182	-0.201
-359.625	-51.511	0.326	0.152
-358.610	-154.713	0.203	-0.013
-357.596	132.277	-0.209	0.269
-356.581	-200.000	0.030	0.162
-355.566	172.807	0.088	-0.126
-354.552	-119.343	-0.320	0.055
-353.537	30.085	0.111	-0.094
-352.523	-53.376	-0.129	0.059
-351.508	-144.667	0.099	0.009
-350.493	105.074	0.065	-0.077
-349.479	-2.086	0.193	-0.135
-348.464	-200.000	-0.019	-0.184
-347.450	-81.584	0.206	0.068
-346.435	800.000	-0.045	-0.172
-345.420	294.073	-0.084	0.153
-344.406	177.885	0.124	0.180
-343.391	76.399	-0.196	-0.207
-342.377	-200.000	-0.015	-0.077
-341.362	-200.000	0.008	-0.394
-340.348	-84.715	-0.343	0.107
-339.333	59.127	-0.081	0.080
-338.318	463.479	-0.069	-0.154
-337.304	-200.000	0.044	0.246
-336.289	-100.414	-0.157	-0.039
-335.275	12.973	-0.229	-0.177
-334.260	302.242	0.192	-0.355
-333.245	-21.727	0.321	0.195
-332.231	-7.488	0.240	-0.162
-331.216	-200.000	-0.013	-0.228
-330.202	-200.000	0.014	-0.101
-329.187	271.943	0.160	-0.281
-328.172	52.849	0.223	-0.213
-327.158	-50.028	-0.137	-0.065
-326.143	110.505	-0.314	-0.376
-325.129	90.251	0.097	0.108
-324.114	316.178	-0.066	0.124
-323.099	-109.270	0.169	0.036
-322.085	-35.581	0.119	0.064
-321.070	237.151	-0.139	-0.230
-320.056	-54.544	0.117	-0.053
-319.041	192.448	0.143	0.214
-318.026	-149.003	-0.087	-0.007
-317.012	800.000	-0.033	-0.127
-315.997	-96.746	-0.125	0.033
-314.983	-200.000	-0.071	0.373
-313.968	-200.000	-0.006	0.247
-312.953	-19.872	0.072	-0.044
-311.939	190.337	0.184	0.275
-310.924	-200.000	0.009	0.223
-309.910	800.000	0.062	0.173
-308.895	800.000	0.049	-0.196
-307.880	748.997	-0.044	-0.118
-306.866	-200.000	0.061	0.499
-305.851	800.000	0.045	0.125
-304.837	31.901	0.128	-0.110
-303.822	57.429	-0.258	-0.250
-302.807	121.982	-0.126	0.157
-301.793	-32.628	0.054	-0.030
-300.778	800.000	0.034	0.143
-299.764	-166.592	-0.497	-0.021
-298.749	-200.000	0.039	-0.268
-297.735	-48.673	0.128	0.061
-296.720	-200.000	-0.011	0.084
-295.705	-200.000	-0.019	0.112
-294.691	102.284	-0.224	0.260
-293.676	-118.332	-0.231	-0.041
-292.662	148.832	-0.122	0.164
-291.647	-61.966	-0.182	-0.076
-290.632	686.207	-0.065	0.170
-289.618	-200.000	0.045	-0.354
-288.603	287.404	0.075	0.135
-287.589	-200.000	0.046	-0.271
-286.574	-168.048	-0.014	0.001
-285.559	28.584	-0.033	-0.028
-284.545	243.090	-0.132	0.220
-283.530	-200.000	-0.013	0.117
-282.516	-200.000	-0.057	-0.368
-281.501	-100.808	-0.347	-0.085
-280.486	355.977	-0.080	-0.158
-279.472	-182.407	0.192	-0.004
-278.457	-17.117	0.370	-0.232
-277.443	256.091	0.040	0.068
-276.428	165.102	0.136	-0.191
-275.413	282.181	-0.139	-0.247
-274.399	-200.000	-0.012	-0.249
-273.384	-168.494	-0.230	-0.009
-272.370	-82.387	-0.101	-0.033
-271.355	-12.143	0.333	-0.217
-270.340	5.597	-0.044	-0.033
-269.326	800.000	-0.045	0.195
-268.311	104.120	-0.152	0.177
-267.297	-134.031	-0.142	0.018
-266.282	-200.000	0.011	-0.103
-265.267	-103.342	-0.177	0.042
-264.253	74.525	-0.166	-0.174
-263.238	800.000	0.029	-0.113
-262.224	82.430	0.103	-0.111
-261.209	-175.497	0.136	-0.004
-260.195	15.137	0.304	-0.237
-259.180	-78.490	0.363	-0.123
-258.165	62.873	-0.169	-0.168
-257.151	-168.678	0.284	0.011
-256.136	7.776	0.132	0.098
-255.122	0.626	0.205	0.146
-254.107	-200.000	-0.035	0.402
-253.092	-200.000	-0.002	0.080
-252.078	72.296	0.097	0.101
-251.063	-200.000	-0.015	0.080
-250.049	-200.000	0.039	0.230
-249.034	-13.069	0.252	0.163
-248.019	800.000	0.030	-0.128
-247.005	-52.654	-0.103	-0.047
-245.990	-118.988	0.179	-0.031
-244.976	65.023	0.090	0.090
-243.961	-154.789	-0.184	-0.012
-242.946	30.138	0.165	0.140
-241.932	-154.869	-0.307	0.020
-240.917	151.661	-0.220	-0.298
-239.903	-117.361	-0.256	0.046
-238.888	-200.000	0.007	0.097
-237.873	-119.457	-0.212	-0.037
-236.859	171.004	0.033	0.046
-235.844	603.184	-0.123	-0.304
-234.830	-200.000	-0.008	0.066
-233.815	99.874	-0.198	0.228
-232.800	-90.350	-0.071	-0.020
-231.786	85.212	-0.222	-0.242
-230.771	2.614	0.249	-0.179
-229.757	-11.522	0.334	0.218
-228.742	-200.000	0.004	0.019
-227.727	-52.749	0.038	0.017
-226.713	-98.307	0.232	-0.059
-225.698	-200.000	-0.013	0.104
-224.684	-200.000	0.001	-0.200
-223.669	14.183	-0.170	-0.131
-222.655	-116.354	0.232	-0.043
-221.640	36.019	0.183	0.159
-220.625	-28.926	-0.163	0.093
-219.611	-35.815	-0.121	-0.065
-218.596	74.022	0.112	0.117
-217.582	121.999	0.226	-0.280
-216.567	-200.000	0.050	0.233
-215.552	-200.000	-0.063	-0.278
-214.538	-132.401	-0.339	-0.043
-213.523	113.356	-0.062	0.074
-212.509	418.048	0.013	0.027
-211.494	36.026	-0.112	-0.097
-210.479	15.951	-0.188	-0.147
-209.465	76.513	0.211	0.222
-208.450	-129.073	-0.254	0.035
-207.436	-34.643	-0.112	0.061
-206.421	261.566	-0.161	0.277
-205.406	66.830	0.249	-0.252
-204.392	124.395	0.081	0.101
-203.377	482.096	-0.052	-0.117
-202.363	-73.776	0.133	-0.048
-201.348	-200.000	-0.069	0.519
-200.333	-92.023	-0.156	-0.044
-199.319	10.180	0.225	-0.170
-198.304	-33.466	-0.371	-0.203
-197.290	-200.000	0.006	-0.156
-196.275	-20.713	-0.194	-0.118
-195.260	59.726	0.137	-0.134
-194.246	314.269	0.172	-0.321
-193.231	-141.100	0.192	-0.019
-192.217	-8.185	-0.092	0.061
-191.202	-200.000	-0.008	0.176
-190.187	-55.265	0.087	0.039
-189.173	-9.723	0.107	-0.071
-188.158	-198.279	-0.262	0.002
-187.144	-200.000	0.012	-0.192
-186.129	368.643	0.095	-0.190
-185.114	-82.150	0.367	-0.119
-184.100	8.209	0.176	0.131
-183.085	9.817	-0.180	0.135
-182.071	-151.168	0.215	-0.016
-181.056	-67.811	-0.142	0.055
-180.042	85.509	-0.173	0.188
-179.027	43.892	0.044	-0.040
-178.012	-193.108	0.048	-0.000
-176.998	-39.286	-0.140	-0.073
-175.983	-200.000	0.039	0.237
-174.969	-123.170	-0.248	0.039
-173.954	-200.000	0.049	-0.407
-172.939	800.000	-0.092	0.330
-171.925	-93.961	0.325	-0.088
-170.910	-54.305	0.207	0.093
-169.896	557.909	-0.214	0.511
-168.881	439.735	-0.062	-0.134
-167.866	-159.726	-0.279	-0.015
-166.852	165.053	0.181	0.253
-165.837	-5.568	0.249	0.169
-164.823	-108.450	-0.085	-0.018
-163.808	-51.226	0.118	0.055
-162.793	-43.193	0.213	0.107
-161.779	22.647	0.199	0.161
-160.764	-200.000	-0.087	-0.473
-159.750	-46.332	-0.116	0.056
-158.735	674.802	0.074	0.191
-157.720	-200.000	0.012	-0.262
-156.706	26.391	-0.320	0.265
-155.691	-143.306	-0.071	0.007
-154.677	23.886	-0.050	0.041
-153.662	-200.000	0.055	-0.284
-152.647	800.000	0.135	-0.487
-151.633	800.000	-0.042	-0.134
-150.618	45.164	0.166	-0.151
-149.604	333.479	0.080	-0.152
-148.589	43.030	0.123	0.111
-147.574	139.374	-0.058	-0.075
-146.560	-200.000	-0.010	-0.450
-145.545	-59.373	0.126	0.054
-144.531	704.130	0.055	-0.142
-143.516	-171.759	0.388	-0.013
-142.502	800.000	-0.065	0.239
-141.487	-82.399	-0.256	-0.082
-140.472	-5.446	0.301	0.205
-139.458	-87.624	-0.168	-0.050
-138.443	-151.290	0.487	0.036
-137.429	39.153	0.105	0.093
-136.414	800.000	-0.176	-0.498
-135.399	-97.779	0.111	0.028
-134.385	-35.182	0.186	0.100
-133.370	-32.598	-0.026	0.014
-132.356	-51.425	0.227	-0.105
-131.341	243.491	-0.162	-0.268
-130.326	-200.000	-0.007	0.176
-129.312	-37.106	-0.145	-0.077
-128.297	-200.000	0.003	0.202
-127.283	-88.239	0.289	0.085
-126.268	-200.000	0.036	-0.341
-125.253	-98.649	-0.195	0.049
-124.239	-57.229	-0.076	0.033
-123.224	-136.046	-0.239	0.028
-122.210	-200.000	-0.038	0.305
-121.195	260.028	0.121	-0.206
