DTS Sentinel unit serial number:	SN413079Multiplexer serial number:	ORYXHardware model number:	OX4-SRSoftware version number:	ORYX F/W v4.00 Oryx Data Collector v3.7.2.0data status	okinstallation	princeton_trtdifferential loss correction	single-endedforward channel	channel 4reverse channel	N/Adate	2019/09/11time	04:39:11forward acquisition time	60.00reverse acquisition time	0.00gamma	496.2192k internal	0.2316k external	0.2316temperature offset calibration	0.9947default loss term (dB/km)	0.3790temperature slope calibration	1.0000multiplexer offset coefficient	1.0000multiplexer slope coefficient	1.0000fibre end	0.00T internal ref (°C)	29.52T ext. ref 1 (°C)	-0.27T ext. ref 2 (°C)	23.29length (m)	temperature (°C)	Stokes	anti-Stokes-747.200	800.000	0.089	0.312
-746.185	50.371	-0.159	0.152
-745.171	-53.136	0.200	-0.093
-744.156	-172.239	-0.190	0.006
-743.142	800.000	0.025	0.110
-742.127	-72.557	-0.458	-0.171
-741.112	-200.000	0.037	0.179
-740.098	-4.659	-0.153	-0.107
-739.083	-98.181	-0.241	0.063
-738.069	75.771	0.118	0.126
-737.054	448.646	0.081	0.181
-736.039	800.000	-0.082	-0.269
-735.025	121.688	0.177	0.224
-734.010	-200.000	0.019	0.169
-732.996	268.279	-0.047	0.084
-731.981	79.172	0.035	0.038
-730.966	-63.894	-0.229	0.095
-729.952	-200.000	-0.007	-0.047
-728.937	-200.000	0.028	-0.155
-727.923	-200.000	0.001	0.128
-726.908	159.992	-0.159	0.224
-725.894	144.511	-0.166	-0.224
-724.879	-160.991	0.284	0.015
-723.864	-50.123	0.318	-0.152
-722.850	336.542	0.014	0.028
-721.835	150.129	-0.112	-0.154
-720.821	800.000	0.060	-0.198
-719.806	-200.000	0.003	-0.097
-718.791	-200.000	0.001	0.029
-717.777	-200.000	0.008	0.281
-716.762	36.521	-0.110	0.098
-715.748	-200.000	-0.002	-0.180
-714.733	-47.077	-0.281	0.139
-713.718	-53.589	-0.299	-0.138
-712.704	-200.000	0.079	-0.363
-711.689	-16.821	-0.095	-0.061
-710.675	-200.000	0.065	-0.552
-709.660	20.561	0.018	0.015
-708.645	584.007	-0.106	-0.262
-707.631	179.504	0.280	0.414
-706.616	81.256	-0.259	-0.284
-705.602	-86.769	-0.167	0.052
-704.587	-124.002	-0.297	0.047
-703.572	-36.570	0.214	-0.117
-702.558	338.975	-0.193	-0.381
-701.543	86.006	-0.103	0.115
-700.529	79.787	-0.099	-0.108
-699.514	-172.203	-0.857	0.028
-698.499	-73.026	-0.191	-0.071
-697.485	-200.000	0.027	-0.229
-696.470	208.241	0.090	-0.143
-695.456	37.539	-0.168	-0.151
-694.441	-200.000	0.005	-0.191
-693.426	17.551	-0.071	0.057
-692.412	185.951	-0.087	0.131
-691.397	800.000	0.033	-0.138
-690.383	-102.901	0.342	-0.082
-689.368	155.775	0.154	0.214
-688.354	66.401	0.154	0.158
-687.339	-49.412	0.320	-0.154
-686.324	-38.735	-0.324	-0.173
-685.310	34.661	0.168	0.148
-684.295	-200.000	-0.207	0.000
-683.281	-113.619	-0.295	0.058
-682.266	-154.870	0.249	0.017
-681.251	-200.000	0.095	-0.436
-680.237	447.087	-0.050	-0.111
-679.222	-46.872	-0.221	-0.109
-678.208	61.606	0.037	-0.038
-677.193	27.329	0.177	0.150
-676.178	-200.000	0.056	0.363
-675.164	800.000	0.117	-0.368
-674.149	-200.000	-0.042	-0.190
-673.135	-99.203	0.358	0.091
-672.120	42.684	-0.223	-0.205
-671.105	31.353	0.153	-0.133
-670.091	800.000	0.064	0.210
-669.076	-134.498	-0.256	0.032
-668.062	142.050	-0.218	-0.292
-667.047	251.903	0.090	-0.155
-666.032	-2.908	-0.226	0.160
-665.018	-174.762	0.134	0.004
-664.003	-200.000	0.005	-0.102
-662.989	-71.884	-0.208	0.078
-661.974	32.029	0.123	0.107
-660.959	123.923	0.146	0.186
-659.945	-139.584	-0.146	-0.016
-658.930	-92.169	0.259	0.074
-657.916	290.892	0.089	-0.164
-656.901	-27.079	-0.395	0.233
-655.886	97.388	0.122	-0.142
-654.872	-200.000	0.182	-0.001
-653.857	-200.000	0.029	0.207
-652.843	9.329	-0.124	0.095
-651.828	-65.682	-0.166	-0.067
-650.814	-59.705	0.182	0.079
-649.799	13.398	0.217	-0.170
-648.784	-200.000	-0.061	-0.322
-647.770	13.952	0.176	-0.139
-646.755	-98.953	-0.040	0.010
-645.741	-200.000	-0.024	-0.261
-644.726	-27.074	-0.107	-0.063
-643.711	2.126	-0.176	-0.129
-642.697	364.109	0.193	-0.392
-641.682	-162.576	0.203	-0.010
-640.668	156.478	-0.020	-0.028
-639.653	127.905	-0.186	-0.239
-638.638	270.476	0.124	-0.220
-637.624	61.333	-0.243	0.244
-636.609	-104.131	-0.193	-0.045
-635.595	-96.893	-0.160	0.042
-634.580	-49.845	-0.299	-0.143
-633.565	800.000	-0.103	0.353
-632.551	-75.203	-0.199	-0.072
-631.536	-13.615	-0.387	-0.253
-630.522	63.353	0.057	-0.058
-629.507	800.000	-0.134	-0.400
-628.492	-129.470	-0.152	0.021
-627.478	356.790	0.097	0.195
-626.463	52.373	0.187	-0.180
-625.449	58.747	-0.230	-0.228
-624.434	-200.000	0.061	0.415
-623.419	-200.000	0.007	0.113
-622.405	190.160	-0.245	-0.371
-621.390	-32.975	0.088	0.050
-620.376	-200.000	-0.012	0.164
-619.361	17.553	-0.191	0.153
-618.346	154.037	0.100	-0.138
-617.332	27.731	0.339	0.288
-616.317	-59.808	0.162	0.070
-615.303	300.286	0.033	0.061
-614.288	-29.598	-0.196	0.113
-613.273	-107.998	0.196	0.043
-612.259	380.477	-0.058	0.120
-611.244	-163.231	0.230	0.011
-610.230	4.822	0.226	-0.167
-609.215	-141.344	-0.306	0.031
-608.201	-133.667	0.166	0.021
-607.186	45.979	0.219	-0.204
-606.171	207.577	0.058	0.091
-605.157	9.113	-0.155	0.118
-604.142	-28.301	0.142	-0.083
-603.128	634.244	0.105	-0.267
-602.113	-68.664	-0.253	0.099
-601.098	-173.271	-0.241	0.007
-600.084	72.868	-0.143	-0.150
-599.069	428.848	-0.048	0.104
-598.055	72.957	-0.350	0.368
-597.040	800.000	-0.071	-0.263
-596.025	-123.431	-0.281	-0.045
-595.011	117.897	-0.092	0.114
-593.996	7.964	-0.115	-0.087
-592.982	-6.512	-0.084	-0.058
-591.967	-54.109	-0.227	-0.104
-590.952	-41.498	0.312	0.162
-589.938	-56.324	-0.366	-0.164
-588.923	-122.865	0.019	-0.003
-587.909	-200.000	0.000	0.308
-586.894	478.176	0.023	-0.053
-585.879	-91.993	-0.010	0.003
-584.865	70.045	0.085	-0.088
-583.850	-200.000	-0.017	0.147
-582.836	264.088	0.096	0.169
-581.821	471.215	-0.111	-0.252
-580.806	-200.000	-0.068	0.381
-579.792	37.776	0.243	-0.217
-578.777	-200.000	0.021	0.228
-577.763	119.978	0.242	0.302
-576.748	-23.076	-0.186	0.113
-575.733	-200.000	-0.060	0.395
-574.719	455.185	0.008	0.018
-573.704	-109.632	-0.386	-0.082
-572.690	-120.603	0.310	0.053
-571.675	22.813	-0.157	0.129
-570.661	-137.047	0.170	-0.020
-569.646	-116.577	-0.099	-0.018
-568.631	51.054	-0.111	0.106
-567.617	-200.000	0.001	-0.024
-566.602	-22.324	0.112	0.068
-565.588	-93.429	-0.177	-0.049
-564.573	558.724	-0.091	-0.221
-563.558	-69.799	0.279	0.107
-562.544	-7.833	0.089	0.060
-561.529	-126.877	0.159	0.024
-560.515	-152.463	0.058	-0.004
-559.500	-200.000	0.250	-0.000
-558.485	46.735	-0.023	0.022
-557.471	-123.874	-0.375	-0.059
-556.456	-200.000	-0.003	0.029
-555.442	-58.378	-0.217	0.095
-554.427	0.391	-0.026	0.019
-553.412	-200.000	0.006	-0.125
-552.398	-200.000	0.033	0.524
-551.383	-129.015	0.267	0.038
-550.369	800.000	0.078	-0.308
-549.354	800.000	0.020	0.062
-548.339	-90.851	0.039	0.011
-547.325	-59.124	0.244	0.106
-546.310	64.211	0.166	-0.168
-545.296	-3.471	0.167	-0.117
-544.281	-4.812	-0.099	0.069
-543.266	375.535	-0.113	-0.232
-542.252	800.000	0.092	-0.308
-541.237	488.060	0.145	0.332
-540.223	-200.000	0.028	0.301
-539.208	-48.891	-0.059	-0.029
-538.193	79.483	0.245	-0.265
-537.179	52.104	-0.143	-0.137
-536.164	-67.443	0.332	0.131
-535.150	5.665	0.222	0.165
-534.135	256.499	-0.116	-0.200
-533.121	-101.881	0.098	-0.024
-532.106	800.000	-0.040	-0.156
-531.091	34.441	-0.182	-0.160
-530.077	-105.360	0.285	-0.065
-529.062	28.357	-0.286	-0.242
-528.048	-200.000	-0.008	-0.342
-527.033	-200.000	0.004	-0.034
-526.018	-113.617	0.419	-0.082
-525.004	-200.000	0.020	0.206
-523.989	338.140	-0.080	-0.157
-522.975	148.012	0.103	-0.139
-521.960	174.920	-0.051	-0.075
-520.945	286.649	0.050	0.091
-519.931	75.678	0.232	-0.246
-518.916	104.700	-0.108	-0.128
-517.902	-75.263	-0.468	-0.168
-516.887	773.020	0.048	0.131
-515.872	167.881	0.057	0.081
-514.858	-114.344	0.301	-0.058
-513.843	170.157	-0.133	0.191
-512.829	-200.000	0.001	-0.575
-511.814	214.727	-0.126	-0.200
-510.799	340.732	0.031	-0.061
-509.785	-22.039	-0.111	-0.067
-508.770	-189.086	0.139	-0.002
-507.756	-36.978	0.126	-0.068
-506.741	-200.000	0.036	-0.234
-505.726	132.674	-0.049	-0.064
-504.712	15.912	-0.169	-0.134
-503.697	418.053	0.083	0.179
-502.683	-200.000	-0.042	0.275
-501.668	-200.000	-0.010	-0.056
-500.653	-200.000	0.014	-0.341
-499.639	800.000	-0.025	-0.085
-498.624	-144.101	-0.203	0.019
-497.610	-200.000	0.025	-0.161
-496.595	756.881	-0.043	0.117
-495.581	82.977	0.049	0.054
-494.566	160.342	-0.132	-0.184
-493.551	59.473	0.142	-0.140
-492.537	-200.000	0.086	0.386
-491.522	158.405	-0.045	-0.063
-490.508	-156.325	0.227	-0.014
-489.493	148.901	-0.074	0.100
-488.478	285.578	0.111	0.201
-487.464	70.444	-0.236	-0.244
-486.449	176.798	0.230	-0.335
-485.435	-35.848	-0.129	0.070
-484.420	-179.947	-0.161	-0.003
-483.405	647.706	-0.143	0.368
-482.391	-200.000	-0.001	0.014
-481.376	72.940	0.045	0.047
-480.362	-1.875	-0.361	-0.254
-479.347	-200.000	0.013	-0.075
-478.332	-52.691	-0.148	-0.069
-477.318	539.449	-0.065	-0.155
-476.303	800.000	-0.095	0.272
-475.289	7.993	0.201	0.151
-474.274	-149.834	0.321	-0.025
-473.259	-200.000	-0.012	0.207
-472.245	31.506	0.056	-0.049
-471.230	-1.260	-0.326	0.231
-470.216	8.459	-0.235	-0.177
-469.201	62.551	-0.055	0.055
-468.186	-68.656	0.175	0.068
-467.172	800.000	-0.062	-0.174
-466.157	-83.765	0.129	0.041
-465.143	-112.149	-0.305	0.062
-464.128	84.047	-0.037	0.040
-463.113	-94.224	-0.192	0.053
-462.099	156.150	0.168	-0.232
-461.084	800.000	0.049	-0.141
-460.070	-43.772	-0.215	-0.108
-459.055	-116.551	-0.210	-0.039
-458.040	621.213	0.178	0.448
-457.026	-100.631	-0.147	0.036
-456.011	-25.992	-0.245	0.145
-454.997	800.000	-0.094	-0.281
-453.982	-43.304	0.162	-0.082
-452.968	-111.221	-0.203	0.041
-451.953	-21.483	0.159	-0.097
-450.938	-21.062	-0.027	0.016
-449.924	-60.993	-0.151	0.064
-448.909	-200.000	-0.010	-0.134
-447.895	38.294	-0.137	-0.122
-446.880	2.444	-0.196	-0.142
-445.865	71.303	0.336	-0.350
-444.851	-200.000	0.053	0.237
-443.836	9.101	0.214	0.162
-442.822	-200.000	-0.039	0.331
-441.807	22.432	0.339	0.278
-440.792	-120.315	-0.089	0.015
-439.778	192.197	0.239	0.361
-438.763	-180.177	0.310	-0.007
-437.749	-112.064	-0.324	0.065
-436.734	-49.698	0.064	-0.030
-435.719	-25.741	0.067	-0.040
-434.705	-24.290	0.048	-0.029
-433.690	573.585	0.139	0.338
-432.676	100.674	-0.201	0.233
-431.661	-200.000	0.048	0.245
-430.646	-24.319	-0.119	0.071
-429.632	-200.000	0.020	0.284
-428.617	800.000	0.078	-0.340
-427.603	800.000	0.162	-0.450
-426.588	47.442	0.281	0.262
-425.573	-129.087	-0.148	-0.021
-424.559	-51.967	0.220	-0.102
-423.544	31.697	-0.239	-0.205
-422.530	-12.516	-0.122	-0.080
-421.515	-200.000	-0.014	0.264
-420.500	-85.319	0.215	0.067
-419.486	800.000	-0.068	0.192
-418.471	-90.706	0.022	-0.006
-417.457	86.311	-0.083	-0.091
-416.442	800.000	-0.119	0.382
-415.428	800.000	0.027	-0.104
-414.413	209.192	-0.040	-0.063
-413.398	35.307	-0.139	0.122
-412.384	-109.472	0.253	0.054
-411.369	-200.000	-0.034	0.277
-410.355	-82.463	-0.230	-0.075
-409.340	115.922	-0.048	-0.058
-408.325	800.000	-0.062	-0.188
-407.311	800.000	-0.096	0.292
-406.296	800.000	-0.006	-0.025
-405.282	64.430	0.119	0.120
-404.267	343.118	-0.098	-0.192
-403.252	-98.316	0.222	-0.057
-402.238	-200.000	0.005	0.249
-401.223	-99.064	-0.190	0.048
-400.209	-200.000	0.017	-0.165
-399.194	-200.000	0.072	-0.352
-398.179	656.663	0.079	-0.203
-397.165	-5.958	-0.400	0.273
-396.150	158.762	0.221	-0.307
-395.136	-70.644	-0.093	-0.035
-394.121	115.511	0.303	0.371
-393.106	-54.676	0.256	0.116
-392.092	-200.000	-0.024	0.188
-391.077	124.966	-0.220	0.277
-390.063	130.942	0.244	0.313
-389.048	-200.000	0.029	-0.201
-388.033	800.000	-0.136	-0.379
-387.019	283.583	0.115	0.207
-386.004	28.992	-0.078	-0.066
-384.990	66.953	0.358	-0.364
-383.975	-200.000	-0.025	0.225
-382.960	227.948	0.094	0.152
-381.946	-33.699	-0.233	0.129
-380.931	433.857	0.081	-0.176
-379.917	-28.350	-0.155	-0.089
-378.902	800.000	-0.032	0.110
-377.888	-31.584	-0.044	0.025
-376.873	-102.236	0.291	-0.070
-375.858	-138.612	-0.127	-0.014
-374.844	-5.134	0.203	0.139
-373.829	152.708	0.077	-0.105
-372.815	40.878	0.218	-0.196
-371.800	23.932	0.288	0.237
-370.785	-71.062	0.345	-0.129
-369.771	38.709	0.303	-0.270
-368.756	40.709	-0.311	0.280
-367.742	143.484	-0.180	-0.239
-366.727	732.196	0.035	0.092
-365.712	22.863	0.396	0.324
-364.698	10.480	-0.308	-0.234
-363.683	51.999	-0.143	0.136
-362.669	-18.193	-0.189	-0.118
-361.654	676.377	-0.116	-0.302
-360.639	15.656	0.143	0.112
-359.625	177.257	-0.187	0.272
-358.610	800.000	0.084	-0.323
-357.596	52.847	0.158	0.151
-356.581	102.345	0.077	-0.090
-355.566	85.817	0.253	-0.278
-354.552	-200.000	-0.003	0.397
-353.537	166.900	0.069	0.097
-352.523	10.870	-0.304	-0.232
-351.508	-200.000	0.001	0.249
-350.493	87.402	-0.134	-0.148
-349.479	185.381	0.130	-0.192
-348.464	-200.000	0.012	0.089
-347.450	-86.301	-0.205	-0.063
-346.435	40.609	-0.142	-0.128
-345.420	800.000	0.061	0.258
-344.406	101.255	-0.077	0.089
-343.391	-85.654	0.257	-0.080
-342.377	105.429	0.076	0.089
-341.362	31.288	-0.363	-0.311
-340.348	-75.940	-0.120	-0.042
-339.333	-200.000	0.003	0.082
-338.318	100.972	0.107	0.124
-337.304	48.022	-0.326	0.303
-336.289	-9.583	0.215	-0.143
-335.275	243.804	-0.047	0.079
-334.260	125.293	0.248	0.312
-333.245	-39.591	-0.097	-0.051
-332.231	800.000	-0.023	-0.066
-331.216	800.000	-0.076	0.247
-330.202	-200.000	-0.058	-0.276
-329.187	-200.000	-0.015	0.097
-328.172	-84.440	-0.383	-0.121
-327.158	-95.033	0.049	-0.013
-326.143	53.175	-0.169	-0.162
-325.129	-104.757	-0.111	-0.026
-324.114	154.173	0.190	-0.260
-323.099	-48.519	0.074	-0.036
-322.085	-39.990	0.134	-0.069
-321.070	13.508	0.341	-0.264
-320.056	324.977	-0.128	-0.243
-319.041	-200.000	-0.013	-0.147
-318.026	800.000	-0.077	0.252
-317.012	-56.007	-0.144	0.064
-315.997	-51.539	-0.301	0.140
-314.983	498.833	-0.076	-0.174
-313.968	532.086	-0.074	-0.175
-312.953	-43.059	-0.284	0.143
-311.939	-138.065	-0.094	-0.010
-310.924	-53.360	0.422	-0.193
-309.910	194.421	0.051	-0.077
-308.895	-200.000	-0.049	-0.329
-307.880	-157.034	0.314	0.019
-306.866	12.071	-0.311	0.239
-305.851	522.267	-0.010	0.023
-304.837	-84.958	-0.166	-0.052
-303.822	800.000	-0.053	-0.148
-302.807	169.374	-0.221	-0.314
-301.793	-78.887	-0.098	-0.033
-300.778	37.047	0.178	0.157
-299.764	-68.111	0.123	-0.048
-298.749	-200.000	0.037	0.269
-297.735	89.573	0.076	0.085
-296.720	800.000	-0.057	-0.219
-295.705	695.906	-0.117	0.307
-294.691	315.966	-0.056	-0.105
-293.676	94.402	-0.205	-0.232
-292.662	-102.732	0.146	-0.035
-291.647	60.477	-0.266	-0.262
-290.632	-93.386	0.138	-0.038
-289.618	-63.671	0.268	-0.109
-288.603	-200.000	0.006	0.058
-287.589	-134.367	0.125	-0.015
-286.574	-117.042	0.164	0.030
-285.559	800.000	-0.028	-0.087
-284.545	41.499	0.076	-0.068
-283.530	-61.620	-0.239	0.100
-282.516	749.002	-0.046	-0.124
-281.501	-161.182	-0.005	0.000
-280.486	-158.107	0.165	-0.010
-279.472	-47.958	-0.427	-0.205
-278.457	-43.123	-0.284	-0.143
-277.443	-133.177	-0.271	-0.034
-276.428	-200.000	-0.049	-0.346
-275.413	304.646	0.197	-0.363
-274.399	-200.000	-0.008	0.098
-273.384	34.241	-0.344	0.298
-272.370	733.751	0.108	0.288
-271.355	32.287	-0.113	-0.097
-270.340	800.000	-0.061	0.168
-269.326	-104.181	-0.456	0.105
-268.311	98.906	0.157	0.181
-267.297	68.035	-0.148	0.151
-266.282	-98.565	0.061	-0.016
-265.267	-106.990	-0.182	-0.040
-264.253	800.000	-0.074	-0.264
-263.238	-45.343	0.103	-0.051
-262.224	242.926	-0.039	0.065
-261.209	-60.169	-0.265	0.112
-260.195	-154.040	0.059	0.004
-259.180	0.713	-0.240	0.171
-258.165	-200.000	-0.017	-0.132
-257.151	-200.000	0.072	0.316
-256.136	-151.425	-0.373	0.028
-255.122	296.955	0.109	0.199
-254.107	314.842	0.133	-0.249
-253.092	-200.000	-0.013	0.127
-252.078	-76.533	-0.314	-0.110
-251.063	111.350	0.080	0.096
-250.049	-174.254	0.103	0.003
-249.034	22.320	0.144	0.117
-248.019	800.000	-0.066	0.251
-247.005	-56.945	0.136	-0.059
-245.990	-81.713	0.419	0.137
-244.976	-80.802	0.229	0.075
-243.961	800.000	0.038	0.117
-242.946	-41.066	0.185	-0.095
-241.932	86.727	-0.090	-0.099
-240.917	-200.000	0.070	0.312
-239.903	-200.000	-0.008	-0.055
-238.888	-83.194	-0.142	-0.045
-237.873	-163.759	-0.200	-0.009
-236.859	565.056	-0.045	0.109
-235.844	6.321	-0.125	0.092
-234.830	800.000	-0.040	0.134
-233.815	-105.585	0.352	-0.079
-232.800	204.515	-0.021	-0.032
-231.786	179.638	0.266	-0.386
-230.771	800.000	0.130	-0.456
-229.757	-200.000	0.004	-0.424
-228.742	800.000	-0.042	-0.137
-227.727	-84.469	-0.238	-0.075
-226.713	-149.178	0.096	0.008
-225.698	-200.000	0.014	-0.350
-224.684	286.090	-0.087	-0.156
-223.669	-200.000	0.028	0.242
-222.655	25.749	-0.066	-0.054
-221.640	-123.057	0.152	-0.024
-220.625	158.476	0.244	0.336
-219.611	391.990	-0.148	0.304
-218.596	800.000	0.056	0.222
-217.582	-200.000	-0.014	-0.217
-216.567	800.000	-0.014	0.057
-215.552	-10.551	0.330	0.217
-214.538	185.485	0.172	-0.254
-213.523	-200.000	0.050	-0.253
-212.509	-128.009	0.221	-0.031
-211.494	-200.000	-0.023	-0.112
-210.479	-200.000	-0.037	-0.164
-209.465	143.672	0.268	0.354
-208.450	-69.014	0.056	0.021
-207.436	-17.357	0.193	-0.121
-206.421	149.137	0.207	-0.278
-205.406	173.640	-0.049	-0.070
-204.392	-14.255	0.149	0.095
-203.377	-119.528	0.267	-0.046
-202.363	-5.724	-0.086	-0.058
-201.348	52.712	-0.024	0.023
-200.333	19.076	-0.013	0.011
-199.319	-200.000	0.069	0.374
-198.304	-200.000	-0.003	0.233
-197.290	-200.000	-0.001	-0.005
-196.275	800.000	-0.040	0.115
-195.260	-200.000	-0.004	0.333
-194.246	320.715	-0.035	-0.065
-193.231	313.680	-0.063	0.118
-192.217	149.838	-0.078	-0.105
-191.202	22.785	0.136	0.110
-190.187	-157.441	-0.137	-0.008
-189.173	800.000	-0.053	-0.209
-188.158	-200.000	0.011	0.065
-187.144	122.144	0.154	0.191
-186.129	8.606	-0.325	0.242
-185.114	800.000	-0.078	0.281
-184.100	-81.865	-0.073	0.024
-183.085	-15.223	-0.134	0.085
-182.071	800.000	0.189	-0.548
-181.056	-33.409	-0.152	-0.083
-180.042	-148.439	0.190	-0.015
-179.027	-65.576	-0.215	0.085
-178.012	-200.000	0.394	0.001
-176.998	-200.000	-0.016	-0.428
-175.983	-22.974	0.202	0.121
-174.969	-87.339	0.104	0.031
-173.954	42.252	0.109	0.098
-172.939	-132.957	-0.278	-0.035
-171.925	35.581	0.151	0.131
-170.910	-200.000	0.111	0.483
-169.896	800.000	0.088	0.272
-168.881	-141.138	0.224	0.023
-167.866	196.283	0.063	0.095
-166.852	-200.000	0.044	0.383
-165.837	479.781	0.122	0.274
-164.823	-200.000	-0.018	0.361
-163.808	406.894	0.124	0.260
-162.793	-153.125	-0.117	-0.008
-161.779	-67.071	0.342	0.134
-160.764	266.800	0.221	0.383
-159.750	378.497	0.080	0.161
-158.735	-14.885	-0.085	0.054
-157.720	0.922	0.288	0.204
-156.706	-200.000	-0.015	-0.119
-155.691	39.228	0.308	-0.272
-154.677	359.710	0.047	-0.094
-153.662	-200.000	0.031	-0.160
-152.647	-137.017	-0.416	-0.047
-151.633	-113.713	-0.202	0.039
-150.618	547.906	-0.012	-0.028
-149.604	-200.000	0.048	0.218
-148.589	-34.563	-0.194	0.105
-147.574	43.261	-0.135	0.122
-146.560	-200.000	0.002	0.192
-145.545	-200.000	0.010	-0.126
-144.531	-48.321	0.041	0.020
-143.516	-0.425	0.153	0.108
-142.502	-38.372	0.229	-0.120
-141.487	-84.286	-0.218	-0.068
-140.472	-134.942	-0.392	0.047
-139.458	93.658	-0.019	-0.021
-138.443	158.099	-0.241	0.330
-137.429	-200.000	-0.034	0.317
-136.414	183.253	-0.228	0.333
-135.399	87.850	0.208	-0.228
-134.385	86.099	-0.074	0.081
-133.370	96.347	-0.051	0.058
-132.356	-10.169	0.327	-0.215
-131.341	-44.272	0.360	-0.178
-130.326	240.178	0.063	0.104
-129.312	63.749	-0.296	-0.294
-128.297	63.563	-0.191	0.190
-127.283	-87.140	0.069	0.021
-126.268	-167.287	0.145	-0.006
-125.253	-176.749	0.161	-0.004
-124.239	800.000	-0.089	0.356
-123.224	800.000	-0.033	0.119
-122.210	-200.000	0.026	0.136
-121.195	15.133	0.156	0.121
-120.180	-27.823	-0.123	-0.071
