DTS Sentinel unit serial number:	SN413079Multiplexer serial number:	ORYXHardware model number:	OX4-SRSoftware version number:	ORYX F/W v4.00 Oryx Data Collector v3.7.2.0data status	okinstallation	princeton_trtdifferential loss correction	single-endedforward channel	channel 4reverse channel	N/Adate	2019/09/11time	15:27:11forward acquisition time	60.00reverse acquisition time	0.00gamma	496.2192k internal	0.2278k external	0.2278temperature offset calibration	1.0012default loss term (dB/km)	0.3790temperature slope calibration	1.0000multiplexer offset coefficient	1.0000multiplexer slope coefficient	1.0000fibre end	0.00T internal ref (°C)	42.87T ext. ref 1 (°C)	1.00T ext. ref 2 (°C)	38.12length (m)	temperature (°C)	Stokes	anti-Stokes-747.200	-118.031	-0.059	0.011
-746.185	45.618	0.187	0.178
-745.171	800.000	-0.021	-0.073
-744.156	-200.000	0.017	0.295
-743.142	171.537	-0.171	-0.253
-742.127	186.020	-0.134	-0.205
-741.112	-118.904	0.289	0.052
-740.098	-199.549	0.303	-0.002
-739.083	800.000	-0.028	-0.097
-738.069	139.430	0.094	0.127
-737.054	-175.533	-0.153	0.004
-736.039	-151.234	-0.374	0.029
-735.025	-16.346	0.063	-0.041
-734.010	95.153	0.068	0.080
-732.996	-200.000	-0.037	-0.191
-731.981	30.639	-0.333	0.294
-730.966	800.000	-0.095	0.287
-729.952	800.000	0.065	-0.212
-728.937	184.412	0.116	-0.177
-727.923	800.000	-0.053	-0.155
-726.908	-65.100	-0.158	-0.066
-725.894	-200.000	0.024	0.170
-724.879	-4.138	-0.232	-0.165
-723.864	663.379	-0.128	-0.341
-722.850	-38.289	-0.261	-0.142
-721.835	720.449	0.193	-0.528
-720.821	349.870	-0.060	0.122
-719.806	-49.487	0.213	-0.104
-718.791	800.000	-0.029	0.102
-717.777	31.204	-0.226	-0.200
-716.762	800.000	0.021	-0.078
-715.748	-80.372	-0.135	0.046
-714.733	7.684	0.125	0.097
-713.718	72.557	-0.235	-0.252
-712.704	-200.000	-0.034	-0.394
-711.689	64.521	0.035	0.036
-710.675	712.458	0.020	0.054
-709.660	-115.065	0.288	-0.056
-708.645	-5.659	0.300	-0.211
-707.631	401.625	0.171	-0.370
-706.616	800.000	-0.021	0.066
-705.602	-200.000	0.043	-0.334
-704.587	-118.706	-0.200	0.036
-703.572	687.792	0.072	-0.194
-702.558	-37.149	0.168	0.092
-701.543	92.729	0.238	-0.276
-700.529	665.844	-0.124	-0.329
-699.514	73.359	0.154	0.165
-698.499	176.824	0.215	0.322
-697.485	-142.656	-0.006	-0.001
-696.470	800.000	-0.065	-0.186
-695.456	-200.000	-0.007	-0.084
-694.441	-200.000	0.006	0.234
-693.426	-20.561	-0.305	0.193
-692.412	-110.511	0.285	0.061
-691.397	-39.302	0.046	0.025
-690.383	142.477	0.134	-0.183
-689.368	124.940	0.115	-0.149
-688.354	-115.920	0.375	0.072
-687.339	-48.851	0.080	-0.039
-686.324	-175.980	-0.217	0.006
-685.310	-16.035	0.250	0.163
-684.295	800.000	-0.037	0.158
-683.281	123.729	-0.057	0.073
-682.266	-126.770	0.266	-0.040
-681.251	-61.613	0.263	-0.114
-680.237	-200.000	0.002	0.046
-679.222	-200.000	-0.036	-0.195
-678.208	39.111	0.113	-0.104
-677.193	51.862	-0.057	-0.056
-676.178	-92.895	-0.370	-0.106
-675.164	800.000	0.025	0.076
-674.149	475.540	0.163	0.377
-673.135	165.854	-0.085	-0.123
-672.120	-17.561	0.178	0.115
-671.105	-37.321	0.105	0.057
-670.091	-18.485	-0.123	0.079
-669.076	309.302	0.097	0.187
-668.062	-111.582	-0.148	-0.031
-667.047	85.985	-0.171	0.193
-666.032	800.000	0.041	-0.129
-665.018	-200.000	0.011	0.082
-664.003	-200.000	-0.056	0.376
-662.989	800.000	-0.113	-0.344
-661.974	-200.000	0.058	-0.314
-660.959	339.518	0.010	0.021
-659.945	800.000	-0.069	-0.249
-658.930	156.930	0.058	-0.083
-657.916	-146.964	0.184	-0.016
-656.901	167.310	0.087	-0.127
-655.886	-114.294	0.091	-0.018
-654.872	-200.000	-0.073	-0.379
-653.857	-132.531	-0.199	0.026
-652.843	-35.967	0.321	-0.178
-651.828	294.035	-0.056	0.106
-650.814	3.362	0.175	-0.131
-649.799	-66.661	-0.419	0.170
-648.784	-200.000	0.004	0.308
-647.770	-63.999	0.362	-0.152
-646.755	359.211	-0.110	-0.226
-645.741	-94.622	-0.485	-0.135
-644.726	-200.000	0.023	-0.155
-643.711	110.080	-0.112	0.137
-642.697	-54.857	0.069	-0.032
-641.682	300.115	-0.035	-0.066
-640.668	-70.327	-0.225	0.087
-639.653	-47.172	0.193	-0.097
-638.638	775.734	-0.132	-0.370
-637.624	-24.538	-0.333	-0.204
-636.609	785.520	-0.109	0.307
-635.595	-174.749	0.174	-0.005
-634.580	-91.270	0.225	-0.066
-633.565	-200.000	0.019	0.180
-632.551	800.000	-0.061	-0.178
-631.536	22.862	0.104	-0.087
-630.522	-200.000	-0.035	0.236
-629.507	-200.000	-0.031	-0.412
-628.492	584.576	0.115	-0.289
-627.478	45.885	0.050	0.047
-626.463	387.229	-0.124	-0.262
-625.449	528.520	-0.082	-0.198
-624.434	263.070	0.113	0.200
-623.419	716.213	0.054	0.146
-622.405	-200.000	0.008	-0.108
-621.390	-114.050	-0.283	-0.056
-620.376	-81.591	0.274	0.092
-619.361	-200.000	0.023	-0.159
-618.346	55.931	0.091	-0.090
-617.332	-105.627	0.103	0.024
-616.317	214.782	0.051	-0.083
-615.303	25.012	0.179	0.152
-614.288	-200.000	0.042	0.281
-613.273	-143.897	0.486	0.047
-612.259	-200.000	0.032	0.160
-611.244	-200.000	0.048	-0.328
-610.230	171.321	-0.058	-0.086
-609.215	71.914	0.167	-0.178
-608.201	-1.296	-0.101	0.073
-607.186	-133.088	-0.062	-0.008
-606.171	-74.099	0.068	-0.025
-605.157	362.313	-0.084	0.172
-604.142	335.316	0.131	0.261
-603.128	162.720	-0.108	-0.155
-602.113	-41.369	0.141	-0.074
-601.098	-2.927	0.284	0.203
-600.084	231.122	0.135	-0.227
-599.069	767.391	0.110	-0.306
-598.055	-61.451	-0.352	0.152
-597.040	-5.085	-0.116	0.082
-596.025	800.000	-0.065	-0.255
-595.011	14.546	0.082	0.065
-593.996	19.083	0.150	0.123
-592.982	-129.413	-0.353	-0.050
-591.967	-89.683	-0.076	-0.023
-590.952	-200.000	-0.045	0.211
-589.938	-200.000	0.003	0.044
-588.923	22.805	-0.159	0.133
-587.909	-157.690	-0.346	0.021
-586.894	416.705	0.084	0.183
-585.879	357.826	-0.153	-0.313
-584.865	-200.000	-0.001	0.146
-583.850	164.353	-0.222	0.320
-582.836	-139.368	-0.181	0.020
-581.821	-181.693	0.082	-0.002
-580.806	-200.000	-0.012	-0.141
-579.792	-44.825	0.375	0.191
-578.777	-200.000	-0.067	0.566
-577.763	-200.000	-0.032	-0.187
-576.748	263.292	-0.040	0.072
-575.733	-56.302	-0.181	-0.082
-574.719	209.325	-0.037	-0.059
-573.704	800.000	-0.045	0.185
-572.690	139.578	-0.252	-0.339
-571.675	-200.000	0.042	0.344
-570.661	-92.720	-0.179	-0.051
-569.646	84.786	0.055	0.062
-568.631	-42.480	-0.243	0.126
-567.617	195.650	0.085	0.132
-566.602	241.635	0.040	-0.068
-565.588	-194.073	-0.213	0.002
-564.573	-19.696	-0.246	-0.156
-563.558	321.873	0.061	-0.119
-562.544	-46.191	0.069	-0.035
-561.529	-3.159	0.399	0.285
-560.515	-81.048	0.186	-0.063
-559.500	800.000	0.055	-0.226
-558.485	262.799	-0.008	-0.013
-557.471	9.106	0.100	-0.077
-556.456	-200.000	-0.004	0.085
-555.442	-98.725	-0.345	-0.090
-554.427	444.267	0.116	0.259
-553.412	-20.053	0.217	0.137
-552.398	-100.266	-0.189	0.048
-551.383	87.446	0.171	-0.194
-550.369	406.462	-0.048	-0.105
-549.354	79.618	0.145	0.159
-548.339	-166.640	0.136	0.006
-547.325	41.602	0.141	-0.130
-546.310	8.350	-0.127	0.097
-545.296	-55.698	0.256	0.117
-544.281	-110.477	0.301	0.064
-543.266	-33.517	0.230	-0.130
-542.252	-101.570	-0.159	-0.039
-541.237	44.855	0.295	-0.277
-540.223	46.899	0.047	-0.045
-539.208	-54.819	-0.159	0.073
-538.193	97.549	-0.068	-0.079
-537.179	-58.278	0.277	0.123
-536.164	16.466	0.239	-0.193
-535.150	-200.000	-0.013	-0.093
-534.135	-63.806	0.394	0.165
-533.121	-78.834	-0.143	0.050
-532.106	-35.293	0.273	-0.152
-531.091	-66.563	-0.077	-0.031
-530.077	-130.577	0.236	-0.032
-529.062	78.395	-0.097	0.106
-528.048	322.881	-0.098	0.191
-527.033	14.693	-0.276	0.220
-526.018	265.689	-0.117	0.209
-525.004	-200.000	0.003	0.159
-523.989	800.000	0.054	0.160
-522.975	-7.921	-0.034	0.024
-521.960	231.635	0.022	-0.038
-520.945	-40.251	-0.292	-0.155
-519.931	369.695	0.068	-0.140
-518.916	800.000	0.054	0.175
-517.902	800.000	0.022	-0.069
-516.887	652.874	-0.082	-0.214
-515.872	-112.294	0.217	0.044
-514.858	-110.885	0.208	-0.044
-513.843	-23.313	-0.115	0.071
-512.829	77.707	-0.231	-0.251
-511.814	-31.711	0.194	-0.111
-510.799	800.000	0.033	-0.108
-509.785	-69.402	-0.081	0.032
-508.770	800.000	-0.026	-0.078
-507.756	779.279	0.101	0.281
-506.741	-35.254	0.208	-0.116
-505.726	-81.295	-0.161	-0.054
-504.712	-94.825	0.258	-0.071
-503.697	123.715	0.086	-0.110
-502.683	19.116	0.138	-0.113
-501.668	13.127	-0.149	-0.118
-500.653	-200.000	0.035	0.304
-499.639	-64.796	0.334	-0.138
-498.624	-108.452	0.246	-0.054
-497.610	800.000	-0.055	0.191
-496.595	185.249	-0.147	-0.222
-495.581	87.190	-0.199	-0.225
-494.566	-131.912	-0.156	-0.021
-493.551	-92.528	-0.137	0.039
-492.537	800.000	0.069	0.251
-491.522	800.000	-0.088	0.346
-490.508	466.487	0.116	-0.264
-489.493	-200.000	-0.009	-0.385
-488.478	587.091	-0.075	-0.189
-487.464	279.977	0.094	0.172
-486.449	800.000	-0.042	0.168
-485.435	10.322	-0.267	-0.207
-484.420	83.127	-0.134	0.148
-483.405	-200.000	-0.001	0.020
-482.391	215.039	-0.202	0.327
-481.376	36.116	-0.094	-0.084
-480.362	-74.076	-0.268	0.099
-479.347	500.978	-0.019	0.044
-478.332	-106.453	-0.180	0.041
-477.318	-41.215	0.305	0.160
-476.303	-87.308	0.418	-0.129
-475.289	-134.678	-0.111	-0.014
-474.274	-135.972	0.136	0.016
-473.259	-112.908	-0.309	-0.062
-472.245	70.393	0.155	0.163
-471.230	115.008	0.047	0.059
-470.216	89.307	-0.212	0.241
-469.201	-200.000	0.040	-0.292
-468.186	158.279	-0.179	0.252
-467.172	-144.019	0.419	-0.040
-466.157	800.000	-0.074	-0.247
-465.143	-200.000	-0.052	-0.275
-464.128	42.582	0.272	-0.252
-463.113	73.424	0.089	-0.095
-462.099	-200.000	0.013	0.101
-461.084	-73.952	0.273	0.101
-460.070	262.819	-0.153	0.270
-459.055	-149.610	0.354	0.028
-458.040	-115.031	-0.350	-0.068
-457.026	611.440	0.067	-0.172
-456.011	64.801	-0.106	0.109
-454.997	179.929	-0.092	0.137
-453.982	-65.390	-0.225	0.092
-452.968	-137.328	-0.223	0.026
-451.953	344.064	0.095	-0.189
-450.938	-10.253	-0.189	0.127
-449.924	800.000	0.058	0.172
-448.909	291.316	-0.137	-0.253
-447.895	-199.403	-0.358	-0.002
-446.880	562.557	0.105	0.259
-445.865	-200.000	0.018	0.242
-444.851	-200.000	0.040	-0.262
-443.836	-200.000	0.009	0.041
-442.822	497.708	-0.022	0.052
-441.807	-133.989	-0.367	-0.046
-440.792	-28.823	-0.085	-0.050
-439.778	-152.768	-0.339	0.024
-438.763	-51.891	0.100	-0.047
-437.749	-200.000	-0.012	-0.215
-436.734	-23.174	0.145	-0.089
-435.719	-60.196	0.043	0.019
-434.705	-200.000	-0.016	-0.127
-433.690	800.000	0.050	0.147
-432.676	800.000	-0.130	0.419
-431.661	4.978	-0.235	0.176
-430.646	204.747	0.126	0.199
-429.632	800.000	-0.057	0.186
-428.617	116.520	-0.076	-0.095
-427.603	-200.000	-0.008	-0.106
-426.588	-13.309	-0.138	-0.091
-425.573	-200.000	-0.037	0.248
-424.559	-26.871	-0.188	-0.112
-423.544	108.957	0.212	-0.258
-422.530	610.974	-0.113	-0.288
-421.515	-153.187	0.391	-0.028
-420.500	-63.215	0.107	0.045
-419.486	-200.000	0.052	0.361
-418.471	-106.651	-0.125	0.028
-417.457	60.807	-0.048	0.049
-416.442	-113.540	-0.441	0.088
-415.428	351.312	0.132	0.267
-414.413	-72.803	0.423	0.158
-413.398	15.132	-0.297	0.237
-412.384	9.439	-0.310	0.238
-411.369	-172.518	0.170	-0.005
-410.355	123.039	0.015	-0.019
-409.340	-84.421	0.262	0.084
-408.325	181.418	-0.030	-0.045
-407.311	-129.555	0.060	-0.008
-406.296	-107.683	-0.090	-0.020
-405.282	83.343	0.121	-0.134
-404.267	-64.481	0.464	0.191
-403.252	-1.248	0.074	-0.053
-402.238	-200.000	-0.018	-0.510
-401.223	221.639	-0.134	-0.219
-400.209	-28.530	-0.133	0.078
-399.194	-200.000	0.001	-0.336
-398.179	-84.073	0.415	0.134
-397.165	-61.686	0.178	0.076
-396.150	293.032	0.079	0.147
-395.136	-22.541	-0.282	0.173
-394.121	-200.000	-0.038	0.225
-393.106	-55.503	0.309	0.141
-392.092	-4.897	0.303	-0.212
-391.077	22.690	-0.106	-0.088
-390.063	800.000	-0.047	-0.135
-389.048	32.399	0.306	-0.268
-388.033	-163.426	-0.174	0.008
-387.019	77.509	0.072	-0.078
-386.004	800.000	0.047	-0.158
-384.990	800.000	0.013	0.039
-383.975	-152.145	0.059	-0.004
-382.960	-19.203	-0.166	-0.104
-381.946	-97.595	0.031	-0.008
-380.931	800.000	0.048	-0.199
-379.917	-200.000	-0.016	0.136
-378.902	-200.000	-0.025	0.359
-377.888	383.891	-0.078	0.163
-376.873	273.111	-0.181	-0.324
-375.858	453.370	-0.092	-0.206
-374.844	133.517	-0.105	0.137
-373.829	-200.000	0.003	0.217
-372.815	-94.659	-0.116	-0.032
-371.800	-96.380	0.145	-0.039
-370.785	-200.000	-0.005	-0.117
-369.771	-200.000	0.002	0.057
-368.756	12.777	-0.063	0.050
-367.742	-200.000	-0.020	-0.232
-366.727	-56.559	-0.254	0.114
-365.712	5.349	0.053	-0.039
-364.698	-166.012	0.202	-0.009
-363.683	-112.093	0.551	-0.112
-362.669	626.751	0.105	0.269
-361.654	24.532	-0.118	-0.099
-360.639	-75.254	-0.187	0.068
-359.625	-200.000	-0.038	-0.176
-358.610	-72.429	0.171	-0.064
-357.596	800.000	-0.050	0.181
-356.581	-127.771	-0.347	0.051
-355.566	-200.000	-0.032	-0.313
-354.552	449.325	-0.101	0.225
-353.537	-165.929	0.290	0.013
-352.523	800.000	0.033	0.138
-351.508	527.586	0.031	0.074
-350.493	3.322	-0.177	0.131
-349.479	227.451	-0.155	-0.255
-348.464	-14.346	-0.034	-0.022
-347.450	-200.000	0.023	-0.188
-346.435	800.000	0.038	-0.159
-345.420	-162.531	0.285	-0.014
-344.406	-200.000	-0.003	-0.065
-343.391	-174.519	0.123	-0.004
-342.377	131.730	0.199	-0.259
-341.362	232.545	-0.015	-0.025
-340.348	223.363	0.058	0.095
-339.333	-145.090	0.342	0.032
-338.318	83.403	0.129	0.142
-337.304	-125.792	0.109	-0.017
-336.289	-200.000	-0.000	0.298
-335.275	-200.000	0.016	0.181
-334.260	5.478	-0.117	0.088
-333.245	800.000	0.055	-0.199
-332.231	11.847	-0.095	0.074
-331.216	783.204	0.094	0.260
-330.202	637.868	-0.110	-0.283
-329.187	-84.898	-0.101	0.032
-328.172	270.425	0.138	-0.246
-327.158	660.100	0.155	-0.405
-326.143	-102.880	-0.185	0.044
-325.129	38.997	-0.094	0.085
-324.114	14.401	0.158	0.125
-323.099	-13.072	-0.300	0.198
-322.085	-200.000	-0.011	0.318
-321.070	800.000	-0.026	0.081
-320.056	-200.000	-0.034	-0.425
-319.041	443.521	0.015	-0.032
-318.026	-89.053	0.314	0.094
-317.012	-82.865	0.122	0.040
-315.997	-30.207	0.268	0.154
-314.983	800.000	-0.040	0.153
-313.968	234.144	-0.157	-0.263
-312.953	49.765	0.073	0.069
-311.939	-128.572	-0.188	-0.027
-310.924	-87.497	0.073	0.022
-309.910	-200.000	0.008	-0.275
-308.895	174.717	-0.169	-0.248
-307.880	800.000	0.068	-0.195
-306.866	56.888	-0.247	0.244
-305.851	800.000	0.140	-0.424
-304.837	16.829	-0.036	-0.028
-303.822	196.509	-0.174	-0.268
-302.807	418.797	-0.100	0.217
-301.793	-200.000	0.012	-0.152
-300.778	26.020	0.171	0.144
-299.764	-200.000	0.025	-0.168
-298.749	-200.000	0.042	0.234
-297.735	112.416	-0.117	-0.143
-296.720	508.214	-0.107	0.251
-295.705	-200.000	-0.001	-0.231
-294.691	317.705	-0.115	0.221
-293.676	19.062	-0.123	-0.100
-292.662	-123.523	0.208	0.033
-291.647	-14.238	-0.217	0.141
-290.632	-31.828	-0.242	-0.137
-289.618	-59.318	-0.223	-0.097
-288.603	800.000	0.091	0.348
-287.589	111.654	-0.111	-0.136
-286.574	-148.871	0.297	0.024
-285.559	205.883	0.056	-0.088
-284.545	49.786	-0.164	-0.157
-283.530	171.596	0.148	0.215
-282.516	-200.000	-0.003	0.041
-281.501	100.451	0.051	-0.060
-280.486	-200.000	0.069	-0.481
-279.472	38.311	-0.353	0.318
-278.457	-200.000	0.023	0.238
-277.443	-200.000	0.003	-0.098
-276.428	-106.969	0.086	-0.019
-275.413	142.329	0.064	0.086
-274.399	-172.669	0.061	-0.002
-273.384	-200.000	-0.029	-0.417
-272.370	44.182	-0.079	0.074
-271.355	-102.753	-0.036	-0.009
-270.340	-4.746	0.037	0.026
-269.326	-103.325	0.176	0.042
-268.311	-90.706	-0.287	0.084
-267.297	138.050	0.346	-0.459
-266.282	-111.976	-0.280	-0.057
-265.267	60.834	-0.281	-0.281
-264.253	129.475	0.024	0.031
-263.238	153.275	-0.137	-0.189
-262.224	158.952	-0.042	-0.059
-261.209	512.686	-0.107	-0.251
-260.195	800.000	-0.021	0.085
-259.180	-140.295	0.242	-0.026
-258.165	-13.790	-0.158	-0.103
-257.151	629.753	0.105	-0.267
-256.136	6.236	0.151	0.113
-255.122	-116.624	0.084	0.016
-254.107	-200.000	-0.041	-0.207
-253.092	368.213	-0.114	0.232
-252.078	-114.885	-0.146	-0.028
-251.063	-200.000	-0.016	0.165
-250.049	-54.767	0.212	0.097
-249.034	347.585	-0.088	-0.176
-248.019	-124.546	-0.026	-0.004
-247.005	-18.886	0.176	0.111
-245.990	-0.326	-0.305	0.219
-244.976	137.133	-0.096	-0.126
-243.961	800.000	-0.062	-0.197
-242.946	-22.000	0.103	-0.063
-241.932	-11.391	-0.125	-0.083
-240.917	766.768	-0.095	0.261
-239.903	800.000	-0.189	0.564
-238.888	112.987	-0.178	0.218
-237.873	-200.000	-0.057	-0.292
-236.859	44.825	0.066	0.061
-235.844	181.657	-0.156	-0.231
-234.830	-69.727	-0.188	0.073
-233.815	800.000	-0.083	-0.241
-232.800	506.293	0.050	-0.118
-231.786	800.000	0.069	-0.243
-230.771	342.092	-0.041	-0.080
-229.757	-181.539	0.061	-0.001
-228.742	478.264	0.101	-0.231
-227.727	-200.000	-0.009	0.065
-226.713	-41.454	-0.100	-0.052
-225.698	-200.000	-0.038	-0.273
-224.684	182.983	0.147	0.219
-223.669	541.874	-0.162	0.389
-222.655	133.811	0.061	0.080
-221.640	74.001	0.045	0.047
-220.625	118.626	0.071	0.088
-219.611	186.463	-0.163	-0.245
-218.596	293.844	-0.027	-0.050
-217.582	-101.270	0.100	0.025
-216.567	513.048	-0.110	0.258
-215.552	95.210	0.077	-0.089
-214.538	-63.383	0.113	-0.047
-213.523	800.000	-0.085	0.278
-212.509	-191.963	0.259	0.003
-211.494	-138.473	-0.193	-0.021
-210.479	-112.105	-0.179	0.036
-209.465	800.000	0.077	0.270
-208.450	62.606	-0.254	0.256
-207.436	-200.000	-0.057	0.302
-206.421	231.252	0.098	-0.162
-205.406	443.391	0.037	-0.082
-204.392	-138.925	-0.259	0.028
-203.377	-200.000	0.003	0.275
-202.363	-9.438	-0.115	-0.077
-201.348	-41.643	0.171	0.089
-200.333	800.000	-0.017	0.071
-199.319	-200.000	0.011	-0.118
-198.304	-162.406	0.287	-0.014
-197.290	34.136	-0.039	-0.034
-196.275	-20.484	-0.053	0.033
-195.260	800.000	-0.043	-0.122
-194.246	-200.000	0.053	-0.312
-193.231	119.413	0.070	0.088
-192.217	2.597	-0.075	0.055
-191.202	78.045	0.055	0.059
-190.187	-49.776	-0.180	0.086
-189.173	308.007	-0.076	0.143
-188.158	-11.330	0.117	-0.078
-187.144	-10.463	0.060	0.040
-186.129	129.621	0.091	0.117
-185.114	-49.922	-0.171	-0.082
-184.100	-10.182	0.073	0.049
-183.085	800.000	-0.017	0.071
-182.071	696.546	-0.054	0.142
-181.056	734.710	-0.055	0.148
-180.042	-55.408	-0.118	-0.054
-179.027	11.533	-0.161	0.125
-178.012	99.094	0.055	-0.064
-176.998	-3.663	0.179	-0.126
-175.983	-200.000	0.001	0.190
-174.969	-67.524	0.332	0.131
-173.954	213.756	0.116	-0.185
-172.939	800.000	0.026	0.098
-171.925	334.838	0.105	0.206
-170.910	31.108	-0.088	-0.076
-169.896	-86.886	0.169	-0.052
-168.881	800.000	-0.050	0.199
-167.866	-25.323	-0.104	-0.062
-166.852	-87.028	-0.203	-0.062
-165.837	220.967	0.080	-0.129
-164.823	750.539	-0.080	-0.218
-163.808	274.646	0.223	0.397
-162.793	-163.611	0.171	0.008
-161.779	30.670	-0.071	0.061
-160.764	18.267	0.217	0.174
-159.750	-200.000	-0.018	0.269
-158.735	800.000	-0.008	-0.024
-157.720	-83.676	0.208	0.067
-156.706	10.365	-0.221	-0.169
-155.691	-20.732	0.110	0.068
-154.677	80.070	0.115	-0.125
-153.662	258.331	0.072	-0.125
-152.647	800.000	0.068	-0.258
-151.633	-29.560	0.276	0.159
-150.618	345.816	0.175	-0.345
-149.604	-31.829	-0.037	0.021
-148.589	1.211	0.153	0.111
-147.574	-7.252	0.227	0.155
-146.560	175.453	-0.278	-0.405
-145.545	-158.726	-0.103	-0.006
-144.531	-200.000	-0.006	0.338
-143.516	800.000	0.065	-0.198
-142.502	-176.547	-0.361	-0.009
-141.487	347.863	0.066	0.131
-140.472	-32.758	0.213	0.119
-139.458	116.723	-0.294	0.363
-138.443	-102.799	0.131	0.031
-137.429	-39.495	-0.243	-0.128
-136.414	14.428	0.032	0.025
-135.399	-145.672	-0.127	0.011
-134.385	-8.919	-0.085	0.058
-133.370	757.616	0.076	-0.206
-132.356	-59.214	0.177	0.077
-131.341	-68.579	0.228	0.089
-130.326	97.926	0.146	-0.168
-129.312	389.662	-0.122	-0.255
-128.297	800.000	0.089	0.312
-127.283	800.000	0.135	0.381
-126.268	800.000	-0.133	0.432
-125.253	800.000	-0.050	0.199
-124.239	-110.784	-0.215	-0.044
-123.224	-76.258	0.262	-0.093
-122.210	-78.391	-0.092	0.032
-121.195	93.442	0.057	0.065
