DTS Sentinel unit serial number:	SN413079Multiplexer serial number:	ORYXHardware model number:	OX4-SRSoftware version number:	ORYX F/W v4.00 Oryx Data Collector v3.7.2.0data status	okinstallation	princeton_trtdifferential loss correction	single-endedforward channel	channel 4reverse channel	N/Adate	2019/09/11time	17:59:11forward acquisition time	60.00reverse acquisition time	0.00gamma	496.2192k internal	0.2275k external	0.2275temperature offset calibration	1.0026default loss term (dB/km)	0.3790temperature slope calibration	1.0000multiplexer offset coefficient	1.0000multiplexer slope coefficient	1.0000fibre end	0.00T internal ref (°C)	44.03T ext. ref 1 (°C)	1.14T ext. ref 2 (°C)	39.19length (m)	temperature (°C)	Stokes	anti-Stokes-747.200	86.580	0.255	0.291
-746.185	90.346	0.232	0.267
-745.171	-84.549	0.105	-0.034
-744.156	-200.000	-0.027	0.209
-743.142	-102.923	0.152	0.037
-742.127	-138.824	-0.263	0.030
-741.112	-144.174	0.165	0.016
-740.098	-98.909	0.299	-0.078
-739.083	-20.610	-0.121	-0.077
-738.069	800.000	-0.090	0.259
-737.054	800.000	-0.096	0.345
-736.039	37.368	0.086	0.079
-735.025	-144.543	0.187	0.018
-734.010	240.560	0.124	-0.213
-732.996	-54.889	0.040	0.019
-731.981	-61.969	-0.105	-0.045
-730.966	168.388	-0.221	-0.325
-729.952	180.935	-0.109	-0.165
-728.937	50.215	0.233	0.227
-727.923	-59.885	0.051	0.022
-726.908	327.727	-0.076	-0.150
-725.894	-42.543	-0.279	-0.146
-724.879	178.932	-0.244	0.368
-723.864	-22.347	-0.216	0.135
-722.850	-110.544	0.116	-0.025
-721.835	44.879	0.094	-0.089
-720.821	-94.719	-0.519	-0.145
-719.806	82.266	0.145	0.162
-718.791	-39.721	-0.245	0.132
-717.777	-200.000	-0.039	-0.337
-716.762	486.617	-0.211	-0.495
-715.748	-105.024	0.331	-0.078
-714.733	-119.589	-0.309	0.055
-713.718	168.770	0.168	-0.246
-712.704	-184.865	-0.069	0.001
-711.689	50.349	-0.316	0.308
-710.675	-81.972	-0.106	-0.036
-709.660	747.089	-0.175	-0.484
-708.645	47.257	0.100	-0.096
-707.631	-101.188	-0.131	0.033
-706.616	800.000	-0.052	-0.154
-705.602	86.631	0.145	-0.165
-704.587	-200.000	0.006	-0.252
-703.572	-86.451	0.093	-0.029
-702.558	-185.225	0.143	-0.002
-701.543	800.000	0.014	-0.050
-700.529	73.352	-0.085	0.092
-699.514	-120.662	-0.266	0.046
-698.499	95.877	-0.157	-0.185
-697.485	-200.000	-0.012	-0.081
-696.470	800.000	-0.054	-0.234
-695.456	-124.654	-0.264	0.042
-694.441	-127.579	0.305	-0.046
-693.426	-200.000	-0.048	-0.241
-692.412	356.878	-0.182	-0.373
-691.397	12.645	0.077	-0.061
-690.383	-159.673	0.171	0.010
-689.368	-114.287	0.197	-0.039
-688.354	289.748	-0.098	0.182
-687.339	-106.518	0.227	-0.052
-686.324	87.032	0.192	-0.218
-685.310	-200.000	-0.013	-0.069
-684.295	-121.193	-0.093	0.016
-683.281	75.365	-0.057	-0.062
-682.266	85.479	-0.036	-0.041
-681.251	-200.000	-0.062	0.411
-680.237	-57.384	0.123	0.056
-679.222	-7.866	-0.241	-0.168
-678.208	-200.000	-0.062	-0.332
-677.193	565.617	-0.044	0.109
-676.178	800.000	-0.043	-0.133
-675.164	-200.000	0.018	-0.121
-674.149	333.279	0.061	-0.121
-673.135	-92.540	-0.072	-0.021
-672.120	-21.592	-0.165	-0.103
-671.105	-27.505	0.253	0.151
-670.091	37.743	-0.112	0.102
-669.076	-200.000	-0.005	-0.306
-668.062	-200.000	-0.014	0.297
-667.047	459.808	-0.072	-0.165
-666.032	-33.201	0.126	-0.072
-665.018	-84.462	0.093	-0.030
-664.003	-66.926	-0.226	0.092
-662.989	-200.000	-0.002	0.021
-661.974	591.363	0.134	0.340
-660.959	-200.000	-0.008	-0.179
-659.945	-200.000	-0.001	-0.085
-658.930	164.197	0.296	-0.428
-657.916	-105.574	-0.300	0.070
-656.901	-85.221	-0.221	0.071
-655.886	29.664	-0.550	-0.481
-654.872	129.998	-0.321	-0.422
-653.857	-73.930	-0.208	-0.078
-652.843	22.774	0.112	0.094
-651.828	-27.239	-0.081	0.049
-650.814	-200.000	0.005	0.312
-649.799	-36.553	-0.307	0.170
-648.784	800.000	-0.057	0.213
-647.770	167.303	0.152	-0.222
-646.755	-107.243	0.107	-0.024
-645.741	-107.469	-0.025	0.006
-644.726	359.672	0.069	-0.141
-643.711	144.668	-0.155	-0.213
-642.697	-32.745	0.229	0.131
-641.682	55.078	-0.286	0.284
-640.668	-122.709	-0.091	-0.015
-639.653	800.000	-0.105	0.346
-638.638	-163.634	0.050	-0.002
-637.624	-179.155	-0.106	-0.002
-636.609	-121.184	0.264	0.045
-635.595	681.531	-0.086	0.230
-634.580	532.465	0.032	-0.077
-633.565	-82.278	0.088	0.029
-632.551	557.257	0.142	-0.351
-631.536	-200.000	-0.003	0.065
-630.522	-125.941	0.282	0.044
-629.507	-175.130	0.283	-0.008
-628.492	-200.000	-0.008	0.074
-627.478	-134.356	-0.244	-0.031
-626.463	-171.449	0.055	0.002
-625.449	267.457	0.005	0.010
-624.434	800.000	-0.068	-0.291
-623.419	-97.395	-0.132	0.035
-622.405	21.768	-0.121	0.101
-621.390	800.000	-0.060	0.193
-620.376	-64.704	0.242	0.101
-619.361	-200.000	0.034	-0.200
-618.346	-48.656	0.458	-0.226
-617.332	306.877	0.165	-0.316
-616.317	-200.000	-0.048	-0.298
-615.303	800.000	0.041	0.145
-614.288	800.000	-0.082	-0.296
-613.273	259.312	-0.257	-0.456
-612.259	-76.483	0.145	-0.052
-611.244	800.000	0.079	-0.274
-610.230	800.000	-0.072	-0.209
-609.215	-200.000	-0.016	-0.119
-608.201	-143.081	-0.236	0.023
-607.186	197.434	0.178	0.279
-606.171	800.000	-0.042	0.163
-605.157	-96.399	-0.203	-0.055
-604.142	12.206	0.093	-0.073
-603.128	-158.328	-0.468	-0.028
-602.113	307.863	0.051	0.098
-601.098	-200.000	-0.002	0.102
-600.084	-200.000	0.036	-0.278
-599.069	245.826	-0.139	0.240
-598.055	40.418	0.230	0.212
-597.040	-200.000	0.034	-0.191
-596.025	196.400	-0.053	0.083
-595.011	-160.805	-0.644	0.035
-593.996	-200.000	0.022	-0.126
-592.982	75.234	-0.167	-0.180
-591.967	72.508	0.162	-0.173
-590.952	14.228	0.383	-0.306
-589.938	-27.653	-0.238	-0.142
-588.923	-200.000	0.003	0.231
-587.909	-200.000	0.013	0.158
-586.894	60.442	-0.147	0.149
-585.879	325.131	-0.156	0.306
-584.865	-200.000	-0.003	0.101
-583.850	179.365	-0.178	-0.267
-582.836	-72.544	-0.207	0.078
-581.821	-109.998	0.160	-0.034
-580.806	63.657	-0.177	0.182
-579.792	368.518	-0.089	0.185
-578.777	111.250	0.147	0.182
-577.763	252.622	-0.202	-0.352
-576.748	-20.202	-0.053	0.034
-575.733	771.782	0.101	-0.282
-574.719	-53.112	0.294	0.138
-573.704	236.194	-0.161	-0.273
-572.690	175.150	-0.102	-0.152
-571.675	459.561	0.036	0.083
-570.661	183.557	-0.087	-0.132
-569.646	109.124	0.143	-0.176
-568.631	-54.316	-0.106	-0.049
-567.617	123.454	-0.228	-0.293
-566.602	199.067	-0.097	0.152
-565.588	-200.000	0.006	-0.284
-564.573	334.925	-0.154	0.305
-563.558	-104.424	-0.197	0.047
-562.544	36.677	0.125	-0.113
-561.529	354.792	0.084	-0.172
-560.515	-69.308	-0.123	0.049
-559.500	-93.020	-0.272	0.078
-558.485	-135.519	-0.302	0.037
-557.471	-131.296	-0.146	0.020
-556.456	-74.854	0.303	-0.111
-555.442	-58.680	0.229	-0.102
-554.427	258.543	-0.016	-0.028
-553.412	93.898	0.113	-0.131
-552.398	-83.444	0.085	0.028
-551.383	96.491	-0.112	0.131
-550.369	120.126	0.152	-0.193
-549.354	-200.000	0.014	0.195
-548.339	54.542	-0.193	-0.190
-547.325	632.449	-0.094	0.244
-546.310	800.000	-0.096	0.276
-545.296	291.704	0.158	-0.295
-544.281	232.837	0.086	0.145
-543.266	520.602	0.101	0.243
-542.252	-123.847	-0.526	-0.085
-541.237	-200.000	0.043	-0.212
-540.223	116.193	-0.116	0.146
-539.208	-142.941	-0.203	0.020
-538.193	-83.898	0.350	-0.114
-537.179	-200.000	0.073	0.447
-536.164	39.816	0.307	-0.282
-535.150	-17.131	0.224	-0.145
-534.135	-200.000	-0.063	0.453
-533.121	-22.537	-0.124	-0.077
-532.106	682.808	-0.088	-0.236
-531.091	74.001	-0.044	0.047
-530.077	-8.321	-0.232	0.160
-529.062	12.993	0.091	-0.072
-528.048	83.587	-0.225	0.251
-527.033	0.103	0.197	-0.143
-526.018	-200.000	0.008	0.135
-525.004	-17.444	0.111	-0.071
-523.989	211.762	0.073	-0.117
-522.975	30.026	0.246	0.214
-521.960	800.000	0.081	0.313
-520.945	59.555	-0.210	0.211
-519.931	10.127	0.161	0.125
-518.916	-40.698	-0.053	-0.028
-517.902	49.381	0.103	0.099
-516.887	-139.396	0.015	-0.002
-515.872	-146.788	0.266	0.024
-514.858	57.856	-0.086	-0.086
-513.843	218.497	-0.109	0.179
-512.829	-44.385	-0.215	0.110
-511.814	90.780	-0.143	-0.164
-510.799	240.344	0.050	-0.085
-509.785	240.913	-0.123	-0.209
-508.770	-115.504	0.071	0.014
-507.756	46.439	-0.161	-0.152
-506.741	319.236	-0.173	-0.335
-505.726	-15.818	-0.113	0.074
-504.712	-18.172	0.155	0.099
-503.697	-133.848	0.242	0.031
-502.683	-42.223	-0.303	-0.158
-501.668	-89.375	0.159	-0.048
-500.653	-200.000	-0.005	-0.295
-499.639	18.277	-0.157	-0.128
-498.624	-59.919	0.195	0.085
-497.610	11.985	0.145	0.114
-496.595	-102.498	-0.080	0.020
-495.581	-65.646	0.348	-0.142
-494.566	4.593	-0.037	-0.028
-493.551	-92.055	-0.258	0.075
-492.537	-38.726	0.163	0.088
-491.522	-135.360	0.226	0.028
-490.508	-200.000	0.060	-0.341
-489.493	42.613	0.039	0.036
-488.478	800.000	0.080	-0.233
-487.464	15.375	0.221	-0.177
-486.449	-76.708	-0.260	0.093
-485.435	31.928	-0.050	0.044
-484.420	-200.000	0.011	-0.147
-483.405	6.033	0.222	0.168
-482.391	-66.231	-0.241	0.098
-481.376	-2.850	-0.234	-0.167
-480.362	-56.387	0.169	0.077
-479.347	368.011	-0.120	0.247
-478.332	-115.980	-0.233	0.044
-477.318	114.877	-0.096	-0.119
-476.303	263.926	0.083	0.148
-475.289	63.261	-0.164	-0.167
-474.274	41.819	0.073	-0.067
-473.259	-24.419	-0.091	-0.055
-472.245	800.000	-0.064	0.200
-471.230	-200.000	0.025	-0.168
-470.216	30.088	-0.301	0.262
-469.201	-200.000	0.009	0.064
-468.186	-80.271	0.031	-0.011
-467.172	-169.944	0.140	0.005
-466.157	-123.744	0.090	-0.015
-465.143	399.255	-0.078	-0.168
-464.128	71.228	-0.274	0.290
-463.113	25.350	-0.347	-0.294
-462.099	153.606	-0.060	-0.085
-461.084	-58.595	0.323	-0.143
-460.070	-82.328	-0.172	-0.057
-459.055	-31.067	0.115	0.066
-458.040	-41.279	-0.136	0.072
-457.026	-200.000	0.028	0.274
-456.011	-200.000	-0.049	-0.338
-454.997	73.830	-0.070	0.075
-453.982	-200.000	-0.022	-0.123
-452.968	115.839	-0.114	-0.142
-451.953	-200.000	0.005	-0.146
-450.938	-162.439	0.069	-0.003
-449.924	-22.929	-0.008	-0.005
-448.909	-200.000	0.023	-0.133
-447.895	186.567	-0.066	0.101
-446.880	-100.670	-0.065	-0.016
-445.865	-121.504	-0.123	-0.021
-444.851	-200.000	-0.013	-0.124
-443.836	16.778	0.126	0.101
-442.822	800.000	0.051	-0.145
-441.807	-146.165	0.189	-0.017
-440.792	-66.666	-0.055	-0.022
-439.778	-61.452	0.123	0.053
-438.763	800.000	0.063	-0.223
-437.749	-111.147	0.074	0.015
-436.734	408.387	0.105	0.226
-435.719	286.220	0.161	0.296
-434.705	34.138	0.168	0.149
-433.690	800.000	0.081	0.326
-432.676	-62.884	-0.290	-0.122
-431.661	-22.115	-0.389	0.241
-430.646	112.917	-0.251	-0.310
-429.632	-43.858	0.348	-0.179
-428.617	8.608	0.332	0.255
-427.603	168.736	-0.111	0.162
-426.588	800.000	0.077	-0.276
-425.573	112.282	-0.083	0.102
-424.559	-200.000	0.026	0.121
-423.544	-111.634	0.339	0.070
-422.530	87.191	-0.134	0.150
-421.515	-200.000	-0.021	-0.206
-420.500	476.009	-0.161	-0.370
-419.486	-43.950	0.170	0.087
-418.471	-46.064	0.374	0.188
-417.457	145.004	0.260	-0.354
-416.442	75.009	0.188	-0.202
-415.428	-130.289	-0.104	-0.014
-414.413	-99.152	0.090	0.023
-413.398	800.000	-0.047	-0.186
-412.384	-165.044	0.414	-0.019
-411.369	48.622	-0.170	0.162
-410.355	-200.000	-0.007	0.124
-409.340	-16.568	0.152	-0.098
-408.325	335.534	0.071	0.140
-407.311	-48.976	0.116	0.056
-406.296	-54.763	0.194	-0.089
-405.282	800.000	0.060	0.187
-404.267	-200.000	0.023	0.195
-403.252	-200.000	0.078	0.380
-402.238	-122.733	-0.163	0.027
-401.223	800.000	0.066	0.269
-400.209	242.778	-0.159	-0.270
-399.194	12.775	0.056	-0.044
-398.179	657.927	0.025	-0.066
-397.165	800.000	-0.047	-0.164
-396.150	369.062	0.137	-0.282
-395.136	-78.641	-0.323	0.112
-394.121	-24.864	-0.066	0.040
-393.106	-46.217	-0.057	-0.028
-392.092	-36.193	0.172	0.095
-391.077	114.226	0.119	-0.147
-390.063	800.000	0.049	-0.160
-389.048	800.000	-0.081	-0.243
-388.033	-158.244	-0.400	-0.024
-387.019	-160.002	-0.198	-0.011
-386.004	25.773	-0.385	0.326
-384.990	210.814	0.209	0.334
-383.975	-49.410	0.051	-0.025
-382.960	-200.000	0.000	0.105
-381.946	-200.000	0.079	-0.457
-380.931	-135.751	0.194	-0.023
-379.917	800.000	0.036	-0.135
-378.902	-200.000	0.008	0.150
-377.888	-200.000	0.042	-0.407
-376.873	-115.265	-0.213	0.041
-375.858	-152.690	0.198	0.014
-374.844	65.392	-0.102	0.105
-373.829	800.000	-0.030	-0.125
-372.815	-200.000	-0.026	0.197
-371.800	215.450	0.012	-0.020
-370.785	-140.461	-0.214	0.023
-369.771	-200.000	-0.051	-0.237
-368.756	17.301	0.250	-0.202
-367.742	800.000	-0.136	0.456
-366.727	-90.964	-0.190	0.056
-365.712	129.898	0.012	-0.016
-364.698	143.948	0.169	-0.229
-363.683	247.456	0.250	-0.430
-362.669	189.809	0.060	0.092
-361.654	800.000	0.039	0.158
-360.639	-200.000	-0.010	0.118
-359.625	-31.873	0.392	0.223
-358.610	209.723	0.070	0.111
-357.596	202.326	0.097	-0.152
-356.581	522.207	0.061	-0.145
-355.566	507.955	-0.060	0.142
-354.552	488.592	0.081	-0.187
-353.537	800.000	-0.069	-0.294
-352.523	-113.604	-0.126	0.025
-351.508	618.574	-0.051	-0.130
-350.493	70.597	0.149	0.156
-349.479	800.000	0.054	0.159
-348.464	-200.000	-0.006	0.154
-347.450	133.753	0.176	0.231
-346.435	109.194	0.140	0.171
-345.420	-73.273	-0.207	-0.077
-344.406	800.000	0.059	0.179
-343.391	-155.819	-0.285	-0.018
-342.377	203.077	-0.024	0.037
-341.362	-133.907	0.320	-0.040
-340.348	96.942	-0.200	0.233
-339.333	-7.601	0.086	0.059
-338.318	-46.399	-0.037	0.018
-337.304	-134.261	-0.185	0.023
-336.289	60.980	0.231	-0.232
-335.275	-200.000	0.068	0.330
-334.260	-66.719	0.163	-0.066
-333.245	-26.188	0.066	-0.039
-332.231	-37.793	0.025	-0.014
-331.216	-127.131	0.134	-0.020
-330.202	-121.559	-0.255	0.043
-329.187	-168.300	0.139	0.005
-328.172	-23.518	-0.173	0.105
-327.158	-83.872	0.351	0.113
-326.143	-200.000	-0.112	0.521
-325.129	54.299	-0.163	-0.160
-324.114	800.000	0.060	0.228
-323.099	-151.757	-0.374	-0.028
-322.085	800.000	0.092	0.309
-321.070	36.337	0.213	0.190
-320.056	323.556	0.136	-0.263
-319.041	573.466	-0.135	0.334
-318.026	-186.172	0.223	-0.003
-317.012	-90.777	-0.116	0.034
-315.997	-66.297	-0.263	-0.106
-314.983	-0.945	0.101	-0.073
-313.968	366.519	-0.032	-0.066
-312.953	-54.054	-0.109	0.050
-311.939	-128.140	-0.095	0.014
-310.924	-132.474	-0.276	0.036
-309.910	800.000	0.035	0.143
-308.895	12.855	0.152	-0.119
-307.880	-200.000	-0.035	0.293
-306.866	-200.000	0.013	-0.181
-305.851	-104.457	-0.144	0.034
-304.837	800.000	-0.043	0.174
-303.822	-128.330	-0.109	-0.016
-302.807	-172.996	0.432	-0.014
-301.793	-1.464	-0.120	0.086
-300.778	58.268	0.207	-0.205
-299.764	85.647	-0.166	0.185
-298.749	45.895	-0.229	-0.215
-297.735	83.472	-0.138	-0.152
-296.720	70.946	-0.112	0.117
-295.705	-200.000	-0.005	-0.031
-294.691	-98.196	-0.304	0.079
-293.676	-116.980	-0.117	0.022
-292.662	800.000	-0.107	0.318
-291.647	44.371	0.176	-0.164
-290.632	-112.170	0.459	-0.093
-289.618	96.733	-0.139	0.161
-288.603	-68.981	-0.168	0.066
-287.589	-16.148	0.247	-0.159
-286.574	83.525	-0.188	-0.208
-285.559	-154.487	0.381	-0.026
-284.545	-200.000	0.011	0.269
-283.530	358.385	-0.129	-0.261
-282.516	47.554	0.093	-0.088
-281.501	-105.985	0.064	0.015
-280.486	211.516	-0.059	0.093
-279.472	299.712	0.200	0.372
-278.457	-200.000	-0.042	0.260
-277.443	800.000	0.043	0.159
-276.428	-55.856	0.167	0.076
-275.413	149.724	0.240	-0.330
-274.399	49.963	0.363	-0.347
-273.384	164.186	-0.079	-0.112
-272.370	26.184	0.114	-0.096
-271.355	800.000	-0.043	0.133
-270.340	211.850	-0.086	0.138
-269.326	-200.000	-0.052	-0.371
-268.311	143.963	-0.037	-0.050
-267.297	-98.916	0.294	-0.075
-266.282	6.476	0.060	-0.045
-265.267	-133.017	0.271	0.035
-264.253	-85.508	0.255	0.080
-263.238	-200.000	0.000	0.069
-262.224	-200.000	-0.006	-0.306
-261.209	-61.973	-0.258	-0.109
-260.195	-200.000	0.017	0.100
-259.180	400.493	0.110	-0.234
-258.165	37.226	0.141	0.126
-257.151	-104.549	-0.173	0.040
-256.136	-200.000	0.003	0.026
-255.122	38.834	-0.239	0.216
-254.107	66.409	-0.088	0.090
-253.092	460.835	-0.137	-0.309
-252.078	-186.408	-0.259	-0.004
-251.063	345.566	-0.207	-0.412
-250.049	601.621	-0.076	-0.192
-249.034	-138.507	0.311	-0.035
-248.019	370.427	-0.182	0.374
-247.005	800.000	-0.023	-0.092
-245.990	114.567	0.171	0.211
-244.976	91.487	0.037	0.042
-243.961	-102.216	0.164	-0.040
-242.946	37.298	-0.155	-0.139
-241.932	800.000	0.032	-0.095
-240.917	111.314	-0.050	-0.060
-239.903	-91.534	-0.193	-0.056
-238.888	287.592	-0.169	0.310
-237.873	-25.899	0.303	-0.181
-236.859	-200.000	0.003	-0.078
-235.844	-114.075	0.056	-0.011
-234.830	-186.287	-0.317	-0.005
-233.815	800.000	0.077	-0.278
-232.800	800.000	-0.042	-0.158
-231.786	-148.377	0.351	0.029
-230.771	-200.000	-0.015	-0.070
-229.757	-200.000	0.022	-0.115
-228.742	-52.185	-0.318	0.149
-227.727	-76.149	0.434	0.155
-226.713	-114.458	0.109	0.021
-225.698	33.832	0.173	0.152
-224.684	242.638	-0.137	0.232
-223.669	351.250	0.134	-0.267
-222.655	-200.000	-0.041	-0.205
-221.640	137.222	0.039	0.052
-220.625	-5.410	-0.290	-0.201
-219.611	-23.275	0.099	-0.060
-218.596	530.307	-0.028	-0.068
-217.582	-67.038	0.174	0.069
-216.567	-200.000	0.082	0.498
-215.552	-200.000	0.011	0.070
-214.538	-200.000	0.040	0.301
-213.523	-81.817	-0.371	0.123
-212.509	290.014	0.164	0.301
-211.494	244.689	0.111	-0.189
-210.479	-61.273	-0.284	-0.121
-209.465	-79.354	-0.108	0.037
-208.450	209.741	0.279	-0.441
-207.436	-158.061	-0.375	-0.022
-206.421	121.486	-0.033	-0.041
-205.406	51.760	-0.402	0.386
-204.392	-101.177	0.300	0.074
-203.377	671.711	-0.108	0.283
-202.363	132.363	-0.206	-0.268
-201.348	245.946	0.135	0.229
-200.333	49.277	0.075	-0.071
-199.319	-85.348	0.204	-0.064
-198.304	13.974	0.135	-0.106
-197.290	-99.509	-0.080	0.020
-196.275	36.705	0.099	-0.089
-195.260	-46.097	-0.195	-0.097
-194.246	-9.564	0.220	-0.148
-193.231	-200.000	-0.002	-0.087
-192.217	299.879	-0.093	0.173
-191.202	25.550	-0.095	0.080
-190.187	127.847	-0.206	0.264
-189.173	-50.133	0.410	-0.196
-188.158	-200.000	-0.028	0.291
-187.144	-200.000	0.013	0.057
-186.129	-58.927	0.226	0.098
-185.114	-8.101	-0.226	0.154
-184.100	142.804	-0.168	-0.225
-183.085	800.000	-0.005	-0.023
-182.071	-118.810	0.127	-0.023
-181.056	16.126	0.140	-0.111
-180.042	680.484	0.072	-0.188
-179.027	800.000	0.060	-0.174
-178.012	800.000	-0.056	0.205
-176.998	-145.669	0.167	0.015
-175.983	98.490	0.036	-0.042
-174.969	68.165	0.065	-0.067
-173.954	-47.025	0.111	-0.055
-172.939	-200.000	0.017	-0.244
-171.925	254.975	-0.112	-0.194
-170.910	-171.397	-0.355	0.012
-169.896	-111.818	-0.430	-0.088
-168.881	254.297	-0.117	-0.202
-167.866	268.209	0.109	0.193
-166.852	800.000	-0.111	0.441
-165.837	137.596	0.005	0.007
-164.823	-200.000	-0.030	-0.216
-163.808	800.000	0.053	0.174
-162.793	-59.247	0.268	-0.117
-161.779	61.278	0.235	0.235
-160.764	-148.766	-0.041	-0.003
-159.750	-200.000	-0.032	0.464
-158.735	682.480	0.065	0.170
-157.720	-107.774	-0.167	0.037
-156.706	33.961	-0.217	0.191
-155.691	-114.763	-0.200	0.038
-154.677	-135.778	0.365	0.044
-153.662	-200.000	-0.036	0.347
-152.647	129.171	-0.188	0.242
-151.633	94.383	0.280	-0.321
-150.618	-200.000	-0.057	0.543
-149.604	95.890	0.199	0.229
-148.589	-128.182	-0.226	0.033
-147.574	21.049	-0.184	-0.150
-146.560	39.909	0.225	-0.204
-145.545	367.052	0.145	0.295
-144.531	21.199	-0.114	0.093
-143.516	800.000	0.010	-0.029
-142.502	315.208	-0.084	-0.160
-141.487	11.933	0.191	0.148
-140.472	87.643	-0.184	0.205
-139.458	212.735	-0.148	0.236
-138.443	-200.000	0.043	0.264
-137.429	32.370	-0.073	-0.063
-136.414	-108.081	0.281	-0.061
-135.399	-83.023	-0.439	-0.142
-134.385	-200.000	-0.008	0.081
-133.370	-94.672	0.234	-0.064
-132.356	800.000	-0.033	-0.093
-131.341	-58.226	0.022	0.010
-130.326	-26.036	-0.142	-0.084
-129.312	218.176	0.071	0.113
-128.297	-200.000	0.034	-0.170
-127.283	162.220	-0.305	0.431
-126.268	800.000	0.021	-0.064
-125.253	95.442	0.068	-0.078
-124.239	-200.000	-0.014	-0.071
-123.224	28.772	0.215	0.184
-122.210	499.312	0.164	0.381
-121.195	-139.897	0.101	-0.011
