DTS Sentinel unit serial number:	SN413079Multiplexer serial number:	ORYXHardware model number:	OX4-SRSoftware version number:	ORYX F/W v4.00 Oryx Data Collector v3.7.2.0data status	okinstallation	princeton_trtdifferential loss correction	single-endedforward channel	channel 4reverse channel	N/Adate	2019/09/11time	22:23:11forward acquisition time	60.00reverse acquisition time	0.00gamma	496.2192k internal	0.2307k external	0.2307temperature offset calibration	1.0075default loss term (dB/km)	0.3790temperature slope calibration	1.0000multiplexer offset coefficient	1.0000multiplexer slope coefficient	1.0000fibre end	0.00T internal ref (°C)	35.19T ext. ref 1 (°C)	1.77T ext. ref 2 (°C)	29.14length (m)	temperature (°C)	Stokes	anti-Stokes-747.200	269.193	-0.065	0.116
-746.185	-173.524	0.297	0.009
-745.171	-101.568	-0.318	-0.079
-744.156	96.893	0.252	0.294
-743.142	-200.000	-0.078	0.418
-742.127	325.322	0.096	0.187
-741.112	76.482	0.169	-0.182
-740.098	-148.357	0.322	-0.027
-739.083	-163.249	-0.145	-0.007
-738.069	-12.356	-0.141	-0.094
-737.054	-133.061	-0.249	-0.032
-736.039	-106.345	-0.176	0.040
-735.025	178.567	0.172	0.255
-734.010	-13.416	-0.313	0.206
-732.996	-200.000	0.003	0.091
-731.981	-61.592	0.197	0.084
-730.966	800.000	-0.088	-0.334
-729.952	-171.302	-0.159	-0.005
-728.937	101.554	-0.369	0.437
-727.923	339.935	0.098	-0.195
-726.908	-157.862	-0.255	-0.015
-725.894	-77.373	0.122	-0.043
-724.879	-200.000	-0.018	0.368
-723.864	396.929	0.038	-0.080
-722.850	18.675	-0.196	-0.159
-721.835	646.072	0.064	0.166
-720.821	-96.479	-0.225	-0.060
-719.806	-138.622	-0.353	0.039
-718.791	800.000	-0.072	-0.218
-717.777	-91.284	0.242	-0.070
-716.762	-200.000	-0.010	-0.259
-715.748	134.937	0.224	-0.296
-714.733	14.865	-0.216	0.171
-713.718	57.510	0.231	0.229
-712.704	-200.000	0.008	-0.540
-711.689	-198.365	0.239	0.001
-710.675	367.797	-0.181	0.371
-709.660	800.000	-0.032	0.119
-708.645	-145.162	0.260	-0.024
-707.631	28.450	-0.245	0.210
-706.616	63.405	0.092	-0.094
-705.602	30.901	0.211	-0.183
-704.587	-115.323	0.204	0.039
-703.572	-39.023	0.099	0.053
-702.558	190.891	-0.115	0.175
-701.543	-200.000	0.025	-0.359
-700.529	-200.000	-0.025	-0.141
-699.514	-200.000	0.006	0.035
-698.499	800.000	0.043	-0.181
-697.485	41.172	0.256	-0.235
-696.470	-78.454	-0.561	0.195
-695.456	-161.338	0.176	0.009
-694.441	-200.000	0.002	-0.279
-693.426	-144.012	-0.038	-0.004
-692.412	-200.000	0.036	0.200
-691.397	90.375	0.041	-0.046
-690.383	-200.000	-0.007	-0.156
-689.368	68.836	-0.090	0.094
-688.354	10.382	0.072	0.056
-687.339	-60.757	-0.247	-0.106
-686.324	18.235	0.078	-0.063
-685.310	-60.729	-0.241	0.104
-684.295	173.423	0.170	-0.249
-683.281	20.747	0.095	-0.078
-682.266	800.000	0.089	0.309
-681.251	39.294	-0.243	0.221
-680.237	-5.879	-0.150	0.104
-679.222	800.000	-0.004	0.015
-678.208	277.024	-0.156	0.281
-677.193	83.960	-0.086	-0.096
-676.178	-38.311	-0.085	0.046
-675.164	-81.880	0.231	-0.077
-674.149	466.139	-0.096	-0.218
-673.135	-40.750	0.167	-0.088
-672.120	48.301	-0.170	-0.161
-671.105	-93.022	-0.146	-0.041
-670.091	-51.576	-0.078	0.037
-669.076	737.093	0.101	-0.275
-668.062	-200.000	0.019	-0.317
-667.047	-200.000	-0.043	-0.297
-666.032	363.753	0.095	-0.193
-665.018	-200.000	0.029	-0.268
-664.003	47.574	0.122	0.115
-662.989	800.000	-0.040	-0.123
-661.974	106.368	-0.172	0.207
-660.959	-64.622	-0.243	-0.100
-659.945	22.204	-0.104	-0.086
-658.930	-17.190	0.140	0.089
-657.916	-200.000	-0.021	-0.332
-656.901	12.398	-0.045	0.035
-655.886	-72.379	0.052	-0.020
-654.872	-177.516	0.475	0.012
-653.857	391.377	0.022	0.045
-652.843	-38.824	-0.275	-0.147
-651.828	75.197	-0.145	-0.154
-650.814	77.845	-0.138	0.149
-649.799	277.162	0.155	0.279
-648.784	87.493	0.180	0.202
-647.770	-92.828	-0.368	-0.104
-646.755	-124.870	-0.227	-0.036
-645.741	-200.000	-0.080	-0.463
-644.726	46.009	-0.143	-0.135
-643.711	124.320	0.137	0.175
-642.697	-71.408	-0.341	-0.129
-641.682	23.987	-0.183	0.153
-640.668	-200.000	0.015	-0.120
-639.653	-200.000	-0.002	0.021
-638.638	-53.847	0.094	0.043
-637.624	103.639	-0.119	0.142
-636.609	800.000	-0.068	0.229
-635.595	-2.049	0.122	-0.087
-634.580	694.555	-0.093	0.247
-633.565	800.000	-0.100	0.312
-632.551	764.978	-0.130	-0.357
-631.536	751.142	0.043	0.118
-630.522	13.584	0.071	0.056
-629.507	647.127	-0.102	-0.265
-628.492	-200.000	0.018	-0.090
-627.478	-200.000	0.024	-0.141
-626.463	-200.000	0.013	-0.296
-625.449	-94.473	0.139	0.038
-624.434	-200.000	0.001	-0.262
-623.419	-11.418	-0.436	0.290
-622.405	247.238	-0.093	-0.160
-621.390	-200.000	0.033	-0.201
-620.376	-200.000	-0.027	-0.301
-619.361	-69.199	-0.279	-0.109
-618.346	-54.520	0.162	-0.074
-617.332	-54.593	-0.195	-0.089
-616.317	11.805	0.289	0.225
-615.303	-42.662	0.253	-0.131
-614.288	-77.068	0.172	0.061
-613.273	34.194	-0.146	-0.129
-612.259	-95.312	0.131	0.036
-611.244	-32.080	0.066	0.037
-610.230	-137.739	0.495	0.056
-609.215	-200.000	-0.032	-0.197
-608.201	130.708	0.193	0.250
-607.186	800.000	-0.073	-0.218
-606.171	-70.922	-0.303	-0.116
-605.157	-60.807	0.404	-0.173
-604.142	56.634	-0.184	0.181
-603.128	-1.168	-0.323	-0.231
-602.113	278.822	0.147	-0.265
-601.098	-200.000	0.037	0.283
-600.084	372.935	0.179	-0.368
-599.069	418.179	0.105	0.226
-598.055	-31.026	-0.266	0.152
-597.040	50.317	-0.208	-0.198
-596.025	-200.000	0.062	-0.343
-595.011	-68.261	-0.365	-0.143
-593.996	800.000	0.025	0.109
-592.982	-142.980	0.280	-0.027
-591.967	-150.717	-0.201	0.015
-590.952	-127.171	-0.095	-0.014
-589.938	-58.196	0.305	0.134
-588.923	246.082	-0.045	-0.077
-587.909	-11.554	-0.186	-0.123
-586.894	-200.000	-0.007	-0.144
-585.879	-200.000	0.049	-0.404
-584.865	636.998	-0.033	0.085
-583.850	87.706	0.211	0.236
-582.836	158.520	-0.169	0.238
-581.821	-102.508	-0.119	-0.029
-580.806	800.000	0.039	0.125
-579.792	-200.000	-0.018	-0.185
-578.777	-102.180	0.316	-0.077
-577.763	54.229	0.175	-0.170
-576.748	800.000	0.007	-0.022
-575.733	-162.343	-0.234	0.012
-574.719	-96.560	0.149	-0.040
-573.704	800.000	0.014	-0.042
-572.690	-200.000	-0.058	0.271
-571.675	-133.851	0.297	-0.037
-570.661	-55.721	0.157	0.071
-569.646	-46.137	0.255	-0.127
-568.631	800.000	0.112	0.380
-567.617	800.000	0.086	0.283
-566.602	4.174	-0.095	-0.070
-565.588	-124.980	-0.207	0.032
-564.573	93.971	-0.081	-0.093
-563.558	800.000	0.058	-0.175
-562.544	800.000	0.039	-0.122
-561.529	68.974	-0.193	-0.200
-560.515	191.524	-0.106	0.162
-559.500	-28.990	-0.222	-0.128
-558.485	-54.396	-0.115	-0.053
-557.471	43.795	0.207	-0.191
-556.456	43.650	0.318	-0.293
-555.442	-52.971	-0.115	0.053
-554.427	-98.619	-0.169	-0.044
-553.412	-200.000	0.000	0.132
-552.398	-200.000	-0.020	0.268
-551.383	800.000	-0.070	-0.220
-550.369	-200.000	0.017	0.248
-549.354	800.000	-0.055	0.180
-548.339	1.098	0.189	-0.137
-547.325	-70.529	-0.186	-0.071
-546.310	335.613	0.150	-0.294
-545.296	-200.000	0.025	-0.326
-544.281	-200.000	-0.054	-0.297
-543.266	-109.836	0.130	-0.028
-542.252	800.000	-0.066	0.202
-541.237	32.201	-0.204	-0.178
-540.223	-200.000	-0.035	-0.438
-539.208	800.000	-0.053	0.178
-538.193	125.653	0.143	0.182
-537.179	-141.961	-0.563	0.057
-536.164	800.000	0.141	-0.509
-535.150	-18.883	0.220	-0.138
-534.135	242.937	-0.078	0.131
-533.121	-42.537	0.238	0.122
-532.106	-29.965	0.132	-0.076
-531.091	121.232	0.069	-0.086
-530.077	34.305	0.069	0.061
-529.062	-153.390	-0.094	-0.007
-528.048	104.296	-0.166	-0.197
-527.033	199.130	-0.079	0.122
-526.018	-100.390	0.278	-0.069
-525.004	-200.000	0.005	-0.046
-523.989	800.000	-0.052	0.156
-522.975	800.000	0.038	0.110
-521.960	-200.000	-0.031	-0.190
-520.945	-74.045	-0.283	-0.103
-519.931	279.640	0.092	-0.165
-518.916	-122.191	0.478	-0.079
-517.902	800.000	-0.038	-0.145
-516.887	800.000	0.076	-0.261
-515.872	279.654	0.084	0.152
-514.858	800.000	-0.074	0.247
-513.843	-200.000	0.061	0.288
-512.829	-110.054	-0.185	-0.039
-511.814	-3.834	0.154	0.108
-510.799	-200.000	0.031	0.167
-509.785	-121.204	0.198	-0.033
-508.770	-39.705	-0.110	0.058
-507.756	470.493	0.014	-0.032
-506.741	-200.000	0.006	0.079
-505.726	800.000	-0.087	0.246
-504.712	211.177	-0.054	0.086
-503.697	293.346	-0.146	-0.269
-502.683	-37.469	0.057	-0.031
-501.668	-108.692	0.377	-0.081
-500.653	-200.000	0.008	0.153
-499.639	-7.244	-0.037	-0.025
-498.624	177.235	0.194	-0.284
-497.610	438.603	-0.092	0.203
-496.595	-108.205	-0.347	0.076
-495.581	-189.301	-0.071	-0.001
-494.566	-160.578	0.340	0.018
-493.551	800.000	-0.055	-0.187
-492.537	-36.026	-0.022	0.012
-491.522	35.026	0.187	0.165
-490.508	272.378	0.069	0.123
-489.493	-200.000	-0.043	0.260
-488.478	161.312	-0.021	-0.030
-487.464	592.403	0.032	0.080
-486.449	-52.686	-0.127	-0.059
-485.435	-174.501	-0.168	-0.005
-484.420	631.617	0.049	-0.125
-483.405	800.000	0.060	0.264
-482.391	600.036	0.087	-0.218
-481.376	202.931	0.286	-0.445
-480.362	-161.283	-0.277	-0.014
-479.347	-177.539	-0.209	-0.005
-478.332	-200.000	0.024	0.313
-477.318	294.732	-0.197	0.362
-476.303	-181.181	-0.219	-0.004
-475.289	256.709	-0.122	-0.212
-474.274	-9.629	0.298	0.200
-473.259	-200.000	-0.054	0.289
-472.245	-200.000	0.010	0.269
-471.230	800.000	-0.090	-0.332
-470.216	-8.473	0.113	0.077
-469.201	175.128	-0.157	0.228
-468.186	229.601	0.070	0.114
-467.172	-200.000	0.028	0.150
-466.157	-200.000	0.060	0.381
-465.143	-200.000	-0.069	-0.320
-464.128	-200.000	0.035	-0.232
-463.113	-111.381	0.078	0.016
-462.099	-67.285	-0.046	0.018
-461.084	-200.000	-0.007	-0.227
-460.070	36.411	-0.242	-0.215
-459.055	476.348	-0.116	0.263
-458.040	-52.346	0.442	0.206
-457.026	15.383	0.098	0.078
-456.011	-20.754	-0.121	-0.075
-454.997	-110.653	-0.234	-0.049
-453.982	-22.017	-0.061	-0.037
-452.968	800.000	-0.019	-0.057
-451.953	64.873	0.220	0.223
-450.938	-74.888	-0.094	-0.034
-449.924	-200.000	-0.007	-0.067
-448.909	-128.109	0.290	-0.042
-447.895	800.000	0.104	0.409
-446.880	-101.708	-0.356	-0.087
-445.865	238.405	-0.290	0.484
-444.851	548.958	0.196	0.472
-443.836	-75.569	-0.298	0.107
-442.822	66.135	-0.013	-0.013
-441.807	325.216	0.089	0.170
-440.792	29.998	0.019	0.017
-439.778	800.000	0.114	0.370
-438.763	-17.554	-0.193	-0.122
-437.749	800.000	0.075	-0.255
-436.734	-160.897	0.312	0.017
-435.719	-200.000	0.019	0.091
-434.705	-200.000	0.047	0.247
-433.690	-142.048	0.151	-0.015
-432.676	115.782	0.084	0.103
-431.661	-100.559	-0.034	-0.008
-430.646	190.658	-0.146	0.220
-429.632	-200.000	0.000	-0.016
-428.617	22.920	0.113	0.093
-427.603	299.245	-0.144	0.267
-426.588	-153.025	0.219	0.015
-425.573	-200.000	0.017	0.258
-424.559	-27.238	-0.183	-0.107
-423.544	206.389	-0.103	0.161
-422.530	-200.000	0.010	0.331
-421.515	600.141	0.136	0.338
-420.500	800.000	0.087	-0.359
-419.486	-32.626	0.287	-0.161
-418.471	800.000	0.105	-0.360
-417.457	-200.000	0.014	-0.099
-416.442	715.524	0.116	-0.309
-415.428	-135.324	0.103	0.012
-414.413	76.038	-0.028	-0.030
-413.398	750.724	-0.157	0.426
-412.384	-79.219	-0.056	-0.019
-411.369	577.196	0.084	0.205
-410.355	624.080	-0.119	0.300
-409.340	-80.126	0.099	0.033
-408.325	165.589	-0.095	-0.135
-407.311	22.577	0.151	-0.124
-406.296	-200.000	0.080	-0.703
-405.282	281.022	-0.092	0.165
-404.267	-200.000	-0.009	0.451
-403.252	-131.380	0.296	0.039
-402.238	-124.511	0.205	0.032
-401.223	-116.993	0.039	-0.007
-400.209	-28.863	-0.353	-0.204
-399.194	292.623	0.085	0.155
-398.179	405.520	-0.041	-0.086
-397.165	-200.000	0.001	-0.013
-396.150	-166.361	-0.224	-0.009
-395.136	-47.622	0.229	0.112
-394.121	-83.345	0.121	-0.039
-393.106	132.194	-0.116	0.150
-392.092	31.424	0.208	-0.179
-391.077	-88.614	0.255	0.076
-390.063	-200.000	0.044	0.258
-389.048	800.000	0.113	0.356
-388.033	143.239	-0.272	-0.363
-387.019	-81.644	0.195	0.064
-386.004	278.079	0.068	-0.121
-384.990	-56.240	-0.228	-0.101
-383.975	-61.036	0.059	0.025
-382.960	-0.034	0.214	-0.153
-381.946	800.000	-0.086	-0.239
-380.931	800.000	-0.021	0.058
-379.917	-200.000	0.005	0.156
-378.902	-200.000	0.032	0.330
-377.888	538.820	-0.067	0.159
-376.873	-71.371	0.043	-0.016
-375.858	-81.007	0.152	0.050
-374.844	-103.417	0.616	0.145
-373.829	-172.921	0.380	-0.012
-372.815	-126.440	0.364	-0.054
-371.800	-60.648	-0.459	0.195
-370.785	155.850	-0.188	-0.259
-369.771	-110.772	-0.381	0.079
-368.756	-128.150	0.254	0.036
-367.742	36.697	-0.264	0.234
-366.727	48.445	0.069	0.065
-365.712	189.604	-0.186	-0.280
-364.698	-200.000	-0.025	0.190
-363.683	800.000	-0.087	-0.314
-362.669	-200.000	0.064	-0.336
-361.654	60.555	0.027	-0.027
-360.639	7.850	0.102	0.077
-359.625	-102.998	0.236	0.056
-358.610	800.000	0.083	-0.311
-357.596	-47.124	-0.229	0.112
-356.581	800.000	-0.096	-0.415
-355.566	-8.930	0.314	0.211
-354.552	110.336	-0.139	0.167
-353.537	-135.672	-0.058	-0.007
-352.523	115.320	0.006	0.007
-351.508	507.967	0.057	0.132
-350.493	800.000	-0.063	0.247
-349.479	800.000	-0.096	-0.400
-348.464	-200.000	-0.050	-0.396
-347.450	-29.075	-0.128	0.074
-346.435	182.606	0.097	-0.143
-345.420	-16.235	-0.202	-0.128
-344.406	800.000	-0.161	-0.485
-343.391	92.800	-0.121	-0.137
-342.377	386.268	0.071	0.147
-341.362	-80.107	0.353	-0.118
-340.348	-171.516	-0.177	-0.006
-339.333	324.157	-0.154	0.295
-338.318	-9.128	0.066	0.044
-337.304	800.000	-0.012	0.034
-336.289	-200.000	0.007	0.219
-335.275	-200.000	-0.009	-0.059
-334.260	59.396	0.145	-0.143
-333.245	800.000	0.076	0.233
-332.231	131.806	-0.192	0.247
-331.216	-200.000	0.039	-0.331
-330.202	69.835	0.099	0.102
-329.187	-85.386	0.302	-0.094
-328.172	800.000	-0.075	-0.208
-327.158	-200.000	0.096	-0.612
-326.143	-20.843	-0.180	-0.110
-325.129	-200.000	-0.038	0.199
-324.114	-118.217	-0.194	0.035
-323.099	475.678	-0.032	-0.073
-322.085	-6.713	0.134	0.091
-321.070	-99.872	-0.318	-0.079
-320.056	-74.016	0.189	0.068
-319.041	-65.097	0.053	0.022
-318.026	-200.000	-0.042	-0.535
-317.012	-125.258	0.481	0.074
-315.997	219.469	-0.136	0.218
-314.983	-23.795	0.290	0.174
-313.968	38.170	-0.207	-0.184
-312.953	-70.580	0.148	-0.056
-311.939	171.343	-0.052	-0.074
-310.924	-34.484	-0.185	-0.101
-309.910	-99.532	-0.020	0.005
-308.895	527.793	-0.060	-0.140
-307.880	-200.000	-0.082	-0.433
-306.866	-92.037	-0.315	0.089
-305.851	695.420	0.025	-0.065
-304.837	-35.671	0.154	0.084
-303.822	308.012	-0.053	-0.099
-302.807	-64.039	-0.071	0.029
-301.793	87.881	0.168	0.186
-300.778	-72.363	0.374	-0.138
-299.764	481.817	0.147	0.334
-298.749	396.242	-0.083	0.173
-297.735	800.000	0.086	-0.253
-296.720	-200.000	0.001	-0.183
-295.705	-71.865	0.296	-0.110
-294.691	312.108	0.078	-0.146
-293.676	-94.574	-0.288	0.078
-292.662	123.326	0.095	-0.120
-291.647	800.000	0.111	-0.418
-290.632	-132.466	0.195	0.025
-289.618	25.815	0.228	-0.190
-288.603	-20.645	0.146	-0.089
-287.589	-13.314	0.123	-0.080
-286.574	800.000	-0.048	-0.151
-285.559	386.555	-0.023	0.047
-284.545	52.468	-0.103	-0.098
-283.530	-200.000	0.014	-0.209
-282.516	-200.000	0.047	0.477
-281.501	-200.000	0.043	-0.210
-280.486	65.602	0.081	0.082
-279.472	-111.927	-0.403	0.081
-278.457	-100.685	0.119	0.029
-277.443	30.535	0.056	-0.048
-276.428	-200.000	0.038	0.277
-275.413	664.418	-0.058	0.149
-274.399	51.301	0.184	0.175
-273.384	800.000	0.059	0.164
-272.370	-200.000	-0.011	-0.049
-271.355	-200.000	0.003	0.102
-270.340	-200.000	-0.083	0.413
-269.326	545.638	0.113	-0.270
-268.311	547.535	0.088	0.211
-267.297	90.532	-0.093	0.104
-266.282	-49.958	0.111	-0.053
-265.267	20.418	-0.230	0.185
-264.253	222.692	0.080	-0.128
-263.238	-7.412	0.156	0.106
-262.224	-200.000	-0.000	0.156
-261.209	17.547	-0.153	-0.121
-260.195	8.575	-0.217	0.163
-259.180	-69.902	-0.155	0.059
-258.165	-114.064	0.099	-0.019
-257.151	186.286	0.070	0.105
-256.136	376.833	-0.124	0.252
-255.122	-200.000	0.012	-0.069
-254.107	-33.634	0.288	-0.159
-253.092	-13.292	-0.303	-0.196
-252.078	-22.939	0.025	0.015
-251.063	84.933	-0.098	0.107
-250.049	800.000	-0.022	-0.076
-249.034	-7.120	-0.391	0.264
-248.019	139.925	-0.260	0.341
-247.005	29.167	0.033	-0.028
-245.990	-113.072	-0.015	-0.003
-244.976	318.442	-0.219	0.414
-243.961	-101.405	-0.104	0.025
-242.946	739.992	0.112	-0.299
-241.932	-85.829	-0.284	-0.088
-240.917	72.166	0.164	-0.170
-239.903	6.422	-0.142	-0.105
-238.888	800.000	-0.065	-0.251
-237.873	-47.365	-0.208	-0.101
-236.859	-200.000	-0.029	-0.198
-235.844	-70.633	-0.134	-0.050
-234.830	-39.799	-0.371	0.193
-233.815	148.682	-0.051	0.069
-232.800	-125.055	0.156	-0.024
-231.786	-200.000	-0.005	0.060
-230.771	800.000	0.069	0.240
-229.757	-68.650	0.219	0.085
-228.742	237.190	-0.168	-0.277
-227.727	-40.488	0.357	0.185
-226.713	-153.593	-0.055	-0.004
-225.698	22.942	-0.275	0.225
-224.684	-200.000	-0.019	-0.161
-223.669	45.028	-0.131	0.120
-222.655	12.212	-0.228	-0.175
-221.640	100.258	0.208	0.241
-220.625	43.237	-0.051	-0.047
-219.611	797.099	-0.098	-0.268
-218.596	122.144	0.046	-0.057
-217.582	-93.839	-0.433	-0.119
-216.567	-125.808	-0.101	-0.015
-215.552	84.851	0.276	-0.302
-214.538	800.000	0.058	0.202
-213.523	470.803	0.074	0.165
-212.509	-147.772	-0.044	-0.004
-211.494	-200.000	0.015	0.385
-210.479	-200.000	-0.052	0.230
-209.465	-200.000	0.011	0.276
-208.450	800.000	-0.094	0.271
-207.436	86.532	-0.157	-0.172
-206.421	-174.008	0.276	0.008
-205.406	-130.853	0.367	0.049
-204.392	-150.365	0.113	-0.009
-203.377	87.907	0.204	0.226
-202.363	-21.542	-0.202	0.123
-201.348	-35.549	0.107	0.058
-200.333	800.000	-0.033	0.123
-199.319	492.289	-0.059	0.135
-198.304	-191.909	0.419	0.004
-197.290	-40.055	-0.111	-0.058
-196.275	-96.890	-0.041	-0.011
-195.260	34.814	-0.073	0.063
-194.246	296.270	-0.165	0.301
-193.231	49.969	-0.157	0.147
-192.217	-200.000	-0.021	-0.146
-191.202	800.000	-0.005	-0.023
-190.187	-200.000	-0.006	-0.057
-189.173	155.679	-0.189	-0.258
-188.158	-200.000	-0.059	-0.356
-187.144	451.027	-0.056	-0.123
-186.129	601.886	-0.147	0.363
-185.114	-97.959	0.142	-0.037
-184.100	28.216	-0.076	-0.064
-183.085	-200.000	0.008	0.137
-182.071	-70.688	0.074	-0.028
-181.056	183.900	0.180	-0.264
-180.042	46.068	-0.158	-0.146
-179.027	-171.736	-0.314	0.010
-178.012	800.000	0.034	0.138
-176.998	-72.991	0.250	0.091
-175.983	120.737	-0.096	0.118
-174.969	120.720	0.037	-0.046
-173.954	-165.150	-0.339	-0.015
-172.939	-82.772	0.118	0.038
-171.925	-200.000	-0.009	-0.063
-170.910	-74.568	-0.315	-0.113
-169.896	-177.193	0.177	-0.004
-168.881	-111.403	-0.173	0.035
-167.866	-114.761	0.100	0.019
-166.852	-200.000	0.035	0.330
-165.837	-119.889	-0.402	-0.069
-164.823	-35.017	0.422	-0.229
-163.808	-200.000	0.009	-0.171
-162.793	68.702	0.034	-0.034
-161.779	-61.061	-0.091	0.038
-160.764	245.121	0.106	-0.178
-159.750	312.436	-0.107	0.200
-158.735	800.000	0.036	0.126
-157.720	39.137	-0.224	-0.199
-156.706	-1.869	0.117	0.082
-155.691	-52.051	0.286	-0.132
-154.677	-200.000	-0.024	-0.400
-153.662	-84.927	-0.179	0.056
-152.647	-200.000	-0.021	0.433
-151.633	-98.767	0.093	0.024
-150.618	-53.952	0.154	-0.070
-149.604	-65.055	-0.111	-0.045
-148.589	-200.000	-0.014	0.075
-147.574	-5.949	-0.093	0.063
-146.560	-9.091	0.245	0.163
-145.545	-162.375	0.172	0.009
-144.531	683.293	0.012	-0.032
-143.516	33.168	0.128	0.110
-142.502	191.545	-0.219	0.327
-141.487	-68.032	-0.185	-0.072
-140.472	-200.000	-0.039	0.237
-139.458	-125.398	-0.161	0.024
-138.443	-21.079	-0.341	-0.207
-137.429	-64.512	-0.253	-0.102
-136.414	163.052	-0.097	-0.135
-135.399	710.500	0.111	-0.293
-134.385	-39.784	-0.263	-0.137
-133.370	655.496	0.114	-0.290
-132.356	776.557	0.030	0.081
-131.341	67.861	-0.102	0.103
-130.326	3.136	-0.031	-0.022
-129.312	-58.277	-0.085	0.037
-128.297	-37.448	0.065	-0.034
-127.283	-45.360	0.217	-0.107
-126.268	-200.000	-0.034	0.369
-125.253	360.239	-0.048	-0.095
-124.239	181.833	0.133	-0.194
-123.224	537.798	-0.056	0.133
-122.210	-93.854	0.035	-0.009
