DTS Sentinel unit serial number:	SN413079Multiplexer serial number:	ORYXHardware model number:	OX4-SRSoftware version number:	ORYX F/W v4.00 Oryx Data Collector v3.7.2.0data status	okinstallation	princeton_trtdifferential loss correction	single-endedforward channel	channel 4reverse channel	N/Adate	2019/09/12time	00:39:11forward acquisition time	60.00reverse acquisition time	0.00gamma	496.2192k internal	0.2308k external	0.2308temperature offset calibration	1.0092default loss term (dB/km)	0.3790temperature slope calibration	1.0000multiplexer offset coefficient	1.0000multiplexer slope coefficient	1.0000fibre end	0.00T internal ref (°C)	33.31T ext. ref 1 (°C)	2.05T ext. ref 2 (°C)	27.95length (m)	temperature (°C)	Stokes	anti-Stokes-747.200	145.713	0.107	0.146
-746.185	28.486	-0.351	0.301
-745.171	-133.137	0.270	-0.035
-744.156	-81.144	-0.105	0.035
-743.142	608.005	0.057	0.144
-742.127	-49.835	-0.128	0.062
-741.112	-24.613	-0.400	0.242
-740.098	27.105	-0.169	-0.144
-739.083	-65.707	0.114	-0.047
-738.069	112.693	-0.083	0.102
-737.054	2.412	0.095	-0.070
-736.039	-97.731	-0.230	-0.061
-735.025	-126.673	0.082	0.012
-734.010	-200.000	-0.003	-0.326
-732.996	800.000	-0.112	0.356
-731.981	29.430	-0.262	0.226
-730.966	-200.000	-0.008	0.187
-729.952	30.673	-0.254	-0.221
-728.937	229.863	-0.102	0.169
-727.923	-194.544	-0.137	-0.001
-726.908	154.760	-0.129	0.180
-725.894	-200.000	-0.015	-0.210
-724.879	-200.000	-0.020	0.111
-723.864	41.888	-0.091	-0.084
-722.850	9.725	-0.069	-0.054
-721.835	-127.463	0.342	-0.050
-720.821	-85.090	0.165	-0.052
-719.806	-56.125	-0.405	0.183
-718.791	-112.904	-0.326	-0.066
-717.777	-4.416	-0.092	-0.064
-716.762	-93.252	0.409	-0.115
-715.748	719.738	-0.077	0.208
-714.733	8.611	-0.189	-0.145
-713.718	-200.000	0.015	0.135
-712.704	-102.405	0.057	-0.014
-711.689	122.388	0.191	0.243
-710.675	-139.009	-0.220	0.024
-709.660	207.155	-0.067	0.107
-708.645	-200.000	-0.050	0.310
-707.631	-102.620	-0.206	-0.050
-706.616	43.979	0.223	0.207
-705.602	-75.824	-0.283	-0.102
-704.587	-200.000	-0.008	0.042
-703.572	26.965	0.100	0.085
-702.558	-200.000	0.051	-0.359
-701.543	-84.339	-0.340	-0.109
-700.529	170.719	0.251	-0.365
-699.514	-11.986	-0.202	0.135
-698.499	104.563	-0.206	0.247
-697.485	261.625	0.085	0.150
-696.470	-142.625	-0.346	-0.034
-695.456	-89.123	0.173	0.052
-694.441	-200.000	0.106	-0.511
-693.426	-92.051	-0.177	-0.051
-692.412	456.574	0.136	-0.306
-691.397	756.187	-0.038	-0.104
-690.383	0.626	0.087	-0.063
-689.368	-200.000	-0.048	-0.331
-688.354	225.335	-0.064	0.105
-687.339	-57.998	0.167	0.074
-686.324	-146.416	-0.139	0.012
-685.310	194.333	-0.074	-0.114
-684.295	579.524	0.119	-0.296
-683.281	-117.954	0.224	0.041
-682.266	-200.000	0.002	0.023
-681.251	245.147	0.142	0.241
-680.237	-200.000	0.007	-0.102
-679.222	297.137	-0.028	0.052
-678.208	181.037	0.104	-0.155
-677.193	-200.000	-0.051	-0.394
-676.178	401.172	0.097	0.207
-675.164	800.000	-0.028	-0.100
-674.149	13.736	0.238	-0.188
-673.135	-200.000	0.059	-0.459
-672.120	800.000	-0.089	-0.309
-671.105	-6.825	-0.112	0.077
-670.091	32.138	-0.072	-0.063
-669.076	-63.460	-0.469	-0.195
-668.062	218.302	0.044	-0.072
-667.047	-43.452	0.188	0.096
-666.032	-160.294	-0.111	0.006
-665.018	261.195	-0.180	-0.316
-664.003	-140.029	0.393	0.042
-662.989	-82.301	-0.181	0.060
-661.974	-2.227	-0.430	0.305
-660.959	-54.875	-0.105	-0.048
-659.945	800.000	-0.061	0.185
-658.930	-72.805	-0.208	-0.078
-657.916	60.152	0.080	-0.080
-656.901	-107.608	-0.366	0.081
-655.886	-1.986	0.200	0.142
-654.872	-200.000	0.047	0.394
-653.857	-40.024	0.319	-0.168
-652.843	101.106	0.167	-0.196
-651.828	-200.000	0.022	-0.301
-650.814	22.321	0.175	-0.145
-649.799	-144.217	-0.218	-0.021
-648.784	-118.111	-0.232	-0.042
-647.770	378.243	-0.043	0.088
-646.755	-200.000	-0.037	-0.263
-645.741	-15.560	0.073	0.047
-644.726	95.487	0.115	0.132
-643.711	-27.565	0.091	-0.054
-642.697	45.178	-0.243	0.226
-641.682	328.546	-0.134	0.261
-640.668	-143.048	-0.076	-0.007
-639.653	-200.000	0.005	-0.083
-638.638	-80.799	0.364	-0.122
-637.624	187.902	-0.074	-0.111
-636.609	-27.175	-0.057	-0.034
-635.595	26.347	-0.105	-0.088
-634.580	-200.000	0.022	0.327
-633.565	800.000	-0.080	0.301
-632.551	-200.000	-0.068	0.385
-631.536	122.438	0.175	0.222
-630.522	279.193	0.158	-0.285
-629.507	-47.725	-0.124	0.061
-628.492	1.627	-0.188	-0.137
-627.478	-7.068	0.167	-0.114
-626.463	114.737	-0.406	0.500
-625.449	-19.657	0.051	0.032
-624.434	-200.000	-0.007	-0.212
-623.419	256.338	-0.103	0.179
-622.405	-137.334	0.228	0.026
-621.390	-119.515	0.052	0.009
-620.376	399.543	0.090	0.191
-619.361	-200.000	0.039	-0.307
-618.346	-200.000	-0.027	0.195
-617.332	252.632	-0.128	0.220
-616.317	-50.121	-0.319	0.153
-615.303	-131.297	-0.176	-0.024
-614.288	151.715	0.226	0.311
-613.273	-58.339	0.053	-0.023
-612.259	76.644	-0.165	-0.177
-611.244	-200.000	-0.014	-0.141
-610.230	-200.000	-0.007	0.141
-609.215	-14.748	0.213	-0.139
-608.201	-143.186	-0.341	0.033
-607.186	255.138	0.029	-0.050
-606.171	330.874	-0.138	-0.268
-605.157	277.833	0.096	0.172
-604.142	-116.143	0.271	-0.051
-603.128	172.827	-0.111	-0.162
-602.113	-200.000	0.028	0.146
-601.098	-38.638	-0.186	0.099
-600.084	442.672	0.170	-0.377
-599.069	-43.157	-0.537	-0.275
-598.055	-200.000	0.011	-0.152
-597.040	-19.801	-0.206	0.128
-596.025	-54.945	-0.203	0.093
-595.011	76.485	-0.214	-0.229
-593.996	307.338	0.055	-0.104
-592.982	11.699	0.123	-0.095
-591.967	-28.132	0.042	-0.025
-590.952	-102.664	-0.156	-0.038
-589.938	-10.307	0.237	-0.159
-588.923	-58.320	-0.313	-0.138
-587.909	-200.000	0.043	0.196
-586.894	170.498	-0.067	-0.097
-585.879	10.777	0.269	-0.207
-584.865	-17.615	0.073	0.046
-583.850	178.371	0.096	0.141
-582.836	-62.626	0.060	-0.025
-581.821	-200.000	-0.002	0.461
-580.806	143.958	-0.093	0.126
-579.792	6.305	-0.113	0.085
-578.777	-19.062	-0.324	-0.203
-577.763	-200.000	0.032	-0.224
-576.748	21.008	0.079	-0.064
-575.733	536.531	0.116	-0.279
-574.719	-21.159	-0.092	0.057
-573.704	-67.196	-0.559	0.222
-572.690	-159.011	-0.285	0.016
-571.675	800.000	-0.106	0.361
-570.661	13.973	0.308	-0.242
-569.646	-42.944	0.036	0.019
-568.631	-67.432	0.156	0.062
-567.617	103.882	0.092	-0.109
-566.602	69.513	0.169	-0.176
-565.588	-18.591	-0.239	-0.151
-564.573	-86.493	0.382	0.118
-563.558	-60.410	-0.166	-0.071
-562.544	-200.000	0.005	-0.423
-561.529	638.079	-0.117	-0.299
-560.515	-200.000	0.009	-0.338
-559.500	-82.978	0.275	-0.089
-558.485	-29.250	-0.301	0.174
-557.471	25.851	-0.334	-0.281
-556.456	136.637	0.009	-0.012
-555.442	11.310	-0.099	0.077
-554.427	800.000	0.029	0.092
-553.412	-200.000	0.042	0.416
-552.398	300.239	0.147	0.273
-551.383	169.022	-0.098	-0.141
-550.369	-109.867	-0.272	0.058
-549.354	239.192	-0.088	0.147
-548.339	86.724	-0.118	-0.132
-547.325	108.445	0.073	-0.088
-546.310	81.668	-0.153	0.167
-545.296	24.708	0.152	0.127
-544.281	30.053	0.219	-0.189
-543.266	-67.833	0.370	-0.146
-542.252	163.110	0.106	-0.151
-541.237	-18.696	0.219	-0.138
-540.223	-121.424	-0.299	-0.050
-539.208	-5.548	0.298	-0.206
-538.193	59.005	-0.173	0.171
-537.179	275.200	-0.124	0.222
-536.164	-200.000	-0.020	-0.156
-535.150	121.517	-0.030	0.038
-534.135	251.606	0.156	-0.267
-533.121	483.665	0.126	0.290
-532.106	225.563	0.202	0.330
-531.091	800.000	-0.071	0.277
-530.077	-200.000	0.126	0.610
-529.062	32.376	-0.190	0.166
-528.048	-54.126	-0.202	0.092
-527.033	800.000	-0.041	0.171
-526.018	34.320	-0.111	0.098
-525.004	-17.057	0.310	-0.197
-523.989	10.077	-0.186	-0.142
-522.975	77.002	-0.075	-0.080
-521.960	800.000	-0.054	-0.214
-520.945	800.000	0.023	0.078
-519.931	-137.016	-0.196	0.023
-518.916	-200.000	-0.019	-0.183
-517.902	-29.424	0.149	-0.086
-516.887	55.323	0.043	-0.042
-515.872	63.700	-0.130	-0.131
-514.858	800.000	-0.055	0.194
-513.843	-200.000	0.063	0.482
-512.829	-74.598	-0.263	-0.095
-511.814	-158.531	-0.038	0.002
-510.799	20.073	-0.309	0.251
-509.785	619.930	0.168	0.425
-508.770	-79.479	-0.165	-0.056
-507.756	33.000	-0.243	-0.212
-506.741	-60.338	0.124	0.053
-505.726	151.906	-0.243	-0.333
-504.712	-122.004	0.275	-0.046
-503.697	431.121	0.152	-0.330
-502.683	-112.630	-0.158	-0.032
-501.668	-200.000	-0.016	0.156
-500.653	-200.000	0.025	-0.300
-499.639	-38.530	0.080	-0.043
-498.624	-200.000	0.074	0.402
-497.610	-195.325	-0.276	-0.002
-496.595	800.000	-0.073	-0.290
-495.581	-91.942	0.363	-0.103
-494.566	92.920	-0.192	0.219
-493.551	-86.317	0.352	-0.109
-492.537	-111.646	-0.421	-0.086
-491.522	-73.768	0.186	0.068
-490.508	216.069	-0.045	-0.072
-489.493	-80.717	0.206	0.069
-488.478	46.477	-0.264	0.246
-487.464	-200.000	-0.012	0.247
-486.449	121.018	0.265	-0.331
-485.435	104.124	0.193	0.229
-484.420	-118.867	-0.255	0.045
-483.405	40.944	-0.340	0.308
-482.391	21.068	0.182	0.148
-481.376	-200.000	-0.013	0.229
-480.362	-200.000	-0.000	0.117
-479.347	800.000	0.071	-0.251
-478.332	-154.023	0.166	-0.011
-477.318	17.165	0.013	-0.010
-476.303	-123.242	0.449	-0.072
-475.289	99.254	-0.127	0.148
-474.274	-159.564	0.177	-0.010
-473.259	-101.059	0.305	0.075
-472.245	744.414	-0.107	-0.291
-471.230	-22.681	0.161	-0.098
-470.216	-133.129	-0.126	-0.016
-469.201	-200.000	-0.019	0.418
-468.186	-200.000	-0.006	0.292
-467.172	200.060	-0.241	0.372
-466.157	-50.320	-0.322	-0.153
-465.143	73.081	0.169	0.178
-464.128	179.435	0.251	-0.370
-463.113	142.141	0.123	-0.164
-462.099	-63.703	0.230	-0.095
-461.084	68.534	0.072	0.074
-460.070	116.494	-0.105	0.129
-459.055	508.404	0.082	0.191
-458.040	-60.061	-0.032	0.014
-457.026	-136.113	0.357	0.042
-456.011	-44.486	-0.274	-0.138
-454.997	-11.721	-0.099	-0.065
-453.982	785.494	0.015	0.041
-452.968	-200.000	0.022	-0.122
-451.953	35.983	0.136	-0.121
-450.938	325.233	0.155	-0.297
-449.924	181.877	-0.111	-0.164
-448.909	-200.000	0.016	-0.109
-447.895	130.011	-0.039	0.050
-446.880	-145.573	0.408	0.037
-445.865	-200.000	0.052	0.371
-444.851	-63.507	0.304	0.125
-443.836	96.816	0.275	0.316
-442.822	-1.876	0.290	0.205
-441.807	794.575	-0.102	-0.282
-440.792	640.613	-0.099	-0.254
-439.778	-144.297	0.058	-0.005
-438.763	-200.000	-0.072	-0.469
-437.749	-200.000	0.006	-0.048
-436.734	238.361	-0.101	0.169
-435.719	-200.000	0.056	0.309
-434.705	20.143	-0.169	-0.137
-433.690	-23.610	-0.165	-0.099
-432.676	-7.056	0.065	-0.044
-431.661	-46.156	0.220	-0.109
-430.646	-14.206	0.090	-0.059
-429.632	35.674	0.234	-0.207
-428.617	-200.000	-0.019	-0.149
-427.603	54.977	0.162	-0.157
-426.588	44.854	0.341	0.315
-425.573	-200.000	0.045	-0.276
-424.559	-114.435	0.176	0.034
-423.544	-86.719	0.276	-0.085
-422.530	3.436	-0.200	-0.146
-421.515	-123.483	-0.153	-0.024
-420.500	248.075	0.104	-0.176
-419.486	-200.000	0.066	-0.315
-418.471	-95.966	0.139	-0.037
-417.457	27.551	0.156	0.131
-416.442	0.943	0.098	-0.071
-415.428	-200.000	0.002	-0.017
-414.413	-77.238	0.146	-0.051
-413.398	800.000	0.055	0.217
-412.384	98.075	-0.295	0.341
-411.369	800.000	0.111	-0.308
-410.355	-66.291	0.316	-0.126
-409.340	34.169	0.101	-0.088
-408.325	800.000	0.062	0.208
-407.311	6.576	0.151	0.113
-406.296	694.034	-0.068	0.179
-405.282	30.375	0.041	-0.035
-404.267	-172.549	0.309	-0.010
-403.252	-6.381	-0.093	0.064
-402.238	-200.000	-0.063	-0.464
-401.223	-200.000	-0.041	-0.296
-400.209	-200.000	0.055	0.331
-399.194	-200.000	0.023	-0.144
-398.179	-200.000	-0.010	-0.177
-397.165	-145.058	-0.102	0.009
-396.150	-27.038	0.070	-0.041
-395.136	-31.779	0.160	-0.090
-394.121	-61.820	0.096	0.040
-393.106	-81.907	-0.151	0.050
-392.092	-148.434	-0.036	-0.003
-391.077	-57.246	0.174	-0.077
-390.063	676.919	-0.124	0.322
-389.048	77.793	-0.202	0.216
-388.033	-42.101	0.244	0.125
-387.019	-29.690	0.242	0.138
-386.004	-132.196	0.389	0.051
-384.990	265.795	-0.080	-0.140
-383.975	-94.691	-0.710	-0.193
-382.960	-71.385	0.121	0.045
-381.946	-51.794	0.295	0.138
-380.931	800.000	-0.038	0.139
-379.917	-52.269	-0.325	0.151
-378.902	63.200	0.129	-0.130
-377.888	-49.604	0.398	-0.190
-376.873	-200.000	-0.019	-0.160
-375.858	43.491	-0.204	-0.187
-374.844	-28.914	-0.072	0.041
-373.829	-28.440	-0.356	-0.206
-372.815	10.427	-0.174	-0.133
-371.800	398.924	-0.103	0.215
-370.785	-200.000	0.001	-0.062
-369.771	-84.112	-0.153	0.048
-368.756	42.851	-0.281	0.256
-367.742	300.319	0.042	0.078
-366.727	-200.000	-0.027	-0.148
-365.712	519.625	-0.092	-0.216
-364.698	-111.872	0.176	0.036
-363.683	-200.000	-0.021	-0.263
-362.669	-200.000	-0.023	-0.152
-361.654	-85.482	-0.228	0.071
-360.639	-129.990	0.057	-0.008
-359.625	-111.206	-0.080	-0.016
-358.610	-36.039	-0.092	0.050
-357.596	-200.000	-0.013	0.190
-356.581	19.957	-0.140	0.113
-355.566	-200.000	-0.004	0.078
-354.552	-96.035	0.112	-0.030
-353.537	-200.000	0.011	0.348
-352.523	-200.000	-0.013	0.153
-351.508	-60.394	-0.182	0.078
-350.493	-134.878	-0.091	0.011
-349.479	-91.388	-0.352	-0.101
-348.464	-70.735	-0.284	-0.107
-347.450	3.852	-0.217	0.159
-346.435	-200.000	0.007	-0.426
-345.420	95.400	0.143	0.163
-344.406	-19.363	-0.162	0.100
-343.391	-103.254	-0.415	-0.098
-342.377	-175.448	-0.258	0.007
-341.362	145.043	-0.447	0.598
-340.348	-151.897	-0.224	0.016
-339.333	-65.310	-0.205	-0.083
-338.318	-183.589	0.254	-0.004
-337.304	-200.000	-0.003	-0.064
-336.289	-115.914	0.200	-0.037
-335.275	-78.133	0.050	0.017
-334.260	-200.000	0.058	-0.348
-333.245	-124.356	0.220	-0.034
-332.231	800.000	-0.061	-0.230
-331.216	-56.311	0.164	0.073
-330.202	-104.315	0.045	-0.010
-329.187	-73.183	0.118	0.043
-328.172	-117.400	0.343	0.062
-327.158	800.000	-0.023	0.078
-326.143	-88.488	-0.433	-0.129
-325.129	209.351	-0.148	0.232
-324.114	-200.000	-0.016	0.407
-323.099	204.168	-0.115	-0.177
-322.085	-142.914	-0.196	0.019
-321.070	-116.721	-0.115	0.021
-320.056	800.000	0.114	-0.451
-319.041	-200.000	0.075	-0.478
-318.026	-96.414	0.273	0.072
-317.012	-200.000	-0.021	0.160
-315.997	-17.355	0.223	0.140
-314.983	800.000	0.070	-0.207
-313.968	-139.203	-0.210	-0.023
-312.953	188.802	-0.059	-0.089
-311.939	21.650	0.136	-0.111
-310.924	-94.138	0.164	0.045
-309.910	-72.541	-0.040	0.015
-308.895	800.000	0.059	-0.206
-307.880	-129.340	0.137	-0.019
-306.866	-200.000	-0.076	-0.379
-305.851	14.427	-0.270	-0.210
-304.837	-188.212	-0.093	-0.001
-303.822	-66.944	-0.094	0.037
-302.807	-41.838	-0.315	-0.161
-301.793	-82.166	-0.036	-0.012
-300.778	82.119	0.123	-0.133
-299.764	800.000	0.101	0.343
-298.749	374.330	-0.090	0.184
-297.735	-149.327	-0.157	-0.013
-296.720	42.054	-0.161	0.146
-295.705	-200.000	0.005	0.048
-294.691	-109.661	-0.185	0.039
-293.676	48.656	0.062	-0.058
-292.662	2.447	-0.235	-0.170
-291.647	585.052	-0.053	-0.130
-290.632	-87.147	0.082	0.025
-289.618	800.000	-0.046	0.130
-288.603	204.198	-0.066	0.102
-287.589	-85.807	0.044	0.014
-286.574	-39.744	0.179	0.094
-285.559	-136.435	-0.209	-0.024
-284.545	228.197	0.033	0.054
-283.530	800.000	0.113	0.459
-282.516	-8.454	0.560	0.376
-281.501	800.000	-0.079	0.257
-280.486	-91.972	-0.156	0.044
-279.472	800.000	-0.019	0.080
-278.457	-79.227	0.233	0.079
-277.443	181.003	0.070	0.103
-276.428	-27.110	-0.267	0.155
-275.413	-68.297	-0.143	0.055
-274.399	314.662	0.233	-0.438
-273.384	800.000	-0.114	-0.411
-272.370	-200.000	0.014	-0.171
-271.355	91.623	0.220	0.247
-270.340	-200.000	-0.035	-0.272
-269.326	-119.263	-0.486	0.084
-268.311	-98.757	-0.310	0.079
-267.297	30.138	0.265	-0.226
-266.282	121.323	-0.138	0.172
-265.267	800.000	0.100	-0.414
-264.253	800.000	-0.080	-0.258
-263.238	-106.316	-0.202	-0.045
-262.224	62.899	0.244	0.243
-261.209	15.117	0.228	0.178
-260.195	-30.145	-0.282	0.160
-259.180	19.682	0.111	0.089
-258.165	335.879	-0.121	-0.235
-257.151	-145.222	0.337	-0.030
-256.136	-103.846	0.268	-0.062
-255.122	-64.373	0.208	-0.084
-254.107	156.492	-0.171	0.235
-253.092	-200.000	-0.016	-0.132
-252.078	-26.320	0.088	0.051
-251.063	-21.104	0.347	0.211
-250.049	-96.476	-0.212	-0.056
-249.034	187.352	-0.191	-0.285
-248.019	2.115	0.054	0.039
-247.005	356.673	0.081	-0.161
-245.990	195.652	-0.042	0.064
-244.976	-24.030	0.080	0.048
-243.961	-51.578	0.194	-0.090
-242.946	-129.649	0.038	-0.005
-241.932	-196.437	-0.023	0.000
-240.917	-91.539	0.441	-0.125
-239.903	-78.522	0.153	0.052
-238.888	-200.000	0.014	-0.113
-237.873	182.352	0.044	-0.065
-236.859	-200.000	-0.106	0.570
-235.844	-58.011	0.163	-0.071
-234.830	210.183	0.190	0.297
-233.815	-134.687	-0.128	-0.016
-232.800	-110.551	0.559	0.115
-231.786	-200.000	-0.011	-0.086
-230.771	800.000	-0.040	0.130
-229.757	97.522	0.043	0.049
-228.742	2.235	0.076	0.055
-227.727	-163.805	0.261	0.012
-226.713	36.533	0.324	0.285
-225.698	272.785	0.071	0.124
-224.684	-36.952	-0.153	-0.082
-223.669	-71.979	0.240	-0.089
-222.655	-200.000	-0.022	0.379
-221.640	-157.410	0.245	0.015
-220.625	128.802	0.075	0.095
-219.611	-44.002	0.192	0.096
-218.596	-116.497	-0.221	-0.041
-217.582	452.831	0.171	-0.377
-216.567	-185.623	-0.251	-0.004
-215.552	22.103	0.236	0.191
-214.538	-37.639	-0.171	-0.090
-213.523	229.426	0.021	0.034
-212.509	800.000	-0.035	0.150
-211.494	-73.165	-0.174	0.063
-210.479	-71.677	-0.153	-0.057
-209.465	-51.988	-0.120	-0.056
-208.450	4.335	0.333	-0.243
-207.436	-200.000	-0.045	0.515
-206.421	-175.703	0.064	0.002
-205.406	379.361	0.037	-0.076
-204.392	-12.968	0.168	-0.109
-203.377	-200.000	-0.009	-0.173
-202.363	122.953	0.075	0.094
-201.348	330.433	-0.123	-0.235
-200.333	-131.452	-0.055	-0.007
-199.319	675.933	-0.079	0.205
-198.304	-200.000	-0.011	0.211
-197.290	-200.000	0.027	-0.176
-196.275	-125.720	-0.194	-0.029
-195.260	-40.248	0.049	-0.025
-194.246	-200.000	-0.053	-0.248
-193.231	248.860	-0.044	-0.074
-192.217	-93.779	0.110	0.030
-191.202	-31.620	0.149	0.083
-190.187	227.514	-0.140	0.226
-189.173	-47.898	-0.270	-0.130
-188.158	207.598	-0.109	-0.170
-187.144	150.869	0.219	0.297
-186.129	-141.368	0.120	0.012
-185.114	395.267	-0.264	-0.548
-184.100	-115.894	-0.173	-0.032
-183.085	-200.000	-0.008	0.116
-182.071	-200.000	0.006	0.126
-181.056	-66.327	0.151	0.060
-180.042	-5.346	0.355	0.242
-179.027	-67.820	0.232	0.090
-178.012	-133.482	0.236	-0.029
-176.998	27.465	0.386	0.322
-175.983	310.258	0.076	0.141
-174.969	-199.568	-0.432	-0.002
-173.954	-111.005	-0.149	0.030
-172.939	339.195	-0.235	0.454
-171.925	34.086	-0.080	-0.069
-170.910	-147.380	0.239	-0.020
-169.896	-1.779	0.059	-0.042
-168.881	-49.544	0.067	-0.032
-167.866	-58.498	-0.235	-0.101
-166.852	800.000	0.091	-0.265
-165.837	-69.297	-0.131	0.050
-164.823	-150.609	0.424	0.032
-163.808	405.012	-0.163	-0.341
-162.793	531.967	-0.206	-0.484
-161.779	-200.000	-0.034	-0.300
-160.764	229.281	0.057	-0.092
-159.750	-5.974	-0.173	-0.117
-158.735	66.639	0.025	-0.025
-157.720	270.602	-0.228	0.398
-156.706	-135.460	-0.035	0.004
-155.691	800.000	0.048	-0.202
-154.677	800.000	-0.047	-0.133
-153.662	406.774	0.092	0.193
-152.647	731.136	0.126	-0.336
-151.633	-167.065	-0.441	0.018
-150.618	225.726	-0.051	0.083
-149.604	80.884	-0.320	0.343
-148.589	-95.230	-0.172	-0.046
-147.574	-166.499	-0.116	-0.005
-146.560	-200.000	-0.010	-0.219
-145.545	-110.878	0.233	-0.048
-144.531	-52.787	0.086	0.039
-143.516	-59.641	0.071	-0.030
-142.502	112.061	0.232	-0.279
-141.487	-105.754	-0.169	-0.038
-140.472	204.976	0.070	-0.108
-139.458	280.803	0.058	-0.103
-138.443	113.527	-0.049	0.059
-137.429	-8.561	-0.234	0.156
-136.414	800.000	0.013	0.052
-135.399	800.000	0.055	-0.184
-134.385	431.007	-0.112	-0.240
-133.370	-118.942	0.143	0.025
-132.356	-54.697	0.223	-0.100
-131.341	-85.260	-0.185	-0.057
-130.326	25.050	-0.110	0.090
-129.312	-58.898	0.366	0.157
-128.297	-134.289	0.266	-0.032
-127.283	-200.000	-0.031	0.247
-126.268	-200.000	-0.012	-0.201
-125.253	2.157	0.351	-0.251
-124.239	-181.613	-0.093	0.002
-123.224	-200.000	0.017	0.087
-122.210	-36.180	-0.212	-0.113
