DTS Sentinel unit serial number:	SN413079Multiplexer serial number:	ORYXHardware model number:	OX4-SRSoftware version number:	ORYX F/W v4.00 Oryx Data Collector v3.7.2.0data status	okinstallation	princeton_trtdifferential loss correction	single-endedforward channel	channel 4reverse channel	N/Adate	2019/09/12time	06:55:10forward acquisition time	60.00reverse acquisition time	0.00gamma	496.2192k internal	0.2307k external	0.2307temperature offset calibration	1.0061default loss term (dB/km)	0.3790temperature slope calibration	1.0000multiplexer offset coefficient	1.0000multiplexer slope coefficient	1.0000fibre end	0.00T internal ref (°C)	32.16T ext. ref 1 (°C)	1.58T ext. ref 2 (°C)	27.26length (m)	temperature (°C)	Stokes	anti-Stokes-747.200	-200.000	-0.039	0.235
-746.185	-200.000	0.042	0.371
-745.171	800.000	0.007	0.029
-744.156	800.000	0.025	0.108
-743.142	-107.849	0.289	-0.064
-742.127	15.749	-0.124	0.099
-741.112	-160.980	-0.145	-0.008
-740.098	-180.567	-0.084	0.002
-739.083	727.101	0.013	-0.036
-738.069	-127.389	-0.293	0.043
-737.054	110.470	-0.119	0.146
-736.039	800.000	-0.110	0.378
-735.025	-19.739	0.170	0.107
-734.010	-200.000	-0.013	-0.192
-732.996	-85.394	-0.311	0.099
-731.981	347.431	0.121	-0.243
-730.966	-164.040	-0.368	-0.017
-729.952	-178.109	0.086	0.002
-728.937	-200.000	0.022	-0.215
-727.923	92.599	-0.137	-0.157
-726.908	-128.538	-0.294	-0.042
-725.894	-60.588	-0.346	0.149
-724.879	84.687	-0.149	-0.165
-723.864	-87.994	0.237	0.072
-722.850	800.000	-0.037	0.160
-721.835	96.111	-0.018	-0.020
-720.821	193.125	-0.257	-0.395
-719.806	-30.804	-0.148	-0.085
-718.791	3.205	-0.092	0.068
-717.777	-64.465	0.055	-0.023
-716.762	-200.000	-0.079	-0.383
-715.748	-73.727	0.379	-0.140
-714.733	156.354	-0.226	-0.317
-713.718	776.180	0.065	-0.180
-712.704	618.134	0.152	-0.387
-711.689	7.183	-0.102	0.077
-710.675	26.887	0.159	-0.135
-709.660	170.326	-0.136	-0.198
-708.645	156.359	0.096	0.135
-707.631	-200.000	-0.088	0.420
-706.616	-89.409	-0.484	0.145
-705.602	37.732	0.192	-0.173
-704.587	-200.000	-0.002	0.250
-703.572	82.075	0.278	0.306
-702.558	-4.433	0.096	0.068
-701.543	31.301	0.320	-0.279
-700.529	216.692	0.045	-0.072
-699.514	87.478	-0.083	0.093
-698.499	131.779	0.230	-0.300
-697.485	-68.363	0.211	0.083
-696.470	-188.717	-0.525	-0.007
-695.456	77.877	0.198	0.214
-694.441	-86.299	0.151	0.047
-693.426	-7.468	-0.459	-0.315
-692.412	-200.000	-0.027	-0.268
-691.397	-200.000	0.045	-0.646
-690.383	80.882	-0.318	-0.348
-689.368	4.111	0.143	-0.106
-688.354	-31.613	0.244	-0.139
-687.339	-123.517	0.099	0.016
-686.324	175.154	0.308	0.453
-685.310	-200.000	0.014	0.088
-684.295	190.223	-0.375	-0.572
-683.281	800.000	0.044	-0.175
-682.266	-2.394	0.123	-0.087
-681.251	101.079	0.006	-0.007
-680.237	-200.000	-0.061	0.304
-679.222	-28.670	-0.155	-0.090
-678.208	346.330	-0.042	-0.084
-677.193	96.118	-0.130	-0.150
-676.178	-62.919	0.285	-0.120
-675.164	-140.940	0.068	0.007
-674.149	-133.468	-0.101	0.013
-673.135	-175.258	-0.170	-0.005
-672.120	148.662	0.195	-0.268
-671.105	-128.772	-0.267	0.038
-670.091	-64.150	-0.149	0.061
-669.076	-11.092	-0.336	0.224
-668.062	800.000	0.052	-0.214
-667.047	0.153	0.103	-0.074
-666.032	-102.683	-0.326	0.079
-665.018	-128.759	-0.169	0.024
-664.003	800.000	-0.053	0.209
-662.989	-54.243	-0.070	0.032
-661.974	800.000	0.040	0.155
-660.959	-44.271	-0.252	-0.128
-659.945	177.460	0.130	-0.192
-658.930	199.975	0.119	0.185
-657.916	103.408	0.361	0.429
-656.901	-141.531	0.108	0.011
-655.886	27.847	-0.167	-0.142
-654.872	-38.440	-0.119	0.064
-653.857	800.000	-0.056	-0.231
-652.843	-75.956	0.064	-0.023
-651.828	-12.057	0.125	-0.083
-650.814	49.174	0.166	-0.158
-649.799	-134.006	0.430	0.054
-648.784	95.962	0.235	0.272
-647.770	-1.977	-0.239	-0.170
-646.755	-200.000	0.017	-0.346
-645.741	27.723	-0.160	-0.137
-644.726	137.554	-0.043	0.057
-643.711	800.000	-0.083	-0.287
-642.697	-150.277	-0.299	0.023
-641.682	-200.000	-0.019	0.192
-640.668	14.845	-0.123	-0.098
-639.653	-165.340	-0.270	-0.012
-638.638	-200.000	0.009	-0.205
-637.624	-200.000	0.006	-0.180
-636.609	-45.526	-0.307	-0.154
-635.595	30.663	0.167	0.145
-634.580	-200.000	-0.006	-0.038
-633.565	18.557	-0.171	-0.138
-632.551	800.000	-0.081	-0.298
-631.536	-56.779	-0.188	0.084
-630.522	-200.000	-0.052	0.238
-629.507	-29.409	0.328	0.190
-628.492	311.770	-0.028	-0.053
-627.478	49.035	0.157	-0.150
-626.463	-84.989	-0.280	-0.089
-625.449	-17.494	-0.282	-0.179
-624.434	573.202	0.127	-0.313
-623.419	800.000	-0.021	0.072
-622.405	-25.088	0.194	-0.116
-621.390	-200.000	-0.056	0.312
-620.376	-200.000	0.019	-0.083
-619.361	-200.000	0.022	0.288
-618.346	-138.197	-0.063	0.007
-617.332	-110.074	-0.242	-0.051
-616.317	-33.881	0.239	-0.133
-615.303	-200.000	-0.031	0.167
-614.288	55.914	-0.055	-0.054
-613.273	142.891	0.164	-0.221
-612.259	-30.829	0.305	0.175
-611.244	-126.612	0.025	-0.004
-610.230	-91.981	-0.133	-0.038
-609.215	-200.000	0.012	-0.279
-608.201	518.424	0.135	0.320
-607.186	-90.576	0.064	-0.019
-606.171	800.000	0.082	0.293
-605.157	800.000	-0.089	0.389
-604.142	59.404	-0.213	0.212
-603.128	10.503	0.216	-0.166
-602.113	-39.750	0.184	0.097
-601.098	-84.737	-0.074	0.024
-600.084	-67.125	-0.261	-0.104
-599.069	-64.831	0.263	0.107
-598.055	-71.227	0.055	-0.021
-597.040	-160.403	0.101	0.005
-596.025	582.658	-0.121	-0.301
-595.011	800.000	-0.012	-0.043
-593.996	800.000	-0.007	0.024
-592.982	-200.000	0.075	0.410
-591.967	492.904	0.099	0.230
-590.952	-200.000	-0.013	-0.277
-589.938	800.000	-0.053	0.231
-588.923	273.521	0.188	-0.336
-587.909	52.088	0.071	-0.068
-586.894	-45.318	-0.068	0.034
-585.879	-200.000	-0.010	0.232
-584.865	117.275	-0.161	0.200
-583.850	-200.000	0.061	0.272
-582.836	800.000	0.061	0.254
-581.821	-200.000	0.038	-0.292
-580.806	-129.646	-0.397	-0.055
-579.792	-200.000	0.061	0.339
-578.777	35.224	0.305	-0.270
-577.763	182.839	0.143	0.214
-576.748	800.000	0.038	-0.116
-575.733	800.000	0.045	0.149
-574.719	-105.581	0.080	-0.018
-573.704	20.325	-0.226	0.185
-572.690	800.000	0.097	-0.280
-571.675	-71.318	-0.139	0.053
-570.661	-200.000	0.000	-0.260
-569.646	-38.389	0.424	0.226
-568.631	-82.830	-0.208	-0.068
-567.617	-200.000	-0.008	-0.282
-566.602	206.092	0.236	-0.370
-565.588	800.000	-0.109	-0.363
-564.573	152.118	-0.146	-0.201
-563.558	-41.549	-0.092	0.048
-562.544	208.292	-0.061	-0.096
-561.529	-141.886	-0.225	-0.023
-560.515	314.327	-0.071	-0.135
-559.500	336.531	0.195	-0.382
-558.485	-200.000	-0.021	0.152
-557.471	-98.594	0.129	0.033
-556.456	-0.596	-0.192	-0.137
-555.442	65.848	-0.270	-0.276
-554.427	800.000	0.141	0.419
-553.412	11.322	0.407	-0.314
-552.398	85.317	0.230	0.255
-551.383	287.532	0.203	0.370
-550.369	800.000	0.050	0.148
-549.354	-147.914	-0.322	0.027
-548.339	-200.000	0.010	0.297
-547.325	54.078	0.075	0.073
-546.310	-137.809	0.303	0.034
-545.296	-23.024	-0.187	0.114
-544.281	-34.060	-0.150	-0.083
-543.266	255.349	-0.167	-0.289
-542.252	800.000	0.093	0.329
-541.237	673.449	0.102	-0.266
-540.223	9.466	-0.157	0.120
-539.208	54.896	0.196	-0.191
-538.193	347.147	0.191	0.380
-537.179	-52.193	0.159	0.074
-536.164	-49.135	0.315	-0.152
-535.150	-200.000	-0.013	-0.057
-534.135	43.410	0.326	-0.300
-533.121	26.785	0.164	-0.139
-532.106	-176.870	0.233	-0.006
-531.091	-200.000	-0.100	0.000
-530.077	181.382	0.020	-0.030
-529.062	312.817	-0.062	0.117
-528.048	94.845	0.185	-0.212
-527.033	92.763	0.043	-0.049
-526.018	800.000	-0.057	-0.209
-525.004	-6.659	0.354	0.243
-523.989	85.942	-0.086	0.096
-522.975	40.764	0.207	0.188
-521.960	38.451	0.068	-0.061
-520.945	-114.229	0.252	-0.049
-519.931	636.708	0.046	-0.118
-518.916	-2.663	0.186	0.131
-517.902	-98.499	0.159	-0.041
-516.887	800.000	0.071	-0.272
-515.872	-20.463	0.110	-0.068
-514.858	-46.307	-0.148	0.074
-513.843	-200.000	-0.037	0.201
-512.829	14.958	-0.073	-0.058
-511.814	-131.880	-0.239	0.031
-510.799	514.881	-0.232	-0.546
-509.785	800.000	-0.045	-0.163
-508.770	-200.000	-0.008	0.046
-507.756	298.155	-0.118	0.218
-506.741	800.000	-0.061	0.209
-505.726	-200.000	-0.015	0.376
-504.712	-72.075	0.061	-0.023
-503.697	-163.767	-0.225	0.011
-502.683	-86.089	-0.355	-0.110
-501.668	22.061	-0.354	0.291
-500.653	2.636	-0.134	-0.098
-499.639	-200.000	-0.011	-0.214
-498.624	-126.124	-0.158	-0.024
-497.610	-67.361	-0.143	0.056
-496.595	-200.000	0.012	-0.066
-495.581	125.338	0.127	-0.161
-494.566	-99.016	0.138	0.035
-493.551	150.274	0.138	0.189
-492.537	130.657	0.120	0.155
-491.522	800.000	-0.082	0.322
-490.508	-110.165	0.043	-0.009
-489.493	-8.990	-0.133	0.090
-488.478	-126.847	0.196	0.029
-487.464	-200.000	-0.186	0.001
-486.449	-200.000	0.010	0.140
-485.435	-200.000	-0.033	-0.181
-484.420	-89.323	-0.370	-0.110
-483.405	4.622	-0.129	0.095
-482.391	800.000	0.048	-0.159
-481.376	-193.495	-0.224	-0.002
-480.362	93.975	0.138	0.157
-479.347	277.736	-0.022	-0.039
-478.332	-127.334	-0.153	-0.022
-477.318	800.000	0.066	0.281
-476.303	228.693	0.115	0.188
-475.289	-144.433	0.061	-0.006
-474.274	-63.922	-0.181	-0.074
-473.259	-22.334	0.327	0.199
-472.245	800.000	0.103	-0.374
-471.230	-91.418	-0.030	-0.009
-470.216	-29.649	-0.032	-0.018
-469.201	-200.000	-0.007	0.376
-468.186	-200.000	0.046	0.292
-467.172	456.419	-0.152	-0.338
-466.157	74.717	0.128	-0.135
-465.143	-200.000	0.002	-0.041
-464.128	-34.541	-0.130	-0.072
-463.113	-200.000	-0.001	-0.015
-462.099	-83.639	0.359	-0.115
-461.084	278.108	0.202	0.363
-460.070	139.871	-0.111	0.147
-459.055	-59.559	0.029	-0.012
-458.040	67.806	-0.187	-0.192
-457.026	436.398	0.092	-0.202
-456.011	250.694	0.067	-0.115
-454.997	800.000	0.044	-0.193
-453.982	-200.000	-0.011	0.053
-452.968	37.061	0.157	0.139
-451.953	-175.873	-0.183	-0.005
-450.938	-90.233	0.077	-0.023
-449.924	15.533	-0.067	0.053
-448.909	-44.570	-0.342	-0.172
-447.895	-120.117	-0.186	0.032
-446.880	170.193	0.125	0.180
-445.865	-125.242	-0.141	0.022
-444.851	800.000	0.026	-0.099
-443.836	-89.567	0.398	-0.117
-442.822	3.363	-0.220	-0.161
-441.807	-125.038	-0.191	0.029
-440.792	327.939	0.079	-0.152
-439.778	-100.079	-0.276	-0.069
-438.763	215.626	0.093	0.148
-437.749	-200.000	0.021	-0.210
-436.734	206.564	-0.183	-0.286
-435.719	800.000	-0.017	0.061
-434.705	453.437	-0.047	0.104
-433.690	800.000	-0.070	-0.242
-432.676	-106.787	0.188	-0.042
-431.661	-5.934	0.163	-0.112
-430.646	-107.626	-0.396	0.087
-429.632	-133.234	0.154	0.020
-428.617	-163.017	-0.091	0.004
-427.603	-200.000	0.007	-0.115
-426.588	159.489	0.067	-0.094
-425.573	-38.966	0.364	0.193
-424.559	169.136	0.116	0.166
-423.544	-104.228	0.137	-0.032
-422.530	-18.518	-0.015	-0.010
-421.515	-66.125	-0.129	-0.052
-420.500	-80.599	0.203	0.068
-419.486	421.302	-0.049	0.106
-418.471	-93.839	0.285	-0.079
-417.457	72.342	0.164	0.172
-416.442	-95.319	-0.243	0.065
-415.428	-200.000	0.009	0.053
-414.413	101.345	0.051	0.060
-413.398	-148.348	-0.205	-0.017
-412.384	-127.018	0.216	-0.032
-411.369	-200.000	0.024	-0.190
-410.355	-5.296	-0.211	0.145
-409.340	-55.091	-0.083	0.038
-408.325	-156.271	0.322	0.020
-407.311	654.538	0.095	0.244
-406.296	147.188	-0.085	-0.115
-405.282	-166.908	0.119	-0.005
-404.267	-200.000	0.006	-0.246
-403.252	-70.981	-0.257	-0.097
-402.238	-200.000	-0.017	-0.109
-401.223	-200.000	-0.005	-0.094
-400.209	-200.000	0.003	0.444
-399.194	287.159	-0.147	-0.267
-398.179	-30.656	0.188	-0.107
-397.165	800.000	0.134	0.442
-396.150	51.597	-0.123	0.117
-395.136	800.000	0.057	0.215
-394.121	-200.000	-0.027	0.181
-393.106	-200.000	-0.010	0.148
-392.092	6.021	0.381	-0.283
-391.077	-200.000	0.061	0.485
-390.063	-160.690	0.351	-0.019
-389.048	-131.702	-0.169	0.022
-388.033	-200.000	-0.035	-0.458
-387.019	346.449	-0.123	-0.243
-386.004	-84.869	-0.136	0.043
-384.990	210.041	0.090	-0.141
-383.975	-163.628	-0.147	0.007
-382.960	-200.000	-0.013	-0.197
-381.946	-66.549	-0.318	0.126
-380.931	87.628	-0.147	0.163
-379.917	-200.000	0.188	-0.000
-378.902	60.095	0.029	-0.029
-377.888	229.335	-0.215	0.351
-376.873	-200.000	-0.015	0.163
-375.858	83.717	0.093	0.101
-374.844	-13.296	0.081	-0.053
-373.829	-73.425	0.190	-0.070
-372.815	-200.000	-0.011	0.124
-371.800	174.774	0.150	0.218
-370.785	-103.304	-0.391	0.092
-369.771	346.853	-0.024	-0.047
-368.756	-200.000	-0.050	-0.300
-367.742	130.648	0.284	-0.364
-366.727	-200.000	0.008	-0.098
-365.712	70.013	-0.323	0.334
-364.698	-200.000	-0.004	0.049
-363.683	51.155	-0.054	-0.052
-362.669	800.000	-0.062	-0.195
-361.654	-20.704	0.124	-0.077
-360.639	-148.786	0.280	-0.023
-359.625	-28.718	-0.225	0.130
-358.610	102.856	0.217	0.255
-357.596	-125.557	-0.480	0.073
-356.581	-200.000	-0.011	-0.116
-355.566	-105.796	0.097	0.022
-354.552	75.269	-0.137	0.145
-353.537	-23.028	0.155	-0.094
-352.523	-145.708	0.199	-0.018
-351.508	30.456	-0.031	0.027
-350.493	433.938	-0.117	0.254
-349.479	-200.000	0.028	0.220
-348.464	800.000	-0.048	0.173
-347.450	-86.714	0.053	0.016
-346.435	127.190	0.425	0.539
-345.420	250.049	-0.099	-0.169
-344.406	361.088	0.033	-0.067
-343.391	508.181	0.032	-0.074
-342.377	-200.000	-0.003	0.206
-341.362	-80.052	0.124	0.042
-340.348	71.385	0.046	0.048
-339.333	-200.000	0.003	-0.337
-338.318	-78.329	0.461	0.158
-337.304	-132.257	-0.313	0.041
-336.289	556.029	0.079	-0.191
-335.275	743.512	-0.082	-0.222
-334.260	-151.412	-0.360	0.027
-333.245	800.000	-0.059	-0.171
-332.231	219.070	0.136	0.218
-331.216	800.000	-0.082	0.246
-330.202	27.008	0.107	-0.090
-329.187	156.256	-0.127	0.175
-328.172	800.000	0.022	-0.081
-327.158	-100.416	-0.336	-0.083
-326.143	-200.000	-0.029	0.196
-325.129	-200.000	-0.042	-0.201
-324.114	-65.718	-0.283	0.113
-323.099	-159.522	-0.379	-0.021
-322.085	-200.000	-0.048	-0.318
-321.070	-200.000	-0.056	0.299
-320.056	70.035	0.089	-0.092
-319.041	94.468	-0.260	0.295
-318.026	55.115	0.105	-0.101
-317.012	-81.838	0.168	0.055
-315.997	16.409	0.247	-0.195
-314.983	-155.392	0.160	-0.010
-313.968	27.217	-0.032	0.027
-312.953	610.707	-0.124	-0.311
-311.939	223.320	-0.041	-0.066
-310.924	-148.684	0.153	0.012
-309.910	84.412	0.084	-0.092
-308.895	-27.583	0.193	0.112
-307.880	-200.000	0.042	-0.229
-306.866	124.078	-0.050	0.063
-305.851	-200.000	-0.024	-0.581
-304.837	6.611	-0.234	-0.174
-303.822	-91.389	0.076	0.022
-302.807	800.000	0.028	0.115
-301.793	75.615	-0.021	0.022
-300.778	-97.439	-0.188	-0.049
-299.764	800.000	0.160	-0.473
-298.749	-200.000	-0.058	-0.351
-297.735	552.574	-0.054	-0.129
-296.720	33.628	0.206	0.179
-295.705	272.654	0.102	0.180
-294.691	371.749	0.159	-0.322
-293.676	144.805	-0.087	0.116
-292.662	-152.804	-0.175	0.012
-291.647	-41.934	0.090	-0.046
-290.632	11.953	-0.399	0.306
-289.618	487.169	0.062	-0.142
-288.603	800.000	-0.121	0.373
-287.589	-105.325	-0.225	0.051
-286.574	284.280	-0.118	-0.212
-285.559	800.000	-0.071	0.196
-284.545	66.750	-0.151	0.153
-283.530	800.000	-0.072	-0.307
-282.516	-44.627	-0.103	0.052
-281.501	76.139	-0.214	-0.226
-280.486	65.126	-0.190	0.191
-279.472	74.361	-0.093	0.098
-278.457	-200.000	-0.002	0.074
-277.443	-55.081	-0.270	0.121
-276.428	800.000	0.063	-0.258
-275.413	-110.784	-0.048	-0.010
-274.399	-101.526	0.072	-0.018
-273.384	-88.492	-0.111	0.033
-272.370	470.990	-0.057	0.128
-271.355	-102.517	-0.077	0.018
-270.340	800.000	-0.076	-0.286
-269.326	32.215	-0.185	-0.159
-268.311	-200.000	-0.054	-0.345
-267.297	-147.093	0.070	-0.006
-266.282	-122.143	0.329	-0.054
-265.267	92.288	-0.107	0.120
-264.253	-200.000	-0.000	-0.023
-263.238	94.688	0.104	0.118
-262.224	-21.914	-0.134	-0.081
-261.209	172.640	0.012	0.017
-260.195	800.000	0.030	0.104
-259.180	17.494	0.253	0.201
-258.165	800.000	-0.044	-0.160
-257.151	-124.406	-0.339	-0.053
-256.136	551.747	0.184	0.440
-255.122	106.742	0.178	0.211
-254.107	-86.542	0.123	-0.038
-253.092	303.938	-0.151	-0.279
-252.078	445.592	0.045	0.100
-251.063	99.377	0.161	0.186
-250.049	20.671	0.186	-0.150
-249.034	651.133	0.039	-0.100
-248.019	-1.591	-0.150	0.106
-247.005	-200.000	-0.032	-0.225
-245.990	-200.000	0.059	0.328
-244.976	-200.000	-0.044	0.221
-243.961	-49.964	0.176	-0.083
-242.946	87.985	-0.064	0.071
-241.932	-200.000	-0.014	-0.148
-240.917	-200.000	0.010	-0.070
-239.903	-58.931	0.258	-0.111
-238.888	-78.300	-0.121	0.041
-237.873	-200.000	-0.006	0.245
-236.859	60.813	-0.140	-0.138
-235.844	-140.462	-0.064	0.007
-234.830	-88.039	0.052	-0.015
-233.815	86.086	0.278	0.305
-232.800	43.230	-0.174	-0.159
-231.786	800.000	0.099	0.296
-230.771	800.000	-0.077	-0.236
-229.757	-200.000	-0.043	-0.382
-228.742	493.034	0.137	0.312
-227.727	-78.757	0.021	-0.007
-226.713	-118.795	0.546	-0.096
-225.698	-29.554	-0.034	-0.019
-224.684	39.798	-0.147	0.132
-223.669	-109.594	-0.030	-0.006
-222.655	-188.101	0.208	0.003
-221.640	-31.552	-0.328	-0.183
-220.625	-5.098	-0.025	0.017
-219.611	-142.280	0.411	0.040
-218.596	-113.496	0.122	0.024
-217.582	-32.189	-0.160	0.089
-216.567	-97.660	-0.143	0.037
-215.552	-134.350	-0.218	0.027
-214.538	533.794	0.144	0.339
-213.523	-28.369	-0.206	-0.119
-212.509	-14.512	-0.497	0.318
-211.494	-75.980	0.243	-0.086
-210.479	54.698	-0.224	-0.215
-209.465	-147.503	-0.102	0.009
-208.450	-26.496	0.257	-0.150
-207.436	-200.000	-0.040	-0.282
-206.421	-52.246	0.118	0.054
-205.406	174.913	0.088	0.127
-204.392	8.600	-0.128	0.096
-203.377	-60.602	0.210	-0.089
-202.363	111.762	-0.151	0.182
-201.348	-106.448	-0.259	-0.058
-200.333	-26.336	0.249	0.146
-199.319	-200.000	-0.067	0.349
-198.304	-200.000	-0.019	0.196
-197.290	267.026	0.181	0.315
-196.275	343.932	-0.037	-0.071
-195.260	-110.034	0.325	-0.068
-194.246	163.809	0.170	-0.237
-193.231	-130.231	-0.347	0.047
-192.217	143.097	-0.045	-0.060
-191.202	-98.514	0.075	0.019
-190.187	-61.245	-0.291	-0.122
-189.173	335.907	-0.175	-0.338
-188.158	-200.000	0.004	-0.021
-187.144	800.000	-0.022	-0.083
-186.129	9.777	-0.307	-0.231
-185.114	34.852	-0.092	0.080
-184.100	21.816	-0.185	0.150
-183.085	-81.612	-0.125	0.041
-182.071	352.732	0.080	0.157
-181.056	-100.720	0.132	0.032
-180.042	800.000	0.070	0.252
-179.027	101.292	-0.110	-0.127
-178.012	800.000	-0.058	0.179
-176.998	17.779	0.146	-0.116
-175.983	-121.150	0.319	-0.053
-174.969	-63.280	0.161	0.066
-173.954	275.906	-0.097	0.170
-172.939	-141.761	0.241	0.024
-171.925	10.859	0.081	0.061
-170.910	-200.000	-0.001	-0.142
-169.896	-200.000	-0.034	-0.323
-168.881	-94.670	0.160	0.043
-167.866	-41.920	0.299	0.152
-166.852	-101.898	0.201	-0.048
-165.837	364.194	-0.015	-0.029
-164.823	-144.260	0.227	-0.021
-163.808	800.000	0.086	0.284
-162.793	-200.000	-0.005	0.068
-161.779	-200.000	-0.040	0.249
-160.764	184.567	0.145	-0.214
-159.750	-81.016	-0.154	0.051
-158.735	75.594	-0.068	-0.072
-157.720	42.799	0.272	-0.246
-156.706	-200.000	-0.005	-0.446
-155.691	11.572	0.136	0.103
-154.677	-200.000	-0.035	-0.221
-153.662	127.133	-0.168	-0.212
-152.647	7.679	-0.274	0.204
-151.633	302.236	-0.145	0.267
-150.618	-120.394	0.381	0.064
-149.604	306.457	-0.200	0.371
-148.589	-77.954	-0.065	-0.022
-147.574	387.754	0.077	0.158
-146.560	155.667	-0.169	0.232
-145.545	165.215	0.041	-0.057
-144.531	-122.018	-0.151	0.025
-143.516	-200.000	-0.040	-0.218
-142.502	800.000	-0.070	-0.215
-141.487	295.780	-0.121	0.219
-140.472	-151.048	-0.053	0.004
-139.458	194.757	0.238	0.358
-138.443	-130.657	0.203	0.027
-137.429	122.281	-0.160	0.199
-136.414	113.302	-0.170	-0.205
-135.399	-21.166	0.279	-0.169
-134.385	434.457	0.213	0.458
-133.370	-189.690	0.483	-0.005
-132.356	-100.462	-0.077	-0.019
-131.341	-200.000	0.018	-0.101
-130.326	448.433	-0.041	0.089
-129.312	158.033	-0.129	0.178
-128.297	37.262	-0.081	-0.071
-127.283	40.322	-0.172	0.154
-126.268	326.986	-0.089	-0.169
-125.253	-47.030	-0.104	-0.051
-124.239	-26.635	0.328	-0.190
-123.224	-64.913	0.285	-0.114
-122.210	-59.313	0.123	0.052
