DTS Sentinel unit serial number:	SN413079Multiplexer serial number:	ORYXHardware model number:	OX4-SRSoftware version number:	ORYX F/W v4.00 Oryx Data Collector v3.7.2.0data status	okinstallation	princeton_trtdifferential loss correction	single-endedforward channel	channel 4reverse channel	N/Adate	2019/09/11time	01:07:11forward acquisition time	60.00reverse acquisition time	0.00gamma	496.2192k internal	0.2317k external	0.2317temperature offset calibration	0.9952default loss term (dB/km)	0.3790temperature slope calibration	1.0000multiplexer offset coefficient	1.0000multiplexer slope coefficient	1.0000fibre end	0.00T internal ref (°C)	29.12T ext. ref 1 (°C)	-0.29T ext. ref 2 (°C)	23.08length (m)	temperature (°C)	Stokes	anti-Stokes-747.200	800.000	-0.043	-0.173
-746.185	552.181	-0.116	0.283
-745.171	24.636	0.413	-0.346
-744.156	-10.270	-0.126	-0.085
-743.142	-3.922	0.199	0.140
-742.127	57.386	-0.183	-0.181
-741.112	181.878	0.161	-0.241
-740.098	65.471	-0.091	0.093
-739.083	-62.702	0.214	-0.090
-738.069	-101.595	0.231	-0.057
-737.054	800.000	-0.010	-0.040
-736.039	-122.119	-0.279	0.046
-735.025	50.980	0.203	-0.195
-734.010	34.161	-0.235	-0.207
-732.996	800.000	0.047	-0.207
-731.981	-16.715	0.180	0.115
-730.966	39.031	0.362	-0.327
-729.952	-23.534	-0.085	0.052
-728.937	788.079	0.100	-0.277
-727.923	15.643	-0.110	0.087
-726.908	69.402	-0.053	0.055
-725.894	-200.000	-0.010	-0.085
-724.879	-200.000	-0.009	-0.192
-723.864	38.687	0.041	0.037
-722.850	326.816	0.101	-0.196
-721.835	-62.117	0.187	0.079
-720.821	-7.127	0.142	-0.098
-719.806	79.512	-0.153	0.166
-718.791	27.636	-0.324	-0.276
-717.777	-68.044	0.118	-0.047
-716.762	329.790	0.053	0.103
-715.748	43.109	-0.073	0.067
-714.733	-200.000	0.011	0.064
-713.718	683.349	-0.218	-0.574
-712.704	-95.183	0.274	0.075
-711.689	-200.000	0.061	0.303
-710.675	569.463	-0.012	-0.031
-709.660	-200.000	-0.004	0.110
-708.645	206.973	-0.080	0.126
-707.631	-52.724	0.336	-0.157
-706.616	652.121	0.036	-0.092
-705.602	-200.000	-0.054	0.283
-704.587	-83.487	0.206	-0.067
-703.572	-179.550	-0.312	-0.007
-702.558	412.085	0.157	0.338
-701.543	-13.704	-0.179	0.117
-700.529	-181.359	-0.122	0.002
-699.514	214.322	0.042	-0.067
-698.499	507.660	-0.088	-0.206
-697.485	-21.060	-0.119	-0.074
-696.470	800.000	-0.057	-0.190
-695.456	-99.745	0.227	-0.058
-694.441	-26.338	0.187	-0.111
-693.426	-72.306	-0.110	-0.041
-692.412	82.855	-0.285	0.313
-691.397	213.326	0.031	-0.049
-690.383	-70.694	0.113	-0.043
-689.368	-132.311	-0.359	0.047
-688.354	-200.000	-0.005	0.044
-687.339	-41.827	0.069	0.036
-686.324	136.413	-0.138	-0.182
-685.310	800.000	-0.025	0.104
-684.295	83.384	-0.191	-0.210
-683.281	329.919	0.103	0.200
-682.266	291.990	0.091	-0.168
-681.251	509.942	0.131	0.307
-680.237	-200.000	0.022	0.164
-679.222	144.477	-0.168	-0.227
-678.208	-30.627	-0.419	-0.240
-677.193	60.957	0.171	0.171
-676.178	170.394	-0.047	-0.068
-675.164	132.906	-0.076	0.099
-674.149	-5.851	-0.127	0.087
-673.135	-21.830	0.033	-0.021
-672.120	145.341	-0.047	0.064
-671.105	-167.632	-0.291	0.012
-670.091	95.810	-0.118	0.136
-669.076	13.608	-0.039	-0.031
-668.062	-200.000	0.041	-0.264
-667.047	-160.328	0.212	0.012
-666.032	635.285	0.083	-0.213
-665.018	86.405	-0.128	-0.142
-664.003	800.000	0.102	-0.308
-662.989	-14.027	-0.031	0.020
-661.974	-200.000	-0.050	-0.369
-660.959	148.368	0.148	0.202
-659.945	291.834	-0.044	0.080
-658.930	139.323	-0.085	0.112
-657.916	-189.040	0.212	0.003
-656.901	-83.250	0.352	0.114
-655.886	-135.256	0.160	-0.019
-654.872	87.555	-0.143	-0.160
-653.857	11.571	0.343	-0.265
-652.843	800.000	-0.056	0.167
-651.828	162.399	-0.048	-0.068
-650.814	-2.231	0.277	-0.196
-649.799	-115.733	0.272	-0.051
-648.784	542.991	-0.060	-0.145
-647.770	11.952	0.103	0.080
-646.755	-34.620	0.170	0.094
-645.741	-83.234	0.214	-0.069
-644.726	800.000	-0.044	0.130
-643.711	155.323	-0.112	0.155
-642.697	49.495	-0.231	0.219
-641.682	-114.192	0.374	-0.073
-640.668	-100.997	0.172	0.043
-639.653	53.829	0.244	-0.236
-638.638	705.168	-0.064	0.170
-637.624	-104.266	-0.222	-0.052
-636.609	800.000	0.029	-0.107
-635.595	-103.452	-0.151	-0.036
-634.580	800.000	-0.087	0.250
-633.565	800.000	-0.085	0.300
-632.551	322.843	0.040	0.076
-631.536	326.980	0.065	-0.126
-630.522	322.071	0.108	0.207
-629.507	-148.689	0.126	-0.010
-628.492	-200.000	0.031	-0.430
-627.478	-61.696	0.097	0.041
-626.463	-151.734	-0.378	0.028
-625.449	778.704	0.146	-0.403
-624.434	118.677	-0.145	0.180
-623.419	-79.736	-0.101	-0.034
-622.405	12.237	-0.105	0.082
-621.390	-5.486	-0.299	0.206
-620.376	-138.864	-0.193	-0.021
-619.361	575.552	-0.097	-0.238
-618.346	-121.804	-0.149	0.025
-617.332	23.644	0.147	0.122
-616.317	11.212	-0.135	-0.104
-615.303	-8.490	0.074	-0.050
-614.288	-200.000	0.031	-0.422
-613.273	-200.000	0.023	-0.281
-612.259	147.481	0.253	0.343
-611.244	-200.000	0.097	-0.465
-610.230	15.111	0.164	-0.129
-609.215	67.061	-0.230	0.236
-608.201	183.498	-0.052	-0.078
-607.186	-95.268	-0.331	0.090
-606.171	42.285	0.346	0.316
-605.157	-51.270	-0.347	0.164
-604.142	-19.059	-0.308	-0.193
-603.128	-200.000	0.009	-0.392
-602.113	800.000	-0.041	0.136
-601.098	-200.000	-0.022	0.172
-600.084	-26.003	0.233	-0.138
-599.069	-6.228	0.090	-0.062
-598.055	90.351	-0.072	0.081
-597.040	-12.810	0.170	0.112
-596.025	111.445	-0.160	-0.195
-595.011	-200.000	0.028	0.266
-593.996	447.583	-0.120	0.266
-592.982	-46.215	0.259	0.128
-591.967	-58.764	0.098	-0.043
-590.952	58.072	-0.160	0.157
-589.938	-19.007	0.233	-0.146
-588.923	-25.350	0.257	0.153
-587.909	-200.000	0.042	0.205
-586.894	-50.092	0.241	-0.115
-585.879	-200.000	-0.051	-0.297
-584.865	180.278	0.124	-0.183
-583.850	81.803	0.163	0.178
-582.836	147.960	0.101	-0.137
-581.821	-119.931	0.216	0.037
-580.806	-92.036	-0.143	0.041
-579.792	-112.324	0.398	-0.080
-578.777	75.549	-0.114	0.121
-577.763	-133.905	0.262	0.033
-576.748	-76.402	0.209	-0.074
-575.733	15.024	-0.222	0.175
-574.719	-114.478	-0.139	0.027
-573.704	-200.000	-0.004	-0.205
-572.690	332.999	0.160	-0.311
-571.675	-30.180	-0.043	-0.024
-570.661	30.196	-0.100	0.086
-569.646	-3.656	0.346	0.242
-568.631	-104.211	-0.280	-0.065
-567.617	800.000	-0.126	-0.464
-566.602	-200.000	0.020	-0.091
-565.588	60.667	-0.161	0.161
-564.573	-131.755	-0.222	-0.029
-563.558	800.000	-0.054	-0.202
-562.544	-55.892	0.125	0.056
-561.529	-121.169	-0.203	0.034
-560.515	-5.989	0.092	-0.063
-559.500	269.926	-0.119	0.210
-558.485	-43.286	0.037	0.019
-557.471	800.000	0.058	-0.173
-556.456	-60.491	0.137	-0.059
-555.442	21.574	-0.108	-0.089
-554.427	18.818	0.138	-0.111
-553.412	-200.000	0.017	0.093
-552.398	-20.846	-0.181	0.112
-551.383	76.885	-0.129	0.138
-550.369	345.284	0.062	-0.121
-549.354	3.719	0.258	0.189
-548.339	-64.852	0.099	-0.040
-547.325	-161.014	0.196	0.010
-546.310	-88.563	-0.213	0.064
-545.296	-200.000	-0.028	0.232
-544.281	324.422	-0.209	-0.401
-543.266	-8.725	-0.151	-0.102
-542.252	32.222	0.191	-0.166
-541.237	800.000	0.021	0.071
-540.223	172.394	0.162	0.234
-539.208	215.983	0.128	0.205
-538.193	33.505	0.216	-0.188
-537.179	109.179	0.251	0.302
-536.164	22.875	-0.204	-0.168
-535.150	351.542	-0.074	-0.147
-534.135	-200.000	-0.046	0.488
-533.121	-109.852	0.315	0.066
-532.106	-114.653	0.041	-0.008
-531.091	-140.804	-0.221	-0.023
-530.077	-43.779	0.163	0.082
-529.062	-200.000	-0.027	0.127
-528.048	-70.637	0.139	-0.053
-527.033	800.000	0.032	0.133
-526.018	150.846	0.333	-0.455
-525.004	-76.564	-0.109	0.039
-523.989	628.094	0.027	0.068
-522.975	-3.991	-0.273	0.190
-521.960	31.761	0.148	-0.128
-520.945	-200.000	-0.003	0.028
-519.931	23.822	0.105	0.087
-518.916	-200.000	-0.077	0.000
-517.902	-200.000	0.066	0.472
-516.887	136.547	0.095	0.124
-515.872	-3.969	0.202	-0.141
-514.858	-154.281	-0.269	0.018
-513.843	-95.446	-0.103	0.028
-512.829	-167.497	0.357	-0.014
-511.814	583.993	0.083	-0.204
-510.799	-125.734	0.318	-0.048
-509.785	448.304	-0.085	0.188
-508.770	-57.534	0.262	-0.115
-507.756	-200.000	0.009	0.441
-506.741	-30.275	-0.094	-0.054
-505.726	763.815	0.062	0.169
-504.712	-152.261	-0.226	0.016
-503.697	246.875	-0.063	-0.107
-502.683	129.145	-0.131	0.168
-501.668	-200.000	0.028	0.212
-500.653	3.212	-0.179	0.131
-499.639	55.724	-0.294	-0.286
-498.624	-6.802	0.070	-0.048
-497.610	7.289	-0.158	-0.119
-496.595	-60.083	-0.152	0.065
-495.581	-112.629	0.142	0.028
-494.566	-66.852	-0.339	-0.134
-493.551	-78.215	0.184	0.063
-492.537	166.277	0.058	0.083
-491.522	-39.253	-0.107	0.056
-490.508	-54.624	0.124	-0.056
-489.493	-20.977	0.119	-0.073
-488.478	-190.186	-0.088	0.001
-487.464	361.902	-0.129	0.258
-486.449	800.000	-0.171	-0.475
-485.435	82.991	0.169	-0.184
-484.420	-4.985	-0.044	-0.030
-483.405	-50.264	-0.456	-0.216
-482.391	-200.000	0.044	-0.228
-481.376	-39.820	0.123	-0.065
-480.362	163.054	0.116	0.163
-479.347	-200.000	0.033	0.464
-478.332	528.044	0.118	0.279
-477.318	-128.877	-0.493	-0.069
-476.303	-200.000	-0.035	0.155
-475.289	37.272	-0.063	-0.056
-474.274	-93.012	0.350	-0.098
-473.259	-200.000	-0.009	-0.075
-472.245	42.097	-0.174	-0.158
-471.230	800.000	0.086	0.261
-470.216	-170.374	0.345	0.012
-469.201	134.766	-0.040	0.052
-468.186	-23.969	0.154	-0.092
-467.172	-110.501	-0.194	0.040
-466.157	800.000	0.057	-0.184
-465.143	2.193	-0.075	-0.054
-464.128	-102.707	-0.329	0.079
-463.113	-32.800	-0.208	-0.116
-462.099	349.374	0.151	-0.298
-461.084	-200.000	-0.050	-0.233
-460.070	-4.372	-0.171	-0.118
-459.055	-113.569	0.111	-0.022
-458.040	706.010	0.066	0.175
-457.026	-7.030	-0.193	-0.131
-456.011	628.865	-0.119	-0.301
-454.997	175.377	0.205	-0.297
-453.982	-3.069	0.121	0.085
-452.968	-190.819	0.248	-0.003
-451.953	130.382	0.217	0.278
-450.938	-76.414	-0.035	0.012
-449.924	-34.030	-0.308	-0.169
-448.909	-115.019	-0.351	0.067
-447.895	209.051	-0.192	-0.301
-446.880	94.830	0.104	-0.119
-445.865	-200.000	0.027	-0.184
-444.851	-111.341	-0.224	-0.046
-443.836	244.352	-0.116	0.195
-442.822	-139.905	-0.183	0.019
-441.807	-99.412	0.079	-0.020
-440.792	26.068	-0.094	-0.079
-439.778	-66.881	0.218	-0.086
-438.763	-200.000	0.012	-0.148
-437.749	-82.695	0.156	-0.051
-436.734	-61.628	0.108	-0.045
-435.719	22.800	0.300	0.246
-434.705	-155.930	0.344	0.022
-433.690	-168.230	0.105	-0.004
-432.676	800.000	-0.029	-0.097
-431.661	-200.000	0.024	0.439
-430.646	-113.085	0.158	-0.031
-429.632	800.000	-0.099	0.277
-428.617	-193.741	-0.205	-0.002
-427.603	-96.262	-0.516	-0.137
-426.588	-200.000	0.116	-0.001
-425.573	-110.021	0.303	-0.063
-424.559	-200.000	0.093	-0.536
-423.544	374.141	0.150	-0.306
-422.530	171.379	-0.129	0.185
-421.515	150.961	-0.049	-0.066
-420.500	-153.191	0.101	-0.007
-419.486	109.748	-0.136	-0.163
-418.471	230.133	0.136	0.222
-417.457	800.000	0.033	0.112
-416.442	-200.000	0.024	0.161
-415.428	415.519	-0.260	-0.553
-414.413	130.403	-0.136	0.175
-413.398	-118.891	0.084	0.015
-412.384	208.404	0.277	-0.433
-411.369	-200.000	0.028	-0.229
-410.355	6.549	-0.070	0.052
-409.340	-76.654	0.107	-0.037
-408.325	-159.992	0.153	0.008
-407.311	351.883	-0.049	-0.097
-406.296	-63.816	-0.444	0.182
-405.282	-200.000	0.017	0.288
-404.267	210.824	-0.082	0.129
-403.252	-129.849	0.358	-0.049
-402.238	800.000	-0.079	0.293
-401.223	-73.845	-0.143	-0.052
-400.209	-36.070	0.107	-0.058
-399.194	-111.497	-0.197	-0.040
-398.179	-200.000	-0.023	-0.137
-397.165	-200.000	-0.003	0.080
-396.150	-59.896	0.333	-0.142
-395.136	-81.873	0.212	0.069
-394.121	-70.809	-0.336	0.127
-393.106	-4.397	0.238	-0.164
-392.092	12.945	0.037	0.029
-391.077	-44.437	0.055	0.027
-390.063	-71.357	-0.288	-0.108
-389.048	-119.169	0.316	0.055
-388.033	-200.000	0.010	-0.102
-387.019	-55.537	0.226	-0.101
-386.004	-200.000	0.024	-0.281
-384.990	200.625	-0.070	-0.108
-383.975	53.808	0.119	0.114
-382.960	29.576	-0.060	0.051
-381.946	-120.966	-0.160	0.027
-380.931	19.899	-0.071	0.057
-379.917	-200.000	-0.012	0.124
-378.902	-52.772	-0.215	0.099
-377.888	-17.672	0.056	0.035
-376.873	-131.526	-0.166	-0.022
-375.858	-76.348	-0.265	-0.093
-374.844	-200.000	-0.002	-0.036
-373.829	-74.808	0.192	0.069
-372.815	-33.196	-0.179	0.099
-371.800	-200.000	-0.036	0.324
-370.785	124.889	0.110	-0.138
-369.771	800.000	0.032	-0.117
-368.756	19.268	0.043	0.035
-367.742	210.646	0.141	0.221
-366.727	-86.664	-0.340	-0.104
-365.712	50.955	-0.239	-0.226
-364.698	489.914	0.148	-0.337
-363.683	-173.451	-0.159	0.005
-362.669	-200.000	0.029	-0.189
-361.654	108.182	0.134	-0.160
-360.639	-48.078	0.161	0.078
-359.625	800.000	-0.075	0.210
-358.610	-157.362	0.162	0.010
-357.596	800.000	0.021	-0.087
-356.581	3.211	0.367	-0.266
-355.566	51.238	0.249	0.236
-354.552	800.000	0.029	0.081
-353.537	-156.047	0.147	-0.009
-352.523	267.470	0.071	0.124
-351.508	-118.425	0.068	-0.012
-350.493	291.283	0.121	0.220
-349.479	19.830	-0.295	0.237
-348.464	-15.997	0.169	0.107
-347.450	349.053	-0.064	0.125
-346.435	800.000	-0.038	-0.140
-345.420	-154.580	-0.390	-0.026
-344.406	54.376	0.126	-0.121
-343.391	251.486	-0.055	0.094
-342.377	-162.601	0.029	0.001
-341.362	-30.711	-0.249	-0.141
-340.348	124.845	-0.085	-0.107
-339.333	439.193	-0.070	-0.153
-338.318	-200.000	-0.047	0.301
-337.304	-161.343	0.191	0.010
-336.289	-123.907	0.283	-0.044
-335.275	800.000	0.093	-0.405
-334.260	257.481	0.043	-0.073
-333.245	0.913	0.031	0.022
-332.231	-40.001	-0.157	0.082
-331.216	101.425	0.173	-0.201
-330.202	-60.455	0.050	-0.021
-329.187	-89.617	0.195	-0.057
-328.172	230.862	-0.051	0.084
-327.158	-17.420	0.242	0.152
-326.143	-51.273	0.192	-0.090
-325.129	-73.887	0.076	0.028
-324.114	-200.000	-0.009	-0.090
-323.099	-200.000	0.003	0.016
-322.085	-49.999	-0.106	-0.050
-321.070	-77.652	-0.354	-0.122
-320.056	58.277	0.137	-0.134
-319.041	515.336	0.141	-0.328
-318.026	-200.000	-0.003	-0.081
-317.012	800.000	-0.046	0.186
-315.997	86.553	-0.185	0.203
-314.983	21.851	0.056	0.045
-313.968	800.000	0.070	0.213
-312.953	117.593	0.167	0.204
-311.939	205.035	-0.056	-0.086
-310.924	800.000	0.066	-0.195
-309.910	78.557	-0.160	-0.170
-308.895	-200.000	-0.028	0.152
-307.880	42.796	0.224	-0.203
-306.866	-62.223	-0.411	0.171
-305.851	-200.000	-0.013	0.213
-304.837	58.691	-0.198	-0.193
-303.822	170.468	-0.182	-0.260
-302.807	-63.018	-0.180	0.074
-301.793	-17.986	-0.195	-0.122
-300.778	68.198	-0.197	-0.201
-299.764	159.503	-0.080	0.111
-298.749	-124.006	0.166	0.026
-297.735	-57.066	-0.066	0.029
-296.720	-106.964	0.322	-0.071
-295.705	-127.809	-0.198	-0.028
-294.691	478.924	-0.061	0.137
-293.676	54.550	-0.169	0.162
-292.662	-43.596	-0.195	-0.098
-291.647	-113.427	0.228	-0.044
-290.632	-143.728	-0.215	-0.020
-289.618	-145.482	-0.248	-0.022
-288.603	-97.994	0.261	0.067
-287.589	721.621	0.054	-0.144
-286.574	800.000	0.120	0.417
-285.559	31.399	-0.187	0.160
-284.545	-130.217	-0.132	-0.018
-283.530	-57.937	0.099	-0.043
-282.516	800.000	0.023	-0.069
-281.501	-200.000	0.012	-0.239
-280.486	-119.130	0.229	0.040
-279.472	-57.223	-0.255	0.112
-278.457	-142.239	-0.135	-0.013
-277.443	33.466	0.308	0.266
-276.428	-200.000	0.023	-0.116
-275.413	-200.000	-0.027	0.120
-274.399	800.000	-0.085	-0.245
-273.384	160.613	0.116	0.161
-272.370	-46.597	0.157	-0.076
-271.355	441.304	0.087	-0.188
-270.340	151.416	-0.163	0.221
-269.326	199.235	-0.183	-0.279
-268.311	-79.313	0.297	0.100
-267.297	305.845	-0.074	0.137
-266.282	390.188	-0.125	0.257
-265.267	-65.368	0.057	-0.023
-264.253	-97.231	-0.114	0.030
-263.238	-110.105	-0.116	-0.024
-262.224	800.000	-0.049	0.157
-261.209	23.622	0.275	0.225
-260.195	343.756	0.060	0.117
-259.180	344.406	-0.142	-0.276
-258.165	271.185	0.091	0.160
-257.151	37.907	0.176	-0.156
-256.136	-70.330	-0.147	0.055
-255.122	-107.902	0.419	-0.091
-254.107	-29.095	0.068	-0.039
-253.092	-126.201	-0.332	0.049
-252.078	-156.660	0.182	0.011
-251.063	-200.000	-0.025	0.339
-250.049	179.449	-0.101	0.147
-249.034	106.541	-0.204	0.240
-248.019	143.084	-0.042	0.055
-247.005	-200.000	0.031	0.153
-245.990	-200.000	-0.042	-0.228
-244.976	800.000	-0.031	-0.092
-243.961	138.303	-0.124	0.162
-242.946	-54.295	-0.033	-0.015
-241.932	-26.232	-0.224	0.131
-240.917	-80.415	-0.160	-0.053
-239.903	172.873	-0.011	0.016
-238.888	-143.130	0.350	-0.033
-237.873	-62.575	0.290	-0.119
-236.859	91.094	0.094	-0.105
-235.844	-55.248	-0.243	0.109
-234.830	-151.517	-0.231	-0.017
-233.815	-200.000	-0.001	-0.169
-232.800	252.049	0.131	-0.221
-231.786	-200.000	-0.006	-0.124
-230.771	-44.746	0.095	0.047
-229.757	-138.253	-0.275	-0.030
-228.742	123.309	0.164	0.203
-227.727	308.406	0.139	-0.258
-226.713	-89.592	-0.407	0.119
-225.698	-134.230	0.188	-0.023
-224.684	-200.000	0.001	0.288
-223.669	-200.000	-0.047	-0.242
-222.655	800.000	0.036	0.123
-221.640	14.488	0.142	-0.110
-220.625	-77.719	-0.545	0.187
-219.611	800.000	0.014	-0.041
-218.596	-200.000	-0.001	-0.080
-217.582	-67.328	0.301	0.117
-216.567	-37.506	0.219	0.116
-215.552	52.725	0.060	0.057
-214.538	-104.292	-0.202	-0.047
-213.523	-200.000	-0.020	0.248
-212.509	66.535	0.183	-0.184
-211.494	528.941	-0.117	0.274
-210.479	800.000	0.065	0.229
-209.465	524.203	0.143	0.334
-208.450	-38.682	0.210	0.110
-207.436	-73.313	-0.352	0.128
-206.421	-154.432	0.251	-0.017
-205.406	-65.400	0.064	0.026
-204.392	30.258	0.108	0.091
-203.377	-200.000	0.036	0.335
-202.363	-200.000	0.000	-0.112
-201.348	87.100	-0.184	-0.201
-200.333	-88.236	0.136	0.040
-199.319	273.433	-0.124	0.218
-198.304	-87.414	0.321	0.096
-197.290	800.000	-0.076	0.249
-196.275	-200.000	-0.028	-0.368
-195.260	625.350	-0.069	0.172
-194.246	-118.687	-0.317	0.055
-193.231	356.135	-0.092	-0.182
-192.217	-200.000	-0.031	-0.316
-191.202	800.000	-0.035	0.110
-190.187	-66.517	-0.207	0.082
-189.173	-93.973	0.129	0.035
-188.158	-99.881	0.151	-0.037
-187.144	188.317	0.215	0.319
-186.129	800.000	0.058	-0.240
-185.114	161.539	-0.118	-0.164
-184.100	82.651	-0.178	-0.191
-183.085	108.847	-0.144	0.171
-182.071	124.926	0.064	-0.080
-181.056	128.941	-0.135	0.171
-180.042	-65.422	-0.219	-0.087
-179.027	244.783	-0.100	-0.167
-178.012	13.299	-0.259	-0.199
-176.998	-9.595	-0.095	0.062
-175.983	-200.000	0.006	0.039
-174.969	-111.742	0.242	0.048
-173.954	-143.660	0.053	0.005
-172.939	133.173	-0.219	-0.280
-171.925	800.000	0.065	0.211
-170.910	-200.000	0.010	0.130
-169.896	-78.082	-0.334	0.114
-168.881	-72.815	0.258	-0.094
-167.866	308.815	-0.135	0.250
-166.852	-84.883	-0.078	0.024
-165.837	-127.267	-0.198	0.029
-164.823	-168.386	0.467	-0.018
-163.808	411.036	-0.063	0.132
-162.793	-139.600	0.422	0.045
-161.779	86.413	-0.233	-0.255
-160.764	-136.623	0.314	0.036
-159.750	-68.582	0.281	0.108
-158.735	121.259	-0.072	-0.088
-157.720	-166.386	0.477	-0.020
-156.706	-200.000	0.029	-0.132
-155.691	37.088	-0.362	0.317
-154.677	192.151	-0.139	-0.207
-153.662	-4.479	-0.361	-0.247
-152.647	-45.486	-0.304	-0.149
-151.633	-22.107	-0.260	0.156
-150.618	445.555	-0.132	-0.286
-149.604	-155.972	-0.240	-0.015
-148.589	-94.811	0.157	0.042
-147.574	42.275	-0.206	-0.185
-146.560	-71.823	-0.178	-0.066
-145.545	88.384	0.159	-0.174
-144.531	109.570	-0.072	0.085
-143.516	-52.739	-0.162	-0.074
-142.502	-44.691	-0.334	-0.165
-141.487	-77.728	0.180	0.062
-140.472	26.766	-0.208	0.172
-139.458	-116.482	-0.238	-0.043
-138.443	-138.442	-0.344	0.037
-137.429	-85.196	-0.179	0.055
-136.414	192.483	-0.255	-0.380
-135.399	70.216	-0.021	0.021
-134.385	-164.347	0.091	-0.004
-133.370	-200.000	-0.005	-0.157
-132.356	-155.865	0.192	0.012
-131.341	217.660	0.136	-0.214
-130.326	800.000	-0.008	0.028
-129.312	800.000	-0.034	-0.106
-128.297	-45.308	0.400	-0.196
-127.283	800.000	0.093	-0.257
-126.268	-200.000	0.015	-0.390
-125.253	15.841	0.262	-0.203
-124.239	-90.920	-0.157	0.045
-123.224	-126.698	0.200	-0.029
-122.210	-164.775	-0.348	0.015
-121.195	-63.726	-0.222	-0.090
