DTS Sentinel unit serial number:	SN413079Multiplexer serial number:	ORYXHardware model number:	OX4-SRSoftware version number:	ORYX F/W v4.00 Oryx Data Collector v3.7.2.0data status	okinstallation	princeton_trtdifferential loss correction	single-endedforward channel	channel 4reverse channel	N/Adate	2019/09/11time	08:39:11forward acquisition time	60.00reverse acquisition time	0.00gamma	496.2192k internal	0.2303k external	0.2303temperature offset calibration	0.9966default loss term (dB/km)	0.3790temperature slope calibration	1.0000multiplexer offset coefficient	1.0000multiplexer slope coefficient	1.0000fibre end	0.00T internal ref (°C)	33.44T ext. ref 1 (°C)	0.07T ext. ref 2 (°C)	30.62length (m)	temperature (°C)	Stokes	anti-Stokes-747.200	-140.805	0.342	0.036
-746.185	235.983	-0.234	0.395
-745.171	149.796	-0.228	-0.315
-744.156	-158.331	-0.375	0.022
-743.142	48.085	-0.174	0.166
-742.127	-200.000	0.022	0.265
-741.112	-143.615	0.348	0.034
-740.098	61.581	-0.221	0.224
-739.083	61.216	0.181	0.183
-738.069	-118.816	-0.172	0.031
-737.054	155.937	-0.248	-0.349
-736.039	42.957	-0.189	-0.175
-735.025	136.836	-0.208	-0.276
-734.010	-200.000	-0.031	-0.236
-732.996	60.122	-0.091	0.091
-731.981	-73.473	-0.407	0.151
-730.966	-94.489	-0.373	-0.104
-729.952	-200.000	-0.001	0.037
-728.937	-74.438	-0.244	-0.090
-727.923	-68.291	-0.308	-0.122
-726.908	401.393	-0.189	-0.404
-725.894	-62.643	-0.064	0.027
-724.879	90.874	0.042	-0.048
-723.864	-200.000	-0.062	0.297
-722.850	-16.794	0.266	-0.171
-721.835	-108.936	-0.189	0.041
-720.821	800.000	0.053	-0.213
-719.806	-200.000	0.050	-0.327
-718.791	126.985	-0.254	-0.328
-717.777	169.033	0.106	0.154
-716.762	-200.000	0.007	-0.192
-715.748	127.579	0.151	0.195
-714.733	263.250	0.034	-0.060
-713.718	-63.146	-0.355	-0.149
-712.704	337.311	-0.149	-0.296
-711.689	288.439	-0.104	0.192
-710.675	90.538	-0.073	0.083
-709.660	-110.363	0.400	-0.085
-708.645	24.469	-0.272	-0.229
-707.631	-105.965	-0.053	-0.012
-706.616	54.690	-0.199	-0.195
-705.602	196.428	-0.101	-0.157
-704.587	502.229	0.063	-0.148
-703.572	54.318	0.287	-0.281
-702.558	-68.399	0.318	-0.125
-701.543	-76.870	-0.246	-0.087
-700.529	-138.267	-0.301	-0.034
-699.514	197.837	0.082	0.128
-698.499	11.453	-0.235	-0.183
-697.485	-65.545	-0.301	0.123
-696.470	-200.000	-0.007	0.269
-695.456	155.176	0.129	-0.180
-694.441	-56.257	0.210	0.095
-693.426	-78.786	-0.228	0.079
-692.412	280.673	-0.173	-0.314
-691.397	125.246	-0.284	-0.363
-690.383	188.996	0.137	0.208
-689.368	-109.762	0.255	0.055
-688.354	800.000	-0.024	-0.078
-687.339	187.475	-0.268	-0.407
-686.324	115.079	-0.109	-0.135
-685.310	-64.216	-0.156	0.065
-684.295	17.803	-0.301	-0.243
-683.281	-125.212	-0.298	-0.046
-682.266	92.279	-0.192	-0.220
-681.251	-200.000	-0.007	0.359
-680.237	46.310	0.113	-0.106
-679.222	156.013	-0.071	0.099
-678.208	38.198	-0.353	-0.319
-677.193	-163.280	-0.213	-0.010
-676.178	-112.713	0.106	-0.021
-675.164	78.175	-0.331	-0.359
-674.149	308.488	-0.239	-0.453
-673.135	0.120	-0.095	-0.069
-672.120	-200.000	-0.022	-0.125
-671.105	-118.793	-0.451	-0.081
-670.091	89.941	0.158	0.179
-669.076	-30.430	-0.203	-0.117
-668.062	-200.000	-0.026	0.159
-667.047	-200.000	-0.228	-0.001
-666.032	29.771	-0.081	0.070
-665.018	-41.732	-0.417	-0.218
-664.003	68.569	-0.107	0.112
-662.989	107.678	-0.097	0.117
-661.974	-200.000	0.084	-0.376
-660.959	34.508	-0.059	0.052
-659.945	220.855	-0.003	0.005
-658.930	-48.726	0.137	0.067
-657.916	90.976	-0.135	0.154
-656.901	-200.000	0.042	-0.431
-655.886	224.867	0.097	-0.160
-654.872	15.971	-0.043	0.034
-653.857	15.828	0.251	-0.200
-652.843	-200.000	0.021	-0.243
-651.828	271.492	-0.125	0.224
-650.814	-61.812	-0.368	0.156
-649.799	20.832	0.228	-0.187
-648.784	200.508	-0.204	-0.319
-647.770	800.000	-0.102	-0.373
-646.755	132.553	-0.207	0.270
-645.741	-200.000	-0.006	-0.082
-644.726	-140.483	0.403	0.043
-643.711	-45.028	-0.226	0.114
-642.697	-47.457	0.067	-0.033
-641.682	-9.435	-0.116	-0.079
-640.668	-200.000	0.008	-0.200
-639.653	11.437	0.091	0.071
-638.638	-200.000	-0.015	-0.108
-637.624	-55.052	-0.290	0.132
-636.609	-200.000	0.050	0.277
-635.595	-200.000	0.262	-0.001
-634.580	-45.618	-0.227	-0.114
-633.565	13.972	0.187	-0.148
-632.551	24.746	-0.142	-0.119
-631.536	244.704	0.032	0.054
-630.522	-116.394	0.119	-0.022
-629.507	151.498	-0.070	-0.096
-628.492	152.787	-0.152	0.211
-627.478	156.239	0.123	-0.172
-626.463	-76.642	0.179	-0.064
-625.449	272.024	0.116	-0.208
-624.434	336.550	-0.080	0.158
-623.419	-200.000	0.004	-0.232
-622.405	-112.260	-0.198	-0.040
-621.390	800.000	-0.038	-0.123
-620.376	37.394	-0.098	-0.088
-619.361	797.303	-0.048	-0.134
-618.346	-7.860	0.179	-0.123
-617.332	3.541	-0.239	0.177
-616.317	-36.449	0.255	0.139
-615.303	744.527	-0.062	0.170
-614.288	-98.216	0.179	-0.047
-613.273	-103.381	-0.315	-0.075
-612.259	-137.511	-0.148	0.017
-611.244	118.704	0.129	0.162
-610.230	800.000	-0.013	-0.040
-609.215	21.874	0.202	-0.167
-608.201	77.542	-0.174	-0.187
-607.186	800.000	0.086	-0.298
-606.171	485.862	-0.027	-0.063
-605.157	231.738	0.056	-0.093
-604.142	-47.063	-0.079	0.039
-603.128	-160.314	-0.206	-0.011
-602.113	310.843	-0.171	-0.325
-601.098	-114.813	0.168	-0.032
-600.084	-23.459	-0.249	-0.152
-599.069	-200.000	-0.009	-0.305
-598.055	544.842	-0.069	0.167
-597.040	103.519	0.068	0.081
-596.025	179.056	-0.062	-0.092
-595.011	-140.884	0.254	-0.027
-593.996	62.594	-0.146	0.148
-592.982	-28.498	0.074	0.043
-591.967	617.900	0.136	-0.345
-590.952	-200.000	0.065	0.306
-589.938	191.560	-0.086	-0.131
-588.923	116.016	0.147	-0.183
-587.909	-3.058	-0.227	0.160
-586.894	-141.666	-0.064	0.007
-585.879	-2.866	0.288	0.204
-584.865	-200.000	-0.024	-0.324
-583.850	800.000	-0.076	-0.214
-582.836	95.002	0.136	0.156
-581.821	-200.000	0.005	0.103
-580.806	-129.770	-0.181	0.025
-579.792	800.000	-0.052	0.223
-578.777	200.682	0.128	0.199
-577.763	584.258	0.055	0.138
-576.748	-123.307	0.085	-0.014
-575.733	800.000	0.078	-0.249
-574.719	139.968	0.070	-0.093
-573.704	-200.000	-0.052	-0.287
-572.690	13.292	0.233	0.183
-571.675	-200.000	0.053	0.329
-570.661	538.495	0.058	0.139
-569.646	-39.232	0.460	-0.244
-568.631	281.327	-0.061	0.110
-567.617	-134.920	-0.183	0.022
-566.602	85.620	-0.114	-0.126
-565.588	22.379	-0.210	0.173
-564.573	-118.475	-0.082	-0.015
-563.558	-200.000	-0.011	-0.271
-562.544	182.662	-0.143	0.213
-561.529	86.670	-0.110	-0.123
-560.515	153.271	0.114	0.158
-559.500	-40.279	-0.065	-0.034
-558.485	-31.683	0.083	-0.047
-557.471	152.924	0.171	0.236
-556.456	-140.837	-0.205	-0.021
-555.442	-103.737	-0.391	-0.093
-554.427	-200.000	-0.061	-0.508
-553.412	-9.971	0.268	-0.180
-552.398	-49.551	0.090	-0.043
-551.383	-21.941	-0.102	0.063
-550.369	-128.439	-0.123	0.018
-549.354	-156.449	0.216	-0.014
-548.339	-111.015	-0.241	-0.050
-547.325	-60.681	-0.075	0.032
-546.310	105.653	-0.080	-0.096
-545.296	-197.485	-0.189	0.001
-544.281	-200.000	-0.073	-0.436
-543.266	-102.603	0.249	0.060
-542.252	74.800	0.151	-0.160
-541.237	-78.277	-0.054	0.019
-540.223	800.000	0.048	-0.193
-539.208	-4.706	-0.200	-0.140
-538.193	186.515	-0.186	-0.279
-537.179	-200.000	0.000	-0.184
-536.164	-95.073	0.079	0.022
-535.150	-107.454	-0.305	-0.068
-534.135	112.044	0.193	-0.236
-533.121	395.658	0.034	-0.072
-532.106	2.891	-0.053	-0.039
-531.091	-200.000	-0.019	-0.093
-530.077	-200.000	-0.020	0.148
-529.062	139.958	-0.165	0.219
-528.048	72.337	0.293	-0.309
-527.033	-101.485	-0.239	-0.059
-526.018	82.636	-0.173	-0.190
-525.004	-76.371	0.143	0.051
-523.989	11.690	0.173	0.134
-522.975	89.815	-0.187	0.211
-521.960	657.060	-0.015	-0.040
-520.945	11.486	0.234	0.181
-519.931	-200.000	0.019	0.321
-518.916	58.909	-0.061	0.060
-517.902	800.000	0.039	0.129
-516.887	-14.369	-0.186	0.121
-515.872	755.859	-0.106	0.288
-514.858	-108.320	0.371	0.081
-513.843	-80.962	0.318	0.106
-512.829	-96.347	0.123	-0.033
-511.814	383.997	-0.034	0.070
-510.799	-200.000	0.019	0.087
-509.785	127.123	0.177	0.226
-508.770	-18.069	-0.102	-0.064
-507.756	800.000	-0.030	0.125
-506.741	-50.183	0.153	0.073
-505.726	196.205	-0.159	-0.244
-504.712	45.677	0.066	-0.062
-503.697	-16.808	0.156	0.100
-502.683	-50.044	-0.252	-0.121
-501.668	-200.000	-0.002	-0.237
-500.653	-200.000	-0.033	0.359
-499.639	-7.860	0.180	-0.123
-498.624	-39.444	0.143	0.076
-497.610	-6.354	-0.058	0.040
-496.595	192.469	0.084	0.127
-495.581	246.668	0.038	-0.065
-494.566	-61.680	-0.133	-0.056
-493.551	-200.000	0.001	-0.030
-492.537	123.263	0.086	-0.109
-491.522	800.000	0.044	0.125
-490.508	-200.000	0.002	0.040
-489.493	-97.800	-0.229	-0.060
-488.478	800.000	0.118	-0.411
-487.464	178.818	0.163	-0.240
-486.449	212.746	-0.183	0.290
-485.435	800.000	0.099	0.343
-484.420	14.500	0.186	-0.147
-483.405	384.652	0.158	-0.328
-482.391	-41.033	-0.244	-0.127
-481.376	18.517	-0.153	-0.123
-480.362	-88.176	0.287	0.087
-479.347	-71.155	0.083	-0.032
-478.332	-147.223	0.225	-0.019
-477.318	-64.926	-0.078	0.032
-476.303	-166.847	-0.071	0.003
-475.289	-143.436	0.186	-0.018
-474.274	205.171	-0.086	-0.134
-473.259	-43.386	0.130	-0.066
-472.245	-118.081	0.100	0.018
-471.230	800.000	-0.071	0.270
-470.216	-200.000	-0.012	-0.081
-469.201	449.113	0.041	0.092
-468.186	516.448	-0.088	0.207
-467.172	294.883	-0.019	-0.036
-466.157	-200.000	0.000	0.014
-465.143	-142.039	-0.233	-0.023
-464.128	-200.000	0.058	0.290
-463.113	-41.430	0.285	-0.148
-462.099	30.085	-0.104	0.090
-461.084	-200.000	0.041	-0.238
-460.070	112.893	-0.105	0.128
-459.055	81.029	0.275	-0.299
-458.040	-200.000	0.006	-0.161
-457.026	-80.861	0.151	0.051
-456.011	-114.655	-0.222	0.043
-454.997	-85.884	0.143	0.045
-453.982	0.186	0.081	0.058
-452.968	36.952	0.112	0.100
-451.953	126.819	0.031	0.039
-450.938	-200.000	-0.023	-0.260
-449.924	792.339	-0.169	-0.467
-448.909	-94.465	0.289	-0.079
-447.895	151.314	-0.118	-0.162
-446.880	-99.915	0.144	0.036
-445.865	26.885	0.149	-0.126
-444.851	-27.036	0.119	0.070
-443.836	-200.000	-0.020	-0.302
-442.822	-35.947	-0.312	0.170
-441.807	-200.000	0.018	-0.152
-440.792	-11.585	0.260	-0.172
-439.778	-26.082	-0.136	0.080
-438.763	655.609	-0.030	-0.078
-437.749	-200.000	-0.045	0.210
-436.734	800.000	-0.033	0.098
-435.719	43.883	0.209	0.193
-434.705	11.541	-0.166	0.128
-433.690	-96.924	-0.433	0.114
-432.676	-119.404	-0.428	0.075
-431.661	29.010	-0.015	0.013
-430.646	-139.035	-0.064	0.007
-429.632	356.392	-0.164	0.330
-428.617	-200.000	-0.009	0.049
-427.603	249.876	0.098	0.168
-426.588	800.000	0.041	-0.125
-425.573	220.775	0.198	0.320
-424.559	177.399	0.060	-0.088
-423.544	254.343	0.130	-0.223
-422.530	-194.006	0.192	-0.002
-421.515	-200.000	-0.002	-0.167
-420.500	-182.636	-0.289	-0.005
-419.486	0.462	-0.068	0.049
-418.471	371.338	0.080	-0.164
-417.457	39.602	-0.309	0.279
-416.442	-76.168	0.175	-0.062
-415.428	274.402	-0.093	-0.166
-414.413	-177.794	-0.213	-0.005
-413.398	16.541	0.217	-0.172
-412.384	-72.152	-0.234	-0.087
-411.369	-200.000	0.080	0.413
-410.355	536.352	-0.096	-0.230
-409.340	218.430	-0.084	-0.134
-408.325	-44.874	-0.419	0.210
-407.311	-164.930	-0.271	-0.012
-406.296	38.489	0.110	-0.099
-405.282	-121.780	0.202	-0.034
-404.267	-99.672	0.311	0.078
-403.252	35.571	0.311	0.275
-402.238	222.052	0.132	0.213
-401.223	-20.845	-0.134	-0.083
-400.209	800.000	0.020	0.061
-399.194	26.144	-0.049	0.041
-398.179	696.666	0.100	0.265
-397.165	147.935	0.069	0.094
-396.150	800.000	0.050	-0.199
-395.136	-133.832	0.273	-0.034
-394.121	-182.626	0.330	-0.006
-393.106	88.371	0.156	-0.174
-392.092	-86.897	0.137	0.042
-391.077	-18.573	-0.261	0.163
-390.063	203.302	0.033	0.051
-389.048	612.160	-0.153	0.383
-388.033	16.851	-0.123	0.098
-387.019	725.298	-0.042	-0.113
-386.004	-33.191	0.030	0.016
-384.990	-6.828	0.127	0.087
-383.975	-73.255	0.372	0.137
-382.960	14.413	-0.267	-0.209
-381.946	-200.000	0.012	0.088
-380.931	-14.037	-0.318	-0.206
-379.917	-42.652	-0.161	0.082
-378.902	479.546	0.090	0.205
-377.888	-70.009	-0.111	-0.042
-376.873	800.000	0.077	-0.287
-375.858	-116.074	0.029	-0.005
-374.844	-122.491	0.059	-0.010
-373.829	-6.624	-0.222	0.152
-372.815	36.119	-0.107	-0.095
-371.800	800.000	-0.034	-0.106
-370.785	800.000	0.032	-0.091
-369.771	8.361	-0.254	-0.192
-368.756	-10.521	-0.440	-0.293
-367.742	183.255	0.100	0.149
-366.727	-200.000	-0.005	-0.027
-365.712	800.000	0.070	0.298
-364.698	35.834	-0.275	-0.243
-363.683	-109.120	0.213	-0.045
-362.669	-163.535	0.100	-0.005
-361.654	109.252	0.165	0.199
-360.639	-5.312	-0.175	-0.121
-359.625	64.101	0.083	0.084
-358.610	406.503	0.191	-0.405
-357.596	-154.986	-0.519	-0.034
-356.581	800.000	0.052	0.156
-355.566	-200.000	0.021	0.413
-354.552	452.670	-0.138	0.307
-353.537	800.000	-0.040	-0.158
-352.523	-81.603	0.278	0.092
-351.508	-60.131	0.385	0.165
-350.493	-200.000	0.022	0.185
-349.479	40.665	-0.135	-0.122
-348.464	121.764	-0.085	-0.106
-347.450	-200.000	0.004	-0.083
-346.435	117.137	-0.177	0.218
-345.420	-56.895	0.388	0.172
-344.406	-96.780	-0.234	-0.062
-343.391	-22.984	0.165	-0.100
-342.377	55.966	-0.169	0.165
-341.362	800.000	-0.024	-0.081
-340.348	-200.000	0.017	0.119
-339.333	373.749	0.068	0.139
-338.318	-200.000	-0.033	-0.211
-337.304	-82.850	0.253	-0.082
-336.289	-88.693	0.315	-0.094
-335.275	800.000	-0.102	0.355
-334.260	-200.000	-0.001	-0.096
-333.245	-90.233	0.517	0.151
-332.231	3.411	0.038	0.028
-331.216	124.711	-0.059	0.075
-330.202	-102.828	-0.173	-0.041
-329.187	-30.271	-0.423	-0.241
-328.172	-50.265	-0.108	-0.051
-327.158	-58.778	-0.350	0.152
-326.143	-200.000	0.019	0.140
-325.129	-200.000	-0.067	0.422
-324.114	-35.809	-0.136	0.074
-323.099	800.000	-0.074	0.229
-322.085	800.000	0.028	0.102
-321.070	30.626	0.168	0.144
-320.056	-117.756	0.238	0.043
-319.041	535.337	-0.075	0.179
-318.026	140.506	0.282	-0.372
-317.012	97.417	-0.162	0.186
-315.997	111.248	0.207	-0.250
-314.983	765.123	0.067	-0.182
-313.968	99.036	0.130	0.151
-312.953	126.389	-0.205	-0.260
-311.939	219.490	0.127	0.204
-310.924	-159.199	0.222	0.012
-309.910	-183.236	0.160	0.003
-308.895	84.805	-0.142	0.156
-307.880	118.902	-0.038	0.047
-306.866	144.219	0.244	-0.326
-305.851	-90.363	-0.188	-0.055
-304.837	800.000	0.087	0.372
-303.822	-200.000	-0.008	0.045
-302.807	-56.515	0.174	-0.077
-301.793	-200.000	0.019	-0.168
-300.778	118.025	-0.118	-0.146
-299.764	0.524	0.182	0.130
-298.749	-55.951	0.127	-0.057
-297.735	-200.000	-0.017	-0.130
-296.720	38.623	0.112	-0.100
-295.705	-6.117	-0.166	-0.114
-294.691	269.964	0.079	-0.140
-293.676	253.494	0.159	0.272
-292.662	-200.000	-0.007	0.282
-291.647	-189.632	-0.129	0.001
-290.632	-200.000	-0.042	0.238
-289.618	239.863	-0.087	0.145
-288.603	70.836	-0.135	0.140
-287.589	186.242	0.147	0.219
-286.574	-200.000	-0.004	0.057
-285.559	-137.976	0.098	0.011
-284.545	420.351	-0.152	0.325
-283.530	105.072	0.158	-0.186
-282.516	-72.200	-0.207	-0.077
-281.501	45.803	0.220	-0.203
-280.486	170.019	-0.393	-0.563
-279.472	66.320	0.091	0.092
-278.457	-63.026	0.216	0.089
-277.443	-13.972	0.295	0.191
-276.428	-22.180	-0.263	-0.159
-275.413	-50.146	0.247	-0.117
-274.399	-151.414	-0.266	0.020
-273.384	22.410	0.260	0.213
-272.370	180.885	-0.096	-0.141
-271.355	-21.364	-0.361	0.221
-270.340	293.352	0.005	0.010
-269.326	800.000	-0.062	-0.202
-268.311	-200.000	-0.035	0.181
-267.297	33.647	0.261	0.227
-266.282	275.828	-0.120	0.213
-265.267	6.310	0.266	0.197
-264.253	800.000	0.054	0.160
-263.238	-200.000	-0.042	-0.288
-262.224	440.978	-0.183	-0.401
-261.209	-139.543	-0.149	0.016
-260.195	-200.000	0.078	-0.387
-259.180	-11.422	-0.110	-0.072
-258.165	-20.121	0.141	-0.087
-257.151	-115.385	0.184	-0.035
-256.136	-106.690	-0.555	0.123
-255.122	-200.000	0.011	-0.490
-254.107	-150.083	-0.241	0.019
-253.092	129.507	-0.029	-0.038
-252.078	-106.844	-0.208	0.046
-251.063	-89.533	-0.160	0.047
-250.049	-77.817	0.242	0.083
-249.034	-200.000	-0.051	0.281
-248.019	33.926	-0.132	0.115
-247.005	36.261	0.135	0.119
-245.990	249.642	0.080	-0.136
-244.976	-88.796	0.222	0.066
-243.961	-116.441	-0.378	-0.070
-242.946	-134.345	-0.313	0.038
-241.932	800.000	-0.116	-0.457
-240.917	68.414	0.199	0.204
-239.903	-52.594	-0.112	-0.052
-238.888	21.287	0.172	0.140
-237.873	-23.128	0.120	0.072
-236.859	-167.861	-0.257	-0.010
-235.844	230.000	0.071	-0.116
-234.830	-200.000	0.013	0.092
-233.815	212.868	0.077	0.121
-232.800	543.604	0.047	-0.112
-231.786	-58.163	-0.130	-0.056
-230.771	-200.000	0.045	0.208
-229.757	-85.951	-0.318	0.098
-228.742	91.412	0.040	-0.045
-227.727	-77.241	-0.226	0.078
-226.713	424.950	0.071	0.152
-225.698	-200.000	-0.050	-0.257
-224.684	51.889	-0.131	0.125
-223.669	-126.753	0.495	-0.073
-222.655	-145.029	0.347	-0.032
-221.640	266.477	-0.176	0.308
-220.625	-200.000	-0.002	0.317
-219.611	-200.000	0.031	0.325
-218.596	-137.892	-0.187	0.021
-217.582	800.000	0.104	0.436
-216.567	-14.043	-0.110	-0.071
-215.552	-200.000	0.050	-0.358
-214.538	-145.314	0.125	0.011
-213.523	490.471	-0.058	0.133
-212.509	126.725	0.158	0.200
-211.494	800.000	0.076	-0.259
-210.479	224.329	-0.210	-0.338
-209.465	111.078	-0.158	0.190
-208.450	-131.749	0.449	0.059
-207.436	-72.361	-0.070	0.026
-206.421	-137.383	-0.102	0.012
-205.406	800.000	-0.051	-0.192
-204.392	-135.554	0.137	-0.016
-203.377	44.306	0.164	0.150
-202.363	-124.293	-0.243	0.038
-201.348	58.028	0.233	0.227
-200.333	5.147	-0.089	-0.065
-199.319	144.583	-0.054	-0.072
-198.304	-52.445	0.215	0.099
-197.290	48.164	0.029	-0.027
-196.275	-119.534	-0.340	-0.059
-195.260	-55.251	0.166	0.074
-194.246	-36.332	0.087	0.047
-193.231	8.122	0.275	0.206
-192.217	-28.466	-0.088	-0.051
-191.202	-200.000	0.008	0.138
-190.187	38.276	0.036	-0.032
-189.173	800.000	-0.043	0.186
-188.158	479.975	-0.047	0.106
-187.144	800.000	0.027	-0.104
-186.129	800.000	-0.069	-0.231
-185.114	26.964	-0.147	-0.123
-184.100	-64.299	-0.144	-0.058
-183.085	69.349	-0.184	-0.188
-182.071	252.703	0.156	-0.265
-181.056	-71.754	-0.377	-0.140
-180.042	-87.112	0.222	0.067
-179.027	-195.318	-0.164	0.001
-178.012	144.284	0.133	0.177
-176.998	83.369	0.116	-0.126
-175.983	101.748	0.357	-0.415
-174.969	-113.706	-0.467	0.091
-173.954	216.110	0.132	0.208
-172.939	84.936	0.177	0.193
-171.925	-76.304	-0.242	0.085
-170.910	-153.169	-0.280	-0.020
-169.896	14.058	-0.063	0.049
-168.881	7.732	-0.184	-0.137
-167.866	501.258	0.117	-0.270
-166.852	369.509	-0.127	0.255
-165.837	427.832	0.101	0.216
-164.823	27.867	0.228	0.191
-163.808	120.834	0.173	-0.214
-162.793	800.000	-0.026	0.088
-161.779	800.000	-0.039	0.129
-160.764	-132.060	0.182	-0.024
-159.750	22.476	0.051	0.042
-158.735	72.335	-0.277	0.288
-157.720	-180.313	-0.278	-0.006
-156.706	-35.208	0.151	0.082
-155.691	82.448	0.094	-0.101
-154.677	136.833	0.127	0.165
-153.662	-63.315	-0.112	-0.046
-152.647	-57.944	0.201	-0.088
-151.633	244.831	0.109	-0.182
-150.618	383.214	-0.116	-0.238
-149.604	800.000	0.023	0.085
-148.589	-200.000	0.013	0.184
-147.574	-167.302	0.133	-0.005
-146.560	-200.000	-0.043	-0.188
-145.545	534.030	-0.119	-0.281
-144.531	166.087	-0.097	0.136
-143.516	348.934	-0.130	0.255
-142.502	-200.000	-0.013	0.076
-141.487	-25.227	-0.161	0.095
-140.472	800.000	0.043	-0.185
-139.458	-85.534	-0.081	-0.025
-138.443	-160.548	0.267	-0.014
-137.429	-200.000	0.006	-0.325
-136.414	119.349	0.195	0.240
-135.399	-169.018	-0.156	0.006
-134.385	667.851	0.037	0.096
-133.370	535.638	-0.070	0.165
-132.356	800.000	-0.061	0.173
-131.341	-99.765	-0.199	-0.050
-130.326	-22.246	0.179	-0.108
-129.312	-200.000	0.043	0.359
-128.297	-82.137	0.283	-0.092
-127.283	-57.927	-0.037	-0.016
-126.268	-147.943	0.265	-0.022
-125.253	34.365	-0.233	-0.202
-124.239	42.700	0.180	-0.163
-123.224	-43.436	-0.319	-0.160
-122.210	51.769	-0.018	-0.017
-121.195	225.707	-0.025	0.041
