DTS Sentinel unit serial number:	SN413079Multiplexer serial number:	ORYXHardware model number:	OX4-SRSoftware version number:	ORYX F/W v4.00 Oryx Data Collector v3.7.2.0data status	okinstallation	princeton_trtdifferential loss correction	single-endedforward channel	channel 4reverse channel	N/Adate	2019/09/11time	08:59:11forward acquisition time	60.00reverse acquisition time	0.00gamma	496.2192k internal	0.2300k external	0.2300temperature offset calibration	0.9970default loss term (dB/km)	0.3790temperature slope calibration	1.0000multiplexer offset coefficient	1.0000multiplexer slope coefficient	1.0000fibre end	0.00T internal ref (°C)	34.06T ext. ref 1 (°C)	0.11T ext. ref 2 (°C)	30.70length (m)	temperature (°C)	Stokes	anti-Stokes-747.200	84.157	0.194	0.216
-746.185	800.000	-0.133	0.388
-745.171	-200.000	-0.001	0.030
-744.156	-60.210	-0.127	-0.055
-743.142	800.000	-0.063	-0.222
-742.127	80.467	-0.048	0.053
-741.112	166.628	0.247	-0.357
-740.098	419.560	-0.043	0.093
-739.083	-59.120	0.132	0.058
-738.069	800.000	-0.112	0.393
-737.054	318.996	-0.075	-0.145
-736.039	-138.135	-0.271	-0.031
-735.025	-138.895	-0.104	-0.012
-734.010	-200.000	0.002	0.062
-732.996	-110.382	-0.236	-0.050
-731.981	-99.159	0.028	-0.007
-730.966	194.056	-0.053	0.082
-729.952	14.801	-0.232	-0.185
-728.937	-200.000	0.008	0.080
-727.923	-27.370	0.476	0.282
-726.908	101.795	0.094	0.112
-725.894	0.128	-0.241	-0.175
-724.879	402.583	0.062	-0.133
-723.864	-200.000	0.003	-0.282
-722.850	-54.421	0.368	-0.170
-721.835	-200.000	-0.021	0.135
-720.821	16.479	-0.129	-0.104
-719.806	800.000	-0.025	0.079
-718.791	-200.000	-0.025	-0.275
-717.777	-102.224	-0.291	0.071
-716.762	555.591	0.073	-0.179
-715.748	52.937	-0.111	0.108
-714.733	380.713	-0.129	-0.269
-713.718	-130.490	-0.225	-0.031
-712.704	-200.000	-0.024	0.113
-711.689	302.643	0.161	0.304
-710.675	800.000	0.059	-0.234
-709.660	-12.725	-0.206	0.137
-708.645	-99.430	0.303	-0.078
-707.631	27.535	-0.219	-0.188
-706.616	-166.258	-0.232	0.010
-705.602	-161.424	-0.196	-0.010
-704.587	156.382	-0.105	0.147
-703.572	42.788	-0.072	-0.067
-702.558	31.274	-0.085	-0.074
-701.543	58.473	0.154	0.154
-700.529	-152.881	0.276	0.020
-699.514	7.889	-0.159	-0.121
-698.499	-200.000	0.048	-0.379
-697.485	-104.376	-0.160	0.038
-696.470	584.821	-0.201	0.504
-695.456	-14.316	-0.055	-0.036
-694.441	264.352	-0.056	-0.099
-693.426	-200.000	0.044	0.198
-692.412	-5.681	0.115	0.080
-691.397	-22.298	-0.157	0.097
-690.383	-200.000	0.023	-0.212
-689.368	-200.000	0.016	0.182
-688.354	138.457	-0.142	-0.190
-687.339	-17.750	-0.165	0.105
-686.324	-127.506	-0.264	0.039
-685.310	139.449	-0.184	-0.246
-684.295	40.162	-0.012	-0.011
-683.281	-72.859	-0.243	-0.091
-682.266	13.278	-0.319	-0.251
-681.251	-121.573	-0.260	-0.044
-680.237	170.570	-0.225	-0.327
-679.222	800.000	0.024	-0.077
-678.208	-68.760	0.108	0.043
-677.193	473.073	0.052	0.120
-676.178	476.725	-0.104	-0.240
-675.164	800.000	0.053	0.235
-674.149	-40.501	-0.247	0.130
-673.135	-200.000	0.003	0.065
-672.120	-28.579	0.057	-0.034
-671.105	287.527	-0.137	-0.253
-670.091	49.350	-0.089	-0.085
-669.076	800.000	0.121	0.350
-668.062	-200.000	0.006	0.050
-667.047	19.887	-0.127	0.104
-666.032	213.649	0.166	-0.266
-665.018	-200.000	-0.024	0.332
-664.003	226.677	0.145	-0.239
-662.989	88.746	0.165	0.186
-661.974	800.000	-0.043	-0.178
-660.959	-61.194	0.406	0.174
-659.945	451.263	0.129	0.289
-658.930	800.000	0.072	0.264
-657.916	620.133	0.114	-0.293
-656.901	729.690	-0.086	0.234
-655.886	-200.000	0.042	0.561
-654.872	223.935	0.127	-0.208
-653.857	105.040	-0.182	-0.218
-652.843	800.000	-0.042	-0.131
-651.828	-50.524	0.117	-0.056
-650.814	-61.259	0.086	-0.037
-649.799	-51.911	0.323	0.152
-648.784	201.076	-0.156	-0.244
-647.770	-168.815	-0.375	-0.014
-646.755	-61.687	0.092	0.039
-645.741	-200.000	0.020	0.097
-644.726	142.221	-0.142	0.192
-643.711	-107.295	-0.185	0.041
-642.697	84.872	0.148	-0.165
-641.682	800.000	-0.051	0.177
-640.668	-90.984	-0.215	-0.063
-639.653	365.874	-0.103	-0.212
-638.638	582.302	-0.112	-0.278
-637.624	83.803	0.071	0.079
-636.609	-3.121	0.255	-0.180
-635.595	-200.000	-0.033	-0.246
-634.580	89.072	-0.219	-0.247
-633.565	-134.765	-0.229	0.028
-632.551	231.490	0.236	-0.392
-631.536	285.174	-0.050	-0.092
-630.522	-66.431	0.248	-0.100
-629.507	-120.080	-0.130	-0.023
-628.492	-200.000	-0.001	0.243
-627.478	694.598	0.050	0.133
-626.463	-115.134	-0.351	-0.068
-625.449	142.005	-0.023	0.031
-624.434	-157.578	-0.151	0.009
-623.419	-128.774	0.210	0.030
-622.405	-200.000	0.016	0.176
-621.390	-10.846	0.184	-0.123
-620.376	-173.421	0.095	0.003
-619.361	-200.000	-0.035	0.335
-618.346	-105.647	-0.183	-0.042
-617.332	686.723	-0.066	-0.175
-616.317	-30.779	-0.239	0.137
-615.303	22.933	-0.092	-0.077
-614.288	46.790	-0.102	-0.096
-613.273	21.889	0.251	-0.208
-612.259	2.760	-0.054	-0.040
-611.244	201.665	0.103	0.161
-610.230	22.781	-0.176	-0.146
-609.215	-200.000	0.056	-0.418
-608.201	208.156	0.069	-0.109
-607.186	-200.000	0.008	-0.123
-606.171	-110.148	-0.095	0.020
-605.157	137.628	0.105	-0.140
-604.142	122.887	0.076	0.097
-603.128	-200.000	-0.001	-0.348
-602.113	-84.093	0.063	-0.020
-601.098	-200.000	-0.004	0.060
-600.084	-2.472	-0.325	0.231
-599.069	140.084	0.194	0.259
-598.055	-150.988	0.356	0.027
-597.040	246.916	-0.103	-0.176
-596.025	-91.597	-0.043	-0.012
-595.011	-11.397	-0.115	0.076
-593.996	-125.449	-0.189	0.029
-592.982	-119.628	0.324	-0.057
-591.967	341.677	0.060	0.119
-590.952	419.987	0.156	0.339
-589.938	-2.223	-0.240	-0.171
-588.923	-20.343	0.230	-0.144
-587.909	-200.000	-0.028	0.237
-586.894	400.386	0.140	0.297
-585.879	147.968	-0.098	-0.134
-584.865	-84.524	0.080	-0.026
-583.850	-173.792	-0.191	0.006
-582.836	-200.000	-0.034	-0.204
-581.821	-200.000	0.080	-0.515
-580.806	800.000	-0.083	0.316
-579.792	-125.771	-0.247	-0.038
-578.777	-191.524	0.119	0.001
-577.763	-167.256	-0.238	0.010
-576.748	-91.130	0.221	0.064
-575.733	-200.000	-0.019	0.239
-574.719	199.828	-0.055	0.085
-573.704	-2.805	-0.171	0.121
-572.690	-200.000	0.077	-0.396
-571.675	27.287	0.248	0.211
-570.661	40.751	0.211	0.193
-569.646	-200.000	-0.030	-0.500
-568.631	800.000	-0.066	-0.236
-567.617	-72.763	-0.162	-0.061
-566.602	305.120	-0.098	-0.184
-565.588	164.983	0.109	-0.155
-564.573	-200.000	0.001	0.096
-563.558	-43.975	-0.046	0.024
-562.544	-200.000	0.038	-0.315
-561.529	121.500	-0.091	-0.115
-560.515	-26.935	-0.163	-0.096
-559.500	136.978	0.141	-0.186
-558.485	-64.630	0.110	-0.045
-557.471	-200.000	-0.004	0.040
-556.456	-56.962	-0.295	-0.132
-555.442	123.294	0.224	-0.284
-554.427	759.056	-0.151	0.413
-553.412	20.844	-0.240	0.197
-552.398	111.597	-0.148	0.180
-551.383	121.787	0.051	0.064
-550.369	89.959	0.178	0.201
-549.354	186.281	0.127	-0.191
-548.339	-200.000	0.024	-0.360
-547.325	398.592	0.137	0.291
-546.310	-3.970	0.113	-0.079
-545.296	-113.519	0.159	0.031
-544.281	-160.965	-0.471	-0.025
-543.266	-140.808	-0.288	-0.030
-542.252	-5.709	0.061	0.043
-541.237	20.178	0.162	0.132
-540.223	-110.890	-0.041	-0.008
-539.208	800.000	-0.095	-0.315
-538.193	-200.000	-0.004	0.068
-537.179	334.844	-0.048	-0.093
-536.164	11.285	-0.243	0.189
-535.150	-200.000	0.045	-0.238
-534.135	468.020	0.045	0.102
-533.121	246.290	-0.230	-0.392
-532.106	250.650	-0.101	-0.173
-531.091	646.170	0.033	-0.086
-530.077	59.678	0.383	-0.382
-529.062	-200.000	-0.013	-0.068
-528.048	231.735	-0.024	-0.040
-527.033	-158.280	0.263	-0.015
-526.018	6.129	-0.163	-0.122
-525.004	698.061	0.063	0.167
-523.989	800.000	0.013	0.047
-522.975	-88.760	0.188	-0.057
-521.960	800.000	0.078	-0.236
-520.945	7.702	0.202	0.153
-519.931	-82.482	-0.168	0.055
-518.916	61.103	0.036	-0.036
-517.902	-71.464	0.239	0.090
-516.887	45.121	0.104	-0.097
-515.872	166.605	-0.188	-0.269
-514.858	-200.000	0.008	0.243
-513.843	-200.000	-0.007	-0.208
-512.829	483.483	-0.036	0.083
-511.814	800.000	0.041	-0.147
-510.799	36.147	0.268	0.238
-509.785	-12.835	0.316	-0.208
-508.770	198.923	-0.012	0.018
-507.756	-19.053	0.091	0.057
-506.741	-158.432	-0.298	0.017
-505.726	-54.955	-0.251	0.114
-504.712	269.097	0.155	-0.274
-503.697	-200.000	-0.054	0.398
-502.683	-156.875	0.191	0.012
-501.668	221.485	-0.181	0.294
-500.653	159.675	0.045	0.064
-499.639	-200.000	0.002	-0.175
-498.624	5.459	0.301	-0.224
-497.610	-200.000	0.058	-0.281
-496.595	413.704	0.051	0.109
-495.581	82.692	-0.042	0.046
-494.566	-47.578	-0.178	-0.087
-493.551	285.855	-0.125	0.227
-492.537	-200.000	-0.014	-0.208
-491.522	105.756	-0.057	0.068
-490.508	173.089	0.138	0.201
-489.493	309.976	-0.121	-0.228
-488.478	413.228	0.153	0.328
-487.464	-200.000	0.013	-0.077
-486.449	-200.000	0.018	-0.146
-485.435	50.539	-0.171	0.163
-484.420	138.976	-0.050	-0.066
-483.405	13.328	-0.293	0.230
-482.391	-74.012	-0.206	-0.075
-481.376	-200.000	0.040	0.198
-480.362	-200.000	0.051	0.323
-479.347	-56.375	0.195	0.087
-478.332	-129.574	-0.206	-0.029
-477.318	-80.450	0.220	0.074
-476.303	111.834	-0.053	-0.064
-475.289	78.120	-0.183	-0.197
-474.274	800.000	0.071	0.284
-473.259	-0.459	-0.196	-0.140
-472.245	4.923	0.189	-0.140
-471.230	314.290	-0.132	0.250
-470.216	83.367	0.196	0.216
-469.201	-47.209	0.175	-0.086
-468.186	105.370	-0.190	0.227
-467.172	-100.463	0.265	0.066
-466.157	-171.420	0.341	-0.011
-465.143	-4.082	-0.149	0.104
-464.128	6.163	-0.137	0.103
-463.113	143.237	0.087	0.116
-462.099	-93.613	0.176	0.049
-461.084	236.288	0.067	-0.112
-460.070	19.902	-0.225	0.183
-459.055	-200.000	-0.013	-0.199
-458.040	-169.766	-0.113	0.004
-457.026	356.387	-0.193	-0.388
-456.011	143.086	-0.167	0.223
-454.997	-161.768	0.135	-0.007
-453.982	-37.533	-0.225	0.121
-452.968	711.097	-0.139	0.372
-451.953	-196.306	0.136	-0.001
-450.938	68.811	-0.088	-0.091
-449.924	-200.000	0.039	-0.260
-448.909	-51.970	-0.114	-0.054
-447.895	-200.000	-0.000	0.180
-446.880	-200.000	0.015	0.231
-445.865	129.497	-0.090	0.116
-444.851	627.121	0.086	0.219
-443.836	-191.616	-0.065	-0.001
-442.822	-117.898	0.137	-0.025
-441.807	50.663	-0.132	0.126
-440.792	53.605	-0.162	0.157
-439.778	-9.483	0.304	-0.205
-438.763	-94.911	-0.398	-0.109
-437.749	81.887	0.063	-0.069
-436.734	-200.000	0.078	-0.369
-435.719	156.983	-0.208	-0.289
-434.705	158.848	0.215	0.300
-433.690	-82.114	-0.202	0.066
-432.676	111.419	0.041	-0.049
-431.661	-89.663	-0.130	-0.038
-430.646	-44.313	0.100	-0.050
-429.632	72.526	0.149	-0.157
-428.617	-98.421	-0.423	-0.109
-427.603	-133.611	0.136	-0.017
-426.588	305.536	-0.053	0.099
-425.573	257.231	0.142	-0.246
-424.559	79.330	-0.186	0.201
-423.544	-135.904	-0.310	0.037
-422.530	486.754	0.041	0.095
-421.515	46.368	0.011	-0.011
-420.500	671.846	0.111	-0.290
-419.486	-74.041	0.219	-0.080
-418.471	-79.792	0.214	0.072
-417.457	-115.977	-0.043	-0.008
-416.442	-83.906	0.494	0.158
-415.428	-26.453	0.298	0.176
-414.413	-54.840	-0.227	0.103
-413.398	106.696	-0.177	0.211
-412.384	-200.000	0.027	0.132
-411.369	214.802	-0.119	0.190
-410.355	703.075	0.088	-0.234
-409.340	-148.433	-0.138	0.011
-408.325	111.514	-0.048	-0.058
-407.311	49.836	-0.210	-0.200
-406.296	-110.269	-0.563	-0.118
-405.282	-200.000	0.006	0.050
-404.267	-17.933	0.272	0.172
-403.252	-121.785	-0.191	-0.032
-402.238	-82.723	-0.311	-0.101
-401.223	70.049	0.080	-0.083
-400.209	387.442	-0.070	-0.146
-399.194	-90.917	-0.357	-0.103
-398.179	37.301	0.152	-0.136
-397.165	66.401	-0.243	-0.248
-396.150	-168.353	0.233	-0.009
-395.136	800.000	0.036	0.125
-394.121	-91.699	-0.206	0.059
-393.106	219.133	-0.088	-0.142
-392.092	-142.306	0.266	0.026
-391.077	-140.441	-0.321	0.034
-390.063	-200.000	0.009	0.168
-389.048	-173.146	-0.103	-0.003
-388.033	-56.190	-0.203	0.091
-387.019	-108.419	0.205	0.044
-386.004	-133.918	-0.177	0.022
-384.990	-107.706	0.096	-0.021
-383.975	-200.000	-0.014	-0.097
-382.960	-200.000	0.135	0.000
-381.946	58.037	-0.050	-0.049
-380.931	-25.974	0.142	0.084
-379.917	44.961	-0.046	0.042
-378.902	-12.333	-0.037	-0.025
-377.888	-27.365	-0.183	0.107
-376.873	-120.514	-0.188	0.032
-375.858	-71.873	0.283	-0.106
-374.844	-8.974	-0.155	0.104
-373.829	92.434	-0.154	0.174
-372.815	204.555	0.164	0.256
-371.800	800.000	0.100	0.278
-370.785	22.338	0.166	-0.137
-369.771	503.237	0.074	0.171
-368.756	-24.489	0.236	-0.142
-367.742	-200.000	-0.019	-0.136
-366.727	-11.621	-0.255	0.168
-365.712	800.000	0.064	0.277
-364.698	-200.000	0.033	-0.236
-363.683	-106.587	0.338	0.076
-362.669	466.815	-0.110	-0.247
-361.654	-86.804	0.088	-0.027
-360.639	-54.487	0.238	-0.108
-359.625	65.538	-0.077	-0.079
-358.610	112.389	0.283	0.344
-357.596	-10.839	-0.167	-0.111
-356.581	235.260	-0.211	-0.350
-355.566	-117.138	-0.174	-0.032
-354.552	-67.533	0.219	-0.086
-353.537	-200.000	0.019	0.337
-352.523	45.527	-0.184	0.171
-351.508	125.454	0.043	0.054
-350.493	800.000	0.034	0.117
-349.479	-160.512	-0.240	-0.013
-348.464	-79.852	0.195	0.066
-347.450	-85.731	-0.247	-0.077
-346.435	-80.851	0.459	0.153
-345.420	331.190	0.154	-0.297
-344.406	246.182	0.019	0.032
-343.391	6.240	0.320	-0.238
-342.377	-22.615	0.092	0.056
-341.362	-66.157	0.141	-0.056
-340.348	800.000	0.029	0.100
-339.333	800.000	-0.049	-0.143
-338.318	800.000	0.105	-0.382
-337.304	265.659	-0.033	-0.057
-336.289	800.000	0.106	-0.328
-335.275	-200.000	-0.035	-0.208
-334.260	144.492	-0.238	0.319
-333.245	152.807	0.142	-0.195
-332.231	258.832	-0.147	0.254
-331.216	-200.000	-0.008	0.147
-330.202	-175.027	0.486	0.014
-329.187	800.000	-0.072	-0.239
-328.172	68.199	0.109	0.112
-327.158	-200.000	-0.051	-0.377
-326.143	-10.133	-0.317	0.211
-325.129	15.464	-0.214	0.169
-324.114	-160.958	0.106	0.006
-323.099	64.842	-0.198	-0.201
-322.085	-200.000	0.053	0.300
-321.070	-129.008	-0.122	-0.017
-320.056	33.602	-0.196	-0.171
-319.041	-191.314	0.090	0.001
-318.026	12.439	0.069	0.053
-317.012	97.262	-0.161	0.186
-315.997	-74.119	-0.079	-0.029
-314.983	-71.827	-0.089	0.033
-313.968	99.996	-0.144	0.168
-312.953	131.240	-0.133	-0.171
-311.939	198.227	-0.110	-0.169
-310.924	-9.397	0.140	-0.094
-309.910	-128.223	-0.132	-0.019
-308.895	800.000	-0.053	0.184
-307.880	4.807	-0.098	0.072
-306.866	800.000	-0.081	-0.346
-305.851	800.000	-0.021	-0.087
-304.837	-200.000	-0.022	0.151
-303.822	-200.000	0.032	0.152
-302.807	800.000	-0.070	-0.198
-301.793	157.906	0.072	-0.100
-300.778	-21.824	0.188	0.115
-299.764	-169.611	-0.137	0.005
-298.749	800.000	0.050	0.158
-297.735	-83.100	0.451	0.146
-296.720	-200.000	0.053	-0.313
-295.705	800.000	-0.158	0.547
-294.691	-102.935	-0.112	0.027
-293.676	132.294	0.040	0.051
-292.662	511.285	0.092	0.214
-291.647	275.036	-0.135	-0.240
-290.632	800.000	-0.055	-0.175
-289.618	86.406	-0.150	-0.166
-288.603	-0.545	-0.024	-0.017
-287.589	-115.373	-0.454	0.086
-286.574	-161.476	-0.150	0.008
-285.559	-200.000	0.018	-0.109
-284.545	-200.000	0.037	0.328
-283.530	-75.752	0.257	-0.092
-282.516	-28.402	-0.097	0.056
-281.501	164.867	0.127	-0.180
-280.486	-149.770	-0.187	0.015
-279.472	-184.498	-0.186	-0.003
-278.457	-4.324	-0.226	-0.156
-277.443	63.903	-0.193	-0.194
-276.428	-13.334	-0.148	0.096
-275.413	-86.606	0.303	0.093
-274.399	-92.139	-0.379	0.107
-273.384	-129.167	-0.187	-0.026
-272.370	-200.000	0.027	-0.242
-271.355	-13.773	-0.141	-0.091
-270.340	-200.000	-0.047	-0.267
-269.326	-108.295	-0.158	0.034
-268.311	142.267	-0.063	-0.083
-267.297	-200.000	0.036	0.219
-266.282	21.605	0.250	-0.204
-265.267	-14.030	-0.333	0.215
-264.253	61.647	0.200	0.199
-263.238	800.000	0.117	0.349
-262.224	304.249	-0.057	0.105
-261.209	264.776	0.144	0.251
-260.195	151.538	0.137	0.187
-259.180	517.714	-0.071	0.166
-258.165	289.257	0.093	-0.169
-257.151	-151.873	-0.271	0.020
-256.136	-4.912	-0.225	-0.155
-255.122	-24.014	0.130	-0.078
-254.107	-56.681	-0.179	-0.079
-253.092	29.769	0.087	-0.074
-252.078	781.645	0.039	0.106
-251.063	-59.717	0.363	0.156
-250.049	-143.892	-0.033	-0.003
-249.034	-30.387	0.188	0.107
-248.019	-63.800	0.214	0.088
-247.005	545.274	0.018	0.043
-245.990	-91.650	0.116	-0.033
-244.976	67.452	0.169	-0.173
-243.961	113.140	-0.068	-0.083
-242.946	-100.455	0.203	0.050
-241.932	443.370	0.073	0.161
-240.917	-200.000	-0.006	0.447
-239.903	-200.000	0.258	0.001
-238.888	-135.708	-0.073	-0.009
-237.873	800.000	0.056	0.159
-236.859	-80.489	0.182	0.061
-235.844	-96.761	-0.215	0.056
-234.830	-138.678	-0.363	0.040
-233.815	13.449	-0.141	0.109
-232.800	800.000	-0.081	-0.250
-231.786	65.006	0.192	-0.194
-230.771	377.458	-0.108	-0.220
-229.757	800.000	-0.019	0.079
-228.742	-150.224	0.289	-0.022
-227.727	55.370	-0.324	0.313
-226.713	-200.000	-0.003	-0.015
-225.698	-200.000	-0.001	0.212
-224.684	71.583	-0.089	-0.092
-223.669	117.396	-0.064	-0.079
-222.655	-2.889	0.220	0.153
-221.640	-200.000	-0.041	0.201
-220.625	321.873	-0.076	0.145
-219.611	-1.614	0.062	-0.044
-218.596	-163.186	-0.030	0.001
-217.582	-200.000	-0.065	-0.317
-216.567	46.150	-0.229	0.212
-215.552	-90.294	0.258	-0.075
-214.538	-73.876	0.251	-0.091
-213.523	-197.152	-0.043	-0.000
-212.509	-142.252	-0.163	-0.016
-211.494	605.997	-0.028	0.070
-210.479	46.473	-0.322	0.298
-209.465	362.745	-0.089	0.179
-208.450	-200.000	0.074	0.345
-207.436	-200.000	0.021	-0.233
-206.421	72.668	0.197	-0.205
-205.406	-200.000	-0.010	0.160
-204.392	327.828	-0.198	0.379
-203.377	146.513	0.112	-0.150
-202.363	-200.000	0.305	-0.001
-201.348	-121.726	0.228	0.038
-200.333	-27.847	0.020	0.011
-199.319	466.484	-0.026	0.058
-198.304	-21.833	0.292	-0.177
-197.290	-138.973	0.213	0.023
-196.275	-131.811	-0.453	0.059
-195.260	17.733	0.211	0.167
-194.246	94.969	0.093	0.105
-193.231	-99.415	0.057	-0.014
-192.217	-7.802	0.289	-0.195
-191.202	-200.000	0.002	-0.046
-190.187	-93.144	0.110	0.031
-189.173	-200.000	0.030	0.440
-188.158	11.650	0.316	-0.242
-187.144	800.000	0.038	0.107
-186.129	-200.000	-0.010	0.353
-185.114	-20.253	-0.076	-0.047
-184.100	-200.000	-0.007	-0.247
-183.085	800.000	-0.063	-0.208
-182.071	-127.460	0.321	0.047
-181.056	800.000	0.079	0.244
-180.042	-107.386	0.367	0.080
-179.027	-15.245	0.209	-0.133
-178.012	-34.750	0.160	0.087
-176.998	800.000	-0.035	-0.119
-175.983	-63.882	0.157	-0.064
-174.969	800.000	0.052	-0.208
-173.954	-48.223	-0.160	0.077
-172.939	-171.439	0.403	0.013
-171.925	291.011	0.114	-0.207
-170.910	39.059	0.101	0.090
-169.896	45.188	-0.118	0.108
-168.881	232.738	0.198	0.324
-167.866	-200.000	0.019	-0.179
-166.852	116.908	0.218	0.267
-165.837	-121.061	-0.226	-0.038
-164.823	-51.912	0.227	0.105
-163.808	-200.000	-0.050	-0.341
-162.793	426.666	0.052	0.113
-161.779	196.357	-0.075	0.114
-160.764	24.381	0.180	0.148
-159.750	-62.292	0.287	-0.119
-158.735	-42.432	0.090	0.046
-157.720	-200.000	-0.003	0.073
-156.706	-136.407	-0.108	0.012
-155.691	-54.029	-0.215	0.098
-154.677	800.000	-0.060	0.199
-153.662	342.551	0.116	-0.226
-152.647	-200.000	0.033	-0.186
-151.633	-200.000	-0.049	-0.350
-150.618	-44.940	0.174	-0.086
-149.604	2.955	0.335	-0.243
-148.589	-103.133	-0.056	0.013
-147.574	-200.000	0.019	-0.113
-146.560	170.045	0.038	-0.055
-145.545	510.583	-0.042	0.098
-144.531	795.573	0.048	0.132
-143.516	271.022	0.129	0.226
-142.502	800.000	0.070	0.234
-141.487	-83.449	-0.312	-0.100
-140.472	196.828	0.052	0.079
-139.458	-75.102	-0.177	0.063
-138.443	-200.000	0.087	0.407
-137.429	800.000	-0.009	0.025
-136.414	-82.812	0.275	-0.088
-135.399	244.827	0.089	0.149
-134.385	-56.930	-0.277	0.122
-133.370	-153.829	0.149	0.010
-132.356	-8.519	-0.035	-0.024
-131.341	190.240	0.057	-0.086
-130.326	62.086	0.155	-0.154
-129.312	-200.000	-0.057	0.307
-128.297	387.758	-0.095	-0.197
-127.283	-58.798	0.139	-0.060
-126.268	-178.073	0.250	-0.006
-125.253	800.000	0.046	0.182
-124.239	-200.000	-0.044	-0.267
-123.224	63.514	0.118	0.118
-122.210	62.599	-0.051	0.050
-121.195	-49.923	-0.301	0.142
