DTS Sentinel unit serial number:	SN413079Multiplexer serial number:	ORYXHardware model number:	OX4-SRSoftware version number:	ORYX F/W v4.00 Oryx Data Collector v3.7.2.0data status	okinstallation	princeton_trtdifferential loss correction	single-endedforward channel	channel 4reverse channel	N/Adate	2019/09/10time	18:43:11forward acquisition time	60.00reverse acquisition time	0.00gamma	496.2192k internal	0.2302k external	0.2302temperature offset calibration	0.9943default loss term (dB/km)	0.3790temperature slope calibration	1.0000multiplexer offset coefficient	1.0000multiplexer slope coefficient	1.0000fibre end	0.00T internal ref (°C)	35.28T ext. ref 1 (°C)	-0.37T ext. ref 2 (°C)	27.37length (m)	temperature (°C)	Stokes	anti-Stokes-747.200	10.678	-0.134	0.104
-746.185	6.637	-0.211	-0.160
-745.171	9.759	0.077	-0.059
-744.156	69.926	0.058	-0.061
-743.142	-106.141	-0.285	0.065
-742.127	45.135	0.180	-0.169
-741.112	-63.497	0.177	-0.074
-740.098	-28.207	-0.041	-0.024
-739.083	-117.600	0.123	-0.023
-738.069	-77.972	0.248	-0.087
-737.054	136.793	0.216	-0.288
-736.039	38.328	-0.163	-0.148
-735.025	19.585	-0.244	0.200
-734.010	-200.000	-0.029	-0.167
-732.996	-91.829	0.139	-0.040
-731.981	-75.556	-0.286	-0.104
-730.966	-60.911	0.316	-0.136
-729.952	61.655	-0.294	-0.298
-728.937	-156.821	-0.281	-0.018
-727.923	6.909	-0.244	0.185
-726.908	-26.411	0.159	-0.095
-725.894	200.429	0.055	-0.086
-724.879	800.000	0.073	-0.263
-723.864	199.379	0.100	0.156
-722.850	-16.947	-0.360	-0.232
-721.835	-150.946	0.161	-0.012
-720.821	-200.000	-0.010	0.158
-719.806	-200.000	0.015	0.234
-718.791	-76.607	-0.080	0.029
-717.777	1.916	-0.079	-0.058
-716.762	-138.576	-0.138	-0.015
-715.748	-200.000	-0.022	-0.133
-714.733	800.000	-0.068	0.266
-713.718	800.000	-0.020	0.067
-712.704	800.000	-0.146	0.449
-711.689	494.561	-0.028	-0.066
-710.675	-64.882	-0.083	-0.034
-709.660	-200.000	-0.010	-0.116
-708.645	-200.000	0.029	0.167
-707.631	13.769	0.159	-0.126
-706.616	800.000	0.162	-0.533
-705.602	-200.000	0.036	0.384
-704.587	-200.000	-0.043	-0.217
-703.572	-200.000	-0.039	-0.221
-702.558	226.882	0.144	0.238
-701.543	-4.430	-0.268	-0.189
-700.529	-146.596	0.179	0.016
-699.514	476.077	0.118	0.272
-698.499	-104.653	0.223	0.052
-697.485	-200.000	-0.046	-0.328
-696.470	118.058	-0.138	-0.173
-695.456	479.433	-0.123	-0.284
-694.441	-171.920	-0.060	0.002
-693.426	-59.486	0.316	0.138
-692.412	-116.335	-0.392	0.074
-691.397	-78.076	-0.124	0.044
-690.383	64.544	0.078	-0.080
-689.368	800.000	-0.111	-0.332
-688.354	126.894	-0.255	-0.328
-687.339	37.381	0.258	-0.233
-686.324	-28.329	0.313	-0.184
-685.310	123.490	0.171	0.218
-684.295	-200.000	-0.012	-0.096
-683.281	-82.739	-0.285	0.094
-682.266	-200.000	-0.026	0.213
-681.251	-200.000	0.043	-0.214
-680.237	10.521	-0.193	-0.149
-679.222	248.727	0.083	0.143
-678.208	-66.946	0.112	0.045
-677.193	-82.210	0.117	-0.039
-676.178	287.547	0.262	-0.481
-675.164	32.365	0.276	-0.242
-674.149	-120.766	-0.140	0.024
-673.135	-90.376	-0.354	0.104
-672.120	-43.459	-0.377	-0.194
-671.105	400.329	-0.199	0.424
-670.091	150.698	-0.107	0.148
-669.076	-167.835	0.202	-0.008
-668.062	800.000	-0.108	0.383
-667.047	-14.501	0.063	-0.041
-666.032	197.821	0.083	-0.128
-665.018	-118.181	0.370	0.067
-664.003	109.520	-0.049	0.060
-662.989	-172.456	0.237	-0.008
-661.974	-155.382	0.100	-0.007
-660.959	90.546	0.115	-0.131
-659.945	-184.269	-0.358	0.006
-658.930	444.535	0.082	-0.182
-657.916	-57.534	-0.243	-0.108
-656.901	-200.000	0.024	-0.187
-655.886	37.588	-0.173	0.156
-654.872	243.306	0.214	-0.365
-653.857	85.807	-0.057	0.064
-652.843	129.152	-0.219	-0.284
-651.828	425.753	0.100	-0.218
-650.814	-200.000	-0.016	0.145
-649.799	-52.983	-0.253	-0.118
-648.784	102.925	0.126	0.150
-647.770	-40.677	-0.174	-0.092
-646.755	-200.000	0.031	0.273
-645.741	-72.835	-0.346	0.129
-644.726	-197.337	0.266	-0.002
-643.711	53.700	-0.157	-0.153
-642.697	249.342	-0.234	-0.403
-641.682	-200.000	0.050	-0.551
-640.668	58.263	0.091	0.090
-639.653	397.697	-0.157	-0.333
-638.638	-49.164	0.278	-0.135
-637.624	-20.809	0.007	-0.004
-636.609	128.583	-0.139	-0.180
-635.595	800.000	-0.051	-0.143
-634.580	92.994	0.166	-0.190
-633.565	281.808	0.047	-0.086
-632.551	-41.222	-0.145	-0.076
-631.536	-127.927	0.201	0.029
-630.522	-200.000	0.014	-0.124
-629.507	-97.976	0.320	0.084
-628.492	-200.000	0.037	0.304
-627.478	-64.652	0.071	-0.029
-626.463	-112.506	0.181	0.037
-625.449	-200.000	-0.000	0.171
-624.434	-34.612	0.056	-0.031
-623.419	-79.754	-0.437	0.149
-622.405	-200.000	0.054	-0.248
-621.390	800.000	-0.034	0.132
-620.376	-3.464	-0.243	-0.171
-619.361	463.901	-0.120	-0.272
-618.346	-200.000	-0.014	0.277
-617.332	-119.667	-0.130	-0.023
-616.317	800.000	0.096	-0.325
-615.303	-134.785	0.335	0.041
-614.288	-200.000	0.029	0.336
-613.273	-200.000	-0.032	0.226
-612.259	534.381	0.013	0.031
-611.244	-65.556	-0.051	-0.021
-610.230	-73.302	0.356	0.132
-609.215	-200.000	-0.009	0.172
-608.201	-200.000	0.010	0.092
-607.186	-200.000	-0.011	0.165
-606.171	157.266	-0.083	0.116
-605.157	-200.000	0.013	0.407
-604.142	-27.630	0.075	0.044
-603.128	-84.043	-0.047	-0.015
-602.113	35.177	-0.152	0.135
-601.098	-170.458	-0.312	0.011
-600.084	68.834	-0.243	0.252
-599.069	141.672	-0.053	0.071
-598.055	-156.311	0.440	-0.028
-597.040	120.817	0.165	-0.208
-596.025	161.714	0.012	-0.017
-595.011	212.018	-0.127	-0.203
-593.996	-101.946	-0.161	0.039
-592.982	-118.475	-0.274	0.049
-591.967	436.378	0.107	-0.236
-590.952	525.027	0.072	-0.172
-589.938	-161.148	-0.346	-0.018
-588.923	-23.141	-0.354	-0.216
-587.909	-200.000	-0.005	-0.071
-586.894	447.517	-0.106	0.237
-585.879	800.000	-0.065	0.274
-584.865	333.428	-0.169	-0.330
-583.850	-160.686	-0.211	-0.011
-582.836	800.000	-0.043	-0.132
-581.821	-200.000	0.034	0.277
-580.806	800.000	0.030	0.102
-579.792	800.000	0.014	-0.053
-578.777	11.753	-0.144	-0.112
-577.763	-43.643	-0.399	-0.204
-576.748	-200.000	0.013	-0.359
-575.733	-125.226	0.335	0.052
-574.719	708.933	-0.077	-0.205
-573.704	-21.005	-0.223	0.138
-572.690	800.000	-0.070	0.253
-571.675	800.000	0.030	-0.100
-570.661	-37.493	-0.267	0.144
-569.646	-19.293	0.201	0.126
-568.631	28.382	-0.106	0.090
-567.617	169.246	0.102	0.148
-566.602	-168.254	-0.252	-0.010
-565.588	-110.693	-0.128	-0.027
-564.573	-94.347	0.035	-0.010
-563.558	14.942	0.170	-0.134
-562.544	313.335	0.164	-0.312
-561.529	-106.088	0.109	-0.025
-560.515	-85.351	-0.238	0.075
-559.500	314.596	-0.101	-0.192
-558.485	61.549	0.186	0.187
-557.471	-49.182	-0.137	-0.066
-556.456	-200.000	0.045	-0.459
-555.442	-3.810	0.191	0.134
-554.427	0.094	0.301	-0.217
-553.412	729.614	0.092	0.249
-552.398	-200.000	-0.054	0.317
-551.383	-200.000	-0.262	0.001
-550.369	688.182	-0.067	0.177
-549.354	-44.586	0.362	-0.183
-548.339	800.000	0.090	-0.275
-547.325	63.011	-0.120	0.122
-546.310	289.857	0.144	-0.264
-545.296	-92.381	0.347	-0.099
-544.281	0.339	-0.108	0.078
-543.266	-10.249	-0.078	0.053
-542.252	564.928	0.137	0.337
-541.237	-42.629	-0.251	-0.129
-540.223	-17.854	-0.075	0.047
-539.208	-144.011	0.332	-0.032
-538.193	-58.813	-0.080	-0.035
-537.179	-200.000	-0.035	-0.189
-536.164	-145.097	-0.215	-0.020
-535.150	447.430	-0.015	0.033
-534.135	-30.467	0.359	0.206
-533.121	33.863	-0.130	0.115
-532.106	485.212	0.035	-0.081
-531.091	-200.000	-0.016	-0.373
-530.077	6.719	-0.459	-0.345
-529.062	-171.754	-0.186	0.006
-528.048	705.645	0.082	-0.219
-527.033	-200.000	0.036	0.221
-526.018	-115.865	0.120	-0.023
-525.004	800.000	-0.038	-0.120
-523.989	-200.000	-0.038	-0.292
-522.975	-117.588	-0.166	-0.030
-521.960	48.996	-0.090	0.085
-520.945	-200.000	0.010	-0.157
-519.931	159.310	0.145	0.204
-518.916	-200.000	-0.077	0.387
-517.902	79.746	0.118	-0.128
-516.887	47.444	-0.164	-0.154
-515.872	-161.498	0.190	-0.010
-514.858	30.832	0.364	0.315
-513.843	-156.091	-0.148	-0.009
-512.829	-200.000	0.016	-0.299
-511.814	9.738	0.145	-0.111
-510.799	-125.519	-0.424	0.065
-509.785	612.726	-0.108	-0.273
-508.770	-183.758	-0.237	0.004
-507.756	-200.000	0.010	0.288
-506.741	800.000	-0.128	0.494
-505.726	93.266	-0.109	-0.124
-504.712	71.727	-0.076	0.079
-503.697	-136.163	0.606	0.072
-502.683	800.000	0.041	0.127
-501.668	615.653	0.121	0.307
-500.653	51.748	0.243	-0.233
-499.639	155.182	-0.058	0.080
-498.624	52.027	-0.222	-0.214
-497.610	61.708	0.258	-0.259
-496.595	258.225	-0.054	0.095
-495.581	405.523	0.034	0.073
-494.566	20.667	-0.116	-0.095
-493.551	342.732	-0.124	-0.246
-492.537	33.732	-0.209	0.184
-491.522	-66.283	-0.258	-0.104
-490.508	367.391	-0.054	-0.111
-489.493	-80.633	0.169	-0.057
-488.478	-200.000	0.016	-0.196
-487.464	57.920	0.198	-0.195
-486.449	-200.000	-0.067	-0.327
-485.435	-57.224	0.180	-0.080
-484.420	-200.000	-0.029	0.170
-483.405	-160.513	0.218	0.012
-482.391	160.944	0.129	-0.181
-481.376	-34.910	-0.222	-0.122
-480.362	-200.000	0.020	0.381
-479.347	-84.209	0.182	0.058
-478.332	90.954	0.225	0.255
-477.318	18.922	0.235	0.190
-476.303	800.000	0.058	-0.196
-475.289	-32.460	0.136	-0.076
-474.274	-200.000	-0.000	0.071
-473.259	295.533	-0.086	0.158
-472.245	-128.433	-0.292	0.042
-471.230	144.067	-0.169	-0.228
-470.216	-46.127	-0.155	0.077
-469.201	800.000	-0.050	-0.204
-468.186	2.250	-0.126	-0.092
-467.172	-200.000	-0.002	-0.124
-466.157	-113.214	-0.171	-0.034
-465.143	-200.000	0.067	-0.325
-464.128	100.709	0.151	-0.177
-463.113	59.341	-0.229	-0.228
-462.099	9.778	0.155	0.118
-461.084	-65.448	0.067	-0.027
-460.070	-200.000	-0.042	0.592
-459.055	220.946	-0.095	0.154
-458.040	401.789	-0.084	0.177
-457.026	56.301	0.148	0.145
-456.011	238.297	0.116	-0.194
-454.997	165.168	-0.106	-0.151
-453.982	-200.000	0.022	-0.135
-452.968	-108.873	-0.313	0.067
-451.953	-22.166	-0.310	-0.189
-450.938	-200.000	0.002	0.124
-449.924	800.000	0.093	0.324
-448.909	-90.459	0.224	0.065
-447.895	34.168	0.100	-0.088
-446.880	-153.882	0.085	0.006
-445.865	149.474	0.015	0.020
-444.851	-200.000	0.018	-0.109
-443.836	138.943	-0.127	-0.169
-442.822	9.332	-0.113	0.086
-441.807	-142.754	-0.538	-0.053
-440.792	16.945	-0.266	-0.212
-439.778	-75.155	0.126	0.045
-438.763	-200.000	0.020	0.112
-437.749	-66.565	-0.068	-0.027
-436.734	143.917	-0.145	0.195
-435.719	166.054	0.126	0.179
-434.705	-9.393	0.233	-0.157
-433.690	410.215	0.045	-0.095
-432.676	-70.068	0.307	-0.118
-431.661	60.849	-0.080	-0.080
-430.646	-71.938	0.341	-0.128
-429.632	-26.301	-0.018	-0.011
-428.617	-200.000	0.047	-0.239
-427.603	-200.000	0.032	-0.151
-426.588	237.179	0.067	0.111
-425.573	-63.146	0.187	0.077
-424.559	-200.000	-0.077	0.386
-423.544	-99.555	0.068	-0.017
-422.530	517.755	-0.173	0.408
-421.515	-61.767	-0.312	-0.132
-420.500	203.838	-0.092	0.144
-419.486	-180.298	0.447	0.009
-418.471	800.000	0.044	0.132
-417.457	-72.051	-0.199	0.074
-416.442	-147.182	0.210	-0.018
-415.428	297.572	-0.098	-0.180
-414.413	-200.000	0.037	0.269
-413.398	-9.709	0.062	0.041
-412.384	306.834	-0.212	0.396
-411.369	-200.000	-0.004	0.157
-410.355	-67.814	-0.154	0.061
-409.340	-200.000	0.021	-0.117
-408.325	269.221	0.128	-0.225
-407.311	-189.187	0.205	0.002
-406.296	-10.566	0.088	0.058
-405.282	-200.000	-0.004	-0.054
-404.267	800.000	0.008	-0.029
-403.252	-94.374	0.179	0.049
-402.238	-200.000	0.055	-0.280
-401.223	-136.582	0.133	-0.015
-400.209	800.000	-0.120	0.373
-399.194	34.150	0.109	0.096
-398.179	-200.000	-0.015	-0.085
-397.165	-200.000	0.011	0.140
-396.150	714.733	-0.015	-0.041
-395.136	-146.911	-0.287	-0.025
-394.121	-157.257	-0.165	-0.010
-393.106	220.380	0.195	0.315
-392.092	-22.621	0.237	0.144
-391.077	-200.000	0.009	0.100
-390.063	-200.000	0.046	0.208
-389.048	86.394	0.093	-0.104
-388.033	-59.060	-0.203	0.088
-387.019	305.834	-0.207	0.387
-386.004	263.201	-0.091	0.159
-384.990	-47.668	0.406	-0.198
-383.975	-200.000	0.009	0.207
-382.960	-22.550	-0.113	0.068
-381.946	24.739	0.260	-0.217
-380.931	49.057	-0.321	-0.302
-379.917	-200.000	-0.003	0.073
-378.902	-200.000	-0.039	-0.179
-377.888	569.946	-0.169	0.414
-376.873	-50.987	-0.324	-0.153
-375.858	-55.680	0.242	0.109
-374.844	134.122	-0.218	-0.284
-373.829	-7.114	-0.060	0.041
-372.815	-25.197	0.269	0.160
-371.800	1.897	0.113	0.082
-370.785	-187.079	0.124	0.002
-369.771	-157.041	-0.062	-0.004
-368.756	800.000	-0.033	-0.105
-367.742	343.593	0.139	-0.273
-366.727	-93.238	-0.095	-0.027
-365.712	298.668	-0.018	0.034
-364.698	-182.678	0.435	0.008
-363.683	-200.000	0.013	-0.438
-362.669	-82.714	0.088	-0.029
-361.654	70.762	-0.299	-0.311
-360.639	75.496	-0.196	-0.208
-359.625	-197.865	-0.260	-0.002
-358.610	3.027	0.138	-0.101
-357.596	119.144	0.079	-0.098
-356.581	32.694	-0.050	0.044
-355.566	207.964	0.116	0.181
-354.552	232.837	-0.092	0.151
-353.537	61.182	0.089	0.089
-352.523	119.271	-0.111	-0.137
-351.508	-60.356	0.149	0.064
-350.493	-35.442	-0.137	-0.075
-349.479	37.515	-0.147	0.131
-348.464	49.543	0.038	0.036
-347.450	-133.442	0.291	-0.037
-346.435	-183.594	0.400	-0.007
-345.420	800.000	-0.065	-0.195
-344.406	-154.913	0.315	-0.021
-343.391	116.561	-0.116	-0.143
-342.377	-110.667	-0.069	-0.014
-341.362	-200.000	0.055	0.266
-340.348	36.934	-0.343	-0.304
-339.333	-200.000	-0.000	-0.425
-338.318	-102.725	0.130	0.031
-337.304	-85.326	0.204	0.064
-336.289	-84.916	-0.170	-0.054
-335.275	138.596	-0.109	-0.144
-334.260	-43.895	0.239	-0.120
-333.245	-200.000	-0.004	0.260
-332.231	-200.000	-0.026	-0.118
-331.216	-31.790	-0.010	-0.006
-330.202	-20.697	0.327	-0.201
-329.187	800.000	-0.033	0.092
-328.172	-110.930	0.330	-0.068
-327.158	800.000	0.112	-0.334
-326.143	800.000	0.075	0.323
-325.129	-12.710	0.283	0.185
-324.114	269.194	0.103	-0.182
-323.099	-14.112	-0.051	-0.033
-322.085	-6.381	-0.346	-0.237
-321.070	-200.000	-0.022	-0.221
-320.056	-132.819	0.092	0.012
-319.041	-176.226	-0.324	0.009
-318.026	-129.350	0.250	0.035
-317.012	189.973	0.222	0.335
-315.997	160.232	-0.174	0.243
-314.983	-9.565	-0.375	0.251
-313.968	-64.465	-0.229	-0.093
-312.953	162.328	0.195	0.274
-311.939	113.566	-0.149	0.182
-310.924	-27.426	0.175	-0.102
-309.910	800.000	-0.013	0.055
-308.895	499.739	0.054	-0.125
-307.880	-20.762	0.095	0.059
-306.866	174.457	-0.109	-0.158
-305.851	800.000	0.111	-0.320
-304.837	-200.000	-0.020	0.127
-303.822	-176.804	0.108	0.003
-302.807	-77.069	0.332	-0.116
-301.793	8.250	0.232	0.175
-300.778	-200.000	-0.029	0.135
-299.764	601.693	0.077	0.192
-298.749	-53.004	0.284	-0.131
-297.735	-54.636	-0.353	0.160
-296.720	800.000	0.084	0.272
-295.705	800.000	0.020	-0.064
-294.691	-13.382	-0.164	0.107
-293.676	800.000	-0.044	0.130
-292.662	-78.434	0.180	-0.062
-291.647	800.000	0.036	-0.148
-290.632	84.812	0.102	-0.111
-289.618	-111.210	-0.273	-0.056
-288.603	45.026	-0.303	-0.279
-287.589	6.653	0.207	0.154
-286.574	476.654	-0.139	-0.315
-285.559	-68.677	0.121	0.047
-284.545	-160.369	-0.062	-0.003
-283.530	-114.569	0.190	-0.037
-282.516	800.000	0.036	0.131
-281.501	-22.160	-0.175	0.106
-280.486	-200.000	0.000	-0.115
-279.472	-122.188	-0.108	-0.018
-278.457	-23.845	0.192	0.115
-277.443	-144.143	-0.317	-0.030
-276.428	-200.000	-0.013	-0.135
-275.413	-200.000	-0.036	0.221
-274.399	124.627	0.065	0.081
-273.384	-61.336	0.055	-0.023
-272.370	-60.550	0.234	0.099
-271.355	-86.661	0.277	-0.085
-270.340	-200.000	-0.014	-0.126
-269.326	-13.860	0.095	-0.062
-268.311	757.729	0.121	0.327
-267.297	-116.422	-0.066	-0.012
-266.282	-131.869	0.245	-0.032
-265.267	131.780	-0.221	0.285
-264.253	-200.000	-0.019	0.145
-263.238	-85.797	0.098	-0.030
-262.224	-15.269	-0.126	0.081
-261.209	-79.423	-0.072	-0.024
-260.195	-58.200	0.341	0.148
-259.180	223.443	-0.058	-0.094
-258.165	-4.643	0.177	-0.122
-257.151	-36.173	-0.164	-0.088
-256.136	204.455	0.121	-0.187
-255.122	-72.668	-0.084	0.031
-254.107	-52.432	-0.058	-0.027
-253.092	478.870	-0.046	-0.104
-252.078	-30.697	-0.296	0.167
-251.063	800.000	-0.085	-0.371
-250.049	-47.345	0.036	0.017
-249.034	-115.027	0.352	-0.067
-248.019	191.902	-0.134	0.202
-247.005	-141.225	0.206	-0.021
-245.990	410.386	0.030	-0.063
-244.976	105.816	0.148	-0.175
-243.961	-154.511	-0.165	0.011
-242.946	-187.260	0.279	0.004
-241.932	800.000	-0.073	0.250
-240.917	-171.230	-0.134	-0.005
-239.903	-200.000	-0.034	0.323
-238.888	-130.006	-0.277	0.038
-237.873	145.470	-0.039	0.053
-236.859	-200.000	-0.001	-0.190
-235.844	-54.553	-0.095	-0.043
-234.830	-121.608	-0.314	-0.052
-233.815	-73.653	-0.344	-0.125
-232.800	-170.434	-0.452	0.016
-231.786	414.750	-0.135	-0.288
-230.771	-117.358	0.050	-0.009
-229.757	-200.000	0.017	-0.088
-228.742	-200.000	0.010	0.181
-227.727	-74.676	-0.218	0.078
-226.713	-200.000	0.015	0.083
-225.698	-118.820	0.166	-0.029
-224.684	39.220	0.106	-0.095
-223.669	-164.347	0.138	-0.006
-222.655	-26.975	-0.086	0.050
-221.640	-20.350	0.101	0.062
-220.625	56.335	-0.054	-0.053
-219.611	768.632	-0.093	0.252
-218.596	800.000	-0.090	0.248
-217.582	-79.772	0.196	0.066
-216.567	-200.000	0.011	0.055
-215.552	126.737	-0.133	-0.169
-214.538	-64.776	0.179	0.072
-213.523	800.000	-0.096	0.295
-212.509	93.431	0.080	0.090
-211.494	130.525	-0.077	0.098
-210.479	47.700	-0.075	0.070
-209.465	-200.000	-0.036	0.332
-208.450	726.779	0.107	0.285
-207.436	31.103	0.133	0.113
-206.421	-200.000	-0.005	-0.041
-205.406	-133.157	-0.164	-0.021
-204.392	-7.427	0.170	0.115
-203.377	-52.737	-0.230	-0.106
-202.363	800.000	-0.099	0.295
-201.348	-114.911	0.294	0.056
-200.333	800.000	0.010	-0.031
-199.319	800.000	-0.052	0.162
-198.304	-146.003	-0.387	-0.034
-197.290	-38.277	0.378	-0.200
-196.275	-180.562	-0.220	0.005
-195.260	431.304	-0.020	0.044
-194.246	-74.183	-0.176	-0.064
-193.231	145.097	-0.203	-0.270
-192.217	772.436	0.029	-0.079
-191.202	34.934	0.204	0.178
-190.187	-200.000	0.031	-0.296
-189.173	-35.694	0.048	0.026
-188.158	-48.579	0.355	0.170
-187.144	-195.919	0.243	-0.002
-186.129	157.149	0.045	-0.061
-185.114	-200.000	0.007	0.121
-184.100	193.639	-0.177	0.266
-183.085	-200.000	-0.010	-0.361
-182.071	87.584	-0.135	-0.148
-181.056	-200.000	0.019	0.219
-180.042	581.018	-0.010	0.025
-179.027	655.673	0.026	0.067
-178.012	-200.000	-0.019	0.203
-176.998	-42.099	0.064	0.032
-175.983	800.000	0.063	-0.180
-174.969	125.721	-0.057	-0.072
-173.954	-34.781	0.330	0.180
-172.939	45.456	0.240	-0.221
-171.925	42.612	-0.252	-0.228
-170.910	-140.694	-0.152	-0.016
-169.896	567.315	0.073	-0.177
-168.881	-200.000	-0.005	0.338
-167.866	-34.003	-0.304	0.167
-166.852	157.061	0.132	0.182
-165.837	81.308	0.380	-0.409
-164.823	-170.515	0.169	-0.006
-163.808	800.000	-0.026	-0.088
-162.793	800.000	-0.083	0.240
-161.779	-125.020	0.094	-0.014
-160.764	436.282	0.072	0.156
-159.750	-65.508	-0.139	0.056
-158.735	763.429	-0.125	-0.337
-157.720	800.000	0.065	0.182
-156.706	-67.461	-0.407	-0.159
-155.691	-133.506	0.322	-0.040
-154.677	0.545	0.017	0.012
-153.662	60.589	0.339	0.334
-152.647	1.991	-0.120	0.086
-151.633	67.955	0.143	-0.146
-150.618	-200.000	-0.051	-0.230
-149.604	237.133	0.147	-0.242
-148.589	9.946	-0.313	0.237
-147.574	800.000	-0.072	-0.258
-146.560	106.533	-0.111	-0.131
-145.545	-11.055	-0.385	0.253
-144.531	-90.741	0.401	0.115
-143.516	634.084	-0.044	0.111
-142.502	-73.499	0.496	0.180
-141.487	-68.030	-0.140	0.054
-140.472	-200.000	0.031	-0.161
-139.458	11.169	0.109	0.083
-138.443	800.000	0.039	0.159
-137.429	-10.659	0.196	-0.129
-136.414	-94.366	0.231	0.063
-135.399	441.745	-0.020	-0.043
-134.385	-62.841	0.171	-0.070
-133.370	-114.623	-0.116	0.022
-132.356	114.811	0.072	0.087
-131.341	237.414	0.110	0.181
-130.326	-163.997	-0.329	-0.015
-129.312	800.000	0.080	-0.228
-128.297	105.220	0.142	0.167
-127.283	533.783	0.065	0.152
-126.268	309.015	0.114	-0.212
-125.253	-61.417	0.067	-0.028
-124.239	800.000	0.054	0.149
-123.224	-200.000	0.024	-0.258
-122.210	-197.277	-0.297	-0.002
