DTS Sentinel unit serial number:	SN413079Multiplexer serial number:	ORYXHardware model number:	OX4-SRSoftware version number:	ORYX F/W v4.00 Oryx Data Collector v3.7.2.0data status	okinstallation	princeton_trtdifferential loss correction	single-endedforward channel	channel 4reverse channel	N/Adate	2019/09/11time	09:03:11forward acquisition time	60.00reverse acquisition time	0.00gamma	496.2192k internal	0.2300k external	0.2300temperature offset calibration	0.9971default loss term (dB/km)	0.3790temperature slope calibration	1.0000multiplexer offset coefficient	1.0000multiplexer slope coefficient	1.0000fibre end	0.00T internal ref (°C)	34.17T ext. ref 1 (°C)	0.12T ext. ref 2 (°C)	30.42length (m)	temperature (°C)	Stokes	anti-Stokes-747.200	-68.213	0.320	-0.127
-746.185	22.641	0.167	0.140
-745.171	-6.013	-0.353	0.247
-744.156	86.766	-0.191	0.215
-743.142	-60.511	0.095	-0.041
-742.127	-200.000	0.005	0.428
-741.112	17.972	0.110	-0.089
-740.098	-200.000	0.035	0.323
-739.083	46.243	0.185	-0.175
-738.069	800.000	0.049	0.139
-737.054	139.746	-0.131	0.176
-736.039	173.800	-0.183	-0.269
-735.025	9.293	-0.183	0.141
-734.010	132.587	0.166	0.218
-732.996	605.204	0.025	-0.063
-731.981	27.626	0.243	-0.209
-730.966	216.001	0.123	-0.200
-729.952	-8.886	-0.133	-0.091
-728.937	68.917	-0.026	-0.027
-727.923	-129.473	0.373	0.053
-726.908	144.978	0.195	0.266
-725.894	-200.000	0.021	-0.110
-724.879	-200.000	-0.017	0.176
-723.864	23.317	-0.127	-0.106
-722.850	273.830	-0.061	0.109
-721.835	-158.253	0.100	0.006
-720.821	-200.000	0.067	-0.421
-719.806	369.222	-0.152	-0.313
-718.791	112.523	0.157	-0.194
-717.777	800.000	0.109	-0.353
-716.762	-69.204	-0.393	-0.154
-715.748	-145.949	0.170	-0.015
-714.733	23.595	0.173	-0.145
-713.718	411.931	0.030	0.065
-712.704	-199.115	-0.076	-0.000
-711.689	63.795	0.197	-0.201
-710.675	800.000	-0.084	0.250
-709.660	-52.983	-0.182	0.085
-708.645	106.880	-0.305	-0.369
-707.631	96.598	-0.197	-0.230
-706.616	-12.549	0.111	0.074
-705.602	800.000	0.063	-0.228
-704.587	-6.077	-0.237	-0.165
-703.572	-85.245	-0.330	-0.105
-702.558	23.413	0.291	-0.244
-701.543	-123.110	-0.292	-0.048
-700.529	-179.906	0.185	0.004
-699.514	800.000	-0.098	-0.374
-698.499	-79.594	0.155	0.053
-697.485	-30.974	0.155	0.089
-696.470	325.139	-0.175	-0.341
-695.456	-200.000	0.045	0.246
-694.441	-59.226	-0.391	-0.171
-693.426	-19.796	-0.091	0.057
-692.412	-8.060	0.209	-0.143
-691.397	-157.472	0.294	0.018
-690.383	476.472	-0.160	0.369
-689.368	-200.000	-0.003	0.168
-688.354	592.094	-0.088	0.222
-687.339	-131.105	-0.211	0.029
-686.324	165.559	0.161	-0.232
-685.310	146.306	-0.143	-0.195
-684.295	-147.211	-0.058	0.005
-683.281	-58.756	0.347	-0.153
-682.266	468.055	0.126	-0.287
-681.251	12.995	0.238	-0.187
-680.237	-200.000	0.027	-0.238
-679.222	726.155	-0.124	-0.336
-678.208	-89.721	-0.169	0.050
-677.193	87.452	-0.082	0.093
-676.178	-42.528	0.045	-0.023
-675.164	187.133	-0.099	-0.150
-674.149	302.679	0.181	-0.341
-673.135	162.774	-0.116	-0.165
-672.120	503.194	-0.015	-0.035
-671.105	47.274	0.348	-0.329
-670.091	-158.495	0.398	-0.023
-669.076	-200.000	0.015	-0.124
-668.062	-27.639	-0.433	-0.256
-667.047	14.650	-0.102	0.081
-666.032	-200.000	-0.015	0.202
-665.018	-200.000	-0.226	-0.001
-664.003	-117.381	0.099	-0.018
-662.989	-200.000	0.055	0.328
-661.974	-25.364	-0.293	-0.176
-660.959	-110.788	0.320	-0.067
-659.945	-200.000	0.059	-0.420
-658.930	-200.000	0.043	0.211
-657.916	167.010	-0.104	0.150
-656.901	-117.552	-0.238	0.044
-655.886	-200.000	-0.011	-0.226
-654.872	-200.000	0.003	0.038
-653.857	63.656	-0.170	0.174
-652.843	-70.909	-0.042	-0.016
-651.828	611.967	-0.035	0.088
-650.814	4.506	0.208	0.155
-649.799	242.574	0.140	0.239
-648.784	-200.000	-0.025	-0.160
-647.770	87.441	-0.092	-0.103
-646.755	66.645	0.140	0.144
-645.741	-200.000	0.050	-0.257
-644.726	-45.536	-0.092	0.046
-643.711	-26.374	-0.257	0.153
-642.697	800.000	-0.035	0.113
-641.682	-165.588	0.399	-0.018
-640.668	-168.348	0.262	0.010
-639.653	30.571	0.179	-0.156
-638.638	51.027	-0.119	-0.115
-637.624	-72.725	0.258	-0.097
-636.609	-200.000	0.010	0.385
-635.595	168.016	-0.241	-0.348
-634.580	800.000	0.016	0.048
-633.565	-88.580	0.103	-0.031
-632.551	221.007	0.100	-0.162
-631.536	515.047	-0.047	0.112
-630.522	-195.039	0.310	0.002
-629.507	216.686	0.080	0.129
-628.492	-46.128	-0.151	-0.076
-627.478	-200.000	-0.164	-0.000
-626.463	24.493	-0.246	0.207
-625.449	221.679	0.144	-0.235
-624.434	-200.000	-0.006	-0.110
-623.419	-200.000	-0.042	-0.217
-622.405	67.788	0.093	0.097
-621.390	-91.197	0.043	-0.013
-620.376	2.851	0.108	-0.080
-619.361	-111.473	-0.194	-0.040
-618.346	800.000	-0.050	0.182
-617.332	-94.151	0.068	0.019
-616.317	646.880	0.031	0.080
-615.303	14.070	0.191	-0.151
-614.288	736.428	-0.026	0.071
-613.273	800.000	0.062	-0.205
-612.259	-106.751	0.491	-0.111
-611.244	-200.000	-0.020	0.524
-610.230	4.378	-0.133	-0.099
-609.215	276.929	-0.081	0.146
-608.201	-169.435	0.370	-0.014
-607.186	409.158	-0.137	0.295
-606.171	21.083	-0.164	0.135
-605.157	620.957	0.119	-0.304
-604.142	-200.000	0.005	0.305
-603.128	268.987	-0.076	-0.134
-602.113	-200.000	0.017	0.103
-601.098	-69.652	0.173	-0.067
-600.084	-79.816	-0.349	0.119
-599.069	97.294	0.086	-0.100
-598.055	158.464	-0.187	-0.264
-597.040	301.729	-0.089	-0.167
-596.025	14.429	-0.177	-0.140
-595.011	29.883	0.255	0.221
-593.996	800.000	0.045	0.182
-592.982	-200.000	-0.026	0.581
-591.967	235.350	-0.137	0.230
-590.952	800.000	-0.048	-0.213
-589.938	-17.109	-0.202	-0.129
-588.923	-100.695	-0.506	0.127
-587.909	130.019	0.172	-0.223
-586.894	-19.300	-0.318	0.200
-585.879	539.445	0.143	-0.345
-584.865	62.763	0.153	-0.155
-583.850	-162.079	-0.069	-0.004
-582.836	-200.000	0.051	-0.253
-581.821	5.574	0.158	-0.118
-580.806	156.763	0.092	-0.129
-579.792	-200.000	0.002	-0.192
-578.777	-67.315	0.320	0.128
-577.763	126.765	-0.162	-0.207
-576.748	1.444	-0.257	-0.187
-575.733	-45.464	0.366	0.184
-574.719	209.359	-0.089	-0.141
-573.704	561.808	0.071	-0.173
-572.690	193.624	0.023	-0.035
-571.675	347.732	-0.066	0.132
-570.661	-1.743	-0.153	0.109
-569.646	246.748	-0.244	0.417
-568.631	682.157	0.050	-0.131
-567.617	-159.587	-0.338	0.019
-566.602	-73.051	0.268	-0.099
-565.588	-44.136	-0.213	-0.108
-564.573	-200.000	0.008	-0.227
-563.558	-181.305	-0.269	0.005
-562.544	15.765	-0.351	0.279
-561.529	-63.106	0.142	0.059
-560.515	281.118	-0.141	-0.256
-559.500	87.291	-0.147	-0.165
-558.485	-200.000	0.043	-0.329
-557.471	-200.000	-0.002	-0.357
-556.456	34.616	-0.233	-0.206
-555.442	2.106	-0.169	-0.124
-554.427	374.881	0.108	-0.223
-553.412	800.000	0.040	0.118
-552.398	151.904	0.202	-0.279
-551.383	-110.158	-0.363	0.077
-550.369	-200.000	0.039	-0.337
-549.354	-80.290	-0.133	-0.045
-548.339	-200.000	-0.019	0.133
-547.325	41.663	0.301	-0.276
-546.310	-0.771	-0.028	-0.020
-545.296	48.099	-0.233	0.220
-544.281	114.015	0.301	-0.371
-543.266	249.959	-0.103	-0.178
-542.252	629.915	0.081	0.207
-541.237	-200.000	-0.001	0.070
-540.223	-200.000	0.023	-0.232
-539.208	110.732	0.123	-0.150
-538.193	170.860	-0.106	0.153
-537.179	-8.521	0.257	-0.175
-536.164	251.111	-0.144	0.248
-535.150	-70.603	0.206	0.079
-534.135	-48.570	-0.203	-0.099
-533.121	677.288	-0.085	-0.223
-532.106	-158.049	0.282	0.017
-531.091	-185.487	-0.396	0.006
-530.077	1.125	0.133	0.097
-529.062	204.599	-0.086	-0.134
-528.048	29.661	-0.258	0.222
-527.033	99.209	0.084	-0.098
-526.018	37.270	-0.025	0.022
-525.004	-148.761	-0.269	-0.022
-523.989	-184.570	-0.134	-0.002
-522.975	-200.000	0.019	0.144
-521.960	-200.000	0.025	-0.153
-520.945	1.176	-0.079	-0.057
-519.931	800.000	-0.087	-0.287
-518.916	-200.000	-0.020	0.151
-517.902	108.467	0.180	-0.217
-516.887	-115.262	-0.119	0.023
-515.872	-200.000	-0.045	-0.264
-514.858	800.000	0.026	-0.083
-513.843	-27.144	0.040	-0.024
-512.829	10.991	-0.186	-0.144
-511.814	-200.000	-0.054	0.268
-510.799	-200.000	0.012	-0.314
-509.785	800.000	-0.012	-0.038
-508.770	800.000	0.039	0.120
-507.756	25.141	0.054	-0.045
-506.741	-52.417	-0.336	-0.157
-505.726	431.683	0.048	0.105
-504.712	4.422	0.392	0.290
-503.697	-177.514	-0.473	-0.012
-502.683	166.459	0.094	-0.134
-501.668	-125.633	-0.129	0.020
-500.653	15.135	0.283	0.224
-499.639	97.646	0.099	0.115
-498.624	-28.753	-0.056	-0.032
-497.610	77.401	-0.045	0.048
-496.595	-124.877	0.132	0.021
-495.581	90.780	0.099	0.112
-494.566	-82.138	0.189	0.062
-493.551	-80.388	-0.563	0.190
-492.537	187.539	-0.165	0.249
-491.522	-200.000	-0.048	0.266
-490.508	525.644	0.061	-0.144
-489.493	217.228	0.166	-0.267
-488.478	146.500	0.191	-0.260
-487.464	-141.090	-0.169	-0.017
-486.449	-200.000	0.000	-0.003
-485.435	-129.640	-0.152	0.021
-484.420	-200.000	0.014	0.282
-483.405	-78.361	0.042	0.015
-482.391	-200.000	0.037	-0.220
-481.376	-128.728	0.099	0.014
-480.362	-129.974	0.229	-0.032
-479.347	-41.481	-0.282	0.146
-478.332	-200.000	-0.034	0.436
-477.318	800.000	-0.058	0.193
-476.303	-200.000	0.032	0.193
-475.289	-200.000	0.013	0.152
-474.274	-121.865	-0.382	0.064
-473.259	0.844	0.142	0.103
-472.245	-10.185	-0.055	0.037
-471.230	-200.000	-0.017	0.146
-470.216	581.644	0.151	-0.375
-469.201	250.264	0.161	0.276
-468.186	511.373	-0.135	0.318
-467.172	-159.399	0.262	-0.015
-466.157	304.848	0.177	0.332
-465.143	147.164	-0.243	-0.329
-464.128	140.772	-0.018	0.024
-463.113	-185.522	0.070	0.001
-462.099	-17.306	0.274	-0.174
-461.084	18.413	-0.035	0.028
-460.070	-82.450	-0.515	0.169
-459.055	17.345	0.146	0.117
-458.040	-123.051	-0.177	0.029
-457.026	-31.824	0.191	0.108
-456.011	-200.000	-0.003	-0.105
-454.997	-13.436	0.118	0.077
-453.982	-81.613	-0.042	0.014
-452.968	-56.710	-0.054	-0.024
-451.953	11.094	0.180	-0.139
-450.938	-0.815	-0.360	-0.257
-449.924	800.000	0.099	-0.425
-448.909	-171.141	-0.279	0.010
-447.895	-123.196	0.205	0.033
-446.880	76.067	-0.247	-0.263
-445.865	-33.094	0.208	-0.116
-444.851	152.130	-0.124	-0.170
-443.836	-14.369	0.172	-0.112
-442.822	61.346	0.249	-0.250
-441.807	160.337	0.105	-0.147
-440.792	-99.599	0.280	-0.071
-439.778	-200.000	0.016	0.114
-438.763	250.911	0.134	0.229
-437.749	-145.763	-0.268	0.024
-436.734	55.881	-0.247	-0.241
-435.719	283.117	0.111	0.201
-434.705	800.000	0.057	0.176
-433.690	33.718	-0.237	0.207
-432.676	-49.453	0.392	-0.188
-431.661	-91.732	-0.338	0.097
-430.646	-18.259	0.112	-0.070
-429.632	-200.000	-0.029	0.497
-428.617	-119.860	-0.343	-0.059
-427.603	-77.517	-0.078	0.027
-426.588	-200.000	0.011	-0.082
-425.573	800.000	-0.063	-0.193
-424.559	490.106	-0.128	-0.295
-423.544	-200.000	-0.003	0.195
-422.530	-130.071	0.281	-0.039
-421.515	-133.342	-0.024	0.003
-420.500	800.000	0.055	0.153
-419.486	-10.047	-0.219	0.146
-418.471	-100.539	-0.213	0.053
-417.457	-114.409	0.302	0.059
-416.442	800.000	-0.069	0.294
-415.428	29.634	0.225	-0.192
-414.413	-200.000	0.035	-0.198
-413.398	27.843	-0.137	0.116
-412.384	800.000	0.097	-0.279
-411.369	-200.000	-0.041	0.190
-410.355	-138.650	0.049	0.005
-409.340	-69.993	0.255	0.098
-408.325	-70.285	0.299	0.114
-407.311	-40.629	-0.128	0.067
-406.296	242.306	0.079	0.133
-405.282	-26.604	0.150	-0.088
-404.267	688.058	-0.115	0.301
-403.252	-31.480	-0.241	0.136
-402.238	432.814	0.121	0.265
-401.223	40.815	0.143	-0.130
-400.209	62.743	0.167	-0.168
-399.194	-200.000	0.021	-0.405
-398.179	-133.083	0.143	-0.018
-397.165	215.855	-0.097	-0.156
-396.150	337.336	-0.090	0.176
-395.136	-198.894	0.113	0.001
-394.121	-200.000	-0.004	0.223
-393.106	-40.848	-0.297	0.155
-392.092	307.212	-0.101	-0.189
-391.077	241.243	0.099	-0.166
-390.063	-200.000	-0.031	0.224
-389.048	93.195	-0.040	-0.046
-388.033	-28.906	0.355	0.205
-387.019	-13.439	-0.274	0.179
-386.004	87.962	0.155	0.173
-384.990	148.623	-0.166	0.226
-383.975	-200.000	-0.005	0.311
-382.960	166.506	-0.033	0.047
-381.946	800.000	-0.054	0.170
-380.931	-200.000	-0.010	-0.144
-379.917	-174.251	0.360	-0.010
-378.902	371.516	-0.080	-0.163
-377.888	291.139	0.164	-0.299
-376.873	32.108	-0.103	0.089
-375.858	-200.000	-0.003	0.170
-374.844	-200.000	-0.009	-0.137
-373.829	-34.923	0.176	0.097
-372.815	241.376	0.077	-0.130
-371.800	-40.461	-0.084	-0.044
-370.785	-200.000	-0.017	-0.143
-369.771	800.000	0.022	-0.080
-368.756	214.554	0.073	0.116
-367.742	-200.000	0.004	0.142
-366.727	-200.000	-0.002	0.103
-365.712	90.849	-0.182	-0.205
-364.698	-10.436	0.187	0.125
-363.683	0.975	0.144	0.104
-362.669	-109.159	-0.436	-0.093
-361.654	-133.866	0.131	0.016
-360.639	-121.879	-0.324	-0.054
-359.625	-200.000	0.022	0.213
-358.610	-129.575	-0.342	0.047
-357.596	-200.000	0.027	0.278
-356.581	38.364	-0.201	0.180
-355.566	-38.018	-0.323	-0.173
-354.552	122.332	0.167	-0.209
-353.537	-200.000	-0.022	0.127
-352.523	-200.000	0.025	-0.214
-351.508	-46.272	0.050	0.025
-350.493	87.630	-0.270	0.301
-349.479	-155.305	0.097	-0.006
-348.464	-30.012	-0.124	-0.071
-347.450	187.489	-0.151	-0.226
-346.435	-114.961	-0.224	-0.043
-345.420	-200.000	-0.001	-0.182
-344.406	-10.524	0.231	0.153
-343.391	-200.000	-0.060	-0.372
-342.377	-86.380	-0.269	0.083
-341.362	-200.000	-0.018	0.313
-340.348	169.327	0.138	-0.198
-339.333	-197.554	0.210	-0.001
-338.318	156.291	0.207	-0.286
-337.304	-200.000	0.012	-0.165
-336.289	-153.515	0.273	-0.019
-335.275	338.271	-0.141	-0.276
-334.260	800.000	-0.030	-0.125
-333.245	-138.556	0.148	-0.016
-332.231	107.439	0.070	0.084
-331.216	28.368	-0.132	-0.112
-330.202	16.097	0.394	0.311
-329.187	328.408	-0.068	-0.131
-328.172	-200.000	0.254	0.001
-327.158	-160.590	-0.196	-0.010
-326.143	0.304	0.083	-0.059
-325.129	-98.911	0.148	0.038
-324.114	263.645	0.176	-0.308
-323.099	-200.000	-0.030	-0.210
-322.085	-200.000	-0.012	0.255
-321.070	-200.000	-0.015	0.220
-320.056	292.714	-0.065	0.118
-319.041	122.098	-0.185	-0.232
-318.026	-183.495	0.195	-0.003
-317.012	-78.934	0.169	-0.058
-315.997	-200.000	0.077	0.455
-314.983	228.991	0.114	0.186
-313.968	221.459	0.090	0.144
-312.953	-200.000	0.001	0.031
-311.939	-41.484	-0.209	-0.108
-310.924	81.692	-0.072	0.079
-309.910	-87.563	-0.152	-0.046
-308.895	205.352	0.184	-0.287
-307.880	-109.585	-0.202	-0.043
-306.866	11.868	0.145	-0.112
-305.851	479.559	-0.076	0.172
-304.837	10.593	0.059	-0.045
-303.822	81.464	0.185	0.200
-302.807	-200.000	-0.013	0.139
-301.793	50.895	0.155	0.147
-300.778	29.716	0.087	-0.074
-299.764	119.564	0.104	0.129
-298.749	511.294	-0.121	-0.283
-297.735	-70.190	0.222	0.085
-296.720	800.000	-0.061	0.231
-295.705	-20.896	0.224	-0.138
-294.691	-76.900	-0.096	0.034
-293.676	-42.392	0.164	-0.084
-292.662	800.000	0.077	0.216
-291.647	800.000	0.021	0.069
-290.632	407.101	0.083	-0.177
-289.618	-80.375	0.339	0.113
-288.603	81.345	0.237	0.257
-287.589	-200.000	0.057	0.341
-286.574	79.206	-0.250	-0.269
-285.559	339.690	-0.063	0.122
-284.545	-15.558	-0.250	0.160
-283.530	-126.751	0.258	0.038
-282.516	-79.681	-0.172	0.058
-281.501	117.543	0.139	0.172
-280.486	-27.557	-0.259	0.150
-279.472	-200.000	0.010	-0.133
-278.457	372.337	0.104	0.212
-277.443	-58.819	-0.423	0.183
-276.428	-200.000	0.012	0.352
-275.413	800.000	0.049	0.168
-274.399	203.203	-0.207	-0.321
-273.384	44.138	0.250	-0.230
-272.370	-6.658	-0.239	0.163
-271.355	-9.617	-0.260	-0.174
-270.340	-6.157	-0.058	-0.040
-269.326	-32.469	-0.237	0.132
-268.311	49.866	0.109	0.103
-267.297	800.000	-0.054	-0.223
-266.282	-131.928	-0.108	-0.014
-265.267	755.613	-0.020	-0.054
-264.253	68.745	0.153	-0.157
-263.238	-200.000	0.019	-0.143
-262.224	100.590	-0.067	-0.078
-261.209	-200.000	0.033	-0.187
-260.195	-200.000	0.005	0.084
-259.180	-123.442	0.055	0.009
-258.165	-35.408	0.296	-0.161
-257.151	800.000	0.028	-0.115
-256.136	800.000	0.043	0.170
-255.122	87.122	0.163	0.180
-254.107	90.787	0.096	0.108
-253.092	541.375	-0.018	-0.042
-252.078	79.216	0.251	-0.269
-251.063	-200.000	0.015	-0.155
-250.049	800.000	0.055	-0.162
-249.034	800.000	0.006	-0.027
-248.019	800.000	-0.086	-0.267
-247.005	192.128	-0.145	-0.220
-245.990	-85.264	0.364	0.114
-244.976	372.052	0.119	0.243
-243.961	800.000	0.036	0.143
-242.946	213.132	0.181	-0.287
-241.932	24.875	-0.168	-0.139
-240.917	-119.154	0.203	-0.036
-239.903	499.916	-0.097	0.223
-238.888	-200.000	-0.031	0.186
-237.873	-200.000	0.022	0.211
-236.859	-55.772	-0.088	0.039
-235.844	-59.162	0.139	-0.060
-234.830	-177.953	-0.061	-0.001
-233.815	-152.069	-0.273	-0.020
-232.800	-54.687	-0.207	0.093
-231.786	-200.000	-0.061	0.348
-230.771	800.000	-0.070	-0.305
-229.757	426.665	0.021	-0.045
-228.742	-131.798	-0.106	-0.014
-227.727	286.287	0.086	-0.154
-226.713	98.744	0.081	0.093
-225.698	167.634	-0.195	0.277
-224.684	-188.974	0.108	-0.001
-223.669	-55.237	0.163	-0.073
-222.655	626.639	-0.040	0.100
-221.640	46.121	0.066	0.061
-220.625	-142.708	-0.047	-0.005
-219.611	-200.000	-0.050	0.333
-218.596	186.829	-0.156	0.233
-217.582	306.212	-0.069	-0.128
-216.567	15.285	0.143	0.112
-215.552	98.238	-0.239	0.275
-214.538	-105.482	0.268	0.061
-213.523	63.822	0.126	-0.127
-212.509	187.846	-0.217	-0.324
-211.494	-27.100	0.123	-0.072
-210.479	130.702	-0.227	0.290
-209.465	554.971	-0.141	0.338
-208.450	-200.000	0.002	0.274
-207.436	72.661	0.128	-0.133
-206.421	-134.936	0.056	0.007
-205.406	-64.459	0.091	0.037
-204.392	-48.916	-0.260	-0.124
-203.377	-160.860	0.566	0.030
-202.363	-200.000	-0.105	0.478
-201.348	110.348	0.180	0.216
-200.333	800.000	-0.077	-0.232
-199.319	699.823	0.090	0.237
-198.304	-72.852	0.323	0.119
-197.290	-200.000	0.026	-0.154
-196.275	-52.851	0.137	-0.063
-195.260	39.576	0.112	-0.101
-194.246	527.927	-0.127	-0.299
-193.231	-154.903	-0.239	0.016
-192.217	-200.000	-0.011	0.133
-191.202	-23.180	0.058	-0.035
-190.187	-200.000	-0.068	-0.398
-189.173	-92.570	-0.311	0.087
-188.158	25.763	0.293	0.244
-187.144	-26.569	0.198	0.116
-186.129	-85.668	0.277	-0.086
-185.114	-70.666	-0.247	-0.093
-184.100	283.001	-0.109	0.195
-183.085	-128.426	0.137	-0.019
-182.071	133.671	0.140	0.181
-181.056	-148.739	-0.201	-0.016
-180.042	193.590	-0.197	-0.298
-179.027	-33.525	0.288	0.159
-178.012	55.744	0.089	-0.086
-176.998	-114.344	-0.190	0.036
-175.983	356.723	-0.114	-0.227
-174.969	-59.029	-0.174	-0.075
-173.954	800.000	0.044	-0.166
-172.939	-93.872	0.101	0.028
-171.925	-173.805	0.262	0.008
-170.910	800.000	-0.068	0.201
-169.896	-37.970	0.065	-0.034
-168.881	-67.651	-0.193	0.075
-167.866	440.199	-0.098	-0.214
-166.852	-132.281	-0.263	-0.034
-165.837	3.997	0.291	-0.212
-164.823	-127.505	-0.109	0.016
-163.808	20.750	-0.085	0.069
-162.793	-18.059	-0.206	-0.129
-161.779	-101.430	0.144	0.035
-160.764	-87.555	0.183	-0.055
-159.750	-200.000	-0.026	-0.136
-158.735	-60.867	-0.019	-0.008
-157.720	-111.883	0.160	-0.032
-156.706	-84.574	-0.234	0.074
-155.691	-200.000	0.043	-0.210
-154.677	20.242	0.062	-0.050
-153.662	-50.110	-0.069	-0.032
-152.647	11.241	-0.148	0.113
-151.633	-200.000	-0.003	-0.189
-150.618	98.317	-0.152	-0.175
-149.604	-19.683	-0.163	-0.100
-148.589	453.815	0.050	-0.111
-147.574	137.080	0.036	0.047
-146.560	170.824	-0.085	0.122
-145.545	-111.140	0.117	-0.024
-144.531	-143.362	-0.144	-0.014
-143.516	-42.089	0.167	-0.085
-142.502	-65.436	0.144	-0.058
-141.487	-3.441	-0.116	0.081
-140.472	8.963	0.342	0.257
-139.458	800.000	0.125	-0.397
-138.443	-29.116	0.200	-0.114
-137.429	594.907	0.135	0.333
-136.414	-90.235	0.212	-0.061
-135.399	206.959	-0.082	0.127
-134.385	-77.166	-0.141	-0.049
-133.370	-95.680	0.184	0.049
-132.356	-138.141	-0.201	0.022
-131.341	-12.686	0.038	0.025
-130.326	-74.646	-0.131	-0.047
-129.312	800.000	-0.110	0.302
-128.297	576.993	0.067	-0.163
-127.283	104.793	0.094	-0.110
-126.268	-200.000	0.009	-0.191
-125.253	-6.904	-0.124	0.084
-124.239	298.813	-0.141	0.258
-123.224	-200.000	0.042	0.260
-122.210	-200.000	0.025	0.175
-121.195	-38.559	-0.299	-0.157
