DTS Sentinel unit serial number:	SN413079Multiplexer serial number:	ORYXHardware model number:	OX4-SRSoftware version number:	ORYX F/W v4.00 Oryx Data Collector v3.7.2.0data status	okinstallation	princeton_trtdifferential loss correction	single-endedforward channel	channel 4reverse channel	N/Adate	2019/09/11time	10:55:11forward acquisition time	60.00reverse acquisition time	0.00gamma	496.2192k internal	0.2293k external	0.2293temperature offset calibration	0.9968default loss term (dB/km)	0.3790temperature slope calibration	1.0000multiplexer offset coefficient	1.0000multiplexer slope coefficient	1.0000fibre end	0.00T internal ref (°C)	37.06T ext. ref 1 (°C)	0.17T ext. ref 2 (°C)	34.28length (m)	temperature (°C)	Stokes	anti-Stokes-747.200	-29.261	0.177	-0.104
-746.185	-72.732	0.086	0.032
-745.171	40.612	-0.179	0.165
-744.156	-59.868	-0.228	0.100
-743.142	7.948	-0.186	-0.142
-742.127	-44.089	-0.175	0.090
-741.112	209.262	-0.093	0.149
-740.098	143.156	0.047	0.064
-739.083	-39.860	0.258	0.138
-738.069	-200.000	-0.049	0.287
-737.054	-79.197	-0.310	0.108
-736.039	194.234	-0.120	-0.186
-735.025	350.486	0.148	0.300
-734.010	487.846	-0.074	0.172
-732.996	-173.916	-0.311	0.009
-731.981	121.192	0.227	-0.290
-730.966	800.000	0.066	0.201
-729.952	-80.280	-0.509	-0.174
-728.937	800.000	-0.039	0.122
-727.923	-76.920	0.105	-0.038
-726.908	5.365	-0.113	-0.085
-725.894	-111.966	0.250	-0.052
-724.879	90.695	-0.087	-0.100
-723.864	-200.000	-0.012	-0.190
-722.850	-107.589	0.002	-0.001
-721.835	-56.199	-0.203	-0.092
-720.821	-33.653	-0.156	-0.088
-719.806	67.935	0.179	-0.187
-718.791	-132.538	-0.286	-0.038
-717.777	-157.927	-0.270	0.016
-716.762	248.068	-0.052	0.090
-715.748	224.929	0.172	0.284
-714.733	-200.000	-0.007	0.300
-713.718	30.108	-0.113	-0.098
-712.704	106.766	0.243	-0.295
-711.689	10.292	-0.093	-0.072
-710.675	-200.000	0.015	-0.317
-709.660	114.713	-0.159	-0.198
-708.645	-200.000	0.012	-0.269
-707.631	-151.450	0.041	0.003
-706.616	-159.235	-0.108	-0.006
-705.602	-136.292	-0.039	0.005
-704.587	-102.481	0.083	0.020
-703.572	-73.240	0.148	-0.055
-702.558	-200.000	0.036	0.217
-701.543	23.514	0.179	0.151
-700.529	32.814	0.184	0.163
-699.514	-74.502	-0.108	0.040
-698.499	338.426	-0.140	0.278
-697.485	-20.876	-0.248	-0.155
-696.470	143.282	0.225	-0.306
-695.456	800.000	-0.054	0.190
-694.441	58.758	0.218	0.219
-693.426	-133.198	-0.095	0.012
-692.412	-200.000	-0.001	-0.118
-691.397	162.221	0.106	-0.152
-690.383	-125.957	0.136	0.021
-689.368	-93.471	0.329	-0.093
-688.354	800.000	0.052	0.172
-687.339	-200.000	-0.027	0.200
-686.324	157.615	0.152	-0.214
-685.310	-21.122	-0.422	-0.264
-684.295	800.000	-0.035	0.145
-683.281	-178.373	-0.063	-0.001
-682.266	-200.000	-0.053	0.237
-681.251	258.969	0.054	0.095
-680.237	-200.000	0.073	-0.461
-679.222	193.667	-0.115	-0.177
-678.208	-22.833	-0.225	-0.139
-677.193	-46.019	-0.329	-0.165
-676.178	-21.939	-0.114	0.070
-675.164	-133.971	-0.083	-0.011
-674.149	-54.189	-0.106	-0.049
-673.135	89.460	0.077	0.088
-672.120	-126.550	-0.245	-0.037
-671.105	-138.911	-0.309	0.034
-670.091	-200.000	0.007	0.160
-669.076	-73.365	0.186	-0.069
-668.062	-9.721	-0.191	-0.130
-667.047	-200.000	-0.001	-0.026
-666.032	-179.632	-0.216	0.005
-665.018	-200.000	0.032	-0.208
-664.003	234.855	-0.059	0.099
-662.989	498.386	-0.056	0.132
-661.974	-200.000	0.023	-0.200
-660.959	-115.630	-0.140	-0.027
-659.945	-6.949	0.134	0.093
-658.930	-100.895	0.099	0.025
-657.916	-25.856	0.222	0.134
-656.901	38.540	-0.228	-0.207
-655.886	-200.000	-0.021	-0.223
-654.872	-15.568	-0.165	-0.107
-653.857	800.000	0.129	0.426
-652.843	100.218	0.144	0.171
-651.828	264.729	0.029	-0.051
-650.814	-200.000	-0.044	0.279
-649.799	250.398	-0.118	0.205
-648.784	111.788	-0.160	-0.197
-647.770	800.000	-0.060	-0.240
-646.755	-200.000	0.020	0.281
-645.741	-200.000	0.085	0.467
-644.726	591.933	0.120	-0.302
-643.711	800.000	0.069	-0.296
-642.697	70.100	0.140	-0.147
-641.682	-14.818	0.374	-0.245
-640.668	752.598	-0.152	-0.419
-639.653	88.429	-0.147	-0.166
-638.638	-200.000	0.050	-0.271
-637.624	-200.000	0.022	0.137
-636.609	-191.822	0.075	-0.001
-635.595	594.639	-0.122	-0.308
-634.580	-107.779	0.340	-0.075
-633.565	310.753	0.067	-0.127
-632.551	131.046	-0.117	-0.153
-631.536	-200.000	0.005	0.033
-630.522	-200.000	0.033	-0.152
-629.507	-200.000	0.002	-0.316
-628.492	-200.000	-0.011	-0.195
-627.478	-200.000	-0.008	-0.122
-626.463	-107.676	0.160	-0.036
-625.449	288.403	-0.032	-0.060
-624.434	-130.824	-0.236	0.032
-623.419	-51.895	-0.258	0.122
-622.405	-200.000	-0.012	-0.131
-621.390	647.651	-0.120	0.313
-620.376	659.533	-0.086	0.224
-619.361	800.000	-0.117	-0.355
-618.346	-8.548	-0.293	-0.200
-617.332	-51.559	-0.170	-0.081
-616.317	-143.749	-0.385	0.037
-615.303	108.334	0.307	0.373
-614.288	26.371	-0.259	0.220
-613.273	320.647	-0.059	0.114
-612.259	-200.000	0.003	0.019
-611.244	-57.501	-0.350	0.156
-610.230	79.531	0.182	0.198
-609.215	71.448	0.157	0.166
-608.201	41.136	0.225	-0.207
-607.186	-103.894	-0.224	-0.053
-606.171	-200.000	-0.023	-0.389
-605.157	558.708	0.072	-0.177
-604.142	-34.337	-0.337	0.188
-603.128	800.000	0.050	-0.201
-602.113	-22.196	-0.088	-0.054
-601.098	-2.278	-0.102	-0.073
-600.084	69.830	-0.228	-0.239
-599.069	-200.000	0.028	0.133
-598.055	-52.233	-0.239	-0.113
-597.040	348.063	0.045	-0.091
-596.025	-42.589	-0.385	-0.199
-595.011	-200.000	0.066	-0.453
-593.996	48.337	-0.166	0.158
-592.982	-200.000	-0.005	0.276
-591.967	443.482	-0.129	0.287
-590.952	107.390	-0.285	-0.344
-589.938	131.921	0.026	0.034
-588.923	78.310	0.186	0.202
-587.909	301.854	-0.139	-0.260
-586.894	800.000	-0.073	0.229
-585.879	23.649	0.269	-0.225
-584.865	194.980	0.218	-0.337
-583.850	-200.000	0.004	0.122
-582.836	-200.000	0.014	-0.065
-581.821	226.471	-0.108	0.178
-580.806	-12.731	-0.227	0.150
-579.792	-44.165	-0.350	-0.178
-578.777	-96.276	0.123	-0.033
-577.763	644.106	-0.134	0.349
-576.748	-122.088	-0.252	-0.042
-575.733	-42.568	-0.068	-0.035
-574.719	181.031	-0.029	0.043
-573.704	164.269	-0.111	0.158
-572.690	-200.000	-0.020	0.157
-571.675	-145.154	-0.383	-0.035
-570.661	-33.199	0.071	0.040
-569.646	27.742	-0.139	-0.119
-568.631	69.590	0.175	-0.184
-567.617	-200.000	-0.043	0.296
-566.602	-12.549	0.018	0.012
-565.588	-200.000	-0.038	-0.225
-564.573	176.572	0.121	0.179
-563.558	-200.000	0.005	0.176
-562.544	800.000	0.055	0.224
-561.529	-171.215	0.312	-0.011
-560.515	552.454	0.039	-0.095
-559.500	58.492	0.147	0.147
-558.485	-105.092	0.336	0.078
-557.471	109.732	-0.079	-0.096
-556.456	-84.515	-0.356	-0.114
-555.442	-200.000	0.014	0.084
-554.427	-200.000	0.059	0.380
-553.412	-200.000	-0.008	0.153
-552.398	-200.000	0.001	-0.383
-551.383	156.611	0.161	-0.226
-550.369	-119.000	0.304	0.054
-549.354	619.286	0.114	-0.292
-548.339	-200.000	-0.009	-0.153
-547.325	-114.164	-0.264	0.052
-546.310	-20.072	-0.162	0.101
-545.296	-57.450	-0.161	-0.072
-544.281	-32.238	0.303	0.172
-543.266	-190.349	-0.267	0.003
-542.252	146.850	0.140	0.191
-541.237	-16.205	0.210	0.136
-540.223	25.767	0.123	-0.104
-539.208	70.117	0.093	-0.097
-538.193	200.754	-0.082	0.129
-537.179	800.000	0.077	0.215
-536.164	27.240	-0.262	-0.223
-535.150	-44.586	0.299	0.152
-534.135	25.594	0.063	-0.053
-533.121	91.819	-0.179	-0.205
-532.106	132.315	-0.045	0.059
-531.091	-10.621	-0.119	-0.080
-530.077	-200.000	-0.002	-0.245
-529.062	-200.000	-0.028	-0.195
-528.048	800.000	-0.049	-0.170
-527.033	-70.875	0.192	-0.073
-526.018	-123.887	0.414	-0.066
-525.004	146.510	-0.232	0.316
-523.989	247.289	0.140	0.240
-522.975	-74.013	-0.220	-0.081
-521.960	-138.053	-0.160	-0.018
-520.945	109.719	0.110	0.133
-519.931	377.798	0.027	-0.057
-518.916	-125.147	-0.482	-0.075
-517.902	-200.000	-0.018	-0.121
-516.887	800.000	0.015	0.047
-515.872	800.000	0.035	-0.112
-514.858	236.686	0.207	0.348
-513.843	61.415	0.150	-0.151
-512.829	-22.683	0.243	0.149
-511.814	-69.409	0.042	0.016
-510.799	-30.147	0.290	0.167
-509.785	-200.000	0.002	-0.087
-508.770	-180.850	0.151	0.003
-507.756	-138.871	-0.266	-0.029
-506.741	307.880	0.186	-0.352
-505.726	-179.779	-0.276	-0.006
-504.712	-200.000	-0.013	-0.307
-503.697	-106.650	0.194	0.044
-502.683	800.000	0.034	0.112
-501.668	-94.232	0.321	0.089
-500.653	800.000	-0.015	-0.051
-499.639	-200.000	-0.053	-0.262
-498.624	200.555	0.106	-0.166
-497.610	398.385	-0.053	-0.112
-496.595	-200.000	-0.071	-0.323
-495.581	159.003	-0.051	-0.071
-494.566	-200.000	0.051	-0.539
-493.551	-27.812	-0.093	-0.054
-492.537	-54.926	-0.228	0.104
-491.522	-108.540	0.091	0.020
-490.508	634.565	0.102	-0.261
-489.493	-93.671	0.245	-0.068
-488.478	-200.000	0.004	0.342
-487.464	123.059	-0.076	-0.097
-486.449	-200.000	-0.004	0.043
-485.435	800.000	-0.042	0.137
-484.420	-200.000	-0.027	0.240
-483.405	-27.899	-0.088	0.052
-482.391	-160.296	-0.282	0.015
-481.376	421.542	0.090	0.195
-480.362	172.585	-0.244	-0.355
-479.347	-125.583	-0.179	-0.028
-478.332	44.495	0.130	0.121
-477.318	-200.000	0.056	-0.284
-476.303	-200.000	0.020	-0.175
-475.289	-200.000	-0.004	0.135
-474.274	800.000	0.061	0.175
-473.259	-200.000	-0.002	-0.110
-472.245	394.741	0.082	0.172
-471.230	800.000	-0.047	0.189
-470.216	113.045	0.121	0.149
-469.201	123.412	-0.211	0.267
-468.186	194.304	-0.139	0.213
-467.172	-200.000	0.009	-0.068
-466.157	-99.371	0.063	0.016
-465.143	446.220	0.135	-0.301
-464.128	800.000	0.042	0.144
-463.113	118.205	-0.060	0.075
-462.099	-126.687	0.352	0.053
-461.084	-148.921	-0.337	-0.028
-460.070	97.148	-0.257	-0.298
-459.055	-200.000	-0.054	-0.313
-458.040	559.447	0.144	-0.352
-457.026	325.395	0.026	-0.050
-456.011	800.000	0.030	-0.128
-454.997	10.742	-0.146	0.113
-453.982	-123.158	-0.087	0.014
-452.968	800.000	-0.062	0.261
-451.953	190.466	0.224	0.341
-450.938	-200.000	0.004	0.028
-449.924	202.461	0.106	-0.166
-448.909	90.148	0.155	0.175
-447.895	124.880	0.034	0.043
-446.880	239.001	0.267	0.449
-445.865	-138.641	0.082	-0.009
-444.851	-58.810	-0.276	-0.121
-443.836	-86.128	0.132	-0.041
-442.822	-200.000	-0.017	-0.119
-441.807	-200.000	0.043	-0.405
-440.792	-110.052	0.159	-0.034
-439.778	67.675	-0.253	0.262
-438.763	800.000	0.017	-0.059
-437.749	-200.000	-0.005	0.229
-436.734	-44.964	0.195	-0.098
-435.719	421.222	-0.047	-0.103
-434.705	156.555	0.231	0.322
-433.690	285.786	0.105	0.191
-432.676	209.465	0.119	0.189
-431.661	-118.894	0.208	-0.037
-430.646	-158.166	0.141	0.008
-429.632	-77.882	-0.184	-0.064
-428.617	-200.000	-0.048	-0.270
-427.603	56.827	-0.091	-0.089
-426.588	800.000	0.086	-0.256
-425.573	-200.000	-0.065	0.362
-424.559	-200.000	-0.019	-0.500
-423.544	344.891	-0.084	-0.167
-422.530	-144.913	0.190	0.018
-421.515	-147.000	0.558	-0.048
-420.500	-86.267	-0.147	-0.046
-419.486	-92.958	-0.136	0.038
-418.471	-45.703	-0.377	0.188
-417.457	-78.596	0.405	0.140
-416.442	163.123	-0.210	0.298
-415.428	-112.239	-0.319	0.065
-414.413	218.865	-0.119	-0.192
-413.398	800.000	-0.064	0.230
-412.384	681.413	0.071	0.185
-411.369	-113.938	-0.483	0.095
-410.355	220.674	0.159	-0.257
-409.340	-81.288	0.309	0.103
-408.325	-155.469	-0.126	0.008
-407.311	29.552	0.165	0.142
-406.296	-200.000	0.000	0.003
-405.282	212.857	-0.043	0.068
-404.267	-132.828	-0.142	-0.018
-403.252	56.101	0.209	0.205
-402.238	46.675	-0.134	-0.126
-401.223	551.211	-0.049	-0.118
-400.209	113.043	-0.119	0.146
-399.194	-79.161	0.261	0.089
-398.179	147.020	0.077	-0.105
-397.165	-103.239	-0.146	-0.035
-396.150	-107.705	-0.234	0.051
-395.136	-111.843	-0.082	0.017
-394.121	-200.000	0.027	-0.155
-393.106	302.666	-0.181	0.338
-392.092	-60.668	-0.186	0.080
-391.077	132.389	-0.098	-0.127
-390.063	573.063	0.091	-0.223
-389.048	800.000	0.061	0.200
-388.033	153.783	-0.093	0.128
-387.019	-200.000	-0.021	0.105
-386.004	199.455	0.099	0.154
-384.990	351.081	0.133	0.265
-383.975	-73.977	0.181	0.066
-382.960	-93.931	0.311	0.086
-381.946	28.592	0.146	-0.124
-380.931	194.222	0.139	0.212
-379.917	524.066	0.119	0.282
-378.902	345.490	-0.123	-0.244
-377.888	98.253	-0.192	-0.223
-376.873	800.000	-0.015	-0.044
-375.858	-200.000	-0.056	0.381
-374.844	167.394	0.177	-0.254
-373.829	53.273	-0.210	0.203
-372.815	51.629	-0.193	-0.185
-371.800	-200.000	0.017	-0.217
-370.785	44.861	0.169	0.157
-369.771	258.713	-0.143	0.249
-368.756	368.815	-0.043	0.088
-367.742	2.653	-0.219	0.160
-366.727	800.000	0.025	-0.104
-365.712	176.496	-0.065	0.095
-364.698	308.121	-0.106	-0.200
-363.683	800.000	-0.026	-0.116
-362.669	155.588	-0.161	-0.223
-361.654	-72.465	-0.087	-0.032
-360.639	756.791	-0.084	-0.230
-359.625	-200.000	-0.025	-0.220
-358.610	453.118	-0.142	-0.316
-357.596	-134.663	0.195	0.024
-356.581	-167.193	0.084	-0.003
-355.566	354.004	0.187	-0.374
-354.552	686.862	-0.053	-0.138
-353.537	46.298	0.067	-0.063
-352.523	-169.018	-0.106	0.004
-351.508	-200.000	-0.002	-0.081
-350.493	-76.705	-0.114	-0.040
-349.479	13.023	-0.233	0.182
-348.464	-200.000	0.027	0.229
-347.450	-200.000	-0.076	0.471
-346.435	207.427	-0.037	0.058
-345.420	-200.000	-0.025	-0.273
-344.406	29.267	-0.324	-0.278
-343.391	163.963	0.111	0.157
-342.377	-200.000	-0.013	-0.294
-341.362	248.825	-0.028	0.048
-340.348	-74.447	0.465	-0.169
-339.333	-200.000	0.029	-0.302
-338.318	-52.593	-0.106	0.049
-337.304	74.416	0.122	0.129
-336.289	709.762	-0.067	0.180
-335.275	-132.156	0.109	-0.014
-334.260	98.733	-0.247	0.287
-333.245	57.899	-0.041	0.041
-332.231	-172.003	0.486	-0.016
-331.216	168.412	-0.166	0.238
-330.202	-107.794	-0.266	0.058
-329.187	5.183	0.078	0.058
-328.172	-105.485	0.240	0.055
-327.158	266.899	-0.154	0.271
-326.143	105.985	-0.069	-0.082
-325.129	195.765	0.063	0.096
-324.114	-105.107	0.037	-0.009
-323.099	119.120	0.073	0.090
-322.085	-81.596	0.224	0.074
-321.070	-61.166	0.360	0.153
-320.056	366.233	0.136	0.276
-319.041	106.754	0.090	-0.108
-318.026	800.000	0.033	-0.119
-317.012	-58.118	0.172	-0.075
-315.997	473.463	-0.084	-0.190
-314.983	-124.867	0.186	-0.029
-313.968	-72.717	0.032	-0.012
-312.953	106.558	-0.109	-0.130
-311.939	10.199	-0.230	0.176
-310.924	-13.373	0.108	-0.071
-309.910	-128.080	-0.189	0.027
-308.895	-94.407	-0.225	-0.062
-307.880	82.138	0.069	0.075
-306.866	275.139	0.173	-0.308
-305.851	-47.863	0.218	0.106
-304.837	50.141	-0.112	0.106
-303.822	75.258	-0.111	-0.118
-302.807	-81.097	0.163	-0.054
-301.793	17.753	-0.185	-0.148
-300.778	800.000	-0.034	-0.122
-299.764	800.000	-0.032	0.103
-298.749	124.472	-0.206	0.260
-297.735	117.916	0.255	-0.316
-296.720	-200.000	-0.034	0.294
-295.705	-0.487	-0.244	-0.174
-294.691	-200.000	0.010	0.317
-293.676	-59.895	-0.272	0.117
-292.662	-200.000	0.044	-0.259
-291.647	-137.473	0.193	0.022
-290.632	-135.969	-0.343	-0.041
-289.618	267.612	-0.244	0.429
-288.603	-200.000	-0.035	-0.224
-287.589	37.577	0.206	0.183
-286.574	-200.000	-0.047	0.223
-285.559	-200.000	0.074	0.370
-284.545	-200.000	-0.062	0.356
-283.530	-200.000	0.023	0.163
-282.516	-90.854	0.470	0.136
-281.501	-108.083	0.332	0.072
-280.486	-200.000	0.004	0.240
-279.472	-17.580	0.198	0.125
-278.457	-13.897	0.342	0.222
-277.443	-101.884	-0.361	0.088
-276.428	-136.728	0.058	-0.007
-275.413	-42.701	-0.070	-0.036
-274.399	-103.508	0.058	-0.014
-273.384	199.061	0.223	0.343
-272.370	-114.962	-0.125	-0.024
-271.355	-200.000	-0.029	-0.576
-270.340	-200.000	0.075	-0.433
-269.326	-37.795	0.148	0.079
-268.311	-200.000	0.005	-0.165
-267.297	-99.753	-0.392	0.099
-266.282	800.000	0.045	0.175
-265.267	-112.130	0.112	-0.023
-264.253	181.873	-0.046	0.069
-263.238	-111.599	-0.260	0.053
-262.224	108.191	0.066	-0.079
-261.209	260.666	0.009	-0.016
-260.195	219.690	-0.225	-0.362
-259.180	-11.126	0.350	0.232
-258.165	-200.000	-0.031	0.276
-257.151	800.000	-0.067	0.259
-256.136	-113.283	0.213	0.042
-255.122	460.680	-0.138	-0.308
-254.107	45.622	-0.105	-0.098
-253.092	82.450	0.176	0.191
-252.078	800.000	0.055	0.217
-251.063	-93.263	0.148	-0.041
-250.049	-200.000	0.058	-0.436
-249.034	-200.000	-0.033	-0.216
-248.019	440.932	0.016	-0.034
-247.005	-33.352	0.028	-0.016
-245.990	41.357	0.241	0.219
-244.976	144.661	-0.187	0.251
-243.961	-200.000	0.051	-0.227
-242.946	5.431	0.061	0.045
-241.932	30.125	0.252	0.216
-240.917	196.636	0.074	0.113
-239.903	-137.363	-0.285	0.032
-238.888	-78.283	0.156	-0.054
-237.873	-95.362	0.033	0.009
-236.859	-19.242	0.241	0.150
-235.844	-148.802	-0.011	0.001
-234.830	-44.130	-0.250	-0.126
-233.815	-200.000	0.016	0.243
-232.800	-47.702	0.170	0.083
-231.786	-200.000	0.072	-0.360
-230.771	-72.965	-0.253	0.093
-229.757	425.098	0.129	0.279
-228.742	-130.770	0.037	0.005
-227.727	-120.162	-0.295	-0.051
-226.713	-200.000	-0.016	-0.161
-225.698	-8.056	0.213	-0.144
-224.684	-138.901	0.124	-0.013
-223.669	-105.067	0.208	-0.048
-222.655	174.824	0.287	0.416
-221.640	800.000	0.074	0.271
-220.625	-142.173	0.325	-0.032
-219.611	24.782	0.089	-0.074
-218.596	150.097	0.057	-0.077
-217.582	777.801	-0.041	-0.111
-216.567	234.048	-0.232	0.382
-215.552	83.014	0.164	0.179
-214.538	46.545	-0.044	0.041
-213.523	43.109	0.171	-0.156
-212.509	-59.205	-0.104	0.045
-211.494	-200.000	0.024	0.297
-210.479	-39.643	0.042	0.022
-209.465	170.791	0.055	0.080
-208.450	-200.000	-0.099	-0.546
-207.436	-95.518	-0.238	0.064
-206.421	-46.205	0.444	0.219
-205.406	-167.857	-0.390	-0.015
-204.392	-163.328	-0.068	0.003
-203.377	27.505	-0.093	-0.078
-202.363	-200.000	-0.033	0.154
-201.348	-200.000	-0.049	-0.234
-200.333	-200.000	-0.009	-0.254
-199.319	800.000	0.026	-0.108
-198.304	-39.374	0.099	0.052
-197.290	-51.521	0.211	-0.099
-196.275	-72.021	0.218	-0.081
-195.260	-71.368	0.223	0.084
-194.246	-73.582	-0.160	-0.058
-193.231	-69.294	-0.187	0.072
-192.217	-131.055	0.344	-0.046
-191.202	-200.000	-0.010	0.223
-190.187	48.036	0.302	-0.283
-189.173	-154.655	-0.261	0.017
-188.158	800.000	-0.055	-0.229
-187.144	460.452	-0.106	0.236
-186.129	-101.233	0.106	0.026
-185.114	-200.000	-0.015	-0.133
-184.100	-200.000	-0.049	0.219
-183.085	85.705	0.167	-0.184
-182.071	-200.000	0.030	-0.303
-181.056	-123.386	0.207	-0.033
-180.042	800.000	0.036	0.156
-179.027	23.933	0.064	0.053
-178.012	12.792	-0.014	-0.011
-176.998	-70.263	-0.110	0.042
-175.983	108.727	-0.149	0.178
-174.969	12.806	-0.260	-0.201
-173.954	413.443	0.041	-0.088
-172.939	-82.641	-0.305	-0.099
-171.925	151.924	0.237	0.323
-170.910	183.877	-0.050	0.074
-169.896	10.668	0.096	-0.074
-168.881	-132.462	-0.055	-0.007
-167.866	205.965	-0.178	-0.277
-166.852	23.806	0.187	-0.154
-165.837	-132.444	0.137	0.018
-164.823	134.202	0.159	0.206
-163.808	-200.000	-0.013	-0.072
-162.793	-152.635	-0.211	-0.015
-161.779	59.597	-0.180	-0.177
-160.764	31.657	0.122	0.105
-159.750	-200.000	-0.012	0.166
-158.735	-200.000	-0.091	0.421
-157.720	413.244	0.075	-0.159
-156.706	125.880	0.115	-0.145
-155.691	744.905	0.066	0.179
-154.677	-99.465	-0.218	-0.055
-153.662	648.234	-0.016	-0.041
-152.647	-142.907	-0.259	-0.025
-151.633	83.950	-0.103	0.112
-150.618	122.259	-0.126	0.157
-149.604	-200.000	0.007	-0.385
-148.589	-200.000	0.040	0.231
-147.574	-92.132	0.209	0.059
-146.560	-200.000	-0.019	-0.083
-145.545	248.732	0.179	-0.303
-144.531	-200.000	0.088	0.397
-143.516	-200.000	0.001	-0.060
-142.502	101.195	0.130	-0.151
-141.487	800.000	-0.044	0.137
-140.472	104.487	0.048	-0.056
-139.458	-200.000	0.039	0.321
-138.443	206.823	0.187	-0.292
-137.429	-48.282	0.168	0.081
-136.414	-180.500	0.098	-0.002
-135.399	-61.257	-0.241	-0.102
-134.385	127.261	-0.140	0.178
-133.370	14.392	-0.150	0.117
-132.356	-130.761	-0.437	0.059
-131.341	-16.705	0.228	0.144
-130.326	-62.588	0.163	0.068
-129.312	-103.096	-0.240	-0.057
-128.297	800.000	0.071	0.204
-127.283	-22.692	-0.280	-0.169
-126.268	535.287	0.048	0.113
-125.253	-200.000	0.006	-0.227
-124.239	31.171	-0.311	-0.267
-123.224	800.000	-0.040	-0.148
