DTS Sentinel unit serial number:	SN413079Multiplexer serial number:	ORYXHardware model number:	OX4-SRSoftware version number:	ORYX F/W v4.00 Oryx Data Collector v3.7.2.0data status	okinstallation	princeton_trtdifferential loss correction	single-endedforward channel	channel 4reverse channel	N/Adate	2019/09/12time	02:35:11forward acquisition time	60.00reverse acquisition time	0.00gamma	496.2192k internal	0.2309k external	0.2309temperature offset calibration	1.0093default loss term (dB/km)	0.3790temperature slope calibration	1.0000multiplexer offset coefficient	1.0000multiplexer slope coefficient	1.0000fibre end	0.00T internal ref (°C)	32.44T ext. ref 1 (°C)	2.08T ext. ref 2 (°C)	27.30length (m)	temperature (°C)	Stokes	anti-Stokes-747.200	800.000	-0.012	-0.034
-746.185	-200.000	0.079	0.369
-745.171	82.607	0.032	0.036
-744.156	-114.707	0.159	0.031
-743.142	-29.701	0.496	0.287
-742.127	-200.000	0.007	0.144
-741.112	149.337	-0.120	0.164
-740.098	-200.000	0.058	0.489
-739.083	-49.379	0.121	0.059
-738.069	44.821	0.139	0.130
-737.054	28.242	0.171	0.147
-736.039	244.865	-0.102	-0.174
-735.025	46.095	0.155	0.146
-734.010	-31.186	0.178	0.102
-732.996	-120.657	0.153	-0.026
-731.981	-141.360	-0.189	-0.020
-730.966	-200.000	0.002	-0.045
-729.952	-169.112	-0.093	-0.004
-728.937	229.852	-0.144	-0.239
-727.923	21.049	-0.101	-0.084
-726.908	14.401	-0.312	-0.247
-725.894	13.816	-0.305	0.241
-724.879	-63.456	0.052	0.022
-723.864	93.359	0.172	-0.197
-722.850	-77.007	-0.526	0.186
-721.835	-69.644	-0.266	0.103
-720.821	-86.346	-0.366	0.114
-719.806	18.142	-0.137	0.111
-718.791	327.585	-0.056	-0.109
-717.777	27.182	0.246	-0.209
-716.762	91.121	0.244	0.278
-715.748	366.151	0.100	0.205
-714.733	288.606	0.124	0.229
-713.718	74.497	-0.095	0.102
-712.704	87.751	-0.267	0.300
-711.689	-146.091	0.274	-0.025
-710.675	317.162	-0.116	-0.222
-709.660	-200.000	-0.025	-0.204
-708.645	-27.042	-0.117	-0.069
-707.631	-86.469	-0.259	-0.081
-706.616	20.605	0.192	-0.157
-705.602	-50.633	-0.178	-0.085
-704.587	60.637	-0.251	0.253
-703.572	-111.585	-0.238	0.049
-702.558	348.397	-0.070	0.140
-701.543	-200.000	0.038	0.272
-700.529	119.082	0.200	-0.251
-699.514	-65.159	-0.333	0.136
-698.499	800.000	0.042	-0.151
-697.485	-46.969	-0.145	-0.072
-696.470	800.000	-0.060	-0.203
-695.456	-200.000	0.028	0.214
-694.441	1.971	0.055	0.040
-693.426	800.000	0.055	-0.176
-692.412	-200.000	-0.058	-0.269
-691.397	800.000	0.046	-0.153
-690.383	800.000	0.061	-0.238
-689.368	-200.000	0.009	0.177
-688.354	-31.676	-0.249	-0.141
-687.339	-121.165	0.227	0.038
-686.324	211.235	0.222	-0.354
-685.310	-200.000	-0.023	-0.208
-684.295	239.188	-0.149	-0.251
-683.281	343.972	-0.086	0.171
-682.266	-200.000	-0.009	-0.236
-681.251	206.443	0.240	-0.379
-680.237	128.155	-0.171	0.220
-679.222	800.000	-0.006	-0.021
-678.208	-97.881	-0.234	0.061
-677.193	26.827	-0.207	0.176
-676.178	-200.000	-0.020	0.093
-675.164	-130.699	-0.442	0.060
-674.149	172.608	-0.174	-0.253
-673.135	-2.236	0.250	-0.178
-672.120	60.256	0.185	0.185
-671.105	266.517	-0.092	-0.162
-670.091	-200.000	0.044	0.318
-669.076	-128.561	0.341	0.049
-668.062	-79.775	-0.166	0.057
-667.047	-9.522	0.279	0.188
-666.032	601.593	-0.100	-0.250
-665.018	-94.105	-0.169	-0.047
-664.003	24.518	0.225	0.189
-662.989	310.675	-0.115	-0.218
-661.974	257.623	-0.170	-0.296
-660.959	13.646	-0.159	0.125
-659.945	-162.394	-0.289	0.015
-658.930	800.000	0.079	-0.285
-657.916	17.091	-0.117	0.094
-656.901	-86.200	-0.340	0.106
-655.886	800.000	0.133	0.477
-654.872	800.000	-0.023	0.069
-653.857	-46.527	0.028	0.014
-652.843	800.000	-0.011	0.038
-651.828	-200.000	0.021	-0.259
-650.814	800.000	-0.094	0.269
-649.799	27.856	0.145	0.123
-648.784	523.345	-0.056	0.134
-647.770	426.893	0.083	0.181
-646.755	642.840	0.110	-0.283
-645.741	-87.760	-0.335	-0.102
-644.726	560.899	-0.071	0.175
-643.711	-60.142	-0.398	-0.172
-642.697	138.385	-0.066	0.087
-641.682	800.000	0.084	-0.340
-640.668	-93.951	-0.399	-0.111
-639.653	128.301	-0.091	-0.117
-638.638	800.000	-0.058	0.168
-637.624	-126.574	-0.412	0.062
-636.609	-200.000	0.048	0.498
-635.595	800.000	-0.106	0.307
-634.580	501.473	0.050	-0.118
-633.565	-200.000	-0.025	-0.338
-632.551	98.987	0.111	0.129
-631.536	144.690	-0.127	-0.171
-630.522	-200.000	0.028	-0.297
-629.507	455.353	-0.064	-0.144
-628.492	21.875	0.211	-0.174
-627.478	64.534	0.257	0.262
-626.463	45.669	0.274	-0.256
-625.449	185.179	-0.075	0.113
-624.434	-105.540	0.316	0.073
-623.419	-1.784	0.108	-0.077
-622.405	144.397	0.201	0.271
-621.390	420.921	-0.078	0.169
-620.376	-200.000	0.038	0.394
-619.361	-185.390	-0.402	0.006
-618.346	252.013	0.150	-0.258
-617.332	17.540	0.156	0.126
-616.317	-144.426	0.072	-0.007
-615.303	46.078	0.256	-0.239
-614.288	655.235	-0.139	-0.361
-613.273	-69.033	-0.120	-0.047
-612.259	-94.930	0.327	-0.089
-611.244	68.013	-0.110	-0.114
-610.230	158.181	-0.090	-0.126
-609.215	-124.898	-0.054	0.008
-608.201	730.824	0.102	0.275
-607.186	-200.000	-0.002	-0.018
-606.171	56.552	-0.191	0.188
-605.157	176.284	0.168	0.247
-604.142	243.405	-0.099	-0.168
-603.128	-124.518	0.241	-0.038
-602.113	447.326	-0.186	0.414
-601.098	-4.111	0.101	-0.070
-600.084	-200.000	0.012	-0.207
-599.069	-17.019	0.159	-0.102
-598.055	-16.743	-0.137	-0.088
-597.040	162.555	0.042	-0.059
-596.025	-115.341	-0.299	0.057
-595.011	-200.000	0.007	0.105
-593.996	199.670	0.178	0.276
-592.982	-74.596	-0.473	-0.172
-591.967	-200.000	-0.026	-0.172
-590.952	-200.000	0.085	-0.453
-589.938	43.426	-0.178	-0.164
-588.923	25.513	-0.136	-0.114
-587.909	-73.910	0.170	-0.062
-586.894	800.000	-0.048	-0.174
-585.879	-200.000	0.008	0.037
-584.865	23.046	0.100	-0.083
-583.850	8.622	0.143	-0.109
-582.836	56.985	-0.302	-0.297
-581.821	23.350	-0.269	0.223
-580.806	-7.513	0.177	-0.121
-579.792	-200.000	0.023	-0.248
-578.777	-96.127	0.168	-0.045
-577.763	-8.231	0.191	-0.130
-576.748	21.381	-0.226	-0.185
-575.733	-46.569	-0.024	0.012
-574.719	-60.878	-0.182	0.078
-573.704	489.848	0.070	-0.162
-572.690	-200.000	0.012	0.273
-571.675	-92.547	-0.199	0.056
-570.661	159.054	0.160	-0.224
-569.646	-200.000	-0.015	-0.185
-568.631	-200.000	0.046	-0.283
-567.617	179.013	0.134	-0.198
-566.602	-200.000	0.036	-0.288
-565.588	106.513	0.077	-0.092
-564.573	-35.959	0.168	-0.092
-563.558	-200.000	-0.021	-0.165
-562.544	28.927	-0.110	-0.094
-561.529	-42.843	-0.166	-0.085
-560.515	-0.388	-0.110	0.079
-559.500	658.696	0.147	-0.382
-558.485	415.039	0.103	-0.220
-557.471	63.505	0.329	0.333
-556.456	148.634	0.087	-0.119
-555.442	755.163	-0.082	0.225
-554.427	-200.000	-0.035	-0.265
-553.412	186.830	-0.071	-0.106
-552.398	-37.802	0.143	-0.077
-551.383	-39.253	0.259	0.137
-550.369	-69.639	-0.225	0.087
-549.354	-34.331	0.164	-0.091
-548.339	402.364	0.077	0.164
-547.325	-200.000	-0.010	-0.200
-546.310	800.000	-0.047	0.189
-545.296	-44.680	-0.131	-0.066
-544.281	750.892	-0.054	0.148
-543.266	-86.814	0.192	0.059
-542.252	-200.000	-0.043	-0.264
-541.237	27.940	0.127	-0.108
-540.223	-200.000	-0.005	-0.207
-539.208	800.000	-0.049	0.201
-538.193	66.863	-0.157	0.161
-537.179	-73.719	0.252	0.092
-536.164	12.313	-0.320	-0.248
-535.150	-68.660	0.125	-0.049
-534.135	-22.022	-0.093	-0.057
-533.121	-80.310	0.148	0.050
-532.106	148.713	0.123	0.167
-531.091	-11.246	0.090	0.059
-530.077	-172.585	-0.322	0.010
-529.062	-95.223	0.299	0.081
-528.048	519.155	-0.113	0.266
-527.033	455.981	-0.039	0.087
-526.018	-129.327	0.154	-0.022
-525.004	-200.000	0.045	-0.320
-523.989	-138.055	-0.091	0.010
-522.975	87.706	-0.186	0.207
-521.960	464.302	-0.042	0.096
-520.945	69.444	0.210	-0.218
-519.931	-48.681	0.227	-0.110
-518.916	800.000	-0.006	0.024
-517.902	-110.792	-0.116	0.024
-516.887	69.360	-0.143	0.148
-515.872	530.212	-0.169	0.402
-514.858	800.000	-0.088	0.319
-513.843	-200.000	0.013	0.185
-512.829	-41.842	-0.220	0.114
-511.814	93.098	-0.356	-0.405
-510.799	248.434	-0.196	0.333
-509.785	-200.000	0.076	0.557
-508.770	-35.873	-0.068	-0.037
-507.756	319.412	-0.177	0.339
-506.741	757.685	-0.074	-0.202
-505.726	-65.804	-0.048	0.019
-504.712	-70.280	0.222	0.085
-503.697	-200.000	-0.008	0.055
-502.683	-172.576	0.459	0.015
-501.668	800.000	0.032	0.111
-500.653	-74.805	0.186	0.067
-499.639	-42.870	-0.069	-0.035
-498.624	-200.000	-0.042	0.225
-497.610	359.743	-0.057	-0.114
-496.595	468.786	0.103	-0.234
-495.581	-53.857	0.205	0.094
-494.566	71.040	0.174	-0.181
-493.551	-1.625	-0.130	-0.092
-492.537	-194.463	0.246	0.002
-491.522	800.000	0.033	0.109
-490.508	-200.000	0.033	-0.345
-489.493	-59.131	0.286	-0.124
-488.478	-200.000	0.071	0.369
-487.464	-134.720	0.268	-0.033
-486.449	-138.097	-0.228	-0.025
-485.435	206.499	0.172	0.270
-484.420	71.422	-0.172	0.180
-483.405	-81.956	0.154	0.051
-482.391	109.501	-0.197	-0.238
-481.376	91.408	0.073	-0.082
-480.362	-94.784	0.360	-0.098
-479.347	-74.880	0.121	0.044
-478.332	-37.630	-0.191	-0.102
-477.318	-45.047	-0.083	-0.041
-476.303	-36.647	0.029	-0.016
-475.289	-7.134	-0.246	-0.168
-474.274	534.105	0.082	-0.194
-473.259	800.000	-0.042	-0.149
-472.245	1.106	0.162	-0.117
-471.230	32.679	0.249	0.216
-470.216	800.000	-0.034	-0.108
-469.201	-41.057	0.260	-0.135
-468.186	370.173	0.074	0.151
-467.172	-148.769	-0.093	-0.008
-466.157	-115.983	-0.179	0.034
-465.143	-37.371	-0.165	0.089
-464.128	249.860	-0.207	0.353
-463.113	-200.000	-0.054	-0.315
-462.099	-37.186	-0.511	-0.275
-461.084	800.000	-0.041	-0.154
-460.070	469.447	0.148	0.335
-459.055	123.090	0.094	-0.119
-458.040	-158.709	-0.276	0.016
-457.026	-36.359	-0.209	0.113
-456.011	800.000	-0.095	0.293
-454.997	31.194	-0.082	0.071
-453.982	109.248	0.032	-0.038
-452.968	-70.014	0.299	-0.115
-451.953	739.244	-0.150	-0.404
-450.938	800.000	0.081	-0.293
-449.924	-200.000	0.005	-0.210
-448.909	-133.898	-0.020	-0.003
-447.895	-200.000	-0.030	-0.141
-446.880	-190.358	-0.163	0.002
-445.865	800.000	0.030	0.108
-444.851	-74.893	-0.251	-0.091
-443.836	152.731	-0.065	0.089
-442.822	-134.345	0.251	0.031
-441.807	-131.693	0.113	-0.015
-440.792	800.000	0.050	0.151
-439.778	88.412	0.297	0.331
-438.763	58.838	-0.140	-0.138
-437.749	-99.600	0.266	-0.067
-436.734	800.000	0.061	-0.263
-435.719	-105.253	-0.195	0.045
-434.705	-155.826	-0.128	0.008
-433.690	45.917	0.075	0.070
-432.676	-36.291	0.215	0.117
-431.661	361.880	-0.064	0.130
-430.646	-60.777	0.049	-0.021
-429.632	-43.188	0.078	-0.040
-428.617	-79.622	-0.259	-0.088
-427.603	-117.022	0.320	0.059
-426.588	800.000	0.062	0.218
-425.573	-149.599	0.108	-0.009
-424.559	-190.589	-0.301	-0.003
-423.544	-200.000	0.006	0.157
-422.530	518.650	0.117	0.275
-421.515	-117.016	-0.166	0.030
-420.500	-35.732	-0.227	0.123
-419.486	31.386	0.238	0.205
-418.471	186.937	-0.165	-0.247
-417.457	800.000	0.020	-0.086
-416.442	-28.259	-0.212	-0.123
-415.428	288.026	-0.101	0.184
-414.413	425.289	-0.096	0.207
-413.398	-184.751	0.293	-0.005
-412.384	289.712	-0.128	0.233
-411.369	593.786	-0.011	0.027
-410.355	-200.000	0.013	-0.253
-409.340	-81.511	-0.147	-0.048
-408.325	-84.597	-0.143	-0.045
-407.311	-13.487	-0.170	0.110
-406.296	-200.000	-0.030	-0.184
-405.282	-113.981	-0.259	0.050
-404.267	123.794	0.155	-0.195
-403.252	-88.057	-0.290	-0.087
-402.238	-78.298	0.036	0.012
-401.223	297.965	0.073	0.135
-400.209	234.011	0.060	0.099
-399.194	0.331	0.074	0.053
-398.179	595.002	0.183	0.454
-397.165	-173.223	0.279	-0.009
-396.150	-200.000	0.019	-0.101
-395.136	-16.116	0.204	-0.130
-394.121	295.926	0.056	-0.103
-393.106	-98.291	0.015	-0.004
-392.092	129.300	0.028	-0.036
-391.077	-81.543	-0.181	0.060
-390.063	-157.779	0.272	0.016
-389.048	776.753	-0.057	-0.155
-388.033	-38.499	0.253	-0.134
-387.019	20.522	-0.155	0.125
-386.004	-157.991	0.096	0.006
-384.990	-72.940	0.283	0.104
-383.975	-200.000	0.070	0.431
-382.960	188.162	-0.180	0.269
-381.946	-95.480	0.466	0.125
-380.931	-200.000	0.015	-0.070
-379.917	702.814	0.160	0.424
-378.902	296.453	0.092	0.169
-377.888	800.000	0.049	-0.214
-376.873	-165.870	0.106	-0.005
-375.858	518.185	0.094	0.220
-374.844	-200.000	-0.038	0.307
-373.829	-178.525	-0.031	-0.001
-372.815	-103.253	-0.298	0.070
-371.800	-200.000	-0.007	0.222
-370.785	-27.373	0.189	0.110
-369.771	-53.703	-0.039	0.018
-368.756	296.403	0.072	0.132
-367.742	787.382	0.041	0.113
-366.727	143.979	0.207	0.276
-365.712	717.490	-0.058	-0.154
-364.698	-200.000	0.051	-0.335
-363.683	800.000	0.015	0.052
-362.669	531.996	0.117	-0.276
-361.654	315.149	0.046	-0.087
-360.639	-200.000	-0.005	-0.026
-359.625	-52.618	-0.285	-0.132
-358.610	557.894	-0.057	-0.138
-357.596	210.403	0.134	0.210
-356.581	-200.000	-0.023	-0.254
-355.566	-120.509	-0.240	-0.041
-354.552	77.740	0.247	-0.264
-353.537	-54.084	0.086	0.039
-352.523	441.124	0.105	0.231
-351.508	643.240	0.049	0.126
-350.493	-191.182	-0.077	0.001
-349.479	-90.887	0.270	-0.078
-348.464	-121.124	-0.129	0.022
-347.450	-200.000	0.030	-0.294
-346.435	294.661	0.119	-0.218
-345.420	-200.000	0.041	-0.632
-344.406	254.731	-0.207	0.354
-343.391	123.174	-0.175	0.219
-342.377	310.197	0.127	-0.237
-341.362	142.240	0.056	-0.075
-340.348	-200.000	-0.000	-0.069
-339.333	36.751	-0.231	0.204
-338.318	35.125	-0.288	-0.252
-337.304	-168.290	0.226	-0.009
-336.289	-200.000	0.022	-0.102
-335.275	16.910	-0.066	0.053
-334.260	383.013	-0.129	-0.264
-333.245	-64.095	0.283	-0.116
-332.231	-200.000	0.001	-0.086
-331.216	-182.579	0.293	0.005
-330.202	-3.011	0.026	-0.018
-329.187	9.005	-0.204	0.154
-328.172	-42.155	-0.042	0.022
-327.158	411.003	-0.056	0.118
-326.143	552.492	0.083	-0.199
-325.129	163.863	-0.108	-0.152
-324.114	-8.628	-0.351	-0.236
-323.099	158.578	0.166	0.230
-322.085	-17.244	-0.077	0.049
-321.070	85.118	-0.310	-0.339
-320.056	-54.312	-0.046	-0.021
-319.041	66.348	-0.134	0.136
-318.026	-151.263	0.340	0.025
-317.012	-200.000	0.017	0.192
-315.997	-31.637	-0.075	0.042
-314.983	-200.000	0.015	-0.111
-313.968	182.691	0.116	0.171
-312.953	65.141	-0.068	-0.069
-311.939	-146.468	0.229	0.020
-310.924	-18.505	-0.116	-0.072
-309.910	-105.531	-0.127	0.029
-308.895	-81.312	0.174	-0.057
-307.880	-200.000	-0.045	-0.336
-306.866	800.000	0.085	0.356
-305.851	800.000	-0.081	-0.334
-304.837	170.126	0.051	0.073
-303.822	339.080	-0.169	0.330
-302.807	-76.692	0.250	-0.087
-301.793	157.381	0.163	-0.225
-300.778	769.450	-0.084	0.228
-299.764	56.758	0.214	0.208
-298.749	151.374	-0.319	0.434
-297.735	-200.000	-0.003	0.163
-296.720	67.381	-0.027	-0.027
-295.705	-200.000	0.010	0.288
-294.691	309.933	0.168	0.313
-293.676	341.392	0.089	-0.173
-292.662	-166.082	-0.154	0.007
-291.647	-200.000	0.005	0.342
-290.632	-200.000	-0.045	0.226
-289.618	88.938	-0.020	0.022
-288.603	-200.000	0.012	-0.225
-287.589	800.000	0.018	-0.067
-286.574	-18.886	0.150	0.093
-285.559	1.867	-0.332	-0.239
-284.545	-200.000	-0.079	-0.000
-283.530	800.000	-0.099	-0.332
-282.516	619.836	0.151	-0.380
-281.501	5.308	-0.121	0.089
-280.486	-97.018	-0.431	0.113
-279.472	-136.103	-0.141	-0.017
-278.457	420.475	-0.095	-0.203
-277.443	-108.597	-0.034	0.007
-276.428	-109.940	-0.178	-0.037
-275.413	123.163	-0.122	0.152
-274.399	218.475	0.159	0.253
-273.384	740.392	-0.114	0.306
-272.370	-49.604	0.190	-0.090
-271.355	206.592	-0.091	-0.141
-270.340	-185.708	0.216	-0.003
-269.326	31.917	-0.249	0.214
-268.311	-178.521	-0.128	-0.003
-267.297	-123.942	-0.106	0.017
-266.282	-200.000	-0.045	0.298
-265.267	20.213	0.034	-0.028
-264.253	277.226	0.033	0.059
-263.238	221.667	0.162	0.259
-262.224	-84.048	0.265	0.084
-261.209	506.356	-0.093	-0.215
-260.195	10.482	0.426	-0.324
-259.180	196.711	-0.099	0.151
-258.165	458.759	0.117	0.260
-257.151	-200.000	0.048	-0.234
-256.136	412.266	0.033	0.070
-255.122	-167.436	0.084	-0.003
-254.107	-200.000	0.025	-0.155
-253.092	-52.412	0.045	-0.021
-252.078	-147.104	0.211	0.018
-251.063	109.138	0.182	0.217
-250.049	169.329	0.082	0.116
-249.034	-200.000	0.069	0.329
-248.019	-27.868	-0.182	-0.105
-247.005	2.897	-0.316	0.228
-245.990	-9.223	-0.104	-0.069
-244.976	-200.000	-0.035	-0.241
-243.961	-104.060	-0.155	0.036
-242.946	-200.000	0.028	-0.153
-241.932	-113.515	0.053	-0.010
-240.917	-112.008	-0.117	-0.024
-239.903	-200.000	-0.016	0.348
-238.888	10.076	-0.358	0.271
-237.873	-27.513	0.285	0.165
-236.859	197.404	-0.092	-0.140
-235.844	-33.081	0.079	0.044
-234.830	-200.000	0.021	-0.184
-233.815	392.070	-0.194	0.402
-232.800	-151.353	0.059	0.004
-231.786	121.723	-0.324	0.402
-230.771	-77.135	0.244	0.085
-229.757	-23.713	0.183	-0.109
-228.742	-200.000	0.079	0.507
-227.727	33.839	0.197	-0.171
-226.713	-200.000	-0.012	-0.101
-225.698	-200.000	-0.006	-0.047
-224.684	190.480	-0.222	-0.332
-223.669	800.000	-0.065	0.192
-222.655	800.000	0.051	-0.212
-221.640	-200.000	0.011	-0.116
-220.625	606.573	-0.182	-0.452
-219.611	-200.000	-0.013	-0.175
-218.596	65.901	-0.264	-0.266
-217.582	11.132	0.010	-0.008
-216.567	-42.344	0.252	0.128
-215.552	62.299	0.097	0.097
-214.538	18.320	-0.225	-0.179
-213.523	-200.000	-0.002	-0.129
-212.509	-143.822	0.050	-0.005
-211.494	-200.000	0.013	-0.152
-210.479	42.557	-0.255	-0.231
-209.465	177.582	-0.191	0.276
-208.450	644.683	-0.078	-0.197
-207.436	757.188	0.045	-0.120
-206.421	-43.978	0.194	0.097
-205.406	800.000	0.080	0.268
-204.392	195.689	-0.073	-0.110
-203.377	-200.000	0.009	-0.212
-202.363	-95.296	-0.176	0.047
-201.348	75.139	0.195	0.204
-200.333	-71.368	-0.110	0.041
-199.319	800.000	-0.051	-0.207
-198.304	209.772	-0.059	0.093
-197.290	-166.622	0.291	0.012
-196.275	-200.000	0.031	0.204
-195.260	-200.000	-0.008	0.124
-194.246	-114.118	0.270	0.052
-193.231	-59.205	-0.096	0.041
-192.217	-86.245	-0.126	0.039
-191.202	-153.009	-0.176	0.012
-190.187	-117.173	-0.173	0.031
-189.173	78.440	0.223	-0.237
-188.158	84.169	-0.042	-0.045
-187.144	-10.796	0.202	-0.133
-186.129	-200.000	0.001	0.129
-185.114	-97.670	-0.156	0.040
-184.100	-8.041	0.128	-0.085
-183.085	-200.000	-0.019	-0.160
-182.071	-0.701	0.032	-0.023
-181.056	-200.000	-0.073	0.329
-180.042	-106.719	-0.089	0.020
-179.027	800.000	-0.018	-0.063
-178.012	258.207	-0.179	0.306
-176.998	-72.138	0.166	0.061
-175.983	800.000	-0.061	-0.194
-174.969	-200.000	-0.018	-0.209
-173.954	-200.000	0.011	0.245
-172.939	-112.854	0.477	0.094
-171.925	-20.441	0.211	0.129
-170.910	-55.207	-0.135	0.060
-169.896	-71.711	-0.115	0.043
-168.881	800.000	0.056	0.202
-167.866	149.605	0.094	0.127
-166.852	-9.344	0.187	-0.124
-165.837	-55.620	-0.171	0.076
-164.823	121.426	-0.178	-0.221
-163.808	32.628	0.049	-0.042
-162.793	7.152	-0.230	0.170
-161.779	800.000	-0.036	-0.152
-160.764	-22.173	-0.327	0.197
-159.750	145.613	0.072	0.096
-158.735	123.374	-0.043	0.053
-157.720	-200.000	0.027	-0.149
-156.706	177.481	0.073	-0.105
-155.691	-200.000	0.016	-0.131
-154.677	-200.000	0.102	-0.511
-153.662	-136.040	0.069	-0.008
-152.647	52.611	-0.073	0.069
-151.633	-77.001	-0.104	0.036
-150.618	-113.604	0.157	-0.030
-149.604	46.014	0.256	0.235
-148.589	71.554	0.147	0.152
-147.574	-82.660	-0.056	-0.018
-146.560	-126.934	-0.248	0.036
-145.545	143.612	0.098	0.129
-144.531	-200.000	-0.085	0.452
-143.516	115.390	0.154	-0.187
-142.502	-200.000	-0.018	0.159
-141.487	132.684	-0.146	-0.187
-140.472	58.313	-0.069	-0.067
-139.458	-118.701	0.291	0.051
-138.443	633.251	-0.068	-0.171
-137.429	3.501	0.185	0.134
-136.414	11.603	0.125	0.095
-135.399	-88.132	-0.383	0.114
-134.385	306.550	-0.212	0.391
-133.370	227.987	-0.138	-0.222
-132.356	17.051	0.230	-0.181
-131.341	-200.000	-0.027	0.126
-130.326	800.000	-0.042	-0.157
-129.312	495.865	0.065	-0.149
-128.297	-111.299	-0.209	0.042
-127.283	-200.000	-0.007	0.055
-126.268	800.000	0.031	0.107
-125.253	772.322	0.046	-0.124
-124.239	94.983	-0.115	-0.129
-123.224	443.367	-0.047	0.103
-122.210	800.000	-0.007	0.027
-121.195	-62.918	0.215	-0.088
