DTS Sentinel unit serial number:	SN413079Multiplexer serial number:	ORYXHardware model number:	OX4-SRSoftware version number:	ORYX F/W v4.00 Oryx Data Collector v3.7.2.0data status	okinstallation	princeton_trtdifferential loss correction	single-endedforward channel	channel 4reverse channel	N/Adate	2019/09/11time	13:19:11forward acquisition time	60.00reverse acquisition time	0.00gamma	496.2192k internal	0.2283k external	0.2283temperature offset calibration	1.0003default loss term (dB/km)	0.3790temperature slope calibration	1.0000multiplexer offset coefficient	1.0000multiplexer slope coefficient	1.0000fibre end	0.00T internal ref (°C)	41.95T ext. ref 1 (°C)	0.82T ext. ref 2 (°C)	36.26length (m)	temperature (°C)	Stokes	anti-Stokes-747.200	25.376	-0.251	-0.215
-746.185	-200.000	-0.016	-0.258
-745.171	-170.255	0.140	0.005
-744.156	-200.000	0.081	0.585
-743.142	87.841	-0.148	0.168
-742.127	-200.000	-0.004	-0.096
-741.112	-87.466	0.118	0.037
-740.098	-200.000	-0.007	0.209
-739.083	70.387	-0.099	0.105
-738.069	337.322	0.080	0.160
-737.054	41.047	-0.085	0.079
-736.039	-38.024	-0.298	-0.162
-735.025	71.613	-0.096	0.102
-734.010	-70.199	-0.116	0.045
-732.996	-14.500	-0.287	-0.190
-731.981	-118.957	-0.266	-0.048
-730.966	76.701	0.299	0.326
-729.952	591.726	-0.064	0.162
-728.937	606.543	0.146	0.373
-727.923	-54.655	0.077	0.036
-726.908	-102.120	0.257	0.064
-725.894	-200.000	0.017	0.371
-724.879	-25.034	-0.190	0.116
-723.864	436.699	-0.194	-0.434
-722.850	-50.813	0.233	-0.112
-721.835	-95.887	-0.238	-0.065
-720.821	27.444	-0.231	-0.199
-719.806	-90.187	0.120	-0.036
-718.791	-18.853	-0.109	0.070
-717.777	271.947	-0.102	-0.184
-716.762	-105.954	-0.109	-0.025
-715.748	-200.000	-0.008	-0.071
-714.733	46.111	-0.167	0.158
-713.718	-64.979	-0.286	-0.119
-712.704	800.000	0.063	0.204
-711.689	-30.856	-0.161	-0.093
-710.675	194.824	-0.104	0.161
-709.660	-56.501	0.212	0.096
-708.645	-56.724	0.239	0.109
-707.631	363.384	-0.143	0.294
-706.616	-96.280	-0.216	-0.059
-705.602	-200.000	-0.047	-0.289
-704.587	16.842	0.167	0.135
-703.572	-46.281	-0.168	0.085
-702.558	62.257	0.091	0.093
-701.543	180.778	0.038	-0.057
-700.529	195.864	-0.159	-0.248
-699.514	-96.697	-0.336	0.091
-698.499	211.066	0.064	-0.103
-697.485	800.000	0.052	-0.181
-696.470	112.397	-0.145	-0.180
-695.456	-200.000	0.084	-0.402
-694.441	-45.941	0.201	-0.102
-693.426	587.176	0.043	-0.109
-692.412	-38.984	0.195	0.105
-691.397	29.534	-0.196	0.171
-690.383	-77.503	-0.175	-0.062
-689.368	-149.125	-0.293	-0.024
-688.354	51.459	-0.091	-0.088
-687.339	-200.000	-0.055	0.324
-686.324	289.291	0.040	-0.074
-685.310	13.021	0.282	-0.223
-684.295	-85.902	-0.217	-0.069
-683.281	4.757	0.112	-0.084
-682.266	34.940	-0.218	-0.195
-681.251	-200.000	0.015	-0.342
-680.237	800.000	0.061	0.269
-679.222	299.001	-0.057	-0.107
-678.208	77.755	0.228	0.249
-677.193	-70.142	-0.321	-0.125
-676.178	-100.720	-0.236	-0.060
-675.164	-77.389	0.229	-0.081
-674.149	800.000	0.037	-0.144
-673.135	-200.000	-0.018	-0.385
-672.120	-200.000	-0.421	0.002
-671.105	465.457	-0.090	0.206
-670.091	2.982	0.249	-0.185
-669.076	48.745	0.063	0.060
-668.062	147.181	0.202	-0.279
-667.047	111.972	-0.196	0.243
-666.032	-166.773	0.049	-0.002
-665.018	-55.229	0.095	0.044
-664.003	-200.000	-0.019	0.324
-662.989	-200.000	0.019	-0.355
-661.974	-95.633	-0.457	-0.125
-660.959	95.897	0.161	0.188
-659.945	106.043	0.087	0.105
-658.930	-37.522	-0.068	0.037
-657.916	-200.000	-0.026	0.272
-656.901	-200.000	-0.013	-0.130
-655.886	202.809	0.085	-0.135
-654.872	-200.000	0.009	-0.311
-653.857	-200.000	0.011	-0.526
-652.843	800.000	-0.051	0.199
-651.828	-193.301	-0.031	-0.000
-650.814	-84.879	-0.096	-0.031
-649.799	800.000	-0.102	0.448
-648.784	-139.104	-0.178	0.020
-647.770	-45.271	-0.333	0.169
-646.755	-167.763	0.123	0.005
-645.741	-143.385	-0.194	0.019
-644.726	-140.630	-0.273	-0.029
-643.711	-200.000	0.033	-0.377
-642.697	-68.750	0.127	0.050
-641.682	705.475	-0.044	0.118
-640.668	57.000	0.031	0.031
-639.653	392.660	-0.153	0.326
-638.638	-158.196	0.140	-0.008
-637.624	54.574	0.116	-0.114
-636.609	18.649	-0.287	0.235
-635.595	-114.465	-0.228	0.045
-634.580	259.909	0.076	0.134
-633.565	-81.176	0.158	-0.053
-632.551	180.740	-0.090	-0.136
-631.536	221.746	0.039	-0.064
-630.522	-129.376	-0.266	-0.038
-629.507	-86.549	-0.093	-0.029
-628.492	41.570	-0.087	0.081
-627.478	-41.324	-0.205	-0.108
-626.463	-200.000	0.008	0.063
-625.449	115.563	-0.174	0.217
-624.434	93.813	-0.228	0.264
-623.419	-19.471	0.281	-0.178
-622.405	-104.747	-0.242	0.057
-621.390	-26.906	0.416	-0.248
-620.376	133.860	0.093	-0.122
-619.361	566.818	-0.099	0.246
-618.346	28.574	-0.207	0.179
-617.332	243.106	-0.133	-0.228
-616.317	106.332	-0.102	0.124
-615.303	-55.491	-0.152	0.070
-614.288	-200.000	-0.034	-0.189
-613.273	3.881	-0.171	0.128
-612.259	-200.000	-0.004	0.327
-611.244	800.000	0.034	0.137
-610.230	195.309	0.093	0.145
-609.215	8.119	0.171	-0.131
-608.201	800.000	-0.085	-0.244
-607.186	-109.751	-0.177	0.038
-606.171	-200.000	-0.007	-0.124
-605.157	31.498	0.253	0.222
-604.142	800.000	-0.052	-0.187
-603.128	230.633	0.136	-0.227
-602.113	-4.954	-0.074	0.052
-601.098	369.217	-0.158	0.328
-600.084	251.587	-0.145	0.251
-599.069	435.518	-0.157	0.348
-598.055	-157.809	0.094	-0.006
-597.040	-200.000	0.054	0.243
-596.025	-57.201	0.193	0.087
-595.011	145.421	-0.236	0.323
-593.996	800.000	0.089	0.277
-592.982	800.000	-0.032	-0.119
-591.967	-80.486	-0.241	0.082
-590.952	60.614	0.178	-0.180
-589.938	-1.347	0.269	-0.194
-588.923	140.028	0.210	-0.283
-587.909	-164.472	0.053	0.002
-586.894	-0.826	-0.177	0.128
-585.879	-155.963	0.269	0.017
-584.865	705.712	-0.081	0.219
-583.850	-200.000	0.001	-0.215
-582.836	-41.284	-0.211	-0.111
-581.821	-180.016	-0.078	-0.002
-580.806	-117.449	-0.187	0.035
-579.792	-200.000	-0.024	-0.298
-578.777	-200.000	0.012	0.123
-577.763	-200.000	-0.017	0.155
-576.748	-133.286	0.283	-0.036
-575.733	-171.407	0.103	0.004
-574.719	-129.722	0.116	-0.016
-573.704	249.039	-0.141	-0.243
-572.690	223.880	-0.066	0.109
-571.675	-76.693	-0.384	0.137
-570.661	36.166	-0.138	-0.124
-569.646	450.071	0.198	0.446
-568.631	-45.973	-0.101	0.051
-567.617	-21.271	-0.207	-0.129
-566.602	23.198	0.066	0.055
-565.588	84.752	-0.128	-0.143
-564.573	293.599	0.044	-0.082
-563.558	-111.111	-0.182	0.038
-562.544	-0.929	0.049	0.036
-561.529	750.712	0.152	0.419
-560.515	-89.747	-0.155	0.046
-559.500	251.979	0.076	-0.132
-558.485	478.173	-0.045	-0.104
-557.471	-104.111	0.154	-0.037
-556.456	-158.079	0.398	-0.024
-555.442	-200.000	-0.043	-0.208
-554.427	330.077	-0.187	0.368
-553.412	27.270	-0.307	-0.263
-552.398	56.644	0.147	0.146
-551.383	-200.000	0.009	-0.189
-550.369	-159.183	0.255	-0.015
-549.354	60.784	0.070	-0.070
-548.339	-93.978	-0.152	-0.043
-547.325	-200.000	-0.041	-0.263
-546.310	-15.320	0.326	-0.212
-545.296	800.000	0.060	0.172
-544.281	-6.434	-0.137	-0.096
-543.266	344.054	-0.138	-0.276
-542.252	800.000	0.059	0.167
-541.237	-43.911	-0.216	0.111
-540.223	-37.672	-0.099	0.054
-539.208	33.634	-0.143	-0.126
-538.193	800.000	-0.070	0.259
-537.179	86.557	0.129	0.146
-536.164	628.381	0.079	0.204
-535.150	170.445	0.253	0.369
-534.135	-152.994	0.384	-0.028
-533.121	800.000	0.075	0.294
-532.106	-77.593	0.153	-0.054
-531.091	66.850	0.111	-0.116
-530.077	425.004	-0.096	0.211
-529.062	-53.388	-0.016	-0.007
-528.048	581.663	-0.140	-0.349
-527.033	178.121	0.037	-0.055
-526.018	-148.190	-0.322	-0.027
-525.004	-95.954	0.313	-0.085
-523.989	800.000	-0.081	0.236
-522.975	-185.707	-0.497	-0.008
-521.960	88.157	-0.139	0.157
-520.945	-157.864	-0.097	-0.006
-519.931	800.000	-0.031	-0.106
-518.916	-89.780	-0.132	0.039
-517.902	799.608	-0.088	-0.246
-516.887	584.622	-0.007	-0.018
-515.872	138.784	0.071	0.095
-514.858	800.000	0.034	-0.129
-513.843	36.891	0.124	0.112
-512.829	-127.740	-0.233	0.034
-511.814	26.544	-0.242	0.206
-510.799	-10.809	-0.170	0.114
-509.785	-21.008	0.034	-0.021
-508.770	-142.068	-0.121	0.012
-507.756	-129.658	-0.141	0.020
-506.741	-102.129	-0.238	-0.058
-505.726	-46.806	-0.174	0.087
-504.712	800.000	-0.016	-0.049
-503.697	44.781	-0.139	0.130
-502.683	-72.972	0.095	-0.035
-501.668	370.372	0.132	-0.272
-500.653	-200.000	0.008	-0.052
-499.639	800.000	0.068	-0.269
-498.624	-200.000	-0.016	-0.180
-497.610	-101.495	0.047	0.012
-496.595	124.305	-0.104	0.133
-495.581	778.170	-0.071	0.198
-494.566	800.000	0.008	0.035
-493.551	-120.820	0.215	-0.037
-492.537	108.375	0.251	0.305
-491.522	-130.926	0.081	0.011
-490.508	-44.195	-0.297	-0.152
-489.493	800.000	-0.053	0.195
-488.478	455.315	-0.040	0.090
-487.464	169.306	-0.129	0.187
-486.449	-77.463	-0.153	0.054
-485.435	-19.082	-0.271	-0.171
-484.420	-88.368	0.328	0.100
-483.405	800.000	0.015	0.050
-482.391	301.223	0.107	-0.202
-481.376	-12.062	0.245	-0.163
-480.362	17.453	0.086	-0.070
-479.347	-13.101	-0.068	-0.045
-478.332	170.453	0.213	0.310
-477.318	43.809	-0.133	-0.124
-476.303	800.000	-0.027	0.099
-475.289	-186.351	0.234	0.003
-474.274	-200.000	-0.001	-0.200
-473.259	213.049	0.263	0.422
-472.245	-90.723	-0.122	-0.036
-471.230	800.000	0.047	-0.158
-470.216	302.420	0.163	0.306
-469.201	-200.000	-0.043	0.207
-468.186	102.657	0.138	-0.164
-467.172	-115.808	0.111	-0.021
-466.157	-131.507	-0.223	0.030
-465.143	-108.301	-0.325	-0.071
-464.128	-65.357	-0.416	-0.170
-463.113	-200.000	0.038	0.183
-462.099	83.050	-0.102	0.113
-461.084	64.081	0.381	0.389
-460.070	135.142	-0.101	-0.133
-459.055	100.286	0.162	0.191
-458.040	-115.652	-0.079	0.015
-457.026	328.430	0.190	-0.370
-456.011	-42.185	0.162	-0.084
-454.997	69.235	0.090	-0.094
-453.982	57.752	0.186	-0.184
-452.968	-80.091	-0.181	0.062
-451.953	-89.398	-0.163	0.049
-450.938	96.691	-0.137	0.160
-449.924	28.142	0.176	-0.151
-448.909	800.000	0.056	0.248
-447.895	143.067	0.121	-0.164
-446.880	-65.142	-0.240	-0.098
-445.865	62.690	-0.083	0.084
-444.851	-79.682	-0.109	-0.037
-443.836	800.000	0.052	0.216
-442.822	183.745	0.124	-0.187
-441.807	29.875	-0.175	0.152
-440.792	85.862	-0.160	-0.179
-439.778	-135.240	0.390	-0.047
-438.763	-126.975	-0.354	-0.053
-437.749	-200.000	0.029	0.150
-436.734	-44.854	0.226	0.114
-435.719	-200.000	0.037	0.181
-434.705	473.279	0.110	-0.252
-433.690	-123.716	0.359	0.058
-432.676	800.000	0.100	-0.374
-431.661	-35.873	0.296	-0.163
-430.646	40.058	0.339	-0.309
-429.632	-200.000	-0.033	-0.192
-428.617	800.000	-0.147	0.485
-427.603	34.907	0.208	0.184
-426.588	-105.708	0.557	0.128
-425.573	-59.506	0.166	-0.072
-424.559	-36.417	0.124	-0.068
-423.544	139.952	0.186	-0.248
-422.530	-12.648	-0.181	-0.120
-421.515	-131.339	-0.046	-0.006
-420.500	225.373	0.174	-0.286
-419.486	31.105	-0.053	0.046
-418.471	-200.000	-0.015	-0.253
-417.457	-69.022	-0.164	0.064
-416.442	47.929	-0.309	-0.293
-415.428	4.972	-0.196	0.146
-414.413	748.112	-0.058	-0.159
-413.398	16.776	0.213	0.171
-412.384	115.865	-0.161	0.200
-411.369	139.863	0.235	0.314
-410.355	383.831	-0.085	0.178
-409.340	282.338	-0.145	-0.264
-408.325	138.146	0.135	0.179
-407.311	-152.056	-0.190	0.014
-406.296	-86.940	-0.305	-0.094
-405.282	23.042	0.094	0.078
-404.267	222.326	0.094	0.154
-403.252	23.700	0.206	-0.172
-402.238	-1.414	0.107	-0.077
-401.223	403.690	0.046	0.097
-400.209	152.603	-0.012	-0.016
-399.194	278.382	-0.148	-0.267
-398.179	-26.509	-0.062	0.037
-397.165	-51.399	0.081	-0.038
-396.150	756.741	0.129	-0.353
-395.136	-39.751	-0.167	0.088
-394.121	-200.000	-0.004	-0.354
-393.106	-200.000	0.011	-0.114
-392.092	641.728	0.105	0.271
-391.077	-47.801	0.258	0.127
-390.063	800.000	-0.079	0.225
-389.048	201.008	-0.279	0.435
-388.033	265.622	-0.015	0.026
-387.019	-200.000	0.000	-0.141
-386.004	-200.000	0.031	-0.485
-384.990	-133.956	-0.117	-0.015
-383.975	-94.531	0.302	0.083
-382.960	-200.000	-0.016	-0.152
-381.946	244.337	-0.194	-0.329
-380.931	-200.000	0.008	0.233
-379.917	800.000	0.030	0.132
-378.902	161.103	-0.126	-0.178
-377.888	35.625	0.143	0.127
-376.873	-200.000	0.006	-0.051
-375.858	445.870	-0.073	-0.162
-374.844	-139.345	0.148	-0.016
-373.829	-163.474	0.203	-0.010
-372.815	-200.000	-0.059	-0.279
-371.800	665.996	0.068	0.177
-370.785	-135.448	0.253	0.031
-369.771	-76.482	-0.336	0.120
-368.756	418.830	0.055	-0.118
-367.742	94.098	0.068	0.079
-366.727	-103.180	0.244	-0.058
-365.712	-200.000	-0.009	0.317
-364.698	-75.334	-0.249	0.090
-363.683	-62.067	0.145	-0.061
-362.669	43.527	-0.060	0.056
-361.654	-33.767	-0.342	-0.191
-360.639	-29.211	0.071	-0.041
-359.625	85.108	0.138	-0.153
-358.610	135.262	0.056	0.074
-357.596	-200.000	-0.026	0.191
-356.581	-115.793	-0.346	0.066
-355.566	177.683	0.166	-0.245
-354.552	-7.722	0.049	-0.033
-353.537	302.801	-0.086	-0.161
-352.523	800.000	-0.032	0.119
-351.508	-185.728	-0.186	0.003
-350.493	-137.285	-0.227	-0.026
-349.479	290.878	0.128	0.236
-348.464	-136.032	-0.330	-0.039
-347.450	8.114	-0.169	-0.129
-346.435	659.668	-0.186	-0.484
-345.420	173.824	-0.140	-0.205
-344.406	184.016	-0.180	0.269
-343.391	170.623	0.187	-0.270
-342.377	57.588	0.181	-0.179
-341.362	565.441	-0.104	-0.256
-340.348	202.737	-0.045	-0.071
-339.333	-79.684	-0.059	-0.020
-338.318	243.454	-0.046	0.078
-337.304	-59.695	-0.290	-0.126
-336.289	8.103	0.372	0.282
-335.275	-32.062	-0.340	-0.193
-334.260	201.637	0.050	0.077
-333.245	-48.803	0.066	0.032
-332.231	-55.105	0.148	-0.067
-331.216	-13.829	-0.111	0.073
-330.202	229.430	0.123	0.203
-329.187	172.265	0.199	0.289
-328.172	28.084	-0.160	0.136
-327.158	483.082	0.020	-0.046
-326.143	12.783	-0.178	-0.139
-325.129	-5.049	0.167	-0.116
-324.114	-59.045	-0.220	0.096
-323.099	136.274	-0.111	-0.146
-322.085	-73.347	0.269	0.100
-321.070	-200.000	-0.006	-0.114
-320.056	-67.977	-0.221	0.087
-319.041	55.864	0.108	-0.106
-318.026	33.665	-0.092	0.081
-317.012	729.604	0.046	-0.123
-315.997	452.980	0.056	0.126
-314.983	175.523	-0.161	0.236
-313.968	-54.998	-0.080	-0.036
-312.953	344.000	0.061	0.121
-311.939	-22.879	0.159	-0.097
-310.924	-68.385	-0.279	-0.109
-309.910	-200.000	-0.011	-0.305
-308.895	-35.477	0.206	-0.113
-307.880	-137.592	0.224	-0.026
-306.866	185.357	0.275	-0.413
-305.851	-200.000	-0.068	-0.361
-304.837	-200.000	-0.067	-0.317
-303.822	-200.000	-0.035	-0.290
-302.807	23.232	0.171	-0.142
-301.793	-81.885	-0.197	0.065
-300.778	-106.421	-0.143	0.032
-299.764	-140.350	-0.250	0.026
-298.749	40.790	0.051	-0.046
-297.735	800.000	0.045	-0.168
-296.720	-84.822	0.412	0.131
-295.705	26.944	-0.116	0.099
-294.691	-20.410	-0.187	-0.116
-293.676	30.687	-0.326	-0.281
-292.662	-33.932	0.221	0.123
-291.647	106.587	0.117	0.140
-290.632	-156.702	-0.340	0.021
-289.618	-200.000	0.004	-0.096
-288.603	-85.223	-0.191	-0.060
-287.589	800.000	0.122	0.353
-286.574	392.938	0.121	0.253
-285.559	631.159	-0.115	-0.293
-284.545	65.958	-0.276	-0.283
-283.530	-200.000	-0.013	-0.370
-282.516	-19.909	-0.085	-0.053
-281.501	-200.000	-0.038	0.178
-280.486	-102.797	0.041	0.010
-279.472	176.841	-0.147	0.215
-278.457	-93.019	-0.459	-0.129
-277.443	800.000	-0.083	0.251
-276.428	-59.804	-0.250	0.108
-275.413	800.000	0.090	0.290
-274.399	418.093	0.074	0.160
-273.384	257.763	0.143	-0.248
-272.370	-68.468	0.222	-0.087
-271.355	-51.847	-0.156	-0.073
-270.340	-48.303	-0.051	0.025
-269.326	800.000	-0.094	-0.265
-268.311	61.140	-0.127	0.127
-267.297	-156.790	-0.072	-0.005
-266.282	-71.760	-0.106	-0.040
-265.267	-200.000	-0.047	0.253
-264.253	84.416	0.091	-0.101
-263.238	181.270	-0.226	0.336
-262.224	37.978	0.120	0.107
-261.209	313.780	0.060	-0.114
-260.195	800.000	0.032	-0.128
-259.180	37.107	0.176	0.157
-258.165	-156.246	0.328	0.021
-257.151	446.610	-0.062	-0.137
-256.136	188.521	0.134	-0.203
-255.122	473.072	-0.112	-0.255
-254.107	56.293	-0.237	-0.232
-253.092	84.531	-0.057	0.063
-252.078	76.954	-0.079	0.084
-251.063	113.609	-0.012	-0.014
-250.049	-200.000	0.018	0.209
-249.034	-106.867	0.115	-0.026
-248.019	86.706	-0.069	-0.077
-247.005	14.876	0.268	0.211
-245.990	137.197	-0.128	0.169
-244.976	12.887	0.145	0.113
-243.961	800.000	-0.065	-0.213
-242.946	30.647	0.253	0.218
-241.932	-200.000	-0.000	-0.128
-240.917	-146.466	0.244	-0.021
-239.903	220.406	0.056	-0.091
-238.888	118.739	0.224	-0.279
-237.873	-48.692	0.344	-0.167
-236.859	-131.823	-0.233	0.031
-235.844	271.839	0.204	-0.362
-234.830	-167.197	0.177	0.007
-233.815	-99.677	0.168	0.042
-232.800	-75.685	-0.193	0.069
-231.786	800.000	0.065	-0.219
-230.771	204.775	0.137	0.214
-229.757	34.038	-0.216	0.189
-228.742	-200.000	0.036	-0.236
-227.727	-86.121	-0.132	0.041
-226.713	-2.141	0.057	0.040
-225.698	-128.806	0.205	-0.029
-224.684	32.941	0.138	-0.120
-223.669	12.684	-0.083	0.064
-222.655	-200.000	-0.050	-0.465
-221.640	-16.929	0.407	0.259
-220.625	240.382	-0.027	-0.046
-219.611	-200.000	-0.011	-0.086
-218.596	-109.228	0.207	0.044
-217.582	455.639	0.134	0.299
-216.567	-113.640	0.215	0.042
-215.552	157.091	-0.047	0.066
-214.538	0.467	0.343	0.247
-213.523	-92.461	0.271	-0.077
-212.509	139.423	0.088	-0.116
-211.494	-146.702	-0.309	-0.027
-210.479	-91.933	0.117	-0.033
-209.465	-33.451	0.043	-0.024
-208.450	-109.609	-0.022	-0.005
-207.436	-79.282	-0.082	0.028
-206.421	393.632	0.143	0.299
-205.406	742.712	-0.063	0.171
-204.392	278.541	-0.160	0.287
-203.377	-86.759	0.269	-0.083
-202.363	-127.568	0.142	0.021
-201.348	790.006	0.065	0.181
-200.333	794.391	-0.077	-0.214
-199.319	800.000	0.074	0.215
-198.304	22.307	0.179	0.147
-197.290	445.507	-0.039	-0.085
-196.275	-200.000	0.321	0.000
-195.260	78.135	0.277	0.297
-194.246	800.000	-0.066	0.233
-193.231	-77.353	-0.134	-0.047
-192.217	-58.793	0.543	0.236
-191.202	-99.669	0.294	0.074
-190.187	115.770	0.139	-0.171
-189.173	191.185	-0.284	0.429
-188.158	477.796	-0.094	0.213
-187.144	-55.681	-0.120	0.054
-186.129	-136.771	0.253	0.029
-185.114	-109.488	0.262	-0.056
-184.100	-15.457	-0.206	-0.132
-183.085	326.768	0.112	0.216
-182.071	-200.000	0.011	0.075
-181.056	147.043	-0.066	-0.089
-180.042	147.217	0.143	-0.194
-179.027	-127.167	-0.386	-0.057
-178.012	84.475	-0.115	-0.127
-176.998	-200.000	0.015	-0.091
-175.983	-200.000	-0.010	-0.143
-174.969	-114.394	0.277	-0.053
-173.954	18.815	0.286	-0.230
-172.939	-20.587	0.078	0.048
-171.925	119.900	-0.137	0.170
-170.910	-55.126	0.109	-0.049
-169.896	-37.887	0.053	-0.029
-168.881	609.477	-0.092	-0.232
-167.866	-64.181	0.376	-0.154
-166.852	-39.174	0.296	0.156
-165.837	-200.000	-0.061	0.000
-164.823	-129.184	-0.361	-0.051
-163.808	-116.158	0.138	-0.026
-162.793	-59.571	-0.156	0.067
-161.779	-133.894	-0.223	0.028
-160.764	-0.886	-0.180	0.128
-159.750	189.099	-0.085	-0.128
-158.735	-132.284	0.123	-0.016
-157.720	428.750	-0.087	-0.188
-156.706	155.157	0.095	0.131
-155.691	686.652	-0.057	-0.149
-154.677	-64.471	0.123	-0.050
-153.662	305.628	-0.095	-0.178
-152.647	143.192	0.056	-0.075
-151.633	-55.784	-0.157	0.070
-150.618	276.017	-0.155	0.276
-149.604	800.000	-0.187	-0.548
-148.589	108.834	0.079	0.095
-147.574	-200.000	-0.017	0.140
-146.560	-167.600	-0.348	-0.014
-145.545	372.325	0.111	0.227
-144.531	12.334	0.301	0.232
-143.516	-100.774	-0.259	0.064
-142.502	553.580	0.064	-0.155
-141.487	-41.493	-0.216	-0.112
-140.472	35.622	-0.182	0.161
-139.458	800.000	-0.081	-0.283
-138.443	123.025	-0.096	-0.121
-137.429	-200.000	0.017	0.091
-136.414	132.968	-0.144	-0.187
-135.399	100.848	-0.039	-0.045
-134.385	800.000	0.038	0.134
-133.370	-11.078	-0.114	0.076
-132.356	-21.906	-0.091	0.055
-131.341	511.646	-0.082	0.190
-130.326	273.261	-0.033	-0.058
-129.312	-147.042	-0.127	-0.011
-128.297	-13.968	-0.182	0.118
-127.283	-132.468	-0.058	0.008
-126.268	800.000	-0.025	0.076
-125.253	-141.832	-0.300	-0.030
-124.239	-102.196	0.181	0.044
-123.224	145.422	0.110	-0.148
-122.210	782.928	-0.017	0.046
-121.195	-200.000	-0.036	0.327
