DTS Sentinel unit serial number:	SN413079Multiplexer serial number:	ORYXHardware model number:	OX4-SRSoftware version number:	ORYX F/W v4.00 Oryx Data Collector v3.7.2.0data status	okinstallation	princeton_trtdifferential loss correction	single-endedforward channel	channel 4reverse channel	N/Adate	2019/09/11time	02:15:11forward acquisition time	60.00reverse acquisition time	0.00gamma	496.2192k internal	0.2317k external	0.2317temperature offset calibration	0.9949default loss term (dB/km)	0.3790temperature slope calibration	1.0000multiplexer offset coefficient	1.0000multiplexer slope coefficient	1.0000fibre end	0.00T internal ref (°C)	29.19T ext. ref 1 (°C)	-0.29T ext. ref 2 (°C)	23.36length (m)	temperature (°C)	Stokes	anti-Stokes-747.200	-122.202	0.199	0.033
-746.185	-153.161	-0.398	0.028
-745.171	-185.747	-0.209	-0.003
-744.156	-114.016	-0.307	0.060
-743.142	67.789	-0.108	-0.112
-742.127	-116.303	0.332	-0.062
-741.112	73.802	0.067	-0.071
-740.098	31.510	-0.318	0.277
-739.083	800.000	0.023	0.074
-738.069	33.952	0.047	-0.041
-737.054	448.232	-0.195	0.435
-736.039	279.114	0.040	0.072
-735.025	-200.000	0.044	0.470
-734.010	-62.023	-0.284	0.120
-732.996	485.883	-0.059	-0.135
-731.981	800.000	0.042	-0.148
-730.966	-48.622	0.082	-0.040
-729.952	-29.128	-0.336	0.195
-728.937	-67.717	-0.175	0.069
-727.923	800.000	0.051	0.171
-726.908	79.955	0.169	-0.184
-725.894	800.000	-0.052	-0.224
-724.879	11.352	-0.307	-0.238
-723.864	800.000	0.019	-0.076
-722.850	-200.000	-0.020	-0.282
-721.835	-136.185	-0.240	0.028
-720.821	175.595	-0.070	-0.103
-719.806	5.749	0.089	-0.067
-718.791	42.559	0.029	0.026
-717.777	429.232	-0.136	-0.297
-716.762	-49.582	0.220	0.106
-715.748	-48.815	-0.268	-0.130
-714.733	-128.988	-0.313	-0.044
-713.718	12.804	-0.144	0.113
-712.704	132.283	-0.138	0.179
-711.689	-49.723	0.276	-0.133
-710.675	4.314	0.239	-0.177
-709.660	110.854	-0.049	0.059
-708.645	-200.000	0.012	-0.272
-707.631	140.359	0.078	-0.104
-706.616	196.074	0.145	-0.223
-705.602	-200.000	-0.103	-0.590
-704.587	-8.197	0.112	0.076
-703.572	-152.297	-0.167	0.012
-702.558	-200.000	-0.016	-0.431
-701.543	-53.570	-0.138	-0.064
-700.529	800.000	-0.027	0.093
-699.514	-53.283	-0.455	0.211
-698.499	401.308	0.075	0.159
-697.485	0.649	-0.071	0.052
-696.470	18.720	-0.199	-0.161
-695.456	15.292	0.141	-0.112
-694.441	410.480	-0.148	0.317
-693.426	-91.187	-0.347	-0.100
-692.412	87.672	0.339	-0.380
-691.397	-92.297	0.083	0.024
-690.383	-50.860	0.135	0.064
-689.368	-106.186	0.157	0.035
-688.354	-146.732	-0.114	-0.010
-687.339	-119.399	-0.257	0.045
-686.324	-200.000	-0.034	-0.281
-685.310	62.082	-0.031	0.031
-684.295	-84.362	0.055	0.017
-683.281	569.270	-0.090	-0.221
-682.266	225.488	0.099	0.163
-681.251	-20.753	0.180	-0.111
-680.237	-159.059	0.118	0.007
-679.222	-100.885	-0.157	0.039
-678.208	-200.000	-0.035	-0.289
-677.193	-200.000	-0.041	-0.209
-676.178	722.254	0.096	0.258
-675.164	74.111	0.182	-0.193
-674.149	-200.000	0.035	-0.240
-673.135	105.970	-0.100	-0.120
-672.120	265.936	0.054	-0.095
-671.105	-98.313	-0.335	0.087
-670.091	-174.879	-0.290	-0.008
-669.076	478.379	-0.092	0.210
-668.062	642.963	-0.026	0.067
-667.047	-103.448	0.160	0.038
-666.032	125.678	0.174	0.221
-665.018	800.000	0.046	0.131
-664.003	-200.000	0.067	-0.394
-662.989	166.327	0.077	0.110
-661.974	-52.431	0.105	-0.049
-660.959	-85.648	0.224	0.070
-659.945	-30.049	-0.276	0.158
-658.930	-200.000	0.048	0.506
-657.916	251.269	0.146	0.251
-656.901	110.084	0.158	-0.192
-655.886	433.592	-0.090	0.196
-654.872	-82.389	-0.244	0.080
-653.857	-104.800	0.179	-0.041
-652.843	-200.000	-0.050	0.368
-651.828	-138.990	0.193	-0.021
-650.814	-91.138	0.072	0.021
-649.799	84.628	-0.336	-0.371
-648.784	-131.704	-0.136	0.018
-647.770	196.442	0.066	-0.101
-646.755	-105.150	-0.065	0.015
-645.741	-90.373	0.130	-0.038
-644.726	696.043	-0.056	0.148
-643.711	-200.000	-0.004	-0.165
-642.697	800.000	0.089	-0.323
-641.682	-134.411	0.251	-0.031
-640.668	124.770	-0.017	0.022
-639.653	-111.223	-0.301	-0.062
-638.638	458.233	-0.146	-0.327
-637.624	-30.241	-0.229	-0.131
-636.609	-32.171	-0.032	-0.018
-635.595	800.000	0.016	-0.059
-634.580	1.002	-0.351	0.254
-633.565	-160.323	-0.157	0.009
-632.551	-200.000	-0.010	-0.086
-631.536	-200.000	0.000	-0.046
-630.522	129.328	0.182	-0.235
-629.507	-18.908	-0.379	-0.238
-628.492	-133.694	0.156	0.020
-627.478	-200.000	0.074	0.355
-626.463	44.176	0.030	-0.028
-625.449	33.823	-0.068	-0.060
-624.434	254.850	0.035	-0.060
-623.419	-59.919	-0.375	0.162
-622.405	178.949	0.181	0.267
-621.390	-40.893	0.122	-0.064
-620.376	-200.000	0.044	-0.348
-619.361	-8.676	-0.178	-0.121
-618.346	228.412	0.154	-0.252
-617.332	297.154	-0.149	0.275
-616.317	-200.000	-0.079	0.445
-615.303	130.997	-0.079	0.102
-614.288	233.204	0.158	0.262
-613.273	-48.749	-0.103	0.050
-612.259	-178.395	-0.156	-0.004
-611.244	567.763	0.082	0.200
-610.230	347.548	0.073	0.145
-609.215	44.497	-0.223	-0.207
-608.201	-154.553	-0.257	0.017
-607.186	185.457	-0.103	-0.154
-606.171	-200.000	-0.011	0.077
-605.157	457.100	0.078	0.175
-604.142	-142.873	-0.275	-0.027
-603.128	-200.000	0.024	0.184
-602.113	-200.000	-0.041	-0.210
-601.098	677.296	-0.076	-0.199
-600.084	-155.302	-0.116	0.008
-599.069	-12.619	0.154	0.101
-598.055	-200.000	0.013	0.224
-597.040	490.706	-0.058	-0.134
-596.025	8.091	0.163	0.123
-595.011	277.028	-0.073	-0.131
-593.996	75.956	0.153	-0.163
-592.982	201.134	0.044	-0.068
-591.967	167.924	0.162	0.232
-590.952	-200.000	0.021	0.226
-589.938	249.446	-0.131	0.224
-588.923	-154.151	-0.018	-0.001
-587.909	-79.635	-0.026	0.009
-586.894	-90.683	0.206	-0.060
-585.879	-164.546	-0.216	-0.010
-584.865	356.540	0.117	0.235
-583.850	196.551	-0.133	-0.204
-582.836	-79.517	0.412	-0.140
-581.821	-93.454	-0.357	-0.100
-580.806	-200.000	-0.027	0.148
-579.792	-200.000	0.014	0.398
-578.777	800.000	0.067	-0.264
-577.763	800.000	0.025	0.091
-576.748	-38.309	0.276	-0.147
-575.733	33.776	-0.085	0.074
-574.719	-81.732	-0.358	0.118
-573.704	800.000	0.138	0.397
-572.690	-0.028	-0.085	-0.061
-571.675	-182.861	-0.208	0.004
-570.661	-200.000	0.035	-0.205
-569.646	22.131	-0.302	0.248
-568.631	-90.211	-0.574	0.168
-567.617	-32.294	0.217	0.122
-566.602	-85.392	-0.198	-0.062
-565.588	21.693	0.386	-0.316
-564.573	10.520	-0.391	0.299
-563.558	-149.330	0.316	-0.025
-562.544	-82.693	-0.227	0.074
-561.529	-125.202	0.087	0.013
-560.515	-200.000	-0.034	-0.386
-559.500	-13.161	-0.133	0.087
-558.485	-2.242	0.234	0.165
-557.471	-3.749	-0.180	-0.125
-556.456	-84.732	-0.178	0.056
-555.442	120.544	-0.148	0.184
-554.427	-56.695	0.162	-0.072
-553.412	-113.925	0.097	-0.019
-552.398	-45.222	-0.016	-0.008
-551.383	22.933	0.080	0.066
-550.369	112.645	0.126	0.154
-549.354	-168.084	0.198	0.008
-548.339	-200.000	-0.013	-0.102
-547.325	161.511	0.127	0.178
-546.310	168.297	-0.045	0.064
-545.296	-200.000	-0.014	-0.134
-544.281	113.184	0.059	-0.072
-543.266	-89.060	-0.159	0.047
-542.252	-107.395	-0.205	0.045
-541.237	124.917	0.228	-0.289
-540.223	-100.074	-0.302	0.076
-539.208	-200.000	0.044	0.311
-538.193	-29.719	-0.211	0.121
-537.179	-75.842	-0.148	0.053
-536.164	-159.205	0.235	-0.013
-535.150	115.855	-0.129	0.158
-534.135	-170.176	-0.228	0.008
-533.121	-192.294	0.068	0.001
-532.106	-32.253	-0.055	0.031
-531.091	218.920	-0.063	-0.102
-530.077	800.000	-0.090	0.288
-529.062	-200.000	0.012	-0.116
-528.048	280.726	-0.056	0.101
-527.033	-16.065	-0.563	0.359
-526.018	193.852	-0.017	-0.026
-525.004	-77.549	-0.346	0.120
-523.989	-73.380	-0.393	-0.144
-522.975	-35.422	0.227	-0.124
-521.960	-20.991	0.176	-0.108
-520.945	-47.782	0.070	-0.034
-519.931	-200.000	0.007	0.104
-518.916	119.527	0.128	0.159
-517.902	800.000	0.077	-0.269
-516.887	-136.831	0.238	0.027
-515.872	-108.991	-0.086	0.018
-514.858	346.574	-0.069	-0.136
-513.843	493.526	0.069	0.159
-512.829	38.305	0.104	-0.093
-511.814	1.021	-0.221	0.159
-510.799	800.000	0.041	-0.127
-509.785	413.957	0.039	0.084
-508.770	-33.609	-0.158	0.088
-507.756	367.954	-0.063	0.127
-506.741	285.181	-0.184	0.332
-505.726	-200.000	0.029	-0.368
-504.712	-55.949	-0.023	-0.010
-503.697	-200.000	-0.022	0.150
-502.683	7.321	-0.042	-0.032
-501.668	125.915	0.266	0.337
-500.653	-148.146	0.124	0.010
-499.639	-53.174	0.179	0.083
-498.624	212.526	-0.166	0.263
-497.610	-85.340	-0.216	0.068
-496.595	-200.000	-0.023	0.101
-495.581	-144.917	0.252	0.023
-494.566	-61.640	-0.271	-0.114
-493.551	-70.196	0.380	0.145
-492.537	800.000	-0.079	-0.261
-491.522	800.000	-0.048	-0.171
-490.508	145.692	-0.142	-0.190
-489.493	-170.658	-0.366	0.013
-488.478	-102.622	-0.205	0.049
-487.464	-200.000	0.033	-0.372
-486.449	18.742	0.126	-0.101
-485.435	217.987	0.026	-0.041
-484.420	130.737	-0.171	-0.220
-483.405	800.000	0.045	-0.164
-482.391	-200.000	0.040	0.240
-481.376	800.000	-0.051	-0.171
-480.362	27.238	-0.042	0.035
-479.347	-200.000	-0.008	0.045
-478.332	-41.449	0.329	0.170
-477.318	-104.387	-0.090	0.021
-476.303	140.351	-0.138	0.183
-475.289	11.910	-0.189	-0.146
-474.274	-161.227	0.451	-0.024
-473.259	800.000	-0.020	0.065
-472.245	153.209	0.061	-0.084
-471.230	-97.081	0.219	0.057
-470.216	64.280	-0.079	0.079
-469.201	235.028	0.087	-0.144
-468.186	181.234	0.085	0.125
-467.172	191.943	0.071	0.107
-466.157	35.645	-0.209	-0.184
-465.143	800.000	-0.042	-0.179
-464.128	546.871	0.038	-0.091
-463.113	325.948	0.096	-0.185
-462.099	240.092	-0.132	0.220
-461.084	176.080	-0.131	0.191
-460.070	383.126	-0.174	-0.358
-459.055	-200.000	0.062	0.000
-458.040	-69.724	-0.308	-0.118
-457.026	-18.571	0.321	-0.201
-456.011	-42.047	0.138	-0.071
-454.997	-31.746	-0.219	0.123
-453.982	800.000	0.096	-0.355
-452.968	250.473	-0.103	-0.175
-451.953	24.916	0.164	-0.136
-450.938	-1.952	0.190	-0.134
-449.924	-58.557	-0.261	0.113
-448.909	-57.287	-0.075	-0.033
-447.895	105.807	-0.066	-0.078
-446.880	2.692	-0.109	0.079
-445.865	141.429	0.141	-0.187
-444.851	-2.351	-0.091	-0.064
-443.836	-131.274	0.398	0.053
-442.822	710.724	-0.057	0.151
-441.807	732.098	-0.128	-0.341
-440.792	-103.225	-0.164	-0.039
-439.778	-95.873	-0.306	-0.082
-438.763	-66.634	-0.244	0.097
-437.749	-107.984	0.346	0.075
-436.734	-200.000	-0.024	-0.364
-435.719	410.213	0.096	0.204
-434.705	43.574	-0.168	-0.154
-433.690	-177.308	-0.356	0.009
-432.676	1.330	-0.159	0.114
-431.661	-14.946	0.197	0.126
-430.646	800.000	-0.046	0.170
-429.632	-200.000	0.004	-0.108
-428.617	60.318	0.245	-0.242
-427.603	222.532	-0.126	0.203
-426.588	32.707	0.074	0.064
-425.573	148.126	0.153	0.206
-424.559	26.758	0.231	-0.194
-423.544	-76.377	0.160	-0.056
-422.530	188.104	-0.027	0.040
-421.515	-85.523	0.167	0.052
-420.500	-61.843	-0.294	0.123
-419.486	-200.000	0.062	0.276
-418.471	103.664	0.081	0.095
-417.457	-2.620	0.094	-0.066
-416.442	153.652	-0.242	-0.331
-415.428	133.865	0.095	-0.123
-414.413	-177.472	0.209	-0.005
-413.398	-200.000	0.005	0.106
-412.384	-43.859	-0.200	-0.100
-411.369	-162.298	-0.195	-0.010
-410.355	-86.993	0.064	-0.020
-409.340	488.987	-0.095	0.216
-408.325	76.114	0.167	0.176
-407.311	-49.141	0.275	0.131
-406.296	737.179	0.155	0.416
-405.282	-33.381	-0.048	-0.027
-404.267	438.866	0.119	0.259
-403.252	-79.009	-0.241	0.082
-402.238	-26.839	0.196	0.114
-401.223	-52.781	0.095	-0.044
-400.209	55.783	0.193	0.187
-399.194	800.000	-0.097	-0.289
-398.179	-200.000	0.028	-0.191
-397.165	-172.647	0.568	0.018
-396.150	-193.666	0.147	-0.001
-395.136	84.032	-0.251	0.274
-394.121	-126.458	0.437	0.065
-393.106	30.739	-0.233	0.199
-392.092	69.140	0.109	-0.112
-391.077	-200.000	0.007	-0.142
-390.063	692.382	-0.061	0.159
-389.048	378.315	0.067	0.136
-388.033	-138.159	0.350	-0.039
-387.019	-162.142	0.019	0.001
-386.004	-63.193	-0.166	-0.068
-384.990	227.727	0.089	0.145
-383.975	-125.306	0.174	0.026
-382.960	38.230	0.267	0.238
-381.946	-30.340	-0.152	0.086
-380.931	788.909	-0.124	-0.339
-379.917	636.030	0.069	-0.174
-378.902	-200.000	0.026	-0.116
-377.888	-200.000	-0.001	0.126
-376.873	43.335	0.030	0.027
-375.858	-200.000	-0.029	0.148
-374.844	20.367	-0.135	-0.109
-373.829	779.689	-0.069	0.188
-372.815	-99.674	0.330	-0.083
-371.800	122.628	0.064	-0.080
-370.785	87.740	-0.398	-0.440
-369.771	134.111	0.063	0.082
-368.756	33.323	-0.045	0.039
-367.742	-23.368	0.294	-0.176
-366.727	81.713	-0.057	0.061
-365.712	-53.641	-0.173	-0.079
-364.698	-200.000	-0.058	0.269
-363.683	178.952	0.240	-0.350
-362.669	137.045	0.159	-0.207
-361.654	418.878	-0.085	0.181
-360.639	-200.000	-0.025	-0.120
-359.625	90.980	-0.126	-0.140
-358.610	-200.000	-0.019	-0.108
-357.596	-135.011	0.283	-0.034
-356.581	-39.678	-0.181	0.094
-355.566	800.000	-0.045	0.177
-354.552	-24.036	-0.051	0.030
-353.537	-200.000	-0.065	0.312
-352.523	-115.998	0.437	0.081
-351.508	-129.100	0.160	0.022
-350.493	-76.693	0.482	0.168
-349.479	17.321	-0.138	-0.109
-348.464	-200.000	0.003	-0.273
-347.450	-30.822	0.149	-0.084
-346.435	-92.018	0.171	-0.048
-345.420	126.351	-0.111	0.141
-344.406	124.230	-0.225	0.282
-343.391	-200.000	0.049	0.397
-342.377	-0.747	-0.284	-0.201
-341.362	189.214	-0.194	-0.290
-340.348	536.513	0.188	0.444
-339.333	137.782	0.104	-0.136
-338.318	-141.223	-0.267	-0.027
-337.304	-53.155	0.271	0.124
-336.289	-158.920	0.213	-0.012
-335.275	324.407	-0.134	-0.255
-334.260	-200.000	0.018	0.233
-333.245	800.000	-0.082	0.232
-332.231	313.161	-0.091	0.171
-331.216	-5.794	0.246	-0.168
-330.202	-141.182	-0.173	0.018
-329.187	-71.750	0.299	-0.111
-328.172	-200.000	0.035	-0.446
-327.158	423.107	-0.087	-0.187
-326.143	5.006	0.273	-0.200
-325.129	260.005	-0.142	-0.244
-324.114	128.906	-0.183	-0.232
-323.099	345.259	0.105	0.206
-322.085	-200.000	-0.023	0.167
-321.070	800.000	0.032	-0.129
-320.056	101.426	-0.200	0.232
-319.041	154.491	0.066	0.090
-318.026	-184.366	-0.269	-0.004
-317.012	-155.789	-0.220	-0.014
-315.997	312.827	-0.089	-0.167
-314.983	-78.535	-0.223	-0.076
-313.968	319.847	-0.217	0.410
-312.953	21.671	0.089	0.072
-311.939	530.778	0.051	-0.119
-310.924	595.090	0.091	-0.224
-309.910	-33.017	0.319	-0.176
-308.895	800.000	-0.143	-0.447
-307.880	-200.000	0.028	-0.173
-306.866	-200.000	-0.023	0.317
-305.851	20.960	0.123	-0.099
-304.837	96.960	-0.274	0.313
-303.822	178.356	0.056	0.081
-302.807	423.848	-0.001	-0.003
-301.793	69.425	-0.109	-0.111
-300.778	140.157	-0.097	-0.127
-299.764	-94.992	-0.196	-0.053
-298.749	205.954	-0.198	-0.306
-297.735	-200.000	-0.029	-0.127
-296.720	-128.977	0.328	-0.046
-295.705	-159.807	0.315	0.017
-294.691	327.731	0.159	-0.304
-293.676	-138.043	0.236	-0.026
-292.662	527.785	0.130	0.305
-291.647	45.845	0.265	-0.244
-290.632	-93.353	0.169	-0.047
-289.618	-169.347	0.216	0.008
-288.603	236.980	-0.064	0.105
-287.589	280.062	-0.073	0.130
-286.574	-64.047	0.371	0.151
-285.559	-158.491	-0.172	-0.010
-284.545	674.013	-0.133	-0.344
-283.530	-143.863	0.448	-0.042
-282.516	-118.408	0.275	0.049
-281.501	-200.000	0.003	-0.089
-280.486	-82.264	0.140	0.045
-279.472	123.534	0.099	0.123
-278.457	-172.030	0.329	-0.011
-277.443	509.331	-0.137	-0.317
-276.428	800.000	0.056	-0.214
-275.413	211.989	0.056	-0.088
-274.399	372.986	-0.204	0.412
-273.384	-200.000	-0.029	0.216
-272.370	-53.999	-0.286	-0.129
-271.355	-84.597	0.210	0.066
-270.340	-200.000	0.049	0.348
-269.326	395.518	0.066	-0.136
-268.311	-200.000	-0.053	-0.375
-267.297	-159.277	0.281	-0.016
-266.282	-176.021	0.408	-0.011
-265.267	-199.842	0.256	-0.001
-264.253	-41.761	0.151	0.077
-263.238	116.464	-0.045	0.055
-262.224	800.000	0.045	0.190
-261.209	118.488	-0.093	0.114
-260.195	19.027	-0.153	-0.122
-259.180	29.005	-0.031	-0.026
-258.165	5.295	-0.178	0.130
-257.151	-200.000	0.186	0.000
-256.136	-200.000	0.022	-0.145
-255.122	-67.985	-0.183	0.071
-254.107	197.688	0.172	-0.260
-253.092	7.975	0.043	0.032
-252.078	-156.545	0.265	0.016
-251.063	-200.000	0.008	0.313
-250.049	33.091	0.177	0.152
-249.034	-34.560	-0.259	-0.141
-248.019	-68.261	-0.072	0.028
-247.005	-92.875	0.186	-0.052
-245.990	-200.000	0.026	-0.164
-244.976	800.000	0.028	-0.081
-243.961	-75.791	-0.101	-0.036
-242.946	18.922	0.127	-0.101
-241.932	-45.217	-0.119	0.059
-240.917	132.137	0.037	0.048
-239.903	-200.000	-0.004	0.396
-238.888	-165.083	-0.210	0.009
-237.873	-48.326	-0.210	-0.101
-236.859	800.000	0.064	0.279
-235.844	-33.582	0.244	-0.134
-234.830	-7.139	-0.271	0.183
-233.815	216.969	-0.130	0.205
-232.800	-95.968	-0.184	0.049
-231.786	118.636	-0.183	0.225
-230.771	-200.000	-0.039	-0.207
-229.757	800.000	-0.113	-0.339
-228.742	-200.000	-0.022	0.096
-227.727	-200.000	0.053	0.263
-226.713	504.231	-0.126	-0.290
-225.698	-200.000	0.007	0.078
-224.684	328.180	0.068	-0.129
-223.669	-200.000	-0.062	0.343
-222.655	-64.146	0.148	-0.060
-221.640	-65.955	-0.044	0.017
-220.625	-200.000	0.007	-0.198
-219.611	-17.669	0.216	0.134
-218.596	800.000	0.107	0.305
-217.582	-99.647	-0.161	0.040
-216.567	-200.000	0.019	0.126
-215.552	-97.860	-0.108	0.028
-214.538	-61.787	-0.136	-0.057
-213.523	-170.595	-0.213	0.007
-212.509	800.000	-0.073	-0.227
-211.494	800.000	-0.082	0.309
-210.479	-23.882	0.286	-0.170
-209.465	-147.296	-0.059	-0.005
-208.450	-108.616	0.218	0.046
-207.436	257.583	0.036	0.061
-206.421	303.077	-0.144	-0.264
-205.406	307.851	0.067	0.124
-204.392	-200.000	0.023	0.199
-203.377	47.090	0.167	0.154
-202.363	-200.000	-0.001	-0.072
-201.348	-62.505	0.245	-0.101
-200.333	800.000	-0.033	-0.106
-199.319	141.236	-0.194	-0.255
-198.304	-200.000	0.010	-0.246
-197.290	-93.819	-0.309	0.084
-196.275	245.569	-0.060	0.101
-195.260	278.098	0.098	-0.173
-194.246	-200.000	0.010	-0.054
-193.231	-200.000	-0.000	-0.056
-192.217	-200.000	0.016	0.160
-191.202	159.461	-0.110	-0.152
-190.187	-131.181	0.315	-0.041
-189.173	40.583	0.332	-0.296
-188.158	385.696	-0.067	-0.138
-187.144	-68.523	-0.050	-0.019
-186.129	-155.544	-0.242	0.015
-185.114	-1.544	0.262	0.183
-184.100	-110.953	-0.330	-0.067
-183.085	167.151	0.204	-0.287
-182.071	-200.000	0.018	-0.113
-181.056	-106.638	-0.595	-0.131
-180.042	721.461	-0.116	0.305
-179.027	-119.641	0.282	-0.048
-178.012	269.534	0.071	-0.124
-176.998	-200.000	0.031	-0.251
-175.983	-4.357	-0.172	-0.118
-174.969	424.862	-0.126	0.269
-173.954	11.923	-0.183	-0.139
-172.939	-49.151	0.353	0.167
-171.925	-3.060	0.073	0.051
-170.910	800.000	0.084	0.243
-169.896	129.464	0.118	-0.150
-168.881	-11.388	0.151	0.098
-167.866	-200.000	-0.008	-0.049
-166.852	-200.000	-0.000	-0.480
-165.837	26.010	-0.208	-0.171
-164.823	800.000	-0.053	0.167
-163.808	8.492	-0.250	-0.186
-162.793	-195.147	-0.130	0.001
-161.779	800.000	0.033	0.116
-160.764	56.081	0.178	0.171
-159.750	163.015	-0.126	0.176
-158.735	-200.000	0.001	0.278
-157.720	-109.925	-0.233	0.048
-156.706	503.048	-0.050	0.114
-155.691	36.323	0.228	0.199
-154.677	-63.179	0.145	0.059
-153.662	-136.715	0.259	-0.030
-152.647	-141.201	0.079	0.008
-151.633	-55.017	0.308	-0.137
-150.618	-24.161	0.289	-0.171
-149.604	38.337	0.176	0.155
-148.589	-200.000	0.041	0.200
-147.574	800.000	0.032	-0.091
-146.560	-132.912	-0.170	-0.021
-145.545	59.114	-0.263	0.256
-144.531	-200.000	0.031	0.219
-143.516	-75.383	-0.194	0.069
-142.502	453.414	0.008	0.018
-141.487	-88.478	0.112	-0.033
-140.472	-200.000	-0.023	0.285
-139.458	-172.626	0.278	0.009
-138.443	-200.000	0.005	-0.184
-137.429	-200.000	0.020	-0.099
-136.414	-161.506	0.226	-0.011
-135.399	-49.339	0.134	-0.063
-134.385	800.000	-0.019	0.072
-133.370	54.293	-0.081	0.077
-132.356	144.943	0.205	0.271
-131.341	800.000	0.023	0.087
-130.326	-31.977	-0.213	0.118
-129.312	-7.600	-0.152	-0.102
-128.297	175.218	0.125	-0.179
-127.283	70.161	-0.178	0.181
-126.268	800.000	-0.043	0.184
-125.253	157.008	0.195	-0.266
-124.239	501.879	0.082	0.188
-123.224	35.169	0.202	0.175
-122.210	800.000	0.061	0.243
-121.195	-121.158	0.065	-0.011
