DTS Sentinel unit serial number:	SN413079Multiplexer serial number:	ORYXHardware model number:	OX4-SRSoftware version number:	ORYX F/W v4.00 Oryx Data Collector v3.7.2.0data status	okinstallation	princeton_trtdifferential loss correction	single-endedforward channel	channel 4reverse channel	N/Adate	2019/09/11time	14:55:11forward acquisition time	60.00reverse acquisition time	0.00gamma	496.2192k internal	0.2278k external	0.2278temperature offset calibration	1.0005default loss term (dB/km)	0.3790temperature slope calibration	1.0000multiplexer offset coefficient	1.0000multiplexer slope coefficient	1.0000fibre end	0.00T internal ref (°C)	42.70T ext. ref 1 (°C)	0.93T ext. ref 2 (°C)	39.05length (m)	temperature (°C)	Stokes	anti-Stokes-747.200	-200.000	0.013	0.082
-746.185	-8.611	-0.088	0.061
-745.171	132.063	-0.141	-0.187
-744.156	39.604	-0.287	0.265
-743.142	17.325	-0.174	0.142
-742.127	-26.575	0.112	0.068
-741.112	-89.027	-0.431	0.131
-740.098	-43.298	-0.105	0.055
-739.083	11.574	0.347	-0.274
-738.069	-200.000	0.007	0.119
-737.054	-12.714	-0.253	-0.170
-736.039	-200.000	-0.043	-0.237
-735.025	0.357	0.309	0.227
-734.010	115.569	-0.181	0.228
-732.996	-126.570	-0.260	-0.040
-731.981	444.391	0.011	0.025
-730.966	515.954	-0.086	0.206
-729.952	-136.544	0.327	0.039
-728.937	800.000	-0.061	0.204
-727.923	-99.151	-0.107	0.028
-726.908	-67.131	0.113	-0.046
-725.894	-84.197	-0.301	-0.098
-724.879	167.266	-0.121	-0.176
-723.864	-43.098	0.350	-0.183
-722.850	199.294	0.154	-0.244
-721.835	-176.669	0.124	0.003
-720.821	135.892	0.059	-0.079
-719.806	800.000	-0.055	0.235
-718.791	49.120	-0.271	0.262
-717.777	24.085	-0.098	0.083
-716.762	9.154	-0.223	0.174
-715.748	800.000	-0.135	-0.540
-714.733	-81.977	0.437	0.147
-713.718	-64.400	0.305	-0.128
-712.704	151.637	-0.047	-0.066
-711.689	-31.535	0.181	0.105
-710.675	-200.000	-0.031	-0.183
-709.660	-200.000	0.003	0.301
-708.645	438.256	-0.166	0.372
-707.631	-27.153	0.137	-0.082
-706.616	211.262	0.077	-0.124
-705.602	-176.203	0.122	0.003
-704.587	-44.137	-0.063	-0.033
-703.572	-167.944	0.111	0.004
-702.558	19.817	-0.042	0.035
-701.543	-200.000	0.012	0.202
-700.529	-76.952	0.120	0.043
-699.514	-200.000	0.011	0.352
-698.499	-23.793	0.092	0.056
-697.485	-81.787	0.650	-0.219
-696.470	25.750	-0.094	-0.081
-695.456	-133.494	0.291	0.037
-694.441	234.833	-0.205	0.347
-693.426	-168.641	0.246	-0.010
-692.412	36.052	0.041	0.037
-691.397	-86.519	0.292	0.092
-690.383	461.282	0.143	0.327
-689.368	-200.000	0.033	0.241
-688.354	91.596	-0.121	0.140
-687.339	-65.255	0.086	-0.036
-686.324	-50.089	-0.298	0.145
-685.310	71.259	-0.102	-0.109
-684.295	-100.909	-0.169	0.043
-683.281	-11.055	0.190	0.129
-682.266	53.009	-0.034	0.034
-681.251	-69.342	-0.140	0.055
-680.237	-111.698	-0.281	0.058
-679.222	13.824	0.294	0.235
-678.208	8.036	0.168	0.129
-677.193	-200.000	-0.003	0.257
-676.178	2.780	-0.226	-0.169
-675.164	32.547	-0.117	0.104
-674.149	55.672	-0.088	0.088
-673.135	2.081	-0.417	-0.310
-672.120	-55.055	-0.117	-0.054
-671.105	-38.866	0.142	-0.077
-670.091	-31.573	-0.061	0.035
-669.076	-111.580	-0.223	-0.046
-668.062	362.687	-0.031	-0.064
-667.047	-19.540	-0.177	0.113
-666.032	-200.000	0.028	-0.189
-665.018	32.779	0.232	-0.206
-664.003	-84.514	-0.182	-0.059
-662.989	103.942	0.089	-0.108
-661.974	-135.046	-0.254	-0.031
-660.959	33.362	-0.167	-0.149
-659.945	618.348	0.043	0.110
-658.930	341.702	-0.220	0.442
-657.916	-46.967	0.375	0.188
-656.901	47.266	0.220	0.210
-655.886	-100.968	0.236	-0.059
-654.872	-116.633	-0.395	0.075
-653.857	663.058	0.145	-0.384
-652.843	267.737	-0.077	0.138
-651.828	49.196	0.253	0.244
-650.814	800.000	-0.025	-0.076
-649.799	-200.000	0.016	0.075
-648.784	-80.723	0.322	0.110
-647.770	-200.000	0.007	-0.140
-646.755	-200.000	0.010	0.122
-645.741	-132.530	0.262	0.035
-644.726	-200.000	-0.006	-0.076
-643.711	800.000	0.012	-0.050
-642.697	367.194	-0.094	-0.194
-641.682	-9.163	-0.071	0.049
-640.668	-157.225	0.103	0.006
-639.653	-176.417	-0.191	-0.005
-638.638	-25.377	-0.217	0.131
-637.624	-78.284	-0.404	-0.142
-636.609	-200.000	0.043	-0.195
-635.595	-133.577	0.239	0.031
-634.580	58.546	-0.164	-0.165
-633.565	-200.000	0.011	-0.251
-632.551	496.536	0.014	-0.032
-631.536	-200.000	-0.056	-0.257
-630.522	-8.979	-0.251	-0.172
-629.507	800.000	-0.030	-0.119
-628.492	530.059	-0.091	-0.220
-627.478	132.540	0.126	-0.167
-626.463	-79.356	-0.378	-0.131
-625.449	-162.296	-0.424	-0.022
-624.434	-124.335	0.147	-0.024
-623.419	178.836	-0.020	0.030
-622.405	-92.914	0.083	-0.024
-621.390	470.784	0.075	0.174
-620.376	-65.122	0.070	0.029
-619.361	-156.965	0.289	-0.018
-618.346	3.702	0.190	-0.142
-617.332	15.755	-0.407	-0.328
-616.317	-157.269	-0.105	0.007
-615.303	29.947	-0.184	-0.161
-614.288	800.000	-0.035	-0.103
-613.273	-95.266	-0.176	0.049
-612.259	82.160	-0.081	-0.090
-611.244	800.000	0.102	-0.333
-610.230	62.605	-0.199	-0.204
-609.215	-25.144	0.155	0.094
-608.201	127.947	0.151	0.197
-607.186	-200.000	0.003	0.128
-606.171	-83.211	0.156	-0.051
-605.157	-79.920	-0.250	-0.086
-604.142	283.865	0.067	-0.123
-603.128	-101.819	-0.132	0.033
-602.113	-37.632	-0.108	0.059
-601.098	-182.261	0.227	-0.004
-600.084	-34.988	-0.227	0.127
-599.069	376.501	0.100	0.209
-598.055	73.886	0.125	-0.134
-597.040	800.000	-0.058	-0.217
-596.025	712.601	0.012	-0.033
-595.011	-141.111	0.116	0.012
-593.996	-200.000	-0.018	0.146
-592.982	-200.000	-0.021	-0.144
-591.967	-166.302	-0.319	-0.014
-590.952	-40.966	0.135	0.071
-589.938	800.000	-0.069	0.219
-588.923	800.000	-0.121	0.349
-587.909	-67.033	-0.211	0.085
-586.894	146.979	0.153	-0.210
-585.879	-179.038	0.432	0.010
-584.865	393.030	-0.095	0.203
-583.850	800.000	0.065	0.205
-582.836	-27.369	0.279	0.166
-581.821	-18.745	0.219	0.140
-580.806	-51.877	0.155	-0.074
-579.792	16.191	0.179	-0.145
-578.777	-161.436	-0.342	0.018
-577.763	-200.000	0.055	0.266
-576.748	-121.745	-0.399	0.068
-575.733	53.038	0.096	0.094
-574.719	259.226	0.221	-0.390
-573.704	-69.777	0.070	-0.027
-572.690	1.655	-0.149	-0.110
-571.675	407.834	0.061	-0.131
-570.661	112.216	-0.279	-0.345
-569.646	-200.000	0.004	0.092
-568.631	-200.000	0.005	0.056
-567.617	-200.000	-0.030	-0.145
-566.602	-53.943	-0.137	0.064
-565.588	515.970	-0.063	-0.152
-564.573	162.927	-0.115	0.166
-563.558	-114.136	-0.090	0.018
-562.544	94.753	-0.152	0.177
-561.529	56.317	-0.220	0.218
-560.515	21.581	-0.129	0.107
-559.500	24.909	0.225	0.191
-558.485	39.793	0.128	-0.117
-557.471	84.980	-0.170	-0.190
-556.456	-200.000	-0.023	-0.267
-555.442	800.000	-0.065	-0.255
-554.427	-102.219	-0.213	0.052
-553.412	-200.000	0.013	-0.062
-552.398	-200.000	-0.071	0.417
-551.383	364.282	-0.184	-0.378
-550.369	-200.000	0.063	0.307
-549.354	247.984	0.028	0.048
-548.339	12.680	0.165	0.131
-547.325	-116.325	0.186	0.035
-546.310	34.475	-0.125	0.112
-545.296	-88.093	0.277	-0.085
-544.281	-16.963	-0.077	0.050
-543.266	800.000	-0.104	0.316
-542.252	60.463	-0.133	-0.135
-541.237	353.486	0.142	0.288
-540.223	800.000	0.020	0.062
-539.208	436.250	0.094	-0.210
-538.193	-72.741	-0.203	0.076
-537.179	-112.624	0.256	-0.052
-536.164	288.547	0.193	-0.358
-535.150	-200.000	0.003	0.080
-534.135	-10.942	0.138	-0.093
-533.121	-23.133	-0.278	0.171
-532.106	457.484	0.103	0.235
-531.091	-15.848	-0.235	0.153
-530.077	-136.855	-0.179	0.021
-529.062	-200.000	-0.019	0.125
-528.048	-14.551	0.157	0.103
-527.033	-92.929	-0.069	0.020
-526.018	-108.410	0.198	0.044
-525.004	-200.000	0.024	-0.300
-523.989	-39.452	0.162	-0.087
-522.975	-19.985	-0.067	0.042
-521.960	46.467	0.110	-0.104
-520.945	-131.350	0.155	-0.021
-519.931	-200.000	0.017	-0.088
-518.916	-134.570	0.496	0.062
-517.902	-180.214	-0.130	0.003
-516.887	-200.000	-0.016	-0.383
-515.872	224.179	0.135	-0.223
-514.858	458.681	-0.119	-0.270
-513.843	-140.080	0.531	-0.057
-512.829	-129.469	-0.233	-0.033
-511.814	292.038	-0.131	-0.244
-510.799	227.977	-0.229	-0.380
-509.785	-92.530	-0.299	0.086
-508.770	-54.963	-0.074	0.034
-507.756	-163.524	-0.165	0.008
-506.741	-200.000	0.053	-0.261
-505.726	-200.000	0.008	-0.144
-504.712	68.058	-0.093	0.097
-503.697	800.000	-0.023	0.101
-502.683	53.277	-0.108	0.106
-501.668	-200.000	0.189	-0.001
-500.653	-181.355	0.198	-0.004
-499.639	-200.000	-0.001	-0.292
-498.624	800.000	-0.076	-0.216
-497.610	239.571	0.096	-0.163
-496.595	277.203	0.183	-0.331
-495.581	32.663	0.344	0.303
-494.566	254.664	-0.105	-0.184
-493.551	139.541	-0.233	0.313
-492.537	700.042	-0.089	-0.239
-491.522	-122.521	0.453	0.075
-490.508	-200.000	0.018	0.289
-489.493	-200.000	0.033	0.150
-488.478	800.000	0.100	0.380
-487.464	-200.000	-0.031	-0.281
-486.449	112.444	-0.199	0.245
-485.435	-200.000	-0.063	0.394
-484.420	-140.967	-0.469	0.049
-483.405	800.000	-0.065	-0.238
-482.391	64.129	-0.152	-0.155
-481.376	66.338	-0.127	-0.132
-480.362	634.906	-0.027	-0.070
-479.347	112.847	-0.237	0.293
-478.332	372.559	-0.138	0.286
-477.318	-200.000	-0.025	-0.181
-476.303	68.903	0.213	-0.223
-475.289	785.724	0.051	0.144
-474.274	35.143	-0.297	-0.265
-473.259	-77.449	0.187	-0.066
-472.245	-74.000	0.105	-0.039
-471.230	800.000	0.017	-0.056
-470.216	-62.100	-0.126	0.054
-469.201	176.291	0.162	-0.240
-468.186	-183.154	-0.081	-0.001
-467.172	31.998	-0.043	-0.038
-466.157	-13.714	0.237	-0.156
-465.143	434.019	-0.072	0.159
-464.128	1.393	0.295	0.216
-463.113	-124.569	-0.340	-0.054
-462.099	26.433	-0.196	0.167
-461.084	339.047	-0.091	0.180
-460.070	-6.940	-0.017	0.011
-459.055	-200.000	-0.041	0.293
-458.040	800.000	-0.026	-0.072
-457.026	-44.789	0.241	-0.123
-456.011	1.928	-0.252	0.185
-454.997	93.228	0.155	0.178
-453.982	-84.199	0.137	0.044
-452.968	-118.478	-0.196	0.035
-451.953	-200.000	0.009	0.054
-450.938	-67.087	-0.111	0.045
-449.924	133.339	0.045	-0.059
-448.909	141.097	-0.261	0.351
-447.895	17.571	-0.122	-0.098
-446.880	-112.358	-0.190	0.039
-445.865	-69.539	0.079	-0.031
-444.851	-200.000	-0.036	-0.206
-443.836	-58.766	-0.333	-0.147
-442.822	-132.467	0.039	0.005
-441.807	-192.067	-0.209	-0.002
-440.792	-17.927	0.286	-0.182
-439.778	-96.413	-0.570	-0.153
-438.763	-151.471	-0.212	-0.016
-437.749	-87.471	0.289	-0.089
-436.734	-8.785	-0.188	0.128
-435.719	39.653	-0.207	0.189
-434.705	-75.331	-0.170	-0.062
-433.690	400.221	0.014	0.031
-432.676	-19.630	0.267	0.168
-431.661	1.947	0.026	-0.019
-430.646	593.030	-0.071	0.178
-429.632	-84.739	-0.654	0.209
-428.617	-200.000	0.008	-0.199
-427.603	23.488	0.178	-0.149
-426.588	800.000	0.036	0.134
-425.573	-153.649	-0.171	0.012
-424.559	311.257	-0.180	0.344
-423.544	121.312	0.086	0.109
-422.530	-25.445	0.207	-0.125
-421.515	-155.080	0.238	0.016
-420.500	211.436	-0.116	-0.186
-419.486	100.777	0.263	-0.311
-418.471	-119.060	0.253	-0.045
-417.457	-31.439	0.172	-0.098
-416.442	-43.507	-0.159	-0.082
-415.428	417.365	0.245	-0.532
-414.413	35.404	0.134	0.119
-413.398	-200.000	-0.046	0.226
-412.384	650.669	-0.124	-0.323
-411.369	524.432	0.036	0.087
-410.355	-200.000	-0.004	-0.201
-409.340	-103.219	0.216	-0.052
-408.325	-63.162	0.065	0.027
-407.311	-2.310	0.278	0.198
-406.296	59.803	0.107	0.107
-405.282	-26.374	0.165	0.099
-404.267	80.568	-0.073	0.080
-403.252	800.000	-0.061	0.249
-402.238	-43.117	0.184	0.095
-401.223	800.000	-0.030	-0.099
-400.209	-200.000	0.062	-0.282
-399.194	-39.248	-0.201	-0.107
-398.179	-54.733	-0.361	0.166
-397.165	-64.204	-0.256	-0.106
-396.150	-100.554	0.242	-0.061
-395.136	123.098	-0.059	-0.076
-394.121	624.381	-0.072	-0.184
-393.106	-134.586	0.342	0.042
-392.092	-46.519	-0.190	0.094
-391.077	241.246	0.211	0.357
-390.063	-200.000	0.028	0.294
-389.048	295.190	0.134	0.250
-388.033	19.974	0.208	0.170
-387.019	-200.000	0.008	0.266
-386.004	800.000	-0.041	0.128
-384.990	20.188	0.234	-0.192
-383.975	-94.442	0.119	0.033
-382.960	-59.624	0.243	0.106
-381.946	284.015	0.167	0.305
-380.931	149.103	0.015	-0.021
-379.917	-200.000	-0.039	-0.195
-378.902	-200.000	-0.041	0.296
-377.888	-200.000	0.016	-0.154
-376.873	330.183	-0.094	0.183
-375.858	48.748	0.180	-0.171
-374.844	-68.174	0.066	-0.026
-373.829	391.626	0.153	0.322
-372.815	-8.431	0.095	0.065
-371.800	-162.003	-0.154	-0.008
-370.785	171.827	-0.082	0.119
-369.771	-95.770	-0.264	0.072
-368.756	-61.020	0.184	0.079
-367.742	91.851	0.259	0.296
-366.727	800.000	0.045	0.144
-365.712	536.897	-0.120	0.289
-364.698	-1.715	0.275	0.197
-363.683	-63.506	-0.153	0.064
-362.669	-72.827	0.206	0.077
-361.654	-159.589	0.366	-0.021
-360.639	-200.000	0.022	0.173
-359.625	180.765	0.070	-0.104
-358.610	-200.000	-0.004	-0.038
-357.596	800.000	0.063	-0.218
-356.581	-57.926	-0.344	0.153
-355.566	800.000	0.039	-0.142
-354.552	-36.045	-0.072	0.039
-353.537	-116.877	-0.213	0.040
-352.523	-113.217	-0.167	0.033
-351.508	64.962	-0.092	0.094
-350.493	800.000	0.116	-0.413
-349.479	-35.740	0.227	-0.125
-348.464	-29.535	-0.065	0.038
-347.450	594.748	-0.089	0.223
-346.435	-73.108	-0.287	0.107
-345.420	221.987	0.096	0.156
-344.406	336.939	0.016	-0.031
-343.391	68.243	0.204	-0.211
-342.377	121.978	0.144	0.182
-341.362	800.000	0.014	0.059
-340.348	-2.196	-0.146	0.104
-339.333	800.000	-0.056	-0.176
-338.318	-200.000	0.030	-0.223
-337.304	-162.686	-0.142	0.007
-336.289	161.093	-0.076	0.107
-335.275	-35.945	0.031	-0.017
-334.260	-200.000	0.052	0.384
-333.245	99.464	0.101	-0.119
-332.231	65.602	-0.195	0.200
-331.216	38.115	-0.019	-0.017
-330.202	-200.000	-0.003	-0.020
-329.187	-75.299	-0.332	0.120
-328.172	-89.303	0.227	0.068
-327.158	5.937	0.141	-0.105
-326.143	-76.782	0.184	0.065
-325.129	4.705	-0.246	0.183
-324.114	382.458	0.037	-0.078
-323.099	-128.191	0.114	-0.016
-322.085	-200.000	-0.006	0.100
-321.070	350.474	0.196	0.392
-320.056	-16.219	-0.222	0.143
-319.041	151.342	-0.067	-0.092
-318.026	132.338	0.023	0.029
-317.012	-120.416	0.260	-0.045
-315.997	328.788	0.053	-0.103
-314.983	-94.717	-0.363	-0.100
-313.968	-141.939	0.476	-0.048
-312.953	-200.000	0.001	0.204
-311.939	63.393	-0.136	-0.138
-310.924	-200.000	-0.005	0.090
-309.910	-104.948	0.085	-0.020
-308.895	-42.687	0.181	-0.093
-307.880	-30.916	-0.040	0.023
-306.866	-62.297	-0.216	-0.091
-305.851	800.000	-0.065	-0.257
-304.837	-200.000	-0.015	-0.146
-303.822	-30.327	-0.072	-0.041
-302.807	234.251	0.252	0.420
-301.793	-52.787	-0.160	0.075
-300.778	-121.094	0.163	-0.028
-299.764	-200.000	-0.020	-0.250
-298.749	-200.000	-0.014	-0.065
-297.735	26.973	0.189	-0.160
-296.720	-200.000	0.005	-0.252
-295.705	-104.194	-0.294	-0.069
-294.691	400.236	-0.074	0.158
-293.676	432.574	0.039	-0.086
-292.662	-63.372	0.272	0.113
-291.647	-200.000	0.014	-0.061
-290.632	-36.563	-0.066	-0.036
-289.618	507.255	0.185	-0.434
-288.603	35.376	-0.094	-0.084
-287.589	-95.230	0.332	0.090
-286.574	6.787	-0.192	0.145
-285.559	-104.014	-0.229	-0.054
-284.545	-164.989	0.543	-0.024
-283.530	10.669	-0.142	0.109
-282.516	129.065	0.049	0.063
-281.501	-11.627	0.203	-0.135
-280.486	27.484	-0.151	-0.129
-279.472	9.161	0.107	-0.081
-278.457	-88.877	0.279	-0.084
-277.443	-22.760	0.181	-0.111
-276.428	-85.311	0.207	0.065
-275.413	-72.241	0.426	-0.160
-274.399	-200.000	0.001	0.147
-273.384	-44.688	0.262	-0.132
-272.370	-200.000	-0.012	0.108
-271.355	-67.335	-0.363	-0.144
-270.340	-82.805	-0.190	0.062
-269.326	-132.978	0.029	0.004
-268.311	-200.000	0.014	-0.104
-267.297	-170.314	0.151	0.005
-266.282	800.000	0.065	-0.201
-265.267	601.845	-0.168	-0.423
-264.253	33.133	-0.229	-0.201
-263.238	-200.000	0.011	0.151
-262.224	736.591	-0.043	0.116
-261.209	-200.000	0.034	0.224
-260.195	-49.687	-0.031	-0.015
-259.180	-200.000	-0.006	-0.167
-258.165	800.000	0.043	-0.161
-257.151	108.403	-0.253	0.305
-256.136	286.524	0.091	0.166
-255.122	-29.951	-0.174	-0.100
-254.107	-200.000	-0.005	0.286
-253.092	-200.000	-0.024	0.373
-252.078	-96.154	0.407	-0.109
-251.063	-200.000	-0.010	-0.208
-250.049	132.081	0.180	0.234
-249.034	324.079	-0.019	-0.036
-248.019	75.299	0.095	-0.101
-247.005	356.691	-0.124	-0.250
-245.990	800.000	-0.082	-0.300
-244.976	10.526	0.134	-0.103
-243.961	118.843	0.064	0.080
-242.946	-200.000	-0.059	0.376
-241.932	-127.204	-0.148	0.022
-240.917	585.954	-0.043	-0.106
-239.903	-200.000	-0.005	-0.179
-238.888	134.524	0.179	0.234
-237.873	800.000	-0.107	-0.299
-236.859	-200.000	-0.020	0.286
-235.844	250.666	0.056	0.096
-234.830	-29.263	0.018	-0.010
-233.815	51.989	-0.025	-0.024
-232.800	-30.856	-0.255	0.145
-231.786	-168.246	-0.204	0.008
-230.771	800.000	0.053	-0.168
-229.757	-158.591	-0.141	-0.008
-228.742	-78.502	0.144	0.050
-227.727	-200.000	-0.029	-0.133
-226.713	-76.596	-0.128	0.045
-225.698	88.330	-0.176	-0.197
-224.684	-200.000	0.000	-0.200
-223.669	-10.274	-0.073	-0.049
-222.655	800.000	0.035	0.135
-221.640	-99.607	0.126	-0.032
-220.625	76.111	0.145	0.155
-219.611	335.596	-0.120	-0.235
-218.596	-200.000	0.009	0.099
-217.582	70.447	-0.373	-0.389
-216.567	-99.111	-0.226	0.058
-215.552	162.427	0.097	-0.137
-214.538	-168.392	-0.317	-0.012
-213.523	-136.684	0.388	-0.045
-212.509	-3.814	0.165	0.115
-211.494	-92.029	-0.334	-0.095
-210.479	76.297	-0.357	-0.381
-209.465	800.000	-0.093	0.286
-208.450	83.432	0.098	0.108
-207.436	-200.000	0.036	0.165
-206.421	238.552	-0.150	0.251
-205.406	22.263	0.168	0.138
-204.392	150.086	-0.248	-0.340
-203.377	-84.742	0.077	0.024
-202.363	-154.392	0.252	0.017
-201.348	-90.297	0.115	0.034
-200.333	800.000	0.052	0.176
-199.319	524.531	-0.127	0.302
-198.304	-200.000	0.013	0.266
-197.290	-7.377	-0.154	-0.105
-196.275	27.315	-0.021	0.017
-195.260	110.727	-0.119	-0.145
-194.246	-109.522	0.092	-0.020
-193.231	-200.000	-0.022	0.136
-192.217	117.469	0.261	-0.323
-191.202	-18.296	0.143	-0.090
-190.187	45.680	-0.239	-0.222
-189.173	800.000	-0.089	0.315
-188.158	-179.848	0.213	0.005
-187.144	35.603	0.060	0.053
-186.129	179.710	-0.081	0.119
-185.114	800.000	0.061	0.267
-184.100	114.975	-0.039	0.048
-183.085	81.941	0.100	-0.109
-182.071	767.226	0.110	0.302
-181.056	330.992	-0.064	-0.124
-180.042	-124.376	0.171	0.027
-179.027	-55.099	0.200	-0.091
-178.012	348.196	-0.126	0.250
-176.998	-44.246	0.133	-0.067
-175.983	-200.000	0.016	-0.214
-174.969	-114.290	0.038	0.007
-173.954	-71.801	0.214	-0.080
-172.939	15.098	-0.113	-0.089
-171.925	-98.891	-0.265	0.068
-170.910	364.197	-0.028	-0.057
-169.896	-3.367	-0.277	0.194
-168.881	-200.000	-0.015	-0.329
-167.866	59.270	0.190	-0.189
-166.852	80.869	0.262	0.284
-165.837	-200.000	-0.020	0.340
-164.823	15.013	-0.050	-0.039
-163.808	-135.144	0.280	0.034
-162.793	-159.781	-0.224	0.012
-161.779	50.906	0.066	0.063
-160.764	127.006	0.047	-0.059
-159.750	-200.000	-0.012	-0.349
-158.735	211.180	-0.088	0.139
-157.720	-200.000	0.028	-0.215
-156.706	-166.575	-0.024	0.001
-155.691	39.600	-0.028	-0.025
-154.677	-38.391	0.284	0.151
-153.662	-200.000	0.025	0.414
-152.647	-82.094	-0.040	-0.013
-151.633	-72.586	0.123	0.046
-150.618	-36.745	-0.115	0.062
-149.604	766.873	-0.101	-0.276
-148.589	-93.244	-0.110	0.031
-147.574	65.727	0.217	0.221
-146.560	800.000	0.137	-0.415
-145.545	-173.486	0.292	-0.009
-144.531	-96.344	0.280	-0.075
-143.516	42.314	-0.158	0.144
-142.502	800.000	-0.045	0.152
-141.487	-200.000	-0.004	0.068
-140.472	800.000	0.141	0.391
-139.458	-188.950	-0.123	0.002
-138.443	-88.499	-0.111	0.033
-137.429	228.362	0.056	-0.092
-136.414	37.355	-0.244	0.218
-135.399	-33.856	-0.166	-0.092
-134.385	-20.072	0.189	0.117
-133.370	-200.000	0.041	0.229
-132.356	-200.000	-0.013	0.062
-131.341	-200.000	0.003	0.132
-130.326	800.000	0.089	0.260
-129.312	120.401	-0.206	-0.258
-128.297	-200.000	-0.022	-0.286
-127.283	122.763	0.139	0.175
-126.268	-188.589	-0.069	0.001
-125.253	22.261	0.327	0.268
-124.239	362.370	-0.080	0.161
-123.224	-128.629	-0.071	-0.010
-122.210	45.899	0.119	-0.110
-121.195	217.656	0.060	-0.096
-120.180	-83.866	-0.277	-0.089
