DTS Sentinel unit serial number:	SN413079Multiplexer serial number:	ORYXHardware model number:	OX4-SRSoftware version number:	ORYX F/W v4.00 Oryx Data Collector v3.7.2.0data status	okinstallation	princeton_trtdifferential loss correction	single-endedforward channel	channel 4reverse channel	N/Adate	2019/09/10time	20:15:11forward acquisition time	60.00reverse acquisition time	0.00gamma	496.2192k internal	0.2312k external	0.2312temperature offset calibration	0.9947default loss term (dB/km)	0.3790temperature slope calibration	1.0000multiplexer offset coefficient	1.0000multiplexer slope coefficient	1.0000fibre end	0.00T internal ref (°C)	32.31T ext. ref 1 (°C)	-0.31T ext. ref 2 (°C)	25.35length (m)	temperature (°C)	Stokes	anti-Stokes-747.200	800.000	0.117	0.389
-746.185	-77.034	-0.291	0.103
-745.171	-64.144	-0.221	-0.091
-744.156	-72.025	0.002	0.001
-743.142	124.616	0.058	-0.074
-742.127	-200.000	-0.043	0.329
-741.112	191.180	0.249	-0.381
-740.098	-3.129	-0.105	0.075
-739.083	-128.746	0.452	0.065
-738.069	36.086	-0.380	0.340
-737.054	-10.882	-0.321	0.215
-736.039	-106.862	-0.326	0.073
-735.025	800.000	0.023	0.085
-734.010	-155.261	-0.181	0.012
-732.996	-116.733	-0.365	-0.068
-731.981	124.446	-0.195	-0.249
-730.966	109.952	-0.161	-0.196
-729.952	-200.000	-0.001	0.102
-728.937	-62.045	-0.315	-0.133
-727.923	95.488	0.198	0.229
-726.908	-200.000	-0.084	0.000
-725.894	-87.059	0.154	-0.048
-724.879	91.400	-0.056	0.064
-723.864	-130.816	-0.282	0.038
-722.850	-200.000	-0.054	0.306
-721.835	110.880	0.302	0.369
-720.821	-200.000	0.023	-0.236
-719.806	-151.657	-0.078	-0.006
-718.791	-80.700	0.218	-0.074
-717.777	45.854	-0.322	0.302
-716.762	-88.388	-0.147	0.044
-715.748	-17.041	0.279	-0.178
-714.733	169.079	0.063	0.091
-713.718	-200.000	0.022	-0.132
-712.704	-91.650	-0.130	-0.037
-711.689	-200.000	0.012	-0.186
-710.675	146.683	-0.141	-0.191
-709.660	596.029	0.101	-0.252
-708.645	-144.310	0.203	0.019
-707.631	-200.000	0.060	-0.296
-706.616	-67.419	-0.340	-0.135
-705.602	-45.161	0.495	-0.249
-704.587	-51.418	-0.142	-0.067
-703.572	-89.782	-0.203	0.060
-702.558	800.000	-0.129	0.414
-701.543	800.000	0.049	-0.164
-700.529	661.713	-0.038	-0.099
-699.514	-200.000	-0.010	0.286
-698.499	-200.000	0.021	-0.160
-697.485	-5.358	0.151	-0.105
-696.470	-134.939	-0.078	0.010
-695.456	-200.000	0.011	0.122
-694.441	97.609	0.057	0.067
-693.426	-200.000	-0.034	-0.189
-692.412	166.195	-0.053	-0.076
-691.397	263.094	-0.058	0.103
-690.383	-42.779	0.146	-0.075
-689.368	-37.434	-0.285	-0.154
-688.354	171.395	-0.111	0.162
-687.339	800.000	0.090	0.261
-686.324	800.000	0.103	-0.371
-685.310	752.251	-0.104	-0.286
-684.295	-165.764	0.253	0.011
-683.281	177.844	-0.091	0.135
-682.266	82.999	-0.198	-0.218
-681.251	368.711	-0.132	0.271
-680.237	-200.000	-0.041	0.279
-679.222	-81.095	-0.171	-0.057
-678.208	59.499	0.124	0.124
-677.193	-96.972	-0.169	-0.045
-676.178	306.614	-0.089	0.167
-675.164	-154.357	-0.066	-0.005
-674.149	543.962	-0.086	0.208
-673.135	-40.833	0.446	-0.234
-672.120	-200.000	-0.025	0.141
-671.105	81.953	0.248	-0.272
-670.091	-15.127	-0.207	0.134
-669.076	-200.000	0.017	-0.116
-668.062	426.427	-0.105	0.229
-667.047	-83.813	-0.125	0.040
-666.032	-147.484	0.193	0.017
-665.018	-200.000	-0.040	-0.251
-664.003	506.172	-0.033	-0.078
-662.989	176.557	0.135	0.199
-661.974	-162.113	-0.214	0.011
-660.959	-50.476	0.078	-0.037
-659.945	-8.310	-0.080	-0.054
-658.930	-200.000	-0.019	0.174
-657.916	-94.123	-0.166	0.046
-656.901	-11.001	-0.235	-0.157
-655.886	442.871	0.103	-0.227
-654.872	-108.755	0.366	-0.079
-653.857	-200.000	-0.086	-0.386
-652.843	-121.223	0.080	0.014
-651.828	258.388	-0.089	0.154
-650.814	800.000	-0.038	0.135
-649.799	-38.588	0.196	-0.105
-648.784	-109.103	-0.118	-0.025
-647.770	-78.026	-0.097	-0.034
-646.755	-200.000	-0.004	0.052
-645.741	-200.000	0.021	-0.181
-644.726	336.960	-0.135	-0.265
-643.711	110.084	-0.106	0.129
-642.697	16.719	0.059	-0.048
-641.682	-84.688	0.113	-0.036
-640.668	800.000	-0.030	0.092
-639.653	47.933	0.055	-0.052
-638.638	-13.978	-0.223	-0.145
-637.624	-179.063	0.128	-0.003
-636.609	-41.215	-0.098	0.051
-635.595	-25.817	-0.132	0.079
-634.580	-200.000	0.006	-0.037
-633.565	84.624	-0.256	0.283
-632.551	-146.586	-0.303	-0.027
-631.536	96.560	-0.109	-0.126
-630.522	-185.872	-0.132	-0.002
-629.507	-200.000	0.323	-0.001
-628.492	-190.250	-0.272	-0.003
-627.478	-29.547	-0.169	-0.098
-626.463	62.908	-0.250	0.252
-625.449	800.000	0.051	0.169
-624.434	227.411	-0.129	-0.212
-623.419	-200.000	-0.005	0.119
-622.405	-66.686	-0.217	0.087
-621.390	-200.000	-0.032	-0.243
-620.376	-150.572	0.364	0.028
-619.361	50.066	-0.193	-0.184
-618.346	101.011	0.072	-0.084
-617.332	74.619	-0.233	0.248
-616.317	35.124	0.056	-0.049
-615.303	9.944	0.178	0.137
-614.288	498.736	-0.134	-0.312
-613.273	-49.652	-0.064	0.031
-612.259	-34.852	0.259	0.143
-611.244	-103.684	0.343	0.081
-610.230	-53.467	0.364	-0.168
-609.215	-200.000	0.007	-0.183
-608.201	540.979	0.089	-0.214
-607.186	-76.592	0.101	0.036
-606.171	662.112	0.092	0.240
-605.157	-4.046	0.344	0.241
-604.142	-183.186	-0.329	-0.006
-603.128	221.616	-0.052	-0.084
-602.113	-69.766	0.346	0.133
-601.098	-101.736	0.148	0.036
-600.084	-17.710	0.065	-0.041
-599.069	388.617	0.079	-0.165
-598.055	-43.230	0.037	0.019
-597.040	-200.000	-0.028	0.188
-596.025	-74.247	0.223	-0.081
-595.011	-200.000	-0.008	-0.266
-593.996	-200.000	0.000	-0.139
-592.982	-200.000	0.012	0.217
-591.967	800.000	-0.084	0.346
-590.952	-200.000	0.036	-0.245
-589.938	-163.157	-0.258	-0.013
-588.923	42.687	-0.233	0.214
-587.909	91.131	-0.230	-0.260
-586.894	191.481	-0.136	0.207
-585.879	0.794	-0.138	0.099
-584.865	282.446	-0.202	0.365
-583.850	-92.385	-0.164	-0.046
-582.836	-99.385	0.191	-0.049
-581.821	-32.223	-0.255	0.144
-580.806	800.000	0.036	-0.111
-579.792	42.238	0.327	0.300
-578.777	-110.224	0.308	-0.065
-577.763	-110.861	0.351	0.073
-576.748	428.728	-0.014	0.031
-575.733	800.000	-0.081	-0.240
-574.719	-62.636	-0.421	-0.176
-573.704	-15.729	0.456	-0.293
-572.690	-179.252	-0.249	-0.006
-571.675	574.093	0.050	-0.124
-570.661	-135.400	0.178	0.021
-569.646	68.609	0.174	-0.180
-568.631	-2.495	-0.061	0.043
-567.617	217.066	-0.180	0.289
-566.602	-98.290	-0.307	-0.079
-565.588	-128.728	-0.367	0.052
-564.573	-74.237	0.303	0.110
-563.558	-200.000	-0.031	-0.229
-562.544	-102.961	0.368	-0.088
-561.529	-43.867	-0.287	0.145
-560.515	98.085	0.175	-0.203
-559.500	-44.432	-0.169	-0.085
-558.485	800.000	0.036	0.120
-557.471	-200.000	-0.041	0.193
-556.456	-200.000	-0.038	-0.211
-555.442	-200.000	0.065	-0.309
-554.427	-143.457	-0.354	0.034
-553.412	-81.155	-0.384	0.128
-552.398	-120.493	-0.324	-0.055
-551.383	98.015	-0.243	0.281
-550.369	155.286	0.160	0.222
-549.354	190.782	-0.076	0.115
-548.339	179.696	-0.096	0.142
-547.325	-35.598	0.184	-0.101
-546.310	282.469	0.124	-0.224
-545.296	800.000	-0.033	-0.139
-544.281	800.000	0.075	0.313
-543.266	218.820	0.079	-0.128
-542.252	800.000	-0.102	-0.447
-541.237	-74.002	0.205	0.075
-540.223	-36.287	-0.503	-0.273
-539.208	506.031	0.232	-0.541
-538.193	800.000	0.033	-0.107
-537.179	-17.803	-0.320	0.202
-536.164	176.710	0.085	0.125
-535.150	-28.437	-0.181	0.105
-534.135	-80.556	0.370	0.124
-533.121	40.577	-0.117	-0.106
-532.106	-200.000	-0.009	0.185
-531.091	-28.433	-0.201	-0.116
-530.077	-40.743	-0.078	-0.041
-529.062	-104.123	-0.248	-0.058
-528.048	-92.926	0.190	-0.053
-527.033	800.000	0.053	0.209
-526.018	-82.435	-0.105	-0.034
-525.004	219.678	-0.116	-0.187
-523.989	-193.535	-0.126	0.001
-522.975	157.447	-0.064	0.090
-521.960	427.416	0.116	0.253
-520.945	88.027	-0.112	-0.125
-519.931	-70.300	0.130	0.049
-518.916	-23.213	-0.099	-0.060
-517.902	128.083	-0.133	0.170
-516.887	-74.114	-0.445	-0.162
-515.872	800.000	-0.019	0.075
-514.858	164.510	0.130	0.185
-513.843	-96.790	-0.049	-0.013
-512.829	286.353	-0.055	0.100
-511.814	800.000	0.049	-0.159
-510.799	154.319	-0.112	0.155
-509.785	-200.000	0.108	0.534
-508.770	-92.198	-0.184	-0.052
-507.756	9.753	-0.147	-0.112
-506.741	-23.951	0.266	0.160
-505.726	800.000	-0.037	-0.134
-504.712	-66.189	0.129	0.052
-503.697	733.958	-0.053	-0.142
-502.683	-195.194	-0.207	0.002
-501.668	-200.000	-0.019	-0.280
-500.653	-200.000	-0.016	-0.083
-499.639	-200.000	0.012	-0.157
-498.624	-139.955	0.202	-0.021
-497.610	-84.781	-0.108	-0.034
-496.595	336.334	0.100	-0.195
-495.581	-159.827	-0.098	0.005
-494.566	-176.119	0.283	0.008
-493.551	-26.339	-0.075	0.044
-492.537	411.094	-0.124	-0.264
-491.522	144.344	-0.318	-0.427
-490.508	593.534	0.116	-0.287
-489.493	-106.867	-0.107	0.024
-488.478	800.000	-0.066	0.234
-487.464	800.000	-0.107	-0.300
-486.449	219.270	-0.137	-0.220
-485.435	-97.221	-0.179	-0.047
-484.420	-62.173	0.338	-0.142
-483.405	-200.000	0.007	-0.056
-482.391	800.000	0.026	-0.086
-481.376	-200.000	-0.033	0.191
-480.362	-68.502	0.339	-0.132
-479.347	-156.491	-0.262	0.016
-478.332	-41.575	-0.169	0.087
-477.318	-61.987	-0.123	-0.052
-476.303	-200.000	-0.018	0.263
-475.289	19.861	0.285	-0.230
-474.274	-125.771	0.262	0.040
-473.259	-86.520	0.141	0.044
-472.245	-113.000	0.018	0.003
-471.230	751.604	0.041	0.110
-470.216	91.498	0.243	-0.274
-469.201	226.475	-0.050	0.081
-468.186	204.902	-0.081	-0.126
-467.172	-21.364	-0.145	-0.089
-466.157	-200.000	0.044	0.196
-465.143	800.000	0.082	-0.287
-464.128	-123.331	-0.161	-0.026
-463.113	32.930	0.048	0.041
-462.099	-200.000	0.031	0.336
-461.084	-200.000	-0.015	-0.127
-460.070	-126.837	0.203	0.030
-459.055	-20.855	-0.302	-0.186
-458.040	-48.274	-0.176	0.085
-457.026	430.659	0.095	-0.206
-456.011	158.653	0.211	-0.294
-454.997	-118.473	0.115	-0.020
-453.982	90.443	-0.085	-0.095
-452.968	-200.000	-0.003	0.288
-451.953	-119.598	-0.158	0.027
-450.938	-97.645	0.266	0.069
-449.924	56.854	-0.239	-0.233
-448.909	419.281	0.141	-0.302
-447.895	-200.000	-0.035	-0.222
-446.880	-40.768	-0.383	-0.199
-445.865	-123.089	0.332	-0.053
-444.851	-200.000	0.025	0.279
-443.836	-91.837	-0.425	-0.121
-442.822	-41.807	0.393	0.202
-441.807	-89.991	-0.314	0.092
-440.792	125.614	-0.123	0.156
-439.778	-85.438	-0.038	-0.012
-438.763	-200.000	0.002	0.041
-437.749	-83.683	-0.388	0.124
-436.734	471.184	0.049	-0.110
-435.719	-9.898	-0.128	-0.085
-434.705	-136.008	-0.178	-0.021
-433.690	-111.209	-0.225	0.046
-432.676	-92.663	0.108	-0.030
-431.661	441.783	-0.096	-0.210
-430.646	-200.000	0.022	0.124
-429.632	-72.478	-0.244	0.091
-428.617	299.208	0.054	0.099
-427.603	-40.148	-0.124	0.065
-426.588	-82.036	0.190	0.062
-425.573	-200.000	-0.022	0.158
-424.559	800.000	-0.083	-0.331
-423.544	-90.431	-0.422	0.122
-422.530	8.268	-0.399	0.301
-421.515	44.648	0.119	-0.110
-420.500	-78.579	0.221	0.076
-419.486	-135.968	0.144	0.017
-418.471	49.676	-0.032	-0.030
-417.457	-42.549	0.165	-0.084
-416.442	-200.000	-0.001	-0.267
-415.428	32.491	-0.195	-0.169
-414.413	115.846	-0.035	-0.043
-413.398	-33.903	0.338	0.187
-412.384	-76.734	-0.221	0.077
-411.369	-200.000	0.063	-0.421
-410.355	129.685	-0.133	-0.170
-409.340	173.676	-0.142	0.205
-408.325	-159.284	0.221	-0.012
-407.311	800.000	0.036	0.147
-406.296	-64.744	-0.289	0.117
-405.282	800.000	-0.109	0.371
-404.267	-16.482	0.154	0.098
-403.252	148.136	0.054	-0.072
-402.238	0.358	0.114	0.082
-401.223	74.955	-0.039	0.041
-400.209	-171.683	0.511	-0.017
-399.194	10.415	-0.295	-0.225
-398.179	-44.121	-0.162	-0.081
-397.165	17.277	-0.063	-0.050
-396.150	-200.000	0.027	-0.321
-395.136	-200.000	0.036	0.426
-394.121	132.045	0.166	-0.213
-393.106	162.062	-0.225	-0.315
-392.092	111.415	0.099	-0.120
-391.077	-159.074	0.109	-0.006
-390.063	-9.309	0.188	-0.126
-389.048	-108.917	0.215	0.046
-388.033	587.766	0.113	-0.278
-387.019	-153.176	0.069	0.005
-386.004	-83.884	-0.157	0.050
-384.990	109.784	-0.208	0.250
-383.975	800.000	0.156	0.596
-382.960	-53.287	-0.054	0.025
-381.946	307.057	0.026	0.049
-380.931	-88.904	0.170	-0.050
-379.917	-200.000	-0.035	0.302
-378.902	-200.000	-0.016	0.102
-377.888	-200.000	-0.034	0.259
-376.873	-25.880	0.146	0.086
-375.858	-200.000	-0.035	0.274
-374.844	800.000	-0.031	-0.118
-373.829	-28.909	0.287	0.165
-372.815	251.402	0.042	0.072
-371.800	545.663	0.040	-0.095
-370.785	29.198	0.193	0.164
-369.771	601.456	-0.055	-0.136
-368.756	-200.000	-0.026	0.150
-367.742	-73.165	0.296	0.108
-366.727	339.638	0.108	0.211
-365.712	61.976	0.167	0.166
-364.698	800.000	0.073	0.302
-363.683	313.160	-0.183	-0.343
-362.669	319.607	0.103	-0.196
-361.654	-30.831	-0.072	0.041
-360.639	-200.000	0.008	0.279
-359.625	800.000	-0.042	0.173
-358.610	-31.815	0.324	0.181
-357.596	-155.226	0.226	0.015
-356.581	-200.000	0.037	-0.203
-355.566	-57.919	0.147	0.064
-354.552	-19.120	0.038	0.023
-353.537	276.958	0.126	0.224
-352.523	-107.189	-0.456	0.100
-351.508	-200.000	-0.002	0.145
-350.493	205.288	0.172	-0.267
-349.479	0.558	0.255	-0.182
-348.464	-90.430	-0.019	-0.006
-347.450	-103.988	-0.312	-0.073
-346.435	-27.666	0.250	-0.145
-345.420	-200.000	-0.007	0.094
-344.406	-168.568	-0.076	-0.003
-343.391	800.000	0.036	-0.101
-342.377	138.716	0.115	-0.151
-341.362	599.025	0.205	0.508
-340.348	800.000	-0.045	0.129
-339.333	-200.000	-0.010	-0.156
-338.318	-200.000	-0.001	-0.252
-337.304	-41.510	0.216	-0.111
-336.289	-62.666	0.235	0.097
-335.275	176.294	0.076	-0.110
-334.260	-38.273	0.200	0.106
-333.245	-200.000	0.013	-0.220
-332.231	-137.352	0.255	-0.029
-331.216	-27.342	0.234	0.136
-330.202	-200.000	0.000	-0.035
-329.187	-200.000	0.044	0.198
-328.172	751.467	0.102	-0.275
-327.158	92.795	-0.062	-0.070
-326.143	-13.484	0.090	0.059
-325.129	129.351	-0.298	-0.380
-324.114	63.439	-0.040	0.040
-323.099	346.834	-0.101	0.197
-322.085	800.000	-0.078	-0.274
-321.070	10.666	0.119	0.090
-320.056	206.313	-0.166	0.257
-319.041	-83.175	-0.396	0.127
-318.026	127.632	-0.058	-0.073
-317.012	800.000	-0.032	-0.097
-315.997	343.277	-0.102	-0.199
-314.983	-26.799	0.193	-0.113
-313.968	-200.000	-0.024	-0.217
-312.953	-109.178	0.157	0.033
-311.939	800.000	-0.035	0.138
-310.924	800.000	0.062	-0.182
-309.910	58.891	0.102	0.100
-308.895	-106.869	-0.143	-0.032
-307.880	-2.530	0.115	0.080
-306.866	-88.009	0.094	-0.028
-305.851	49.723	-0.049	-0.046
-304.837	447.959	-0.070	-0.155
-303.822	156.423	0.110	0.152
-302.807	-64.919	0.226	-0.091
-301.793	80.401	0.152	-0.163
-300.778	-179.391	0.470	-0.010
-299.764	-171.718	0.377	-0.012
-298.749	-72.384	-0.068	0.025
-297.735	-38.884	0.304	-0.160
-296.720	10.608	-0.074	0.056
-295.705	257.003	-0.090	-0.154
-294.691	38.996	-0.171	0.152
-293.676	468.810	-0.159	-0.357
-292.662	-200.000	-0.001	0.140
-291.647	-53.690	-0.075	0.034
-290.632	-200.000	-0.006	-0.206
-289.618	-159.696	-0.190	-0.010
-288.603	-161.009	-0.086	0.005
-287.589	800.000	-0.074	-0.223
-286.574	618.846	-0.039	0.097
-285.559	800.000	0.053	0.167
-284.545	115.982	0.099	-0.120
-283.530	47.227	0.206	0.191
-282.516	169.112	-0.140	-0.198
-281.501	-94.447	-0.195	-0.053
-280.486	321.988	-0.137	0.259
-279.472	-200.000	-0.029	0.211
-278.457	-107.558	0.183	-0.040
-277.443	-123.749	0.315	-0.050
-276.428	-29.087	0.296	0.169
-275.413	70.202	0.076	0.078
-274.399	-64.888	0.105	0.042
-273.384	800.000	-0.031	0.136
-272.370	-141.027	-0.262	-0.027
-271.355	-200.000	-0.028	0.157
-270.340	638.996	0.031	-0.079
-269.326	168.775	-0.081	-0.115
-268.311	315.131	0.107	0.200
-267.297	-47.916	-0.096	-0.046
-266.282	168.578	0.073	0.104
-265.267	165.939	0.168	-0.237
-264.253	-200.000	0.350	-0.000
-263.238	-101.419	0.183	0.044
-262.224	-200.000	-0.042	0.232
-261.209	-102.767	0.274	-0.065
-260.195	194.347	-0.020	0.030
-259.180	-68.981	0.375	-0.144
-258.165	-70.409	-0.350	0.132
-257.151	58.949	-0.153	0.150
-256.136	-111.167	-0.086	0.018
-255.122	-18.808	0.252	0.156
-254.107	-138.189	-0.137	-0.015
-253.092	147.640	0.374	0.501
-252.078	379.720	0.063	0.129
-251.063	108.687	-0.083	0.098
-250.049	139.347	0.085	0.112
-249.034	543.242	0.073	0.174
-248.019	800.000	-0.045	-0.194
-247.005	-54.908	-0.274	-0.123
-245.990	-200.000	0.014	-0.189
-244.976	76.746	0.050	-0.052
-243.961	-58.194	-0.115	0.050
-242.946	146.264	-0.169	-0.226
-241.932	-102.004	-0.187	0.045
-240.917	-200.000	0.033	-0.217
-239.903	-18.829	-0.319	-0.198
-238.888	-200.000	-0.028	0.193
-237.873	107.357	-0.171	-0.202
-236.859	43.948	0.245	0.223
-235.844	-100.099	-0.186	0.046
-234.830	65.661	0.111	-0.111
-233.815	-28.299	0.055	0.032
-232.800	-49.165	0.399	0.189
-231.786	-15.637	0.056	-0.036
-230.771	98.871	0.104	0.119
-229.757	800.000	0.060	0.183
-228.742	-85.434	-0.040	-0.012
-227.727	-3.206	-0.051	0.036
-226.713	209.561	-0.304	-0.474
-225.698	-200.000	-0.026	0.118
-224.684	172.874	0.078	0.111
-223.669	186.011	0.070	-0.104
-222.655	164.490	0.167	0.234
-221.640	-41.715	-0.174	-0.089
-220.625	542.642	-0.057	0.135
-219.611	38.899	0.133	-0.118
-218.596	-3.777	0.105	0.072
-217.582	73.625	0.131	-0.136
-216.567	89.190	-0.329	-0.365
-215.552	-27.806	-0.239	0.138
-214.538	-148.992	-0.221	-0.018
-213.523	-125.951	-0.106	-0.016
-212.509	-125.497	-0.360	-0.054
-211.494	800.000	0.023	-0.082
-210.479	-115.713	0.137	-0.026
-209.465	-198.186	-0.373	-0.002
-208.450	-83.046	0.368	-0.118
-207.436	134.781	0.181	0.234
-206.421	-25.433	0.088	0.052
-205.406	41.778	0.159	0.144
-204.392	-118.149	0.333	-0.059
-203.377	179.096	-0.132	0.192
-202.363	-39.660	0.169	-0.088
-201.348	-200.000	-0.017	-0.331
-200.333	-20.711	-0.214	0.130
-199.319	469.428	-0.228	0.508
-198.304	178.507	-0.195	0.282
-197.290	174.802	-0.084	0.120
-196.275	268.894	0.115	0.200
-195.260	218.599	-0.090	0.142
-194.246	-200.000	-0.011	0.060
-193.231	98.850	0.112	-0.128
-192.217	-68.056	-0.134	-0.052
-191.202	-67.495	0.216	-0.084
-190.187	-126.909	0.331	0.048
-189.173	-67.977	-0.135	-0.052
-188.158	-87.657	0.458	-0.137
-187.144	43.297	-0.220	-0.199
-186.129	800.000	-0.025	0.098
-185.114	103.457	0.121	-0.141
-184.100	44.171	0.191	0.174
-183.085	-200.000	-0.022	-0.304
-182.071	-119.511	0.099	0.017
-181.056	-200.000	-0.025	0.162
-180.042	800.000	-0.054	-0.158
-179.027	96.904	0.048	-0.054
-178.012	-133.042	-0.255	-0.032
-176.998	-98.431	0.076	0.019
-175.983	-144.927	-0.102	-0.009
-174.969	-200.000	0.015	0.203
-173.954	-100.925	-0.131	0.032
-172.939	-74.174	0.222	0.080
-171.925	107.517	0.083	0.098
-170.910	-200.000	0.006	-0.062
-169.896	9.828	-0.081	-0.061
-168.881	547.366	-0.073	-0.173
-167.866	-12.769	0.182	-0.118
-166.852	417.105	-0.078	-0.165
-165.837	-102.460	-0.238	-0.057
-164.823	-39.257	0.028	-0.015
-163.808	131.857	0.315	0.402
-162.793	277.426	-0.134	0.236
-161.779	-200.000	0.093	0.462
-160.764	526.587	0.166	0.389
-159.750	-47.529	0.243	0.117
-158.735	412.455	0.098	-0.207
-157.720	-200.000	-0.069	0.411
-156.706	-80.863	-0.238	0.078
-155.691	-138.531	-0.204	0.022
-154.677	-200.000	-0.006	-0.064
-153.662	-34.727	-0.352	-0.191
-152.647	800.000	0.087	-0.354
-151.633	-165.017	-0.072	-0.003
-150.618	-183.714	0.389	0.007
-149.604	-90.481	0.109	0.031
-148.589	96.110	0.071	-0.080
-147.574	-94.441	0.148	0.040
-146.560	215.927	0.109	0.172
-145.545	-109.186	-0.212	-0.045
-144.531	-7.281	0.315	0.212
-143.516	-31.902	0.093	0.052
-142.502	41.547	0.445	0.399
-141.487	21.665	0.287	0.232
-140.472	-112.748	-0.253	-0.050
-139.458	127.667	0.093	-0.117
-138.443	706.014	-0.130	0.340
-137.429	64.650	0.081	-0.081
-136.414	800.000	0.092	0.258
-135.399	-128.283	0.369	0.052
-134.385	-142.865	-0.064	0.006
-133.370	-200.000	-0.020	-0.179
-132.356	800.000	-0.034	-0.149
-131.341	-149.685	-0.056	-0.004
-130.326	-200.000	-0.043	0.244
-129.312	478.594	0.070	0.156
-128.297	-60.608	0.106	0.044
-127.283	60.363	-0.081	-0.079
-126.268	1.856	-0.052	0.037
-125.253	-22.279	0.186	0.112
-124.239	480.581	0.053	-0.119
-123.224	-153.568	-0.103	0.007
