DTS Sentinel unit serial number:	SN413079Multiplexer serial number:	ORYXHardware model number:	OX4-SRSoftware version number:	ORYX F/W v4.00 Oryx Data Collector v3.7.2.0data status	okinstallation	princeton_trtdifferential loss correction	single-endedforward channel	channel 4reverse channel	N/Adate	2019/09/11time	08:51:10forward acquisition time	60.00reverse acquisition time	0.00gamma	496.2192k internal	0.2301k external	0.2301temperature offset calibration	0.9968default loss term (dB/km)	0.3790temperature slope calibration	1.0000multiplexer offset coefficient	1.0000multiplexer slope coefficient	1.0000fibre end	0.00T internal ref (°C)	33.86T ext. ref 1 (°C)	0.09T ext. ref 2 (°C)	31.23length (m)	temperature (°C)	Stokes	anti-Stokes-747.200	-200.000	-0.026	0.157
-746.185	283.976	-0.013	0.024
-745.171	800.000	-0.125	-0.394
-744.156	-199.494	-0.307	-0.002
-743.142	-102.708	0.289	-0.070
-742.127	107.220	0.275	0.334
-741.112	1.658	0.312	-0.229
-740.098	167.070	0.212	0.307
-739.083	82.030	0.122	-0.135
-738.069	-30.367	0.161	0.093
-737.054	-174.012	-0.567	0.017
-736.039	6.269	-0.144	-0.109
-735.025	800.000	0.095	0.275
-734.010	605.263	-0.105	-0.267
-732.996	-125.814	-0.075	0.011
-731.981	154.414	-0.177	-0.247
-730.966	-166.898	-0.168	0.007
-729.952	-2.943	-0.314	-0.223
-728.937	464.328	-0.143	-0.326
-727.923	800.000	-0.105	-0.371
-726.908	-34.965	-0.230	0.128
-725.894	-200.000	0.100	-0.504
-724.879	-53.596	-0.147	-0.068
-723.864	236.803	0.097	-0.164
-722.850	172.355	0.251	0.368
-721.835	118.878	0.185	0.233
-720.821	750.961	0.071	0.196
-719.806	-106.859	-0.151	-0.034
-718.791	22.774	-0.250	0.209
-717.777	132.806	-0.126	0.165
-716.762	48.814	0.069	-0.066
-715.748	107.408	0.221	-0.268
-714.733	-200.000	-0.033	-0.194
-713.718	131.352	-0.161	0.211
-712.704	-200.000	-0.031	-0.183
-711.689	661.630	0.059	-0.154
-710.675	273.860	0.134	0.242
-709.660	27.667	0.226	0.194
-708.645	800.000	0.100	-0.323
-707.631	-200.000	-0.028	0.160
-706.616	-70.539	0.014	-0.006
-705.602	-12.552	-0.179	-0.119
-704.587	800.000	-0.161	-0.545
-703.572	800.000	-0.118	-0.409
-702.558	-90.104	-0.300	-0.089
-701.543	-151.719	0.154	-0.012
-700.529	90.327	-0.173	0.197
-699.514	-151.058	-0.248	0.019
-698.499	-80.387	-0.135	0.046
-697.485	-13.824	0.149	0.098
-696.470	84.619	0.059	-0.065
-695.456	-119.046	-0.661	-0.118
-694.441	183.399	-0.131	0.198
-693.426	-200.000	0.008	0.376
-692.412	94.275	-0.156	-0.181
-691.397	-200.000	0.016	-0.152
-690.383	-181.907	0.211	0.004
-689.368	-80.412	-0.215	-0.073
-688.354	138.495	-0.132	-0.176
-687.339	-3.535	0.347	-0.246
-686.324	107.302	0.178	-0.215
-685.310	-6.065	-0.155	-0.108
-684.295	64.780	0.029	0.030
-683.281	246.792	0.036	-0.062
-682.266	-55.222	0.196	0.090
-681.251	66.892	-0.085	0.088
-680.237	-118.011	-0.230	-0.042
-679.222	-200.000	0.020	-0.324
-678.208	800.000	0.068	0.257
-677.193	150.285	-0.088	-0.122
-676.178	-142.885	-0.226	-0.022
-675.164	480.253	0.032	-0.075
-674.149	301.918	0.111	-0.209
-673.135	86.852	-0.147	-0.165
-672.120	-95.386	-0.238	-0.065
-671.105	40.495	-0.231	-0.212
-670.091	282.995	-0.036	0.066
-669.076	233.908	0.100	-0.168
-668.062	-69.344	0.187	-0.073
-667.047	640.389	0.014	0.036
-666.032	-63.572	-0.404	0.169
-665.018	93.884	-0.109	-0.126
-664.003	-136.293	-0.219	-0.026
-662.989	37.909	-0.308	0.278
-661.974	580.824	-0.133	0.332
-660.959	-200.000	0.013	0.345
-659.945	-33.390	-0.216	0.122
-658.930	607.291	0.184	-0.466
-657.916	-200.000	-0.034	0.194
-656.901	-200.000	-0.046	0.310
-655.886	143.917	0.047	-0.064
-654.872	-90.217	-0.336	-0.099
-653.857	-134.474	-0.178	0.022
-652.843	-112.409	-0.266	-0.054
-651.828	-2.539	-0.107	-0.076
-650.814	18.427	0.261	0.212
-649.799	-94.062	-0.301	0.084
-648.784	-53.772	0.148	-0.068
-647.770	327.515	0.032	-0.062
-646.755	146.299	-0.130	0.177
-645.741	800.000	0.024	-0.100
-644.726	800.000	0.042	-0.154
-643.711	-173.120	-0.173	-0.005
-642.697	-76.472	-0.047	-0.017
-641.682	37.684	-0.214	0.193
-640.668	209.134	0.184	0.293
-639.653	-200.000	0.031	-0.188
-638.638	231.666	0.051	-0.085
-637.624	29.558	0.070	-0.061
-636.609	-200.000	0.004	-0.118
-635.595	-68.369	-0.105	-0.041
-634.580	-51.751	-0.083	0.039
-633.565	800.000	-0.064	-0.278
-632.551	-200.000	-0.022	0.310
-631.536	-73.540	0.189	-0.070
-630.522	47.528	-0.098	-0.093
-629.507	184.554	-0.051	0.076
-628.492	-112.077	0.171	0.035
-627.478	-68.112	-0.614	-0.243
-626.463	-23.646	0.163	0.099
-625.449	-15.322	0.201	0.130
-624.434	800.000	-0.137	-0.480
-623.419	77.351	-0.076	0.082
-622.405	-200.000	0.042	0.328
-621.390	84.149	0.116	-0.129
-620.376	233.993	0.078	-0.130
-619.361	142.245	-0.176	-0.237
-618.346	-75.516	0.035	0.013
-617.332	800.000	-0.013	0.048
-616.317	-69.605	-0.243	-0.094
-615.303	-200.000	0.086	-0.389
-614.288	-70.562	-0.209	-0.080
-613.273	202.454	0.067	-0.104
-612.259	188.508	-0.180	0.273
-611.244	-200.000	0.010	-0.076
-610.230	-3.515	0.095	-0.067
-609.215	133.031	0.166	-0.217
-608.201	151.262	0.092	-0.127
-607.186	-93.673	0.251	0.070
-606.171	-153.693	-0.108	-0.008
-605.157	310.118	-0.051	0.096
-604.142	-14.833	0.106	-0.069
-603.128	-63.627	-0.196	-0.081
-602.113	265.580	0.159	-0.281
-601.098	136.240	0.165	-0.218
-600.084	239.272	0.030	-0.050
-599.069	7.533	0.287	-0.218
-598.055	-44.597	0.386	0.196
-597.040	-98.674	-0.050	0.013
-596.025	-16.367	0.021	0.013
-595.011	48.913	-0.068	-0.065
-593.996	800.000	0.089	-0.392
-592.982	110.161	0.214	-0.260
-591.967	-33.932	-0.348	-0.194
-590.952	10.326	0.099	-0.076
-589.938	-16.702	0.147	0.094
-588.923	-200.000	0.032	0.273
-587.909	-141.787	0.220	0.022
-586.894	108.195	0.075	-0.090
-585.879	800.000	-0.036	0.143
-584.865	-200.000	0.021	0.149
-583.850	0.216	0.204	-0.147
-582.836	-94.574	0.175	-0.048
-581.821	-57.958	-0.266	-0.118
-580.806	-200.000	0.004	0.256
-579.792	-200.000	0.006	0.101
-578.777	43.570	-0.132	-0.122
-577.763	723.062	-0.065	-0.175
-576.748	249.683	0.034	-0.058
-575.733	305.935	-0.112	0.212
-574.719	-104.994	-0.363	0.084
-573.704	800.000	0.102	0.319
-572.690	-200.000	0.004	0.189
-571.675	226.860	-0.141	0.233
-570.661	-64.164	0.205	0.085
-569.646	39.986	-0.125	0.114
-568.631	-89.448	-0.222	-0.066
-567.617	278.116	0.016	-0.029
-566.602	26.382	0.071	0.060
-565.588	-200.000	-0.027	0.346
-564.573	-12.266	-0.099	-0.066
-563.558	800.000	0.082	-0.312
-562.544	200.945	0.340	0.530
-561.529	-118.111	-0.198	-0.036
-560.515	-200.000	-0.088	-0.403
-559.500	148.707	0.176	-0.241
-558.485	-171.225	-0.124	0.004
-557.471	-200.000	0.013	-0.287
-556.456	-60.058	-0.202	0.087
-555.442	541.031	-0.099	0.239
-554.427	761.478	0.062	-0.170
-553.412	425.841	0.044	0.095
-552.398	93.152	0.019	-0.021
-551.383	-7.049	-0.117	0.080
-550.369	-200.000	0.001	0.038
-549.354	-58.225	-0.110	0.049
-548.339	175.195	0.062	0.092
-547.325	29.464	-0.045	0.039
-546.310	-200.000	-0.040	-0.243
-545.296	-200.000	0.038	-0.197
-544.281	-62.849	-0.245	-0.103
-543.266	-87.787	0.426	0.130
-542.252	-137.019	-0.229	-0.026
-541.237	268.904	0.354	0.627
-540.223	-97.884	0.059	0.015
-539.208	12.387	0.132	0.103
-538.193	-200.000	0.040	-0.191
-537.179	800.000	0.057	-0.220
-536.164	271.734	-0.216	-0.385
-535.150	-115.271	-0.065	0.012
-534.135	-16.950	-0.140	-0.089
-533.121	800.000	-0.048	0.161
-532.106	-200.000	-0.004	-0.031
-531.091	-200.000	0.022	0.112
-530.077	-92.763	0.459	-0.130
-529.062	-20.710	-0.358	0.222
-528.048	800.000	-0.076	0.264
-527.033	-20.922	0.212	-0.132
-526.018	-38.343	0.262	0.140
-525.004	-200.000	-0.020	-0.099
-523.989	298.430	-0.151	0.282
-522.975	-35.356	-0.352	0.193
-521.960	800.000	-0.045	-0.165
-520.945	165.307	-0.182	0.260
-519.931	2.681	0.241	0.176
-518.916	151.433	-0.010	-0.014
-517.902	-75.141	-0.047	0.017
-516.887	800.000	-0.077	0.221
-515.872	800.000	-0.165	0.495
-514.858	-200.000	0.036	0.274
-513.843	-108.700	-0.501	-0.108
-512.829	-159.544	-0.214	-0.012
-511.814	800.000	0.014	-0.050
-510.799	564.938	0.119	0.290
-509.785	23.256	-0.134	0.112
-508.770	549.673	-0.068	-0.164
-507.756	95.238	-0.254	-0.292
-506.741	220.162	0.110	0.178
-505.726	306.465	0.025	0.047
-504.712	-200.000	0.011	0.126
-503.697	-45.324	-0.134	0.067
-502.683	113.216	-0.301	0.368
-501.668	-19.447	-0.290	0.181
-500.653	800.000	0.092	0.306
-499.639	-58.177	0.150	0.066
-498.624	-200.000	0.040	0.508
-497.610	-91.817	-0.174	0.050
-496.595	164.660	-0.219	-0.312
-495.581	-73.240	-0.183	-0.068
-494.566	-21.374	-0.072	0.044
-493.551	481.592	0.080	0.184
-492.537	277.812	0.083	-0.149
-491.522	800.000	-0.065	0.196
-490.508	-28.714	-0.436	-0.253
-489.493	337.802	-0.162	-0.318
-488.478	39.072	0.129	-0.116
-487.464	-116.036	-0.163	0.031
-486.449	800.000	0.050	0.205
-485.435	-74.538	0.169	0.061
-484.420	5.537	0.414	0.308
-483.405	-200.000	0.003	0.211
-482.391	-51.878	-0.233	-0.109
-481.376	58.108	0.115	-0.114
-480.362	-62.685	0.342	0.143
-479.347	-143.984	0.226	0.021
-478.332	210.798	0.277	-0.440
-477.318	555.037	0.070	-0.170
-476.303	-64.260	-0.266	-0.109
-475.289	-120.366	-0.300	-0.052
-474.274	-200.000	-0.026	-0.168
-473.259	-82.892	-0.046	0.015
-472.245	-82.614	-0.149	0.049
-471.230	396.076	-0.055	-0.115
-470.216	212.427	-0.177	-0.281
-469.201	-144.556	0.287	0.027
-468.186	-165.725	-0.238	-0.010
-467.172	438.972	0.082	0.180
-466.157	-200.000	-0.036	-0.270
-465.143	800.000	0.087	-0.245
-464.128	-90.860	0.279	-0.081
-463.113	-200.000	-0.004	0.045
-462.099	-130.962	-0.140	0.019
-461.084	22.436	-0.130	0.107
-460.070	320.557	0.060	-0.115
-459.055	800.000	-0.042	-0.130
-458.040	-32.399	-0.118	-0.066
-457.026	133.444	-0.179	0.233
-456.011	-76.172	-0.165	0.059
-454.997	-158.416	-0.333	0.019
-453.982	791.402	0.040	0.111
-452.968	107.685	-0.140	-0.168
-451.953	-51.907	0.075	0.035
-450.938	529.503	-0.039	-0.094
-449.924	-103.714	-0.200	-0.047
-448.909	-75.928	-0.240	-0.086
-447.895	-75.196	-0.225	0.081
-446.880	-49.506	0.140	-0.067
-445.865	-45.248	-0.089	0.044
-444.851	171.682	0.171	-0.248
-443.836	46.882	-0.266	-0.249
-442.822	-111.821	0.260	-0.053
-441.807	-14.652	-0.080	-0.052
-440.792	-54.211	0.283	-0.129
-439.778	-117.970	0.174	0.031
-438.763	-200.000	0.092	-0.493
-437.749	78.603	0.451	-0.486
-436.734	-18.504	-0.433	0.272
-435.719	-114.597	-0.233	-0.045
-434.705	234.652	-0.046	0.077
-433.690	-112.377	0.121	-0.024
-432.676	-200.000	0.043	0.209
-431.661	800.000	0.062	-0.250
-430.646	-94.920	-0.169	-0.046
-429.632	162.993	0.210	0.298
-428.617	131.651	0.101	0.130
-427.603	-184.787	0.313	-0.005
-426.588	-200.000	-0.001	0.147
-425.573	-102.712	-0.117	-0.028
-424.559	-63.505	-0.294	0.122
-423.544	-120.588	-0.104	0.018
-422.530	800.000	-0.035	0.103
-421.515	800.000	-0.061	0.234
-420.500	722.018	0.068	0.181
-419.486	4.574	0.183	-0.135
-418.471	-105.565	0.363	0.083
-417.457	-32.437	-0.145	-0.082
-416.442	-143.546	0.128	-0.012
-415.428	-30.527	-0.061	0.035
-414.413	-200.000	-0.007	0.050
-413.398	-200.000	0.028	0.138
-412.384	800.000	-0.035	-0.131
-411.369	8.639	0.062	-0.047
-410.355	342.149	0.147	0.289
-409.340	-52.972	-0.364	-0.169
-408.325	143.074	0.110	0.147
-407.311	-82.233	-0.252	0.083
-406.296	-105.076	-0.400	0.092
-405.282	40.995	0.195	-0.177
-404.267	414.920	-0.132	-0.284
-403.252	136.172	-0.225	-0.295
-402.238	-200.000	-0.072	-0.367
-401.223	-167.257	-0.124	-0.005
-400.209	7.150	0.006	-0.005
-399.194	683.612	-0.079	-0.206
-398.179	-58.175	0.236	0.103
-397.165	-200.000	0.004	-0.092
-396.150	-200.000	-0.010	0.284
-395.136	157.674	-0.168	0.235
-394.121	-104.101	-0.432	0.101
-393.106	-90.450	-0.339	-0.099
-392.092	800.000	-0.081	0.309
-391.077	-156.738	0.065	0.004
-390.063	-72.631	-0.230	0.085
-389.048	570.554	0.036	0.088
-388.033	167.022	-0.027	-0.038
-387.019	224.522	0.026	-0.043
-386.004	-200.000	-0.017	0.379
-384.990	210.669	0.096	0.152
-383.975	624.134	-0.145	0.368
-382.960	-145.789	0.204	0.018
-381.946	32.097	0.153	0.133
-380.931	-0.107	0.177	0.127
-379.917	-42.979	-0.282	-0.144
-378.902	-200.000	0.010	-0.128
-377.888	-101.973	0.142	-0.034
-376.873	800.000	-0.029	-0.110
-375.858	44.738	0.151	0.139
-374.844	33.731	-0.114	-0.099
-373.829	-109.472	0.283	0.060
-372.815	-200.000	-0.072	0.456
-371.800	-75.572	-0.191	0.068
-370.785	161.314	0.116	-0.163
-369.771	-29.741	0.176	-0.101
-368.756	-6.083	0.064	-0.044
-367.742	336.409	0.060	-0.117
-366.727	-200.000	0.022	-0.178
-365.712	-145.257	0.055	-0.005
-364.698	26.061	0.280	-0.235
-363.683	506.448	-0.064	0.150
-362.669	53.792	0.074	-0.071
-361.654	145.654	-0.022	-0.029
-360.639	-200.000	-0.086	-0.447
-359.625	703.972	0.073	-0.192
-358.610	-118.304	-0.205	0.037
-357.596	-48.390	0.207	0.100
-356.581	115.478	-0.076	-0.093
-355.566	800.000	-0.044	0.131
-354.552	34.270	-0.146	0.128
-353.537	-53.517	0.147	0.067
-352.523	-200.000	0.010	-0.112
-351.508	-25.578	-0.430	-0.255
-350.493	90.421	0.228	-0.256
-349.479	328.379	0.130	-0.250
-348.464	-114.073	-0.060	0.012
-347.450	-200.000	0.003	-0.242
-346.435	54.262	0.037	0.036
-345.420	-122.742	0.225	0.037
-344.406	-20.227	0.154	0.095
-343.391	-85.567	-0.297	-0.093
-342.377	29.267	-0.212	0.181
-341.362	-11.497	0.271	0.179
-340.348	107.750	0.052	-0.062
-339.333	246.105	-0.046	-0.078
-338.318	-167.792	-0.108	-0.004
-337.304	-36.522	0.096	-0.052
-336.289	-3.886	0.050	0.035
-335.275	40.649	-0.245	-0.222
-334.260	-200.000	-0.002	-0.059
-333.245	-65.625	0.162	0.065
-332.231	36.579	0.317	0.281
-331.216	184.465	0.075	0.112
-330.202	-93.399	-0.296	-0.082
-329.187	-99.155	-0.160	0.041
-328.172	469.879	-0.132	-0.299
-327.158	-95.559	-0.349	0.094
-326.143	711.036	0.047	-0.125
-325.129	-23.019	0.216	0.131
-324.114	717.956	-0.170	-0.453
-323.099	85.737	0.182	-0.201
-322.085	-169.103	0.239	0.009
-321.070	-200.000	0.042	-0.282
-320.056	-80.821	-0.199	-0.066
-319.041	244.363	0.171	0.288
-318.026	166.453	-0.122	0.174
-317.012	238.138	0.045	0.074
-315.997	-165.546	0.153	0.007
-314.983	-200.000	-0.039	-0.328
-313.968	529.474	0.166	0.393
-312.953	-128.730	0.069	0.010
-311.939	-200.000	0.009	0.184
-310.924	-74.001	-0.132	-0.048
-309.910	53.730	0.216	0.208
-308.895	-200.000	0.022	-0.180
-307.880	-90.972	0.191	-0.055
-306.866	-20.765	-0.056	-0.035
-305.851	-127.745	0.167	0.024
-304.837	-135.135	0.425	0.051
-303.822	-17.036	0.087	-0.055
-302.807	-93.496	0.134	0.037
-301.793	-200.000	-0.050	0.300
-300.778	5.225	0.168	-0.124
-299.764	-102.944	0.085	-0.020
-298.749	-200.000	-0.028	-0.363
-297.735	714.367	-0.037	-0.098
-296.720	-200.000	-0.013	0.359
-295.705	800.000	0.041	0.170
-294.691	24.837	0.059	0.049
-293.676	800.000	0.059	-0.169
-292.662	800.000	-0.055	0.215
-291.647	-105.668	0.216	0.049
-290.632	-101.422	0.350	-0.085
-289.618	92.955	-0.220	0.249
-288.603	369.485	0.075	0.152
-287.589	-86.762	0.375	0.115
-286.574	-17.842	0.223	-0.140
-285.559	-58.196	0.274	-0.119
-284.545	279.855	-0.098	0.176
-283.530	320.799	0.154	-0.294
-282.516	800.000	-0.073	0.208
-281.501	58.977	-0.053	0.052
-280.486	428.347	0.108	0.234
-279.472	1.827	-0.350	-0.253
-278.457	-23.669	0.062	-0.037
-277.443	110.087	-0.241	0.289
-276.428	-58.360	-0.118	0.051
-275.413	526.973	0.033	0.078
-274.399	-52.267	-0.423	0.196
-273.384	-107.710	0.206	-0.045
-272.370	107.890	-0.252	-0.301
-271.355	-108.927	-0.140	0.030
-270.340	457.886	0.081	0.179
-269.326	800.000	0.098	0.274
-268.311	284.120	-0.050	0.091
-267.297	-200.000	-0.026	-0.224
-266.282	219.207	-0.033	-0.053
-265.267	163.354	-0.216	-0.304
-264.253	-200.000	-0.033	-0.232
-263.238	248.546	-0.063	-0.107
-262.224	147.916	0.085	0.115
-261.209	80.251	-0.158	-0.170
-260.195	-188.251	-0.310	0.004
-259.180	-191.802	-0.196	0.002
-258.165	-52.882	0.357	-0.165
-257.151	84.839	0.066	0.072
-256.136	361.971	0.066	0.133
-255.122	264.670	0.056	-0.097
-254.107	204.167	0.120	0.185
-253.092	-194.528	0.094	0.001
-252.078	302.354	0.253	0.467
-251.063	-92.663	0.234	-0.066
-250.049	-200.000	-0.011	0.255
-249.034	109.402	0.102	0.123
-248.019	-156.590	0.199	-0.012
-247.005	127.064	-0.114	0.145
-245.990	253.257	-0.056	-0.096
-244.976	-66.540	-0.173	0.068
-243.961	-134.880	0.214	-0.026
-242.946	123.286	0.103	0.130
-241.932	23.006	0.128	0.105
-240.917	-121.930	0.123	0.020
-239.903	419.623	0.098	-0.210
-238.888	-200.000	0.022	-0.212
-237.873	800.000	0.057	-0.221
-236.859	-200.000	-0.007	0.155
-235.844	111.882	-0.235	0.284
-234.830	-200.000	0.031	0.163
-233.815	-156.423	0.272	0.017
-232.800	-116.214	0.180	0.033
-231.786	644.329	-0.226	-0.576
-230.771	282.507	0.131	-0.235
-229.757	-22.596	0.068	0.041
-228.742	-200.000	0.200	-0.000
-227.727	-79.871	-0.277	0.093
-226.713	-2.338	-0.010	-0.007
-225.698	-66.107	0.329	0.131
-224.684	42.540	0.227	0.207
-223.669	34.615	-0.076	-0.066
-222.655	800.000	-0.069	0.208
-221.640	800.000	-0.082	0.236
-220.625	800.000	-0.070	-0.273
-219.611	-59.976	-0.331	0.141
-218.596	-73.758	-0.448	-0.163
-217.582	-65.538	0.087	-0.035
-216.567	190.726	0.015	-0.022
-215.552	-200.000	0.005	0.082
-214.538	-200.000	0.031	0.173
-213.523	-84.137	-0.133	-0.042
-212.509	374.937	0.145	0.294
-211.494	800.000	-0.099	-0.300
-210.479	-200.000	0.057	0.292
-209.465	-101.627	-0.053	-0.013
-208.450	558.622	-0.085	0.205
-207.436	-200.000	0.015	0.226
-206.421	-184.983	-0.348	-0.005
-205.406	480.219	0.002	0.004
-204.392	-41.599	-0.285	-0.146
-203.377	-200.000	0.012	0.180
-202.363	-131.792	-0.293	-0.038
-201.348	179.061	0.145	-0.212
-200.333	-31.467	0.172	0.097
-199.319	314.956	-0.083	-0.157
-198.304	-200.000	-0.044	0.193
-197.290	70.735	0.145	-0.149
-196.275	-200.000	-0.084	0.487
-195.260	-47.897	-0.292	0.141
-194.246	-190.871	0.141	-0.001
-193.231	768.405	-0.061	0.165
-192.217	-70.407	0.127	-0.048
-191.202	-80.222	0.178	-0.060
-190.187	800.000	0.076	-0.311
-189.173	120.787	0.138	0.171
-188.158	148.040	-0.092	-0.123
-187.144	-200.000	-0.031	0.192
-186.129	-7.509	0.164	-0.111
-185.114	-146.086	0.205	-0.018
-184.100	-104.682	-0.104	-0.024
-183.085	-200.000	0.433	0.002
-182.071	111.436	0.150	0.181
-181.056	-145.410	-0.113	0.010
-180.042	-67.541	0.222	-0.087
-179.027	284.025	-0.042	-0.075
-178.012	220.701	-0.187	-0.299
-176.998	-200.000	0.018	0.224
-175.983	-49.757	0.252	0.119
-174.969	-66.608	0.110	-0.044
-173.954	509.992	0.190	-0.440
-172.939	-200.000	-0.063	-0.347
-171.925	140.073	-0.241	0.317
-170.910	-76.546	0.386	-0.135
-169.896	800.000	0.024	-0.080
-168.881	-140.375	-0.451	-0.047
-167.866	95.468	-0.124	-0.141
-166.852	79.166	0.096	0.103
-165.837	-117.991	0.229	-0.041
-164.823	-191.551	0.274	-0.003
-163.808	209.119	-0.113	-0.176
-162.793	800.000	-0.064	-0.236
-161.779	-147.619	0.193	0.016
-160.764	315.132	-0.164	-0.307
-159.750	250.622	-0.085	-0.144
-158.735	-51.731	0.075	-0.035
-157.720	-47.310	-0.112	-0.055
-156.706	-106.120	0.230	0.051
-155.691	-200.000	-0.022	-0.338
-154.677	138.193	0.070	-0.091
-153.662	676.111	0.058	0.151
-152.647	18.078	0.326	0.259
-151.633	37.111	0.184	0.162
-150.618	-56.967	-0.182	-0.080
-149.604	207.796	0.095	-0.148
-148.589	-117.857	0.189	-0.034
-147.574	42.766	-0.119	0.108
-146.560	-200.000	-0.034	0.395
-145.545	-94.323	0.332	0.090
-144.531	25.650	0.373	-0.309
-143.516	77.969	-0.023	-0.024
-142.502	52.053	-0.076	-0.072
-141.487	-57.442	-0.456	0.199
-140.472	800.000	0.061	-0.255
-139.458	180.804	-0.125	-0.183
-138.443	-200.000	-0.007	0.405
-137.429	46.946	0.063	-0.058
-136.414	-92.884	-0.272	-0.076
-135.399	497.153	0.045	0.103
-134.385	-200.000	0.014	-0.163
-133.370	-102.362	-0.142	0.034
-132.356	-200.000	0.058	-0.348
-131.341	141.057	0.077	-0.101
-130.326	-200.000	0.032	0.276
-129.312	-16.837	-0.030	0.019
-128.297	-200.000	-0.037	-0.304
-127.283	-194.117	-0.507	-0.004
-126.268	-43.454	0.209	0.105
-125.253	47.955	0.149	0.139
-124.239	500.690	0.136	-0.312
-123.224	-23.727	-0.377	0.225
-122.210	291.602	0.103	0.186
