DTS Sentinel unit serial number:	SN413079Multiplexer serial number:	ORYXHardware model number:	OX4-SRSoftware version number:	ORYX F/W v4.00 Oryx Data Collector v3.7.2.0data status	okinstallation	princeton_trtdifferential loss correction	single-endedforward channel	channel 4reverse channel	N/Adate	2019/09/10time	17:51:11forward acquisition time	60.00reverse acquisition time	0.00gamma	496.2192k internal	0.2298k external	0.2298temperature offset calibration	0.9938default loss term (dB/km)	0.3790temperature slope calibration	1.0000multiplexer offset coefficient	1.0000multiplexer slope coefficient	1.0000fibre end	0.00T internal ref (°C)	37.41T ext. ref 1 (°C)	-0.39T ext. ref 2 (°C)	30.04length (m)	temperature (°C)	Stokes	anti-Stokes-747.200	-200.000	-0.005	0.051
-746.185	-113.963	-0.092	-0.018
-745.171	-200.000	0.052	-0.241
-744.156	-3.054	-0.127	-0.091
-743.142	-54.698	-0.216	0.100
-742.127	-200.000	0.093	0.549
-741.112	-36.177	0.178	-0.098
-740.098	-17.082	-0.225	-0.145
-739.083	639.399	0.028	-0.074
-738.069	84.132	0.152	0.170
-737.054	188.362	0.069	-0.105
-736.039	-120.038	-0.345	0.060
-735.025	-200.000	0.027	0.165
-734.010	12.919	0.317	0.250
-732.996	226.180	0.183	-0.302
-731.981	800.000	-0.139	-0.422
-730.966	-154.045	0.524	0.036
-729.952	-168.168	-0.407	0.016
-728.937	-92.426	0.138	-0.040
-727.923	197.702	-0.065	-0.101
-726.908	800.000	0.086	0.330
-725.894	44.900	-0.220	0.207
-724.879	-122.689	-0.154	-0.025
-723.864	-200.000	0.034	-0.520
-722.850	-200.000	-0.040	-0.202
-721.835	-76.770	0.179	0.064
-720.821	188.498	-0.045	-0.068
-719.806	-200.000	0.005	-0.237
-718.791	-75.692	0.140	0.051
-717.777	-43.947	-0.174	-0.089
-716.762	435.438	-0.054	0.120
-715.748	200.884	-0.200	0.314
-714.733	-157.886	-0.457	0.028
-713.718	-85.009	-0.169	0.054
-712.704	106.400	0.174	0.211
-711.689	-45.536	0.131	0.066
-710.675	-200.000	0.008	-0.101
-709.660	-94.708	-0.045	-0.013
-708.645	-55.441	0.161	0.073
-707.631	-40.362	-0.470	-0.249
-706.616	-200.000	0.008	-0.210
-705.602	-135.715	-0.170	-0.021
-704.587	800.000	-0.084	0.253
-703.572	649.531	-0.071	-0.185
-702.558	-52.249	0.163	0.077
-701.543	-200.000	-0.011	-0.162
-700.529	-200.000	0.017	0.107
-699.514	-200.000	-0.029	-0.337
-698.499	391.552	-0.162	0.343
-697.485	15.191	-0.089	0.071
-696.470	184.698	-0.155	-0.235
-695.456	34.467	-0.169	-0.150
-694.441	53.967	-0.144	0.141
-693.426	-200.000	0.036	-0.301
-692.412	-200.000	-0.041	0.217
-691.397	79.847	-0.095	-0.104
-690.383	369.320	-0.054	-0.111
-689.368	20.311	-0.105	-0.086
-688.354	81.746	-0.147	0.163
-687.339	289.597	0.119	0.219
-686.324	-101.152	0.009	0.002
-685.310	-37.936	-0.186	0.101
-684.295	800.000	-0.101	-0.299
-683.281	800.000	-0.068	-0.218
-682.266	573.212	-0.086	-0.213
-681.251	103.744	-0.051	0.062
-680.237	-137.175	0.217	-0.025
-679.222	-120.165	0.522	-0.091
-678.208	-27.936	-0.086	0.051
-677.193	454.412	0.161	0.362
-676.178	-58.768	0.448	-0.197
-675.164	-200.000	-0.009	-0.235
-674.149	-200.000	0.282	0.001
-673.135	6.382	-0.078	0.059
-672.120	109.434	0.224	-0.273
-671.105	-200.000	0.022	-0.361
-670.091	800.000	-0.074	-0.217
-669.076	-65.135	-0.233	0.096
-668.062	-64.977	0.171	-0.070
-667.047	-200.000	0.016	0.182
-666.032	18.064	-0.247	-0.200
-665.018	166.665	-0.194	-0.280
-664.003	-57.489	0.256	-0.114
-662.989	38.002	0.250	-0.227
-661.974	800.000	0.023	0.089
-660.959	38.120	-0.351	0.317
-659.945	-200.000	-0.026	-0.206
-658.930	-101.566	0.081	0.020
-657.916	152.499	-0.217	0.301
-656.901	8.198	-0.096	0.073
-655.886	-163.470	0.370	0.018
-654.872	-156.349	-0.067	0.004
-653.857	33.779	0.162	-0.143
-652.843	795.520	0.026	0.073
-651.828	214.138	-0.083	-0.134
-650.814	-97.988	0.305	-0.080
-649.799	-82.344	-0.253	0.084
-648.784	499.205	-0.057	-0.134
-647.770	-200.000	-0.033	-0.322
-646.755	-179.231	0.254	0.006
-645.741	8.555	-0.214	0.164
-644.726	-134.110	-0.219	-0.028
-643.711	-153.529	-0.092	0.006
-642.697	-32.095	-0.248	-0.141
-641.682	281.184	0.111	-0.201
-640.668	-126.649	-0.158	-0.024
-639.653	95.601	0.167	-0.193
-638.638	-140.329	-0.232	-0.025
-637.624	-50.157	-0.232	0.112
-636.609	343.664	0.024	0.047
-635.595	-99.305	-0.301	-0.077
-634.580	-60.557	-0.246	-0.106
-633.565	160.896	0.065	0.093
-632.551	800.000	0.057	0.252
-631.536	373.119	0.116	-0.240
-630.522	-200.000	0.015	-0.089
-629.507	-41.055	-0.205	-0.108
-628.492	-0.393	0.336	0.243
-627.478	70.133	-0.144	-0.151
-626.463	78.409	-0.152	-0.165
-625.449	172.803	-0.184	0.269
-624.434	127.744	0.055	0.071
-623.419	-70.553	0.123	0.047
-622.405	-140.981	0.168	0.017
-621.390	-124.405	0.270	0.043
-620.376	30.357	0.244	-0.212
-619.361	492.659	0.119	-0.277
-618.346	-128.823	-0.261	-0.037
-617.332	800.000	-0.054	-0.159
-616.317	8.691	0.295	0.226
-615.303	473.694	-0.043	0.099
-614.288	-67.491	-0.297	-0.119
-613.273	800.000	0.015	0.059
-612.259	800.000	-0.042	-0.136
-611.244	87.725	-0.264	0.298
-610.230	68.857	0.132	0.138
-609.215	22.549	0.129	-0.107
-608.201	238.006	-0.206	-0.347
-607.186	-200.000	-0.022	-0.135
-606.171	29.979	0.062	-0.054
-605.157	800.000	-0.114	0.338
-604.142	-153.233	-0.206	-0.015
-603.128	800.000	0.037	0.127
-602.113	-115.086	-0.227	-0.044
-601.098	-45.461	-0.155	0.078
-600.084	800.000	-0.016	0.067
-599.069	-122.762	-0.371	0.061
-598.055	161.166	-0.160	0.227
-597.040	379.178	0.125	0.260
-596.025	-80.455	-0.382	0.129
-595.011	343.818	0.022	0.044
-593.996	-23.458	-0.149	0.091
-592.982	-200.000	-0.008	-0.103
-591.967	12.440	0.217	-0.170
-590.952	-21.128	0.105	-0.065
-589.938	-37.886	0.299	-0.161
-588.923	-200.000	-0.024	0.201
-587.909	-8.083	-0.051	0.035
-586.894	-137.981	-0.276	-0.031
-585.879	-53.287	-0.462	0.215
-584.865	135.353	-0.092	-0.121
-583.850	-200.000	0.012	0.067
-582.836	800.000	0.095	0.284
-581.821	-141.322	-0.145	-0.015
-580.806	-48.806	-0.104	-0.051
-579.792	519.936	0.094	0.223
-578.777	800.000	-0.065	-0.256
-577.763	-31.656	0.239	0.136
-576.748	57.332	-0.257	0.254
-575.733	144.054	-0.183	0.248
-574.719	228.589	0.122	-0.201
-573.704	217.722	-0.097	0.157
-572.690	-170.104	0.212	-0.008
-571.675	-37.592	0.352	-0.190
-570.661	465.059	-0.006	0.015
-569.646	16.680	0.184	-0.148
-568.631	-27.247	-0.242	0.143
-567.617	-119.785	-0.450	-0.079
-566.602	414.376	-0.039	0.084
-565.588	-67.923	0.252	-0.100
-564.573	-29.252	-0.247	0.143
-563.558	-87.740	0.022	-0.007
-562.544	142.906	0.134	-0.180
-561.529	-200.000	0.048	0.298
-560.515	-170.362	0.144	-0.005
-559.500	-89.956	0.424	-0.125
-558.485	37.437	0.172	-0.154
-557.471	-120.616	-0.447	0.077
-556.456	350.604	-0.050	-0.100
-555.442	262.481	0.117	-0.206
-554.427	-81.475	0.060	0.020
-553.412	213.261	0.051	-0.082
-552.398	-51.346	0.115	0.055
-551.383	10.346	-0.093	0.072
-550.369	176.048	-0.099	-0.146
-549.354	239.373	-0.292	-0.493
-548.339	149.911	0.167	-0.230
-547.325	800.000	-0.027	0.087
-546.310	366.424	0.224	0.457
-545.296	-115.150	0.086	0.017
-544.281	-46.738	-0.123	-0.061
-543.266	89.886	0.081	-0.092
-542.252	-159.747	0.212	0.012
-541.237	-200.000	-0.031	0.283
-540.223	166.805	-0.149	0.214
-539.208	-200.000	-0.075	-0.404
-538.193	-93.221	-0.134	0.038
-537.179	-31.941	0.100	0.057
-536.164	327.194	0.050	-0.097
-535.150	-87.524	-0.142	0.044
-534.135	447.906	0.063	0.141
-533.121	71.617	0.109	0.115
-532.106	243.000	0.069	-0.117
-531.091	31.887	-0.228	-0.199
-530.077	47.839	0.139	-0.132
-529.062	353.182	0.060	-0.121
-528.048	116.308	-0.083	0.103
-527.033	454.206	0.059	-0.131
-526.018	98.327	-0.161	-0.187
-525.004	195.831	0.051	0.078
-523.989	63.849	-0.173	0.176
-522.975	800.000	0.040	0.170
-521.960	67.634	-0.153	-0.158
-520.945	-168.692	-0.107	0.004
-519.931	-161.416	-0.140	-0.007
-518.916	125.431	-0.126	-0.161
-517.902	-139.589	-0.109	-0.012
-516.887	279.692	0.077	0.139
-515.872	171.496	-0.006	-0.008
-514.858	47.641	0.167	-0.158
-513.843	681.582	0.036	-0.096
-512.829	171.891	0.099	-0.144
-511.814	134.074	-0.205	-0.269
-510.799	-200.000	0.008	-0.303
-509.785	125.854	0.126	0.161
-508.770	-200.000	-0.007	-0.171
-507.756	-200.000	-0.010	-0.280
-506.741	92.612	0.323	-0.369
-505.726	800.000	-0.120	0.497
-504.712	-200.000	0.058	-0.332
-503.697	-21.654	-0.053	-0.032
-502.683	-110.311	-0.683	0.144
-501.668	62.189	0.312	0.315
-500.653	-163.227	0.218	-0.011
-499.639	222.607	0.191	0.312
-498.624	-51.625	0.153	0.072
-497.610	-110.786	-0.057	0.012
-496.595	-86.545	0.236	-0.073
-495.581	800.000	-0.119	0.333
-494.566	-152.375	0.346	0.025
-493.551	149.566	-0.163	-0.223
-492.537	800.000	-0.054	0.187
-491.522	447.441	0.075	0.167
-490.508	800.000	-0.080	0.229
-489.493	-87.209	0.138	0.042
-488.478	-151.142	-0.236	-0.018
-487.464	61.974	0.076	-0.077
-486.449	-109.127	0.118	-0.025
-485.435	-200.000	-0.021	-0.100
-484.420	-151.246	0.154	0.012
-483.405	77.058	0.149	0.160
-482.391	-200.000	0.033	-0.200
-481.376	-157.014	0.405	-0.025
-480.362	380.355	0.092	0.191
-479.347	-200.000	-0.032	-0.164
-478.332	800.000	-0.055	-0.157
-477.318	130.352	-0.069	0.089
-476.303	-52.803	0.176	0.082
-475.289	11.567	-0.232	-0.180
-474.274	-66.017	-0.186	0.075
-473.259	116.342	-0.144	0.178
-472.245	539.294	-0.107	0.256
-471.230	-22.072	0.174	0.107
-470.216	-200.000	-0.002	0.475
-469.201	-105.587	-0.283	-0.065
-468.186	179.626	0.167	0.248
-467.172	753.184	0.064	-0.175
-466.157	315.087	0.073	-0.139
-465.143	800.000	0.029	0.100
-464.128	-200.000	-0.023	-0.371
-463.113	-6.958	-0.293	-0.201
-462.099	92.406	0.196	-0.223
-461.084	-49.934	0.237	-0.113
-460.070	92.263	-0.189	-0.215
-459.055	-138.585	0.467	0.052
-458.040	-114.851	-0.132	0.025
-457.026	13.923	0.098	0.077
-456.011	-140.649	0.117	0.012
-454.997	149.375	0.060	0.082
-453.982	-200.000	-0.012	0.053
-452.968	127.879	0.082	-0.105
-451.953	-200.000	-0.006	0.063
-450.938	-102.414	0.450	0.109
-449.924	-200.000	0.001	0.012
-448.909	-200.000	-0.002	-0.056
-447.895	-200.000	0.045	0.211
-446.880	184.681	0.218	-0.325
-445.865	-200.000	-0.030	0.184
-444.851	-200.000	-0.058	0.313
-443.836	-25.904	0.398	-0.237
-442.822	-200.000	0.003	0.018
-441.807	-200.000	-0.002	-0.046
-440.792	-64.723	0.167	0.068
-439.778	-137.676	0.236	0.027
-438.763	194.275	-0.029	-0.045
-437.749	-194.827	-0.277	0.002
-436.734	319.964	-0.043	-0.082
-435.719	-55.575	0.280	0.127
-434.705	54.213	0.193	0.187
-433.690	579.428	0.060	0.149
-432.676	-136.651	0.212	-0.025
-431.661	-64.100	-0.186	-0.076
-430.646	123.300	-0.093	-0.118
-429.632	-24.469	-0.230	0.138
-428.617	-74.966	-0.379	0.137
-427.603	318.379	-0.215	-0.411
-426.588	-178.215	-0.454	0.011
-425.573	-200.000	-0.025	0.332
-424.559	-200.000	0.025	0.146
-423.544	638.454	-0.066	0.168
-422.530	-8.964	0.159	0.107
-421.515	275.375	0.104	-0.186
-420.500	-11.892	0.048	0.032
-419.486	800.000	0.014	0.052
-418.471	-13.690	0.292	-0.191
-417.457	-14.219	0.265	-0.172
-416.442	36.685	-0.079	-0.070
-415.428	534.705	0.086	-0.204
-414.413	-70.313	0.115	-0.044
-413.398	-105.709	-0.299	0.068
-412.384	-200.000	-0.108	0.532
-411.369	-73.475	-0.204	0.075
-410.355	-200.000	-0.036	0.281
-409.340	87.442	-0.190	-0.212
-408.325	-200.000	-0.018	-0.086
-407.311	-106.807	0.220	0.049
-406.296	-110.686	0.129	-0.027
-405.282	-110.377	0.191	-0.040
-404.267	132.390	0.248	-0.323
-403.252	592.929	-0.078	-0.194
-402.238	-148.204	-0.138	-0.011
-401.223	-10.918	-0.154	-0.103
-400.209	-102.123	-0.282	-0.068
-399.194	119.753	-0.056	0.069
-398.179	53.328	0.146	0.141
-397.165	204.936	0.175	0.274
-396.150	-200.000	-0.023	-0.113
-395.136	51.533	-0.174	-0.167
-394.121	-200.000	0.020	-0.140
-393.106	-160.381	0.248	-0.013
-392.092	800.000	0.042	0.151
-391.077	-30.140	0.107	-0.061
-390.063	45.377	0.292	-0.271
-389.048	-200.000	-0.074	0.425
-388.033	-82.837	-0.149	-0.048
-387.019	-59.769	-0.347	-0.150
-386.004	-90.853	-0.152	-0.044
-384.990	-86.853	-0.342	-0.105
-383.975	-20.037	0.099	0.062
-382.960	84.531	0.158	-0.174
-381.946	-200.000	0.022	-0.177
-380.931	-200.000	-0.009	0.066
-379.917	-92.399	-0.477	0.135
-378.902	13.576	0.123	0.096
-377.888	-40.145	-0.264	-0.138
-376.873	305.157	0.059	0.111
-375.858	-43.379	-0.173	-0.088
-374.844	-200.000	-0.013	0.183
-373.829	161.893	0.172	-0.242
-372.815	-76.168	0.315	0.112
-371.800	800.000	-0.070	0.245
-370.785	-6.777	-0.215	-0.147
-369.771	-200.000	-0.032	0.357
-368.756	243.674	0.054	0.091
-367.742	0.233	-0.157	0.112
-366.727	662.582	-0.060	-0.155
-365.712	-42.557	0.212	0.109
-364.698	-52.463	0.187	-0.087
-363.683	482.320	0.097	0.222
-362.669	186.540	-0.127	-0.190
-361.654	156.316	-0.107	0.148
-360.639	-115.206	-0.283	0.054
-359.625	30.079	-0.258	0.221
-358.610	-54.542	0.243	0.111
-357.596	800.000	-0.061	-0.176
-356.581	-200.000	0.005	0.189
-355.566	157.144	0.172	-0.240
-354.552	32.635	0.258	0.224
-353.537	-137.129	0.186	0.021
-352.523	-79.131	0.365	-0.125
-351.508	-200.000	-0.029	0.177
-350.493	738.673	-0.046	-0.125
-349.479	-111.919	0.147	-0.030
-348.464	-40.292	0.124	-0.065
-347.450	-19.778	0.200	-0.124
-346.435	-18.356	-0.591	0.372
-345.420	405.015	0.036	0.075
-344.406	169.662	-0.173	-0.249
-343.391	247.031	0.050	0.084
-342.377	-79.121	-0.393	-0.134
-341.362	-63.909	0.244	-0.100
-340.348	-64.956	0.356	-0.145
-339.333	800.000	0.025	-0.088
-338.318	-47.057	0.114	-0.056
-337.304	-73.977	0.195	0.071
-336.289	-72.157	-0.111	0.041
-335.275	800.000	-0.060	0.228
-334.260	-73.928	0.201	-0.073
-333.245	-9.839	-0.260	0.174
-332.231	-200.000	-0.027	-0.321
-331.216	-30.866	0.204	0.116
-330.202	-65.592	-0.122	-0.049
-329.187	-95.893	0.213	-0.057
-328.172	-134.879	0.069	-0.008
-327.158	-57.010	0.136	0.060
-326.143	-75.826	0.183	-0.065
-325.129	-200.000	0.035	-0.454
-324.114	108.341	0.062	0.075
-323.099	-135.768	-0.188	0.022
-322.085	-200.000	0.029	0.227
-321.070	418.435	0.010	0.021
-320.056	47.037	0.147	-0.137
-319.041	528.902	-0.043	-0.102
-318.026	-69.004	0.192	0.074
-317.012	377.349	0.032	-0.067
-315.997	366.342	-0.133	0.270
-314.983	247.986	0.292	0.496
-313.968	-33.605	-0.134	0.074
-312.953	-89.203	-0.155	-0.046
-311.939	-5.614	0.124	-0.085
-310.924	800.000	-0.105	0.423
-309.910	-200.000	0.004	0.177
-308.895	800.000	0.116	-0.335
-307.880	40.394	0.214	0.193
-306.866	-200.000	-0.001	-0.124
-305.851	-44.474	0.238	0.120
-304.837	2.705	0.113	-0.083
-303.822	460.456	0.052	0.117
-302.807	-200.000	-0.062	-0.452
-301.793	28.839	-0.130	0.110
-300.778	64.206	0.045	0.046
-299.764	179.843	-0.085	-0.125
-298.749	-200.000	-0.013	-0.136
-297.735	-66.477	-0.400	0.159
-296.720	26.187	-0.101	0.085
-295.705	-62.264	0.428	-0.179
-294.691	166.849	0.131	0.186
-293.676	153.833	-0.111	-0.153
-292.662	-43.773	-0.090	-0.046
-291.647	-55.668	-0.116	-0.052
-290.632	-152.106	-0.082	-0.006
-289.618	93.708	0.162	-0.184
-288.603	800.000	-0.016	-0.062
-287.589	-55.357	0.125	-0.056
-286.574	-1.844	0.266	0.188
-285.559	-106.119	0.187	-0.042
-284.545	-200.000	-0.025	-0.271
-283.530	-54.625	0.285	0.129
-282.516	109.264	0.156	0.187
-281.501	-200.000	-0.225	-0.000
-280.486	-200.000	0.008	0.108
-279.472	-46.563	0.185	-0.091
-278.457	-200.000	-0.024	-0.113
-277.443	12.592	-0.097	-0.075
-276.428	800.000	-0.042	0.182
-275.413	333.158	0.129	0.250
-274.399	73.077	0.080	-0.084
-273.384	-2.538	-0.168	-0.118
-272.370	-167.616	-0.102	-0.004
-271.355	-83.985	0.093	0.030
-270.340	488.140	0.092	-0.211
-269.326	800.000	0.079	0.302
-268.311	119.876	0.054	-0.068
-267.297	-5.262	-0.263	-0.181
-266.282	-154.643	-0.279	-0.019
-265.267	-55.470	-0.103	0.046
-264.253	-200.000	-0.020	0.448
-263.238	-187.900	0.323	-0.004
-262.224	-57.457	0.187	-0.082
-261.209	-6.611	0.020	0.013
-260.195	-14.183	0.134	-0.087
-259.180	396.095	-0.209	0.436
-258.165	-200.000	0.009	-0.142
-257.151	-200.000	0.024	0.185
-256.136	-200.000	0.010	0.093
-255.122	25.313	-0.127	-0.106
-254.107	-41.735	-0.156	0.080
-253.092	-200.000	0.010	-0.112
-252.078	521.036	0.087	-0.205
-251.063	-29.498	-0.470	-0.269
-250.049	-141.658	-0.276	0.028
-249.034	-11.576	0.045	-0.030
-248.019	47.725	0.256	0.240
-247.005	-43.839	0.146	0.074
-245.990	-29.042	-0.292	-0.168
-244.976	-91.360	-0.250	0.072
-243.961	-23.190	0.130	0.078
-242.946	56.208	-0.195	-0.190
-241.932	180.039	-0.176	-0.258
-240.917	-52.253	0.184	0.085
-239.903	-200.000	0.020	-0.151
-238.888	67.526	0.136	0.139
-237.873	-66.335	0.388	-0.155
-236.859	647.327	0.043	0.109
-235.844	-117.501	0.385	-0.070
-234.830	36.638	-0.033	0.029
-233.815	-200.000	-0.047	0.520
-232.800	-200.000	-0.013	-0.088
-231.786	-163.345	0.122	-0.006
-230.771	516.592	0.104	-0.242
-229.757	-57.618	-0.257	-0.113
-228.742	-124.125	0.093	0.015
-227.727	800.000	-0.050	-0.179
-226.713	131.972	-0.117	-0.151
-225.698	-200.000	-0.048	-0.286
-224.684	-200.000	-0.028	-0.175
-223.669	-168.230	-0.113	0.004
-222.655	-200.000	0.050	-0.274
-221.640	265.869	0.171	0.299
-220.625	754.904	0.132	0.356
-219.611	-97.716	0.213	0.055
-218.596	-200.000	-0.002	0.150
-217.582	-200.000	-0.024	-0.388
-216.567	-200.000	-0.026	-0.219
-215.552	49.166	0.294	-0.277
-214.538	800.000	-0.037	0.161
-213.523	-89.525	-0.173	-0.051
-212.509	28.540	-0.291	0.246
-211.494	-200.000	-0.016	-0.227
-210.479	-114.471	0.162	0.031
-209.465	22.674	0.044	-0.036
-208.450	144.110	-0.145	0.194
-207.436	800.000	0.064	0.207
-206.421	-54.182	0.054	0.024
-205.406	688.599	0.094	-0.245
-204.392	-67.087	-0.349	-0.137
-203.377	294.562	-0.072	-0.131
-202.363	28.448	-0.186	0.157
-201.348	-144.961	0.263	-0.024
-200.333	219.116	0.277	0.443
-199.319	62.820	-0.172	-0.172
-198.304	-20.777	0.206	-0.127
-197.290	-155.870	-0.416	0.027
-196.275	-200.000	-0.022	0.290
-195.260	-10.554	-0.202	0.134
-194.246	319.369	-0.070	0.133
-193.231	145.848	-0.063	0.084
-192.217	290.863	0.043	0.078
-191.202	-200.000	-0.006	0.028
-190.187	-200.000	-0.012	-0.160
-189.173	-90.179	0.303	0.088
-188.158	9.934	-0.042	0.032
-187.144	-200.000	-0.000	0.050
-186.129	11.117	-0.182	-0.139
-185.114	-45.051	-0.342	-0.170
-184.100	800.000	-0.045	-0.127
-183.085	-169.340	-0.103	-0.004
-182.071	49.353	-0.035	-0.033
-181.056	-79.877	0.214	-0.072
-180.042	532.430	0.044	0.105
-179.027	-2.978	0.164	0.115
-178.012	800.000	0.085	-0.288
-176.998	-141.631	-0.091	0.009
-175.983	197.105	-0.160	-0.243
-174.969	-3.138	-0.200	-0.139
-173.954	579.827	0.150	0.368
-172.939	172.021	0.092	-0.133
-171.925	-200.000	0.102	-0.460
-170.910	104.775	0.077	-0.091
-169.896	297.199	0.050	0.091
-168.881	-154.107	-0.282	0.019
-167.866	-200.000	-0.026	0.231
-166.852	459.514	-0.026	-0.057
-165.837	-108.413	0.291	-0.063
-164.823	-200.000	0.052	-0.290
-163.808	570.989	0.064	0.155
-162.793	-200.000	0.021	-0.105
-161.779	-148.560	-0.135	-0.011
-160.764	22.953	-0.028	0.023
-159.750	-200.000	-0.021	0.237
-158.735	-31.514	-0.113	-0.063
-157.720	308.193	-0.091	-0.170
-156.706	-40.442	-0.076	0.039
-155.691	83.184	0.147	0.160
-154.677	46.351	0.263	0.244
-153.662	-97.347	0.214	-0.056
-152.647	79.539	-0.379	0.406
-151.633	-137.705	-0.139	0.016
-150.618	800.000	0.201	0.559
-149.604	-130.691	0.309	0.042
-148.589	117.279	0.080	-0.098
-147.574	55.461	-0.069	0.066
-146.560	-200.000	-0.021	0.098
-145.545	325.677	-0.138	0.264
-144.531	-56.817	0.238	-0.105
-143.516	230.995	-0.115	0.188
-142.502	-57.133	-0.111	-0.049
-141.487	59.116	0.206	0.202
-140.472	-200.000	0.003	0.036
-139.458	-11.059	-0.052	0.035
-138.443	-87.900	-0.120	-0.036
-137.429	117.351	0.236	0.289
-136.414	3.050	0.019	0.014
-135.399	-200.000	-0.032	0.150
-134.385	-154.294	0.264	0.018
-133.370	47.457	-0.162	-0.151
-132.356	-59.513	0.523	-0.224
-131.341	175.570	0.153	-0.221
-130.326	-131.065	0.118	0.016
-129.312	-192.394	0.248	0.002
-128.297	800.000	-0.024	0.096
-127.283	-200.000	-0.034	-0.262
-126.268	-90.065	0.088	-0.026
-125.253	-200.000	-0.005	-0.037
-124.239	-137.052	-0.304	-0.035
-123.224	249.203	0.081	0.136
-122.210	-200.000	-0.001	0.123
