DTS Sentinel unit serial number:	SN413079Multiplexer serial number:	ORYXHardware model number:	OX4-SRSoftware version number:	ORYX F/W v4.00 Oryx Data Collector v3.7.2.0data status	okinstallation	princeton_trtdifferential loss correction	single-endedforward channel	channel 4reverse channel	N/Adate	2019/09/12time	02:59:11forward acquisition time	60.00reverse acquisition time	0.00gamma	496.2192k internal	0.2309k external	0.2309temperature offset calibration	1.0093default loss term (dB/km)	0.3790temperature slope calibration	1.0000multiplexer offset coefficient	1.0000multiplexer slope coefficient	1.0000fibre end	0.00T internal ref (°C)	32.31T ext. ref 1 (°C)	2.12T ext. ref 2 (°C)	27.01length (m)	temperature (°C)	Stokes	anti-Stokes-747.200	-200.000	0.020	-0.347
-746.185	800.000	0.077	-0.329
-745.171	-130.922	-0.096	-0.013
-744.156	-197.821	0.112	-0.001
-743.142	-2.355	0.275	-0.196
-742.127	-200.000	-0.013	0.110
-741.112	-58.360	-0.194	-0.086
-740.098	-85.228	-0.390	0.124
-739.083	-128.863	0.366	-0.052
-738.069	8.429	-0.297	0.227
-737.054	108.310	-0.099	0.120
-736.039	-4.825	-0.257	-0.180
-735.025	34.784	0.166	0.147
-734.010	-200.000	-0.040	-0.517
-732.996	-101.545	0.119	0.029
-731.981	-196.427	-0.438	0.003
-730.966	122.700	0.031	0.039
-729.952	-200.000	-0.015	-0.114
-728.937	-11.016	-0.115	-0.077
-727.923	-200.000	0.115	-0.001
-726.908	206.482	0.311	-0.492
-725.894	290.360	-0.051	-0.094
-724.879	-40.572	-0.216	-0.114
-723.864	-70.917	-0.380	0.145
-722.850	800.000	0.034	-0.114
-721.835	-200.000	0.001	-0.209
-720.821	-33.029	0.147	0.083
-719.806	51.691	0.136	0.132
-718.791	-108.573	-0.062	-0.013
-717.777	-99.081	0.011	-0.003
-716.762	14.677	-0.246	-0.195
-715.748	151.606	0.029	0.040
-714.733	121.576	-0.103	-0.130
-713.718	-14.843	-0.066	-0.043
-712.704	-80.245	-0.116	-0.039
-711.689	-200.000	0.004	0.200
-710.675	214.344	0.121	-0.194
-709.660	-91.432	0.157	-0.045
-708.645	800.000	-0.081	0.277
-707.631	-200.000	-0.021	-0.140
-706.616	-163.752	0.347	-0.017
-705.602	-200.000	0.036	0.247
-704.587	800.000	0.041	-0.115
-703.572	-184.365	-0.271	0.005
-702.558	800.000	0.064	-0.272
-701.543	-49.691	0.147	-0.071
-700.529	68.094	-0.160	-0.166
-699.514	517.445	-0.136	-0.322
-698.499	89.977	0.079	-0.090
-697.485	22.456	0.207	0.171
-696.470	-127.266	-0.243	-0.036
-695.456	-122.847	0.285	0.047
-694.441	139.518	0.209	-0.279
-693.426	-55.936	-0.300	0.136
-692.412	0.834	-0.277	0.201
-691.397	-37.642	0.132	0.071
-690.383	381.941	0.052	0.109
-689.368	131.272	-0.130	0.169
-688.354	265.884	-0.015	0.027
-687.339	-100.156	0.202	-0.051
-686.324	173.699	-0.156	-0.229
-685.310	68.768	-0.061	0.064
-684.295	-158.049	0.188	-0.011
-683.281	-112.619	0.332	0.067
-682.266	-200.000	-0.023	0.140
-681.251	586.751	-0.180	0.450
-680.237	800.000	0.050	-0.196
-679.222	800.000	-0.034	0.097
-678.208	-20.821	-0.153	-0.095
-677.193	-95.998	0.136	0.037
-676.178	-54.696	-0.057	-0.026
-675.164	90.210	-0.129	0.146
-674.149	204.829	0.209	0.329
-673.135	59.601	-0.380	-0.380
-672.120	93.856	0.221	-0.254
-671.105	-200.000	-0.002	-0.233
-670.091	800.000	-0.058	0.165
-669.076	-100.558	-0.084	0.021
-668.062	-7.103	0.194	0.133
-667.047	172.961	0.160	0.234
-666.032	-83.249	0.200	0.065
-665.018	351.578	0.165	-0.331
-664.003	-140.781	0.110	-0.012
-662.989	-144.512	-0.393	-0.037
-661.974	-200.000	0.006	-0.097
-660.959	-40.528	-0.282	-0.148
-659.945	232.680	-0.067	-0.112
-658.930	-32.100	-0.434	-0.246
-657.916	43.470	0.193	-0.179
-656.901	800.000	-0.013	0.036
-655.886	-200.000	0.077	-0.379
-654.872	5.253	0.064	0.048
-653.857	-25.717	-0.252	0.151
-652.843	800.000	-0.054	-0.164
-651.828	148.662	0.170	-0.232
-650.814	800.000	0.093	-0.336
-649.799	-200.000	-0.001	-0.308
-648.784	800.000	0.118	-0.333
-647.770	-200.000	-0.025	-0.132
-646.755	-200.000	0.014	0.220
-645.741	33.894	0.069	0.061
-644.726	253.596	-0.079	-0.136
-643.711	489.974	0.037	-0.086
-642.697	800.000	0.096	-0.306
-641.682	126.958	-0.226	-0.289
-640.668	79.450	-0.146	-0.158
-639.653	43.002	-0.186	0.172
-638.638	137.654	-0.112	0.149
-637.624	-27.321	0.382	-0.225
-636.609	261.914	-0.112	-0.196
-635.595	-200.000	-0.015	0.127
-634.580	-124.555	-0.442	-0.069
-633.565	362.571	0.098	0.199
-632.551	20.526	0.165	0.135
-631.536	-88.412	0.082	-0.025
-630.522	-182.720	-0.304	-0.006
-629.507	-200.000	0.023	0.125
-628.492	-129.789	-0.216	-0.030
-627.478	-29.404	-0.243	0.141
-626.463	-200.000	0.010	-0.483
-625.449	800.000	-0.181	-0.517
-624.434	800.000	0.063	0.202
-623.419	-103.269	0.177	0.042
-622.405	-53.346	0.061	-0.028
-621.390	-60.481	0.069	-0.030
-620.376	-52.754	-0.278	-0.129
-619.361	-100.367	-0.121	0.030
-618.346	-192.813	0.345	0.003
-617.332	-200.000	0.026	0.260
-616.317	-54.120	-0.019	-0.009
-615.303	-200.000	-0.035	-0.314
-614.288	48.369	-0.260	0.246
-613.273	-92.154	0.309	-0.088
-612.259	800.000	-0.032	0.124
-611.244	-77.228	0.058	0.020
-610.230	-28.586	0.409	-0.238
-609.215	-124.630	-0.122	-0.019
-608.201	-130.769	-0.305	0.041
-607.186	-58.951	0.220	-0.096
-606.171	-200.000	0.013	-0.112
-605.157	-140.871	0.109	-0.011
-604.142	-200.000	0.026	0.220
-603.128	-83.643	-0.261	-0.084
-602.113	12.385	0.195	-0.152
-601.098	219.589	0.084	0.136
-600.084	-152.937	0.240	0.017
-599.069	-164.800	0.312	-0.014
-598.055	-93.954	-0.146	-0.041
-597.040	63.199	0.107	0.108
-596.025	-200.000	0.007	-0.393
-595.011	-54.211	-0.241	0.110
-593.996	-152.299	-0.172	-0.013
-592.982	44.332	0.139	0.129
-591.967	-134.749	0.091	-0.011
-590.952	-134.724	0.438	-0.054
-589.938	33.787	-0.167	-0.147
-588.923	800.000	0.061	-0.199
-587.909	-96.250	0.078	-0.021
-586.894	-94.340	-0.141	0.039
-585.879	-135.453	-0.145	0.017
-584.865	-89.068	0.094	-0.028
-583.850	-200.000	-0.005	-0.065
-582.836	-51.693	-0.268	-0.126
-581.821	-36.260	-0.143	0.078
-580.806	-151.384	0.025	-0.002
-579.792	800.000	-0.053	0.222
-578.777	-26.641	-0.198	0.117
-577.763	93.849	-0.319	-0.365
-576.748	-112.753	-0.217	-0.044
-575.733	-132.831	0.279	0.036
-574.719	-87.380	0.111	-0.034
-573.704	-70.678	-0.432	0.165
-572.690	93.420	-0.199	0.228
-571.675	465.443	-0.072	-0.162
-570.661	60.052	-0.159	0.159
-569.646	118.278	-0.227	-0.282
-568.631	188.510	0.093	-0.141
-567.617	220.965	0.126	-0.204
-566.602	445.137	0.037	-0.083
-565.588	140.372	-0.051	-0.067
-564.573	-57.200	-0.276	-0.123
-563.558	76.024	-0.168	-0.179
-562.544	-108.129	0.243	0.053
-561.529	244.062	0.073	-0.124
-560.515	164.042	0.048	0.068
-559.500	448.800	-0.028	-0.063
-558.485	146.865	-0.225	-0.305
-557.471	-114.916	0.139	-0.027
-556.456	240.743	-0.058	-0.098
-555.442	-200.000	0.010	-0.064
-554.427	267.484	-0.078	0.137
-553.412	-56.122	0.195	-0.088
-552.398	41.241	0.180	0.164
-551.383	-63.671	0.230	-0.095
-550.369	-104.068	0.375	0.088
-549.354	-141.202	0.340	-0.035
-548.339	-63.816	0.202	-0.083
-547.325	233.223	-0.191	-0.316
-546.310	-121.804	-0.189	-0.031
-545.296	485.965	-0.063	0.144
-544.281	68.549	-0.190	-0.196
-543.266	-56.173	0.369	0.165
-542.252	-57.632	0.058	0.026
-541.237	88.590	-0.075	-0.084
-540.223	-13.372	-0.146	-0.096
-539.208	-200.000	-0.026	0.116
-538.193	232.095	0.096	-0.159
-537.179	-200.000	-0.053	-0.490
-536.164	187.648	-0.064	0.096
-535.150	-26.812	0.361	0.213
-534.135	89.575	0.308	0.346
-533.121	16.611	0.053	0.042
-532.106	374.063	0.018	0.037
-531.091	629.150	-0.065	0.166
-530.077	-25.125	-0.131	-0.078
-529.062	279.341	0.085	0.153
-528.048	106.434	0.280	0.334
-527.033	-41.059	0.104	0.054
-526.018	-47.303	-0.315	0.154
-525.004	-19.476	-0.172	-0.108
-523.989	-82.301	0.309	-0.101
-522.975	-6.700	-0.175	-0.120
-521.960	800.000	-0.062	-0.219
-520.945	-70.775	-0.235	0.089
-519.931	-23.625	-0.110	0.066
-518.916	116.855	-0.175	0.216
-517.902	24.933	-0.199	0.166
-516.887	-24.231	0.179	0.107
-515.872	-83.386	-0.184	0.060
-514.858	-63.355	0.263	0.109
-513.843	-1.811	0.165	-0.117
-512.829	769.014	0.022	0.060
-511.814	-200.000	0.004	0.235
-510.799	-145.619	0.366	0.033
-509.785	-200.000	-0.053	-0.278
-508.770	32.127	0.040	0.035
-507.756	-200.000	0.003	0.039
-506.741	-61.638	0.044	0.019
-505.726	-74.333	-0.223	0.081
-504.712	-148.846	-0.254	-0.021
-503.697	-11.412	0.226	0.150
-502.683	219.122	-0.124	-0.199
-501.668	102.389	-0.130	0.152
-500.653	-200.000	0.003	-0.036
-499.639	-121.015	0.139	-0.024
-498.624	123.749	-0.317	-0.400
-497.610	-91.290	0.235	0.068
-496.595	235.179	0.083	-0.138
-495.581	18.886	0.141	-0.114
-494.566	800.000	0.068	0.260
-493.551	20.260	-0.063	0.051
-492.537	-200.000	0.041	0.238
-491.522	-182.722	-0.330	-0.006
-490.508	135.372	-0.192	-0.252
-489.493	800.000	0.061	-0.200
-488.478	-200.000	0.019	-0.339
-487.464	-141.685	-0.114	0.011
-486.449	-132.470	0.176	-0.023
-485.435	-1.914	-0.198	-0.140
-484.420	-65.150	-0.148	0.060
-483.405	-200.000	0.017	-0.125
-482.391	-200.000	0.006	0.136
-481.376	-51.363	0.161	-0.076
-480.362	800.000	0.137	-0.416
-479.347	259.229	0.081	-0.141
-478.332	61.653	-0.194	-0.194
-477.318	-200.000	0.013	0.125
-476.303	-51.843	-0.225	-0.105
-475.289	655.688	-0.075	-0.195
-474.274	-148.535	0.155	-0.013
-473.259	69.181	0.123	0.127
-472.245	291.606	-0.141	-0.259
-471.230	800.000	0.044	-0.148
-470.216	276.903	-0.076	-0.136
-469.201	82.410	0.134	-0.146
-468.186	-90.412	-0.122	-0.036
-467.172	-59.826	-0.119	0.051
-466.157	-67.025	-0.328	0.130
-465.143	-200.000	-0.050	-0.268
-464.128	-80.145	-0.097	0.033
-463.113	-61.120	0.076	-0.032
-462.099	309.274	-0.140	-0.262
-461.084	397.741	-0.117	0.245
-460.070	424.217	0.107	0.231
-459.055	615.816	-0.098	-0.247
-458.040	708.687	-0.042	0.111
-457.026	-109.891	-0.091	-0.019
-456.011	65.665	0.144	0.147
-454.997	800.000	-0.026	-0.098
-453.982	-138.200	-0.056	0.006
-452.968	27.885	-0.215	-0.182
-451.953	-16.918	-0.129	-0.082
-450.938	-76.650	-0.289	-0.102
-449.924	-76.031	-0.158	0.056
-448.909	-70.119	-0.207	0.079
-447.895	-30.520	-0.109	-0.062
-446.880	800.000	-0.080	0.261
-445.865	-153.719	0.281	-0.019
-444.851	-38.573	0.137	0.072
-443.836	800.000	0.075	0.293
-442.822	39.327	0.045	-0.041
-441.807	346.808	0.123	-0.242
-440.792	140.665	-0.112	0.148
-439.778	569.107	0.074	0.181
-438.763	608.581	0.030	-0.075
-437.749	-198.328	-0.374	-0.002
-436.734	548.991	0.028	-0.067
-435.719	-132.163	-0.157	-0.020
-434.705	-14.230	0.323	-0.209
-433.690	588.876	-0.012	-0.029
-432.676	800.000	-0.094	-0.278
-431.661	-156.997	-0.047	-0.003
-430.646	116.371	-0.152	-0.187
-429.632	109.401	0.038	-0.045
-428.617	-79.681	0.243	-0.082
-427.603	-2.105	-0.128	0.090
-426.588	4.381	0.174	0.128
-425.573	325.634	0.037	-0.071
-424.559	800.000	0.014	0.048
-423.544	-200.000	0.004	0.237
-422.530	170.835	-0.152	-0.219
-421.515	-55.100	-0.162	0.073
-420.500	229.427	-0.046	0.075
-419.486	60.250	0.131	0.130
-418.471	-200.000	0.012	0.134
-417.457	-200.000	-0.136	-0.000
-416.442	119.010	-0.130	0.162
-415.428	-103.457	0.246	0.058
-414.413	800.000	-0.085	-0.295
-413.398	800.000	-0.087	0.309
-412.384	-10.895	0.074	-0.049
-411.369	75.687	0.178	-0.189
-410.355	213.975	0.185	0.294
-409.340	-77.809	-0.106	-0.037
-408.325	261.046	0.271	0.470
-407.311	-48.628	-0.061	0.029
-406.296	413.507	-0.110	0.235
-405.282	241.853	-0.109	0.183
-404.267	-8.772	-0.204	0.137
-403.252	42.745	-0.155	-0.142
-402.238	-200.000	0.045	-0.216
-401.223	-90.515	-0.312	-0.090
-400.209	74.199	0.070	0.074
-399.194	-200.000	-0.020	-0.158
-398.179	-200.000	-0.009	-0.055
-397.165	208.201	0.162	0.254
-396.150	-200.000	-0.003	-0.252
-395.136	759.661	-0.113	0.307
-394.121	320.149	-0.061	0.117
-393.106	800.000	-0.038	0.163
-392.092	87.447	-0.256	-0.284
-391.077	800.000	0.035	0.146
-390.063	81.565	0.097	-0.106
-389.048	-12.937	-0.126	0.082
-388.033	115.610	0.152	-0.186
-387.019	52.205	0.082	0.079
-386.004	59.106	-0.134	-0.132
-384.990	800.000	-0.029	-0.101
-383.975	0.186	-0.125	0.089
-382.960	-200.000	-0.052	0.621
-381.946	-75.446	0.087	-0.031
-380.931	239.416	0.116	-0.193
-379.917	-176.313	-0.173	0.005
-378.902	712.418	0.088	-0.235
-377.888	-119.085	-0.265	-0.046
-376.873	800.000	0.009	0.037
-375.858	162.813	0.087	0.122
-374.844	800.000	0.025	0.078
-373.829	-137.409	0.135	-0.015
-372.815	-67.558	0.070	-0.028
-371.800	215.220	-0.136	-0.216
-370.785	-36.708	-0.222	-0.119
-369.771	-15.397	0.139	-0.089
-368.756	-200.000	-0.037	-0.475
-367.742	134.401	0.061	0.079
-366.727	-200.000	-0.001	0.098
-365.712	-197.514	0.416	0.003
-364.698	29.490	-0.017	-0.014
-363.683	141.275	-0.302	0.400
-362.669	-117.624	0.236	-0.043
-361.654	-138.020	0.211	-0.024
-360.639	800.000	0.082	-0.301
-359.625	-78.998	0.148	-0.051
-358.610	-4.798	-0.284	-0.196
-357.596	-200.000	0.031	0.188
-356.581	-16.207	-0.417	0.265
-355.566	-59.998	0.104	-0.044
-354.552	-83.731	0.360	-0.115
-353.537	-47.854	-0.310	0.150
-352.523	-121.553	0.149	-0.025
-351.508	800.000	0.109	-0.476
-350.493	-130.759	-0.192	0.026
-349.479	-78.746	-0.211	-0.072
-348.464	-105.324	0.125	-0.029
-347.450	-88.453	0.187	-0.056
-346.435	623.394	-0.098	0.248
-345.420	-200.000	0.054	0.272
-344.406	-200.000	-0.013	0.186
-343.391	-96.212	0.117	0.031
-342.377	-73.911	0.277	0.101
-341.362	-11.083	0.123	-0.081
-340.348	-200.000	-0.048	0.353
-339.333	800.000	-0.101	0.415
-338.318	-130.825	0.299	0.040
-337.304	-126.603	0.128	-0.019
-336.289	-200.000	0.040	-0.280
-335.275	129.868	0.161	-0.206
-334.260	297.335	0.004	-0.007
-333.245	13.996	0.192	-0.150
-332.231	-200.000	0.021	-0.097
-331.216	-121.926	0.537	-0.088
-330.202	-10.725	-0.288	-0.191
-329.187	-62.912	0.278	0.115
-328.172	-200.000	-0.014	0.076
-327.158	-127.285	-0.118	-0.017
-326.143	-105.883	0.179	0.040
-325.129	800.000	-0.038	-0.168
-324.114	11.937	0.218	-0.167
-323.099	415.196	-0.143	0.304
-322.085	-106.458	-0.397	0.089
-321.070	800.000	-0.107	-0.296
-320.056	26.011	-0.217	0.181
-319.041	571.025	0.100	0.242
-318.026	-122.856	-0.185	-0.030
-317.012	-11.426	0.219	0.144
-315.997	-47.285	0.209	-0.102
-314.983	542.348	-0.040	-0.094
-313.968	-200.000	-0.036	0.350
-312.953	-67.124	0.358	0.141
-311.939	-119.805	-0.291	-0.050
-310.924	287.213	0.049	0.088
-309.910	262.930	0.188	0.325
-308.895	-112.401	0.188	-0.037
-307.880	-20.850	0.042	-0.025
-306.866	-200.000	0.025	-0.111
-305.851	65.954	0.362	-0.367
-304.837	84.045	-0.229	0.250
-303.822	299.249	0.077	0.142
-302.807	302.674	0.020	-0.037
-301.793	123.800	0.230	-0.289
-300.778	-200.000	0.036	-0.307
-299.764	25.301	0.233	0.193
-298.749	800.000	0.142	0.426
-297.735	468.777	-0.020	-0.044
-296.720	81.168	0.313	0.337
-295.705	800.000	0.098	0.408
-294.691	61.768	0.254	0.252
-293.676	-16.451	0.199	-0.126
-292.662	169.170	-0.215	-0.306
-291.647	-32.962	0.134	-0.074
-290.632	-200.000	0.057	-0.344
-289.618	800.000	0.081	0.228
-288.603	800.000	0.089	0.282
-287.589	-11.529	0.261	0.171
-286.574	-200.000	0.015	0.256
-285.559	89.816	0.230	-0.257
-284.545	-103.053	-0.238	-0.056
-283.530	-0.952	0.244	0.173
-282.516	-145.823	-0.267	-0.024
-281.501	-62.192	-0.038	-0.016
-280.486	19.736	-0.124	0.100
-279.472	-139.243	-0.114	0.012
-278.457	45.355	0.188	-0.173
-277.443	471.691	0.062	0.140
-276.428	-69.903	-0.405	0.154
-275.413	-54.516	0.103	-0.047
-274.399	43.315	-0.182	0.166
-273.384	-106.686	-0.175	-0.039
-272.370	437.369	-0.158	0.343
-271.355	-200.000	0.006	-0.049
-270.340	728.307	0.180	-0.480
-269.326	48.988	0.072	-0.067
-268.311	-165.617	-0.489	-0.021
-267.297	203.455	0.110	0.169
-266.282	537.133	0.060	0.141
-265.267	-138.467	0.140	0.015
-264.253	138.612	0.209	-0.274
-263.238	-126.173	-0.174	0.026
-262.224	-172.138	-0.109	-0.003
-261.209	800.000	-0.036	-0.122
-260.195	-131.958	0.065	0.009
-259.180	40.535	0.357	-0.321
-258.165	-87.995	0.103	-0.031
-257.151	252.434	0.104	-0.177
-256.136	-18.253	-0.446	-0.278
-255.122	-107.520	0.068	-0.015
-254.107	-33.997	0.158	0.087
-253.092	179.888	-0.287	0.419
-252.078	371.713	-0.082	0.166
-251.063	66.906	0.171	0.174
-250.049	800.000	-0.087	0.324
-249.034	-200.000	0.015	0.106
-248.019	-200.000	0.013	-0.085
-247.005	-30.850	-0.176	-0.099
-245.990	87.491	0.122	0.135
-244.976	93.984	-0.247	0.280
-243.961	-200.000	0.035	-0.201
-242.946	-51.033	-0.313	-0.146
-241.932	-66.903	-0.027	0.011
-240.917	356.649	0.020	-0.039
-239.903	-200.000	0.023	-0.200
-238.888	800.000	-0.057	0.191
-237.873	-52.381	-0.188	0.087
-236.859	-200.000	0.041	-0.253
-235.844	-200.000	0.007	0.053
-234.830	49.559	-0.281	0.264
-233.815	-94.724	-0.114	-0.031
-232.800	31.572	0.189	0.162
-231.786	-61.118	-0.240	0.101
-230.771	-162.089	0.238	0.012
-229.757	70.104	0.239	0.245
-228.742	205.633	0.047	0.072
-227.727	-200.000	-0.064	-0.292
-226.713	-200.000	0.022	0.124
-225.698	-28.928	-0.285	-0.163
-224.684	83.546	0.143	-0.156
-223.669	-89.978	0.092	0.027
-222.655	-109.251	0.221	0.047
-221.640	-14.374	-0.318	0.204
-220.625	164.966	0.063	0.088
-219.611	-52.476	-0.190	0.087
-218.596	90.813	0.073	0.082
-217.582	230.588	0.188	0.306
-216.567	154.876	0.094	0.129
-215.552	-25.945	-0.337	-0.197
-214.538	-184.423	0.398	-0.006
-213.523	9.083	-0.212	0.160
-212.509	-13.988	0.341	0.219
-211.494	-200.000	0.010	0.252
-210.479	50.396	0.132	0.124
-209.465	-15.098	0.289	-0.184
-208.450	-107.603	0.323	0.070
-207.436	478.693	0.129	-0.290
-206.421	505.372	0.089	-0.205
-205.406	-54.056	0.274	-0.124
-204.392	-176.953	0.353	-0.009
-203.377	-1.996	0.266	-0.186
-202.363	637.865	-0.118	0.299
-201.348	568.094	0.076	-0.183
-200.333	51.868	-0.126	0.119
-199.319	-150.834	-0.282	-0.021
-198.304	-152.092	-0.034	0.002
-197.290	-200.000	0.021	0.187
-196.275	-152.375	-0.194	-0.014
-195.260	-200.000	0.009	0.176
-194.246	209.770	0.083	0.129
-193.231	800.000	-0.126	0.394
-192.217	30.889	-0.186	0.159
-191.202	436.581	0.106	-0.228
-190.187	-95.579	0.202	0.054
-189.173	-64.872	0.332	0.133
-188.158	411.569	0.057	-0.119
-187.144	393.035	0.251	0.520
-186.129	563.454	0.072	0.174
-185.114	290.949	-0.187	-0.338
-184.100	59.847	-0.294	-0.289
-183.085	-185.622	-0.184	-0.003
-182.071	800.000	-0.052	-0.192
-181.056	-200.000	-0.001	-0.177
-180.042	-29.041	-0.083	-0.047
-179.027	-165.319	-0.131	-0.006
-178.012	62.865	0.050	0.050
-176.998	-89.400	-0.309	0.090
-175.983	-146.894	-0.187	-0.016
-174.969	-200.000	-0.024	0.106
-173.954	-50.340	0.268	0.126
-172.939	-52.612	-0.256	-0.117
-171.925	513.958	-0.151	-0.350
-170.910	-65.947	0.194	-0.077
-169.896	-10.439	0.192	0.126
-168.881	-165.715	0.213	-0.009
-167.866	-107.428	-0.187	0.041
-166.852	121.075	-0.052	-0.065
-165.837	-66.947	0.105	-0.041
-164.823	-62.710	-0.137	0.057
-163.808	-200.000	-0.032	0.260
-162.793	47.176	-0.371	0.343
-161.779	-200.000	0.017	0.241
-160.764	194.805	-0.083	0.124
-159.750	800.000	0.062	-0.217
-158.735	183.956	0.134	-0.197
-157.720	-200.000	-0.029	0.219
-156.706	-38.272	0.289	0.152
-155.691	-121.135	-0.281	0.047
-154.677	121.723	-0.091	0.113
-153.662	-111.535	-0.229	0.046
-152.647	-137.983	0.152	0.017
-151.633	-200.000	-0.003	-0.068
-150.618	-32.898	-0.259	0.143
-149.604	-200.000	0.048	0.238
-148.589	479.018	0.134	-0.301
-147.574	-57.377	-0.426	0.186
-146.560	-8.138	-0.180	-0.120
-145.545	800.000	0.026	-0.106
-144.531	113.459	0.254	-0.306
-143.516	118.126	-0.109	0.134
-142.502	-98.045	0.111	-0.028
-141.487	-37.907	-0.083	-0.044
-140.472	-69.042	0.114	-0.044
-139.458	2.468	-0.381	-0.274
-138.443	-200.000	-0.028	0.151
-137.429	146.791	0.218	0.291
-136.414	55.294	-0.212	-0.203
-135.399	-87.780	0.179	-0.053
-134.385	-200.000	-0.044	0.196
-133.370	3.226	0.242	-0.174
-132.356	-200.000	0.034	-0.296
-131.341	241.326	-0.013	-0.021
-130.326	293.649	0.212	-0.384
-129.312	-200.000	-0.008	-0.048
-128.297	-180.224	0.353	-0.007
-127.283	173.449	0.071	-0.102
-126.268	-35.500	-0.157	0.084
-125.253	13.012	0.239	-0.183
-124.239	800.000	-0.070	0.193
-123.224	-200.000	-0.001	0.088
-122.210	-119.609	-0.147	0.025
