DTS Sentinel unit serial number:	SN413079Multiplexer serial number:	ORYXHardware model number:	OX4-SRSoftware version number:	ORYX F/W v4.00 Oryx Data Collector v3.7.2.0data status	okinstallation	princeton_trtdifferential loss correction	single-endedforward channel	channel 4reverse channel	N/Adate	2019/09/11time	21:39:10forward acquisition time	60.00reverse acquisition time	0.00gamma	496.2192k internal	0.2306k external	0.2306temperature offset calibration	1.0062default loss term (dB/km)	0.3790temperature slope calibration	1.0000multiplexer offset coefficient	1.0000multiplexer slope coefficient	1.0000fibre end	0.00T internal ref (°C)	35.87T ext. ref 1 (°C)	1.63T ext. ref 2 (°C)	30.41length (m)	temperature (°C)	Stokes	anti-Stokes-747.200	800.000	-0.058	0.225
-746.185	58.124	-0.196	0.196
-745.171	-115.239	-0.086	-0.016
-744.156	-73.929	-0.051	0.019
-743.142	-200.000	0.014	-0.138
-742.127	800.000	-0.091	0.378
-741.112	307.438	-0.148	-0.280
-740.098	136.034	0.309	0.410
-739.083	-101.871	0.065	-0.016
-738.069	-95.470	-0.185	0.051
-737.054	-65.794	0.050	0.020
-736.039	104.334	0.221	0.264
-735.025	-122.853	0.124	-0.020
-734.010	34.283	-0.042	0.038
-732.996	288.399	0.033	0.061
-731.981	-47.768	0.153	0.076
-730.966	-200.000	-0.022	0.507
-729.952	-91.634	0.295	0.085
-728.937	6.019	-0.215	-0.162
-727.923	800.000	0.054	-0.211
-726.908	-32.265	-0.125	-0.071
-725.894	583.798	0.083	-0.206
-724.879	-162.346	-0.317	-0.016
-723.864	-200.000	0.004	0.027
-722.850	679.322	-0.154	-0.408
-721.835	-114.212	0.458	-0.090
-720.821	-200.000	0.000	-0.197
-719.806	-169.891	-0.220	-0.008
-718.791	800.000	0.039	-0.133
-717.777	-27.308	-0.293	0.174
-716.762	-132.396	-0.245	0.032
-715.748	306.157	0.052	0.099
-714.733	-97.205	-0.054	0.014
-713.718	164.939	-0.046	-0.066
-712.704	361.443	-0.078	-0.159
-711.689	-43.080	-0.368	-0.189
-710.675	800.000	0.055	0.199
-709.660	-18.490	-0.230	0.146
-708.645	62.250	-0.070	0.071
-707.631	800.000	0.104	0.381
-706.616	800.000	-0.100	-0.294
-705.602	148.237	0.092	-0.126
-704.587	46.117	-0.198	-0.186
-703.572	-100.582	-0.144	-0.036
-702.558	366.661	0.237	-0.487
-701.543	-114.680	-0.563	0.109
-700.529	17.480	-0.204	0.165
-699.514	-200.000	0.020	0.180
-698.499	-149.663	-0.226	-0.018
-697.485	800.000	-0.067	-0.289
-696.470	-200.000	0.069	-0.326
-695.456	42.601	0.295	-0.273
-694.441	193.044	-0.221	-0.339
-693.426	15.574	0.210	-0.168
-692.412	73.194	-0.160	-0.170
-691.397	-200.000	-0.005	0.207
-690.383	218.937	-0.162	0.263
-689.368	-200.000	0.011	-0.095
-688.354	-88.374	-0.210	0.064
-687.339	-18.494	0.089	-0.057
-686.324	-38.148	-0.335	0.180
-685.310	-40.195	-0.137	0.073
-684.295	-200.000	-0.002	-0.084
-683.281	-42.722	0.042	0.022
-682.266	-83.500	0.357	0.116
-681.251	-13.286	-0.361	-0.238
-680.237	-1.029	-0.059	-0.043
-679.222	10.068	0.188	0.145
-678.208	-200.000	-0.034	-0.211
-677.193	-111.601	-0.146	0.030
-676.178	64.083	-0.320	-0.327
-675.164	-200.000	0.062	0.335
-674.149	-67.800	-0.174	0.069
-673.135	26.556	0.084	-0.071
-672.120	-200.000	0.005	-0.094
-671.105	-200.000	0.008	0.207
-670.091	-2.873	-0.187	-0.133
-669.076	61.311	0.059	0.060
-668.062	800.000	-0.057	-0.164
-667.047	90.790	-0.273	-0.310
-666.032	-108.889	-0.441	-0.096
-665.018	151.870	0.244	-0.338
-664.003	800.000	0.032	0.103
-662.989	-10.504	0.188	-0.126
-661.974	800.000	0.026	0.076
-660.959	83.005	0.226	-0.249
-659.945	800.000	0.037	-0.143
-658.930	-200.000	0.001	0.272
-657.916	310.252	0.248	-0.471
-656.901	44.500	0.078	-0.072
-655.886	336.013	-0.156	-0.307
-654.872	-41.376	-0.096	-0.050
-653.857	608.463	0.077	0.196
-652.843	-3.117	-0.053	0.038
-651.828	-22.512	0.209	0.128
-650.814	-10.770	-0.106	-0.071
-649.799	77.660	-0.063	-0.068
-648.784	-85.793	0.103	0.032
-647.770	-100.132	-0.180	-0.046
-646.755	264.849	-0.239	0.421
-645.741	465.711	0.120	0.272
-644.726	800.000	-0.038	-0.123
-643.711	63.492	0.204	0.208
-642.697	86.964	-0.218	0.244
-641.682	-84.042	-0.251	-0.081
-640.668	126.340	0.283	0.363
-639.653	-200.000	-0.079	0.396
-638.638	800.000	0.185	-0.588
-637.624	376.400	-0.086	0.177
-636.609	246.634	0.194	-0.331
-635.595	-176.267	-0.257	0.007
-634.580	-57.987	-0.245	0.109
-633.565	69.193	-0.190	0.198
-632.551	-141.354	0.301	0.031
-631.536	456.945	0.162	-0.364
-630.522	590.970	-0.006	0.016
-629.507	222.178	0.065	-0.106
-628.492	-96.831	0.151	0.040
-627.478	-160.652	0.247	0.013
-626.463	-200.000	0.000	-0.064
-625.449	-200.000	-0.029	0.225
-624.434	365.811	0.063	-0.129
-623.419	115.094	-0.200	-0.248
-622.405	800.000	-0.048	-0.172
-621.390	-169.259	0.187	-0.007
-620.376	-200.000	0.010	-0.057
-619.361	585.293	-0.061	-0.152
-618.346	-200.000	0.051	0.335
-617.332	10.894	0.209	0.162
-616.317	-151.710	0.286	-0.021
-615.303	-101.709	-0.120	0.029
-614.288	-139.298	-0.162	0.018
-613.273	492.563	0.096	-0.222
-612.259	104.487	-0.052	0.062
-611.244	43.951	0.130	-0.120
-610.230	-21.876	0.285	-0.176
-609.215	-200.000	0.070	0.365
-608.201	39.515	-0.117	0.106
-607.186	-200.000	-0.051	0.306
-606.171	74.255	0.064	0.068
-605.157	88.435	-0.037	0.041
-604.142	-25.312	-0.218	-0.131
-603.128	-200.000	0.025	0.162
-602.113	541.571	-0.174	-0.420
-601.098	-105.220	-0.178	-0.041
-600.084	800.000	0.059	0.257
-599.069	230.250	0.098	-0.162
-598.055	489.922	0.082	0.190
-597.040	-166.760	0.117	0.005
-596.025	-92.456	0.317	0.090
-595.011	-200.000	-0.018	0.079
-593.996	41.086	-0.054	0.049
-592.982	-77.953	0.362	0.126
-591.967	-7.436	-0.073	0.050
-590.952	219.403	-0.014	0.023
-589.938	-62.552	0.212	0.089
-588.923	-131.321	-0.113	-0.015
-587.909	-105.949	0.270	0.062
-586.894	800.000	0.064	0.220
-585.879	-200.000	-0.019	-0.224
-584.865	-35.736	0.146	-0.080
-583.850	268.000	-0.081	-0.144
-582.836	-102.918	-0.164	-0.039
-581.821	67.231	0.178	0.184
-580.806	-81.332	0.127	0.042
-579.792	135.355	-0.197	0.259
-578.777	-54.731	0.101	0.046
-577.763	-200.000	-0.014	-0.438
-576.748	58.011	-0.075	-0.074
-575.733	-116.397	-0.144	0.027
-574.719	350.473	0.041	0.082
-573.704	24.575	0.199	0.166
-572.690	-200.000	0.036	-0.162
-571.675	197.391	0.120	-0.185
-570.661	800.000	0.060	-0.227
-569.646	246.110	0.234	0.398
-568.631	30.612	-0.073	-0.063
-567.617	14.506	-0.282	0.222
-566.602	-78.442	0.145	-0.050
-565.588	-59.493	0.207	-0.090
-564.573	-154.679	0.150	-0.010
-563.558	-128.718	0.128	-0.018
-562.544	800.000	-0.038	-0.136
-561.529	-200.000	-0.050	-0.227
-560.515	6.232	-0.126	0.095
-559.500	487.199	-0.119	-0.273
-558.485	-103.392	-0.138	-0.033
-557.471	53.283	-0.042	-0.041
-556.456	-107.498	0.080	0.018
-555.442	142.958	-0.137	-0.183
-554.427	-89.196	0.206	0.062
-553.412	-99.058	0.425	-0.109
-552.398	-22.827	-0.187	-0.114
-551.383	-100.275	0.254	-0.064
-550.369	-118.426	-0.362	-0.065
-549.354	243.675	0.048	-0.081
-548.339	133.037	0.146	0.190
-547.325	-200.000	-0.019	0.314
-546.310	17.586	0.312	0.251
-545.296	-68.913	0.282	0.110
-544.281	193.664	-0.203	-0.311
-543.266	-127.097	0.228	-0.034
-542.252	49.708	0.238	-0.226
-541.237	-200.000	0.016	0.129
-540.223	-200.000	-0.022	-0.263
-539.208	106.908	0.178	0.213
-538.193	146.062	-0.139	0.188
-537.179	584.788	0.051	0.126
-536.164	25.644	0.133	-0.112
-535.150	72.193	0.155	-0.163
-534.135	800.000	0.077	-0.257
-533.121	-200.000	-0.096	0.440
-532.106	552.783	-0.098	-0.238
-531.091	-200.000	0.021	-0.548
-530.077	104.609	-0.176	-0.209
-529.062	198.405	-0.091	0.141
-528.048	20.063	-0.128	0.104
-527.033	800.000	-0.065	0.222
-526.018	-67.276	0.355	-0.141
-525.004	5.514	0.160	-0.119
-523.989	86.195	-0.228	0.253
-522.975	-112.471	0.498	-0.100
-521.960	-127.070	0.030	-0.004
-520.945	-76.996	0.119	0.042
-519.931	238.712	-0.095	0.159
-518.916	-28.123	-0.151	0.088
-517.902	729.540	-0.005	0.015
-516.887	56.444	-0.214	-0.209
-515.872	-9.835	-0.210	0.141
-514.858	50.985	0.160	-0.153
-513.843	-76.618	0.199	0.070
-512.829	63.015	-0.402	0.405
-511.814	800.000	-0.077	0.284
-510.799	99.435	0.115	-0.134
-509.785	140.886	-0.050	-0.066
-508.770	373.481	-0.040	0.082
-507.756	584.560	-0.115	-0.285
-506.741	800.000	0.086	-0.315
-505.726	0.163	-0.210	-0.151
-504.712	-103.205	-0.073	0.017
-503.697	47.958	-0.173	-0.163
-502.683	-142.722	0.193	0.019
-501.668	26.561	0.219	0.185
-500.653	296.897	-0.028	0.052
-499.639	-200.000	-0.054	0.299
-498.624	188.761	0.276	0.416
-497.610	-43.252	0.194	0.099
-496.595	800.000	0.070	0.206
-495.581	130.546	-0.074	-0.096
-494.566	-85.627	-0.210	0.066
-493.551	-16.366	0.106	0.067
-492.537	14.699	-0.128	0.101
-491.522	0.120	-0.156	0.112
-490.508	-71.914	-0.121	-0.045
-489.493	-68.755	-0.248	0.096
-488.478	-121.814	-0.429	-0.071
-487.464	-87.697	-0.060	0.018
-486.449	-59.761	0.143	0.062
-485.435	-40.906	-0.081	-0.042
-484.420	61.060	-0.126	-0.126
-483.405	163.157	0.057	-0.081
-482.391	-200.000	0.011	-0.175
-481.376	-22.215	-0.294	0.180
-480.362	-132.399	0.070	0.009
-479.347	-200.000	-0.011	0.163
-478.332	-200.000	-0.002	-0.196
-477.318	424.851	0.013	-0.028
-476.303	46.392	-0.074	-0.069
-475.289	175.532	-0.123	-0.179
-474.274	-200.000	-0.004	0.237
-473.259	-74.304	-0.274	-0.099
-472.245	-42.416	0.260	-0.134
-471.230	141.575	0.047	-0.063
-470.216	147.361	-0.111	-0.151
-469.201	-65.404	0.212	-0.086
-468.186	-110.932	0.238	-0.049
-467.172	-35.767	-0.264	-0.144
-466.157	88.499	-0.278	-0.311
-465.143	132.370	0.238	0.309
-464.128	567.034	0.064	0.157
-463.113	278.869	-0.023	-0.042
-462.099	450.448	0.128	0.284
-461.084	-84.176	0.202	-0.065
-460.070	12.203	0.173	-0.134
-459.055	232.735	0.144	-0.239
-458.040	-181.808	-0.215	-0.004
-457.026	55.504	-0.173	0.169
-456.011	-14.139	0.313	0.203
-454.997	-200.000	0.007	0.089
-453.982	101.650	0.116	-0.136
-452.968	-100.168	-0.341	0.085
-451.953	-140.854	0.155	-0.016
-450.938	345.908	-0.025	0.048
-449.924	-12.892	0.089	0.058
-448.909	18.006	0.077	-0.061
-447.895	-143.640	-0.324	0.031
-446.880	178.905	0.134	0.198
-445.865	-200.000	0.041	0.374
-444.851	252.916	0.075	0.129
-443.836	-200.000	-0.033	0.225
-442.822	267.618	-0.144	-0.253
-441.807	170.656	0.035	-0.051
-440.792	9.373	-0.155	0.118
-439.778	-70.671	0.182	-0.069
-438.763	-200.000	-0.030	0.203
-437.749	-13.102	-0.315	0.206
-436.734	-200.000	0.034	0.181
-435.719	-42.138	0.149	-0.076
-434.705	67.274	0.237	0.243
-433.690	-145.563	0.066	-0.006
-432.676	-33.351	0.048	0.027
-431.661	-6.032	0.042	-0.029
-430.646	-170.003	-0.235	0.008
-429.632	-59.446	-0.111	-0.048
-428.617	-138.373	0.319	0.035
-427.603	-169.107	-0.103	0.004
-426.588	800.000	0.084	0.279
-425.573	-151.921	0.418	-0.031
-424.559	98.452	-0.042	-0.049
-423.544	-126.771	-0.187	0.028
-422.530	-142.391	0.208	-0.021
-421.515	-13.719	-0.058	0.038
-420.500	158.961	-0.154	-0.215
-419.486	398.451	0.195	-0.409
-418.471	-200.000	-0.003	-0.310
-417.457	-149.368	-0.252	0.020
-416.442	-103.674	-0.089	-0.021
-415.428	-11.747	0.146	-0.096
-414.413	23.710	0.078	-0.064
-413.398	800.000	-0.102	-0.369
-412.384	173.080	-0.082	-0.119
-411.369	150.231	0.010	0.013
-410.355	-175.010	-0.339	-0.010
-409.340	-200.000	-0.007	-0.037
-408.325	-136.652	0.266	-0.031
-407.311	-41.492	0.032	0.017
-406.296	800.000	0.055	0.202
-405.282	166.486	0.044	0.062
-404.267	16.933	-0.259	-0.206
-403.252	-31.041	-0.404	-0.229
-402.238	-200.000	0.004	-0.079
-401.223	121.957	0.247	-0.309
-400.209	730.324	-0.056	-0.150
-399.194	-95.819	0.300	-0.080
-398.179	800.000	0.065	0.256
-397.165	-200.000	-0.030	0.268
-396.150	390.667	0.014	-0.029
-395.136	381.698	0.081	0.167
-394.121	-200.000	0.006	0.164
-393.106	-200.000	0.014	0.117
-392.092	-200.000	0.011	0.141
-391.077	228.343	-0.117	-0.191
-390.063	-200.000	-0.062	-0.432
-389.048	-69.465	-0.416	-0.160
-388.033	-99.136	-0.164	-0.042
-387.019	-131.009	0.092	0.012
-386.004	-32.862	-0.082	0.046
-384.990	78.931	-0.178	0.192
-383.975	-109.797	0.182	-0.038
-382.960	-119.314	-0.207	-0.036
-381.946	-200.000	0.019	-0.296
-380.931	-161.867	-0.181	0.009
-379.917	103.373	0.158	0.186
-378.902	-44.322	0.067	0.034
-377.888	15.458	-0.211	-0.166
-376.873	52.639	-0.245	-0.234
-375.858	14.687	0.253	0.199
-374.844	-147.707	-0.314	0.026
-373.829	48.787	0.071	-0.067
-372.815	-126.749	-0.465	0.069
-371.800	-200.000	-0.047	-0.210
-370.785	-53.246	0.139	0.064
-369.771	99.263	-0.058	0.068
-368.756	-13.835	0.140	0.091
-367.742	-40.631	0.107	-0.055
-366.727	-106.445	-0.186	-0.042
-365.712	-78.882	0.079	0.027
-364.698	495.485	0.115	0.264
-363.683	-200.000	0.048	0.388
-362.669	-200.000	-0.057	0.279
-361.654	800.000	-0.013	0.038
-360.639	-24.837	0.272	0.162
-359.625	-43.511	-0.371	-0.188
-358.610	487.110	-0.131	0.300
-357.596	-66.452	0.527	-0.210
-356.581	187.079	0.158	-0.236
-355.566	-200.000	0.023	-0.104
-354.552	-88.175	0.103	-0.031
-353.537	-97.665	0.226	-0.059
-352.523	736.974	-0.087	-0.234
-351.508	-102.130	-0.100	0.024
-350.493	-32.371	-0.187	-0.105
-349.479	56.294	-0.036	0.035
-348.464	-71.276	-0.088	0.033
-347.450	-77.918	0.149	0.052
-346.435	-37.397	0.075	-0.040
-345.420	300.296	0.156	0.288
-344.406	537.257	-0.069	0.163
-343.391	-200.000	0.036	0.340
-342.377	303.573	0.070	-0.129
-341.362	800.000	-0.059	-0.224
-340.348	241.093	-0.057	-0.095
-339.333	230.662	0.115	-0.188
-338.318	-200.000	0.152	0.000
-337.304	39.103	0.233	-0.209
-336.289	-159.086	0.063	-0.004
-335.275	-150.057	-0.303	-0.024
-334.260	113.758	-0.254	-0.310
-333.245	-43.438	0.218	0.110
-332.231	16.154	-0.179	-0.141
-331.216	-196.187	0.195	-0.001
-330.202	-32.248	-0.212	-0.118
-329.187	-93.946	-0.019	-0.005
-328.172	-100.630	-0.092	0.023
-327.158	41.283	0.291	-0.263
-326.143	-200.000	-0.002	-0.222
-325.129	800.000	-0.023	-0.090
-324.114	-200.000	0.085	-0.389
-323.099	34.779	0.223	-0.195
-322.085	-200.000	-0.004	-0.073
-321.070	800.000	0.040	0.124
-320.056	800.000	-0.060	-0.187
-319.041	-69.684	0.056	0.021
-318.026	685.553	0.074	-0.194
-317.012	137.962	0.056	0.073
-315.997	225.117	-0.062	-0.100
-314.983	162.274	0.069	0.096
-313.968	272.687	0.080	0.142
-312.953	133.628	0.120	0.155
-311.939	-200.000	-0.037	-0.300
-310.924	-145.811	-0.345	-0.031
-309.910	-7.053	0.214	-0.145
-308.895	-196.484	0.391	0.003
-307.880	-10.159	-0.027	0.018
-306.866	83.525	0.062	-0.067
-305.851	800.000	-0.019	-0.078
-304.837	-200.000	-0.034	-0.169
-303.822	369.135	0.123	0.248
-302.807	202.449	0.120	-0.185
-301.793	617.079	-0.007	-0.018
-300.778	28.000	-0.279	0.236
-299.764	800.000	-0.066	0.212
-298.749	-12.627	-0.202	-0.132
-297.735	20.718	-0.318	0.257
-296.720	397.961	-0.037	-0.076
-295.705	-177.825	0.123	-0.003
-294.691	59.007	-0.144	-0.141
-293.676	342.368	0.093	-0.181
-292.662	-8.540	-0.392	0.263
-291.647	724.175	-0.112	0.298
-290.632	-36.876	0.179	-0.096
-289.618	-72.369	-0.307	-0.113
-288.603	-43.293	0.345	0.174
-287.589	-35.016	-0.098	-0.054
-286.574	362.074	-0.045	-0.090
-285.559	-200.000	-0.030	0.173
-284.545	-197.206	-0.230	0.001
-283.530	-200.000	-0.012	-0.206
-282.516	-18.701	-0.369	-0.230
-281.501	-11.483	-0.262	-0.172
-280.486	-87.520	0.173	0.052
-279.472	201.555	-0.079	0.121
-278.457	-30.422	-0.203	0.115
-277.443	-200.000	-0.010	-0.076
-276.428	-200.000	0.024	0.171
-275.413	800.000	0.024	-0.077
-274.399	-106.321	0.198	-0.044
-273.384	-21.430	0.105	0.064
-272.370	103.963	0.137	-0.161
-271.355	158.559	0.248	-0.343
-270.340	125.676	0.186	-0.235
-269.326	-151.223	0.083	-0.006
-268.311	-31.743	-0.191	-0.107
-267.297	-200.000	0.040	0.246
-266.282	133.071	-0.203	-0.261
-265.267	800.000	-0.042	0.164
-264.253	-200.000	-0.014	-0.159
-263.238	48.987	-0.136	-0.127
-262.224	35.927	0.090	0.079
-261.209	-163.186	0.201	0.010
-260.195	-5.134	-0.110	-0.075
-259.180	-48.720	0.211	-0.101
-258.165	338.552	0.113	-0.220
-257.151	-200.000	-0.022	-0.125
-256.136	-112.791	0.210	0.042
-255.122	-200.000	-0.003	0.455
-254.107	800.000	-0.142	0.481
-253.092	-75.600	0.086	0.031
-252.078	0.667	-0.207	0.147
-251.063	-45.064	-0.362	-0.180
-250.049	-40.480	0.047	-0.024
-249.034	-200.000	-0.032	-0.164
-248.019	800.000	0.078	0.300
-247.005	-169.424	0.324	-0.012
-245.990	472.424	-0.129	-0.291
-244.976	800.000	-0.066	-0.186
-243.961	-149.256	0.178	0.014
-242.946	-87.227	-0.379	0.115
-241.932	-200.000	0.065	-0.336
-240.917	-51.697	-0.019	0.009
-239.903	296.492	0.076	0.139
-238.888	-200.000	0.002	0.022
-237.873	-200.000	0.024	0.207
-236.859	288.590	0.068	0.123
-235.844	37.155	0.086	0.076
-234.830	-74.010	-0.214	0.078
-233.815	-16.475	0.570	0.360
-232.800	0.855	-0.469	-0.335
-231.786	-58.082	-0.167	-0.073
-230.771	-98.884	-0.240	0.061
-229.757	800.000	-0.011	-0.033
-228.742	16.162	-0.157	-0.124
-227.727	-200.000	-0.194	-0.001
-226.713	-200.000	0.036	-0.165
-225.698	62.044	0.167	0.166
-224.684	-133.260	0.120	0.015
-223.669	791.233	-0.104	0.285
-222.655	25.446	0.055	0.046
-221.640	-200.000	-0.041	-0.412
-220.625	43.430	0.234	-0.213
-219.611	800.000	-0.090	0.269
-218.596	800.000	0.216	0.636
-217.582	155.541	-0.109	0.150
-216.567	187.534	-0.142	-0.212
-215.552	11.425	0.316	-0.241
-214.538	-135.349	0.449	-0.054
-213.523	63.992	0.252	-0.252
-212.509	-200.000	-0.035	0.162
-211.494	-200.000	-0.015	-0.167
-210.479	-200.000	0.125	-0.001
-209.465	800.000	-0.050	0.190
-208.450	120.905	0.047	0.059
-207.436	90.847	0.116	-0.130
-206.421	-54.230	0.032	-0.015
-205.406	-200.000	-0.002	-0.090
-204.392	80.005	0.187	-0.200
-203.377	-81.129	-0.231	0.076
-202.363	-94.399	-0.117	-0.032
-201.348	-128.172	-0.229	0.033
-200.333	-150.508	0.165	0.013
-199.319	-200.000	0.011	0.102
-198.304	82.625	-0.103	0.111
-197.290	-200.000	-0.052	-0.437
-196.275	-161.148	-0.151	0.008
-195.260	-60.763	-0.281	0.119
-194.246	293.283	0.171	0.311
-193.231	800.000	0.012	0.045
-192.217	-160.289	0.113	-0.006
-191.202	117.563	-0.214	-0.262
-190.187	65.344	0.363	0.366
-189.173	21.514	0.237	0.192
-188.158	-200.000	-0.015	-0.433
-187.144	-172.374	-0.351	-0.011
-186.129	-200.000	-0.033	-0.344
-185.114	800.000	-0.070	-0.245
-184.100	367.073	-0.256	0.514
-183.085	-72.044	-0.057	-0.021
-182.071	-200.000	0.007	-0.311
-181.056	31.120	0.132	0.113
-180.042	800.000	-0.099	0.356
-179.027	18.473	0.176	-0.140
-178.012	14.430	-0.230	0.179
-176.998	72.519	-0.215	0.223
-175.983	256.247	0.121	0.207
-174.969	-111.981	-0.254	0.051
-173.954	10.002	-0.179	0.135
-172.939	363.862	-0.093	0.186
-171.925	-38.949	0.215	0.113
-170.910	-15.539	0.106	-0.067
-169.896	238.669	0.204	-0.337
-168.881	53.517	-0.075	-0.072
-167.866	-200.000	0.013	0.224
-166.852	624.595	0.038	-0.097
-165.837	-200.000	0.044	0.289
-164.823	98.576	0.124	0.143
-163.808	-88.772	-0.032	-0.009
-162.793	-113.461	-0.345	0.067
-161.779	-147.388	-0.422	-0.036
-160.764	-200.000	-0.018	0.264
-159.750	-139.043	-0.398	-0.043
-158.735	800.000	-0.064	-0.212
-157.720	-79.052	-0.222	-0.075
-156.706	104.561	0.122	0.142
-155.691	202.081	-0.179	0.274
-154.677	-200.000	0.002	-0.021
-153.662	-54.156	0.160	0.072
-152.647	-182.436	0.258	0.005
-151.633	-82.614	-0.269	0.087
-150.618	98.740	0.242	-0.277
-149.604	-165.738	0.128	-0.005
-148.589	-25.673	0.169	0.099
-147.574	-148.458	-0.302	0.025
-146.560	28.377	0.350	-0.294
-145.545	-104.345	0.270	0.062
-144.531	-159.128	0.261	0.015
-143.516	250.337	0.219	0.369
-142.502	271.321	0.169	0.295
-141.487	-200.000	-0.034	-0.193
-140.472	800.000	-0.065	0.268
-139.458	194.777	0.299	0.451
-138.443	-200.000	0.029	-0.152
-137.429	-49.792	-0.165	-0.078
-136.414	150.886	0.182	0.246
-135.399	308.391	0.069	0.127
-134.385	39.766	-0.264	-0.235
-133.370	-53.947	-0.046	0.021
-132.356	-162.231	0.149	0.007
-131.341	280.767	0.096	-0.171
-130.326	295.728	0.077	0.139
-129.312	447.170	-0.103	-0.225
-128.297	404.631	0.064	-0.133
-127.283	55.606	0.038	-0.037
-126.268	276.090	-0.046	0.081
-125.253	-173.278	-0.147	-0.004
-124.239	-46.552	0.125	0.061
-123.224	111.797	-0.104	-0.125
-122.210	-27.311	0.165	-0.095
-121.195	-69.346	-0.049	0.019
