DTS Sentinel unit serial number:	SN413079Multiplexer serial number:	ORYXHardware model number:	OX4-SRSoftware version number:	ORYX F/W v4.00 Oryx Data Collector v3.7.2.0data status	okinstallation	princeton_trtdifferential loss correction	single-endedforward channel	channel 4reverse channel	N/Adate	2019/09/11time	04:31:10forward acquisition time	60.00reverse acquisition time	0.00gamma	496.2192k internal	0.2316k external	0.2316temperature offset calibration	0.9942default loss term (dB/km)	0.3790temperature slope calibration	1.0000multiplexer offset coefficient	1.0000multiplexer slope coefficient	1.0000fibre end	0.00T internal ref (°C)	29.56T ext. ref 1 (°C)	-0.28T ext. ref 2 (°C)	23.34length (m)	temperature (°C)	Stokes	anti-Stokes-747.200	-115.819	0.089	-0.017
-746.185	12.167	-0.097	0.076
-745.171	-165.724	0.052	0.002
-744.156	409.529	0.087	0.186
-743.142	-144.293	-0.259	-0.024
-742.127	100.137	-0.328	0.385
-741.112	101.627	-0.209	-0.247
-740.098	-200.000	0.014	0.191
-739.083	-103.177	-0.095	-0.023
-738.069	-143.284	-0.245	-0.024
-737.054	800.000	0.081	0.250
-736.039	-200.000	-0.043	0.406
-735.025	-149.139	0.203	0.017
-734.010	-200.000	-0.006	-0.044
-732.996	-32.130	-0.234	-0.132
-731.981	514.946	0.098	0.233
-730.966	-96.602	-0.342	-0.091
-729.952	119.741	-0.201	0.253
-728.937	800.000	-0.052	0.156
-727.923	29.266	-0.118	-0.102
-726.908	800.000	-0.120	0.477
-725.894	98.724	-0.290	-0.338
-724.879	-10.042	0.362	-0.244
-723.864	377.151	-0.119	-0.247
-722.850	745.390	-0.116	-0.315
-721.835	-5.878	-0.224	0.155
-720.821	-200.000	-0.012	-0.063
-719.806	-200.000	-0.030	0.203
-718.791	-142.929	0.126	0.012
-717.777	-44.713	0.162	0.082
-716.762	20.510	-0.405	0.331
-715.748	-21.939	-0.042	0.026
-714.733	32.376	-0.403	0.352
-713.718	-76.656	-0.156	0.055
-712.704	-64.620	0.334	-0.137
-711.689	288.921	0.066	0.122
-710.675	-152.141	0.255	0.019
-709.660	-103.200	0.095	-0.023
-708.645	-200.000	0.016	0.469
-707.631	-200.000	0.033	-0.259
-706.616	25.614	-0.225	-0.189
-705.602	-92.305	0.016	0.005
-704.587	-46.670	-0.142	0.070
-703.572	3.700	0.225	-0.166
-702.558	-126.147	-0.268	-0.041
-701.543	81.496	-0.070	-0.076
-700.529	-98.762	0.168	0.043
-699.514	528.741	-0.056	-0.134
-698.499	-112.357	-0.206	-0.042
-697.485	427.863	-0.086	-0.187
-696.470	-90.146	0.456	0.134
-695.456	-44.525	0.341	-0.172
-694.441	128.473	-0.054	0.069
-693.426	-56.795	-0.466	-0.208
-692.412	-81.019	0.230	0.077
-691.397	63.067	0.224	0.227
-690.383	-200.000	-0.045	0.327
-689.368	-200.000	0.002	-0.071
-688.354	39.328	-0.173	0.157
-687.339	104.554	-0.058	-0.070
-686.324	-200.000	-0.010	0.109
-685.310	-149.810	-0.214	-0.017
-684.295	649.607	-0.068	-0.176
-683.281	-74.503	-0.303	0.110
-682.266	126.890	-0.126	0.161
-681.251	512.863	0.087	0.206
-680.237	43.069	0.190	-0.175
-679.222	76.504	-0.303	-0.324
-678.208	-167.822	-0.300	-0.012
-677.193	-200.000	0.002	0.186
-676.178	355.006	0.168	-0.337
-675.164	-181.514	-0.306	-0.006
-674.149	-28.582	0.485	0.282
-673.135	693.311	0.076	-0.200
-672.120	-20.661	0.177	-0.110
-671.105	227.978	-0.332	-0.546
-670.091	172.311	-0.085	-0.123
-669.076	-173.248	-0.117	0.004
-668.062	134.931	-0.183	-0.240
-667.047	-148.231	0.413	0.034
-666.032	5.635	0.293	0.219
-665.018	194.868	-0.145	-0.222
-664.003	800.000	0.045	-0.157
-662.989	68.707	-0.070	-0.073
-661.974	-145.157	-0.423	-0.039
-660.959	800.000	0.065	-0.252
-659.945	-108.621	-0.155	-0.034
-658.930	313.943	0.055	-0.105
-657.916	225.607	0.146	-0.238
-656.901	-51.829	-0.193	-0.091
-655.886	624.076	0.116	-0.295
-654.872	-30.239	0.236	0.135
-653.857	-163.254	-0.127	0.006
-652.843	-200.000	-0.070	-0.488
-651.828	-117.119	0.233	-0.043
-650.814	800.000	-0.077	-0.305
-649.799	476.540	0.118	-0.270
-648.784	-118.828	-0.314	0.056
-647.770	255.103	0.072	-0.124
-646.755	5.011	0.230	-0.171
-645.741	-200.000	0.005	0.036
-644.726	-77.324	-0.468	-0.164
-643.711	184.657	0.101	0.152
-642.697	421.886	-0.009	-0.019
-641.682	800.000	-0.113	-0.437
-640.668	209.509	-0.123	-0.194
-639.653	800.000	0.080	-0.305
-638.638	-13.377	0.247	-0.162
-637.624	-200.000	-0.029	0.183
-636.609	-200.000	-0.024	0.359
-635.595	135.034	-0.036	-0.048
-634.580	-200.000	0.026	0.184
-633.565	-102.128	-0.103	-0.025
-632.551	99.574	-0.057	-0.066
-631.536	475.946	-0.060	-0.136
-630.522	22.820	-0.162	0.133
-629.507	-174.643	-0.422	-0.012
-628.492	9.021	-0.361	0.275
-627.478	-13.357	0.167	0.109
-626.463	-139.663	0.190	0.020
-625.449	-99.474	-0.347	-0.088
-624.434	40.628	0.269	-0.245
-623.419	-200.000	-0.011	-0.284
-622.405	800.000	-0.075	-0.255
-621.390	-200.000	-0.057	0.344
-620.376	-200.000	0.023	-0.297
-619.361	340.289	-0.050	-0.099
-618.346	737.530	0.095	0.255
-617.332	-60.281	-0.264	0.113
-616.317	-200.000	-0.036	-0.255
-615.303	-154.241	0.134	-0.009
-614.288	-200.000	-0.018	0.290
-613.273	800.000	-0.024	-0.086
-612.259	547.441	0.054	-0.131
-611.244	800.000	0.089	-0.265
-610.230	800.000	0.048	-0.194
-609.215	800.000	0.039	-0.134
-608.201	-135.271	0.213	0.026
-607.186	-39.521	-0.412	-0.218
-606.171	-144.984	-0.336	0.031
-605.157	-30.965	0.150	0.085
-604.142	800.000	-0.082	0.230
-603.128	-0.596	-0.116	0.083
-602.113	-200.000	-0.017	-0.362
-601.098	80.120	0.228	-0.246
-600.084	-32.754	-0.203	-0.114
-599.069	800.000	0.030	0.102
-598.055	800.000	-0.070	-0.206
-597.040	623.898	0.030	-0.075
-596.025	-74.673	-0.112	0.041
-595.011	-73.588	-0.239	-0.088
-593.996	305.875	-0.091	-0.171
-592.982	-132.949	0.146	0.019
-591.967	80.817	-0.174	0.189
-590.952	-139.468	0.353	0.038
-589.938	-163.092	0.261	-0.013
-588.923	800.000	-0.022	0.074
-587.909	4.117	0.202	-0.149
-586.894	-20.274	0.092	-0.057
-585.879	-3.179	-0.251	0.176
-584.865	222.983	0.367	-0.595
-583.850	134.196	-0.107	0.139
-582.836	-67.148	0.169	0.067
-581.821	-94.496	-0.184	0.051
-580.806	-61.557	-0.263	0.111
-579.792	775.221	-0.107	-0.293
-578.777	185.958	-0.070	0.105
-577.763	-93.596	0.383	-0.106
-576.748	235.472	0.284	-0.473
-575.733	-82.260	-0.248	0.081
-574.719	-200.000	-0.012	0.182
-573.704	533.158	-0.118	-0.282
-572.690	-89.920	-0.144	-0.042
-571.675	-92.110	0.253	-0.072
-570.661	-200.000	-0.020	-0.240
-569.646	144.260	0.115	-0.154
-568.631	-105.426	-0.024	-0.006
-567.617	-200.000	-0.085	0.511
-566.602	-200.000	0.009	0.171
-565.588	-200.000	0.004	-0.119
-564.573	-15.420	0.352	-0.226
-563.558	-93.921	0.135	-0.037
-562.544	132.210	-0.102	-0.133
-561.529	-40.916	0.199	0.103
-560.515	55.467	0.186	0.181
-559.500	-200.000	-0.028	0.505
-558.485	-200.000	0.015	-0.204
-557.471	67.198	-0.040	0.041
-556.456	-200.000	0.040	0.200
-555.442	-46.330	0.132	-0.065
-554.427	57.750	0.092	0.090
-553.412	106.159	0.103	-0.123
-552.398	188.694	0.116	0.175
-551.383	800.000	-0.034	0.126
-550.369	-73.681	0.331	0.121
-549.354	29.396	0.072	0.062
-548.339	81.668	0.170	0.185
-547.325	-85.014	0.088	-0.028
-546.310	-63.069	0.156	-0.065
-545.296	32.898	-0.183	-0.159
-544.281	-66.225	-0.119	-0.048
-543.266	315.111	0.114	-0.217
-542.252	-69.813	-0.112	-0.043
-541.237	386.659	0.087	-0.181
-540.223	800.000	-0.045	-0.161
-539.208	336.700	0.099	-0.194
-538.193	349.115	0.034	0.068
-537.179	-16.195	0.140	-0.089
-536.164	126.390	0.147	-0.187
-535.150	-95.385	0.222	0.060
-534.135	622.707	0.135	0.342
-533.121	-62.109	0.107	0.045
-532.106	-200.000	-0.047	0.616
-531.091	455.008	-0.110	0.245
-530.077	-200.000	0.001	-0.424
-529.062	-200.000	0.012	0.131
-528.048	183.264	-0.048	0.071
-527.033	-156.431	-0.181	-0.011
-526.018	-114.206	-0.389	0.076
-525.004	369.045	0.080	0.163
-523.989	800.000	0.062	0.220
-522.975	-28.737	0.261	0.151
-521.960	5.882	0.431	0.320
-520.945	-114.984	0.258	0.049
-519.931	-10.876	0.030	0.020
-518.916	-161.274	-0.289	-0.015
-517.902	-113.454	-0.022	-0.004
-516.887	-86.139	0.228	-0.071
-515.872	-200.000	-0.045	0.270
-514.858	-57.644	-0.095	-0.042
-513.843	187.218	0.188	-0.282
-512.829	4.031	-0.275	-0.202
-511.814	-200.000	0.001	-0.276
-510.799	-14.909	-0.201	0.129
-509.785	130.492	0.060	-0.077
-508.770	-12.482	-0.197	0.129
-507.756	-95.329	0.167	-0.045
-506.741	240.669	0.234	0.391
-505.726	-54.768	-0.266	0.121
-504.712	283.331	-0.063	-0.114
-503.697	-200.000	0.032	0.221
-502.683	464.832	-0.095	0.214
-501.668	-89.208	0.057	-0.017
-500.653	-58.864	0.442	0.192
-499.639	73.683	-0.144	0.152
-498.624	-200.000	-0.274	-0.001
-497.610	-6.029	-0.238	-0.163
-496.595	-64.863	-0.273	-0.111
-495.581	-36.358	0.113	0.061
-494.566	-61.931	0.126	0.053
-493.551	-200.000	-0.057	-0.281
-492.537	287.131	0.155	-0.280
-491.522	-21.284	-0.187	0.115
-490.508	525.566	-0.170	0.401
-489.493	-112.682	-0.081	-0.016
-488.478	239.104	-0.271	0.452
-487.464	-200.000	-0.005	-0.291
-486.449	310.961	0.168	-0.316
-485.435	800.000	0.101	-0.301
-484.420	-66.023	-0.176	0.070
-483.405	-200.000	-0.048	-0.295
-482.391	-138.938	-0.265	0.029
-481.376	-35.269	0.195	0.107
-480.362	80.234	-0.155	-0.167
-479.347	-133.131	-0.282	0.036
-478.332	-30.817	0.204	0.116
-477.318	149.288	-0.143	-0.193
-476.303	70.640	0.099	0.103
-475.289	-9.536	-0.236	0.158
-474.274	-187.871	-0.163	0.002
-473.259	800.000	-0.046	0.148
-472.245	73.582	-0.197	-0.207
-471.230	8.489	0.132	-0.100
-470.216	-200.000	0.018	0.159
-469.201	800.000	0.119	-0.354
-468.186	-131.277	-0.222	-0.029
-467.172	-183.598	-0.227	0.004
-466.157	273.950	0.085	-0.151
-465.143	303.890	0.061	-0.114
-464.128	-112.616	-0.381	0.076
-463.113	-69.425	0.378	0.145
-462.099	2.078	0.321	0.232
-461.084	-139.168	0.156	-0.017
-460.070	226.836	-0.184	0.299
-459.055	463.117	0.084	-0.188
-458.040	111.999	0.085	-0.103
-457.026	240.446	-0.058	0.096
-456.011	-40.936	0.284	-0.147
-454.997	-64.112	-0.089	-0.037
-453.982	293.107	0.077	-0.142
-452.968	373.775	-0.046	-0.094
-451.953	-109.379	-0.406	-0.086
-450.938	152.165	0.096	-0.132
-449.924	506.814	-0.011	0.025
-448.909	-159.336	0.181	-0.010
-447.895	319.462	0.005	-0.009
-446.880	-90.099	0.091	0.026
-445.865	226.602	0.149	0.242
-444.851	-41.488	0.175	-0.090
-443.836	-76.996	-0.303	-0.106
-442.822	57.918	-0.177	0.174
-441.807	-200.000	0.070	0.319
-440.792	-132.203	-0.116	0.015
-439.778	-200.000	0.016	-0.075
-438.763	-66.232	0.113	0.045
-437.749	-6.513	0.218	-0.149
-436.734	375.231	-0.058	0.117
-435.719	91.421	0.262	-0.295
-434.705	-78.183	0.070	-0.024
-433.690	565.096	0.042	0.102
-432.676	401.828	0.076	-0.160
-431.661	-82.742	-0.085	-0.028
-430.646	-40.128	0.124	-0.065
-429.632	800.000	-0.140	0.390
-428.617	-200.000	0.023	0.111
-427.603	638.401	0.055	0.139
-426.588	-152.968	0.139	0.010
-425.573	-200.000	-0.084	-0.425
-424.559	-113.064	0.032	0.006
-423.544	566.275	0.044	-0.107
-422.530	-157.311	0.268	0.016
-421.515	15.293	-0.125	0.098
-420.500	-200.000	-0.003	0.201
-419.486	7.575	-0.044	0.033
-418.471	800.000	0.108	-0.324
-417.457	-167.678	-0.259	0.010
-416.442	-200.000	0.046	0.371
-415.428	47.361	0.257	0.239
-414.413	-55.594	-0.196	-0.088
-413.398	-31.131	-0.063	0.035
-412.384	-93.810	0.093	0.026
-411.369	23.008	0.109	-0.089
-410.355	800.000	-0.024	-0.097
-409.340	-124.321	-0.043	0.007
-408.325	-67.616	-0.046	0.018
-407.311	192.370	0.087	0.131
-406.296	-49.523	-0.021	0.010
-405.282	-200.000	-0.018	-0.149
-404.267	-142.288	-0.188	0.019
-403.252	182.705	-0.130	-0.191
-402.238	800.000	0.171	-0.665
-401.223	-34.181	0.097	0.053
-400.209	300.240	-0.083	0.152
-399.194	-102.444	0.087	-0.021
-398.179	800.000	-0.031	0.114
-397.165	800.000	-0.078	0.314
-396.150	-47.591	0.137	-0.067
-395.136	216.506	-0.110	-0.175
-394.121	-200.000	0.031	-0.219
-393.106	800.000	0.011	-0.045
-392.092	800.000	-0.100	-0.303
-391.077	-135.743	-0.211	0.025
-390.063	672.629	-0.066	0.171
-389.048	-101.895	-0.412	-0.099
-388.033	-23.748	0.223	-0.134
-387.019	-200.000	-0.016	0.246
-386.004	-81.296	0.265	0.087
-384.990	-200.000	-0.026	0.175
-383.975	-132.303	-0.021	0.003
-382.960	-145.757	-0.167	0.015
-381.946	-200.000	-0.008	0.321
-380.931	-200.000	-0.027	-0.145
-379.917	-19.442	-0.089	-0.055
-378.902	-169.345	0.296	0.011
-377.888	-130.930	-0.256	-0.034
-376.873	-200.000	0.039	-0.240
-375.858	171.359	0.135	0.193
-374.844	-101.844	-0.175	0.042
-373.829	159.729	-0.233	-0.323
-372.815	738.466	0.140	-0.374
-371.800	106.977	0.136	-0.162
-370.785	-48.871	0.049	-0.024
-369.771	-200.000	0.021	-0.151
-368.756	-5.592	0.096	-0.066
-367.742	-150.294	-0.240	-0.018
-366.727	800.000	0.024	-0.088
-365.712	127.396	-0.158	0.200
-364.698	44.585	0.070	-0.064
-363.683	800.000	-0.042	-0.160
-362.669	74.413	-0.149	-0.156
-361.654	125.288	-0.162	0.204
-360.639	-58.694	0.028	-0.012
-359.625	-58.703	-0.057	-0.025
-358.610	623.967	0.049	-0.124
-357.596	121.086	-0.124	0.154
-356.581	800.000	0.081	-0.263
-355.566	-115.852	0.212	0.039
-354.552	-124.898	-0.247	-0.038
-353.537	630.982	-0.082	0.208
-352.523	-200.000	-0.034	0.257
-351.508	-48.602	-0.229	-0.110
-350.493	-50.346	-0.246	-0.116
-349.479	214.428	-0.027	0.042
-348.464	537.641	0.083	0.197
-347.450	115.729	0.189	-0.231
-346.435	-146.567	0.210	-0.018
-345.420	-10.861	-0.358	-0.236
-344.406	274.500	0.061	0.107
-343.391	-117.946	0.248	0.044
-342.377	-99.059	-0.419	-0.106
-341.362	2.924	-0.204	0.148
-340.348	93.316	0.081	0.091
-339.333	75.056	-0.251	0.264
-338.318	-200.000	0.050	-0.343
-337.304	-162.912	-0.204	-0.010
-336.289	18.774	0.199	0.159
-335.275	-139.973	-0.447	-0.047
-334.260	-200.000	0.065	0.299
-333.245	-200.000	0.013	-0.117
-332.231	-80.069	-0.239	0.080
-331.216	-59.134	-0.026	0.011
-330.202	637.192	-0.085	-0.215
-329.187	96.760	0.150	0.172
-328.172	-63.490	0.183	0.075
-327.158	122.157	0.105	0.130
-326.143	-200.000	0.002	0.080
-325.129	-91.401	-0.328	-0.093
-324.114	-72.487	0.306	-0.113
-323.099	237.448	0.060	0.100
-322.085	-200.000	0.010	0.069
-321.070	-146.856	-0.149	0.013
-320.056	-151.648	-0.292	-0.021
-319.041	-84.438	0.057	0.018
-318.026	-200.000	0.077	0.337
-317.012	423.049	-0.105	0.225
-315.997	5.266	0.138	-0.101
-314.983	-50.694	-0.346	0.162
-313.968	111.822	0.042	0.050
-312.953	500.772	0.150	0.344
-311.939	-139.229	0.075	0.008
-310.924	419.372	-0.085	0.182
-309.910	28.526	-0.088	-0.074
-308.895	-83.130	-0.178	-0.057
-307.880	77.996	-0.184	-0.196
-306.866	207.816	0.067	-0.103
-305.851	26.376	0.250	-0.208
-304.837	-200.000	-0.020	0.126
-303.822	14.789	0.177	-0.138
-302.807	-18.350	-0.114	0.071
-301.793	-9.519	-0.177	0.118
-300.778	125.560	-0.080	-0.101
-299.764	-18.592	0.064	0.040
-298.749	-4.363	-0.276	-0.190
-297.735	-33.364	-0.205	0.113
-296.720	-128.093	-0.294	-0.042
-295.705	-200.000	0.017	0.218
-294.691	-11.010	-0.096	-0.063
-293.676	-88.828	0.335	0.099
-292.662	-200.000	-0.001	0.239
-291.647	751.019	0.015	0.041
-290.632	167.257	-0.112	0.159
-289.618	439.404	-0.101	-0.219
-288.603	-200.000	0.009	-0.215
-287.589	-104.878	-0.368	0.084
-286.574	-128.482	0.246	-0.035
-285.559	-13.950	0.339	-0.218
-284.545	-58.046	0.259	-0.112
-283.530	800.000	-0.054	0.155
-282.516	-200.000	0.006	-0.067
-281.501	-50.663	0.260	-0.122
-280.486	800.000	0.094	0.271
-279.472	259.291	0.158	0.271
-278.457	-5.204	-0.208	-0.142
-277.443	-17.061	0.379	-0.238
-276.428	-184.678	0.161	0.003
-275.413	-142.253	0.313	-0.031
-274.399	41.100	-0.247	0.222
-273.384	-124.045	-0.113	-0.018
-272.370	12.434	-0.365	0.280
-271.355	442.787	-0.083	-0.180
-270.340	225.657	-0.084	0.135
-269.326	16.989	-0.362	-0.285
-268.311	245.340	0.200	0.335
-267.297	-200.000	0.029	0.327
-266.282	36.723	0.252	-0.222
-265.267	255.836	-0.024	-0.041
-264.253	-47.126	0.038	0.019
-263.238	-200.000	-0.033	0.259
-262.224	-59.219	-0.236	0.101
-261.209	587.527	0.074	0.181
-260.195	-57.063	0.106	-0.046
-259.180	318.639	0.130	0.245
-258.165	711.398	0.111	-0.291
-257.151	1.917	-0.134	0.096
-256.136	800.000	0.067	0.211
-255.122	800.000	0.077	-0.303
-254.107	501.709	-0.058	-0.134
-253.092	800.000	0.038	-0.139
-252.078	-2.958	-0.045	-0.032
-251.063	5.720	0.411	0.302
-250.049	767.765	0.046	-0.126
-249.034	154.298	0.108	0.147
-248.019	-90.705	0.230	-0.066
-247.005	166.067	0.194	-0.272
-245.990	31.545	-0.098	-0.084
-244.976	5.313	0.162	0.119
-243.961	-106.925	-0.081	0.018
-242.946	-111.547	-0.227	-0.046
-241.932	2.291	-0.117	-0.084
-240.917	-109.273	0.084	0.018
-239.903	-76.790	-0.236	-0.082
-238.888	230.740	0.049	0.079
-237.873	-200.000	-0.002	0.114
-236.859	355.631	0.040	-0.080
-235.844	-72.061	0.258	0.095
-234.830	151.368	0.127	-0.172
-233.815	-200.000	0.000	0.321
-232.800	800.000	-0.048	0.165
-231.786	-200.000	-0.032	0.201
-230.771	-22.081	0.087	0.053
-229.757	-128.089	0.235	-0.033
-228.742	800.000	0.038	0.153
-227.727	800.000	-0.084	0.231
-226.713	145.396	-0.060	-0.079
-225.698	-200.000	-0.013	0.235
-224.684	393.522	-0.122	0.252
-223.669	-11.077	0.237	0.155
-222.655	-200.000	0.032	-0.186
-221.640	-100.697	0.043	0.010
-220.625	-156.392	0.113	0.007
-219.611	424.044	0.133	0.283
-218.596	-200.000	-0.162	0.000
-217.582	-200.000	0.238	-0.001
-216.567	800.000	0.076	-0.325
-215.552	313.398	-0.101	-0.188
-214.538	-151.601	0.171	0.013
-213.523	391.555	-0.024	-0.049
-212.509	410.557	0.141	-0.296
-211.494	-71.161	-0.275	0.102
-210.479	800.000	-0.092	0.277
-209.465	-200.000	0.017	-0.107
-208.450	-200.000	-0.017	0.206
-207.436	99.403	-0.064	0.074
-206.421	79.445	0.155	0.165
-205.406	267.780	-0.028	0.049
-204.392	-101.022	-0.258	-0.063
-203.377	-137.136	0.315	-0.036
-202.363	-166.862	-0.307	0.013
-201.348	-200.000	0.014	0.215
-200.333	-120.768	0.223	0.037
-199.319	47.345	0.076	0.070
-198.304	-17.124	0.154	0.096
-197.290	800.000	0.056	-0.226
-196.275	34.232	-0.216	-0.186
-195.260	-145.134	0.376	-0.034
-194.246	195.432	-0.121	-0.183
-193.231	27.454	0.105	0.088
-192.217	126.958	0.169	0.212
-191.202	-41.174	-0.221	0.113
-190.187	-82.234	-0.196	0.063
-189.173	453.589	-0.162	0.356
-188.158	-110.206	-0.340	0.070
-187.144	199.305	0.165	0.251
-186.129	-93.579	0.249	-0.068
-185.114	297.407	0.125	-0.227
-184.100	800.000	0.028	0.090
-183.085	116.684	-0.269	-0.327
-182.071	-33.123	-0.231	-0.127
-181.056	116.383	-0.050	0.060
-180.042	-200.000	0.004	0.293
-179.027	-26.945	0.356	-0.206
-178.012	34.429	0.303	0.262
-176.998	774.827	0.043	-0.115
-175.983	120.551	0.017	-0.021
-174.969	104.490	-0.153	0.179
-173.954	800.000	-0.120	-0.390
-172.939	199.855	0.073	0.111
-171.925	-192.596	0.200	0.002
-170.910	126.146	0.225	0.282
-169.896	-155.069	-0.188	0.012
-168.881	-200.000	0.001	0.249
-167.866	-147.880	-0.137	-0.011
-166.852	-76.576	-0.044	0.015
-165.837	3.606	-0.145	0.105
-164.823	311.897	0.142	0.263
-163.808	-39.808	-0.161	-0.083
-162.793	31.078	0.091	-0.078
-161.779	251.258	0.114	0.192
-160.764	-79.953	-0.165	-0.055
-159.750	-200.000	-0.010	-0.474
-158.735	800.000	0.019	-0.068
-157.720	-133.205	0.197	0.025
-156.706	-115.902	0.134	0.025
-155.691	-37.289	0.236	-0.125
-154.677	662.918	-0.058	-0.148
-153.662	-29.454	0.146	-0.082
-152.647	69.580	-0.161	-0.164
-151.633	33.478	0.184	-0.158
-150.618	-145.789	-0.095	-0.008
-149.604	800.000	-0.053	0.224
-148.589	-134.444	0.042	-0.005
-147.574	800.000	0.028	0.094
-146.560	-129.823	0.223	-0.030
-145.545	-200.000	-0.004	-0.069
-144.531	-21.700	0.174	0.105
-143.516	-200.000	-0.349	0.000
-142.502	62.960	-0.246	-0.244
-141.487	48.623	0.188	-0.174
-140.472	129.995	0.077	-0.098
-139.458	-106.247	-0.215	0.048
-138.443	-117.233	0.057	-0.010
-137.429	-156.733	-0.147	0.009
-136.414	-54.624	-0.103	-0.046
-135.399	177.198	-0.038	0.055
-134.385	-117.533	0.383	-0.068
-133.370	-200.000	0.004	-0.105
-132.356	108.033	-0.148	-0.175
-131.341	-114.007	0.127	-0.024
-130.326	-98.143	0.076	-0.019
-129.312	-200.000	0.016	0.110
-128.297	-18.675	0.301	-0.185
-127.283	-25.405	-0.244	-0.143
-126.268	-200.000	0.048	-0.333
-125.253	-91.392	0.123	0.035
-124.239	336.016	0.116	-0.222
-123.224	397.997	-0.127	-0.264
-122.210	800.000	0.140	-0.471
