DTS Sentinel unit serial number:	SN413079Multiplexer serial number:	ORYXHardware model number:	OX4-SRSoftware version number:	ORYX F/W v4.00 Oryx Data Collector v3.7.2.0data status	okinstallation	princeton_trtdifferential loss correction	single-endedforward channel	channel 4reverse channel	N/Adate	2019/09/10time	17:31:11forward acquisition time	60.00reverse acquisition time	0.00gamma	496.2192k internal	0.2295k external	0.2295temperature offset calibration	0.9935default loss term (dB/km)	0.3790temperature slope calibration	1.0000multiplexer offset coefficient	1.0000multiplexer slope coefficient	1.0000fibre end	0.00T internal ref (°C)	37.69T ext. ref 1 (°C)	-0.37T ext. ref 2 (°C)	31.73length (m)	temperature (°C)	Stokes	anti-Stokes-747.200	-24.898	0.052	0.031
-746.185	448.691	0.191	-0.431
-745.171	83.357	0.146	-0.162
-744.156	-200.000	0.017	0.326
-743.142	-200.000	-0.027	0.239
-742.127	-200.000	-0.032	0.332
-741.112	-200.000	0.162	0.000
-740.098	147.060	-0.171	0.236
-739.083	-35.954	0.160	0.088
-738.069	-80.301	0.106	-0.036
-737.054	19.370	-0.203	0.167
-736.039	416.330	0.051	-0.111
-735.025	-119.987	0.204	-0.036
-734.010	-95.976	0.260	-0.071
-732.996	-29.558	-0.366	-0.213
-731.981	88.824	-0.070	0.079
-730.966	201.455	0.208	0.327
-729.952	223.197	0.103	-0.169
-728.937	95.397	0.419	-0.487
-727.923	-105.674	0.279	0.064
-726.908	-80.188	-0.090	0.031
-725.894	800.000	-0.020	0.084
-724.879	56.162	-0.155	-0.153
-723.864	315.537	-0.058	-0.111
-722.850	10.188	-0.156	-0.121
-721.835	-7.409	0.101	0.070
-720.821	-40.722	-0.153	-0.081
-719.806	-144.662	0.076	-0.007
-718.791	166.877	-0.203	-0.294
-717.777	-97.184	0.391	0.104
-716.762	-200.000	0.025	0.221
-715.748	77.808	-0.270	0.294
-714.733	-99.110	0.216	-0.056
-713.718	432.514	0.047	-0.104
-712.704	800.000	-0.035	-0.126
-711.689	-168.545	0.274	0.011
-710.675	100.717	0.093	-0.110
-709.660	48.389	-0.180	0.172
-708.645	286.554	-0.110	0.203
-707.631	800.000	-0.061	-0.235
-706.616	21.827	0.241	-0.200
-705.602	99.027	-0.091	-0.108
-704.587	172.037	0.071	-0.104
-703.572	-200.000	-0.007	-0.117
-702.558	800.000	0.083	0.255
-701.543	-33.953	0.122	-0.069
-700.529	385.854	0.127	0.266
-699.514	800.000	-0.054	0.201
-698.499	239.419	-0.157	-0.266
-697.485	51.349	-0.094	-0.091
-696.470	-20.518	0.182	-0.114
-695.456	-103.650	-0.449	0.107
-694.441	258.033	0.113	0.198
-693.426	-105.296	-0.368	-0.086
-692.412	705.749	0.174	-0.469
-691.397	-136.013	0.225	0.027
-690.383	800.000	-0.033	-0.122
-689.368	-120.576	0.266	-0.046
-688.354	366.473	-0.125	0.256
-687.339	-75.943	-0.337	-0.122
-686.324	557.081	0.091	-0.224
-685.310	18.731	0.235	-0.192
-684.295	-48.682	-0.173	-0.085
-683.281	-56.726	-0.246	-0.111
-682.266	-200.000	-0.037	0.422
-681.251	17.389	0.078	0.063
-680.237	89.081	-0.134	-0.152
-679.222	163.589	0.132	0.189
-678.208	-200.000	0.024	-0.282
-677.193	224.731	-0.064	-0.106
-676.178	-200.000	-0.017	-0.107
-675.164	-200.000	0.007	-0.114
-674.149	328.569	0.159	-0.311
-673.135	-50.331	0.300	0.144
-672.120	7.276	0.207	0.158
-671.105	480.674	-0.154	0.356
-670.091	-200.000	0.027	-0.374
-669.076	309.381	-0.051	0.097
-668.062	-125.365	0.185	0.029
-667.047	-200.000	0.038	-0.303
-666.032	800.000	0.098	-0.297
-665.018	-55.787	0.409	-0.186
-664.003	-180.870	0.143	-0.003
-662.989	426.443	-0.104	0.228
-661.974	144.703	0.166	0.226
-660.959	145.720	0.177	-0.241
-659.945	-130.164	-0.321	0.045
-658.930	-200.000	-0.040	-0.403
-657.916	800.000	-0.057	-0.217
-656.901	-200.000	0.028	0.155
-655.886	38.258	0.242	-0.219
-654.872	167.826	0.119	-0.172
-653.857	105.769	0.137	0.165
-652.843	166.497	0.081	-0.116
-651.828	-200.000	-0.013	-0.190
-650.814	187.667	-0.145	0.220
-649.799	261.717	-0.054	-0.095
-648.784	-44.664	0.094	-0.048
-647.770	0.091	-0.092	0.067
-646.755	800.000	0.070	-0.239
-645.741	-93.437	-0.280	-0.079
-644.726	-19.220	-0.195	-0.123
-643.711	-200.000	-0.028	0.174
-642.697	-200.000	0.023	-0.356
-641.682	-200.000	-0.000	0.019
-640.668	165.425	-0.276	-0.397
-639.653	800.000	-0.021	0.084
-638.638	-44.832	-0.188	-0.095
-637.624	-157.756	-0.223	0.014
-636.609	-30.413	0.146	-0.084
-635.595	-200.000	-0.105	0.521
-634.580	800.000	0.063	0.273
-633.565	85.063	0.265	0.296
-632.551	178.159	-0.087	-0.129
-631.536	-131.660	-0.335	0.045
-630.522	184.819	0.165	0.249
-629.507	800.000	-0.072	-0.259
-628.492	304.773	-0.071	0.133
-627.478	189.735	0.271	-0.413
-626.463	493.856	-0.043	-0.100
-625.449	-200.000	0.027	-0.282
-624.434	-74.331	-0.205	0.075
-623.419	-79.066	-0.059	0.020
-622.405	-1.066	0.332	-0.239
-621.390	-93.380	-0.231	0.065
-620.376	-101.505	-0.158	0.039
-619.361	-55.387	-0.400	0.183
-618.346	103.815	-0.191	0.228
-617.332	268.585	-0.069	0.123
-616.317	145.374	0.139	-0.189
-615.303	-25.798	0.230	-0.138
-614.288	-82.894	-0.106	0.035
-613.273	-173.548	-0.266	-0.008
-612.259	-179.589	-0.127	0.003
-611.244	81.612	-0.362	-0.398
-610.230	-120.731	-0.189	-0.032
-609.215	-143.657	-0.232	-0.022
-608.201	-200.000	-0.001	-0.153
-607.186	-44.487	0.202	-0.103
-606.171	-200.000	-0.042	0.308
-605.157	-200.000	-0.021	-0.209
-604.142	-143.499	0.370	0.036
-603.128	169.834	0.209	-0.304
-602.113	166.032	0.079	-0.114
-601.098	-67.001	-0.239	0.096
-600.084	-89.475	-0.133	-0.040
-599.069	273.094	0.114	0.204
-598.055	9.992	-0.192	-0.148
-597.040	-96.141	-0.031	0.008
-596.025	-200.000	-0.026	-0.134
-595.011	-117.108	-0.166	-0.031
-593.996	257.336	0.158	-0.277
-592.982	-33.282	-0.362	0.204
-591.967	800.000	-0.054	0.204
-590.952	-97.333	0.141	0.037
-589.938	3.631	0.219	-0.163
-588.923	-81.059	0.280	-0.094
-587.909	-127.780	-0.486	-0.071
-586.894	-19.951	-0.183	-0.115
-585.879	-108.331	-0.270	-0.059
-584.865	-14.410	0.133	-0.087
-583.850	37.072	0.211	0.190
-582.836	800.000	0.083	0.312
-581.821	183.236	-0.100	0.150
-580.806	87.123	-0.060	0.067
-579.792	700.535	0.054	0.143
-578.777	-127.428	0.183	-0.027
-577.763	87.742	-0.076	-0.086
-576.748	66.118	0.090	0.093
-575.733	800.000	-0.074	0.252
-574.719	-112.969	0.212	-0.043
-573.704	396.219	0.068	0.144
-572.690	-29.960	-0.296	0.171
-571.675	-85.181	0.247	0.078
-570.661	9.797	0.085	0.065
-569.646	-34.826	-0.227	0.126
-568.631	-200.000	0.021	0.123
-567.617	-81.537	0.101	0.034
-566.602	-119.551	-0.286	0.050
-565.588	-116.811	0.151	-0.028
-564.573	-200.000	0.064	0.423
-563.558	-200.000	0.000	0.086
-562.544	290.589	-0.149	0.275
-561.529	-169.234	0.036	0.001
-560.515	-35.042	0.358	0.198
-559.500	-200.000	0.012	0.128
-558.485	-200.000	-0.057	-0.282
-557.471	-142.252	-0.089	0.009
-556.456	-53.549	-0.250	0.116
-555.442	-11.262	0.304	-0.204
-554.427	800.000	-0.013	-0.044
-553.412	56.435	-0.042	-0.042
-552.398	-157.697	0.184	0.011
-551.383	-163.656	0.239	0.011
-550.369	118.658	-0.138	0.172
-549.354	800.000	0.089	-0.269
-548.339	424.644	-0.024	-0.053
-547.325	471.411	0.126	0.289
-546.310	-10.402	-0.286	-0.192
-545.296	-200.000	-0.028	0.234
-544.281	-116.832	-0.171	-0.032
-543.266	-116.934	0.122	0.023
-542.252	64.290	0.137	-0.140
-541.237	115.971	0.232	0.287
-540.223	800.000	-0.050	0.219
-539.208	270.735	0.101	-0.180
-538.193	195.733	-0.187	0.289
-537.179	-144.010	-0.339	0.032
-536.164	321.927	0.240	-0.463
-535.150	800.000	0.048	-0.138
-534.135	-91.770	0.153	0.044
-533.121	146.287	0.100	-0.136
-532.106	32.651	-0.183	0.161
-531.091	-66.869	0.074	-0.030
-530.077	-35.287	0.230	0.127
-529.062	93.210	0.134	-0.153
-528.048	399.345	0.115	-0.245
-527.033	614.565	0.097	-0.247
-526.018	692.194	0.213	-0.565
-525.004	-200.000	0.002	0.012
-523.989	183.166	0.146	-0.219
-522.975	20.805	-0.388	0.318
-521.960	-1.745	-0.147	-0.105
-520.945	-200.000	0.025	-0.111
-519.931	-17.769	0.282	-0.180
-518.916	-25.755	-0.162	0.097
-517.902	321.390	-0.071	-0.137
-516.887	-200.000	-0.037	0.382
-515.872	55.902	0.115	-0.113
-514.858	-71.651	-0.106	-0.040
-513.843	-200.000	-0.029	-0.352
-512.829	-99.063	0.128	0.033
-511.814	20.043	0.147	-0.120
-510.799	-130.878	-0.146	0.020
-509.785	298.895	0.214	-0.398
-508.770	29.898	0.088	0.076
-507.756	800.000	-0.010	-0.030
-506.741	800.000	-0.127	-0.471
-505.726	-200.000	-0.003	-0.300
-504.712	-200.000	-0.037	-0.284
-503.697	800.000	0.065	0.268
-502.683	95.289	0.122	0.141
-501.668	800.000	0.015	0.063
-500.653	-2.540	-0.193	-0.137
-499.639	130.198	-0.106	-0.137
-498.624	164.015	-0.148	0.211
-497.610	-105.510	-0.461	-0.106
-496.595	-132.714	0.183	-0.024
-495.581	-57.573	0.526	-0.234
-494.566	169.243	-0.137	-0.198
-493.551	-116.129	-0.319	-0.060
-492.537	-200.000	-0.003	-0.148
-491.522	-87.490	-0.257	-0.079
-490.508	-50.171	0.279	-0.134
-489.493	-200.000	-0.003	0.176
-488.478	-152.720	0.482	0.035
-487.464	-200.000	0.029	-0.160
-486.449	-143.842	-0.275	0.026
-485.435	-200.000	-0.017	0.207
-484.420	-116.171	-0.271	-0.051
-483.405	251.805	0.150	-0.258
-482.391	153.574	0.091	-0.126
-481.376	-73.029	-0.178	0.066
-480.362	127.917	-0.084	-0.109
-479.347	-200.000	-0.008	-0.086
-478.332	-200.000	0.028	0.165
-477.318	-94.957	-0.050	-0.014
-476.303	800.000	0.072	0.217
-475.289	113.875	-0.089	-0.109
-474.274	-63.613	0.161	0.067
-473.259	-200.000	0.001	-0.036
-472.245	534.132	0.071	-0.171
-471.230	-62.024	0.186	0.078
-470.216	-52.386	-0.355	0.166
-469.201	-72.193	0.151	0.057
-468.186	-6.144	-0.339	-0.234
-467.172	-142.094	0.512	0.051
-466.157	85.100	0.154	-0.170
-465.143	-200.000	0.054	-0.260
-464.128	-37.287	-0.268	-0.145
-463.113	-44.323	0.111	0.056
-462.099	-61.402	-0.192	0.082
-461.084	115.844	-0.114	0.141
-460.070	-107.529	0.372	-0.082
-459.055	-100.426	-0.272	0.068
-458.040	269.271	-0.142	0.251
-457.026	159.184	-0.203	0.286
-456.011	556.873	-0.158	0.385
-454.997	-200.000	-0.007	0.288
-453.982	46.027	0.296	-0.277
-452.968	-122.447	0.114	-0.019
-451.953	289.346	0.072	0.132
-450.938	43.182	-0.081	0.075
-449.924	-167.323	0.255	-0.010
-448.909	108.728	0.093	-0.113
-447.895	-131.755	-0.083	0.011
-446.880	-86.789	-0.091	0.028
-445.865	73.446	0.077	-0.081
-444.851	-200.000	-0.022	-0.149
-443.836	-186.088	-0.150	-0.002
-442.822	618.908	-0.022	-0.056
-441.807	11.637	-0.116	0.090
-440.792	68.285	0.220	-0.228
-439.778	-91.003	0.365	0.106
-438.763	3.208	-0.138	-0.102
-437.749	-116.162	-0.298	0.056
-436.734	800.000	0.095	-0.305
-435.719	-200.000	-0.051	0.229
-434.705	-200.000	-0.030	0.191
-433.690	690.035	0.082	-0.217
-432.676	-200.000	-0.038	-0.363
-431.661	-16.637	0.374	-0.239
-430.646	-95.068	0.153	0.042
-429.632	120.455	-0.147	-0.185
-428.617	-142.875	0.218	-0.021
-427.603	132.588	-0.108	-0.141
-426.588	800.000	-0.153	-0.468
-425.573	-19.810	0.090	-0.056
-424.559	10.403	0.116	0.089
-423.544	800.000	-0.064	0.205
-422.530	-162.536	0.280	0.014
-421.515	210.634	0.134	0.212
-420.500	79.739	-0.137	0.149
-419.486	365.436	0.147	0.299
-418.471	63.755	0.166	-0.169
-417.457	147.739	0.252	0.343
-416.442	52.337	0.291	0.280
-415.428	-200.000	-0.033	0.299
-414.413	-93.567	-0.042	0.012
-413.398	70.912	0.118	-0.123
-412.384	-200.000	-0.023	-0.143
-411.369	-57.067	-0.310	-0.138
-410.355	-120.867	0.242	-0.041
-409.340	-200.000	-0.060	0.320
-408.325	-25.432	0.168	0.100
-407.311	-162.043	0.222	-0.011
-406.296	-124.569	-0.324	0.051
-405.282	69.583	-0.027	-0.028
-404.267	249.263	-0.160	-0.273
-403.252	-200.000	0.023	0.131
-402.238	-32.477	-0.139	0.078
-401.223	-164.321	0.099	-0.005
-400.209	-200.000	-0.056	0.327
-399.194	-155.594	-0.242	-0.016
-398.179	463.613	0.039	0.087
-397.165	287.631	0.188	-0.342
-396.150	652.667	-0.121	-0.312
-395.136	33.394	-0.144	-0.126
-394.121	-200.000	-0.038	0.190
-393.106	199.486	-0.033	0.051
-392.092	-51.570	0.144	0.068
-391.077	-198.283	0.127	0.001
-390.063	335.384	-0.155	0.304
-389.048	800.000	0.024	0.081
-388.033	54.213	0.239	0.232
-387.019	109.575	0.150	0.181
-386.004	-200.000	0.010	0.133
-384.990	-15.076	-0.246	0.159
-383.975	-200.000	-0.028	0.371
-382.960	800.000	-0.063	0.200
-381.946	-24.959	0.129	-0.077
-380.931	-99.402	0.095	0.024
-379.917	130.688	-0.023	0.029
-378.902	37.149	-0.118	0.105
-377.888	-94.262	0.055	-0.015
-376.873	-51.783	-0.221	0.104
-375.858	146.697	-0.169	0.228
-374.844	-140.848	-0.123	-0.013
-373.829	701.623	-0.058	0.155
-372.815	800.000	0.089	-0.265
-371.800	800.000	-0.138	-0.404
-370.785	-27.226	-0.100	0.059
-369.771	-200.000	0.022	-0.111
-368.756	-143.357	0.344	0.033
-367.742	-200.000	0.031	-0.139
-366.727	-106.750	0.134	0.030
-365.712	-56.216	-0.298	0.134
-364.698	-200.000	-0.022	-0.382
-363.683	50.334	0.053	0.051
-362.669	312.832	-0.096	-0.181
-361.654	258.407	-0.131	0.228
-360.639	800.000	0.064	-0.183
-359.625	222.099	-0.147	-0.239
-358.610	-36.861	0.179	-0.096
-357.596	-200.000	0.037	-0.197
-356.581	787.453	0.128	-0.355
-355.566	-200.000	-0.020	-0.182
-354.552	172.174	-0.143	-0.207
-353.537	-138.623	0.489	-0.054
-352.523	-200.000	-0.023	-0.202
-351.508	139.758	-0.077	-0.102
-350.493	381.979	0.054	-0.112
-349.479	-155.122	0.238	-0.016
-348.464	-159.353	0.390	0.022
-347.450	98.495	0.072	-0.083
-346.435	88.125	0.051	-0.057
-345.420	-28.895	-0.215	0.124
-344.406	-131.768	-0.250	0.033
-343.391	193.533	-0.094	0.144
-342.377	-65.315	0.059	0.024
-341.362	547.196	-0.121	0.291
-340.348	387.536	0.098	-0.203
-339.333	5.314	0.255	-0.189
-338.318	-94.393	0.202	0.055
-337.304	-155.528	0.114	-0.007
-336.289	95.907	0.151	-0.174
-335.275	105.393	0.104	-0.123
-334.260	441.187	0.058	0.128
-333.245	-90.184	0.384	-0.112
-332.231	-193.510	-0.154	-0.001
-331.216	43.912	0.089	0.082
-330.202	245.467	0.079	0.133
-329.187	-28.876	-0.361	0.209
-328.172	-46.995	0.350	0.172
-327.158	800.000	-0.103	-0.287
-326.143	-86.256	-0.236	0.073
-325.129	66.879	-0.102	-0.104
-324.114	800.000	0.021	0.091
-323.099	210.639	0.191	-0.302
-322.085	800.000	-0.050	0.186
-321.070	-101.614	-0.241	0.059
-320.056	-82.839	0.438	-0.142
-319.041	-82.137	0.214	-0.070
-318.026	-200.000	-0.030	-0.181
-317.012	48.730	0.206	-0.194
-315.997	-139.477	-0.083	0.009
-314.983	-42.382	0.195	0.100
-313.968	-200.000	-0.022	0.113
-312.953	-35.527	-0.064	0.035
-311.939	136.799	0.118	-0.154
-310.924	-200.000	0.030	0.153
-309.910	117.570	0.145	-0.179
-308.895	-200.000	0.216	0.001
-307.880	58.027	0.010	0.010
-306.866	-103.030	0.186	0.044
-305.851	-64.037	-0.150	0.062
-304.837	800.000	-0.099	-0.429
-303.822	-139.568	-0.246	0.026
-302.807	618.911	-0.092	0.232
-301.793	162.684	0.158	0.223
-300.778	201.046	0.049	-0.076
-299.764	-33.679	-0.100	0.055
-298.749	99.062	-0.227	-0.263
-297.735	-130.520	-0.121	-0.016
-296.720	-200.000	0.036	0.258
-295.705	-142.668	0.202	-0.020
-294.691	-13.661	0.151	0.098
-293.676	-200.000	0.021	-0.185
-292.662	-109.836	0.271	0.057
-291.647	800.000	0.100	0.348
-290.632	504.401	-0.089	0.206
-289.618	-11.404	0.280	0.185
-288.603	-24.960	0.155	0.092
-287.589	70.129	0.227	-0.235
-286.574	-200.000	0.035	-0.269
-285.559	-153.463	-0.151	0.011
-284.545	-86.278	0.155	0.048
-283.530	-136.115	-0.043	-0.005
-282.516	-200.000	0.007	-0.045
-281.501	800.000	0.042	-0.121
-280.486	-200.000	0.005	-0.381
-279.472	42.708	-0.226	0.206
-278.457	94.202	-0.237	0.270
-277.443	43.279	-0.064	-0.058
-276.428	800.000	0.060	0.198
-275.413	-200.000	0.001	0.281
-274.399	-175.076	-0.074	-0.002
-273.384	309.296	0.100	0.188
-272.370	-140.697	0.380	-0.039
-271.355	52.805	-0.076	-0.073
-270.340	-105.370	-0.274	-0.063
-269.326	357.255	0.131	0.262
-268.311	-94.495	-0.233	-0.064
-267.297	-97.154	-0.187	0.049
-266.282	-15.073	0.369	-0.237
-265.267	-148.251	0.219	0.018
-264.253	111.307	0.245	0.296
-263.238	-73.251	-0.177	0.065
-262.224	257.350	0.089	0.154
-261.209	-79.336	0.031	0.010
-260.195	159.119	0.108	-0.151
-259.180	91.812	0.125	0.141
-258.165	-93.060	0.270	-0.075
-257.151	-200.000	0.031	0.283
-256.136	-200.000	0.009	0.043
-255.122	-116.868	0.112	0.021
-254.107	800.000	0.033	0.131
-253.092	2.471	0.172	0.125
-252.078	-97.122	-0.174	0.046
-251.063	319.553	0.156	0.296
-250.049	-103.806	-0.172	-0.040
-249.034	-150.808	-0.265	0.020
-248.019	-12.445	-0.250	-0.164
-247.005	-56.233	0.063	-0.028
-245.990	211.694	-0.073	0.116
-244.976	-9.791	-0.161	-0.107
-243.961	-80.365	0.178	-0.060
-242.946	219.503	-0.076	-0.122
-241.932	-104.742	-0.063	-0.015
-240.917	-200.000	-0.019	-0.334
-239.903	-100.474	-0.155	0.039
-238.888	-140.198	0.348	0.037
-237.873	-200.000	-0.089	0.409
-236.859	-99.149	-0.266	0.067
-235.844	32.005	-0.266	-0.229
-234.830	116.224	0.243	-0.298
-233.815	-29.413	-0.028	-0.016
-232.800	-200.000	-0.058	0.386
-231.786	-200.000	0.054	-0.375
-230.771	-200.000	-0.006	0.110
-229.757	-200.000	0.019	-0.163
-228.742	-200.000	0.018	0.177
-227.727	-132.554	-0.402	0.052
-226.713	-117.289	-0.359	0.065
-225.698	-50.722	0.086	0.041
-224.684	-25.533	-0.220	0.130
-223.669	-92.194	0.328	0.093
-222.655	-200.000	-0.031	-0.340
-221.640	-98.374	0.444	0.114
-220.625	258.535	-0.050	-0.086
-219.611	-91.775	-0.247	0.070
-218.596	281.737	0.115	0.206
-217.582	-165.335	-0.057	-0.003
-216.567	-84.858	-0.105	0.033
-215.552	-120.211	0.335	0.057
-214.538	800.000	0.080	-0.249
-213.523	-57.831	-0.090	0.039
-212.509	-200.000	-0.025	0.396
-211.494	-60.201	0.319	0.136
-210.479	800.000	-0.061	-0.173
-209.465	-200.000	0.001	-0.452
-208.450	30.704	0.276	0.237
-207.436	-200.000	-0.082	0.368
-206.421	310.885	-0.040	0.075
-205.406	114.697	-0.184	-0.224
-204.392	543.260	0.018	0.044
-203.377	800.000	-0.041	-0.135
-202.363	369.040	0.065	0.131
-201.348	-200.000	-0.028	0.339
-200.333	800.000	0.067	-0.200
-199.319	800.000	0.029	0.087
-198.304	-174.585	-0.151	-0.004
-197.290	53.313	-0.275	0.264
-196.275	-200.000	-0.017	-0.297
-195.260	14.922	0.396	0.310
-194.246	-127.807	-0.188	0.027
-193.231	-148.460	-0.515	-0.042
-192.217	-42.683	0.098	-0.050
-191.202	17.696	-0.339	-0.269
-190.187	453.198	-0.100	-0.220
-189.173	370.469	-0.126	0.256
-188.158	-38.681	0.170	0.090
-187.144	-133.046	-0.147	0.019
-186.129	-110.750	-0.247	-0.051
-185.114	800.000	0.068	0.195
-184.100	800.000	-0.095	-0.351
-183.085	-48.418	0.263	0.126
-182.071	-196.969	-0.228	-0.001
-181.056	-82.969	0.168	0.054
-180.042	-69.285	-0.212	-0.082
-179.027	-14.677	-0.197	0.126
-178.012	333.414	0.045	0.087
-176.998	-160.263	-0.080	0.004
-175.983	-200.000	-0.001	-0.010
-174.969	-11.848	0.188	0.123
-173.954	88.830	-0.559	-0.621
-172.939	-45.863	-0.265	0.131
-171.925	87.364	0.162	-0.180
-170.910	-200.000	0.004	0.279
-169.896	239.297	0.224	0.372
-168.881	-200.000	0.001	0.221
-167.866	-45.739	0.235	0.116
-166.852	-76.413	0.135	0.048
-165.837	77.674	0.152	0.162
-164.823	28.838	0.019	-0.016
-163.808	-84.855	-0.386	-0.121
-162.793	800.000	0.031	-0.091
-161.779	546.000	-0.020	-0.047
-160.764	-164.951	0.043	-0.002
-159.750	-61.094	-0.185	-0.078
-158.735	-104.977	-0.222	0.051
-157.720	-200.000	0.016	0.107
-156.706	189.658	0.082	0.123
-155.691	-147.056	-0.222	0.019
-154.677	-88.941	-0.057	-0.017
-153.662	0.500	-0.231	0.165
-152.647	-200.000	-0.025	0.199
-151.633	560.044	0.035	0.085
-150.618	117.117	0.150	0.184
-149.604	133.460	-0.263	0.339
-148.589	-200.000	0.048	0.461
-147.574	-110.706	-0.096	-0.020
-146.560	22.279	0.221	-0.180
-145.545	-121.003	-0.076	0.013
-144.531	270.656	-0.140	0.246
-143.516	-200.000	0.058	0.317
-142.502	189.830	-0.243	0.364
-141.487	-200.000	0.011	0.137
-140.472	100.394	0.154	-0.178
-139.458	800.000	0.023	0.076
-138.443	-200.000	0.028	0.138
-137.429	-200.000	-0.059	0.307
-136.414	-200.000	-0.044	0.368
-135.399	-200.000	0.059	-0.318
-134.385	-200.000	-0.011	-0.089
-133.370	-200.000	-0.009	0.150
-132.356	89.455	-0.353	-0.393
-131.341	-200.000	-0.062	0.272
-130.326	-200.000	-0.034	-0.319
-129.312	-143.516	-0.173	-0.016
-128.297	116.814	0.267	0.327
-127.283	-75.619	-0.131	0.046
-126.268	-32.447	-0.035	-0.019
-125.253	30.496	-0.304	0.259
-124.239	-200.000	-0.007	0.052
-123.224	-200.000	0.068	0.393
-122.210	-200.000	-0.034	0.188
