DTS Sentinel unit serial number:	SN413079Multiplexer serial number:	ORYXHardware model number:	OX4-SRSoftware version number:	ORYX F/W v4.00 Oryx Data Collector v3.7.2.0data status	okinstallation	princeton_trtdifferential loss correction	single-endedforward channel	channel 4reverse channel	N/Adate	2019/09/11time	10:31:11forward acquisition time	60.00reverse acquisition time	0.00gamma	496.2192k internal	0.2294k external	0.2294temperature offset calibration	0.9972default loss term (dB/km)	0.3790temperature slope calibration	1.0000multiplexer offset coefficient	1.0000multiplexer slope coefficient	1.0000fibre end	0.00T internal ref (°C)	36.39T ext. ref 1 (°C)	0.16T ext. ref 2 (°C)	33.53length (m)	temperature (°C)	Stokes	anti-Stokes-747.200	216.162	-0.102	-0.165
-746.185	176.950	-0.129	0.192
-745.171	-5.066	-0.205	-0.144
-744.156	-78.462	0.081	0.028
-743.142	-38.977	-0.289	-0.156
-742.127	105.932	-0.218	0.264
-741.112	16.333	-0.257	0.207
-740.098	7.009	-0.293	0.223
-739.083	12.237	-0.069	0.055
-738.069	68.571	-0.213	0.223
-737.054	34.552	-0.170	0.152
-736.039	-200.000	-0.029	-0.221
-735.025	-17.300	0.242	0.156
-734.010	-49.952	0.159	0.077
-732.996	-117.247	-0.280	0.052
-731.981	-188.163	0.033	-0.000
-730.966	282.075	0.083	-0.152
-729.952	-200.000	-0.014	0.315
-728.937	-200.000	-0.453	-0.002
-727.923	-200.000	0.008	0.159
-726.908	199.119	-0.092	-0.143
-725.894	-200.000	-0.021	-0.096
-724.879	800.000	0.042	-0.147
-723.864	373.669	0.272	-0.566
-722.850	-200.000	-0.002	0.157
-721.835	-174.663	0.225	0.007
-720.821	29.777	0.221	0.192
-719.806	728.347	-0.061	-0.165
-718.791	-112.998	-0.197	0.040
-717.777	388.160	0.092	-0.195
-716.762	68.767	0.039	-0.041
-715.748	-99.051	-0.038	0.010
-714.733	-42.265	0.165	0.086
-713.718	-200.000	0.037	0.356
-712.704	-88.793	0.201	-0.061
-711.689	-120.421	-0.202	0.035
-710.675	521.249	0.143	-0.343
-709.660	-50.317	-0.133	0.064
-708.645	181.866	0.162	0.243
-707.631	-54.081	-0.115	0.054
-706.616	-51.971	0.077	0.037
-705.602	22.223	0.132	0.110
-704.587	-200.000	-0.035	0.408
-703.572	-62.427	0.162	-0.069
-702.558	-55.199	-0.283	-0.130
-701.543	-200.000	-0.012	0.233
-700.529	-200.000	-0.053	0.325
-699.514	-136.739	-0.364	0.043
-698.499	-168.169	0.056	-0.002
-697.485	131.823	-0.198	-0.261
-696.470	620.617	-0.116	0.298
-695.456	706.543	0.034	0.093
-694.441	-200.000	0.001	0.012
-693.426	800.000	0.106	-0.389
-692.412	-60.006	-0.262	-0.114
-691.397	-200.000	-0.054	-0.337
-690.383	-165.182	0.282	0.013
-689.368	-49.850	-0.449	-0.217
-688.354	110.688	0.304	0.373
-687.339	379.451	-0.071	-0.148
-686.324	44.975	0.131	-0.123
-685.310	220.084	-0.082	-0.135
-684.295	-102.913	0.153	0.037
-683.281	-78.622	0.259	0.090
-682.266	524.171	0.047	0.113
-681.251	75.369	-0.075	-0.080
-680.237	-200.000	0.028	0.160
-679.222	418.993	-0.042	-0.091
-678.208	549.064	-0.056	-0.136
-677.193	-79.416	-0.251	-0.087
-676.178	-190.861	0.123	0.001
-675.164	-200.000	-0.006	0.198
-674.149	127.830	0.158	0.205
-673.135	800.000	0.051	-0.227
-672.120	-200.000	-0.059	-0.283
-671.105	-84.762	0.172	-0.055
-670.091	-200.000	0.004	-0.024
-669.076	649.479	0.036	0.093
-668.062	-98.159	0.245	0.064
-667.047	317.495	-0.126	-0.243
-666.032	256.591	-0.132	0.231
-665.018	-92.228	-0.275	0.079
-664.003	-200.000	-0.004	0.056
-662.989	310.835	-0.100	0.190
-661.974	-68.754	-0.060	-0.024
-660.959	73.323	0.168	-0.179
-659.945	1.791	-0.150	0.110
-658.930	-119.358	0.133	0.024
-657.916	-54.258	-0.208	-0.096
-656.901	-30.704	-0.132	0.076
-655.886	-156.379	-0.177	0.011
-654.872	35.017	0.093	-0.083
-653.857	-131.036	-0.282	0.038
-652.843	77.520	-0.187	0.203
-651.828	268.222	-0.082	0.147
-650.814	-40.275	0.085	0.045
-649.799	-200.000	0.014	0.174
-648.784	-61.234	0.266	-0.114
-647.770	51.624	-0.078	-0.076
-646.755	800.000	0.057	-0.189
-645.741	-59.848	0.240	0.105
-644.726	183.975	0.045	0.068
-643.711	89.972	0.275	-0.313
-642.697	800.000	-0.091	-0.405
-641.682	-7.206	0.197	-0.136
-640.668	393.373	-0.076	0.161
-639.653	-200.000	-0.010	0.134
-638.638	-200.000	-0.023	-0.173
-637.624	321.878	-0.048	-0.094
-636.609	356.385	0.015	0.031
-635.595	-49.820	0.166	0.080
-634.580	-200.000	-0.014	0.336
-633.565	-115.259	0.306	0.059
-632.551	-200.000	0.002	0.232
-631.536	-56.493	-0.162	-0.073
-630.522	-137.767	-0.508	0.058
-629.507	402.298	0.105	0.225
-628.492	-200.000	-0.059	-0.444
-627.478	362.176	0.102	-0.209
-626.463	-137.340	-0.149	0.017
-625.449	-200.000	-0.019	-0.150
-624.434	-200.000	0.021	0.338
-623.419	407.003	0.094	-0.203
-622.405	800.000	-0.055	0.228
-621.390	15.407	-0.220	-0.176
-620.376	157.375	0.203	0.286
-619.361	8.539	-0.275	0.210
-618.346	-200.000	0.025	0.385
-617.332	-200.000	0.004	0.072
-616.317	83.467	-0.145	0.161
-615.303	257.661	0.085	0.149
-614.288	-24.402	-0.080	0.048
-613.273	-75.836	-0.100	0.036
-612.259	7.395	-0.168	0.128
-611.244	33.167	-0.238	-0.210
-610.230	-39.743	-0.241	-0.128
-609.215	101.894	-0.187	0.221
-608.201	-24.577	0.272	-0.164
-607.186	-41.054	0.125	-0.066
-606.171	13.486	0.022	-0.017
-605.157	-188.969	-0.110	-0.001
-604.142	-106.949	-0.273	0.062
-603.128	556.473	-0.084	0.205
-602.113	4.805	-0.218	0.163
-601.098	-200.000	0.070	0.340
-600.084	-182.485	0.167	0.003
-599.069	32.487	-0.183	-0.160
-598.055	90.433	-0.031	-0.035
-597.040	22.794	-0.338	0.282
-596.025	137.591	0.184	0.245
-595.011	393.224	-0.082	-0.173
-593.996	-152.023	0.112	-0.008
-592.982	-16.910	-0.130	-0.083
-591.967	-17.668	-0.222	-0.142
-590.952	-95.720	0.093	0.025
-589.938	85.291	-0.107	-0.119
-588.923	-10.952	-0.133	-0.089
-587.909	-200.000	0.001	-0.428
-586.894	157.315	-0.057	-0.081
-585.879	-159.285	0.171	-0.010
-584.865	336.308	0.107	0.211
-583.850	-20.715	-0.082	0.051
-582.836	800.000	-0.088	0.268
-581.821	-110.159	-0.153	0.032
-580.806	-200.000	0.017	0.258
-579.792	-67.224	-0.433	-0.173
-578.777	282.077	-0.133	-0.242
-577.763	-200.000	-0.074	0.372
-576.748	-108.491	0.363	0.079
-575.733	-22.466	-0.116	0.071
-574.719	-200.000	0.024	0.321
-573.704	296.269	0.146	-0.273
-572.690	-78.000	-0.222	0.078
-571.675	78.114	0.024	0.026
-570.661	-68.512	-0.329	0.129
-569.646	800.000	-0.045	0.162
-568.631	-100.528	0.205	0.051
-567.617	800.000	0.034	-0.120
-566.602	-128.284	-0.330	0.048
-565.588	-11.967	0.249	-0.165
-564.573	800.000	-0.037	-0.123
-563.558	-161.896	-0.346	0.018
-562.544	327.892	-0.055	-0.108
-561.529	-200.000	0.020	-0.160
-560.515	287.030	0.092	-0.169
-559.500	66.795	0.193	0.200
-558.485	-151.896	-0.383	-0.028
-557.471	358.578	0.217	-0.440
-556.456	43.567	0.199	-0.185
-555.442	315.800	0.096	0.184
-554.427	800.000	-0.102	-0.396
-553.412	-200.000	-0.009	-0.221
-552.398	-200.000	-0.025	-0.269
-551.383	454.715	-0.078	-0.176
-550.369	29.580	0.207	0.178
-549.354	-63.976	0.246	0.102
-548.339	243.137	-0.125	-0.213
-547.325	-93.118	-0.436	0.123
-546.310	-142.316	0.336	-0.034
-545.296	34.549	-0.053	-0.047
-544.281	-69.673	-0.289	-0.112
-543.266	800.000	0.046	-0.197
-542.252	-131.342	-0.144	0.019
-541.237	363.960	0.103	0.211
-540.223	420.744	0.169	-0.367
-539.208	-148.554	-0.068	-0.006
-538.193	-77.201	0.371	0.131
-537.179	-137.318	-0.247	-0.028
-536.164	-23.782	-0.324	0.197
-535.150	-2.875	-0.161	-0.114
-534.135	123.003	-0.116	-0.147
-533.121	97.931	0.034	-0.040
-532.106	-125.181	0.221	-0.034
-531.091	-106.579	-0.121	-0.027
-530.077	52.420	0.144	-0.139
-529.062	12.199	0.063	0.049
-528.048	-200.000	0.023	0.187
-527.033	24.936	0.168	0.141
-526.018	-92.174	-0.184	-0.053
-525.004	71.670	-0.140	-0.147
-523.989	-193.209	-0.481	-0.004
-522.975	-138.742	0.317	-0.035
-521.960	-21.962	0.268	-0.165
-520.945	800.000	0.016	0.056
-519.931	-122.272	-0.127	-0.021
-518.916	563.712	0.169	-0.414
-517.902	662.375	0.089	0.231
-516.887	800.000	-0.017	-0.070
-515.872	-200.000	-0.008	0.313
-514.858	-3.652	0.193	-0.136
-513.843	-52.147	0.165	-0.078
-512.829	358.083	-0.066	0.134
-511.814	-50.888	0.300	-0.143
-510.799	-7.536	-0.282	0.193
-509.785	800.000	0.091	-0.274
-508.770	-17.020	-0.302	-0.193
-507.756	800.000	0.072	-0.281
-506.741	51.617	0.147	0.142
-505.726	-200.000	-0.037	-0.242
-504.712	257.051	-0.205	0.357
-503.697	184.956	0.109	0.164
-502.683	-1.010	-0.255	-0.182
-501.668	397.946	-0.040	0.084
-500.653	-200.000	-0.004	-0.069
-499.639	683.886	-0.083	-0.220
-498.624	1.137	-0.126	-0.092
-497.610	-74.161	-0.229	0.084
-496.595	-140.193	-0.380	0.040
-495.581	48.905	0.232	-0.220
-494.566	-32.991	0.069	0.039
-493.551	112.662	-0.144	0.177
-492.537	-129.989	0.371	0.051
-491.522	171.484	0.037	-0.053
-490.508	18.581	0.071	-0.057
-489.493	-200.000	0.030	0.240
-488.478	5.520	0.097	0.073
-487.464	-43.458	-0.230	0.117
-486.449	195.490	-0.051	-0.079
-485.435	-105.069	-0.265	-0.061
-484.420	-82.899	0.077	0.025
-483.405	-200.000	0.049	-0.302
-482.391	-80.784	0.099	0.033
-481.376	-49.404	-0.174	-0.084
-480.362	28.221	-0.266	0.228
-479.347	-141.147	0.197	-0.020
-478.332	-132.301	0.213	0.028
-477.318	69.811	0.210	0.220
-476.303	-108.810	0.147	0.032
-475.289	-49.504	-0.264	-0.127
-474.274	607.721	-0.024	-0.060
-473.259	-200.000	0.023	-0.379
-472.245	20.944	0.163	0.134
-471.230	103.550	-0.159	-0.189
-470.216	-54.936	-0.344	-0.157
-469.201	-93.015	0.232	0.065
-468.186	-89.976	0.213	0.063
-467.172	435.971	0.080	-0.177
-466.157	-117.446	0.051	-0.009
-465.143	800.000	-0.083	-0.260
-464.128	-93.611	0.075	0.021
-463.113	59.775	0.211	0.211
-462.099	11.530	0.316	0.245
-461.084	30.709	0.116	-0.101
-460.070	-97.444	0.236	0.062
-459.055	139.199	-0.191	0.254
-458.040	457.140	0.124	0.279
-457.026	14.906	0.181	-0.143
-456.011	-75.941	0.119	0.042
-454.997	-172.096	0.205	-0.007
-453.982	-84.951	0.275	-0.087
-452.968	-61.706	-0.095	0.040
-451.953	-46.203	0.159	0.079
-450.938	234.519	-0.093	-0.154
-449.924	113.208	-0.177	0.217
-448.909	-149.128	0.049	0.004
-447.895	198.398	0.143	-0.220
-446.880	-200.000	0.022	0.258
-445.865	2.180	-0.164	0.120
-444.851	94.605	-0.105	0.121
-443.836	90.838	0.209	0.237
-442.822	69.591	-0.149	0.156
-441.807	80.005	-0.063	-0.068
-440.792	-200.000	-0.003	0.080
-439.778	-117.170	-0.156	-0.029
-438.763	618.755	-0.081	-0.207
-437.749	-200.000	0.002	-0.215
-436.734	-151.813	0.178	-0.013
-435.719	114.024	-0.071	0.087
-434.705	-13.094	-0.274	-0.180
-433.690	-200.000	-0.006	-0.201
-432.676	-71.053	-0.190	-0.072
-431.661	-125.458	0.246	-0.038
-430.646	90.095	-0.198	-0.224
-429.632	248.921	-0.170	-0.290
-428.617	-57.471	0.092	-0.041
-427.603	-200.000	0.052	0.244
-426.588	-150.199	-0.059	0.005
-425.573	-200.000	0.059	0.266
-424.559	-86.334	0.540	-0.168
-423.544	99.657	0.130	0.152
-422.530	-99.508	0.083	-0.021
-421.515	800.000	-0.037	-0.123
-420.500	-126.570	0.219	-0.033
-419.486	-147.114	0.084	-0.007
-418.471	-43.783	0.103	-0.052
-417.457	800.000	0.022	0.097
-416.442	262.672	0.156	0.273
-415.428	-64.669	-0.111	0.045
-414.413	536.206	0.139	-0.332
-413.398	-112.218	0.240	0.049
-412.384	-99.196	-0.119	-0.030
-411.369	612.289	0.108	-0.274
-410.355	800.000	-0.050	-0.189
-409.340	277.624	-0.137	0.245
-408.325	532.077	0.022	-0.053
-407.311	-200.000	-0.000	-0.110
-406.296	231.581	-0.049	0.082
-405.282	-28.675	0.233	-0.135
-404.267	-200.000	0.001	-0.319
-403.252	-200.000	0.058	-0.286
-402.238	577.107	0.080	0.196
-401.223	-200.000	0.032	-0.176
-400.209	727.140	-0.070	0.189
-399.194	42.133	-0.183	0.167
-398.179	-24.374	-0.078	0.047
-397.165	-200.000	0.006	-0.201
-396.150	276.799	0.124	0.223
-395.136	-200.000	0.002	0.423
-394.121	-64.486	0.193	0.079
-393.106	-45.308	-0.212	0.106
-392.092	800.000	0.046	-0.147
-391.077	-153.174	-0.094	-0.007
-390.063	-151.356	-0.452	0.034
-389.048	-9.485	-0.315	-0.212
-388.033	555.881	-0.065	-0.159
-387.019	-88.515	-0.263	-0.079
-386.004	-117.997	0.139	0.025
-384.990	-61.350	-0.103	0.044
-383.975	-200.000	0.033	0.257
-382.960	-200.000	-0.035	0.248
-381.946	-17.878	-0.137	-0.087
-380.931	-49.847	-0.277	-0.133
-379.917	181.462	-0.198	-0.294
-378.902	164.754	0.062	0.088
-377.888	800.000	-0.078	0.225
-376.873	278.421	0.144	-0.259
-375.858	-75.315	-0.096	0.035
-374.844	-61.824	0.138	0.058
-373.829	-51.802	0.182	0.086
-372.815	-67.229	0.458	0.182
-371.800	74.069	-0.284	0.300
-370.785	35.726	-0.203	-0.180
-369.771	-42.652	0.164	0.084
-368.756	-142.587	0.132	0.013
-367.742	-27.402	-0.135	0.079
-366.727	108.905	-0.109	0.132
-365.712	-152.197	-0.140	0.010
-364.698	304.942	-0.139	-0.260
-363.683	-44.860	0.253	0.127
-362.669	113.293	0.208	-0.255
-361.654	-200.000	0.025	-0.275
-360.639	-200.000	0.040	-0.204
-359.625	-45.258	-0.083	0.041
-358.610	128.551	-0.102	0.131
-357.596	-124.554	-0.224	0.035
-356.581	104.781	0.130	-0.154
-355.566	165.909	0.182	0.259
-354.552	183.388	-0.116	-0.173
-353.537	800.000	-0.098	-0.329
-352.523	-100.669	-0.286	0.071
-351.508	200.350	0.031	0.048
-350.493	38.450	-0.141	0.126
-349.479	249.951	0.042	-0.071
-348.464	89.652	0.139	0.156
-347.450	-91.247	0.259	0.075
-346.435	-32.924	-0.056	-0.031
-345.420	95.447	-0.141	-0.162
-344.406	77.983	-0.048	0.051
-343.391	-135.187	0.131	0.016
-342.377	88.199	-0.068	-0.076
-341.362	800.000	-0.036	-0.145
-340.348	-200.000	0.012	-0.172
-339.333	-15.886	0.179	-0.115
-338.318	-28.560	-0.258	0.149
-337.304	800.000	0.068	-0.261
-336.289	36.983	-0.138	0.123
-335.275	800.000	0.040	-0.119
-334.260	-37.063	-0.198	0.106
-333.245	-29.513	0.197	0.113
-332.231	26.389	0.304	-0.256
-331.216	64.587	0.047	0.047
-330.202	-158.443	-0.122	0.007
-329.187	426.364	0.128	0.277
-328.172	173.549	0.082	0.119
-327.158	-78.838	0.239	0.082
-326.143	-63.140	0.200	0.083
-325.129	-177.089	0.366	-0.009
-324.114	-72.805	-0.311	-0.115
-323.099	-200.000	-0.004	0.048
-322.085	-200.000	-0.001	0.162
-321.070	-50.503	-0.185	0.088
-320.056	66.451	-0.070	-0.071
-319.041	-108.872	-0.117	-0.025
-318.026	89.364	-0.157	-0.176
-317.012	-1.096	-0.117	0.083
-315.997	90.428	-0.139	-0.156
-314.983	-28.169	-0.116	-0.068
-313.968	76.347	-0.231	-0.246
-312.953	-88.370	-0.203	-0.061
-311.939	-200.000	0.032	0.306
-310.924	-200.000	-0.001	0.091
-309.910	322.452	0.135	-0.258
-308.895	74.633	-0.130	0.137
-307.880	-17.344	0.206	0.130
-306.866	174.196	-0.099	0.143
-305.851	726.942	0.102	-0.273
-304.837	137.793	-0.110	-0.145
-303.822	36.446	-0.040	0.035
-302.807	5.132	-0.139	0.103
-301.793	-200.000	-0.010	-0.069
-300.778	-62.440	0.326	-0.136
-299.764	-200.000	0.029	0.249
-298.749	-10.962	-0.007	0.005
-297.735	800.000	-0.091	0.261
-296.720	-0.845	-0.114	-0.081
-295.705	9.358	0.068	0.052
-294.691	628.472	0.049	0.125
-293.676	-172.859	-0.156	-0.005
-292.662	210.383	-0.234	-0.370
-291.647	-92.766	0.186	-0.052
-290.632	1.446	0.384	0.278
-289.618	-44.355	-0.136	0.069
-288.603	93.722	-0.119	-0.135
-287.589	-200.000	-0.014	-0.405
-286.574	-79.433	0.260	0.088
-285.559	-34.838	-0.081	0.044
-284.545	-35.989	0.101	0.055
-283.530	564.094	0.158	0.383
-282.516	48.143	0.123	0.115
-281.501	-0.498	0.067	0.048
-280.486	226.363	-0.069	-0.112
-279.472	-12.502	0.284	-0.186
-278.457	-116.166	-0.181	-0.034
-277.443	-200.000	-0.018	-0.096
-276.428	-200.000	-0.008	-0.056
-275.413	177.099	-0.207	0.302
-274.399	507.498	0.092	0.215
-273.384	-95.389	-0.114	0.031
-272.370	-47.379	0.176	0.086
-271.355	-100.206	-0.086	0.021
-270.340	-66.224	0.148	0.059
-269.326	-38.786	0.451	0.239
-268.311	-48.524	0.176	0.085
-267.297	-121.169	0.227	0.038
-266.282	-103.301	0.140	0.033
-265.267	-116.766	-0.058	-0.011
-264.253	159.306	-0.085	0.118
-263.238	-64.100	-0.182	-0.075
-262.224	-166.090	0.330	0.014
-261.209	-19.956	0.305	-0.189
-260.195	800.000	0.124	-0.412
-259.180	-29.548	0.239	-0.137
-258.165	-166.046	-0.170	-0.007
-257.151	-7.415	-0.222	-0.151
-256.136	-115.002	-0.309	0.059
-255.122	182.606	-0.091	0.135
-254.107	379.514	0.079	0.162
-253.092	-200.000	0.001	0.193
-252.078	-200.000	-0.017	0.087
-251.063	800.000	0.060	0.198
-250.049	-173.291	-0.238	-0.007
-249.034	-29.316	-0.229	-0.131
-248.019	179.203	0.066	-0.096
-247.005	-200.000	-0.010	-0.052
-245.990	729.995	0.050	0.133
-244.976	44.863	0.201	0.186
-243.961	25.450	0.074	0.062
-242.946	-18.994	-0.091	-0.057
-241.932	-68.368	0.287	0.112
-240.917	95.839	-0.123	0.140
-239.903	-10.999	-0.212	-0.141
-238.888	-37.038	0.282	-0.152
-237.873	-110.255	0.111	-0.023
-236.859	-16.407	0.158	-0.100
-235.844	-5.249	-0.122	0.084
-234.830	75.134	0.253	0.267
-233.815	29.945	-0.094	-0.081
-232.800	168.473	0.045	-0.064
-231.786	800.000	-0.006	-0.020
-230.771	-52.078	0.178	0.083
-229.757	-55.704	-0.458	0.205
-228.742	800.000	-0.125	0.438
-227.727	103.344	-0.134	-0.157
-226.713	220.397	0.089	-0.143
-225.698	-77.322	-0.076	0.027
-224.684	202.319	0.113	0.175
-223.669	113.725	-0.094	-0.115
-222.655	-76.424	-0.181	0.064
-221.640	68.368	-0.085	0.087
-220.625	-100.558	0.174	0.043
-219.611	-59.269	0.246	-0.106
-218.596	324.541	-0.115	-0.220
-217.582	-200.000	-0.030	-0.541
-216.567	506.694	-0.077	-0.178
-215.552	74.373	0.230	0.242
-214.538	543.408	0.125	0.298
-213.523	16.133	0.237	0.187
-212.509	703.968	-0.080	-0.211
-211.494	481.833	-0.162	0.368
-210.479	-200.000	0.042	0.246
-209.465	116.380	0.083	-0.102
-208.450	-47.593	-0.044	0.021
-207.436	-155.356	-0.050	-0.003
-206.421	100.155	0.283	0.328
-205.406	207.602	0.016	0.025
-204.392	752.298	-0.106	-0.288
-203.377	-200.000	-0.003	-0.294
-202.363	-29.541	0.116	-0.067
-201.348	-200.000	0.005	0.203
-200.333	800.000	-0.005	-0.020
-199.319	-68.733	0.170	0.066
-198.304	800.000	0.065	-0.259
-197.290	-175.223	-0.359	0.010
-196.275	-137.191	0.190	-0.022
-195.260	800.000	-0.061	-0.242
-194.246	-193.836	-0.368	-0.003
-193.231	582.659	-0.042	0.104
-192.217	-79.398	-0.149	0.051
-191.202	7.949	-0.081	0.061
-190.187	-55.859	-0.507	-0.227
-189.173	-29.278	0.305	-0.175
-188.158	602.156	-0.016	0.040
-187.144	-28.651	0.275	0.159
-186.129	98.378	-0.208	-0.240
-185.114	93.852	0.160	0.181
-184.100	78.646	-0.110	0.118
-183.085	558.901	0.184	0.445
-182.071	-132.976	0.379	0.048
-181.056	-200.000	-0.023	0.299
-180.042	800.000	-0.043	-0.183
-179.027	-128.707	-0.114	0.016
-178.012	-65.188	0.211	-0.085
-176.998	-200.000	0.055	0.365
-175.983	-200.000	0.046	-0.231
-174.969	197.347	-0.131	-0.199
-173.954	561.407	-0.041	-0.099
-172.939	-90.277	-0.353	0.103
-171.925	-51.694	0.132	0.062
-170.910	800.000	0.088	0.278
-169.896	-26.681	0.082	-0.048
-168.881	18.412	0.189	0.151
-167.866	-148.805	0.291	0.024
-166.852	83.149	0.028	-0.031
-165.837	35.936	-0.348	0.306
-164.823	38.462	-0.216	-0.192
-163.808	-53.162	0.412	0.189
-162.793	-55.636	0.274	-0.122
-161.779	245.850	-0.078	-0.132
-160.764	-15.009	-0.243	-0.156
-159.750	-51.609	-0.445	0.207
-158.735	51.166	-0.136	0.129
-157.720	-137.038	-0.039	0.004
-156.706	-200.000	0.000	0.075
-155.691	51.592	0.245	-0.233
-154.677	-10.633	0.110	0.073
-153.662	-124.644	0.276	-0.043
-152.647	-167.058	-0.054	0.002
-151.633	43.305	0.320	-0.292
-150.618	-81.363	-0.206	0.068
-149.604	197.280	-0.082	0.124
-148.589	-106.072	0.291	0.065
-147.574	90.958	-0.109	0.122
-146.560	307.162	-0.129	0.239
-145.545	-110.632	-0.194	0.040
-144.531	-168.332	-0.354	0.014
-143.516	800.000	0.119	0.368
-142.502	15.670	0.058	0.045
-141.487	-45.732	-0.173	-0.085
-140.472	-112.910	-0.387	0.077
-139.458	-200.000	-0.040	-0.187
-138.443	-136.617	0.113	-0.013
-137.429	-77.731	0.073	0.025
-136.414	-200.000	0.037	-0.293
-135.399	283.102	0.121	0.217
-134.385	656.224	-0.162	0.414
-133.370	125.139	-0.170	0.214
-132.356	-144.811	0.334	-0.031
-131.341	178.527	0.076	-0.111
-130.326	-157.542	-0.233	-0.014
-129.312	169.218	-0.194	0.276
-128.297	-12.127	0.269	-0.176
-127.283	46.297	0.202	-0.186
-126.268	-60.890	-0.015	-0.006
-125.253	-1.476	-0.283	0.199
-124.239	-200.000	-0.057	0.298
-123.224	16.329	0.204	-0.160
-122.210	-83.175	0.368	0.118
-121.195	-200.000	-0.044	-0.409
-120.180	245.594	-0.089	-0.150
