DTS Sentinel unit serial number:	SN413079Multiplexer serial number:	ORYXHardware model number:	OX4-SRSoftware version number:	ORYX F/W v4.00 Oryx Data Collector v3.7.2.0data status	okinstallation	princeton_trtdifferential loss correction	single-endedforward channel	channel 4reverse channel	N/Adate	2019/09/10time	21:11:10forward acquisition time	60.00reverse acquisition time	0.00gamma	496.2192k internal	0.2313k external	0.2313temperature offset calibration	0.9944default loss term (dB/km)	0.3790temperature slope calibration	1.0000multiplexer offset coefficient	1.0000multiplexer slope coefficient	1.0000fibre end	0.00T internal ref (°C)	31.44T ext. ref 1 (°C)	-0.31T ext. ref 2 (°C)	24.55length (m)	temperature (°C)	Stokes	anti-Stokes-747.200	800.000	0.058	0.220
-746.185	-10.691	0.069	-0.046
-745.171	25.475	0.145	-0.123
-744.156	-56.967	0.393	0.176
-743.142	32.766	0.124	0.108
-742.127	-200.000	-0.010	-0.082
-741.112	-107.043	0.503	-0.113
-740.098	222.513	-0.074	0.120
-739.083	4.686	-0.128	0.095
-738.069	-116.810	0.461	0.086
-737.054	268.867	-0.049	-0.087
-736.039	800.000	-0.079	-0.332
-735.025	-28.180	0.270	0.158
-734.010	-163.382	-0.346	0.017
-732.996	99.315	-0.254	-0.298
-731.981	299.549	-0.061	0.114
-730.966	40.875	-0.183	0.168
-729.952	-69.183	-0.159	0.062
-728.937	164.089	-0.040	0.058
-727.923	-200.000	-0.046	0.284
-726.908	-200.000	-0.045	-0.318
-725.894	800.000	0.049	0.148
-724.879	-89.205	-0.263	-0.079
-723.864	-200.000	-0.003	0.091
-722.850	-60.444	0.184	-0.079
-721.835	-200.000	-0.030	-0.237
-720.821	82.489	-0.087	0.095
-719.806	-200.000	-0.026	-0.179
-718.791	-178.626	-0.055	0.001
-717.777	239.247	-0.069	0.116
-716.762	123.437	-0.262	0.333
-715.748	227.618	-0.012	-0.020
-714.733	72.643	-0.082	0.087
-713.718	-18.621	-0.504	-0.318
-712.704	89.408	-0.198	-0.224
-711.689	-191.503	-0.318	0.003
-710.675	39.406	-0.205	0.186
-709.660	-119.431	-0.192	-0.034
-708.645	106.560	0.028	-0.034
-707.631	52.215	-0.177	-0.171
-706.616	43.271	-0.280	-0.259
-705.602	-200.000	0.166	-0.001
-704.587	-28.122	0.342	-0.200
-703.572	234.895	0.158	0.264
-702.558	-45.176	0.090	-0.045
-701.543	-117.610	0.056	-0.010
-700.529	800.000	0.028	0.112
-699.514	-67.623	-0.203	-0.081
-698.499	-69.708	-0.123	0.048
-697.485	800.000	-0.021	-0.068
-696.470	229.435	-0.106	0.175
-695.456	800.000	0.051	0.207
-694.441	800.000	0.028	0.107
-693.426	156.892	-0.124	-0.174
-692.412	-133.209	-0.116	0.015
-691.397	59.474	0.120	0.120
-690.383	-200.000	-0.007	-0.359
-689.368	-66.830	0.296	-0.118
-688.354	800.000	-0.077	-0.264
-687.339	-114.292	-0.193	0.038
-686.324	-104.751	-0.455	-0.106
-685.310	86.824	-0.067	0.074
-684.295	696.940	-0.064	-0.171
-683.281	120.832	-0.046	0.058
-682.266	-67.253	0.078	-0.031
-681.251	-200.000	0.042	-0.189
-680.237	-19.659	-0.288	-0.180
-679.222	-200.000	-0.039	0.246
-678.208	345.662	-0.075	-0.149
-677.193	-89.540	0.133	0.039
-676.178	-193.740	-0.185	0.002
-675.164	800.000	0.115	0.393
-674.149	414.281	-0.150	0.323
-673.135	-48.024	0.149	0.073
-672.120	-66.785	-0.330	0.132
-671.105	-158.892	-0.096	-0.006
-670.091	-101.951	-0.175	0.043
-669.076	-170.600	-0.181	0.006
-668.062	-24.673	-0.247	0.149
-667.047	130.798	-0.168	0.218
-666.032	57.884	-0.291	0.288
-665.018	-54.595	0.103	0.047
-664.003	-138.828	0.031	-0.003
-662.989	-104.381	-0.188	-0.044
-661.974	-135.776	0.377	0.045
-660.959	-200.000	0.076	0.393
-659.945	-200.000	-0.271	-0.001
-658.930	-15.842	0.255	-0.164
-657.916	15.033	-0.173	-0.137
-656.901	-45.543	-0.148	-0.074
-655.886	-20.346	-0.179	0.111
-654.872	781.902	-0.044	-0.122
-653.857	800.000	0.050	0.199
-652.843	-39.242	-0.237	0.126
-651.828	-196.932	0.322	-0.002
-650.814	-53.475	-0.053	-0.025
-649.799	-59.843	0.173	-0.075
-648.784	-96.021	0.458	-0.123
-647.770	145.627	0.194	-0.263
-646.755	0.806	-0.181	-0.131
-645.741	198.648	-0.122	0.189
-644.726	243.368	0.253	-0.429
-643.711	-43.903	0.026	-0.013
-642.697	-37.265	0.099	-0.054
-641.682	-155.529	0.206	-0.013
-640.668	-18.587	-0.181	-0.114
-639.653	-136.242	-0.320	-0.038
-638.638	-17.917	-0.145	-0.092
-637.624	800.000	-0.058	0.248
-636.609	-109.792	0.174	0.037
-635.595	-41.618	0.096	0.050
-634.580	-200.000	0.317	0.001
-633.565	185.243	-0.087	0.130
-632.551	-50.636	-0.347	0.165
-631.536	-99.102	-0.184	-0.047
-630.522	-124.102	-0.383	0.061
-629.507	-47.087	-0.257	-0.127
-628.492	659.794	0.077	0.200
-627.478	-200.000	0.039	0.225
-626.463	-200.000	-0.072	-0.320
-625.449	251.977	-0.115	-0.198
-624.434	-173.347	0.154	0.005
-623.419	-200.000	-0.028	0.252
-622.405	51.883	-0.175	-0.168
-621.390	-200.000	0.013	0.091
-620.376	-44.154	-0.188	0.095
-619.361	235.406	0.120	0.199
-618.346	142.636	0.098	-0.131
-617.332	-100.668	-0.311	0.077
-616.317	-118.850	0.180	0.032
-615.303	276.262	0.115	0.207
-614.288	-200.000	0.016	0.105
-613.273	800.000	0.092	-0.268
-612.259	498.484	-0.038	0.088
-611.244	-84.942	-0.054	0.017
-610.230	800.000	-0.071	0.261
-609.215	-200.000	-0.013	-0.097
-608.201	239.907	0.158	0.265
-607.186	-199.342	0.176	-0.001
-606.171	-127.762	-0.082	0.012
-605.157	637.617	0.056	0.143
-604.142	55.145	0.059	0.057
-603.128	26.847	0.224	-0.189
-602.113	-200.000	-0.026	-0.205
-601.098	-0.732	0.262	-0.187
-600.084	-107.033	-0.106	-0.024
-599.069	-173.714	-0.186	0.006
-598.055	76.515	0.101	0.108
-597.040	50.802	-0.165	-0.157
-596.025	461.156	0.127	0.285
-595.011	71.803	0.097	-0.102
-593.996	-167.100	0.036	0.001
-592.982	-102.721	-0.162	0.039
-591.967	148.529	-0.176	0.240
-590.952	-154.893	0.286	-0.019
-589.938	113.798	-0.183	-0.224
-588.923	360.606	0.049	0.099
-587.909	-67.251	0.057	0.023
-586.894	-66.136	0.254	0.102
-585.879	-126.604	0.116	0.017
-584.865	-111.115	0.216	-0.045
-583.850	800.000	-0.080	0.279
-582.836	-148.443	-0.272	-0.022
-581.821	134.703	-0.069	0.090
-580.806	179.906	0.043	-0.064
-579.792	149.161	-0.040	0.055
-578.777	0.392	-0.087	-0.063
-577.763	269.073	0.117	0.208
-576.748	216.640	0.064	0.103
-575.733	-87.663	0.212	0.064
-574.719	-148.121	-0.287	0.024
-573.704	37.020	-0.123	-0.110
-572.690	15.561	-0.185	0.147
-571.675	56.066	-0.249	0.244
-570.661	138.052	-0.180	0.238
-569.646	212.103	-0.221	-0.351
-568.631	59.351	-0.248	-0.247
-567.617	-95.010	-0.311	0.085
-566.602	-91.642	0.261	0.075
-565.588	-150.196	-0.460	0.036
-564.573	336.892	0.077	0.152
-563.558	-200.000	-0.042	-0.307
-562.544	-200.000	-0.070	0.418
-561.529	141.646	-0.052	-0.069
-560.515	481.465	-0.169	-0.387
-559.500	77.810	0.153	-0.164
-558.485	154.004	-0.097	0.134
-557.471	-66.300	0.173	0.069
-556.456	168.390	0.088	-0.126
-555.442	-88.455	0.424	0.127
-554.427	-65.356	0.315	0.128
-553.412	-62.273	-0.008	-0.003
-552.398	-45.481	0.395	0.197
-551.383	-151.880	0.246	-0.018
-550.369	-200.000	0.016	-0.114
-549.354	16.897	-0.154	0.123
-548.339	800.000	0.011	-0.040
-547.325	-99.053	-0.084	-0.022
-546.310	-17.927	0.055	0.034
-545.296	-41.126	-0.219	0.114
-544.281	-200.000	-0.014	-0.139
-543.266	135.833	-0.020	0.027
-542.252	-67.294	0.106	0.042
-541.237	271.807	-0.119	-0.212
-540.223	-200.000	-0.031	-0.218
-539.208	800.000	-0.027	0.095
-538.193	-79.592	0.050	0.017
-537.179	-118.588	-0.177	-0.031
-536.164	33.232	0.099	-0.087
-535.150	125.585	0.091	-0.116
-534.135	200.502	-0.140	-0.217
-533.121	44.885	-0.159	0.147
-532.106	800.000	0.021	0.076
-531.091	800.000	0.050	-0.144
-530.077	-200.000	0.041	0.417
-529.062	75.765	-0.249	0.265
-528.048	58.789	0.156	-0.155
-527.033	-40.062	0.236	0.123
-526.018	-200.000	-0.004	-0.481
-525.004	634.636	-0.155	0.394
-523.989	-200.000	-0.010	0.070
-522.975	-200.000	-0.019	0.426
-521.960	479.693	-0.108	-0.246
-520.945	-200.000	0.008	-0.280
-519.931	800.000	0.039	-0.162
-518.916	62.881	0.108	-0.109
-517.902	110.413	0.222	0.269
-516.887	212.822	-0.185	-0.293
-515.872	171.815	-0.114	-0.164
-514.858	49.032	0.053	0.050
-513.843	-9.239	0.330	-0.222
-512.829	14.852	0.110	0.086
-511.814	800.000	-0.026	-0.082
-510.799	-25.140	-0.287	-0.171
-509.785	53.248	-0.118	0.113
-508.770	-64.718	0.106	0.043
-507.756	395.206	0.062	-0.129
-506.741	-200.000	-0.077	-0.387
-505.726	474.837	0.189	-0.429
-504.712	-72.312	-0.290	-0.108
-503.697	2.593	-0.124	-0.090
-502.683	70.820	-0.206	-0.214
-501.668	-200.000	-0.015	-0.108
-500.653	-62.761	0.129	-0.054
-499.639	-156.247	0.016	0.001
-498.624	800.000	0.053	-0.153
-497.610	-43.953	0.245	0.124
-496.595	59.916	0.277	0.275
-495.581	69.697	-0.277	0.287
-494.566	5.554	0.107	-0.079
-493.551	78.170	0.119	-0.128
-492.537	270.760	0.139	0.245
-491.522	299.614	-0.111	0.205
-490.508	50.839	-0.252	-0.240
-489.493	-200.000	0.092	-0.421
-488.478	800.000	-0.044	-0.160
-487.464	-32.936	0.204	-0.113
-486.449	552.472	-0.085	-0.205
-485.435	-18.968	-0.166	-0.104
-484.420	-8.747	-0.037	0.025
-483.405	-117.051	-0.246	0.045
-482.391	-83.089	0.181	0.059
-481.376	-131.356	0.138	0.018
-480.362	77.444	0.240	0.256
-479.347	800.000	0.016	0.064
-478.332	-79.114	0.221	-0.075
-477.318	637.515	0.041	0.104
-476.303	414.388	0.089	0.191
-475.289	690.175	0.129	0.338
-474.274	236.802	-0.148	0.246
-473.259	85.620	-0.170	-0.188
-472.245	-30.809	-0.250	-0.142
-471.230	800.000	-0.048	0.152
-470.216	11.915	-0.193	-0.149
-469.201	-165.043	0.496	-0.022
-468.186	-41.080	-0.315	-0.163
-467.172	-172.950	0.135	-0.004
-466.157	-198.957	0.266	0.001
-465.143	236.192	0.098	-0.163
-464.128	-200.000	-0.026	0.168
-463.113	-200.000	-0.016	0.180
-462.099	303.679	-0.193	-0.359
-461.084	-120.024	-0.114	-0.020
-460.070	-200.000	-0.003	-0.164
-459.055	-20.154	-0.135	0.083
-458.040	236.037	0.149	-0.248
-457.026	-122.141	-0.270	-0.044
-456.011	-200.000	-0.018	-0.113
-454.997	-128.048	-0.175	0.025
-453.982	-93.626	0.255	0.071
-452.968	82.059	-0.241	-0.262
-451.953	-79.440	0.075	-0.026
-450.938	-197.614	-0.489	-0.003
-449.924	68.675	-0.165	-0.169
-448.909	-142.577	-0.093	-0.009
-447.895	346.984	0.043	0.084
-446.880	0.381	-0.054	-0.038
-445.865	390.902	0.056	0.116
-444.851	92.947	0.087	-0.098
-443.836	-130.909	-0.305	0.041
-442.822	83.630	0.199	0.218
-441.807	-109.750	0.106	0.022
-440.792	-184.225	0.292	0.005
-439.778	-90.370	0.249	0.072
-438.763	200.462	-0.172	-0.265
-437.749	-200.000	0.036	0.210
-436.734	139.312	-0.083	0.109
-435.719	6.290	-0.138	-0.103
-434.705	-65.083	0.479	-0.194
-433.690	750.520	0.127	0.344
-432.676	-200.000	0.021	-0.151
-431.661	-58.859	0.116	-0.050
-430.646	712.215	0.076	-0.200
-429.632	-7.169	0.335	-0.228
-428.617	47.780	0.197	0.184
-427.603	541.547	-0.084	0.200
-426.588	-123.907	-0.257	0.041
-425.573	-152.443	-0.175	0.013
-424.559	145.281	-0.095	-0.128
-423.544	255.154	-0.141	0.242
-422.530	-200.000	-0.050	-0.471
-421.515	-20.466	0.177	0.109
-420.500	800.000	0.025	-0.103
-419.486	57.458	-0.278	-0.272
-418.471	800.000	-0.056	-0.212
-417.457	-0.763	-0.014	-0.010
-416.442	800.000	-0.083	-0.267
-415.428	-37.988	-0.106	0.056
-414.413	-200.000	0.034	0.521
-413.398	56.513	-0.059	0.057
-412.384	-94.942	-0.203	0.055
-411.369	-200.000	-0.049	0.489
-410.355	-117.346	-0.128	-0.023
-409.340	-60.262	-0.362	0.154
-408.325	800.000	0.108	0.349
-407.311	-168.147	0.062	-0.002
-406.296	-15.840	-0.140	-0.089
-405.282	4.647	0.264	-0.194
-404.267	-200.000	-0.019	0.120
-403.252	-92.004	-0.074	-0.021
-402.238	-200.000	0.002	0.139
-401.223	-200.000	-0.038	0.174
-400.209	17.015	-0.098	0.078
-399.194	-1.412	0.218	0.154
-398.179	-49.098	-0.111	0.053
-397.165	518.522	0.061	-0.144
-396.150	-97.522	-0.394	-0.102
-395.136	-64.311	-0.392	-0.160
-394.121	800.000	0.075	0.275
-393.106	-200.000	-0.012	-0.220
-392.092	118.476	0.123	-0.152
-391.077	-123.571	0.240	0.038
-390.063	17.595	0.059	-0.047
-389.048	-86.570	0.067	-0.021
-388.033	231.783	0.132	0.217
-387.019	-30.514	0.132	0.075
-386.004	92.093	0.009	0.010
-384.990	-122.364	0.143	0.023
-383.975	-134.417	0.055	0.007
-382.960	146.986	0.161	-0.216
-381.946	-139.446	-0.108	0.012
-380.931	79.770	0.066	0.071
-379.917	-200.000	0.001	-0.400
-378.902	-4.550	-0.260	0.180
-377.888	-200.000	0.035	0.211
-376.873	193.237	0.147	-0.222
-375.858	519.811	-0.106	-0.249
-374.844	-11.710	0.174	-0.114
-373.829	-97.849	0.080	0.021
-372.815	175.100	-0.023	0.033
-371.800	94.320	0.112	-0.127
-370.785	185.875	0.140	-0.207
-369.771	290.555	0.169	0.307
-368.756	-200.000	0.008	-0.193
-367.742	-104.426	-0.269	-0.062
-366.727	-77.796	0.193	0.067
-365.712	-200.000	0.016	-0.138
-364.698	386.729	0.073	-0.151
-363.683	-200.000	0.013	0.067
-362.669	564.186	-0.137	0.331
-361.654	82.728	0.017	-0.018
-360.639	-54.414	0.367	0.166
-359.625	-200.000	0.008	-0.184
-358.610	261.464	-0.090	0.157
-357.596	-87.128	0.283	-0.086
-356.581	-99.726	-0.234	0.059
-355.566	-200.000	0.088	0.422
-354.552	-52.487	-0.167	-0.077
-353.537	-200.000	-0.019	-0.093
-352.523	440.271	-0.207	-0.452
-351.508	621.196	0.047	-0.117
-350.493	85.319	0.357	-0.391
-349.479	-42.955	-0.232	-0.118
-348.464	54.230	0.091	0.088
-347.450	-112.945	-0.260	0.051
-346.435	-200.000	0.039	0.297
-345.420	-48.414	0.159	-0.077
-344.406	227.018	-0.057	-0.093
-343.391	800.000	0.112	-0.356
-342.377	-200.000	-0.015	-0.115
-341.362	119.451	-0.196	0.243
-340.348	-200.000	-0.030	-0.319
-339.333	-200.000	-0.009	-0.053
-338.318	223.988	-0.159	0.256
-337.304	-147.568	-0.110	0.009
-336.289	-17.220	0.215	-0.135
-335.275	-94.912	-0.350	-0.095
-334.260	-113.781	0.348	0.068
-333.245	-188.016	-0.146	0.002
-332.231	-70.036	0.343	-0.130
-331.216	-92.780	-0.377	0.105
-330.202	-129.672	-0.265	0.036
-329.187	-68.355	-0.082	0.032
-328.172	-177.880	0.185	0.004
-327.158	36.290	-0.242	0.213
-326.143	62.692	-0.129	-0.129
-325.129	-125.457	-0.343	-0.052
-324.114	68.248	-0.058	0.060
-323.099	-71.555	0.165	-0.062
-322.085	-74.116	0.240	-0.087
-321.070	-200.000	0.016	-0.112
-320.056	617.410	0.059	0.148
-319.041	-200.000	0.023	-0.127
-318.026	-154.583	-0.183	-0.012
-317.012	-104.851	-0.085	-0.019
-315.997	-17.613	-0.278	-0.174
-314.983	-25.931	-0.159	-0.094
-313.968	44.373	0.251	0.230
-312.953	-200.000	-0.063	0.282
-311.939	800.000	0.150	0.496
-310.924	89.245	0.268	0.298
-309.910	-35.557	-0.115	-0.062
-308.895	137.832	0.107	-0.140
-307.880	788.253	-0.038	0.105
-306.866	-166.239	0.273	0.012
-305.851	-73.253	-0.143	-0.052
-304.837	-200.000	0.000	-0.178
-303.822	187.670	-0.170	-0.253
-302.807	363.093	-0.116	-0.231
-301.793	800.000	0.116	-0.364
-300.778	327.552	-0.126	0.241
-299.764	-200.000	0.002	0.020
-298.749	-200.000	-0.069	0.414
-297.735	-200.000	0.007	0.471
-296.720	-200.000	0.000	0.186
-295.705	-104.615	-0.069	-0.016
-294.691	-171.364	0.402	-0.013
-293.676	-96.820	0.090	0.024
-292.662	19.614	-0.120	-0.096
-291.647	-143.804	-0.167	-0.016
-290.632	-122.070	-0.278	0.045
-289.618	-200.000	0.006	-0.109
-288.603	96.705	0.058	-0.067
-287.589	341.082	0.145	0.281
-286.574	-13.732	-0.171	0.110
-285.559	-79.567	-0.071	-0.024
-284.545	201.064	0.069	-0.105
-283.530	-90.215	0.164	-0.048
-282.516	-164.420	0.083	-0.004
-281.501	143.152	-0.116	-0.153
-280.486	708.379	0.095	0.249
-279.472	62.213	0.045	0.045
-278.457	143.226	-0.091	-0.120
-277.443	-143.347	0.211	0.020
-276.428	87.661	0.245	0.270
-275.413	-25.156	-0.278	0.164
-274.399	146.107	-0.119	0.159
-273.384	-43.548	-0.307	0.154
-272.370	-200.000	-0.023	0.198
-271.355	-200.000	0.031	-0.194
-270.340	-128.161	-0.188	0.027
-269.326	374.179	0.148	-0.301
-268.311	800.000	-0.058	0.222
-267.297	163.505	0.107	0.150
-266.282	-31.048	-0.125	-0.070
-265.267	-180.362	-0.244	-0.005
-264.253	422.045	0.124	-0.265
-263.238	-200.000	0.064	-0.279
-262.224	-126.213	0.324	-0.048
-261.209	12.767	-0.439	0.337
-260.195	-200.000	0.018	-0.665
-259.180	-112.235	0.080	-0.016
-258.165	-200.000	-0.018	0.175
-257.151	800.000	-0.024	0.073
-256.136	-73.036	-0.031	-0.011
-255.122	-6.828	-0.055	-0.038
-254.107	-103.096	-0.192	0.045
-253.092	-28.281	0.041	-0.024
-252.078	-45.406	0.038	0.019
-251.063	5.247	0.283	-0.208
-250.049	38.140	-0.163	-0.144
-249.034	-200.000	-0.012	-0.259
-248.019	-55.698	-0.278	-0.124
-247.005	261.698	-0.040	-0.070
-245.990	53.250	-0.223	-0.213
-244.976	188.403	0.142	0.211
-243.961	-13.700	-0.018	-0.012
-242.946	-200.000	-0.011	-0.068
-241.932	33.134	-0.173	0.149
-240.917	-57.076	-0.107	-0.047
-239.903	-86.747	-0.451	-0.137
-238.888	-59.678	0.246	-0.105
-237.873	-111.608	0.199	0.040
-236.859	-34.488	0.222	0.121
-235.844	69.765	0.316	0.323
-234.830	-200.000	-0.030	0.186
-233.815	-8.585	0.183	-0.122
-232.800	160.617	0.145	0.202
-231.786	615.334	0.010	-0.025
-230.771	800.000	-0.065	0.194
-229.757	44.208	-0.277	0.253
-228.742	-8.534	-0.096	-0.064
-227.727	81.729	-0.105	0.112
-226.713	109.450	0.070	-0.084
-225.698	80.306	-0.114	0.122
-224.684	-86.380	-0.259	-0.079
-223.669	-200.000	-0.017	0.163
-222.655	-200.000	0.024	0.222
-221.640	800.000	0.073	-0.217
-220.625	252.570	-0.006	-0.010
-219.611	661.697	-0.149	-0.381
-218.596	241.655	0.191	-0.318
-217.582	-56.516	0.089	0.039
-216.567	-67.085	0.153	-0.060
-215.552	800.000	0.037	0.137
-214.538	-200.000	-0.023	0.356
-213.523	-182.980	0.454	-0.008
-212.509	-82.805	0.122	-0.039
-211.494	140.629	0.126	0.166
-210.479	3.840	0.085	0.061
-209.465	800.000	0.040	0.159
-208.450	-200.000	0.020	-0.113
-207.436	116.813	-0.111	0.135
-206.421	4.283	-0.114	-0.083
-205.406	177.210	0.030	0.043
-204.392	-200.000	0.031	0.174
-203.377	101.062	0.338	0.390
-202.363	800.000	-0.059	0.257
-201.348	-198.502	0.044	0.000
-200.333	210.099	-0.083	0.129
-199.319	91.155	-0.040	-0.045
-198.304	-185.810	-0.138	0.002
-197.290	-26.747	0.369	-0.214
-196.275	800.000	-0.081	0.243
-195.260	136.404	-0.046	-0.060
-194.246	-186.170	0.162	0.002
-193.231	300.015	0.204	0.373
-192.217	26.711	-0.196	0.163
-191.202	800.000	-0.035	0.098
-190.187	-21.808	-0.243	0.147
-189.173	-146.798	-0.074	0.006
-188.158	-27.567	0.415	0.239
-187.144	40.636	-0.230	-0.206
-186.129	353.461	0.026	-0.051
-185.114	-36.023	-0.070	0.037
-184.100	-85.770	0.039	-0.012
-183.085	-20.642	0.101	-0.062
-182.071	50.613	0.193	-0.181
-181.056	-148.699	-0.134	0.011
-180.042	-91.163	-0.159	0.045
-179.027	97.721	0.108	0.123
-178.012	-144.692	-0.086	-0.008
-176.998	-200.000	-0.014	-0.107
-175.983	265.564	-0.190	-0.328
-174.969	-41.579	-0.138	-0.070
-173.954	-111.082	0.126	0.026
-172.939	69.426	0.106	0.108
-171.925	800.000	0.098	-0.299
-170.910	-156.730	0.479	0.029
-169.896	-40.473	-0.233	-0.120
-168.881	47.664	0.289	0.268
-167.866	-55.456	-0.129	0.057
-166.852	-52.497	0.186	0.085
-165.837	17.660	0.237	0.187
-164.823	78.446	-0.238	-0.252
-163.808	-200.000	-0.038	-0.360
-162.793	153.278	-0.059	-0.080
-161.779	66.958	-0.070	0.071
-160.764	800.000	0.038	-0.131
-159.750	145.117	-0.072	0.095
-158.735	-200.000	-0.037	0.306
-157.720	167.379	-0.095	0.134
-156.706	-56.154	0.265	-0.117
-155.691	-110.873	0.183	-0.037
-154.677	-130.203	0.244	0.033
-153.662	47.714	0.159	-0.147
-152.647	116.229	0.114	0.138
-151.633	114.328	0.139	-0.168
-150.618	-162.303	-0.541	-0.027
-149.604	-7.795	-0.181	0.121
-148.589	207.427	0.145	0.225
-147.574	-43.263	-0.058	-0.029
-146.560	-200.000	-0.040	-0.263
-145.545	130.034	0.231	0.293
-144.531	-118.071	-0.392	-0.069
-143.516	800.000	0.079	-0.259
-142.502	800.000	-0.069	-0.195
-141.487	-200.000	-0.008	0.310
-140.472	-200.000	0.018	0.277
-139.458	783.040	0.084	-0.227
-138.443	-97.376	-0.480	-0.124
-137.429	-105.942	-0.250	0.056
-136.414	800.000	-0.071	-0.257
-135.399	-39.267	0.221	-0.115
-134.385	-69.247	-0.257	-0.098
-133.370	-194.559	0.286	-0.002
-132.356	329.810	0.141	0.268
-131.341	-173.145	-0.152	-0.005
-130.326	800.000	0.130	0.356
-129.312	177.511	0.162	0.233
-128.297	-32.062	0.288	0.160
-127.283	568.626	0.051	0.123
-126.268	-32.655	-0.276	0.152
-125.253	-200.000	-0.007	-0.359
-124.239	32.500	-0.270	0.231
-123.224	17.959	-0.238	0.188
-122.210	11.227	0.094	-0.072
-121.195	-38.883	0.348	0.181
