DTS Sentinel unit serial number:	SN413079Multiplexer serial number:	ORYXHardware model number:	OX4-SRSoftware version number:	ORYX F/W v4.00 Oryx Data Collector v3.7.2.0data status	okinstallation	princeton_trtdifferential loss correction	single-endedforward channel	channel 4reverse channel	N/Adate	2019/09/12time	05:19:10forward acquisition time	60.00reverse acquisition time	0.00gamma	496.2192k internal	0.2309k external	0.2309temperature offset calibration	1.0067default loss term (dB/km)	0.3790temperature slope calibration	1.0000multiplexer offset coefficient	1.0000multiplexer slope coefficient	1.0000fibre end	0.00T internal ref (°C)	31.87T ext. ref 1 (°C)	1.64T ext. ref 2 (°C)	27.35length (m)	temperature (°C)	Stokes	anti-Stokes-747.200	-200.000	-0.016	0.133
-746.185	455.452	0.152	0.343
-745.171	-5.080	0.168	-0.117
-744.156	-139.812	-0.288	0.031
-743.142	-113.376	0.061	-0.012
-742.127	-37.446	0.126	0.068
-741.112	800.000	-0.079	-0.319
-740.098	-28.146	0.142	0.083
-739.083	36.558	-0.235	0.211
-738.069	429.857	-0.201	0.443
-737.054	-200.000	-0.028	0.271
-736.039	-126.390	-0.474	-0.072
-735.025	-21.725	-0.136	0.084
-734.010	-200.000	-0.027	0.393
-732.996	800.000	-0.117	0.342
-731.981	-147.233	0.137	0.012
-730.966	-165.460	-0.048	-0.002
-729.952	277.277	0.080	-0.145
-728.937	-76.935	-0.074	-0.026
-727.923	-21.362	0.226	0.140
-726.908	-87.515	-0.059	0.018
-725.894	-58.485	-0.409	-0.180
-724.879	-80.360	-0.219	-0.074
-723.864	168.680	0.111	0.161
-722.850	-60.924	0.044	-0.019
-721.835	-51.078	0.394	-0.187
-720.821	800.000	-0.048	-0.194
-719.806	-92.817	0.291	-0.083
-718.791	800.000	0.082	-0.293
-717.777	-50.930	0.085	-0.040
-716.762	301.156	0.136	-0.256
-715.748	-72.931	0.189	0.071
-714.733	-75.185	-0.335	0.121
-713.718	-88.609	0.271	0.082
-712.704	-200.000	0.022	-0.201
-711.689	-100.554	0.050	0.013
-710.675	259.702	0.172	-0.301
-709.660	-4.368	0.199	-0.139
-708.645	-200.000	0.036	-0.227
-707.631	-51.467	0.057	0.027
-706.616	-200.000	0.001	0.536
-705.602	688.875	-0.052	0.137
-704.587	6.089	0.171	-0.129
-703.572	-153.507	-0.310	0.022
-702.558	568.911	0.068	0.167
-701.543	158.847	0.105	-0.147
-700.529	-163.428	-0.259	-0.012
-699.514	-12.499	0.318	0.211
-698.499	-74.756	0.338	-0.123
-697.485	-52.059	-0.173	0.082
-696.470	-80.422	0.155	-0.053
-695.456	-158.736	0.141	0.008
-694.441	1.273	-0.237	-0.172
-693.426	153.825	0.187	0.260
-692.412	85.527	0.134	-0.149
-691.397	-200.000	0.025	-0.213
-690.383	-147.289	0.179	-0.015
-689.368	-15.523	-0.171	-0.111
-688.354	-166.253	-0.209	-0.009
-687.339	-129.135	0.139	-0.020
-686.324	-59.150	-0.383	0.167
-685.310	-80.758	-0.244	0.082
-684.295	-129.284	0.073	0.010
-683.281	-200.000	-0.037	-0.417
-682.266	-90.695	-0.295	-0.086
-681.251	-132.066	0.145	0.019
-680.237	800.000	0.123	-0.450
-679.222	-49.744	-0.089	-0.043
-678.208	800.000	-0.023	-0.081
-677.193	11.656	0.237	0.184
-676.178	-81.086	-0.246	0.082
-675.164	-62.436	-0.126	0.053
-674.149	-29.361	-0.348	-0.202
-673.135	-200.000	0.001	-0.410
-672.120	185.421	0.072	0.108
-671.105	-96.258	0.158	0.042
-670.091	11.543	0.140	-0.109
-669.076	386.475	0.137	-0.287
-668.062	-144.150	-0.358	0.034
-667.047	-112.908	0.152	-0.031
-666.032	-78.935	0.143	-0.049
-665.018	68.283	-0.198	0.205
-664.003	-92.379	0.089	0.025
-662.989	145.259	-0.011	0.015
-661.974	-148.858	0.379	-0.031
-660.959	-200.000	0.057	0.320
-659.945	14.260	0.037	-0.030
-658.930	286.687	-0.252	-0.461
-657.916	-136.081	-0.212	-0.025
-656.901	47.045	-0.189	0.178
-655.886	3.862	-0.051	0.037
-654.872	-50.376	0.222	0.106
-653.857	-93.214	-0.182	-0.051
-652.843	-87.849	-0.220	-0.067
-651.828	772.738	0.106	-0.294
-650.814	693.766	-0.062	0.164
-649.799	56.851	-0.015	-0.015
-648.784	754.562	0.052	0.141
-647.770	-133.676	0.292	-0.037
-646.755	139.047	-0.287	-0.382
-645.741	64.539	0.210	-0.215
-644.726	2.944	0.160	0.118
-643.711	-99.240	0.167	-0.043
-642.697	8.635	-0.279	-0.213
-641.682	19.694	-0.206	-0.168
-640.668	-200.000	0.008	0.292
-639.653	-42.343	-0.196	-0.101
-638.638	388.468	-0.194	0.406
-637.624	-61.488	0.143	-0.061
-636.609	517.734	0.123	-0.292
-635.595	-157.078	-0.240	0.015
-634.580	347.000	-0.246	-0.490
-633.565	-44.084	0.322	-0.164
-632.551	-83.493	0.107	-0.035
-631.536	-154.754	0.153	-0.010
-630.522	439.071	0.042	0.094
-629.507	129.842	-0.188	0.244
-628.492	464.312	0.225	0.510
-627.478	66.244	-0.241	0.247
-626.463	449.918	-0.187	-0.418
-625.449	-200.000	0.019	-0.174
-624.434	800.000	0.042	0.130
-623.419	157.577	-0.252	-0.352
-622.405	109.951	0.109	-0.132
-621.390	126.359	-0.096	0.123
-620.376	250.607	-0.136	0.233
-619.361	800.000	0.066	-0.194
-618.346	-200.000	-0.019	0.191
-617.332	86.703	-0.188	0.210
-616.317	619.740	0.043	0.110
-615.303	800.000	0.111	0.354
-614.288	-19.659	-0.380	0.238
-613.273	53.211	0.277	-0.268
-612.259	-92.285	-0.173	0.049
-611.244	-200.000	-0.058	-0.315
-610.230	-18.716	0.212	-0.134
-609.215	-200.000	-0.032	-0.154
-608.201	-71.228	0.178	-0.067
-607.186	-101.307	-0.108	0.027
-606.171	9.561	-0.360	-0.276
-605.157	277.679	-0.027	0.048
-604.142	-184.533	-0.153	-0.003
-603.128	453.625	-0.137	0.307
-602.113	-101.691	0.209	0.051
-601.098	-76.755	0.275	-0.097
-600.084	222.148	-0.198	-0.322
-599.069	88.416	-0.123	-0.138
-598.055	-138.579	-0.222	-0.025
-597.040	117.237	-0.056	-0.070
-596.025	-151.428	-0.412	-0.031
-595.011	153.400	-0.064	-0.088
-593.996	800.000	0.064	0.257
-592.982	-104.959	0.373	0.086
-591.967	154.740	0.066	0.092
-590.952	143.443	0.061	-0.082
-589.938	79.929	-0.297	-0.322
-588.923	-132.658	-0.015	0.002
-587.909	345.075	0.119	-0.236
-586.894	-168.708	0.268	-0.010
-585.879	478.733	0.107	0.245
-584.865	115.595	-0.114	-0.141
-583.850	31.952	-0.249	0.217
-582.836	-200.000	-0.030	-0.328
-581.821	-200.000	0.028	-0.307
-580.806	-169.812	0.289	0.010
-579.792	-139.927	-0.387	-0.041
-578.777	21.907	0.118	-0.097
-577.763	284.248	-0.058	-0.105
-576.748	86.887	-0.154	0.171
-575.733	-200.000	-0.001	-0.158
-574.719	681.043	-0.083	-0.219
-573.704	-100.588	-0.377	0.094
-572.690	-200.000	0.003	-0.191
-571.675	800.000	-0.069	0.223
-570.661	-85.453	0.310	-0.097
-569.646	-200.000	0.057	0.365
-568.631	-117.564	-0.084	-0.015
-567.617	-27.347	-0.077	0.045
-566.602	135.978	0.183	-0.240
-565.588	-124.878	-0.469	0.073
-564.573	-139.145	0.251	0.027
-563.558	-56.094	0.106	-0.048
-562.544	161.619	-0.085	0.119
-561.529	-194.134	0.181	0.001
-560.515	21.719	0.153	0.126
-559.500	-99.375	-0.412	0.105
-558.485	800.000	-0.090	-0.274
-557.471	-200.000	-0.010	-0.270
-556.456	167.579	0.163	0.233
-555.442	-81.158	0.107	0.036
-554.427	-200.000	-0.080	-0.380
-553.412	405.348	0.120	0.255
-552.398	70.367	-0.051	-0.053
-551.383	296.141	0.092	-0.171
-550.369	-60.061	-0.104	0.045
-549.354	800.000	-0.080	-0.300
-548.339	800.000	-0.096	-0.311
-547.325	289.449	0.253	0.463
-546.310	800.000	0.017	0.071
-545.296	800.000	0.070	0.239
-544.281	414.657	0.078	0.167
-543.266	-57.444	-0.345	0.153
-542.252	800.000	-0.051	-0.192
-541.237	-5.635	-0.240	-0.166
-540.223	-155.902	-0.102	-0.007
-539.208	-200.000	0.034	0.248
-538.193	405.092	-0.101	0.215
-537.179	800.000	0.071	-0.313
-536.164	-200.000	-0.036	0.237
-535.150	29.372	-0.100	-0.086
-534.135	690.661	0.130	-0.344
-533.121	122.221	-0.146	0.183
-532.106	-200.000	-0.041	0.278
-531.091	-39.807	0.168	0.088
-530.077	85.211	-0.313	0.346
-529.062	-200.000	-0.031	-0.210
-528.048	-93.244	-0.153	-0.043
-527.033	-117.973	0.040	0.007
-526.018	800.000	-0.057	0.248
-525.004	800.000	-0.057	-0.216
-523.989	-84.848	-0.402	-0.127
-522.975	57.496	-0.139	-0.137
-521.960	306.516	-0.033	0.061
-520.945	-11.401	-0.051	-0.034
-519.931	-156.170	-0.096	-0.006
-518.916	-94.896	-0.221	0.060
-517.902	4.492	-0.033	0.024
-516.887	109.552	0.071	0.086
-515.872	169.028	-0.215	0.308
-514.858	-200.000	0.014	0.208
-513.843	-117.002	0.214	-0.039
-512.829	215.666	-0.145	-0.232
-511.814	-130.385	0.336	-0.046
-510.799	800.000	-0.048	-0.136
-509.785	-135.598	0.451	0.054
-508.770	-200.000	0.030	-0.268
-507.756	-142.412	-0.023	-0.002
-506.741	-200.000	-0.016	-0.071
-505.726	-200.000	-0.020	-0.166
-504.712	-20.434	0.201	-0.125
-503.697	-200.000	-0.081	-0.449
-502.683	141.698	0.286	0.381
-501.668	-47.168	-0.225	-0.111
-500.653	108.351	0.113	0.136
-499.639	-1.696	-0.374	0.265
-498.624	800.000	0.122	0.354
-497.610	-200.000	-0.005	0.177
-496.595	30.231	0.208	0.179
-495.581	-102.428	0.241	-0.058
-494.566	26.278	0.273	-0.229
-493.551	211.382	0.199	-0.315
-492.537	-66.083	-0.189	0.076
-491.522	42.257	-0.116	0.106
-490.508	-9.356	0.086	-0.058
-489.493	773.510	0.141	-0.386
-488.478	-200.000	-0.000	0.141
-487.464	33.966	-0.255	0.223
-486.449	-22.141	0.331	0.202
-485.435	406.212	-0.105	-0.222
-484.420	-200.000	-0.007	0.459
-483.405	-75.629	-0.592	-0.212
-482.391	56.844	0.287	-0.281
-481.376	-130.453	0.301	0.041
-480.362	-138.043	-0.021	0.002
-479.347	-91.634	-0.073	0.021
-478.332	-126.223	0.074	0.011
-477.318	322.115	-0.050	-0.096
-476.303	-38.423	0.360	-0.192
-475.289	800.000	-0.070	0.227
-474.274	215.826	0.254	0.406
-473.259	-135.781	-0.339	0.040
-472.245	-68.705	-0.193	0.075
-471.230	-200.000	-0.007	0.077
-470.216	-119.681	0.188	-0.033
-469.201	-49.590	0.176	0.084
-468.186	-111.967	-0.204	0.041
-467.172	800.000	0.061	0.188
-466.157	-200.000	-0.004	-0.099
-465.143	-14.781	-0.175	-0.113
-464.128	-200.000	-0.067	0.311
-463.113	800.000	-0.057	-0.167
-462.099	-91.921	0.080	-0.023
-461.084	120.231	-0.100	-0.125
-460.070	-92.905	-0.214	-0.060
-459.055	86.825	0.149	-0.165
-458.040	800.000	0.027	-0.089
-457.026	199.405	-0.206	-0.317
-456.011	800.000	0.068	-0.215
-454.997	497.041	-0.050	0.116
-453.982	-41.018	-0.089	-0.046
-452.968	-200.000	0.012	-0.387
-451.953	498.824	-0.094	-0.218
-450.938	20.363	0.182	-0.148
-449.924	29.235	-0.198	-0.169
-448.909	-200.000	-0.058	0.266
-447.895	-54.082	0.125	-0.057
-446.880	-106.543	0.141	-0.032
-445.865	-200.000	-0.009	-0.405
-444.851	-82.022	0.250	-0.082
-443.836	189.679	0.139	0.209
-442.822	65.515	0.106	-0.108
-441.807	-28.667	0.291	-0.168
-440.792	800.000	0.146	0.469
-439.778	175.578	0.212	-0.309
-438.763	800.000	0.085	0.329
-437.749	-91.273	0.386	-0.111
-436.734	-97.876	-0.184	0.048
-435.719	359.499	-0.025	-0.051
-434.705	-168.361	-0.124	-0.005
-433.690	631.962	-0.081	0.206
-432.676	385.433	0.106	-0.220
-431.661	101.704	0.102	0.120
-430.646	-200.000	0.009	-0.129
-429.632	-124.457	0.226	-0.035
-428.617	-90.239	0.415	0.121
-427.603	54.567	-0.286	-0.277
-426.588	-200.000	-0.019	-0.137
-425.573	-118.527	0.206	-0.037
-424.559	-200.000	-0.006	-0.287
-423.544	6.877	-0.186	0.139
-422.530	-30.770	-0.164	-0.093
-421.515	800.000	0.088	-0.337
-420.500	-200.000	-0.016	-0.211
-419.486	-175.025	0.128	0.004
-418.471	800.000	0.056	0.221
-417.457	21.371	-0.151	0.123
-416.442	26.151	-0.090	0.076
-415.428	193.574	0.103	-0.157
-414.413	-9.629	0.213	0.142
-413.398	47.188	-0.150	-0.140
-412.384	-160.464	0.242	0.013
-411.369	34.323	0.054	0.047
-410.355	-99.650	-0.387	0.098
-409.340	303.227	-0.061	-0.114
-408.325	-62.578	0.119	-0.049
-407.311	-141.341	0.063	0.006
-406.296	-60.898	-0.026	-0.011
-405.282	49.070	0.271	0.255
-404.267	-200.000	0.023	-0.103
-403.252	-92.588	0.233	0.066
-402.238	800.000	0.068	0.197
-401.223	-200.000	0.008	0.365
-400.209	96.075	0.290	0.333
-399.194	800.000	-0.048	-0.172
-398.179	531.360	-0.089	0.210
-397.165	472.726	-0.092	-0.208
-396.150	-200.000	-0.051	0.420
-395.136	-105.590	0.175	-0.040
-394.121	178.110	0.052	0.077
-393.106	81.280	0.125	-0.135
-392.092	800.000	-0.074	0.305
-391.077	-59.061	0.189	0.082
-390.063	233.231	-0.122	-0.201
-389.048	-200.000	-0.039	-0.209
-388.033	-200.000	0.096	0.507
-387.019	364.726	0.022	-0.044
-386.004	115.759	-0.046	0.056
-384.990	-71.194	-0.340	-0.128
-383.975	132.747	-0.160	-0.207
-382.960	-86.850	-0.133	0.041
-381.946	72.660	0.126	0.131
-380.931	-200.000	0.034	-0.208
-379.917	541.976	0.170	-0.406
-378.902	220.046	-0.172	-0.276
-377.888	16.658	0.088	0.070
-376.873	91.600	0.043	-0.049
-375.858	-44.838	-0.134	0.067
-374.844	626.667	0.015	-0.038
-373.829	-20.224	0.110	0.068
-372.815	26.755	0.081	-0.068
-371.800	-112.837	-0.181	-0.036
-370.785	-22.780	-0.154	-0.093
-369.771	-62.519	0.160	0.066
-368.756	800.000	0.046	-0.146
-367.742	236.854	0.129	-0.215
-366.727	203.321	0.065	0.101
-365.712	-78.582	-0.239	-0.082
-364.698	-124.311	0.213	0.033
-363.683	-138.906	0.294	0.032
-362.669	209.872	0.082	0.129
-361.654	-76.802	0.275	0.096
-360.639	94.790	0.110	0.125
-359.625	-91.931	-0.390	0.111
-358.610	-149.525	0.129	0.010
-357.596	-200.000	0.018	-0.187
-356.581	-2.913	-0.075	-0.052
-355.566	-148.772	-0.187	-0.015
-354.552	-200.000	-0.033	0.212
-353.537	59.759	0.074	-0.073
-352.523	-200.000	-0.043	0.282
-351.508	154.170	-0.051	0.070
-350.493	-200.000	0.012	-0.299
-349.479	-14.902	-0.284	0.182
-348.464	-200.000	0.009	-0.252
-347.450	361.080	-0.152	-0.305
-346.435	-65.999	0.173	0.069
-345.420	-200.000	-0.029	0.277
-344.406	-10.344	-0.126	0.084
-343.391	5.966	-0.262	-0.194
-342.377	-89.025	-0.376	0.111
-341.362	-85.062	0.289	0.091
-340.348	377.854	0.144	0.294
-339.333	267.009	-0.053	-0.093
-338.318	477.060	0.080	0.181
-337.304	-200.000	-0.030	0.158
-336.289	-150.328	-0.031	0.002
-335.275	-74.600	-0.165	-0.059
-334.260	68.211	-0.076	0.078
-333.245	16.109	0.206	0.162
-332.231	-85.428	0.191	0.059
-331.216	152.525	0.188	0.257
-330.202	-53.186	0.391	0.179
-329.187	82.020	-0.171	0.185
-328.172	-200.000	0.026	0.258
-327.158	51.317	0.089	0.085
-326.143	157.305	-0.116	-0.160
-325.129	182.849	0.143	-0.211
-324.114	2.938	-0.255	-0.185
-323.099	-75.707	0.279	0.099
-322.085	-200.000	-0.021	-0.120
-321.070	-200.000	-0.021	-0.373
-320.056	-200.000	0.006	-0.066
-319.041	731.103	0.048	-0.129
-318.026	-127.377	0.350	0.051
-317.012	98.601	-0.032	-0.036
-315.997	197.196	-0.113	-0.172
-314.983	13.105	0.060	0.046
-313.968	96.323	0.222	-0.253
-312.953	-75.529	-0.115	0.041
-311.939	-151.601	-0.297	0.022
-310.924	128.363	0.049	0.063
-309.910	-200.000	-0.035	0.301
-308.895	70.363	-0.202	0.208
-307.880	-7.874	0.152	-0.103
-306.866	26.675	-0.229	-0.191
-305.851	800.000	0.060	0.232
-304.837	218.119	0.154	-0.246
-303.822	356.665	0.114	0.226
-302.807	-200.000	-0.049	-0.276
-301.793	-64.195	0.154	0.063
-300.778	-135.215	0.236	-0.028
-299.764	88.355	-0.115	0.127
-298.749	-119.878	-0.082	0.014
-297.735	263.417	-0.205	0.355
-296.720	87.420	0.057	0.063
-295.705	148.131	-0.136	0.183
-294.691	492.777	-0.085	-0.195
-293.676	110.184	0.020	-0.024
-292.662	-125.103	-0.290	-0.045
-291.647	-200.000	0.016	0.095
-290.632	-200.000	0.008	-0.123
-289.618	-200.000	-0.020	0.101
-288.603	25.011	-0.229	0.190
-287.589	800.000	-0.120	-0.395
-286.574	-37.792	0.262	-0.139
-285.559	444.736	-0.036	0.079
-284.545	276.964	-0.162	0.287
-283.530	323.171	0.048	-0.091
-282.516	215.197	-0.157	0.248
-281.501	57.106	-0.165	-0.161
-280.486	233.577	0.182	-0.299
-279.472	-200.000	0.029	-0.373
-278.457	-78.173	-0.039	0.013
-277.443	79.322	-0.235	0.251
-276.428	15.446	-0.121	-0.095
-275.413	790.780	0.056	0.154
-274.399	346.628	-0.134	0.263
-273.384	15.251	-0.075	0.058
-272.370	395.669	-0.102	-0.212
-271.355	-200.000	-0.000	0.264
-270.340	180.450	0.124	-0.181
-269.326	191.845	-0.184	-0.277
-268.311	55.446	-0.141	0.136
-267.297	-129.246	-0.028	0.004
-266.282	-61.349	0.056	-0.024
-265.267	154.275	0.228	-0.312
-264.253	116.603	0.115	-0.140
-263.238	-123.028	0.157	0.025
-262.224	-200.000	0.047	0.443
-261.209	-28.179	0.241	0.139
-260.195	-200.000	0.023	-0.128
-259.180	-140.793	-0.294	-0.030
-258.165	-181.870	0.329	-0.006
-257.151	800.000	-0.067	0.204
-256.136	800.000	-0.095	0.268
-255.122	17.590	0.210	0.167
-254.107	800.000	0.026	0.088
-253.092	-142.793	-0.125	-0.012
-252.078	-79.399	0.214	0.072
-251.063	779.656	0.080	-0.218
-250.049	5.367	0.284	0.209
-249.034	434.625	0.183	0.395
-248.019	-200.000	0.010	-0.216
-247.005	800.000	-0.160	-0.487
-245.990	-73.189	0.482	0.176
-244.976	-141.074	-0.311	0.032
-243.961	-161.823	-0.168	-0.008
-242.946	-45.621	-0.118	-0.058
-241.932	279.989	0.127	-0.226
-240.917	-129.688	-0.174	0.024
-239.903	-69.328	0.026	-0.010
-238.888	-44.701	0.226	0.112
-237.873	-200.000	-0.017	-0.170
-236.859	-64.416	-0.116	-0.047
-235.844	-4.506	0.100	0.069
-234.830	-103.134	-0.219	0.052
-233.815	-200.000	-0.018	-0.177
-232.800	-45.996	-0.164	0.080
-231.786	257.741	0.070	-0.120
-230.771	-165.723	-0.189	-0.008
-229.757	43.259	-0.168	-0.152
-228.742	171.289	0.070	0.100
-227.727	-113.502	0.274	0.053
-226.713	-200.000	0.033	0.155
-225.698	-79.898	0.159	-0.053
-224.684	100.996	0.166	-0.193
-223.669	348.148	0.116	0.227
-222.655	554.629	0.086	0.207
-221.640	-99.655	-0.490	-0.122
-220.625	49.580	-0.037	0.035
-219.611	-200.000	-0.009	-0.193
-218.596	689.554	-0.025	-0.066
-217.582	-150.479	0.089	0.007
-216.567	-68.098	-0.203	0.079
-215.552	-200.000	-0.053	0.275
-214.538	-55.103	0.132	-0.059
-213.523	230.206	0.169	-0.275
-212.509	158.579	-0.032	-0.045
-211.494	-52.451	0.125	-0.058
-210.479	-200.000	0.000	0.030
-209.465	800.000	-0.092	0.255
-208.450	-200.000	0.014	0.132
-207.436	212.708	-0.151	-0.237
-206.421	-57.902	-0.256	-0.111
-205.406	325.238	-0.129	-0.246
-204.392	4.196	0.174	-0.127
-203.377	-200.000	0.034	-0.154
-202.363	800.000	-0.016	0.049
-201.348	-200.000	-0.018	0.159
-200.333	-200.000	-0.026	0.115
-199.319	1.093	-0.329	0.235
-198.304	-200.000	-0.150	0.000
-197.290	-200.000	-0.030	-0.144
-196.275	75.419	-0.245	-0.257
-195.260	194.280	-0.206	0.311
-194.246	73.379	0.068	-0.071
-193.231	577.305	-0.103	0.251
-192.217	-172.720	0.405	0.013
-191.202	-200.000	0.039	0.275
-190.187	-130.284	0.370	-0.050
-189.173	-92.067	-0.142	0.040
-188.158	-26.972	-0.133	0.077
-187.144	-200.000	0.068	0.389
-186.129	-200.000	0.083	0.402
-185.114	-9.933	-0.173	0.115
-184.100	-118.540	-0.262	0.046
-183.085	175.394	-0.257	0.371
-182.071	109.394	0.185	0.220
-181.056	-37.190	-0.086	0.046
-180.042	785.243	-0.082	-0.224
-179.027	99.358	0.129	-0.148
-178.012	-78.773	0.332	-0.112
-176.998	-200.000	-0.001	0.175
-175.983	303.973	0.089	-0.165
-174.969	304.612	-0.092	-0.169
-173.954	-67.750	0.188	-0.073
-172.939	-54.212	0.285	0.129
-171.925	-200.000	-0.023	-0.270
-170.910	-200.000	0.003	0.477
-169.896	361.492	-0.086	-0.171
-168.881	-39.525	-0.445	-0.232
-167.866	6.010	0.153	0.113
-166.852	-200.000	0.011	0.140
-165.837	-200.000	-0.023	0.233
-164.823	91.815	0.175	0.195
-163.808	-84.307	-0.150	0.047
-162.793	48.419	0.082	0.076
-161.779	-18.418	0.241	0.149
-160.764	-200.000	-0.006	0.161
-159.750	-2.174	0.254	-0.177
-158.735	73.662	0.255	-0.266
-157.720	350.458	-0.015	-0.029
-156.706	800.000	0.060	-0.182
-155.691	-159.496	0.183	0.010
-154.677	800.000	0.063	0.244
-153.662	354.220	-0.024	0.048
-152.647	-200.000	0.000	-0.045
-151.633	302.563	0.085	-0.157
-150.618	-5.142	0.096	0.065
-149.604	-73.014	-0.356	0.130
-148.589	800.000	-0.050	0.154
-147.574	800.000	0.071	0.204
-146.560	-200.000	-0.036	0.294
-145.545	-35.811	0.154	0.083
-144.531	3.406	0.026	-0.019
-143.516	87.558	0.070	0.077
-142.502	-162.686	0.049	-0.002
-141.487	-87.471	0.082	0.025
-140.472	365.123	0.145	-0.290
-139.458	-146.772	-0.161	-0.014
-138.443	75.781	0.091	-0.095
-137.429	-200.000	-0.022	0.112
-136.414	268.580	-0.045	0.078
-135.399	-200.000	0.012	-0.187
-134.385	-56.349	-0.281	-0.124
-133.370	800.000	0.039	-0.135
-132.356	-84.077	0.180	-0.057
-131.341	404.949	0.126	-0.264
-130.326	51.537	0.107	-0.101
-129.312	-181.977	-0.354	-0.007
-128.297	260.423	-0.160	-0.275
-127.283	-111.357	0.154	0.031
-126.268	25.075	-0.091	0.075
-125.253	-200.000	-0.049	-0.312
-124.239	-200.000	-0.050	-0.289
-123.224	-50.028	-0.400	0.188
-122.210	800.000	0.097	0.315
-121.195	-200.000	0.026	-0.162
