DTS Sentinel unit serial number:	SN413079Multiplexer serial number:	ORYXHardware model number:	OX4-SRSoftware version number:	ORYX F/W v4.00 Oryx Data Collector v3.7.2.0data status	okinstallation	princeton_trtdifferential loss correction	single-endedforward channel	channel 4reverse channel	N/Adate	2019/09/10time	23:07:11forward acquisition time	60.00reverse acquisition time	0.00gamma	496.2192k internal	0.2316k external	0.2316temperature offset calibration	0.9953default loss term (dB/km)	0.3790temperature slope calibration	1.0000multiplexer offset coefficient	1.0000multiplexer slope coefficient	1.0000fibre end	0.00T internal ref (°C)	29.94T ext. ref 1 (°C)	-0.31T ext. ref 2 (°C)	23.41length (m)	temperature (°C)	Stokes	anti-Stokes-747.200	-141.513	0.244	0.025
-746.185	669.227	0.018	-0.048
-745.171	-200.000	-0.014	-0.107
-744.156	545.895	-0.063	-0.153
-743.142	-159.929	0.234	-0.013
-742.127	-99.805	-0.325	0.082
-741.112	387.323	-0.186	-0.389
-740.098	174.308	-0.206	0.301
-739.083	-70.745	0.204	0.078
-738.069	163.735	-0.103	-0.147
-737.054	144.918	0.113	-0.153
-736.039	588.875	-0.149	0.372
-735.025	-172.607	0.264	-0.008
-734.010	776.087	0.094	-0.260
-732.996	393.717	-0.312	-0.657
-731.981	229.018	0.115	-0.189
-730.966	-56.036	-0.357	0.161
-729.952	-138.891	-0.204	-0.022
-728.937	379.096	-0.131	-0.271
-727.923	-200.000	-0.032	-0.313
-726.908	322.025	-0.122	0.235
-725.894	7.050	-0.047	0.035
-724.879	-11.913	-0.238	-0.158
-723.864	9.037	0.312	-0.239
-722.850	207.861	0.055	0.087
-721.835	368.496	0.185	0.379
-720.821	388.043	-0.190	0.397
-719.806	-200.000	-0.059	0.396
-718.791	20.856	-0.359	-0.295
-717.777	115.946	0.109	-0.135
-716.762	-182.496	-0.619	-0.012
-715.748	-154.001	-0.212	0.015
-714.733	207.801	-0.163	-0.257
-713.718	146.303	0.061	-0.083
-712.704	-107.811	-0.415	0.092
-711.689	800.000	-0.042	-0.158
-710.675	-75.535	-0.182	-0.066
-709.660	-7.353	-0.196	0.135
-708.645	135.576	0.063	-0.083
-707.631	-200.000	-0.031	-0.149
-706.616	800.000	0.091	-0.305
-705.602	-152.900	0.307	0.022
-704.587	-98.487	-0.158	0.041
-703.572	70.397	-0.143	0.150
-702.558	-200.000	0.001	-0.031
-701.543	94.646	-0.195	-0.225
-700.529	270.322	0.054	0.096
-699.514	119.575	0.117	-0.146
-698.499	-200.000	-0.014	0.144
-697.485	-138.010	-0.132	0.015
-696.470	-200.000	0.001	-0.017
-695.456	800.000	-0.007	-0.025
-694.441	-151.235	-0.213	-0.016
-693.426	-153.968	0.302	0.021
-692.412	-155.604	-0.201	0.013
-691.397	641.765	-0.088	0.227
-690.383	-177.324	-0.253	-0.006
-689.368	367.668	-0.150	0.307
-688.354	800.000	0.018	-0.056
-687.339	435.159	0.109	0.239
-686.324	128.690	0.077	0.100
-685.310	76.631	0.198	-0.212
-684.295	-104.410	0.171	-0.040
-683.281	132.310	-0.050	0.066
-682.266	-200.000	-0.029	0.131
-681.251	622.020	0.097	-0.248
-680.237	-103.045	0.078	-0.019
-679.222	217.968	-0.025	-0.041
-678.208	800.000	-0.045	-0.131
-677.193	-128.092	-0.153	-0.022
-676.178	92.877	-0.185	-0.212
-675.164	256.198	-0.150	-0.261
-674.149	-24.435	-0.239	0.144
-673.135	-95.439	-0.327	0.089
-672.120	800.000	-0.036	-0.123
-671.105	27.396	0.239	0.203
-670.091	-78.680	-0.312	0.108
-669.076	-167.942	-0.196	0.008
-668.062	-147.445	-0.368	0.031
-667.047	48.022	-0.147	-0.139
-666.032	443.534	-0.123	-0.272
-665.018	129.477	0.226	-0.292
-664.003	91.723	-0.234	-0.266
-662.989	-78.212	-0.139	0.048
-661.974	193.047	-0.170	-0.260
-660.959	589.357	-0.137	-0.340
-659.945	800.000	-0.039	-0.150
-658.930	146.935	0.113	-0.153
-657.916	-127.742	-0.310	0.045
-656.901	800.000	0.049	-0.205
-655.886	-110.969	-0.243	-0.051
-654.872	-200.000	0.006	0.102
-653.857	-83.350	-0.380	0.123
-652.843	-123.747	-0.313	-0.050
-651.828	-200.000	-0.024	0.235
-650.814	199.341	-0.115	-0.177
-649.799	-123.739	-0.173	-0.028
-648.784	-200.000	-0.036	-0.251
-647.770	-200.000	0.003	-0.250
-646.755	629.115	-0.137	0.349
-645.741	800.000	0.036	0.129
-644.726	25.600	-0.219	-0.184
-643.711	-200.000	0.009	0.178
-642.697	-200.000	0.024	-0.189
-641.682	-87.535	0.376	-0.115
-640.668	-96.732	0.217	-0.057
-639.653	-57.078	-0.484	-0.215
-638.638	49.535	-0.262	-0.249
-637.624	800.000	-0.066	-0.241
-636.609	138.327	-0.103	0.136
-635.595	-143.870	0.229	0.022
-634.580	-2.816	0.184	-0.130
-633.565	77.615	0.169	0.182
-632.551	-200.000	-0.077	-0.347
-631.536	-111.395	-0.208	0.043
-630.522	-145.230	0.186	0.017
-629.507	50.917	0.118	-0.112
-628.492	32.325	-0.107	0.093
-627.478	800.000	0.050	0.145
-626.463	-59.075	0.027	0.012
-625.449	-54.848	-0.004	-0.002
-624.434	-63.129	-0.266	-0.111
-623.419	-200.000	0.017	0.074
-622.405	-116.969	0.175	-0.032
-621.390	580.809	0.152	-0.375
-620.376	-168.494	-0.190	0.007
-619.361	175.709	0.204	0.299
-618.346	81.292	-0.257	0.280
-617.332	17.479	0.063	-0.050
-616.317	-63.508	0.261	-0.108
-615.303	-135.425	-0.398	-0.048
-614.288	-200.000	-0.055	-0.305
-613.273	-200.000	-0.013	-0.254
-612.259	-50.287	-0.384	-0.183
-611.244	-92.391	-0.095	-0.027
-610.230	-122.890	-0.037	-0.006
-609.215	428.576	0.020	0.043
-608.201	-65.607	0.362	-0.146
-607.186	67.144	0.117	0.120
-606.171	65.732	-0.056	0.057
-605.157	23.776	-0.263	0.219
-604.142	86.312	-0.112	-0.124
-603.128	-198.881	0.061	0.000
-602.113	-127.497	-0.260	-0.038
-601.098	154.065	-0.230	0.317
-600.084	-200.000	-0.035	0.192
-599.069	-56.348	-0.059	-0.026
-598.055	-120.308	-0.356	-0.061
-597.040	-72.570	0.229	-0.085
-596.025	-3.893	0.120	-0.084
-595.011	-64.515	-0.200	-0.082
-593.996	-24.196	-0.355	-0.213
-592.982	280.458	-0.311	0.559
-591.967	356.115	0.085	0.171
-590.952	171.444	-0.249	-0.360
-589.938	410.334	0.123	-0.262
-588.923	378.927	-0.128	0.265
-587.909	-101.945	0.364	0.088
-586.894	118.657	-0.191	-0.238
-585.879	286.904	-0.077	0.141
-584.865	800.000	0.067	0.209
-583.850	222.374	0.262	-0.424
-582.836	213.493	-0.024	-0.039
-581.821	800.000	-0.028	0.104
-580.806	-200.000	-0.004	0.045
-579.792	-200.000	0.046	0.290
-578.777	-175.987	-0.257	0.007
-577.763	-39.015	-0.235	-0.124
-576.748	-148.971	0.129	-0.010
-575.733	-200.000	0.013	-0.274
-574.719	7.959	0.215	-0.162
-573.704	-164.667	0.110	-0.005
-572.690	391.331	-0.072	-0.151
-571.675	-21.052	-0.117	0.072
-570.661	-126.556	-0.202	0.030
-569.646	800.000	0.030	-0.116
-568.631	-61.354	-0.260	0.110
-567.617	226.875	-0.058	0.094
-566.602	-116.645	-0.209	0.039
-565.588	-200.000	0.022	-0.184
-564.573	132.105	-0.048	0.062
-563.558	137.572	-0.249	0.328
-562.544	-200.000	0.004	-0.025
-561.529	-200.000	0.000	-0.182
-560.515	151.443	-0.181	0.247
-559.500	433.634	-0.093	-0.204
-558.485	514.746	0.139	0.327
-557.471	-85.944	-0.047	-0.015
-556.456	223.517	0.270	0.438
-555.442	12.108	-0.185	-0.143
-554.427	408.007	0.070	-0.149
-553.412	800.000	0.119	0.346
-552.398	796.832	-0.137	-0.379
-551.383	800.000	-0.065	0.222
-550.369	-60.183	0.200	-0.086
-549.354	65.207	-0.108	0.110
-548.339	800.000	0.040	0.113
-547.325	644.279	-0.056	0.143
-546.310	-48.147	-0.019	-0.009
-545.296	202.514	0.054	0.084
-544.281	-200.000	0.025	0.199
-543.266	-138.598	0.195	0.022
-542.252	800.000	-0.095	-0.312
-541.237	650.186	-0.088	0.227
-540.223	48.355	0.142	0.133
-539.208	-29.099	-0.293	-0.169
-538.193	-36.365	-0.182	-0.099
-537.179	-13.730	0.168	-0.109
-536.164	17.429	0.097	0.078
-535.150	-200.000	-0.007	-0.263
-534.135	-16.582	-0.120	0.076
-533.121	88.060	0.209	-0.233
-532.106	-39.565	-0.087	0.046
-531.091	-200.000	-0.004	-0.099
-530.077	726.334	0.075	-0.201
-529.062	-200.000	0.001	0.295
-528.048	-81.552	0.207	0.068
-527.033	-170.534	0.253	-0.009
-526.018	341.748	-0.063	-0.125
-525.004	-200.000	0.054	-0.242
-523.989	-200.000	-0.004	0.183
-522.975	110.311	-0.342	0.412
-521.960	124.375	0.203	0.257
-520.945	7.102	-0.190	0.142
-519.931	113.691	0.231	0.282
-518.916	-19.177	0.177	0.110
-517.902	723.862	0.093	-0.249
-516.887	-59.194	0.160	-0.069
-515.872	-186.462	-0.234	-0.003
-514.858	-3.311	-0.245	-0.171
-513.843	661.816	-0.040	-0.103
-512.829	263.801	0.065	-0.113
-511.814	22.628	-0.160	-0.131
-510.799	247.309	-0.176	0.299
-509.785	-200.000	-0.023	-0.130
-508.770	16.412	-0.112	-0.089
-507.756	-17.055	-0.122	-0.077
-506.741	-96.480	0.486	-0.129
-505.726	-4.027	0.157	-0.109
-504.712	-71.554	0.226	0.085
-503.697	800.000	-0.022	0.092
-502.683	53.594	0.092	-0.088
-501.668	800.000	-0.070	-0.207
-500.653	415.568	-0.073	-0.157
-499.639	-200.000	0.043	-0.263
-498.624	-200.000	0.015	-0.233
-497.610	-17.869	0.116	-0.073
-496.595	-107.442	-0.226	-0.050
-495.581	-200.000	-0.034	0.251
-494.566	800.000	-0.051	0.201
-493.551	29.271	-0.169	0.144
-492.537	-50.755	-0.281	-0.133
-491.522	-166.632	-0.129	0.005
-490.508	-111.058	-0.288	0.059
-489.493	46.523	0.174	-0.162
-488.478	196.214	-0.158	-0.242
-487.464	125.750	0.092	-0.117
-486.449	-34.331	-0.037	0.021
-485.435	-200.000	0.009	0.154
-484.420	72.196	-0.321	0.335
-483.405	-147.063	0.275	0.024
-482.391	99.701	-0.216	-0.250
-481.376	-97.622	-0.253	-0.066
-480.362	187.818	0.083	0.124
-479.347	281.558	-0.159	-0.286
-478.332	55.020	0.319	-0.309
-477.318	-43.948	-0.425	-0.214
-476.303	81.465	-0.118	0.128
-475.289	84.986	-0.043	-0.047
-474.274	-200.000	-0.027	-0.150
-473.259	42.211	-0.098	-0.090
-472.245	-200.000	-0.021	0.290
-471.230	224.527	-0.096	0.155
-470.216	-166.306	0.352	0.015
-469.201	-200.000	0.082	0.466
-468.186	289.669	0.149	0.271
-467.172	364.651	-0.062	0.126
-466.157	533.944	-0.053	-0.127
-465.143	110.643	0.066	-0.079
-464.128	354.949	0.235	0.467
-463.113	800.000	-0.074	-0.280
-462.099	51.581	0.261	-0.249
-461.084	-46.892	-0.083	0.041
-460.070	598.294	-0.159	0.394
-459.055	-106.819	0.242	0.054
-458.040	-200.000	-0.023	0.159
-457.026	95.827	-0.174	0.200
-456.011	281.215	-0.123	-0.220
-454.997	120.783	0.084	-0.105
-453.982	-72.936	0.242	0.089
-452.968	-200.000	0.001	-0.229
-451.953	395.243	0.032	0.067
-450.938	-60.180	0.284	-0.121
-449.924	346.448	-0.109	-0.215
-448.909	743.344	-0.047	0.126
-447.895	236.011	0.068	0.112
-446.880	800.000	-0.026	0.114
-445.865	80.100	-0.147	-0.159
-444.851	-39.676	-0.176	0.092
-443.836	501.599	0.063	0.146
-442.822	-64.802	-0.074	-0.030
-441.807	-200.000	0.003	0.108
-440.792	51.699	-0.188	0.179
-439.778	703.907	0.103	-0.273
-438.763	-33.928	0.132	0.073
-437.749	800.000	0.037	-0.154
-436.734	229.306	0.186	0.304
-435.719	436.342	0.177	0.386
-434.705	561.110	-0.020	0.049
-433.690	-200.000	-0.015	-0.173
-432.676	-66.477	0.220	-0.087
-431.661	800.000	-0.015	-0.065
-430.646	285.121	-0.073	-0.131
-429.632	30.839	0.147	-0.126
-428.617	176.688	0.102	-0.149
-427.603	194.403	0.055	-0.084
-426.588	800.000	-0.093	-0.269
-425.573	81.706	0.320	0.346
-424.559	-112.025	0.419	0.085
-423.544	119.712	0.189	-0.234
-422.530	-13.963	0.132	-0.085
-421.515	-200.000	-0.066	-0.344
-420.500	-92.326	-0.339	-0.095
-419.486	127.483	-0.200	0.254
-418.471	-107.480	0.400	-0.088
-417.457	243.703	0.199	-0.334
-416.442	295.161	0.031	0.057
-415.428	-103.212	-0.090	0.021
-414.413	47.166	0.236	-0.220
-413.398	800.000	0.080	0.228
-412.384	-89.167	-0.191	-0.056
-411.369	-18.993	0.185	-0.115
-410.355	30.412	-0.014	-0.012
-409.340	800.000	0.046	0.165
-408.325	-61.748	0.180	-0.075
-407.311	-121.590	-0.299	-0.050
-406.296	-66.512	0.302	-0.120
-405.282	238.582	0.167	0.277
-404.267	-118.394	-0.346	-0.061
-403.252	149.513	0.052	-0.070
-402.238	-137.797	-0.119	0.013
-401.223	-200.000	-0.016	-0.130
-400.209	-200.000	0.015	-0.145
-399.194	-200.000	0.020	-0.276
-398.179	274.363	0.076	-0.135
-397.165	-58.360	0.170	-0.074
-396.150	-200.000	0.001	0.181
-395.136	800.000	0.107	0.453
-394.121	-144.737	0.205	0.019
-393.106	1.774	0.241	-0.174
-392.092	800.000	0.104	-0.439
-391.077	296.420	-0.128	0.235
-390.063	153.268	0.044	0.060
-389.048	-56.943	0.180	-0.079
-388.033	262.664	0.106	0.183
-387.019	-22.685	0.308	0.186
-386.004	800.000	-0.066	-0.237
-384.990	21.350	0.286	-0.233
-383.975	-193.527	-0.167	-0.001
-382.960	800.000	0.024	0.091
-381.946	-200.000	0.044	0.424
-380.931	-200.000	0.001	-0.221
-379.917	-49.821	-0.042	0.020
-378.902	27.458	0.312	-0.262
-377.888	-200.000	0.042	0.240
-376.873	75.347	0.368	0.387
-375.858	167.157	0.187	0.265
-374.844	-39.504	0.493	0.258
-373.829	-121.780	-0.239	-0.039
-372.815	-15.202	0.207	-0.132
-371.800	126.399	-0.249	0.315
-370.785	-200.000	-0.040	0.239
-369.771	287.416	-0.147	0.266
-368.756	37.026	0.126	0.111
-367.742	8.978	0.057	-0.043
-366.727	800.000	-0.020	0.061
-365.712	29.397	-0.238	-0.202
-364.698	281.056	-0.145	0.260
-363.683	-126.686	-0.156	-0.023
-362.669	24.167	-0.202	0.167
-361.654	-56.303	0.313	0.139
-360.639	-44.919	-0.446	-0.222
-359.625	170.286	-0.087	-0.125
-358.610	-125.210	0.266	-0.041
-357.596	735.623	0.140	-0.374
-356.581	-90.984	-0.342	0.098
-355.566	731.232	0.116	0.308
-354.552	-200.000	-0.004	-0.146
-353.537	800.000	0.043	0.184
-352.523	-166.504	-0.222	0.009
-351.508	-200.000	-0.082	-0.361
-350.493	800.000	0.088	-0.313
-349.479	-71.274	0.050	0.019
-348.464	-65.706	0.149	-0.060
-347.450	-17.341	0.316	0.198
-346.435	-77.089	-0.443	0.154
-345.420	-64.008	0.051	0.021
-344.406	646.173	-0.042	0.107
-343.391	0.872	-0.153	0.109
-342.377	129.055	0.078	0.100
-341.362	-69.152	0.299	0.115
-340.348	-200.000	-0.003	0.066
-339.333	-200.000	0.048	-0.274
-338.318	180.783	0.087	0.128
-337.304	800.000	0.061	0.258
-336.289	-143.438	-0.251	0.024
-335.275	3.466	-0.195	-0.142
-334.260	73.360	-0.227	-0.237
-333.245	-82.885	-0.284	0.092
-332.231	-175.986	-0.262	-0.007
-331.216	90.668	-0.035	0.039
-330.202	48.316	0.387	-0.361
-329.187	-81.161	-0.214	-0.070
-328.172	-200.000	-0.031	-0.220
-327.158	-200.000	0.019	-0.204
-326.143	-29.857	0.178	-0.101
-325.129	-10.466	0.123	0.081
-324.114	107.414	0.114	-0.135
-323.099	38.402	-0.128	0.114
-322.085	-200.000	-0.055	-0.251
-321.070	137.711	0.266	-0.347
-320.056	-78.122	-0.076	0.026
-319.041	383.546	-0.176	0.361
-318.026	-43.153	-0.367	0.185
-317.012	-109.767	0.425	-0.089
-315.997	800.000	0.044	-0.121
-314.983	-45.532	-0.299	-0.148
-313.968	399.195	0.090	-0.188
-312.953	-108.137	0.206	0.045
-311.939	-110.533	-0.107	-0.022
-310.924	11.907	0.068	-0.052
-309.910	-200.000	-0.052	0.319
-308.895	800.000	-0.021	0.065
-307.880	-200.000	-0.023	0.183
-306.866	800.000	-0.055	0.157
-305.851	-175.533	0.300	-0.008
-304.837	-200.000	0.030	-0.149
-303.822	800.000	-0.067	-0.243
-302.807	739.420	0.115	0.308
-301.793	-164.302	0.320	-0.015
-300.778	800.000	-0.076	0.211
-299.764	340.636	0.101	-0.197
-298.749	-55.979	0.137	0.061
-297.735	580.249	-0.051	0.125
-296.720	-37.784	-0.231	0.122
-295.705	197.224	0.173	0.263
-294.691	-10.754	0.114	-0.075
-293.676	175.743	-0.124	0.178
-292.662	-189.870	0.333	0.004
-291.647	211.157	0.186	-0.291
-290.632	-113.572	0.417	-0.081
-289.618	5.214	0.409	-0.300
-288.603	160.544	-0.216	0.300
-287.589	-113.196	0.119	-0.023
-286.574	-0.921	-0.406	-0.286
-285.559	-200.000	-0.030	0.351
-284.545	-133.911	-0.093	-0.012
-283.530	-200.000	-0.020	-0.214
-282.516	318.000	-0.091	0.172
-281.501	18.302	-0.099	0.078
-280.486	129.561	-0.093	-0.118
-279.472	-159.755	0.170	-0.009
-278.457	375.924	0.069	0.139
-277.443	-61.496	0.184	-0.077
-276.428	168.222	0.151	-0.214
-275.413	-200.000	-0.070	0.313
-274.399	-123.325	0.186	0.030
-273.384	-200.000	0.033	-0.415
-272.370	-200.000	0.005	-0.215
-271.355	-38.829	0.146	-0.077
-270.340	800.000	0.063	0.233
-269.326	800.000	0.052	0.180
-268.311	-101.565	0.258	-0.062
-267.297	-4.290	0.131	0.090
-266.282	146.235	0.110	0.147
-265.267	207.395	0.238	-0.370
-264.253	102.195	-0.153	0.177
-263.238	-79.147	0.254	0.086
-262.224	-100.819	-0.339	0.083
-261.209	-200.000	0.038	0.276
-260.195	-40.453	0.216	-0.111
-259.180	-145.859	0.140	-0.012
-258.165	-200.000	0.034	0.216
-257.151	800.000	0.119	0.384
-256.136	-33.413	-0.355	-0.195
-255.122	-24.739	0.177	0.105
-254.107	66.865	-0.170	-0.172
-253.092	-72.841	-0.356	-0.130
-252.078	-8.027	0.062	0.041
-251.063	-175.895	-0.105	-0.003
-250.049	121.448	-0.156	0.193
-249.034	227.430	-0.185	0.299
-248.019	-200.000	0.003	-0.031
-247.005	14.612	0.381	-0.295
-245.990	-18.052	0.198	-0.123
-244.976	-177.157	0.160	-0.004
-243.961	-152.107	-0.367	-0.026
-242.946	-21.068	0.355	0.216
-241.932	296.878	0.020	0.037
-240.917	-106.379	-0.210	0.047
-239.903	-200.000	0.008	-0.047
-238.888	-28.433	-0.305	0.175
-237.873	-173.560	0.126	0.004
-236.859	-34.390	-0.328	-0.178
-235.844	-48.937	-0.038	0.018
-234.830	345.257	0.038	0.075
-233.815	-200.000	0.006	-0.160
-232.800	291.018	0.203	0.366
-231.786	92.034	-0.162	-0.181
-230.771	-59.515	-0.192	0.082
-229.757	-86.481	0.109	-0.033
-228.742	-76.015	-0.360	-0.126
-227.727	59.906	-0.087	-0.085
-226.713	453.719	0.096	-0.210
-225.698	800.000	0.092	-0.324
-224.684	-200.000	0.001	0.376
-223.669	244.009	0.049	0.082
-222.655	800.000	-0.025	-0.077
-221.640	-69.071	0.297	0.113
-220.625	-12.903	-0.398	-0.257
-219.611	-9.549	-0.170	0.113
-218.596	141.942	-0.338	-0.444
-217.582	-43.438	-0.286	-0.143
-216.567	477.185	-0.061	0.137
-215.552	-200.000	0.027	-0.164
-214.538	781.258	-0.085	0.232
-213.523	211.278	-0.085	-0.133
-212.509	-200.000	-0.018	-0.143
-211.494	800.000	0.033	-0.127
-210.479	-102.320	0.221	0.053
-209.465	-54.914	0.185	0.083
-208.450	-143.159	-0.104	0.010
-207.436	-16.387	-0.131	-0.082
-206.421	-127.037	-0.191	0.028
-205.406	-200.000	-0.052	0.308
-204.392	255.993	-0.092	-0.157
-203.377	-128.710	0.471	-0.066
-202.363	12.125	-0.294	-0.224
-201.348	800.000	-0.037	0.143
-200.333	-166.686	0.057	-0.002
-199.319	375.150	0.179	0.362
-198.304	-151.767	0.314	0.023
-197.290	-200.000	0.009	-0.224
-196.275	0.843	-0.041	0.029
-195.260	-10.263	0.117	-0.077
-194.246	-200.000	-0.135	-0.000
-193.231	1.296	0.388	0.276
-192.217	800.000	-0.118	0.348
-191.202	-200.000	0.012	0.084
-190.187	-200.000	-0.010	0.092
-189.173	-106.639	0.345	0.076
-188.158	94.389	-0.248	0.280
-187.144	-111.477	-0.276	0.056
-186.129	-3.194	0.136	-0.094
-185.114	-191.582	0.145	-0.001
-184.100	-173.261	-0.320	0.010
-183.085	-132.033	0.192	0.025
-182.071	-200.000	-0.019	0.381
-181.056	-51.701	0.150	0.069
-180.042	-200.000	-0.017	0.321
-179.027	-82.409	-0.461	-0.148
-178.012	-200.000	0.018	0.271
-176.998	-164.634	0.181	-0.008
-175.983	-84.801	-0.209	-0.065
-174.969	43.791	-0.099	0.089
-173.954	27.793	-0.120	-0.100
-172.939	227.013	0.086	-0.138
-171.925	192.870	0.139	-0.208
-170.910	34.861	0.157	-0.136
-169.896	-97.570	0.259	0.067
-168.881	474.686	-0.111	-0.247
-167.866	-200.000	-0.031	-0.441
-166.852	330.993	-0.178	0.341
-165.837	758.002	-0.032	-0.086
-164.823	-91.500	0.178	-0.050
-163.808	103.919	0.114	0.132
-162.793	478.286	0.037	-0.082
-161.779	800.000	-0.083	0.264
-160.764	-200.000	0.007	-0.190
-159.750	800.000	-0.045	0.158
-158.735	-29.745	-0.153	0.086
-157.720	141.352	0.276	0.362
-156.706	-200.000	0.002	-0.249
-155.691	-62.474	-0.389	-0.160
-154.677	-87.616	-0.188	0.056
-153.662	80.669	-0.294	0.314
-152.647	800.000	-0.051	-0.189
-151.633	800.000	0.086	-0.307
-150.618	-68.518	0.021	0.008
-149.604	-200.000	-0.035	0.287
-148.589	708.758	0.114	0.297
-147.574	424.308	0.133	-0.283
-146.560	800.000	0.050	0.207
-145.545	52.317	0.107	0.101
-144.531	800.000	-0.029	-0.100
-143.516	-92.022	-0.291	0.081
-142.502	-31.121	0.047	-0.026
-141.487	-162.121	0.372	-0.018
-140.472	-41.339	0.196	0.100
-139.458	-200.000	-0.020	0.166
-138.443	26.676	0.141	0.117
-137.429	800.000	0.041	0.154
-136.414	372.423	-0.063	0.126
-135.399	-121.353	0.318	0.052
-134.385	-184.553	-0.340	-0.005
-133.370	102.770	-0.184	-0.214
-132.356	303.684	-0.134	0.246
-131.341	-49.274	0.226	-0.107
-130.326	8.476	0.047	0.035
-129.312	233.728	0.036	0.058
-128.297	769.403	0.090	-0.241
-127.283	-14.458	0.172	0.109
-126.268	486.941	-0.066	-0.150
-125.253	-100.077	-0.262	-0.064
-124.239	111.320	0.234	-0.279
-123.224	-142.049	-0.139	0.014
-122.210	390.823	-0.103	0.212
