DTS Sentinel unit serial number:	SN413079Multiplexer serial number:	ORYXHardware model number:	OX4-SRSoftware version number:	ORYX F/W v4.00 Oryx Data Collector v3.7.2.0data status	okinstallation	princeton_trtdifferential loss correction	single-endedforward channel	channel 4reverse channel	N/Adate	2019/09/11time	01:03:11forward acquisition time	60.00reverse acquisition time	0.00gamma	496.2192k internal	0.2318k external	0.2318temperature offset calibration	0.9951default loss term (dB/km)	0.3790temperature slope calibration	1.0000multiplexer offset coefficient	1.0000multiplexer slope coefficient	1.0000fibre end	0.00T internal ref (°C)	29.12T ext. ref 1 (°C)	-0.31T ext. ref 2 (°C)	22.95length (m)	temperature (°C)	Stokes	anti-Stokes-747.200	-10.875	-0.172	-0.115
-746.185	137.859	-0.220	0.292
-745.171	93.636	0.118	0.135
-744.156	200.961	0.182	0.283
-743.142	232.561	-0.061	-0.102
-742.127	-200.000	0.006	-0.046
-741.112	88.570	-0.081	-0.092
-740.098	-83.010	0.215	0.070
-739.083	631.484	-0.030	0.076
-738.069	15.002	-0.273	0.216
-737.054	-124.108	-0.081	-0.013
-736.039	233.769	-0.099	-0.165
-735.025	-83.758	0.267	-0.086
-734.010	-42.533	-0.127	0.066
-732.996	186.569	-0.158	0.238
-731.981	93.774	-0.153	0.175
-730.966	12.922	-0.100	-0.078
-729.952	22.480	0.051	0.042
-728.937	-145.408	-0.390	0.036
-727.923	-200.000	0.007	0.125
-726.908	-66.686	-0.173	-0.069
-725.894	289.023	-0.068	-0.124
-724.879	-94.627	0.119	0.033
-723.864	196.931	0.170	-0.262
-722.850	40.913	-0.133	0.121
-721.835	-154.950	0.307	0.020
-720.821	612.011	-0.106	-0.269
-719.806	173.357	-0.177	0.258
-718.791	-61.987	-0.198	-0.084
-717.777	-187.847	0.060	-0.001
-716.762	377.082	0.146	0.301
-715.748	379.775	-0.163	-0.337
-714.733	115.510	-0.246	0.304
-713.718	-200.000	-0.012	0.183
-712.704	4.555	-0.275	0.204
-711.689	241.958	-0.170	-0.287
-710.675	-200.000	0.004	0.423
-709.660	-108.714	-0.039	0.008
-708.645	16.734	-0.210	-0.168
-707.631	-194.271	-0.247	0.002
-706.616	46.666	0.101	-0.094
-705.602	298.050	0.125	-0.233
-704.587	-50.630	-0.114	0.054
-703.572	800.000	0.047	-0.165
-702.558	-136.515	-0.299	0.035
-701.543	-136.045	-0.092	-0.011
-700.529	-135.101	0.243	0.030
-699.514	329.387	-0.047	-0.092
-698.499	-200.000	-0.061	-0.300
-697.485	430.921	-0.099	-0.216
-696.470	-193.483	-0.193	-0.002
-695.456	-52.014	-0.396	0.186
-694.441	800.000	-0.084	0.344
-693.426	-126.070	0.159	-0.024
-692.412	-196.557	-0.226	-0.002
-691.397	734.644	-0.086	0.232
-690.383	-200.000	0.049	0.262
-689.368	-156.502	0.357	-0.022
-688.354	-166.509	-0.275	-0.012
-687.339	-100.973	0.161	-0.040
-686.324	-200.000	-0.008	0.122
-685.310	-47.739	0.171	0.084
-684.295	800.000	-0.048	0.137
-683.281	38.251	0.099	0.089
-682.266	-107.600	0.530	-0.117
-681.251	-44.629	0.219	0.111
-680.237	191.950	-0.087	-0.133
-679.222	-4.978	-0.292	0.203
-678.208	800.000	0.014	-0.047
-677.193	-162.044	0.141	-0.007
-676.178	-27.498	0.145	-0.085
-675.164	-172.148	-0.052	-0.002
-674.149	-58.826	0.034	0.015
-673.135	-200.000	-0.032	0.277
-672.120	-64.889	0.103	-0.042
-671.105	142.335	0.147	-0.196
-670.091	-200.000	-0.006	0.029
-669.076	-177.535	-0.309	-0.008
-668.062	241.000	-0.094	-0.158
-667.047	102.566	-0.043	-0.051
-666.032	-157.825	0.105	-0.006
-665.018	303.047	-0.047	0.088
-664.003	-49.916	-0.303	0.145
-662.989	250.958	-0.179	-0.307
-661.974	281.955	-0.050	-0.090
-660.959	259.887	0.107	0.187
-659.945	109.866	0.155	-0.188
-658.930	-160.449	-0.314	0.017
-657.916	31.943	-0.278	0.241
-656.901	173.027	0.179	-0.260
-655.886	-32.900	0.209	0.117
-654.872	-200.000	-0.020	-0.129
-653.857	-3.924	-0.119	-0.083
-652.843	214.025	0.151	0.241
-651.828	132.003	0.243	-0.316
-650.814	-200.000	-0.012	-0.279
-649.799	286.782	0.123	0.223
-648.784	-64.361	0.195	0.080
-647.770	84.930	-0.126	-0.139
-646.755	-7.732	-0.330	-0.225
-645.741	-200.000	-0.023	0.229
-644.726	51.497	0.145	-0.139
-643.711	-100.925	0.186	0.046
-642.697	-200.000	-0.025	0.141
-641.682	72.009	-0.075	0.079
-640.668	-17.298	0.070	0.044
-639.653	414.083	-0.142	0.306
-638.638	397.402	-0.013	0.027
-637.624	-200.000	-0.070	-0.322
-636.609	-123.416	0.145	-0.023
-635.595	229.214	-0.036	-0.060
-634.580	-65.719	-0.261	-0.105
-633.565	-200.000	0.018	-0.146
-632.551	-200.000	0.025	-0.252
-631.536	160.570	0.087	-0.122
-630.522	-200.000	-0.026	-0.248
-629.507	-200.000	-0.006	0.046
-628.492	482.632	-0.066	0.150
-627.478	-199.487	0.124	-0.001
-626.463	-11.482	0.146	-0.097
-625.449	-46.171	-0.084	0.042
-624.434	-34.358	0.137	-0.076
-623.419	-200.000	0.000	-0.087
-622.405	-68.293	0.149	-0.058
-621.390	-42.770	-0.146	-0.075
-620.376	-178.286	-0.209	-0.005
-619.361	800.000	-0.065	-0.262
-618.346	800.000	-0.038	0.124
-617.332	-200.000	-0.085	0.416
-616.317	800.000	-0.031	0.134
-615.303	-129.363	0.323	-0.045
-614.288	800.000	0.098	0.324
-613.273	72.085	0.099	-0.104
-612.259	-36.188	0.101	-0.055
-611.244	396.232	-0.060	-0.127
-610.230	-200.000	-0.016	-0.130
-609.215	184.096	0.272	0.405
-608.201	-109.406	0.384	-0.082
-607.186	-200.000	0.036	-0.303
-606.171	11.946	0.251	0.195
-605.157	692.843	-0.044	-0.117
-604.142	134.914	-0.158	0.206
-603.128	-66.371	0.114	0.045
-602.113	800.000	0.030	-0.120
-601.098	9.814	0.193	0.148
-600.084	176.519	-0.015	-0.022
-599.069	-102.358	0.063	-0.015
-598.055	318.319	-0.089	0.170
-597.040	-200.000	0.013	0.323
-596.025	-36.665	0.117	-0.063
-595.011	-200.000	-0.042	-0.225
-593.996	181.718	0.099	-0.147
-592.982	-41.160	-0.109	0.057
-591.967	385.002	-0.132	0.274
-590.952	-200.000	-0.007	-0.038
-589.938	-81.511	-0.219	0.073
-588.923	-200.000	0.016	0.251
-587.909	-200.000	0.047	-0.213
-586.894	-200.000	-0.000	-0.099
-585.879	310.439	0.141	0.266
-584.865	-109.555	-0.056	0.012
-583.850	148.530	-0.051	0.070
-582.836	-96.416	0.468	-0.124
-581.821	-120.465	-0.381	-0.065
-580.806	20.167	0.105	0.085
-579.792	507.283	-0.094	-0.219
-578.777	225.661	-0.163	-0.265
-577.763	-85.902	-0.134	0.042
-576.748	108.677	-0.149	-0.179
-575.733	-200.000	0.048	-0.236
-574.719	-171.542	-0.052	0.002
-573.704	-123.762	0.447	-0.071
-572.690	334.178	0.131	0.255
-571.675	-48.854	0.177	-0.085
-570.661	96.377	0.163	-0.188
-569.646	-97.198	0.432	-0.113
-568.631	179.628	0.072	0.107
-567.617	600.313	0.105	0.261
-566.602	-200.000	0.004	0.202
-565.588	800.000	-0.053	-0.186
-564.573	29.406	-0.377	0.322
-563.558	-200.000	0.006	0.332
-562.544	461.299	-0.065	0.146
-561.529	-14.113	0.118	0.076
-560.515	-49.974	0.191	-0.091
-559.500	-50.115	0.276	-0.131
-558.485	800.000	0.032	0.105
-557.471	-200.000	-0.064	0.291
-556.456	50.248	-0.202	0.192
-555.442	-138.668	0.272	0.030
-554.427	100.798	-0.129	-0.150
-553.412	-55.872	0.320	0.143
-552.398	-200.000	-0.027	-0.144
-551.383	415.352	-0.238	-0.511
-550.369	329.469	0.113	-0.219
-549.354	51.837	0.145	-0.139
-548.339	157.163	-0.269	0.374
-547.325	-108.600	0.408	-0.088
-546.310	-2.670	-0.110	0.077
-545.296	-200.000	0.031	0.195
-544.281	198.743	0.176	-0.271
-543.266	38.110	0.198	-0.177
-542.252	340.192	0.043	-0.085
-541.237	-91.972	0.262	0.075
-540.223	-102.390	-0.033	0.008
-539.208	-200.000	-0.020	0.200
-538.193	42.521	-0.071	-0.065
-537.179	-200.000	0.042	0.197
-536.164	-7.758	0.136	0.092
-535.150	-114.856	-0.259	0.050
-534.135	-200.000	0.011	0.268
-533.121	800.000	-0.071	0.283
-532.106	83.117	-0.101	0.110
-531.091	-27.953	-0.220	0.128
-530.077	137.886	0.078	0.102
-529.062	-200.000	-0.001	-0.128
-528.048	431.531	0.114	-0.247
-527.033	-200.000	-0.025	0.207
-526.018	335.612	0.209	0.406
-525.004	-37.957	-0.379	-0.202
-523.989	-200.000	-0.081	0.368
-522.975	621.125	0.079	-0.200
-521.960	228.996	-0.063	-0.103
-520.945	129.079	0.166	0.213
-519.931	-200.000	-0.010	0.341
-518.916	-200.000	-0.057	-0.313
-517.902	58.302	-0.184	0.181
-516.887	-4.289	-0.154	0.107
-515.872	493.927	-0.045	-0.105
-514.858	18.364	0.177	-0.142
-513.843	235.795	0.100	0.166
-512.829	435.714	0.117	0.255
-511.814	72.593	-0.131	0.137
-510.799	44.948	-0.086	-0.080
-509.785	-102.622	0.079	-0.019
-508.770	-200.000	0.002	-0.460
-507.756	-72.228	0.448	0.167
-506.741	-61.514	-0.207	0.087
-505.726	-84.757	-0.122	0.038
-504.712	-104.137	0.168	-0.039
-503.697	800.000	0.030	0.125
-502.683	6.744	-0.369	-0.275
-501.668	-63.530	-0.171	-0.070
-500.653	138.843	-0.058	-0.077
-499.639	-138.144	0.050	0.006
-498.624	263.548	-0.151	0.263
-497.610	-48.368	0.155	-0.075
-496.595	800.000	-0.049	0.207
-495.581	-77.029	-0.435	0.152
-494.566	-83.426	-0.280	0.090
-493.551	320.962	-0.047	-0.090
-492.537	800.000	0.022	-0.074
-491.522	185.499	0.140	-0.208
-490.508	-160.925	-0.248	-0.013
-489.493	-138.477	0.524	0.058
-488.478	13.461	0.040	0.031
-487.464	53.842	-0.268	-0.258
-486.449	48.680	0.377	-0.355
-485.435	-200.000	-0.005	0.048
-484.420	756.679	0.031	0.085
-483.405	-46.943	0.088	-0.043
-482.391	-53.527	-0.202	0.092
-481.376	800.000	-0.166	-0.633
-480.362	-81.036	0.099	-0.033
-479.347	662.518	0.037	0.096
-478.332	139.978	-0.149	0.197
-477.318	33.622	-0.373	-0.325
-476.303	-126.395	0.271	-0.041
-475.289	297.397	-0.128	0.236
-474.274	232.191	0.097	-0.159
-473.259	-98.471	-0.201	0.052
-472.245	215.052	-0.179	0.284
-471.230	800.000	-0.062	0.250
-470.216	148.282	-0.164	-0.222
-469.201	-41.093	0.122	0.063
-468.186	-86.216	0.163	-0.050
-467.172	180.748	0.042	-0.061
-466.157	377.261	0.074	-0.151
-465.143	197.795	-0.286	-0.438
-464.128	-44.951	0.211	0.105
-463.113	-64.816	-0.252	0.102
-462.099	-200.000	-0.010	0.112
-461.084	-200.000	-0.019	0.172
-460.070	-57.461	-0.328	-0.144
-459.055	85.831	-0.082	0.090
-458.040	166.827	-0.080	0.114
-457.026	800.000	-0.123	-0.377
-456.011	205.309	0.152	-0.236
-454.997	-117.656	-0.169	-0.030
-453.982	152.597	0.121	0.166
-452.968	106.623	-0.161	0.192
-451.953	197.504	-0.260	-0.398
-450.938	259.376	0.132	0.227
-449.924	11.100	-0.250	-0.191
-448.909	585.949	-0.077	0.190
-447.895	-200.000	0.009	0.043
-446.880	-117.188	0.124	0.022
-445.865	800.000	0.057	0.224
-444.851	-63.055	0.341	0.141
-443.836	-33.413	-0.131	-0.072
-442.822	9.013	-0.187	0.141
-441.807	-3.219	0.120	0.084
-440.792	-49.641	0.257	-0.122
-439.778	374.863	0.114	0.232
-438.763	1.443	0.130	0.094
-437.749	-200.000	-0.025	-0.251
-436.734	800.000	-0.027	0.079
-435.719	-138.146	-0.165	-0.018
-434.705	-200.000	0.066	-0.351
-433.690	-114.086	-0.254	-0.049
-432.676	-110.224	0.193	-0.040
-431.661	-125.522	0.071	-0.011
-430.646	-200.000	-0.055	0.287
-429.632	-47.159	0.063	-0.031
-428.617	-19.165	-0.161	0.100
-427.603	74.548	0.238	0.250
-426.588	-3.873	-0.265	0.184
-425.573	-200.000	-0.030	0.144
-424.559	356.216	0.043	0.086
-423.544	-200.000	0.009	0.068
-422.530	-146.716	0.174	0.015
-421.515	275.527	0.112	-0.199
-420.500	0.151	-0.168	0.120
-419.486	-83.740	0.148	0.047
-418.471	381.733	0.065	-0.134
-417.457	-27.311	-0.175	-0.102
-416.442	-23.282	0.053	0.032
-415.428	800.000	-0.029	-0.104
-414.413	-102.148	0.076	0.018
-413.398	-200.000	0.031	0.155
-412.384	98.565	0.103	-0.119
-411.369	-200.000	-0.003	0.194
-410.355	-82.184	-0.192	0.063
-409.340	73.562	-0.343	0.359
-408.325	-200.000	-0.060	0.381
-407.311	-24.430	-0.173	-0.103
-406.296	-72.731	-0.124	-0.046
-405.282	-145.768	-0.094	-0.008
-404.267	130.619	0.093	-0.119
-403.252	-94.849	-0.135	0.036
-402.238	-48.261	0.389	0.188
-401.223	23.075	-0.250	0.205
-400.209	-200.000	0.008	-0.081
-399.194	800.000	0.013	0.044
-398.179	161.764	0.123	-0.171
-397.165	67.482	-0.099	0.101
-396.150	-125.490	-0.236	0.036
-395.136	-152.455	0.203	-0.015
-394.121	300.549	0.047	-0.086
-393.106	-200.000	0.007	-0.043
-392.092	-52.380	-0.078	0.036
-391.077	-102.288	0.045	0.011
-390.063	-28.720	0.156	-0.090
-389.048	-97.416	0.224	-0.058
-388.033	111.516	0.114	0.138
-387.019	800.000	-0.084	-0.348
-386.004	32.101	-0.080	0.069
-384.990	800.000	0.035	-0.149
-383.975	200.624	0.251	-0.385
-382.960	-122.604	0.169	-0.027
-381.946	-200.000	0.065	0.328
-380.931	-54.515	-0.239	0.108
-379.917	347.867	0.075	-0.147
-378.902	-200.000	0.030	0.195
-377.888	59.562	-0.051	-0.050
-376.873	-67.127	-0.183	0.072
-375.858	800.000	0.125	0.407
-374.844	800.000	0.065	0.232
-373.829	-110.195	0.092	0.019
-372.815	111.204	-0.094	-0.113
-371.800	-72.223	0.196	-0.073
-370.785	350.560	-0.028	-0.054
-369.771	483.410	-0.074	-0.169
-368.756	-194.847	-0.083	-0.001
-367.742	10.206	-0.117	-0.089
-366.727	-112.662	0.440	-0.087
-365.712	-105.660	0.314	-0.071
-364.698	74.679	-0.129	0.136
-363.683	-200.000	-0.010	-0.094
-362.669	721.278	-0.063	0.166
-361.654	-50.899	-0.181	0.085
-360.639	273.095	0.091	-0.160
-359.625	-88.178	0.107	0.032
-358.610	-42.385	-0.261	0.133
-357.596	215.729	-0.054	0.086
-356.581	206.569	-0.029	-0.045
-355.566	273.455	-0.108	-0.190
-354.552	-85.196	0.509	0.159
-353.537	-31.957	0.163	0.091
-352.523	-0.173	0.090	-0.064
-351.508	471.001	-0.062	-0.138
-350.493	26.817	-0.257	-0.214
-349.479	-46.541	0.423	-0.207
-348.464	0.816	-0.357	-0.255
-347.450	77.321	-0.059	0.062
-346.435	17.058	-0.188	0.149
-345.420	26.811	-0.072	-0.060
-344.406	-169.187	-0.404	0.015
-343.391	-188.656	-0.270	-0.003
-342.377	197.883	0.265	0.403
-341.362	145.682	-0.100	-0.134
-340.348	762.306	0.115	-0.310
-339.333	-50.541	-0.352	-0.165
-338.318	-96.064	-0.268	-0.071
-337.304	-140.065	0.207	0.022
-336.289	0.132	0.217	0.154
-335.275	127.471	-0.053	0.067
-334.260	-138.708	-0.241	0.026
-333.245	-151.176	0.285	-0.021
-332.231	800.000	0.041	0.150
-331.216	-59.030	0.138	0.060
-330.202	-21.240	0.111	-0.068
-329.187	-149.460	0.266	0.021
-328.172	-172.987	0.287	0.009
-327.158	-200.000	0.010	-0.177
-326.143	800.000	-0.013	0.047
-325.129	-200.000	-0.011	-0.215
-324.114	800.000	-0.069	-0.256
-323.099	139.072	0.135	-0.177
-322.085	-23.239	0.127	-0.076
-321.070	-66.579	-0.214	-0.084
-320.056	-107.511	0.105	0.023
-319.041	-200.000	-0.065	0.368
-318.026	-200.000	-0.008	-0.136
-317.012	800.000	-0.057	-0.211
-315.997	16.945	0.102	-0.080
-314.983	-66.352	0.131	-0.052
-313.968	-157.471	-0.040	-0.002
-312.953	800.000	-0.079	0.257
-311.939	-150.620	-0.167	0.013
-310.924	262.521	-0.093	0.161
-309.910	-200.000	0.006	0.291
-308.895	-200.000	-0.020	-0.186
-307.880	-91.911	0.450	-0.127
-306.866	800.000	-0.119	-0.414
-305.851	-71.415	0.284	0.106
-304.837	-27.341	-0.103	-0.060
-303.822	-200.000	0.047	0.467
-302.807	275.355	0.099	0.175
-301.793	-150.797	0.181	-0.014
-300.778	-46.839	-0.069	0.034
-299.764	42.059	0.232	0.209
-298.749	73.169	-0.114	0.118
-297.735	572.547	0.124	-0.302
-296.720	49.147	0.154	-0.144
-295.705	-43.919	-0.230	0.115
-294.691	108.126	-0.247	-0.293
-293.676	-200.000	-0.073	-0.332
-292.662	-0.084	0.112	0.079
-291.647	-84.116	-0.197	0.062
-290.632	194.776	-0.064	0.097
-289.618	95.183	0.156	-0.177
-288.603	114.877	-0.039	-0.047
-287.589	-21.875	0.055	0.033
-286.574	125.438	0.197	-0.247
-285.559	529.568	-0.089	-0.210
-284.545	-16.796	0.257	-0.161
-283.530	116.310	0.191	0.233
-282.516	-79.597	-0.210	0.070
-281.501	435.623	0.069	-0.149
-280.486	-77.215	-0.016	0.005
-279.472	220.905	-0.068	-0.109
-278.457	800.000	-0.074	-0.267
-277.443	-132.517	-0.347	-0.044
-276.428	-7.499	0.108	-0.072
-275.413	147.552	-0.350	-0.468
-274.399	79.839	0.161	0.172
-273.384	57.025	0.121	0.118
-272.370	-200.000	-0.075	0.424
-271.355	-77.410	-0.246	0.085
-270.340	-59.263	-0.265	-0.113
-269.326	260.154	0.099	0.170
-268.311	-26.667	-0.108	-0.063
-267.297	-49.510	-0.070	0.033
-266.282	-200.000	-0.010	-0.090
-265.267	612.346	0.072	0.178
-264.253	540.221	0.118	-0.279
-263.238	-161.910	-0.349	-0.018
-262.224	-200.000	-0.010	-0.068
-261.209	-32.144	-0.193	0.107
-260.195	-2.532	-0.105	-0.073
-259.180	-200.000	0.037	0.289
-258.165	-83.320	-0.152	0.048
-257.151	143.911	-0.058	-0.077
-256.136	-12.357	0.188	-0.122
-255.122	691.083	0.062	-0.161
-254.107	-200.000	0.022	-0.130
-253.092	594.693	0.152	-0.373
-252.078	-145.127	-0.321	-0.029
-251.063	800.000	0.030	-0.099
-250.049	-200.000	-0.061	-0.267
-249.034	-81.497	-0.247	0.081
-248.019	136.643	-0.068	-0.088
-247.005	141.364	-0.083	0.109
-245.990	-52.427	0.274	-0.126
-244.976	800.000	0.039	-0.121
-243.961	74.973	0.098	-0.103
-242.946	21.481	0.034	0.028
-241.932	-200.000	0.015	0.081
-240.917	345.636	-0.091	0.178
-239.903	800.000	-0.125	0.403
-238.888	-30.544	0.200	0.112
-237.873	270.953	0.085	0.148
-236.859	-200.000	-0.051	-0.318
-235.844	-200.000	-0.009	-0.084
-234.830	800.000	-0.068	0.204
-233.815	218.781	-0.076	-0.120
-232.800	-51.538	0.213	0.099
-231.786	-18.755	-0.402	0.248
-230.771	-200.000	0.126	0.570
-229.757	178.908	0.076	0.111
-228.742	105.642	0.214	0.251
-227.727	-79.881	-0.404	-0.135
-226.713	-69.787	-0.383	0.145
-225.698	234.412	0.043	-0.070
-224.684	50.245	-0.129	0.121
-223.669	-61.601	0.335	0.140
-222.655	-88.541	0.319	-0.094
-221.640	-79.134	-0.132	0.044
-220.625	-77.573	-0.269	-0.093
-219.611	146.067	-0.165	-0.219
-218.596	559.473	-0.070	-0.167
-217.582	120.173	0.301	-0.371
-216.567	-60.353	-0.134	0.057
-215.552	78.818	-0.212	0.224
-214.538	-177.664	0.144	-0.003
-213.523	800.000	0.022	0.071
-212.509	58.218	0.141	-0.137
-211.494	-138.688	-0.314	0.034
-210.479	800.000	-0.061	0.212
-209.465	307.046	0.124	-0.228
-208.450	-188.217	0.274	-0.003
-207.436	-52.930	-0.045	0.021
-206.421	800.000	-0.062	0.219
-205.406	37.846	-0.128	0.113
-204.392	193.206	0.107	-0.161
-203.377	204.949	0.157	-0.241
-202.363	-54.701	-0.043	-0.019
-201.348	-200.000	0.044	-0.251
-200.333	-168.366	0.100	0.004
-199.319	-42.483	0.038	-0.019
-198.304	-75.637	-0.231	-0.081
-197.290	427.132	-0.059	-0.126
-196.275	-200.000	-0.017	0.078
-195.260	85.281	0.169	-0.183
-194.246	324.666	0.048	0.091
-193.231	-33.566	-0.282	-0.154
-192.217	284.106	-0.053	0.094
-191.202	688.667	-0.047	-0.121
-190.187	-6.598	-0.091	-0.062
-189.173	192.040	0.162	0.242
-188.158	-65.831	0.198	-0.079
-187.144	493.970	-0.041	-0.092
-186.129	233.707	-0.105	0.171
-185.114	-135.790	-0.379	-0.044
-184.100	-39.050	-0.155	-0.081
-183.085	-200.000	0.015	0.072
-182.071	-141.681	-0.303	0.030
-181.056	25.348	0.242	0.199
-180.042	-200.000	-0.020	0.109
-179.027	32.538	0.062	-0.053
-178.012	800.000	0.027	-0.095
-176.998	800.000	-0.068	0.203
-175.983	-155.148	-0.178	0.012
-174.969	-36.493	-0.154	0.082
-173.954	357.786	-0.229	-0.453
-172.939	70.503	-0.068	0.069
-171.925	569.264	0.027	0.065
-170.910	-200.000	0.023	0.160
-169.896	2.550	0.093	-0.066
-168.881	-200.000	-0.004	0.199
-167.866	-81.688	-0.090	0.029
-166.852	-60.369	0.229	-0.097
-165.837	-142.755	0.332	-0.032
-164.823	458.397	-0.040	-0.087
-163.808	118.469	-0.072	-0.088
-162.793	800.000	0.130	0.418
-161.779	-134.638	-0.038	-0.005
-160.764	-106.585	0.157	0.035
-159.750	38.678	0.067	-0.059
-158.735	29.701	-0.163	-0.137
-157.720	-40.923	0.225	-0.115
-156.706	1.379	0.128	0.091
-155.691	-129.028	-0.275	0.038
-154.677	-41.334	0.117	0.059
-153.662	-200.000	0.031	-0.374
-152.647	85.686	0.203	-0.220
-151.633	-29.147	0.301	-0.171
-150.618	76.105	-0.126	-0.132
-149.604	44.416	0.206	0.187
-148.589	-44.093	-0.291	0.144
-147.574	-25.574	0.028	0.017
-146.560	401.421	0.086	-0.178
-145.545	189.335	-0.107	-0.159
-144.531	81.047	0.130	-0.139
-143.516	-147.286	0.198	-0.017
-142.502	-200.000	0.006	0.152
-141.487	-48.609	0.143	0.068
-140.472	-200.000	-0.016	0.395
-139.458	-49.596	0.294	-0.138
-138.443	422.298	0.015	-0.031
-137.429	4.608	0.312	0.226
-136.414	536.380	-0.161	0.377
-135.399	-35.863	-0.082	0.044
-134.385	10.759	0.222	0.168
-133.370	800.000	-0.076	0.283
-132.356	800.000	0.057	0.159
-131.341	-75.611	-0.095	-0.033
-130.326	-200.000	0.009	0.086
-129.312	112.956	-0.279	0.334
-128.297	97.642	0.198	-0.225
-127.283	-200.000	-0.034	-0.222
-126.268	-111.750	-0.414	-0.083
-125.253	-53.437	-0.183	0.083
-124.239	-14.135	0.142	0.091
-123.224	-100.322	-0.083	0.020
-122.210	156.216	0.079	0.108
