DTS Sentinel unit serial number:	SN413079Multiplexer serial number:	ORYXHardware model number:	OX4-SRSoftware version number:	ORYX F/W v4.00 Oryx Data Collector v3.7.2.0data status	okinstallation	princeton_trtdifferential loss correction	single-endedforward channel	channel 4reverse channel	N/Adate	2019/09/11time	00:51:10forward acquisition time	60.00reverse acquisition time	0.00gamma	496.2192k internal	0.2318k external	0.2318temperature offset calibration	0.9950default loss term (dB/km)	0.3790temperature slope calibration	1.0000multiplexer offset coefficient	1.0000multiplexer slope coefficient	1.0000fibre end	0.00T internal ref (°C)	29.17T ext. ref 1 (°C)	-0.30T ext. ref 2 (°C)	22.90length (m)	temperature (°C)	Stokes	anti-Stokes-747.200	-77.404	0.125	-0.044
-746.185	-183.428	-0.532	0.009
-745.171	-86.459	0.186	0.058
-744.156	-48.840	-0.159	0.077
-743.142	-95.085	0.293	0.080
-742.127	800.000	-0.112	0.484
-741.112	-200.000	-0.013	0.369
-740.098	-200.000	0.021	0.214
-739.083	-147.433	0.366	0.031
-738.069	-29.578	0.047	0.027
-737.054	694.310	-0.014	0.038
-736.039	-3.793	0.095	-0.066
-735.025	-55.733	-0.183	-0.083
-734.010	214.271	-0.230	-0.369
-732.996	-200.000	-0.058	-0.315
-731.981	-75.028	0.232	0.084
-730.966	20.953	-0.251	0.206
-729.952	16.956	0.191	-0.153
-728.937	163.828	0.057	0.081
-727.923	214.661	-0.125	-0.200
-726.908	-0.259	-0.071	-0.051
-725.894	-126.227	-0.254	0.038
-724.879	468.175	0.079	-0.180
-723.864	-157.180	-0.261	0.016
-722.850	-200.000	0.022	0.143
-721.835	251.191	0.145	-0.249
-720.821	8.279	-0.183	0.139
-719.806	-85.287	-0.338	0.107
-718.791	-200.000	0.007	0.122
-717.777	-43.721	0.127	-0.065
-716.762	302.791	-0.180	-0.337
-715.748	-173.870	-0.267	-0.008
-714.733	800.000	-0.046	-0.158
-713.718	218.882	-0.126	-0.204
-712.704	2.952	-0.036	-0.026
-711.689	-37.391	0.153	-0.083
-710.675	621.653	0.095	-0.241
-709.660	-200.000	0.042	0.343
-708.645	199.037	-0.128	0.199
-707.631	-143.560	-0.404	-0.039
-706.616	101.185	0.172	-0.202
-705.602	800.000	-0.070	-0.197
-704.587	-200.000	-0.007	-0.268
-703.572	-200.000	0.001	-0.418
-702.558	421.745	-0.142	-0.308
-701.543	-57.664	-0.311	-0.138
-700.529	-31.815	-0.223	0.127
-699.514	18.268	-0.443	-0.357
-698.499	-89.298	0.410	0.122
-697.485	-25.031	-0.217	-0.130
-696.470	-126.274	-0.416	0.063
-695.456	-116.229	-0.029	0.005
-694.441	-66.906	-0.276	0.110
-693.426	9.869	-0.169	-0.130
-692.412	0.883	0.207	-0.150
-691.397	-104.572	0.118	-0.028
-690.383	-200.000	0.009	0.080
-689.368	218.872	0.183	0.295
-688.354	197.172	0.044	0.068
-687.339	800.000	-0.026	0.090
-686.324	-198.469	0.090	-0.001
-685.310	800.000	-0.053	-0.181
-684.295	800.000	0.037	0.120
-683.281	381.596	-0.186	-0.386
-682.266	591.604	-0.027	-0.068
-681.251	-24.630	-0.220	0.132
-680.237	96.554	0.088	0.101
-679.222	-75.237	0.154	0.055
-678.208	-8.447	-0.298	-0.202
-677.193	323.136	0.044	-0.084
-676.178	800.000	0.071	-0.275
-675.164	-66.608	-0.269	-0.108
-674.149	-65.347	0.433	-0.176
-673.135	-158.920	-0.163	-0.009
-672.120	-200.000	-0.049	0.228
-671.105	-50.247	0.097	-0.046
-670.091	-200.000	0.035	0.199
-669.076	66.866	0.029	0.030
-668.062	-86.873	-0.247	0.076
-667.047	94.639	0.100	0.115
-666.032	-1.982	-0.119	0.085
-665.018	9.602	0.220	-0.168
-664.003	-80.137	-0.071	0.024
-662.989	183.642	0.370	0.551
-661.974	800.000	-0.028	-0.092
-660.959	-115.814	-0.298	-0.056
-659.945	-140.267	-0.067	-0.007
-658.930	109.735	0.167	-0.201
-657.916	-24.955	-0.120	0.072
-656.901	-106.917	-0.185	0.041
-655.886	-75.183	0.156	0.056
-654.872	47.024	-0.257	-0.241
-653.857	64.617	-0.094	-0.095
-652.843	-44.853	-0.100	0.050
-651.828	800.000	0.044	-0.155
-650.814	320.138	0.113	-0.217
-649.799	21.823	-0.147	0.121
-648.784	77.981	0.105	-0.113
-647.770	-128.323	-0.077	0.011
-646.755	287.251	-0.063	0.115
-645.741	89.412	-0.182	-0.205
-644.726	-117.638	0.104	-0.019
-643.711	53.428	0.079	0.076
-642.697	221.714	0.044	-0.072
-641.682	800.000	-0.087	-0.275
-640.668	800.000	-0.025	0.096
-639.653	-146.685	-0.300	0.026
-638.638	-200.000	-0.041	0.241
-637.624	454.320	0.152	-0.340
-636.609	-200.000	0.008	0.067
-635.595	65.417	-0.208	0.212
-634.580	-151.783	-0.160	0.012
-633.565	-200.000	0.039	-0.289
-632.551	-48.507	0.116	0.056
-631.536	-200.000	-0.056	-0.290
-630.522	230.083	-0.287	-0.472
-629.507	-200.000	0.012	-0.493
-628.492	50.357	0.092	-0.088
-627.478	-17.111	-0.326	-0.207
-626.463	74.715	-0.314	-0.333
-625.449	91.218	-0.137	0.155
-624.434	-200.000	-0.036	0.203
-623.419	-200.000	0.002	0.148
-622.405	-53.451	-0.327	0.151
-621.390	-87.201	-0.153	-0.047
-620.376	-37.396	-0.281	-0.151
-619.361	-120.052	-0.274	0.047
-618.346	170.808	-0.054	-0.078
-617.332	22.299	-0.270	0.222
-616.317	270.622	0.069	-0.122
-615.303	281.216	-0.135	-0.244
-614.288	120.189	-0.263	0.328
-613.273	-200.000	0.007	-0.281
-612.259	675.349	-0.087	-0.226
-611.244	-200.000	-0.003	0.241
-610.230	-200.000	-0.018	0.095
-609.215	-200.000	-0.000	0.215
-608.201	523.012	-0.065	-0.155
-607.186	691.571	-0.036	-0.096
-606.171	334.884	-0.047	-0.092
-605.157	-81.685	-0.334	0.110
-604.142	-200.000	-0.011	0.195
-603.128	800.000	0.072	-0.218
-602.113	25.426	0.128	-0.107
-601.098	-85.185	-0.285	0.090
-600.084	575.913	0.083	0.205
-599.069	800.000	0.075	0.237
-598.055	-24.830	-0.444	-0.265
-597.040	-31.023	0.125	0.071
-596.025	-200.000	0.005	0.095
-595.011	553.884	0.109	-0.264
-593.996	-200.000	0.033	0.177
-592.982	-90.241	0.110	0.032
-591.967	-138.821	0.404	-0.044
-590.952	-50.307	0.131	0.062
-589.938	800.000	0.026	0.109
-588.923	132.170	0.185	-0.240
-587.909	-200.000	-0.038	-0.253
-586.894	386.073	-0.037	-0.077
-585.879	70.549	-0.142	0.148
-584.865	375.945	0.066	-0.135
-583.850	-33.998	0.186	-0.103
-582.836	-102.611	-0.262	0.063
-581.821	112.072	0.027	-0.033
-580.806	73.539	-0.203	-0.214
-579.792	-200.000	-0.001	-0.141
-578.777	-116.377	0.198	-0.037
-577.763	-200.000	-0.056	0.432
-576.748	469.408	-0.146	-0.329
-575.733	800.000	-0.086	0.240
-574.719	-141.983	0.240	0.024
-573.704	800.000	0.030	0.089
-572.690	-200.000	0.017	-0.184
-571.675	-23.827	-0.152	0.091
-570.661	-18.783	0.293	-0.183
-569.646	100.200	0.167	-0.195
-568.631	378.730	-0.197	-0.404
-567.617	407.592	-0.100	-0.213
-566.602	241.368	-0.048	-0.080
-565.588	102.107	0.033	-0.038
-564.573	2.505	0.110	-0.080
-563.558	31.237	-0.122	-0.106
-562.544	-13.377	0.358	0.234
-561.529	-56.705	0.210	0.093
-560.515	176.453	-0.168	-0.246
-559.500	231.797	-0.092	0.151
-558.485	186.442	0.164	-0.245
-557.471	-200.000	0.000	0.107
-556.456	-31.267	-0.186	-0.105
-555.442	600.320	-0.048	0.121
-554.427	-200.000	0.026	0.117
-553.412	-110.860	-0.196	-0.040
-552.398	732.326	-0.105	-0.282
-551.383	-45.419	-0.132	-0.066
-550.369	-200.000	0.030	0.214
-549.354	-1.600	0.075	0.053
-548.339	-38.743	0.099	0.052
-547.325	-200.000	0.014	0.066
-546.310	-53.620	-0.269	-0.124
-545.296	30.659	0.073	0.063
-544.281	-104.044	-0.228	0.053
-543.266	131.302	0.249	0.321
-542.252	29.281	-0.074	0.063
-541.237	-42.251	-0.123	-0.063
-540.223	200.368	-0.116	0.179
-539.208	800.000	0.071	0.241
-538.193	46.059	-0.183	-0.171
-537.179	570.169	0.050	-0.123
-536.164	214.364	0.204	0.324
-535.150	278.750	-0.140	-0.251
-534.135	-143.181	0.337	0.033
-533.121	-200.000	0.001	-0.242
-532.106	-200.000	-0.025	0.131
-531.091	-67.676	0.098	0.039
-530.077	-11.947	0.238	-0.156
-529.062	-163.882	-0.126	-0.006
-528.048	-200.000	0.003	-0.057
-527.033	-81.576	-0.105	-0.035
-526.018	4.879	0.178	0.131
-525.004	-200.000	-0.009	0.121
-523.989	-87.515	0.131	-0.040
-522.975	318.715	0.101	0.192
-521.960	-200.000	-0.019	0.094
-520.945	205.982	-0.054	-0.084
-519.931	-63.427	0.238	0.098
-518.916	-200.000	0.047	0.381
-517.902	-127.855	-0.075	0.011
-516.887	98.487	0.044	0.051
-515.872	-200.000	0.002	0.249
-514.858	102.025	0.212	-0.248
-513.843	-200.000	0.061	-0.290
-512.829	519.920	0.050	0.118
-511.814	256.913	-0.142	-0.245
-510.799	331.552	0.172	-0.333
-509.785	-200.000	-0.028	-0.300
-508.770	15.602	-0.181	0.143
-507.756	-33.608	-0.213	0.118
-506.741	12.895	-0.117	-0.091
-505.726	800.000	-0.039	-0.122
-504.712	-85.364	0.133	0.042
-503.697	-102.330	0.295	0.071
-502.683	363.946	0.072	0.145
-501.668	33.516	-0.154	-0.134
-500.653	-200.000	-0.016	-0.156
-499.639	49.176	-0.093	0.088
-498.624	319.276	0.045	0.086
-497.610	681.636	-0.172	0.450
-496.595	132.408	-0.163	0.211
-495.581	76.756	0.222	0.236
-494.566	2.085	-0.076	0.055
-493.551	-142.047	-0.204	0.020
-492.537	800.000	-0.026	-0.094
-491.522	43.291	0.342	0.313
-490.508	-200.000	-0.039	0.480
-489.493	-200.000	-0.031	0.183
-488.478	-42.377	-0.436	-0.223
-487.464	564.584	0.029	-0.071
-486.449	256.671	0.167	0.287
-485.435	-52.811	-0.156	0.072
-484.420	-25.212	-0.054	-0.032
-483.405	13.635	-0.148	-0.115
-482.391	-108.176	0.222	-0.048
-481.376	-56.463	-0.199	0.088
-480.362	-138.610	-0.226	0.025
-479.347	-200.000	0.061	-0.595
-478.332	-200.000	-0.055	0.379
-477.318	-200.000	-0.012	0.160
-476.303	-24.510	-0.192	0.114
-475.289	-200.000	-0.003	0.320
-474.274	-200.000	-0.002	-0.017
-473.259	450.541	-0.162	-0.358
-472.245	7.285	0.164	0.122
-471.230	-30.386	-0.248	0.141
-470.216	112.102	-0.160	-0.193
-469.201	-200.000	0.086	0.500
-468.186	800.000	0.052	0.171
-467.172	-200.000	0.018	-0.099
-466.157	26.088	-0.100	-0.083
-465.143	-176.705	0.096	-0.002
-464.128	1.999	0.013	0.009
-463.113	29.528	-0.128	-0.109
-462.099	-170.973	0.360	-0.012
-461.084	601.660	0.065	0.162
-460.070	-11.358	-0.159	-0.105
-459.055	106.619	-0.063	0.075
-458.040	9.486	0.374	0.284
-457.026	426.182	-0.053	-0.114
-456.011	-200.000	-0.018	-0.140
-454.997	-140.611	0.062	-0.006
-453.982	-164.374	0.088	0.004
-452.968	77.056	-0.070	0.074
-451.953	-200.000	-0.008	0.083
-450.938	800.000	-0.030	0.125
-449.924	112.895	0.168	-0.203
-448.909	-41.816	-0.170	0.087
-447.895	-97.064	0.209	0.055
-446.880	-200.000	0.032	0.212
-445.865	414.027	0.043	0.092
-444.851	-132.477	-0.266	0.034
-443.836	237.583	0.135	-0.224
-442.822	90.373	-0.131	0.147
-441.807	-200.000	0.022	0.137
-440.792	-180.685	0.054	-0.001
-439.778	-7.750	-0.234	0.158
-438.763	-122.553	0.340	0.055
-437.749	800.000	0.038	-0.161
-436.734	-23.709	-0.130	0.078
-435.719	800.000	0.038	-0.150
-434.705	239.621	0.119	-0.199
-433.690	73.814	-0.180	-0.189
-432.676	-57.728	0.270	0.118
-431.661	5.993	-0.078	0.058
-430.646	35.068	0.171	0.150
-429.632	800.000	-0.073	0.262
-428.617	29.517	-0.058	-0.049
-427.603	-200.000	-0.025	-0.148
-426.588	212.126	-0.204	0.322
-425.573	-164.129	-0.157	0.007
-424.559	-101.219	0.198	0.048
-423.544	-56.555	0.333	0.147
-422.530	26.459	0.116	-0.097
-421.515	800.000	0.064	0.222
-420.500	144.737	-0.208	-0.278
-419.486	65.083	0.340	-0.343
-418.471	-57.668	0.225	-0.099
-417.457	113.112	-0.281	0.341
-416.442	-98.574	0.191	0.049
-415.428	800.000	0.072	0.202
-414.413	800.000	0.042	-0.169
-413.398	-26.552	0.130	0.076
-412.384	-34.000	0.176	-0.097
-411.369	-12.271	0.179	0.117
-410.355	129.428	-0.278	-0.355
-409.340	-200.000	-0.002	-0.051
-408.325	264.240	0.088	-0.154
-407.311	-151.836	-0.399	-0.029
-406.296	-153.726	0.252	0.017
-405.282	-200.000	-0.021	-0.216
-404.267	-200.000	0.002	0.143
-403.252	-136.471	0.213	-0.025
-402.238	107.446	-0.149	0.177
-401.223	-46.045	-0.165	-0.081
-400.209	176.278	-0.149	-0.216
-399.194	455.245	-0.143	-0.316
-398.179	-57.028	0.055	-0.024
-397.165	800.000	0.189	0.535
-396.150	-200.000	0.096	0.525
-395.136	-117.820	0.280	-0.050
-394.121	-86.155	0.264	0.081
-393.106	-200.000	0.013	0.142
-392.092	239.274	-0.223	0.370
-391.077	67.532	0.171	-0.175
-390.063	800.000	-0.061	0.174
-389.048	-200.000	0.034	-0.212
-388.033	-81.225	-0.345	0.114
-387.019	189.326	-0.088	-0.131
-386.004	649.786	-0.083	-0.213
-384.990	800.000	-0.074	0.269
-383.975	-91.543	0.211	-0.060
-382.960	759.846	-0.100	0.272
-381.946	-136.671	-0.146	0.017
-380.931	-200.000	0.025	0.172
-379.917	-40.089	0.162	-0.084
-378.902	-95.532	0.079	-0.021
-377.888	221.217	-0.059	0.095
-376.873	-65.680	-0.193	-0.077
-375.858	-200.000	-0.059	0.322
-374.844	800.000	-0.070	0.288
-373.829	-117.667	0.102	-0.018
-372.815	-200.000	0.010	-0.113
-371.800	-200.000	0.008	-0.256
-370.785	-120.768	0.117	-0.020
-369.771	-11.404	0.178	0.117
-368.756	16.961	-0.045	0.036
-367.742	-106.906	0.220	0.049
-366.727	-200.000	-0.018	0.296
-365.712	134.515	0.226	0.292
-364.698	89.348	-0.191	-0.212
-363.683	791.624	-0.015	-0.041
-362.669	40.496	-0.210	0.188
-361.654	-177.390	-0.094	0.002
-360.639	78.898	0.125	0.133
-359.625	-80.150	0.323	0.108
-358.610	88.138	0.066	-0.073
-357.596	-80.275	0.185	0.062
-356.581	-185.396	-0.106	-0.002
-355.566	-44.995	0.262	0.130
-354.552	560.329	-0.077	-0.186
-353.537	-79.922	-0.086	0.029
-352.523	237.192	-0.073	-0.120
-351.508	-122.565	0.170	0.027
-350.493	-65.792	0.069	-0.027
-349.479	569.657	-0.096	-0.232
-348.464	-200.000	0.003	0.039
-347.450	134.685	-0.207	0.268
-346.435	196.400	-0.054	-0.082
-345.420	94.917	0.053	-0.061
-344.406	-54.216	-0.157	0.071
-343.391	800.000	0.026	-0.097
-342.377	682.216	0.143	-0.371
-341.362	-148.722	-0.065	0.005
-340.348	358.976	-0.078	0.155
-339.333	-23.838	-0.065	-0.039
-338.318	-115.273	0.294	0.055
-337.304	22.980	0.315	-0.257
-336.289	47.780	-0.134	0.125
-335.275	-57.022	0.338	-0.148
-334.260	-200.000	-0.008	-0.319
-333.245	-15.382	0.113	-0.072
-332.231	173.206	0.107	0.154
-331.216	524.507	0.090	0.212
-330.202	800.000	0.091	-0.377
-329.187	688.441	0.130	0.340
-328.172	800.000	0.121	0.377
-327.158	-45.621	0.105	-0.052
-326.143	-200.000	0.058	-0.504
-325.129	16.190	-0.113	-0.088
-324.114	-0.959	-0.247	-0.174
-323.099	60.211	0.113	-0.111
-322.085	-108.502	-0.175	0.038
-321.070	79.274	0.118	0.126
-320.056	-200.000	-0.029	-0.186
-319.041	255.512	0.133	-0.227
-318.026	249.679	0.111	-0.188
-317.012	-101.960	0.043	0.010
-315.997	237.488	-0.093	0.153
-314.983	-27.498	0.226	0.131
-313.968	-200.000	0.013	0.071
-312.953	-25.297	-0.114	0.067
-311.939	-200.000	0.018	-0.150
-310.924	11.525	0.127	-0.097
-309.910	-200.000	-0.001	-0.194
-308.895	-53.815	-0.107	-0.049
-307.880	377.126	0.090	0.183
-306.866	0.606	0.327	-0.233
-305.851	-200.000	-0.025	0.251
-304.837	-92.979	0.199	-0.055
-303.822	192.432	0.051	-0.076
-302.807	-200.000	-0.021	0.156
-301.793	75.155	0.083	-0.087
-300.778	800.000	0.092	-0.377
-299.764	172.794	0.030	-0.042
-298.749	312.223	0.181	0.337
-297.735	800.000	-0.058	-0.207
-296.720	-200.000	0.026	-0.181
-295.705	18.861	-0.242	-0.193
-294.691	132.284	0.196	0.251
-293.676	244.598	-0.163	0.272
-292.662	72.827	-0.045	-0.047
-291.647	141.070	0.120	-0.158
-290.632	-140.855	0.086	0.009
-289.618	86.720	0.170	0.186
-288.603	-0.720	-0.227	0.160
-287.589	443.450	0.188	-0.410
-286.574	-200.000	-0.017	0.348
-285.559	113.322	0.160	-0.193
-284.545	-153.065	-0.198	0.014
-283.530	82.930	0.200	0.216
-282.516	90.941	0.052	0.058
-281.501	-200.000	-0.003	-0.226
-280.486	800.000	-0.049	0.165
-279.472	381.750	0.107	-0.217
-278.457	322.883	-0.123	-0.233
-277.443	764.980	-0.059	-0.160
-276.428	-200.000	0.001	0.261
-275.413	-20.987	-0.230	0.140
-274.399	-41.529	-0.116	-0.059
-273.384	134.131	-0.180	0.232
-272.370	-84.182	0.208	0.065
-271.355	800.000	-0.101	0.418
-270.340	168.072	0.105	-0.148
-269.326	-181.970	-0.251	-0.005
-268.311	-200.000	0.034	-0.192
-267.297	-200.000	0.026	-0.233
-266.282	-169.283	-0.115	-0.004
-265.267	-68.635	-0.097	0.037
-264.253	129.790	-0.022	-0.028
-263.238	145.109	0.080	0.107
-262.224	-65.474	-0.268	0.107
-261.209	-200.000	-0.000	0.115
-260.195	800.000	0.127	0.490
-259.180	488.534	-0.081	0.183
-258.165	-97.337	-0.162	0.042
-257.151	226.884	-0.071	-0.114
-256.136	13.172	0.262	-0.202
-255.122	100.382	-0.147	-0.170
-254.107	537.188	-0.129	0.304
-253.092	-200.000	-0.020	-0.144
-252.078	97.259	-0.147	0.168
-251.063	-155.230	0.289	-0.019
-250.049	-3.069	-0.137	0.095
-249.034	17.972	-0.226	0.179
-248.019	27.565	0.142	0.119
-247.005	335.335	0.087	0.166
-245.990	104.356	-0.165	-0.193
-244.976	-25.905	-0.140	-0.082
-243.961	-3.224	-0.120	0.083
-242.946	-200.000	-0.084	-0.464
-241.932	-48.515	0.156	-0.074
-240.917	-107.002	0.409	0.090
-239.903	296.907	-0.198	-0.360
-238.888	-2.507	0.108	0.075
-237.873	-200.000	-0.004	-0.292
-236.859	151.122	0.121	0.163
-235.844	-53.357	-0.054	-0.024
-234.830	616.844	-0.143	0.357
-233.815	800.000	0.102	0.284
-232.800	-67.808	-0.230	-0.089
-231.786	526.103	-0.152	-0.356
-230.771	-177.835	0.224	-0.005
-229.757	-64.392	0.350	-0.141
-228.742	-5.403	-0.141	0.096
-227.727	217.635	-0.113	0.179
-226.713	107.204	0.064	0.076
-225.698	-7.319	-0.148	0.099
-224.684	-200.000	-0.011	-0.081
-223.669	-37.243	-0.226	-0.120
-222.655	-200.000	0.002	-0.077
-221.640	-200.000	0.347	0.001
-220.625	114.511	-0.278	0.336
-219.611	486.979	0.056	-0.127
-218.596	-31.266	0.189	-0.106
-217.582	15.106	0.071	-0.055
-216.567	308.529	-0.167	-0.309
-215.552	800.000	0.091	0.280
-214.538	-159.913	0.292	0.016
-213.523	-20.744	-0.276	0.168
-212.509	132.537	0.218	0.278
-211.494	-200.000	0.003	-0.301
-210.479	-112.538	-0.305	-0.060
-209.465	132.619	0.127	-0.163
-208.450	-200.000	0.008	-0.245
-207.436	-23.096	0.069	0.041
-206.421	-61.873	0.204	0.084
-205.406	7.787	-0.230	-0.171
-204.392	714.089	0.081	-0.212
-203.377	800.000	-0.089	0.346
-202.363	555.469	0.133	-0.317
-201.348	-23.274	-0.224	0.134
-200.333	-127.496	-0.304	0.044
-199.319	-128.175	0.183	0.026
-198.304	-86.139	0.364	-0.111
-197.290	800.000	-0.028	0.101
-196.275	800.000	0.081	0.287
-195.260	535.149	0.043	0.101
-194.246	68.007	-0.095	0.096
-193.231	800.000	0.031	0.094
-192.217	-84.070	0.207	0.065
-191.202	-81.944	-0.446	-0.144
-190.187	13.660	0.038	-0.029
-189.173	-200.000	0.039	0.202
-188.158	-145.981	-0.472	0.041
-187.144	-200.000	-0.019	-0.088
-186.129	-8.550	0.211	-0.140
-185.114	-39.298	0.078	-0.040
-184.100	79.915	-0.284	-0.302
-183.085	74.042	-0.276	-0.287
-182.071	-41.846	0.369	0.188
-181.056	-42.733	0.058	0.029
-180.042	800.000	0.070	-0.303
-179.027	-142.850	-0.113	0.011
-178.012	-32.606	-0.280	0.154
-176.998	53.869	-0.077	-0.073
-175.983	-92.632	-0.087	0.024
-174.969	188.250	0.111	0.165
-173.954	161.591	-0.222	-0.307
-172.939	122.104	0.138	-0.171
-171.925	-168.975	0.324	-0.012
-170.910	-200.000	-0.037	-0.225
-169.896	-28.425	0.066	-0.038
-168.881	-200.000	-0.008	-0.124
-167.866	-124.206	-0.286	-0.044
-166.852	-200.000	-0.015	0.275
-165.837	-200.000	0.028	-0.138
-164.823	200.777	-0.102	-0.155
-163.808	-116.318	0.248	-0.046
-162.793	-200.000	0.061	0.440
-161.779	-97.164	0.588	0.152
-160.764	-100.311	-0.205	0.050
-159.750	-77.973	0.470	-0.160
-158.735	-23.884	0.299	0.177
-157.720	-187.599	-0.237	-0.003
-156.706	489.793	-0.026	-0.059
-155.691	95.653	0.357	-0.402
-154.677	-200.000	-0.021	-0.318
-153.662	411.808	-0.086	0.182
-152.647	800.000	0.040	-0.125
-151.633	800.000	-0.029	0.110
-150.618	-22.016	-0.264	-0.158
-149.604	235.853	-0.137	-0.223
-148.589	26.049	0.236	-0.195
-147.574	2.896	-0.100	-0.071
-146.560	9.862	-0.318	-0.239
-145.545	-88.381	0.180	0.053
-144.531	23.047	-0.145	-0.117
-143.516	800.000	0.051	-0.211
-142.502	120.194	0.075	0.092
-141.487	166.316	-0.126	0.176
-140.472	-200.000	-0.037	0.288
-139.458	-88.565	0.254	-0.075
-138.443	-85.992	-0.111	-0.034
-137.429	38.678	-0.063	0.056
-136.414	-200.000	0.010	-0.102
-135.399	35.122	0.106	0.091
-134.385	32.915	-0.065	0.056
-133.370	-65.329	-0.126	-0.050
-132.356	280.163	0.135	-0.238
-131.341	400.402	-0.048	0.099
-130.326	-153.949	-0.164	0.011
-129.312	-129.660	-0.274	-0.037
-128.297	800.000	-0.059	0.189
-127.283	-200.000	0.000	0.146
-126.268	-200.000	0.021	-0.108
-125.253	-43.176	0.060	-0.030
-124.239	-176.313	0.135	-0.003
-123.224	-85.799	0.249	0.076
-122.210	-74.569	0.425	0.151
-121.195	-200.000	0.002	0.040
