DTS Sentinel unit serial number:	SN413079Multiplexer serial number:	ORYXHardware model number:	OX4-SRSoftware version number:	ORYX F/W v4.00 Oryx Data Collector v3.7.2.0data status	okinstallation	princeton_trtdifferential loss correction	single-endedforward channel	channel 4reverse channel	N/Adate	2019/09/12time	06:39:11forward acquisition time	60.00reverse acquisition time	0.00gamma	496.2192k internal	0.2307k external	0.2307temperature offset calibration	1.0063default loss term (dB/km)	0.3790temperature slope calibration	1.0000multiplexer offset coefficient	1.0000multiplexer slope coefficient	1.0000fibre end	0.00T internal ref (°C)	32.16T ext. ref 1 (°C)	1.57T ext. ref 2 (°C)	27.15length (m)	temperature (°C)	Stokes	anti-Stokes-747.200	27.281	-0.245	0.209
-746.185	-143.405	-0.356	0.035
-745.171	144.541	-0.114	0.155
-744.156	-41.205	-0.214	0.112
-743.142	-200.000	-0.013	-0.102
-742.127	235.659	-0.307	0.516
-741.112	-126.266	-0.113	-0.017
-740.098	-123.444	-0.252	-0.041
-739.083	7.395	-0.242	0.184
-738.069	10.125	-0.090	0.069
-737.054	-19.108	0.019	-0.012
-736.039	-98.171	-0.201	-0.052
-735.025	173.878	-0.186	0.273
-734.010	-126.385	-0.315	0.048
-732.996	187.289	-0.075	0.113
-731.981	-141.370	-0.235	-0.024
-730.966	800.000	0.133	-0.465
-729.952	-11.559	-0.131	-0.088
-728.937	30.500	-0.060	0.052
-727.923	97.102	0.173	0.201
-726.908	229.021	-0.327	0.542
-725.894	-200.000	0.043	-0.253
-724.879	-98.865	-0.154	0.040
-723.864	495.414	0.109	-0.255
-722.850	-140.564	0.197	0.021
-721.835	-143.990	-0.236	0.023
-720.821	54.215	0.200	-0.196
-719.806	54.358	0.058	-0.057
-718.791	-200.000	0.004	-0.297
-717.777	-163.395	0.213	-0.010
-716.762	-176.208	-0.189	-0.005
-715.748	-123.144	-0.421	-0.069
-714.733	377.830	0.094	-0.195
-713.718	-200.000	-0.020	-0.161
-712.704	46.643	-0.212	-0.200
-711.689	799.872	-0.114	0.319
-710.675	29.435	-0.105	0.090
-709.660	423.088	0.008	0.018
-708.645	121.307	-0.160	-0.202
-707.631	188.321	0.219	0.333
-706.616	-124.266	0.285	-0.045
-705.602	-131.618	-0.063	-0.008
-704.587	8.008	0.212	0.162
-703.572	-62.659	-0.215	0.091
-702.558	-200.000	0.022	0.156
-701.543	-178.752	0.142	0.003
-700.529	162.061	0.056	0.080
-699.514	168.342	0.161	0.233
-698.499	-30.443	0.254	0.146
-697.485	-72.968	-0.211	-0.079
-696.470	67.839	0.125	-0.130
-695.456	-52.075	-0.189	0.089
-694.441	-148.652	0.289	-0.024
-693.426	-60.591	0.278	-0.120
-692.412	261.564	-0.159	-0.280
-691.397	93.905	-0.236	0.272
-690.383	114.588	-0.105	0.130
-689.368	116.848	0.068	-0.085
-688.354	-61.795	0.155	0.066
-687.339	-123.353	-0.425	0.069
-686.324	-105.396	-0.088	-0.020
-685.310	-30.982	0.342	-0.196
-684.295	40.744	-0.285	0.260
-683.281	-200.000	0.023	-0.149
-682.266	245.838	-0.083	-0.141
-681.251	-116.700	-0.343	-0.064
-680.237	270.524	-0.098	-0.176
-679.222	61.912	0.105	-0.106
-678.208	-153.189	0.073	-0.005
-677.193	-200.000	0.035	-0.232
-676.178	-100.416	-0.096	0.024
-675.164	28.876	0.309	-0.266
-674.149	-112.889	-0.207	0.042
-673.135	-38.607	-0.062	0.033
-672.120	800.000	-0.109	0.328
-671.105	232.124	0.177	0.294
-670.091	-91.914	0.227	0.065
-669.076	463.873	-0.065	0.146
-668.062	92.948	-0.321	-0.367
-667.047	48.568	0.084	-0.080
-666.032	800.000	0.048	0.181
-665.018	800.000	-0.008	0.025
-664.003	286.526	-0.158	-0.289
-662.989	71.997	0.115	-0.122
-661.974	-158.235	-0.318	-0.019
-660.959	-200.000	-0.024	-0.112
-659.945	82.537	-0.117	0.129
-658.930	-200.000	-0.005	-0.289
-657.916	336.923	0.130	0.256
-656.901	413.928	0.089	0.192
-655.886	130.228	-0.209	0.272
-654.872	295.470	0.077	-0.144
-653.857	-128.927	-0.300	-0.043
-652.843	-12.321	-0.198	-0.131
-651.828	118.900	-0.081	0.102
-650.814	-200.000	-0.025	-0.329
-649.799	594.715	0.073	-0.182
-648.784	44.143	0.139	-0.129
-647.770	-137.390	-0.293	0.034
-646.755	-200.000	-0.026	-0.295
-645.741	-142.610	-0.428	-0.042
-644.726	125.681	0.235	-0.300
-643.711	-175.334	0.357	-0.010
-642.697	-158.801	0.142	0.008
-641.682	-25.825	-0.154	-0.092
-640.668	800.000	-0.027	-0.087
-639.653	-200.000	0.015	0.281
-638.638	-77.200	0.274	-0.097
-637.624	255.007	-0.094	-0.163
-636.609	108.253	0.142	-0.171
-635.595	19.676	-0.025	-0.020
-634.580	29.141	0.163	-0.140
-633.565	559.436	0.104	0.255
-632.551	-152.173	0.286	-0.021
-631.536	-21.494	-0.139	0.086
-630.522	163.524	-0.115	-0.164
-629.507	62.685	-0.201	-0.203
-628.492	-128.327	-0.265	0.038
-627.478	-4.684	0.326	-0.227
-626.463	388.135	-0.044	-0.093
-625.449	87.198	-0.238	0.267
-624.434	-200.000	0.075	0.385
-623.419	-2.349	0.158	-0.112
-622.405	23.643	0.297	0.248
-621.390	-34.333	0.083	-0.046
-620.376	-200.000	-0.043	-0.425
-619.361	-200.000	-0.010	-0.101
-618.346	134.173	-0.058	0.077
-617.332	322.058	-0.101	0.194
-616.317	174.862	0.148	-0.217
-615.303	7.417	0.099	-0.075
-614.288	-200.000	0.006	0.128
-613.273	106.679	0.165	0.198
-612.259	57.407	0.310	-0.306
-611.244	-168.192	-0.329	-0.013
-610.230	755.594	0.153	0.418
-609.215	420.442	-0.134	0.290
-608.201	-156.526	0.235	-0.015
-607.186	-70.632	-0.225	0.086
-606.171	-200.000	-0.003	-0.097
-605.157	-144.866	-0.176	0.016
-604.142	402.330	-0.054	0.115
-603.128	28.533	0.235	-0.201
-602.113	121.091	-0.121	0.152
-601.098	780.206	-0.096	-0.266
-600.084	-97.927	-0.207	-0.054
-599.069	-200.000	0.058	-0.418
-598.055	-200.000	0.020	-0.303
-597.040	-200.000	0.000	-0.272
-596.025	-9.447	0.115	-0.078
-595.011	449.856	-0.043	0.096
-593.996	-200.000	-0.028	0.282
-592.982	646.086	-0.126	0.326
-591.967	-200.000	-0.039	-0.329
-590.952	36.432	-0.235	-0.209
-589.938	-18.873	-0.131	-0.082
-588.923	800.000	0.040	-0.123
-587.909	63.188	0.212	0.214
-586.894	-81.308	0.303	-0.101
-585.879	-80.824	0.323	-0.108
-584.865	-170.148	-0.464	0.017
-583.850	800.000	0.102	0.299
-582.836	-42.143	-0.117	-0.060
-581.821	-5.653	-0.192	-0.133
-580.806	-51.208	-0.085	0.040
-579.792	488.639	0.194	0.447
-578.777	-174.138	0.392	0.012
-577.763	-200.000	0.037	0.202
-576.748	103.672	0.361	-0.428
-575.733	229.507	0.128	0.211
-574.719	800.000	0.045	-0.197
-573.704	243.989	0.065	0.111
-572.690	-200.000	-0.010	0.197
-571.675	-158.086	-0.038	0.002
-570.661	-200.000	-0.079	0.353
-569.646	220.466	0.277	0.449
-568.631	163.850	-0.047	-0.067
-567.617	316.262	-0.058	-0.111
-566.602	-47.928	-0.311	-0.152
-565.588	800.000	0.055	-0.194
-564.573	212.144	-0.188	-0.299
-563.558	-148.118	0.159	-0.013
-562.544	-183.569	0.170	0.003
-561.529	81.987	0.015	-0.016
-560.515	-31.424	-0.080	-0.046
-559.500	38.138	-0.120	-0.107
-558.485	-81.188	0.287	-0.096
-557.471	-53.348	-0.153	-0.071
-556.456	33.660	-0.168	0.147
-555.442	-132.423	0.463	-0.060
-554.427	-5.819	0.133	0.092
-553.412	154.685	0.129	0.179
-552.398	-93.613	-0.346	-0.096
-551.383	607.419	0.028	-0.070
-550.369	6.005	0.155	-0.116
-549.354	-70.621	0.137	-0.052
-548.339	-200.000	-0.055	-0.251
-547.325	-61.975	-0.343	-0.145
-546.310	-200.000	0.270	0.001
-545.296	800.000	-0.033	-0.114
-544.281	-12.538	0.045	-0.030
-543.266	270.837	0.163	-0.289
-542.252	-31.611	-0.056	0.032
-541.237	-67.450	-0.225	0.089
-540.223	800.000	0.073	-0.212
-539.208	-70.936	-0.191	-0.073
-538.193	-200.000	-0.005	-0.090
-537.179	-200.000	0.020	-0.235
-536.164	-88.880	0.109	-0.032
-535.150	-37.997	-0.089	-0.048
-534.135	5.432	-0.109	-0.081
-533.121	-20.586	-0.089	0.055
-532.106	367.470	0.059	0.120
-531.091	228.001	-0.085	-0.140
-530.077	45.374	-0.146	0.136
-529.062	-63.964	-0.128	-0.053
-528.048	-76.407	0.191	0.068
-527.033	64.399	0.071	-0.072
-526.018	-1.906	-0.407	0.288
-525.004	-200.000	-0.051	0.235
-523.989	507.194	-0.066	0.154
-522.975	74.766	0.101	-0.107
-521.960	800.000	0.071	0.312
-520.945	-85.113	-0.213	0.067
-519.931	800.000	0.038	0.111
-518.916	800.000	0.063	0.221
-517.902	-89.101	-0.337	0.100
-516.887	661.005	-0.041	0.108
-515.872	55.358	-0.105	0.102
-514.858	-200.000	0.224	0.000
-513.843	800.000	-0.033	-0.125
-512.829	-200.000	-0.007	-0.386
-511.814	-200.000	0.027	0.267
-510.799	-82.340	0.272	-0.089
-509.785	81.640	-0.045	0.049
-508.770	800.000	0.082	0.302
-507.756	800.000	-0.036	0.103
-506.741	271.857	-0.110	-0.195
-505.726	-27.647	-0.234	-0.137
-504.712	65.790	0.060	-0.062
-503.697	-55.325	0.132	-0.060
-502.683	224.655	-0.134	-0.218
-501.668	566.381	0.112	0.275
-500.653	-7.410	-0.312	-0.213
-499.639	-44.552	-0.026	0.013
-498.624	41.792	0.235	0.214
-497.610	-97.828	0.171	0.045
-496.595	102.600	0.083	-0.098
-495.581	114.896	-0.155	-0.191
-494.566	-200.000	0.010	-0.106
-493.551	-25.710	0.152	-0.090
-492.537	-112.862	-0.356	-0.071
-491.522	-200.000	0.006	0.054
-490.508	-112.692	0.172	0.034
-489.493	584.075	0.082	0.203
-488.478	21.113	0.135	-0.110
-487.464	33.332	0.175	-0.153
-486.449	-200.000	-0.056	0.267
-485.435	-200.000	-0.032	-0.225
-484.420	-129.142	-0.456	0.064
-483.405	-200.000	0.058	-0.469
-482.391	239.385	-0.129	0.216
-481.376	-27.683	0.219	0.128
-480.362	-200.000	-0.019	0.138
-479.347	-51.549	0.184	-0.087
-478.332	-75.449	0.124	0.044
-477.318	-159.820	-0.364	0.020
-476.303	800.000	0.097	-0.271
-475.289	800.000	-0.034	-0.127
-474.274	-200.000	0.053	0.278
-473.259	-200.000	-0.026	-0.209
-472.245	-200.000	0.007	0.099
-471.230	227.534	0.080	-0.130
-470.216	-200.000	0.038	-0.180
-469.201	-8.859	0.160	0.108
-468.186	800.000	0.074	0.278
-467.172	-200.000	-0.017	-0.209
-466.157	-79.169	0.171	0.058
-465.143	31.554	0.189	0.163
-464.128	-200.000	0.005	-0.055
-463.113	569.463	0.251	-0.613
-462.099	120.395	0.057	0.071
-461.084	-200.000	-0.025	-0.535
-460.070	33.749	0.214	0.187
-459.055	-151.772	-0.219	-0.016
-458.040	800.000	0.037	-0.141
-457.026	406.571	0.058	-0.124
-456.011	-78.970	0.327	-0.112
-454.997	21.374	-0.228	0.186
-453.982	420.575	-0.158	0.341
-452.968	37.805	0.111	-0.099
-451.953	800.000	0.057	-0.193
-450.938	-76.033	0.170	0.060
-449.924	-0.731	0.142	-0.101
-448.909	-200.000	0.022	-0.149
-447.895	-54.448	0.241	0.110
-446.880	-89.163	-0.041	-0.012
-445.865	800.000	-0.039	-0.109
-444.851	31.051	0.136	0.118
-443.836	-69.559	-0.092	-0.035
-442.822	49.246	0.161	-0.153
-441.807	223.777	-0.035	0.057
-440.792	-130.124	-0.175	0.024
-439.778	800.000	-0.013	0.044
-438.763	-72.843	0.118	0.044
-437.749	800.000	0.105	-0.299
-436.734	-200.000	-0.016	0.202
-435.719	720.485	-0.212	-0.566
-434.705	-32.577	-0.132	-0.074
-433.690	790.669	0.234	0.645
-432.676	800.000	0.034	0.106
-431.661	90.947	-0.225	-0.254
-430.646	106.082	0.043	-0.051
-429.632	-26.739	-0.411	-0.241
-428.617	-145.373	-0.208	-0.019
-427.603	160.614	-0.248	0.347
-426.588	-91.975	0.275	0.078
-425.573	37.844	0.195	-0.174
-424.559	800.000	0.015	0.056
-423.544	-200.000	-0.026	-0.121
-422.530	-200.000	0.034	-0.216
-421.515	-64.750	-0.390	-0.158
-420.500	-125.528	0.346	-0.053
-419.486	-128.916	-0.134	0.019
-418.471	55.808	-0.303	0.295
-417.457	66.358	0.202	0.206
-416.442	6.007	-0.160	-0.119
-415.428	182.969	0.013	0.019
-414.413	-51.172	-0.182	-0.085
-413.398	75.086	0.172	0.182
-412.384	267.024	0.151	-0.265
-411.369	104.927	-0.114	-0.135
-410.355	93.919	-0.104	-0.118
-409.340	-200.000	0.003	-0.406
-408.325	-69.894	0.392	-0.150
-407.311	208.391	-0.047	0.073
-406.296	73.701	-0.125	-0.131
-405.282	-42.629	0.276	-0.141
-404.267	309.211	-0.234	0.439
-403.252	-58.327	0.228	-0.100
-402.238	800.000	0.043	0.185
-401.223	-78.554	-0.137	-0.047
-400.209	-65.061	0.389	-0.158
-399.194	223.228	-0.175	-0.284
-398.179	135.908	-0.184	-0.241
-397.165	-46.261	-0.137	-0.068
-396.150	800.000	-0.039	-0.150
-395.136	800.000	-0.038	-0.139
-394.121	-198.141	0.177	-0.001
-393.106	-94.696	-0.194	0.053
-392.092	56.255	0.111	0.108
-391.077	800.000	-0.054	-0.202
-390.063	265.170	-0.140	0.244
-389.048	-112.667	0.170	0.034
-388.033	63.270	0.311	-0.313
-387.019	521.988	0.066	0.156
-386.004	-127.536	-0.122	0.018
-384.990	693.815	0.080	0.210
-383.975	93.995	-0.147	0.168
-382.960	16.737	-0.174	0.138
-381.946	13.184	-0.257	0.200
-380.931	-164.185	0.143	-0.007
-379.917	-78.108	0.037	-0.013
-378.902	-67.935	-0.306	-0.120
-377.888	-73.161	0.103	-0.038
-376.873	-200.000	0.043	0.260
-375.858	40.475	0.069	-0.062
-374.844	197.856	0.113	-0.174
-373.829	-122.537	-0.132	-0.021
-372.815	29.908	0.209	-0.178
-371.800	388.651	-0.067	-0.139
-370.785	-200.000	0.022	0.332
-369.771	800.000	-0.060	-0.200
-368.756	307.093	0.022	0.042
-367.742	800.000	-0.021	-0.062
-366.727	-138.550	-0.165	0.018
-365.712	62.413	-0.100	-0.101
-364.698	800.000	0.070	-0.264
-363.683	177.307	0.133	0.194
-362.669	-200.000	0.035	0.188
-361.654	-90.590	-0.110	0.032
-360.639	-137.805	0.035	0.004
-359.625	-42.315	0.239	0.122
-358.610	653.277	-0.174	-0.446
-357.596	-131.106	-0.545	-0.073
-356.581	-135.273	-0.273	0.033
-355.566	636.077	-0.125	0.318
-354.552	-157.458	0.275	-0.017
-353.537	-138.167	0.416	0.046
-352.523	-200.000	0.055	0.261
-351.508	619.341	-0.011	0.028
-350.493	35.517	-0.404	0.355
-349.479	800.000	-0.040	0.137
-348.464	34.028	0.301	0.263
-347.450	579.937	0.090	0.221
-346.435	-200.000	0.072	-0.343
-345.420	34.808	0.059	0.051
-344.406	800.000	0.040	-0.136
-343.391	335.886	-0.029	-0.056
-342.377	43.894	0.083	-0.076
-341.362	-150.734	-0.352	-0.027
-340.348	800.000	0.048	0.169
-339.333	-200.000	0.020	0.619
-338.318	-21.828	0.219	-0.133
-337.304	137.364	-0.102	0.133
-336.289	20.927	-0.155	0.126
-335.275	-200.000	0.001	0.168
-334.260	-200.000	0.033	-0.177
-333.245	646.270	-0.046	-0.118
-332.231	160.952	-0.245	0.342
-331.216	5.776	0.214	0.158
-330.202	92.096	-0.037	0.042
-329.187	-87.556	-0.265	0.080
-328.172	-51.324	-0.107	0.050
-327.158	-79.544	0.020	-0.007
-326.143	-102.301	0.255	0.061
-325.129	89.150	-0.065	0.073
-324.114	-61.829	0.201	0.084
-323.099	-200.000	-0.026	0.138
-322.085	-161.913	-0.090	-0.005
-321.070	-200.000	0.010	-0.339
-320.056	-60.733	-0.050	0.021
-319.041	-122.162	-0.126	-0.021
-318.026	23.466	0.294	0.242
-317.012	-200.000	-0.013	-0.167
-315.997	-45.507	-0.275	-0.136
-314.983	-200.000	-0.059	0.445
-313.968	46.126	0.047	-0.044
-312.953	-38.638	0.323	0.170
-311.939	-200.000	0.020	-0.456
-310.924	-113.456	0.311	-0.061
-309.910	58.126	0.176	-0.172
-308.895	-138.645	0.154	0.017
-307.880	47.484	0.066	-0.062
-306.866	-200.000	0.015	0.208
-305.851	47.460	-0.083	0.078
-304.837	-200.000	0.007	-0.370
-303.822	-75.422	0.309	-0.110
-302.807	-139.229	-0.142	-0.015
-301.793	-178.231	-0.109	0.003
-300.778	352.641	-0.099	0.195
-299.764	-200.000	0.092	0.506
-298.749	-151.710	-0.216	-0.016
-297.735	18.378	0.130	0.104
-296.720	58.051	-0.309	0.302
-295.705	-200.000	-0.021	-0.167
-294.691	323.078	-0.021	0.040
-293.676	344.440	-0.231	0.452
-292.662	-151.498	0.088	-0.007
-291.647	-200.000	-0.088	-0.400
-290.632	679.350	-0.023	0.059
-289.618	439.960	-0.032	-0.069
-288.603	71.762	0.235	-0.244
-287.589	-28.798	0.258	0.148
-286.574	181.805	0.072	-0.106
-285.559	211.802	0.055	-0.086
-284.545	73.560	0.167	0.175
-283.530	-1.328	-0.219	0.155
-282.516	-23.395	-0.022	-0.013
-281.501	-36.117	-0.279	-0.150
-280.486	-200.000	-0.056	-0.267
-279.472	-79.464	-0.249	0.084
-278.457	-70.416	-0.042	0.016
-277.443	85.372	-0.186	0.204
-276.428	-85.050	-0.210	-0.066
-275.413	176.481	-0.126	-0.183
-274.399	-95.709	-0.075	0.020
-273.384	-135.733	0.091	-0.011
-272.370	4.034	0.039	-0.028
-271.355	-157.945	0.193	-0.011
-270.340	-146.836	0.091	-0.008
-269.326	-177.822	-0.175	0.004
-268.311	-200.000	-0.091	-0.434
-267.297	-128.454	0.114	0.016
-266.282	-35.304	-0.193	0.104
-265.267	598.517	0.051	-0.127
-264.253	-200.000	0.057	-0.384
-263.238	54.499	0.150	0.144
-262.224	163.572	0.095	-0.133
-261.209	258.672	0.093	0.160
-260.195	-200.000	-0.008	-0.161
-259.180	123.471	-0.296	-0.371
-258.165	199.275	-0.270	0.413
-257.151	-70.604	0.289	0.109
-256.136	800.000	-0.068	0.285
-255.122	123.055	-0.165	0.205
-254.107	800.000	0.059	0.174
-253.092	294.832	0.108	0.197
-252.078	371.903	-0.146	0.296
-251.063	-73.333	0.451	0.165
-250.049	373.720	0.180	0.366
-249.034	44.659	-0.085	0.078
-248.019	800.000	-0.038	0.134
-247.005	31.650	-0.286	0.245
-245.990	135.889	0.376	-0.488
-244.976	-200.000	0.044	-0.260
-243.961	-56.813	-0.195	-0.086
-242.946	-172.157	-0.285	-0.009
-241.932	-58.731	0.179	0.077
-240.917	677.446	0.092	0.238
-239.903	48.488	0.298	-0.279
-238.888	-40.105	0.230	-0.119
-237.873	-150.337	0.071	0.005
-236.859	293.396	0.026	0.046
-235.844	-49.317	-0.241	-0.115
-234.830	157.378	-0.113	0.156
-233.815	-68.517	-0.280	0.108
-232.800	-106.460	-0.176	-0.039
-231.786	-200.000	0.002	0.256
-230.771	-9.745	-0.128	0.085
-229.757	535.035	-0.095	0.224
-228.742	-144.378	0.230	-0.021
-227.727	800.000	0.072	0.215
-226.713	-200.000	-0.031	0.197
-225.698	425.584	0.040	-0.086
-224.684	800.000	-0.119	-0.393
-223.669	-200.000	-0.044	0.606
-222.655	170.229	-0.105	-0.150
-221.640	58.603	-0.093	0.091
-220.625	-31.064	-0.264	-0.148
-219.611	142.492	0.112	-0.147
-218.596	-81.018	-0.378	0.125
-217.582	-130.422	0.190	0.026
-216.567	351.410	0.079	0.156
-215.552	-117.322	0.128	0.023
-214.538	-67.801	-0.218	-0.085
-213.523	33.562	0.202	-0.175
-212.509	-95.314	0.343	0.092
-211.494	749.558	0.061	-0.165
-210.479	-200.000	0.012	0.063
-209.465	-50.915	0.224	-0.105
-208.450	800.000	0.041	0.122
-207.436	800.000	0.040	-0.150
-206.421	-200.000	-0.008	-0.410
-205.406	483.625	-0.056	0.126
-204.392	800.000	-0.138	0.524
-203.377	-71.734	-0.151	0.056
-202.363	456.087	-0.161	0.356
-201.348	-200.000	-0.022	0.158
-200.333	84.626	-0.084	0.091
-199.319	528.621	0.084	0.197
-198.304	-9.514	-0.250	0.166
-197.290	300.295	-0.038	-0.070
-196.275	800.000	-0.104	-0.385
-195.260	800.000	-0.024	-0.094
-194.246	-28.985	-0.231	-0.132
-193.231	132.514	0.171	-0.220
-192.217	-82.057	-0.167	-0.054
-191.202	185.885	0.180	-0.266
-190.187	-115.160	-0.583	0.110
-189.173	434.900	0.120	0.260
-188.158	-36.842	0.202	-0.108
-187.144	800.000	-0.089	0.247
-186.129	-62.708	0.397	-0.164
-185.114	-144.197	-0.033	0.003
-184.100	-200.000	-0.015	0.238
-183.085	-68.153	-0.279	-0.108
-182.071	-97.139	-0.108	-0.028
-181.056	-200.000	-0.005	0.245
-180.042	-62.835	-0.342	-0.141
-179.027	40.585	0.056	0.050
-178.012	-199.117	0.424	0.002
-176.998	-79.254	0.506	0.171
-175.983	0.227	-0.341	0.242
-174.969	83.411	-0.292	-0.316
-173.954	-186.947	-0.320	-0.004
-172.939	341.044	0.096	0.187
-171.925	96.082	-0.221	0.252
-170.910	87.676	0.350	0.385
-169.896	55.818	-0.080	0.077
-168.881	800.000	-0.030	-0.121
-167.866	70.953	-0.119	-0.122
-166.852	-156.235	0.408	0.025
-165.837	-177.670	0.490	-0.012
-164.823	800.000	-0.011	0.036
-163.808	-87.707	-0.131	0.039
-162.793	-101.457	-0.221	0.054
-161.779	-200.000	0.093	0.000
-160.764	152.971	0.141	-0.191
-159.750	-177.904	0.039	0.001
-158.735	129.016	-0.187	-0.237
-157.720	800.000	0.077	0.319
-156.706	-7.732	0.227	0.153
-155.691	16.527	0.249	-0.195
-154.677	-14.048	-0.272	0.175
-153.662	11.205	-0.036	0.027
-152.647	85.448	0.099	-0.108
-151.633	-185.782	-0.462	0.007
-150.618	187.637	0.098	-0.146
-149.604	-62.024	0.345	0.143
-148.589	800.000	-0.074	-0.281
-147.574	60.992	-0.213	0.210
-146.560	90.823	-0.130	-0.145
-145.545	-91.668	0.311	-0.088
-144.531	-100.861	-0.210	-0.051
-143.516	-200.000	-0.009	0.088
-142.502	57.279	0.213	0.207
-141.487	-195.880	-0.257	0.002
-140.472	101.753	-0.150	-0.174
-139.458	-75.497	-0.361	-0.127
-138.443	333.601	-0.109	0.209
-137.429	361.249	0.099	-0.197
-136.414	294.435	-0.219	0.397
-135.399	151.315	0.158	0.214
-134.385	8.584	0.025	-0.019
-133.370	128.135	-0.116	-0.147
-132.356	-49.982	0.059	-0.028
-131.341	-69.249	-0.034	0.013
-130.326	30.466	0.150	-0.127
-129.312	57.287	-0.195	-0.189
-128.297	-62.837	0.053	0.022
-127.283	337.545	-0.135	0.261
-126.268	22.974	0.172	0.140
-125.253	460.893	0.098	0.216
-124.239	31.251	-0.152	-0.129
-123.224	-84.282	0.135	-0.042
-122.210	-23.615	-0.266	0.159
-121.195	-74.305	-0.291	0.104
