DTS Sentinel unit serial number:	SN413079Multiplexer serial number:	ORYXHardware model number:	OX4-SRSoftware version number:	ORYX F/W v4.00 Oryx Data Collector v3.7.2.0data status	okinstallation	princeton_trtdifferential loss correction	single-endedforward channel	channel 4reverse channel	N/Adate	2019/09/11time	07:39:11forward acquisition time	60.00reverse acquisition time	0.00gamma	496.2192k internal	0.2308k external	0.2308temperature offset calibration	0.9944default loss term (dB/km)	0.3790temperature slope calibration	1.0000multiplexer offset coefficient	1.0000multiplexer slope coefficient	1.0000fibre end	0.00T internal ref (°C)	31.39T ext. ref 1 (°C)	-0.04T ext. ref 2 (°C)	27.83length (m)	temperature (°C)	Stokes	anti-Stokes-747.200	-200.000	-0.060	-0.431
-746.185	15.383	0.091	0.072
-745.171	800.000	-0.049	0.216
-744.156	12.197	-0.135	0.105
-743.142	-118.276	-0.206	0.037
-742.127	56.194	0.124	0.123
-741.112	800.000	-0.034	0.127
-740.098	532.650	-0.117	0.282
-739.083	-139.259	-0.115	0.013
-738.069	99.303	0.250	0.294
-737.054	-200.000	0.031	0.140
-736.039	-16.877	-0.130	0.084
-735.025	144.944	0.134	0.183
-734.010	44.194	-0.128	0.119
-732.996	-108.696	0.233	-0.051
-731.981	205.837	-0.162	-0.257
-730.966	-11.866	-0.128	-0.085
-729.952	134.778	0.173	0.228
-728.937	407.945	-0.100	-0.215
-727.923	126.861	-0.126	-0.163
-726.908	-47.133	0.100	0.050
-725.894	112.961	-0.113	0.139
-724.879	25.961	0.259	-0.219
-723.864	-200.000	-0.062	-0.387
-722.850	-106.941	-0.193	0.043
-721.835	79.262	0.316	-0.344
-720.821	800.000	0.083	-0.246
-719.806	145.915	0.199	-0.271
-718.791	-13.215	-0.221	0.146
-717.777	-200.000	0.019	0.156
-716.762	800.000	-0.055	0.164
-715.748	-200.000	0.032	0.176
-714.733	169.336	0.155	0.225
-713.718	-130.836	-0.306	0.042
-712.704	-153.112	-0.369	-0.026
-711.689	-111.511	-0.498	-0.103
-710.675	-155.698	0.254	-0.016
-709.660	123.359	-0.129	-0.165
-708.645	-200.000	-0.042	-0.241
-707.631	-59.028	-0.139	-0.061
-706.616	-150.030	0.135	0.011
-705.602	-91.218	0.470	-0.137
-704.587	800.000	-0.018	0.053
-703.572	339.913	-0.023	0.046
-702.558	-200.000	0.000	0.065
-701.543	-91.136	0.383	-0.112
-700.529	-200.000	0.284	0.000
-699.514	-200.000	-0.007	0.113
-698.499	15.440	-0.219	0.174
-697.485	-200.000	-0.023	-0.174
-696.470	-200.000	-0.015	-0.068
-695.456	109.890	0.059	0.072
-694.441	170.423	-0.163	-0.237
-693.426	40.625	-0.139	0.127
-692.412	800.000	-0.088	0.304
-691.397	800.000	-0.032	-0.120
-690.383	-2.279	0.137	0.098
-689.368	-200.000	0.057	0.336
-688.354	800.000	-0.045	-0.196
-687.339	-63.358	-0.212	-0.089
-686.324	-17.127	-0.211	-0.135
-685.310	227.355	-0.233	-0.384
-684.295	-77.184	0.413	-0.146
-683.281	365.836	-0.061	-0.125
-682.266	243.863	0.089	0.152
-681.251	8.045	-0.323	-0.245
-680.237	-132.857	0.150	0.019
-679.222	239.961	0.223	-0.377
-678.208	-51.538	0.184	0.087
-677.193	-47.412	0.204	-0.100
-676.178	-108.534	-0.054	0.012
-675.164	-184.851	-0.236	-0.004
-674.149	537.692	0.161	-0.387
-673.135	201.604	-0.027	-0.043
-672.120	-109.349	-0.173	0.037
-671.105	800.000	-0.090	-0.257
-670.091	800.000	0.064	0.213
-669.076	106.427	0.198	0.238
-668.062	-100.481	-0.277	0.070
-667.047	-170.388	-0.266	-0.009
-666.032	136.115	0.024	0.031
-665.018	120.354	-0.229	-0.288
-664.003	106.883	0.210	0.252
-662.989	800.000	0.042	-0.139
-661.974	-125.010	-0.281	0.044
-660.959	57.660	-0.129	-0.127
-659.945	800.000	0.087	-0.244
-658.930	-88.606	-0.120	0.036
-657.916	800.000	-0.063	0.240
-656.901	-200.000	-0.033	0.194
-655.886	61.949	-0.073	0.073
-654.872	800.000	-0.024	0.074
-653.857	-17.031	-0.297	-0.190
-652.843	-46.722	0.273	-0.135
-651.828	29.366	0.281	0.242
-650.814	-192.504	0.088	-0.001
-649.799	-28.226	0.209	-0.122
-648.784	800.000	0.074	-0.272
-647.770	-145.268	0.295	-0.027
-646.755	6.700	-0.265	-0.199
-645.741	-200.000	-0.008	-0.339
-644.726	-44.467	-0.218	-0.110
-643.711	-146.586	0.187	0.016
-642.697	-63.094	-0.166	0.069
-641.682	7.790	0.153	0.116
-640.668	-146.806	-0.091	-0.008
-639.653	-154.427	0.210	-0.014
-638.638	22.716	-0.070	-0.058
-637.624	301.992	0.063	-0.118
-636.609	219.211	0.219	-0.355
-635.595	25.748	-0.231	-0.195
-634.580	-13.586	-0.124	-0.081
-633.565	-49.289	0.135	-0.065
-632.551	87.641	0.135	0.152
-631.536	72.317	-0.146	0.154
-630.522	1.618	0.115	-0.083
-629.507	315.443	0.087	0.166
-628.492	-35.020	-0.218	0.120
-627.478	-51.927	-0.214	-0.100
-626.463	191.692	-0.052	0.080
-625.449	407.931	-0.059	0.126
-624.434	-142.204	-0.365	-0.037
-623.419	-49.324	0.096	0.047
-622.405	-30.286	0.351	-0.202
-621.390	-48.176	-0.324	-0.158
-620.376	-200.000	0.016	-0.193
-619.361	-200.000	0.007	0.289
-618.346	91.494	-0.044	-0.050
-617.332	-200.000	0.047	0.214
-616.317	-200.000	-0.013	-0.132
-615.303	123.307	0.089	0.112
-614.288	27.858	0.357	-0.304
-613.273	800.000	-0.124	-0.397
-612.259	21.786	-0.076	-0.063
-611.244	9.971	0.076	0.058
-610.230	800.000	0.078	-0.314
-609.215	-200.000	0.056	0.261
-608.201	-83.049	-0.250	0.081
-607.186	79.264	0.062	0.067
-606.171	-80.600	0.323	-0.109
-605.157	-42.581	0.308	0.159
-604.142	-82.647	-0.343	-0.112
-603.128	49.474	-0.095	-0.090
-602.113	-27.633	0.153	-0.090
-601.098	718.713	0.046	-0.125
-600.084	170.715	-0.241	0.348
-599.069	-124.602	-0.250	-0.039
-598.055	-30.578	-0.119	0.068
-597.040	30.400	-0.137	-0.118
-596.025	-129.780	-0.224	-0.031
-595.011	109.540	0.322	0.389
-593.996	800.000	-0.025	0.083
-592.982	-112.203	0.063	-0.013
-591.967	41.923	0.457	0.419
-590.952	800.000	0.101	0.339
-589.938	-200.000	0.026	-0.447
-588.923	-200.000	0.029	-0.383
-587.909	800.000	-0.048	-0.137
-586.894	660.845	0.053	-0.138
-585.879	-200.000	0.034	-0.352
-584.865	554.248	-0.196	0.475
-583.850	-125.905	0.406	-0.062
-582.836	89.460	-0.098	0.111
-581.821	400.432	0.093	-0.197
-580.806	-85.227	-0.278	-0.088
-579.792	-68.692	0.030	-0.012
-578.777	-200.000	0.001	-0.169
-577.763	-161.879	0.170	-0.009
-576.748	132.284	0.143	-0.186
-575.733	-200.000	0.023	0.163
-574.719	198.557	-0.275	-0.426
-573.704	344.022	-0.111	-0.220
-572.690	800.000	0.058	-0.193
-571.675	800.000	-0.062	0.191
-570.661	287.277	0.046	0.083
-569.646	-90.477	0.148	-0.043
-568.631	56.653	-0.096	0.094
-567.617	-98.442	-0.061	-0.016
-566.602	559.208	-0.045	0.109
-565.588	-167.908	-0.084	0.003
-564.573	230.423	-0.130	0.214
-563.558	72.259	-0.132	-0.139
-562.544	776.188	0.033	-0.091
-561.529	-20.274	-0.147	-0.092
-560.515	31.344	0.052	0.045
-559.500	800.000	0.043	-0.188
-558.485	-200.000	0.031	0.565
-557.471	57.430	0.111	0.109
-556.456	800.000	-0.055	-0.172
-555.442	237.414	-0.152	-0.255
-554.427	800.000	0.066	0.196
-553.412	-200.000	-0.038	-0.206
-552.398	98.407	0.168	-0.195
-551.383	-200.000	0.004	0.040
-550.369	-200.000	-0.033	-0.368
-549.354	241.642	0.023	-0.039
-548.339	-200.000	0.014	0.179
-547.325	37.691	0.180	0.161
-546.310	97.714	-0.201	-0.233
-545.296	390.283	0.125	-0.261
-544.281	58.314	0.036	-0.035
-543.266	129.879	-0.093	-0.120
-542.252	108.919	-0.073	0.088
-541.237	76.452	0.115	0.123
-540.223	-81.340	0.130	-0.043
-539.208	11.721	-0.212	0.164
-538.193	-67.670	0.038	0.015
-537.179	-60.574	0.231	-0.099
-536.164	-73.362	0.075	0.028
-535.150	800.000	0.046	0.146
-534.135	798.892	0.077	-0.213
-533.121	106.362	0.264	-0.315
-532.106	82.849	0.088	0.097
-531.091	-19.331	-0.340	-0.213
-530.077	-58.434	0.043	0.019
-529.062	12.689	0.103	-0.080
-528.048	-35.370	-0.206	-0.113
-527.033	800.000	0.082	-0.248
-526.018	-74.990	-0.217	-0.078
-525.004	-98.784	0.242	-0.062
-523.989	-200.000	-0.001	0.135
-522.975	-58.992	0.098	-0.043
-521.960	35.529	-0.129	-0.114
-520.945	-139.174	-0.287	-0.031
-519.931	-172.562	-0.215	-0.007
-518.916	800.000	0.098	-0.300
-517.902	-19.511	-0.165	0.103
-516.887	-200.000	-0.044	-0.282
-515.872	38.822	0.078	-0.070
-514.858	5.891	-0.221	0.165
-513.843	-130.322	0.411	0.056
-512.829	800.000	0.075	0.231
-511.814	-200.000	-0.029	-0.255
-510.799	255.510	-0.176	0.303
-509.785	427.284	-0.123	0.267
-508.770	171.453	0.015	0.021
-507.756	-39.752	-0.096	-0.050
-506.741	-124.237	-0.520	-0.082
-505.726	141.280	-0.252	-0.336
-504.712	-142.576	0.416	-0.041
-503.697	-5.753	-0.270	0.186
-502.683	-200.000	0.009	0.202
-501.668	74.572	0.065	0.069
-500.653	348.104	-0.127	-0.251
-499.639	-141.826	-0.198	0.020
-498.624	-12.891	-0.236	-0.155
-497.610	335.701	0.217	-0.424
-496.595	201.964	-0.185	0.288
-495.581	-132.009	0.293	-0.038
-494.566	-82.996	0.264	-0.086
-493.551	-156.283	-0.458	-0.029
-492.537	-95.079	-0.341	-0.093
-491.522	-200.000	0.025	-0.188
-490.508	-200.000	-0.062	0.392
-489.493	92.636	-0.046	0.052
-488.478	26.064	-0.232	0.195
-487.464	-46.397	0.214	-0.106
-486.449	189.896	-0.122	0.185
-485.435	-132.372	-0.180	0.023
-484.420	348.663	-0.032	0.063
-483.405	237.502	-0.080	0.134
-482.391	675.114	0.083	-0.218
-481.376	278.220	-0.048	-0.086
-480.362	-110.633	0.157	0.033
-479.347	483.669	-0.173	-0.397
-478.332	321.094	-0.095	-0.181
-477.318	354.748	-0.078	-0.156
-476.303	800.000	-0.067	-0.239
-475.289	-54.868	-0.295	0.134
-474.274	80.895	-0.165	0.179
-473.259	304.403	0.072	-0.134
-472.245	-169.828	-0.162	0.006
-471.230	131.087	-0.122	0.158
-470.216	626.351	0.197	0.499
-469.201	150.733	0.113	0.154
-468.186	33.754	0.266	-0.233
-467.172	-200.000	-0.006	-0.050
-466.157	522.676	0.090	-0.212
-465.143	-147.155	0.254	0.022
-464.128	-129.114	-0.178	-0.025
-463.113	-134.310	0.282	0.035
-462.099	137.403	0.131	-0.173
-461.084	800.000	-0.082	0.356
-460.070	249.148	-0.096	-0.163
-459.055	269.634	0.100	-0.177
-458.040	-41.385	-0.048	-0.025
-457.026	-200.000	0.035	0.270
-456.011	54.192	0.124	-0.120
-454.997	269.411	-0.065	0.114
-453.982	-180.046	0.093	0.002
-452.968	2.457	0.207	0.151
-451.953	-200.000	-0.081	0.448
-450.938	-169.258	-0.309	-0.011
-449.924	11.637	0.250	0.193
-448.909	152.844	0.136	-0.186
-447.895	1.690	-0.186	-0.135
-446.880	800.000	0.122	-0.344
-445.865	-117.924	-0.074	-0.013
-444.851	800.000	-0.007	0.031
-443.836	-85.575	-0.101	0.032
-442.822	800.000	-0.005	0.015
-441.807	260.908	0.040	-0.070
-440.792	-17.048	-0.201	-0.127
-439.778	-26.566	0.207	0.122
-438.763	276.414	0.171	-0.305
-437.749	800.000	0.030	-0.120
-436.734	-65.147	0.121	0.049
-435.719	-200.000	-0.025	-0.232
-434.705	493.445	0.060	0.139
-433.690	-69.041	-0.183	-0.071
-432.676	73.542	0.262	0.275
-431.661	-200.000	0.000	-0.048
-430.646	12.408	-0.106	-0.082
-429.632	434.307	-0.319	-0.695
-428.617	800.000	-0.015	-0.046
-427.603	-69.210	0.120	-0.046
-426.588	-26.690	-0.342	0.201
-425.573	277.740	-0.156	0.279
-424.559	-174.613	0.317	-0.009
-423.544	254.102	-0.102	0.175
-422.530	1.525	0.190	0.137
-421.515	-90.780	-0.171	0.049
-420.500	215.977	-0.072	0.114
-419.486	-4.056	-0.103	-0.072
-418.471	-128.644	0.247	-0.035
-417.457	-200.000	-0.032	-0.179
-416.442	-200.000	-0.005	0.308
-415.428	-158.740	-0.035	0.002
-414.413	-200.000	-0.025	-0.111
-413.398	-81.680	0.160	0.053
-412.384	-200.000	-0.058	0.265
-411.369	-200.000	-0.018	-0.183
-410.355	-140.703	0.037	0.004
-409.340	216.125	0.124	0.198
-408.325	-89.725	-0.194	0.057
-407.311	800.000	0.059	0.206
-406.296	-19.328	-0.042	-0.026
-405.282	-200.000	-0.027	0.234
-404.267	-200.000	0.020	0.146
-403.252	-137.500	0.528	-0.060
-402.238	9.682	-0.230	0.175
-401.223	-122.655	-0.200	0.033
-400.209	99.327	-0.123	0.143
-399.194	62.416	-0.056	0.056
-398.179	-179.999	-0.145	0.003
-397.165	-37.601	0.067	-0.036
-396.150	-164.228	0.134	0.006
-395.136	-101.591	0.322	-0.078
-394.121	-179.376	-0.193	0.004
-393.106	35.667	-0.148	-0.131
-392.092	-114.517	-0.028	0.005
-391.077	43.995	-0.109	0.100
-390.063	-200.000	0.008	-0.084
-389.048	17.526	0.080	0.064
-388.033	-24.557	-0.132	-0.079
-387.019	-66.440	-0.159	-0.063
-386.004	-33.098	0.027	-0.015
-384.990	-200.000	-0.047	-0.229
-383.975	289.195	0.260	0.473
-382.960	-200.000	-0.041	0.400
-381.946	-200.000	0.011	0.060
-380.931	-200.000	0.022	-0.373
-379.917	-92.699	0.451	0.127
-378.902	800.000	0.096	-0.343
-377.888	73.383	-0.307	0.322
-376.873	36.024	0.103	-0.090
-375.858	-3.873	0.248	0.173
-374.844	43.502	0.189	0.173
-373.829	-59.779	0.294	-0.126
-372.815	140.833	0.266	0.352
-371.800	800.000	-0.011	-0.040
-370.785	-49.618	-0.396	0.189
-369.771	-200.000	0.013	-0.114
-368.756	-51.365	-0.094	0.044
-367.742	119.708	0.035	-0.044
-366.727	138.679	0.101	-0.133
-365.712	-68.463	-0.361	-0.140
-364.698	800.000	-0.053	0.154
-363.683	-33.655	0.218	-0.120
-362.669	-101.221	-0.266	-0.065
-361.654	-128.260	0.231	0.033
-360.639	676.766	-0.071	0.184
-359.625	800.000	-0.061	0.248
-358.610	-55.565	-0.161	-0.072
-357.596	19.474	0.156	-0.126
-356.581	98.747	-0.252	0.291
-355.566	153.462	-0.071	0.097
-354.552	148.721	0.104	-0.140
-353.537	449.399	-0.109	0.241
-352.523	-99.087	0.056	0.014
-351.508	-100.751	0.188	-0.046
-350.493	33.302	-0.150	0.130
-349.479	260.095	0.133	-0.231
-348.464	76.839	0.122	0.129
-347.450	-61.538	-0.214	-0.090
-346.435	-200.000	-0.000	0.317
-345.420	-89.266	0.032	0.009
-344.406	-171.825	0.156	0.005
-343.391	-139.731	-0.074	-0.008
-342.377	785.480	0.080	0.219
-341.362	98.042	0.023	-0.026
-340.348	-106.349	0.198	0.044
-339.333	133.256	0.029	0.038
-338.318	800.000	0.055	0.178
-337.304	29.319	0.143	0.122
-336.289	-93.118	0.277	0.077
-335.275	800.000	0.059	-0.250
-334.260	-129.032	0.137	-0.019
-333.245	-67.773	-0.099	-0.039
-332.231	-146.184	-0.335	0.029
-331.216	-122.889	-0.184	0.030
-330.202	312.695	-0.060	-0.113
-329.187	-75.053	-0.103	0.037
-328.172	-92.706	0.056	0.016
-327.158	-134.434	-0.454	-0.056
-326.143	-200.000	0.002	-0.031
-325.129	-200.000	0.005	-0.351
-324.114	-140.915	0.148	0.015
-323.099	-200.000	-0.002	0.201
-322.085	540.473	-0.097	-0.232
-321.070	800.000	-0.058	0.246
-320.056	141.182	0.050	-0.066
-319.041	175.026	0.228	0.330
-318.026	-54.602	-0.166	0.075
-317.012	-45.882	-0.099	-0.049
-315.997	-200.000	-0.031	0.389
-314.983	-200.000	0.019	0.182
-313.968	-200.000	0.016	-0.223
-312.953	176.042	-0.139	-0.202
-311.939	-15.378	-0.286	0.183
-310.924	-137.048	-0.101	-0.012
-309.910	-171.630	-0.366	0.012
-308.895	435.082	0.024	-0.051
-307.880	254.824	0.176	0.301
-306.866	98.789	-0.183	-0.211
-305.851	-200.000	-0.031	0.150
-304.837	800.000	0.023	-0.066
-303.822	361.420	0.157	0.315
-302.807	800.000	-0.045	-0.166
-301.793	-120.903	0.224	-0.038
-300.778	32.253	0.225	0.194
-299.764	-43.389	-0.044	0.022
-298.749	-100.144	-0.210	0.052
-297.735	46.499	0.074	-0.069
-296.720	-45.491	-0.400	0.198
-295.705	89.476	0.220	0.246
-294.691	-26.068	0.241	-0.141
-293.676	-19.102	0.293	-0.182
-292.662	800.000	-0.081	-0.265
-291.647	-82.846	0.023	0.007
-290.632	586.738	-0.033	0.081
-289.618	327.894	0.031	-0.060
-288.603	-200.000	0.008	-0.107
-287.589	-90.845	-0.281	-0.081
-286.574	-87.519	-0.298	-0.090
-285.559	-200.000	0.030	0.165
-284.545	39.375	-0.273	-0.244
-283.530	-60.239	0.137	0.058
-282.516	-112.936	0.061	-0.012
-281.501	-51.855	-0.194	-0.090
-280.486	-31.389	0.114	0.064
-279.472	121.074	-0.258	0.321
-278.457	45.419	0.226	0.208
-277.443	278.657	-0.058	0.103
-276.428	-143.255	-0.106	-0.010
-275.413	-34.629	-0.306	0.167
-274.399	-200.000	-0.047	-0.235
-273.384	-87.725	-0.145	0.044
-272.370	51.028	-0.194	0.183
-271.355	651.275	0.066	-0.170
-270.340	-96.122	-0.082	0.022
-269.326	-8.754	-0.120	-0.080
-268.311	778.271	0.122	-0.332
-267.297	502.219	0.048	0.110
-266.282	15.371	0.307	-0.241
-265.267	286.958	0.093	-0.167
-264.253	800.000	-0.131	0.523
-263.238	-4.377	0.110	-0.076
-262.224	80.438	0.089	-0.095
-261.209	-152.322	-0.038	-0.003
-260.195	800.000	0.136	-0.482
-259.180	518.914	0.165	0.385
-258.165	315.166	-0.078	0.148
-257.151	-160.490	-0.207	0.011
-256.136	365.693	0.054	-0.108
-255.122	84.845	-0.221	-0.241
-254.107	548.514	0.132	0.316
-253.092	133.323	0.273	-0.352
-252.078	44.165	0.092	0.084
-251.063	-18.692	0.233	-0.145
-250.049	800.000	0.110	0.323
-249.034	-200.000	0.011	-0.102
-248.019	-56.222	-0.155	0.069
-247.005	-131.223	0.185	0.025
-245.990	33.587	0.312	0.270
-244.976	-200.000	-0.012	0.452
-243.961	-140.498	0.285	0.029
-242.946	12.382	0.098	0.075
-241.932	416.683	0.086	0.184
-240.917	-41.894	-0.157	0.080
-239.903	-98.586	0.203	0.052
-238.888	-30.624	0.070	-0.040
-237.873	-171.764	-0.060	-0.002
-236.859	49.274	0.034	-0.032
-235.844	104.433	0.123	-0.144
-234.830	334.252	-0.132	0.254
-233.815	743.831	0.065	-0.174
-232.800	-200.000	0.031	0.400
-231.786	26.795	0.157	-0.131
-230.771	-155.727	0.106	-0.007
-229.757	-200.000	0.020	-0.099
-228.742	49.366	0.127	0.119
-227.727	66.054	0.295	-0.298
-226.713	800.000	-0.101	0.334
-225.698	-64.013	-0.145	-0.059
-224.684	-153.523	-0.281	-0.019
-223.669	-13.636	-0.297	-0.191
-222.655	-200.000	0.008	-0.146
-221.640	-200.000	-0.004	0.231
-220.625	-44.465	0.147	0.073
-219.611	101.936	-0.154	-0.179
-218.596	-41.328	0.250	-0.128
-217.582	110.618	-0.179	0.215
-216.567	166.985	-0.289	0.408
-215.552	438.654	-0.145	-0.315
-214.538	357.324	0.031	0.062
-213.523	-33.914	0.263	0.144
-212.509	61.428	0.170	-0.168
-211.494	-85.156	-0.245	0.076
-210.479	-200.000	0.074	0.342
-209.465	18.872	-0.165	0.132
-208.450	-2.560	0.197	0.137
-207.436	-200.000	0.037	-0.190
-206.421	-140.375	0.186	0.019
-205.406	-200.000	0.011	0.054
-204.392	-92.079	-0.308	0.087
-203.377	800.000	0.067	-0.192
-202.363	461.231	-0.089	0.198
-201.348	-120.406	0.106	-0.018
-200.333	111.666	0.139	0.167
-199.319	48.195	0.045	0.042
-198.304	706.936	-0.062	-0.162
-197.290	-189.302	-0.225	0.003
-196.275	-200.000	-0.005	0.166
-195.260	-26.699	0.256	0.149
-194.246	50.844	0.188	0.177
-193.231	800.000	-0.118	0.335
-192.217	20.840	-0.262	0.211
-191.202	-88.904	-0.324	0.096
-190.187	-38.126	0.188	-0.099
-189.173	388.929	0.160	-0.330
-188.158	-41.104	0.466	-0.239
-187.144	-124.085	0.054	0.008
-186.129	-200.000	-0.085	-0.521
-185.114	0.022	0.190	-0.135
-184.100	-200.000	-0.020	0.229
-183.085	255.842	-0.038	0.065
-182.071	295.690	0.102	-0.185
-181.056	224.528	-0.214	0.344
-180.042	-139.564	-0.204	-0.022
-179.027	800.000	-0.078	-0.305
-178.012	800.000	0.044	-0.120
-176.998	10.723	-0.194	-0.147
-175.983	-200.000	-0.052	-0.343
-174.969	373.110	0.155	0.314
-173.954	-200.000	0.085	0.430
-172.939	-200.000	-0.032	0.201
-171.925	81.783	0.141	-0.152
-170.910	363.686	-0.082	-0.163
-169.896	-133.637	0.203	-0.025
-168.881	800.000	-0.017	0.053
-167.866	18.598	0.085	0.068
-166.852	-200.000	0.026	-0.142
-165.837	194.618	0.037	-0.056
-164.823	-200.000	0.040	-0.203
-163.808	298.875	0.176	-0.323
-162.793	1.436	0.090	-0.064
-161.779	800.000	-0.063	0.234
-160.764	-46.906	0.156	0.076
-159.750	52.561	0.072	0.068
-158.735	-75.245	0.219	-0.078
-157.720	-163.012	-0.270	-0.013
-156.706	-200.000	0.017	-0.097
-155.691	161.150	-0.112	0.156
-154.677	-200.000	0.039	-0.200
-153.662	-186.029	0.270	-0.004
-152.647	-10.622	0.081	0.053
-151.633	167.546	-0.047	0.067
-150.618	-99.133	-0.199	0.050
-149.604	-200.000	-0.065	0.325
-148.589	-200.000	-0.003	-0.168
-147.574	129.342	0.138	-0.175
-146.560	327.787	-0.175	0.333
-145.545	303.593	-0.072	0.132
-144.531	-68.844	-0.103	-0.039
-143.516	-135.257	-0.037	-0.004
-142.502	-14.666	0.162	0.104
-141.487	-113.207	0.022	0.004
-140.472	800.000	0.020	-0.064
-139.458	-103.529	-0.070	0.016
-138.443	-57.625	-0.117	-0.051
-137.429	5.878	0.297	0.218
-136.414	-200.000	0.024	0.337
-135.399	416.361	0.056	0.118
-134.385	7.302	-0.113	-0.084
-133.370	-200.000	-0.056	0.296
-132.356	576.251	0.046	0.111
-131.341	228.830	-0.042	-0.068
-130.326	-136.243	0.101	0.012
-129.312	35.979	-0.051	-0.044
-128.297	800.000	0.052	0.175
-127.283	45.399	0.033	-0.030
-126.268	56.639	0.194	0.187
-125.253	136.545	0.093	0.121
-124.239	-200.000	0.034	-0.331
-123.224	-60.283	0.242	0.102
-122.210	-30.755	0.285	0.160
-121.195	-80.279	-0.082	0.027
