DTS Sentinel unit serial number:	SN413079Multiplexer serial number:	ORYXHardware model number:	OX4-SRSoftware version number:	ORYX F/W v4.00 Oryx Data Collector v3.7.2.0data status	okinstallation	princeton_trtdifferential loss correction	single-endedforward channel	channel 4reverse channel	N/Adate	2019/09/11time	19:35:11forward acquisition time	60.00reverse acquisition time	0.00gamma	496.2192k internal	0.2296k external	0.2296temperature offset calibration	1.0047default loss term (dB/km)	0.3790temperature slope calibration	1.0000multiplexer offset coefficient	1.0000multiplexer slope coefficient	1.0000fibre end	0.00T internal ref (°C)	40.12T ext. ref 1 (°C)	1.35T ext. ref 2 (°C)	32.26length (m)	temperature (°C)	Stokes	anti-Stokes-747.200	-200.000	-0.009	0.064
-746.185	133.258	-0.043	0.057
-745.171	-146.665	-0.319	0.028
-744.156	-152.298	0.283	-0.021
-743.142	-57.588	0.280	0.125
-742.127	-200.000	0.043	0.434
-741.112	800.000	0.054	-0.181
-740.098	-200.000	-0.033	0.226
-739.083	741.588	0.085	0.234
-738.069	-200.000	0.012	0.119
-737.054	-191.671	-0.242	0.002
-736.039	8.130	-0.094	-0.072
-735.025	-108.474	-0.189	-0.041
-734.010	-73.404	0.129	-0.048
-732.996	306.978	0.085	-0.162
-731.981	-33.498	-0.227	0.128
-730.966	-30.637	-0.267	-0.155
-729.952	-82.000	-0.172	-0.057
-728.937	800.000	0.029	0.122
-727.923	-19.756	-0.237	-0.150
-726.908	-200.000	-0.001	0.282
-725.894	-125.917	-0.019	-0.003
-724.879	-200.000	0.001	-0.269
-723.864	800.000	-0.081	0.264
-722.850	-170.049	-0.211	0.008
-721.835	800.000	0.055	0.170
-720.821	-144.869	-0.242	-0.023
-719.806	800.000	0.067	-0.290
-718.791	27.894	0.266	-0.229
-717.777	209.985	0.107	-0.172
-716.762	-118.699	-0.384	-0.069
-715.748	-56.153	-0.323	-0.147
-714.733	77.363	0.103	-0.111
-713.718	132.850	-0.100	-0.132
-712.704	-35.157	-0.059	0.033
-711.689	-164.272	0.122	-0.006
-710.675	-37.279	0.240	0.131
-709.660	237.142	0.151	0.255
-708.645	800.000	0.083	0.258
-707.631	800.000	-0.079	0.322
-706.616	-116.912	0.217	0.040
-705.602	-33.997	0.250	-0.140
-704.587	-98.690	-0.367	0.095
-703.572	73.254	0.135	0.144
-702.558	-5.229	-0.105	-0.074
-701.543	-57.862	0.356	-0.159
-700.529	-165.797	0.137	0.006
-699.514	-20.595	-0.098	-0.061
-698.499	-171.403	0.190	0.006
-697.485	35.726	0.109	-0.097
-696.470	800.000	0.088	-0.349
-695.456	189.587	-0.198	0.303
-694.441	-104.445	-0.062	0.015
-693.426	-200.000	-0.003	-0.157
-692.412	-98.088	0.241	0.063
-691.397	-11.685	-0.093	-0.062
-690.383	75.616	0.137	-0.148
-689.368	115.556	0.134	0.167
-688.354	-24.491	0.228	0.139
-687.339	-109.819	0.450	-0.096
-686.324	-200.000	0.010	-0.212
-685.310	-200.000	-0.056	-0.486
-684.295	-193.833	-0.059	-0.001
-683.281	535.017	-0.076	0.184
-682.266	-50.719	0.071	-0.034
-681.251	351.526	-0.125	0.251
-680.237	-65.393	0.212	0.087
-679.222	445.218	0.187	0.419
-678.208	-200.000	0.052	-0.245
-677.193	-41.471	-0.212	-0.111
-676.178	-52.111	0.392	-0.185
-675.164	204.884	-0.055	0.087
-674.149	-37.063	-0.337	-0.184
-673.135	5.787	-0.217	0.164
-672.120	-44.130	-0.221	-0.113
-671.105	-48.863	0.174	0.085
-670.091	-200.000	0.041	-0.339
-669.076	15.756	-0.128	0.102
-668.062	-106.667	-0.198	0.045
-667.047	-200.000	-0.022	0.098
-666.032	-150.743	-0.116	0.009
-665.018	78.816	-0.117	-0.128
-664.003	-24.149	-0.129	0.078
-662.989	-200.000	-0.052	-0.282
-661.974	-77.509	0.118	0.042
-660.959	-121.676	-0.315	0.053
-659.945	117.514	-0.066	0.082
-658.930	-200.000	-0.036	-0.251
-657.916	241.975	0.083	-0.142
-656.901	-11.279	0.238	-0.160
-655.886	167.576	0.095	0.138
-654.872	799.935	0.014	-0.039
-653.857	-200.000	-0.014	-0.157
-652.843	69.341	-0.083	0.087
-651.828	87.454	-0.068	0.076
-650.814	-18.318	-0.367	0.233
-649.799	753.571	-0.033	-0.092
-648.784	695.967	-0.067	0.179
-647.770	-31.486	0.122	0.070
-646.755	-91.211	0.120	0.035
-645.741	-200.000	0.026	-0.180
-644.726	800.000	-0.078	0.253
-643.711	12.935	-0.202	-0.159
-642.697	87.516	0.214	0.242
-641.682	-107.079	-0.169	0.038
-640.668	-16.618	-0.257	-0.165
-639.653	-55.670	-0.210	0.096
-638.638	-200.000	-0.013	0.074
-637.624	26.144	-0.047	0.040
-636.609	-11.588	0.216	0.144
-635.595	-54.568	0.271	0.125
-634.580	62.436	-0.200	0.203
-633.565	270.983	0.240	-0.430
-632.551	-200.000	-0.004	0.212
-631.536	33.015	-0.105	0.093
-630.522	-178.852	-0.118	0.003
-629.507	-200.000	0.347	-0.001
-628.492	-200.000	0.026	-0.153
-627.478	138.807	0.112	0.150
-626.463	243.761	-0.184	-0.314
-625.449	-87.082	-0.278	-0.086
-624.434	230.022	-0.054	-0.090
-623.419	50.333	-0.173	0.166
-622.405	50.988	0.119	-0.115
-621.390	295.956	0.105	-0.196
-620.376	-170.316	0.131	-0.005
-619.361	22.536	-0.113	0.094
-618.346	-2.876	0.142	0.101
-617.332	-177.989	0.218	0.005
-616.317	-104.951	-0.152	-0.035
-615.303	314.950	0.132	0.253
-614.288	800.000	0.095	-0.320
-613.273	-169.233	0.227	-0.009
-612.259	132.481	-0.258	0.338
-611.244	92.952	0.171	-0.197
-610.230	-115.865	0.243	0.046
-609.215	56.132	-0.174	-0.171
-608.201	-59.521	0.180	-0.079
-607.186	800.000	-0.039	-0.138
-606.171	-129.782	-0.196	-0.027
-605.157	-200.000	-0.038	0.292
-604.142	-200.000	0.015	0.132
-603.128	-89.660	-0.215	0.064
-602.113	318.751	-0.067	-0.128
-601.098	800.000	0.090	0.261
-600.084	-200.000	0.000	-0.063
-599.069	-103.209	0.225	0.054
-598.055	37.396	0.117	0.105
-597.040	-98.593	-0.120	0.031
-596.025	-171.647	-0.388	-0.013
-595.011	14.451	0.153	0.121
-593.996	-87.278	0.296	0.091
-592.982	268.627	0.143	0.255
-591.967	-163.737	-0.349	0.017
-590.952	121.265	-0.072	-0.091
-589.938	416.692	0.016	-0.034
-588.923	154.963	-0.142	-0.199
-587.909	800.000	-0.136	0.423
-586.894	-200.000	0.000	0.096
-585.879	-72.022	-0.413	0.156
-584.865	-49.874	0.354	-0.170
-583.850	800.000	-0.107	-0.309
-582.836	-167.813	-0.198	-0.008
-581.821	1.688	-0.144	0.105
-580.806	-41.448	-0.119	0.062
-579.792	443.923	-0.105	0.234
-578.777	246.070	-0.078	0.134
-577.763	-129.719	0.178	-0.025
-576.748	800.000	0.126	0.353
-575.733	-200.000	0.005	-0.200
-574.719	-63.304	0.192	0.080
-573.704	545.631	-0.079	-0.191
-572.690	99.306	0.276	0.323
-571.675	-200.000	-0.046	-0.239
-570.661	-200.000	-0.009	-0.111
-569.646	-200.000	-0.022	-0.236
-568.631	-117.453	-0.144	-0.026
-567.617	66.022	-0.222	-0.228
-566.602	-129.817	-0.318	-0.044
-565.588	-200.000	-0.040	0.358
-564.573	-200.000	-0.043	0.243
-563.558	-200.000	0.002	-0.306
-562.544	128.407	0.122	-0.157
-561.529	319.157	0.132	-0.255
-560.515	-41.398	0.072	-0.037
-559.500	-103.728	-0.189	-0.045
-558.485	800.000	0.016	0.059
-557.471	-58.280	0.379	0.167
-556.456	-75.150	-0.181	0.066
-555.442	151.676	0.101	-0.140
-554.427	247.412	-0.110	0.189
-553.412	93.313	-0.076	0.088
-552.398	-59.320	-0.163	-0.071
-551.383	-46.787	0.024	-0.012
-550.369	9.620	0.200	0.154
-549.354	-199.152	-0.317	-0.002
-548.339	123.354	0.283	0.360
-547.325	98.313	-0.141	-0.165
-546.310	-200.000	0.011	0.329
-545.296	79.268	-0.045	-0.048
-544.281	262.886	-0.082	0.144
-543.266	240.622	-0.080	0.135
-542.252	800.000	0.065	-0.265
-541.237	-29.397	0.228	0.132
-540.223	55.478	0.179	0.176
-539.208	-182.315	-0.170	-0.003
-538.193	-65.039	-0.342	-0.140
-537.179	800.000	-0.231	-0.808
-536.164	367.951	-0.213	-0.436
-535.150	261.892	-0.271	-0.475
-534.135	-200.000	0.090	0.498
-533.121	800.000	-0.047	-0.175
-532.106	800.000	-0.122	0.374
-531.091	-57.605	0.243	0.108
-530.077	-73.273	-0.142	0.053
-529.062	70.123	0.080	0.084
-528.048	289.684	-0.244	0.448
-527.033	-54.761	-0.330	-0.151
-526.018	602.655	0.096	-0.242
-525.004	-50.874	-0.139	0.066
-523.989	-156.955	-0.231	0.014
-522.975	224.422	-0.106	-0.174
-521.960	-153.203	-0.112	-0.008
-520.945	292.540	-0.071	-0.131
-519.931	-91.232	0.132	0.038
-518.916	-200.000	-0.046	-0.207
-517.902	-200.000	-0.057	0.356
-516.887	96.316	0.241	0.279
-515.872	-200.000	-0.039	0.227
-514.858	-197.104	0.283	0.002
-513.843	800.000	0.091	-0.391
-512.829	-36.763	0.102	0.056
-511.814	-152.300	0.204	-0.015
-510.799	-200.000	-0.005	0.112
-509.785	264.933	0.238	0.420
-508.770	114.959	0.052	0.065
-507.756	-172.426	0.256	-0.008
-506.741	-168.875	-0.282	0.011
-505.726	-200.000	-0.028	0.223
-504.712	97.805	-0.138	-0.161
-503.697	-33.472	0.163	0.091
-502.683	17.757	0.272	-0.219
-501.668	-104.069	-0.161	-0.038
-500.653	-133.598	0.386	-0.049
-499.639	-200.000	-0.002	-0.329
-498.624	-200.000	0.005	-0.099
-497.610	-200.000	-0.020	-0.150
-496.595	800.000	-0.124	-0.354
-495.581	372.133	0.057	-0.116
-494.566	800.000	0.022	-0.063
-493.551	-135.404	0.281	-0.034
-492.537	-134.157	0.154	-0.019
-491.522	-5.944	-0.219	-0.151
-490.508	-37.373	-0.210	0.113
-489.493	-200.000	-0.026	0.210
-488.478	-200.000	0.022	0.280
-487.464	-183.738	-0.228	-0.004
-486.449	390.088	0.095	-0.200
-485.435	-49.129	0.134	-0.065
-484.420	-156.345	-0.105	-0.007
-483.405	12.349	-0.259	-0.202
-482.391	800.000	0.018	-0.067
-481.376	214.699	0.086	-0.138
-480.362	42.891	0.106	0.098
-479.347	-56.249	0.219	0.098
-478.332	261.312	0.157	0.274
-477.318	-200.000	-0.020	-0.264
-476.303	-48.185	-0.146	-0.071
-475.289	-155.937	-0.235	0.015
-474.274	-40.659	-0.074	0.039
-473.259	-200.000	0.003	0.049
-472.245	123.985	0.097	-0.124
-471.230	604.627	0.097	0.243
-470.216	-146.149	0.159	0.014
-469.201	800.000	0.067	0.198
-468.186	-159.862	0.247	0.014
-467.172	50.066	-0.159	-0.152
-466.157	-100.848	-0.192	-0.048
-465.143	147.934	0.202	-0.276
-464.128	800.000	-0.089	0.343
-463.113	310.279	0.160	-0.304
-462.099	-28.563	-0.393	-0.229
-461.084	311.080	-0.119	0.225
-460.070	51.446	0.107	-0.103
-459.055	278.955	-0.051	-0.092
-458.040	-200.000	-0.003	0.021
-457.026	-118.071	0.177	0.032
-456.011	23.972	-0.199	-0.165
-454.997	114.983	0.086	0.106
-453.982	486.430	-0.105	0.243
-452.968	48.741	0.050	0.047
-451.953	-103.676	-0.217	0.051
-450.938	-99.114	-0.198	0.051
-449.924	-107.683	0.127	0.028
-448.909	800.000	0.052	-0.215
-447.895	-200.000	0.036	0.211
-446.880	-34.652	-0.110	-0.061
-445.865	32.000	-0.214	-0.186
-444.851	455.377	-0.138	-0.308
-443.836	73.739	0.066	-0.070
-442.822	-200.000	0.042	-0.193
-441.807	800.000	-0.055	-0.225
-440.792	421.156	0.179	-0.387
-439.778	-200.000	0.016	0.147
-438.763	-93.235	0.092	0.026
-437.749	-124.414	0.393	-0.062
-436.734	-200.000	-0.087	-0.425
-435.719	-75.420	-0.076	-0.027
-434.705	-99.596	0.126	0.032
-433.690	27.184	0.296	0.251
-432.676	-103.850	-0.177	-0.042
-431.661	410.715	-0.262	-0.561
-430.646	-62.143	-0.282	0.119
-429.632	128.384	0.107	0.137
-428.617	35.852	-0.321	0.285
-427.603	800.000	0.032	0.091
-426.588	7.222	0.107	0.081
-425.573	-70.249	-0.342	0.131
-424.559	26.188	0.102	0.086
-423.544	-85.096	-0.158	0.050
-422.530	-200.000	-0.017	-0.124
-421.515	-26.627	0.393	-0.232
-420.500	-54.540	-0.154	-0.071
-419.486	-200.000	0.049	0.332
-418.471	-3.517	-0.025	0.018
-417.457	-200.000	0.001	-0.150
-416.442	94.205	0.227	0.259
-415.428	800.000	-0.108	-0.376
-414.413	-200.000	0.024	-0.137
-413.398	211.116	-0.055	-0.087
-412.384	-17.439	0.113	0.072
-411.369	789.949	-0.077	-0.212
-410.355	280.074	-0.108	-0.195
-409.340	431.343	0.227	0.495
-408.325	172.553	0.064	-0.093
-407.311	774.120	0.196	-0.538
-406.296	800.000	-0.049	-0.169
-405.282	-110.584	0.609	0.127
-404.267	587.974	0.030	0.076
-403.252	-45.373	-0.106	0.053
-402.238	800.000	0.047	-0.150
-401.223	-21.477	-0.277	-0.170
-400.209	-69.664	0.559	0.216
-399.194	-200.000	-0.026	0.404
-398.179	10.752	0.209	0.161
-397.165	-76.290	0.133	0.047
-396.150	20.823	0.077	0.063
-395.136	-200.000	0.020	0.244
-394.121	96.760	0.114	0.132
-393.106	436.572	-0.109	-0.240
-392.092	800.000	0.053	-0.222
-391.077	-18.295	0.031	-0.020
-390.063	-56.206	-0.226	-0.101
-389.048	800.000	0.052	-0.211
-388.033	-141.487	0.126	-0.013
-387.019	10.076	-0.267	-0.204
-386.004	-65.567	-0.077	0.031
-384.990	561.371	-0.057	-0.140
-383.975	-137.204	-0.111	0.013
-382.960	-23.760	-0.274	0.165
-381.946	-40.141	0.290	0.152
-380.931	-96.132	-0.161	0.043
-379.917	-28.983	-0.097	0.056
-378.902	432.126	0.084	-0.183
-377.888	534.708	0.110	-0.263
-376.873	548.187	-0.036	-0.086
-375.858	-200.000	-0.011	-0.277
-374.844	-151.266	0.169	-0.013
-373.829	-85.660	-0.256	0.080
-372.815	15.919	-0.180	0.143
-371.800	-30.262	-0.265	0.152
-370.785	-163.268	-0.220	-0.011
-369.771	-28.323	0.246	0.143
-368.756	-62.237	-0.083	0.035
-367.742	150.895	0.242	0.332
-366.727	107.219	0.347	-0.415
-365.712	-200.000	-0.000	0.014
-364.698	30.065	0.107	0.092
-363.683	-116.737	0.051	-0.009
-362.669	-112.559	0.396	-0.079
-361.654	387.219	0.030	0.062
-360.639	-174.036	-0.018	-0.001
-359.625	-200.000	-0.002	0.182
-358.610	123.596	-0.319	0.402
-357.596	-79.689	-0.309	0.105
-356.581	217.350	0.002	0.003
-355.566	-29.400	0.145	0.083
-354.552	55.252	0.226	-0.220
-353.537	-200.000	0.018	-0.217
-352.523	-100.253	-0.113	0.028
-351.508	6.621	0.148	-0.111
-350.493	-188.400	0.169	0.002
-349.479	-103.699	0.117	0.028
-348.464	-149.771	-0.228	0.018
-347.450	774.597	0.077	-0.212
-346.435	800.000	-0.053	-0.209
-345.420	-49.307	0.110	-0.053
-344.406	724.752	-0.121	0.326
-343.391	-121.650	-0.104	-0.017
-342.377	460.246	0.105	-0.235
-341.362	-2.622	-0.204	-0.143
-340.348	-56.114	-0.318	-0.143
-339.333	444.487	0.135	-0.297
-338.318	-200.000	0.241	-0.001
-337.304	-31.682	-0.137	0.078
-336.289	800.000	0.009	0.030
-335.275	-200.000	-0.071	0.423
-334.260	-200.000	0.037	0.434
-333.245	234.193	-0.078	-0.130
-332.231	218.155	0.065	0.104
-331.216	-76.463	0.141	0.050
-330.202	-13.516	0.230	-0.150
-329.187	36.247	-0.409	-0.363
-328.172	-200.000	-0.031	0.154
-327.158	800.000	0.071	-0.275
-326.143	800.000	-0.040	0.144
-325.129	177.555	0.037	0.054
-324.114	167.587	-0.100	0.142
-323.099	101.435	0.161	-0.188
-322.085	-91.561	0.162	0.046
-321.070	-194.694	-0.196	-0.002
-320.056	-200.000	-0.044	0.201
-319.041	800.000	-0.094	-0.284
-318.026	-27.000	-0.299	0.175
-317.012	29.436	0.304	0.260
-315.997	-160.588	-0.315	-0.017
-314.983	624.912	-0.062	0.157
-313.968	2.944	0.269	-0.196
-312.953	-200.000	0.002	0.328
-311.939	-200.000	0.036	0.344
-310.924	-68.750	0.031	-0.012
-309.910	-200.000	-0.004	0.429
-308.895	-6.040	-0.139	-0.096
-307.880	102.482	-0.176	0.207
-306.866	151.482	-0.194	0.265
-305.851	-82.821	0.177	0.057
-304.837	549.535	0.039	0.095
-303.822	88.485	0.310	-0.346
-302.807	6.540	0.115	-0.086
-301.793	-78.111	0.208	0.072
-300.778	453.366	-0.139	-0.308
-299.764	800.000	0.059	-0.246
-298.749	-117.688	-0.265	-0.048
-297.735	450.875	0.239	0.530
-296.720	491.141	0.136	0.313
-295.705	758.883	0.045	-0.124
-294.691	-12.315	0.221	0.145
-293.676	800.000	-0.066	0.190
-292.662	654.189	0.187	-0.482
-291.647	335.519	0.065	-0.126
-290.632	3.140	0.169	-0.123
-289.618	800.000	-0.053	0.165
-288.603	67.062	-0.335	-0.342
-287.589	-101.379	0.063	0.015
-286.574	-74.882	-0.074	0.027
-285.559	134.408	0.295	0.384
-284.545	800.000	0.064	0.243
-283.530	-126.970	0.024	0.003
-282.516	800.000	-0.094	0.292
-281.501	800.000	-0.082	0.289
-280.486	267.221	0.048	0.084
-279.472	196.959	0.124	0.190
-278.457	800.000	-0.042	-0.125
-277.443	800.000	0.069	0.200
-276.428	94.722	0.284	-0.323
-275.413	-123.046	-0.241	0.039
-274.399	-200.000	-0.003	0.134
-273.384	-59.725	0.381	0.164
-272.370	800.000	0.059	-0.213
-271.355	-200.000	-0.010	0.222
-270.340	121.486	-0.102	-0.127
-269.326	-200.000	-0.027	-0.167
-268.311	-76.631	-0.229	-0.081
-267.297	387.636	-0.145	0.301
-266.282	184.406	0.132	0.196
-265.267	118.139	0.151	-0.187
-264.253	-34.639	-0.273	0.150
-263.238	308.376	0.111	0.207
-262.224	800.000	-0.027	0.115
-261.209	60.690	-0.212	-0.211
-260.195	151.001	-0.123	0.168
-259.180	243.230	-0.168	-0.283
-258.165	127.576	0.185	-0.235
-257.151	-99.462	-0.143	0.036
-256.136	95.172	0.062	0.071
-255.122	40.431	0.221	-0.199
-254.107	800.000	0.061	-0.171
-253.092	230.549	0.099	-0.162
-252.078	126.457	0.016	0.021
-251.063	800.000	-0.056	-0.170
-250.049	40.366	-0.195	-0.176
-249.034	195.178	0.092	0.140
-248.019	308.816	-0.050	-0.094
-247.005	215.192	-0.152	0.241
-245.990	-131.520	-0.325	0.043
-244.976	-200.000	-0.007	-0.241
-243.961	606.336	-0.116	-0.290
-242.946	-73.963	0.319	0.116
-241.932	-200.000	-0.069	-0.341
-240.917	-1.233	-0.228	-0.161
-239.903	49.013	-0.136	0.128
-238.888	-128.623	0.123	0.017
-237.873	122.496	0.034	0.043
-236.859	114.200	0.072	-0.088
-235.844	27.746	0.355	0.299
-234.830	-47.906	-0.141	0.068
-233.815	-59.246	-0.178	-0.077
-232.800	-200.000	-0.000	-0.102
-231.786	291.875	0.198	-0.362
-230.771	-13.739	-0.159	-0.103
-229.757	-200.000	0.022	-0.261
-228.742	62.940	0.132	-0.132
-227.727	800.000	0.086	0.267
-226.713	7.699	0.243	0.182
-225.698	-33.211	0.133	0.074
-224.684	19.280	-0.102	0.082
-223.669	-0.200	-0.208	-0.148
-222.655	-200.000	-0.015	0.222
-221.640	134.417	-0.114	-0.148
-220.625	-76.362	0.067	0.024
-219.611	-21.207	-0.271	0.166
-218.596	27.949	0.298	0.251
-217.582	-57.101	0.356	-0.157
-216.567	-125.494	-0.036	0.006
-215.552	800.000	0.053	0.210
-214.538	800.000	0.143	-0.397
-213.523	427.097	-0.196	0.423
-212.509	-200.000	0.005	-0.264
-211.494	-131.950	-0.361	-0.047
-210.479	-200.000	-0.005	0.074
-209.465	533.216	0.061	-0.145
-208.450	148.364	0.186	0.251
-207.436	256.326	-0.044	-0.076
-206.421	-200.000	-0.024	0.219
-205.406	195.376	-0.091	0.138
-204.392	-200.000	-0.004	0.149
-203.377	-18.118	0.266	0.167
-202.363	1.034	-0.149	-0.107
-201.348	800.000	-0.027	-0.077
-200.333	-145.771	-0.291	-0.026
-199.319	-200.000	-0.090	-0.427
-198.304	800.000	0.112	0.312
-197.290	-200.000	-0.029	0.244
-196.275	-25.431	-0.114	0.067
-195.260	429.272	-0.021	0.046
-194.246	-200.000	-0.480	0.000
-193.231	71.440	0.106	-0.110
-192.217	233.644	-0.059	0.096
-191.202	-200.000	-0.083	-0.377
-190.187	6.500	-0.202	-0.150
-189.173	139.534	-0.008	-0.011
-188.158	-27.786	0.285	-0.165
-187.144	-200.000	0.030	0.282
-186.129	2.278	0.136	0.098
-185.114	135.473	-0.038	0.050
-184.100	0.732	-0.192	-0.137
-183.085	93.811	-0.269	-0.304
-182.071	3.395	-0.226	0.164
-181.056	-29.898	0.278	-0.158
-180.042	227.304	0.157	-0.255
-179.027	-200.000	0.006	-0.065
-178.012	-63.831	-0.173	-0.071
-176.998	-72.700	-0.246	0.090
-175.983	-153.111	0.399	-0.028
-174.969	-189.284	0.156	-0.002
-173.954	800.000	-0.025	0.106
-172.939	119.524	0.126	0.156
-171.925	-145.659	0.172	0.015
-170.910	-10.194	0.076	-0.051
-169.896	458.300	0.080	-0.178
-168.881	-119.757	-0.275	-0.047
-167.866	-153.670	0.173	0.012
-166.852	206.551	0.052	-0.081
-165.837	-128.744	0.216	-0.030
-164.823	-148.850	-0.061	-0.005
-163.808	-51.463	0.239	-0.112
-162.793	800.000	0.026	0.106
-161.779	-71.815	0.298	0.111
-160.764	-105.884	-0.072	-0.016
-159.750	-200.000	-0.046	0.218
-158.735	-200.000	0.014	0.313
-157.720	-13.689	-0.203	-0.131
-156.706	-13.918	0.076	0.049
-155.691	344.828	0.058	0.114
-154.677	-114.115	0.171	0.033
-153.662	-200.000	0.004	-0.135
-152.647	306.687	-0.041	-0.077
-151.633	96.789	-0.116	-0.132
-150.618	178.049	0.064	-0.094
-149.604	24.399	0.260	-0.215
-148.589	-79.166	-0.360	0.122
-147.574	102.859	0.207	0.242
-146.560	-120.673	-0.131	0.022
-145.545	-145.143	0.163	0.015
-144.531	18.112	0.210	0.167
-143.516	197.816	0.080	-0.122
-142.502	185.177	0.073	0.108
-141.487	-200.000	-0.011	0.165
-140.472	-82.758	0.126	-0.041
-139.458	12.191	-0.095	-0.073
-138.443	800.000	0.107	0.313
-137.429	99.823	0.085	0.098
-136.414	78.095	-0.243	0.259
-135.399	-101.639	0.223	-0.054
-134.385	-77.731	0.034	-0.012
-133.370	54.910	-0.210	-0.202
-132.356	-200.000	-0.058	0.550
-131.341	-14.278	0.068	0.044
-130.326	800.000	0.023	-0.083
-129.312	-200.000	-0.007	-0.239
-128.297	-200.000	-0.024	0.134
-127.283	315.547	-0.058	-0.109
-126.268	91.639	-0.183	-0.205
-125.253	-200.000	0.294	0.000
-124.239	-35.542	0.323	0.175
-123.224	549.062	0.045	-0.108
-122.210	168.807	-0.203	0.289
-121.195	755.689	0.075	-0.204
