DTS Sentinel unit serial number:	SN413079Multiplexer serial number:	ORYXHardware model number:	OX4-SRSoftware version number:	ORYX F/W v4.00 Oryx Data Collector v3.7.2.0data status	okinstallation	princeton_trtdifferential loss correction	single-endedforward channel	channel 4reverse channel	N/Adate	2019/09/12time	07:03:11forward acquisition time	60.00reverse acquisition time	0.00gamma	496.2192k internal	0.2307k external	0.2307temperature offset calibration	1.0063default loss term (dB/km)	0.3790temperature slope calibration	1.0000multiplexer offset coefficient	1.0000multiplexer slope coefficient	1.0000fibre end	0.00T internal ref (°C)	32.14T ext. ref 1 (°C)	1.60T ext. ref 2 (°C)	27.39length (m)	temperature (°C)	Stokes	anti-Stokes-747.200	-200.000	-0.026	0.120
-746.185	486.059	-0.028	0.064
-745.171	-81.652	0.217	-0.073
-744.156	150.619	0.134	0.185
-743.142	800.000	0.045	0.193
-742.127	800.000	-0.078	0.248
-741.112	-200.000	-0.004	0.091
-740.098	2.939	-0.305	0.225
-739.083	597.164	-0.022	-0.056
-738.069	-200.000	-0.020	0.427
-737.054	105.782	0.282	0.339
-736.039	-103.350	-0.133	-0.032
-735.025	3.033	0.205	0.151
-734.010	-72.087	0.187	0.071
-732.996	-200.000	0.017	-0.448
-731.981	4.193	0.216	-0.161
-730.966	91.790	-0.103	-0.118
-729.952	-29.830	-0.294	-0.170
-728.937	-51.065	-0.086	0.041
-727.923	9.564	-0.416	0.320
-726.908	55.899	-0.094	-0.093
-725.894	-131.461	-0.324	-0.043
-724.879	694.954	0.041	-0.110
-723.864	678.743	-0.065	-0.173
-722.850	16.438	-0.088	-0.070
-721.835	-200.000	0.018	-0.420
-720.821	-6.971	-0.242	0.167
-719.806	-200.000	-0.011	-0.590
-718.791	-131.571	0.381	0.051
-717.777	-49.255	-0.384	0.186
-716.762	124.423	-0.198	-0.253
-715.748	-17.134	0.151	-0.097
-714.733	-39.462	-0.087	0.046
-713.718	-94.759	0.132	-0.036
-712.704	332.821	-0.031	-0.060
-711.689	800.000	0.008	-0.031
-710.675	115.916	-0.032	-0.040
-709.660	-87.911	-0.186	-0.057
-708.645	135.035	-0.207	0.274
-707.631	44.204	0.049	0.046
-706.616	-200.000	0.061	0.291
-705.602	-33.393	0.134	-0.075
-704.587	-1.056	-0.236	-0.170
-703.572	800.000	0.042	-0.120
-702.558	-200.000	0.037	0.326
-701.543	800.000	0.068	0.264
-700.529	-85.506	-0.498	0.157
-699.514	-200.000	0.040	0.314
-698.499	-105.111	0.064	-0.015
-697.485	-61.994	0.258	0.109
-696.470	-81.748	-0.039	0.013
-695.456	-34.117	-0.069	0.038
-694.441	26.224	-0.133	0.112
-693.426	280.157	0.239	-0.434
-692.412	270.197	-0.069	0.124
-691.397	-56.686	-0.275	0.124
-690.383	120.766	-0.163	0.206
-689.368	-52.866	-0.192	0.090
-688.354	800.000	0.076	0.269
-687.339	-200.000	0.014	0.305
-686.324	101.225	-0.132	0.156
-685.310	-42.974	-0.207	0.107
-684.295	-143.166	-0.354	0.035
-683.281	-200.000	0.002	0.145
-682.266	559.148	0.071	0.173
-681.251	-91.922	0.174	0.050
-680.237	-200.000	-0.422	-0.002
-679.222	-30.097	-0.080	0.046
-678.208	148.629	-0.054	0.074
-677.193	-99.992	0.189	-0.048
-676.178	247.360	0.146	0.250
-675.164	-32.483	0.290	-0.164
-674.149	-200.000	-0.011	-0.105
-673.135	-14.958	-0.239	-0.155
-672.120	-115.982	0.074	-0.014
-671.105	-141.090	-0.231	0.024
-670.091	41.396	0.183	0.168
-669.076	-173.604	0.195	0.006
-668.062	776.991	-0.097	-0.270
-667.047	14.919	-0.149	-0.119
-666.032	476.923	0.085	0.194
-665.018	800.000	0.048	0.142
-664.003	557.322	-0.171	-0.417
-662.989	-50.462	0.053	-0.026
-661.974	-148.361	-0.166	0.014
-660.959	86.845	0.246	-0.275
-659.945	75.775	-0.282	0.303
-658.930	-200.000	0.004	-0.372
-657.916	-96.065	0.205	-0.055
-656.901	-113.079	-0.018	-0.004
-655.886	-200.000	-0.048	-0.262
-654.872	7.413	-0.062	-0.047
-653.857	54.392	-0.198	-0.194
-652.843	665.901	0.038	-0.100
-651.828	-200.000	-0.016	-0.200
-650.814	63.909	-0.286	-0.291
-649.799	1.272	-0.287	-0.209
-648.784	1.427	0.069	-0.050
-647.770	800.000	0.038	-0.112
-646.755	-200.000	-0.006	-0.080
-645.741	157.393	-0.140	-0.197
-644.726	33.826	-0.203	-0.179
-643.711	5.632	0.133	0.099
-642.697	-165.271	0.448	0.020
-641.682	-167.346	-0.075	-0.003
-640.668	800.000	-0.089	-0.371
-639.653	-200.000	0.018	-0.382
-638.638	-73.214	0.084	-0.031
-637.624	22.375	0.218	-0.180
-636.609	99.650	-0.101	-0.119
-635.595	99.056	0.082	0.096
-634.580	-200.000	-0.359	-0.002
-633.565	-163.087	-0.120	0.006
-632.551	-5.488	0.107	-0.074
-631.536	74.283	-0.137	0.146
-630.522	-117.141	0.154	0.028
-629.507	73.538	0.054	0.058
-628.492	-200.000	0.105	0.000
-627.478	-95.673	0.243	0.066
-626.463	-200.000	0.050	0.282
-625.449	800.000	0.023	-0.065
-624.434	800.000	0.098	-0.398
-623.419	9.168	-0.127	0.097
-622.405	261.788	-0.085	-0.149
-621.390	800.000	0.088	-0.300
-620.376	40.553	-0.091	0.083
-619.361	-68.504	0.178	0.070
-618.346	33.485	-0.301	0.264
-617.332	-102.270	0.056	0.014
-616.317	-138.785	-0.247	0.027
-615.303	75.606	0.134	-0.144
-614.288	226.822	-0.039	-0.064
-613.273	25.180	-0.204	0.172
-612.259	251.948	-0.125	-0.215
-611.244	-18.197	-0.190	-0.120
-610.230	165.454	0.167	-0.239
-609.215	-200.000	0.081	-0.506
-608.201	280.659	0.146	0.265
-607.186	32.920	0.320	-0.280
-606.171	-82.652	-0.121	-0.040
-605.157	-87.823	0.236	0.072
-604.142	718.486	0.065	0.174
-603.128	326.618	0.242	-0.468
-602.113	298.694	-0.260	0.484
-601.098	71.331	0.046	-0.048
-600.084	138.216	-0.077	-0.102
-599.069	67.354	-0.130	-0.134
-598.055	-200.000	0.024	0.118
-597.040	104.035	-0.285	-0.339
-596.025	120.338	-0.110	-0.138
-595.011	-99.002	-0.179	0.046
-593.996	-200.000	-0.159	0.000
-592.982	53.945	-0.168	-0.163
-591.967	-59.729	0.325	-0.141
-590.952	679.031	-0.032	0.083
-589.938	-151.135	0.225	0.017
-588.923	24.229	-0.129	-0.108
-587.909	81.260	0.060	-0.066
-586.894	198.651	0.140	0.217
-585.879	96.928	0.159	0.184
-584.865	14.992	-0.362	0.286
-583.850	610.858	0.059	0.148
-582.836	-93.133	0.088	-0.025
-581.821	8.335	-0.161	0.122
-580.806	-94.994	-0.179	0.049
-579.792	800.000	-0.118	0.381
-578.777	-28.516	0.181	0.106
-577.763	670.450	0.054	0.141
-576.748	-200.000	0.001	0.100
-575.733	-180.288	0.057	-0.001
-574.719	351.510	-0.055	0.109
-573.704	-200.000	0.003	-0.340
-572.690	16.459	0.381	0.304
-571.675	276.853	-0.147	0.264
-570.661	543.471	0.137	-0.330
-569.646	-88.006	-0.091	-0.028
-568.631	-159.919	-0.428	-0.024
-567.617	761.372	-0.056	-0.154
-566.602	14.247	-0.228	0.179
-565.588	211.904	0.042	-0.066
-564.573	-123.593	-0.295	0.047
-563.558	63.095	0.147	-0.149
-562.544	-200.000	0.066	0.318
-561.529	14.364	0.232	-0.183
-560.515	306.868	0.070	0.131
-559.500	800.000	-0.069	-0.276
-558.485	220.257	-0.134	0.216
-557.471	-25.330	0.058	0.035
-556.456	-200.000	0.047	-0.450
-555.442	94.061	-0.184	-0.210
-554.427	800.000	-0.098	-0.342
-553.412	759.287	-0.042	0.115
-552.398	77.373	-0.207	0.222
-551.383	-121.060	-0.234	-0.040
-550.369	299.488	0.117	-0.217
-549.354	-88.427	-0.077	-0.023
-548.339	-200.000	0.037	0.277
-547.325	800.000	0.014	0.043
-546.310	-119.274	-0.097	-0.017
-545.296	800.000	0.101	-0.299
-544.281	251.266	0.065	-0.111
-543.266	30.400	-0.341	0.294
-542.252	-200.000	0.054	0.341
-541.237	89.037	0.153	-0.172
-540.223	77.138	-0.115	0.123
-539.208	-156.511	-0.082	0.005
-538.193	-43.464	-0.157	0.080
-537.179	19.671	0.283	0.230
-536.164	-151.491	-0.326	-0.024
-535.150	-162.770	-0.151	-0.007
-534.135	9.894	-0.201	-0.154
-533.121	-84.302	0.114	-0.036
-532.106	800.000	0.070	-0.229
-531.091	-83.953	-0.305	-0.098
-530.077	800.000	-0.109	0.364
-529.062	-24.911	-0.136	0.082
-528.048	-200.000	0.012	-0.304
-527.033	-18.083	0.324	-0.205
-526.018	-3.384	-0.248	0.174
-525.004	-2.666	-0.245	-0.173
-523.989	-110.124	0.225	0.047
-522.975	-102.751	-0.254	0.061
-521.960	-64.352	-0.366	-0.150
-520.945	129.823	0.139	-0.179
-519.931	100.028	-0.195	0.228
-518.916	303.139	-0.116	0.216
-517.902	-96.119	-0.077	0.021
-516.887	201.399	-0.041	0.064
-515.872	302.473	0.054	-0.100
-514.858	800.000	0.036	0.107
-513.843	-200.000	-0.019	0.137
-512.829	341.508	-0.038	0.075
-511.814	800.000	0.103	-0.348
-510.799	-111.390	-0.284	0.058
-509.785	-200.000	-0.021	-0.336
-508.770	209.294	-0.062	-0.099
-507.756	800.000	0.079	0.291
-506.741	194.095	-0.061	0.094
-505.726	16.974	0.118	-0.094
-504.712	88.269	0.077	-0.086
-503.697	155.169	0.195	-0.271
-502.683	-99.402	0.166	0.042
-501.668	-154.776	0.421	-0.028
-500.653	-200.000	-0.060	-0.446
-499.639	201.793	-0.193	0.300
-498.624	167.771	-0.059	0.085
-497.610	800.000	-0.073	-0.225
-496.595	91.857	-0.148	-0.167
-495.581	-200.000	0.057	0.264
-494.566	-200.000	0.006	0.301
-493.551	-68.525	0.416	-0.162
-492.537	27.442	-0.240	0.203
-491.522	800.000	0.045	0.178
-490.508	77.051	0.133	-0.142
-489.493	28.732	0.083	0.071
-488.478	-80.950	-0.266	-0.089
-487.464	-134.001	-0.320	0.040
-486.449	-107.144	-0.262	0.058
-485.435	-96.901	0.358	0.094
-484.420	-190.866	0.267	-0.003
-483.405	-111.427	0.115	0.024
-482.391	800.000	-0.054	0.183
-481.376	-200.000	0.067	0.327
-480.362	390.853	0.210	-0.438
-479.347	-200.000	0.037	-0.288
-478.332	-21.531	-0.274	-0.168
-477.318	800.000	0.043	-0.163
-476.303	268.095	-0.104	-0.182
-475.289	-69.305	-0.132	0.051
-474.274	-41.212	0.133	0.069
-473.259	800.000	-0.086	-0.271
-472.245	690.583	0.133	0.351
-471.230	-200.000	-0.040	0.236
-470.216	539.236	0.088	-0.210
-469.201	-196.758	0.347	-0.002
-468.186	-136.765	-0.042	-0.005
-467.172	69.521	-0.403	0.418
-466.157	59.668	-0.184	0.183
-465.143	683.026	-0.058	0.152
-464.128	-131.927	0.059	-0.008
-463.113	-132.377	0.197	0.026
-462.099	-200.000	-0.002	0.163
-461.084	-24.709	-0.091	-0.054
-460.070	800.000	0.104	0.318
-459.055	-63.014	0.079	-0.033
-458.040	-79.514	0.336	-0.114
-457.026	800.000	0.025	-0.097
-456.011	-141.800	0.184	0.019
-454.997	2.104	0.105	0.076
-453.982	519.737	0.077	-0.181
-452.968	-200.000	0.049	-0.282
-451.953	-46.456	-0.132	0.065
-450.938	63.874	-0.081	0.082
-449.924	-149.663	-0.288	0.023
-448.909	-30.937	-0.219	-0.124
-447.895	-38.639	-0.274	-0.145
-446.880	15.182	0.250	0.197
-445.865	39.450	-0.039	0.035
-444.851	50.565	-0.248	0.236
-443.836	-6.819	0.127	-0.087
-442.822	-200.000	0.258	0.000
-441.807	193.584	-0.061	-0.093
-440.792	646.517	-0.151	0.386
-439.778	-200.000	0.001	0.118
-438.763	-200.000	-0.019	-0.202
-437.749	85.592	0.036	0.040
-436.734	-200.000	0.067	-0.353
-435.719	-200.000	-0.052	-0.256
-434.705	800.000	0.117	-0.385
-433.690	710.601	0.074	0.196
-432.676	44.290	0.127	-0.117
-431.661	233.117	0.131	0.217
-430.646	-52.363	-0.088	-0.041
-429.632	284.865	-0.180	-0.325
-428.617	-200.000	0.004	0.122
-427.603	7.365	0.284	-0.213
-426.588	421.816	-0.172	0.371
-425.573	-134.568	-0.121	-0.015
-424.559	-200.000	-0.048	-0.253
-423.544	40.175	-0.465	0.420
-422.530	-8.278	0.033	-0.022
-421.515	119.676	0.076	-0.094
-420.500	-104.494	0.022	0.005
-419.486	86.686	-0.115	0.127
-418.471	-49.421	0.086	0.041
-417.457	-200.000	-0.019	0.213
-416.442	75.370	-0.087	0.092
-415.428	413.378	-0.096	-0.205
-414.413	-200.000	-0.043	0.340
-413.398	268.259	-0.112	0.198
-412.384	275.006	0.031	-0.055
-411.369	-1.831	-0.056	0.040
-410.355	-157.666	0.264	-0.016
-409.340	512.799	0.112	0.262
-408.325	-66.395	-0.063	0.025
-407.311	135.195	-0.137	0.178
-406.296	331.621	-0.048	-0.093
-405.282	-46.559	-0.238	-0.117
-404.267	107.324	0.260	0.310
-403.252	800.000	0.035	-0.109
-402.238	210.219	-0.297	-0.468
-401.223	33.266	0.209	-0.182
-400.209	-200.000	-0.021	0.214
-399.194	-53.493	-0.265	-0.122
-398.179	178.708	-0.163	-0.239
-397.165	-79.092	-0.115	0.039
-396.150	-109.241	0.304	-0.065
-395.136	-200.000	-0.082	0.429
-394.121	266.280	-0.039	0.069
-393.106	48.710	-0.373	-0.350
-392.092	-152.290	0.316	0.023
-391.077	320.374	-0.084	0.159
-390.063	-60.611	0.155	0.066
-389.048	-86.909	-0.195	0.060
-388.033	-54.463	0.267	0.121
-387.019	-200.000	0.021	0.119
-386.004	316.369	0.155	0.293
-384.990	800.000	0.072	-0.270
-383.975	-200.000	-0.030	-0.233
-382.960	-128.228	0.212	0.030
-381.946	-109.311	-0.261	0.056
-380.931	800.000	0.112	0.345
-379.917	-151.325	-0.150	-0.011
-378.902	275.039	0.165	-0.293
-377.888	13.115	-0.150	-0.116
-376.873	-101.962	-0.054	0.013
-375.858	122.208	-0.131	-0.163
-374.844	184.836	0.118	-0.176
-373.829	-200.000	-0.021	0.125
-372.815	36.127	0.242	-0.214
-371.800	171.113	0.205	-0.295
-370.785	119.596	-0.129	-0.161
-369.771	66.456	0.272	0.277
-368.756	-200.000	0.054	0.295
-367.742	147.875	0.033	0.045
-366.727	19.944	-0.151	0.122
-365.712	-87.455	0.168	0.051
-364.698	800.000	-0.076	0.243
-363.683	-200.000	-0.009	-0.140
-362.669	-21.881	0.214	0.130
-361.654	800.000	0.130	-0.436
-360.639	-27.443	0.262	0.153
-359.625	-200.000	0.009	0.261
-358.610	141.069	0.237	-0.314
-357.596	35.800	-0.318	-0.280
-356.581	-110.716	0.182	0.038
-355.566	-200.000	-0.074	-0.372
-354.552	156.103	-0.118	-0.164
-353.537	-138.929	0.367	-0.040
-352.523	425.367	-0.019	-0.042
-351.508	694.790	-0.126	-0.331
-350.493	-92.433	0.183	0.051
-349.479	-200.000	-0.019	0.107
-348.464	78.188	-0.053	0.057
-347.450	-200.000	-0.013	0.153
-346.435	-16.115	-0.303	-0.193
-345.420	-52.883	0.259	-0.120
-344.406	19.988	0.251	0.203
-343.391	-151.158	0.129	-0.010
-342.377	35.170	0.119	0.105
-341.362	800.000	0.072	-0.199
-340.348	128.212	0.096	-0.122
-339.333	149.088	0.142	0.193
-338.318	-75.570	0.147	0.052
-337.304	-37.187	-0.225	-0.120
-336.289	31.246	0.291	-0.250
-335.275	-200.000	0.008	0.099
-334.260	140.317	-0.062	-0.082
-333.245	-56.199	0.260	-0.116
-332.231	-124.020	-0.108	-0.017
-331.216	309.656	0.118	0.220
-330.202	800.000	0.111	0.326
-329.187	467.042	0.112	-0.251
-328.172	-16.241	0.102	0.065
-327.158	-151.872	0.143	-0.010
-326.143	483.529	0.093	0.213
-325.129	221.529	0.069	0.111
-324.114	-101.075	-0.119	0.029
-323.099	99.882	-0.059	0.068
-322.085	370.522	0.101	-0.205
-321.070	18.320	-0.222	-0.177
-320.056	17.335	-0.169	-0.134
-319.041	-126.038	0.045	0.007
-318.026	501.003	-0.031	0.071
-317.012	137.871	-0.119	0.156
-315.997	-77.495	0.137	-0.047
-314.983	800.000	-0.025	0.097
-313.968	31.036	-0.149	0.128
-312.953	17.632	-0.364	0.289
-311.939	-200.000	-0.018	0.112
-310.924	18.909	0.311	-0.249
-309.910	168.868	-0.150	-0.214
-308.895	-163.922	0.298	-0.014
-307.880	266.123	-0.094	0.164
-306.866	-200.000	-0.069	0.364
-305.851	48.086	0.271	-0.253
-304.837	143.390	0.203	-0.270
-303.822	-155.068	-0.142	0.009
-302.807	211.429	0.050	-0.079
-301.793	-70.011	0.293	-0.111
-300.778	800.000	-0.047	0.144
-299.764	-200.000	-0.040	-0.222
-298.749	3.763	0.151	-0.110
-297.735	-200.000	-0.009	0.240
-296.720	355.962	0.216	-0.430
-295.705	-139.310	-0.218	-0.023
-294.691	138.833	0.102	-0.135
-293.676	-95.081	-0.018	0.005
-292.662	-126.765	-0.292	-0.043
-291.647	800.000	0.039	0.149
-290.632	-200.000	0.001	0.331
-289.618	-165.465	0.153	-0.007
-288.603	-49.472	-0.235	-0.112
-287.589	705.560	0.059	-0.155
-286.574	377.892	-0.136	0.279
-285.559	-56.781	0.086	0.038
-284.545	-86.234	-0.218	-0.067
-283.530	240.922	-0.148	-0.247
-282.516	199.621	-0.037	-0.057
-281.501	-166.793	-0.118	0.005
-280.486	98.671	-0.105	0.121
-279.472	-34.983	0.204	0.111
-278.457	177.448	0.075	0.110
-277.443	31.092	0.267	-0.229
-276.428	-200.000	-0.011	0.246
-275.413	-31.316	0.385	0.217
-274.399	0.938	0.351	0.251
-273.384	-140.956	-0.124	0.013
-272.370	800.000	0.049	0.191
-271.355	-121.530	0.115	0.019
-270.340	-2.800	-0.189	0.132
-269.326	55.758	-0.156	-0.151
-268.311	44.650	-0.431	0.396
-267.297	161.659	-0.139	-0.194
-266.282	800.000	0.090	-0.288
-265.267	-176.119	-0.174	0.005
-264.253	8.807	0.287	0.216
-263.238	246.415	-0.034	0.058
-262.224	-145.886	0.058	-0.005
-261.209	24.783	0.256	-0.212
-260.195	283.449	-0.021	0.037
-259.180	461.713	-0.023	0.052
-258.165	-85.437	-0.351	0.109
-257.151	-102.281	0.231	0.055
-256.136	800.000	-0.068	0.211
-255.122	-7.203	-0.171	0.115
-254.107	-133.628	0.140	0.017
-253.092	800.000	0.023	0.079
-252.078	-37.738	0.229	-0.121
-251.063	-200.000	0.047	-0.271
-250.049	307.133	-0.174	0.323
-249.034	178.812	-0.218	0.318
-248.019	-69.831	-0.305	-0.116
-247.005	52.058	0.312	0.296
-245.990	476.434	0.122	-0.275
-244.976	521.458	-0.083	0.194
-243.961	-200.000	0.013	0.088
-242.946	12.141	0.155	0.119
-241.932	-200.000	0.001	-0.084
-240.917	144.341	-0.163	0.217
-239.903	366.624	0.165	0.331
-238.888	-200.000	0.031	0.165
-237.873	45.088	-0.133	-0.122
-236.859	18.114	-0.230	-0.182
-235.844	21.250	0.122	-0.099
-234.830	-38.265	0.379	0.200
-233.815	505.997	-0.121	0.280
-232.800	-129.952	0.333	0.045
-231.786	-86.736	-0.247	-0.075
-230.771	347.143	-0.211	-0.415
-229.757	-44.536	-0.173	0.086
-228.742	25.588	-0.090	0.075
-227.727	518.936	-0.162	-0.377
-226.713	33.859	-0.099	-0.086
-225.698	257.583	-0.096	-0.164
-224.684	-39.975	0.239	0.125
-223.669	9.952	0.232	-0.176
-222.655	578.593	-0.070	0.172
-221.640	663.343	0.042	0.107
-220.625	148.549	-0.108	0.146
-219.611	800.000	0.014	-0.041
-218.596	-200.000	0.003	-0.029
-217.582	-200.000	0.026	-0.222
-216.567	336.124	0.123	0.237
-215.552	-200.000	-0.076	0.411
-214.538	77.417	-0.200	-0.212
-213.523	789.298	-0.136	-0.372
-212.509	800.000	-0.168	-0.466
-211.494	-41.014	-0.304	0.156
-210.479	33.475	0.235	-0.203
-209.465	-133.854	-0.424	0.053
-208.450	433.277	0.079	-0.170
-207.436	-12.394	-0.142	0.093
-206.421	589.622	0.063	0.155
-205.406	-108.106	0.056	0.012
-204.392	-51.063	-0.322	-0.151
-203.377	55.822	-0.124	-0.120
-202.363	-46.693	0.257	0.125
-201.348	-71.070	0.216	0.081
-200.333	105.588	0.044	0.052
-199.319	-99.523	0.281	0.070
-198.304	-143.875	-0.054	0.005
-197.290	60.151	-0.160	-0.158
-196.275	-53.742	-0.148	-0.067
-195.260	447.681	0.113	0.248
-194.246	-46.879	0.169	-0.082
-193.231	-200.000	0.030	-0.363
-192.217	242.830	-0.031	0.052
-191.202	-191.341	-0.153	0.002
-190.187	-200.000	-0.028	0.333
-189.173	-170.078	0.195	0.007
-188.158	54.984	-0.134	-0.129
-187.144	-89.485	0.170	-0.050
-186.129	-114.878	-0.160	-0.030
-185.114	797.837	0.043	-0.118
-184.100	205.475	-0.092	0.142
-183.085	6.863	-0.140	0.104
-182.071	-200.000	-0.005	-0.094
-181.056	-200.000	0.078	0.562
-180.042	-200.000	-0.033	-0.187
-179.027	-43.645	-0.149	0.075
-178.012	44.600	0.039	-0.036
-176.998	-126.801	-0.141	0.021
-175.983	396.378	0.144	0.299
-174.969	-200.000	-0.016	-0.203
-173.954	-200.000	-0.016	-0.188
-172.939	-200.000	0.042	-0.216
-171.925	-64.696	0.051	0.021
-170.910	-172.572	-0.186	0.006
-169.896	800.000	0.098	0.291
-168.881	800.000	0.126	0.386
-167.866	-47.238	0.203	0.099
-166.852	-17.772	0.356	0.222
-165.837	-200.000	-0.040	0.306
-164.823	340.196	-0.096	0.186
-163.808	-200.000	-0.016	0.183
-162.793	154.083	-0.130	-0.177
-161.779	81.103	0.116	-0.125
-160.764	-31.895	0.153	0.085
-159.750	312.020	0.160	-0.298
-158.735	-200.000	0.020	0.278
-157.720	14.462	0.167	0.130
-156.706	-200.000	0.013	-0.074
-155.691	-113.920	0.200	-0.039
-154.677	-200.000	-0.000	0.268
-153.662	393.989	-0.071	0.147
-152.647	133.689	0.251	-0.323
-151.633	51.094	0.264	-0.249
-150.618	-88.234	0.103	0.031
-149.604	32.573	-0.226	0.194
-148.589	-60.001	-0.608	0.258
-147.574	800.000	0.020	-0.083
-146.560	-174.463	-0.549	-0.016
-145.545	58.551	-0.217	0.212
-144.531	192.729	0.056	-0.084
-143.516	59.767	0.217	0.213
-142.502	-200.000	0.035	0.246
-141.487	-200.000	-0.029	-0.429
-140.472	95.591	0.057	-0.065
-139.458	586.981	-0.029	-0.070
-138.443	-66.415	0.243	-0.096
-137.429	-97.972	-0.227	0.058
-136.414	424.652	-0.036	-0.077
-135.399	-200.000	0.037	-0.219
-134.385	-143.423	0.216	0.021
-133.370	-159.188	0.138	0.008
-132.356	800.000	0.154	-0.430
-131.341	-200.000	-0.020	0.158
-130.326	-169.925	0.202	0.007
-129.312	95.526	-0.220	0.249
-128.297	-57.855	0.078	0.034
-127.283	-94.166	-0.279	-0.076
-126.268	755.696	-0.066	0.178
-125.253	-200.000	0.005	-0.119
-124.239	216.899	0.131	0.206
-123.224	86.489	0.103	0.112
-122.210	-200.000	0.061	-0.332
-121.195	-87.087	-0.277	-0.084
-120.180	572.630	0.040	-0.098
-119.166	-163.616	-0.298	-0.014
