DTS Sentinel unit serial number:	SN413079Multiplexer serial number:	ORYXHardware model number:	OX4-SRSoftware version number:	ORYX F/W v4.00 Oryx Data Collector v3.7.2.0data status	okinstallation	princeton_trtdifferential loss correction	single-endedforward channel	channel 4reverse channel	N/Adate	2019/09/12time	05:35:11forward acquisition time	60.00reverse acquisition time	0.00gamma	496.2192k internal	0.2309k external	0.2309temperature offset calibration	1.0062default loss term (dB/km)	0.3790temperature slope calibration	1.0000multiplexer offset coefficient	1.0000multiplexer slope coefficient	1.0000fibre end	0.00T internal ref (°C)	31.95T ext. ref 1 (°C)	1.61T ext. ref 2 (°C)	27.50length (m)	temperature (°C)	Stokes	anti-Stokes-747.200	-47.720	0.238	0.117
-746.185	248.729	0.070	0.121
-745.171	-187.333	-0.246	0.003
-744.156	-70.917	0.040	-0.015
-743.142	614.873	-0.105	0.267
-742.127	180.401	-0.307	0.458
-741.112	37.828	0.105	0.095
-740.098	-200.000	0.022	0.231
-739.083	460.851	-0.257	0.583
-738.069	4.630	0.080	0.060
-737.054	-65.761	-0.090	0.037
-736.039	135.010	-0.140	-0.185
-735.025	-27.705	0.246	-0.145
-734.010	98.735	-0.143	0.168
-732.996	-176.996	-0.455	-0.012
-731.981	-200.000	-0.003	-0.157
-730.966	-200.000	-0.018	-0.457
-729.952	117.019	0.008	-0.010
-728.937	116.739	-0.132	-0.165
-727.923	491.090	-0.042	0.098
-726.908	20.975	-0.009	-0.007
-725.894	-39.414	-0.087	-0.046
-724.879	234.142	-0.120	0.201
-723.864	-200.000	-0.044	0.264
-722.850	-4.072	0.103	-0.072
-721.835	-177.656	-0.291	-0.007
-720.821	25.617	0.154	0.130
-719.806	-200.000	0.002	0.045
-718.791	-200.000	-0.010	-0.207
-717.777	414.064	0.027	0.058
-716.762	498.857	-0.014	-0.034
-715.748	432.136	0.181	-0.398
-714.733	230.773	0.060	-0.100
-713.718	-121.688	0.165	-0.028
-712.704	-200.000	-0.273	-0.001
-711.689	147.665	-0.218	0.299
-710.675	-200.000	0.014	-0.278
-709.660	-108.512	-0.344	0.075
-708.645	-8.689	0.182	-0.124
-707.631	176.354	-0.139	-0.205
-706.616	6.732	0.049	-0.037
-705.602	53.604	0.181	-0.176
-704.587	-200.000	0.025	0.273
-703.572	284.903	0.197	-0.360
-702.558	-97.877	0.054	0.014
-701.543	72.126	0.106	0.112
-700.529	60.569	-0.231	-0.232
-699.514	800.000	-0.116	-0.389
-698.499	-127.104	0.234	-0.035
-697.485	120.070	-0.310	0.390
-696.470	-200.000	-0.042	0.284
-695.456	-28.100	0.331	0.194
-694.441	66.467	-0.030	0.031
-693.426	-125.932	-0.225	0.034
-692.412	121.723	0.136	-0.171
-691.397	45.481	-0.254	-0.238
-690.383	-60.224	0.050	-0.022
-689.368	54.091	0.416	-0.405
-688.354	-62.505	-0.250	0.105
-687.339	-99.845	-0.235	-0.060
-686.324	15.365	-0.099	0.078
-685.310	-200.000	0.064	0.346
-684.295	-52.220	0.300	-0.141
-683.281	-61.958	-0.215	-0.091
-682.266	-200.000	-0.040	-0.232
-681.251	-113.448	-0.145	0.029
-680.237	148.554	0.196	-0.269
-679.222	-135.653	0.065	-0.008
-678.208	800.000	-0.215	-0.608
-677.193	18.516	0.378	0.306
-676.178	800.000	-0.104	-0.355
-675.164	147.477	0.021	-0.029
-674.149	800.000	-0.087	0.331
-673.135	-71.947	0.100	0.038
-672.120	98.386	-0.032	0.037
-671.105	69.243	-0.130	0.135
-670.091	-6.232	-0.430	-0.297
-669.076	161.878	-0.119	0.168
-668.062	-80.515	-0.186	0.063
-667.047	214.933	-0.231	-0.370
-666.032	-164.110	-0.253	0.012
-665.018	-54.430	-0.038	-0.017
-664.003	-155.140	-0.282	0.019
-662.989	67.417	0.084	0.087
-661.974	-83.595	0.144	-0.047
-660.959	-43.880	0.145	0.074
-659.945	-200.000	0.014	-0.196
-658.930	800.000	0.043	-0.140
-657.916	-200.000	0.004	0.202
-656.901	800.000	-0.039	-0.152
-655.886	-40.492	0.198	0.104
-654.872	-28.694	0.384	0.224
-653.857	-39.323	0.121	0.064
-652.843	-124.327	-0.202	0.032
-651.828	281.007	0.069	0.125
-650.814	369.707	0.212	0.434
-649.799	31.346	-0.395	0.343
-648.784	-32.943	-0.249	0.140
-647.770	56.269	0.223	0.219
-646.755	-121.670	0.400	0.067
-645.741	-101.115	0.379	0.094
-644.726	-12.657	0.205	0.135
-643.711	134.840	0.061	0.080
-642.697	290.467	-0.087	-0.161
-641.682	-200.000	-0.039	-0.201
-640.668	-101.733	-0.206	0.050
-639.653	-98.189	-0.207	-0.054
-638.638	191.112	0.125	-0.191
-637.624	800.000	0.013	0.035
-636.609	-145.963	-0.006	-0.001
-635.595	78.424	0.244	0.264
-634.580	336.676	0.168	-0.330
-633.565	800.000	-0.050	0.163
-632.551	-130.575	0.163	-0.022
-631.536	-56.255	0.086	-0.039
-630.522	-200.000	0.146	-0.001
-629.507	800.000	-0.088	0.250
-628.492	-172.400	-0.137	0.004
-627.478	32.347	-0.190	0.166
-626.463	16.479	-0.017	-0.014
-625.449	9.741	-0.183	0.141
-624.434	780.874	0.152	0.420
-623.419	-200.000	-0.001	-0.081
-622.405	800.000	-0.047	-0.159
-621.390	213.933	0.164	-0.263
-620.376	503.501	0.079	-0.186
-619.361	83.371	0.114	-0.125
-618.346	-85.795	0.166	0.052
-617.332	-90.499	0.122	-0.036
-616.317	-132.083	0.229	0.030
-615.303	-128.730	-0.379	-0.054
-614.288	99.357	-0.048	-0.056
-613.273	35.093	-0.177	-0.157
-612.259	79.103	-0.044	-0.048
-611.244	533.567	-0.045	0.109
-610.230	305.068	-0.144	0.271
-609.215	57.557	-0.206	0.203
-608.201	159.308	0.167	-0.235
-607.186	-200.000	0.018	-0.168
-606.171	108.763	0.162	0.195
-605.157	355.063	0.079	-0.159
-604.142	-200.000	-0.003	0.040
-603.128	-200.000	-0.099	-0.499
-602.113	-200.000	0.008	-0.113
-601.098	-148.542	0.263	-0.022
-600.084	-20.530	-0.075	-0.047
-599.069	-137.446	-0.156	0.018
-598.055	800.000	0.024	0.095
-597.040	800.000	0.042	0.175
-596.025	793.614	0.142	-0.394
-595.011	47.602	-0.070	-0.066
-593.996	-88.682	0.407	-0.122
-592.982	-126.054	0.117	0.018
-591.967	92.110	-0.146	-0.166
-590.952	213.568	0.090	0.144
-589.938	800.000	-0.106	-0.329
-588.923	800.000	-0.059	-0.240
-587.909	-200.000	-0.004	0.031
-586.894	202.000	-0.102	0.158
-585.879	-36.729	-0.321	0.174
-584.865	-41.307	-0.181	-0.094
-583.850	274.664	0.146	-0.261
-582.836	117.843	0.030	-0.038
-581.821	-200.000	0.032	-0.230
-580.806	800.000	0.105	-0.395
-579.792	-119.652	-0.280	0.049
-578.777	9.695	0.211	-0.161
-577.763	-57.828	0.205	-0.091
-576.748	800.000	0.062	-0.250
-575.733	-200.000	0.017	-0.130
-574.719	-87.480	0.322	-0.098
-573.704	-74.250	0.074	0.027
-572.690	-200.000	-0.062	-0.277
-571.675	-70.903	0.247	0.094
-570.661	77.912	-0.179	-0.193
-569.646	-1.827	0.128	0.091
-568.631	61.416	-0.324	-0.325
-567.617	-29.389	-0.161	0.093
-566.602	-200.000	0.021	0.295
-565.588	-200.000	0.023	0.264
-564.573	350.235	0.101	-0.202
-563.558	-64.301	-0.276	0.113
-562.544	17.448	-0.083	0.066
-561.529	-102.684	-0.348	0.084
-560.515	35.484	0.240	-0.213
-559.500	84.978	-0.146	0.161
-558.485	85.939	-0.087	-0.097
-557.471	18.190	-0.249	-0.200
-556.456	651.518	0.082	0.212
-555.442	148.342	0.208	0.284
-554.427	-132.453	-0.145	0.019
-553.412	-130.675	0.092	-0.013
-552.398	192.022	0.193	0.293
-551.383	-200.000	-0.040	0.307
-550.369	800.000	0.028	0.105
-549.354	358.570	0.128	-0.258
-548.339	300.985	-0.039	0.073
-547.325	-80.990	-0.159	0.053
-546.310	800.000	0.069	0.196
-545.296	800.000	0.025	-0.074
-544.281	-98.973	-0.263	-0.067
-543.266	64.031	0.263	-0.266
-542.252	395.309	0.024	-0.050
-541.237	-91.162	0.243	0.070
-540.223	558.159	0.075	-0.182
-539.208	-165.144	-0.082	0.004
-538.193	44.115	-0.100	0.092
-537.179	225.332	-0.146	0.238
-536.164	800.000	0.039	-0.117
-535.150	-31.586	0.142	-0.080
-534.135	-117.182	-0.132	0.024
-533.121	-138.670	-0.227	-0.025
-532.106	64.038	-0.343	-0.348
-531.091	418.597	0.070	0.150
-530.077	-156.556	0.117	-0.007
-529.062	3.685	0.106	0.078
-528.048	14.934	-0.112	0.088
-527.033	68.721	0.114	0.118
-526.018	-55.441	-0.151	0.068
-525.004	105.359	-0.053	-0.063
-523.989	-115.010	0.553	0.106
-522.975	-123.390	-0.250	0.040
-521.960	18.014	0.299	0.240
-520.945	-200.000	0.021	-0.129
-519.931	198.324	0.294	0.452
-518.916	800.000	0.048	0.145
-517.902	11.036	0.156	-0.120
-516.887	800.000	-0.064	-0.180
-515.872	800.000	0.053	0.181
-514.858	-14.553	-0.157	-0.102
-513.843	367.016	0.040	0.082
-512.829	37.138	-0.130	-0.116
-511.814	800.000	0.073	-0.321
-510.799	-200.000	0.004	-0.125
-509.785	-57.600	-0.094	-0.041
-508.770	381.895	0.056	0.116
-507.756	-61.696	0.201	0.085
-506.741	52.423	0.140	0.134
-505.726	-137.576	0.219	-0.025
-504.712	190.658	0.031	-0.047
-503.697	-111.433	0.072	0.015
-502.683	-111.861	0.128	0.026
-501.668	-101.582	0.147	-0.036
-500.653	800.000	-0.091	0.337
-499.639	131.357	-0.139	0.179
-498.624	-200.000	-0.023	0.185
-497.610	595.203	-0.112	-0.278
-496.595	84.002	0.060	-0.066
-495.581	-61.833	0.194	-0.082
-494.566	118.264	0.081	0.101
-493.551	296.505	0.095	-0.175
-492.537	253.229	-0.064	-0.110
-491.522	300.470	-0.151	-0.280
-490.508	800.000	0.051	-0.211
-489.493	-21.213	-0.054	-0.033
-488.478	11.166	0.070	-0.054
-487.464	-86.399	-0.300	-0.093
-486.449	361.572	-0.105	-0.213
-485.435	433.887	0.028	-0.062
-484.420	-68.553	-0.120	0.047
-483.405	-51.583	-0.275	-0.129
-482.391	236.892	0.148	0.247
-481.376	-121.899	0.100	0.017
-480.362	-200.000	0.038	-0.240
-479.347	-169.625	-0.137	0.005
-478.332	-149.748	0.453	-0.036
-477.318	62.030	0.131	0.131
-476.303	-135.268	-0.077	0.009
-475.289	-97.576	-0.248	0.065
-474.274	103.403	-0.139	-0.165
-473.259	7.966	0.350	-0.264
-472.245	-113.552	-0.306	0.060
-471.230	800.000	-0.049	0.207
-470.216	-125.044	0.106	-0.016
-469.201	-200.000	-0.013	0.094
-468.186	137.246	-0.110	-0.144
-467.172	147.416	0.231	-0.313
-466.157	110.809	-0.193	0.234
-465.143	-200.000	0.001	0.013
-464.128	-81.852	-0.535	0.176
-463.113	-150.450	0.254	-0.020
-462.099	528.626	-0.188	0.446
-461.084	-61.567	0.246	-0.104
-460.070	84.478	-0.371	0.408
-459.055	-5.229	0.123	0.085
-458.040	-74.653	-0.097	0.035
-457.026	-156.986	-0.247	-0.015
-456.011	-200.000	0.027	0.247
-454.997	210.277	-0.235	0.370
-453.982	-11.317	0.237	0.157
-452.968	472.134	-0.176	0.398
-451.953	396.023	0.034	-0.072
-450.938	-200.000	-0.019	-0.087
-449.924	-127.149	-0.491	-0.072
-448.909	23.356	0.482	0.398
-447.895	-100.090	0.173	-0.043
-446.880	70.168	0.254	-0.264
-445.865	-70.307	-0.057	-0.022
-444.851	286.040	0.116	0.210
-443.836	-43.211	0.129	0.066
-442.822	12.670	-0.208	-0.161
-441.807	-14.996	0.176	-0.113
-440.792	-25.929	-0.073	-0.043
-439.778	-24.013	-0.143	-0.086
-438.763	-65.910	-0.172	-0.069
-437.749	181.835	-0.076	-0.112
-436.734	-200.000	-0.033	0.367
-435.719	-113.867	-0.158	-0.031
-434.705	31.817	-0.372	0.322
-433.690	-32.687	-0.161	-0.090
-432.676	-200.000	0.017	0.160
-431.661	-131.168	0.161	-0.021
-430.646	-200.000	0.019	0.236
-429.632	-200.000	-0.002	0.164
-428.617	-128.768	0.103	-0.015
-427.603	24.041	0.257	-0.213
-426.588	162.596	-0.089	0.126
-425.573	-200.000	-0.001	-0.135
-424.559	-200.000	0.037	0.325
-423.544	-149.780	-0.288	0.023
-422.530	137.793	0.215	-0.283
-421.515	-70.264	0.280	0.107
-420.500	-90.144	0.331	-0.097
-419.486	-18.026	-0.193	-0.121
-418.471	-200.000	0.006	-0.144
-417.457	206.177	0.115	0.180
-416.442	157.966	-0.080	0.111
-415.428	800.000	-0.058	-0.168
-414.413	-178.223	-0.222	-0.005
-413.398	-138.999	-0.319	0.035
-412.384	109.614	-0.064	-0.076
-411.369	-69.928	-0.103	0.039
-410.355	-130.826	0.305	0.041
-409.340	-50.151	0.251	0.119
-408.325	800.000	-0.042	-0.127
-407.311	-9.873	-0.135	-0.090
-406.296	442.455	0.094	0.206
-405.282	-45.393	0.075	-0.037
-404.267	-200.000	0.020	0.116
-403.252	389.466	-0.082	-0.171
-402.238	630.769	0.062	0.158
-401.223	-40.806	-0.094	-0.049
-400.209	-94.328	0.113	0.031
-399.194	-51.445	0.153	-0.071
-398.179	-17.093	-0.440	0.278
-397.165	22.546	-0.182	0.149
-396.150	-144.831	-0.121	0.011
-395.136	767.106	-0.127	0.347
-394.121	800.000	0.096	-0.271
-393.106	-63.903	0.095	-0.039
-392.092	-174.384	-0.122	0.004
-391.077	155.807	-0.095	0.131
-390.063	563.495	-0.002	-0.006
-389.048	-13.866	0.057	-0.037
-388.033	-200.000	-0.026	-0.264
-387.019	-200.000	-0.023	-0.269
-386.004	-86.484	0.152	-0.047
-384.990	19.715	0.262	0.211
-383.975	-200.000	0.009	0.087
-382.960	-50.462	0.211	0.100
-381.946	-64.381	-0.194	0.079
-380.931	-184.751	0.200	0.003
-379.917	-2.110	0.174	-0.122
-378.902	-46.054	-0.093	-0.046
-377.888	800.000	-0.090	-0.313
-376.873	523.506	-0.119	-0.281
-375.858	32.380	0.043	0.037
-374.844	5.193	-0.375	-0.277
-373.829	-200.000	0.016	0.347
-372.815	-200.000	0.129	0.574
-371.800	122.303	-0.062	0.078
-370.785	434.139	0.074	-0.161
-369.771	-34.956	-0.240	-0.131
-368.756	800.000	-0.038	-0.112
-367.742	69.727	-0.211	-0.218
-366.727	357.013	0.140	-0.280
-365.712	26.940	-0.283	0.238
-364.698	-38.146	0.184	0.097
-363.683	285.580	-0.099	0.179
-362.669	132.835	-0.232	0.299
-361.654	-12.081	0.153	-0.100
-360.639	65.373	-0.163	0.165
-359.625	-78.502	0.078	0.027
-358.610	-83.043	-0.066	-0.021
-357.596	800.000	-0.114	0.314
-356.581	32.453	-0.092	-0.080
-355.566	229.615	-0.205	-0.335
-354.552	22.516	-0.263	0.215
-353.537	353.048	-0.070	-0.140
-352.523	-200.000	-0.035	-0.362
-351.508	242.397	0.056	0.094
-350.493	-166.855	-0.154	0.006
-349.479	-49.862	0.164	0.078
-348.464	-200.000	0.020	-0.309
-347.450	-174.564	-0.181	0.005
-346.435	206.094	0.206	0.320
-345.420	446.173	-0.060	0.132
-344.406	-5.597	-0.167	0.115
-343.391	-47.151	0.213	0.104
-342.377	-200.000	0.035	0.173
-341.362	48.773	0.094	-0.089
-340.348	-200.000	0.010	-0.388
-339.333	24.846	-0.423	0.350
-338.318	313.952	-0.041	0.077
-337.304	206.230	-0.208	-0.324
-336.289	-37.025	0.159	0.085
-335.275	169.466	-0.197	-0.281
-334.260	800.000	0.101	-0.284
-333.245	-200.000	-0.038	0.290
-332.231	356.427	-0.011	0.022
-331.216	-98.604	-0.187	0.048
-330.202	-26.790	0.077	0.045
-329.187	220.192	-0.108	-0.173
-328.172	-0.300	-0.178	-0.127
-327.158	105.734	0.045	0.053
-326.143	99.239	0.135	0.156
-325.129	-69.517	-0.070	-0.027
-324.114	90.463	0.119	0.133
-323.099	297.893	-0.090	0.166
-322.085	800.000	-0.078	0.232
-321.070	800.000	-0.102	0.345
-320.056	800.000	-0.010	-0.032
-319.041	316.812	-0.144	0.273
-318.026	484.692	0.113	-0.257
-317.012	-200.000	-0.024	-0.209
-315.997	170.883	-0.055	-0.079
-314.983	800.000	0.096	0.293
-313.968	102.706	0.104	-0.122
-312.953	-200.000	-0.011	-0.131
-311.939	187.566	-0.240	0.358
-310.924	-115.736	0.059	0.011
-309.910	-170.510	-0.122	0.004
-308.895	-105.068	0.134	0.031
-307.880	-39.011	0.073	-0.038
-306.866	-134.204	-0.218	0.027
-305.851	-102.139	-0.455	-0.109
-304.837	-200.000	0.015	0.473
-303.822	-200.000	-0.031	0.144
-302.807	-200.000	-0.039	-0.380
-301.793	239.333	0.092	-0.154
-300.778	-200.000	0.034	0.174
-299.764	-98.018	-0.181	0.047
-298.749	152.032	-0.169	-0.230
-297.735	-200.000	-0.021	-0.158
-296.720	-116.764	-0.195	-0.036
-295.705	8.693	-0.189	-0.142
-294.691	314.923	0.116	-0.219
-293.676	-140.139	0.252	-0.026
-292.662	-200.000	-0.028	0.136
-291.647	800.000	-0.075	0.282
-290.632	-54.579	-0.080	-0.036
-289.618	77.894	-0.132	0.140
-288.603	-169.272	-0.114	-0.004
-287.589	211.951	-0.244	-0.384
-286.574	-63.473	0.331	-0.136
-285.559	-152.913	0.189	0.013
-284.545	-14.999	0.351	0.224
-283.530	122.909	0.259	-0.324
-282.516	800.000	-0.090	0.254
-281.501	89.494	-0.108	0.120
-280.486	-200.000	-0.007	-0.348
-279.472	14.737	0.189	0.147
-278.457	311.860	-0.135	0.253
-277.443	-74.276	0.260	0.094
-276.428	-92.207	0.153	0.043
-275.413	100.729	-0.190	-0.220
-274.399	-200.000	-0.010	-0.357
-273.384	-200.000	0.042	0.283
-272.370	-55.659	-0.107	-0.048
-271.355	-83.664	0.288	0.092
-270.340	800.000	-0.124	-0.462
-269.326	-6.546	-0.165	-0.112
-268.311	165.825	-0.096	0.136
-267.297	-200.000	0.005	-0.355
-266.282	466.287	-0.084	-0.187
-265.267	800.000	0.063	0.208
-264.253	215.885	-0.055	-0.088
-263.238	-163.469	-0.071	0.003
-262.224	-1.367	0.124	0.087
-261.209	-200.000	0.071	-0.365
-260.195	-97.882	0.269	0.069
-259.180	210.095	-0.082	-0.129
-258.165	23.968	0.155	-0.127
-257.151	-78.815	-0.196	0.067
-256.136	205.509	0.201	0.311
-255.122	-124.471	0.148	0.023
-254.107	800.000	0.082	0.328
-253.092	195.982	-0.068	0.104
-252.078	59.884	-0.213	-0.209
-251.063	-29.978	0.420	0.239
-250.049	-195.113	0.064	-0.000
-249.034	-200.000	-0.018	0.088
-248.019	13.723	0.226	-0.175
-247.005	43.110	-0.120	-0.109
-245.990	-200.000	-0.001	-0.127
-244.976	45.086	0.172	0.158
-243.961	232.201	0.135	0.221
-242.946	6.186	0.258	0.191
-241.932	-200.000	0.006	-0.030
-240.917	-4.422	0.146	-0.100
-239.903	-200.000	0.009	-0.466
-238.888	-107.757	-0.321	-0.070
-237.873	474.421	-0.157	-0.353
-236.859	-200.000	-0.018	-0.254
-235.844	-48.330	0.199	-0.095
-234.830	375.753	-0.072	0.146
-233.815	-133.251	-0.086	0.011
-232.800	-66.519	-0.154	0.061
-231.786	-200.000	0.052	-0.287
-230.771	377.153	-0.079	0.160
-229.757	-200.000	0.011	0.431
-228.742	-47.812	0.391	0.189
-227.727	-67.072	0.213	0.084
-226.713	800.000	-0.073	-0.279
-225.698	139.463	-0.137	-0.180
-224.684	800.000	-0.015	0.050
-223.669	-70.394	0.131	-0.050
-222.655	-85.466	0.137	-0.043
-221.640	54.002	-0.095	-0.091
-220.625	7.429	0.246	-0.183
-219.611	800.000	-0.054	-0.174
-218.596	21.553	-0.071	0.058
-217.582	-58.028	0.100	-0.043
-216.567	163.346	0.034	0.047
-215.552	800.000	0.110	0.306
-214.538	800.000	-0.150	0.480
-213.523	800.000	0.043	-0.145
-212.509	-28.229	-0.188	0.108
-211.494	-200.000	-0.008	-0.230
-210.479	17.004	0.380	0.300
-209.465	34.213	-0.152	-0.132
-208.450	-163.689	0.094	0.004
-207.436	-43.371	-0.046	-0.023
-206.421	-200.000	-0.046	-0.234
-205.406	156.735	0.248	0.341
-204.392	-183.497	0.135	0.002
-203.377	97.904	-0.142	0.162
-202.363	0.987	0.123	-0.088
-201.348	93.086	0.118	-0.132
-200.333	261.981	0.117	-0.202
-199.319	-110.771	0.196	0.040
-198.304	75.108	-0.266	-0.279
-197.290	-200.000	0.007	0.158
-196.275	293.556	-0.082	-0.149
-195.260	-29.251	-0.235	0.134
-194.246	-145.531	0.322	0.029
-193.231	-200.000	0.030	0.165
-192.217	132.245	0.044	0.057
-191.202	35.082	-0.162	0.141
-190.187	118.583	0.082	0.101
-189.173	166.806	-0.102	-0.144
-188.158	29.259	0.113	0.096
-187.144	107.293	0.244	0.288
-186.129	800.000	-0.113	-0.323
-185.114	-92.512	-0.204	-0.057
-184.100	-30.115	0.121	-0.068
-183.085	264.854	0.204	-0.353
-182.071	-174.274	-0.168	0.005
-181.056	-47.961	0.019	-0.009
-180.042	-74.842	0.105	0.037
-179.027	342.598	-0.082	-0.159
-178.012	349.960	-0.093	0.183
-176.998	201.793	0.038	0.058
-175.983	612.533	-0.098	-0.243
-174.969	14.511	0.190	-0.148
-173.954	21.587	0.153	0.123
-172.939	746.015	0.082	-0.219
-171.925	20.646	-0.075	0.060
-170.910	-107.152	-0.341	0.075
-169.896	-113.638	-0.232	-0.045
-168.881	93.468	0.182	-0.205
-167.866	-24.095	-0.083	0.049
-166.852	-164.083	-0.307	-0.014
-165.837	78.728	-0.088	0.093
-164.823	800.000	0.018	-0.056
-163.808	522.232	0.042	-0.098
-162.793	317.664	0.193	0.363
-161.779	-159.719	0.174	-0.010
-160.764	-90.313	0.435	-0.125
-159.750	99.171	0.103	0.118
-158.735	198.347	-0.177	0.268
-157.720	142.680	-0.163	0.215
-156.706	178.366	-0.020	-0.029
-155.691	274.283	-0.163	-0.286
-154.677	747.320	-0.072	-0.192
-153.662	54.573	0.225	0.215
-152.647	-200.000	0.031	0.169
-151.633	19.892	0.296	-0.237
-150.618	163.173	0.106	0.148
-149.604	-56.150	-0.061	-0.027
-148.589	-200.000	-0.003	-0.084
-147.574	18.116	0.284	-0.225
-146.560	-30.909	-0.180	0.101
-145.545	-16.749	0.111	-0.070
-144.531	156.120	-0.017	0.023
-143.516	800.000	-0.060	-0.228
-142.502	-181.189	0.122	-0.002
-141.487	-163.168	-0.290	-0.014
-140.472	-91.967	-0.216	-0.061
-139.458	800.000	0.034	-0.140
-138.443	-200.000	0.018	0.248
-137.429	800.000	-0.102	0.374
-136.414	-200.000	-0.036	0.182
-135.399	800.000	-0.081	0.254
-134.385	-142.921	0.297	0.029
-133.370	37.362	-0.119	0.105
-132.356	800.000	-0.054	0.193
-131.341	-200.000	0.014	-0.118
-130.326	-111.482	0.114	0.023
-129.312	-200.000	-0.044	-0.243
-128.297	294.202	-0.107	0.193
-127.283	430.826	0.093	0.200
-126.268	334.192	-0.114	0.219
-125.253	7.863	-0.041	0.031
-124.239	292.125	0.036	0.065
-123.224	-200.000	0.003	-0.207
-122.210	119.310	0.193	-0.237
-121.195	-198.241	0.112	-0.001
-120.180	13.269	-0.161	0.124
