DTS Sentinel unit serial number:	SN413079Multiplexer serial number:	ORYXHardware model number:	OX4-SRSoftware version number:	ORYX F/W v4.00 Oryx Data Collector v3.7.2.0data status	okinstallation	princeton_trtdifferential loss correction	single-endedforward channel	channel 4reverse channel	N/Adate	2019/09/12time	04:51:11forward acquisition time	60.00reverse acquisition time	0.00gamma	496.2192k internal	0.2310k external	0.2310temperature offset calibration	1.0090default loss term (dB/km)	0.3790temperature slope calibration	1.0000multiplexer offset coefficient	1.0000multiplexer slope coefficient	1.0000fibre end	0.00T internal ref (°C)	31.66T ext. ref 1 (°C)	1.97T ext. ref 2 (°C)	27.21length (m)	temperature (°C)	Stokes	anti-Stokes-747.200	381.137	0.056	-0.117
-746.185	327.305	0.132	-0.258
-745.171	360.690	0.069	-0.141
-744.156	-200.000	0.094	0.543
-743.142	88.957	-0.169	0.191
-742.127	573.509	0.044	0.109
-741.112	-200.000	0.028	-0.286
-740.098	-96.276	0.206	0.055
-739.083	-78.524	0.248	-0.086
-738.069	98.283	0.060	0.070
-737.054	-66.574	0.262	0.106
-736.039	182.384	-0.198	-0.296
-735.025	-200.000	0.001	-0.085
-734.010	-60.339	-0.364	-0.157
-732.996	-200.000	-0.023	-0.278
-731.981	-41.521	-0.406	0.212
-730.966	-39.897	0.379	-0.201
-729.952	-200.000	0.000	-0.192
-728.937	51.479	-0.162	-0.156
-727.923	123.491	-0.168	-0.214
-726.908	61.893	-0.278	-0.281
-725.894	-190.257	-0.406	-0.005
-724.879	-5.778	0.233	0.162
-723.864	479.555	-0.026	-0.060
-722.850	800.000	-0.048	0.201
-721.835	-56.442	0.234	0.106
-720.821	-134.145	-0.349	0.044
-719.806	-197.251	0.332	0.002
-718.791	800.000	0.038	-0.115
-717.777	-24.163	-0.082	-0.050
-716.762	-200.000	-0.020	-0.332
-715.748	518.285	0.105	-0.249
-714.733	-43.415	-0.027	-0.014
-713.718	-20.532	-0.104	-0.065
-712.704	800.000	-0.004	-0.014
-711.689	34.376	-0.124	0.110
-710.675	378.158	0.126	0.262
-709.660	-94.981	0.275	-0.076
-708.645	147.937	0.147	0.202
-707.631	-200.000	-0.013	-0.082
-706.616	728.557	0.065	-0.175
-705.602	800.000	0.125	-0.435
-704.587	-78.433	0.479	-0.167
-703.572	728.555	-0.005	-0.013
-702.558	-104.779	-0.196	0.046
-701.543	-120.773	-0.292	0.050
-700.529	-120.390	0.471	-0.081
-699.514	-53.581	-0.190	-0.088
-698.499	87.176	-0.132	-0.148
-697.485	-200.000	0.002	0.084
-696.470	-45.202	-0.290	-0.146
-695.456	-139.555	0.265	0.029
-694.441	37.793	0.129	0.116
-693.426	-200.000	-0.009	-0.269
-692.412	118.612	0.369	-0.461
-691.397	437.917	-0.078	0.172
-690.383	-200.000	-0.044	-0.000
-689.368	-29.386	-0.082	0.048
-688.354	16.722	-0.090	0.072
-687.339	-128.184	-0.093	-0.013
-686.324	-200.000	-0.015	-0.345
-685.310	-45.701	0.086	0.043
-684.295	800.000	-0.060	-0.239
-683.281	-200.000	0.018	-0.095
-682.266	-48.485	0.202	0.099
-681.251	572.624	0.030	-0.075
-680.237	47.889	0.103	0.098
-679.222	-104.648	-0.378	0.088
-678.208	530.580	0.103	-0.247
-677.193	-16.965	0.041	-0.026
-676.178	164.670	-0.153	0.218
-675.164	133.847	-0.045	-0.059
-674.149	-200.000	-0.062	-0.293
-673.135	-91.654	0.296	-0.085
-672.120	-7.887	-0.075	0.051
-671.105	-100.808	-0.326	-0.081
-670.091	421.282	0.054	0.117
-669.076	-47.358	0.356	-0.175
-668.062	-64.297	-0.156	0.064
-667.047	-152.535	0.042	0.003
-666.032	-14.101	-0.224	-0.146
-665.018	30.817	-0.197	-0.171
-664.003	578.736	0.057	-0.142
-662.989	800.000	0.057	0.160
-661.974	800.000	0.055	-0.197
-660.959	800.000	-0.058	-0.246
-659.945	-51.489	-0.075	-0.035
-658.930	800.000	0.090	-0.373
-657.916	-171.560	0.209	-0.007
-656.901	587.886	0.029	0.072
-655.886	4.276	-0.230	-0.171
-654.872	144.896	-0.129	-0.174
-653.857	-200.000	-0.016	-0.082
-652.843	-73.035	0.196	-0.073
-651.828	800.000	-0.087	0.247
-650.814	-38.763	0.161	0.086
-649.799	128.913	0.117	0.151
-648.784	-77.242	-0.124	-0.044
-647.770	-105.251	0.214	0.050
-646.755	-17.699	-0.026	0.017
-645.741	530.437	0.088	-0.211
-644.726	-200.000	-0.008	-0.277
-643.711	-176.142	0.063	-0.002
-642.697	-113.831	-0.384	0.076
-641.682	27.582	-0.014	-0.012
-640.668	34.007	0.167	0.147
-639.653	-200.000	-0.079	-0.363
-638.638	59.563	0.244	0.243
-637.624	-155.636	0.032	-0.002
-636.609	-42.050	-0.115	0.059
-635.595	237.788	-0.187	0.313
-634.580	-114.856	0.204	0.039
-633.565	231.582	-0.222	0.369
-632.551	118.153	-0.133	0.166
-631.536	-79.668	0.307	0.105
-630.522	86.292	-0.195	-0.217
-629.507	-174.827	-0.236	-0.007
-628.492	482.948	0.177	-0.407
-627.478	-41.534	0.094	0.049
-626.463	383.912	-0.035	0.074
-625.449	-169.828	0.356	-0.013
-624.434	800.000	-0.098	-0.306
-623.419	18.950	-0.426	-0.345
-622.405	-200.000	0.056	-0.250
-621.390	-183.053	0.175	-0.003
-620.376	-142.068	0.094	-0.009
-619.361	105.675	-0.063	-0.075
-618.346	29.244	0.167	-0.144
-617.332	-71.708	0.164	-0.062
-616.317	-111.210	-0.143	0.030
-615.303	800.000	0.131	0.410
-614.288	-200.000	-0.005	-0.140
-613.273	-200.000	0.005	-0.286
-612.259	-200.000	0.012	0.231
-611.244	-72.787	0.159	-0.059
-610.230	120.388	-0.027	0.034
-609.215	200.591	-0.143	-0.223
-608.201	800.000	-0.120	-0.344
-607.186	-200.000	0.008	-0.147
-606.171	800.000	0.061	-0.199
-605.157	13.181	-0.324	0.254
-604.142	-158.048	-0.299	-0.018
-603.128	12.079	-0.035	0.027
-602.113	-44.886	0.028	0.014
-601.098	94.384	-0.059	0.068
-600.084	-152.946	-0.057	0.004
-599.069	18.260	-0.229	-0.184
-598.055	800.000	0.033	-0.128
-597.040	81.235	0.101	-0.111
-596.025	142.111	-0.180	0.241
-595.011	-38.482	-0.313	0.167
-593.996	651.721	0.040	-0.104
-592.982	391.829	-0.128	-0.268
-591.967	-200.000	-0.010	0.330
-590.952	-22.092	-0.203	-0.124
-589.938	-85.335	0.199	-0.063
-588.923	800.000	0.038	0.141
-587.909	-200.000	-0.003	0.246
-586.894	181.716	0.161	0.239
-585.879	-4.229	0.083	0.058
-584.865	-31.443	0.447	-0.254
-583.850	800.000	0.164	0.496
-582.836	204.155	0.107	0.168
-581.821	-96.178	-0.233	0.062
-580.806	800.000	0.089	-0.304
-579.792	227.182	0.107	0.176
-578.777	-200.000	-0.022	-0.631
-577.763	107.618	0.217	0.260
-576.748	-200.000	-0.016	-0.335
-575.733	800.000	-0.068	-0.208
-574.719	-47.709	-0.149	0.073
-573.704	306.363	0.149	-0.279
-572.690	-200.000	0.037	0.193
-571.675	-76.760	0.160	0.057
-570.661	-49.326	-0.074	0.036
-569.646	-193.193	0.326	-0.003
-568.631	414.527	-0.096	0.206
-567.617	224.431	-0.141	-0.231
-566.602	-89.525	0.206	-0.061
-565.588	5.349	-0.110	0.081
-564.573	-157.183	0.054	-0.003
-563.558	158.709	0.139	-0.195
-562.544	-87.901	-0.188	0.057
-561.529	238.931	-0.071	-0.119
-560.515	50.228	-0.182	0.173
-559.500	-105.907	-0.147	0.033
-558.485	20.169	-0.252	-0.205
-557.471	-109.000	-0.237	0.051
-556.456	-0.322	-0.324	0.232
-555.442	163.062	-0.275	-0.390
-554.427	800.000	-0.022	0.082
-553.412	-53.814	0.404	-0.186
-552.398	315.331	0.063	0.121
-551.383	-163.322	-0.085	-0.004
-550.369	800.000	-0.057	0.186
-549.354	-32.929	-0.067	-0.037
-548.339	50.017	-0.254	-0.241
-547.325	-80.405	-0.418	0.141
-546.310	800.000	-0.032	-0.112
-545.296	207.831	0.094	-0.148
-544.281	-128.915	-0.360	-0.051
-543.266	712.428	-0.024	-0.063
-542.252	243.970	0.064	-0.109
-541.237	-60.909	-0.075	0.032
-540.223	-200.000	0.083	-0.392
-539.208	-200.000	-0.002	-0.009
-538.193	-3.532	-0.076	0.053
-537.179	-33.491	-0.188	-0.104
-536.164	56.539	0.247	0.242
-535.150	-200.000	0.224	0.001
-534.135	-151.042	0.258	0.020
-533.121	-100.026	-0.190	0.048
-532.106	-200.000	-0.031	0.281
-531.091	-43.321	-0.191	0.097
-530.077	155.885	0.209	-0.290
-529.062	-42.379	0.065	0.034
-528.048	-93.189	-0.296	-0.083
-527.033	38.080	0.261	0.234
-526.018	-200.000	0.024	-0.240
-525.004	-63.534	0.076	-0.031
-523.989	-151.110	-0.045	0.003
-522.975	-121.221	-0.472	-0.079
-521.960	-5.218	0.420	0.291
-520.945	-200.000	-0.036	0.195
-519.931	-200.000	0.003	0.371
-518.916	-200.000	0.028	0.207
-517.902	-82.543	-0.303	0.099
-516.887	-200.000	-0.197	0.001
-515.872	4.581	-0.139	0.103
-514.858	-88.434	0.404	0.121
-513.843	-200.000	0.019	0.200
-512.829	38.607	-0.122	-0.109
-511.814	-52.384	-0.221	0.103
-510.799	21.438	0.191	-0.156
-509.785	403.661	-0.058	0.122
-508.770	-200.000	0.039	-0.300
-507.756	-200.000	-0.020	-0.229
-506.741	-62.971	-0.560	-0.233
-505.726	-98.726	0.356	0.091
-504.712	-160.973	0.148	-0.008
-503.697	156.552	-0.084	-0.117
-502.683	-140.700	0.156	0.016
-501.668	-116.676	0.347	-0.064
-500.653	-115.212	0.285	-0.054
-499.639	-200.000	0.020	0.198
-498.624	396.142	-0.023	-0.049
-497.610	-200.000	0.015	0.401
-496.595	412.577	-0.102	0.218
-495.581	-200.000	0.034	0.308
-494.566	-200.000	-0.045	-0.296
-493.551	-73.043	-0.151	0.056
-492.537	-148.832	0.349	-0.028
-491.522	204.134	-0.099	-0.155
-490.508	800.000	-0.065	-0.245
-489.493	-200.000	-0.036	-0.181
-488.478	-16.649	0.215	-0.137
-487.464	800.000	-0.045	-0.167
-486.449	-65.259	-0.402	0.163
-485.435	574.146	0.124	0.305
-484.420	139.811	0.066	-0.088
-483.405	800.000	0.049	0.185
-482.391	794.581	0.074	0.205
-481.376	99.192	0.296	0.344
-480.362	800.000	0.023	0.083
-479.347	78.960	-0.190	-0.204
-478.332	74.151	-0.226	-0.238
-477.318	-157.143	0.170	-0.010
-476.303	800.000	-0.040	-0.113
-475.289	-87.022	0.034	0.010
-474.274	-87.223	0.412	0.126
-473.259	6.465	-0.107	-0.080
-472.245	800.000	0.079	0.293
-471.230	-200.000	0.055	-0.621
-470.216	-114.866	0.367	-0.070
-469.201	800.000	-0.073	-0.249
-468.186	-200.000	-0.027	0.489
-467.172	679.916	-0.012	-0.032
-466.157	-98.096	0.215	-0.056
-465.143	198.432	-0.100	0.153
-464.128	-200.000	-0.006	0.107
-463.113	-200.000	0.006	0.286
-462.099	154.166	-0.109	-0.150
-461.084	-79.516	0.108	0.037
-460.070	-3.420	-0.215	0.150
-459.055	-70.936	0.061	0.023
-458.040	-129.733	0.100	-0.014
-457.026	800.000	0.065	0.243
-456.011	-200.000	-0.028	0.159
-454.997	-82.834	0.141	-0.046
-453.982	11.065	0.127	0.098
-452.968	-132.347	0.287	-0.037
-451.953	-200.000	-0.046	0.257
-450.938	800.000	0.059	-0.204
-449.924	-76.124	0.060	0.021
-448.909	-54.806	-0.045	0.020
-447.895	-200.000	0.074	0.381
-446.880	800.000	-0.047	-0.173
-445.865	327.026	0.109	-0.209
-444.851	-200.000	-0.006	0.122
-443.836	-31.341	0.231	0.130
-442.822	800.000	-0.037	0.133
-441.807	5.551	-0.123	0.091
-440.792	184.277	0.059	0.087
-439.778	-74.341	-0.189	-0.068
-438.763	-142.521	-0.102	0.010
-437.749	-5.036	-0.386	0.267
-436.734	-49.078	0.021	-0.010
-435.719	246.481	-0.042	-0.070
-434.705	61.265	0.248	-0.247
-433.690	800.000	-0.111	-0.406
-432.676	-28.176	0.153	0.089
-431.661	41.726	-0.137	-0.125
-430.646	-52.354	0.077	0.036
-429.632	104.132	0.310	0.366
-428.617	39.656	0.256	-0.230
-427.603	-200.000	-0.041	-0.192
-426.588	66.760	-0.024	-0.024
-425.573	-150.931	-0.553	-0.042
-424.559	-81.477	0.395	0.130
-423.544	-200.000	-0.052	-0.238
-422.530	60.504	-0.311	0.309
-421.515	-10.476	0.284	-0.189
-420.500	615.974	-0.054	0.137
-419.486	752.929	-0.037	-0.101
-418.471	-200.000	-0.046	0.231
-417.457	33.175	0.243	-0.212
-416.442	-82.619	-0.336	-0.109
-415.428	40.507	0.152	0.137
-414.413	117.339	0.135	0.167
-413.398	204.918	-0.226	0.351
-412.384	800.000	0.053	0.207
-411.369	-12.310	-0.118	0.077
-410.355	104.404	0.206	0.243
-409.340	-101.037	0.215	-0.053
-408.325	-109.159	0.349	-0.074
-407.311	800.000	0.005	0.015
-406.296	13.748	-0.218	-0.170
-405.282	254.497	0.263	0.451
-404.267	15.369	-0.256	-0.201
-403.252	-127.167	0.218	0.032
-402.238	21.350	0.173	-0.140
-401.223	265.307	0.193	0.338
-400.209	-200.000	-0.026	0.185
-399.194	-200.000	0.026	0.195
-398.179	365.392	-0.095	0.193
-397.165	293.427	0.035	0.064
-396.150	371.829	-0.150	-0.304
-395.136	329.418	-0.110	-0.212
-394.121	85.504	-0.162	0.178
-393.106	800.000	-0.070	0.215
-392.092	-168.879	-0.304	-0.011
-391.077	51.025	0.083	0.079
-390.063	-77.435	-0.085	-0.030
-389.048	-200.000	-0.013	-0.514
-388.033	-156.665	0.124	0.008
-387.019	185.035	0.145	-0.215
-386.004	299.163	-0.169	-0.311
-384.990	-115.590	-0.184	0.035
-383.975	642.059	-0.131	-0.333
-382.960	-127.391	0.313	-0.046
-381.946	-114.656	0.352	-0.068
-380.931	-164.959	0.168	-0.008
-379.917	-113.318	-0.183	0.036
-378.902	-200.000	0.023	-0.259
-377.888	-43.091	0.161	-0.082
-376.873	-95.224	-0.217	-0.059
-375.858	107.389	0.240	-0.286
-374.844	58.073	0.200	0.196
-373.829	210.444	0.067	0.105
-372.815	52.094	0.125	-0.120
-371.800	-182.431	0.239	0.004
-370.785	-137.929	0.178	0.020
-369.771	-200.000	-0.032	0.288
-368.756	239.904	-0.172	0.287
-367.742	-54.589	0.287	0.130
-366.727	85.596	0.159	0.175
-365.712	10.695	-0.045	-0.034
-364.698	-76.611	0.213	0.075
-363.683	106.383	0.032	0.037
-362.669	-64.723	-0.238	-0.096
-361.654	-102.906	0.305	0.072
-360.639	-200.000	-0.032	-0.262
-359.625	-200.000	-0.165	0.000
-358.610	-37.310	0.242	0.130
-357.596	95.044	0.159	0.181
-356.581	-200.000	-0.049	-0.312
-355.566	-53.488	-0.324	0.149
-354.552	446.657	-0.027	-0.060
-353.537	-50.286	-0.390	-0.185
-352.523	800.000	-0.031	0.093
-351.508	466.640	-0.033	0.074
-350.493	130.846	-0.093	-0.119
-349.479	-200.000	-0.003	-0.131
-348.464	-200.000	-0.012	-0.071
-347.450	-19.602	0.194	0.120
-346.435	800.000	0.065	-0.219
-345.420	-65.844	-0.017	0.007
-344.406	800.000	0.053	-0.154
-343.391	49.226	0.055	0.052
-342.377	33.179	-0.157	0.137
-341.362	-141.389	0.070	0.007
-340.348	7.440	0.180	0.135
-339.333	-200.000	0.050	-0.331
-338.318	-138.482	-0.190	-0.021
-337.304	598.010	-0.051	0.126
-336.289	485.620	0.067	-0.152
-335.275	-200.000	0.013	0.194
-334.260	-25.071	0.199	-0.118
-333.245	800.000	-0.133	0.397
-332.231	-60.219	-0.036	0.015
-331.216	-25.531	0.213	0.126
-330.202	-57.504	0.022	-0.010
-329.187	-200.000	0.021	-0.213
-328.172	657.904	-0.088	-0.227
-327.158	-200.000	-0.041	0.233
-326.143	786.610	0.041	-0.113
-325.129	588.886	0.104	-0.255
-324.114	799.954	-0.121	-0.335
-323.099	-200.000	-0.026	0.311
-322.085	101.563	0.115	-0.134
-321.070	694.462	-0.148	0.388
-320.056	-200.000	0.010	-0.067
-319.041	-200.000	-0.025	0.294
-318.026	230.330	-0.096	-0.158
-317.012	-200.000	0.001	-0.009
-315.997	-121.455	0.098	0.016
-314.983	800.000	0.093	0.363
-313.968	415.145	0.006	0.013
-312.953	-170.633	-0.331	-0.011
-311.939	624.898	0.051	-0.127
-310.924	-200.000	0.004	0.188
-309.910	-5.247	-0.238	0.163
-308.895	-200.000	-0.017	-0.091
-307.880	-200.000	-0.021	0.140
-306.866	8.134	-0.063	0.047
-305.851	-58.548	0.308	0.133
-304.837	19.851	-0.220	0.177
-303.822	-13.364	0.092	-0.060
-302.807	-200.000	0.020	-0.303
-301.793	159.290	-0.202	-0.281
-300.778	138.018	0.141	0.185
-299.764	221.802	-0.099	0.158
-298.749	-200.000	-0.009	-0.228
-297.735	800.000	0.060	-0.237
-296.720	800.000	0.056	-0.197
-295.705	125.678	0.094	0.118
-294.691	-200.000	-0.015	0.180
-293.676	302.298	-0.186	-0.344
-292.662	332.370	-0.147	-0.283
-291.647	-83.260	-0.244	0.078
-290.632	-64.130	-0.043	-0.018
-289.618	-77.623	0.173	0.060
-288.603	120.917	0.147	0.183
-287.589	800.000	-0.056	-0.169
-286.574	-9.389	-0.215	-0.143
-285.559	-121.651	-0.366	0.060
-284.545	176.395	0.094	-0.136
-283.530	-161.683	-0.316	0.016
-282.516	-98.442	-0.183	0.047
-281.501	-24.379	-0.192	-0.114
-280.486	87.944	0.181	-0.200
-279.472	-138.489	0.328	-0.036
-278.457	-200.000	-0.038	-0.175
-277.443	-33.873	0.258	-0.142
-276.428	123.609	0.047	-0.059
-275.413	76.687	-0.038	0.041
-274.399	-0.569	-0.163	-0.115
-273.384	-125.631	0.072	0.011
-272.370	-136.059	0.182	0.021
-271.355	-131.843	0.038	-0.005
-270.340	800.000	0.082	0.248
-269.326	721.290	-0.050	0.132
-268.311	124.203	0.258	-0.323
-267.297	-16.358	-0.607	0.384
-266.282	-200.000	0.000	-0.293
-265.267	222.441	0.162	-0.261
-264.253	800.000	-0.061	0.170
-263.238	460.365	-0.084	-0.186
-262.224	698.588	0.100	0.262
-261.209	800.000	0.072	0.221
-260.195	-12.502	-0.344	-0.224
-259.180	122.932	-0.150	0.188
-258.165	-24.409	-0.027	-0.016
-257.151	-200.000	0.029	-0.193
-256.136	35.625	0.175	0.153
-255.122	800.000	0.101	-0.299
-254.107	-83.346	-0.315	-0.101
-253.092	153.496	-0.045	0.062
-252.078	800.000	0.060	-0.184
-251.063	-74.141	-0.070	0.025
-250.049	-160.164	-0.209	-0.011
-249.034	800.000	0.059	0.165
-248.019	482.769	0.077	0.174
-247.005	-15.061	0.259	-0.166
-245.990	-39.489	0.359	0.187
-244.976	-200.000	-0.065	0.337
-243.961	-200.000	0.007	-0.301
-242.946	-200.000	0.026	-0.233
-241.932	-168.886	-0.336	0.013
-240.917	-200.000	-0.004	0.156
-239.903	770.789	0.031	-0.084
-238.888	-57.425	0.157	0.069
-237.873	-35.852	-0.383	0.206
-236.859	59.851	0.414	-0.407
-235.844	-200.000	0.046	0.339
-234.830	-47.526	0.085	0.041
-233.815	-172.358	-0.506	-0.016
-232.800	-37.088	0.241	-0.129
-231.786	-200.000	-0.004	0.119
-230.771	269.484	-0.110	-0.192
-229.757	346.598	-0.090	0.176
-228.742	-39.269	0.194	0.101
-227.727	76.201	-0.114	-0.120
-226.713	-40.790	-0.326	-0.168
-225.698	21.924	0.191	-0.155
-224.684	-49.035	0.395	-0.188
-223.669	-45.107	-0.093	0.046
-222.655	-76.479	-0.082	-0.029
-221.640	-48.781	-0.203	-0.097
-220.625	-137.292	-0.100	-0.011
-219.611	800.000	0.143	-0.408
-218.596	800.000	0.041	0.123
-217.582	5.457	0.049	-0.036
-216.567	171.527	-0.129	0.184
-215.552	-142.450	0.383	0.037
-214.538	-200.000	-0.038	0.269
-213.523	-120.260	-0.109	0.019
-212.509	-105.502	-0.346	-0.078
-211.494	-89.691	-0.046	0.013
-210.479	-122.361	0.374	-0.061
-209.465	164.280	0.195	-0.274
-208.450	223.188	-0.148	0.237
-207.436	-189.815	0.286	0.003
-206.421	800.000	-0.070	0.235
-205.406	158.302	0.071	-0.098
-204.392	-90.662	-0.164	-0.047
-203.377	672.731	0.087	0.224
-202.363	-200.000	0.035	0.255
-201.348	-25.893	0.299	-0.175
-200.333	-184.649	0.376	-0.006
-199.319	114.497	-0.086	0.104
-198.304	-200.000	-0.018	-0.125
-197.290	43.779	-0.079	-0.072
-196.275	800.000	-0.055	0.152
-195.260	-71.414	-0.031	0.012
-194.246	274.152	-0.079	0.138
-193.231	62.033	0.247	-0.245
-192.217	-200.000	-0.053	-0.296
-191.202	-125.832	-0.313	-0.047
-190.187	-72.933	-0.103	-0.037
-189.173	-61.348	-0.333	-0.139
-188.158	-20.180	-0.385	0.236
-187.144	-200.000	-0.026	-0.284
-186.129	148.012	0.203	0.271
-185.114	5.673	0.310	-0.228
-184.100	-155.780	-0.258	-0.016
-183.085	103.386	0.144	-0.168
-182.071	73.702	-0.334	0.348
-181.056	-34.134	0.165	-0.090
-180.042	-128.600	0.257	-0.036
-179.027	-6.107	0.107	-0.073
-178.012	197.539	0.067	0.101
-176.998	-59.561	-0.253	-0.108
-175.983	-200.000	-0.034	0.159
-174.969	-141.626	0.157	0.016
-173.954	-77.329	0.335	-0.116
-172.939	503.820	0.107	0.245
-171.925	-200.000	0.004	-0.255
-170.910	-91.183	-0.168	-0.048
-169.896	345.450	-0.123	0.240
-168.881	-79.140	-0.147	0.050
-167.866	44.507	-0.193	-0.176
-166.852	800.000	0.098	0.374
-165.837	211.161	0.114	0.178
-164.823	317.671	-0.054	-0.102
-163.808	384.253	-0.133	0.272
-162.793	334.659	0.068	0.131
-161.779	800.000	-0.046	0.145
-160.764	-200.000	0.003	0.036
-159.750	-200.000	0.008	0.219
-158.735	-160.656	0.186	-0.010
-157.720	-1.679	-0.321	0.224
-156.706	11.352	0.147	-0.112
-155.691	-101.040	0.072	0.018
-154.677	-123.908	-0.355	-0.056
-153.662	-138.637	-0.183	0.020
-152.647	308.572	-0.074	-0.138
-151.633	171.836	0.103	0.146
-150.618	19.133	-0.151	-0.120
-149.604	-200.000	-0.021	-0.257
-148.589	185.601	0.123	0.181
-147.574	534.939	0.171	0.402
-146.560	-147.288	-0.151	0.013
-145.545	-84.421	0.143	0.045
-144.531	-39.997	-0.087	0.045
-143.516	190.502	-0.109	0.162
-142.502	-75.159	0.265	0.094
-141.487	352.787	0.039	-0.076
-140.472	224.684	0.112	0.179
-139.458	-93.924	0.145	0.040
-138.443	113.227	-0.203	0.244
-137.429	-82.577	0.464	0.149
-136.414	-190.268	-0.350	0.004
-135.399	377.904	-0.056	0.113
-134.385	800.000	0.070	0.234
-133.370	-102.229	0.280	-0.067
-132.356	-168.106	0.214	0.008
-131.341	590.514	0.052	-0.126
-130.326	-200.000	-0.005	0.232
-129.312	-138.735	-0.205	0.022
-128.297	13.623	0.187	0.144
-127.283	-125.096	0.085	-0.013
-126.268	29.731	0.307	-0.259
-125.253	-20.133	-0.071	0.043
-124.239	-89.118	-0.144	0.042
-123.224	512.014	-0.158	-0.366
-122.210	1.854	-0.304	0.218
