DTS Sentinel unit serial number:	SN413079Multiplexer serial number:	ORYXHardware model number:	OX4-SRSoftware version number:	ORYX F/W v4.00 Oryx Data Collector v3.7.2.0data status	okinstallation	princeton_trtdifferential loss correction	single-endedforward channel	channel 4reverse channel	N/Adate	2019/09/12time	01:59:11forward acquisition time	60.00reverse acquisition time	0.00gamma	496.2192k internal	0.2308k external	0.2308temperature offset calibration	1.0086default loss term (dB/km)	0.3790temperature slope calibration	1.0000multiplexer offset coefficient	1.0000multiplexer slope coefficient	1.0000fibre end	0.00T internal ref (°C)	32.75T ext. ref 1 (°C)	2.05T ext. ref 2 (°C)	27.29length (m)	temperature (°C)	Stokes	anti-Stokes-747.200	149.144	-0.230	0.317
-746.185	-177.349	0.511	0.013
-745.171	48.607	-0.151	-0.144
-744.156	800.000	-0.124	0.520
-743.142	504.859	0.020	0.048
-742.127	-80.207	-0.175	-0.059
-741.112	-124.845	0.116	-0.018
-740.098	800.000	-0.044	0.186
-739.083	3.312	-0.050	-0.037
-738.069	351.036	-0.054	-0.109
-737.054	-42.658	-0.262	-0.136
-736.039	183.075	-0.171	-0.256
-735.025	-200.000	0.000	-0.008
-734.010	67.912	0.187	0.194
-732.996	-200.000	-0.037	-0.353
-731.981	541.925	-0.053	-0.129
-730.966	-117.007	-0.299	0.055
-729.952	-200.000	0.006	-0.252
-728.937	-135.149	-0.549	0.067
-727.923	-130.782	-0.375	-0.051
-726.908	33.493	-0.049	-0.044
-725.894	60.352	0.255	-0.257
-724.879	800.000	-0.101	0.400
-723.864	-200.000	0.048	0.263
-722.850	-200.000	0.007	-0.173
-721.835	-151.353	-0.146	0.011
-720.821	800.000	0.067	0.208
-719.806	-200.000	0.051	-0.252
-718.791	-200.000	0.005	-0.075
-717.777	621.550	-0.111	-0.283
-716.762	-200.000	-0.010	-0.080
-715.748	17.694	0.071	0.057
-714.733	72.538	0.206	-0.218
-713.718	800.000	-0.096	0.302
-712.704	-135.183	-0.124	-0.015
-711.689	-192.960	0.216	0.002
-710.675	-52.656	-0.500	0.234
-709.660	-42.403	0.286	0.148
-708.645	-127.406	0.177	-0.026
-707.631	76.390	0.122	-0.131
-706.616	51.854	0.028	-0.027
-705.602	-100.465	-0.118	-0.030
-704.587	-165.587	-0.294	0.013
-703.572	78.294	-0.116	0.126
-702.558	-84.541	0.233	-0.075
-701.543	-200.000	-0.355	0.000
-700.529	131.574	-0.116	-0.151
-699.514	47.817	0.097	-0.092
-698.499	139.542	-0.115	0.154
-697.485	8.401	-0.230	-0.176
-696.470	800.000	0.021	0.065
-695.456	67.121	-0.008	-0.008
-694.441	206.337	0.066	-0.104
-693.426	-130.425	0.555	0.076
-692.412	-6.027	-0.137	-0.095
-691.397	75.444	-0.077	-0.083
-690.383	800.000	0.027	-0.082
-689.368	68.675	-0.169	0.176
-688.354	369.341	-0.053	-0.110
-687.339	-91.163	0.045	-0.013
-686.324	-45.657	-0.249	-0.125
-685.310	23.059	0.170	-0.141
-684.295	132.698	0.105	0.137
-683.281	-36.739	-0.107	-0.058
-682.266	-200.000	-0.004	0.297
-681.251	69.039	0.075	0.078
-680.237	314.077	-0.186	-0.354
-679.222	543.905	-0.081	0.195
-678.208	11.587	-0.296	0.230
-677.193	-200.000	0.000	0.135
-676.178	-159.398	-0.196	-0.011
-675.164	-94.654	-0.274	-0.076
-674.149	800.000	-0.049	0.141
-673.135	-26.403	0.088	0.053
-672.120	-113.684	-0.327	0.065
-671.105	-104.718	0.146	0.034
-670.091	-101.823	0.200	0.049
-669.076	-127.931	-0.255	-0.037
-668.062	-43.506	0.259	0.132
-667.047	-34.476	0.175	-0.097
-666.032	152.949	0.143	0.198
-665.018	66.917	0.208	-0.215
-664.003	8.644	0.220	-0.168
-662.989	-139.214	0.203	0.022
-661.974	-133.162	0.019	-0.002
-660.959	3.449	-0.044	-0.032
-659.945	-59.364	-0.173	-0.075
-658.930	-162.508	0.124	-0.006
-657.916	-118.834	-0.233	0.042
-656.901	0.813	-0.205	-0.149
-655.886	800.000	-0.067	-0.220
-654.872	-101.667	-0.166	-0.041
-653.857	83.624	-0.194	0.214
-652.843	8.921	-0.106	-0.081
-651.828	-107.122	0.235	-0.052
-650.814	-86.827	0.347	0.107
-649.799	-37.608	0.248	0.134
-648.784	800.000	-0.095	0.396
-647.770	-200.000	0.024	0.346
-646.755	595.014	0.047	-0.117
-645.741	605.603	0.064	0.161
-644.726	319.352	-0.044	0.084
-643.711	-148.891	0.286	-0.023
-642.697	5.671	0.208	0.156
-641.682	82.026	-0.108	0.118
-640.668	-10.584	-0.018	-0.012
-639.653	-200.000	-0.009	-0.238
-638.638	800.000	-0.102	0.312
-637.624	141.763	-0.054	-0.073
-636.609	43.757	-0.081	-0.075
-635.595	456.416	-0.011	-0.026
-634.580	-200.000	0.004	0.095
-633.565	-116.834	0.099	0.018
-632.551	-37.907	-0.009	-0.005
-631.536	-55.017	-0.243	-0.111
-630.522	-200.000	0.009	-0.052
-629.507	-14.758	-0.183	0.119
-628.492	117.694	-0.137	-0.171
-627.478	-131.267	-0.253	-0.034
-626.463	-200.000	-0.001	0.019
-625.449	0.185	0.015	-0.011
-624.434	-74.918	-0.056	-0.020
-623.419	416.233	-0.077	0.165
-622.405	541.517	0.141	-0.339
-621.390	162.318	0.077	0.109
-620.376	-87.410	-0.444	-0.136
-619.361	-40.583	-0.143	0.075
-618.346	-120.116	-0.277	-0.048
-617.332	-148.978	0.068	0.006
-616.317	146.827	-0.099	0.134
-615.303	87.736	0.210	0.235
-614.288	-200.000	0.007	0.036
-613.273	26.312	-0.095	0.080
-612.259	114.142	0.045	0.056
-611.244	-73.046	-0.198	0.073
-610.230	39.359	-0.141	-0.128
-609.215	800.000	0.092	0.338
-608.201	433.387	-0.102	-0.224
-607.186	-53.890	0.167	0.077
-606.171	-116.973	0.259	0.048
-605.157	800.000	-0.030	-0.123
-604.142	-121.196	0.259	-0.044
-603.128	-65.016	0.106	-0.043
-602.113	83.277	-0.141	-0.155
-601.098	12.830	0.072	-0.056
-600.084	207.445	-0.080	-0.126
-599.069	-16.960	-0.207	0.132
-598.055	-55.784	-0.175	0.079
-597.040	281.327	0.183	-0.332
-596.025	-66.813	0.154	-0.061
-595.011	-21.181	-0.188	-0.116
-593.996	-190.505	0.091	-0.001
-592.982	-79.922	-0.073	0.025
-591.967	-104.240	-0.251	0.059
-590.952	434.208	-0.094	-0.205
-589.938	-200.000	-0.006	-0.290
-588.923	-134.149	-0.277	-0.035
-587.909	-3.522	-0.203	0.143
-586.894	-200.000	0.033	0.169
-585.879	-10.340	-0.112	-0.075
-584.865	-173.250	-0.119	-0.004
-583.850	-45.760	-0.113	0.056
-582.836	766.961	0.108	0.297
-581.821	-69.416	-0.076	-0.029
-580.806	-157.219	0.302	-0.018
-579.792	129.108	0.118	-0.151
-578.777	41.222	0.215	-0.196
-577.763	-169.123	0.460	0.017
-576.748	148.357	0.213	0.290
-575.733	-200.000	-0.021	0.337
-574.719	-123.976	-0.203	-0.032
-573.704	368.345	-0.043	-0.087
-572.690	56.020	-0.169	-0.166
-571.675	70.436	-0.306	-0.319
-570.661	44.892	-0.357	-0.332
-569.646	-200.000	-0.006	-0.045
-568.631	-200.000	-0.060	0.473
-567.617	196.435	-0.035	0.054
-566.602	-200.000	-0.008	-0.166
-565.588	49.391	-0.210	0.200
-564.573	-30.049	-0.068	-0.039
-563.558	610.954	-0.091	-0.230
-562.544	800.000	0.127	-0.389
-561.529	-57.131	-0.199	-0.088
-560.515	-135.121	-0.322	-0.039
-559.500	-144.386	0.154	0.014
-558.485	82.451	0.174	-0.190
-557.471	166.576	0.080	-0.114
-556.456	148.768	-0.265	0.361
-555.442	-200.000	0.054	0.273
-554.427	-139.318	0.273	0.030
-553.412	-149.786	0.260	-0.021
-552.398	145.909	-0.102	-0.138
-551.383	32.633	-0.173	-0.151
-550.369	393.155	-0.058	0.122
-549.354	637.381	0.058	-0.149
-548.339	78.773	-0.212	-0.229
-547.325	-136.329	0.094	0.011
-546.310	-13.275	0.162	0.106
-545.296	-58.801	0.053	-0.023
-544.281	-14.046	-0.358	-0.233
-543.266	-32.625	0.049	0.027
-542.252	498.082	-0.017	-0.041
-541.237	-158.406	-0.342	-0.020
-540.223	-74.870	-0.180	-0.065
-539.208	21.322	-0.170	0.139
-538.193	-107.394	-0.196	-0.043
-537.179	800.000	-0.032	0.093
-536.164	80.361	0.095	-0.103
-535.150	-120.048	-0.068	0.012
-534.135	-52.125	0.077	0.036
-533.121	-200.000	-0.053	0.256
-532.106	24.457	0.142	0.118
-531.091	-64.028	-0.256	0.106
-530.077	168.116	0.050	-0.071
-529.062	-96.767	-0.013	0.003
-528.048	-80.136	0.101	0.034
-527.033	130.777	0.122	-0.157
-526.018	-83.278	-0.055	-0.018
-525.004	-64.935	0.168	-0.068
-523.989	316.054	-0.061	0.116
-522.975	-200.000	-0.044	-0.248
-521.960	-200.000	-0.014	0.157
-520.945	-104.640	-0.276	-0.064
-519.931	-159.176	-0.132	-0.008
-518.916	52.556	0.202	0.195
-517.902	-53.503	-0.212	-0.098
-516.887	30.445	-0.277	-0.238
-515.872	19.911	-0.318	0.258
-514.858	-63.372	-0.024	-0.010
-513.843	-48.422	-0.395	-0.191
-512.829	302.737	-0.088	-0.163
-511.814	-109.822	-0.415	-0.088
-510.799	-102.511	-0.232	-0.056
-509.785	800.000	0.069	-0.263
-508.770	82.519	0.189	-0.206
-507.756	-80.015	0.139	-0.047
-506.741	-36.880	0.232	0.125
-505.726	-158.328	0.348	0.020
-504.712	-200.000	-0.005	-0.081
-503.697	-200.000	0.301	-0.000
-502.683	-75.404	-0.292	0.105
-501.668	296.690	0.054	-0.099
-500.653	-60.112	0.294	-0.126
-499.639	190.917	-0.270	0.409
-498.624	-200.000	-0.025	-0.203
-497.610	-200.000	-0.010	-0.195
-496.595	23.138	0.382	0.316
-495.581	422.609	-0.189	0.409
-494.566	70.388	-0.156	0.163
-493.551	800.000	0.051	-0.182
-492.537	-118.697	0.286	-0.051
-491.522	50.942	-0.161	-0.153
-490.508	-200.000	-0.058	0.000
-489.493	-110.980	-0.204	-0.042
-488.478	-200.000	-0.012	-0.235
-487.464	-153.132	-0.430	-0.030
-486.449	-139.976	-0.029	-0.003
-485.435	95.986	-0.140	0.161
-484.420	-43.906	0.127	-0.064
-483.405	-127.873	0.190	-0.028
-482.391	17.411	-0.152	-0.122
-481.376	-200.000	-0.013	0.215
-480.362	-200.000	0.009	-0.123
-479.347	-21.170	0.243	0.149
-478.332	57.238	-0.226	-0.222
-477.318	-106.426	-0.177	-0.040
-476.303	-77.385	0.204	-0.071
-475.289	-46.908	0.101	0.049
-474.274	267.229	0.052	0.092
-473.259	138.741	-0.283	-0.374
-472.245	-200.000	-0.395	-0.000
-471.230	173.831	0.211	-0.306
-470.216	5.489	0.089	-0.066
-469.201	-32.142	0.052	-0.029
-468.186	-155.431	0.305	-0.020
-467.172	225.478	-0.050	0.081
-466.157	-98.748	-0.131	0.034
-465.143	1.995	-0.132	-0.096
-464.128	-59.312	-0.162	-0.070
-463.113	21.887	0.181	0.149
-462.099	1.737	0.135	0.098
-461.084	-54.398	-0.438	0.199
-460.070	709.146	-0.029	-0.076
-459.055	66.125	-0.257	-0.262
-458.040	-200.000	-0.006	-0.460
-457.026	-6.255	0.296	0.203
-456.011	131.511	-0.040	0.052
-454.997	626.175	-0.062	-0.157
-453.982	-94.867	0.192	0.052
-452.968	234.472	0.105	0.174
-451.953	77.665	-0.148	-0.158
-450.938	20.048	-0.278	-0.225
-449.924	-127.007	0.317	-0.047
-448.909	-139.800	0.174	-0.018
-447.895	514.922	0.086	-0.202
-446.880	334.326	-0.014	-0.027
-445.865	5.913	0.093	0.069
-444.851	84.243	-0.361	0.396
-443.836	-200.000	0.064	0.405
-442.822	211.253	-0.188	-0.297
-441.807	217.665	-0.145	0.232
-440.792	597.048	0.033	-0.081
-439.778	19.625	-0.110	0.089
-438.763	-48.835	-0.026	-0.013
-437.749	-172.557	-0.158	-0.005
-436.734	68.370	0.172	-0.176
-435.719	800.000	0.168	-0.513
-434.705	93.542	-0.121	-0.138
-433.690	800.000	0.040	-0.156
-432.676	-170.826	-0.298	0.010
-431.661	-68.460	-0.077	0.030
-430.646	485.156	0.154	-0.351
-429.632	-11.817	-0.147	-0.097
-428.617	-125.753	-0.099	-0.015
-427.603	52.857	-0.097	-0.093
-426.588	583.959	-0.040	-0.100
-425.573	-27.878	-0.241	0.140
-424.559	-108.117	-0.309	0.067
-423.544	-76.072	0.466	-0.165
-422.530	65.218	0.073	0.074
-421.515	-200.000	-0.032	0.159
-420.500	-77.708	0.422	0.146
-419.486	-137.374	-0.034	-0.004
-418.471	-200.000	0.014	-0.187
-417.457	36.240	0.191	0.169
-416.442	420.328	0.086	-0.184
-415.428	-79.799	0.066	0.022
-414.413	-200.000	0.001	0.119
-413.398	-69.398	-0.125	0.048
-412.384	800.000	0.068	-0.193
-411.369	125.917	0.054	0.069
-410.355	291.114	0.177	0.323
-409.340	229.827	-0.072	-0.118
-408.325	505.639	-0.075	-0.174
-407.311	46.142	0.064	0.060
-406.296	281.956	0.047	-0.084
-405.282	37.503	-0.122	0.108
-404.267	-91.576	0.377	0.108
-403.252	-27.755	0.030	-0.018
-402.238	208.410	-0.095	0.149
-401.223	-7.984	-0.247	0.167
-400.209	92.463	0.126	0.143
-399.194	55.425	-0.146	-0.142
-398.179	53.124	0.222	0.213
-397.165	358.166	0.183	0.366
-396.150	-200.000	-0.022	0.260
-395.136	84.574	-0.190	0.208
-394.121	-200.000	0.013	-0.229
-393.106	800.000	-0.055	-0.199
-392.092	-200.000	-0.023	-0.235
-391.077	107.498	0.193	0.231
-390.063	396.002	-0.155	0.325
-389.048	-100.226	0.328	0.082
-388.033	541.624	0.146	0.349
-387.019	170.371	0.119	-0.170
-386.004	-87.920	0.147	0.044
-384.990	-148.257	-0.108	0.009
-383.975	13.194	0.308	-0.239
-382.960	800.000	0.054	-0.169
-381.946	-74.076	-0.256	0.093
-380.931	164.053	-0.135	0.191
-379.917	-177.962	-0.244	0.006
-378.902	393.817	0.092	0.191
-377.888	-112.567	-0.350	0.070
-376.873	17.566	0.221	-0.176
-375.858	-200.000	0.070	-0.334
-374.844	693.588	0.018	0.048
-373.829	627.527	-0.065	0.165
-372.815	800.000	-0.127	-0.419
-371.800	-89.666	-0.200	-0.059
-370.785	231.392	0.098	0.161
-369.771	148.284	0.044	-0.060
-368.756	-134.934	0.264	0.032
-367.742	-67.244	-0.134	-0.053
-366.727	-119.375	0.027	-0.005
-365.712	-136.731	0.313	-0.036
-364.698	-8.562	0.259	0.174
-363.683	-55.165	0.379	-0.171
-362.669	-129.582	0.177	-0.024
-361.654	800.000	-0.081	-0.261
-360.639	11.294	0.136	-0.104
-359.625	-74.523	0.208	-0.075
-358.610	-200.000	-0.018	-0.149
-357.596	111.244	-0.377	0.455
-356.581	800.000	-0.050	-0.155
-355.566	-56.232	0.305	0.136
-354.552	27.377	-0.154	-0.129
-353.537	-30.958	0.040	-0.023
-352.523	-78.030	-0.060	0.021
-351.508	382.452	0.125	0.256
-350.493	-200.000	0.036	-0.443
-349.479	273.286	0.095	-0.167
-348.464	-200.000	-0.014	0.155
-347.450	800.000	-0.029	-0.093
-346.435	-34.214	0.190	0.104
-345.420	-53.750	0.111	-0.051
-344.406	-60.950	0.140	0.059
-343.391	-30.712	-0.116	-0.066
-342.377	-200.000	0.020	0.153
-341.362	-79.735	0.255	0.086
-340.348	-200.000	-0.008	-0.175
-339.333	-2.363	0.222	0.156
-338.318	16.949	0.254	0.201
-337.304	-200.000	0.006	0.251
-336.289	-6.211	-0.118	0.081
-335.275	454.118	-0.143	-0.316
-334.260	-200.000	0.005	0.123
-333.245	800.000	0.053	0.172
-332.231	-23.535	-0.090	0.054
-331.216	-200.000	-0.010	-0.136
-330.202	40.348	0.141	-0.127
-329.187	-6.532	0.236	-0.161
-328.172	-200.000	0.014	0.098
-327.158	45.168	0.029	-0.027
-326.143	-57.726	0.413	0.181
-325.129	-89.486	0.347	0.102
-324.114	-113.928	-0.078	-0.015
-323.099	-200.000	0.011	-0.069
-322.085	-59.558	0.279	-0.120
-321.070	-135.881	0.143	0.017
-320.056	-14.138	0.286	0.184
-319.041	49.862	0.064	0.060
-318.026	-109.263	0.483	-0.102
-317.012	124.711	-0.239	0.301
-315.997	9.480	0.176	-0.133
-314.983	800.000	0.013	0.048
-313.968	-49.489	-0.376	-0.179
-312.953	392.799	0.088	-0.183
-311.939	-125.627	0.193	0.029
-310.924	612.287	0.141	-0.353
-309.910	-101.330	0.412	0.100
-308.895	-104.562	0.128	0.030
-307.880	800.000	-0.017	0.070
-306.866	-200.000	-0.064	-0.292
-305.851	800.000	0.030	-0.114
-304.837	85.733	0.139	0.153
-303.822	-24.950	-0.030	0.018
-302.807	-200.000	-0.020	-0.130
-301.793	-200.000	-0.008	-0.470
-300.778	380.377	0.148	0.303
-299.764	289.660	-0.102	0.185
-298.749	-43.236	-0.220	-0.111
-297.735	410.728	0.077	-0.164
-296.720	-115.936	0.335	0.063
-295.705	-200.000	0.004	0.423
-294.691	-83.825	0.154	0.049
-293.676	93.116	-0.117	-0.132
-292.662	-200.000	0.033	-0.196
-291.647	95.200	-0.072	0.081
-290.632	-9.403	0.224	0.149
-289.618	-88.351	-0.146	-0.043
-288.603	178.866	0.018	-0.027
-287.589	149.971	-0.095	-0.128
-286.574	-110.380	-0.357	-0.074
-285.559	165.574	-0.153	-0.216
-284.545	-200.000	-0.031	-0.157
-283.530	-13.605	-0.002	0.002
-282.516	-47.984	0.029	-0.014
-281.501	275.859	0.146	0.259
-280.486	-200.000	-0.014	-0.134
-279.472	302.748	0.176	0.325
-278.457	800.000	-0.019	0.071
-277.443	-17.120	-0.339	-0.214
-276.428	161.500	-0.209	-0.292
-275.413	62.262	-0.166	0.165
-274.399	25.643	0.210	-0.174
-273.384	800.000	-0.052	-0.208
-272.370	-19.011	0.085	0.053
-271.355	109.757	-0.111	0.133
-270.340	334.709	0.127	0.245
-269.326	478.619	0.135	-0.306
-268.311	-200.000	0.000	-0.109
-267.297	-14.906	-0.357	0.229
-266.282	-178.473	0.293	-0.007
-265.267	193.600	-0.132	0.199
-264.253	40.964	0.281	-0.253
-263.238	-200.000	0.012	-0.190
-262.224	297.585	0.089	0.163
-261.209	-66.736	-0.335	-0.132
-260.195	-33.857	0.238	-0.131
-259.180	-164.780	-0.254	-0.011
-258.165	352.694	-0.166	0.328
-257.151	-153.313	0.099	0.007
-256.136	46.122	-0.047	-0.043
-255.122	395.565	0.147	-0.306
-254.107	-101.621	-0.230	-0.056
-253.092	-167.065	-0.118	0.005
-252.078	370.901	-0.045	0.091
-251.063	105.956	-0.220	0.259
-250.049	-93.299	0.251	-0.069
-249.034	200.207	-0.172	0.263
-248.019	-0.778	-0.185	0.130
-247.005	-36.294	0.155	-0.083
-245.990	-74.027	0.307	-0.111
-244.976	-7.843	0.151	0.102
-243.961	-70.773	-0.236	0.089
-242.946	96.296	0.086	0.098
-241.932	-9.795	0.268	0.178
-240.917	-200.000	0.051	0.281
-239.903	243.617	0.099	-0.166
-238.888	-17.584	0.274	-0.171
-237.873	134.032	-0.137	-0.177
-236.859	444.707	-0.084	0.183
-235.844	0.603	0.354	0.253
-234.830	248.071	-0.031	-0.052
-233.815	-200.000	0.078	0.398
-232.800	-200.000	0.013	-0.209
-231.786	342.211	0.130	0.253
-230.771	-200.000	0.005	0.038
-229.757	154.806	-0.091	-0.125
-228.742	-200.000	-0.051	0.324
-227.727	-2.978	-0.042	0.029
-226.713	-49.665	0.171	0.081
-225.698	-145.500	-0.356	-0.032
-224.684	-73.972	-0.325	0.118
-223.669	-97.879	-0.182	0.047
-222.655	-130.192	0.235	-0.032
-221.640	-200.000	0.026	0.266
-220.625	-57.788	0.249	0.109
-219.611	-151.495	-0.341	-0.025
-218.596	486.706	0.109	-0.247
-217.582	274.834	-0.085	-0.150
-216.567	-200.000	-0.020	0.143
-215.552	-151.196	-0.117	-0.009
-214.538	104.583	0.062	-0.072
-213.523	216.897	0.125	0.198
-212.509	51.844	-0.184	-0.174
-211.494	-164.448	-0.106	0.005
-210.479	-21.656	0.349	-0.212
-209.465	215.194	-0.062	-0.098
-208.450	-122.263	0.154	-0.025
-207.436	463.425	0.150	0.334
-206.421	-58.364	-0.125	0.054
-205.406	208.300	0.214	-0.332
-204.392	-53.132	-0.474	0.217
-203.377	-13.002	0.174	0.113
-202.363	36.510	-0.037	-0.032
-201.348	198.234	0.098	0.149
-200.333	-10.919	-0.298	-0.196
-199.319	22.350	0.193	0.157
-198.304	-124.135	-0.211	-0.033
-197.290	89.256	0.169	-0.187
-196.275	-161.003	-0.078	0.004
-195.260	271.743	0.148	-0.259
-194.246	800.000	-0.046	-0.174
-193.231	-62.362	0.083	-0.035
-192.217	800.000	-0.118	0.348
-191.202	-110.161	-0.401	0.083
-190.187	311.373	-0.086	0.160
-189.173	75.102	-0.226	0.237
-188.158	-48.715	0.266	0.127
-187.144	-91.633	-0.024	-0.007
-186.129	-128.563	0.148	-0.021
-185.114	763.354	0.011	-0.029
-184.100	-122.728	0.172	0.028
-183.085	800.000	0.066	-0.249
-182.071	179.772	-0.186	-0.272
-181.056	683.135	-0.117	-0.303
-180.042	45.845	-0.218	0.201
-179.027	-95.096	-0.177	0.047
-178.012	-200.000	-0.023	0.102
-176.998	277.677	0.199	0.353
-175.983	-200.000	-0.012	0.208
-174.969	-104.538	0.217	0.050
-173.954	48.330	0.168	0.156
-172.939	-184.704	-0.161	0.003
-171.925	-200.000	-0.011	0.063
-170.910	-174.939	0.242	0.007
-169.896	-200.000	0.030	0.355
-168.881	-86.030	0.198	0.061
-167.866	59.081	-0.035	-0.034
-166.852	-101.308	-0.016	-0.004
-165.837	-66.263	0.336	-0.133
-164.823	25.619	-0.216	-0.179
-163.808	-103.782	0.317	0.074
-162.793	-73.474	-0.293	0.106
-161.779	-88.111	-0.279	-0.083
-160.764	-130.156	-0.069	-0.009
-159.750	44.570	0.104	0.095
-158.735	-129.513	0.115	0.016
-157.720	38.085	0.028	0.025
-156.706	-142.001	0.213	0.021
-155.691	-147.905	-0.237	0.020
-154.677	800.000	0.058	-0.167
-153.662	7.773	0.157	0.117
-152.647	147.553	-0.130	-0.174
-151.633	-200.000	0.035	0.415
-150.618	127.537	-0.154	0.194
-149.604	-64.487	0.262	-0.106
-148.589	375.376	-0.108	0.218
-147.574	-77.090	0.395	0.137
-146.560	73.450	0.163	0.169
-145.545	-200.000	0.003	0.430
-144.531	8.515	-0.144	0.108
-143.516	-73.835	0.315	0.114
-142.502	-200.000	-0.051	-0.348
-141.487	-28.690	0.235	-0.135
-140.472	-12.117	0.110	-0.071
-139.458	800.000	0.042	-0.124
-138.443	454.495	0.128	0.281
-137.429	-52.748	0.197	0.090
-136.414	11.329	0.227	0.172
-135.399	546.080	0.049	0.117
-134.385	625.847	0.200	0.500
-133.370	-200.000	0.054	-0.363
-132.356	-200.000	-0.022	0.193
-131.341	20.135	0.143	0.115
-130.326	188.562	-0.156	-0.231
-129.312	-200.000	0.003	0.186
-128.297	-200.000	0.022	0.161
-127.283	5.889	-0.136	0.100
-126.268	26.291	0.080	-0.066
-125.253	332.927	-0.186	-0.356
-124.239	174.195	0.195	0.279
-123.224	800.000	-0.038	0.162
-122.210	-200.000	-0.024	-0.115
-121.195	-62.860	-0.186	-0.076
