DTS Sentinel unit serial number:	SN413079Multiplexer serial number:	ORYXHardware model number:	OX4-SRSoftware version number:	ORYX F/W v4.00 Oryx Data Collector v3.7.2.0data status	okinstallation	princeton_trtdifferential loss correction	single-endedforward channel	channel 4reverse channel	N/Adate	2019/09/11time	10:03:11forward acquisition time	60.00reverse acquisition time	0.00gamma	496.2192k internal	0.2295k external	0.2295temperature offset calibration	0.9968default loss term (dB/km)	0.3790temperature slope calibration	1.0000multiplexer offset coefficient	1.0000multiplexer slope coefficient	1.0000fibre end	0.00T internal ref (°C)	35.47T ext. ref 1 (°C)	0.14T ext. ref 2 (°C)	32.86length (m)	temperature (°C)	Stokes	anti-Stokes-747.200	-200.000	-0.011	-0.161
-746.185	800.000	-0.142	0.405
-745.171	800.000	-0.109	0.329
-744.156	134.334	-0.112	0.149
-743.142	-185.758	0.102	0.002
-742.127	-77.675	-0.337	0.119
-741.112	-200.000	0.023	0.177
-740.098	-200.000	-0.023	0.398
-739.083	800.000	0.029	0.121
-738.069	-70.607	-0.099	0.038
-737.054	112.821	0.088	-0.109
-736.039	32.354	-0.194	-0.171
-735.025	149.998	0.136	0.188
-734.010	365.471	0.098	-0.202
-732.996	53.607	-0.164	0.161
-731.981	112.228	-0.255	-0.315
-730.966	621.490	-0.037	0.094
-729.952	697.518	0.062	-0.167
-728.937	-128.433	-0.215	-0.031
-727.923	-52.732	0.086	0.041
-726.908	528.054	-0.063	-0.152
-725.894	70.583	0.255	0.270
-724.879	-123.263	-0.232	-0.038
-723.864	-59.484	-0.158	0.069
-722.850	800.000	-0.098	-0.331
-721.835	267.362	-0.112	-0.200
-720.821	1.281	-0.150	0.110
-719.806	-43.651	-0.372	-0.192
-718.791	-200.000	0.035	-0.188
-717.777	8.492	-0.179	-0.138
-716.762	262.548	-0.186	-0.329
-715.748	-152.988	-0.235	0.017
-714.733	-144.773	-0.151	-0.014
-713.718	248.491	-0.086	-0.148
-712.704	-61.472	-0.276	0.118
-711.689	26.379	0.085	0.072
-710.675	-111.777	0.119	-0.025
-709.660	289.955	-0.110	-0.203
-708.645	266.149	0.095	-0.168
-707.631	-35.899	-0.341	-0.188
-706.616	-200.000	0.061	0.323
-705.602	-147.021	-0.259	-0.023
-704.587	-34.317	0.164	0.092
-703.572	0.997	-0.305	0.223
-702.558	202.098	0.189	-0.297
-701.543	5.935	0.433	-0.327
-700.529	-13.995	-0.178	-0.118
-699.514	-200.000	0.008	0.114
-698.499	-28.637	-0.501	0.294
-697.485	-132.221	-0.378	0.050
-696.470	-86.270	-0.285	0.089
-695.456	52.796	-0.153	0.150
-694.441	-49.581	-0.254	0.123
-693.426	-51.668	-0.096	-0.045
-692.412	135.966	0.136	0.180
-691.397	-48.089	0.252	0.124
-690.383	161.520	0.211	-0.302
-689.368	132.262	-0.130	0.171
-688.354	-24.514	-0.186	0.113
-687.339	30.181	0.176	0.153
-686.324	-200.000	-0.019	0.086
-685.310	491.861	0.223	-0.521
-684.295	-99.612	0.163	0.042
-683.281	157.945	0.115	0.162
-682.266	-5.003	0.340	-0.239
-681.251	257.547	-0.154	-0.270
-680.237	-81.761	0.147	-0.049
-679.222	-122.676	-0.364	-0.060
-678.208	-129.021	-0.192	0.027
-677.193	-200.000	-0.011	0.118
-676.178	-200.000	-0.026	0.137
-675.164	-200.000	0.063	-0.403
-674.149	319.080	0.177	-0.342
-673.135	-73.052	0.145	-0.054
-672.120	-200.000	0.004	0.334
-671.105	-58.875	-0.202	0.089
-670.091	-43.984	-0.240	-0.123
-669.076	-124.317	-0.096	0.015
-668.062	219.617	0.024	-0.039
-667.047	388.303	-0.122	0.258
-666.032	36.091	-0.111	-0.099
-665.018	-149.649	-0.112	-0.009
-664.003	96.326	0.205	-0.239
-662.989	-200.000	-0.034	-0.214
-661.974	800.000	-0.041	-0.182
-660.959	648.800	-0.029	0.075
-659.945	-8.494	0.067	0.046
-658.930	622.137	0.037	0.095
-657.916	386.066	-0.120	-0.252
-656.901	-85.420	-0.423	0.134
-655.886	59.256	0.035	-0.035
-654.872	17.209	0.265	0.214
-653.857	540.025	0.157	0.380
-652.843	-23.840	0.080	-0.049
-651.828	-200.000	-0.135	-0.608
-650.814	-95.966	-0.285	-0.077
-649.799	-141.228	-0.164	0.017
-648.784	-200.000	-0.006	-0.454
-647.770	-162.014	0.074	0.004
-646.755	3.558	-0.292	-0.217
-645.741	-91.517	-0.285	-0.083
-644.726	-152.337	-0.422	-0.031
-643.711	495.305	-0.145	-0.339
-642.697	619.123	-0.050	0.128
-641.682	-110.566	0.184	0.039
-640.668	-145.122	0.262	-0.024
-639.653	-54.059	-0.117	-0.054
-638.638	-67.171	0.235	-0.094
-637.624	-200.000	0.068	-0.464
-636.609	-125.298	-0.443	0.069
-635.595	-200.000	0.007	-0.137
-634.580	-82.658	0.406	-0.134
-633.565	273.369	0.097	0.175
-632.551	559.035	0.088	-0.216
-631.536	-23.702	-0.327	-0.200
-630.522	184.236	-0.119	-0.180
-629.507	180.260	-0.076	-0.113
-628.492	-49.386	-0.260	-0.126
-627.478	-127.016	-0.125	-0.019
-626.463	-200.000	0.027	-0.227
-625.449	25.532	0.236	0.199
-624.434	588.095	0.072	0.181
-623.419	-165.657	0.278	0.012
-622.405	-71.051	-0.166	0.063
-621.390	275.950	0.037	-0.066
-620.376	-110.480	0.020	0.004
-619.361	-144.269	0.232	-0.022
-618.346	7.619	0.120	0.091
-617.332	50.616	-0.160	0.154
-616.317	-18.705	-0.237	-0.150
-615.303	-78.133	-0.396	0.139
-614.288	-119.578	-0.057	0.010
-613.273	-200.000	-0.007	-0.044
-612.259	-200.000	-0.021	0.523
-611.244	27.453	0.199	0.171
-610.230	800.000	-0.019	0.066
-609.215	800.000	0.080	-0.243
-608.201	274.284	-0.084	-0.150
-607.186	-200.000	0.010	0.236
-606.171	155.468	-0.166	-0.233
-605.157	-58.504	-0.115	-0.051
-604.142	800.000	-0.064	-0.187
-603.128	-58.799	0.414	-0.182
-602.113	-111.736	-0.457	0.094
-601.098	576.950	-0.081	-0.202
-600.084	111.002	0.128	-0.156
-599.069	-200.000	0.009	0.091
-598.055	137.568	-0.246	-0.327
-597.040	71.721	0.290	0.306
-596.025	800.000	0.061	-0.229
-595.011	-88.839	0.138	0.042
-593.996	-46.296	-0.223	0.111
-592.982	437.556	-0.061	-0.136
-591.967	-200.000	-0.008	-0.248
-590.952	207.907	-0.062	-0.099
-589.938	353.740	0.039	-0.079
-588.923	47.332	-0.132	-0.125
-587.909	292.068	0.111	0.205
-586.894	-115.817	0.064	-0.012
-585.879	800.000	-0.101	0.354
-584.865	-98.747	-0.064	0.017
-583.850	111.315	-0.055	0.067
-582.836	237.875	0.130	-0.218
-581.821	22.823	0.091	-0.076
-580.806	574.395	-0.054	0.134
-579.792	271.908	0.084	-0.150
-578.777	-137.322	0.164	-0.019
-577.763	222.009	0.174	-0.284
-576.748	-105.053	0.522	-0.121
-575.733	-200.000	-0.030	0.154
-574.719	48.448	-0.120	0.114
-573.704	194.718	0.252	-0.389
-572.690	147.686	0.325	-0.444
-571.675	-200.000	0.058	0.280
-570.661	320.168	-0.094	-0.181
-569.646	100.665	0.177	-0.208
-568.631	-37.669	0.171	-0.093
-567.617	-71.003	-0.158	0.061
-566.602	-68.064	-0.188	0.074
-565.588	45.553	-0.152	-0.142
-564.573	-93.511	-0.196	-0.055
-563.558	-97.892	-0.092	-0.024
-562.544	725.074	0.085	-0.229
-561.529	-200.000	0.019	0.107
-560.515	-187.741	-0.429	0.006
-559.500	-148.650	0.214	0.018
-558.485	-161.166	-0.122	-0.006
-557.471	-200.000	-0.008	0.085
-556.456	-14.828	0.290	-0.189
-555.442	-90.629	0.217	-0.064
-554.427	-134.958	-0.059	-0.007
-553.412	-90.982	-0.111	-0.032
-552.398	-148.085	-0.170	0.014
-551.383	12.469	0.265	0.207
-550.369	29.522	0.130	0.112
-549.354	-200.000	0.048	-0.295
-548.339	-143.716	0.321	-0.031
-547.325	-66.715	-0.175	0.070
-546.310	-200.000	-0.010	-0.074
-545.296	-16.268	0.167	-0.108
-544.281	-73.016	-0.085	0.032
-543.266	-145.264	-0.323	-0.030
-542.252	-200.000	-0.027	-0.137
-541.237	-200.000	0.013	0.173
-540.223	-45.860	-0.326	-0.163
-539.208	49.474	0.215	-0.205
-538.193	-116.868	-0.104	0.019
-537.179	-38.894	-0.509	-0.272
-536.164	-109.984	0.241	-0.051
-535.150	-200.000	0.001	0.084
-534.135	-200.000	0.006	-0.074
-533.121	-200.000	-0.013	0.286
-532.106	-145.993	-0.366	-0.033
-531.091	-200.000	0.068	0.336
-530.077	-140.467	0.522	0.055
-529.062	-158.595	0.275	0.016
-528.048	-113.986	0.261	-0.051
-527.033	-106.264	-0.259	0.059
-526.018	9.903	0.262	-0.201
-525.004	328.053	-0.020	0.039
-523.989	11.016	-0.419	0.325
-522.975	-77.116	-0.351	0.124
-521.960	-165.971	0.163	0.007
-520.945	-200.000	0.033	-0.167
-519.931	48.484	0.135	-0.128
-518.916	-41.665	-0.039	0.020
-517.902	169.336	0.189	0.273
-516.887	-162.585	0.293	-0.015
-515.872	29.053	-0.268	-0.231
-514.858	800.000	-0.048	0.199
-513.843	-15.954	0.315	0.203
-512.829	354.038	-0.120	0.241
-511.814	-3.693	0.262	0.184
-510.799	232.138	0.039	0.064
-509.785	4.554	-0.019	0.014
-508.770	214.600	-0.071	0.114
-507.756	75.463	0.006	0.006
-506.741	274.238	-0.014	-0.024
-505.726	-47.892	0.435	0.213
-504.712	-177.003	-0.404	0.010
-503.697	800.000	-0.097	0.317
-502.683	-56.134	-0.096	-0.043
-501.668	536.353	0.065	0.157
-500.653	-15.074	0.113	0.073
-499.639	395.988	-0.117	0.247
-498.624	-54.699	-0.332	0.152
-497.610	-200.000	0.019	-0.158
-496.595	-200.000	0.020	0.183
-495.581	-200.000	-0.026	-0.212
-494.566	-200.000	-0.014	0.140
-493.551	299.731	-0.099	0.184
-492.537	263.639	0.203	0.358
-491.522	-200.000	0.007	0.158
-490.508	44.102	-0.274	-0.254
-489.493	764.495	0.073	0.202
-488.478	800.000	-0.049	-0.154
-487.464	-200.000	-0.057	0.268
-486.449	-200.000	-0.017	0.173
-485.435	-71.115	-0.180	-0.069
-484.420	-123.976	0.345	-0.055
-483.405	-44.679	-0.067	-0.034
-482.391	-111.593	-0.068	0.014
-481.376	14.360	0.047	0.037
-480.362	527.338	0.032	0.076
-479.347	-111.706	0.308	0.063
-478.332	170.246	-0.051	0.074
-477.318	-200.000	-0.031	0.407
-476.303	-92.059	0.101	0.029
-475.289	22.007	0.135	-0.111
-474.274	316.917	-0.102	-0.195
-473.259	396.538	0.120	-0.254
-472.245	733.214	-0.166	-0.450
-471.230	165.424	-0.288	-0.411
-470.216	-101.290	0.094	0.023
-469.201	124.670	0.118	0.151
-468.186	-200.000	-0.038	0.249
-467.172	-137.455	-0.334	0.038
-466.157	-125.268	0.391	0.060
-465.143	665.215	0.117	0.306
-464.128	-48.203	-0.112	0.055
-463.113	-24.864	0.257	0.155
-462.099	651.213	-0.222	-0.574
-461.084	-200.000	-0.015	-0.212
-460.070	69.845	0.120	0.125
-459.055	-94.641	0.076	-0.021
-458.040	61.086	0.331	-0.333
-457.026	1.510	-0.262	0.190
-456.011	-88.337	0.247	-0.075
-454.997	-200.000	-0.011	0.194
-453.982	69.385	0.179	0.186
-452.968	796.168	-0.104	-0.291
-451.953	31.482	0.375	-0.326
-450.938	-4.900	0.109	0.076
-449.924	-200.000	-0.003	-0.112
-448.909	-33.883	0.119	0.066
-447.895	-98.877	0.193	0.050
-446.880	-83.928	-0.499	0.160
-445.865	-169.614	-0.314	-0.012
-444.851	800.000	0.086	-0.296
-443.836	-64.118	-0.131	0.054
-442.822	12.233	0.234	0.182
-441.807	-58.891	0.146	0.064
-440.792	179.328	-0.033	-0.049
-439.778	78.611	-0.217	0.234
-438.763	-74.092	-0.361	0.132
-437.749	-29.421	0.060	0.034
-436.734	-13.678	-0.212	0.138
-435.719	372.661	-0.057	-0.116
-434.705	800.000	0.048	-0.181
-433.690	-25.459	0.080	0.048
-432.676	-24.185	-0.067	-0.041
-431.661	258.521	0.193	-0.335
-430.646	-50.918	0.111	0.053
-429.632	-119.961	-0.283	0.049
-428.617	-105.432	-0.188	0.043
-427.603	800.000	0.135	-0.399
-426.588	81.023	0.165	-0.180
-425.573	800.000	-0.128	0.370
-424.559	-67.470	0.337	-0.133
-423.544	-200.000	0.030	-0.184
-422.530	541.943	-0.058	-0.139
-421.515	-113.681	0.035	0.007
-420.500	-200.000	0.015	0.118
-419.486	-138.263	-0.080	0.009
-418.471	800.000	-0.059	0.246
-417.457	-131.632	0.420	-0.056
-416.442	800.000	0.062	0.239
-415.428	-200.000	0.010	0.131
-414.413	66.105	0.054	-0.055
-413.398	800.000	0.035	0.104
-412.384	280.317	-0.056	0.101
-411.369	118.034	-0.075	-0.093
-410.355	237.408	-0.288	0.481
-409.340	800.000	0.136	0.493
-408.325	-200.000	-0.031	-0.236
-407.311	-174.978	-0.348	0.010
-406.296	-149.431	-0.064	-0.005
-405.282	580.330	0.063	0.156
-404.267	-60.133	0.113	0.049
-403.252	-10.876	-0.229	0.153
-402.238	97.907	0.049	0.057
-401.223	-86.140	0.172	0.053
-400.209	32.253	0.189	0.164
-399.194	6.003	0.076	-0.057
-398.179	-109.682	-0.306	0.065
-397.165	-200.000	0.003	-0.063
-396.150	-200.000	-0.014	-0.227
-395.136	19.869	-0.063	-0.051
-394.121	-200.000	-0.026	-0.140
-393.106	-78.850	-0.378	-0.130
-392.092	-92.024	0.295	0.084
-391.077	540.859	-0.024	-0.058
-390.063	75.702	0.111	-0.118
-389.048	-104.055	0.278	-0.065
-388.033	-73.810	-0.063	0.023
-387.019	800.000	-0.029	-0.088
-386.004	-47.322	0.117	-0.057
-384.990	-119.866	0.272	-0.047
-383.975	-48.100	0.101	-0.049
-382.960	136.160	0.088	-0.116
-381.946	-65.525	0.202	0.082
-380.931	-70.888	0.473	-0.180
-379.917	43.103	-0.228	-0.209
-378.902	198.588	0.103	-0.158
-377.888	-78.355	0.137	0.047
-376.873	-91.348	-0.174	0.050
-375.858	24.104	-0.081	0.067
-374.844	-103.681	-0.046	-0.011
-373.829	800.000	0.027	-0.082
-372.815	800.000	0.056	-0.161
-371.800	-3.417	0.181	0.127
-370.785	19.007	0.223	-0.180
-369.771	48.346	0.169	-0.160
-368.756	547.509	0.135	-0.326
-367.742	-7.141	-0.181	-0.124
-366.727	-39.184	0.174	-0.092
-365.712	-52.627	-0.263	-0.122
-364.698	800.000	0.059	-0.258
-363.683	-200.000	0.074	0.367
-362.669	153.840	0.075	-0.103
-361.654	-53.825	-0.204	0.094
-360.639	387.075	0.106	-0.220
-359.625	108.820	0.154	0.186
-358.610	149.164	0.139	0.190
-357.596	-168.169	-0.309	-0.012
-356.581	800.000	-0.067	0.210
-355.566	112.935	-0.268	-0.327
-354.552	-62.547	0.109	-0.046
-353.537	-65.273	-0.424	-0.172
-352.523	-200.000	-0.041	0.179
-351.508	26.530	-0.044	-0.037
-350.493	800.000	0.086	-0.370
-349.479	-20.977	-0.463	0.285
-348.464	33.462	-0.248	0.217
-347.450	-65.690	-0.225	-0.091
-346.435	-200.000	-0.018	0.151
-345.420	-200.000	0.017	-0.185
-344.406	367.994	0.074	-0.150
-343.391	-16.117	-0.222	0.142
-342.377	-200.000	0.008	-0.092
-341.362	9.068	0.162	-0.123
-340.348	-115.878	-0.256	-0.048
-339.333	-200.000	-0.024	0.262
-338.318	-135.605	0.140	-0.017
-337.304	344.660	0.045	0.090
-336.289	-169.302	-0.169	0.006
-335.275	68.237	0.338	-0.348
-334.260	-172.397	-0.091	-0.003
-333.245	83.144	0.162	-0.178
-332.231	-34.305	0.111	0.061
-331.216	800.000	0.061	-0.221
-330.202	106.254	-0.138	0.165
-329.187	61.529	-0.134	0.134
-328.172	-200.000	0.026	-0.123
-327.158	524.762	0.046	-0.109
-326.143	450.188	0.087	0.193
-325.129	33.871	0.198	0.174
-324.114	-133.406	0.329	0.042
-323.099	45.623	0.144	-0.134
-322.085	-173.612	0.238	0.007
-321.070	-200.000	0.004	0.158
-320.056	-141.242	-0.370	0.038
-319.041	-102.309	0.076	-0.018
-318.026	-88.129	-0.045	0.014
-317.012	-41.657	0.292	0.151
-315.997	45.140	0.090	0.083
-314.983	67.265	0.218	0.223
-313.968	-130.918	-0.204	0.027
-312.953	350.275	0.065	0.130
-311.939	-200.000	-0.075	-0.444
-310.924	186.518	0.043	-0.064
-309.910	73.993	0.259	-0.273
-308.895	-8.554	0.241	0.163
-307.880	80.776	-0.102	0.110
-306.866	-200.000	-0.031	0.193
-305.851	32.620	-0.496	0.431
-304.837	-200.000	-0.008	-0.126
-303.822	-200.000	0.050	0.378
-302.807	-126.534	-0.246	0.037
-301.793	81.128	-0.099	-0.108
-300.778	-200.000	-0.010	0.150
-299.764	-200.000	0.021	-0.111
-298.749	-184.660	-0.088	0.001
-297.735	53.316	-0.169	0.162
-296.720	3.695	0.100	0.073
-295.705	56.311	0.174	-0.170
-294.691	0.199	-0.126	-0.090
-293.676	800.000	0.011	-0.037
-292.662	-69.504	0.084	-0.032
-291.647	-108.988	-0.113	-0.024
-290.632	611.289	0.066	-0.165
-289.618	78.157	-0.134	0.143
-288.603	-132.463	-0.130	0.017
-287.589	-200.000	0.014	0.272
-286.574	238.959	0.095	0.159
-285.559	800.000	0.022	-0.074
-284.545	-200.000	0.028	0.197
-283.530	800.000	-0.106	0.342
-282.516	-99.794	0.131	0.033
-281.501	-17.918	0.076	0.048
-280.486	-153.187	-0.174	-0.012
-279.472	6.226	0.301	0.224
-278.457	-29.549	-0.268	-0.154
-277.443	-47.190	-0.125	0.061
-276.428	-68.610	0.211	0.082
-275.413	-137.286	0.070	-0.008
-274.399	14.763	0.267	0.210
-273.384	55.630	0.081	-0.079
-272.370	-159.668	0.060	-0.003
-271.355	800.000	0.054	0.177
-270.340	-30.848	-0.014	-0.008
-269.326	-166.112	0.225	-0.010
-268.311	-200.000	-0.012	0.095
-267.297	133.693	-0.138	0.180
-266.282	-133.607	0.136	0.017
-265.267	-200.000	0.079	0.350
-264.253	-15.414	-0.146	0.093
-263.238	510.776	-0.135	-0.316
-262.224	12.261	-0.070	0.054
-261.209	-128.616	0.194	-0.028
-260.195	-7.665	-0.093	0.063
-259.180	73.291	0.120	-0.126
-258.165	573.106	-0.076	0.187
-257.151	-107.435	-0.317	0.070
-256.136	800.000	0.077	0.297
-255.122	84.355	-0.058	-0.064
-254.107	151.200	0.071	0.097
-253.092	-139.485	-0.263	0.028
-252.078	-200.000	-0.012	-0.112
-251.063	-183.572	-0.140	0.002
-250.049	427.514	0.113	-0.245
-249.034	335.531	-0.149	0.290
-248.019	66.403	-0.194	0.197
-247.005	800.000	-0.015	0.059
-245.990	-70.904	-0.138	0.052
-244.976	44.635	0.073	0.067
-243.961	-200.000	0.012	-0.095
-242.946	-75.306	-0.198	-0.071
-241.932	-147.100	-0.132	-0.011
-240.917	491.948	-0.102	-0.235
-239.903	263.202	0.046	-0.080
-238.888	230.373	0.089	-0.146
-237.873	800.000	0.041	-0.151
-236.859	-126.548	0.394	-0.059
-235.844	-102.236	0.400	-0.096
-234.830	239.734	-0.172	-0.286
-233.815	9.022	-0.165	-0.125
-232.800	-200.000	0.016	-0.123
-231.786	491.891	-0.059	0.135
-230.771	-84.696	0.155	0.049
-229.757	89.780	0.095	-0.106
-228.742	102.264	0.106	-0.124
-227.727	800.000	0.032	-0.126
-226.713	197.904	-0.131	-0.200
-225.698	161.624	0.139	0.195
-224.684	316.339	-0.055	0.104
-223.669	-200.000	-0.049	0.262
-222.655	141.325	-0.200	0.265
-221.640	-5.149	-0.350	0.241
-220.625	-200.000	-0.001	-0.227
-219.611	-17.866	0.126	-0.079
-218.596	-128.254	0.131	0.019
-217.582	-25.055	0.105	0.062
-216.567	669.780	0.096	0.249
-215.552	800.000	0.114	0.334
-214.538	-200.000	-0.016	-0.074
-213.523	800.000	0.009	0.027
-212.509	121.254	0.138	0.172
-211.494	71.348	-0.089	-0.092
-210.479	800.000	-0.083	-0.264
-209.465	130.845	0.135	-0.173
-208.450	140.952	0.049	-0.065
-207.436	58.896	0.233	-0.230
-206.421	-133.544	0.427	0.054
-205.406	236.080	0.042	0.070
-204.392	-97.887	0.462	0.120
-203.377	-65.351	-0.182	-0.073
-202.363	-19.444	-0.088	0.055
-201.348	-98.870	-0.341	-0.087
-200.333	-200.000	-0.020	0.365
-199.319	-41.426	0.061	0.031
-198.304	800.000	0.060	0.261
-197.290	134.505	-0.171	-0.222
-196.275	352.797	-0.065	-0.129
-195.260	-195.091	-0.381	0.003
-194.246	800.000	-0.018	-0.067
-193.231	-200.000	0.002	-0.199
-192.217	-23.725	-0.113	0.068
-191.202	72.688	0.138	-0.144
-190.187	-200.000	-0.018	0.110
-189.173	-162.263	0.150	0.007
-188.158	-169.024	-0.208	0.008
-187.144	172.809	-0.184	-0.265
-186.129	800.000	0.035	0.110
-185.114	-8.030	-0.184	-0.124
-184.100	300.665	0.099	-0.183
-183.085	-200.000	0.052	-0.439
-182.071	-37.450	0.054	0.029
-181.056	103.046	0.087	-0.102
-180.042	-151.269	-0.304	0.023
-179.027	-93.345	-0.316	-0.088
-178.012	325.787	-0.178	0.340
-176.998	107.570	-0.242	-0.287
-175.983	307.351	0.086	-0.160
-174.969	-122.804	-0.348	-0.056
-173.954	800.000	0.054	-0.166
-172.939	-134.345	-0.278	-0.034
-171.925	231.719	0.113	0.185
-170.910	-200.000	0.000	-0.257
-169.896	193.103	0.240	0.363
-168.881	59.252	0.169	0.166
-167.866	800.000	-0.112	0.341
-166.852	27.698	0.034	-0.029
-165.837	-200.000	-0.018	0.104
-164.823	-19.307	0.243	0.150
-163.808	-200.000	0.038	0.169
-162.793	373.395	0.130	0.265
-161.779	-30.207	0.134	0.076
-160.764	152.398	-0.179	0.244
-159.750	6.492	0.188	-0.139
-158.735	480.854	0.023	-0.052
-157.720	800.000	-0.065	0.255
-156.706	800.000	-0.032	-0.128
-155.691	698.312	-0.101	-0.264
-154.677	-14.612	-0.292	0.188
-153.662	-200.000	-0.039	-0.225
-152.647	26.239	0.140	0.117
-151.633	-200.000	0.026	0.380
-150.618	-91.268	0.050	0.014
-149.604	-53.242	0.114	0.052
-148.589	-99.831	0.169	-0.042
-147.574	-91.684	-0.162	0.046
-146.560	800.000	0.042	-0.142
-145.545	-200.000	0.036	0.165
-144.531	-55.430	0.269	0.121
-143.516	-110.119	0.068	0.014
-142.502	198.959	0.043	0.066
-141.487	800.000	0.052	0.175
-140.472	-2.602	0.180	-0.126
-139.458	130.201	0.096	0.123
-138.443	85.680	-0.052	0.057
-137.429	-60.967	-0.253	0.107
-136.414	800.000	0.057	0.247
-135.399	138.770	0.076	-0.099
-134.385	-65.568	-0.264	0.106
-133.370	-104.450	-0.313	-0.072
-132.356	64.998	0.164	-0.165
-131.341	162.556	0.019	-0.027
-130.326	10.308	-0.351	-0.267
-129.312	112.459	-0.041	0.050
-128.297	-73.366	0.376	-0.137
-127.283	-200.000	-0.012	-0.099
-126.268	-133.041	0.526	-0.067
-125.253	-144.051	-0.440	-0.041
-124.239	14.106	0.443	0.344
-123.224	-200.000	-0.000	0.313
-122.210	3.022	-0.265	0.192
-121.195	44.317	0.165	0.151
