DTS Sentinel unit serial number:	SN413079Multiplexer serial number:	ORYXHardware model number:	OX4-SRSoftware version number:	ORYX F/W v4.00 Oryx Data Collector v3.7.2.0data status	okinstallation	princeton_trtdifferential loss correction	single-endedforward channel	channel 4reverse channel	N/Adate	2019/09/11time	09:31:10forward acquisition time	60.00reverse acquisition time	0.00gamma	496.2192k internal	0.2298k external	0.2298temperature offset calibration	0.9975default loss term (dB/km)	0.3790temperature slope calibration	1.0000multiplexer offset coefficient	1.0000multiplexer slope coefficient	1.0000fibre end	0.00T internal ref (°C)	34.70T ext. ref 1 (°C)	0.12T ext. ref 2 (°C)	31.07length (m)	temperature (°C)	Stokes	anti-Stokes-747.200	78.684	0.192	0.209
-746.185	-107.773	-0.125	0.028
-745.171	246.977	-0.045	0.078
-744.156	215.946	-0.092	0.149
-743.142	-70.601	0.198	0.077
-742.127	-83.353	-0.115	0.038
-741.112	-200.000	-0.018	-0.104
-740.098	-200.000	-0.036	0.337
-739.083	31.742	0.229	0.202
-738.069	597.725	0.017	0.044
-737.054	260.836	0.075	0.132
-736.039	-152.320	0.104	-0.008
-735.025	-147.828	0.148	-0.013
-734.010	-94.648	-0.205	0.057
-732.996	502.998	0.035	-0.082
-731.981	-159.302	-0.126	0.007
-730.966	-18.651	-0.285	-0.181
-729.952	253.585	-0.039	0.068
-728.937	61.469	-0.179	0.182
-727.923	-140.331	-0.326	0.035
-726.908	-51.067	0.305	0.146
-725.894	-82.044	-0.155	-0.052
-724.879	800.000	-0.085	-0.372
-723.864	64.846	0.063	-0.064
-722.850	63.624	0.184	-0.188
-721.835	-41.875	0.252	-0.132
-720.821	28.697	-0.297	-0.256
-719.806	310.135	-0.051	0.098
-718.791	444.618	0.137	-0.306
-717.777	341.354	-0.205	-0.409
-716.762	-200.000	-0.033	-0.214
-715.748	-154.634	0.064	-0.004
-714.733	-5.315	0.151	-0.106
-713.718	-126.753	0.068	0.010
-712.704	202.528	-0.165	-0.260
-711.689	35.776	-0.133	0.119
-710.675	-74.957	-0.538	-0.197
-709.660	166.198	-0.193	-0.279
-708.645	-200.000	0.014	-0.165
-707.631	-8.219	-0.393	-0.270
-706.616	68.197	-0.202	-0.211
-705.602	639.784	0.199	0.516
-704.587	-200.000	-0.035	0.277
-703.572	27.602	0.236	0.203
-702.558	-98.044	-0.200	0.052
-701.543	184.516	0.165	0.249
-700.529	-200.000	-0.051	-0.311
-699.514	261.514	-0.071	0.126
-698.499	-200.000	-0.040	0.275
-697.485	-54.328	0.259	0.120
-696.470	34.002	0.053	0.047
-695.456	207.679	0.099	-0.157
-694.441	-96.450	-0.340	0.091
-693.426	170.074	0.186	-0.271
-692.412	683.958	-0.033	0.088
-691.397	-200.000	0.013	-0.423
-690.383	-97.678	-0.047	0.012
-689.368	-7.927	-0.252	-0.173
-688.354	-71.142	0.038	0.015
-687.339	-135.812	-0.143	-0.017
-686.324	410.943	-0.101	0.218
-685.310	800.000	-0.036	0.118
-684.295	800.000	0.033	-0.144
-683.281	-175.694	0.473	0.013
-682.266	-76.155	-0.383	0.138
-681.251	11.433	0.095	0.074
-680.237	787.259	-0.109	0.305
-679.222	152.785	-0.156	-0.218
-678.208	609.517	0.118	-0.301
-677.193	-200.000	-0.009	-0.080
-676.178	-53.961	-0.324	0.150
-675.164	-200.000	0.019	0.130
-674.149	-200.000	0.015	-0.098
-673.135	-1.809	0.218	0.156
-672.120	85.310	0.496	0.554
-671.105	-16.397	0.039	-0.025
-670.091	388.669	-0.143	0.301
-669.076	-141.652	0.261	-0.027
-668.062	-125.403	-0.315	-0.049
-667.047	-20.101	-0.194	-0.122
-666.032	-200.000	0.035	0.235
-665.018	189.683	-0.072	-0.111
-664.003	-117.643	-0.426	-0.078
-662.989	-200.000	-0.008	0.041
-661.974	-200.000	0.019	-0.437
-660.959	800.000	-0.009	-0.037
-659.945	-15.159	-0.232	0.151
-658.930	106.582	-0.103	-0.125
-657.916	-70.944	-0.193	0.074
-656.901	141.572	0.151	0.203
-655.886	-176.013	0.314	-0.008
-654.872	800.000	-0.083	-0.260
-653.857	-200.000	-0.038	-0.377
-652.843	-185.038	-0.061	-0.001
-651.828	-120.446	0.153	0.027
-650.814	-33.620	-0.264	0.148
-649.799	-34.079	-0.072	0.040
-648.784	-200.000	-0.001	0.016
-647.770	-49.615	0.122	0.059
-646.755	148.585	-0.193	-0.265
-645.741	-144.155	-0.170	-0.016
-644.726	141.137	0.135	-0.182
-643.711	-200.000	-0.043	-0.328
-642.697	548.476	0.050	-0.121
-641.682	45.198	0.244	0.229
-640.668	-200.000	-0.015	0.188
-639.653	-151.556	-0.079	0.006
-638.638	71.497	-0.325	0.343
-637.624	-200.000	-0.005	0.187
-636.609	-70.083	-0.119	-0.046
-635.595	-157.127	0.266	-0.016
-634.580	-53.356	0.488	0.227
-633.565	-200.000	-0.047	0.236
-632.551	-171.844	0.426	-0.014
-631.536	55.958	-0.129	0.128
-630.522	115.900	-0.162	0.202
-629.507	-17.363	0.102	0.065
-628.492	-40.065	0.191	0.101
-627.478	-26.939	-0.259	-0.154
-626.463	-15.694	0.261	-0.169
-625.449	-151.939	0.279	0.021
-624.434	-200.000	-0.127	-0.567
-623.419	-200.000	-0.023	0.112
-622.405	-109.800	-0.202	-0.043
-621.390	-16.635	0.159	-0.102
-620.376	-30.082	-0.238	-0.138
-619.361	-144.071	0.246	0.023
-618.346	-200.000	0.005	-0.334
-617.332	-200.000	0.029	0.196
-616.317	-75.208	-0.362	0.131
-615.303	-166.006	0.181	-0.008
-614.288	-102.921	-0.458	-0.111
-613.273	-57.263	-0.047	-0.021
-612.259	6.246	0.023	-0.017
-611.244	-200.000	-0.059	-0.299
-610.230	-200.000	0.048	-0.247
-609.215	-147.553	-0.083	-0.007
-608.201	-200.000	-0.022	0.132
-607.186	-80.128	0.369	-0.126
-606.171	-200.000	-0.047	-0.333
-605.157	-200.000	-0.015	-0.261
-604.142	-200.000	0.015	0.081
-603.128	-25.523	-0.186	0.112
-602.113	800.000	0.093	-0.295
-601.098	-200.000	-0.007	-0.179
-600.084	-200.000	0.024	-0.153
-599.069	-137.057	0.327	-0.038
-598.055	-200.000	-0.068	0.000
-597.040	-200.000	0.042	-0.391
-596.025	-200.000	-0.014	-0.068
-595.011	282.078	-0.117	-0.213
-593.996	-200.000	0.064	-0.309
-592.982	-168.825	0.240	0.009
-591.967	-70.743	-0.112	-0.043
-590.952	-200.000	0.033	0.174
-589.938	-57.175	0.261	0.117
-588.923	163.270	-0.133	0.190
-587.909	-63.010	-0.268	0.112
-586.894	-200.000	0.058	-0.272
-585.879	-77.694	-0.160	-0.056
-584.865	185.434	-0.241	-0.364
-583.850	124.895	-0.090	-0.115
-582.836	-66.411	-0.274	0.111
-581.821	-81.646	0.084	-0.028
-580.806	383.330	-0.098	-0.205
-579.792	48.475	-0.064	-0.061
-578.777	-195.201	0.116	0.001
-577.763	-200.000	-0.001	0.158
-576.748	10.631	-0.103	-0.079
-575.733	-32.404	-0.349	0.198
-574.719	664.988	-0.103	0.271
-573.704	22.482	-0.202	0.168
-572.690	-145.217	-0.115	-0.011
-571.675	-64.077	0.213	0.088
-570.661	-52.772	0.185	0.087
-569.646	113.340	0.103	0.127
-568.631	126.119	-0.046	0.059
-567.617	-70.471	0.139	0.053
-566.602	143.768	-0.101	0.136
-565.588	52.162	0.055	-0.053
-564.573	-29.375	0.115	0.067
-563.558	-34.371	0.304	0.169
-562.544	4.823	-0.136	0.101
-561.529	-200.000	0.007	-0.118
-560.515	-200.000	0.194	0.001
-559.500	112.134	-0.119	-0.146
-558.485	349.044	0.030	-0.060
-557.471	460.422	0.126	-0.285
-556.456	-200.000	0.035	0.272
-555.442	-130.442	-0.074	0.010
-554.427	-99.744	-0.112	0.028
-553.412	-53.362	0.123	0.057
-552.398	-45.131	0.211	0.106
-551.383	-103.544	-0.265	0.063
-550.369	365.156	0.088	0.179
-549.354	-76.239	-0.181	0.065
-548.339	-200.000	0.004	-0.232
-547.325	57.736	-0.058	0.058
-546.310	76.984	-0.131	-0.141
-545.296	-70.634	-0.125	0.048
-544.281	-48.378	0.186	-0.091
-543.266	-41.264	-0.312	0.163
-542.252	78.499	0.304	0.329
-541.237	-92.468	0.095	-0.027
-540.223	37.647	-0.170	-0.153
-539.208	184.155	-0.022	0.034
-538.193	135.805	0.089	0.117
-537.179	-10.792	0.130	0.087
-536.164	-43.540	-0.218	0.111
-535.150	-171.219	0.254	0.009
-534.135	-3.598	0.221	-0.156
-533.121	110.334	-0.099	0.120
-532.106	360.940	0.099	-0.201
-531.091	-106.306	-0.337	0.076
-530.077	-62.258	-0.048	0.020
-529.062	-30.331	0.261	0.150
-528.048	672.927	0.109	-0.286
-527.033	10.532	0.114	0.088
-526.018	-80.307	-0.164	0.055
-525.004	-31.418	0.145	0.083
-523.989	800.000	0.045	0.173
-522.975	-149.900	0.391	-0.031
-521.960	-90.628	0.257	0.075
-520.945	-200.000	-0.050	-0.441
-519.931	-37.114	0.427	-0.232
-518.916	58.227	0.138	-0.137
-517.902	66.231	0.065	-0.067
-516.887	800.000	0.064	-0.215
-515.872	800.000	-0.144	-0.406
-514.858	110.343	-0.142	0.172
-513.843	800.000	-0.099	-0.359
-512.829	800.000	-0.064	-0.264
-511.814	156.919	0.072	0.101
-510.799	-31.265	-0.263	-0.150
-509.785	501.260	-0.075	0.176
-508.770	16.285	-0.127	0.102
-507.756	9.668	0.223	0.171
-506.741	-147.266	-0.097	-0.008
-505.726	-127.945	0.512	0.074
-504.712	141.584	0.037	-0.049
-503.697	800.000	-0.075	-0.225
-502.683	-42.291	0.310	0.160
-501.668	800.000	-0.028	0.093
-500.653	407.401	0.024	0.052
-499.639	-45.224	-0.185	0.093
-498.624	78.119	-0.059	-0.064
-497.610	358.811	0.080	-0.162
-496.595	-100.219	0.251	-0.063
-495.581	-80.670	-0.066	-0.022
-494.566	158.233	0.085	-0.119
-493.551	-200.000	0.010	-0.378
-492.537	28.376	-0.295	-0.252
-491.522	71.966	-0.237	0.249
-490.508	-40.076	0.108	-0.057
-489.493	61.022	0.091	-0.092
-488.478	-3.285	-0.241	-0.170
-487.464	188.048	0.066	0.099
-486.449	-200.000	-0.057	-0.501
-485.435	-123.963	-0.363	-0.058
-484.420	-52.664	0.049	0.023
-483.405	-93.229	0.064	-0.018
-482.391	-73.932	-0.219	0.080
-481.376	-94.639	-0.260	0.071
-480.362	324.635	0.069	-0.134
-479.347	-200.000	-0.061	0.452
-478.332	517.875	0.079	-0.187
-477.318	75.791	-0.216	0.230
-476.303	-100.128	0.119	0.030
-475.289	145.838	0.113	0.152
-474.274	334.707	-0.009	0.017
-473.259	-102.136	-0.304	-0.074
-472.245	-74.143	-0.206	0.076
-471.230	-61.830	-0.169	0.072
-470.216	-200.000	-0.003	0.111
-469.201	-200.000	0.041	0.221
-468.186	-200.000	-0.010	-0.168
-467.172	-5.874	-0.146	0.101
-466.157	124.804	0.095	0.121
-465.143	-200.000	-0.036	-0.256
-464.128	124.852	0.073	0.093
-463.113	-200.000	0.061	0.278
-462.099	-41.816	0.318	-0.165
-461.084	429.881	0.134	0.293
-460.070	-195.578	-0.130	0.001
-459.055	-200.000	0.001	0.151
-458.040	-27.948	-0.247	-0.144
-457.026	-78.572	-0.025	-0.009
-456.011	-200.000	0.016	-0.189
-454.997	-200.000	-0.005	-0.370
-453.982	358.727	0.049	-0.099
-452.968	316.238	-0.055	0.105
-451.953	-141.256	-0.217	-0.022
-450.938	65.552	-0.114	0.117
-449.924	222.714	0.037	-0.060
-448.909	800.000	-0.062	0.175
-447.895	-74.572	0.123	-0.045
-446.880	800.000	0.036	-0.129
-445.865	-65.301	-0.322	-0.131
-444.851	502.716	-0.090	0.210
-443.836	-34.000	0.371	-0.206
-442.822	241.556	-0.048	-0.081
-441.807	800.000	0.017	0.068
-440.792	712.384	-0.061	-0.163
-439.778	-45.175	0.206	0.103
-438.763	157.301	-0.087	-0.121
-437.749	400.551	-0.095	-0.201
-436.734	221.318	0.103	0.168
-435.719	-107.857	-0.555	0.122
-434.705	114.382	0.121	0.149
-433.690	128.554	-0.131	0.168
-432.676	-96.031	-0.223	-0.060
-431.661	-91.275	-0.118	-0.034
-430.646	65.470	0.065	-0.066
-429.632	-200.000	-0.068	-0.318
-428.617	-4.172	-0.278	0.194
-427.603	-62.208	-0.206	-0.086
-426.588	-19.702	0.160	0.100
-425.573	632.133	-0.019	-0.049
-424.559	-68.364	0.223	-0.087
-423.544	340.602	-0.232	0.457
-422.530	800.000	0.078	0.271
-421.515	90.462	-0.141	-0.159
-420.500	186.971	-0.206	-0.309
-419.486	125.908	0.241	0.306
-418.471	742.185	-0.125	0.339
-417.457	-200.000	0.088	0.500
-416.442	-63.953	0.322	0.133
-415.428	75.971	0.122	0.130
-414.413	-159.354	0.016	-0.001
-413.398	-194.406	0.229	-0.002
-412.384	-200.000	-0.012	-0.093
-411.369	-200.000	-0.028	0.266
-410.355	162.585	-0.046	0.065
-409.340	344.657	0.030	0.059
-408.325	117.141	-0.055	0.068
-407.311	-200.000	0.079	-0.410
-406.296	-52.147	0.317	0.148
-405.282	-113.560	0.413	-0.081
-404.267	195.481	-0.045	-0.069
-403.252	-36.281	-0.207	-0.112
-402.238	-85.544	-0.189	0.059
-401.223	282.543	-0.151	-0.273
-400.209	57.178	0.068	-0.067
-399.194	191.573	-0.307	-0.466
-398.179	-200.000	0.008	0.365
-397.165	800.000	-0.139	0.428
-396.150	-200.000	-0.004	0.297
-395.136	104.414	0.148	0.176
-394.121	800.000	-0.030	-0.118
-393.106	-142.673	-0.218	0.021
-392.092	-200.000	0.011	-0.343
-391.077	173.817	0.156	-0.226
-390.063	-59.796	-0.110	-0.047
-389.048	-32.948	-0.277	0.155
-388.033	84.830	-0.165	-0.182
-387.019	-107.423	-0.125	0.028
-386.004	781.798	-0.135	-0.372
-384.990	-111.915	-0.263	-0.053
-383.975	-200.000	0.056	-0.352
-382.960	-111.250	0.142	-0.029
-381.946	75.180	0.208	-0.221
-380.931	-200.000	-0.023	0.168
-379.917	62.706	-0.113	-0.114
-378.902	60.657	-0.086	-0.085
-377.888	286.585	0.045	-0.082
-376.873	-90.513	0.268	-0.078
-375.858	34.544	-0.278	0.245
-374.844	127.823	0.148	0.190
-373.829	600.026	-0.220	-0.550
-372.815	-200.000	0.018	-0.231
-371.800	-97.967	-0.199	-0.052
-370.785	-148.884	0.338	-0.028
-369.771	-181.920	0.279	-0.005
-368.756	800.000	-0.090	-0.263
-367.742	-128.241	-0.108	0.016
-366.727	800.000	-0.012	0.052
-365.712	-31.515	-0.152	-0.086
-364.698	-135.055	0.087	-0.011
-363.683	-139.072	-0.414	0.045
-362.669	-200.000	0.037	0.166
-361.654	-200.000	0.002	-0.103
-360.639	-79.227	0.264	0.090
-359.625	69.802	0.112	0.117
-358.610	-145.433	0.284	-0.026
-357.596	-200.000	0.012	0.332
-356.581	-200.000	-0.019	0.221
-355.566	-80.429	0.215	0.072
-354.552	-200.000	-0.110	0.509
-353.537	68.265	-0.133	0.137
-352.523	-66.778	0.201	-0.080
-351.508	-14.433	-0.210	-0.136
-350.493	-200.000	-0.007	0.334
-349.479	800.000	-0.087	0.323
-348.464	-31.671	-0.330	0.186
-347.450	5.683	0.138	-0.103
-346.435	-200.000	0.004	-0.112
-345.420	18.039	0.200	0.160
-344.406	-71.298	-0.441	0.166
-343.391	68.763	-0.317	-0.327
-342.377	321.596	-0.191	-0.366
-341.362	-92.608	0.384	0.108
-340.348	24.016	-0.254	0.210
-339.333	80.105	-0.191	-0.206
-338.318	60.180	0.295	0.293
-337.304	188.780	-0.128	0.192
-336.289	-138.552	-0.192	-0.021
-335.275	575.875	0.147	0.360
-334.260	130.476	-0.166	0.214
-333.245	12.434	0.070	-0.054
-332.231	387.935	0.113	0.234
-331.216	386.626	-0.047	-0.098
-330.202	-200.000	-0.053	0.339
-329.187	-70.664	-0.220	0.083
-328.172	800.000	-0.035	0.098
-327.158	-105.781	-0.150	-0.034
-326.143	371.322	0.069	-0.140
-325.129	-200.000	0.015	0.220
-324.114	-170.972	0.110	0.004
-323.099	89.828	0.125	-0.140
-322.085	95.675	0.169	0.194
-321.070	507.254	0.084	0.196
-320.056	-74.149	-0.032	-0.012
-319.041	-105.932	0.264	-0.060
-318.026	-70.412	0.130	-0.050
-317.012	-200.000	0.015	0.369
-315.997	31.202	-0.238	-0.205
-314.983	342.612	-0.086	0.168
-313.968	-51.875	0.277	0.130
-312.953	75.906	-0.135	-0.143
-311.939	-103.453	-0.108	-0.025
-310.924	-200.000	-0.002	0.254
-309.910	-25.263	-0.285	0.169
-308.895	-200.000	0.014	-0.312
-307.880	-4.035	0.162	0.113
-306.866	-107.034	0.173	-0.038
-305.851	-58.810	0.114	-0.049
-304.837	-124.759	0.214	0.033
-303.822	-7.745	-0.182	-0.123
-302.807	-112.689	-0.570	-0.114
-301.793	545.714	0.079	0.190
-300.778	-73.541	0.355	0.130
-299.764	-118.061	0.111	0.020
-298.749	800.000	0.092	-0.375
-297.735	196.537	0.050	-0.076
-296.720	-96.015	0.188	0.050
-295.705	595.881	-0.118	0.293
-294.691	-200.000	-0.052	-0.289
-293.676	109.359	0.036	0.044
-292.662	-44.221	0.168	0.084
-291.647	-78.838	0.090	-0.031
-290.632	49.434	-0.391	-0.369
-289.618	22.036	-0.110	-0.090
-288.603	-200.000	-0.017	-0.278
-287.589	333.972	0.111	0.216
-286.574	-55.034	-0.060	0.027
-285.559	-147.286	0.048	-0.004
-284.545	-39.732	0.083	-0.043
-283.530	-9.954	0.149	-0.099
-282.516	-20.478	-0.370	-0.228
-281.501	-113.905	-0.134	0.026
-280.486	-2.265	-0.291	-0.205
-279.472	11.673	0.277	-0.213
-278.457	116.418	-0.062	-0.076
-277.443	670.606	-0.052	0.135
-276.428	-200.000	0.023	-0.241
-275.413	-200.000	-0.062	-0.308
-274.399	313.488	-0.022	0.042
-273.384	-95.340	0.116	-0.031
-272.370	-66.980	0.201	0.080
-271.355	-200.000	0.024	0.156
-270.340	-115.697	-0.147	-0.028
-269.326	-200.000	-0.085	-0.376
-268.311	-200.000	0.031	0.146
-267.297	-129.739	-0.117	0.016
-266.282	377.730	0.189	-0.388
-265.267	564.802	0.093	-0.226
-264.253	-86.792	-0.207	0.063
-263.238	-96.721	-0.318	-0.084
-262.224	54.712	-0.080	-0.077
-261.209	-17.354	-0.341	-0.215
-260.195	158.509	0.333	-0.463
-259.180	-41.237	0.093	0.048
-258.165	4.489	-0.366	0.269
-257.151	-153.974	0.181	0.012
-256.136	474.651	0.048	-0.108
-255.122	145.393	0.048	0.064
-254.107	800.000	-0.112	0.338
-253.092	-200.000	0.016	0.156
-252.078	62.818	0.301	-0.302
-251.063	35.173	0.141	-0.124
-250.049	-119.193	-0.174	-0.030
-249.034	213.304	0.223	-0.353
-248.019	800.000	-0.073	-0.262
-247.005	794.993	0.115	-0.317
-245.990	119.654	0.073	0.091
-244.976	57.813	0.156	-0.153
-243.961	73.047	0.160	-0.168
-242.946	-143.254	-0.053	-0.005
-241.932	-94.011	-0.215	-0.059
-240.917	-176.760	0.119	0.003
-239.903	20.871	-0.251	-0.203
-238.888	26.511	0.343	-0.287
-237.873	-38.951	-0.071	-0.038
-236.859	-65.944	-0.235	-0.094
-235.844	152.854	0.109	0.149
-234.830	64.763	-0.008	-0.008
-233.815	-200.000	-0.029	0.421
-232.800	-160.705	0.094	-0.005
-231.786	-161.469	0.230	0.012
-230.771	296.208	-0.053	-0.098
-229.757	17.642	-0.065	-0.051
-228.742	-200.000	0.047	-0.227
-227.727	800.000	-0.125	0.374
-226.713	-44.834	0.532	0.265
-225.698	-144.975	0.123	0.011
-224.684	28.319	-0.252	-0.213
-223.669	170.667	-0.224	0.321
-222.655	69.986	0.067	0.069
-221.640	699.897	0.213	-0.561
-220.625	163.291	0.066	0.093
-219.611	257.630	0.123	0.212
-218.596	-13.619	-0.302	0.195
-217.582	359.296	-0.080	0.160
-216.567	783.310	-0.045	0.124
-215.552	61.774	-0.261	0.260
-214.538	-155.013	0.333	0.022
-213.523	-200.000	-0.036	0.261
-212.509	-200.000	-0.043	-0.281
-211.494	-19.880	0.081	0.050
-210.479	208.382	0.158	-0.247
-209.465	-143.472	0.233	-0.022
-208.450	-13.620	-0.125	0.081
-207.436	-100.670	0.301	0.074
-206.421	-152.024	0.251	-0.018
-205.406	169.099	0.017	0.024
-204.392	-70.566	-0.354	-0.134
-203.377	-64.398	0.195	-0.079
-202.363	-57.368	-0.466	0.205
-201.348	1.715	0.311	0.224
-200.333	-200.000	0.010	0.174
-199.319	-110.103	-0.097	0.020
-198.304	30.760	-0.105	-0.090
-197.290	-54.320	0.131	0.059
-196.275	119.116	0.066	0.081
-195.260	-60.198	0.288	-0.123
-194.246	-5.601	0.240	0.165
-193.231	-92.796	-0.242	-0.068
-192.217	-63.812	0.197	0.080
-191.202	800.000	0.035	0.145
-190.187	-107.391	0.185	-0.041
-189.173	-70.183	-0.093	0.035
-188.158	-200.000	-0.033	0.318
-187.144	617.931	0.093	-0.233
-186.129	-200.000	0.006	0.123
-185.114	-200.000	0.024	0.174
-184.100	-200.000	0.056	0.332
-183.085	458.927	-0.100	-0.222
-182.071	198.192	-0.011	-0.017
-181.056	-29.758	0.108	-0.062
-180.042	800.000	-0.012	-0.032
-179.027	-52.395	0.210	-0.097
-178.012	235.765	0.178	0.294
-176.998	63.448	0.168	-0.169
-175.983	-61.431	0.114	0.048
-174.969	-55.428	-0.312	0.140
-173.954	-109.627	-0.245	0.052
-172.939	-200.000	0.007	-0.246
-171.925	-59.900	0.139	0.059
-170.910	69.037	0.075	-0.076
-169.896	800.000	0.049	0.172
-168.881	-200.000	0.061	0.424
-167.866	-200.000	0.084	0.367
-166.852	-200.000	0.042	0.204
-165.837	-200.000	-0.003	0.199
-164.823	-137.235	-0.313	0.036
-163.808	78.064	0.171	0.182
-162.793	-200.000	-0.023	0.119
-161.779	-144.419	-0.292	0.027
-160.764	-200.000	-0.002	-0.019
-159.750	800.000	0.027	-0.115
-158.735	-200.000	-0.032	0.176
-157.720	-49.868	0.189	-0.089
-156.706	60.361	0.165	-0.163
-155.691	-200.000	0.016	0.249
-154.677	66.762	0.039	-0.040
-153.662	87.992	-0.112	0.124
-152.647	-200.000	0.051	0.269
-151.633	11.274	0.281	0.215
-150.618	46.353	-0.164	0.152
-149.604	52.793	-0.107	-0.102
-148.589	-25.395	0.449	0.265
-147.574	-176.329	0.356	0.009
-146.560	-120.224	-0.183	-0.031
-145.545	-199.947	-0.282	0.001
-144.531	-85.087	0.197	0.062
-143.516	-33.669	0.174	0.096
-142.502	-60.011	0.226	0.096
-141.487	278.854	0.190	-0.337
-140.472	-95.813	0.151	0.040
-139.458	116.516	-0.143	0.175
-138.443	456.418	-0.069	0.152
-137.429	-200.000	-0.010	-0.119
-136.414	245.029	-0.200	0.335
-135.399	-78.536	0.286	0.098
-134.385	21.413	0.075	-0.061
-133.370	-38.143	0.165	0.087
-132.356	-112.508	0.165	-0.033
-131.341	-200.000	-0.066	0.471
-130.326	-19.718	0.373	0.230
-129.312	93.583	0.124	0.140
-128.297	-183.821	-0.044	0.001
-127.283	212.737	0.135	0.213
-126.268	-111.511	0.086	0.017
-125.253	800.000	0.054	-0.180
-124.239	61.623	0.072	0.071
-123.224	65.932	0.175	0.177
-122.210	800.000	0.050	0.150
-121.195	-121.106	-0.058	0.010
