DTS Sentinel unit serial number:	SN413079Multiplexer serial number:	ORYXHardware model number:	OX4-SRSoftware version number:	ORYX F/W v4.00 Oryx Data Collector v3.7.2.0data status	okinstallation	princeton_trtdifferential loss correction	single-endedforward channel	channel 4reverse channel	N/Adate	2019/09/11time	19:59:11forward acquisition time	60.00reverse acquisition time	0.00gamma	496.2192k internal	0.2300k external	0.2300temperature offset calibration	1.0045default loss term (dB/km)	0.3790temperature slope calibration	1.0000multiplexer offset coefficient	1.0000multiplexer slope coefficient	1.0000fibre end	0.00T internal ref (°C)	38.87T ext. ref 1 (°C)	1.37T ext. ref 2 (°C)	31.98length (m)	temperature (°C)	Stokes	anti-Stokes-747.200	-200.000	0.016	-0.158
-746.185	-51.586	-0.184	0.087
-745.171	-164.468	0.096	0.004
-744.156	520.088	-0.094	0.226
-743.142	-28.959	-0.173	0.101
-742.127	108.469	0.155	0.189
-741.112	151.202	-0.111	0.154
-740.098	800.000	-0.102	0.360
-739.083	-37.329	0.124	0.068
-738.069	-158.818	-0.276	0.016
-737.054	-113.187	-0.139	-0.028
-736.039	-53.651	0.080	0.037
-735.025	349.332	-0.065	0.132
-734.010	360.703	-0.119	0.243
-732.996	121.376	-0.055	-0.070
-731.981	-200.000	0.042	0.481
-730.966	-200.000	-0.018	0.127
-729.952	-51.091	-0.323	0.154
-728.937	-46.709	0.166	-0.083
-727.923	800.000	-0.034	-0.142
-726.908	-63.311	-0.292	0.122
-725.894	-145.040	-0.235	0.022
-724.879	73.532	-0.214	-0.228
-723.864	-200.000	0.030	-0.157
-722.850	-187.047	-0.243	-0.003
-721.835	-42.758	-0.232	-0.120
-720.821	-3.949	-0.283	-0.200
-719.806	-200.000	0.018	-0.222
-718.791	-74.409	0.251	-0.092
-717.777	-140.610	0.095	0.010
-716.762	-200.000	0.032	0.237
-715.748	800.000	0.102	0.382
-714.733	-122.715	0.318	0.052
-713.718	6.189	0.192	-0.145
-712.704	-18.554	-0.276	-0.175
-711.689	65.691	-0.019	0.019
-710.675	-200.000	0.058	0.262
-709.660	212.307	0.068	0.109
-708.645	294.752	-0.236	0.439
-707.631	-155.839	-0.111	-0.007
-706.616	729.937	0.063	0.170
-705.602	-200.000	0.006	0.115
-704.587	276.306	0.052	0.094
-703.572	-121.639	0.297	-0.050
-702.558	-23.933	0.085	-0.052
-701.543	-80.749	0.235	-0.080
-700.529	766.097	-0.132	-0.366
-699.514	529.844	-0.084	0.202
-698.499	576.624	0.131	-0.327
-697.485	-86.904	0.356	0.111
-696.470	83.397	-0.168	0.187
-695.456	-200.000	0.004	0.039
-694.441	-14.104	0.144	-0.095
-693.426	-76.131	-0.276	-0.099
-692.412	-65.369	0.322	-0.132
-691.397	41.792	0.123	0.113
-690.383	155.151	-0.120	0.168
-689.368	-76.509	0.136	0.049
-688.354	-92.171	0.176	0.051
-687.339	-200.000	-0.016	-0.176
-686.324	236.130	-0.026	-0.043
-685.310	488.227	0.061	0.141
-684.295	167.559	-0.172	0.249
-683.281	28.823	-0.056	0.048
-682.266	800.000	0.065	-0.243
-681.251	-90.603	-0.205	-0.060
-680.237	-90.962	0.069	-0.020
-679.222	402.514	-0.096	0.205
-678.208	255.044	0.218	-0.380
-677.193	144.370	-0.254	-0.345
-676.178	115.478	0.121	-0.151
-675.164	-137.045	0.244	-0.028
-674.149	4.473	0.128	-0.095
-673.135	511.016	0.090	-0.214
-672.120	-83.169	-0.221	-0.072
-671.105	800.000	-0.032	0.121
-670.091	800.000	-0.051	-0.219
-669.076	109.723	0.283	-0.345
-668.062	-41.923	-0.087	0.046
-667.047	-200.000	0.001	0.035
-666.032	-200.000	-0.022	0.359
-665.018	-200.000	0.073	-0.372
-664.003	-135.712	0.309	-0.037
-662.989	-76.073	-0.250	0.090
-661.974	-107.474	0.112	-0.025
-660.959	-82.859	0.296	-0.097
-659.945	5.568	-0.072	-0.054
-658.930	-200.000	0.029	0.243
-657.916	137.006	0.216	0.287
-656.901	-25.216	-0.257	-0.155
-655.886	800.000	-0.036	0.157
-654.872	-89.446	-0.151	-0.045
-653.857	-6.074	-0.067	0.046
-652.843	-11.745	0.132	-0.088
-651.828	-192.716	-0.270	0.003
-650.814	-67.928	-0.324	0.129
-649.799	-143.668	0.157	-0.015
-648.784	129.756	-0.189	-0.245
-647.770	37.362	-0.052	-0.047
-646.755	-68.702	0.182	-0.072
-645.741	-200.000	0.026	-0.150
-644.726	-200.000	-0.061	-0.406
-643.711	-200.000	-0.015	0.137
-642.697	97.076	0.084	-0.098
-641.682	-63.600	0.209	0.087
-640.668	400.255	0.053	-0.112
-639.653	-103.239	-0.390	-0.094
-638.638	-62.421	-0.241	0.102
-637.624	800.000	0.102	-0.432
-636.609	21.293	0.119	-0.098
-635.595	9.767	-0.215	0.166
-634.580	277.658	0.038	0.069
-633.565	54.598	-0.079	0.077
-632.551	-171.682	-0.157	-0.005
-631.536	-80.457	-0.109	-0.037
-630.522	-76.138	0.364	-0.131
-629.507	-200.000	-0.009	0.051
-628.492	-40.330	0.162	0.086
-627.478	-11.356	-0.529	0.354
-626.463	-30.024	-0.061	0.035
-625.449	17.876	-0.172	0.139
-624.434	-71.040	-0.289	-0.111
-623.419	301.521	-0.125	-0.235
-622.405	-23.521	0.176	0.108
-621.390	-123.531	-0.167	-0.027
-620.376	-200.000	-0.003	-0.105
-619.361	-170.930	0.244	0.008
-618.346	-98.270	-0.229	-0.060
-617.332	-200.000	0.062	-0.336
-616.317	-111.460	-0.269	-0.056
-615.303	-83.505	0.040	-0.013
-614.288	-200.000	0.007	-0.216
-613.273	638.361	-0.046	0.119
-612.259	-200.000	-0.001	0.192
-611.244	-122.438	-0.221	-0.036
-610.230	93.708	-0.146	-0.168
-609.215	9.138	0.176	-0.135
-608.201	352.759	0.016	0.031
-607.186	132.932	0.047	0.062
-606.171	-77.485	-0.231	0.081
-605.157	274.873	-0.161	-0.289
-604.142	-200.000	0.486	-0.002
-603.128	121.644	-0.169	0.213
-602.113	-200.000	-0.008	0.073
-601.098	-200.000	-0.010	0.271
-600.084	257.110	0.126	-0.220
-599.069	-200.000	0.011	-0.101
-598.055	-163.129	-0.047	0.002
-597.040	-200.000	0.052	-0.371
-596.025	-116.456	-0.300	0.056
-595.011	-200.000	-0.038	0.281
-593.996	800.000	0.059	-0.192
-592.982	488.846	0.059	-0.137
-591.967	-25.763	-0.207	0.124
-590.952	114.600	0.271	0.335
-589.938	-200.000	-0.050	0.286
-588.923	191.390	0.172	-0.263
-587.909	-182.209	-0.363	0.007
-586.894	-200.000	-0.002	-0.195
-585.879	-48.465	-0.174	-0.085
-584.865	63.028	-0.394	0.400
-583.850	596.418	0.142	-0.357
-582.836	-65.546	-0.321	-0.130
-581.821	481.644	-0.124	-0.286
-580.806	-49.505	-0.178	-0.086
-579.792	-33.108	0.120	0.068
-578.777	130.715	0.261	0.340
-577.763	-56.748	-0.236	0.106
-576.748	-200.000	-0.005	0.325
-575.733	105.006	0.031	-0.037
-574.719	800.000	0.041	-0.132
-573.704	-120.098	0.164	0.028
-572.690	183.752	0.080	0.120
-571.675	-35.153	-0.127	0.070
-570.661	-200.000	-0.032	0.162
-569.646	17.116	-0.207	-0.166
-568.631	146.239	-0.118	-0.161
-567.617	146.601	0.164	-0.223
-566.602	-18.238	-0.182	0.116
-565.588	324.929	-0.015	0.028
-564.573	171.049	-0.171	-0.248
-563.558	-39.426	0.207	-0.110
-562.544	-98.544	0.216	0.056
-561.529	-145.148	-0.335	-0.031
-560.515	-93.039	0.046	-0.013
-559.500	-105.082	0.276	-0.064
-558.485	439.049	-0.065	-0.145
-557.471	-69.349	0.257	0.100
-556.456	800.000	-0.084	0.255
-555.442	15.680	-0.082	0.065
-554.427	242.894	0.186	0.315
-553.412	-174.565	0.259	0.007
-552.398	19.611	0.188	-0.153
-551.383	800.000	0.089	0.251
-550.369	-30.621	0.166	0.095
-549.354	29.877	0.098	0.085
-548.339	-134.838	0.320	0.039
-547.325	-92.177	-0.268	-0.077
-546.310	-24.246	-0.132	-0.080
-545.296	-73.154	0.243	-0.090
-544.281	-200.000	0.014	-0.190
-543.266	-52.113	-0.148	-0.069
-542.252	800.000	0.064	0.250
-541.237	21.213	0.164	-0.135
-540.223	-44.125	-0.130	0.066
-539.208	-10.712	-0.245	0.164
-538.193	15.599	0.169	-0.134
-537.179	-200.000	-0.027	0.179
-536.164	-200.000	-0.000	-0.299
-535.150	-70.105	-0.193	0.074
-534.135	-121.696	0.144	-0.024
-533.121	24.922	-0.220	-0.185
-532.106	-1.164	0.055	-0.039
-531.091	63.574	-0.128	-0.129
-530.077	-147.301	-0.326	0.028
-529.062	162.627	0.115	-0.164
-528.048	79.213	0.046	-0.050
-527.033	-71.277	-0.247	0.094
-526.018	-75.419	0.079	0.028
-525.004	-93.271	0.153	-0.043
-523.989	25.391	0.202	-0.170
-522.975	-135.951	0.281	-0.033
-521.960	-112.324	0.260	0.053
-520.945	-16.327	-0.177	0.113
-519.931	-105.240	0.038	-0.009
-518.916	142.928	-0.055	-0.074
-517.902	31.428	-0.143	-0.125
-516.887	-22.875	0.184	0.112
-515.872	-200.000	0.007	-0.059
-514.858	12.813	-0.105	-0.082
-513.843	-90.104	-0.109	-0.032
-512.829	-47.492	0.200	0.098
-511.814	87.624	0.152	0.170
-510.799	-129.111	0.469	-0.066
-509.785	300.103	-0.050	-0.093
-508.770	-37.560	-0.213	0.115
-507.756	252.994	0.218	-0.375
-506.741	-60.268	0.203	0.087
-505.726	800.000	-0.020	-0.061
-504.712	-31.655	-0.075	-0.042
-503.697	-105.480	0.174	0.040
-502.683	-164.118	-0.214	-0.010
-501.668	128.257	0.083	0.107
-500.653	46.273	-0.237	-0.222
-499.639	-200.000	0.029	-0.143
-498.624	408.762	-0.138	0.296
-497.610	-109.149	0.133	0.028
-496.595	-70.972	-0.294	0.112
-495.581	-90.068	-0.178	0.052
-494.566	-41.244	-0.305	-0.159
-493.551	467.511	-0.031	-0.070
-492.537	-35.271	0.246	0.135
-491.522	92.565	0.360	-0.410
-490.508	208.892	-0.119	0.188
-489.493	-54.203	-0.310	0.142
-488.478	-10.927	-0.159	0.106
-487.464	-47.281	0.331	0.163
-486.449	-200.000	0.027	0.205
-485.435	345.536	-0.103	0.204
-484.420	334.953	-0.038	0.075
-483.405	800.000	-0.053	-0.190
-482.391	800.000	-0.051	-0.196
-481.376	119.014	0.159	0.198
-480.362	29.632	-0.155	-0.133
-479.347	-10.886	-0.290	-0.193
-478.332	-55.901	0.061	-0.027
-477.318	77.234	0.197	0.211
-476.303	55.676	-0.381	0.373
-475.289	-93.980	0.284	0.079
-474.274	125.639	-0.126	-0.161
-473.259	-46.160	-0.448	0.222
-472.245	143.391	-0.111	0.150
-471.230	-200.000	-0.070	-0.501
-470.216	-28.693	0.167	-0.097
-469.201	-5.666	0.177	-0.122
-468.186	278.472	0.155	0.278
-467.172	-200.000	0.012	0.089
-466.157	-9.997	0.305	0.205
-465.143	145.077	0.172	0.232
-464.128	-104.625	-0.163	0.038
-463.113	-200.000	0.007	-0.245
-462.099	547.688	-0.090	-0.218
-461.084	-71.136	0.224	0.085
-460.070	133.562	-0.121	-0.158
-459.055	-93.332	-0.120	0.034
-458.040	-86.469	0.270	-0.084
-457.026	325.924	-0.028	-0.054
-456.011	100.578	0.130	0.152
-454.997	552.902	-0.057	0.137
-453.982	674.074	0.075	0.196
-452.968	-200.000	-0.055	0.289
-451.953	800.000	0.038	-0.121
-450.938	15.261	-0.106	-0.084
-449.924	9.760	-0.169	-0.129
-448.909	-183.456	-0.322	-0.006
-447.895	800.000	0.080	0.258
-446.880	-163.633	-0.112	-0.005
-445.865	783.585	-0.108	0.297
-444.851	-155.946	0.160	-0.010
-443.836	266.795	0.058	0.102
-442.822	-81.973	-0.028	0.009
-441.807	-3.784	-0.043	-0.030
-440.792	-200.000	-0.004	0.275
-439.778	366.804	-0.104	0.212
-438.763	-103.261	-0.330	0.079
-437.749	661.448	-0.093	-0.241
-436.734	108.794	0.038	0.046
-435.719	-125.763	-0.164	-0.025
-434.705	800.000	0.042	0.150
-433.690	122.799	-0.208	0.262
-432.676	11.203	0.414	-0.319
-431.661	-114.124	-0.105	0.020
-430.646	-200.000	0.013	0.235
-429.632	591.648	-0.232	-0.578
-428.617	-200.000	-0.033	-0.204
-427.603	503.048	0.046	0.106
-426.588	-200.000	0.054	0.240
-425.573	-35.999	-0.333	0.182
-424.559	180.560	0.174	-0.257
-423.544	-112.036	-0.322	0.065
-422.530	-160.934	0.162	0.009
-421.515	-12.835	-0.180	-0.118
-420.500	-39.330	-0.216	-0.114
-419.486	-98.113	0.218	-0.056
-418.471	87.019	-0.142	0.158
-417.457	-53.680	-0.090	0.041
-416.442	-200.000	0.021	-0.106
-415.428	-154.868	0.298	0.020
-414.413	-80.821	0.160	0.054
-413.398	-46.051	-0.142	-0.070
-412.384	772.962	0.059	-0.162
-411.369	800.000	0.037	-0.151
-410.355	800.000	-0.093	0.274
-409.340	550.184	0.036	-0.088
-408.325	-56.133	0.200	-0.090
-407.311	168.811	-0.144	0.207
-406.296	-113.966	0.182	0.036
-405.282	-157.543	0.168	-0.010
-404.267	-200.000	-0.006	0.382
-403.252	214.642	-0.040	-0.064
-402.238	800.000	-0.126	0.381
-401.223	64.427	0.094	0.096
-400.209	-81.211	-0.402	-0.134
-399.194	-95.972	-0.096	0.026
-398.179	102.818	0.120	-0.141
-397.165	800.000	-0.026	0.084
-396.150	7.206	-0.178	0.134
-395.136	-200.000	-0.052	0.274
-394.121	0.088	0.148	0.106
-393.106	800.000	-0.083	-0.251
-392.092	-84.085	0.206	-0.066
-391.077	-99.581	0.090	-0.023
-390.063	-118.832	-0.217	0.038
-389.048	800.000	0.090	0.269
-388.033	80.539	0.091	-0.098
-387.019	301.277	0.032	-0.059
-386.004	-96.381	-0.364	-0.097
-384.990	-2.010	-0.204	-0.144
-383.975	-54.197	-0.047	0.021
-382.960	-16.834	0.184	0.117
-381.946	45.633	-0.088	-0.082
-380.931	800.000	0.108	-0.402
-379.917	800.000	-0.038	-0.159
-378.902	52.957	-0.214	-0.206
-377.888	56.956	-0.221	-0.217
-376.873	-184.927	0.276	-0.004
-375.858	-122.184	-0.204	-0.034
-374.844	-200.000	0.036	0.209
-373.829	168.410	0.142	-0.203
-372.815	22.936	0.332	0.274
-371.800	-71.645	0.085	-0.032
-370.785	193.867	-0.114	-0.174
-369.771	197.062	0.032	-0.050
-368.756	-46.957	0.235	-0.115
-367.742	-97.629	0.102	-0.027
-366.727	-145.547	-0.236	-0.021
-365.712	-200.000	0.008	-0.068
-364.698	-161.404	0.187	-0.010
-363.683	50.581	0.201	0.191
-362.669	43.535	-0.301	-0.277
-361.654	-24.201	0.122	-0.073
-360.639	-77.099	-0.420	-0.147
-359.625	39.987	-0.224	-0.202
-358.610	635.328	0.044	-0.111
-357.596	-43.757	0.174	-0.088
-356.581	-200.000	-0.006	-0.134
-355.566	84.197	-0.295	-0.324
-354.552	43.586	0.301	-0.277
-353.537	-200.000	0.009	-0.193
-352.523	-94.323	0.135	0.037
-351.508	533.427	0.049	0.116
-350.493	800.000	-0.008	-0.028
-349.479	119.931	0.090	0.112
-348.464	109.047	-0.071	0.085
-347.450	10.651	-0.414	0.317
-346.435	-135.747	0.314	0.037
-345.420	260.394	-0.060	-0.103
-344.406	-200.000	0.024	0.160
-343.391	261.469	0.112	-0.194
-342.377	429.775	0.070	-0.152
-341.362	-37.624	0.159	-0.085
-340.348	197.188	0.064	-0.098
-339.333	23.763	-0.287	-0.237
-338.318	-61.851	0.292	-0.123
-337.304	490.362	-0.044	0.101
-336.289	502.824	0.064	0.149
-335.275	70.320	0.104	0.108
-334.260	-200.000	-0.023	0.219
-333.245	147.740	0.274	-0.371
-332.231	-200.000	0.015	-0.358
-331.216	478.784	0.029	0.066
-330.202	800.000	0.072	0.210
-329.187	35.295	0.054	0.048
-328.172	-200.000	0.008	-0.072
-327.158	270.146	0.157	-0.278
-326.143	-6.756	-0.192	-0.131
-325.129	-118.672	-0.487	-0.086
-324.114	42.623	0.128	0.117
-323.099	-200.000	0.011	0.133
-322.085	-107.962	0.253	0.055
-321.070	-200.000	-0.025	0.237
-320.056	287.086	-0.039	0.071
-319.041	182.546	-0.199	0.294
-318.026	26.319	-0.299	0.250
-317.012	-200.000	-0.020	-0.125
-315.997	-176.733	0.095	0.002
-314.983	361.560	-0.174	0.350
-313.968	-149.460	-0.198	0.016
-312.953	-200.000	0.005	0.151
-311.939	-19.563	-0.092	0.057
-310.924	-108.604	-0.202	0.044
-309.910	-200.000	0.004	-0.088
-308.895	-77.047	-0.161	-0.056
-307.880	-165.642	0.152	0.007
-306.866	74.000	0.166	-0.174
-305.851	250.250	0.021	0.036
-304.837	590.231	0.055	0.137
-303.822	153.313	-0.097	-0.133
-302.807	112.929	0.153	-0.186
-301.793	-200.000	-0.014	0.107
-300.778	-200.000	0.000	0.277
-299.764	-119.245	0.086	0.015
-298.749	14.782	0.382	-0.300
-297.735	118.131	0.106	0.131
-296.720	-4.480	0.214	0.148
-295.705	-29.834	0.050	0.029
-294.691	38.460	0.078	0.069
-293.676	3.471	-0.241	0.176
-292.662	197.978	0.090	0.138
-291.647	280.621	0.068	0.122
-290.632	20.919	-0.254	-0.207
-289.618	94.967	0.269	-0.307
-288.603	-200.000	0.002	0.019
-287.589	292.113	0.063	0.115
-286.574	-5.865	0.291	0.199
-285.559	-200.000	0.009	0.080
-284.545	-200.000	-0.034	-0.513
-283.530	59.052	-0.266	0.262
-282.516	1.384	0.181	0.130
-281.501	800.000	-0.055	-0.180
-280.486	496.153	0.069	-0.159
-279.472	-163.746	0.380	0.018
-278.457	-142.080	-0.316	0.031
-277.443	-96.273	-0.223	0.059
-276.428	-200.000	0.000	-0.138
-275.413	800.000	-0.200	-0.557
-274.399	-1.253	0.398	-0.281
-273.384	-38.100	0.294	-0.156
-272.370	70.486	0.202	-0.209
-271.355	-85.224	0.530	-0.166
-270.340	-116.795	-0.224	0.041
-269.326	-114.010	-0.398	-0.077
-268.311	206.469	0.052	0.081
-267.297	-94.597	0.328	0.089
-266.282	484.185	0.080	0.181
-265.267	-92.914	0.225	0.063
-264.253	-48.533	0.112	-0.054
-263.238	-200.000	0.016	0.199
-262.224	800.000	-0.070	0.221
-261.209	-97.678	-0.121	0.031
-260.195	-94.128	-0.146	-0.040
-259.180	-200.000	-0.008	0.075
-258.165	-200.000	0.077	0.482
-257.151	94.688	-0.180	0.204
-256.136	-200.000	-0.069	-0.304
-255.122	-67.356	0.282	0.111
-254.107	800.000	-0.058	-0.208
-253.092	496.180	0.059	-0.136
-252.078	-133.653	0.280	-0.035
-251.063	387.827	0.159	0.329
-250.049	-200.000	-0.033	0.231
-249.034	-124.276	0.196	-0.031
-248.019	-200.000	-0.052	0.238
-247.005	-129.358	0.296	-0.041
-245.990	-46.330	-0.054	-0.026
-244.976	-90.711	0.292	-0.084
-243.961	98.699	0.122	0.141
-242.946	193.852	-0.195	0.295
-241.932	-67.584	0.119	0.047
-240.917	426.038	-0.063	-0.136
-239.903	-200.000	-0.046	0.498
-238.888	-200.000	0.018	0.168
-237.873	62.211	-0.073	0.073
-236.859	-128.748	0.361	-0.051
-235.844	-200.000	-0.028	-0.223
-234.830	-10.937	0.342	-0.226
-233.815	309.408	-0.117	0.218
-232.800	87.744	-0.155	-0.171
-231.786	165.530	0.055	-0.078
-230.771	-68.642	-0.144	-0.056
-229.757	-32.114	0.254	-0.142
-228.742	800.000	-0.059	-0.217
-227.727	-161.574	-0.263	0.013
-226.713	49.812	-0.128	-0.120
-225.698	-16.909	-0.093	-0.059
-224.684	248.147	-0.197	-0.334
-223.669	388.767	0.275	-0.569
-222.655	800.000	-0.006	0.024
-221.640	-200.000	-0.046	0.228
-220.625	302.733	-0.170	0.314
-219.611	-64.137	0.472	0.193
-218.596	61.017	-0.069	-0.068
-217.582	49.908	-0.226	0.213
-216.567	-88.880	-0.219	0.065
-215.552	800.000	0.036	0.130
-214.538	-200.000	-0.007	0.143
-213.523	-156.083	-0.176	-0.011
-212.509	68.077	0.012	0.013
-211.494	-200.000	-0.045	-0.229
-210.479	-76.779	0.238	-0.083
-209.465	-121.329	0.251	-0.042
-208.450	729.004	-0.021	0.057
-207.436	-3.088	-0.206	-0.144
-206.421	190.356	0.152	-0.228
-205.406	44.218	0.168	-0.154
-204.392	-178.801	-0.069	-0.002
-203.377	-10.131	-0.218	-0.145
-202.363	87.729	-0.013	0.014
-201.348	526.487	-0.173	0.407
-200.333	192.030	-0.063	0.095
-199.319	97.507	-0.230	-0.264
-198.304	127.803	-0.174	-0.221
-197.290	-65.972	0.118	0.047
-196.275	-200.000	-0.017	-0.154
-195.260	-50.154	0.243	0.115
-194.246	194.996	-0.278	0.421
-193.231	-4.080	0.138	0.096
-192.217	23.886	-0.071	0.058
-191.202	-78.563	-0.060	0.020
-190.187	122.209	0.260	0.324
-189.173	155.816	0.252	0.347
-188.158	-200.000	0.007	0.157
-187.144	-111.974	-0.317	-0.064
-186.129	87.381	0.322	-0.355
-185.114	465.171	-0.105	0.234
-184.100	-200.000	-0.030	-0.160
-183.085	-43.196	-0.239	-0.121
-182.071	162.805	0.202	-0.283
-181.056	-200.000	0.025	-0.113
-180.042	800.000	0.164	0.504
-179.027	-120.439	0.169	0.029
-178.012	800.000	0.100	0.308
-176.998	-200.000	0.050	0.235
-175.983	725.965	0.069	0.184
-174.969	56.683	-0.102	0.099
-173.954	800.000	0.060	0.219
-172.939	-200.000	-0.005	0.045
-171.925	26.855	-0.163	0.136
-170.910	116.869	-0.106	-0.130
-169.896	-114.277	0.344	0.066
-168.881	394.044	0.045	-0.093
-167.866	800.000	0.036	0.120
-166.852	-130.174	0.015	0.002
-165.837	319.405	0.058	-0.110
-164.823	-11.565	0.095	-0.063
-163.808	-63.778	0.107	0.044
-162.793	-123.538	0.181	0.029
-161.779	174.511	0.051	-0.073
-160.764	562.862	-0.103	0.249
-159.750	-191.172	0.152	-0.002
-158.735	713.044	0.134	-0.354
-157.720	99.591	-0.188	0.217
-156.706	415.650	-0.074	0.158
-155.691	45.801	-0.213	-0.197
-154.677	-119.900	-0.336	-0.058
-153.662	-86.125	0.251	0.077
-152.647	54.032	0.099	-0.095
-151.633	-120.875	-0.218	0.037
-150.618	193.928	0.083	0.126
-149.604	-28.473	-0.255	0.147
-148.589	395.068	-0.070	0.146
-147.574	800.000	0.066	0.202
-146.560	26.743	-0.134	-0.112
-145.545	11.731	0.205	0.157
-144.531	174.424	-0.116	0.168
-143.516	237.939	0.101	-0.167
-142.502	-119.211	0.233	-0.040
-141.487	-200.000	-0.039	0.318
-140.472	154.537	-0.182	0.249
-139.458	-131.097	0.110	-0.015
-138.443	-200.000	0.008	0.308
-137.429	48.131	0.242	0.226
-136.414	-43.273	0.169	0.085
-135.399	-58.443	-0.065	-0.028
-134.385	359.420	0.066	0.131
-133.370	800.000	0.087	-0.262
-132.356	-200.000	-0.035	-0.195
-131.341	-77.206	-0.344	0.119
-130.326	800.000	0.073	0.290
-129.312	-34.279	0.162	0.088
-128.297	86.760	0.298	-0.328
-127.283	-143.229	0.183	0.018
-126.268	-20.633	0.093	-0.057
-125.253	241.681	0.076	-0.127
-124.239	453.995	-0.071	0.156
-123.224	-41.963	-0.125	-0.064
-122.210	-105.789	-0.074	-0.017
-121.195	326.761	-0.066	-0.126
