DTS Sentinel unit serial number:	SN413079Multiplexer serial number:	ORYXHardware model number:	OX4-SRSoftware version number:	ORYX F/W v4.00 Oryx Data Collector v3.7.2.0data status	okinstallation	princeton_trtdifferential loss correction	single-endedforward channel	channel 3reverse channel	N/Adate	2019/09/12time	09:38:11forward acquisition time	60.00reverse acquisition time	0.00gamma	496.2192k internal	0.2301k external	0.2301temperature offset calibration	1.0033default loss term (dB/km)	0.3790temperature slope calibration	1.0000multiplexer offset coefficient	1.0000multiplexer slope coefficient	1.0000fibre end	0.00T internal ref (°C)	35.73T ext. ref 1 (°C)	1.82T ext. ref 2 (°C)	32.47length (m)	temperature (°C)	Stokes	anti-Stokes-747.200	-186.400	-0.407	-0.006
-746.185	-53.632	-0.260	0.121
-745.171	5.434	0.111	0.084
-744.156	-64.666	0.156	-0.065
-743.142	-44.434	0.134	-0.068
-742.127	-52.571	-0.326	0.153
-741.112	-200.000	0.003	-0.117
-740.098	43.088	-0.178	0.166
-739.083	-90.908	0.230	-0.067
-738.069	-115.995	0.131	0.025
-737.054	-99.059	-0.068	0.018
-736.039	60.012	-0.064	0.065
-735.025	478.466	-0.043	0.100
-734.010	-0.232	-0.061	-0.045
-732.996	213.053	-0.186	-0.299
-731.981	800.000	0.091	-0.348
-730.966	-55.025	0.276	0.127
-729.952	8.719	-0.115	-0.088
-728.937	-26.594	-0.134	-0.080
-727.923	10.924	-0.185	-0.144
-726.908	-96.911	-0.178	0.048
-725.894	-181.370	0.274	-0.005
-724.879	-122.011	-0.289	-0.048
-723.864	-174.651	0.169	-0.005
-722.850	92.395	0.056	0.065
-721.835	-43.608	0.196	0.101
-720.821	48.164	-0.115	0.110
-719.806	-1.577	-0.253	-0.181
-718.791	-128.679	-0.286	0.041
-717.777	-6.706	0.431	-0.299
-716.762	-78.791	0.252	-0.088
-715.748	-200.000	0.067	-0.374
-714.733	-200.000	-0.011	-0.273
-713.718	-14.312	-0.140	0.092
-712.704	-135.278	0.304	0.037
-711.689	-68.013	0.183	-0.073
-710.675	53.377	0.053	-0.052
-709.660	472.733	-0.087	0.200
-708.645	800.000	0.013	0.047
-707.631	-61.472	-0.154	-0.066
-706.616	-165.949	0.287	-0.012
-705.602	800.000	-0.058	0.188
-704.587	-92.675	0.217	0.062
-703.572	-139.424	0.210	0.023
-702.558	-116.770	-0.552	0.103
-701.543	-121.496	0.147	-0.025
-700.529	800.000	-0.029	0.103
-699.514	632.790	0.051	-0.131
-698.499	119.678	0.146	-0.184
-697.485	-9.370	0.192	-0.131
-696.470	-73.853	-0.069	-0.026
-695.456	-73.394	0.182	-0.068
-694.441	288.462	-0.020	0.037
-693.426	-47.743	0.281	-0.139
-692.412	-106.808	0.254	0.057
-691.397	150.634	0.148	-0.205
-690.383	484.751	0.068	-0.156
-689.368	393.507	-0.102	0.217
-688.354	-58.436	-0.108	0.048
-687.339	428.602	-0.147	-0.323
-686.324	154.522	0.058	0.082
-685.310	-37.263	-0.508	0.276
-684.295	307.757	0.176	-0.335
-683.281	-67.302	0.176	0.070
-682.266	159.968	0.176	0.250
-681.251	800.000	-0.040	0.158
-680.237	76.066	0.048	-0.051
-679.222	105.208	0.097	-0.116
-678.208	246.767	-0.147	0.253
-677.193	800.000	-0.107	-0.385
-676.178	-49.233	-0.238	-0.115
-675.164	3.720	-0.094	-0.070
-674.149	-100.568	0.251	-0.063
-673.135	-172.175	0.181	0.006
-672.120	190.852	-0.108	0.166
-671.105	575.021	0.155	-0.384
-670.091	-200.000	-0.017	-0.332
-669.076	180.633	-0.126	0.188
-668.062	-98.865	-0.336	0.087
-667.047	49.218	-0.230	-0.220
-666.032	294.818	0.151	0.281
-665.018	162.486	0.183	-0.260
-664.003	296.628	-0.150	0.279
-662.989	60.555	-0.069	-0.070
-661.974	262.051	0.038	-0.066
-660.959	-152.979	-0.404	-0.029
-659.945	89.667	-0.041	-0.046
-658.930	332.659	-0.112	0.219
-657.916	14.864	-0.194	0.154
-656.901	3.622	0.053	0.040
-655.886	744.241	-0.139	-0.380
-654.872	-156.191	0.058	-0.004
-653.857	-147.421	-0.200	0.017
-652.843	800.000	0.063	-0.179
-651.828	800.000	-0.077	-0.231
-650.814	-65.931	0.508	-0.206
-649.799	-89.702	-0.157	0.047
-648.784	-78.058	0.024	-0.008
-647.770	246.037	0.135	-0.231
-646.755	172.119	0.091	0.133
-645.741	-26.231	-0.049	-0.029
-644.726	800.000	-0.060	-0.265
-643.711	-158.439	-0.250	0.015
-642.697	70.386	-0.200	0.210
-641.682	5.077	-0.288	-0.215
-640.668	30.819	0.138	0.120
-639.653	800.000	0.059	0.257
-638.638	47.383	-0.383	0.363
-637.624	3.640	-0.116	-0.086
-636.609	408.822	-0.166	0.358
-635.595	69.196	-0.116	0.121
-634.580	-42.511	0.297	0.154
-633.565	367.780	-0.064	0.131
-632.551	75.739	0.140	0.151
-631.536	-55.927	-0.174	-0.079
-630.522	127.148	-0.086	0.111
-629.507	580.542	0.109	-0.272
-628.492	-1.430	-0.298	-0.214
-627.478	800.000	-0.070	0.228
-626.463	800.000	-0.069	-0.261
-625.449	-126.876	0.350	0.052
-624.434	-18.395	-0.188	-0.119
-623.419	-114.364	-0.147	0.029
-622.405	38.315	-0.236	-0.214
-621.390	-86.328	0.174	0.054
-620.376	232.707	-0.073	-0.122
-619.361	800.000	-0.152	-0.428
-618.346	119.227	-0.075	0.094
-617.332	-200.000	-0.004	0.143
-616.317	800.000	-0.024	0.083
-615.303	-82.147	-0.095	0.031
-614.288	800.000	-0.099	-0.390
-613.273	800.000	-0.021	-0.093
-612.259	-200.000	-0.023	0.241
-611.244	-58.305	-0.120	-0.053
-610.230	150.939	-0.059	-0.081
-609.215	3.781	-0.194	-0.144
-608.201	-154.436	-0.245	0.017
-607.186	-140.071	-0.153	-0.016
-606.171	633.483	-0.088	0.226
-605.157	-200.000	-0.037	0.189
-604.142	-95.503	-0.162	-0.044
-603.128	74.987	0.151	0.161
-602.113	-134.720	0.134	0.016
-601.098	168.370	0.072	0.103
-600.084	-134.508	0.308	0.038
-599.069	-126.538	-0.291	0.044
-598.055	-108.641	0.472	0.103
-597.040	-200.000	0.029	-0.154
-596.025	30.965	-0.188	-0.163
-595.011	595.775	0.018	-0.045
-593.996	-64.970	-0.526	-0.216
-592.982	32.698	-0.210	-0.184
-591.967	800.000	0.086	-0.272
-590.952	800.000	0.074	0.244
-589.938	800.000	0.043	0.154
-588.923	45.628	-0.262	-0.245
-587.909	533.056	0.146	-0.349
-586.894	149.009	0.164	-0.225
-585.879	-24.713	-0.437	0.264
-584.865	-200.000	-0.036	-0.216
-583.850	-84.308	-0.137	-0.044
-582.836	542.826	0.104	-0.252
-581.821	-81.319	-0.135	-0.045
-580.806	-33.405	-0.314	0.176
-579.792	77.815	0.078	0.084
-578.777	-68.018	-0.142	-0.056
-577.763	673.903	-0.086	0.226
-576.748	308.054	0.195	0.368
-575.733	66.233	-0.099	0.102
-574.719	800.000	-0.043	0.130
-573.704	-200.000	-0.003	0.077
-572.690	800.000	-0.041	-0.131
-571.675	-84.373	0.316	-0.101
-570.661	-99.256	0.045	0.011
-569.646	-200.000	-0.427	-0.000
-568.631	9.064	0.143	0.109
-567.617	71.145	0.222	0.233
-566.602	-200.000	0.032	-0.168
-565.588	-5.637	-0.184	-0.128
-564.573	-145.501	0.229	-0.021
-563.558	-200.000	-0.005	0.214
-562.544	319.357	-0.022	-0.042
-561.529	1.861	0.096	-0.070
-560.515	567.921	-0.044	0.108
-559.500	-200.000	-0.007	-0.173
-558.485	548.506	0.129	0.312
-557.471	127.028	0.120	-0.154
-556.456	74.036	-0.035	-0.037
-555.442	-88.008	-0.386	-0.117
-554.427	172.420	0.019	0.027
-553.412	757.634	-0.047	-0.129
-552.398	-96.298	-0.302	0.081
-551.383	34.015	-0.069	-0.061
-550.369	-109.059	0.340	0.073
-549.354	26.248	0.319	0.270
-548.339	245.757	-0.066	0.112
-547.325	7.940	-0.065	0.049
-546.310	-119.641	0.159	-0.028
-545.296	110.025	0.082	-0.099
-544.281	341.514	-0.105	0.208
-543.266	800.000	-0.083	-0.286
-542.252	-68.328	0.136	-0.054
-541.237	-72.356	0.178	-0.067
-540.223	-200.000	-0.008	-0.156
-539.208	-1.372	0.247	-0.176
-538.193	159.680	0.100	0.142
-537.179	708.602	-0.094	0.252
-536.164	105.586	-0.106	-0.127
-535.150	47.719	-0.079	-0.075
-534.135	155.424	0.193	-0.268
-533.121	-200.000	-0.015	-0.229
-532.106	-200.000	-0.009	-0.062
-531.091	-21.973	-0.095	-0.059
-530.077	-37.623	0.150	-0.081
-529.062	365.180	0.085	0.172
-528.048	77.622	0.107	0.115
-527.033	800.000	0.036	-0.149
-526.018	-148.579	-0.267	-0.022
-525.004	800.000	0.057	0.215
-523.989	-200.000	0.087	-0.426
-522.975	56.515	-0.096	-0.094
-521.960	-93.696	0.258	0.072
-520.945	14.178	0.245	-0.193
-519.931	-27.828	-0.261	0.153
-518.916	-71.313	0.101	0.038
-517.902	175.428	0.056	-0.083
-516.887	-200.000	0.014	0.075
-515.872	-42.659	0.110	0.056
-514.858	-120.034	-0.050	-0.009
-513.843	-123.943	0.037	0.006
-512.829	318.152	-0.157	0.300
-511.814	17.081	-0.200	0.161
-510.799	721.667	-0.034	0.092
-509.785	-28.836	-0.136	-0.079
-508.770	131.333	0.237	-0.308
-507.756	-200.000	-0.077	-0.396
-506.741	-97.734	0.083	-0.022
-505.726	-200.000	-0.024	0.165
-504.712	73.476	0.116	-0.122
-503.697	-200.000	-0.013	0.100
-502.683	89.931	0.128	0.145
-501.668	-200.000	0.020	-0.110
-500.653	-29.676	-0.039	0.022
-499.639	12.315	-0.165	-0.129
-498.624	159.045	0.047	-0.067
-497.610	-200.000	-0.005	-0.270
-496.595	-200.000	0.016	0.159
-495.581	-200.000	0.030	0.360
-494.566	177.805	0.108	-0.159
-493.551	108.153	0.180	-0.217
-492.537	-168.417	0.188	0.007
-491.522	-82.571	-0.255	0.083
-490.508	-200.000	-0.008	-0.046
-489.493	-60.790	-0.214	-0.092
-488.478	35.701	0.325	-0.289
-487.464	-53.057	0.507	-0.235
-486.449	-179.176	-0.415	0.009
-485.435	-144.898	-0.065	-0.006
-484.420	-104.067	-0.308	0.072
-483.405	-93.362	0.066	0.018
-482.391	-30.040	-0.189	0.108
-481.376	-200.000	-0.005	-0.072
-480.362	-34.304	0.141	0.078
-479.347	-132.974	-0.021	0.003
-478.332	364.531	-0.064	-0.131
-477.318	60.433	-0.217	0.217
-476.303	-136.213	-0.097	-0.011
-475.289	800.000	-0.048	-0.173
-474.274	112.413	-0.327	-0.399
-473.259	800.000	-0.088	0.297
-472.245	318.914	0.092	-0.175
-471.230	-115.114	-0.144	-0.027
-470.216	323.992	-0.241	-0.464
-469.201	29.273	0.143	-0.122
-468.186	800.000	0.007	-0.023
-467.172	418.619	0.104	-0.224
-466.157	-164.209	0.022	-0.001
-465.143	-85.211	0.036	-0.011
-464.128	-161.727	0.121	0.006
-463.113	800.000	0.037	0.153
-462.099	-101.763	0.117	-0.029
-461.084	350.011	-0.123	0.246
-460.070	-70.636	-0.266	-0.101
-459.055	495.708	-0.106	-0.247
-458.040	800.000	-0.061	0.227
-457.026	-2.690	-0.293	0.206
-456.011	14.166	0.262	0.206
-454.997	800.000	-0.121	-0.391
-453.982	9.872	-0.252	-0.192
-452.968	34.739	0.100	0.088
-451.953	-12.514	0.077	0.051
-450.938	-103.115	-0.192	-0.046
-449.924	-67.223	-0.101	0.040
-448.909	-135.439	0.152	-0.018
-447.895	54.730	0.167	0.163
-446.880	-86.211	0.140	-0.044
-445.865	-52.189	-0.223	0.104
-444.851	-200.000	-0.063	-0.350
-443.836	-200.000	-0.014	-0.162
-442.822	63.900	0.106	0.108
-441.807	-27.306	0.094	-0.055
-440.792	-24.093	-0.130	0.078
-439.778	149.526	-0.078	0.106
-438.763	-17.309	-0.309	-0.196
-437.749	-34.381	0.341	0.188
-436.734	164.829	0.095	-0.134
-435.719	-80.846	0.379	-0.127
-434.705	686.863	-0.085	0.224
-433.690	37.537	0.137	-0.123
-432.676	-200.000	0.070	-0.495
-431.661	800.000	-0.142	-0.482
-430.646	-151.718	0.214	0.016
-429.632	-149.229	0.212	-0.017
-428.617	-200.000	0.082	-0.444
-427.603	-200.000	0.015	-0.136
-426.588	-121.490	0.208	-0.035
-425.573	800.000	-0.055	-0.228
-424.559	-65.034	-0.017	-0.007
-423.544	521.217	0.108	0.256
-422.530	-2.161	0.260	0.184
-421.515	146.845	0.060	-0.081
-420.500	-24.333	-0.146	-0.088
-419.486	-200.000	0.006	0.090
-418.471	314.168	0.102	0.194
-417.457	-200.000	-0.033	0.179
-416.442	-126.628	0.151	-0.023
-415.428	-12.391	0.085	-0.056
-414.413	-101.636	-0.236	-0.058
-413.398	247.751	0.136	-0.232
-412.384	28.282	-0.106	-0.090
-411.369	-130.125	0.416	-0.057
-410.355	753.390	0.126	-0.342
-409.340	800.000	0.042	0.147
-408.325	124.713	0.122	0.155
-407.311	-116.550	0.399	0.074
-406.296	-23.869	0.235	-0.142
-405.282	-58.750	-0.152	0.066
-404.267	-121.040	-0.134	0.023
-403.252	-200.000	-0.004	-0.022
-402.238	258.058	0.121	0.209
-401.223	538.739	0.161	0.386
-400.209	-107.453	0.272	0.060
-399.194	633.370	0.069	0.175
-398.179	-200.000	0.080	0.408
-397.165	18.181	-0.316	0.253
-396.150	-140.639	-0.123	-0.013
-395.136	133.827	-0.085	-0.110
-394.121	233.619	0.107	0.177
-393.106	-200.000	-0.061	0.311
-392.092	-24.730	0.231	0.138
-391.077	-200.000	0.008	0.080
-390.063	-200.000	-0.070	-0.331
-389.048	-66.161	-0.421	-0.169
-388.033	-28.230	-0.302	-0.176
-387.019	-58.111	0.179	-0.078
-386.004	-96.113	-0.139	0.037
-384.990	283.436	-0.141	-0.255
-383.975	-67.021	-0.040	0.016
-382.960	91.790	-0.146	0.166
-381.946	173.442	-0.118	0.172
-380.931	-104.679	-0.296	-0.069
-379.917	-200.000	-0.106	0.000
-378.902	-200.000	0.021	0.391
-377.888	-200.000	-0.074	0.458
-376.873	233.000	0.075	0.124
-375.858	71.198	-0.129	-0.134
-374.844	-6.710	0.226	0.154
-373.829	-165.020	-0.143	-0.006
-372.815	-200.000	0.068	0.410
-371.800	-56.811	0.030	-0.013
-370.785	-200.000	-0.005	0.127
-369.771	-135.948	0.143	0.017
-368.756	-200.000	0.001	0.157
-367.742	50.135	-0.206	-0.196
-366.727	60.819	-0.156	-0.155
-365.712	-41.695	0.145	0.075
-364.698	-55.333	-0.187	0.084
-363.683	-200.000	0.039	0.174
-362.669	-200.000	0.049	0.296
-361.654	144.269	0.190	0.255
-360.639	163.269	-0.100	0.141
-359.625	-70.098	-0.333	-0.127
-358.610	10.850	-0.308	0.236
-357.596	-91.389	-0.138	0.039
-356.581	167.117	0.099	-0.142
-355.566	-79.850	-0.200	-0.067
-354.552	-200.000	-0.005	-0.294
-353.537	-200.000	-0.012	0.191
-352.523	406.243	0.095	0.202
-351.508	75.603	0.096	0.102
-350.493	-146.204	0.316	-0.028
-349.479	210.525	0.123	0.195
-348.464	148.225	-0.170	0.230
-347.450	-96.835	-0.339	-0.089
-346.435	-31.662	-0.034	0.019
-345.420	-47.446	-0.141	0.069
-344.406	-200.000	0.033	-0.357
-343.391	-145.503	-0.390	0.035
-342.377	788.901	-0.027	-0.073
-341.362	-151.038	0.112	0.008
-340.348	-73.167	0.280	-0.103
-339.333	-3.518	-0.198	0.138
-338.318	65.873	0.261	0.266
-337.304	-200.000	-0.017	-0.178
-336.289	-47.305	-0.188	0.092
-335.275	233.797	0.091	-0.150
-334.260	-200.000	-0.009	0.384
-333.245	800.000	0.025	-0.082
-332.231	-95.090	-0.206	0.056
-331.216	78.509	-0.157	0.169
-330.202	292.490	0.080	0.146
-329.187	151.656	0.135	-0.185
-328.172	8.395	-0.232	-0.175
-327.158	182.917	0.327	-0.484
-326.143	345.709	0.121	-0.238
-325.129	361.492	0.023	0.046
-324.114	445.808	-0.056	-0.124
-323.099	-31.328	0.230	-0.130
-322.085	61.138	0.268	0.267
-321.070	81.911	-0.049	-0.054
-320.056	1.002	0.050	-0.036
-319.041	254.589	0.145	0.249
-318.026	33.077	0.046	0.040
-317.012	-12.944	0.421	0.274
-315.997	109.023	0.180	0.216
-314.983	800.000	-0.046	-0.139
-313.968	-158.192	-0.152	0.009
-312.953	-121.461	-0.251	0.042
-311.939	-200.000	-0.070	-0.459
-310.924	-200.000	-0.068	-0.317
-309.910	200.123	-0.057	-0.088
-308.895	223.490	-0.071	-0.115
-307.880	-80.074	-0.159	0.054
-306.866	436.149	0.087	-0.190
-305.851	-134.684	0.307	-0.037
-304.837	-200.000	0.002	0.097
-303.822	-200.000	-0.053	-0.258
-302.807	-37.652	0.189	-0.101
-301.793	725.460	-0.120	-0.321
-300.778	-22.175	-0.076	-0.046
-299.764	49.200	0.330	0.311
-298.749	-42.713	0.085	0.043
-297.735	192.503	-0.091	0.137
-296.720	-200.000	0.033	0.175
-295.705	-200.000	0.030	-0.390
-294.691	-137.656	-0.110	-0.012
-293.676	-101.129	-0.163	-0.040
-292.662	152.188	0.134	-0.183
-291.647	24.337	0.315	-0.261
-290.632	-14.217	0.196	0.127
-289.618	-200.000	0.030	0.331
-288.603	800.000	-0.114	0.315
-287.589	221.851	0.159	0.256
-286.574	139.554	-0.105	0.139
-285.559	153.653	0.211	0.290
-284.545	-7.801	-0.276	0.187
-283.530	-134.138	-0.120	0.015
-282.516	23.090	-0.286	0.235
-281.501	424.927	0.123	-0.265
-280.486	96.880	-0.059	-0.068
-279.472	-200.000	0.066	-0.447
-278.457	183.313	-0.108	-0.160
-277.443	-112.679	0.108	-0.022
-276.428	-111.527	0.091	-0.018
-275.413	211.415	0.096	0.151
-274.399	258.010	-0.068	0.117
-273.384	405.943	0.092	0.195
-272.370	-76.196	0.188	0.066
-271.355	147.616	0.169	-0.229
-270.340	-64.055	0.134	-0.055
-269.326	-25.759	-0.368	0.217
-268.311	265.803	0.293	-0.512
-267.297	437.358	-0.149	0.326
-266.282	77.225	0.084	0.090
-265.267	20.357	-0.053	0.043
-264.253	-164.557	0.042	0.002
-263.238	800.000	0.030	-0.084
-262.224	-200.000	0.064	0.426
-261.209	91.576	-0.116	0.130
-260.195	-200.000	-0.007	-0.189
-259.180	-144.258	-0.242	0.023
-258.165	800.000	0.072	0.240
-257.151	-82.013	-0.144	0.047
-256.136	-132.171	-0.115	0.015
-255.122	27.060	-0.212	0.178
-254.107	-29.767	0.080	0.046
-253.092	77.771	0.128	-0.137
-252.078	-20.920	-0.103	-0.063
-251.063	-161.386	-0.138	-0.007
-250.049	-19.085	0.053	0.033
-249.034	253.319	-0.048	0.082
-248.019	525.294	0.191	-0.450
-247.005	-33.406	0.177	0.098
-245.990	102.576	0.143	-0.167
-244.976	-86.323	0.166	0.051
-243.961	-59.327	0.455	0.196
-242.946	-48.080	-0.273	0.132
-241.932	-81.737	0.383	-0.126
-240.917	-55.382	0.078	0.035
-239.903	-200.000	0.064	0.467
-238.888	242.005	0.078	0.131
-237.873	375.852	-0.050	-0.103
-236.859	29.766	0.262	-0.223
-235.844	473.485	0.056	-0.127
-234.830	-122.408	-0.141	-0.023
-233.815	-13.248	0.114	0.074
-232.800	800.000	0.090	0.326
-231.786	-101.306	-0.178	0.043
-230.771	270.650	-0.077	-0.135
-229.757	15.556	0.235	-0.184
-228.742	-200.000	0.096	-0.459
-227.727	-121.355	-0.315	0.053
-226.713	406.804	0.102	0.215
-225.698	800.000	-0.069	0.281
-224.684	73.721	-0.293	0.307
-223.669	800.000	0.052	-0.187
-222.655	-124.589	0.258	0.040
-221.640	-200.000	-0.019	0.228
-220.625	-14.414	-0.102	-0.066
-219.611	-200.000	0.001	-0.124
-218.596	38.474	-0.242	-0.216
-217.582	299.351	0.152	0.280
-216.567	444.699	0.066	0.145
-215.552	209.801	-0.069	0.108
-214.538	-141.060	0.343	0.035
-213.523	-53.579	-0.216	-0.099
-212.509	-159.927	-0.160	0.009
-211.494	175.204	0.066	-0.096
-210.479	-135.274	0.221	0.026
-209.465	-10.816	0.211	0.139
-208.450	-200.000	-0.075	-0.393
-207.436	122.095	-0.229	-0.285
-206.421	-178.054	-0.389	-0.009
-205.406	-94.323	0.173	0.047
-204.392	206.979	0.106	0.165
-203.377	194.456	0.159	-0.241
-202.363	-138.911	0.238	0.026
-201.348	-200.000	0.005	0.242
-200.333	-185.221	0.413	-0.006
-199.319	86.930	0.065	-0.071
-198.304	-200.000	0.003	-0.107
-197.290	800.000	0.130	0.486
-196.275	800.000	-0.055	0.188
-195.260	-28.428	0.299	0.172
-194.246	5.046	-0.093	-0.069
-193.231	-150.488	-0.173	-0.013
-192.217	434.290	0.162	-0.352
-191.202	-108.338	0.096	0.021
-190.187	765.307	0.042	0.114
-189.173	-73.146	-0.058	0.021
-188.158	149.510	-0.262	-0.354
-187.144	16.313	-0.253	-0.199
-186.129	-94.325	0.117	-0.032
-185.114	-200.000	-0.029	0.178
-184.100	326.094	0.147	0.281
-183.085	619.332	0.097	0.244
-182.071	-99.079	0.011	0.003
-181.056	-97.126	0.369	-0.096
-180.042	-70.026	-0.095	-0.036
-179.027	180.012	-0.042	0.061
-178.012	300.552	-0.057	-0.105
-176.998	-95.481	0.305	-0.082
-175.983	-96.300	0.269	0.071
-174.969	-200.000	0.023	0.299
-173.954	275.515	-0.104	-0.184
-172.939	110.334	-0.362	0.434
-171.925	-8.649	0.221	-0.148
-170.910	163.111	0.051	-0.072
-169.896	-124.483	0.256	0.040
-168.881	-72.865	-0.330	-0.121
-167.866	529.211	-0.113	-0.265
-166.852	800.000	0.119	0.446
-165.837	381.502	0.104	-0.212
-164.823	627.601	0.022	-0.056
-163.808	-200.000	-0.025	0.496
-162.793	-200.000	0.043	-0.225
-161.779	-200.000	0.009	-0.140
-160.764	326.666	0.067	-0.129
-159.750	800.000	0.076	-0.315
-158.735	-178.163	-0.020	-0.000
-157.720	-15.229	-0.261	-0.166
-156.706	349.896	-0.095	0.188
-155.691	285.978	0.078	0.140
-154.677	140.132	-0.091	-0.120
-153.662	456.184	-0.042	0.092
-152.647	-159.664	0.081	-0.004
-151.633	-21.958	-0.257	-0.156
-150.618	-94.763	-0.560	-0.151
-149.604	113.167	0.162	0.195
-148.589	227.731	0.128	-0.208
-147.574	-200.000	0.036	-0.222
-146.560	-200.000	-0.006	-0.066
-145.545	800.000	0.086	0.305
-144.531	790.613	0.003	0.008
-143.516	-27.315	-0.230	-0.133
-142.502	447.587	0.087	-0.191
-141.487	-109.390	-0.366	0.077
-140.472	153.438	-0.059	0.080
-139.458	800.000	-0.102	-0.310
-138.443	-69.261	0.175	0.067
-137.429	58.429	0.091	-0.089
-136.414	-200.000	0.018	-0.129
-135.399	390.603	0.221	-0.456
-134.385	-200.000	0.007	-0.393
-133.370	-200.000	0.002	0.202
-132.356	1.504	-0.255	-0.183
-131.341	-157.601	0.192	-0.011
-130.326	800.000	0.029	-0.122
-129.312	800.000	0.028	0.104
-128.297	-99.410	0.190	-0.048
-127.283	-149.079	0.071	0.006
-126.268	-156.519	-0.171	-0.011
-125.253	-200.000	0.016	-0.206
-124.239	51.858	0.083	-0.079
-123.224	-183.288	0.366	0.006
-122.210	-135.880	0.398	0.047
-121.195	81.284	-0.038	-0.041
