DTS Sentinel unit serial number:	SN413079Multiplexer serial number:	ORYXHardware model number:	OX4-SRSoftware version number:	ORYX F/W v4.00 Oryx Data Collector v3.7.2.0data status	okinstallation	princeton_trtdifferential loss correction	single-endedforward channel	channel 3reverse channel	N/Adate	2019/09/14time	21:12:34forward acquisition time	60.00reverse acquisition time	0.00gamma	496.2192k internal	0.2317k external	0.2317temperature offset calibration	0.9994default loss term (dB/km)	0.3790temperature slope calibration	1.0000multiplexer offset coefficient	1.0000multiplexer slope coefficient	1.0000fibre end	0.00T internal ref (°C)	33.02T ext. ref 1 (°C)	4.74T ext. ref 2 (°C)	27.82length (m)	temperature (°C)	Stokes	anti-Stokes-747.200	-141.064	0.160	-0.017
-746.185	44.511	-0.157	-0.146
-745.171	17.582	0.175	0.141
-744.156	-200.000	0.021	-0.119
-743.142	800.000	0.064	0.196
-742.127	-200.000	0.003	-0.060
-741.112	-100.615	0.254	0.063
-740.098	11.385	-0.254	0.197
-739.083	145.394	-0.079	0.107
-738.069	-200.000	-0.064	0.306
-737.054	125.971	0.020	-0.026
-736.039	-119.554	-0.309	0.054
-735.025	-89.013	0.265	0.080
-734.010	-200.000	0.000	-0.110
-732.996	-156.777	-0.485	0.030
-731.981	89.182	0.124	0.140
-730.966	50.260	-0.362	0.346
-729.952	788.235	-0.144	0.401
-728.937	433.263	0.106	-0.234
-727.923	44.594	0.141	-0.131
-726.908	-174.734	-0.156	0.004
-725.894	14.220	-0.114	-0.090
-724.879	-141.469	-0.293	0.030
-723.864	36.977	0.293	-0.262
-722.850	-11.068	-0.304	-0.203
-721.835	-74.193	0.285	-0.104
-720.821	23.376	-0.080	0.067
-719.806	-200.000	0.021	-0.134
-718.791	239.227	-0.093	-0.156
-717.777	-200.000	-0.033	-0.344
-716.762	-200.000	0.004	0.101
-715.748	-119.940	-0.105	0.018
-714.733	133.679	-0.154	0.201
-713.718	107.660	0.218	-0.263
-712.704	-167.429	-0.208	-0.008
-711.689	-0.607	-0.181	0.130
-710.675	800.000	-0.118	-0.378
-709.660	37.327	-0.132	-0.119
-708.645	800.000	-0.123	0.383
-707.631	89.676	0.196	0.221
-706.616	-176.305	-0.207	-0.005
-705.602	341.166	-0.084	0.166
-704.587	-53.066	-0.110	0.051
-703.572	119.037	-0.163	-0.203
-702.558	-200.000	-0.028	-0.183
-701.543	-88.058	-0.178	-0.054
-700.529	-68.044	-0.123	0.048
-699.514	800.000	-0.036	0.128
-698.499	-200.000	0.012	-0.079
-697.485	-200.000	0.011	-0.066
-696.470	-200.000	-0.024	-0.456
-695.456	248.408	-0.073	-0.125
-694.441	281.280	0.100	0.181
-693.426	-110.511	0.163	-0.034
-692.412	-87.539	0.276	-0.084
-691.397	-58.098	0.104	0.046
-690.383	53.181	-0.176	0.171
-689.368	646.046	-0.057	-0.147
-688.354	-200.000	-0.016	-0.159
-687.339	0.653	-0.450	-0.325
-686.324	-39.339	0.201	0.107
-685.310	-200.000	-0.017	-0.263
-684.295	-131.857	0.041	0.005
-683.281	-28.094	-0.234	0.137
-682.266	-144.341	-0.240	-0.023
-681.251	121.144	0.291	-0.366
-680.237	-65.509	-0.550	0.223
-679.222	170.499	0.083	-0.120
-678.208	-200.000	-0.038	-0.343
-677.193	559.689	-0.104	0.253
-676.178	109.661	-0.195	-0.236
-675.164	96.386	-0.196	-0.226
-674.149	-37.130	0.183	0.099
-673.135	-60.763	-0.295	0.126
-672.120	800.000	0.096	-0.298
-671.105	-200.000	-0.031	0.274
-670.091	-93.019	-0.120	0.034
-669.076	800.000	0.120	-0.388
-668.062	-110.464	0.251	0.053
-667.047	-200.000	0.045	-0.223
-666.032	-192.177	0.260	-0.003
-665.018	-35.329	0.426	-0.234
-664.003	217.307	-0.205	-0.330
-662.989	5.404	-0.144	-0.107
-661.974	47.284	-0.236	0.221
-660.959	-141.726	0.196	0.020
-659.945	-44.764	0.217	-0.109
-658.930	33.607	-0.135	-0.118
-657.916	-29.014	-0.226	-0.131
-656.901	-29.556	-0.224	-0.129
-655.886	-82.536	-0.253	-0.083
-654.872	800.000	0.100	-0.382
-653.857	-81.311	-0.362	0.120
-652.843	27.593	0.199	0.169
-651.828	15.458	-0.051	-0.040
-650.814	48.933	0.069	-0.065
-649.799	-200.000	0.028	0.184
-648.784	-155.949	-0.216	0.014
-647.770	-90.535	-0.251	0.073
-646.755	-17.481	0.241	0.153
-645.741	-200.000	-0.008	-0.104
-644.726	30.109	-0.084	0.073
-643.711	-61.895	0.338	-0.142
-642.697	-42.487	0.121	0.062
-641.682	-200.000	-0.007	0.165
-640.668	-64.589	0.291	-0.119
-639.653	-200.000	0.029	0.372
-638.638	-95.422	-0.258	-0.070
-637.624	60.759	-0.149	0.149
-636.609	-112.863	0.214	-0.043
-635.595	-53.708	0.244	0.112
-634.580	270.294	0.115	0.203
-633.565	-127.192	0.397	0.059
-632.551	-35.125	-0.381	-0.209
-631.536	435.903	0.080	0.175
-630.522	-107.341	-0.070	0.016
-629.507	-167.116	-0.380	0.016
-628.492	-127.683	0.114	0.017
-627.478	-34.384	0.181	-0.100
-626.463	125.747	-0.145	0.184
-625.449	-4.438	-0.209	-0.145
-624.434	-156.488	-0.146	-0.009
-623.419	-132.432	-0.485	-0.063
-622.405	-200.000	-0.040	0.196
-621.390	-200.000	0.003	-0.189
-620.376	-41.170	0.113	-0.059
-619.361	-175.728	-0.131	-0.004
-618.346	-136.073	-0.133	0.016
-617.332	7.211	-0.167	-0.126
-616.317	387.061	-0.153	-0.319
-615.303	52.751	-0.314	-0.303
-614.288	-134.367	-0.194	-0.024
-613.273	191.337	-0.001	-0.001
-612.259	-95.373	-0.187	-0.051
-611.244	-35.305	0.096	0.052
-610.230	-144.640	0.243	0.023
-609.215	-10.960	-0.224	0.149
-608.201	270.438	-0.094	-0.167
-607.186	39.227	0.339	-0.305
-606.171	2.636	0.217	-0.159
-605.157	-141.406	0.041	0.004
-604.142	26.106	0.059	0.049
-603.128	74.897	-0.382	-0.405
-602.113	-200.000	0.010	-0.261
-601.098	800.000	-0.065	-0.183
-600.084	220.760	-0.181	0.292
-599.069	-200.000	0.106	0.569
-598.055	121.544	-0.041	-0.052
-597.040	209.136	0.195	-0.308
-596.025	77.525	-0.169	-0.181
-595.011	-163.513	-0.289	0.014
-593.996	-27.944	-0.511	0.298
-592.982	-80.619	-0.279	0.093
-591.967	-56.636	-0.219	0.098
-590.952	67.482	-0.219	0.225
-589.938	-200.000	-0.035	0.340
-588.923	152.461	-0.066	0.090
-587.909	-200.000	-0.025	0.166
-586.894	-49.333	-0.119	-0.057
-585.879	-75.491	0.169	0.061
-584.865	-132.216	0.322	0.042
-583.850	-86.392	-0.239	-0.074
-582.836	-87.917	-0.243	0.074
-581.821	24.961	0.298	0.249
-580.806	-100.378	0.314	-0.078
-579.792	-183.789	-0.138	-0.002
-578.777	20.890	-0.107	-0.087
-577.763	-0.795	-0.043	-0.031
-576.748	-116.181	-0.421	0.079
-575.733	89.922	-0.251	-0.282
-574.719	-200.000	0.002	-0.200
-573.704	41.516	0.153	0.139
-572.690	-61.588	-0.280	0.118
-571.675	-175.509	0.205	-0.006
-570.661	350.204	0.047	0.093
-569.646	-28.915	0.066	0.038
-568.631	-22.510	0.197	0.120
-567.617	-0.309	-0.162	-0.116
-566.602	800.000	0.007	-0.028
-565.588	599.894	-0.065	0.161
-564.573	-16.820	0.422	-0.268
-563.558	-102.216	0.275	-0.067
-562.544	114.099	0.208	-0.254
-561.529	800.000	0.092	-0.274
-560.515	208.995	-0.031	-0.049
-559.500	273.393	-0.091	-0.161
-558.485	-121.478	0.288	0.048
-557.471	-101.305	-0.256	0.063
-556.456	-146.222	-0.326	-0.029
-555.442	-122.429	0.228	0.037
-554.427	220.012	-0.188	-0.302
-553.412	69.826	0.219	-0.227
-552.398	-200.000	0.010	-0.220
-551.383	800.000	-0.009	-0.038
-550.369	-156.631	0.100	0.006
-549.354	82.212	-0.077	0.084
-548.339	67.202	-0.004	0.004
-547.325	476.250	0.120	0.272
-546.310	158.337	-0.180	0.251
-545.296	-102.289	0.130	0.031
-544.281	55.816	0.106	-0.103
-543.266	800.000	0.132	-0.432
-542.252	-86.573	-0.272	0.084
-541.237	188.887	0.143	0.215
-540.223	-154.889	-0.387	0.026
-539.208	800.000	0.060	-0.175
-538.193	799.740	-0.028	-0.077
-537.179	-200.000	0.020	-0.244
-536.164	800.000	-0.032	-0.131
-535.150	138.675	0.167	-0.220
-534.135	-159.963	-0.243	-0.013
-533.121	375.183	0.112	-0.228
-532.106	1.100	-0.137	0.099
-531.091	-72.732	0.246	0.091
-530.077	-200.000	-0.000	0.043
-529.062	-200.000	-0.028	-0.151
-528.048	208.317	-0.065	0.102
-527.033	-42.319	-0.272	-0.140
-526.018	-163.103	-0.220	-0.011
-525.004	-200.000	0.045	0.296
-523.989	181.126	0.162	-0.239
-522.975	-104.185	-0.231	-0.054
-521.960	-200.000	0.004	0.159
-520.945	-42.865	0.169	-0.086
-519.931	698.045	0.032	-0.084
-518.916	511.866	-0.064	0.150
-517.902	407.077	0.063	0.134
-516.887	-51.281	0.182	0.085
-515.872	-200.000	0.013	0.300
-514.858	358.908	-0.128	-0.257
-513.843	-123.229	-0.301	-0.048
-512.829	-172.952	0.119	-0.004
-511.814	-200.000	0.006	-0.145
-510.799	673.657	0.087	-0.227
-509.785	-102.814	0.594	-0.142
-508.770	265.766	-0.089	0.155
-507.756	-158.139	0.308	0.018
-506.741	-116.099	-0.137	-0.026
-505.726	-106.613	-0.236	-0.053
-504.712	-58.685	0.192	0.083
-503.697	289.488	-0.044	0.081
-502.683	-52.835	-0.287	0.132
-501.668	128.871	-0.055	-0.070
-500.653	221.605	-0.116	-0.187
-499.639	-134.907	-0.392	-0.048
-498.624	436.812	-0.156	0.341
-497.610	313.616	0.020	-0.037
-496.595	529.679	0.073	-0.172
-495.581	-33.264	0.202	0.112
-494.566	-47.739	0.225	0.109
-493.551	-117.287	-0.350	0.064
-492.537	128.641	0.197	-0.251
-491.522	-200.000	-0.022	-0.219
-490.508	537.538	0.074	0.177
-489.493	-102.758	-0.129	-0.031
-488.478	-200.000	0.025	0.303
-487.464	-200.000	-0.017	-0.162
-486.449	-174.057	0.081	0.002
-485.435	62.762	-0.036	0.036
-484.420	11.743	0.056	0.043
-483.405	122.717	0.433	0.543
-482.391	204.524	0.126	-0.196
-481.376	-200.000	0.006	-0.296
-480.362	50.099	-0.259	0.245
-479.347	429.972	-0.111	-0.241
-478.332	132.281	-0.165	-0.213
-477.318	171.913	0.187	0.270
-476.303	-110.826	0.206	-0.043
-475.289	-79.200	0.286	0.097
-474.274	86.247	0.182	-0.201
-473.259	-197.288	-0.401	0.003
-472.245	81.090	-0.174	0.188
-471.230	335.702	0.184	0.357
-470.216	-60.291	-0.196	-0.083
-469.201	-2.007	-0.098	-0.069
-468.186	-16.750	-0.158	-0.100
-467.172	37.306	-0.120	0.107
-466.157	188.279	0.115	-0.172
-465.143	-75.690	-0.349	-0.124
-464.128	90.458	-0.132	0.148
-463.113	541.077	0.165	-0.394
-462.099	179.126	-0.137	-0.201
-461.084	-200.000	0.359	-0.001
-460.070	-200.000	0.034	-0.197
-459.055	-41.804	0.192	-0.098
-458.040	-29.801	0.149	-0.085
-457.026	67.688	-0.234	-0.240
-456.011	-179.545	0.135	-0.003
-454.997	187.922	-0.099	0.148
-453.982	-74.156	-0.179	-0.065
-452.968	270.800	-0.124	-0.219
-451.953	-200.000	0.100	-0.445
-450.938	-41.376	-0.242	0.125
-449.924	-104.394	0.189	-0.044
-448.909	-200.000	0.008	-0.044
-447.895	-118.205	-0.018	-0.003
-446.880	-14.484	0.169	0.109
-445.865	-57.093	-0.095	0.042
-444.851	135.211	0.171	-0.222
-443.836	-45.318	-0.118	0.059
-442.822	284.988	-0.053	0.096
-441.807	16.782	0.122	0.097
-440.792	-80.068	-0.137	-0.046
-439.778	-50.416	0.078	0.037
-438.763	-130.787	0.284	0.038
-437.749	-200.000	0.003	-0.043
-436.734	800.000	-0.120	0.441
-435.719	362.954	0.072	0.144
-434.705	-200.000	-0.014	0.246
-433.690	97.486	-0.241	0.277
-432.676	800.000	0.078	-0.221
-431.661	154.958	0.171	0.236
-430.646	-189.271	0.190	0.002
-429.632	-51.825	-0.167	0.078
-428.617	-21.860	0.194	-0.118
-427.603	52.271	-0.011	0.011
-426.588	-36.353	0.139	-0.075
-425.573	800.000	0.039	0.150
-424.559	-89.904	0.277	0.081
-423.544	-148.794	-0.135	-0.011
-422.530	2.930	0.418	-0.304
-421.515	45.313	0.169	-0.156
-420.500	800.000	0.092	-0.287
-419.486	-200.000	-0.019	-0.367
-418.471	695.596	-0.106	0.279
-417.457	112.600	-0.255	0.309
-416.442	68.879	-0.294	0.301
-415.428	-54.898	-0.127	-0.057
-414.413	-200.000	0.049	-0.318
-413.398	0.612	0.195	-0.139
-412.384	-200.000	-0.023	-0.316
-411.369	800.000	0.091	-0.279
-410.355	-41.715	0.149	-0.076
-409.340	368.052	-0.050	-0.101
-408.325	-123.298	0.444	0.071
-407.311	61.589	-0.195	0.194
-406.296	536.147	0.053	0.126
-405.282	23.481	0.187	0.153
-404.267	-46.641	0.297	-0.146
-403.252	15.925	0.257	-0.202
-402.238	49.568	0.031	0.029
-401.223	374.807	-0.137	-0.279
-400.209	57.327	-0.128	0.125
-399.194	-95.757	0.115	0.031
-398.179	143.995	-0.098	-0.130
-397.165	-200.000	0.009	0.091
-396.150	610.940	-0.097	0.243
-395.136	800.000	0.077	0.310
-394.121	-182.929	-0.190	-0.003
-393.106	435.707	0.092	-0.200
-392.092	800.000	-0.019	-0.067
-391.077	161.401	0.090	0.125
-390.063	-35.583	-0.292	0.158
-389.048	-156.165	0.255	0.016
-388.033	126.555	-0.166	0.210
-387.019	800.000	0.074	0.307
-386.004	-87.122	0.180	-0.055
-384.990	-7.733	0.308	-0.208
-383.975	59.790	0.167	0.164
-382.960	-36.789	0.027	0.014
-381.946	-146.062	0.200	0.018
-380.931	9.131	-0.232	0.175
-379.917	-200.000	0.022	0.200
-378.902	800.000	0.152	-0.480
-377.888	-75.090	0.214	0.077
-376.873	34.828	-0.399	0.348
-375.858	313.316	0.146	0.274
-374.844	-200.000	-0.002	-0.040
-373.829	134.751	-0.143	-0.185
-372.815	223.623	-0.072	-0.117
-371.800	-81.403	0.130	0.043
-370.785	129.814	0.184	0.235
-369.771	-200.000	0.063	-0.332
-368.756	13.103	-0.256	-0.198
-367.742	-200.000	0.003	0.294
-366.727	33.127	0.097	0.084
-365.712	568.335	0.121	-0.294
-364.698	141.351	-0.145	0.191
-363.683	800.000	-0.036	-0.101
-362.669	-63.956	-0.188	-0.077
-361.654	-13.237	0.139	-0.090
-360.639	-46.241	0.175	0.086
-359.625	58.224	0.214	0.210
-358.610	350.059	-0.074	-0.145
-357.596	-200.000	-0.053	0.345
-356.581	-57.708	-0.108	-0.047
-355.566	31.439	0.198	-0.170
-354.552	-102.975	0.072	0.017
-353.537	20.213	0.240	-0.193
-352.523	-200.000	-0.090	-0.430
-351.508	-150.724	0.325	0.025
-350.493	121.087	0.147	-0.182
-349.479	-51.474	-0.290	-0.135
-348.464	137.802	0.200	0.261
-347.450	-147.835	-0.260	-0.022
-346.435	86.858	0.092	0.102
-345.420	-78.083	-0.357	0.122
-344.406	225.585	0.135	0.218
-343.391	-146.872	-0.465	0.040
-342.377	46.086	0.095	0.087
-341.362	-200.000	-0.072	0.369
-340.348	-104.960	-0.305	0.070
-339.333	247.937	-0.007	0.013
-338.318	-200.000	-0.056	-0.264
-337.304	-19.339	0.290	-0.179
-336.289	-23.512	0.241	-0.144
-335.275	32.923	-0.124	-0.107
-334.260	-33.310	0.148	0.082
-333.245	-150.919	-0.036	0.003
-332.231	11.369	0.086	0.066
-331.216	-108.067	0.059	-0.013
-330.202	-105.803	-0.111	0.025
-329.187	254.454	0.053	0.090
-328.172	-17.158	-0.239	-0.150
-327.158	-13.432	-0.168	-0.108
-326.143	-167.550	-0.044	-0.002
-325.129	-14.640	0.228	0.146
-324.114	173.240	-0.103	-0.148
-323.099	800.000	0.029	-0.096
-322.085	216.087	0.040	0.063
-321.070	800.000	0.040	-0.152
-320.056	58.132	-0.139	-0.136
-319.041	-22.597	-0.125	0.076
-318.026	-69.563	0.292	0.111
-317.012	-41.959	-0.171	-0.087
-315.997	-131.090	0.263	0.035
-314.983	-152.932	0.133	0.009
-313.968	177.758	-0.274	0.398
-312.953	204.254	-0.077	0.120
-311.939	-18.879	0.221	0.137
-310.924	58.062	0.097	0.095
-309.910	-63.885	-0.357	-0.145
-308.895	-130.785	0.231	0.031
-307.880	-141.013	0.075	-0.008
-306.866	-200.000	0.007	0.188
-305.851	-80.755	0.034	-0.011
-304.837	-117.220	-0.345	0.062
-303.822	-200.000	0.010	-0.140
-302.807	-200.000	0.008	0.227
-301.793	448.455	-0.145	0.318
-300.778	354.965	0.055	0.109
-299.764	-200.000	0.022	0.200
-298.749	-4.614	-0.322	0.221
-297.735	14.601	0.037	0.029
-296.720	-200.000	-0.037	-0.364
-295.705	202.349	0.053	0.081
-294.691	-200.000	0.044	-0.307
-293.676	-63.957	0.190	-0.077
-292.662	-113.869	-0.045	-0.009
-291.647	20.693	0.159	0.128
-290.632	-200.000	-0.016	-0.089
-289.618	-22.937	-0.209	0.125
-288.603	-117.138	-0.168	0.030
-287.589	58.583	0.209	0.204
-286.574	-200.000	0.024	-0.111
-285.559	449.841	-0.044	0.096
-284.545	-200.000	-0.006	0.271
-283.530	-200.000	-0.015	-0.153
-282.516	349.815	-0.242	0.476
-281.501	-200.000	0.021	-0.212
-280.486	-185.703	0.356	-0.005
-279.472	180.986	-0.241	-0.352
-278.457	-84.278	-0.383	0.121
-277.443	36.552	-0.099	-0.087
-276.428	257.927	-0.076	-0.129
-275.413	183.459	0.129	-0.189
-274.399	-128.316	0.176	-0.025
-273.384	-200.000	-0.078	0.566
-272.370	800.000	0.060	0.194
-271.355	-109.565	-0.180	0.038
-270.340	-200.000	-0.055	-0.299
-269.326	94.683	-0.137	-0.155
-268.311	62.514	0.139	-0.138
-267.297	-200.000	-0.049	0.235
-266.282	800.000	0.113	-0.420
-265.267	-200.000	0.002	-0.167
-264.253	126.454	-0.076	0.096
-263.238	153.753	-0.206	-0.281
-262.224	800.000	-0.009	-0.030
-261.209	-116.809	-0.136	0.025
-260.195	-102.402	0.189	0.045
-259.180	35.207	0.267	-0.232
-258.165	-108.511	-0.035	0.007
-257.151	299.451	0.113	0.207
-256.136	800.000	0.052	-0.185
-255.122	-75.987	0.187	0.066
-254.107	-27.122	-0.203	0.118
-253.092	518.055	0.022	-0.051
-252.078	-33.841	-0.249	0.136
-251.063	-63.530	-0.258	-0.105
-250.049	-5.280	0.247	0.169
-249.034	-200.000	-0.030	0.291
-248.019	-40.380	0.130	-0.067
-247.005	-96.037	-0.107	0.028
-245.990	-200.000	-0.002	-0.028
-244.976	-16.568	-0.027	0.017
-243.961	13.766	-0.376	-0.290
-242.946	-200.000	0.015	0.068
-241.932	756.388	0.106	0.285
-240.917	70.160	0.121	-0.124
-239.903	304.323	0.038	0.071
-238.888	800.000	-0.110	0.323
-237.873	-200.000	-0.011	0.099
-236.859	-89.720	-0.174	0.051
-235.844	283.449	-0.050	-0.089
-234.830	216.799	-0.060	0.095
-233.815	-77.089	-0.232	0.080
-232.800	29.214	0.224	0.189
-231.786	-40.664	-0.147	0.076
-230.771	277.102	0.070	-0.124
-229.757	-41.769	-0.082	-0.042
-228.742	63.521	-0.239	-0.238
-227.727	-139.645	0.150	0.016
-226.713	-122.707	-0.185	-0.030
-225.698	23.395	-0.103	0.084
-224.684	144.642	0.140	0.185
-223.669	148.792	0.101	-0.135
-222.655	-185.157	0.095	-0.001
-221.640	-117.319	0.273	-0.049
-220.625	-170.069	-0.138	-0.005
-219.611	240.857	0.113	0.186
-218.596	243.943	-0.223	0.372
-217.582	38.898	-0.094	0.084
-216.567	47.128	0.095	0.088
-215.552	135.183	0.241	0.311
-214.538	81.431	-0.109	-0.117
-213.523	-106.271	0.216	-0.048
-212.509	257.986	0.101	-0.173
-211.494	-54.888	0.292	-0.131
-210.479	-134.136	0.173	-0.021
-209.465	-59.790	0.362	-0.154
-208.450	-200.000	0.069	-0.590
-207.436	14.888	0.249	0.193
-206.421	-41.624	-0.213	-0.108
-205.406	-108.228	-0.376	0.081
-204.392	-51.672	-0.205	0.095
-203.377	-98.239	0.245	-0.062
-202.363	-200.000	-0.008	0.328
-201.348	-105.527	-0.124	-0.028
-200.333	-200.000	0.013	0.096
-199.319	-31.662	0.070	-0.039
-198.304	-152.330	-0.155	-0.011
-197.290	-200.000	-0.012	0.128
-196.275	202.581	0.119	0.181
-195.260	78.421	-0.127	-0.135
-194.246	-200.000	-0.029	-0.199
-193.231	-69.043	0.072	0.028
-192.217	-86.157	0.185	0.057
-191.202	-122.268	0.320	-0.052
-190.187	68.238	-0.156	0.158
-189.173	-60.583	-0.202	0.085
-188.158	800.000	-0.038	0.125
-187.144	-70.862	0.112	-0.042
-186.129	16.945	0.280	0.219
-185.114	800.000	0.066	0.238
-184.100	-97.950	-0.099	-0.025
-183.085	-135.237	0.238	-0.028
-182.071	177.667	-0.049	-0.071
-181.056	-62.602	-0.122	0.050
-180.042	-81.989	0.168	-0.054
-179.027	-20.569	0.348	-0.211
-178.012	-53.846	-0.321	-0.145
-176.998	88.163	0.007	-0.007
-175.983	-45.915	0.197	0.096
-174.969	349.925	-0.014	-0.028
-173.954	21.543	0.091	-0.073
-172.939	-71.901	-0.136	-0.050
-171.925	-30.799	-0.157	0.088
-170.910	-65.401	0.131	-0.052
-169.896	-72.981	-0.235	0.085
-168.881	-11.784	-0.162	-0.105
-167.866	-0.139	0.247	0.174
-166.852	-29.996	0.084	0.047
-165.837	18.317	-0.034	-0.027
-164.823	-200.000	0.004	-0.195
-163.808	800.000	0.020	0.063
-162.793	20.570	0.119	0.096
-161.779	-109.299	0.319	-0.067
-160.764	-12.779	-0.112	-0.072
-159.750	-200.000	0.012	-0.081
-158.735	53.685	-0.103	-0.098
-157.720	800.000	0.081	0.262
-156.706	-200.000	-0.031	0.141
-155.691	51.940	0.317	-0.298
-154.677	96.699	-0.088	-0.100
-153.662	311.591	0.097	-0.181
-152.647	-116.464	-0.077	-0.014
-151.633	241.975	0.010	0.016
-150.618	-96.579	-0.085	-0.022
-149.604	67.058	0.217	0.219
-148.589	800.000	-0.064	-0.200
-147.574	-90.491	0.118	0.034
-146.560	-167.941	-0.138	0.005
-145.545	123.334	0.099	-0.122
-144.531	-200.000	0.026	-0.142
-143.516	248.592	0.124	0.207
-142.502	85.568	-0.119	-0.129
-141.487	120.308	-0.159	0.195
-140.472	-29.994	-0.043	0.024
-139.458	-122.793	0.194	-0.031
-138.443	800.000	0.074	-0.247
-137.429	-200.000	0.050	-0.239
-136.414	-23.464	0.214	-0.127
-135.399	517.742	-0.019	-0.044
-134.385	-199.830	0.123	0.001
-133.370	-114.254	0.216	0.041
-132.356	-110.387	0.193	0.040
-131.341	528.551	-0.047	-0.110
-130.326	-176.925	-0.126	0.003
-129.312	-137.606	-0.183	0.020
-128.297	449.676	0.034	-0.074
-127.283	-200.000	-0.043	-0.196
-126.268	97.657	0.104	0.119
-125.253	-144.564	-0.128	-0.012
-124.239	-94.405	0.198	-0.053
-123.224	-142.560	0.228	0.022
-122.210	-95.490	0.101	-0.027
