DTS Sentinel unit serial number:	SN413079Multiplexer serial number:	ORYXHardware model number:	OX4-SRSoftware version number:	ORYX F/W v4.00 Oryx Data Collector v3.7.2.0data status	okinstallation	princeton_trtdifferential loss correction	single-endedforward channel	channel 3reverse channel	N/Adate	2019/09/13time	12:56:34forward acquisition time	60.00reverse acquisition time	0.00gamma	496.2192k internal	0.2305k external	0.2305temperature offset calibration	1.0147default loss term (dB/km)	0.3790temperature slope calibration	1.0000multiplexer offset coefficient	1.0000multiplexer slope coefficient	1.0000fibre end	0.00T internal ref (°C)	34.77T ext. ref 1 (°C)	4.57T ext. ref 2 (°C)	30.67length (m)	temperature (°C)	Stokes	anti-Stokes-747.200	-66.385	-0.145	-0.059
-746.185	2.382	0.069	-0.050
-745.171	316.880	0.130	-0.250
-744.156	-78.033	0.083	-0.029
-743.142	-200.000	0.027	-0.356
-742.127	-161.062	-0.349	-0.019
-741.112	75.645	-0.200	0.215
-740.098	-46.095	-0.181	0.091
-739.083	624.531	-0.038	0.098
-738.069	-165.211	0.223	0.010
-737.054	-129.130	-0.152	0.022
-736.039	-121.292	-0.290	-0.049
-735.025	134.983	0.156	-0.206
-734.010	-71.118	0.007	-0.003
-732.996	246.020	0.064	-0.110
-731.981	176.014	0.065	0.095
-730.966	6.454	-0.040	-0.030
-729.952	-200.000	-0.057	-0.260
-728.937	800.000	-0.100	-0.300
-727.923	800.000	-0.113	-0.324
-726.908	-200.000	0.018	-0.204
-725.894	-200.000	-0.025	-0.304
-724.879	-200.000	0.012	0.095
-723.864	800.000	0.057	-0.223
-722.850	-129.731	-0.082	-0.011
-721.835	45.833	0.186	-0.175
-720.821	-161.109	0.102	0.005
-719.806	-200.000	-0.037	-0.180
-718.791	-57.154	-0.126	0.056
-717.777	318.017	0.208	0.400
-716.762	67.044	0.159	0.165
-715.748	800.000	-0.018	-0.068
-714.733	152.690	-0.238	-0.331
-713.718	-141.797	-0.017	0.002
-712.704	-200.000	-0.072	-0.392
-711.689	442.262	0.047	-0.105
-710.675	-135.094	-0.558	0.068
-709.660	84.501	-0.138	-0.154
-708.645	191.125	0.142	-0.218
-707.631	-200.000	-0.033	-0.196
-706.616	161.992	-0.113	-0.161
-705.602	-66.647	0.219	-0.088
-704.587	108.088	-0.114	0.138
-703.572	40.733	0.354	0.324
-702.558	-96.009	-0.279	0.075
-701.543	332.534	0.039	-0.076
-700.529	-68.244	-0.082	0.032
-699.514	800.000	0.053	0.216
-698.499	-79.290	-0.078	-0.027
-697.485	406.333	0.109	-0.233
-696.470	-10.006	-0.147	-0.099
-695.456	-200.000	0.045	-0.358
-694.441	-200.000	-0.031	-0.190
-693.426	-32.847	-0.116	-0.065
-692.412	117.203	-0.158	-0.198
-691.397	493.179	0.094	-0.218
-690.383	-89.753	-0.406	-0.121
-689.368	-200.000	-0.070	0.489
-688.354	194.405	0.106	0.163
-687.339	800.000	0.040	0.170
-686.324	-200.000	0.109	-0.521
-685.310	73.575	0.259	-0.276
-684.295	534.114	0.050	-0.119
-683.281	736.951	0.095	-0.259
-682.266	288.047	0.140	0.257
-681.251	-200.000	-0.010	-0.404
-680.237	112.134	-0.285	0.350
-679.222	-69.032	0.258	0.101
-678.208	6.158	-0.217	-0.163
-677.193	276.750	0.145	-0.261
-676.178	-140.692	0.060	0.006
-675.164	-200.000	0.015	0.268
-674.149	-200.000	0.015	0.175
-673.135	369.495	0.079	-0.162
-672.120	-74.500	-0.212	-0.077
-671.105	-160.561	-0.152	0.008
-670.091	-20.401	-0.159	-0.099
-669.076	1.145	0.112	0.081
-668.062	800.000	-0.124	-0.439
-667.047	19.358	-0.242	-0.197
-666.032	-200.000	-0.018	0.159
-665.018	115.980	-0.033	-0.041
-664.003	40.625	-0.175	-0.160
-662.989	63.363	-0.074	0.075
-661.974	800.000	0.056	-0.219
-660.959	-200.000	0.022	-0.157
-659.945	262.567	0.084	-0.148
-658.930	-2.511	-0.056	-0.040
-657.916	-43.029	0.267	0.137
-656.901	24.926	0.101	-0.085
-655.886	-14.961	-0.164	0.107
-654.872	-184.483	-0.489	-0.008
-653.857	421.734	0.035	0.077
-652.843	-180.919	-0.112	-0.002
-651.828	151.888	0.222	-0.306
-650.814	-45.632	0.206	0.104
-649.799	32.210	0.230	0.202
-648.784	68.699	0.176	-0.183
-647.770	210.956	0.166	0.264
-646.755	-117.411	-0.156	0.029
-645.741	43.216	-0.293	0.271
-644.726	254.468	-0.262	-0.455
-643.711	88.291	-0.274	-0.309
-642.697	-113.413	-0.150	0.030
-641.682	144.530	0.323	-0.437
-640.668	-33.222	-0.168	0.094
-639.653	-25.219	0.345	0.207
-638.638	-200.000	0.000	0.150
-637.624	626.183	-0.061	-0.156
-636.609	800.000	-0.028	0.119
-635.595	156.338	0.060	0.084
-634.580	-76.867	-0.335	0.119
-633.565	15.069	0.196	0.155
-632.551	119.589	0.071	-0.089
-631.536	598.796	0.112	-0.281
-630.522	109.065	-0.132	-0.161
-629.507	-200.000	-0.018	0.150
-628.492	29.027	0.020	-0.017
-627.478	-13.120	-0.189	-0.125
-626.463	121.272	0.142	0.179
-625.449	-55.866	-0.194	-0.088
-624.434	330.847	0.051	0.100
-623.419	27.640	-0.204	-0.174
-622.405	-5.165	0.148	-0.103
-621.390	800.000	-0.092	-0.353
-620.376	-57.452	-0.044	0.020
-619.361	346.907	0.070	-0.140
-618.346	-200.000	-0.004	0.168
-617.332	745.842	0.029	-0.080
-616.317	-200.000	0.035	0.197
-615.303	-33.728	-0.233	0.130
-614.288	-84.861	0.277	0.088
-613.273	800.000	-0.050	-0.186
-612.259	324.671	0.161	-0.311
-611.244	-128.699	-0.483	0.069
-610.230	800.000	-0.064	-0.282
-609.215	1.084	0.203	-0.148
-608.201	15.270	-0.033	0.026
-607.186	-200.000	0.023	0.318
-606.171	-200.000	-0.029	0.232
-605.157	174.879	0.170	-0.249
-604.142	-13.183	0.304	0.200
-603.128	-180.734	-0.039	0.001
-602.113	-123.825	-0.492	-0.079
-601.098	764.086	0.095	0.262
-600.084	-31.560	-0.308	-0.175
-599.069	369.396	-0.055	-0.112
-598.055	-1.144	0.257	-0.184
-597.040	117.369	-0.050	-0.062
-596.025	-33.843	0.254	0.142
-595.011	-200.000	0.033	-0.162
-593.996	-200.000	-0.022	-0.139
-592.982	800.000	-0.032	-0.137
-591.967	-31.065	0.185	-0.105
-590.952	-35.653	0.224	-0.123
-589.938	75.490	-0.233	0.248
-588.923	62.948	0.183	0.185
-587.909	43.915	-0.246	0.228
-586.894	174.636	-0.138	0.202
-585.879	9.503	-0.157	-0.121
-584.865	-62.847	-0.198	0.083
-583.850	15.438	0.183	-0.145
-582.836	-75.186	-0.034	-0.012
-581.821	800.000	0.091	-0.338
-580.806	25.003	-0.255	-0.214
-579.792	-200.000	0.025	0.211
-578.777	800.000	-0.054	0.183
-577.763	31.056	0.194	0.168
-576.748	-200.000	-0.013	0.100
-575.733	734.939	0.076	-0.206
-574.719	-84.841	-0.335	0.106
-573.704	325.023	-0.102	0.197
-572.690	800.000	-0.147	0.605
-571.675	266.515	0.131	0.231
-570.661	800.000	0.039	0.161
-569.646	-66.189	0.040	0.016
-568.631	42.320	-0.091	0.084
-567.617	800.000	-0.023	-0.091
-566.602	187.702	-0.100	0.150
-565.588	-145.453	0.187	-0.017
-564.573	89.001	0.044	-0.049
-563.558	-200.000	0.021	-0.292
-562.544	-200.000	-0.003	-0.275
-561.529	25.767	-0.097	-0.082
-560.515	12.806	-0.077	0.060
-559.500	-182.041	-0.277	0.005
-558.485	704.817	0.019	0.050
-557.471	797.198	0.043	0.119
-556.456	-98.601	-0.298	-0.077
-555.442	-200.000	-0.066	-0.387
-554.427	-93.853	0.197	-0.055
-553.412	-99.110	-0.152	-0.039
-552.398	-69.937	-0.048	-0.018
-551.383	-113.358	-0.160	-0.032
-550.369	-65.840	-0.043	0.017
-549.354	135.460	-0.410	-0.538
-548.339	133.232	0.163	-0.213
-547.325	-50.422	-0.166	0.079
-546.310	-117.402	0.157	-0.029
-545.296	-200.000	0.011	-0.106
-544.281	-200.000	0.027	0.146
-543.266	-164.574	0.302	-0.014
-542.252	63.949	-0.205	0.208
-541.237	-200.000	0.056	0.257
-540.223	245.285	0.096	-0.163
-539.208	-200.000	0.078	-0.382
-538.193	117.657	-0.126	-0.157
-537.179	54.791	0.118	0.115
-536.164	398.996	0.053	0.112
-535.150	-200.000	-0.008	0.243
-534.135	48.038	0.193	0.182
-533.121	-167.897	-0.081	0.003
-532.106	28.329	0.292	0.249
-531.091	-65.843	-0.305	0.123
-530.077	354.522	-0.119	0.239
-529.062	285.326	0.060	-0.108
-528.048	-200.000	0.058	-0.398
-527.033	158.179	0.162	-0.226
-526.018	-200.000	-0.034	-0.272
-525.004	4.319	0.229	-0.169
-523.989	-51.997	-0.359	-0.168
-522.975	29.866	0.302	0.260
-521.960	-23.465	0.244	0.148
-520.945	606.605	0.110	0.276
-519.931	573.282	-0.112	0.275
-518.916	800.000	0.098	0.274
-517.902	-200.000	0.015	-0.383
-516.887	-31.460	-0.324	-0.184
-515.872	257.656	0.078	-0.135
-514.858	-16.279	-0.046	-0.030
-513.843	22.749	-0.212	-0.175
-512.829	-109.569	0.106	-0.023
-511.814	-165.306	-0.226	0.010
-510.799	-200.000	-0.038	-0.334
-509.785	321.671	0.143	0.274
-508.770	53.680	-0.180	-0.174
-507.756	-200.000	-0.048	-0.250
-506.741	84.536	-0.091	-0.100
-505.726	407.149	-0.060	-0.128
-504.712	340.672	-0.200	0.394
-503.697	555.395	-0.082	-0.200
-502.683	800.000	-0.101	-0.419
-501.668	-38.321	-0.067	-0.036
-500.653	340.328	-0.107	-0.210
-499.639	17.478	0.071	0.057
-498.624	84.917	-0.110	-0.121
-497.610	-200.000	-0.002	0.177
-496.595	-185.453	0.497	0.008
-495.581	-20.902	-0.164	0.101
-494.566	345.336	0.162	-0.320
-493.551	-200.000	0.008	0.333
-492.537	158.718	0.103	0.144
-491.522	7.356	-0.202	-0.152
-490.508	800.000	0.052	-0.160
-489.493	148.391	-0.116	0.158
-488.478	282.919	-0.131	-0.237
-487.464	-71.793	0.149	0.056
-486.449	152.753	-0.131	0.181
-485.435	34.187	-0.254	-0.223
-484.420	-200.000	0.012	-0.185
-483.405	57.572	-0.375	0.370
-482.391	-200.000	0.020	0.331
-481.376	800.000	-0.079	-0.235
-480.362	367.250	0.058	0.119
-479.347	800.000	0.035	-0.134
-478.332	800.000	0.051	-0.189
-477.318	-200.000	-0.021	-0.155
-476.303	-200.000	0.009	0.271
-475.289	-32.867	-0.021	-0.012
-474.274	-104.941	0.095	-0.022
-473.259	-200.000	-0.067	0.317
-472.245	-200.000	-0.016	-0.084
-471.230	-144.380	0.186	0.017
-470.216	-8.655	0.058	-0.040
-469.201	-122.175	-0.243	-0.040
-468.186	-165.662	0.169	0.007
-467.172	77.784	-0.263	-0.282
-466.157	63.741	-0.126	0.127
-465.143	-180.427	0.358	0.007
-464.128	4.601	0.122	0.090
-463.113	78.018	-0.129	-0.139
-462.099	-43.494	-0.035	-0.018
-461.084	-200.000	0.014	-0.295
-460.070	-157.072	-0.453	0.028
-459.055	-200.000	0.031	-0.271
-458.040	-200.000	-0.029	-0.207
-457.026	-135.372	0.062	0.007
-456.011	625.891	0.175	-0.445
-454.997	106.394	-0.022	0.026
-453.982	0.328	0.110	0.079
-452.968	-10.740	0.251	-0.167
-451.953	333.198	-0.114	0.222
-450.938	-200.000	-0.202	-0.000
-449.924	265.050	-0.095	0.166
-448.909	-200.000	0.001	0.237
-447.895	149.911	-0.097	-0.132
-446.880	-70.076	0.133	-0.051
-445.865	39.327	-0.134	-0.120
-444.851	-200.000	-0.023	-0.286
-443.836	25.099	-0.078	0.065
-442.822	-24.569	0.191	-0.114
-441.807	2.465	0.210	0.153
-440.792	-77.504	0.107	-0.037
-439.778	-184.645	0.097	0.002
-438.763	-199.606	0.358	0.002
-437.749	800.000	0.020	-0.082
-436.734	15.403	0.375	-0.296
-435.719	-42.817	-0.220	-0.113
-434.705	109.939	-0.058	-0.070
-433.690	84.465	-0.120	0.131
-432.676	-200.000	-0.020	0.420
-431.661	30.950	-0.267	0.230
-430.646	-200.000	0.068	0.401
-429.632	800.000	0.028	0.110
-428.617	406.743	0.103	0.220
-427.603	-111.320	0.169	-0.035
-426.588	-141.742	-0.237	0.024
-425.573	417.926	0.201	0.433
-424.559	-200.000	-0.075	0.520
-423.544	2.325	-0.141	-0.103
-422.530	60.264	-0.150	-0.150
-421.515	13.341	0.408	-0.318
-420.500	-110.692	0.337	0.070
-419.486	357.503	-0.048	-0.096
-418.471	407.808	0.069	-0.146
-417.457	800.000	-0.029	-0.120
-416.442	-23.520	-0.098	-0.059
-415.428	-100.648	0.050	0.012
-414.413	-30.279	-0.225	-0.128
-413.398	-14.300	-0.122	-0.079
-412.384	431.398	-0.163	0.356
-411.369	112.083	-0.062	0.075
-410.355	28.187	-0.157	0.133
-409.340	-97.003	0.252	0.066
-408.325	200.245	-0.100	0.154
-407.311	800.000	-0.022	-0.084
-406.296	115.407	-0.114	-0.139
-405.282	800.000	-0.086	0.290
-404.267	800.000	-0.107	-0.337
-403.252	-113.126	-0.354	-0.070
-402.238	58.863	-0.173	0.170
-401.223	466.705	0.060	0.135
-400.209	49.382	-0.249	-0.235
-399.194	16.880	-0.174	0.138
-398.179	-200.000	0.017	0.213
-397.165	592.368	0.072	0.178
-396.150	-56.452	-0.135	0.060
-395.136	156.803	0.138	0.191
-394.121	65.377	-0.134	-0.136
-393.106	336.579	0.105	-0.205
-392.092	190.678	-0.058	-0.088
-391.077	639.020	0.127	-0.325
-390.063	-62.149	0.149	-0.062
-389.048	114.399	0.090	-0.110
-388.033	137.645	0.087	-0.114
-387.019	-91.723	-0.068	-0.019
-386.004	264.748	0.111	-0.195
-384.990	-5.358	0.223	0.154
-383.975	105.438	0.168	0.200
-382.960	-200.000	0.007	-0.335
-381.946	224.252	-0.153	0.248
-380.931	-200.000	-0.025	-0.396
-379.917	-65.723	-0.164	-0.066
-378.902	199.447	-0.187	0.288
-377.888	-200.000	-0.014	-0.253
-376.873	142.008	0.202	0.269
-375.858	227.962	-0.268	-0.438
-374.844	764.808	-0.194	-0.529
-373.829	238.633	-0.015	-0.025
-372.815	4.528	0.242	-0.178
-371.800	416.043	-0.042	0.091
-370.785	-38.004	0.285	0.152
-369.771	-99.124	0.117	0.030
-368.756	-200.000	0.069	0.340
-367.742	2.833	0.262	0.191
-366.727	272.695	-0.177	0.313
-365.712	-200.000	0.024	0.271
-364.698	249.157	0.144	-0.245
-363.683	81.973	0.255	0.277
-362.669	800.000	-0.100	0.323
-361.654	95.656	0.180	0.206
-360.639	-111.359	0.298	0.061
-359.625	277.342	-0.188	-0.335
-358.610	8.152	-0.285	0.215
-357.596	550.085	0.039	-0.094
-356.581	297.331	-0.116	0.213
-355.566	363.524	0.160	0.321
-354.552	-139.653	0.074	0.008
-353.537	82.833	0.038	-0.041
-352.523	-200.000	-0.011	0.354
-351.508	-200.000	-0.115	-0.599
-350.493	-200.000	0.068	0.299
-349.479	-12.786	0.163	0.106
-348.464	194.392	0.198	0.300
-347.450	61.048	-0.022	-0.022
-346.435	-200.000	-0.077	-0.439
-345.420	36.021	0.091	0.080
-344.406	-29.854	0.148	-0.084
-343.391	-200.000	0.078	0.410
-342.377	-53.321	0.264	-0.121
-341.362	76.471	-0.331	0.351
-340.348	24.702	0.082	0.068
-339.333	-100.214	0.306	-0.076
-338.318	-200.000	0.028	0.220
-337.304	-102.201	0.198	0.048
-336.289	368.335	-0.052	0.105
-335.275	-200.000	-0.035	0.294
-334.260	10.109	-0.032	0.024
-333.245	-113.867	0.153	-0.030
-332.231	800.000	0.065	0.274
-331.216	800.000	-0.012	0.034
-330.202	24.415	0.218	-0.181
-329.187	-67.496	0.220	0.087
-328.172	334.071	0.095	-0.185
-327.158	800.000	-0.111	-0.434
-326.143	171.107	-0.094	-0.135
-325.129	119.012	0.100	0.124
-324.114	-6.754	0.244	0.166
-323.099	-200.000	-0.004	-0.047
-322.085	51.297	-0.283	-0.269
-321.070	76.302	-0.121	-0.128
-320.056	-158.755	0.211	-0.012
-319.041	-51.287	-0.133	0.062
-318.026	-56.703	0.200	-0.088
-317.012	-82.034	0.226	-0.074
-315.997	492.011	-0.105	-0.240
-314.983	-6.420	0.041	0.028
-313.968	-200.000	-0.110	-0.511
-312.953	-200.000	0.029	-0.470
-311.939	-118.872	-0.308	-0.054
-310.924	21.392	-0.392	0.319
-309.910	-89.704	0.169	0.050
-308.895	-125.819	0.053	-0.008
-307.880	-127.983	-0.292	0.042
-306.866	-122.965	0.188	-0.030
-305.851	-139.827	0.093	-0.010
-304.837	-41.287	0.260	-0.134
-303.822	-200.000	0.002	-0.232
-302.807	37.582	0.109	0.096
-301.793	800.000	-0.101	0.396
-300.778	-143.217	-0.181	0.017
-299.764	169.751	0.228	0.325
-298.749	800.000	0.067	-0.259
-297.735	-184.601	-0.242	-0.004
-296.720	800.000	-0.072	-0.305
-295.705	29.439	0.270	0.229
-294.691	-92.271	-0.161	-0.045
-293.676	135.337	0.075	0.097
-292.662	42.683	0.055	0.050
-291.647	-68.073	-0.034	0.013
-290.632	-200.000	0.048	-0.236
-289.618	24.264	0.201	0.166
-288.603	-127.260	0.192	0.028
-287.589	151.730	0.082	-0.112
-286.574	-6.504	0.111	-0.076
-285.559	57.362	-0.120	0.117
-284.545	-173.178	0.259	0.008
-283.530	9.251	0.135	0.102
-282.516	-200.000	-0.035	-0.254
-281.501	-110.643	-0.102	0.021
-280.486	59.627	0.235	0.232
-279.472	-200.000	0.003	0.161
-278.457	-28.820	-0.121	0.069
-277.443	14.279	-0.083	0.065
-276.428	305.654	-0.132	-0.245
-275.413	-144.210	-0.398	-0.037
-274.399	-200.000	0.023	-0.130
-273.384	117.187	0.090	0.111
-272.370	-156.936	0.268	-0.016
-271.355	650.924	0.128	-0.328
-270.340	-57.706	-0.318	-0.139
-269.326	245.069	-0.105	0.177
-268.311	147.082	0.099	0.133
-267.297	-200.000	-0.006	-0.044
-266.282	114.889	-0.129	0.157
-265.267	-125.500	-0.212	-0.032
-264.253	-122.933	0.175	0.028
-263.238	-101.848	0.167	0.040
-262.224	-200.000	-0.003	-0.127
-261.209	-23.352	0.057	0.034
-260.195	-200.000	-0.020	-0.250
-259.180	27.058	0.185	0.155
-258.165	800.000	0.106	0.305
-257.151	800.000	-0.106	-0.330
-256.136	-61.252	-0.174	-0.073
-255.122	121.248	0.146	-0.182
-254.107	-200.000	-0.027	0.427
-253.092	-78.759	0.054	-0.018
-252.078	-156.706	-0.107	-0.007
-251.063	54.252	0.067	0.064
-250.049	800.000	0.025	-0.093
-249.034	-149.759	0.113	0.009
-248.019	7.040	-0.038	0.028
-247.005	-200.000	-0.017	0.091
-245.990	-92.912	0.352	0.098
-244.976	-63.192	-0.177	0.073
-243.961	193.995	0.067	0.102
-242.946	-200.000	-0.016	0.079
-241.932	800.000	-0.030	-0.121
-240.917	53.925	0.151	0.145
-239.903	-200.000	-0.008	-0.051
-238.888	66.011	0.111	-0.112
-237.873	8.234	0.020	-0.015
-236.859	-200.000	0.025	0.366
-235.844	-88.695	-0.240	-0.071
-234.830	163.871	0.117	0.164
-233.815	177.282	-0.226	-0.329
-232.800	-200.000	-0.023	0.270
-231.786	800.000	0.019	0.058
-230.771	447.853	0.060	0.132
-229.757	640.086	-0.091	0.231
-228.742	-80.611	0.094	0.031
-227.727	-93.807	-0.058	0.016
-226.713	-13.309	-0.236	0.153
-225.698	-93.429	-0.377	0.104
-224.684	800.000	-0.049	0.142
-223.669	269.360	0.118	-0.207
-222.655	-113.387	0.318	-0.062
-221.640	800.000	-0.004	0.015
-220.625	361.594	-0.061	0.123
-219.611	-45.623	0.145	0.071
-218.596	-200.000	-0.039	-0.256
-217.582	-200.000	0.012	-0.094
-216.567	-112.107	0.103	-0.021
-215.552	-200.000	-0.015	-0.129
-214.538	70.699	0.314	-0.324
-213.523	-77.150	0.122	0.042
-212.509	-24.610	0.094	-0.056
-211.494	13.418	0.102	0.079
-210.479	-144.186	-0.212	-0.020
-209.465	126.698	0.177	0.223
-208.450	-10.466	-0.199	0.131
-207.436	61.472	0.242	0.240
-206.421	108.984	-0.204	0.243
-205.406	94.492	-0.219	0.248
-204.392	-147.967	-0.287	0.024
-203.377	-200.000	-0.015	0.129
-202.363	1.701	0.151	0.108
-201.348	800.000	0.044	0.127
-200.333	-112.417	0.347	0.069
-199.319	-74.911	-0.321	0.115
-198.304	800.000	0.016	-0.050
-197.290	127.005	-0.063	0.080
-196.275	37.420	-0.326	-0.288
-195.260	184.047	-0.081	0.119
-194.246	-200.000	-0.008	-0.279
-193.231	746.044	-0.101	-0.271
-192.217	-143.526	-0.281	0.027
-191.202	446.394	0.091	-0.198
-190.187	515.024	-0.013	-0.030
-189.173	76.809	-0.047	-0.050
-188.158	-200.000	-0.037	-0.406
-187.144	-200.000	0.005	0.022
-186.129	473.321	-0.109	-0.244
-185.114	-127.068	-0.244	-0.036
-184.100	14.359	0.161	0.125
-183.085	135.508	-0.183	-0.237
-182.071	-0.725	-0.176	-0.124
-181.056	-72.101	0.117	0.043
-180.042	-68.532	0.172	0.066
-179.027	-44.991	0.287	-0.142
-178.012	317.511	-0.084	-0.159
-176.998	-144.298	0.214	0.020
-175.983	-45.890	0.338	-0.166
-174.969	800.000	0.114	-0.368
-173.954	-21.431	0.070	-0.043
-172.939	-115.016	0.422	-0.080
-171.925	-200.000	-0.102	0.520
-170.910	2.087	0.326	0.234
-169.896	154.152	0.235	0.321
-168.881	-77.305	0.379	0.131
-167.866	151.492	0.127	-0.173
-166.852	-127.764	-0.227	0.033
-165.837	800.000	-0.088	0.377
-164.823	-200.000	0.050	0.365
-163.808	-200.000	0.000	-0.107
-162.793	94.797	0.083	0.094
-161.779	66.300	-0.189	-0.191
-160.764	-88.802	0.101	-0.030
-159.750	-117.229	-0.238	-0.043
-158.735	-55.690	0.159	-0.071
-157.720	229.155	-0.102	-0.166
-156.706	-200.000	-0.028	0.222
-155.691	288.574	-0.101	0.182
-154.677	240.382	0.131	0.218
-153.662	-141.957	-0.289	-0.029
-152.647	30.407	-0.167	0.142
-151.633	-139.087	-0.381	-0.041
-150.618	-89.956	0.175	0.051
-149.604	-18.609	0.084	-0.052
-148.589	34.860	-0.218	-0.189
-147.574	800.000	-0.085	-0.237
-146.560	-150.714	-0.146	0.011
-145.545	-133.699	-0.167	0.021
-144.531	122.810	-0.054	-0.067
-143.516	-44.436	-0.114	0.057
-142.502	115.294	-0.153	-0.186
-141.487	-200.000	0.012	-0.353
-140.472	-91.498	-0.252	0.072
-139.458	-200.000	0.013	0.091
-138.443	-55.478	0.197	0.088
-137.429	800.000	-0.040	0.144
-136.414	-153.082	0.099	-0.007
-135.399	-83.743	0.431	0.137
-134.385	-56.985	0.147	0.064
-133.370	181.299	0.172	-0.251
-132.356	90.636	-0.120	-0.133
-131.341	-126.851	0.241	-0.035
-130.326	-138.962	0.179	0.019
-129.312	-200.000	0.019	-0.144
-128.297	-166.467	-0.219	0.009
-127.283	10.347	0.213	-0.161
-126.268	-200.000	-0.022	-0.280
-125.253	-39.026	0.106	-0.056
-124.239	-200.000	0.024	-0.243
-123.224	225.943	0.126	0.203
-122.210	101.126	0.203	-0.235
-121.195	-50.266	-0.326	-0.153
