DTS Sentinel unit serial number:	SN413079Multiplexer serial number:	ORYXHardware model number:	OX4-SRSoftware version number:	ORYX F/W v4.00 Oryx Data Collector v3.7.2.0data status	okinstallation	princeton_trtdifferential loss correction	single-endedforward channel	channel 3reverse channel	N/Adate	2019/09/11time	06:34:11forward acquisition time	60.00reverse acquisition time	0.00gamma	496.2192k internal	0.2330k external	0.2330temperature offset calibration	0.9907default loss term (dB/km)	0.3790temperature slope calibration	1.0000multiplexer offset coefficient	1.0000multiplexer slope coefficient	1.0000fibre end	0.00T internal ref (°C)	29.67T ext. ref 1 (°C)	-0.18T ext. ref 2 (°C)	24.34length (m)	temperature (°C)	Stokes	anti-Stokes-747.200	208.096	-0.250	-0.393
-746.185	221.001	-0.175	0.283
-745.171	-115.670	0.087	-0.016
-744.156	-135.996	-0.475	0.056
-743.142	50.889	0.116	0.110
-742.127	-200.000	0.021	0.273
-741.112	-200.000	0.007	-0.271
-740.098	167.423	-0.066	-0.095
-739.083	-4.415	-0.119	-0.083
-738.069	800.000	-0.103	0.334
-737.054	-97.612	-0.095	-0.025
-736.039	525.878	-0.054	-0.127
-735.025	-86.233	0.260	-0.081
-734.010	-108.549	-0.118	0.026
-732.996	66.409	0.141	-0.144
-731.981	-18.208	-0.306	0.193
-730.966	800.000	-0.062	-0.222
-729.952	-13.892	-0.162	-0.105
-728.937	137.025	0.206	-0.271
-727.923	-133.616	-0.331	-0.042
-726.908	-6.864	-0.242	-0.165
-725.894	800.000	-0.071	0.259
-724.879	-169.407	-0.326	-0.012
-723.864	361.618	0.155	0.313
-722.850	800.000	-0.116	-0.390
-721.835	-200.000	0.051	-0.422
-720.821	25.926	-0.087	0.073
-719.806	28.979	0.174	0.149
-718.791	75.016	-0.185	-0.196
-717.777	21.569	-0.288	-0.236
-716.762	171.579	-0.142	-0.205
-715.748	112.579	0.057	0.070
-714.733	-200.000	-0.008	-0.172
-713.718	-93.864	-0.234	0.065
-712.704	-143.251	-0.132	-0.013
-711.689	-200.000	-0.008	0.088
-710.675	-6.955	0.191	-0.130
-709.660	800.000	-0.036	0.127
-708.645	-122.520	0.047	-0.008
-707.631	800.000	-0.019	0.056
-706.616	-200.000	-0.039	-0.213
-705.602	-1.871	0.239	-0.169
-704.587	73.230	0.071	-0.075
-703.572	-26.151	0.265	-0.157
-702.558	-134.076	-0.524	-0.065
-701.543	-52.412	-0.373	-0.174
-700.529	-131.431	-0.238	-0.032
-699.514	800.000	-0.074	0.209
-698.499	502.928	-0.143	0.333
-697.485	-174.346	-0.434	-0.013
-696.470	22.759	0.119	0.098
-695.456	-93.075	0.229	0.064
-694.441	800.000	0.070	0.230
-693.426	-110.694	0.074	-0.015
-692.412	800.000	0.069	-0.274
-691.397	800.000	-0.044	-0.141
-690.383	238.255	-0.066	-0.111
-689.368	-200.000	0.060	-0.338
-688.354	-109.338	-0.174	-0.037
-687.339	172.914	0.177	0.256
-686.324	-60.637	-0.451	0.192
-685.310	26.675	-0.242	0.203
-684.295	53.985	0.185	0.179
-683.281	-5.873	-0.187	0.128
-682.266	-100.283	-0.218	0.054
-681.251	-200.000	-0.010	-0.139
-680.237	796.994	-0.025	0.070
-679.222	238.318	-0.119	-0.198
-678.208	-200.000	-0.007	0.087
-677.193	28.319	-0.141	0.120
-676.178	-81.975	-0.281	-0.092
-675.164	99.232	-0.095	0.110
-674.149	-200.000	0.013	0.202
-673.135	-136.386	0.213	0.025
-672.120	-200.000	-0.029	0.266
-671.105	7.275	-0.172	0.129
-670.091	309.984	-0.044	-0.082
-669.076	650.203	-0.050	0.129
-668.062	-22.458	-0.072	-0.044
-667.047	-11.967	-0.179	-0.118
-666.032	-169.269	-0.139	0.005
-665.018	517.725	-0.124	0.291
-664.003	-200.000	-0.021	0.098
-662.989	-17.600	-0.159	0.100
-661.974	-200.000	-0.054	-0.247
-660.959	-200.000	0.007	0.365
-659.945	101.053	0.064	0.075
-658.930	-57.560	-0.276	0.122
-657.916	671.432	-0.044	-0.114
-656.901	139.098	-0.055	0.072
-655.886	195.192	-0.210	0.320
-654.872	-82.188	-0.537	-0.176
-653.857	-26.336	-0.089	0.052
-652.843	-37.094	0.247	0.133
-651.828	209.851	-0.083	0.130
-650.814	38.745	-0.019	0.017
-649.799	-52.981	0.232	0.107
-648.784	-200.000	0.041	0.204
-647.770	-8.068	0.373	-0.252
-646.755	257.873	-0.189	-0.327
-645.741	92.038	-0.152	0.171
-644.726	26.363	-0.096	0.081
-643.711	-111.337	0.338	-0.069
-642.697	-200.000	-0.027	0.122
-641.682	144.807	0.197	0.265
-640.668	800.000	0.056	0.187
-639.653	33.404	-0.214	-0.186
-638.638	800.000	-0.050	-0.181
-637.624	-103.802	0.052	0.012
-636.609	204.544	-0.190	-0.295
-635.595	46.460	0.140	0.130
-634.580	-20.362	-0.345	0.213
-633.565	-154.938	-0.077	-0.005
-632.551	-200.000	0.003	0.181
-631.536	-200.000	-0.028	-0.192
-630.522	800.000	-0.129	-0.484
-629.507	-200.000	-0.002	-0.057
-628.492	557.732	-0.174	-0.422
-627.478	-145.621	-0.246	0.022
-626.463	17.771	0.058	0.046
-625.449	92.166	0.182	0.205
-624.434	-200.000	0.002	0.068
-623.419	254.598	-0.140	-0.240
-622.405	-6.992	0.231	-0.157
-621.390	-200.000	0.045	-0.371
-620.376	-105.659	-0.165	0.038
-619.361	-61.558	0.164	0.069
-618.346	-98.416	0.154	0.040
-617.332	-66.581	0.153	0.061
-616.317	-200.000	-0.026	-0.307
-615.303	-149.886	0.161	-0.013
-614.288	-54.334	0.060	-0.027
-613.273	-141.636	0.064	-0.006
-612.259	-137.900	0.189	-0.021
-611.244	-14.208	0.097	0.063
-610.230	-96.473	0.206	0.055
-609.215	59.792	-0.154	0.152
-608.201	-200.000	0.058	0.308
-607.186	-200.000	-0.010	-0.077
-606.171	784.676	-0.066	-0.181
-605.157	-187.638	0.350	-0.005
-604.142	105.860	0.167	0.198
-603.128	-37.257	-0.262	-0.140
-602.113	244.483	0.064	-0.108
-601.098	-200.000	0.028	0.128
-600.084	40.373	-0.281	0.253
-599.069	-29.352	0.457	-0.262
-598.055	197.704	0.059	-0.090
-597.040	314.490	0.174	0.328
-596.025	-90.860	0.159	-0.046
-595.011	127.891	-0.122	-0.155
-593.996	-91.529	-0.234	0.067
-592.982	174.157	-0.054	-0.078
-591.967	-100.756	-0.254	-0.063
-590.952	800.000	-0.019	-0.082
-589.938	497.198	0.176	0.405
-588.923	-107.897	0.034	0.007
-587.909	107.604	-0.039	0.046
-586.894	-44.598	-0.073	0.036
-585.879	-200.000	0.004	-0.241
-584.865	375.725	0.163	-0.333
-583.850	628.608	-0.040	0.101
-582.836	260.171	-0.110	0.190
-581.821	-93.667	-0.203	-0.056
-580.806	1.807	0.308	-0.222
-579.792	-170.930	-0.317	-0.011
-578.777	329.861	0.131	-0.251
-577.763	-103.487	0.241	0.057
-576.748	800.000	0.072	-0.218
-575.733	13.049	0.452	-0.350
-574.719	-153.312	0.199	0.014
-573.704	-79.060	0.241	0.082
-572.690	105.105	0.146	0.172
-571.675	186.828	0.117	0.174
-570.661	-70.647	0.081	-0.031
-569.646	-200.000	-0.022	-0.159
-568.631	-78.526	0.214	0.073
-567.617	196.181	-0.069	0.105
-566.602	-200.000	0.003	-0.252
-565.588	-118.461	-0.201	-0.036
-564.573	490.547	-0.059	-0.135
-563.558	468.574	-0.171	-0.383
-562.544	96.739	-0.287	-0.329
-561.529	-64.411	-0.345	-0.140
-560.515	800.000	0.025	0.099
-559.500	-200.000	-0.038	0.229
-558.485	60.214	-0.133	-0.132
-557.471	40.383	-0.033	-0.030
-556.456	-148.105	0.288	0.024
-555.442	-17.705	-0.073	0.046
-554.427	58.948	-0.110	0.108
-553.412	-35.523	0.253	0.137
-552.398	-170.355	-0.155	0.005
-551.383	800.000	0.087	-0.280
-550.369	225.920	-0.140	-0.226
-549.354	-41.690	-0.090	0.046
-548.339	376.329	-0.127	0.260
-547.325	-200.000	0.002	-0.160
-546.310	7.450	0.215	-0.160
-545.296	584.050	0.012	0.029
-544.281	-159.069	0.199	0.011
-543.266	800.000	-0.090	-0.312
-542.252	650.647	-0.099	0.252
-541.237	-200.000	0.027	-0.171
-540.223	-125.456	-0.302	-0.046
-539.208	-200.000	-0.021	-0.141
-538.193	800.000	-0.070	-0.221
-537.179	-159.498	0.272	0.015
-536.164	-200.000	0.010	0.099
-535.150	-126.334	-0.342	-0.051
-534.135	-154.300	-0.246	0.017
-533.121	-90.514	-0.119	0.034
-532.106	-63.341	0.061	0.025
-531.091	-44.383	0.022	-0.011
-530.077	170.853	0.085	-0.122
-529.062	-164.055	-0.038	-0.002
-528.048	120.369	-0.124	-0.154
-527.033	-200.000	-0.023	0.115
-526.018	-116.078	0.135	0.025
-525.004	-125.444	-0.175	-0.027
-523.989	-200.000	0.025	0.176
-522.975	57.477	0.239	-0.233
-521.960	174.944	-0.216	-0.313
-520.945	800.000	-0.078	0.235
-519.931	-158.317	0.164	-0.010
-518.916	-60.042	-0.194	0.083
-517.902	105.960	-0.078	-0.093
-516.887	-161.752	-0.210	-0.011
-515.872	126.140	-0.071	0.090
-514.858	533.930	0.068	0.161
-513.843	-77.986	0.157	0.054
-512.829	109.421	-0.201	-0.240
-511.814	-200.000	0.004	0.134
-510.799	-87.929	-0.052	0.016
-509.785	-106.976	-0.084	-0.019
-508.770	-152.628	0.354	0.025
-507.756	112.330	-0.202	0.244
-506.741	-95.112	-0.089	0.024
-505.726	23.196	-0.323	-0.265
-504.712	-136.725	0.077	0.009
-503.697	-88.337	-0.120	0.036
-502.683	779.036	-0.055	-0.149
-501.668	-136.830	-0.158	-0.018
-500.653	-156.954	-0.340	0.021
-499.639	105.681	0.189	0.223
-498.624	112.442	0.106	0.128
-497.610	-200.000	-0.011	0.198
-496.595	-61.561	-0.424	-0.177
-495.581	232.372	-0.041	-0.067
-494.566	-77.628	0.272	-0.094
-493.551	-102.803	-0.249	0.059
-492.537	-200.000	0.025	0.265
-491.522	18.772	0.137	-0.109
-490.508	37.037	0.195	0.172
-489.493	359.209	0.159	0.317
-488.478	-200.000	0.008	-0.306
-487.464	127.322	0.166	0.210
-486.449	336.409	-0.039	0.076
-485.435	-72.594	0.080	0.029
-484.420	800.000	-0.065	0.212
-483.405	-29.782	-0.139	0.079
-482.391	-130.918	0.485	-0.065
-481.376	127.610	-0.073	-0.093
-480.362	-142.343	-0.192	0.019
-479.347	127.763	0.184	0.233
-478.332	204.729	-0.116	0.179
-477.318	-200.000	-0.001	-0.302
-476.303	-14.801	0.276	-0.177
-475.289	-56.351	0.212	-0.094
-474.274	800.000	0.042	0.145
-473.259	-151.973	-0.204	-0.015
-472.245	-143.427	-0.179	-0.017
-471.230	-50.554	-0.056	0.026
-470.216	6.838	0.045	-0.033
-469.201	800.000	0.096	-0.336
-468.186	-15.649	-0.146	-0.093
-467.172	15.950	0.196	-0.153
-466.157	-49.078	0.186	0.089
-465.143	188.520	-0.172	0.256
-464.128	99.007	0.142	0.164
-463.113	103.513	0.450	0.526
-462.099	2.356	0.071	0.051
-461.084	-200.000	0.002	-0.281
-460.070	581.901	0.075	-0.184
-459.055	422.807	0.103	-0.220
-458.040	-168.411	0.027	-0.001
-457.026	210.775	-0.029	-0.045
-456.011	-52.379	-0.023	-0.011
-454.997	-190.697	-0.366	-0.004
-453.982	-198.294	0.464	0.003
-452.968	29.057	0.141	-0.119
-451.953	-31.161	0.291	0.163
-450.938	-100.270	0.101	0.025
-449.924	800.000	0.047	-0.151
-448.909	-38.161	0.393	0.208
-447.895	318.734	-0.134	-0.253
-446.880	-15.158	0.149	0.095
-445.865	172.608	-0.166	-0.237
-444.851	-41.197	-0.078	0.040
-443.836	751.272	0.077	0.208
-442.822	727.909	-0.055	-0.147
-441.807	154.106	-0.221	0.302
-440.792	-200.000	0.027	0.211
-439.778	94.958	0.258	0.292
-438.763	800.000	-0.067	0.238
-437.749	196.691	0.066	0.100
-436.734	-115.672	-0.258	-0.048
-435.719	309.769	-0.205	0.381
-434.705	462.679	0.041	-0.091
-433.690	390.012	0.041	0.084
-432.676	-75.202	-0.334	0.119
-431.661	62.260	0.080	-0.080
-430.646	-200.000	-0.025	-0.203
-429.632	800.000	-0.047	-0.172
-428.617	-64.359	0.170	-0.069
-427.603	800.000	-0.024	-0.101
-426.588	-122.467	0.293	-0.047
-425.573	-200.000	0.001	0.011
-424.559	132.913	0.177	0.227
-423.544	-200.000	-0.056	-0.351
-422.530	-101.533	0.093	-0.023
-421.515	-42.442	-0.482	0.245
-420.500	30.754	-0.132	-0.112
-419.486	3.003	0.150	-0.108
-418.471	800.000	0.075	-0.275
-417.457	41.539	-0.272	-0.245
-416.442	800.000	-0.149	-0.422
-415.428	495.403	0.074	-0.170
-414.413	159.496	-0.126	-0.175
-413.398	-200.000	-0.014	-0.178
-412.384	302.057	0.169	0.310
-411.369	-95.073	-0.441	0.118
-410.355	53.064	-0.147	-0.140
-409.340	-89.303	0.019	0.006
-408.325	52.448	-0.103	0.098
-407.311	45.686	0.216	0.198
-406.296	-153.926	0.240	0.016
-405.282	716.583	0.039	-0.103
-404.267	-32.628	0.035	0.019
-403.252	197.512	-0.134	0.204
-402.238	58.526	0.166	0.162
-401.223	-104.362	-0.208	-0.048
-400.209	-200.000	-0.004	0.187
-399.194	800.000	-0.055	-0.237
-398.179	-90.607	0.374	-0.107
-397.165	310.969	0.045	0.083
-396.150	-104.622	0.228	-0.052
-395.136	319.109	-0.136	0.256
-394.121	-200.000	0.021	-0.238
-393.106	-200.000	-0.018	0.260
-392.092	-155.479	0.205	0.013
-391.077	210.589	-0.080	-0.124
-390.063	-27.809	-0.116	0.067
-389.048	-95.776	-0.346	0.092
-388.033	123.894	-0.277	-0.345
-387.019	45.686	0.261	-0.239
-386.004	-157.629	-0.393	-0.023
-384.990	173.971	0.022	-0.032
-383.975	296.110	-0.068	0.124
-382.960	-91.799	0.036	0.010
-381.946	35.384	-0.103	-0.089
-380.931	-200.000	0.027	-0.127
-379.917	-62.227	0.071	0.029
-378.902	-126.652	-0.313	-0.046
-377.888	-200.000	0.032	0.392
-376.873	-200.000	0.015	0.230
-375.858	33.364	0.153	-0.131
-374.844	-168.118	0.077	-0.003
-373.829	-114.840	0.124	0.023
-372.815	-87.660	0.079	0.024
-371.800	-141.302	-0.289	0.029
-370.785	30.102	-0.177	0.150
-369.771	174.581	0.124	-0.178
-368.756	-153.885	0.450	-0.031
-367.742	-139.331	-0.321	0.034
-366.727	-125.261	-0.046	0.007
-365.712	128.620	0.092	0.116
-364.698	609.414	-0.124	-0.308
-363.683	226.414	-0.146	-0.235
-362.669	-80.574	-0.188	0.062
-361.654	-200.000	-0.037	0.207
-360.639	46.182	0.384	0.353
-359.625	-200.000	0.042	-0.217
-358.610	-154.557	0.155	0.010
-357.596	134.674	-0.286	0.368
-356.581	65.767	-0.054	-0.054
-355.566	85.341	0.045	-0.049
-354.552	67.965	-0.162	-0.164
-353.537	499.797	-0.017	-0.039
-352.523	369.656	0.136	0.274
-351.508	50.732	-0.225	0.211
-350.493	159.356	0.050	-0.069
-349.479	53.501	-0.178	0.169
-348.464	20.465	0.189	-0.152
-347.450	4.956	-0.282	0.206
-346.435	75.307	-0.071	-0.074
-345.420	-22.473	0.288	-0.173
-344.406	800.000	0.050	0.151
-343.391	-200.000	0.049	-0.222
-342.377	-29.655	-0.312	-0.177
-341.362	15.347	-0.017	0.013
-340.348	227.187	0.029	-0.047
-339.333	-120.456	0.334	-0.056
-338.318	-10.247	-0.089	0.058
-337.304	-53.826	-0.264	-0.119
-336.289	-200.000	0.044	0.331
-335.275	439.716	0.061	0.132
-334.260	-65.376	0.215	0.086
-333.245	-77.944	0.075	0.026
-332.231	541.243	-0.101	-0.239
-331.216	-111.050	-0.194	-0.039
-330.202	-200.000	0.036	-0.326
-329.187	-120.278	0.231	-0.039
-328.172	-200.000	-0.000	0.238
-327.158	-200.000	0.021	0.180
-326.143	-200.000	-0.050	-0.406
-325.129	-99.769	0.185	-0.046
-324.114	-51.476	-0.233	-0.108
-323.099	-136.194	0.251	0.029
-322.085	477.183	0.074	0.166
-321.070	-38.403	0.172	-0.090
-320.056	800.000	0.190	-0.548
-319.041	-200.000	-0.053	-0.286
-318.026	379.758	0.072	-0.146
-317.012	130.590	-0.068	0.087
-315.997	-50.971	0.063	-0.030
-314.983	-200.000	-0.019	0.148
-313.968	279.493	-0.030	-0.052
-312.953	44.709	0.254	-0.232
-311.939	-73.981	0.115	-0.041
-310.924	-75.395	0.276	0.097
-309.910	215.196	0.120	0.188
-308.895	-120.691	0.199	-0.033
-307.880	-123.712	0.118	0.019
-306.866	-160.707	-0.307	0.016
-305.851	447.793	0.050	-0.109
-304.837	-136.376	-0.194	0.022
-303.822	-102.012	-0.148	0.035
-302.807	-4.795	0.358	-0.244
-301.793	-23.308	0.072	-0.043
-300.778	123.968	0.203	0.253
-299.764	-61.439	-0.045	-0.019
-298.749	-200.000	0.005	-0.141
-297.735	-121.284	0.364	0.060
-296.720	-79.140	0.135	-0.045
-295.705	-200.000	0.006	0.161
-294.691	2.393	-0.227	0.162
-293.676	-200.000	-0.019	0.128
-292.662	-57.366	-0.141	-0.061
-291.647	-200.000	-0.001	0.084
-290.632	217.847	-0.067	-0.106
-289.618	-13.571	-0.325	0.208
-288.603	-130.261	0.071	-0.010
-287.589	3.553	-0.070	0.050
-286.574	187.191	0.136	0.200
-285.559	-31.290	0.386	0.215
-284.545	52.567	-0.209	-0.197
-283.530	-89.349	0.302	0.088
-282.516	292.956	0.150	-0.271
-281.501	-26.238	-0.389	-0.226
-280.486	-69.968	-0.108	-0.041
-279.472	-114.630	0.048	-0.009
-278.457	-147.318	-0.270	0.023
-277.443	72.959	0.185	-0.191
-276.428	800.000	0.019	0.069
-275.413	312.838	-0.057	0.107
-274.399	-200.000	0.014	0.064
-273.384	175.094	0.194	0.278
-272.370	800.000	0.133	-0.376
-271.355	800.000	0.071	0.300
-270.340	800.000	-0.078	-0.289
-269.326	-21.120	-0.207	-0.125
-268.311	-80.024	0.096	0.032
-267.297	6.874	-0.203	0.150
-266.282	-24.439	-0.217	-0.128
-265.267	207.476	-0.133	-0.205
-264.253	-23.359	-0.164	0.098
-263.238	119.317	0.226	-0.277
-262.224	25.216	0.163	0.134
-261.209	87.477	-0.046	-0.050
-260.195	-128.387	-0.343	-0.048
-259.180	539.515	0.036	-0.084
-258.165	24.060	0.147	0.120
-257.151	88.943	-0.186	0.205
-256.136	67.149	-0.299	0.301
-255.122	800.000	-0.065	0.188
-254.107	-128.632	0.088	0.012
-253.092	-178.374	0.302	-0.007
-252.078	-141.424	-0.284	0.028
-251.063	-75.509	0.054	-0.019
-250.049	60.224	0.152	0.149
-249.034	-93.044	0.150	-0.041
-248.019	85.504	-0.090	0.097
-247.005	-60.560	0.276	-0.116
-245.990	-111.893	0.089	0.018
-244.976	108.130	0.072	-0.085
-243.961	388.569	0.068	-0.138
-242.946	-50.996	-0.315	-0.146
-241.932	175.547	0.117	-0.168
-240.917	-33.958	-0.239	-0.130
-239.903	-111.920	-0.297	-0.059
-238.888	-139.548	-0.159	0.017
-237.873	-86.534	0.190	-0.057
-236.859	-45.644	0.037	0.018
-235.844	150.512	-0.104	0.140
-234.830	-200.000	0.013	0.317
-233.815	-100.457	-0.234	-0.057
-232.800	-80.942	-0.168	0.055
-231.786	-138.455	-0.089	-0.010
-230.771	-24.134	0.344	0.203
-229.757	67.378	-0.112	0.113
-228.742	-126.157	-0.304	-0.045
-227.727	-19.105	0.034	0.021
-226.713	130.298	0.160	0.202
-225.698	382.956	0.043	0.088
-224.684	-72.230	-0.151	0.055
-223.669	800.000	-0.096	0.299
-222.655	-200.000	0.049	0.420
-221.640	800.000	0.158	0.467
-220.625	694.618	0.062	-0.161
-219.611	-16.828	-0.186	0.116
-218.596	-63.594	-0.173	-0.070
-217.582	-73.974	-0.192	-0.069
-216.567	800.000	0.055	0.195
-215.552	-72.458	-0.360	0.131
-214.538	-147.567	0.348	-0.029
-213.523	69.234	0.295	-0.299
-212.509	-7.133	-0.174	-0.117
-211.494	138.877	-0.162	0.209
-210.479	-54.085	0.151	0.068
-209.465	160.033	0.158	0.217
-208.450	-200.000	0.006	0.054
-207.436	-77.992	-0.215	-0.073
-206.421	-53.574	0.026	-0.012
-205.406	-104.867	-0.273	-0.062
-204.392	230.976	-0.195	0.315
-203.377	95.236	0.097	-0.109
-202.363	290.260	-0.036	0.065
-201.348	-103.540	-0.241	-0.056
-200.333	-49.843	0.188	0.088
-199.319	68.699	0.060	-0.061
-198.304	-75.884	0.098	0.034
-197.290	-24.316	-0.315	0.185
-196.275	800.000	-0.021	-0.070
-195.260	230.709	0.177	0.286
-194.246	18.239	0.288	0.226
-193.231	-93.587	-0.097	-0.026
-192.217	450.622	-0.089	-0.195
-191.202	209.577	-0.077	-0.119
-190.187	76.161	-0.179	0.187
-189.173	-40.673	-0.235	0.120
-188.158	719.274	-0.040	0.104
-187.144	-7.085	0.102	0.068
-186.129	-81.003	-0.128	-0.042
-185.114	-67.576	-0.162	0.062
-184.100	68.511	-0.087	0.088
-183.085	800.000	0.022	0.086
-182.071	-96.624	0.334	0.087
-181.056	-162.549	-0.278	-0.014
-180.042	-46.146	-0.228	-0.111
-179.027	-118.528	0.123	0.021
-178.012	-54.623	-0.185	0.082
-176.998	-45.856	-0.324	-0.158
-175.983	-58.795	0.219	0.093
-174.969	-129.599	0.259	-0.035
-173.954	-130.382	0.322	-0.043
-172.939	-200.000	0.007	0.069
-171.925	-200.000	-0.019	-0.196
-170.910	82.110	0.318	0.339
-169.896	-24.134	-0.226	-0.133
-168.881	-200.000	0.008	0.206
-167.866	32.724	-0.086	-0.073
-166.852	-24.455	-0.305	0.179
-165.837	49.259	0.133	0.123
-164.823	189.408	0.106	-0.157
-163.808	-200.000	-0.010	-0.233
-162.793	-141.944	-0.250	0.025
-161.779	800.000	-0.041	0.160
-160.764	-141.010	0.212	-0.021
-159.750	800.000	0.004	-0.016
-158.735	-169.527	0.117	-0.004
-157.720	-118.746	0.162	-0.028
-156.706	-143.541	0.085	0.008
-155.691	800.000	-0.068	-0.275
-154.677	-200.000	-0.011	0.172
-153.662	50.224	0.449	0.417
-152.647	-140.162	-0.233	-0.024
-151.633	-200.000	0.056	-0.282
-150.618	-92.662	-0.041	-0.011
-149.604	108.051	-0.107	0.126
-148.589	-200.000	-0.011	0.369
-147.574	-10.958	-0.081	0.053
-146.560	431.822	0.149	-0.319
-145.545	-146.837	-0.292	0.025
-144.531	-120.519	0.287	0.048
-143.516	261.936	-0.144	0.246
-142.502	-105.971	0.318	-0.070
-141.487	800.000	0.075	0.212
-140.472	132.264	-0.153	0.194
-139.458	-200.000	-0.030	0.136
-138.443	62.689	0.220	0.216
-137.429	-200.000	0.021	0.106
-136.414	238.538	-0.140	0.230
-135.399	-39.981	-0.057	0.029
-134.385	-72.449	-0.257	0.093
-133.370	-72.038	-0.190	0.069
-132.356	-14.873	-0.083	-0.052
-131.341	405.020	-0.108	0.224
-130.326	463.888	0.162	0.357
-129.312	-18.695	-0.136	-0.083
-128.297	-200.000	0.055	-0.336
-127.283	167.560	0.082	-0.114
-126.268	-100.280	0.435	0.106
-125.253	-74.781	-0.334	-0.118
-124.239	-200.000	-0.003	-0.285
-123.224	60.064	-0.182	-0.176
-122.210	121.777	0.073	0.090
