DTS Sentinel unit serial number:	SN413079Multiplexer serial number:	ORYXHardware model number:	OX4-SRSoftware version number:	ORYX F/W v4.00 Oryx Data Collector v3.7.2.0data status	okinstallation	princeton_trtdifferential loss correction	single-endedforward channel	channel 3reverse channel	N/Adate	2019/09/17time	22:08:34forward acquisition time	60.00reverse acquisition time	0.00gamma	496.2192k internal	0.2345k external	0.2345temperature offset calibration	0.9951default loss term (dB/km)	0.3790temperature slope calibration	1.0000multiplexer offset coefficient	1.0000multiplexer slope coefficient	1.0000fibre end	0.00T internal ref (°C)	25.84T ext. ref 1 (°C)	0.17T ext. ref 2 (°C)	18.77length (m)	temperature (°C)	Stokes	anti-Stokes-747.200	30.920	-0.158	0.135
-746.185	-107.950	0.029	-0.006
-745.171	369.758	-0.150	-0.304
-744.156	-200.000	0.000	0.128
-743.142	-34.968	-0.231	0.126
-742.127	-200.000	-0.031	0.186
-741.112	92.022	-0.128	0.144
-740.098	-200.000	-0.042	0.268
-739.083	744.282	0.141	-0.379
-738.069	800.000	0.085	0.323
-737.054	-27.212	0.288	0.168
-736.039	-47.481	-0.255	0.124
-735.025	-141.130	-0.150	0.015
-734.010	-78.989	-0.397	0.135
-732.996	334.571	0.222	-0.430
-731.981	67.215	0.198	-0.202
-730.966	52.925	-0.161	-0.154
-729.952	-200.000	-0.041	-0.299
-728.937	-53.595	-0.195	-0.089
-727.923	800.000	0.022	-0.066
-726.908	-200.000	-0.040	-0.193
-725.894	-191.852	0.468	0.005
-724.879	-119.860	-0.438	0.075
-723.864	-200.000	-0.049	0.292
-722.850	307.682	0.106	-0.197
-721.835	316.831	0.142	0.269
-720.821	-158.502	-0.062	-0.004
-719.806	-71.146	-0.329	0.123
-718.791	103.273	-0.199	-0.233
-717.777	-200.000	0.004	-0.396
-716.762	-200.000	-0.004	-0.222
-715.748	285.540	-0.046	0.083
-714.733	-54.572	-0.463	0.210
-713.718	139.658	0.050	-0.066
-712.704	-38.709	-0.135	0.071
-711.689	339.049	-0.063	0.123
-710.675	14.629	0.155	0.121
-709.660	-200.000	-0.012	0.455
-708.645	-138.515	-0.372	0.041
-707.631	800.000	0.112	-0.451
-706.616	-49.411	0.116	-0.055
-705.602	799.489	-0.066	0.181
-704.587	-200.000	0.014	0.083
-703.572	222.388	-0.151	0.243
-702.558	85.343	-0.048	0.053
-701.543	-200.000	-0.028	0.357
-700.529	138.061	0.129	0.168
-699.514	800.000	-0.047	-0.167
-698.499	506.359	0.020	0.045
-697.485	-58.261	-0.104	0.045
-696.470	205.302	-0.193	0.299
-695.456	-10.498	-0.070	-0.046
-694.441	-57.179	-0.393	-0.173
-693.426	653.986	0.042	0.109
-692.412	-200.000	0.013	0.151
-691.397	113.036	-0.189	-0.229
-690.383	-40.489	0.105	-0.054
-689.368	58.373	0.056	0.055
-688.354	-112.766	-0.157	0.031
-687.339	-158.553	0.090	0.005
-686.324	-127.964	0.116	0.017
-685.310	0.502	-0.045	-0.032
-684.295	-81.493	0.036	0.012
-683.281	-97.168	-0.231	0.060
-682.266	-25.229	-0.206	-0.122
-681.251	-175.722	0.205	-0.006
-680.237	-200.000	-0.006	-0.143
-679.222	-88.397	-0.224	0.067
-678.208	800.000	-0.052	0.154
-677.193	-200.000	-0.034	0.277
-676.178	-200.000	-0.001	0.019
-675.164	-47.139	0.069	-0.034
-674.149	-200.000	-0.011	-0.072
-673.135	24.561	-0.328	-0.271
-672.120	1.577	0.420	0.302
-671.105	415.120	-0.083	0.176
-670.091	118.924	0.125	-0.154
-669.076	-159.352	0.316	-0.018
-668.062	5.663	-0.201	-0.148
-667.047	-3.751	-0.240	-0.166
-666.032	-200.000	-0.010	-0.372
-665.018	70.100	-0.284	-0.292
-664.003	56.106	0.108	-0.105
-662.989	-200.000	0.001	0.074
-661.974	108.604	-0.050	-0.059
-660.959	-200.000	0.021	0.158
-659.945	5.002	0.063	-0.046
-658.930	9.745	-0.224	-0.169
-657.916	109.915	0.061	-0.073
-656.901	487.127	-0.124	0.281
-655.886	-99.853	0.067	-0.017
-654.872	-84.391	0.056	-0.018
-653.857	-31.195	0.317	0.178
-652.843	229.088	0.135	0.219
-651.828	800.000	-0.055	-0.152
-650.814	-200.000	-0.053	-0.435
-649.799	505.451	-0.117	-0.271
-648.784	800.000	0.026	0.099
-647.770	800.000	-0.074	-0.252
-646.755	749.465	-0.094	0.252
-645.741	-200.000	0.069	0.479
-644.726	-82.156	-0.258	0.084
-643.711	-66.074	-0.150	-0.060
-642.697	-119.988	0.175	-0.030
-641.682	143.703	0.111	0.148
-640.668	474.775	-0.190	-0.427
-639.653	800.000	0.047	-0.198
-638.638	-200.000	0.055	-0.308
-637.624	55.399	0.041	0.040
-636.609	69.775	0.280	0.288
-635.595	800.000	-0.061	-0.197
-634.580	-100.805	-0.193	0.047
-633.565	-87.332	-0.091	0.028
-632.551	70.373	-0.098	0.101
-631.536	-76.419	-0.100	-0.035
-630.522	98.831	-0.051	0.059
-629.507	-148.900	0.204	0.016
-628.492	-23.731	-0.316	-0.189
-627.478	800.000	-0.073	-0.270
-626.463	475.278	0.045	-0.102
-625.449	-143.414	-0.245	-0.023
-624.434	-11.437	0.048	-0.031
-623.419	-40.763	-0.316	-0.163
-622.405	-200.000	0.017	0.145
-621.390	-127.602	0.227	0.033
-620.376	281.312	-0.039	0.069
-619.361	-106.457	-0.305	-0.068
-618.346	710.554	-0.052	-0.138
-617.332	-200.000	-0.003	0.102
-616.317	781.170	-0.032	-0.088
-615.303	130.111	0.180	0.229
-614.288	-105.046	-0.293	-0.067
-613.273	292.744	-0.102	-0.185
-612.259	-13.758	-0.129	-0.083
-611.244	-200.000	-0.039	-0.227
-610.230	-200.000	-0.004	-0.335
-609.215	30.684	0.308	-0.263
-608.201	21.180	0.261	-0.211
-607.186	-100.656	-0.235	-0.058
-606.171	192.308	0.133	0.200
-605.157	207.599	0.151	0.235
-604.142	404.160	0.068	-0.142
-603.128	142.566	-0.191	-0.253
-602.113	496.132	-0.121	0.277
-601.098	-200.000	0.051	0.265
-600.084	-26.653	0.220	-0.128
-599.069	-37.776	-0.283	-0.150
-598.055	-135.712	-0.136	-0.016
-597.040	-99.669	0.333	-0.083
-596.025	-151.243	0.345	0.026
-595.011	-200.000	-0.001	-0.107
-593.996	44.005	0.216	0.197
-592.982	-200.000	-0.030	0.142
-591.967	-112.820	0.522	0.103
-590.952	-200.000	-0.010	-0.412
-589.938	12.645	0.152	-0.116
-588.923	800.000	-0.078	-0.303
-587.909	57.910	-0.286	0.278
-586.894	24.174	0.157	-0.129
-585.879	18.144	-0.172	-0.137
-584.865	293.960	-0.018	-0.033
-583.850	-112.848	0.198	-0.039
-582.836	45.294	-0.205	0.188
-581.821	82.462	-0.110	-0.119
-580.806	800.000	0.075	0.255
-579.792	365.180	0.039	0.078
-578.777	117.993	-0.138	-0.170
-577.763	-18.066	-0.297	0.185
-576.748	-200.000	-0.024	0.149
-575.733	-163.847	0.220	-0.010
-574.719	-66.392	-0.094	0.037
-573.704	443.859	0.076	0.166
-572.690	309.354	-0.030	-0.055
-571.675	800.000	-0.062	0.227
-570.661	188.566	0.110	-0.164
-569.646	-44.726	-0.186	-0.092
-568.631	40.539	-0.166	-0.148
-567.617	-96.628	0.175	0.046
-566.602	-200.000	0.047	-0.565
-565.588	-200.000	0.033	-0.251
-564.573	800.000	-0.075	-0.283
-563.558	-107.504	-0.198	0.043
-562.544	-80.204	-0.221	0.074
-561.529	-91.516	0.173	-0.049
-560.515	-200.000	0.002	-0.032
-559.500	-75.501	-0.172	-0.061
-558.485	270.270	-0.076	0.133
-557.471	31.154	-0.301	-0.257
-556.456	-147.324	0.165	0.014
-555.442	73.230	-0.090	0.094
-554.427	-169.945	-0.239	-0.009
-553.412	-200.000	0.031	0.310
-552.398	76.733	-0.329	-0.347
-551.383	-166.297	-0.376	-0.016
-550.369	-124.741	-0.069	-0.011
-549.354	-52.882	0.272	0.125
-548.339	242.513	0.051	-0.084
-547.325	-200.000	0.033	-0.193
-546.310	-34.969	0.271	-0.147
-545.296	564.755	0.081	-0.196
-544.281	-50.639	0.243	-0.114
-543.266	100.354	0.317	0.365
-542.252	-200.000	-0.042	-0.191
-541.237	-15.143	0.091	-0.058
-540.223	525.793	0.092	0.215
-539.208	586.029	0.127	-0.310
-538.193	282.060	-0.129	0.230
-537.179	582.027	0.071	0.172
-536.164	-200.000	-0.018	-0.230
-535.150	10.867	-0.107	0.081
-534.135	-139.103	-0.228	0.024
-533.121	79.446	0.187	0.199
-532.106	-70.758	0.269	-0.101
-531.091	33.189	-0.225	-0.193
-530.077	-41.089	-0.140	-0.072
-529.062	800.000	0.065	0.182
-528.048	257.025	-0.158	0.270
-527.033	800.000	0.091	-0.260
-526.018	-200.000	-0.020	0.105
-525.004	800.000	0.060	0.240
-523.989	-200.000	-0.015	-0.209
-522.975	84.740	-0.059	0.064
-521.960	-148.663	0.192	0.016
-520.945	365.378	0.033	0.066
-519.931	-48.326	0.238	0.114
-518.916	-9.568	-0.075	0.049
-517.902	-155.898	0.245	-0.015
-516.887	-46.107	0.154	0.075
-515.872	800.000	-0.033	0.137
-514.858	22.506	-0.113	0.091
-513.843	-200.000	-0.023	0.102
-512.829	34.405	-0.064	0.056
-511.814	121.168	-0.131	0.161
-510.799	-21.192	-0.258	-0.157
-509.785	141.879	-0.164	-0.215
-508.770	79.448	0.188	-0.200
-507.756	-51.220	0.210	0.098
-506.741	800.000	0.073	0.316
-505.726	800.000	-0.034	-0.107
-504.712	-111.643	-0.455	-0.092
-503.697	800.000	0.071	-0.210
-502.683	85.871	-0.236	0.257
-501.668	-155.478	-0.231	0.015
-500.653	-27.979	0.327	-0.188
-499.639	-120.161	-0.092	0.016
-498.624	56.740	-0.026	-0.025
-497.610	354.511	-0.098	0.193
-496.595	-162.308	-0.175	-0.009
-495.581	132.112	0.180	-0.229
-494.566	252.123	0.035	-0.059
-493.551	-23.212	-0.280	0.167
-492.537	772.799	-0.054	-0.146
-491.522	-200.000	0.068	0.376
-490.508	64.399	-0.106	0.105
-489.493	53.076	-0.244	-0.231
-488.478	-137.319	-0.389	0.044
-487.464	-47.190	-0.186	0.090
-486.449	-113.362	0.124	0.024
-485.435	-55.241	0.200	0.089
-484.420	-83.531	-0.307	-0.097
-483.405	136.098	0.135	-0.174
-482.391	-134.592	-0.178	0.021
-481.376	-56.539	0.410	0.180
-480.362	-200.000	0.000	0.640
-479.347	138.930	0.011	0.015
-478.332	-172.664	-0.276	0.009
-477.318	-200.000	0.017	-0.142
-476.303	53.677	-0.327	-0.311
-475.289	800.000	-0.130	-0.459
-474.274	-150.856	0.192	0.014
-473.259	-51.128	0.129	0.060
-472.245	-80.270	-0.434	0.144
-471.230	-200.000	-0.039	0.180
-470.216	-200.000	0.007	-0.186
-469.201	254.578	0.057	-0.097
-468.186	-200.000	0.027	0.141
-467.172	-200.000	-0.011	0.302
-466.157	-63.233	-0.097	0.040
-465.143	-113.694	0.206	0.040
-464.128	99.301	0.329	0.377
-463.113	-200.000	0.015	-0.101
-462.099	71.552	-0.362	-0.372
-461.084	592.494	0.071	0.173
-460.070	769.755	0.130	0.351
-459.055	323.603	-0.066	0.125
-458.040	-200.000	0.047	0.264
-457.026	192.200	0.069	-0.102
-456.011	63.634	0.128	0.128
-454.997	-112.244	-0.136	0.027
-453.982	-42.664	-0.258	-0.130
-452.968	-200.000	0.004	-0.088
-451.953	775.904	0.083	-0.223
-450.938	-142.572	0.354	-0.034
-449.924	-48.633	0.170	-0.081
-448.909	201.861	0.188	0.287
-447.895	-162.904	0.327	0.016
-446.880	-26.394	-0.125	0.072
-445.865	160.242	0.092	0.127
-444.851	104.800	-0.157	0.183
-443.836	-141.863	0.094	0.009
-442.822	7.059	-0.058	-0.043
-441.807	436.687	0.097	-0.210
-440.792	482.413	-0.034	0.075
-439.778	264.669	0.220	-0.379
-438.763	-33.130	-0.230	-0.126
-437.749	648.295	0.071	-0.179
-436.734	359.755	-0.143	-0.282
-435.719	356.455	0.035	-0.069
-434.705	-200.000	-0.007	0.167
-433.690	800.000	-0.033	-0.101
-432.676	304.064	0.069	-0.127
-431.661	-5.523	-0.266	-0.180
-430.646	800.000	0.063	-0.271
-429.632	110.812	0.164	0.195
-428.617	-124.056	-0.150	-0.023
-427.603	-34.132	0.232	-0.126
-426.588	22.203	-0.058	0.047
-425.573	800.000	-0.074	-0.310
-424.559	-21.157	0.361	-0.218
-423.544	469.434	-0.092	-0.205
-422.530	-57.966	-0.224	0.097
-421.515	132.905	0.101	0.129
-420.500	-200.000	0.039	0.272
-419.486	-200.000	0.054	-0.421
-418.471	26.655	-0.040	0.033
-417.457	-200.000	-0.040	-0.192
-416.442	31.639	-0.068	0.058
-415.428	-200.000	-0.037	0.216
-414.413	-81.811	0.206	0.067
-413.398	5.983	-0.137	-0.100
-412.384	-69.015	-0.146	-0.056
-411.369	800.000	0.067	-0.287
-410.355	439.001	0.040	0.085
-409.340	446.071	0.069	0.150
-408.325	-200.000	-0.010	0.195
-407.311	313.548	-0.119	-0.221
-406.296	366.780	0.029	0.058
-405.282	-77.239	-0.355	-0.122
-404.267	-200.000	-0.016	-0.088
-403.252	77.427	0.128	-0.134
-402.238	91.230	0.211	0.234
-401.223	-22.475	-0.221	0.132
-400.209	-12.103	-0.060	-0.039
-399.194	-51.459	0.094	0.043
-398.179	-112.614	0.208	-0.041
-397.165	-102.734	-0.382	0.090
-396.150	-118.625	0.075	0.013
-395.136	-66.999	0.238	0.093
-394.121	26.324	-0.124	0.102
-393.106	-63.764	0.244	-0.099
-392.092	-53.566	0.170	-0.077
-391.077	-106.720	0.266	0.058
-390.063	61.989	0.255	-0.251
-389.048	102.484	0.115	-0.133
-388.033	-24.282	0.046	0.027
-387.019	-118.894	-0.071	0.012
-386.004	-193.784	-0.065	0.001
-384.990	-56.255	0.163	-0.071
-383.975	-63.184	0.201	0.082
-382.960	-198.651	0.184	0.001
-381.946	301.548	-0.048	-0.088
-380.931	-136.076	0.484	-0.056
-379.917	-200.000	0.065	0.501
-378.902	-200.000	0.003	-0.110
-377.888	55.385	0.095	-0.091
-376.873	-200.000	0.036	0.237
-375.858	-164.571	-0.068	0.003
-374.844	-200.000	0.022	0.283
-373.829	105.791	0.140	0.163
-372.815	800.000	-0.099	-0.320
-371.800	800.000	-0.062	0.205
-370.785	-200.000	0.033	-0.296
-369.771	26.555	-0.072	0.059
-368.756	-16.656	-0.277	0.173
-367.742	46.694	-0.168	0.154
-366.727	-146.184	-0.227	0.020
-365.712	-112.050	-0.199	0.040
-364.698	-126.240	-0.324	-0.048
-363.683	-71.744	-0.221	0.081
-362.669	609.041	0.081	0.199
-361.654	-131.895	0.273	-0.035
-360.639	14.115	-0.077	-0.059
-359.625	-36.797	0.092	-0.049
-358.610	196.980	-0.072	0.108
-357.596	-45.419	0.130	-0.063
-356.581	-16.536	-0.216	-0.135
-355.566	761.692	0.079	0.212
-354.552	-9.196	0.226	0.149
-353.537	-200.000	0.020	0.180
-352.523	-200.000	0.083	0.488
-351.508	-73.807	-0.110	0.040
-350.493	185.039	-0.033	0.049
-349.479	-13.847	-0.181	0.115
-348.464	-101.457	0.176	0.042
-347.450	-96.174	-0.220	-0.057
-346.435	-4.234	0.166	0.113
-345.420	-200.000	0.009	-0.227
-344.406	42.088	-0.051	-0.045
-343.391	800.000	-0.115	-0.410
-342.377	136.150	-0.124	0.159
-341.362	-200.000	0.026	0.138
-340.348	-48.829	-0.156	-0.074
-339.333	360.031	-0.194	0.382
-338.318	-47.515	0.082	0.039
-337.304	-200.000	0.023	0.139
-336.289	-18.203	0.115	-0.071
-335.275	598.445	0.037	-0.090
-334.260	57.372	0.163	-0.157
-333.245	-200.000	0.034	-0.254
-332.231	-106.462	0.328	0.072
-331.216	-115.580	0.223	-0.041
-330.202	-200.000	0.051	0.320
-329.187	178.175	0.047	0.068
-328.172	-124.498	0.334	-0.051
-327.158	333.037	-0.107	0.203
-326.143	-200.000	-0.005	-0.322
-325.129	70.064	-0.254	0.258
-324.114	-5.769	0.081	0.055
-323.099	281.427	0.052	-0.091
-322.085	-200.000	0.029	0.319
-321.070	800.000	0.035	0.136
-320.056	800.000	0.081	-0.257
-319.041	800.000	0.096	0.410
-318.026	-100.715	0.221	-0.054
-317.012	320.427	-0.089	0.167
-315.997	353.378	0.220	-0.430
-314.983	800.000	0.042	0.115
-313.968	-200.000	0.021	0.441
-312.953	106.515	0.043	0.050
-311.939	141.847	-0.080	-0.105
-310.924	403.735	-0.056	-0.115
-309.910	281.014	0.067	0.118
-308.895	244.621	-0.192	0.317
-307.880	91.543	0.092	-0.102
-306.866	-115.772	0.315	-0.058
-305.851	800.000	0.028	0.112
-304.837	-160.052	0.425	-0.023
-303.822	340.653	0.151	0.290
-302.807	800.000	0.104	-0.372
-301.793	443.478	0.081	-0.174
-300.778	800.000	0.143	0.392
-299.764	-56.466	0.080	0.035
-298.749	432.613	-0.213	-0.454
-297.735	-4.910	-0.211	0.143
-296.720	209.080	-0.224	-0.345
-295.705	382.031	-0.168	-0.339
-294.691	-149.277	-0.137	-0.011
-293.676	258.189	-0.067	-0.114
-292.662	278.618	-0.335	-0.587
-291.647	704.674	0.084	-0.219
-290.632	-137.832	-0.381	0.042
-289.618	400.674	0.059	0.121
-288.603	800.000	0.093	0.288
-287.589	59.481	0.137	0.133
-286.574	125.858	0.107	0.133
-285.559	107.962	-0.234	-0.274
-284.545	731.620	0.067	-0.175
-283.530	800.000	-0.019	0.079
-282.516	12.828	-0.238	-0.181
-281.501	800.000	0.018	-0.065
-280.486	-12.901	-0.162	0.104
-279.472	111.068	0.270	0.320
-278.457	322.214	0.101	-0.188
-277.443	-97.522	0.177	-0.045
-276.428	-11.899	0.249	-0.160
-275.413	-68.372	-0.248	0.094
-274.399	39.527	-0.146	0.129
-273.384	288.488	-0.053	0.094
-272.370	-200.000	-0.008	0.115
-271.355	-169.058	0.284	-0.010
-270.340	45.104	-0.131	-0.119
-269.326	-150.713	0.159	-0.012
-268.311	359.012	0.114	0.223
-267.297	-168.034	-0.194	-0.007
-266.282	311.513	0.265	-0.489
-265.267	90.147	-0.136	0.149
-264.253	151.956	-0.055	0.073
-263.238	-200.000	0.002	0.371
-262.224	-11.642	0.197	-0.127
-261.209	76.443	-0.168	-0.175
-260.195	-61.907	0.187	0.077
-259.180	-200.000	0.021	-0.141
-258.165	56.998	-0.388	0.371
-257.151	800.000	-0.068	0.210
-256.136	204.568	0.162	0.247
-255.122	-0.680	-0.207	0.144
-254.107	-43.831	0.053	0.026
-253.092	351.866	-0.119	0.231
-252.078	144.400	0.033	0.043
-251.063	145.968	0.130	0.171
-250.049	-122.527	0.201	-0.032
-249.034	234.772	-0.177	0.287
-248.019	-200.000	-0.041	0.488
-247.005	23.463	0.156	0.126
-245.990	-51.672	0.245	0.112
-244.976	180.139	0.171	0.246
-243.961	8.222	0.017	0.013
-242.946	50.491	0.123	0.114
-241.932	-46.417	0.341	-0.165
-240.917	103.179	-0.170	0.195
-239.903	-12.105	0.258	0.166
-238.888	261.974	0.155	-0.264
-237.873	-102.490	-0.254	0.060
-236.859	334.095	-0.115	0.218
-235.844	-200.000	-0.219	-0.000
-234.830	104.191	0.141	-0.163
-233.815	-11.826	0.171	0.110
-232.800	-173.317	0.164	0.005
-231.786	-200.000	0.015	-0.073
-230.771	-111.747	-0.082	0.016
-229.757	329.944	0.073	0.138
-228.742	342.076	-0.281	-0.539
-227.727	189.856	-0.071	-0.104
-226.713	90.406	-0.123	0.135
-225.698	16.253	0.259	-0.201
-224.684	-1.065	0.076	0.053
-223.669	-29.162	-0.208	0.117
-222.655	-141.412	0.260	-0.026
-221.640	-200.000	-0.003	-0.065
-220.625	800.000	-0.159	-0.506
-219.611	90.231	-0.134	0.147
-218.596	-200.000	-0.034	0.173
-217.582	-70.017	-0.411	-0.153
-216.567	-26.541	0.219	-0.125
-215.552	174.039	0.038	0.054
-214.538	-6.552	-0.211	0.141
-213.523	179.322	-0.082	0.118
-212.509	27.669	-0.335	0.276
-211.494	-17.687	-0.202	-0.124
-210.479	77.743	-0.239	-0.250
-209.465	60.375	0.073	0.071
-208.450	404.795	-0.097	0.199
-207.436	107.808	0.259	-0.302
-206.421	-200.000	0.117	-0.578
-205.406	-27.022	0.015	-0.008
-204.392	-40.891	-0.228	-0.116
-203.377	451.454	0.195	0.422
-202.363	-200.000	0.036	0.204
-201.348	-106.898	-0.169	0.037
-200.333	756.285	0.120	0.317
-199.319	232.953	-0.038	0.062
-198.304	-96.862	0.213	0.055
-197.290	-85.844	-0.253	-0.077
-196.275	67.496	-0.174	-0.174
-195.260	-128.605	0.163	-0.023
-194.246	-6.884	0.173	-0.115
-193.231	800.000	0.030	-0.092
-192.217	-80.001	0.067	-0.022
-191.202	-111.445	0.349	-0.070
-190.187	-108.872	0.150	0.031
-189.173	-200.000	-0.396	0.002
-188.158	1.315	-0.075	0.053
-187.144	-103.808	0.136	0.031
-186.129	-200.000	0.012	0.158
-185.114	800.000	-0.102	-0.308
-184.100	-103.984	0.207	-0.047
-183.085	-29.396	-0.216	-0.121
-182.071	33.885	-0.106	0.090
-181.056	-45.526	-0.468	0.227
-180.042	60.332	0.276	0.267
-179.027	-200.000	0.005	-0.183
-178.012	800.000	0.083	0.246
-176.998	-120.244	0.218	0.036
-175.983	-147.133	-0.319	0.027
-174.969	-129.044	0.185	0.025
-173.954	775.167	-0.098	-0.261
-172.939	23.531	0.341	0.274
-171.925	-10.957	-0.029	0.019
-170.910	168.635	0.091	0.126
-169.896	188.149	-0.269	-0.393
-168.881	37.322	-0.069	-0.060
-167.866	-161.888	-0.062	0.003
-166.852	539.465	-0.065	-0.152
-165.837	-200.000	-0.007	0.062
-164.823	79.462	-0.332	0.349
-163.808	800.000	0.051	-0.153
-162.793	-43.407	-0.027	0.014
-161.779	-52.532	-0.191	0.086
-160.764	-95.033	0.223	-0.059
-159.750	-66.920	-0.291	-0.112
-158.735	-0.640	0.163	-0.113
-157.720	99.993	0.202	-0.229
-156.706	-116.391	0.301	-0.054
-155.691	-200.000	0.025	-0.164
-154.677	-73.444	0.251	-0.090
-153.662	-200.000	-0.033	-0.360
-152.647	800.000	0.053	0.211
-151.633	156.006	0.119	0.160
-150.618	190.675	0.165	-0.243
-149.604	-40.896	-0.097	0.049
-148.589	-138.644	-0.371	0.040
-147.574	-144.352	-0.021	-0.002
-146.560	800.000	0.039	0.108
-145.545	295.676	-0.113	0.203
-144.531	-135.752	-0.215	0.025
-143.516	-200.000	0.010	-0.155
-142.502	-200.000	-0.051	0.240
-141.487	-132.289	0.190	-0.024
-140.472	800.000	0.042	-0.121
-139.458	800.000	0.060	-0.248
-138.443	-105.326	0.369	0.082
-137.429	6.208	0.184	0.133
-136.414	146.350	-0.084	0.110
-135.399	800.000	-0.017	-0.059
-134.385	44.131	-0.118	-0.106
-133.370	-200.000	-0.017	-0.160
-132.356	79.029	0.148	0.155
-131.341	-74.335	-0.163	0.058
-130.326	161.281	-0.219	-0.298
-129.312	-200.000	-0.003	-0.053
-128.297	-90.902	0.207	-0.058
-127.283	12.640	0.251	-0.189
-126.268	5.284	-0.082	-0.059
-125.253	-200.000	-0.023	-0.175
-124.239	103.506	0.250	0.286
-123.224	423.298	-0.037	0.077
-122.210	-200.000	-0.036	0.208
-121.195	-71.722	0.102	-0.037
