DTS Sentinel unit serial number:	SN413079Multiplexer serial number:	ORYXHardware model number:	OX4-SRSoftware version number:	ORYX F/W v4.00 Oryx Data Collector v3.7.2.0data status	okinstallation	princeton_trtdifferential loss correction	single-endedforward channel	channel 3reverse channel	N/Adate	2019/09/12time	18:06:04forward acquisition time	15.00reverse acquisition time	0.00gamma	496.2192k internal	0.2316k external	0.2316temperature offset calibration	1.0091default loss term (dB/km)	0.3790temperature slope calibration	1.0000multiplexer offset coefficient	1.0000multiplexer slope coefficient	1.0000fibre end	0.00T internal ref (°C)	33.69T ext. ref 1 (°C)	2.85T ext. ref 2 (°C)	28.23length (m)	temperature (°C)	Stokes	anti-Stokes-747.200	800.000	0.101	-0.374
-746.185	-161.047	1.059	0.056
-745.171	359.072	-0.093	0.188
-744.156	3.467	-0.268	-0.198
-743.142	230.613	-0.044	0.072
-742.127	-82.815	0.214	0.070
-741.112	-21.559	0.737	0.455
-740.098	110.422	-0.471	0.573
-739.083	0.771	0.550	-0.399
-738.069	387.042	-0.064	-0.134
-737.054	-200.000	-0.085	-0.686
-736.039	-63.359	-0.729	0.304
-735.025	-62.727	-0.820	0.344
-734.010	-8.150	0.474	-0.324
-732.996	249.226	0.419	0.719
-731.981	-200.000	-0.016	0.104
-730.966	-102.804	-0.379	-0.091
-729.952	-117.184	-1.262	-0.232
-728.937	-67.028	-0.676	0.270
-727.923	31.652	0.164	-0.143
-726.908	-200.000	0.038	0.374
-725.894	77.815	-0.373	0.403
-724.879	-148.759	0.155	-0.013
-723.864	39.241	-0.160	0.145
-722.850	-5.183	-0.349	0.243
-721.835	277.080	0.125	0.225
-720.821	3.229	-0.155	0.114
-719.806	800.000	-0.250	0.836
-718.791	-123.580	0.197	-0.032
-717.777	-67.591	-0.200	-0.079
-716.762	-21.286	0.683	-0.423
-715.748	162.604	0.150	0.213
-714.733	-84.053	0.099	-0.032
-713.718	-200.000	-0.126	0.929
-712.704	-65.354	-0.322	-0.131
-711.689	-27.627	-0.599	-0.352
-710.675	-111.488	0.255	0.053
-709.660	420.219	0.207	-0.449
-708.645	-156.630	0.408	-0.026
-707.631	11.433	0.190	0.147
-706.616	-147.946	0.464	0.039
-705.602	49.533	0.307	0.293
-704.587	-200.000	-0.046	-0.357
-703.572	-62.844	-0.552	-0.231
-702.558	-70.218	1.027	-0.394
-701.543	10.051	-0.550	-0.423
-700.529	2.425	0.506	-0.371
-699.514	-42.215	0.147	0.076
-698.499	-200.000	0.063	0.666
-697.485	-200.000	0.097	-0.550
-696.470	-67.883	-0.729	0.288
-695.456	-83.499	-0.156	-0.050
-694.441	229.057	-0.066	0.109
-693.426	-200.000	0.155	1.080
-692.412	19.636	0.591	-0.481
-691.397	-95.545	0.498	-0.135
-690.383	148.252	-0.200	-0.272
-689.368	23.684	-0.213	0.177
-688.354	-187.132	0.431	-0.006
-687.339	534.159	0.299	0.716
-686.324	-35.872	0.292	-0.160
-685.310	800.000	0.276	-0.878
-684.295	25.007	-0.358	0.300
-683.281	-200.000	0.048	0.524
-682.266	-42.257	-1.092	-0.564
-681.251	142.489	-0.511	0.686
-680.237	620.736	0.070	-0.179
-679.222	-11.157	0.205	-0.137
-678.208	-200.000	-0.044	-0.657
-677.193	-148.847	0.134	0.011
-676.178	401.493	-0.442	0.937
-675.164	-51.370	0.480	-0.227
-674.149	-200.000	-0.136	-0.725
-673.135	800.000	-0.200	0.851
-672.120	-200.000	-0.122	0.948
-671.105	-200.000	0.015	-0.454
-670.091	127.818	-0.198	0.254
-669.076	7.543	-0.335	-0.253
-668.062	514.018	0.153	-0.359
-667.047	72.802	-0.634	-0.669
-666.032	-51.687	0.100	-0.047
-665.018	128.938	-0.327	-0.421
-664.003	-200.000	0.002	0.093
-662.989	-63.377	-0.147	0.061
-661.974	319.710	0.151	0.289
-660.959	0.050	-0.810	0.583
-659.945	-111.102	0.509	0.105
-658.930	110.930	-0.584	-0.709
-657.916	27.568	-0.274	-0.233
-656.901	-122.098	-1.082	-0.179
-655.886	-149.662	-0.585	0.047
-654.872	-113.269	-0.541	-0.107
-653.857	-4.409	-0.233	0.162
-652.843	57.178	-0.535	-0.527
-651.828	800.000	-0.298	0.906
-650.814	436.452	0.191	-0.419
-649.799	-2.348	-0.314	0.222
-648.784	241.421	0.570	-0.961
-647.770	764.845	-0.195	-0.534
-646.755	-183.132	1.093	0.020
-645.741	800.000	-0.124	-0.439
-644.726	-144.632	0.260	0.024
-643.711	800.000	-0.110	-0.313
-642.697	-16.967	-0.424	0.270
-641.682	-200.000	-0.015	0.394
-640.668	-79.512	-1.333	0.454
-639.653	800.000	-0.150	-0.632
-638.638	-200.000	-0.173	-0.824
-637.624	-65.048	-0.855	-0.348
-636.609	800.000	0.234	-0.790
-635.595	-121.876	0.945	-0.157
-634.580	-19.063	-0.951	0.596
-633.565	800.000	0.310	-1.038
-632.551	-95.649	0.435	-0.117
-631.536	328.302	0.190	-0.367
-630.522	-93.031	0.587	-0.165
-629.507	125.824	-0.150	0.191
-628.492	800.000	-0.291	-0.862
-627.478	333.688	0.265	0.517
-626.463	234.123	-0.227	0.377
-625.449	-139.412	-0.678	-0.073
-624.434	-81.905	1.014	-0.334
-623.419	-200.000	0.095	0.487
-622.405	204.396	-0.226	0.352
-621.390	-158.885	0.280	0.016
-620.376	303.113	-0.178	-0.332
-619.361	-76.964	-0.233	-0.082
-618.346	-115.283	0.896	0.171
-617.332	-145.420	-0.316	-0.029
-616.317	479.199	0.081	-0.185
-615.303	800.000	0.164	-0.568
-614.288	20.832	0.583	-0.476
-613.273	75.409	-0.545	-0.579
-612.259	250.263	-0.527	-0.902
-611.244	-200.000	0.073	-0.729
-610.230	665.017	-0.120	0.312
-609.215	375.191	0.373	-0.766
-608.201	800.000	-0.427	-1.302
-607.186	-23.906	-0.756	-0.456
-606.171	91.752	-0.533	-0.603
-605.157	800.000	0.171	-0.648
-604.142	800.000	-0.125	0.386
-603.128	-77.145	0.647	0.227
-602.113	-135.145	-0.407	0.049
-601.098	-200.000	0.144	-0.651
-600.084	-162.830	-1.135	0.056
-599.069	800.000	0.110	0.351
-598.055	-200.000	-0.110	-0.629
-597.040	-152.474	-0.629	0.045
-596.025	122.465	0.366	0.461
-595.011	-200.000	0.100	-0.711
-593.996	-62.425	0.270	-0.113
-592.982	427.399	-0.270	0.588
-591.967	800.000	-0.190	0.705
-590.952	51.494	0.374	-0.357
-589.938	426.687	0.115	-0.249
-588.923	-115.875	-0.388	-0.073
-587.909	-122.892	-0.205	0.033
-586.894	174.558	-0.201	0.292
-585.879	461.045	-0.318	0.715
-584.865	-200.000	0.002	0.723
-583.850	-200.000	0.030	-0.202
-582.836	800.000	0.136	-0.503
-581.821	395.334	0.191	-0.401
-580.806	-161.377	0.635	-0.033
-579.792	23.172	-0.752	-0.621
-578.777	-200.000	-0.017	-0.528
-577.763	282.303	0.210	-0.379
-576.748	39.436	-0.793	-0.715
-575.733	-200.000	-0.013	-0.134
-574.719	-200.000	0.010	0.355
-573.704	93.688	0.268	0.305
-572.690	477.258	0.251	-0.571
-571.675	-117.247	0.407	0.074
-570.661	62.510	0.516	-0.519
-569.646	708.438	0.223	-0.594
-568.631	-152.340	-0.394	-0.029
-567.617	142.282	0.230	-0.307
-566.602	-200.000	0.014	-0.399
-565.588	800.000	-0.208	-0.580
-564.573	-200.000	-0.076	0.646
-563.558	-84.532	-0.897	0.285
-562.544	219.858	0.198	0.320
-561.529	-200.000	0.020	0.420
-560.515	-200.000	-0.041	-0.623
-559.500	299.810	0.272	-0.504
-558.485	7.744	0.524	0.395
-557.471	31.183	0.586	-0.506
-556.456	-181.080	-0.585	0.012
-555.442	309.381	-0.170	0.320
-554.427	800.000	-0.159	0.614
-553.412	474.063	0.377	-0.856
-552.398	-16.349	0.123	0.078
-551.383	41.348	0.070	-0.064
-550.369	-116.860	-0.322	0.059
-549.354	-79.457	0.703	-0.239
-548.339	-178.527	0.472	-0.011
-547.325	800.000	-0.205	0.796
-546.310	89.389	-0.159	0.178
-545.296	-93.824	0.573	-0.159
-544.281	-200.000	-0.063	-0.449
-543.266	-6.420	0.678	-0.465
-542.252	77.442	0.696	-0.744
-541.237	800.000	-0.093	0.344
-540.223	14.155	-0.182	-0.143
-539.208	-10.097	0.145	0.097
-538.193	-200.000	-0.106	-0.676
-537.179	-39.552	-0.541	0.285
-536.164	70.242	-0.078	-0.081
-535.150	-166.290	0.750	0.032
-534.135	308.770	0.417	0.782
-533.121	-200.000	0.057	0.637
-532.106	491.543	0.303	0.698
-531.091	-200.000	0.090	-0.933
-530.077	-200.000	0.074	0.668
-529.062	-200.000	0.041	0.360
-528.048	-25.980	0.554	0.327
-527.033	-101.261	0.054	-0.013
-526.018	-154.261	0.052	0.004
-525.004	-108.232	0.669	-0.145
-523.989	-200.000	-0.094	-0.842
-522.975	503.198	0.145	-0.338
-521.960	-14.184	0.401	0.260
-520.945	-200.000	0.014	-0.878
-519.931	54.885	0.639	-0.620
-518.916	-46.523	-0.856	-0.422
-517.902	-142.421	-0.584	0.058
-516.887	-42.299	0.418	0.214
-515.872	173.981	0.298	0.432
-514.858	-173.815	0.191	0.006
-513.843	-40.262	0.391	-0.204
-512.829	-40.067	-0.743	-0.389
-511.814	-200.000	-0.007	-0.270
-510.799	344.541	-0.127	-0.251
-509.785	-57.716	0.613	-0.269
-508.770	-7.467	-0.898	0.610
-507.756	-29.502	-0.386	0.222
-506.741	-200.000	-0.031	0.862
-505.726	-18.755	-0.417	-0.261
-504.712	109.318	0.160	0.192
-503.697	-16.882	-0.296	-0.188
-502.683	95.217	-0.364	0.416
-501.668	-200.000	-0.073	0.514
-500.653	-134.585	-0.999	0.122
-499.639	161.503	0.222	-0.311
-498.624	-145.309	-0.500	-0.045
-497.610	-200.000	-0.037	-0.170
-496.595	-200.000	-0.064	-0.914
-495.581	20.954	-0.352	-0.286
-494.566	15.686	0.448	-0.353
-493.551	-200.000	-0.033	-0.546
-492.537	74.712	0.492	0.520
-491.522	-58.304	0.374	-0.163
-490.508	-100.796	0.255	-0.063
-489.493	-200.000	0.043	0.585
-488.478	-53.082	0.674	0.311
-487.464	207.978	0.225	-0.353
-486.449	207.977	-0.081	0.128
-485.435	-63.521	0.279	-0.115
-484.420	139.752	-0.087	0.115
-483.405	800.000	-0.077	0.308
-482.391	-200.000	-0.068	-0.476
-481.376	-200.000	0.057	0.383
-480.362	459.276	-0.138	-0.307
-479.347	-200.000	-0.023	-0.722
-478.332	31.563	-0.699	-0.602
-477.318	467.576	-0.419	0.943
-476.303	-149.212	0.723	0.058
-475.289	-106.911	0.785	0.174
-474.274	-143.781	-0.283	-0.027
-473.259	99.032	0.291	-0.336
-472.245	-46.801	0.521	-0.256
-471.230	-136.778	-0.832	-0.096
-470.216	-200.000	0.162	0.914
-469.201	-11.071	0.187	0.123
-468.186	1.186	0.625	-0.450
-467.172	800.000	0.199	0.773
-466.157	-162.391	-0.610	0.030
-465.143	-111.638	-0.379	0.077
-464.128	-0.605	0.406	0.288
-463.113	800.000	-0.212	-0.727
-462.099	-99.018	-0.527	0.134
-461.084	-200.000	0.103	0.567
-460.070	-60.804	-0.691	0.293
-459.055	-200.000	0.050	0.643
-458.040	328.542	0.295	-0.567
-457.026	-137.890	-0.424	-0.047
-456.011	165.530	0.223	0.315
-454.997	800.000	-0.122	0.475
-453.982	-50.550	-0.483	0.228
-452.968	-200.000	-0.019	0.321
-451.953	800.000	-0.183	0.518
-450.938	16.577	-0.286	-0.227
-449.924	36.279	-0.346	0.305
-448.909	-52.335	0.235	0.109
-447.895	-200.000	0.059	0.635
-446.880	-179.116	-0.664	-0.015
-445.865	-85.023	-0.719	0.226
-444.851	80.990	0.655	0.708
-443.836	-68.447	-0.266	0.103
-442.822	470.496	-0.243	0.546
-441.807	-200.000	-0.002	-0.061
-440.792	470.032	0.120	0.270
-439.778	58.985	-0.182	0.179
-438.763	684.985	0.199	0.521
-437.749	-200.000	-0.009	0.219
-436.734	103.234	-0.853	1.001
-435.719	800.000	0.345	0.973
-434.705	-128.196	0.430	0.061
-433.690	800.000	0.258	-0.961
-432.676	8.544	-0.837	-0.630
-431.661	-200.000	0.012	-0.532
-430.646	-154.929	0.158	-0.010
-429.632	231.014	0.173	0.283
-428.617	-127.705	-0.915	0.132
-427.603	-40.287	-0.692	-0.360
-426.588	101.168	0.239	-0.279
-425.573	345.725	-0.164	-0.322
-424.559	800.000	-0.196	-0.634
-423.544	800.000	0.033	-0.103
-422.530	-83.188	0.430	-0.138
-421.515	-200.000	0.012	-0.284
-420.500	-33.519	0.437	0.242
-419.486	225.056	-0.036	0.058
-418.471	123.319	-0.515	0.645
-417.457	162.585	0.126	0.176
-416.442	-186.157	0.844	0.012
-415.428	78.159	-0.670	0.715
-414.413	16.302	0.648	-0.512
-413.398	-74.807	0.546	0.196
-412.384	-124.786	-0.983	0.152
-411.369	5.328	0.225	-0.166
-410.355	25.752	1.311	-1.092
-409.340	-125.725	0.251	-0.038
-408.325	-200.000	-0.205	0.969
-407.311	-88.640	1.004	0.299
-406.296	-15.913	0.592	0.377
-405.282	-177.549	0.462	0.011
-404.267	86.025	-0.560	0.616
-403.252	-48.791	0.210	0.101
-402.238	-134.992	-1.204	-0.145
-401.223	115.678	0.162	-0.198
-400.209	800.000	-0.190	0.541
-399.194	-46.558	-0.415	-0.204
-398.179	-75.191	0.907	-0.324
-397.165	168.395	0.433	-0.617
-396.150	226.984	-0.179	-0.290
-395.136	203.058	0.525	-0.810
-394.121	-160.248	-0.389	0.021
-393.106	313.232	-0.342	-0.643
-392.092	325.036	-0.217	0.414
-391.077	-88.675	-0.380	0.113
-390.063	-200.000	-0.092	-0.445
-389.048	164.316	0.074	-0.104
-388.033	290.461	-0.174	-0.315
-387.019	-78.859	-0.843	-0.287
-386.004	-112.173	-1.081	-0.217
-384.990	-64.453	-0.296	0.120
-383.975	246.561	-0.232	0.390
-382.960	800.000	0.178	0.518
-381.946	-60.320	0.158	-0.067
-380.931	720.726	0.032	-0.085
-379.917	50.544	-0.388	-0.366
-378.902	-63.852	-0.847	-0.346
-377.888	33.672	0.507	0.441
-376.873	-200.000	0.138	0.634
-375.858	-99.095	0.116	-0.029
-374.844	75.059	-0.365	0.384
-373.829	800.000	0.137	0.565
-372.815	244.959	0.298	0.501
-371.800	-73.579	0.599	-0.218
-370.785	-200.000	-0.055	0.553
-369.771	-126.084	-0.771	-0.116
-368.756	415.228	-0.290	0.618
-367.742	-200.000	-0.005	-0.599
-366.727	-200.000	-0.027	-0.379
-365.712	5.013	0.689	-0.506
-364.698	800.000	-0.410	-1.230
-363.683	110.271	0.242	-0.291
-362.669	-87.184	-0.262	-0.079
-361.654	-127.717	-0.104	0.015
-360.639	-39.501	0.157	0.082
-359.625	365.489	-0.255	0.513
-358.610	-42.380	0.780	-0.397
-357.596	71.074	0.086	-0.089
-356.581	-152.877	-0.616	-0.043
-355.566	-200.000	-0.084	0.871
-354.552	240.940	0.320	0.533
-353.537	679.074	-0.177	-0.459
-352.523	800.000	-0.131	0.541
-351.508	7.735	0.449	-0.335
-350.493	594.586	0.088	-0.217
-349.479	800.000	0.212	-0.728
-348.464	-14.135	0.540	-0.348
-347.450	355.654	-0.527	1.047
-346.435	-200.000	-0.002	-0.063
-345.420	-200.000	-0.107	0.535
-344.406	-75.850	-0.433	0.153
-343.391	53.233	-0.930	0.888
-342.377	-200.000	-0.039	-0.642
-341.362	-55.345	0.462	0.207
-340.348	88.615	-0.835	-0.925
-339.333	286.366	-0.115	0.208
-338.318	299.381	-0.115	-0.211
-337.304	-127.362	-1.034	0.150
-336.289	-13.165	0.280	-0.182
-335.275	-176.469	-0.352	-0.009
-334.260	-200.000	0.040	0.408
-333.245	-4.779	-0.760	0.522
-332.231	-26.460	-0.241	-0.141
-331.216	135.241	-0.590	-0.764
-330.202	-200.000	-0.140	0.783
-329.187	44.549	-0.425	0.389
-328.172	683.523	-0.299	-0.778
-327.158	-4.707	0.434	-0.298
-326.143	-84.442	0.372	0.117
-325.129	-200.000	-0.059	-0.978
-324.114	-57.690	0.949	-0.414
-323.099	-68.707	0.057	-0.022
-322.085	-24.294	-0.866	-0.515
-321.070	8.205	0.606	-0.454
-320.056	-60.077	0.323	-0.138
-319.041	-39.676	0.386	-0.201
-318.026	358.906	0.313	0.622
-317.012	-103.963	0.331	-0.077
-315.997	49.151	-0.383	-0.358
-314.983	726.348	-0.170	0.452
-313.968	167.977	-0.491	-0.696
-312.953	44.269	0.855	0.781
-311.939	448.861	-0.070	0.154
-310.924	800.000	-0.117	-0.512
-309.910	-129.637	0.593	-0.081
-308.895	73.016	0.300	0.312
-307.880	89.549	0.741	0.823
-306.866	-58.307	-0.227	-0.098
-305.851	104.071	-0.346	0.405
-304.837	73.757	0.098	0.102
-303.822	253.305	0.352	-0.599
-302.807	-49.150	-0.689	0.328
-301.793	-200.000	0.069	0.367
-300.778	44.006	0.479	-0.437
-299.764	58.533	0.155	0.151
-298.749	96.567	-0.322	-0.367
-297.735	800.000	0.047	-0.136
-296.720	119.068	0.500	0.615
-295.705	319.626	-0.239	0.452
-294.691	-142.399	-0.347	-0.034
-293.676	175.843	-0.371	-0.535
-292.662	473.520	0.187	0.419
-291.647	293.634	0.447	0.811
-290.632	770.571	0.294	0.798
-289.618	-116.407	-1.659	-0.305
-288.603	-66.572	0.528	0.208
-287.589	-49.398	0.573	0.272
-286.574	328.734	-0.207	0.397
-285.559	-161.092	0.735	0.038
-284.545	241.254	0.392	-0.652
-283.530	184.350	-0.420	0.618
-282.516	5.505	-0.377	0.277
-281.501	-87.839	-0.645	-0.193
-280.486	-200.000	0.029	0.434
-279.472	314.024	-0.321	0.601
-278.457	-153.203	-0.307	-0.021
-277.443	-156.917	-0.578	0.035
-276.428	-200.000	0.264	1.270
-275.413	-200.000	-0.018	0.162
-274.399	-33.740	0.209	-0.115
-273.384	81.394	0.278	0.299
-272.370	-190.928	-0.689	-0.007
-271.355	692.025	0.229	0.598
-270.340	-42.340	0.425	-0.216
-269.326	-200.000	-0.078	-0.357
-268.311	-67.600	0.195	-0.076
-267.297	145.143	-0.656	-0.873
-266.282	800.000	0.131	0.518
-265.267	800.000	0.334	0.966
-264.253	-200.000	-0.008	-0.440
-263.238	-4.531	-0.260	0.178
-262.224	92.437	0.478	-0.535
-261.209	-200.000	-0.131	0.575
-260.195	-167.776	0.660	0.026
-259.180	721.023	-0.082	-0.218
-258.165	346.929	-0.225	0.441
-257.151	800.000	-0.500	1.396
-256.136	177.203	0.039	0.057
-255.122	-190.258	-0.490	0.005
-254.107	92.569	0.262	0.293
-253.092	-42.403	0.228	0.115
-252.078	800.000	0.180	-0.518
-251.063	-200.000	0.137	0.924
-250.049	6.788	0.446	0.330
-249.034	800.000	-0.028	0.099
-248.019	198.149	-0.382	0.580
-247.005	-87.140	0.505	-0.153
-245.990	130.153	-0.103	-0.131
-244.976	-200.000	0.022	0.251
-243.961	-171.627	-0.073	-0.002
-242.946	-46.387	-0.331	-0.161
-241.932	-115.370	0.503	0.094
-240.917	-200.000	0.067	0.478
-239.903	517.531	-0.190	-0.442
-238.888	642.039	-0.186	-0.470
-237.873	800.000	-0.154	-0.450
-236.859	-98.570	0.410	0.104
-235.844	111.269	-0.199	0.238
-234.830	-200.000	0.083	-0.595
-233.815	25.323	0.937	-0.773
-232.800	341.374	0.193	0.375
-231.786	277.256	0.258	0.456
-230.771	-200.000	-0.016	0.452
-229.757	540.522	-0.187	0.441
-228.742	107.877	0.312	0.370
-227.727	254.321	-0.182	-0.309
-226.713	263.432	-0.356	-0.615
-225.698	287.904	0.131	0.235
-224.684	24.144	0.164	0.134
-223.669	800.000	-0.190	-0.711
-222.655	-147.863	0.202	-0.017
-221.640	-200.000	-0.031	-0.644
-220.625	-38.631	0.137	0.072
-219.611	-200.000	0.103	0.693
-218.596	-19.951	0.195	-0.119
-217.582	800.000	0.051	0.176
-216.567	-90.028	-0.248	0.072
-215.552	800.000	-0.258	-1.096
-214.538	-14.244	0.387	0.248
-213.523	64.378	-0.476	0.476
-212.509	207.114	-0.502	-0.777
-211.494	-90.477	-0.699	-0.201
-210.479	800.000	-0.046	0.174
-209.465	4.649	0.509	-0.371
-208.450	-128.315	0.491	-0.069
-207.436	-200.000	-0.018	-0.592
-206.421	255.047	0.156	-0.264
-205.406	800.000	-0.094	0.365
-204.392	300.609	-0.159	-0.291
-203.377	-51.913	0.565	0.260
-202.363	303.811	-0.267	-0.492
-201.348	56.028	0.616	-0.593
-200.333	-45.291	0.542	-0.267
-199.319	84.489	0.244	0.265
-198.304	-11.093	0.316	0.207
-197.290	-144.464	-0.630	-0.058
-196.275	-200.000	0.030	0.559
-195.260	122.984	-0.182	0.226
-194.246	51.308	-0.342	0.322
-193.231	-144.088	0.365	0.034
-192.217	-200.000	0.125	-0.566
-191.202	114.283	-0.215	0.260
-190.187	15.504	0.679	0.528
-189.173	-169.705	0.129	-0.005
-188.158	29.670	0.383	-0.323
-187.144	79.743	0.309	0.329
-186.129	-83.505	-0.029	-0.009
-185.114	-100.447	-0.620	0.152
-184.100	111.191	-0.208	0.248
-183.085	88.310	-0.623	0.685
-182.071	87.388	-0.573	0.628
-181.056	-20.047	0.392	-0.239
-180.042	140.593	0.370	-0.484
-179.027	453.233	-0.520	-1.140
-178.012	141.969	0.259	0.340
-176.998	87.742	-0.261	0.286
-175.983	-158.856	-0.377	-0.021
-174.969	-32.298	0.394	-0.218
-173.954	-95.418	0.209	0.056
-172.939	260.797	-0.341	0.585
-171.925	31.874	0.309	0.264
-170.910	23.043	0.302	-0.245
-169.896	-74.056	0.621	0.223
-168.881	800.000	-0.068	-0.213
-167.866	25.682	0.577	0.476
-166.852	79.210	0.259	0.275
-165.837	163.558	0.060	0.083
-164.823	-133.933	0.346	0.043
-163.808	-200.000	0.101	0.651
-162.793	28.140	0.545	0.455
-161.779	-71.804	-0.931	0.344
-160.764	-200.000	0.042	0.404
-159.750	-116.007	0.329	0.061
-158.735	114.786	0.239	-0.289
-157.720	381.176	-0.252	0.512
-156.706	54.879	-0.549	0.525
-155.691	45.358	0.799	-0.730
-154.677	-118.106	-0.243	0.043
-153.662	800.000	0.157	0.462
-152.647	-133.684	0.319	-0.039
-151.633	333.890	0.402	0.770
-150.618	34.737	0.494	-0.428
-149.604	-140.000	0.483	0.050
-148.589	139.086	0.232	0.302
-147.574	77.441	-0.117	-0.123
-146.560	-44.808	-0.266	0.131
-145.545	-200.000	-0.114	1.304
-144.531	8.671	-0.716	0.533
-143.516	-51.273	-0.276	-0.128
-142.502	-200.000	-0.109	0.474
-141.487	-200.000	0.096	0.563
-140.472	800.000	0.192	0.702
-139.458	767.139	0.132	0.355
-138.443	-200.000	0.054	-0.435
-137.429	-51.731	-0.348	0.161
-136.414	0.393	-0.426	-0.301
-135.399	-128.076	0.366	-0.052
-134.385	83.842	-0.409	-0.441
-133.370	13.582	-0.388	-0.298
-132.356	-149.997	-0.416	0.032
-131.341	-99.793	0.598	-0.148
-130.326	800.000	0.173	-0.558
-129.312	-97.110	-0.734	-0.190
-128.297	800.000	-0.190	-0.704
-127.283	4.209	0.512	-0.371
-126.268	-16.436	0.201	-0.126
-125.253	681.525	-0.148	-0.381
-124.239	800.000	-0.034	0.119
-123.224	800.000	-0.092	0.373
-122.210	-200.000	0.034	-0.274
-121.195	-60.715	-0.480	-0.201
