DTS Sentinel unit serial number:	SN413079Multiplexer serial number:	ORYXHardware model number:	OX4-SRSoftware version number:	ORYX F/W v4.00 Oryx Data Collector v3.7.2.0data status	okinstallation	princeton_trtdifferential loss correction	single-endedforward channel	channel 3reverse channel	N/Adate	2019/09/13time	15:52:35forward acquisition time	60.00reverse acquisition time	0.00gamma	496.2192k internal	0.2307k external	0.2307temperature offset calibration	1.0140default loss term (dB/km)	0.3790temperature slope calibration	1.0000multiplexer offset coefficient	1.0000multiplexer slope coefficient	1.0000fibre end	0.00T internal ref (°C)	34.62T ext. ref 1 (°C)	4.79T ext. ref 2 (°C)	30.19length (m)	temperature (°C)	Stokes	anti-Stokes-747.200	800.000	-0.037	0.160
-746.185	800.000	-0.052	0.220
-745.171	199.560	0.225	-0.350
-744.156	-12.227	0.184	0.122
-743.142	77.975	-0.176	0.191
-742.127	120.471	0.083	-0.105
-741.112	235.499	0.081	0.136
-740.098	-60.555	0.260	0.112
-739.083	272.589	-0.255	0.457
-738.069	-200.000	-0.002	0.217
-737.054	800.000	-0.109	0.440
-736.039	217.540	-0.127	0.205
-735.025	-45.182	0.341	-0.172
-734.010	800.000	0.067	-0.237
-732.996	-179.606	-0.337	-0.007
-731.981	-114.719	-0.180	-0.035
-730.966	751.219	0.127	-0.347
-729.952	-200.000	-0.025	-0.197
-728.937	-146.574	0.054	-0.005
-727.923	341.894	0.211	-0.419
-726.908	-73.235	0.071	-0.026
-725.894	40.195	0.101	-0.092
-724.879	-58.486	0.245	0.108
-723.864	-115.013	-0.338	-0.065
-722.850	-200.000	-0.023	0.212
-721.835	69.518	-0.161	-0.169
-720.821	-200.000	-0.038	-0.263
-719.806	-55.155	-0.351	-0.160
-718.791	342.135	-0.040	-0.080
-717.777	-145.601	-0.238	0.022
-716.762	-86.044	0.491	-0.154
-715.748	-167.547	-0.056	-0.002
-714.733	193.435	0.080	-0.123
-713.718	-37.046	-0.217	-0.118
-712.704	-35.943	-0.148	-0.081
-711.689	-65.444	0.230	0.094
-710.675	-174.427	-0.024	0.001
-709.660	248.493	-0.074	-0.127
-708.645	547.220	0.087	-0.211
-707.631	14.977	0.087	-0.069
-706.616	-135.407	0.183	0.022
-705.602	800.000	0.071	-0.233
-704.587	8.155	-0.286	-0.218
-703.572	800.000	0.069	-0.213
-702.558	-11.671	-0.240	0.160
-701.543	-72.136	-0.169	-0.064
-700.529	-64.004	0.091	-0.038
-699.514	11.840	0.107	0.083
-698.499	-47.524	-0.208	0.103
-697.485	-15.714	-0.172	0.111
-696.470	-102.667	0.169	-0.041
-695.456	-200.000	-0.005	-0.086
-694.441	-200.000	-0.006	-0.077
-693.426	-15.018	-0.116	-0.076
-692.412	-200.000	-0.028	0.181
-691.397	-114.428	0.219	0.043
-690.383	-12.895	-0.443	-0.293
-689.368	1.313	-0.201	0.146
-688.354	-200.000	-0.021	-0.374
-687.339	126.486	0.198	0.254
-686.324	800.000	0.041	-0.129
-685.310	-81.663	0.149	-0.050
-684.295	800.000	0.070	-0.223
-683.281	33.616	0.191	-0.169
-682.266	-61.062	0.435	-0.186
-681.251	800.000	0.070	-0.225
-680.237	-200.000	-0.026	-0.257
-679.222	-200.000	0.010	-0.127
-678.208	14.977	-0.090	-0.071
-677.193	48.761	-0.209	-0.199
-676.178	207.275	-0.114	0.181
-675.164	149.921	-0.164	-0.226
-674.149	-200.000	0.003	-0.514
-673.135	-200.000	-0.009	-0.153
-672.120	-82.785	-0.317	0.104
-671.105	74.432	-0.123	0.132
-670.091	30.742	-0.213	0.185
-669.076	295.589	0.151	0.280
-668.062	23.136	-0.297	-0.247
-667.047	-109.082	-0.174	0.037
-666.032	-200.000	-0.074	-0.379
-665.018	82.726	-0.205	-0.226
-664.003	-103.786	0.324	-0.077
-662.989	-71.989	-0.169	-0.064
-661.974	-200.000	-0.025	-0.176
-660.959	-200.000	-0.051	-0.245
-659.945	103.964	-0.183	0.218
-658.930	254.185	-0.277	-0.480
-657.916	-200.000	0.035	-0.229
-656.901	617.130	-0.062	0.158
-655.886	-19.237	0.077	0.049
-654.872	-132.642	-0.296	-0.038
-653.857	-87.561	-0.323	0.099
-652.843	-110.815	0.207	-0.043
-651.828	19.221	-0.221	0.180
-650.814	-88.733	0.211	0.064
-649.799	296.973	0.191	0.355
-648.784	382.065	-0.182	0.378
-647.770	-168.488	0.114	0.004
-646.755	1.103	-0.306	-0.222
-645.741	-23.709	-0.086	-0.052
-644.726	800.000	-0.044	-0.175
-643.711	-94.342	-0.196	-0.054
-642.697	549.551	0.094	-0.229
-641.682	-41.374	-0.160	-0.084
-640.668	69.530	-0.094	-0.098
-639.653	-200.000	0.056	-0.310
-638.638	-200.000	-0.023	-0.218
-637.624	-200.000	0.011	-0.066
-636.609	-89.075	-0.219	-0.066
-635.595	253.651	0.105	-0.181
-634.580	-92.855	0.082	0.023
-633.565	-93.215	-0.240	-0.068
-632.551	150.016	-0.164	-0.225
-631.536	-115.466	-0.256	-0.049
-630.522	800.000	0.062	0.178
-629.507	58.029	0.134	-0.132
-628.492	-129.469	0.197	-0.028
-627.478	-24.931	0.162	-0.097
-626.463	52.565	0.131	-0.127
-625.449	-29.017	0.177	-0.103
-624.434	70.514	-0.061	-0.064
-623.419	-85.184	-0.072	0.023
-622.405	-110.688	0.280	-0.058
-621.390	15.014	0.206	-0.164
-620.376	463.298	0.088	0.198
-619.361	-138.272	-0.267	-0.030
-618.346	43.366	0.163	0.151
-617.332	-6.768	0.249	0.171
-616.317	42.952	-0.173	0.159
-615.303	-0.595	0.157	0.113
-614.288	-15.248	-0.151	-0.098
-613.273	-200.000	0.060	0.425
-612.259	-165.961	0.277	0.012
-611.244	3.420	0.204	0.151
-610.230	-200.000	-0.000	-0.047
-609.215	-111.252	-0.189	0.039
-608.201	-25.611	-0.146	-0.087
-607.186	287.630	0.045	-0.083
-606.171	-98.572	-0.124	0.032
-605.157	344.474	-0.192	-0.381
-604.142	393.241	-0.095	0.199
-603.128	-139.006	-0.280	0.031
-602.113	-200.000	0.033	-0.248
-601.098	-200.000	-0.042	0.277
-600.084	-133.287	-0.192	-0.025
-599.069	347.492	0.043	0.085
-598.055	-200.000	0.053	-0.238
-597.040	-5.890	0.192	-0.133
-596.025	398.096	-0.150	-0.317
-595.011	259.179	0.171	-0.299
-593.996	-68.982	0.200	0.078
-592.982	311.928	-0.091	-0.173
-591.967	800.000	-0.066	0.232
-590.952	800.000	-0.109	-0.341
-589.938	48.659	-0.114	0.108
-588.923	-33.368	-0.168	-0.094
-587.909	-86.832	-0.384	-0.119
-586.894	-167.412	0.541	0.022
-585.879	-54.361	0.031	-0.014
-584.865	-200.000	-0.007	0.210
-583.850	-45.325	-0.121	0.060
-582.836	-60.503	0.163	0.070
-581.821	-170.173	-0.225	-0.008
-580.806	-106.175	0.139	0.031
-579.792	-200.000	0.051	0.367
-578.777	-200.000	-0.001	0.142
-577.763	14.655	-0.091	0.072
-576.748	-68.156	0.089	-0.035
-575.733	-200.000	0.009	-0.050
-574.719	-99.475	-0.152	-0.039
-573.704	-111.564	-0.296	-0.061
-572.690	-13.890	0.120	0.078
-571.675	-188.507	-0.050	-0.001
-570.661	-200.000	-0.011	0.294
-569.646	-42.334	0.238	-0.123
-568.631	-200.000	0.008	-0.082
-567.617	-102.413	0.161	0.039
-566.602	-200.000	0.015	0.095
-565.588	-174.647	0.337	-0.010
-564.573	34.473	-0.214	-0.188
-563.558	57.609	-0.032	-0.031
-562.544	-87.407	-0.184	-0.056
-561.529	23.228	-0.064	-0.053
-560.515	244.792	0.141	-0.239
-559.500	-54.873	0.161	0.073
-558.485	313.878	0.032	0.060
-557.471	107.266	0.209	-0.251
-556.456	-200.000	0.002	-0.042
-555.442	-67.851	0.139	0.055
-554.427	-55.902	0.336	-0.152
-553.412	123.828	-0.250	0.317
-552.398	53.962	-0.167	-0.162
-551.383	-114.097	0.217	-0.042
-550.369	800.000	0.079	-0.277
-549.354	-83.373	-0.214	-0.069
-548.339	-40.593	-0.072	0.038
-547.325	-57.516	-0.188	-0.083
-546.310	376.222	-0.139	0.285
-545.296	-104.370	-0.205	-0.048
-544.281	115.650	-0.139	0.171
-543.266	-85.544	0.540	0.170
-542.252	-200.000	0.051	-0.424
-541.237	-60.755	-0.039	0.017
-540.223	-22.609	0.210	-0.128
-539.208	-200.000	-0.034	-0.206
-538.193	-70.522	-0.195	0.075
-537.179	-137.412	-0.194	-0.022
-536.164	663.714	-0.041	-0.106
-535.150	800.000	0.030	-0.111
-534.135	800.000	0.034	0.109
-533.121	444.930	0.121	0.269
-532.106	-58.020	-0.210	0.092
-531.091	-200.000	-0.059	-0.335
-530.077	587.925	0.100	-0.247
-529.062	9.525	-0.306	0.233
-528.048	-72.976	-0.237	0.088
-527.033	119.724	0.200	-0.249
-526.018	-156.156	-0.081	0.005
-525.004	151.815	0.145	0.199
-523.989	-106.928	-0.025	-0.006
-522.975	580.400	-0.047	0.115
-521.960	-200.000	0.010	-0.167
-520.945	-49.588	0.215	0.103
-519.931	-117.930	-0.081	0.015
-518.916	2.930	0.146	-0.107
-517.902	800.000	-0.014	0.042
-516.887	-200.000	-0.009	0.069
-515.872	-37.464	0.233	0.125
-514.858	-200.000	0.031	-0.185
-513.843	-200.000	-0.002	0.220
-512.829	800.000	0.050	-0.184
-511.814	674.044	-0.135	0.354
-510.799	-45.187	-0.050	-0.025
-509.785	800.000	0.006	0.021
-508.770	156.971	0.147	0.204
-507.756	173.269	-0.089	0.129
-506.741	203.090	0.066	0.103
-505.726	-50.411	-0.114	-0.054
-504.712	-51.736	-0.164	0.077
-503.697	-49.513	0.316	0.151
-502.683	-200.000	-0.021	0.163
-501.668	377.607	0.042	0.086
-500.653	-52.830	0.391	-0.181
-499.639	0.502	-0.201	0.144
-498.624	-61.447	-0.144	0.061
-497.610	-37.987	0.080	0.043
-496.595	-133.036	-0.113	-0.014
-495.581	72.678	0.084	0.088
-494.566	-155.234	0.466	-0.031
-493.551	-119.989	-0.232	-0.040
-492.537	-100.423	-0.204	0.051
-491.522	227.545	-0.153	-0.251
-490.508	-37.957	-0.371	0.198
-489.493	547.442	0.101	-0.243
-488.478	163.199	0.141	-0.199
-487.464	409.000	-0.059	0.125
-486.449	31.992	0.218	-0.189
-485.435	-59.374	-0.175	0.076
-484.420	250.068	-0.111	-0.189
-483.405	99.804	-0.072	-0.084
-482.391	-150.388	0.122	0.009
-481.376	-68.723	0.113	-0.044
-480.362	-200.000	-0.006	-0.036
-479.347	-85.889	0.161	0.050
-478.332	-25.629	0.252	0.150
-477.318	-83.293	-0.061	0.020
-476.303	-47.401	0.192	0.094
-475.289	141.890	-0.172	-0.229
-474.274	637.900	0.084	-0.214
-473.259	-16.858	-0.195	-0.124
-472.245	-40.935	0.270	0.140
-471.230	-161.322	-0.196	0.010
-470.216	-130.831	-0.357	-0.048
-469.201	800.000	-0.049	-0.140
-468.186	-145.881	-0.185	-0.017
-467.172	-200.000	0.017	-0.310
-466.157	-200.000	0.034	-0.275
-465.143	385.389	0.142	-0.294
-464.128	-41.376	-0.175	-0.091
-463.113	261.846	-0.058	0.102
-462.099	-200.000	0.044	0.401
-461.084	230.649	-0.066	0.108
-460.070	-71.542	-0.129	0.048
-459.055	29.626	0.312	0.267
-458.040	-23.804	-0.220	-0.133
-457.026	83.034	0.179	-0.196
-456.011	164.278	0.041	-0.058
-454.997	-200.000	-0.011	-0.252
-453.982	-58.323	-0.364	0.159
-452.968	800.000	0.069	-0.273
-451.953	-48.690	-0.180	0.087
-450.938	-200.000	-0.004	0.031
-449.924	35.972	-0.216	0.191
-448.909	-65.546	-0.095	0.038
-447.895	-70.601	-0.278	-0.106
-446.880	-69.334	0.267	-0.103
-445.865	135.619	0.162	0.212
-444.851	49.867	0.097	0.092
-443.836	280.908	0.051	0.091
-442.822	-171.225	0.317	-0.011
-441.807	-77.190	0.180	0.063
-440.792	800.000	-0.066	0.196
-439.778	800.000	-0.030	0.099
-438.763	-200.000	0.039	-0.245
-437.749	179.606	-0.213	0.314
-436.734	49.912	0.199	0.188
-435.719	-200.000	0.037	0.325
-434.705	-32.433	0.209	-0.117
-433.690	-200.000	0.019	0.130
-432.676	110.191	0.253	0.305
-431.661	-19.650	-0.260	-0.161
-430.646	-86.161	0.131	-0.041
-429.632	172.158	-0.147	0.212
-428.617	-94.155	-0.201	0.055
-427.603	-200.000	-0.010	0.077
-426.588	800.000	-0.069	-0.260
-425.573	304.320	0.111	0.206
-424.559	-152.244	-0.166	-0.012
-423.544	-69.168	0.226	-0.087
-422.530	-135.047	-0.041	0.005
-421.515	-155.470	0.158	-0.010
-420.500	726.278	-0.044	-0.118
-419.486	-200.000	0.008	-0.271
-418.471	99.959	-0.096	0.112
-417.457	38.998	-0.141	-0.127
-416.442	754.814	-0.067	-0.182
-415.428	-73.267	0.186	-0.068
-414.413	189.965	0.237	0.357
-413.398	-200.000	0.035	0.185
-412.384	-40.382	-0.314	0.164
-411.369	-125.530	0.200	-0.030
-410.355	-48.997	-0.097	-0.047
-409.340	-200.000	0.032	0.275
-408.325	-82.768	-0.216	0.070
-407.311	192.715	-0.054	-0.082
-406.296	-200.000	-0.035	0.396
-405.282	-160.340	-0.285	0.015
-404.267	-60.912	0.347	-0.147
-403.252	237.601	0.094	0.156
-402.238	800.000	-0.078	-0.237
-401.223	-200.000	-0.013	-0.142
-400.209	388.829	0.225	-0.468
-399.194	-200.000	0.254	-0.001
-398.179	-40.872	0.446	-0.231
-397.165	209.566	0.219	0.344
-396.150	-65.553	0.018	0.007
-395.136	654.427	-0.034	0.087
-394.121	167.115	0.158	-0.225
-393.106	21.067	-0.124	0.101
-392.092	291.917	0.167	-0.305
-391.077	45.833	0.165	-0.153
-390.063	-200.000	0.049	-0.268
-389.048	-68.151	0.194	-0.076
-388.033	232.025	-0.065	0.107
-387.019	-153.883	0.233	0.016
-386.004	-69.617	-0.127	0.049
-384.990	-130.749	-0.346	-0.047
-383.975	-44.542	-0.214	-0.107
-382.960	18.635	0.090	-0.072
-381.946	750.008	-0.058	-0.158
-380.931	-200.000	-0.018	0.123
-379.917	-54.499	-0.201	0.091
-378.902	-200.000	-0.005	0.059
-377.888	-90.281	-0.180	0.052
-376.873	43.851	-0.021	-0.020
-375.858	143.583	-0.219	-0.292
-374.844	-115.868	0.147	0.028
-373.829	356.273	0.113	-0.225
-372.815	-49.389	-0.336	-0.161
-371.800	12.901	-0.092	-0.071
-370.785	-23.215	-0.274	-0.165
-369.771	254.756	-0.047	0.080
-368.756	-200.000	0.028	-0.189
-367.742	800.000	-0.107	0.324
-366.727	76.840	-0.058	0.061
-365.712	-172.276	0.288	-0.009
-364.698	-92.557	-0.163	-0.046
-363.683	132.883	0.157	-0.203
-362.669	-73.909	0.112	-0.041
-361.654	-134.645	-0.087	-0.011
-360.639	-109.417	-0.273	0.058
-359.625	800.000	-0.092	0.312
-358.610	-73.207	-0.150	-0.055
-357.596	-156.399	-0.258	0.016
-356.581	-200.000	-0.017	-0.125
-355.566	601.377	0.043	-0.107
-354.552	-112.245	0.196	0.039
-353.537	234.204	-0.222	0.366
-352.523	800.000	-0.036	0.125
-351.508	236.464	0.197	-0.327
-350.493	56.866	0.142	-0.138
-349.479	-200.000	0.013	0.063
-348.464	156.070	-0.158	-0.218
-347.450	-45.561	0.131	0.065
-346.435	-200.000	0.013	-0.098
-345.420	-127.711	0.203	0.029
-344.406	24.412	-0.226	0.187
-343.391	-200.000	-0.018	0.082
-342.377	-200.000	-0.010	0.060
-341.362	-114.393	-0.385	-0.074
-340.348	-57.381	-0.081	0.036
-339.333	119.704	0.131	0.163
-338.318	-77.010	0.282	0.099
-337.304	-82.902	-0.244	-0.079
-336.289	-49.469	0.288	-0.137
-335.275	-36.773	-0.121	0.065
-334.260	360.116	-0.061	-0.123
-333.245	-105.022	0.157	0.036
-332.231	800.000	-0.122	-0.344
-331.216	651.915	0.093	0.239
-330.202	800.000	-0.079	0.222
-329.187	800.000	0.020	-0.065
-328.172	107.309	0.196	0.234
-327.158	-200.000	-0.021	0.206
-326.143	800.000	-0.034	-0.112
-325.129	84.107	0.091	-0.100
-324.114	-46.865	0.287	-0.140
-323.099	61.605	-0.254	0.253
-322.085	-200.000	0.067	0.440
-321.070	59.128	-0.189	0.186
-320.056	-147.288	-0.167	0.014
-319.041	154.046	-0.046	-0.063
-318.026	37.118	0.306	-0.271
-317.012	-184.853	-0.124	-0.002
-315.997	11.204	0.136	0.104
-314.983	63.501	0.233	-0.234
-313.968	-200.000	-0.038	0.178
-312.953	-129.365	0.265	-0.037
-311.939	179.957	0.273	0.400
-310.924	800.000	-0.085	0.315
-309.910	371.337	-0.021	-0.043
-308.895	-73.958	0.089	0.032
-307.880	97.960	-0.278	-0.320
-306.866	-86.772	0.460	0.140
-305.851	-46.028	0.226	-0.111
-304.837	649.608	0.057	0.145
-303.822	-51.368	-0.281	-0.131
-302.807	69.007	0.202	0.208
-301.793	-73.372	0.327	-0.119
-300.778	-13.154	0.151	0.098
-299.764	-83.937	-0.216	-0.069
-298.749	139.128	-0.178	-0.234
-297.735	-60.884	0.164	-0.069
-296.720	800.000	-0.153	-0.452
-295.705	800.000	0.079	0.271
-294.691	-160.793	0.109	0.006
-293.676	800.000	-0.021	0.079
-292.662	-200.000	0.041	0.188
-291.647	173.666	0.088	-0.127
-290.632	150.368	-0.140	0.190
-289.618	522.657	0.073	-0.171
-288.603	-200.000	-0.009	-0.117
-287.589	-200.000	-0.004	0.047
-286.574	-200.000	-0.018	-0.235
-285.559	-105.620	-0.163	-0.037
-284.545	-23.169	-0.268	0.161
-283.530	-200.000	0.012	-0.075
-282.516	-200.000	-0.046	0.226
-281.501	42.976	0.332	0.302
-280.486	99.238	0.190	0.220
-279.472	800.000	-0.017	0.063
-278.457	139.846	0.100	-0.131
-277.443	277.049	0.074	-0.131
-276.428	800.000	-0.051	0.179
-275.413	301.411	0.116	-0.213
-274.399	0.867	0.114	0.082
-273.384	246.674	-0.158	0.266
-272.370	-110.415	0.281	-0.058
-271.355	209.460	-0.216	-0.339
-270.340	-30.490	-0.121	-0.069
-269.326	340.438	0.053	-0.103
-268.311	-98.211	0.191	0.049
-267.297	158.700	0.178	-0.247
-266.282	42.466	0.111	0.101
-265.267	-18.466	0.074	0.046
-264.253	-200.000	-0.035	0.206
-263.238	-90.940	-0.156	0.045
-262.224	-70.645	0.207	-0.078
-261.209	-126.943	0.379	0.056
-260.195	84.722	-0.204	-0.223
-259.180	-200.000	-0.005	0.040
-258.165	-31.643	0.084	0.047
-257.151	315.250	0.169	-0.317
-256.136	-157.413	0.270	-0.016
-255.122	37.834	-0.028	0.025
-254.107	140.096	0.238	-0.313
-253.092	-193.577	-0.307	0.003
-252.078	18.621	-0.232	-0.185
-251.063	81.906	-0.206	0.223
-250.049	226.867	-0.092	-0.148
-249.034	-72.179	0.254	-0.094
-248.019	-2.334	-0.038	-0.026
-247.005	206.820	0.077	0.119
-245.990	800.000	0.057	0.207
-244.976	-200.000	-0.043	0.339
-243.961	-129.724	-0.308	-0.042
-242.946	14.564	0.027	-0.021
-241.932	729.061	0.019	0.051
-240.917	800.000	-0.045	0.140
-239.903	-200.000	-0.007	-0.213
-238.888	7.392	0.057	0.042
-237.873	-120.264	-0.091	-0.015
-236.859	800.000	0.020	-0.059
-235.844	-4.671	0.290	-0.199
-234.830	15.435	-0.149	-0.116
-233.815	-91.307	0.109	0.031
-232.800	-92.944	0.168	-0.047
-231.786	-28.260	0.247	0.142
-230.771	-127.957	-0.191	-0.027
-229.757	27.058	-0.233	0.195
-228.742	79.908	0.184	0.197
-227.727	-200.000	-0.006	0.027
-226.713	53.039	0.036	0.034
-225.698	40.742	0.212	0.191
-224.684	-104.413	0.155	0.036
-223.669	800.000	0.055	-0.154
-222.655	-68.625	-0.212	-0.082
-221.640	-167.487	-0.306	-0.012
-220.625	800.000	-0.069	-0.282
-219.611	-71.218	-0.241	0.090
-218.596	-200.000	0.062	-0.317
-217.582	570.282	0.116	-0.281
-216.567	176.859	-0.126	0.182
-215.552	288.623	0.187	0.338
-214.538	800.000	-0.109	-0.330
-213.523	-36.022	-0.144	-0.078
-212.509	-161.657	-0.205	-0.010
-211.494	-123.061	-0.046	-0.007
-210.479	-76.281	0.169	-0.059
-209.465	-200.000	-0.023	0.226
-208.450	-200.000	-0.004	-0.086
-207.436	-59.562	0.215	-0.092
-206.421	-142.162	0.267	0.026
-205.406	343.335	-0.147	0.286
-204.392	-200.000	0.013	0.120
-203.377	52.260	-0.183	-0.174
-202.363	-200.000	0.036	0.209
-201.348	-200.000	-0.016	0.350
-200.333	547.850	-0.098	-0.233
-199.319	303.646	-0.147	-0.271
-198.304	144.026	0.156	-0.207
-197.290	-200.000	0.028	-0.329
-196.275	-43.515	-0.223	0.112
-195.260	-200.000	-0.055	0.318
-194.246	-200.000	-0.017	0.327
-193.231	-58.866	0.266	0.114
-192.217	-13.920	-0.190	-0.122
-191.202	-36.922	-0.023	-0.012
-190.187	-174.587	0.242	-0.007
-189.173	32.846	-0.324	-0.279
-188.158	-16.277	0.165	-0.104
-187.144	-200.000	0.013	0.133
-186.129	-200.000	0.004	-0.164
-185.114	218.558	-0.160	0.255
-184.100	-200.000	0.061	0.458
-183.085	-2.305	-0.290	0.202
-182.071	800.000	-0.073	0.248
-181.056	326.232	0.101	-0.192
-180.042	37.708	0.064	-0.057
-179.027	-27.343	0.095	0.055
-178.012	-117.266	0.188	-0.034
-176.998	260.498	-0.095	-0.163
-175.983	-114.190	-0.205	-0.039
-174.969	33.902	0.134	0.116
-173.954	-21.367	-0.252	0.153
-172.939	46.405	-0.177	0.163
-171.925	-200.000	-0.100	-0.000
-170.910	-200.000	0.064	0.280
-169.896	-91.581	0.292	-0.083
-168.881	-62.861	-0.182	0.075
-167.866	-86.158	0.167	-0.051
-166.852	161.880	-0.067	-0.094
-165.837	-200.000	-0.043	0.403
-164.823	800.000	-0.127	0.421
-163.808	172.044	-0.288	0.411
-162.793	-48.721	0.162	-0.077
-161.779	-200.000	-0.023	-0.291
-160.764	70.761	-0.392	0.403
-159.750	-200.000	0.023	-0.307
-158.735	-60.099	-0.191	-0.081
-157.720	-66.117	-0.188	-0.075
-156.706	30.887	-0.166	0.141
-155.691	359.121	-0.080	0.160
-154.677	-125.323	0.332	-0.050
-153.662	16.257	-0.104	-0.082
-152.647	800.000	0.044	0.140
-151.633	-200.000	-0.010	-0.152
-150.618	-114.205	0.107	0.020
-149.604	45.126	-0.291	-0.267
-148.589	282.860	0.221	-0.394
-147.574	-200.000	-0.061	0.413
-146.560	52.979	0.267	0.254
-145.545	-92.437	0.489	-0.137
-144.531	25.405	-0.172	0.142
-143.516	23.462	-0.266	0.217
-142.502	100.350	0.131	-0.152
-141.487	387.761	0.106	-0.218
-140.472	-200.000	0.073	0.377
-139.458	0.442	0.401	0.284
-138.443	249.599	0.163	0.275
-137.429	800.000	-0.128	0.379
-136.414	-57.017	0.068	0.030
-135.399	-49.989	0.146	0.069
-134.385	21.503	-0.240	0.194
-133.370	170.163	0.131	0.186
-132.356	296.473	-0.052	-0.094
-131.341	-103.993	0.253	-0.059
-130.326	-200.000	0.032	-0.171
-129.312	-53.926	-0.085	-0.038
-128.297	-23.695	0.218	-0.130
-127.283	155.584	-0.056	0.076
-126.268	143.805	-0.042	-0.055
-125.253	-200.000	-0.006	-0.472
-124.239	-200.000	0.014	-0.063
-123.224	-54.488	0.081	-0.037
