DTS Sentinel unit serial number:	SN413079Multiplexer serial number:	ORYXHardware model number:	OX4-SRSoftware version number:	ORYX F/W v4.00 Oryx Data Collector v3.7.2.0data status	okinstallation	princeton_trtdifferential loss correction	single-endedforward channel	channel 3reverse channel	N/Adate	2019/09/12time	15:18:11forward acquisition time	60.00reverse acquisition time	0.00gamma	496.2192k internal	0.2292k external	0.2292temperature offset calibration	1.0054default loss term (dB/km)	0.3790temperature slope calibration	1.0000multiplexer offset coefficient	1.0000multiplexer slope coefficient	1.0000fibre end	0.00T internal ref (°C)	40.78T ext. ref 1 (°C)	2.40T ext. ref 2 (°C)	37.47length (m)	temperature (°C)	Stokes	anti-Stokes-747.200	315.485	-0.117	-0.227
-746.185	-56.815	0.335	-0.152
-745.171	-118.472	0.084	-0.015
-744.156	353.269	0.110	0.224
-743.142	-81.698	0.360	-0.121
-742.127	303.253	0.073	0.138
-741.112	-200.000	0.246	0.001
-740.098	800.000	0.101	0.374
-739.083	800.000	-0.117	-0.413
-738.069	785.795	-0.040	0.111
-737.054	-79.671	-0.313	-0.108
-736.039	2.222	-0.193	-0.143
-735.025	-19.986	0.266	-0.168
-734.010	800.000	-0.054	-0.227
-732.996	217.932	-0.079	-0.128
-731.981	97.741	-0.062	-0.073
-730.966	586.711	-0.032	-0.081
-729.952	376.182	0.099	-0.206
-728.937	448.090	-0.045	-0.102
-727.923	-26.604	0.176	-0.106
-726.908	224.153	0.127	-0.210
-725.894	621.135	0.066	0.170
-724.879	800.000	0.070	-0.286
-723.864	58.663	-0.385	0.386
-722.850	-200.000	-0.013	0.066
-721.835	-167.442	-0.300	-0.012
-720.821	-18.465	0.347	-0.221
-719.806	-68.047	-0.100	-0.040
-718.791	-112.737	0.140	-0.028
-717.777	-131.475	-0.128	-0.017
-716.762	-33.812	0.270	0.152
-715.748	800.000	0.066	-0.215
-714.733	154.276	-0.075	0.106
-713.718	-200.000	0.031	-0.354
-712.704	-198.699	0.315	-0.002
-711.689	177.411	-0.012	-0.017
-710.675	-146.321	-0.326	0.029
-709.660	105.237	0.149	-0.179
-708.645	9.155	0.270	0.208
-707.631	800.000	-0.025	0.109
-706.616	-40.610	0.272	0.144
-705.602	-200.000	0.015	0.179
-704.587	-106.637	-0.180	0.041
-703.572	104.207	-0.156	0.187
-702.558	-81.289	-0.323	0.109
-701.543	-200.000	-0.002	-0.052
-700.529	-200.000	-0.009	0.192
-699.514	-200.000	-0.057	0.309
-698.499	200.312	0.172	-0.270
-697.485	257.555	0.103	-0.180
-696.470	-137.611	0.286	-0.033
-695.456	137.730	0.065	0.087
-694.441	248.459	0.038	0.066
-693.426	-49.084	-0.195	-0.096
-692.412	34.386	-0.211	0.188
-691.397	-183.280	-0.108	-0.002
-690.383	16.562	-0.172	-0.139
-689.368	223.788	-0.110	-0.181
-688.354	303.315	0.150	-0.284
-687.339	126.596	-0.249	0.321
-686.324	110.120	0.112	0.138
-685.310	33.930	0.068	0.061
-684.295	-67.140	-0.115	0.046
-683.281	220.739	-0.214	-0.351
-682.266	-200.000	-0.036	-0.283
-681.251	800.000	-0.045	-0.156
-680.237	65.785	0.156	-0.161
-679.222	-11.947	-0.281	0.188
-678.208	310.127	0.034	-0.065
-677.193	-200.000	0.000	-0.088
-676.178	-200.000	-0.073	-0.491
-675.164	80.776	0.164	-0.180
-674.149	-200.000	0.019	-0.132
-673.135	-200.000	-0.015	0.119
-672.120	-103.383	-0.053	-0.013
-671.105	226.187	0.078	-0.130
-670.091	-13.251	0.156	0.103
-669.076	-80.395	0.088	-0.030
-668.062	-200.000	0.083	-0.388
-667.047	-44.044	-0.142	0.073
-666.032	311.513	0.086	-0.165
-665.018	-113.998	0.138	0.027
-664.003	800.000	0.060	0.232
-662.989	-34.153	0.181	0.102
-661.974	-200.000	0.007	-0.031
-660.959	-189.029	-0.387	-0.005
-659.945	72.698	-0.186	0.198
-658.930	-69.257	0.277	-0.109
-657.916	-200.000	-0.372	0.001
-656.901	257.717	-0.164	0.288
-655.886	-129.412	0.268	0.038
-654.872	-200.000	-0.025	0.205
-653.857	-200.000	0.037	-0.172
-652.843	-200.000	-0.005	-0.350
-651.828	96.527	0.057	-0.067
-650.814	-139.750	0.212	0.023
-649.799	-48.175	-0.485	-0.239
-648.784	478.483	0.083	0.191
-647.770	800.000	0.016	-0.048
-646.755	-85.909	-0.356	0.112
-645.741	-15.608	-0.191	0.125
-644.726	800.000	0.044	-0.134
-643.711	800.000	-0.113	-0.356
-642.697	-116.771	0.367	-0.069
-641.682	104.973	0.250	-0.301
-640.668	800.000	0.019	0.054
-639.653	-156.415	-0.112	-0.007
-638.638	-8.369	-0.198	0.135
-637.624	213.850	0.138	-0.222
-636.609	-200.000	0.004	-0.295
-635.595	27.291	0.115	0.099
-634.580	-135.484	-0.465	0.056
-633.565	-134.721	-0.284	-0.035
-632.551	131.347	0.041	-0.054
-631.536	100.094	0.134	-0.158
-630.522	454.494	-0.100	0.227
-629.507	800.000	0.138	-0.481
-628.492	54.578	0.116	-0.114
-627.478	-3.132	-0.113	-0.080
-626.463	-105.322	0.271	0.063
-625.449	41.358	-0.135	0.124
-624.434	-200.000	-0.002	-0.368
-623.419	688.247	-0.113	-0.302
-622.405	6.778	0.195	0.148
-621.390	-46.859	-0.297	-0.148
-620.376	-66.207	0.301	0.122
-619.361	398.966	-0.114	-0.243
-618.346	-145.002	-0.212	0.020
-617.332	-23.443	-0.100	-0.061
-616.317	-200.000	0.011	-0.295
-615.303	29.567	-0.065	-0.057
-614.288	69.673	0.148	0.155
-613.273	-148.920	0.206	0.017
-612.259	-77.404	-0.288	0.102
-611.244	-77.604	0.252	-0.089
-610.230	-43.214	0.279	-0.144
-609.215	-200.000	-0.025	-0.217
-608.201	800.000	0.049	-0.173
-607.186	-200.000	-0.014	-0.090
-606.171	46.582	0.014	0.013
-605.157	-21.026	-0.096	-0.060
-604.142	-50.367	0.340	-0.163
-603.128	-82.493	0.072	-0.024
-602.113	-98.396	-0.088	-0.023
-601.098	-66.185	-0.113	0.046
-600.084	-200.000	0.029	0.205
-599.069	-108.726	-0.288	-0.063
-598.055	16.387	-0.046	0.037
-597.040	-200.000	-0.026	0.218
-596.025	154.082	-0.147	-0.206
-595.011	800.000	-0.063	-0.248
-593.996	-161.568	0.085	0.004
-592.982	548.010	-0.086	0.209
-591.967	791.878	0.116	-0.324
-590.952	151.697	-0.124	0.172
-589.938	571.432	0.154	0.382
-588.923	124.556	-0.158	-0.203
-587.909	-200.000	-0.010	-0.130
-586.894	-200.000	-0.002	-0.047
-585.879	-86.208	-0.248	-0.078
-584.865	-200.000	-0.014	0.327
-583.850	-200.000	-0.019	-0.145
-582.836	-200.000	0.043	0.202
-581.821	289.692	-0.171	0.316
-580.806	670.892	-0.132	-0.347
-579.792	800.000	-0.086	-0.283
-578.777	800.000	-0.026	-0.079
-577.763	343.652	0.085	0.168
-576.748	-200.000	0.012	0.225
-575.733	800.000	-0.043	-0.127
-574.719	800.000	0.110	-0.330
-573.704	-6.647	0.339	-0.235
-572.690	-111.013	0.260	0.054
-571.675	-116.872	-0.168	-0.031
-570.661	5.447	0.199	0.150
-569.646	-94.315	-0.338	0.094
-568.631	168.481	0.102	-0.148
-567.617	-24.481	-0.145	-0.088
-566.602	-84.935	-0.400	-0.128
-565.588	-21.512	-0.263	-0.163
-564.573	143.482	-0.219	0.296
-563.558	370.492	0.052	0.107
-562.544	-200.000	-0.037	-0.387
-561.529	146.114	-0.129	0.176
-560.515	-200.000	-0.000	0.117
-559.500	-62.261	0.363	0.153
-558.485	267.974	-0.191	-0.340
-557.471	-73.142	0.110	0.041
-556.456	235.330	-0.044	0.074
-555.442	-131.583	0.319	-0.043
-554.427	68.120	0.251	-0.261
-553.412	-98.577	0.118	0.031
-552.398	-90.963	-0.297	-0.087
-551.383	-174.685	-0.170	0.005
-550.369	96.846	-0.136	0.159
-549.354	-52.170	-0.197	-0.093
-548.339	800.000	0.023	0.069
-547.325	-200.000	-0.011	-0.189
-546.310	-181.007	0.299	-0.006
-545.296	-200.000	0.007	-0.126
-544.281	-89.104	0.332	0.100
-543.266	128.701	-0.087	0.112
-542.252	-13.675	0.198	0.130
-541.237	182.096	-0.150	-0.224
-540.223	-52.606	-0.169	-0.079
-539.208	-200.000	-0.003	0.059
-538.193	45.333	0.257	0.240
-537.179	54.362	0.159	0.156
-536.164	530.027	0.134	-0.321
-535.150	-63.737	0.513	0.214
-534.135	-4.883	0.166	0.116
-533.121	-29.438	0.123	-0.072
-532.106	-80.306	-0.028	0.010
-531.091	-0.224	0.215	0.155
-530.077	-200.000	0.028	0.190
-529.062	-163.092	-0.233	0.011
-528.048	153.874	-0.236	-0.329
-527.033	417.174	0.057	0.123
-526.018	800.000	0.109	-0.347
-525.004	-200.000	-0.010	0.074
-523.989	24.974	0.157	-0.132
-522.975	-103.148	-0.201	0.048
-521.960	-200.000	-0.027	-0.214
-520.945	103.372	0.051	0.061
-519.931	204.639	-0.112	0.177
-518.916	-42.076	0.214	-0.111
-517.902	-36.121	-0.053	-0.029
-516.887	262.098	-0.113	0.199
-515.872	9.938	0.102	0.078
-514.858	-200.000	-0.015	0.070
-513.843	-94.913	-0.299	0.082
-512.829	800.000	-0.034	0.140
-511.814	655.323	-0.083	0.217
-510.799	-29.273	-0.206	0.119
-509.785	-20.792	-0.394	0.245
-508.770	-200.000	0.069	0.317
-507.756	800.000	0.056	0.161
-506.741	-200.000	0.046	-0.326
-505.726	-152.283	0.174	0.013
-504.712	-91.755	-0.132	0.038
-503.697	125.853	0.103	0.132
-502.683	13.151	0.084	0.066
-501.668	-140.606	-0.146	-0.015
-500.653	349.909	-0.113	-0.226
-499.639	127.193	0.084	-0.108
-498.624	-122.806	0.387	0.063
-497.610	599.094	-0.108	0.272
-496.595	457.209	0.115	0.259
-495.581	502.959	-0.072	-0.168
-494.566	92.210	-0.182	-0.208
-493.551	-70.057	0.385	-0.148
-492.537	79.019	-0.159	-0.172
-491.522	-131.361	0.118	-0.016
-490.508	234.624	0.031	0.051
-489.493	-36.010	-0.186	0.102
-488.478	256.288	0.059	0.102
-487.464	-15.981	-0.352	-0.227
-486.449	361.450	0.043	-0.087
-485.435	76.362	-0.109	0.117
-484.420	800.000	-0.105	0.386
-483.405	-200.000	0.007	0.166
-482.391	-118.592	-0.246	0.044
-481.376	-194.930	0.131	0.001
-480.362	312.426	0.021	0.041
-479.347	-188.261	0.152	-0.002
-478.332	40.145	-0.200	-0.182
-477.318	-129.826	-0.133	-0.019
-476.303	-200.000	-0.031	-0.233
-475.289	92.004	0.257	0.293
-474.274	-200.000	-0.000	0.354
-473.259	-200.000	0.015	0.094
-472.245	308.495	0.031	0.059
-471.230	114.341	-0.130	-0.160
-470.216	800.000	0.010	-0.035
-469.201	-200.000	0.013	0.090
-468.186	-65.940	0.077	0.031
-467.172	-118.925	0.449	-0.080
-466.157	-200.000	0.019	0.352
-465.143	41.476	0.032	0.029
-464.128	170.809	-0.136	-0.197
-463.113	274.697	0.039	-0.070
-462.099	-45.209	-0.238	-0.120
-461.084	-135.958	0.195	0.023
-460.070	-106.623	-0.250	-0.056
-459.055	-200.000	0.006	-0.060
-458.040	62.716	-0.062	0.063
-457.026	-200.000	0.025	-0.233
-456.011	800.000	-0.069	-0.283
-454.997	82.999	-0.191	0.210
-453.982	800.000	0.071	0.199
-452.968	800.000	-0.028	0.089
-451.953	140.748	-0.121	0.161
-450.938	274.448	0.127	0.227
-449.924	66.803	-0.225	-0.231
-448.909	97.719	0.256	0.297
-447.895	-200.000	-0.028	0.243
-446.880	114.675	-0.307	0.379
-445.865	-124.575	0.255	-0.040
-444.851	414.213	-0.062	0.134
-443.836	800.000	-0.078	-0.300
-442.822	800.000	0.035	0.140
-441.807	-21.981	0.190	0.117
-440.792	-200.000	0.020	-0.255
-439.778	-200.000	0.008	-0.187
-438.763	-200.000	0.032	-0.200
-437.749	128.012	0.275	0.354
-436.734	109.120	0.058	-0.070
-435.719	-200.000	0.056	0.417
-434.705	-200.000	0.023	0.161
-433.690	-200.000	0.010	-0.052
-432.676	-200.000	0.018	-0.105
-431.661	257.554	-0.058	-0.102
-430.646	415.793	0.010	-0.022
-429.632	-165.760	0.163	0.007
-428.617	20.498	-0.266	0.217
-427.603	-171.098	0.303	-0.010
-426.588	-200.000	-0.026	0.142
-425.573	-200.000	0.029	-0.239
-424.559	-139.409	0.058	-0.006
-423.544	-116.693	0.245	0.046
-422.530	-200.000	-0.025	0.221
-421.515	103.031	0.089	-0.105
-420.500	-127.739	0.160	-0.023
-419.486	18.456	-0.367	0.296
-418.471	152.134	-0.239	-0.330
-417.457	-200.000	0.029	-0.172
-416.442	-200.000	-0.051	-0.243
-415.428	-200.000	0.010	-0.490
-414.413	-164.171	0.064	-0.003
-413.398	-182.405	-0.349	0.007
-412.384	-17.206	-0.091	0.058
-411.369	-200.000	0.009	0.199
-410.355	-13.063	-0.110	-0.072
-409.340	18.594	-0.035	0.028
-408.325	-200.000	0.037	0.183
-407.311	-9.147	0.435	-0.294
-406.296	31.250	0.033	0.029
-405.282	-132.168	-0.040	0.005
-404.267	800.000	-0.022	-0.068
-403.252	-106.020	-0.110	-0.025
-402.238	15.409	-0.185	0.146
-401.223	-200.000	-0.041	0.346
-400.209	-82.716	0.248	0.081
-399.194	800.000	0.047	-0.204
-398.179	396.228	0.072	0.152
-397.165	317.168	0.112	0.214
-396.150	-10.982	0.187	0.125
-395.136	558.147	0.044	-0.106
-394.121	197.344	-0.107	-0.165
-393.106	13.542	-0.186	-0.145
-392.092	-23.038	-0.478	-0.291
-391.077	-136.203	0.275	0.032
-390.063	-200.000	0.060	-0.335
-389.048	91.516	0.290	-0.328
-388.033	114.754	-0.124	0.153
-387.019	295.011	-0.093	-0.172
-386.004	53.115	-0.110	-0.106
-384.990	-98.159	0.161	-0.042
-383.975	-71.755	-0.331	0.125
-382.960	424.105	-0.135	-0.294
-381.946	-200.000	0.052	-0.416
-380.931	-200.000	-0.024	0.174
-379.917	-35.361	-0.209	0.114
-378.902	-200.000	0.037	0.438
-377.888	174.351	0.240	0.350
-376.873	-150.610	-0.219	-0.017
-375.858	13.961	0.110	0.086
-374.844	139.500	0.298	-0.395
-373.829	800.000	-0.051	-0.192
-372.815	6.330	0.270	-0.202
-371.800	-67.650	0.125	-0.050
-370.785	422.628	0.023	0.050
-369.771	590.975	0.103	0.257
-368.756	274.093	0.056	-0.100
-367.742	-120.105	0.072	0.012
-366.727	-9.271	0.151	-0.102
-365.712	349.151	0.161	-0.320
-364.698	-200.000	-0.008	0.414
-363.683	115.862	0.119	-0.147
-362.669	-59.278	-0.299	-0.130
-361.654	343.226	-0.162	0.320
-360.639	150.788	-0.186	0.255
-359.625	-200.000	0.101	-0.469
-358.610	234.658	-0.111	-0.184
-357.596	-94.872	0.123	0.034
-356.581	15.699	-0.304	0.241
-355.566	-7.103	-0.349	0.239
-354.552	-200.000	0.015	-0.260
-353.537	-77.532	-0.194	-0.068
-352.523	482.326	-0.059	0.136
-351.508	-200.000	-0.065	0.289
-350.493	-159.356	0.124	0.007
-349.479	391.651	-0.054	-0.112
-348.464	-132.226	-0.174	0.023
-347.450	97.556	0.070	0.081
-346.435	39.750	-0.114	-0.103
-345.420	296.370	0.136	0.250
-344.406	427.401	0.068	0.148
-343.391	194.418	0.135	-0.206
-342.377	412.812	0.028	0.060
-341.362	-148.740	-0.298	-0.024
-340.348	800.000	0.075	0.297
-339.333	-200.000	-0.021	0.334
-338.318	-42.674	0.218	0.112
-337.304	-149.784	-0.377	0.030
-336.289	-200.000	0.002	-0.140
-335.275	106.933	0.114	0.136
-334.260	131.757	-0.196	0.254
-333.245	-200.000	-0.031	-0.206
-332.231	-50.991	-0.187	-0.089
-331.216	-12.545	-0.115	-0.076
-330.202	94.743	0.144	0.165
-329.187	800.000	-0.041	-0.123
-328.172	-73.792	0.077	-0.028
-327.158	728.549	-0.104	0.280
-326.143	-90.125	0.215	0.063
-325.129	219.206	0.074	0.119
-324.114	19.011	0.138	-0.112
-323.099	-143.413	0.123	0.012
-322.085	124.174	-0.226	-0.285
-321.070	-82.307	-0.558	0.183
-320.056	800.000	-0.078	-0.238
-319.041	-184.194	-0.052	0.001
-318.026	34.992	-0.266	0.234
-317.012	-200.000	0.051	-0.254
-315.997	-200.000	0.067	0.369
-314.983	302.830	0.223	0.415
-313.968	-177.674	0.529	0.013
-312.953	800.000	-0.055	0.234
-311.939	6.187	0.223	-0.166
-310.924	-7.676	0.166	-0.113
-309.910	-200.000	-0.028	-0.162
-308.895	-200.000	-0.011	-0.200
-307.880	152.558	0.040	0.054
-306.866	-99.123	0.214	0.055
-305.851	367.235	0.148	0.301
-304.837	800.000	-0.032	0.140
-303.822	-85.791	0.285	-0.089
-302.807	5.399	0.193	0.143
-301.793	-103.243	-0.134	-0.032
-300.778	800.000	-0.045	-0.189
-299.764	201.386	0.089	0.139
-298.749	209.730	-0.139	0.219
-297.735	-16.098	0.206	-0.132
-296.720	49.027	-0.219	-0.207
-295.705	-130.751	0.254	-0.034
-294.691	239.720	0.100	-0.167
-293.676	43.121	0.257	-0.236
-292.662	196.751	0.142	-0.217
-291.647	19.763	-0.143	0.116
-290.632	-126.537	0.263	-0.039
-289.618	117.654	-0.087	0.108
-288.603	-96.412	0.084	-0.022
-287.589	500.430	-0.068	0.159
-286.574	-200.000	-0.038	-0.324
-285.559	67.273	0.311	-0.319
-284.545	-77.063	0.268	-0.094
-283.530	32.227	0.082	-0.071
-282.516	-200.000	0.024	-0.271
-281.501	76.020	0.129	0.137
-280.486	-200.000	0.056	0.266
-279.472	13.468	-0.420	-0.327
-278.457	41.402	0.124	-0.112
-277.443	-200.000	-0.037	-0.261
-276.428	-155.151	-0.251	-0.016
-275.413	-73.468	0.209	0.077
-274.399	48.248	0.242	0.228
-273.384	-175.135	0.304	-0.008
-272.370	-84.808	-0.101	-0.032
-271.355	59.343	0.101	-0.100
-270.340	267.970	0.150	0.264
-269.326	-80.525	-0.597	0.200
-268.311	-25.572	-0.113	0.067
-267.297	-75.484	0.200	0.071
-266.282	-113.072	-0.165	-0.033
-265.267	110.272	0.121	-0.146
-264.253	-200.000	0.054	-0.260
-263.238	-14.316	0.128	-0.083
-262.224	-200.000	-0.006	-0.050
-261.209	-124.456	0.238	0.037
-260.195	-152.821	0.121	0.009
-259.180	-125.249	0.150	0.023
-258.165	-35.038	-0.191	0.105
-257.151	-43.747	-0.179	0.091
-256.136	-23.775	-0.063	-0.038
-255.122	800.000	-0.058	-0.214
-254.107	-200.000	-0.007	0.090
-253.092	-3.706	-0.121	0.084
-252.078	22.955	0.283	-0.233
-251.063	-200.000	-0.006	0.111
-250.049	632.755	-0.084	0.213
-249.034	-140.994	0.143	-0.015
-248.019	177.395	0.174	0.255
-247.005	-24.319	0.199	0.119
-245.990	-200.000	0.012	-0.196
-244.976	230.315	0.150	0.246
-243.961	-62.137	0.269	-0.112
-242.946	243.556	-0.071	-0.120
-241.932	-88.964	-0.189	-0.056
-240.917	77.929	-0.179	-0.191
-239.903	81.359	-0.066	0.072
-238.888	-77.407	-0.406	-0.142
-237.873	-65.984	-0.171	0.068
-236.859	800.000	-0.060	-0.220
-235.844	40.226	0.187	0.168
-234.830	-53.146	-0.204	-0.094
-233.815	-51.134	-0.060	-0.028
-232.800	-180.274	-0.438	-0.009
-231.786	-103.618	0.100	-0.023
-230.771	-97.286	-0.116	-0.030
-229.757	0.352	0.151	-0.108
-228.742	-38.187	0.182	0.097
-227.727	-198.750	0.190	-0.001
-226.713	800.000	0.122	0.348
-225.698	-89.389	-0.269	-0.080
-224.684	9.150	0.077	0.058
-223.669	-64.006	-0.151	0.062
-222.655	-61.817	-0.051	0.021
-221.640	123.153	-0.182	0.228
-220.625	18.507	-0.147	0.118
-219.611	-13.265	-0.187	0.122
-218.596	-200.000	-0.056	0.287
-217.582	-200.000	0.017	0.176
-216.567	-0.033	-0.049	0.035
-215.552	-200.000	0.003	0.261
-214.538	257.543	0.193	0.333
-213.523	-93.428	-0.223	-0.062
-212.509	390.615	-0.041	0.086
-211.494	800.000	-0.076	0.238
-210.479	-200.000	-0.025	0.432
-209.465	-108.128	0.088	-0.019
-208.450	-157.100	-0.117	-0.007
-207.436	-100.939	-0.102	0.025
-206.421	-125.375	-0.293	0.045
-205.406	-154.029	-0.174	0.012
-204.392	369.274	0.100	0.204
-203.377	-200.000	0.016	0.173
-202.363	245.226	0.084	-0.141
-201.348	-9.126	0.137	-0.092
-200.333	244.340	-0.060	-0.101
-199.319	-200.000	0.053	0.261
-198.304	253.049	-0.168	-0.288
-197.290	-60.052	-0.373	0.160
-196.275	365.182	-0.139	-0.281
-195.260	-200.000	-0.044	0.391
-194.246	-200.000	-0.013	0.139
-193.231	-200.000	0.038	0.204
-192.217	-52.163	0.130	-0.060
-191.202	189.101	0.083	-0.125
-190.187	198.660	-0.075	0.115
-189.173	-90.189	0.164	-0.048
-188.158	-46.809	-0.549	0.269
-187.144	-109.381	0.276	0.059
-186.129	-84.309	-0.066	0.021
-185.114	-76.874	0.353	0.124
-184.100	119.062	-0.100	-0.124
-183.085	-200.000	0.012	-0.131
-182.071	-200.000	0.042	0.280
-181.056	-200.000	-0.022	0.128
-180.042	-116.342	0.085	0.016
-179.027	22.837	-0.042	-0.035
-178.012	-97.077	0.150	-0.039
-176.998	-200.000	-0.026	0.218
-175.983	-37.263	0.262	0.140
-174.969	-165.837	0.417	0.018
-173.954	-200.000	0.040	-0.291
-172.939	-17.193	0.125	0.079
-171.925	69.195	-0.010	0.011
-170.910	-114.002	-0.072	-0.014
-169.896	-54.382	-0.322	0.146
-168.881	-125.910	-0.039	-0.006
-167.866	800.000	-0.128	-0.439
-166.852	193.486	0.184	-0.279
-165.837	-200.000	0.010	-0.254
-164.823	-52.843	0.327	-0.151
-163.808	58.328	-0.047	0.046
-162.793	20.092	0.277	-0.224
-161.779	35.691	-0.040	-0.035
-160.764	-99.218	0.184	-0.046
-159.750	-167.198	-0.110	-0.004
-158.735	-150.704	0.171	0.013
-157.720	251.176	0.004	-0.007
-156.706	-54.030	0.203	-0.092
-155.691	-6.726	-0.255	0.174
-154.677	-200.000	0.189	0.001
-153.662	299.680	0.224	-0.413
-152.647	-117.774	-0.180	0.032
-151.633	50.290	-0.287	-0.271
-150.618	313.746	0.128	-0.240
-149.604	323.955	-0.100	0.191
-148.589	180.543	0.176	0.259
-147.574	-200.000	0.026	0.131
-146.560	-73.614	0.048	0.017
-145.545	133.296	-0.159	0.205
-144.531	207.405	-0.123	-0.191
-143.516	-200.000	0.012	-0.203
-142.502	57.449	-0.046	0.045
-141.487	-79.210	0.105	-0.035
-140.472	13.359	-0.171	-0.133
-139.458	-61.001	-0.359	0.151
-138.443	-189.148	-0.322	0.004
-137.429	80.935	0.032	0.035
-136.414	-69.833	-0.134	0.051
-135.399	800.000	-0.012	0.040
-134.385	-93.195	0.176	0.049
-133.370	-157.230	-0.194	-0.012
-132.356	-50.320	-0.060	0.028
-131.341	505.759	-0.010	0.023
-130.326	-200.000	-0.000	0.099
-129.312	-32.161	-0.107	-0.060
-128.297	41.161	-0.177	-0.160
-127.283	139.746	-0.093	-0.122
-126.268	800.000	0.120	-0.460
-125.253	-116.861	-0.177	-0.032
-124.239	119.879	0.163	0.201
-123.224	-11.112	-0.074	0.049
-122.210	800.000	-0.063	0.222
