DTS Sentinel unit serial number:	SN413079Multiplexer serial number:	ORYXHardware model number:	OX4-SRSoftware version number:	ORYX F/W v4.00 Oryx Data Collector v3.7.2.0data status	okinstallation	princeton_trtdifferential loss correction	single-endedforward channel	channel 3reverse channel	N/Adate	2019/09/17time	18:44:35forward acquisition time	60.00reverse acquisition time	0.00gamma	496.2192k internal	0.2290k external	0.2290temperature offset calibration	0.9953default loss term (dB/km)	0.3790temperature slope calibration	1.0000multiplexer offset coefficient	1.0000multiplexer slope coefficient	1.0000fibre end	0.00T internal ref (°C)	42.28T ext. ref 1 (°C)	0.31T ext. ref 2 (°C)	33.15length (m)	temperature (°C)	Stokes	anti-Stokes-747.200	-43.832	0.161	-0.083
-746.185	48.898	0.307	0.295
-745.171	-200.000	-0.024	-0.313
-744.156	452.729	-0.115	0.261
-743.142	800.000	0.032	-0.130
-742.127	73.411	0.088	-0.095
-741.112	176.917	-0.104	-0.155
-740.098	-200.000	-0.052	0.410
-739.083	148.113	-0.088	0.121
-738.069	-200.000	0.026	0.249
-737.054	-200.000	0.019	0.213
-736.039	-49.137	-0.177	-0.087
-735.025	-200.000	-0.006	-0.133
-734.010	-77.751	-0.196	-0.069
-732.996	-134.328	-0.194	0.024
-731.981	-200.000	-0.020	0.257
-730.966	228.080	-0.146	0.243
-729.952	-30.222	-0.104	-0.061
-728.937	-54.424	-0.396	0.184
-727.923	-200.000	-0.061	-0.492
-726.908	-57.521	-0.364	-0.164
-725.894	800.000	-0.125	-0.390
-724.879	208.161	0.193	0.308
-723.864	-73.972	-0.082	-0.031
-722.850	-112.972	-0.095	0.019
-721.835	11.700	0.272	0.214
-720.821	32.442	-0.088	0.078
-719.806	80.638	0.186	-0.205
-718.791	-1.151	-0.221	-0.160
-717.777	326.891	0.153	-0.300
-716.762	253.563	-0.074	0.129
-715.748	-49.562	-0.155	-0.075
-714.733	-71.618	-0.251	-0.096
-713.718	-200.000	-0.082	-0.402
-712.704	-200.000	-0.008	-0.469
-711.689	-115.934	-0.290	-0.055
-710.675	-200.000	-0.015	-0.212
-709.660	229.535	0.117	-0.196
-708.645	-200.000	0.042	-0.329
-707.631	-106.832	0.215	0.049
-706.616	280.355	-0.021	-0.038
-705.602	95.600	-0.140	-0.163
-704.587	35.888	0.189	0.170
-703.572	-113.927	0.084	-0.017
-702.558	30.210	0.146	0.127
-701.543	227.729	-0.026	-0.044
-700.529	-92.856	0.175	-0.050
-699.514	-200.000	-0.045	-0.205
-698.499	166.064	-0.065	-0.094
-697.485	-0.838	-0.044	-0.032
-696.470	-200.000	0.032	-0.198
-695.456	444.527	0.100	-0.225
-694.441	-39.313	0.130	-0.070
-693.426	348.431	0.137	-0.276
-692.412	-200.000	0.014	-0.070
-691.397	-200.000	0.002	0.012
-690.383	477.580	-0.144	0.333
-689.368	-67.726	-0.237	-0.095
-688.354	-200.000	0.018	0.160
-687.339	-140.596	-0.158	-0.017
-686.324	375.955	-0.125	-0.261
-685.310	-200.000	-0.057	-0.279
-684.295	-53.499	0.147	-0.069
-683.281	-200.000	-0.019	0.102
-682.266	-152.467	0.332	-0.024
-681.251	-200.000	0.082	0.418
-680.237	-161.446	0.273	0.014
-679.222	-63.184	0.335	-0.141
-678.208	-110.560	-0.218	-0.046
-677.193	800.000	0.091	-0.314
-676.178	800.000	-0.021	0.088
-675.164	143.553	0.154	-0.210
-674.149	21.378	-0.194	-0.161
-673.135	-65.584	0.239	0.098
-672.120	-142.938	-0.229	0.023
-671.105	-47.377	0.141	-0.070
-670.091	-200.000	-0.033	-0.154
-669.076	-200.000	-0.012	0.267
-668.062	800.000	-0.093	-0.293
-667.047	77.366	-0.170	-0.185
-666.032	-40.838	0.055	-0.029
-665.018	531.358	-0.153	0.368
-664.003	-200.000	-0.009	-0.086
-662.989	-43.862	0.140	0.072
-661.974	-200.000	0.030	-0.194
-660.959	79.684	0.081	-0.089
-659.945	41.543	0.244	-0.226
-658.930	123.949	-0.119	0.152
-657.916	-200.000	-0.040	0.356
-656.901	-13.831	0.188	-0.124
-655.886	-79.294	-0.342	-0.118
-654.872	800.000	0.077	0.295
-653.857	229.083	0.067	0.112
-652.843	224.989	0.043	0.071
-651.828	41.000	0.093	-0.086
-650.814	360.386	-0.124	0.254
-649.799	17.557	0.133	0.108
-648.784	304.362	0.084	0.159
-647.770	-46.671	0.337	-0.169
-646.755	3.803	0.228	0.170
-645.741	-135.668	0.214	0.026
-644.726	-200.000	-0.005	0.068
-643.711	-200.000	-0.019	-0.097
-642.697	358.121	0.104	-0.213
-641.682	28.707	-0.118	0.102
-640.668	-100.984	0.299	-0.075
-639.653	118.086	0.189	0.237
-638.638	112.505	0.196	0.242
-637.624	-200.000	-0.016	0.213
-636.609	-62.437	0.148	-0.063
-635.595	-200.000	-0.038	0.182
-634.580	-157.808	-0.266	-0.016
-633.565	-99.453	-0.046	-0.012
-632.551	-88.528	0.202	0.061
-631.536	166.433	0.063	0.092
-630.522	800.000	-0.033	0.118
-629.507	-91.727	0.434	0.126
-628.492	-1.226	0.292	0.210
-627.478	-44.693	-0.378	-0.192
-626.463	38.979	-0.332	-0.303
-625.449	14.402	-0.077	-0.062
-624.434	86.211	0.166	0.187
-623.419	-154.621	0.227	0.015
-622.405	-12.400	-0.286	0.191
-621.390	-99.636	-0.172	-0.044
-620.376	-146.395	-0.167	0.015
-619.361	-94.452	-0.081	-0.023
-618.346	-200.000	-0.028	0.183
-617.332	374.467	-0.181	-0.376
-616.317	174.611	-0.047	-0.070
-615.303	35.440	-0.110	0.098
-614.288	800.000	0.064	-0.217
-613.273	186.094	-0.067	0.102
-612.259	-139.844	0.350	0.038
-611.244	800.000	-0.088	0.283
-610.230	-108.053	0.389	-0.086
-609.215	126.649	0.182	-0.235
-608.201	-40.274	-0.257	0.136
-607.186	99.855	0.286	-0.338
-606.171	12.541	-0.052	0.041
-605.157	-24.424	-0.266	-0.162
-604.142	108.639	0.165	0.201
-603.128	800.000	-0.034	0.136
-602.113	325.691	-0.165	0.322
-601.098	-200.000	0.063	0.307
-600.084	800.000	0.034	0.111
-599.069	586.210	0.163	0.408
-598.055	258.916	-0.205	-0.360
-597.040	-107.324	-0.098	-0.022
-596.025	111.429	-0.089	-0.109
-595.011	98.763	-0.188	0.221
-593.996	-54.120	0.221	-0.102
-592.982	-200.000	0.037	-0.236
-591.967	-200.000	0.020	-0.209
-590.952	-200.000	0.016	0.242
-589.938	-200.000	-0.001	0.133
-588.923	-200.000	-0.001	-0.117
-587.909	-85.089	0.285	0.091
-586.894	-18.332	-0.442	0.281
-585.879	-141.385	0.245	0.025
-584.865	-62.764	0.239	0.101
-583.850	6.076	0.107	0.080
-582.836	-32.725	-0.383	0.217
-581.821	-107.556	-0.237	-0.053
-580.806	800.000	0.090	-0.357
-579.792	-144.291	-0.109	0.010
-578.777	29.159	-0.229	0.198
-577.763	184.185	-0.146	-0.219
-576.748	-200.000	-0.029	-0.136
-575.733	800.000	-0.066	-0.204
-574.719	-200.000	-0.032	0.378
-573.704	800.000	-0.041	0.174
-572.690	572.456	0.085	-0.211
-571.675	51.107	0.116	-0.112
-570.661	-33.475	0.256	0.144
-569.646	58.991	-0.192	-0.192
-568.631	-42.255	-0.138	-0.072
-567.617	129.482	-0.309	-0.402
-566.602	30.064	0.107	-0.093
-565.588	-110.074	-0.139	-0.030
-564.573	158.856	-0.099	0.140
-563.558	186.228	-0.060	-0.091
-562.544	-3.983	0.114	0.081
-561.529	-85.132	-0.102	0.033
-560.515	782.841	0.048	-0.133
-559.500	800.000	-0.111	-0.375
-558.485	71.931	0.202	-0.213
-557.471	74.435	-0.123	-0.131
-556.456	-114.785	0.071	-0.014
-555.442	170.688	-0.124	-0.181
-554.427	-49.604	-0.099	0.048
-553.412	-69.545	-0.185	0.072
-552.398	1.945	0.174	0.128
-551.383	-74.419	-0.382	0.140
-550.369	-200.000	-0.004	-0.334
-549.354	151.190	0.117	-0.162
-548.339	-200.000	0.024	-0.212
-547.325	27.777	0.184	-0.158
-546.310	-109.054	0.250	0.054
-545.296	-200.000	0.066	0.308
-544.281	26.554	-0.100	0.085
-543.266	7.882	-0.220	-0.168
-542.252	-200.000	-0.025	-0.238
-541.237	20.738	0.078	0.064
-540.223	39.953	-0.061	0.056
-539.208	-190.559	0.184	-0.002
-538.193	-200.000	-0.009	-0.241
-537.179	-7.892	0.318	-0.218
-536.164	-156.472	0.188	-0.012
-535.150	-200.000	-0.021	-0.108
-534.135	326.766	0.053	0.104
-533.121	-61.829	0.101	-0.043
-532.106	-200.000	-0.008	-0.138
-531.091	-200.000	-0.151	0.000
-530.077	381.183	0.118	0.247
-529.062	-60.695	0.258	-0.111
-528.048	-18.538	-0.073	0.046
-527.033	-50.980	0.263	0.126
-526.018	11.410	0.093	-0.072
-525.004	-114.898	0.201	-0.039
-523.989	800.000	0.131	-0.417
-522.975	168.748	-0.057	0.083
-521.960	307.343	-0.150	-0.284
-520.945	136.717	0.165	-0.219
-519.931	162.503	0.284	-0.405
-518.916	-55.207	-0.066	-0.030
-517.902	-31.480	0.381	0.217
-516.887	512.731	-0.104	0.246
-515.872	100.871	0.133	0.157
-514.858	135.466	-0.172	-0.227
-513.843	-200.000	-0.075	0.000
-512.829	366.914	0.085	0.175
-511.814	55.664	0.164	-0.161
-510.799	355.436	-0.028	-0.056
-509.785	-22.003	0.155	-0.095
-508.770	-131.459	-0.366	0.049
-507.756	139.152	-0.252	0.336
-506.741	-44.017	0.254	-0.130
-505.726	17.177	-0.318	-0.256
-504.712	348.019	-0.160	-0.319
-503.697	800.000	-0.137	-0.437
-502.683	800.000	0.103	-0.297
-501.668	-2.595	-0.178	0.127
-500.653	151.991	0.143	0.198
-499.639	-183.522	0.248	-0.004
-498.624	-80.004	0.129	-0.044
-497.610	553.135	0.041	-0.101
-496.595	379.956	0.166	-0.346
-495.581	-121.330	-0.212	-0.036
-494.566	-200.000	-0.030	-0.225
-493.551	93.601	-0.141	0.162
-492.537	716.733	-0.149	-0.400
-491.522	352.249	-0.098	-0.197
-490.508	48.164	0.198	0.188
-489.493	-79.308	0.143	0.049
-488.478	36.536	-0.245	0.220
-487.464	106.616	-0.134	0.161
-486.449	-97.710	-0.186	0.049
-485.435	800.000	0.054	-0.201
-484.420	-56.027	-0.219	0.099
-483.405	491.407	0.085	0.197
-482.391	-200.000	-0.027	0.131
-481.376	53.882	0.082	-0.080
-480.362	-86.191	0.119	-0.037
-479.347	73.304	0.181	0.193
-478.332	-200.000	-0.039	-0.401
-477.318	-116.868	0.223	0.041
-476.303	347.707	-0.020	0.039
-475.289	-200.000	-0.004	0.268
-474.274	53.070	-0.271	0.263
-473.259	318.788	-0.055	-0.105
-472.245	-45.014	-0.206	-0.104
-471.230	31.202	0.347	-0.302
-470.216	-85.522	0.073	0.023
-469.201	800.000	-0.065	-0.247
-468.186	271.523	0.098	-0.175
-467.172	-103.901	0.344	0.081
-466.157	-95.440	-0.256	-0.070
-465.143	411.911	-0.027	-0.059
-464.128	-20.509	0.281	-0.175
-463.113	-137.373	-0.166	0.019
-462.099	-50.756	-0.139	0.066
-461.084	-200.000	-0.054	0.356
-460.070	-200.000	-0.030	-0.144
-459.055	-200.000	-0.018	-0.103
-458.040	-26.539	0.176	-0.104
-457.026	21.911	-0.297	0.245
-456.011	119.447	-0.152	-0.191
-454.997	-75.793	-0.433	-0.155
-453.982	-200.000	0.016	0.314
-452.968	288.633	-0.095	-0.173
-451.953	-146.236	-0.086	-0.008
-450.938	-62.456	0.045	0.019
-449.924	715.502	0.153	-0.410
-448.909	398.281	0.213	-0.452
-447.895	-61.789	0.276	-0.117
-446.880	-60.585	-0.219	0.094
-445.865	11.891	0.151	-0.117
-444.851	266.950	-0.138	0.245
-443.836	-64.425	-0.309	-0.127
-442.822	-63.038	0.200	0.084
-441.807	-46.999	-0.232	-0.115
-440.792	-9.255	0.153	-0.104
-439.778	608.895	0.027	0.067
-438.763	11.978	-0.055	0.043
-437.749	-103.971	0.056	0.013
-436.734	356.104	-0.074	-0.149
-435.719	-176.883	-0.153	0.004
-434.705	-139.432	0.130	-0.014
-433.690	50.632	-0.278	0.267
-432.676	-145.804	-0.042	0.004
-431.661	-97.082	0.160	-0.042
-430.646	119.919	0.215	0.270
-429.632	-15.437	-0.026	0.017
-428.617	-58.305	-0.176	0.077
-427.603	800.000	0.024	0.081
-426.588	-65.261	0.095	0.039
-425.573	-21.557	0.136	0.084
-424.559	-45.908	-0.252	0.126
-423.544	172.116	0.029	0.043
-422.530	5.175	-0.089	-0.067
-421.515	234.715	0.155	0.259
-420.500	288.419	0.006	0.011
-419.486	-83.723	-0.255	0.082
-418.471	-124.708	0.315	-0.049
-417.457	-199.526	-0.100	-0.001
-416.442	-146.598	-0.246	-0.022
-415.428	-15.334	0.285	0.184
-414.413	800.000	0.064	-0.232
-413.398	49.120	0.260	0.247
-412.384	-200.000	-0.011	-0.167
-411.369	800.000	-0.051	-0.193
-410.355	-148.593	-0.273	0.023
-409.340	800.000	-0.077	0.290
-408.325	-82.422	-0.071	-0.023
-407.311	-99.866	-0.260	-0.066
-406.296	6.323	-0.151	0.113
-405.282	88.616	-0.199	0.224
-404.267	-200.000	0.006	-0.027
-403.252	109.547	0.225	-0.272
-402.238	-200.000	0.013	-0.234
-401.223	102.217	-0.017	-0.020
-400.209	-200.000	-0.003	0.136
-399.194	-200.000	-0.001	0.016
-398.179	-146.008	0.154	0.014
-397.165	102.958	-0.171	-0.202
-396.150	-49.830	-0.272	0.131
-395.136	800.000	-0.079	-0.325
-394.121	-189.569	0.321	-0.004
-393.106	400.737	-0.093	0.198
-392.092	77.896	0.100	-0.108
-391.077	-110.862	0.186	0.039
-390.063	58.914	0.060	0.060
-389.048	94.826	-0.175	-0.201
-388.033	-150.711	-0.402	-0.031
-387.019	-200.000	0.066	-0.451
-386.004	81.356	0.274	0.299
-384.990	365.214	0.031	-0.064
-383.975	-133.404	-0.111	0.014
-382.960	-100.462	-0.180	0.045
-381.946	-125.388	-0.341	-0.052
-380.931	-71.076	0.157	-0.059
-379.917	428.545	-0.134	-0.293
-378.902	-200.000	0.044	0.435
-377.888	421.856	0.102	0.221
-376.873	-200.000	-0.008	0.073
-375.858	-138.003	0.221	0.025
-374.844	-51.453	0.174	0.082
-373.829	-141.881	-0.368	-0.037
-372.815	79.705	-0.074	0.080
-371.800	137.633	0.211	0.279
-370.785	177.803	-0.059	-0.087
-369.771	69.613	0.151	-0.157
-368.756	-116.810	0.202	0.037
-367.742	-90.374	-0.114	0.034
-366.727	462.106	0.048	0.108
-365.712	38.688	-0.159	-0.144
-364.698	-200.000	0.060	-0.354
-363.683	-83.743	0.172	0.055
-362.669	356.792	0.104	-0.209
-361.654	-103.915	0.197	-0.047
-360.639	-145.487	0.170	-0.015
-359.625	-99.972	-0.180	0.045
-358.610	354.024	-0.152	0.305
-357.596	-28.362	0.304	-0.177
-356.581	-130.614	0.230	-0.031
-355.566	196.218	0.143	-0.219
-354.552	-172.903	0.112	-0.003
-353.537	-86.153	-0.263	0.082
-352.523	-132.521	-0.287	0.037
-351.508	-200.000	-0.080	0.485
-350.493	-57.400	0.236	0.105
-349.479	65.463	0.289	-0.295
-348.464	328.883	-0.078	-0.151
-347.450	-182.573	-0.328	0.006
-346.435	-200.000	-0.002	-0.045
-345.420	-128.888	-0.249	-0.035
-344.406	-10.330	0.131	0.087
-343.391	-78.996	0.136	0.047
-342.377	-98.276	0.112	-0.029
-341.362	-35.698	-0.054	0.029
-340.348	-31.356	0.090	0.051
-339.333	369.252	0.140	-0.285
-338.318	1.485	0.366	0.265
-337.304	-127.334	0.615	-0.090
-336.289	165.097	-0.194	0.276
-335.275	64.814	-0.140	-0.142
-334.260	-95.545	-0.039	0.011
-333.245	84.685	0.048	-0.053
-332.231	-200.000	-0.015	0.098
-331.216	-200.000	0.015	0.171
-330.202	-84.312	0.150	-0.048
-329.187	800.000	0.039	-0.114
-328.172	189.153	-0.022	-0.033
-327.158	800.000	0.079	-0.274
-326.143	-150.683	-0.233	0.018
-325.129	214.990	-0.115	0.185
-324.114	-200.000	0.002	0.018
-323.099	-114.488	0.303	-0.059
-322.085	-200.000	0.027	-0.140
-321.070	776.021	0.075	-0.207
-320.056	-37.582	-0.282	0.152
-319.041	210.524	-0.089	-0.141
-318.026	800.000	-0.036	0.107
-317.012	-200.000	0.032	0.305
-315.997	42.065	0.212	0.194
-314.983	-200.000	-0.026	-0.266
-313.968	42.496	-0.208	0.191
-312.953	-99.083	0.164	-0.042
-311.939	322.698	-0.048	0.093
-310.924	-50.801	-0.176	0.084
-309.910	35.053	0.307	0.270
-308.895	-71.931	-0.287	0.108
-307.880	-168.936	0.124	-0.005
-306.866	402.748	-0.017	0.036
-305.851	-70.073	-0.095	0.036
-304.837	-200.000	0.022	0.250
-303.822	291.631	0.139	-0.255
-302.807	-134.947	-0.082	-0.010
-301.793	-78.651	-0.294	0.101
-300.778	800.000	0.025	0.100
-299.764	207.883	0.173	-0.272
-298.749	7.410	0.106	-0.079
-297.735	65.356	-0.153	0.156
-296.720	-200.000	-0.014	-0.134
-295.705	453.412	0.112	0.250
-294.691	413.971	-0.116	-0.248
-293.676	-125.011	0.272	-0.042
-292.662	41.407	-0.147	-0.134
-291.647	49.195	-0.107	0.101
-290.632	-200.000	0.011	0.197
-289.618	-44.639	-0.045	-0.023
-288.603	206.121	0.097	-0.152
-287.589	-200.000	-0.018	-0.160
-286.574	-200.000	0.020	-0.135
-285.559	22.365	-0.108	0.089
-284.545	-200.000	-0.035	0.221
-283.530	-87.043	-0.381	0.117
-282.516	-96.693	-0.220	0.058
-281.501	-59.296	0.165	0.071
-280.486	-2.207	-0.245	-0.173
-279.472	112.900	-0.054	0.066
-278.457	121.339	0.064	-0.081
-277.443	69.929	-0.197	-0.205
-276.428	34.343	-0.202	-0.177
-275.413	-200.000	0.007	-0.176
-274.399	800.000	0.030	0.115
-273.384	-200.000	0.003	0.095
-272.370	-200.000	-0.041	0.294
-271.355	89.210	-0.261	0.293
-270.340	-45.458	-0.257	0.128
-269.326	-200.000	-0.008	0.133
-268.311	-200.000	-0.047	0.397
-267.297	263.965	0.111	-0.194
-266.282	-116.756	-0.142	0.026
-265.267	175.215	-0.124	-0.180
-264.253	-200.000	0.002	0.048
-263.238	332.123	-0.078	0.152
-262.224	47.729	0.422	-0.396
-261.209	-95.060	-0.259	0.070
-260.195	-103.451	0.286	-0.068
-259.180	800.000	-0.130	0.368
-258.165	148.018	0.127	0.172
-257.151	93.825	-0.212	0.242
-256.136	24.548	0.251	-0.209
-255.122	23.575	-0.131	-0.109
-254.107	68.957	0.095	-0.098
-253.092	-99.422	-0.135	0.034
-252.078	417.576	-0.088	0.190
-251.063	106.739	-0.077	0.092
-250.049	14.305	0.230	-0.180
-249.034	-99.405	0.143	0.036
-248.019	441.131	0.037	-0.082
-247.005	-177.110	0.204	-0.005
-245.990	-185.145	0.334	-0.005
-244.976	-179.942	-0.211	0.005
-243.961	251.959	0.170	-0.292
-242.946	-200.000	0.021	-0.413
-241.932	414.038	-0.113	0.242
-240.917	-200.000	-0.001	-0.208
-239.903	155.735	-0.180	0.249
-238.888	-69.480	-0.113	-0.044
-237.873	-179.753	-0.183	0.004
-236.859	-188.781	0.393	-0.005
-235.844	-200.000	-0.015	0.144
-234.830	68.934	-0.108	-0.112
-233.815	-200.000	0.031	0.159
-232.800	800.000	0.088	0.297
-231.786	-52.872	-0.131	-0.061
-230.771	-200.000	-0.001	0.254
-229.757	800.000	0.089	0.386
-228.742	316.182	0.048	0.091
-227.727	124.221	0.182	0.230
-226.713	-200.000	0.015	0.343
-225.698	68.671	0.051	0.053
-224.684	63.235	-0.170	-0.171
-223.669	97.379	0.201	0.231
-222.655	-158.643	-0.328	0.019
-221.640	507.546	-0.102	-0.237
-220.625	-200.000	0.004	0.111
-219.611	-134.462	-0.232	0.028
-218.596	800.000	-0.036	-0.142
-217.582	-200.000	-0.021	-0.172
-216.567	311.337	0.017	-0.032
-215.552	-111.507	0.337	0.069
-214.538	548.413	0.091	-0.219
-213.523	397.889	0.083	-0.175
-212.509	-72.857	0.058	0.021
-211.494	526.564	-0.057	0.135
-210.479	800.000	0.096	0.410
-209.465	-168.679	0.169	-0.006
-208.450	20.468	-0.038	-0.031
-207.436	-100.538	-0.223	-0.055
-206.421	-148.666	0.146	-0.012
-205.406	-55.403	-0.148	-0.066
-204.392	-150.248	0.265	-0.021
-203.377	-160.639	-0.144	0.008
-202.363	239.365	-0.054	-0.090
-201.348	-200.000	0.038	0.233
-200.333	800.000	0.042	-0.133
-199.319	-200.000	-0.033	-0.211
-198.304	680.343	0.033	-0.085
-197.290	800.000	-0.043	0.139
-196.275	-130.398	0.219	-0.030
-195.260	21.087	0.051	0.041
-194.246	12.006	0.116	0.090
-193.231	-106.046	-0.347	0.078
-192.217	779.729	-0.025	-0.067
-191.202	87.269	0.136	0.150
-190.187	314.690	-0.141	0.265
-189.173	16.504	0.085	0.067
-188.158	-144.169	0.212	-0.020
-187.144	509.028	-0.034	-0.079
-186.129	51.894	-0.257	0.245
-185.114	178.616	-0.107	-0.157
-184.100	53.227	-0.212	-0.204
-183.085	-21.103	-0.282	0.173
-182.071	-200.000	0.087	0.000
-181.056	-79.242	-0.077	-0.026
-180.042	-111.245	-0.466	0.096
-179.027	-78.648	-0.421	0.144
-178.012	370.922	0.079	0.161
-176.998	586.808	-0.082	-0.202
-175.983	14.955	-0.243	-0.191
-174.969	-48.271	0.079	-0.038
-173.954	-200.000	0.002	0.186
-172.939	648.731	-0.096	-0.246
-171.925	-43.406	0.144	0.073
-170.910	-133.199	0.198	0.025
-169.896	-200.000	0.016	-0.317
-168.881	35.474	-0.264	0.232
-167.866	204.490	0.250	-0.389
-166.852	-31.438	-0.294	0.166
-165.837	17.303	0.223	0.178
-164.823	76.011	0.188	0.199
-163.808	-98.993	-0.255	-0.065
-162.793	-26.248	0.158	0.093
-161.779	-200.000	-0.023	0.302
-160.764	721.094	-0.081	-0.216
-159.750	482.863	-0.025	-0.057
-158.735	-200.000	-0.005	-0.067
-157.720	-112.856	0.206	0.041
-156.706	-12.372	-0.121	0.079
-155.691	-85.222	0.459	0.144
-154.677	-200.000	0.051	0.265
-153.662	91.644	-0.213	0.240
-152.647	340.647	0.086	-0.168
-151.633	-136.631	0.416	-0.048
-150.618	10.234	-0.224	-0.171
-149.604	-200.000	-0.094	-0.509
-148.589	-27.352	0.169	-0.099
-147.574	-200.000	0.063	0.309
-146.560	800.000	-0.025	0.072
-145.545	-200.000	0.258	0.001
-144.531	276.090	0.062	0.110
-143.516	5.344	0.229	0.169
-142.502	-200.000	0.022	0.235
-141.487	-137.012	0.060	0.007
-140.472	-137.980	0.394	0.044
-139.458	60.895	-0.117	-0.116
-138.443	-111.786	-0.096	0.019
-137.429	346.097	0.030	-0.060
-136.414	-22.009	0.307	0.187
-135.399	-200.000	0.032	-0.404
-134.385	-32.837	0.153	0.085
-133.370	800.000	-0.109	0.305
-132.356	530.781	-0.149	0.352
-131.341	-200.000	0.063	0.383
-130.326	-68.812	-0.032	0.012
-129.312	188.060	-0.056	0.084
-128.297	800.000	0.058	0.213
-127.283	800.000	0.073	0.286
-126.268	-88.773	-0.184	-0.055
-125.253	-145.082	0.265	-0.024
-124.239	-63.016	-0.247	0.102
-123.224	800.000	0.012	0.039
-122.210	-187.307	0.244	-0.003
