DTS Sentinel unit serial number:	SN413079Multiplexer serial number:	ORYXHardware model number:	OX4-SRSoftware version number:	ORYX F/W v4.00 Oryx Data Collector v3.7.2.0data status	okinstallation	princeton_trtdifferential loss correction	single-endedforward channel	channel 3reverse channel	N/Adate	2019/09/19time	08:44:34forward acquisition time	60.00reverse acquisition time	0.00gamma	496.2192k internal	0.2346k external	0.2346temperature offset calibration	0.9979default loss term (dB/km)	0.3790temperature slope calibration	1.0000multiplexer offset coefficient	1.0000multiplexer slope coefficient	1.0000fibre end	0.00T internal ref (°C)	21.02T ext. ref 1 (°C)	0.58T ext. ref 2 (°C)	16.66length (m)	temperature (°C)	Stokes	anti-Stokes-747.200	34.437	0.052	0.046
-746.185	334.291	-0.214	0.414
-745.171	-39.863	0.291	0.152
-744.156	-46.784	-0.184	-0.090
-743.142	98.188	0.078	-0.089
-742.127	800.000	-0.039	-0.152
-741.112	307.722	0.072	0.134
-740.098	325.590	-0.042	0.080
-739.083	-28.922	0.449	-0.258
-738.069	-167.932	-0.037	-0.001
-737.054	-73.513	-0.405	-0.148
-736.039	84.489	-0.137	-0.150
-735.025	-10.226	0.397	-0.263
-734.010	-200.000	0.004	-0.196
-732.996	-200.000	-0.036	-0.313
-731.981	-200.000	0.039	-0.179
-730.966	-120.148	-0.119	-0.020
-729.952	113.256	-0.047	-0.056
-728.937	61.384	0.285	-0.283
-727.923	-174.157	-0.358	0.010
-726.908	72.649	-0.279	-0.291
-725.894	-136.053	0.348	-0.041
-724.879	800.000	-0.053	0.168
-723.864	-32.467	-0.322	0.179
-722.850	-43.542	-0.098	0.050
-721.835	783.361	-0.029	-0.079
-720.821	746.456	0.087	0.235
-719.806	-127.740	-0.180	-0.026
-718.791	-150.469	-0.238	0.018
-717.777	-200.000	-0.024	0.192
-716.762	57.500	0.287	0.280
-715.748	622.086	-0.019	0.047
-714.733	-200.000	-0.082	0.391
-713.718	-52.514	-0.196	-0.091
-712.704	8.393	0.200	-0.151
-711.689	-200.000	-0.023	-0.197
-710.675	109.318	-0.063	0.075
-709.660	800.000	0.058	0.189
-708.645	800.000	-0.063	-0.233
-707.631	50.268	-0.112	0.105
-706.616	-113.421	0.115	0.023
-705.602	-104.613	0.070	-0.016
-704.587	-67.612	0.250	-0.098
-703.572	-89.917	0.225	0.066
-702.558	-60.899	0.088	0.037
-701.543	-32.471	-0.235	-0.131
-700.529	53.730	0.167	0.160
-699.514	-38.267	0.122	-0.064
-698.499	-39.178	-0.103	-0.054
-697.485	230.675	-0.157	0.256
-696.470	-80.220	-0.036	0.012
-695.456	11.227	0.336	0.257
-694.441	-200.000	0.019	-0.108
-693.426	-13.263	-0.386	-0.250
-692.412	72.399	-0.178	-0.185
-691.397	-150.001	-0.177	-0.014
-690.383	21.885	0.079	0.064
-689.368	-34.430	0.215	0.117
-688.354	-57.860	0.209	0.091
-687.339	800.000	-0.049	-0.157
-686.324	-63.937	-0.333	-0.136
-685.310	66.441	-0.207	0.210
-684.295	800.000	-0.066	-0.229
-683.281	687.837	0.033	-0.085
-682.266	-200.000	-0.030	-0.270
-681.251	-108.373	-0.174	0.037
-680.237	301.703	-0.101	-0.187
-679.222	-58.438	-0.174	-0.075
-678.208	101.685	0.094	0.109
-677.193	-200.000	0.040	0.402
-676.178	800.000	0.047	0.144
-675.164	-131.040	-0.265	0.035
-674.149	583.389	0.125	-0.306
-673.135	67.054	-0.108	-0.110
-672.120	29.598	0.172	-0.146
-671.105	654.128	-0.042	0.106
-670.091	181.449	-0.186	-0.273
-669.076	-92.860	0.526	0.146
-668.062	106.677	0.063	-0.074
-667.047	-92.321	0.405	0.114
-666.032	-200.000	0.052	-0.281
-665.018	30.252	0.271	0.231
-664.003	-155.917	-0.356	-0.023
-662.989	-114.385	0.186	-0.036
-661.974	-29.980	0.126	-0.071
-660.959	185.803	0.242	-0.359
-659.945	800.000	0.084	0.294
-658.930	14.823	0.201	0.156
-657.916	-200.000	0.014	-0.155
-656.901	-155.319	0.178	-0.012
-655.886	-81.355	-0.015	0.005
-654.872	-200.000	-0.023	-0.112
-653.857	-108.910	-0.354	-0.075
-652.843	-163.531	-0.268	0.013
-651.828	66.069	0.181	-0.183
-650.814	-200.000	0.037	-0.389
-649.799	-83.021	0.174	-0.056
-648.784	-138.100	0.089	0.010
-647.770	-26.252	-0.404	-0.237
-646.755	-45.687	-0.187	-0.092
-645.741	-200.000	-0.003	-0.078
-644.726	-136.177	0.043	-0.005
-643.711	96.447	-0.174	0.198
-642.697	49.765	0.089	0.083
-641.682	800.000	-0.060	0.188
-640.668	6.147	-0.186	0.137
-639.653	-6.921	0.269	0.182
-638.638	-185.783	-0.256	-0.004
-637.624	-142.657	-0.095	-0.009
-636.609	-99.844	-0.143	0.035
-635.595	106.201	-0.100	0.118
-634.580	-54.622	0.165	0.074
-633.565	-200.000	0.037	-0.209
-632.551	800.000	0.073	-0.294
-631.536	-22.367	-0.168	-0.102
-630.522	125.166	-0.256	-0.322
-629.507	139.833	0.391	-0.513
-628.492	-76.471	-0.222	-0.078
-627.478	-123.861	0.281	-0.044
-626.463	-200.000	-0.042	-0.490
-625.449	151.595	0.118	0.159
-624.434	-7.277	0.379	0.256
-623.419	415.097	0.072	-0.153
-622.405	800.000	0.027	-0.114
-621.390	-4.647	0.318	0.219
-620.376	-183.405	-0.217	0.004
-619.361	221.898	-0.128	0.204
-618.346	-158.104	-0.148	0.009
-617.332	471.159	-0.093	0.208
-616.317	751.451	-0.041	-0.111
-615.303	-112.668	0.147	-0.029
-614.288	-200.000	-0.032	-0.192
-613.273	-43.334	-0.160	0.081
-612.259	13.311	0.048	0.037
-611.244	-200.000	0.012	-0.165
-610.230	-77.868	0.173	-0.059
-609.215	340.120	-0.115	0.224
-608.201	-107.271	-0.069	0.015
-607.186	-200.000	0.002	-0.035
-606.171	-10.047	-0.163	0.108
-605.157	-142.869	0.066	0.006
-604.142	195.917	-0.091	0.138
-603.128	202.304	0.275	0.422
-602.113	-84.443	0.162	-0.051
-601.098	518.843	-0.037	-0.086
-600.084	-200.000	-0.010	0.215
-599.069	-167.089	0.102	0.004
-598.055	-200.000	-0.011	-0.092
-597.040	-55.373	0.169	-0.075
-596.025	800.000	0.057	-0.210
-595.011	15.749	-0.280	-0.219
-593.996	689.915	-0.151	0.394
-592.982	60.570	-0.185	0.182
-591.967	-200.000	-0.029	-0.166
-590.952	-200.000	0.046	0.324
-589.938	-114.817	-0.150	0.028
-588.923	340.601	-0.182	0.352
-587.909	179.982	0.248	0.361
-586.894	282.379	0.065	-0.116
-585.879	-200.000	0.059	-0.293
-584.865	-200.000	-0.028	0.155
-583.850	-158.253	0.507	0.029
-582.836	355.221	-0.241	0.477
-581.821	109.085	0.174	-0.207
-580.806	126.607	0.024	-0.031
-579.792	206.236	-0.070	-0.108
-578.777	-84.477	0.333	0.105
-577.763	-143.935	0.142	0.013
-576.748	24.473	0.189	0.155
-575.733	177.190	0.163	-0.235
-574.719	-200.000	0.027	0.162
-573.704	-57.519	-0.086	0.037
-572.690	800.000	-0.068	-0.224
-571.675	119.133	-0.118	-0.145
-570.661	7.239	0.236	-0.175
-569.646	39.570	-0.100	0.089
-568.631	800.000	-0.120	-0.360
-567.617	40.248	-0.238	0.213
-566.602	-200.000	0.008	0.039
-565.588	-200.000	0.007	-0.149
-564.573	274.249	0.044	0.078
-563.558	156.419	-0.126	-0.172
-562.544	-200.000	-0.006	0.066
-561.529	-49.917	-0.406	0.191
-560.515	-95.584	0.178	0.047
-559.500	800.000	0.048	-0.185
-558.485	-135.043	-0.498	-0.060
-557.471	269.161	0.187	-0.327
-556.456	-26.892	-0.321	0.186
-555.442	-91.045	-0.502	-0.143
-554.427	-200.000	-0.007	-0.087
-553.412	589.843	-0.074	-0.180
-552.398	-24.357	-0.139	-0.082
-551.383	301.567	0.239	0.439
-550.369	-48.405	0.285	-0.136
-549.354	-123.156	0.369	-0.059
-548.339	130.281	-0.209	0.265
-547.325	106.185	-0.067	-0.078
-546.310	-78.019	0.477	0.163
-545.296	394.576	0.140	-0.289
-544.281	522.620	-0.086	-0.201
-543.266	22.418	0.193	0.156
-542.252	72.956	0.115	0.119
-541.237	-14.870	0.183	0.116
-540.223	-36.745	0.114	-0.061
-539.208	-133.202	0.178	0.022
-538.193	-113.488	-0.101	0.020
-537.179	-115.723	-0.106	0.020
-536.164	-121.714	-0.287	-0.047
-535.150	226.505	-0.153	0.247
-534.135	106.939	-0.080	-0.094
-533.121	-152.105	-0.386	-0.028
-532.106	-50.419	-0.391	-0.183
-531.091	-164.934	-0.242	0.011
-530.077	68.072	0.272	0.276
-529.062	-65.818	-0.223	-0.088
-528.048	-119.936	0.352	0.060
-527.033	471.549	-0.081	-0.180
-526.018	133.574	-0.197	0.252
-525.004	-19.336	0.153	-0.094
-523.989	496.346	-0.069	0.157
-522.975	-95.105	-0.275	0.074
-521.960	800.000	0.055	-0.195
-520.945	95.417	0.189	-0.214
-519.931	35.967	0.168	0.147
-518.916	120.847	0.179	0.220
-517.902	-90.169	-0.163	-0.047
-516.887	404.146	-0.082	0.172
-515.872	-133.200	-0.135	0.017
-514.858	800.000	0.085	-0.294
-513.843	-98.440	0.306	0.078
-512.829	-187.142	-0.179	0.002
-511.814	125.987	-0.209	0.262
-510.799	701.088	-0.056	-0.147
-509.785	650.585	-0.020	0.051
-508.770	146.007	0.052	-0.069
-507.756	404.212	0.103	0.216
-506.741	800.000	0.034	-0.128
-505.726	33.167	-0.310	-0.267
-504.712	-65.511	0.269	0.107
-503.697	67.624	-0.173	0.175
-502.683	112.795	-0.074	-0.089
-501.668	46.816	0.182	0.168
-500.653	111.919	-0.235	-0.281
-499.639	-13.570	0.254	0.163
-498.624	-125.648	-0.103	0.015
-497.610	225.457	0.145	-0.233
-496.595	-78.492	0.225	0.076
-495.581	-41.188	0.082	0.042
-494.566	-161.411	-0.166	0.008
-493.551	185.864	-0.334	0.492
-492.537	171.910	0.197	0.280
-491.522	-200.000	-0.046	-0.314
-490.508	54.501	0.170	0.162
-489.493	-200.000	0.022	-0.291
-488.478	-2.589	0.139	-0.096
-487.464	93.580	-0.056	0.063
-486.449	-117.265	0.260	0.047
-485.435	-43.458	0.144	0.072
-484.420	163.012	0.077	-0.107
-483.405	189.073	0.147	-0.218
-482.391	800.000	0.031	-0.104
-481.376	487.634	-0.095	-0.215
-480.362	440.200	-0.068	-0.147
-479.347	292.550	0.034	-0.062
-478.332	-200.000	-0.039	0.538
-477.318	-167.547	0.484	0.019
-476.303	-200.000	-0.036	-0.288
-475.289	-141.603	0.086	-0.009
-474.274	-33.564	0.272	-0.149
-473.259	-133.007	0.285	0.036
-472.245	102.661	0.319	-0.369
-471.230	800.000	-0.078	-0.271
-470.216	109.807	-0.193	0.229
-469.201	-99.821	0.286	-0.071
-468.186	-97.509	-0.224	0.058
-467.172	14.882	-0.152	0.118
-466.157	517.117	0.101	0.234
-465.143	800.000	-0.072	-0.219
-464.128	18.739	0.082	0.065
-463.113	174.739	-0.066	0.095
-462.099	800.000	0.028	0.113
-461.084	-36.820	0.063	0.033
-460.070	288.350	0.041	0.073
-459.055	-42.810	-0.240	-0.121
-458.040	669.453	-0.182	0.465
-457.026	372.695	0.056	-0.112
-456.011	367.449	-0.098	-0.196
-454.997	-125.829	-0.236	0.035
-453.982	-200.000	-0.038	-0.330
-452.968	172.724	0.090	-0.128
-451.953	-32.200	-0.071	-0.039
-450.938	-55.174	-0.064	-0.028
-449.924	256.589	-0.166	-0.282
-448.909	172.986	0.089	0.126
-447.895	262.812	-0.105	0.180
-446.880	800.000	-0.066	-0.264
-445.865	82.549	0.145	-0.156
-444.851	-41.577	0.203	0.103
-443.836	-200.000	0.002	-0.159
-442.822	-63.746	0.463	-0.187
-441.807	800.000	-0.032	0.119
-440.792	-106.793	0.255	0.056
-439.778	222.639	0.105	0.168
-438.763	800.000	0.038	0.146
-437.749	30.871	-0.273	0.231
-436.734	-104.151	0.117	0.027
-435.719	-111.483	-0.321	-0.065
-434.705	282.749	0.043	-0.077
-433.690	-200.000	-0.065	0.391
-432.676	-200.000	0.023	0.329
-431.661	-67.282	-0.322	0.125
-430.646	-200.000	-0.012	-0.218
-429.632	69.097	-0.065	-0.066
-428.617	-5.890	-0.211	0.143
-427.603	-200.000	-0.033	0.252
-426.588	-6.551	0.235	-0.158
-425.573	-139.721	-0.129	0.014
-424.559	-200.000	-0.026	0.181
-423.544	800.000	-0.018	0.074
-422.530	-134.707	-0.042	0.005
-421.515	40.356	-0.096	-0.086
-420.500	106.154	0.071	0.083
-419.486	-41.392	-0.138	0.070
-418.471	-76.410	-0.250	0.087
-417.457	-68.812	0.318	-0.121
-416.442	800.000	-0.049	-0.139
-415.428	-179.330	-0.276	-0.006
-414.413	-58.731	0.243	-0.104
-413.398	65.778	0.207	0.207
-412.384	547.192	-0.084	-0.198
-411.369	-200.000	-0.001	-0.360
-410.355	147.855	0.052	-0.069
-409.340	-200.000	0.036	-0.224
-408.325	5.083	0.113	-0.082
-407.311	0.521	0.098	0.069
-406.296	-59.641	0.182	-0.077
-405.282	97.864	-0.089	-0.101
-404.267	205.248	-0.062	-0.094
-403.252	-93.145	-0.140	0.038
-402.238	-45.016	-0.450	0.221
-401.223	-57.823	0.302	-0.130
-400.209	-115.001	-0.182	-0.034
-399.194	61.779	0.191	0.187
-398.179	471.266	-0.131	-0.291
-397.165	669.203	0.049	0.125
-396.150	139.255	0.270	0.350
-395.136	-118.841	0.041	-0.007
-394.121	336.626	0.038	0.073
-393.106	46.589	-0.305	-0.280
-392.092	366.727	0.084	0.166
-391.077	-121.088	0.312	-0.052
-390.063	-57.910	-0.146	0.063
-389.048	181.385	-0.045	0.066
-388.033	-68.476	0.386	-0.148
-387.019	126.911	0.165	-0.207
-386.004	70.421	0.303	0.308
-384.990	-200.000	0.016	0.224
-383.975	-200.000	0.023	-0.136
-382.960	-43.716	-0.579	0.288
-381.946	-78.325	0.285	-0.097
-380.931	800.000	0.146	-0.477
-379.917	24.433	-0.295	-0.241
-378.902	333.574	-0.218	0.415
-377.888	-63.038	0.100	-0.041
-376.873	18.630	0.106	-0.084
-375.858	-20.463	0.034	0.021
-374.844	305.361	0.037	0.067
-373.829	-200.000	0.063	0.343
-372.815	-97.183	0.220	-0.057
-371.800	-133.023	-0.125	-0.016
-370.785	-101.093	-0.313	0.076
-369.771	-48.332	-0.259	0.123
-368.756	183.140	-0.080	0.116
-367.742	-200.000	0.030	-0.342
-366.727	-54.414	0.182	0.081
-365.712	-129.904	-0.033	0.004
-364.698	-65.719	0.219	-0.086
-363.683	-146.022	-0.308	0.027
-362.669	-74.750	-0.113	0.040
-361.654	-52.637	-0.315	0.143
-360.639	45.120	-0.112	0.102
-359.625	800.000	-0.068	-0.226
-358.610	-200.000	0.031	0.172
-357.596	95.556	-0.106	-0.119
-356.581	-200.000	-0.051	0.352
-355.566	213.696	-0.148	0.231
-354.552	-31.040	0.234	0.130
-353.537	104.667	0.052	0.060
-352.523	480.035	0.077	0.173
-351.508	-200.000	-0.023	0.272
-350.493	220.768	0.240	-0.379
-349.479	220.432	-0.117	-0.184
-348.464	800.000	0.037	0.133
-347.450	800.000	-0.082	-0.270
-346.435	-74.705	-0.229	0.081
-345.420	359.978	0.063	0.124
-344.406	93.878	-0.087	-0.097
-343.391	-143.160	-0.081	0.008
-342.377	1.897	-0.240	-0.170
-341.362	-200.000	-0.003	0.214
-340.348	-15.084	-0.156	0.098
-339.333	-67.559	-0.212	-0.082
-338.318	-15.033	-0.074	-0.047
-337.304	-166.363	0.341	-0.014
-336.289	52.863	0.069	-0.065
-335.275	-200.000	0.007	-0.076
-334.260	800.000	0.027	0.082
-333.245	104.831	-0.079	-0.091
-332.231	-137.815	-0.215	-0.024
-331.216	-2.520	-0.129	0.089
-330.202	49.164	0.254	-0.235
-329.187	-200.000	0.025	-0.186
-328.172	800.000	-0.086	-0.298
-327.158	48.391	0.173	0.159
-326.143	-39.228	0.408	0.211
-325.129	41.070	-0.345	0.306
-324.114	-200.000	0.015	0.148
-323.099	-200.000	-0.103	-0.468
-322.085	-200.000	-0.014	0.080
-321.070	-200.000	0.027	-0.127
-320.056	800.000	-0.012	-0.048
-319.041	-57.163	-0.330	-0.143
-318.026	-200.000	0.006	0.092
-317.012	-98.898	-0.280	0.070
-315.997	800.000	-0.111	0.376
-314.983	-200.000	-0.002	-0.110
-313.968	257.926	0.129	0.219
-312.953	143.401	-0.127	0.166
-311.939	250.995	0.265	-0.444
-310.924	43.279	0.127	-0.114
-309.910	-200.000	-0.039	-0.187
-308.895	-70.208	0.407	0.152
-307.880	100.809	0.210	-0.240
-306.866	-75.456	-0.491	0.172
-305.851	-200.000	0.019	-0.248
-304.837	-89.390	-0.074	-0.021
-303.822	-37.748	0.281	0.147
-302.807	-200.000	0.002	0.021
-301.793	-116.007	0.325	0.060
-300.778	800.000	-0.073	0.237
-299.764	-120.141	0.278	-0.047
-298.749	-5.206	-0.112	0.076
-297.735	18.151	-0.160	-0.125
-296.720	-64.004	0.470	-0.189
-295.705	339.713	-0.054	0.103
-294.691	474.525	0.129	-0.286
-293.676	-100.074	-0.265	-0.065
-292.662	-29.796	-0.310	0.174
-291.647	-11.454	-0.165	0.106
-290.632	119.530	0.032	0.038
-289.618	-17.209	0.254	-0.157
-288.603	153.107	-0.039	0.052
-287.589	228.969	0.106	-0.170
-286.574	159.510	-0.175	-0.240
-285.559	-200.000	-0.061	0.271
-284.545	94.577	-0.143	-0.160
-283.530	-70.017	-0.117	0.044
-282.516	60.956	0.114	-0.111
-281.501	-14.992	-0.516	-0.325
-280.486	94.030	0.093	0.103
-279.472	504.764	0.025	0.056
-278.457	800.000	0.037	-0.144
-277.443	-137.080	-0.170	0.019
-276.428	-97.876	-0.035	0.009
-275.413	172.251	0.090	0.127
-274.399	246.213	-0.143	-0.237
-273.384	20.549	-0.126	-0.100
-272.370	54.016	0.070	-0.066
-271.355	39.526	-0.122	0.107
-270.340	150.917	-0.112	-0.149
-269.326	341.293	-0.074	-0.143
-268.311	-161.071	0.259	0.013
-267.297	20.587	0.091	-0.072
-266.282	432.436	0.153	-0.326
-265.267	126.557	0.214	0.265
-264.253	-158.724	0.037	0.002
-263.238	800.000	-0.100	0.317
-262.224	-200.000	0.038	-0.187
-261.209	564.802	-0.113	0.269
-260.195	-169.928	-0.355	-0.012
-259.180	-47.400	0.031	-0.015
-258.165	-200.000	0.005	0.063
-257.151	659.161	0.066	0.167
-256.136	-61.015	-0.077	0.032
-255.122	353.712	-0.241	-0.469
-254.107	-133.620	-0.121	-0.015
-253.092	169.852	-0.255	0.358
-252.078	-145.130	0.283	0.025
-251.063	-132.656	-0.230	-0.029
-250.049	-86.684	-0.252	-0.076
-249.034	69.788	-0.166	0.168
-248.019	201.248	-0.067	-0.102
-247.005	-18.406	0.209	0.128
-245.990	-157.670	-0.226	-0.013
-244.976	-200.000	0.120	0.000
-243.961	570.579	0.032	-0.077
-242.946	-30.001	0.193	-0.108
-241.932	65.730	-0.118	0.117
-240.917	-130.483	0.486	0.064
-239.903	-113.353	0.163	-0.031
-238.888	-110.124	-0.497	-0.102
-237.873	-200.000	-0.049	-0.271
-236.859	-173.988	0.377	0.011
-235.844	800.000	-0.110	0.325
-234.830	-164.197	0.196	-0.009
-233.815	-53.073	-0.061	-0.028
-232.800	-55.284	0.050	-0.022
-231.786	-117.407	-0.317	-0.056
-230.771	-200.000	-0.062	0.272
-229.757	-74.226	0.249	0.088
-228.742	-170.259	-0.072	-0.002
-227.727	-136.990	-0.550	-0.062
-226.713	1.776	0.147	-0.103
-225.698	-130.760	0.214	0.028
-224.684	-200.000	0.005	0.067
-223.669	-200.000	-0.064	0.360
-222.655	800.000	-0.062	0.208
-221.640	91.084	0.163	0.179
-220.625	-200.000	-0.016	-0.162
-219.611	127.171	-0.007	-0.008
-218.596	51.838	-0.279	0.260
-217.582	-138.710	0.508	0.054
-216.567	-200.000	0.041	-0.196
-215.552	181.772	0.071	0.102
-214.538	-54.619	0.089	-0.040
-213.523	-200.000	0.020	-0.167
-212.509	-200.000	0.022	0.158
-211.494	674.913	-0.065	0.165
-210.479	-200.000	-0.002	0.067
-209.465	800.000	-0.059	-0.162
-208.450	275.281	-0.179	-0.311
-207.436	800.000	0.087	0.238
-206.421	-200.000	-0.022	0.165
-205.406	-200.000	0.075	0.332
-204.392	-81.169	-0.105	-0.034
-203.377	-98.154	0.210	-0.053
-202.363	-166.687	0.411	0.017
-201.348	83.463	-0.225	-0.240
-200.333	-59.613	0.210	-0.088
-199.319	-128.893	0.064	-0.009
-198.304	485.069	0.094	0.209
-197.290	-200.000	0.008	0.186
-196.275	-200.000	-0.038	-0.166
-195.260	32.130	0.112	0.095
-194.246	-187.216	0.026	0.000
-193.231	210.975	-0.210	-0.323
-192.217	-127.986	-0.234	-0.033
-191.202	-200.000	0.004	-0.242
-190.187	334.605	0.093	0.175
-189.173	-200.000	-0.003	0.292
-188.158	-35.639	0.049	-0.026
-187.144	-200.000	-0.044	0.219
-186.129	-47.147	0.047	-0.022
-185.114	800.000	0.130	-0.462
-184.100	-200.000	0.076	0.343
-183.085	204.061	0.146	-0.221
-182.071	113.000	-0.112	-0.133
-181.056	-126.893	-0.082	-0.012
-180.042	-67.221	0.256	-0.099
-179.027	-59.132	0.422	-0.178
-178.012	-200.000	-0.004	-0.174
-176.998	61.961	-0.088	-0.086
-175.983	0.237	-0.182	0.127
-174.969	356.733	0.086	-0.167
-173.954	73.985	0.324	0.332
-172.939	92.003	-0.265	0.291
-171.925	78.204	0.088	-0.091
-170.910	57.626	-0.090	-0.086
-169.896	-40.217	0.270	-0.137
-168.881	322.184	-0.081	-0.152
-167.866	-5.566	-0.194	-0.130
-166.852	-200.000	-0.012	-0.107
-165.837	217.811	-0.202	-0.315
-164.823	148.515	0.191	0.252
-163.808	800.000	0.046	0.159
-162.793	-78.016	-0.225	0.076
-161.779	-24.839	0.338	0.196
-160.764	-43.907	0.053	0.026
-159.750	-104.104	-0.193	0.044
-158.735	-200.000	-0.015	-0.072
-157.720	214.538	0.237	-0.366
-156.706	-200.000	0.040	-0.258
-155.691	-140.861	0.200	-0.020
-154.677	-200.000	-0.002	0.114
-153.662	51.360	-0.102	0.095
-152.647	-109.133	0.387	0.081
-151.633	486.220	-0.090	0.200
-150.618	-43.253	0.133	0.066
-149.604	-161.922	-0.263	-0.013
-148.589	-200.000	-0.017	-0.159
-147.574	447.187	0.131	0.281
-146.560	214.287	-0.137	-0.212
-145.545	178.175	-0.298	-0.425
-144.531	-200.000	-0.035	-0.161
-143.516	299.969	-0.140	-0.252
-142.502	289.715	-0.211	0.374
-141.487	-200.000	-0.041	0.218
-140.472	-200.000	0.012	-0.225
-139.458	-200.000	0.008	0.047
-138.443	146.295	-0.142	0.186
-137.429	81.665	-0.079	0.084
-136.414	-164.177	0.284	-0.013
-135.399	544.685	0.100	-0.232
-134.385	169.592	0.118	0.165
-133.370	-60.158	0.183	-0.076
-132.356	80.086	-0.220	0.231
-131.341	-48.988	-0.134	-0.063
-130.326	211.141	-0.105	-0.161
-129.312	-200.000	0.029	-0.223
-128.297	15.742	-0.181	-0.139
-127.283	-53.490	0.169	0.075
-126.268	75.624	-0.124	0.128
-125.253	391.631	0.117	0.237
-124.239	64.722	0.322	-0.317
-123.224	-71.787	-0.060	0.022
-122.210	-153.893	-0.267	0.018
