DTS Sentinel unit serial number:	SN413079Multiplexer serial number:	ORYXHardware model number:	OX4-SRSoftware version number:	ORYX F/W v4.00 Oryx Data Collector v3.7.2.0data status	okinstallation	princeton_trtdifferential loss correction	single-endedforward channel	channel 3reverse channel	N/Adate	2019/09/13time	20:04:34forward acquisition time	60.00reverse acquisition time	0.00gamma	496.2192k internal	0.2329k external	0.2329temperature offset calibration	1.0073default loss term (dB/km)	0.3790temperature slope calibration	1.0000multiplexer offset coefficient	1.0000multiplexer slope coefficient	1.0000fibre end	0.00T internal ref (°C)	29.69T ext. ref 1 (°C)	3.39T ext. ref 2 (°C)	23.97length (m)	temperature (°C)	Stokes	anti-Stokes-747.200	800.000	-0.048	0.149
-746.185	139.680	0.110	0.146
-745.171	90.681	-0.167	0.188
-744.156	68.099	-0.053	0.054
-743.142	1.196	0.209	0.151
-742.127	-135.216	-0.230	-0.028
-741.112	-200.000	0.030	0.187
-740.098	800.000	-0.064	0.263
-739.083	800.000	0.069	0.244
-738.069	-129.234	0.163	0.023
-737.054	800.000	0.069	0.239
-736.039	-33.161	-0.220	0.123
-735.025	-200.000	-0.029	0.257
-734.010	-142.546	-0.226	-0.022
-732.996	-114.345	0.052	-0.010
-731.981	-16.254	-0.246	-0.157
-730.966	-94.149	0.374	-0.103
-729.952	800.000	0.087	0.317
-728.937	-200.000	-0.055	-0.243
-727.923	-24.581	-0.466	0.279
-726.908	800.000	-0.149	-0.531
-725.894	-20.968	-0.199	-0.123
-724.879	-38.162	0.436	0.233
-723.864	800.000	0.095	0.345
-722.850	241.123	0.170	0.286
-721.835	800.000	0.142	0.397
-720.821	-152.944	-0.347	-0.025
-719.806	800.000	0.052	-0.211
-718.791	63.813	-0.230	0.232
-717.777	-200.000	-0.005	0.095
-716.762	258.305	-0.037	-0.064
-715.748	168.761	-0.076	-0.109
-714.733	-48.325	-0.138	0.067
-713.718	800.000	-0.068	-0.255
-712.704	10.586	-0.106	-0.081
-711.689	-47.787	-0.251	-0.122
-710.675	276.441	0.026	0.047
-709.660	-108.914	0.314	0.068
-708.645	-69.833	0.156	-0.060
-707.631	-200.000	0.022	-0.106
-706.616	79.367	0.071	0.077
-705.602	-104.572	-0.281	0.065
-704.587	-77.494	-0.124	0.043
-703.572	283.308	0.084	-0.151
-702.558	-200.000	-0.067	-0.347
-701.543	-114.070	0.094	-0.018
-700.529	-200.000	0.038	-0.298
-699.514	-200.000	-0.001	-0.010
-698.499	513.795	0.062	-0.146
-697.485	-76.693	-0.211	-0.074
-696.470	430.441	0.113	-0.245
-695.456	304.066	0.048	-0.089
-694.441	-112.245	-0.158	0.032
-693.426	336.788	0.236	0.460
-692.412	-44.808	-0.253	-0.127
-691.397	-36.049	-0.123	0.067
-690.383	-34.241	0.519	-0.287
-689.368	-200.000	0.028	-0.209
-688.354	15.929	0.216	0.171
-687.339	-77.948	0.141	0.049
-686.324	-135.301	-0.346	-0.042
-685.310	202.011	0.074	-0.115
-684.295	159.743	-0.079	0.111
-683.281	-200.000	0.041	0.184
-682.266	-200.000	-0.008	-0.140
-681.251	116.651	0.069	-0.086
-680.237	736.871	-0.021	0.058
-679.222	126.871	-0.159	-0.203
-678.208	64.233	-0.251	0.254
-677.193	92.180	0.037	-0.042
-676.178	-52.609	0.220	-0.102
-675.164	83.261	-0.231	-0.253
-674.149	255.039	-0.165	-0.284
-673.135	97.219	-0.111	-0.128
-672.120	-200.000	0.031	-0.195
-671.105	-34.422	0.309	-0.170
-670.091	43.744	-0.253	0.233
-669.076	319.368	-0.098	-0.187
-668.062	-6.380	-0.225	0.154
-667.047	800.000	0.054	-0.153
-666.032	-31.043	-0.187	-0.106
-665.018	-200.000	0.019	0.205
-664.003	433.632	-0.115	-0.250
-662.989	-0.276	-0.333	-0.238
-661.974	30.605	-0.270	-0.232
-660.959	-34.818	-0.087	-0.048
-659.945	266.993	-0.121	0.212
-658.930	83.616	-0.235	0.257
-657.916	800.000	0.146	-0.407
-656.901	-20.686	0.195	-0.120
-655.886	-72.654	0.295	-0.109
-654.872	30.841	0.089	-0.076
-653.857	221.647	0.121	0.195
-652.843	-200.000	-0.032	0.143
-651.828	-80.755	0.349	-0.116
-650.814	-63.911	-0.369	-0.152
-649.799	-157.950	-0.300	0.018
-648.784	147.626	-0.174	0.235
-647.770	800.000	0.038	-0.168
-646.755	-200.000	-0.022	-0.434
-645.741	5.716	0.296	-0.219
-644.726	90.400	0.213	-0.239
-643.711	182.112	0.117	-0.172
-642.697	11.682	-0.128	0.098
-641.682	-93.373	0.210	-0.058
-640.668	-140.881	0.130	0.013
-639.653	-82.965	0.178	0.058
-638.638	44.604	-0.017	-0.016
-637.624	401.117	-0.080	-0.168
-636.609	-3.389	0.178	0.125
-635.595	-96.104	0.144	-0.038
-634.580	-14.059	-0.558	-0.361
-633.565	-36.917	0.103	0.055
-632.551	362.009	0.044	-0.088
-631.536	-148.780	0.352	-0.029
-630.522	220.998	-0.113	0.182
-629.507	411.485	-0.035	0.075
-628.492	-24.414	-0.204	-0.122
-627.478	-33.797	-0.295	-0.163
-626.463	369.045	0.086	-0.173
-625.449	253.798	-0.094	-0.162
-624.434	-40.585	0.223	-0.116
-623.419	113.923	-0.187	0.228
-622.405	189.669	0.118	0.178
-621.390	-200.000	0.004	-0.141
-620.376	46.453	-0.095	-0.088
-619.361	-16.520	0.120	-0.076
-618.346	-85.497	-0.077	0.024
-617.332	61.341	-0.149	0.148
-616.317	741.308	-0.057	-0.154
-615.303	-200.000	0.038	-0.203
-614.288	-65.792	0.087	0.035
-613.273	-13.521	-0.103	-0.067
-612.259	24.984	0.055	0.046
-611.244	-63.155	-0.321	-0.133
-610.230	-200.000	0.020	-0.259
-609.215	800.000	-0.028	-0.099
-608.201	-128.542	0.326	-0.046
-607.186	-74.455	-0.279	-0.101
-606.171	82.726	0.084	-0.091
-605.157	159.593	0.262	-0.366
-604.142	222.369	-0.128	0.207
-603.128	-131.904	0.184	-0.024
-602.113	751.311	-0.162	0.437
-601.098	58.233	-0.072	0.071
-600.084	332.216	0.064	-0.123
-599.069	180.156	-0.036	-0.052
-598.055	18.266	0.223	-0.178
-597.040	-109.923	-0.197	-0.041
-596.025	286.816	0.133	0.241
-595.011	-200.000	0.023	0.283
-593.996	-100.377	0.177	-0.044
-592.982	800.000	-0.104	-0.380
-591.967	-88.907	0.159	0.047
-590.952	102.171	0.313	0.366
-589.938	39.577	0.091	-0.082
-588.923	36.042	-0.331	-0.291
-587.909	459.014	0.099	-0.220
-586.894	-45.672	-0.167	0.083
-585.879	-29.199	-0.257	0.147
-584.865	-112.371	-0.277	0.055
-583.850	14.259	0.176	-0.137
-582.836	573.268	0.043	-0.106
-581.821	-6.194	-0.078	0.053
-580.806	-90.795	-0.106	-0.031
-579.792	722.285	-0.070	0.185
-578.777	-200.000	0.045	0.249
-577.763	235.023	-0.135	-0.223
-576.748	-70.715	0.284	-0.107
-575.733	81.195	-0.202	-0.219
-574.719	45.014	0.078	0.072
-573.704	-57.723	0.205	0.090
-572.690	67.784	-0.217	0.222
-571.675	-55.569	-0.153	-0.069
-570.661	-87.609	-0.145	-0.044
-569.646	217.022	-0.112	0.178
-568.631	800.000	-0.068	-0.198
-567.617	84.026	-0.441	-0.482
-566.602	800.000	-0.028	-0.096
-565.588	358.523	0.106	-0.211
-564.573	-10.737	-0.345	0.229
-563.558	-130.429	-0.416	-0.056
-562.544	800.000	-0.009	0.033
-561.529	800.000	-0.023	0.069
-560.515	64.188	-0.118	0.119
-559.500	-86.709	-0.249	-0.076
-558.485	-125.261	-0.135	-0.021
-557.471	-126.019	0.252	-0.038
-556.456	-185.466	-0.127	-0.002
-555.442	-200.000	0.043	-0.314
-554.427	227.689	-0.137	-0.223
-553.412	36.953	0.250	-0.221
-552.398	-200.000	-0.011	-0.264
-551.383	202.577	0.146	0.225
-550.369	-48.604	-0.148	0.071
-549.354	-95.436	0.033	0.009
-548.339	244.412	-0.148	0.249
-547.325	-44.190	-0.131	0.066
-546.310	-200.000	-0.025	0.127
-545.296	156.209	0.080	0.110
-544.281	-159.820	0.367	0.020
-543.266	64.868	0.186	-0.188
-542.252	800.000	-0.093	-0.274
-541.237	72.514	0.152	0.158
-540.223	-136.059	-0.503	-0.059
-539.208	-65.904	-0.233	0.093
-538.193	-200.000	0.019	-0.095
-537.179	150.835	0.084	0.114
-536.164	-200.000	-0.059	0.359
-535.150	792.565	0.099	-0.273
-534.135	566.902	0.080	0.194
-533.121	-78.155	-0.285	0.098
-532.106	-7.672	0.317	0.214
-531.091	63.906	-0.149	-0.149
-530.077	800.000	-0.105	-0.325
-529.062	-200.000	0.025	0.111
-528.048	800.000	-0.022	-0.069
-527.033	239.894	-0.119	-0.198
-526.018	-64.390	0.187	-0.076
-525.004	-92.710	0.408	0.114
-523.989	800.000	-0.045	-0.144
-522.975	-200.000	0.009	0.256
-521.960	250.383	-0.096	-0.163
-520.945	116.830	0.053	-0.064
-519.931	-62.737	0.244	0.101
-518.916	736.625	-0.071	0.191
-517.902	-200.000	0.016	0.226
-516.887	800.000	0.027	0.111
-515.872	-64.386	0.103	0.042
-514.858	-140.815	0.277	0.029
-513.843	32.240	-0.181	0.156
-512.829	800.000	-0.123	0.427
-511.814	42.349	-0.244	-0.222
-510.799	552.033	0.057	0.137
-509.785	283.746	0.062	0.110
-508.770	277.805	-0.033	0.058
-507.756	-146.633	0.247	0.021
-506.741	-97.828	-0.412	0.106
-505.726	27.162	-0.213	-0.178
-504.712	-27.630	-0.073	0.042
-503.697	-150.085	-0.453	-0.035
-502.683	289.081	0.118	0.214
-501.668	-65.542	0.180	-0.072
-500.653	-101.083	0.058	0.014
-499.639	34.353	0.188	0.164
-498.624	147.357	0.179	0.240
-497.610	134.307	0.177	-0.229
-496.595	-200.000	-0.005	-0.153
-495.581	223.501	0.143	0.231
-494.566	-48.645	-0.202	0.097
-493.551	264.560	0.093	-0.161
-492.537	-127.370	-0.230	-0.033
-491.522	-96.354	-0.438	0.116
-490.508	176.780	-0.062	0.090
-489.493	350.288	-0.173	-0.341
-488.478	42.937	-0.124	-0.113
-487.464	88.424	0.142	0.157
-486.449	800.000	-0.076	-0.294
-485.435	-7.413	0.101	0.068
-484.420	249.293	-0.126	0.213
-483.405	-108.952	-0.176	0.038
-482.391	-13.893	0.087	-0.056
-481.376	177.236	0.174	0.253
-480.362	-113.722	0.216	0.042
-479.347	-115.748	0.082	-0.015
-478.332	-200.000	-0.002	0.247
-477.318	17.046	0.267	0.211
-476.303	246.007	-0.080	-0.135
-475.289	800.000	0.089	-0.273
-474.274	-68.748	0.099	0.038
-473.259	-59.631	-0.250	-0.107
-472.245	-112.366	0.045	-0.009
-471.230	800.000	-0.037	0.120
-470.216	-27.976	0.400	-0.231
-469.201	-89.664	-0.040	-0.012
-468.186	-7.580	-0.313	-0.211
-467.172	800.000	0.066	-0.209
-466.157	-20.240	-0.257	-0.158
-465.143	551.018	0.117	-0.279
-464.128	90.398	0.114	0.127
-463.113	755.906	-0.055	0.149
-462.099	-63.105	-0.055	-0.023
-461.084	-179.272	0.209	-0.005
-460.070	122.743	0.112	-0.140
-459.055	3.875	0.392	-0.285
-458.040	141.293	-0.084	-0.111
-457.026	-132.266	0.198	-0.026
-456.011	-126.829	-0.457	-0.067
-454.997	-200.000	-0.092	-0.490
-453.982	101.094	-0.163	0.189
-452.968	-35.535	0.289	-0.156
-451.953	-200.000	-0.019	0.139
-450.938	-158.559	0.191	-0.011
-449.924	-4.627	-0.380	0.262
-448.909	217.553	0.128	-0.204
-447.895	-200.000	-0.000	-0.048
-446.880	-37.287	0.373	0.198
-445.865	35.676	-0.128	-0.112
-444.851	-174.948	-0.298	-0.008
-443.836	-200.000	0.003	0.178
-442.822	-158.521	0.183	0.011
-441.807	105.457	0.153	0.180
-440.792	-200.000	-0.009	0.252
-439.778	69.055	-0.098	-0.100
-438.763	214.804	0.258	0.407
-437.749	-200.000	0.022	0.146
-436.734	16.901	0.165	0.130
-435.719	-173.451	-0.076	0.002
-434.705	-117.321	0.434	0.078
-433.690	-13.803	-0.178	0.115
-432.676	123.693	0.120	0.149
-431.661	-25.311	-0.203	0.119
-430.646	0.379	0.098	-0.070
-429.632	-110.702	0.276	-0.057
-428.617	-125.858	-0.308	-0.046
-427.603	-200.000	0.033	0.200
-426.588	-200.000	-0.021	-0.220
-425.573	141.540	0.100	-0.132
-424.559	800.000	0.115	-0.365
-423.544	56.016	0.285	-0.275
-422.530	95.374	0.255	0.289
-421.515	-37.025	-0.277	-0.147
-420.500	103.261	-0.210	0.245
-419.486	67.093	0.163	0.165
-418.471	127.084	0.038	0.048
-417.457	-200.000	-0.008	-0.345
-416.442	-31.736	-0.017	0.009
-415.428	36.010	0.235	-0.206
-414.413	85.761	0.139	0.152
-413.398	-53.097	-0.315	-0.144
-412.384	-28.901	-0.175	0.100
-411.369	38.785	-0.086	0.076
-410.355	432.994	0.133	-0.286
-409.340	-148.483	-0.382	0.031
-408.325	800.000	0.067	0.219
-407.311	-161.740	0.259	-0.013
-406.296	65.969	0.288	-0.290
-405.282	800.000	-0.018	-0.078
-404.267	293.986	-0.107	0.194
-403.252	182.292	-0.070	-0.103
-402.238	800.000	-0.103	0.291
-401.223	-200.000	-0.050	0.280
-400.209	102.483	-0.306	0.355
-399.194	568.948	0.067	0.162
-398.179	-82.094	-0.202	0.066
-397.165	-200.000	0.048	0.289
-396.150	-200.000	-0.007	0.198
-395.136	15.227	0.060	0.047
-394.121	-200.000	-0.007	0.254
-393.106	-41.760	0.161	0.082
-392.092	124.674	-0.132	-0.165
-391.077	-179.648	0.409	-0.009
-390.063	175.872	-0.148	-0.214
-389.048	-30.214	0.295	0.166
-388.033	70.854	-0.213	0.219
-387.019	37.760	-0.133	0.118
-386.004	-173.831	-0.318	-0.009
-384.990	46.684	0.284	0.262
-383.975	-82.001	-0.417	-0.135
-382.960	-27.199	0.130	0.075
-381.946	-51.487	-0.144	0.067
-380.931	219.894	-0.040	-0.064
-379.917	-97.185	0.068	-0.018
-378.902	-200.000	-0.005	0.146
-377.888	382.160	0.038	0.078
-376.873	105.594	-0.121	-0.142
-375.858	163.624	-0.159	-0.223
-374.844	-124.601	-0.151	0.023
-373.829	25.313	0.196	-0.162
-372.815	-95.091	0.228	-0.061
-371.800	-142.273	-0.443	-0.043
-370.785	569.780	0.049	-0.118
-369.771	-200.000	-0.044	-0.365
-368.756	-63.042	-0.190	0.078
-367.742	36.838	-0.180	-0.158
-366.727	-200.000	-0.016	-0.131
-365.712	675.380	-0.092	0.238
-364.698	-85.225	0.083	0.026
-363.683	-200.000	-0.017	0.153
-362.669	-200.000	0.087	0.413
-361.654	-95.989	-0.123	0.032
-360.639	-14.626	-0.146	0.093
-359.625	-200.000	0.012	0.175
-358.610	-110.779	0.306	0.063
-357.596	800.000	0.049	-0.185
-356.581	63.432	0.184	-0.183
-355.566	180.317	0.112	-0.163
-354.552	-200.000	-0.001	0.073
-353.537	-81.658	0.461	-0.150
-352.523	80.206	0.322	-0.344
-351.508	135.561	-0.054	0.069
-350.493	-131.044	0.097	0.013
-349.479	103.740	0.120	-0.140
-348.464	800.000	-0.008	0.034
-347.450	5.849	0.097	-0.071
-346.435	-132.551	0.569	0.072
-345.420	21.198	-0.108	0.087
-344.406	44.774	0.216	0.197
-343.391	785.435	-0.058	-0.158
-342.377	800.000	0.095	-0.312
-341.362	310.212	0.189	-0.351
-340.348	-149.951	0.036	-0.003
-339.333	251.184	-0.045	-0.075
-338.318	3.091	-0.301	-0.217
-337.304	-27.650	-0.223	-0.129
-336.289	800.000	-0.101	-0.311
-335.275	-151.530	-0.180	0.013
-334.260	-130.077	0.159	0.022
-333.245	230.954	0.037	-0.060
-332.231	-91.270	-0.155	0.044
-331.216	-157.092	0.238	-0.014
-330.202	135.054	0.154	-0.199
-329.187	0.838	-0.286	-0.203
-328.172	177.229	-0.235	-0.339
-327.158	-200.000	-0.000	-0.147
-326.143	800.000	-0.045	0.151
-325.129	-200.000	-0.006	-0.073
-324.114	16.354	-0.186	0.145
-323.099	800.000	0.117	-0.351
-322.085	660.799	0.089	-0.228
-321.070	-43.758	-0.071	0.036
-320.056	-155.951	-0.294	-0.018
-319.041	-123.078	-0.153	-0.024
-318.026	-53.132	-0.189	-0.086
-317.012	371.904	0.114	0.229
-315.997	-200.000	0.014	0.141
-314.983	168.042	-0.074	0.104
-313.968	170.880	-0.098	0.139
-312.953	184.310	0.070	-0.103
-311.939	-81.487	-0.290	-0.094
-310.924	126.168	0.147	-0.185
-309.910	331.706	-0.050	-0.096
-308.895	-200.000	0.029	0.229
-307.880	-90.037	0.275	-0.079
-306.866	634.855	-0.050	0.126
-305.851	-2.113	0.061	0.042
-304.837	-200.000	0.006	0.039
-303.822	32.888	0.374	-0.321
-302.807	-85.850	0.136	0.042
-301.793	179.155	-0.059	-0.085
-300.778	-55.418	0.179	-0.080
-299.764	-52.135	-0.269	-0.123
-298.749	18.068	-0.174	-0.137
-297.735	-200.000	0.082	0.375
-296.720	-123.124	0.068	0.011
-295.705	-30.041	0.315	0.177
-294.691	-77.102	0.568	0.196
-293.676	-200.000	-0.028	0.137
-292.662	800.000	-0.040	0.122
-291.647	-165.189	0.188	-0.008
-290.632	-153.616	0.194	-0.013
-289.618	152.533	-0.153	-0.207
-288.603	-107.832	-0.126	0.027
-287.589	501.778	-0.071	0.161
-286.574	30.007	-0.108	0.091
-285.559	-200.000	0.029	-0.244
-284.545	-200.000	0.019	-0.138
-283.530	41.951	0.100	0.090
-282.516	17.316	-0.370	0.291
-281.501	-104.574	0.040	-0.009
-280.486	-94.991	0.307	0.082
-279.472	800.000	0.046	0.188
-278.457	-200.000	-0.010	0.127
-277.443	-200.000	0.055	0.263
-276.428	-200.000	-0.027	-0.278
-275.413	372.362	0.125	-0.252
-274.399	-80.797	-0.225	-0.074
-273.384	-200.000	0.011	0.146
-272.370	94.700	0.162	0.182
-271.355	266.108	-0.083	0.143
-270.340	-45.626	-0.252	-0.123
-269.326	-15.323	-0.161	0.102
-268.311	-97.699	0.246	0.063
-267.297	-200.000	-0.005	-0.192
-266.282	-65.953	-0.264	-0.104
-265.267	115.751	0.140	0.169
-264.253	-78.912	-0.196	0.066
-263.238	-177.371	-0.143	0.003
-262.224	800.000	0.063	-0.177
-261.209	800.000	-0.039	-0.145
-260.195	-1.437	0.096	0.067
-259.180	303.693	0.131	0.240
-258.165	179.483	0.129	-0.186
-257.151	147.489	0.160	0.212
-256.136	-46.382	-0.127	0.062
-255.122	246.077	-0.276	-0.460
-254.107	-42.588	0.083	0.042
-253.092	-8.229	-0.118	0.078
-252.078	-134.072	-0.289	0.035
-251.063	50.142	0.335	-0.313
-250.049	128.124	-0.116	-0.145
-249.034	-100.256	-0.124	-0.030
-248.019	-200.000	-0.007	0.122
-247.005	-41.695	0.055	0.028
-245.990	800.000	0.108	0.296
-244.976	173.857	-0.174	-0.248
-243.961	-200.000	-0.037	0.185
-242.946	-95.992	0.134	-0.035
-241.932	-116.009	0.072	-0.013
-240.917	-14.625	-0.136	0.086
-239.903	-159.588	-0.406	-0.022
-238.888	174.629	0.150	0.215
-237.873	364.399	-0.060	-0.120
-236.859	747.216	-0.102	-0.270
-235.844	-151.428	-0.176	-0.013
-234.830	-200.000	0.053	0.293
-233.815	-200.000	0.007	-0.037
-232.800	233.582	0.023	0.037
-231.786	301.643	0.150	-0.273
-230.771	212.421	0.199	-0.310
-229.757	143.351	0.113	0.149
-228.742	22.534	0.083	0.067
-227.727	-200.000	-0.037	0.211
-226.713	-101.834	-0.055	0.013
-225.698	800.000	0.050	0.186
-224.684	800.000	0.042	0.133
-223.669	-33.423	-0.028	-0.015
-222.655	-47.876	-0.285	-0.136
-221.640	-90.828	0.175	0.050
-220.625	9.231	-0.268	0.200
-219.611	-178.541	-0.202	-0.005
-218.596	358.792	-0.174	0.344
-217.582	-14.485	0.166	0.105
-216.567	9.243	-0.154	-0.115
-215.552	-200.000	0.003	0.407
-214.538	124.308	-0.085	-0.106
-213.523	-107.019	-0.009	0.002
-212.509	-151.525	0.332	-0.024
-211.494	800.000	0.041	0.117
-210.479	-157.590	-0.288	-0.017
-209.465	116.091	-0.355	0.428
-208.450	-54.824	-0.198	0.088
-207.436	77.932	-0.194	-0.204
-206.421	386.465	0.091	-0.185
-205.406	18.303	0.076	0.060
-204.392	-101.566	-0.182	0.044
-203.377	-163.334	0.268	-0.013
-202.363	-57.732	-0.205	0.088
-201.348	-41.735	0.084	-0.042
-200.333	8.299	0.142	-0.105
-199.319	-2.039	0.320	0.222
-198.304	-163.270	-0.275	-0.013
-197.290	-200.000	0.007	-0.082
-196.275	-113.439	0.276	-0.053
-195.260	-155.725	0.050	-0.003
-194.246	-178.158	-0.188	-0.004
-193.231	160.227	-0.071	0.097
-192.217	73.043	-0.138	0.142
-191.202	112.714	-0.074	0.089
-190.187	-7.966	-0.061	-0.040
-189.173	-21.702	0.326	0.196
-188.158	-135.688	0.246	-0.029
-187.144	83.412	-0.258	-0.277
-186.129	638.279	0.078	-0.195
-185.114	800.000	0.089	0.247
-184.100	-20.630	0.047	-0.028
-183.085	122.010	0.147	-0.181
-182.071	-200.000	0.011	-0.092
-181.056	498.917	0.122	0.277
-180.042	589.778	0.186	0.451
-179.027	382.904	0.077	-0.157
-178.012	19.771	0.238	0.188
-176.998	82.700	0.219	0.234
-175.983	505.996	0.121	0.277
-174.969	-141.242	-0.349	-0.035
-173.954	-84.665	-0.201	0.063
-172.939	661.486	-0.207	0.526
-171.925	-64.528	-0.354	-0.142
-170.910	-127.237	0.468	0.067
-169.896	800.000	0.077	-0.264
-168.881	-53.158	0.065	-0.030
-167.866	629.052	0.053	-0.133
-166.852	-200.000	0.026	0.228
-165.837	-53.191	-0.147	-0.067
-164.823	-1.339	0.325	-0.226
-163.808	-112.521	0.459	-0.090
-162.793	-200.000	-0.022	-0.128
-161.779	-5.980	0.173	0.116
-160.764	754.255	0.033	-0.088
-159.750	-46.407	-0.267	-0.129
-158.735	582.365	0.085	-0.204
-157.720	139.702	0.340	0.441
-156.706	800.000	0.096	0.319
-155.691	795.113	0.022	0.058
-154.677	77.726	0.014	0.015
-153.662	434.503	-0.033	-0.070
-152.647	192.807	-0.069	0.103
-151.633	202.971	-0.095	0.144
-150.618	17.809	0.094	-0.074
-149.604	124.679	0.129	-0.160
-148.589	-134.972	-0.107	0.013
-147.574	141.013	0.260	0.338
-146.560	-200.000	-0.003	0.288
-145.545	163.054	0.239	-0.330
-144.531	377.539	-0.131	-0.264
-143.516	217.541	0.137	0.214
-142.502	16.195	0.366	-0.284
-141.487	-109.277	-0.371	-0.077
-140.472	-108.202	0.137	0.029
-139.458	-200.000	0.022	0.231
-138.443	-44.265	0.262	0.129
-137.429	602.782	0.049	-0.119
-136.414	199.363	-0.043	0.065
-135.399	-200.000	0.001	-0.094
-134.385	-200.000	-0.017	0.113
-133.370	800.000	0.173	-0.499
-132.356	4.979	-0.226	-0.164
-131.341	-200.000	0.005	-0.182
-130.326	800.000	-0.034	0.097
-129.312	-200.000	0.067	0.330
-128.297	122.946	0.042	-0.052
-127.283	445.961	0.038	0.083
-126.268	-174.942	0.183	0.005
-125.253	-200.000	-0.036	0.165
-124.239	190.110	-0.083	-0.123
-123.224	34.840	-0.272	0.234
-122.210	-104.042	0.469	0.107
-121.195	-78.080	0.059	-0.020
