DTS Sentinel unit serial number:	SN413079Multiplexer serial number:	ORYXHardware model number:	OX4-SRSoftware version number:	ORYX F/W v4.00 Oryx Data Collector v3.7.2.0data status	okinstallation	princeton_trtdifferential loss correction	single-endedforward channel	channel 3reverse channel	N/Adate	2019/09/14time	18:04:35forward acquisition time	60.00reverse acquisition time	0.00gamma	496.2192k internal	0.2299k external	0.2299temperature offset calibration	1.0023default loss term (dB/km)	0.3790temperature slope calibration	1.0000multiplexer offset coefficient	1.0000multiplexer slope coefficient	1.0000fibre end	0.00T internal ref (°C)	37.25T ext. ref 1 (°C)	4.96T ext. ref 2 (°C)	31.74length (m)	temperature (°C)	Stokes	anti-Stokes-747.200	373.964	0.113	0.236
-746.185	800.000	-0.071	0.213
-745.171	-200.000	-0.007	-0.277
-744.156	113.289	0.208	0.257
-743.142	589.479	0.134	-0.338
-742.127	800.000	-0.078	0.284
-741.112	-200.000	0.018	0.278
-740.098	-110.309	0.264	0.056
-739.083	-21.861	-0.109	0.068
-738.069	194.399	0.248	-0.383
-737.054	-134.808	-0.392	0.048
-736.039	-38.065	-0.287	0.155
-735.025	259.677	0.200	0.352
-734.010	-106.787	-0.365	0.083
-732.996	800.000	-0.067	-0.254
-731.981	673.217	-0.040	0.106
-730.966	-200.000	0.010	-0.078
-729.952	397.719	-0.061	-0.129
-728.937	96.700	-0.239	0.279
-727.923	37.598	0.110	0.100
-726.908	12.635	-0.272	-0.214
-725.894	800.000	0.120	-0.369
-724.879	60.275	-0.152	-0.153
-723.864	-40.206	-0.160	0.085
-722.850	-200.000	0.054	-0.302
-721.835	800.000	-0.065	-0.274
-720.821	48.795	0.150	-0.144
-719.806	118.198	-0.094	-0.118
-718.791	143.225	0.109	-0.148
-717.777	133.026	-0.164	0.216
-716.762	-200.000	0.008	0.212
-715.748	-75.236	0.169	-0.061
-714.733	493.784	0.035	-0.082
-713.718	800.000	0.056	0.180
-712.704	30.935	0.103	0.090
-711.689	-200.000	0.002	-0.031
-710.675	-143.973	0.237	-0.023
-709.660	800.000	-0.069	0.240
-708.645	-200.000	-0.058	-0.276
-707.631	-131.248	0.163	-0.022
-706.616	214.194	0.201	-0.324
-705.602	12.585	-0.149	-0.117
-704.587	174.513	-0.209	-0.308
-703.572	163.263	-0.080	0.114
-702.558	-108.638	-0.397	-0.087
-701.543	161.137	0.040	-0.056
-700.529	81.928	0.088	0.097
-699.514	327.881	-0.098	-0.191
-698.499	-136.562	0.151	-0.018
-697.485	-128.466	0.276	-0.040
-696.470	-85.271	-0.293	0.093
-695.456	-200.000	-0.002	-0.099
-694.441	308.708	-0.009	-0.017
-693.426	-123.370	-0.168	-0.027
-692.412	490.533	-0.038	-0.088
-691.397	398.413	-0.039	0.082
-690.383	29.494	0.161	-0.139
-689.368	-175.968	-0.211	-0.006
-688.354	248.754	0.069	0.119
-687.339	576.274	0.037	0.092
-686.324	800.000	-0.096	-0.420
-685.310	-137.435	0.135	-0.016
-684.295	-200.000	0.007	-0.405
-683.281	-90.951	-0.090	-0.026
-682.266	-106.873	0.200	0.045
-681.251	-98.366	0.167	0.044
-680.237	95.075	-0.169	0.196
-679.222	98.853	0.201	-0.237
-678.208	-93.699	0.308	-0.087
-677.193	-110.527	0.102	-0.021
-676.178	706.809	-0.029	0.078
-675.164	19.773	-0.129	0.106
-674.149	251.988	-0.024	0.041
-673.135	800.000	-0.050	-0.183
-672.120	680.105	0.132	-0.349
-671.105	359.612	0.076	0.155
-670.091	-22.511	-0.415	-0.255
-669.076	139.110	-0.109	-0.146
-668.062	-165.256	-0.174	0.008
-667.047	245.107	0.063	0.107
-666.032	-9.674	0.243	-0.165
-665.018	-65.719	0.076	-0.031
-664.003	-200.000	-0.037	0.227
-662.989	76.511	0.198	-0.213
-661.974	800.000	-0.043	0.138
-660.959	149.099	0.106	-0.146
-659.945	209.445	0.076	0.121
-658.930	-200.000	0.024	0.205
-657.916	-46.170	-0.119	0.059
-656.901	800.000	0.075	0.222
-655.886	-177.235	0.202	-0.005
-654.872	-200.000	0.035	-0.350
-653.857	-200.000	-0.037	0.324
-652.843	84.117	0.109	0.121
-651.828	24.154	0.248	-0.208
-650.814	85.420	0.376	-0.419
-649.799	800.000	0.099	-0.302
-648.784	-161.236	0.156	-0.008
-647.770	-126.154	0.291	0.044
-646.755	191.500	0.164	0.251
-645.741	-97.241	0.118	0.031
-644.726	65.550	-0.086	-0.088
-643.711	-91.793	0.029	0.008
-642.697	-200.000	0.024	0.216
-641.682	-92.371	0.107	0.031
-640.668	-200.000	0.062	0.346
-639.653	514.556	0.120	-0.285
-638.638	-200.000	-0.038	-0.301
-637.624	332.668	0.124	0.244
-636.609	-81.235	0.194	-0.065
-635.595	174.728	-0.122	-0.179
-634.580	800.000	0.105	-0.296
-633.565	-27.574	-0.151	-0.089
-632.551	322.029	0.074	-0.143
-631.536	-21.971	-0.369	-0.228
-630.522	66.307	0.150	0.155
-629.507	-200.000	0.011	-0.366
-628.492	218.384	-0.077	0.125
-627.478	-40.637	0.234	0.123
-626.463	-161.315	-0.213	0.011
-625.449	-28.703	0.164	-0.096
-624.434	-200.000	-0.050	-0.272
-623.419	-117.668	0.087	-0.016
-622.405	-200.000	-0.024	0.430
-621.390	-38.016	0.074	0.040
-620.376	-200.000	0.057	0.000
-619.361	62.563	-0.103	0.105
-618.346	516.319	-0.034	0.081
-617.332	348.132	-0.126	-0.253
-616.317	-12.474	0.188	0.125
-615.303	-52.827	0.078	-0.037
-614.288	85.425	-0.151	0.168
-613.273	327.958	-0.141	0.275
-612.259	-200.000	0.054	-0.281
-611.244	57.216	-0.111	-0.110
-610.230	241.594	0.078	0.132
-609.215	800.000	0.137	0.388
-608.201	19.743	-0.291	-0.238
-607.186	-95.627	-0.256	-0.069
-606.171	-29.230	0.309	-0.180
-605.157	-13.323	0.227	-0.149
-604.142	367.657	-0.203	-0.416
-603.128	-200.000	0.021	0.198
-602.113	71.750	-0.141	-0.148
-601.098	192.241	-0.211	-0.322
-600.084	-28.925	-0.068	-0.040
-599.069	46.210	0.099	-0.093
-598.055	800.000	0.047	0.138
-597.040	-200.000	0.007	0.187
-596.025	760.344	-0.017	-0.047
-595.011	800.000	-0.082	0.263
-593.996	-50.359	0.115	-0.055
-592.982	250.946	0.127	-0.220
-591.967	509.876	0.089	-0.210
-590.952	33.691	-0.186	-0.164
-589.938	-200.000	-0.011	0.330
-588.923	27.092	0.010	-0.009
-587.909	800.000	0.049	-0.217
-586.894	251.016	-0.101	-0.174
-585.879	-23.909	0.183	-0.111
-584.865	111.109	-0.098	0.120
-583.850	-200.000	-0.047	-0.318
-582.836	18.335	-0.177	0.143
-581.821	147.811	0.121	-0.165
-580.806	-136.103	0.431	-0.051
-579.792	327.478	0.104	0.203
-578.777	-16.268	0.172	-0.111
-577.763	680.184	-0.084	-0.221
-576.748	800.000	0.090	0.268
-575.733	-72.595	0.160	0.060
-574.719	-200.000	0.003	-0.028
-573.704	-149.674	-0.471	-0.038
-572.690	-134.888	-0.114	-0.014
-571.675	372.069	0.043	0.089
-570.661	800.000	0.091	0.323
-569.646	265.203	-0.133	-0.235
-568.631	126.296	0.065	-0.083
-567.617	94.503	0.095	0.110
-566.602	371.091	-0.130	-0.267
-565.588	151.883	0.271	-0.375
-564.573	83.438	0.191	-0.211
-563.558	271.800	-0.034	0.061
-562.544	9.632	-0.059	0.046
-561.529	750.895	0.061	0.167
-560.515	778.750	-0.127	0.351
-559.500	-200.000	-0.005	0.184
-558.485	-126.657	-0.081	-0.012
-557.471	-200.000	0.002	-0.181
-556.456	-63.202	0.526	-0.220
-555.442	-44.029	-0.162	-0.082
-554.427	-200.000	0.002	0.218
-553.412	-200.000	-0.043	-0.230
-552.398	-71.287	0.205	-0.078
-551.383	-200.000	-0.150	0.000
-550.369	-38.656	-0.191	-0.102
-549.354	-34.523	0.062	-0.035
-548.339	-58.457	-0.120	0.053
-547.325	305.536	0.118	0.223
-546.310	-126.668	-0.290	-0.044
-545.296	-200.000	-0.027	0.144
-544.281	-151.942	0.320	0.024
-543.266	4.257	0.034	0.025
-542.252	-3.393	0.119	-0.084
-541.237	-31.317	-0.104	0.059
-540.223	-43.125	-0.120	0.062
-539.208	-115.920	0.213	-0.040
-538.193	-162.485	0.097	0.005
-537.179	-125.135	0.052	-0.008
-536.164	141.149	-0.193	-0.258
-535.150	502.206	-0.126	-0.296
-534.135	131.961	-0.117	-0.152
-533.121	-72.073	0.172	0.065
-532.106	800.000	0.024	-0.098
-531.091	-8.463	-0.239	0.163
-530.077	-111.658	0.203	-0.042
-529.062	-95.326	0.294	0.080
-528.048	-140.436	0.078	-0.008
-527.033	-200.000	0.030	-0.230
-526.018	-200.000	-0.038	0.215
-525.004	800.000	0.080	0.327
-523.989	77.099	-0.240	0.258
-522.975	27.665	-0.257	-0.219
-521.960	18.549	0.155	-0.125
-520.945	3.586	-0.088	0.065
-519.931	18.965	-0.046	0.037
-518.916	453.478	0.082	-0.184
-517.902	-95.817	-0.168	0.045
-516.887	-120.024	-0.362	0.063
-515.872	141.821	0.129	-0.173
-514.858	137.024	-0.161	-0.213
-513.843	-200.000	0.037	0.267
-512.829	144.952	0.352	0.475
-511.814	-21.287	0.245	-0.151
-510.799	-130.292	-0.245	0.034
-509.785	-200.000	0.003	0.090
-508.770	-70.346	-0.216	0.083
-507.756	412.648	0.026	0.055
-506.741	114.232	0.070	-0.087
-505.726	800.000	0.047	0.177
-504.712	-200.000	-0.008	0.039
-503.697	-59.310	0.245	-0.107
-502.683	-89.192	-0.092	-0.028
-501.668	193.073	-0.247	0.377
-500.653	-72.129	-0.239	0.090
-499.639	395.498	-0.094	0.199
-498.624	170.493	0.162	-0.234
-497.610	-39.486	-0.146	-0.077
-496.595	478.524	0.244	0.559
-495.581	545.919	-0.107	0.258
-494.566	-104.100	-0.269	0.063
-493.551	286.605	-0.100	-0.182
-492.537	111.298	0.156	0.189
-491.522	200.656	-0.178	0.277
-490.508	-3.855	0.374	0.262
-489.493	-65.440	0.152	0.062
-488.478	800.000	0.096	-0.424
-487.464	18.731	0.305	-0.247
-486.449	-112.027	0.087	0.018
-485.435	-114.407	-0.067	0.013
-484.420	512.294	-0.105	-0.247
-483.405	-78.853	-0.249	0.086
-482.391	-200.000	-0.001	0.380
-481.376	-104.061	0.321	-0.076
-480.362	-200.000	0.025	-0.122
-479.347	-168.620	-0.072	0.003
-478.332	35.218	0.094	-0.083
-477.318	-200.000	-0.022	-0.123
-476.303	-39.840	0.083	0.044
-475.289	-200.000	-0.041	-0.331
-474.274	711.670	0.109	-0.290
-473.259	360.572	0.094	0.190
-472.245	-200.000	-0.023	0.136
-471.230	11.657	0.077	-0.059
-470.216	-67.101	-0.128	-0.051
-469.201	139.814	-0.207	0.275
-468.186	-40.142	0.298	0.157
-467.172	214.518	-0.150	-0.239
-466.157	-92.592	-0.144	0.041
-465.143	622.489	-0.060	-0.151
-464.128	-200.000	-0.036	0.422
-463.113	-118.864	0.235	-0.042
-462.099	175.655	0.219	-0.321
-461.084	29.177	-0.350	0.300
-460.070	285.390	-0.074	0.134
-459.055	-78.687	0.177	-0.061
-458.040	329.538	0.095	-0.184
-457.026	119.026	-0.090	-0.112
-456.011	50.584	0.234	-0.224
-454.997	-69.409	-0.234	-0.091
-453.982	-32.954	0.195	-0.109
-452.968	628.396	-0.216	0.550
-451.953	559.487	-0.099	-0.240
-450.938	-63.194	-0.268	-0.111
-449.924	83.653	0.106	0.116
-448.909	311.281	-0.136	0.257
-447.895	-22.692	-0.200	-0.122
-446.880	-101.156	-0.297	0.073
-445.865	-8.976	-0.108	0.073
-444.851	-99.139	-0.277	-0.071
-443.836	-200.000	-0.034	0.175
-442.822	26.939	-0.230	-0.194
-441.807	114.501	0.194	-0.238
-440.792	-132.405	-0.383	-0.050
-439.778	17.131	-0.075	-0.060
-438.763	245.057	-0.157	0.266
-437.749	800.000	-0.066	-0.272
-436.734	-39.940	0.270	-0.142
-435.719	188.029	0.235	0.353
-434.705	321.995	0.178	0.341
-433.690	-200.000	-0.018	-0.317
-432.676	-11.713	-0.154	0.102
-431.661	-55.442	-0.374	0.169
-430.646	290.126	0.258	-0.472
-429.632	60.340	0.261	0.261
-428.617	-65.582	-0.159	-0.064
-427.603	143.899	0.026	0.035
-426.588	543.527	-0.092	-0.221
-425.573	800.000	0.114	-0.502
-424.559	800.000	0.017	-0.073
-423.544	377.090	0.066	0.136
-422.530	19.599	0.125	-0.102
-421.515	297.885	0.100	0.185
-420.500	44.047	0.312	0.288
-419.486	-123.101	0.224	0.036
-418.471	-102.986	-0.295	-0.070
-417.457	-200.000	0.019	-0.102
-416.442	263.966	0.081	-0.141
-415.428	43.092	-0.246	-0.226
-414.413	-70.335	0.188	0.072
-413.398	-200.000	-0.048	-0.359
-412.384	-72.619	-0.190	0.070
-411.369	218.049	-0.136	0.218
-410.355	132.444	0.192	0.249
-409.340	363.324	-0.184	-0.372
-408.325	459.749	0.131	0.294
-407.311	390.432	0.068	0.143
-406.296	-200.000	-0.016	0.191
-405.282	-175.936	0.152	0.004
-404.267	145.170	0.108	0.145
-403.252	206.503	-0.062	0.097
-402.238	800.000	0.037	-0.153
-401.223	-44.958	-0.123	0.062
-400.209	308.513	-0.146	0.274
-399.194	-140.446	0.070	-0.007
-398.179	-155.443	-0.195	0.013
-397.165	73.153	-0.186	-0.196
-396.150	-17.975	-0.189	-0.120
-395.136	167.216	0.184	0.263
-394.121	-0.085	0.254	0.182
-393.106	-100.594	-0.231	-0.057
-392.092	144.889	0.081	-0.109
-391.077	-24.372	0.151	-0.090
-390.063	-116.002	-0.019	-0.004
-389.048	29.236	-0.247	0.211
-388.033	143.869	-0.140	-0.188
-387.019	-200.000	0.016	-0.390
-386.004	315.502	0.050	-0.095
-384.990	134.532	0.073	0.095
-383.975	-87.886	0.059	0.018
-382.960	-65.069	0.063	0.026
-381.946	294.487	-0.093	-0.171
-380.931	-200.000	0.022	-0.118
-379.917	-114.761	0.086	0.017
-378.902	-9.188	-0.176	-0.119
-377.888	112.551	-0.146	0.178
-376.873	-200.000	-0.044	0.217
-375.858	-200.000	0.003	-0.218
-374.844	-8.273	0.106	0.072
-373.829	800.000	-0.113	0.465
-372.815	104.431	-0.142	0.168
-371.800	8.760	-0.218	0.165
-370.785	436.661	0.145	0.318
-369.771	9.799	0.173	0.132
-368.756	192.009	-0.138	0.209
-367.742	117.126	-0.045	0.055
-366.727	690.544	0.047	-0.124
-365.712	-200.000	-0.029	0.233
-364.698	301.851	0.152	0.282
-363.683	-37.770	-0.269	-0.144
-362.669	-12.097	0.035	-0.023
-361.654	-53.384	0.325	0.150
-360.639	-200.000	-0.110	0.614
-359.625	-185.248	0.365	-0.006
-358.610	18.469	-0.145	-0.116
-357.596	187.495	0.184	0.276
-356.581	90.137	0.191	-0.215
-355.566	193.288	-0.120	0.183
-354.552	-200.000	-0.046	0.225
-353.537	134.686	0.156	-0.204
-352.523	-200.000	-0.051	-0.412
-351.508	-200.000	0.008	-0.145
-350.493	-200.000	0.009	-0.071
-349.479	69.517	0.154	-0.159
-348.464	-144.810	0.186	0.017
-347.450	-107.849	0.178	0.039
-346.435	115.693	0.111	-0.137
-345.420	-200.000	-0.045	-0.202
-344.406	-200.000	0.027	0.257
-343.391	523.040	-0.096	0.226
-342.377	-168.988	0.393	-0.015
-341.362	-53.418	0.176	0.081
-340.348	-67.858	0.106	-0.041
-339.333	629.711	0.106	-0.270
-338.318	-52.621	-0.094	0.043
-337.304	354.365	0.055	-0.109
-336.289	-2.531	0.226	-0.159
-335.275	800.000	-0.079	0.236
-334.260	-35.889	-0.170	0.092
-333.245	-112.278	-0.071	0.014
-332.231	-61.204	-0.091	0.038
-331.216	-153.614	0.252	0.017
-330.202	-200.000	-0.233	0.001
-329.187	88.314	-0.276	-0.307
-328.172	-46.285	0.201	0.099
-327.158	800.000	-0.091	0.334
-326.143	-51.965	-0.217	-0.101
-325.129	-200.000	-0.029	0.346
-324.114	53.898	0.191	0.185
-323.099	-60.106	-0.213	0.091
-322.085	374.038	-0.135	0.277
-321.070	489.074	-0.030	0.069
-320.056	-71.311	0.065	-0.024
-319.041	51.532	0.292	-0.279
-318.026	-114.098	0.208	0.040
-317.012	-97.076	-0.138	-0.036
-315.997	173.310	0.093	-0.135
-314.983	-84.082	0.387	0.123
-313.968	-115.962	0.414	0.077
-312.953	670.162	-0.147	-0.381
-311.939	-53.044	-0.105	-0.048
-310.924	-200.000	0.011	0.160
-309.910	-66.954	-0.185	0.073
-308.895	125.682	-0.146	0.185
-307.880	800.000	-0.073	-0.291
-306.866	573.830	0.072	-0.175
-305.851	26.813	-0.082	-0.069
-304.837	-24.159	0.171	-0.102
-303.822	-3.339	0.099	0.069
-302.807	-87.109	0.515	-0.157
-301.793	-55.776	-0.509	0.228
-300.778	139.101	0.064	-0.084
-299.764	351.710	-0.167	-0.331
-298.749	46.339	0.062	-0.057
-297.735	75.990	-0.093	-0.098
-296.720	-68.804	0.147	0.057
-295.705	-174.679	-0.336	0.010
-294.691	-90.335	-0.148	0.043
-293.676	-200.000	-0.065	0.296
-292.662	173.556	0.037	-0.054
-291.647	-143.008	0.154	-0.015
-290.632	235.128	0.121	-0.200
-289.618	-43.435	0.044	-0.022
-288.603	17.748	0.369	0.294
-287.589	800.000	-0.088	-0.387
-286.574	81.190	-0.157	0.170
-285.559	221.759	-0.092	0.148
-284.545	123.579	-0.038	0.048
-283.530	-2.832	-0.197	0.138
-282.516	-161.055	0.159	-0.008
-281.501	800.000	-0.087	-0.353
-280.486	-35.884	0.216	0.117
-279.472	-156.354	-0.399	0.025
-278.457	800.000	0.079	-0.220
-277.443	200.710	0.154	-0.238
-276.428	93.714	-0.106	0.120
-275.413	218.153	0.154	0.247
-274.399	-73.084	-0.221	0.081
-273.384	-32.130	-0.174	0.098
-272.370	-2.898	0.069	0.048
-271.355	394.970	0.218	0.456
-270.340	-200.000	-0.010	-0.054
-269.326	95.054	-0.145	0.165
-268.311	277.832	-0.067	-0.119
-267.297	154.514	-0.086	0.118
-266.282	-200.000	-0.026	-0.151
-265.267	-55.143	-0.054	-0.024
-264.253	-200.000	-0.071	0.350
-263.238	21.760	0.149	0.122
-262.224	125.758	0.121	0.153
-261.209	800.000	0.118	-0.395
-260.195	800.000	-0.057	-0.187
-259.180	-200.000	0.013	0.158
-258.165	198.361	0.168	0.258
-257.151	42.636	-0.123	0.112
-256.136	33.045	0.156	-0.135
-255.122	-162.753	-0.162	-0.008
-254.107	635.962	0.049	-0.125
-253.092	-178.222	-0.230	0.005
-252.078	52.234	0.192	-0.184
-251.063	94.640	0.082	0.093
-250.049	466.122	-0.120	0.270
-249.034	228.541	0.066	-0.108
-248.019	593.849	0.034	0.084
-247.005	-85.990	0.317	-0.098
-245.990	12.201	-0.171	-0.132
-244.976	-200.000	-0.017	-0.239
-243.961	800.000	-0.041	0.130
-242.946	-75.239	-0.237	0.085
-241.932	137.071	-0.062	-0.081
-240.917	2.369	-0.057	0.041
-239.903	148.518	0.210	-0.284
-238.888	166.296	0.149	-0.211
-237.873	-200.000	0.078	-0.552
-236.859	800.000	0.011	0.047
-235.844	484.661	0.089	-0.203
-234.830	-70.354	-0.207	0.079
-233.815	306.306	-0.080	-0.149
-232.800	385.006	-0.125	0.258
-231.786	343.692	-0.025	-0.049
-230.771	7.338	0.171	-0.127
-229.757	82.821	0.196	-0.213
-228.742	800.000	-0.024	-0.078
-227.727	112.531	-0.147	-0.178
-226.713	800.000	-0.064	0.191
-225.698	-108.857	-0.463	0.099
-224.684	-200.000	0.041	-0.234
-223.669	-143.414	-0.238	-0.023
-222.655	21.366	0.159	-0.129
-221.640	-125.018	0.052	0.008
-220.625	374.762	-0.053	0.108
-219.611	-200.000	0.040	0.191
-218.596	83.510	-0.020	-0.021
-217.582	105.383	0.047	-0.055
-216.567	63.838	0.210	0.211
-215.552	-98.881	-0.369	0.094
-214.538	44.962	-0.147	-0.136
-213.523	-126.058	-0.290	-0.044
-212.509	140.130	0.207	0.273
-211.494	-142.099	-0.402	0.040
-210.479	31.687	-0.431	-0.370
-209.465	800.000	0.095	-0.275
-208.450	26.585	-0.090	0.075
-207.436	188.017	0.210	-0.313
-206.421	221.286	-0.113	0.181
-205.406	-6.295	-0.171	0.116
-204.392	-128.950	-0.136	-0.019
-203.377	-38.809	0.239	0.126
-202.363	201.608	-0.043	-0.067
-201.348	-200.000	-0.020	0.110
-200.333	191.249	0.135	-0.203
-199.319	-57.213	0.125	-0.055
-198.304	-139.863	0.190	0.020
-197.290	56.285	0.201	-0.195
-196.275	-10.787	-0.304	-0.201
-195.260	-77.160	0.114	0.040
-194.246	315.248	0.133	0.250
-193.231	-45.793	-0.368	0.182
-192.217	-179.358	-0.158	-0.003
-191.202	4.103	0.060	0.044
-190.187	52.724	0.330	-0.315
-189.173	-200.000	-0.018	0.225
-188.158	-115.766	-0.196	0.037
-187.144	193.627	-0.192	-0.290
-186.129	410.317	-0.069	-0.146
-185.114	-116.642	-0.404	0.074
-184.100	201.024	0.098	-0.150
-183.085	204.732	-0.089	-0.138
-182.071	800.000	-0.042	0.149
-181.056	313.816	-0.085	0.160
-180.042	624.752	0.130	0.326
-179.027	40.814	0.384	0.345
-178.012	114.121	-0.256	0.310
-176.998	-200.000	0.013	0.076
-175.983	-41.592	-0.186	-0.095
-174.969	562.152	0.077	-0.185
-173.954	800.000	-0.086	0.358
-172.939	73.240	-0.076	0.079
-171.925	-14.621	0.234	-0.150
-170.910	-200.000	-0.029	-0.135
-169.896	-28.601	0.095	0.055
-168.881	-200.000	-0.027	0.176
-167.866	-152.552	-0.126	-0.009
-166.852	-200.000	0.104	0.000
-165.837	283.209	-0.021	0.038
-164.823	68.662	-0.189	-0.193
-163.808	123.680	0.014	0.018
-162.793	-189.267	-0.185	0.002
-161.779	72.192	-0.038	0.039
-160.764	-54.405	-0.042	-0.019
-159.750	-125.586	0.369	0.056
-158.735	-61.034	0.253	-0.107
-157.720	-18.853	-0.175	-0.108
-156.706	270.143	0.140	0.245
-155.691	800.000	0.034	0.142
-154.677	-200.000	0.075	-0.391
-153.662	-138.970	0.238	0.026
-152.647	394.394	-0.047	0.099
-151.633	-200.000	0.019	-0.101
-150.618	140.167	0.064	0.084
-149.604	-45.113	0.057	0.028
-148.589	351.741	-0.073	-0.145
-147.574	9.940	0.193	-0.146
-146.560	403.928	-0.114	0.239
-145.545	387.670	-0.100	-0.206
-144.531	-84.531	0.253	0.080
-143.516	525.221	0.059	0.139
-142.502	214.249	-0.070	-0.110
-141.487	41.693	0.319	-0.288
-140.472	-35.694	0.275	0.149
-139.458	-200.000	0.002	-0.246
-138.443	161.311	0.150	0.209
-137.429	38.639	-0.245	-0.218
-136.414	44.833	-0.266	0.244
-135.399	-5.875	0.289	0.197
-134.385	538.304	0.172	0.408
-133.370	-189.455	0.274	0.003
-132.356	-162.677	-0.447	-0.022
-131.341	236.544	-0.130	0.215
-130.326	8.418	-0.018	-0.013
-129.312	-117.285	0.122	-0.022
-128.297	-200.000	-0.070	-0.401
-127.283	-200.000	-0.011	0.262
-126.268	800.000	-0.078	0.314
-125.253	-6.284	0.341	0.232
-124.239	240.926	-0.079	0.131
-123.224	-55.491	-0.235	-0.105
-122.210	-93.827	-0.173	-0.047
-121.195	-86.835	-0.224	-0.068
-120.180	256.281	0.047	0.080
