DTS Sentinel unit serial number:	SN413079Multiplexer serial number:	ORYXHardware model number:	OX4-SRSoftware version number:	ORYX F/W v4.00 Oryx Data Collector v3.7.2.0data status	okinstallation	princeton_trtdifferential loss correction	single-endedforward channel	channel 3reverse channel	N/Adate	2019/09/17time	01:52:34forward acquisition time	60.00reverse acquisition time	0.00gamma	496.2192k internal	0.2324k external	0.2324temperature offset calibration	0.9939default loss term (dB/km)	0.3790temperature slope calibration	1.0000multiplexer offset coefficient	1.0000multiplexer slope coefficient	1.0000fibre end	0.00T internal ref (°C)	29.62T ext. ref 1 (°C)	0.12T ext. ref 2 (°C)	24.60length (m)	temperature (°C)	Stokes	anti-Stokes-747.200	-149.396	-0.187	-0.015
-746.185	54.635	-0.208	0.202
-745.171	-83.951	-0.170	0.055
-744.156	800.000	-0.161	0.516
-743.142	-200.000	0.025	0.750
-742.127	-200.000	-0.012	0.211
-741.112	121.879	0.032	-0.040
-740.098	-200.000	-0.128	-0.001
-739.083	-200.000	-0.064	-0.336
-738.069	-200.000	-0.024	-0.256
-737.054	-101.128	0.111	-0.027
-736.039	-102.744	-0.292	-0.070
-735.025	-55.531	-0.040	-0.018
-734.010	-101.821	-0.156	-0.038
-732.996	-200.000	-0.008	0.090
-731.981	71.690	-0.119	0.124
-730.966	-48.578	-0.154	-0.075
-729.952	-112.469	-0.182	-0.037
-728.937	-93.455	-0.173	-0.048
-727.923	46.801	0.079	0.074
-726.908	800.000	-0.084	-0.331
-725.894	180.257	0.030	-0.045
-724.879	7.920	0.080	0.060
-723.864	-62.486	-0.127	-0.053
-722.850	-5.519	0.094	0.065
-721.835	800.000	0.091	0.258
-720.821	13.611	0.331	-0.259
-719.806	-200.000	-0.025	0.243
-718.791	-200.000	0.004	-0.053
-717.777	194.768	0.157	0.240
-716.762	594.276	-0.043	-0.108
-715.748	-74.578	-0.199	-0.072
-714.733	-91.235	0.148	0.043
-713.718	-200.000	-0.028	0.186
-712.704	-85.658	-0.338	0.106
-711.689	506.823	-0.085	-0.199
-710.675	-190.982	-0.231	-0.002
-709.660	106.237	0.039	0.046
-708.645	7.522	-0.270	-0.203
-707.631	66.641	-0.104	0.107
-706.616	-67.993	-0.103	-0.040
-705.602	-47.048	0.112	-0.055
-704.587	-17.396	0.093	-0.059
-703.572	-35.528	0.074	-0.040
-702.558	-24.603	0.112	-0.067
-701.543	800.000	0.053	0.198
-700.529	-6.171	-0.216	-0.149
-699.514	-37.293	0.228	0.123
-698.499	-200.000	-0.004	0.233
-697.485	116.725	0.105	-0.130
-696.470	-142.364	-0.266	-0.026
-695.456	-22.601	0.159	0.097
-694.441	-20.649	-0.189	-0.117
-693.426	8.855	-0.139	-0.106
-692.412	57.817	0.196	-0.193
-691.397	-173.357	-0.254	0.008
-690.383	-28.876	0.296	-0.172
-689.368	-200.000	-0.013	-0.063
-688.354	49.741	-0.120	0.114
-687.339	-12.921	0.337	0.221
-686.324	-68.312	-0.144	0.056
-685.310	-10.918	0.100	-0.066
-684.295	-131.903	-0.411	-0.054
-683.281	-21.863	0.092	-0.056
-682.266	-200.000	-0.070	-0.346
-681.251	-94.079	-0.206	-0.057
-680.237	393.796	0.006	-0.012
-679.222	-180.212	0.152	-0.003
-678.208	-200.000	0.010	-0.249
-677.193	-11.526	0.272	0.180
-676.178	274.577	-0.107	-0.190
-675.164	-188.860	0.258	0.003
-674.149	126.726	-0.035	0.045
-673.135	111.829	-0.242	-0.294
-672.120	800.000	-0.085	-0.336
-671.105	-73.030	0.198	0.073
-670.091	-25.876	0.116	-0.069
-669.076	-81.619	-0.210	0.069
-668.062	-74.781	0.353	-0.128
-667.047	101.556	0.401	-0.471
-666.032	-59.133	-0.322	0.140
-665.018	-170.115	-0.300	0.011
-664.003	227.746	-0.121	0.198
-662.989	-182.012	0.216	-0.004
-661.974	800.000	-0.096	-0.287
-660.959	177.048	0.232	-0.339
-659.945	-111.585	0.302	-0.062
-658.930	800.000	0.089	-0.259
-657.916	800.000	0.107	-0.404
-656.901	-180.821	0.205	0.004
-655.886	14.809	0.099	0.078
-654.872	-200.000	-0.002	0.216
-653.857	548.121	-0.166	-0.401
-652.843	-45.084	-0.234	-0.117
-651.828	156.854	-0.059	-0.082
-650.814	-161.152	0.388	0.020
-649.799	-142.758	-0.202	0.020
-648.784	151.139	-0.166	-0.227
-647.770	800.000	-0.048	-0.178
-646.755	-57.676	0.258	-0.114
-645.741	-11.513	-0.236	0.156
-644.726	61.849	0.266	-0.266
-643.711	-200.000	0.049	-0.275
-642.697	-179.423	0.216	0.005
-641.682	-45.927	0.086	-0.042
-640.668	-92.046	0.137	-0.039
-639.653	21.796	-0.221	0.181
-638.638	46.027	0.118	0.110
-637.624	684.493	-0.113	-0.296
-636.609	800.000	-0.082	-0.278
-635.595	62.770	-0.155	-0.156
-634.580	79.396	-0.101	-0.109
-633.565	183.808	0.040	-0.059
-632.551	-45.567	-0.186	-0.093
-631.536	-68.965	0.234	0.091
-630.522	-46.073	-0.137	-0.068
-629.507	-62.910	-0.245	-0.102
-628.492	-112.694	-0.334	-0.067
-627.478	-145.495	0.061	-0.006
-626.463	-72.742	-0.196	0.073
-625.449	-14.354	-0.104	-0.068
-624.434	-39.894	0.162	-0.085
-623.419	-22.056	-0.084	0.052
-622.405	348.555	0.016	0.032
-621.390	-33.914	0.318	0.176
-620.376	15.365	0.069	0.054
-619.361	-200.000	-0.017	-0.078
-618.346	-109.468	-0.240	0.051
-617.332	26.837	0.371	0.312
-616.317	78.915	0.069	-0.075
-615.303	-24.677	0.134	-0.080
-614.288	473.618	-0.084	-0.189
-613.273	-0.131	0.179	-0.128
-612.259	800.000	0.081	-0.289
-611.244	-26.835	0.045	0.026
-610.230	763.663	-0.053	0.143
-609.215	-3.704	0.178	-0.124
-608.201	177.841	-0.105	0.153
-607.186	-200.000	0.078	-0.000
-606.171	800.000	0.018	0.081
-605.157	-132.546	-0.242	-0.031
-604.142	-115.028	-0.361	-0.069
-603.128	97.000	0.114	0.131
-602.113	-200.000	-0.006	-0.164
-601.098	164.932	0.097	0.138
-600.084	-61.104	0.300	0.127
-599.069	14.913	-0.061	-0.048
-598.055	800.000	-0.096	-0.284
-597.040	-200.000	-0.063	0.298
-596.025	800.000	0.090	0.270
-595.011	-94.840	-0.203	0.055
-593.996	-96.853	0.152	0.040
-592.982	101.564	-0.054	-0.063
-591.967	-145.564	0.220	-0.020
-590.952	-80.929	0.081	-0.027
-589.938	-8.064	-0.097	0.066
-588.923	-112.099	-0.134	0.027
-587.909	-200.000	-0.005	0.056
-586.894	-200.000	0.002	0.136
-585.879	-72.047	0.231	0.086
-584.865	131.494	0.253	0.326
-583.850	85.350	-0.098	0.108
-582.836	258.375	0.133	-0.229
-581.821	-200.000	0.053	0.296
-580.806	11.572	0.092	-0.071
-579.792	-116.950	-0.338	-0.062
-578.777	-134.240	-0.235	-0.029
-577.763	-9.934	0.303	0.202
-576.748	-186.704	-0.099	-0.001
-575.733	-75.487	-0.205	-0.073
-574.719	-51.271	0.148	0.070
-573.704	800.000	-0.135	0.496
-572.690	10.901	0.182	-0.139
-571.675	-24.498	-0.259	-0.155
-570.661	424.155	-0.144	0.311
-569.646	58.897	0.155	-0.152
-568.631	450.895	0.056	0.123
-567.617	-86.825	-0.124	0.038
-566.602	99.794	-0.257	-0.298
-565.588	800.000	0.093	-0.297
-564.573	-39.852	-0.561	-0.294
-563.558	-134.341	0.226	0.028
-562.544	-190.481	-0.117	0.001
-561.529	-120.901	-0.121	-0.020
-560.515	-87.143	-0.191	0.058
-559.500	-200.000	-0.010	0.250
-558.485	-3.780	0.109	-0.076
-557.471	118.272	0.285	-0.353
-556.456	800.000	-0.054	-0.175
-555.442	273.601	0.174	0.308
-554.427	65.905	0.123	0.125
-553.412	89.611	0.176	0.196
-552.398	-200.000	-0.024	-0.184
-551.383	397.147	0.138	-0.289
-550.369	-101.497	0.153	-0.037
-549.354	56.762	-0.083	-0.080
-548.339	64.579	-0.189	-0.190
-547.325	-193.404	-0.064	-0.001
-546.310	181.575	0.341	-0.502
-545.296	136.346	-0.102	-0.133
-544.281	242.370	0.095	0.160
-543.266	-65.062	-0.329	0.133
-542.252	-115.196	-0.183	0.035
-541.237	-83.047	0.322	0.104
-540.223	216.736	0.089	-0.143
-539.208	14.307	-0.293	0.229
-538.193	199.778	0.088	0.135
-537.179	-119.993	-0.077	-0.013
-536.164	-200.000	0.085	0.380
-535.150	46.436	0.035	-0.033
-534.135	800.000	-0.038	-0.145
-533.121	48.750	-0.129	0.121
-532.106	-97.915	0.160	-0.041
-531.091	-200.000	-0.003	0.145
-530.077	277.921	-0.046	-0.083
-529.062	-43.240	0.154	-0.078
-528.048	-200.000	-0.045	0.208
-527.033	-200.000	-0.019	0.129
-526.018	-1.250	-0.118	0.083
-525.004	-178.995	0.117	-0.003
-523.989	-22.573	-0.285	0.172
-522.975	800.000	-0.097	-0.322
-521.960	-113.057	-0.271	-0.054
-520.945	-38.672	-0.262	-0.139
-519.931	88.861	-0.092	-0.103
-518.916	119.297	0.201	-0.249
-517.902	-29.112	-0.202	0.116
-516.887	800.000	-0.079	-0.219
-515.872	-177.870	0.480	0.012
-514.858	-108.893	-0.277	-0.059
-513.843	800.000	0.041	0.120
-512.829	428.697	0.060	0.129
-511.814	24.719	-0.133	0.110
-510.799	800.000	0.025	-0.085
-509.785	278.232	-0.152	-0.272
-508.770	-56.666	-0.293	0.130
-507.756	27.669	-0.105	0.089
-506.741	107.566	-0.214	0.255
-505.726	-86.890	-0.118	0.036
-504.712	-200.000	-0.061	-0.365
-503.697	-3.097	-0.127	0.088
-502.683	-118.734	0.080	0.014
-501.668	-19.574	0.211	-0.131
-500.653	154.816	0.132	0.182
-499.639	-87.992	-0.184	0.055
-498.624	-69.559	0.441	-0.169
-497.610	-200.000	-0.002	0.121
-496.595	-117.112	-0.166	0.030
-495.581	800.000	-0.079	-0.332
-494.566	133.607	0.176	-0.227
-493.551	37.617	-0.166	-0.147
-492.537	137.928	0.190	-0.249
-491.522	164.087	0.270	-0.380
-490.508	-200.000	0.002	0.116
-489.493	-200.000	-0.006	0.367
-488.478	-200.000	0.012	-0.187
-487.464	-134.149	-0.405	0.050
-486.449	197.352	-0.030	0.046
-485.435	30.101	0.177	0.151
-484.420	260.134	-0.127	-0.219
-483.405	-200.000	-0.000	-0.137
-482.391	800.000	-0.058	0.178
-481.376	324.041	-0.083	0.158
-480.362	-58.271	-0.098	-0.043
-479.347	250.187	-0.083	-0.142
-478.332	-78.905	0.288	0.098
-477.318	800.000	-0.066	-0.231
-476.303	198.381	0.091	-0.140
-475.289	48.277	0.284	0.265
-474.274	-200.000	-0.000	-0.071
-473.259	97.851	-0.078	-0.090
-472.245	800.000	-0.072	-0.206
-471.230	701.278	-0.060	0.159
-470.216	-22.042	0.192	0.116
-469.201	-33.479	-0.092	0.051
-468.186	17.900	0.066	0.053
-467.172	190.491	0.046	0.069
-466.157	53.586	0.125	0.120
-465.143	0.747	0.308	0.220
-464.128	-114.519	0.074	-0.014
-463.113	-200.000	0.001	0.056
-462.099	-109.520	-0.323	0.068
-461.084	68.195	0.115	0.117
-460.070	-34.898	0.316	0.172
-459.055	800.000	0.044	0.131
-458.040	-2.154	-0.182	0.128
-457.026	-40.961	-0.408	0.211
-456.011	104.299	0.187	-0.220
-454.997	13.524	0.149	-0.115
-453.982	-52.007	0.070	0.032
-452.968	-200.000	0.058	-0.344
-451.953	800.000	-0.082	-0.321
-450.938	255.542	-0.135	-0.231
-449.924	25.406	0.113	-0.094
-448.909	-74.525	-0.067	-0.024
-447.895	-200.000	-0.014	-0.176
-446.880	-123.339	-0.031	-0.005
-445.865	-200.000	0.061	-0.329
-444.851	-100.465	0.246	0.061
-443.836	800.000	-0.061	0.240
-442.822	-28.422	-0.174	0.100
-441.807	-200.000	-0.001	0.092
-440.792	32.944	-0.106	-0.092
-439.778	67.485	0.170	-0.173
-438.763	-43.109	0.186	0.094
-437.749	800.000	-0.033	0.105
-436.734	-182.750	0.110	-0.002
-435.719	96.940	-0.184	0.210
-434.705	156.057	0.103	0.142
-433.690	370.790	0.195	0.394
-432.676	-56.048	-0.348	-0.155
-431.661	509.521	0.056	0.130
-430.646	-200.000	0.003	-0.135
-429.632	-0.040	0.174	0.123
-428.617	250.633	0.111	-0.188
-427.603	432.520	-0.125	-0.270
-426.588	-30.513	-0.199	-0.113
-425.573	-6.823	0.249	0.169
-424.559	800.000	-0.058	0.184
-423.544	84.597	0.167	0.182
-422.530	-143.676	0.357	0.034
-421.515	-200.000	-0.036	0.240
-420.500	52.578	-0.267	-0.254
-419.486	-200.000	-0.011	0.231
-418.471	-200.000	0.006	-0.047
-417.457	-110.584	0.216	-0.045
-416.442	123.140	-0.146	0.182
-415.428	-27.634	0.161	-0.093
-414.413	-87.863	0.284	0.085
-413.398	177.389	0.121	0.176
-412.384	28.446	0.138	0.116
-411.369	-200.000	0.407	-0.000
-410.355	-91.455	0.313	-0.089
-409.340	85.214	0.040	-0.044
-408.325	800.000	0.047	0.149
-407.311	40.904	-0.266	0.239
-406.296	-46.410	0.073	-0.036
-405.282	-200.000	0.003	-0.279
-404.267	66.511	-0.020	-0.020
-403.252	-200.000	-0.017	0.164
-402.238	-26.463	0.169	-0.099
-401.223	-200.000	-0.011	0.118
-400.209	29.461	0.107	0.091
-399.194	-200.000	0.066	0.362
-398.179	-200.000	-0.002	0.199
-397.165	-200.000	-0.004	-0.233
-396.150	219.878	-0.096	-0.153
-395.136	-98.158	0.174	-0.045
-394.121	-200.000	-0.172	0.000
-393.106	-109.885	0.168	-0.035
-392.092	4.780	0.303	-0.222
-391.077	20.694	-0.129	-0.104
-390.063	-183.060	0.198	0.003
-389.048	51.436	0.158	-0.150
-388.033	59.367	-0.078	0.077
-387.019	159.670	-0.095	-0.132
-386.004	-63.214	0.133	0.055
-384.990	-198.421	-0.163	0.001
-383.975	800.000	0.038	0.127
-382.960	-65.340	-0.282	0.113
-381.946	141.125	0.086	0.113
-380.931	-122.778	0.209	-0.034
-379.917	-99.463	0.159	0.040
-378.902	158.915	-0.154	0.213
-377.888	39.554	-0.224	-0.200
-376.873	-76.950	-0.098	0.034
-375.858	-200.000	-0.001	0.341
-374.844	-14.321	-0.169	0.109
-373.829	-87.340	0.179	0.054
-372.815	66.012	-0.085	-0.086
-371.800	-79.554	0.189	-0.063
-370.785	-157.648	0.174	-0.010
-369.771	16.922	0.401	0.316
-368.756	79.235	-0.184	0.196
-367.742	20.917	-0.208	-0.167
-366.727	-63.402	0.136	0.056
-365.712	-102.027	0.328	-0.079
-364.698	-200.000	-0.030	0.169
-363.683	-200.000	0.025	0.195
-362.669	-52.319	-0.320	-0.148
-361.654	450.180	0.128	-0.281
-360.639	220.900	0.024	-0.038
-359.625	92.819	-0.027	-0.031
-358.610	800.000	-0.017	0.054
-357.596	167.789	-0.217	0.307
-356.581	-114.954	-0.280	0.053
-355.566	-102.044	0.270	0.065
-354.552	-59.994	-0.095	0.041
-353.537	800.000	0.038	0.133
-352.523	711.392	-0.114	0.301
-351.508	242.309	-0.169	-0.281
-350.493	-200.000	-0.009	-0.188
-349.479	376.021	0.084	-0.170
-348.464	59.705	-0.098	-0.096
-347.450	125.156	-0.110	0.138
-346.435	-200.000	-0.013	-0.269
-345.420	116.701	-0.328	0.400
-344.406	-138.719	-0.143	-0.016
-343.391	-197.478	-0.058	-0.000
-342.377	194.779	-0.003	-0.005
-341.362	426.568	-0.087	-0.187
-340.348	122.368	0.219	0.272
-339.333	-139.345	-0.170	0.018
-338.318	228.156	0.021	-0.034
-337.304	-200.000	0.004	-0.034
-336.289	108.285	-0.266	0.316
-335.275	-158.895	-0.235	0.013
-334.260	593.348	0.037	-0.092
-333.245	32.685	0.101	-0.087
-332.231	-97.082	0.204	0.053
-331.216	23.822	-0.010	0.008
-330.202	-142.012	0.279	0.028
-329.187	-105.689	-0.244	-0.055
-328.172	17.272	-0.090	-0.071
-327.158	386.204	0.041	0.085
-326.143	322.093	0.145	0.274
-325.129	83.426	0.152	0.165
-324.114	-134.548	0.316	0.038
-323.099	339.458	-0.097	-0.187
-322.085	-200.000	0.040	-0.231
-321.070	-142.018	0.151	0.015
-320.056	-11.113	-0.152	-0.100
-319.041	-68.777	-0.149	-0.057
-318.026	-129.521	-0.193	0.027
-317.012	-87.455	0.131	0.039
-315.997	-89.471	0.236	0.069
-314.983	521.838	-0.041	-0.095
-313.968	-87.538	-0.187	-0.056
-312.953	800.000	0.047	0.170
-311.939	205.802	0.114	-0.176
-310.924	-141.970	0.077	-0.008
-309.910	800.000	-0.022	-0.079
-308.895	-115.133	-0.034	0.006
-307.880	800.000	0.039	0.125
-306.866	-35.718	0.100	0.054
-305.851	157.893	-0.154	0.212
-304.837	-55.783	0.113	0.050
-303.822	82.356	0.159	-0.171
-302.807	-110.849	-0.300	0.061
-301.793	132.185	0.145	-0.185
-300.778	-200.000	0.018	-0.151
-299.764	-84.220	-0.215	-0.068
-298.749	294.024	0.006	0.010
-297.735	-2.262	-0.071	0.049
-296.720	65.392	0.094	0.094
-295.705	63.202	-0.116	-0.115
-294.691	-114.647	0.080	-0.015
-293.676	301.517	-0.098	0.179
-292.662	-13.687	-0.229	0.147
-291.647	-161.096	-0.337	-0.017
-290.632	-119.763	0.364	-0.062
-289.618	257.506	-0.147	-0.251
-288.603	4.869	-0.179	-0.131
-287.589	-200.000	-0.002	0.011
-286.574	650.664	-0.116	-0.295
-285.559	-87.885	-0.510	-0.152
-284.545	-74.688	0.150	0.054
-283.530	122.754	0.125	-0.155
-282.516	-164.007	-0.424	0.020
-281.501	-96.108	0.090	0.024
-280.486	800.000	-0.051	0.187
-279.472	20.833	0.181	-0.146
-278.457	5.818	0.200	0.146
-277.443	-70.573	0.425	0.159
-276.428	-14.350	-0.270	0.173
-275.413	218.813	-0.105	0.166
-274.399	-99.923	-0.096	0.024
-273.384	-200.000	0.018	0.161
-272.370	-76.122	-0.224	0.078
-271.355	-200.000	0.022	0.140
-270.340	800.000	0.101	-0.329
-269.326	-200.000	-0.006	-0.216
-268.311	398.633	0.100	0.207
-267.297	149.087	0.065	0.087
-266.282	800.000	0.070	0.204
-265.267	-106.774	-0.177	0.039
-264.253	18.883	-0.083	0.066
-263.238	-200.000	0.004	-0.300
-262.224	65.648	-0.294	-0.295
-261.209	-200.000	-0.033	-0.225
-260.195	301.010	-0.123	-0.225
-259.180	-32.880	-0.347	-0.191
-258.165	-77.069	0.230	0.079
-257.151	800.000	0.052	-0.168
-256.136	-80.094	-0.147	0.049
-255.122	100.684	-0.313	0.360
-254.107	38.582	-0.165	0.146
-253.092	-14.195	-0.255	0.163
-252.078	21.350	-0.128	0.103
-251.063	411.048	-0.041	-0.086
-250.049	800.000	-0.025	0.070
-249.034	18.777	-0.162	-0.129
-248.019	800.000	0.122	-0.407
-247.005	-139.621	-0.239	0.025
-245.990	800.000	0.087	0.334
-244.976	-2.688	0.321	-0.222
-243.961	-82.141	-0.099	0.032
-242.946	682.434	0.075	-0.193
-241.932	267.752	0.103	-0.179
-240.917	800.000	0.098	0.274
-239.903	266.137	-0.055	0.095
-238.888	184.200	0.127	-0.186
-237.873	-108.118	0.193	-0.041
-236.859	-53.609	0.355	-0.161
-235.844	-200.000	0.050	0.293
-234.830	308.810	-0.180	-0.333
-233.815	-131.564	0.300	-0.039
-232.800	-196.442	0.369	-0.002
-231.786	-40.458	0.168	-0.086
-230.771	800.000	0.109	0.398
-229.757	101.786	-0.187	0.215
-228.742	800.000	-0.034	0.146
-227.727	-7.754	0.234	-0.156
-226.713	10.623	-0.164	0.124
-225.698	-51.741	0.081	-0.037
-224.684	58.448	0.158	0.153
-223.669	-46.673	0.063	0.030
-222.655	622.540	0.059	0.146
-221.640	464.069	-0.194	0.428
-220.625	800.000	-0.042	-0.132
-219.611	-200.000	0.062	-0.393
-218.596	-200.000	0.058	0.452
-217.582	-144.625	0.370	0.034
-216.567	104.878	0.102	0.119
-215.552	800.000	0.018	0.060
-214.538	-200.000	-0.015	0.065
-213.523	800.000	0.016	-0.046
-212.509	-108.293	-0.426	-0.091
-211.494	-21.601	0.095	-0.057
-210.479	145.298	-0.234	-0.309
-209.465	263.578	-0.055	0.094
-208.450	-94.188	-0.342	-0.093
-207.436	-200.000	0.022	-0.224
-206.421	-27.462	-0.098	0.057
-205.406	-150.012	-0.236	-0.018
-204.392	189.466	0.110	-0.163
-203.377	247.376	0.125	-0.208
-202.363	716.392	0.057	-0.150
-201.348	408.846	-0.150	-0.314
-200.333	54.434	0.072	0.069
-199.319	-77.040	-0.149	-0.051
-198.304	800.000	0.181	0.562
-197.290	489.791	0.102	0.230
-196.275	583.146	0.040	-0.098
-195.260	190.386	0.184	-0.273
-194.246	190.518	0.132	-0.196
-193.231	-61.487	0.163	-0.068
-192.217	249.155	0.173	0.289
-191.202	-181.468	-0.158	0.003
-190.187	113.619	-0.148	-0.177
-189.173	-33.355	-0.155	-0.085
-188.158	-200.000	-0.074	-0.350
-187.144	-163.108	0.095	-0.005
-186.129	800.000	0.124	0.403
-185.114	-161.434	0.214	0.011
-184.100	243.203	-0.118	0.195
-183.085	500.529	-0.078	-0.178
-182.071	-111.211	0.332	0.067
-181.056	800.000	0.069	0.217
-180.042	-134.047	-0.348	-0.043
-179.027	-89.110	0.018	-0.005
-178.012	458.607	-0.080	0.175
-176.998	275.400	0.103	0.180
-175.983	38.136	-0.280	-0.246
-174.969	-200.000	0.013	-0.395
-173.954	3.551	-0.197	-0.142
-172.939	18.093	0.244	-0.192
-171.925	-200.000	-0.034	0.161
-170.910	800.000	0.031	-0.098
-169.896	271.407	0.133	-0.231
-168.881	800.000	-0.157	0.577
-167.866	-34.711	0.161	0.087
-166.852	-200.000	-0.017	-0.086
-165.837	178.400	0.141	0.203
-164.823	10.040	0.180	-0.135
-163.808	-88.013	0.268	-0.079
-162.793	95.027	-0.128	-0.144
-161.779	82.591	0.149	-0.160
-160.764	-200.000	0.011	0.076
-159.750	-0.397	0.218	0.153
-158.735	-171.888	-0.324	-0.010
-157.720	4.547	0.115	0.083
-156.706	-107.247	-0.227	-0.049
-155.691	-138.525	-0.248	0.027
-154.677	-200.000	-0.002	0.049
-153.662	-121.310	-0.071	-0.012
-152.647	36.780	0.191	0.167
-151.633	-29.362	-0.104	0.058
-150.618	513.734	-0.091	0.210
-149.604	-27.757	0.080	0.046
-148.589	314.754	-0.134	-0.248
-147.574	75.068	-0.109	0.113
-146.560	-76.374	-0.070	-0.024
-145.545	-27.024	-0.131	-0.075
-144.531	-200.000	-0.046	0.219
-143.516	67.720	0.157	-0.158
-142.502	-18.448	0.132	0.081
-141.487	217.866	-0.142	0.224
-140.472	162.376	-0.205	0.283
-139.458	-200.000	-0.104	-0.737
-138.443	692.964	0.190	0.491
-137.429	128.342	0.072	-0.091
-136.414	-126.593	0.195	0.029
-135.399	366.601	0.039	0.077
-134.385	284.846	0.105	0.186
-133.370	9.154	-0.309	-0.230
-132.356	-57.135	0.247	-0.107
-131.341	-17.287	-0.298	-0.185
-130.326	-200.000	0.008	-0.138
-129.312	-21.769	0.172	-0.103
-128.297	68.204	0.086	0.087
-127.283	-76.228	-0.019	0.007
-126.268	390.165	0.068	-0.138
-125.253	-200.000	0.048	-0.390
-124.239	52.561	0.186	-0.175
-123.224	-41.848	-0.242	-0.122
-122.210	351.445	0.081	-0.159
-121.195	-57.831	-0.195	0.084
