DTS Sentinel unit serial number:	SN413079Multiplexer serial number:	ORYXHardware model number:	OX4-SRSoftware version number:	ORYX F/W v4.00 Oryx Data Collector v3.7.2.0data status	okinstallation	princeton_trtdifferential loss correction	single-endedforward channel	channel 3reverse channel	N/Adate	2019/09/14time	18:52:35forward acquisition time	60.00reverse acquisition time	0.00gamma	496.2192k internal	0.2306k external	0.2306temperature offset calibration	1.0015default loss term (dB/km)	0.3790temperature slope calibration	1.0000multiplexer offset coefficient	1.0000multiplexer slope coefficient	1.0000fibre end	0.00T internal ref (°C)	35.87T ext. ref 1 (°C)	4.90T ext. ref 2 (°C)	29.65length (m)	temperature (°C)	Stokes	anti-Stokes-747.200	-42.045	0.379	-0.197
-746.185	63.402	-0.210	0.215
-745.171	8.315	0.254	-0.194
-744.156	736.720	-0.068	0.186
-743.142	585.342	-0.059	0.147
-742.127	-37.451	0.220	0.119
-741.112	419.900	0.110	0.239
-740.098	-6.122	0.112	-0.078
-739.083	-50.305	0.449	0.216
-738.069	-200.000	0.055	0.380
-737.054	400.865	0.110	-0.235
-736.039	94.247	0.151	-0.174
-735.025	-36.154	0.303	-0.166
-734.010	-123.976	0.176	-0.028
-732.996	-200.000	-0.027	0.234
-731.981	-200.000	0.000	-0.132
-730.966	-116.025	-0.279	-0.053
-729.952	4.606	-0.248	-0.185
-728.937	172.013	0.163	-0.238
-727.923	800.000	-0.036	0.142
-726.908	-154.599	0.178	0.012
-725.894	80.061	-0.042	0.046
-724.879	40.049	-0.291	-0.266
-723.864	15.060	-0.270	-0.215
-722.850	5.712	0.058	0.044
-721.835	-27.052	0.166	-0.098
-720.821	-200.000	0.001	0.155
-719.806	-190.570	-0.226	0.002
-718.791	122.513	-0.205	-0.260
-717.777	240.617	0.138	-0.235
-716.762	800.000	-0.087	0.301
-715.748	-200.000	0.014	0.296
-714.733	-200.000	0.020	0.245
-713.718	-67.868	0.100	0.040
-712.704	-200.000	0.386	0.001
-711.689	-101.363	0.384	-0.095
-710.675	161.652	0.043	0.061
-709.660	-183.296	0.244	-0.004
-708.645	292.180	0.043	0.079
-707.631	168.696	-0.207	0.300
-706.616	0.132	-0.202	0.147
-705.602	-25.278	-0.340	-0.205
-704.587	51.912	0.200	-0.193
-703.572	800.000	0.100	-0.325
-702.558	-85.835	0.315	-0.099
-701.543	331.362	-0.055	-0.108
-700.529	-20.682	-0.359	-0.224
-699.514	-74.676	0.169	-0.062
-698.499	-112.076	0.440	-0.090
-697.485	-66.207	0.059	0.024
-696.470	-146.709	0.329	-0.029
-695.456	800.000	0.063	0.208
-694.441	6.533	0.059	-0.045
-693.426	46.664	-0.129	0.122
-692.412	-109.495	0.103	-0.022
-691.397	-101.526	0.290	0.072
-690.383	-200.000	0.059	-0.263
-689.368	-8.389	-0.102	0.070
-688.354	39.588	0.115	0.105
-687.339	508.338	0.095	0.223
-686.324	-200.000	0.008	-0.386
-685.310	11.401	-0.171	0.133
-684.295	252.005	0.114	0.197
-683.281	-93.414	-0.262	-0.074
-682.266	-157.678	-0.159	-0.010
-681.251	-200.000	-0.062	-0.349
-680.237	4.735	0.326	-0.243
-679.222	92.592	-0.177	-0.202
-678.208	66.944	0.162	-0.168
-677.193	55.849	-0.202	0.198
-676.178	800.000	-0.037	0.114
-675.164	54.900	-0.117	-0.115
-674.149	-66.808	0.224	0.090
-673.135	177.327	0.081	-0.120
-672.120	-81.542	0.114	-0.038
-671.105	89.849	0.179	-0.203
-670.091	178.441	0.220	0.326
-669.076	270.345	-0.196	0.350
-668.062	140.727	0.054	0.072
-667.047	800.000	0.016	0.049
-666.032	-200.000	0.005	-0.177
-665.018	-55.656	0.201	-0.091
-664.003	-115.519	0.264	0.050
-662.989	-26.740	-0.103	0.061
-661.974	800.000	-0.107	-0.329
-660.959	-124.350	0.298	-0.047
-659.945	227.893	-0.042	-0.070
-658.930	145.241	-0.189	-0.256
-657.916	-124.820	-0.158	0.025
-656.901	51.714	0.117	0.113
-655.886	11.228	0.293	-0.227
-654.872	158.167	-0.193	0.271
-653.857	800.000	-0.076	-0.214
-652.843	-103.501	0.422	0.101
-651.828	-200.000	0.008	0.131
-650.814	-136.367	-0.282	0.033
-649.799	392.957	0.060	0.127
-648.784	-200.000	-0.015	0.139
-647.770	-153.198	0.060	-0.004
-646.755	-5.342	-0.366	-0.255
-645.741	-102.846	-0.127	-0.031
-644.726	-143.538	-0.109	-0.011
-643.711	-200.000	-0.011	0.117
-642.697	-27.852	-0.338	-0.198
-641.682	44.677	0.082	0.077
-640.668	56.689	-0.220	-0.217
-639.653	800.000	0.060	0.175
-638.638	-200.000	-0.039	0.322
-637.624	-32.690	-0.317	0.179
-636.609	-132.351	-0.140	0.018
-635.595	-200.000	-0.021	-0.153
-634.580	53.108	0.148	0.144
-633.565	-200.000	0.017	-0.374
-632.551	40.133	0.094	-0.085
-631.536	-49.670	-0.311	0.150
-630.522	-200.000	-0.018	-0.245
-629.507	63.290	-0.275	-0.279
-628.492	-2.814	0.215	-0.152
-627.478	537.375	-0.156	-0.376
-626.463	287.462	-0.099	0.180
-625.449	653.757	-0.057	-0.148
-624.434	-200.000	-0.015	0.100
-623.419	-200.000	0.006	0.213
-622.405	-17.205	-0.108	-0.069
-621.390	13.812	-0.160	-0.126
-620.376	-50.902	0.126	0.060
-619.361	-13.774	-0.083	0.055
-618.346	-200.000	-0.042	0.476
-617.332	12.829	0.155	-0.121
-616.317	709.295	-0.062	-0.166
-615.303	-82.577	-0.314	-0.103
-614.288	800.000	-0.113	-0.317
-613.273	46.335	0.367	-0.344
-612.259	737.507	-0.119	-0.324
-611.244	75.277	0.039	-0.042
-610.230	-44.146	-0.123	-0.062
-609.215	553.342	0.108	-0.262
-608.201	170.929	0.085	0.124
-607.186	-68.674	-0.280	0.110
-606.171	-200.000	-0.043	0.232
-605.157	-113.682	0.456	0.090
-604.142	800.000	-0.133	0.442
-603.128	-200.000	0.025	-0.262
-602.113	100.661	-0.085	0.100
-601.098	352.372	-0.106	0.213
-600.084	261.050	0.100	0.175
-599.069	98.622	0.126	-0.147
-598.055	-200.000	-0.048	0.213
-597.040	-114.319	-0.155	0.030
-596.025	181.904	-0.061	-0.091
-595.011	-57.200	0.055	-0.024
-593.996	-70.073	0.140	-0.054
-592.982	-129.073	-0.131	0.019
-591.967	389.412	0.024	0.050
-590.952	457.372	-0.158	-0.356
-589.938	61.122	-0.081	0.081
-588.923	468.907	-0.135	0.306
-587.909	-86.546	-0.020	-0.006
-586.894	61.894	0.115	-0.116
-585.879	-200.000	0.058	0.382
-584.865	800.000	0.062	0.179
-583.850	317.736	-0.066	-0.126
-582.836	16.600	-0.116	-0.093
-581.821	-200.000	-0.011	0.318
-580.806	598.445	0.089	0.223
-579.792	-177.297	-0.518	-0.013
-578.777	-126.861	-0.103	-0.015
-577.763	-18.320	-0.167	0.106
-576.748	-20.445	0.194	-0.120
-575.733	-200.000	-0.020	0.403
-574.719	-42.501	-0.247	-0.127
-573.704	800.000	-0.061	0.186
-572.690	72.933	-0.040	0.042
-571.675	800.000	0.060	0.176
-570.661	-200.000	0.011	-0.091
-569.646	54.167	-0.111	0.108
-568.631	-109.921	0.125	0.026
-567.617	-200.000	0.020	0.194
-566.602	254.957	-0.120	-0.208
-565.588	171.526	0.351	-0.510
-564.573	681.755	-0.062	-0.162
-563.558	800.000	-0.009	-0.034
-562.544	-96.703	-0.399	-0.106
-561.529	800.000	0.083	-0.232
-560.515	-116.708	-0.112	0.021
-559.500	-112.837	0.071	-0.014
-558.485	-114.874	0.263	0.051
-557.471	-200.000	-0.002	-0.129
-556.456	-67.438	0.259	0.103
-555.442	-44.802	0.270	0.136
-554.427	506.740	0.043	0.100
-553.412	-200.000	-0.024	-0.130
-552.398	135.988	0.193	-0.254
-551.383	-79.864	0.301	-0.102
-550.369	88.022	-0.232	0.260
-549.354	45.572	-0.159	-0.148
-548.339	229.381	-0.166	-0.273
-547.325	-109.184	-0.045	-0.010
-546.310	25.574	0.246	0.207
-545.296	-118.198	0.201	0.036
-544.281	290.538	0.125	0.230
-543.266	54.418	0.288	-0.280
-542.252	12.202	-0.251	-0.195
-541.237	468.790	0.113	-0.256
-540.223	-0.400	0.267	0.191
-539.208	89.520	0.180	0.203
-538.193	-174.019	0.186	0.006
-537.179	184.237	-0.143	-0.213
-536.164	-61.361	-0.111	-0.047
-535.150	240.135	-0.088	-0.148
-534.135	-200.000	-0.044	0.196
-533.121	335.079	0.156	0.305
-532.106	-200.000	0.009	-0.105
-531.091	34.732	0.139	-0.123
-530.077	22.569	0.336	0.277
-529.062	-121.510	-0.200	0.033
-528.048	88.072	0.153	0.171
-527.033	-12.020	-0.251	0.166
-526.018	-99.968	-0.090	0.023
-525.004	244.646	0.020	-0.034
-523.989	102.242	-0.242	0.286
-522.975	302.181	0.102	-0.190
-521.960	-48.187	0.075	-0.036
-520.945	78.919	-0.112	-0.120
-519.931	596.429	0.102	-0.255
-518.916	-55.374	0.323	0.146
-517.902	-88.836	0.282	-0.085
-516.887	800.000	0.065	0.189
-515.872	149.402	0.162	0.221
-514.858	-200.000	0.011	0.118
-513.843	-72.985	0.429	0.159
-512.829	103.347	0.119	-0.141
-511.814	-200.000	-0.021	0.269
-510.799	240.294	-0.177	0.297
-509.785	-140.311	-0.177	-0.019
-508.770	287.211	-0.096	-0.175
-507.756	54.998	-0.221	-0.216
-506.741	-65.712	0.245	0.099
-505.726	-200.000	-0.006	0.332
-504.712	800.000	0.056	-0.203
-503.697	-22.216	0.125	0.076
-502.683	331.715	-0.069	0.135
-501.668	-78.370	-0.226	-0.078
-500.653	320.350	0.130	0.250
-499.639	800.000	-0.078	0.256
-498.624	-66.058	0.387	0.156
-497.610	37.083	0.098	-0.087
-496.595	800.000	0.052	0.147
-495.581	-200.000	-0.009	-0.206
-494.566	51.283	-0.149	0.142
-493.551	-132.130	0.162	-0.021
-492.537	-70.089	-0.334	-0.128
-491.522	800.000	0.019	0.073
-490.508	800.000	0.002	0.009
-489.493	14.802	0.191	0.151
-488.478	-60.668	-0.171	0.073
-487.464	-123.339	0.117	-0.019
-486.449	-200.000	0.003	-0.473
-485.435	16.941	-0.080	-0.064
-484.420	800.000	-0.080	0.253
-483.405	98.023	0.145	0.169
-482.391	-100.212	0.302	0.076
-481.376	71.088	0.104	-0.109
-480.362	-26.484	-0.230	0.136
-479.347	-163.981	-0.149	0.007
-478.332	-200.000	-0.017	-0.152
-477.318	-200.000	-0.008	0.137
-476.303	-58.047	0.406	0.178
-475.289	-200.000	-0.021	0.183
-474.274	3.401	0.271	0.199
-473.259	-200.000	-0.000	-0.164
-472.245	-122.073	-0.375	-0.062
-471.230	103.881	-0.205	0.243
-470.216	-43.470	0.280	-0.142
-469.201	-200.000	0.009	0.073
-468.186	472.716	-0.137	-0.310
-467.172	-21.007	-0.126	0.078
-466.157	-107.969	0.139	0.031
-465.143	-108.404	-0.323	-0.070
-464.128	-200.000	-0.077	-0.513
-463.113	127.399	-0.176	-0.225
-462.099	800.000	-0.024	0.081
-461.084	-108.394	-0.326	-0.071
-460.070	-140.248	-0.112	-0.012
-459.055	-135.198	0.200	-0.024
-458.040	800.000	0.074	0.211
-457.026	-200.000	-0.004	0.131
-456.011	-126.389	0.112	-0.017
-454.997	-200.000	0.003	0.141
-453.982	-97.793	-0.271	0.070
-452.968	-163.443	-0.233	0.011
-451.953	-102.734	-0.241	-0.058
-450.938	-2.020	0.062	-0.044
-449.924	-127.509	-0.077	0.011
-448.909	-76.300	0.185	0.065
-447.895	-50.259	0.125	-0.060
-446.880	-112.668	-0.147	0.029
-445.865	-67.607	0.349	-0.138
-444.851	-200.000	0.034	-0.250
-443.836	85.373	0.101	-0.111
-442.822	-200.000	0.010	0.103
-441.807	200.989	-0.065	-0.101
-440.792	427.404	0.148	-0.322
-439.778	-23.191	-0.152	0.092
-438.763	-119.916	-0.211	0.036
-437.749	-91.460	-0.122	-0.035
-436.734	-49.348	0.210	-0.101
-435.719	800.000	-0.022	-0.070
-434.705	205.383	-0.049	0.077
-433.690	10.598	-0.029	0.022
-432.676	-163.199	-0.076	-0.004
-431.661	-98.702	-0.033	0.008
-430.646	-74.971	-0.167	-0.060
-429.632	-36.125	-0.353	0.192
-428.617	356.617	-0.212	0.425
-427.603	-50.012	0.227	-0.108
-426.588	-200.000	0.007	-0.404
-425.573	800.000	0.104	-0.308
-424.559	-113.452	0.334	-0.066
-423.544	-200.000	-0.001	-0.348
-422.530	-56.927	-0.240	-0.106
-421.515	481.900	-0.086	-0.196
-420.500	-97.184	0.396	0.104
-419.486	-200.000	0.018	0.412
-418.471	499.185	-0.158	0.365
-417.457	466.475	0.022	-0.051
-416.442	800.000	0.028	0.105
-415.428	272.162	-0.044	-0.078
-414.413	116.273	0.035	-0.043
-413.398	-200.000	-0.020	-0.126
-412.384	-54.630	0.241	-0.109
-411.369	21.198	-0.192	-0.157
-410.355	-122.683	0.297	0.048
-409.340	55.868	-0.171	-0.166
-408.325	-200.000	0.001	-0.304
-407.311	-15.601	0.148	-0.095
-406.296	337.687	-0.182	0.356
-405.282	41.522	0.079	-0.072
-404.267	-200.000	0.039	-0.278
-403.252	800.000	0.037	0.126
-402.238	109.776	-0.174	-0.209
-401.223	800.000	-0.073	-0.294
-400.209	213.714	0.235	-0.374
-399.194	-156.697	-0.323	-0.020
-398.179	62.949	0.089	-0.089
-397.165	-140.798	-0.179	-0.019
-396.150	329.805	0.190	-0.367
-395.136	261.639	-0.045	-0.077
-394.121	800.000	-0.046	0.148
-393.106	236.413	-0.099	-0.165
-392.092	-31.758	0.204	0.115
-391.077	31.467	0.148	-0.128
-390.063	-130.862	0.194	-0.026
-389.048	-200.000	0.063	0.302
-388.033	125.431	0.193	0.244
-387.019	-97.075	0.146	-0.038
-386.004	492.023	0.060	0.138
-384.990	-89.118	0.179	0.053
-383.975	38.232	-0.253	-0.226
-382.960	-0.987	0.173	0.123
-381.946	-128.738	-0.139	-0.020
-380.931	-200.000	-0.004	-0.061
-379.917	-200.000	-0.062	-0.377
-378.902	-97.778	0.298	-0.077
-377.888	75.545	0.063	0.067
-376.873	248.978	-0.031	-0.052
-375.858	-49.105	-0.170	-0.082
-374.844	-200.000	-0.001	-0.054
-373.829	-200.000	0.040	0.216
-372.815	-200.000	-0.005	0.286
-371.800	-99.063	0.369	-0.094
-370.785	54.683	0.207	0.201
-369.771	17.232	0.124	-0.099
-368.756	800.000	-0.046	-0.157
-367.742	100.018	0.083	0.097
-366.727	-35.026	0.078	-0.042
-365.712	68.807	-0.091	0.094
-364.698	460.725	-0.072	-0.161
-363.683	-169.680	-0.138	-0.005
-362.669	-200.000	-0.053	0.427
-361.654	27.681	-0.131	0.111
-360.639	290.002	-0.134	-0.245
-359.625	-138.705	-0.075	0.008
-358.610	-55.100	-0.155	0.070
-357.596	258.039	0.153	0.265
-356.581	-38.653	0.035	0.018
-355.566	-122.347	0.401	0.066
-354.552	133.906	-0.122	0.159
-353.537	0.752	0.137	0.098
-352.523	-22.677	0.265	0.160
-351.508	-47.349	-0.179	0.087
-350.493	76.186	0.229	-0.243
-349.479	-200.000	-0.028	-0.203
-348.464	-200.000	-0.008	-0.060
-347.450	-200.000	0.013	-0.259
-346.435	-200.000	-0.063	0.313
-345.420	23.561	-0.282	0.232
-344.406	-89.589	-0.161	0.047
-343.391	-40.561	0.188	0.098
-342.377	155.325	-0.182	-0.251
-341.362	800.000	-0.160	-0.486
-340.348	-1.407	-0.191	-0.135
-339.333	-69.400	-0.246	0.094
-338.318	-17.971	-0.214	-0.135
-337.304	-54.150	-0.297	-0.135
-336.289	138.053	-0.073	0.095
-335.275	-36.184	-0.160	-0.087
-334.260	-33.529	0.227	-0.126
-333.245	268.245	0.171	0.300
-332.231	800.000	0.015	0.057
-331.216	-200.000	-0.065	0.311
-330.202	-22.187	-0.267	-0.162
-329.187	-48.640	-0.203	0.098
-328.172	-200.000	-0.017	-0.157
-327.158	-80.412	-0.264	-0.088
-326.143	800.000	-0.111	0.478
-325.129	-27.533	0.416	0.242
-324.114	-185.311	-0.180	0.003
-323.099	-187.563	-0.333	-0.004
-322.085	409.794	0.183	-0.388
-321.070	-200.000	-0.086	-0.463
-320.056	-200.000	0.004	0.031
-319.041	461.992	0.154	-0.344
-318.026	238.856	0.168	-0.280
-317.012	-108.881	0.315	0.067
-315.997	62.575	0.256	0.256
-314.983	-200.000	0.086	0.457
-313.968	-100.813	0.316	0.078
-312.953	-67.366	-0.117	-0.046
-311.939	-200.000	-0.011	-0.340
-310.924	-169.509	-0.227	-0.008
-309.910	-152.877	0.148	0.010
-308.895	-48.259	0.207	0.100
-307.880	800.000	-0.119	-0.337
-306.866	-81.828	-0.101	0.033
-305.851	215.831	-0.056	0.088
-304.837	-65.814	0.324	0.130
-303.822	-63.874	-0.292	-0.120
-302.807	168.639	0.041	-0.058
-301.793	21.594	-0.101	-0.082
-300.778	-52.282	0.399	-0.185
-299.764	-200.000	0.025	0.182
-298.749	-93.793	0.244	-0.067
-297.735	641.973	-0.098	0.249
-296.720	-165.097	0.123	-0.005
-295.705	74.110	0.152	-0.159
-294.691	-15.254	0.180	0.115
-293.676	-200.000	-0.048	-0.229
-292.662	-61.874	0.334	-0.140
-291.647	-122.839	0.039	0.006
-290.632	232.551	0.108	0.178
-289.618	-103.084	0.050	0.012
-288.603	126.439	-0.040	0.050
-287.589	-191.542	0.093	-0.001
-286.574	6.713	0.020	0.015
-285.559	49.062	-0.171	0.161
-284.545	159.790	0.099	0.138
-283.530	8.498	0.072	0.054
-282.516	475.873	0.059	-0.133
-281.501	65.701	-0.148	0.150
-280.486	-83.825	0.258	0.082
-279.472	-74.288	-0.178	0.064
-278.457	-200.000	0.053	-0.287
-277.443	-46.786	0.450	0.220
-276.428	-146.610	0.202	0.018
-275.413	219.224	-0.328	-0.524
-274.399	-34.366	-0.167	-0.091
-273.384	18.682	0.144	0.115
-272.370	800.000	0.082	-0.259
-271.355	-187.610	0.071	-0.001
-270.340	135.292	0.118	0.153
-269.326	800.000	-0.111	-0.353
-268.311	-47.145	0.118	0.058
-267.297	261.210	-0.102	0.176
-266.282	800.000	-0.050	0.217
-265.267	800.000	0.085	0.297
-264.253	3.634	-0.151	0.110
-263.238	-139.009	-0.437	-0.047
-262.224	-98.056	-0.199	0.051
-261.209	800.000	0.057	-0.201
-260.195	-200.000	-0.044	0.235
-259.180	-7.623	-0.089	-0.060
-258.165	194.445	-0.084	-0.127
-257.151	394.760	0.052	0.108
-256.136	252.189	0.091	-0.154
-255.122	-51.872	-0.031	0.014
-254.107	-72.255	0.051	-0.019
-253.092	-85.950	-0.280	0.087
-252.078	132.891	-0.056	0.072
-251.063	-200.000	0.032	0.211
-250.049	800.000	0.087	0.279
-249.034	-38.675	-0.028	0.015
-248.019	165.734	-0.013	0.019
-247.005	489.140	0.076	0.174
-245.990	25.013	-0.113	-0.094
-244.976	-7.996	-0.136	-0.092
-243.961	-200.000	0.002	-0.043
-242.946	517.277	-0.072	-0.168
-241.932	422.606	-0.040	-0.086
-240.917	167.716	0.077	0.109
-239.903	800.000	-0.091	-0.301
-238.888	-24.712	-0.150	0.089
-237.873	800.000	-0.052	-0.200
-236.859	-63.927	0.188	-0.077
-235.844	65.305	0.154	0.155
-234.830	-121.623	0.045	0.007
-233.815	-134.061	-0.269	0.033
-232.800	97.296	0.278	0.319
-231.786	70.900	-0.040	-0.041
-230.771	-200.000	-0.023	0.121
-229.757	-153.778	0.113	0.008
-228.742	-200.000	0.045	0.266
-227.727	92.668	-0.109	-0.122
-226.713	-200.000	-0.005	-0.261
-225.698	371.179	0.093	0.188
-224.684	-10.154	-0.074	-0.049
-223.669	-200.000	-0.020	-0.148
-222.655	800.000	-0.094	0.279
-221.640	-132.675	-0.267	-0.034
-220.625	520.434	-0.128	0.300
-219.611	100.616	-0.173	0.200
-218.596	-148.381	-0.124	0.010
-217.582	523.384	0.020	0.047
-216.567	-95.544	-0.372	0.099
-215.552	-200.000	0.000	-0.272
-214.538	800.000	-0.029	0.106
-213.523	-200.000	-0.012	0.445
-212.509	597.281	-0.121	-0.299
-211.494	120.885	0.134	-0.167
-210.479	-200.000	-0.043	-0.193
-209.465	355.751	0.079	0.157
-208.450	-126.285	0.051	0.008
-207.436	189.587	-0.167	-0.249
-206.421	-58.760	0.333	-0.144
-205.406	130.392	-0.201	0.256
-204.392	29.869	-0.148	-0.126
-203.377	800.000	0.049	-0.215
-202.363	-64.095	0.100	-0.041
-201.348	-183.013	0.024	-0.000
-200.333	-137.968	0.121	-0.013
-199.319	284.734	0.039	0.070
-198.304	250.880	0.026	0.044
-197.290	-200.000	0.035	-0.251
-196.275	-105.645	0.280	-0.063
-195.260	107.434	-0.151	0.179
-194.246	-200.000	-0.052	0.317
-193.231	-61.081	-0.058	0.024
-192.217	-90.651	-0.288	0.083
-191.202	246.794	0.039	0.066
-190.187	610.143	-0.061	-0.152
-189.173	-1.541	-0.194	0.136
-188.158	216.560	0.061	0.097
-187.144	-90.919	-0.208	0.059
-186.129	-140.169	0.254	-0.027
-185.114	112.299	0.068	0.082
-184.100	189.935	-0.054	-0.080
-183.085	112.605	0.323	0.389
-182.071	212.833	0.083	0.130
-181.056	254.659	-0.060	-0.102
-180.042	143.065	-0.117	-0.155
-179.027	114.066	-0.055	-0.067
-178.012	-121.140	0.289	-0.048
-176.998	-160.038	-0.177	-0.010
-175.983	233.836	0.069	-0.114
-174.969	110.027	0.109	0.131
-173.954	-73.906	-0.249	0.090
-172.939	-200.000	-0.014	-0.352
-171.925	88.289	0.359	0.396
-170.910	121.632	-0.131	0.162
-169.896	-53.431	0.247	-0.113
-168.881	299.577	0.159	0.291
-167.866	-200.000	0.310	-0.002
-166.852	257.419	-0.054	0.092
-165.837	-93.374	0.341	-0.094
-164.823	-149.386	-0.086	-0.007
-163.808	-126.508	0.228	-0.034
-162.793	800.000	-0.070	-0.278
-161.779	2.568	-0.196	0.141
-160.764	-56.284	-0.281	-0.124
-159.750	-50.160	-0.221	0.104
-158.735	800.000	-0.071	0.208
-157.720	-117.055	0.179	0.032
-156.706	638.060	-0.085	-0.214
-155.691	-77.077	0.320	-0.111
-154.677	212.015	-0.070	-0.109
-153.662	-66.586	0.141	0.055
-152.647	28.091	0.057	0.048
-151.633	-200.000	0.008	-0.116
-150.618	-40.348	0.210	-0.108
-149.604	-23.218	-0.157	-0.094
-148.589	-200.000	-0.008	-0.176
-147.574	138.494	0.172	0.225
-146.560	163.846	0.166	-0.232
-145.545	-200.000	0.055	-0.322
-144.531	191.429	-0.200	0.300
-143.516	-9.362	0.123	0.082
-142.502	33.431	-0.139	-0.120
-141.487	-161.454	0.399	0.020
-140.472	95.747	0.104	0.118
-139.458	33.624	-0.227	0.196
-138.443	800.000	-0.124	-0.360
-137.429	183.422	-0.015	-0.022
-136.414	-92.837	-0.030	0.008
-135.399	800.000	0.088	0.281
-134.385	281.818	-0.151	-0.270
-133.370	-110.345	-0.176	-0.036
-132.356	-22.056	0.184	-0.111
-131.341	800.000	-0.091	-0.339
-130.326	800.000	-0.059	-0.203
-129.312	175.205	0.206	-0.297
-128.297	-159.905	0.186	0.010
-127.283	-200.000	-0.008	0.156
-126.268	800.000	0.118	-0.332
-125.253	-75.287	0.130	0.046
-124.239	-30.688	-0.114	-0.064
-123.224	360.850	-0.154	0.307
-122.210	599.728	0.141	0.348
-121.195	52.838	0.232	0.220
