DTS Sentinel unit serial number:	SN413079Multiplexer serial number:	ORYXHardware model number:	OX4-SRSoftware version number:	ORYX F/W v4.00 Oryx Data Collector v3.7.2.0data status	okinstallation	princeton_trtdifferential loss correction	single-endedforward channel	channel 3reverse channel	N/Adate	2019/09/15time	05:24:35forward acquisition time	60.00reverse acquisition time	0.00gamma	496.2192k internal	0.2324k external	0.2324temperature offset calibration	0.9978default loss term (dB/km)	0.3790temperature slope calibration	1.0000multiplexer offset coefficient	1.0000multiplexer slope coefficient	1.0000fibre end	0.00T internal ref (°C)	30.58T ext. ref 1 (°C)	4.77T ext. ref 2 (°C)	25.65length (m)	temperature (°C)	Stokes	anti-Stokes-747.200	3.256	-0.097	-0.072
-746.185	84.833	0.157	0.173
-745.171	-107.964	-0.140	0.031
-744.156	344.859	-0.153	0.302
-743.142	800.000	0.129	-0.503
-742.127	-200.000	-0.030	0.237
-741.112	640.507	-0.067	-0.172
-740.098	225.992	-0.058	0.094
-739.083	-87.396	0.103	-0.032
-738.069	-30.019	-0.100	0.058
-737.054	-29.292	0.379	0.219
-736.039	-20.272	0.134	0.083
-735.025	95.413	-0.169	0.194
-734.010	800.000	-0.040	-0.157
-732.996	800.000	-0.031	-0.097
-731.981	-200.000	-0.013	-0.063
-730.966	-12.559	0.052	-0.035
-729.952	-69.443	0.324	-0.125
-728.937	43.111	-0.221	0.203
-727.923	-148.015	0.197	0.017
-726.908	-24.640	-0.230	-0.138
-725.894	-200.000	0.015	-0.105
-724.879	295.070	-0.123	0.227
-723.864	-142.069	0.040	0.004
-722.850	-41.809	-0.129	0.067
-721.835	-79.506	0.151	-0.052
-720.821	562.165	0.096	-0.234
-719.806	-115.620	-0.143	-0.027
-718.791	133.058	0.184	-0.240
-717.777	-20.140	-0.314	-0.195
-716.762	-200.000	-0.046	-0.483
-715.748	395.566	-0.073	0.153
-714.733	-23.660	0.279	0.169
-713.718	492.134	-0.055	-0.128
-712.704	-102.380	-0.169	-0.041
-711.689	-14.135	0.218	-0.142
-710.675	8.607	0.205	0.156
-709.660	611.385	-0.215	0.541
-708.645	800.000	-0.106	-0.303
-707.631	-49.884	-0.309	-0.148
-706.616	-94.447	-0.076	-0.021
-705.602	612.089	0.081	-0.204
-704.587	251.503	0.244	-0.418
-703.572	173.165	-0.129	-0.187
-702.558	82.406	-0.087	-0.095
-701.543	-149.854	-0.176	-0.014
-700.529	31.883	0.292	-0.253
-699.514	-200.000	-0.036	0.171
-698.499	-109.563	0.120	-0.025
-697.485	56.905	-0.205	-0.202
-696.470	-56.809	-0.326	0.145
-695.456	-112.448	0.093	-0.019
-694.441	-200.000	0.037	-0.177
-693.426	41.513	-0.051	0.046
-692.412	-200.000	0.020	0.278
-691.397	44.355	0.107	0.099
-690.383	-118.193	-0.342	-0.061
-689.368	-200.000	-0.002	0.358
-688.354	-86.159	-0.276	-0.086
-687.339	-154.948	0.160	0.011
-686.324	800.000	-0.105	-0.323
-685.310	-104.128	-0.092	-0.022
-684.295	-38.716	-0.112	0.059
-683.281	-177.790	-0.323	-0.008
-682.266	-83.698	-0.164	0.053
-681.251	353.047	-0.068	0.135
-680.237	-108.018	-0.071	0.016
-679.222	800.000	0.080	-0.351
-678.208	-31.912	-0.220	-0.124
-677.193	-200.000	0.042	0.427
-676.178	84.999	0.085	0.093
-675.164	-111.366	-0.117	0.024
-674.149	-95.346	-0.170	-0.046
-673.135	-131.042	-0.072	-0.010
-672.120	64.092	-0.127	0.129
-671.105	11.641	-0.056	-0.043
-670.091	-200.000	0.008	-0.232
-669.076	-37.592	0.022	0.012
-668.062	-23.058	0.323	0.196
-667.047	-200.000	0.004	-0.051
-666.032	145.692	0.186	-0.251
-665.018	147.112	0.161	-0.218
-664.003	191.968	0.049	-0.075
-662.989	466.687	0.047	-0.107
-661.974	-32.806	-0.153	0.086
-660.959	-56.170	-0.116	0.052
-659.945	-200.000	-0.004	0.127
-658.930	300.982	-0.106	-0.196
-657.916	-150.367	0.275	-0.021
-656.901	302.192	0.202	-0.375
-655.886	217.780	0.147	-0.236
-654.872	93.330	-0.356	-0.405
-653.857	349.094	-0.049	0.097
-652.843	-200.000	-0.009	0.051
-651.828	-57.603	0.283	0.125
-650.814	305.590	-0.069	0.128
-649.799	-66.423	0.121	0.048
-648.784	7.588	-0.182	0.137
-647.770	525.140	0.162	-0.383
-646.755	350.338	0.105	-0.210
-645.741	-43.184	-0.212	0.108
-644.726	-32.664	-0.076	-0.043
-643.711	316.782	0.110	0.209
-642.697	-118.198	0.351	-0.063
-641.682	-121.601	-0.096	-0.016
-640.668	800.000	-0.048	-0.137
-639.653	-81.649	-0.290	0.096
-638.638	-97.107	0.414	0.109
-637.624	-66.807	0.131	-0.052
-636.609	-62.265	0.226	-0.095
-635.595	329.817	-0.123	0.238
-634.580	6.497	0.149	0.111
-633.565	289.757	0.116	0.211
-632.551	-200.000	0.016	-0.144
-631.536	74.747	0.217	0.230
-630.522	-136.262	-0.061	0.007
-629.507	80.435	-0.181	-0.196
-628.492	302.204	-0.160	-0.298
-627.478	-84.673	0.282	-0.089
-626.463	-82.081	0.351	-0.115
-625.449	-24.822	-0.203	0.121
-624.434	-53.010	-0.191	-0.088
-623.419	192.060	0.076	-0.115
-622.405	-200.000	0.023	-0.151
-621.390	61.961	-0.099	0.100
-620.376	-54.554	-0.234	-0.106
-619.361	-139.425	0.056	-0.006
-618.346	-69.176	-0.089	-0.034
-617.332	-43.891	-0.193	-0.098
-616.317	-17.565	-0.150	-0.095
-615.303	53.419	0.059	-0.057
-614.288	148.626	0.068	-0.093
-613.273	116.750	-0.119	0.146
-612.259	-21.880	-0.036	-0.022
-611.244	-166.009	-0.252	-0.011
-610.230	-93.023	-0.194	-0.054
-609.215	-63.926	0.266	0.109
-608.201	460.300	0.204	-0.456
-607.186	-23.981	-0.089	-0.054
-606.171	525.776	-0.102	0.240
-605.157	-11.995	0.220	0.145
-604.142	-107.882	-0.294	-0.064
-603.128	5.825	-0.369	0.274
-602.113	-119.757	0.041	0.007
-601.098	373.030	-0.115	-0.235
-600.084	399.916	0.119	-0.251
-599.069	-86.263	0.288	0.089
-598.055	745.387	-0.215	0.581
-597.040	19.908	0.067	-0.054
-596.025	-39.657	-0.217	-0.114
-595.011	207.665	0.191	0.299
-593.996	-21.810	0.035	-0.022
-592.982	82.953	-0.143	-0.156
-591.967	297.606	-0.145	-0.268
-590.952	502.900	-0.122	-0.283
-589.938	-112.062	0.245	-0.050
-588.923	-67.245	-0.426	0.168
-587.909	-82.250	-0.278	0.091
-586.894	59.699	0.126	-0.125
-585.879	265.597	0.119	0.209
-584.865	30.061	-0.058	-0.049
-583.850	119.480	0.062	-0.077
-582.836	-178.808	0.245	-0.006
-581.821	29.295	-0.154	0.131
-580.806	-139.969	-0.176	-0.019
-579.792	-122.019	-0.089	0.015
-578.777	-156.596	0.111	-0.007
-577.763	60.198	0.194	-0.193
-576.748	80.175	-0.121	-0.130
-575.733	435.762	0.158	-0.345
-574.719	-92.649	-0.159	0.045
-573.704	-195.639	-0.138	-0.001
-572.690	88.782	-0.288	-0.321
-571.675	-103.709	0.122	0.029
-570.661	-107.687	0.454	-0.099
-569.646	-92.220	-0.490	0.139
-568.631	457.017	0.060	-0.133
-567.617	-200.000	0.029	0.265
-566.602	91.802	0.204	-0.230
-565.588	399.811	-0.176	-0.369
-564.573	59.087	-0.142	0.140
-563.558	157.873	0.036	0.051
-562.544	-18.895	0.167	-0.104
-561.529	244.837	-0.186	0.314
-560.515	395.522	-0.120	-0.252
-559.500	-200.000	0.032	-0.214
-558.485	-72.423	0.247	0.092
-557.471	99.459	0.103	0.120
-556.456	-200.000	-0.036	-0.161
-555.442	-62.123	-0.168	-0.070
-554.427	-200.000	0.003	-0.138
-553.412	84.547	0.183	0.200
-552.398	529.494	0.061	-0.144
-551.383	111.511	-0.192	0.232
-550.369	-141.485	0.418	0.042
-549.354	222.908	0.106	-0.171
-548.339	-200.000	-0.038	-0.250
-547.325	-63.950	0.226	0.093
-546.310	-200.000	-0.055	0.336
-545.296	16.344	0.152	-0.120
-544.281	157.322	-0.052	-0.073
-543.266	-77.098	0.185	0.064
-542.252	-200.000	0.091	0.514
-541.237	83.148	0.132	-0.144
-540.223	-100.130	-0.351	0.087
-539.208	-95.161	0.316	0.085
-538.193	98.668	0.061	0.071
-537.179	-99.734	-0.206	-0.052
-536.164	-82.010	-0.236	-0.077
-535.150	800.000	0.050	-0.158
-534.135	593.151	0.074	-0.184
-533.121	21.676	0.257	-0.209
-532.106	800.000	-0.042	-0.150
-531.091	-31.375	-0.151	0.085
-530.077	154.271	-0.049	0.067
-529.062	36.520	0.101	0.089
-528.048	387.081	-0.092	-0.191
-527.033	104.003	0.214	0.252
-526.018	-200.000	0.020	0.129
-525.004	118.766	0.090	-0.111
-523.989	39.425	-0.285	0.256
-522.975	27.367	0.110	0.092
-521.960	-10.490	0.046	0.030
-520.945	145.363	-0.136	0.182
-519.931	800.000	0.093	-0.388
-518.916	297.623	0.135	-0.248
-517.902	-12.607	0.065	0.043
-516.887	-52.423	-0.245	-0.114
-515.872	387.707	0.102	-0.210
-514.858	-200.000	0.004	0.101
-513.843	-4.867	0.457	0.315
-512.829	55.253	-0.174	-0.168
-511.814	537.548	-0.142	0.337
-510.799	-123.671	-0.241	0.038
-509.785	-149.988	-0.443	-0.035
-508.770	55.271	0.350	0.338
-507.756	34.809	0.310	-0.271
-506.741	98.105	-0.219	0.252
-505.726	-200.000	0.002	-0.049
-504.712	169.458	0.222	0.317
-503.697	21.164	-0.117	-0.095
-502.683	-8.430	0.079	-0.053
-501.668	-114.813	-0.343	0.065
-500.653	206.007	-0.130	-0.203
-499.639	-26.464	-0.121	-0.071
-498.624	-106.397	0.273	0.061
-497.610	275.438	-0.061	-0.107
-496.595	-72.469	-0.241	0.089
-495.581	-200.000	-0.009	0.145
-494.566	-84.191	-0.238	-0.075
-493.551	800.000	-0.036	-0.104
-492.537	800.000	-0.099	0.281
-491.522	-158.097	0.092	0.005
-490.508	343.531	-0.145	-0.284
-489.493	500.886	0.066	0.153
-488.478	-200.000	-0.040	0.255
-487.464	-200.000	-0.055	0.362
-486.449	-82.616	-0.194	0.063
-485.435	-125.333	-0.149	0.023
-484.420	577.512	-0.127	0.310
-483.405	-83.764	0.014	0.005
-482.391	800.000	-0.036	-0.124
-481.376	-129.992	-0.356	0.049
-480.362	-93.344	0.277	0.077
-479.347	143.523	-0.250	0.333
-478.332	800.000	0.010	-0.034
-477.318	800.000	-0.027	-0.083
-476.303	-200.000	0.006	-0.230
-475.289	-200.000	-0.005	-0.127
-474.274	226.908	0.136	-0.221
-473.259	-200.000	0.020	-0.224
-472.245	-49.352	-0.208	0.099
-471.230	-13.205	-0.111	-0.072
-470.216	-28.307	-0.247	-0.142
-469.201	-2.035	-0.123	0.086
-468.186	-51.068	-0.302	-0.142
-467.172	-3.046	-0.286	-0.199
-466.157	755.164	0.114	-0.307
-465.143	-200.000	-0.018	-0.116
-464.128	-87.611	-0.073	-0.022
-463.113	-48.649	0.157	-0.076
-462.099	800.000	0.032	-0.128
-461.084	-81.518	0.198	0.065
-460.070	54.663	0.206	-0.198
-459.055	800.000	0.035	-0.136
-458.040	-200.000	-0.009	0.100
-457.026	-14.087	0.165	0.106
-456.011	-84.099	-0.160	0.051
-454.997	800.000	0.150	-0.441
-453.982	176.364	0.079	0.115
-452.968	-200.000	-0.023	-0.208
-451.953	122.671	-0.043	0.054
-450.938	375.050	-0.192	0.391
-449.924	-81.155	0.284	-0.094
-448.909	-36.076	0.215	-0.116
-447.895	-152.770	0.173	-0.012
-446.880	238.866	-0.141	-0.233
-445.865	-49.268	-0.157	-0.075
-444.851	-28.119	-0.120	-0.069
-443.836	-200.000	-0.017	-0.147
-442.822	5.006	-0.141	-0.104
-441.807	-43.234	0.072	0.037
-440.792	-144.985	-0.332	-0.030
-439.778	-72.040	-0.302	0.112
-438.763	-19.415	-0.170	-0.105
-437.749	-53.335	0.058	0.026
-436.734	85.896	0.149	0.163
-435.719	-131.231	-0.280	-0.037
-434.705	-138.253	0.371	-0.041
-433.690	134.368	-0.085	0.110
-432.676	231.124	0.061	0.100
-431.661	290.619	-0.104	0.189
-430.646	-5.971	-0.067	-0.046
-429.632	-98.684	0.298	0.076
-428.617	-159.877	0.172	0.009
-427.603	-156.932	0.255	-0.016
-426.588	-84.550	0.363	0.114
-425.573	-115.587	-0.328	-0.061
-424.559	475.823	0.032	-0.072
-423.544	-46.905	0.204	0.099
-422.530	29.833	-0.084	0.071
-421.515	800.000	0.080	0.270
-420.500	772.327	0.076	0.206
-419.486	1.762	0.096	-0.069
-418.471	-110.492	-0.216	0.045
-417.457	800.000	-0.041	-0.140
-416.442	800.000	0.115	0.320
-415.428	498.102	0.097	0.222
-414.413	-32.814	-0.159	0.088
-413.398	348.240	-0.107	-0.211
-412.384	42.844	-0.139	-0.126
-411.369	97.499	0.166	0.190
-410.355	-45.060	0.070	-0.035
-409.340	81.339	0.090	0.097
-408.325	-197.781	0.280	0.002
-407.311	800.000	0.049	-0.157
-406.296	-86.479	-0.354	-0.108
-405.282	-9.736	0.313	0.207
-404.267	-69.046	-0.168	-0.065
-403.252	-19.051	0.209	0.129
-402.238	251.532	0.209	0.354
-401.223	-200.000	0.034	0.225
-400.209	-32.625	-0.154	0.086
-399.194	38.588	0.301	0.267
-398.179	-138.574	-0.390	-0.043
-397.165	175.559	0.073	0.106
-396.150	-49.815	-0.140	0.066
-395.136	-114.564	0.248	-0.047
-394.121	-54.506	0.198	-0.089
-393.106	-200.000	0.004	0.122
-392.092	-200.000	-0.019	0.248
-391.077	-43.453	0.020	0.010
-390.063	-73.732	-0.225	-0.081
-389.048	120.893	-0.213	0.264
-388.033	234.554	0.203	-0.333
-387.019	-116.074	-0.179	-0.033
-386.004	75.927	-0.121	0.127
-384.990	-107.922	0.227	0.049
-383.975	-16.135	-0.338	-0.214
-382.960	268.902	0.019	-0.032
-381.946	130.762	0.199	0.254
-380.931	-86.397	-0.278	0.085
-379.917	-200.000	0.003	0.097
-378.902	-117.813	-0.346	-0.062
-377.888	800.000	0.055	-0.222
-376.873	134.409	0.274	0.354
-375.858	74.633	-0.108	0.113
-374.844	254.783	-0.022	-0.037
-373.829	110.596	0.130	-0.155
-372.815	199.810	-0.078	0.119
-371.800	255.520	-0.095	0.161
-370.785	257.620	-0.039	-0.067
-369.771	434.009	0.067	-0.144
-368.756	800.000	-0.049	0.164
-367.742	-85.579	0.114	-0.035
-366.727	40.603	-0.252	-0.226
-365.712	-150.404	-0.143	-0.011
-364.698	40.781	-0.084	-0.076
-363.683	56.214	0.108	0.105
-362.669	138.981	0.030	-0.039
-361.654	37.251	0.059	-0.052
-360.639	-64.715	-0.115	-0.046
-359.625	800.000	-0.033	0.117
-358.610	251.709	-0.101	0.171
-357.596	98.548	-0.311	-0.356
-356.581	177.491	0.259	0.376
-355.566	239.005	0.103	0.171
-354.552	-107.660	-0.102	0.022
-353.537	-110.043	0.063	-0.013
-352.523	401.548	-0.090	0.187
-351.508	120.941	0.120	0.148
-350.493	266.982	-0.171	0.297
-349.479	308.659	-0.044	0.082
-348.464	-200.000	0.029	-0.228
-347.450	-125.603	-0.276	0.042
-346.435	800.000	0.045	-0.162
-345.420	-109.069	0.245	0.052
-344.406	-109.976	0.183	0.038
-343.391	164.103	0.021	-0.030
-342.377	172.228	-0.168	0.240
-341.362	403.009	-0.075	0.156
-340.348	460.287	-0.137	0.304
-339.333	-154.140	0.253	-0.017
-338.318	800.000	0.025	0.083
-337.304	233.724	0.097	-0.159
-336.289	800.000	0.061	-0.200
-335.275	-83.838	-0.186	0.059
-334.260	-136.104	-0.285	-0.033
-333.245	-40.436	0.351	0.181
-332.231	-200.000	0.007	-0.066
-331.216	-107.367	-0.088	-0.019
-330.202	-86.880	-0.140	0.043
-329.187	-32.140	-0.113	-0.062
-328.172	14.918	-0.277	0.215
-327.158	-124.226	0.265	-0.041
-326.143	-123.166	-0.255	-0.041
-325.129	-135.105	-0.357	-0.043
-324.114	-99.696	-0.148	-0.037
-323.099	-6.597	0.260	0.176
-322.085	-82.465	0.142	-0.046
-321.070	-94.957	-0.162	0.043
-320.056	-79.839	0.344	0.115
-319.041	-2.318	-0.229	-0.160
-318.026	49.639	0.036	-0.034
-317.012	35.792	-0.059	0.051
-315.997	294.564	0.156	0.284
-314.983	-200.000	-0.028	0.246
-313.968	-70.202	-0.267	-0.101
-312.953	-200.000	0.007	-0.152
-311.939	-113.238	-0.085	-0.017
-310.924	177.029	0.199	0.288
-309.910	52.881	-0.163	0.155
-308.895	68.507	0.496	0.504
-307.880	-200.000	-0.059	0.271
-306.866	-117.646	-0.025	-0.004
-305.851	-10.021	0.060	0.040
-304.837	136.758	0.018	-0.023
-303.822	-168.152	0.165	-0.006
-302.807	3.388	0.178	0.128
-301.793	-99.336	-0.146	-0.037
-300.778	104.232	0.104	-0.122
-299.764	195.232	0.161	0.243
-298.749	-98.702	-0.172	-0.043
-297.735	454.508	-0.235	-0.516
-296.720	-200.000	-0.020	0.158
-295.705	133.634	-0.017	-0.021
-294.691	-12.633	0.124	-0.080
-293.676	-144.477	-0.310	-0.028
-292.662	-200.000	0.007	-0.120
-291.647	800.000	0.050	0.144
-290.632	-97.538	0.422	0.109
-289.618	204.409	-0.104	0.160
-288.603	-60.963	0.320	-0.134
-287.589	-78.281	0.207	-0.070
-286.574	416.684	-0.167	0.353
-285.559	-99.727	0.394	0.098
-284.545	328.902	-0.112	0.214
-283.530	98.336	0.199	0.227
-282.516	800.000	0.077	-0.244
-281.501	404.794	-0.040	0.083
-280.486	-65.596	0.157	-0.062
-279.472	-145.272	0.159	0.014
-278.457	-82.143	-0.149	0.048
-277.443	-113.380	0.091	-0.018
-276.428	-111.296	-0.376	-0.076
-275.413	-3.964	-0.193	0.133
-274.399	-54.587	0.209	0.094
-273.384	-192.751	0.184	0.002
-272.370	-200.000	-0.013	-0.059
-271.355	-200.000	0.068	-0.336
-270.340	190.299	0.215	-0.319
-269.326	-12.012	-0.229	-0.149
-268.311	110.071	0.185	-0.220
-267.297	32.710	0.239	-0.205
-266.282	46.786	0.104	0.096
-265.267	800.000	0.083	0.235
-264.253	23.166	0.327	-0.266
-263.238	-42.578	0.230	0.116
-262.224	-200.000	-0.002	-0.272
-261.209	578.734	-0.142	-0.344
-260.195	-72.918	0.285	-0.104
-259.180	130.567	-0.003	0.004
-258.165	-200.000	0.000	-0.085
-257.151	-200.000	0.012	0.251
-256.136	-200.000	-0.165	0.001
-255.122	51.264	-0.089	0.084
-254.107	20.607	-0.224	-0.180
-253.092	233.087	-0.117	-0.191
-252.078	-96.575	0.268	0.070
-251.063	-200.000	0.104	-0.520
-250.049	800.000	0.117	0.324
-249.034	-98.029	0.267	-0.068
-248.019	-200.000	-0.007	0.260
-247.005	-87.967	-0.390	0.116
-245.990	42.866	-0.161	-0.145
-244.976	684.202	0.102	-0.264
-243.961	-53.106	-0.168	-0.076
-242.946	-62.312	-0.284	0.117
-241.932	-200.000	-0.266	0.001
-240.917	-86.559	-0.071	-0.022
-239.903	-56.692	0.358	-0.157
-238.888	-37.437	0.308	-0.162
-237.873	321.631	0.047	0.089
-236.859	800.000	-0.100	-0.370
-235.844	-63.126	-0.161	0.066
-234.830	12.480	-0.233	-0.178
-233.815	-39.930	0.013	-0.007
-232.800	6.381	0.226	-0.166
-231.786	753.436	-0.092	0.246
-230.771	253.017	-0.096	-0.161
-229.757	-179.953	-0.166	-0.004
-228.742	598.248	0.056	0.138
-227.727	-200.000	-0.010	-0.149
-226.713	-76.935	0.277	-0.096
-225.698	30.947	0.240	0.203
-224.684	800.000	-0.024	-0.087
-223.669	-200.000	0.009	0.375
-222.655	-196.008	-0.229	-0.002
-221.640	68.593	0.304	-0.309
-220.625	-165.338	-0.069	0.003
-219.611	-167.304	-0.345	-0.014
-218.596	-200.000	-0.054	-0.489
-217.582	134.415	0.157	0.201
-216.567	800.000	-0.034	-0.103
-215.552	-200.000	0.080	-0.389
-214.538	113.580	-0.211	-0.254
-213.523	800.000	-0.034	0.099
-212.509	-108.775	0.202	-0.043
-211.494	-200.000	0.031	-0.294
-210.479	800.000	0.074	0.213
-209.465	-181.823	-0.034	0.001
-208.450	172.118	-0.167	0.238
-207.436	-141.125	0.342	0.035
-206.421	-4.317	0.219	0.149
-205.406	-86.476	0.127	-0.038
-204.392	152.709	0.156	-0.210
-203.377	73.545	0.104	-0.107
-202.363	800.000	0.118	-0.370
-201.348	-182.922	0.181	-0.003
-200.333	45.075	-0.134	0.122
-199.319	-5.921	0.165	-0.112
-198.304	-113.806	0.204	-0.039
-197.290	-176.760	0.033	-0.001
-196.275	128.441	-0.114	-0.143
-195.260	800.000	0.081	-0.227
-194.246	-17.972	0.217	-0.134
-193.231	447.219	0.079	-0.171
-192.217	-200.000	-0.018	-0.183
-191.202	-200.000	0.000	0.084
-190.187	-80.113	-0.107	-0.035
-189.173	-4.208	-0.196	0.134
-188.158	-200.000	0.029	0.347
-187.144	480.694	0.041	0.091
-186.129	8.066	0.237	0.175
-185.114	-61.429	-0.116	0.048
-184.100	217.396	0.194	-0.305
-183.085	800.000	-0.058	-0.210
-182.071	-45.521	0.314	-0.153
-181.056	-200.000	-0.012	0.136
-180.042	800.000	0.020	-0.058
-179.027	9.121	0.048	-0.036
-178.012	800.000	-0.052	0.212
-176.998	800.000	-0.022	0.061
-175.983	-200.000	0.029	-0.263
-174.969	180.114	0.055	-0.079
-173.954	226.828	0.138	-0.221
-172.939	-55.053	0.257	0.114
-171.925	-200.000	-0.017	-0.108
-170.910	-89.391	-0.147	-0.043
-169.896	-20.660	-0.251	0.152
-168.881	104.902	-0.241	0.281
-167.866	800.000	0.069	0.189
-166.852	-190.450	0.203	-0.002
-165.837	158.109	0.142	0.195
-164.823	-18.201	-0.223	0.138
-163.808	-196.328	-0.247	0.002
-162.793	84.743	-0.012	0.013
-161.779	9.897	-0.242	0.182
-160.764	83.931	-0.148	0.159
-159.750	-200.000	0.008	-0.220
-158.735	-13.655	-0.083	0.053
-157.720	-94.147	0.283	-0.076
-156.706	-127.623	-0.214	-0.031
-155.691	-200.000	-0.011	0.316
-154.677	621.169	-0.138	-0.343
-153.662	792.242	-0.138	0.373
-152.647	-200.000	-0.020	0.189
-151.633	-92.484	-0.131	0.036
-150.618	-17.892	0.203	0.125
-149.604	-71.977	0.054	-0.020
-148.589	-152.281	-0.147	-0.010
-147.574	-59.058	-0.225	-0.096
-146.560	-4.779	-0.073	-0.050
-145.545	111.523	0.066	0.079
-144.531	-52.453	-0.192	0.088
-143.516	-41.984	0.362	0.183
-142.502	-45.971	0.033	-0.016
-141.487	800.000	-0.127	0.415
-140.472	348.603	0.107	-0.208
-139.458	-137.460	-0.323	0.036
-138.443	-20.686	0.077	0.046
-137.429	800.000	-0.109	0.355
-136.414	-2.079	-0.181	0.125
-135.399	-87.025	0.150	0.045
-134.385	-119.060	-0.239	-0.041
-133.370	71.433	0.379	0.387
-132.356	96.089	-0.225	-0.253
-131.341	-141.884	0.112	0.011
-130.326	10.280	0.167	0.125
-129.312	315.266	-0.138	-0.257
-128.297	-89.027	-0.167	-0.049
-127.283	67.889	-0.079	0.079
-126.268	-6.465	0.178	0.120
-125.253	59.752	-0.235	0.229
-124.239	-200.000	0.040	0.173
-123.224	534.570	0.106	0.247
-122.210	-118.974	0.346	-0.060
-121.195	37.704	0.218	0.191
