DTS Sentinel unit serial number:	SN413079Multiplexer serial number:	ORYXHardware model number:	OX4-SRSoftware version number:	ORYX F/W v4.00 Oryx Data Collector v3.7.2.0data status	okinstallation	princeton_trtdifferential loss correction	single-endedforward channel	channel 3reverse channel	N/Adate	2019/09/10time	19:10:11forward acquisition time	60.00reverse acquisition time	0.00gamma	496.2192k internal	0.2315k external	0.2315temperature offset calibration	0.9913default loss term (dB/km)	0.3790temperature slope calibration	1.0000multiplexer offset coefficient	1.0000multiplexer slope coefficient	1.0000fibre end	0.00T internal ref (°C)	34.16T ext. ref 1 (°C)	-0.43T ext. ref 2 (°C)	26.53length (m)	temperature (°C)	Stokes	anti-Stokes-747.200	232.851	0.022	0.036
-746.185	-46.740	-0.082	-0.041
-745.171	-29.274	0.210	0.122
-744.156	800.000	0.172	0.647
-743.142	180.954	-0.117	0.175
-742.127	64.842	-0.225	0.230
-741.112	-9.174	-0.162	0.110
-740.098	800.000	0.091	0.255
-739.083	800.000	-0.033	-0.093
-738.069	-136.146	0.162	-0.019
-737.054	76.597	-0.165	-0.177
-736.039	-91.069	-0.180	-0.052
-735.025	-97.687	0.211	-0.055
-734.010	123.395	0.056	0.072
-732.996	-200.000	-0.073	-0.338
-731.981	86.328	-0.153	0.170
-730.966	800.000	0.034	0.141
-729.952	800.000	0.065	-0.212
-728.937	652.708	-0.094	-0.245
-727.923	-200.000	0.029	-0.273
-726.908	-200.000	0.003	-0.112
-725.894	-60.907	-0.225	-0.096
-724.879	-200.000	-0.000	-0.096
-723.864	-51.804	-0.343	-0.162
-722.850	-200.000	-0.003	0.165
-721.835	-200.000	0.002	-0.098
-720.821	-93.755	-0.132	-0.037
-719.806	-154.694	-0.363	-0.024
-718.791	-44.871	-0.087	0.044
-717.777	-106.688	-0.202	0.045
-716.762	61.671	0.210	-0.212
-715.748	-200.000	0.020	-0.265
-714.733	58.388	-0.137	-0.136
-713.718	-200.000	-0.009	0.043
-712.704	68.673	-0.113	-0.117
-711.689	386.477	0.119	0.248
-710.675	800.000	0.004	0.014
-709.660	-200.000	-0.317	0.001
-708.645	-61.862	-0.170	-0.072
-707.631	800.000	0.237	0.686
-706.616	-116.027	-0.299	0.056
-705.602	800.000	-0.094	-0.307
-704.587	9.623	-0.232	-0.178
-703.572	-200.000	0.023	-0.490
-702.558	49.228	0.186	-0.176
-701.543	-44.395	-0.156	-0.079
-700.529	164.851	-0.038	0.054
-699.514	-138.205	-0.128	-0.014
-698.499	-85.973	-0.220	0.069
-697.485	800.000	-0.021	0.085
-696.470	228.613	0.061	0.101
-695.456	-200.000	0.013	-0.380
-694.441	132.277	-0.179	0.234
-693.426	234.885	-0.150	-0.251
-692.412	556.120	0.178	-0.434
-691.397	-127.577	-0.124	0.018
-690.383	800.000	0.077	-0.331
-689.368	1.282	-0.070	-0.051
-688.354	28.753	-0.141	0.121
-687.339	800.000	0.050	-0.197
-686.324	-93.798	-0.253	0.070
-685.310	-117.928	-0.209	-0.038
-684.295	-200.000	-0.005	0.104
-683.281	-3.422	0.233	-0.164
-682.266	800.000	0.117	-0.405
-681.251	-17.369	-0.252	-0.160
-680.237	-7.717	-0.129	-0.088
-679.222	-140.701	-0.368	-0.038
-678.208	-169.991	-0.127	0.005
-677.193	110.041	-0.163	-0.198
-676.178	-34.899	0.342	-0.189
-675.164	800.000	0.097	-0.293
-674.149	1.804	-0.077	0.056
-673.135	-200.000	-0.020	0.118
-672.120	789.283	-0.084	0.234
-671.105	-81.567	-0.098	0.033
-670.091	-200.000	0.020	0.151
-669.076	369.016	-0.176	0.359
-668.062	-61.775	-0.248	0.105
-667.047	-200.000	-0.017	0.191
-666.032	-138.141	0.298	0.033
-665.018	415.040	0.111	-0.239
-664.003	562.802	0.194	-0.473
-662.989	-45.107	-0.376	-0.189
-661.974	-5.142	-0.059	0.041
-660.959	279.528	-0.135	0.244
-659.945	46.695	-0.152	-0.143
-658.930	-108.180	-0.115	-0.025
-657.916	-40.879	-0.225	-0.118
-656.901	175.031	0.235	-0.344
-655.886	-78.769	-0.161	-0.055
-654.872	-168.289	-0.192	-0.007
-653.857	114.295	-0.172	-0.211
-652.843	-107.484	0.152	0.034
-651.828	676.782	0.043	-0.114
-650.814	-16.836	0.171	-0.109
-649.799	217.363	-0.047	-0.076
-648.784	180.511	0.207	-0.307
-647.770	800.000	0.038	-0.131
-646.755	-86.364	0.131	-0.041
-645.741	-133.294	0.183	-0.023
-644.726	-96.152	0.188	0.051
-643.711	-92.751	-0.241	0.068
-642.697	-92.204	-0.210	-0.060
-641.682	-8.946	-0.311	0.210
-640.668	-110.629	0.316	0.066
-639.653	-91.077	0.177	0.051
-638.638	-200.000	0.007	0.166
-637.624	73.516	0.018	0.019
-636.609	800.000	-0.050	-0.209
-635.595	-18.256	-0.321	-0.203
-634.580	-112.793	-0.226	-0.045
-633.565	-143.218	-0.407	0.039
-632.551	362.930	-0.051	-0.104
-631.536	-116.854	0.148	0.027
-630.522	1.391	-0.093	0.068
-629.507	-43.589	-0.044	-0.022
-628.492	800.000	0.109	-0.416
-627.478	142.474	-0.151	-0.203
-626.463	-200.000	-0.001	0.163
-625.449	0.520	-0.200	0.144
-624.434	-200.000	0.048	-0.218
-623.419	-38.423	0.282	-0.150
-622.405	29.044	0.265	0.227
-621.390	-200.000	-0.003	0.114
-620.376	140.861	-0.235	0.313
-619.361	35.410	0.121	0.107
-618.346	-200.000	0.005	-0.110
-617.332	800.000	0.015	-0.067
-616.317	-102.474	-0.097	0.024
-615.303	-31.807	-0.212	-0.120
-614.288	-138.540	-0.085	0.009
-613.273	-109.904	0.221	-0.047
-612.259	-43.842	0.202	-0.102
-611.244	-114.858	0.153	-0.029
-610.230	-85.680	-0.188	0.059
-609.215	36.928	0.056	0.050
-608.201	-43.560	-0.240	0.122
-607.186	-200.000	0.051	-0.265
-606.171	-200.000	0.021	0.128
-605.157	194.682	0.052	-0.079
-604.142	-23.226	-0.303	-0.184
-603.128	-200.000	0.028	0.289
-602.113	-133.296	0.429	0.055
-601.098	109.385	0.130	0.157
-600.084	-178.074	0.226	-0.005
-599.069	-7.315	-0.338	0.231
-598.055	-37.895	-0.197	-0.106
-597.040	8.084	-0.158	0.119
-596.025	92.901	0.201	0.228
-595.011	178.191	-0.157	-0.230
-593.996	800.000	-0.091	0.274
-592.982	94.150	-0.151	-0.172
-591.967	252.515	0.119	-0.204
-590.952	800.000	-0.061	-0.185
-589.938	197.606	-0.153	-0.235
-588.923	-69.864	0.555	0.213
-587.909	-104.766	-0.265	0.061
-586.894	404.321	-0.097	-0.207
-585.879	-200.000	-0.001	0.124
-584.865	214.590	0.157	0.251
-583.850	800.000	0.061	0.210
-582.836	108.952	0.119	-0.143
-581.821	800.000	0.116	-0.406
-580.806	82.632	0.129	-0.141
-579.792	-107.121	0.118	-0.026
-578.777	11.391	0.063	0.049
-577.763	-57.149	-0.145	-0.064
-576.748	-200.000	0.022	0.189
-575.733	98.137	-0.160	-0.185
-574.719	-142.875	0.516	0.050
-573.704	80.996	-0.241	-0.262
-572.690	210.569	-0.054	-0.085
-571.675	101.657	0.328	-0.385
-570.661	800.000	0.101	-0.282
-569.646	-117.655	-0.238	-0.043
-568.631	377.652	0.019	0.039
-567.617	102.788	0.067	0.079
-566.602	-200.000	-0.005	-0.083
-565.588	-70.630	0.031	-0.012
-564.573	-157.522	-0.211	0.013
-563.558	5.643	-0.246	-0.183
-562.544	-6.187	-0.323	0.222
-561.529	96.129	-0.109	0.126
-560.515	408.720	0.124	-0.265
-559.500	-21.754	-0.206	-0.126
-558.485	-200.000	-0.004	-0.437
-557.471	-88.030	0.097	0.029
-556.456	340.448	0.071	-0.140
-555.442	-130.093	0.332	-0.046
-554.427	300.120	-0.047	-0.088
-553.412	-127.864	-0.160	0.023
-552.398	-62.245	0.217	-0.091
-551.383	-33.742	0.130	0.072
-550.369	-80.151	-0.242	-0.081
-549.354	-124.086	0.167	-0.026
-548.339	351.992	-0.138	0.275
-547.325	-200.000	0.034	0.198
-546.310	227.169	-0.096	-0.157
-545.296	-87.155	0.288	0.088
-544.281	35.086	-0.085	-0.075
-543.266	-35.289	-0.193	0.105
-542.252	605.086	-0.117	-0.293
-541.237	301.606	-0.069	-0.128
-540.223	-67.504	-0.193	0.076
-539.208	370.969	0.046	0.094
-538.193	316.121	-0.057	-0.108
-537.179	61.764	0.102	-0.102
-536.164	-96.059	-0.042	0.011
-535.150	12.367	-0.093	-0.072
-534.135	-132.675	0.093	0.012
-533.121	-200.000	0.016	-0.202
-532.106	-98.223	0.113	0.029
-531.091	-200.000	-0.008	0.086
-530.077	800.000	-0.161	0.559
-529.062	265.528	0.075	-0.131
-528.048	800.000	0.051	0.146
-527.033	-197.021	0.238	-0.002
-526.018	-54.620	0.245	0.111
-525.004	173.376	-0.130	-0.188
-523.989	-200.000	-0.008	0.164
-522.975	-195.961	0.280	-0.002
-521.960	-200.000	0.009	0.127
-520.945	800.000	-0.107	0.305
-519.931	-167.848	0.090	0.004
-518.916	-62.705	0.315	0.131
-517.902	55.555	-0.263	-0.256
-516.887	117.072	0.092	-0.114
-515.872	-55.240	-0.060	0.027
-514.858	-129.545	0.371	0.052
-513.843	13.048	-0.277	-0.215
-512.829	68.764	0.162	-0.167
-511.814	-116.799	0.256	0.047
-510.799	-160.588	-0.117	-0.006
-509.785	-200.000	0.004	0.222
-508.770	-85.026	0.237	-0.075
-507.756	191.377	0.206	0.311
-506.741	-137.500	-0.351	0.040
-505.726	-76.047	0.502	0.178
-504.712	-200.000	-0.003	-0.052
-503.697	-51.599	0.209	-0.098
-502.683	800.000	0.105	-0.403
-501.668	342.059	0.115	0.226
-500.653	800.000	0.015	-0.062
-499.639	216.337	-0.071	0.114
-498.624	-21.337	-0.196	0.120
-497.610	-88.745	-0.074	0.022
-496.595	-200.000	0.031	-0.228
-495.581	454.606	-0.073	-0.162
-494.566	-46.597	-0.138	0.068
-493.551	17.137	-0.134	0.107
-492.537	-35.400	0.374	0.204
-491.522	-32.833	0.360	0.201
-490.508	650.506	0.072	-0.185
-489.493	18.156	0.068	-0.054
-488.478	-80.935	0.285	-0.095
-487.464	-78.084	-0.348	0.120
-486.449	-127.890	0.344	0.050
-485.435	-189.565	0.102	0.001
-484.420	-36.818	-0.458	0.247
-483.405	135.029	0.110	-0.143
-482.391	-200.000	0.002	0.414
-481.376	-200.000	-0.033	0.178
-480.362	-200.000	-0.020	-0.215
-479.347	212.398	0.074	0.117
-478.332	295.859	0.125	-0.229
-477.318	-143.594	0.274	-0.026
-476.303	115.780	0.209	0.257
-475.289	-119.730	0.197	0.034
-474.274	-129.839	0.247	-0.034
-473.259	-183.635	0.181	0.003
-472.245	93.465	-0.104	-0.118
-471.230	800.000	-0.082	0.316
-470.216	-200.000	0.024	-0.259
-469.201	-73.610	0.642	-0.235
-468.186	-13.620	-0.016	0.010
-467.172	-200.000	-0.036	0.278
-466.157	-200.000	-0.103	0.487
-465.143	-115.998	-0.244	-0.046
-464.128	103.476	0.113	-0.133
-463.113	139.791	-0.045	-0.059
-462.099	-200.000	-0.008	-0.066
-461.084	800.000	-0.032	0.118
-460.070	10.288	-0.209	-0.159
-459.055	-16.862	-0.139	-0.088
-458.040	91.516	0.152	0.171
-457.026	-200.000	-0.005	0.044
-456.011	-110.106	0.214	0.045
-454.997	800.000	-0.060	0.181
-453.982	30.458	-0.102	0.087
-452.968	58.620	0.148	0.146
-451.953	786.261	0.022	-0.060
-450.938	426.125	0.063	-0.136
-449.924	104.052	0.198	0.234
-448.909	-200.000	0.008	-0.198
-447.895	-37.193	-0.072	0.039
-446.880	135.528	-0.009	-0.012
-445.865	-51.896	-0.238	-0.111
-444.851	17.880	-0.107	0.086
-443.836	124.715	-0.039	0.050
-442.822	585.306	0.080	0.197
-441.807	77.195	0.112	-0.119
-440.792	-113.600	-0.134	0.026
-439.778	-23.177	-0.040	-0.024
-438.763	456.453	-0.048	-0.108
-437.749	800.000	0.081	0.308
-436.734	-200.000	-0.030	-0.268
-435.719	16.093	0.146	0.115
-434.705	16.356	0.294	-0.232
-433.690	-74.738	0.170	-0.061
-432.676	-73.941	-0.349	0.127
-431.661	-61.745	-0.131	-0.055
-430.646	-39.669	-0.192	-0.101
-429.632	-82.790	-0.327	-0.106
-428.617	-25.444	-0.071	-0.042
-427.603	-91.793	0.124	-0.035
-426.588	121.945	-0.110	0.138
-425.573	-159.438	-0.286	0.016
-424.559	204.867	0.120	0.186
-423.544	-200.000	-0.024	0.289
-422.530	-95.146	0.143	0.039
-421.515	45.560	0.225	0.208
-420.500	-200.000	0.002	0.034
-419.486	133.295	-0.079	0.102
-418.471	21.157	-0.210	-0.170
-417.457	168.927	-0.190	0.270
-416.442	149.313	-0.136	0.184
-415.428	-46.159	-0.299	-0.147
-414.413	448.883	-0.091	0.201
-413.398	131.829	-0.022	-0.028
-412.384	352.905	0.152	-0.303
-411.369	23.898	0.041	-0.034
-410.355	-150.464	0.220	0.017
-409.340	-200.000	-0.019	0.345
-408.325	-200.000	-0.067	-0.322
-407.311	680.271	-0.116	-0.301
-406.296	-67.057	-0.193	0.076
-405.282	-129.554	-0.340	-0.047
-404.267	-121.126	0.492	-0.082
-403.252	-0.908	0.472	0.334
-402.238	25.595	0.112	0.094
-401.223	-200.000	-0.027	0.177
-400.209	-63.247	0.329	-0.135
-399.194	-200.000	-0.032	-0.240
-398.179	-200.000	-0.011	0.483
-397.165	800.000	0.053	-0.163
-396.150	-6.472	-0.387	-0.264
-395.136	-159.853	-0.328	-0.018
-394.121	91.251	0.145	-0.163
-393.106	-87.478	0.096	0.029
-392.092	10.229	-0.069	-0.052
-391.077	-123.191	-0.552	-0.088
-390.063	22.125	0.064	-0.052
-389.048	-200.000	-0.018	-0.103
-388.033	109.386	-0.036	-0.044
-387.019	-198.817	0.230	0.001
-386.004	143.781	-0.050	0.067
-384.990	116.083	-0.107	0.131
-383.975	-10.670	0.050	-0.033
-382.960	36.370	0.064	-0.056
-381.946	115.185	0.262	-0.319
-380.931	267.207	-0.055	0.096
-379.917	263.652	0.178	0.310
-378.902	294.649	-0.060	0.109
-377.888	116.937	-0.086	0.105
-376.873	-200.000	0.004	0.053
-375.858	725.362	-0.111	-0.296
-374.844	269.425	0.053	-0.093
-373.829	30.545	0.066	0.057
-372.815	26.692	0.190	0.159
-371.800	-200.000	-0.030	0.174
-370.785	158.636	-0.130	-0.180
-369.771	74.798	-0.111	-0.117
-368.756	-107.299	0.209	0.046
-367.742	-200.000	-0.020	-0.225
-366.727	-200.000	-0.053	0.331
-365.712	64.530	-0.241	-0.243
-364.698	-130.962	0.452	-0.060
-363.683	-88.446	-0.333	-0.099
-362.669	-53.547	-0.055	0.025
-361.654	-145.707	-0.153	0.014
-360.639	292.720	-0.179	0.326
-359.625	-111.555	-0.251	-0.051
-358.610	39.642	-0.186	-0.167
-357.596	-70.537	0.327	-0.124
-356.581	-200.000	-0.011	-0.130
-355.566	-149.931	0.299	0.023
-354.552	-153.665	0.344	0.024
-353.537	-61.887	-0.683	-0.285
-352.523	-13.216	-0.402	-0.260
-351.508	377.165	0.248	-0.506
-350.493	237.459	0.114	0.188
-349.479	800.000	-0.048	0.151
-348.464	-151.903	-0.094	-0.007
-347.450	52.603	-0.109	0.104
-346.435	-174.270	-0.330	-0.010
-345.420	-64.633	-0.183	0.074
-344.406	-123.596	0.236	0.037
-343.391	-129.700	-0.061	0.008
-342.377	-99.456	-0.345	0.087
-341.362	-200.000	-0.032	0.187
-340.348	796.625	-0.057	0.155
-339.333	60.800	-0.090	-0.089
-338.318	-200.000	0.007	0.308
-337.304	-110.683	0.547	0.113
-336.289	-14.628	-0.126	0.081
-335.275	-43.003	-0.042	-0.021
-334.260	-13.709	-0.238	-0.154
-333.245	-37.850	-0.086	-0.046
-332.231	-200.000	0.066	-0.313
-331.216	-200.000	-0.012	0.373
-330.202	-200.000	0.037	0.321
-329.187	-200.000	0.043	-0.210
-328.172	53.771	0.064	-0.061
-327.158	33.361	-0.140	0.121
-326.143	-200.000	0.001	-0.173
-325.129	-125.892	-0.204	-0.031
-324.114	-78.960	0.058	0.020
-323.099	800.000	-0.056	0.218
-322.085	120.091	0.103	0.128
-321.070	-3.585	0.363	0.252
-320.056	-100.400	0.124	-0.031
-319.041	-200.000	-0.013	-0.186
-318.026	168.693	-0.163	-0.232
-317.012	-158.816	-0.203	0.012
-315.997	653.568	0.049	-0.125
-314.983	189.877	-0.135	-0.202
-313.968	800.000	-0.032	0.114
-312.953	-67.686	-0.339	0.132
-311.939	-200.000	0.010	0.399
-310.924	122.051	0.010	-0.012
-309.910	-14.909	0.216	0.138
-308.895	-84.878	-0.214	0.067
-307.880	-75.710	0.054	0.019
-306.866	-200.000	-0.048	-0.228
-305.851	390.051	-0.152	-0.315
-304.837	-123.881	-0.301	0.047
-303.822	90.867	0.314	0.351
-302.807	-131.362	0.250	0.033
-301.793	-107.192	-0.054	0.012
-300.778	-124.282	-0.080	0.012
-299.764	5.629	-0.026	-0.019
-298.749	44.419	-0.185	0.169
-297.735	-1.010	0.230	0.162
-296.720	160.854	0.014	-0.019
-295.705	137.229	-0.159	0.207
-294.691	-170.643	-0.297	-0.010
-293.676	266.102	0.036	0.062
-292.662	-166.692	-0.424	-0.017
-291.647	-50.729	-0.465	-0.218
-290.632	-200.000	-0.021	-0.213
-289.618	-85.542	0.245	0.076
-288.603	228.361	-0.157	0.254
-287.589	48.646	-0.221	-0.206
-286.574	-200.000	0.029	-0.125
-285.559	-200.000	0.011	-0.372
-284.545	-200.000	0.029	0.143
-283.530	800.000	-0.033	0.112
-282.516	83.433	0.059	-0.064
-281.501	164.183	0.124	0.173
-280.486	-200.000	-0.001	0.136
-279.472	46.737	0.077	-0.071
-278.457	-51.999	0.166	-0.077
-277.443	272.071	0.186	-0.327
-276.428	-122.962	0.372	0.060
-275.413	-159.718	-0.037	0.002
-274.399	42.901	0.077	0.070
-273.384	46.706	-0.079	-0.073
-272.370	35.656	-0.064	0.056
-271.355	-96.348	0.172	0.045
-270.340	-178.676	0.280	0.006
-269.326	-200.000	0.072	-0.328
-268.311	94.989	0.058	0.066
-267.297	173.818	0.124	-0.179
-266.282	518.136	0.053	0.123
-265.267	800.000	0.072	0.238
-264.253	-27.026	-0.143	0.083
-263.238	-59.413	0.146	0.062
-262.224	-200.000	0.008	-0.100
-261.209	-64.140	0.107	0.044
-260.195	-47.839	0.154	-0.074
-259.180	130.256	-0.166	-0.211
-258.165	-97.530	0.445	0.115
-257.151	105.682	-0.208	-0.245
-256.136	800.000	0.085	0.275
-255.122	256.165	-0.184	-0.314
-254.107	356.138	-0.090	0.178
-253.092	-94.696	0.210	0.057
-252.078	221.207	0.243	-0.388
-251.063	-93.910	-0.040	0.011
-250.049	274.274	-0.107	0.188
-249.034	54.459	-0.107	0.102
-248.019	-200.000	-0.014	-0.133
-247.005	-33.152	0.052	0.028
-245.990	-102.159	0.161	0.038
-244.976	-141.157	0.061	0.006
-243.961	-151.440	0.119	0.009
-242.946	298.405	-0.164	-0.299
-241.932	800.000	-0.060	-0.182
-240.917	-64.735	-0.115	-0.046
-239.903	-200.000	-0.139	-0.618
-238.888	412.045	-0.099	0.208
-237.873	228.980	0.074	0.120
-236.859	684.022	0.061	0.157
-235.844	-25.033	-0.147	-0.086
-234.830	130.416	-0.356	0.453
-233.815	-82.970	-0.154	-0.049
-232.800	7.862	0.044	-0.033
-231.786	800.000	0.024	0.097
-230.771	-106.210	-0.291	-0.065
-229.757	-51.052	0.027	0.012
-228.742	800.000	-0.173	0.476
-227.727	800.000	0.043	-0.138
-226.713	-118.193	-0.467	0.083
-225.698	71.670	-0.184	0.190
-224.684	-200.000	-0.011	0.105
-223.669	715.175	-0.029	-0.076
-222.655	-24.045	0.106	-0.063
-221.640	114.747	0.069	-0.083
-220.625	-117.615	0.154	-0.027
-219.611	800.000	0.066	0.284
-218.596	-71.267	-0.414	0.154
-217.582	93.133	0.131	-0.147
-216.567	0.254	-0.415	-0.294
-215.552	-70.172	0.204	0.077
-214.538	94.553	0.147	0.166
-213.523	800.000	-0.019	-0.065
-212.509	351.763	0.104	-0.205
-211.494	22.056	0.362	-0.293
-210.479	153.622	0.137	-0.186
-209.465	22.402	0.294	0.238
-208.450	-151.078	-0.331	0.025
-207.436	-47.750	0.107	-0.051
-206.421	-102.833	-0.148	0.035
-205.406	-200.000	-0.008	-0.056
-204.392	77.782	-0.131	0.138
-203.377	-84.568	-0.147	-0.046
-202.363	2.284	0.213	-0.153
-201.348	-50.844	-0.220	0.102
-200.333	-0.561	0.158	0.111
-199.319	87.586	0.359	0.394
-198.304	79.906	-0.242	-0.258
-197.290	-117.842	0.067	-0.012
-196.275	774.560	0.041	-0.111
-195.260	135.589	0.152	-0.196
-194.246	223.300	0.197	0.315
-193.231	247.003	0.233	0.391
-192.217	-200.000	0.055	0.388
-191.202	-75.568	-0.332	0.117
-190.187	-143.773	-0.268	-0.025
-189.173	66.974	-0.049	0.050
-188.158	-4.215	0.147	-0.101
-187.144	-200.000	-0.014	0.105
-186.129	415.568	0.127	-0.268
-185.114	143.005	-0.052	-0.068
-184.100	-95.842	0.063	0.017
-183.085	280.089	-0.066	-0.118
-182.071	-77.138	0.155	0.053
-181.056	-41.259	-0.109	-0.056
-180.042	115.471	0.179	0.217
-179.027	-200.000	0.009	-0.109
-178.012	42.418	-0.021	-0.019
-176.998	94.974	-0.068	0.076
-175.983	201.984	0.149	-0.228
-174.969	-127.750	-0.141	0.020
-173.954	800.000	-0.070	-0.280
-172.939	-116.144	0.245	0.045
-171.925	-200.000	-0.047	0.383
-170.910	-200.000	0.056	0.340
-169.896	342.489	-0.029	-0.056
-168.881	-200.000	0.009	-0.418
-167.866	-200.000	0.444	-0.001
-166.852	336.111	0.196	-0.377
-165.837	-85.053	-0.038	-0.012
-164.823	10.493	-0.151	-0.114
-163.808	-126.324	-0.136	-0.020
-162.793	150.790	-0.172	-0.232
-161.779	-160.390	-0.135	0.007
-160.764	21.291	-0.173	0.139
-159.750	-116.026	0.093	-0.017
-158.735	3.824	-0.142	0.103
-157.720	-178.047	0.300	0.007
-156.706	800.000	0.026	-0.075
-155.691	186.304	-0.074	-0.110
-154.677	90.600	-0.378	0.419
-153.662	569.808	0.055	0.132
-152.647	14.021	0.045	-0.035
-151.633	55.429	0.047	-0.045
-150.618	457.126	0.058	0.127
-149.604	-200.000	0.007	-0.034
-148.589	-188.105	0.128	-0.002
-147.574	-155.260	0.139	0.009
-146.560	66.961	0.173	-0.175
-145.545	-34.601	-0.085	-0.046
-144.531	-200.000	0.043	-0.333
-143.516	-200.000	0.002	-0.264
-142.502	-200.000	0.014	0.121
-141.487	519.693	0.083	0.193
-140.472	-114.025	0.142	0.027
-139.458	67.275	0.123	0.124
-138.443	66.120	0.093	0.093
-137.429	60.424	-0.049	-0.048
-136.414	-115.168	-0.226	0.042
-135.399	97.577	0.052	-0.059
-134.385	234.817	-0.125	-0.204
-133.370	-27.612	0.273	0.157
-132.356	-13.806	-0.236	-0.151
-131.341	-200.000	0.052	-0.231
-130.326	92.343	0.157	-0.175
-129.312	280.365	0.114	0.202
-128.297	64.411	-0.199	-0.199
-127.283	149.789	0.224	0.300
-126.268	-147.966	0.065	-0.005
-125.253	800.000	0.006	0.019
-124.239	-42.426	-0.207	0.105
-123.224	710.638	0.073	0.191
-122.210	-200.000	0.006	-0.070
