DTS Sentinel unit serial number:	SN413079Multiplexer serial number:	ORYXHardware model number:	OX4-SRSoftware version number:	ORYX F/W v4.00 Oryx Data Collector v3.7.2.0data status	okinstallation	princeton_trtdifferential loss correction	single-endedforward channel	channel 3reverse channel	N/Adate	2019/09/14time	01:28:35forward acquisition time	60.00reverse acquisition time	0.00gamma	496.2192k internal	0.2340k external	0.2340temperature offset calibration	1.0054default loss term (dB/km)	0.3790temperature slope calibration	1.0000multiplexer offset coefficient	1.0000multiplexer slope coefficient	1.0000fibre end	0.00T internal ref (°C)	26.42T ext. ref 1 (°C)	3.20T ext. ref 2 (°C)	21.46length (m)	temperature (°C)	Stokes	anti-Stokes-747.200	445.467	-0.055	-0.122
-746.185	800.000	-0.042	-0.181
-745.171	-59.746	-0.254	0.109
-744.156	627.472	0.086	-0.217
-743.142	156.468	-0.093	0.129
-742.127	-78.890	-0.250	-0.085
-741.112	24.173	-0.170	0.141
-740.098	-91.627	-0.283	0.081
-739.083	800.000	-0.117	0.410
-738.069	-200.000	0.071	0.435
-737.054	74.011	0.147	0.155
-736.039	-178.916	0.195	0.004
-735.025	195.253	-0.110	-0.167
-734.010	45.795	-0.385	-0.357
-732.996	179.755	-0.209	-0.307
-731.981	-31.330	-0.146	-0.082
-730.966	238.886	-0.167	0.279
-729.952	-92.733	0.234	-0.066
-728.937	800.000	0.069	0.197
-727.923	33.791	-0.225	0.196
-726.908	20.183	-0.245	-0.198
-725.894	-200.000	0.003	0.254
-724.879	-200.000	0.024	-0.148
-723.864	101.789	0.099	-0.116
-722.850	-128.598	0.175	-0.025
-721.835	-81.344	-0.179	0.059
-720.821	406.248	0.017	0.036
-719.806	-200.000	0.011	-0.346
-718.791	104.054	0.079	0.093
-717.777	-121.605	-0.580	0.096
-716.762	380.317	0.050	0.103
-715.748	800.000	0.061	0.178
-714.733	-143.592	-0.114	-0.011
-713.718	155.689	-0.068	-0.093
-712.704	-200.000	-0.027	-0.178
-711.689	-80.001	-0.192	0.065
-710.675	-14.054	-0.269	0.174
-709.660	632.020	-0.144	0.364
-708.645	-0.154	0.324	-0.231
-707.631	800.000	-0.025	0.097
-706.616	-144.697	0.296	0.027
-705.602	-200.000	-0.026	-0.207
-704.587	-177.708	0.143	-0.003
-703.572	-200.000	0.023	-0.114
-702.558	-200.000	0.044	0.216
-701.543	-91.701	-0.337	-0.096
-700.529	-108.146	-0.213	0.046
-699.514	199.577	0.239	-0.367
-698.499	345.285	0.175	-0.344
-697.485	-113.821	0.363	-0.071
-696.470	179.718	-0.249	0.364
-695.456	800.000	-0.024	-0.097
-694.441	97.278	-0.150	-0.173
-693.426	63.040	-0.061	-0.061
-692.412	-44.371	-0.103	0.052
-691.397	800.000	0.100	-0.339
-690.383	-70.786	-0.205	0.077
-689.368	-160.128	-0.310	0.017
-688.354	11.341	0.169	0.130
-687.339	-85.253	0.157	-0.049
-686.324	-200.000	0.002	0.080
-685.310	-200.000	-0.006	-0.065
-684.295	45.695	-0.134	0.124
-683.281	-94.120	-0.085	0.023
-682.266	-200.000	-0.087	-0.478
-681.251	296.271	-0.060	-0.110
-680.237	87.853	-0.186	0.206
-679.222	-36.102	-0.354	0.191
-678.208	-141.166	-0.040	-0.004
-677.193	29.521	-0.272	-0.231
-676.178	63.459	-0.130	0.131
-675.164	522.313	-0.072	0.170
-674.149	-32.825	-0.168	0.094
-673.135	-7.934	0.184	-0.124
-672.120	103.658	-0.076	-0.090
-671.105	800.000	-0.043	0.173
-670.091	38.038	-0.393	0.349
-669.076	119.655	-0.074	-0.092
-668.062	-200.000	-0.019	-0.377
-667.047	-200.000	-0.002	-0.015
-666.032	-200.000	-0.058	-0.360
-665.018	115.966	0.100	-0.122
-664.003	36.398	0.191	0.168
-662.989	88.523	-0.315	0.350
-661.974	37.241	0.227	0.201
-660.959	-200.000	0.009	0.095
-659.945	290.791	0.124	0.226
-658.930	420.811	0.192	-0.412
-657.916	58.631	0.253	-0.248
-656.901	-137.137	0.335	-0.038
-655.886	800.000	0.053	0.204
-654.872	-133.371	-0.041	0.005
-653.857	228.829	-0.141	-0.229
-652.843	730.150	-0.021	0.057
-651.828	-171.677	-0.080	0.003
-650.814	8.710	0.205	0.154
-649.799	800.000	0.056	0.213
-648.784	180.429	0.051	0.074
-647.770	328.723	-0.134	-0.258
-646.755	-72.720	0.270	-0.100
-645.741	-100.440	-0.500	-0.124
-644.726	58.783	0.099	-0.097
-643.711	521.824	0.100	0.235
-642.697	800.000	-0.077	-0.225
-641.682	-105.983	-0.341	0.077
-640.668	-165.947	0.211	0.009
-639.653	14.546	0.210	-0.164
-638.638	-113.211	0.095	0.019
-637.624	-59.105	0.109	0.047
-636.609	273.826	-0.133	0.235
-635.595	-118.694	0.317	-0.056
-634.580	-79.663	0.025	0.008
-633.565	-163.098	0.205	0.010
-632.551	-200.000	-0.052	-0.296
-631.536	-200.000	0.015	0.177
-630.522	-159.509	0.073	-0.004
-629.507	-98.755	0.199	0.051
-628.492	65.386	-0.058	-0.059
-627.478	374.357	-0.077	-0.156
-626.463	-63.643	0.316	0.129
-625.449	456.299	-0.098	-0.217
-624.434	-38.978	-0.120	-0.063
-623.419	144.258	0.203	-0.271
-622.405	800.000	-0.040	0.135
-621.390	-200.000	-0.067	-0.443
-620.376	-200.000	0.008	0.105
-619.361	-115.582	-0.105	-0.020
-618.346	-167.912	0.217	-0.008
-617.332	112.661	-0.170	-0.205
-616.317	217.211	-0.058	0.092
-615.303	115.025	0.116	0.141
-614.288	4.886	-0.093	0.068
-613.273	106.555	0.179	0.212
-612.259	-200.000	0.017	0.334
-611.244	28.442	-0.077	-0.065
-610.230	-140.589	0.234	-0.024
-609.215	63.883	-0.170	0.170
-608.201	14.255	-0.217	-0.169
-607.186	800.000	0.103	-0.287
-606.171	70.327	0.083	0.086
-605.157	523.192	-0.137	-0.321
-604.142	16.664	-0.240	0.189
-603.128	418.188	-0.140	0.298
-602.113	99.284	0.139	0.160
-601.098	-123.633	-0.127	-0.020
-600.084	-134.225	0.457	-0.056
-599.069	430.758	-0.077	-0.167
-598.055	304.861	-0.134	0.247
-597.040	-20.445	-0.358	0.220
-596.025	800.000	0.095	0.307
-595.011	-45.865	-0.077	-0.038
-593.996	-140.042	0.275	0.029
-592.982	-200.000	-0.067	0.370
-591.967	244.271	-0.222	0.371
-590.952	252.681	0.209	0.356
-589.938	27.966	-0.225	-0.189
-588.923	-76.570	0.059	-0.021
-587.909	153.223	-0.167	0.228
-586.894	647.076	-0.089	-0.227
-585.879	372.820	-0.070	0.142
-584.865	103.068	0.145	-0.170
-583.850	-13.072	-0.064	0.042
-582.836	-200.000	-0.004	-0.207
-581.821	-65.569	0.086	0.034
-580.806	-43.021	-0.179	-0.091
-579.792	-90.556	-0.217	-0.062
-578.777	-92.172	-0.149	0.042
-577.763	60.335	0.123	0.122
-576.748	151.981	0.087	0.118
-575.733	180.599	-0.066	0.096
-574.719	87.182	0.498	-0.549
-573.704	477.366	-0.081	-0.182
-572.690	-200.000	-0.012	-0.070
-571.675	-200.000	0.001	-0.224
-570.661	16.060	0.032	-0.025
-569.646	-200.000	-0.033	-0.255
-568.631	-61.681	-0.071	0.029
-567.617	-29.668	0.214	-0.122
-566.602	-7.549	0.246	0.166
-565.588	-67.681	0.191	-0.074
-564.573	-51.609	-0.209	-0.097
-563.558	-200.000	-0.056	-0.321
-562.544	-61.919	0.225	-0.094
-561.529	188.560	0.092	-0.137
-560.515	-200.000	-0.049	0.271
-559.500	-46.455	0.047	0.023
-558.485	14.815	0.073	0.057
-557.471	-200.000	0.020	0.238
-556.456	27.570	-0.072	0.060
-555.442	44.939	-0.062	-0.057
-554.427	-84.993	-0.520	-0.162
-553.412	110.470	-0.097	0.116
-552.398	-83.581	-0.290	-0.092
-551.383	-46.754	-0.373	0.182
-550.369	-21.100	0.312	-0.190
-549.354	556.548	0.165	0.395
-548.339	-99.005	0.160	-0.040
-547.325	-121.437	0.138	0.023
-546.310	18.512	-0.113	0.090
-545.296	-200.000	-0.018	0.116
-544.281	-149.639	-0.123	-0.010
-543.266	-38.752	-0.114	-0.060
-542.252	142.559	0.024	0.032
-541.237	-63.105	0.239	-0.098
-540.223	-29.769	-0.206	0.117
-539.208	800.000	-0.054	0.197
-538.193	774.253	0.134	0.363
-537.179	-113.022	0.256	0.050
-536.164	-200.000	-0.054	-0.305
-535.150	-102.135	0.222	0.053
-534.135	162.836	0.226	-0.316
-533.121	-0.538	-0.056	-0.039
-532.106	-125.080	-0.086	0.013
-531.091	204.667	0.073	-0.112
-530.077	-191.647	-0.100	0.001
-529.062	-80.622	-0.456	-0.151
-528.048	800.000	-0.073	0.282
-527.033	800.000	0.029	0.100
-526.018	-62.762	-0.074	0.031
-525.004	224.181	-0.195	0.313
-523.989	-57.693	0.248	-0.108
-522.975	-32.161	-0.168	0.093
-521.960	-133.542	-0.218	-0.027
-520.945	-141.468	-0.158	-0.016
-519.931	-200.000	0.022	0.181
-518.916	-17.009	-0.383	-0.240
-517.902	245.184	0.274	0.458
-516.887	-62.217	-0.148	0.061
-515.872	800.000	-0.051	0.162
-514.858	19.790	-0.130	0.104
-513.843	29.256	-0.142	0.119
-512.829	746.831	0.102	-0.273
-511.814	31.200	0.313	-0.267
-510.799	-163.787	0.271	-0.013
-509.785	-131.839	-0.253	0.033
-508.770	-76.686	0.299	-0.104
-507.756	800.000	-0.043	-0.170
-506.741	-200.000	0.036	-0.263
-505.726	-200.000	-0.016	0.199
-504.712	-180.182	0.406	-0.008
-503.697	-77.774	-0.278	0.096
-502.683	-152.255	-0.172	-0.012
-501.668	162.304	-0.153	-0.213
-500.653	387.407	-0.028	0.057
-499.639	10.229	-0.257	0.194
-498.624	-95.446	0.061	0.016
-497.610	-200.000	-0.010	-0.303
-496.595	1.568	0.101	0.072
-495.581	67.086	-0.291	-0.294
-494.566	-200.000	0.057	-0.260
-493.551	-200.000	0.025	0.119
-492.537	54.518	-0.210	-0.201
-491.522	-72.371	-0.186	0.068
-490.508	-52.378	0.180	0.083
-489.493	-87.144	0.059	-0.018
-488.478	31.217	0.152	-0.129
-487.464	800.000	0.027	-0.115
-486.449	-200.000	0.015	0.183
-485.435	131.450	0.076	-0.097
-484.420	517.826	-0.069	0.161
-483.405	-198.806	0.279	-0.002
-482.391	495.012	-0.048	-0.108
-481.376	573.068	-0.096	0.232
-480.362	24.760	-0.093	-0.077
-479.347	800.000	-0.085	-0.265
-478.332	347.999	0.156	0.306
-477.318	186.047	-0.067	0.098
-476.303	-189.706	-0.114	0.001
-475.289	-102.013	0.125	-0.030
-474.274	-200.000	-0.052	-0.325
-473.259	-200.000	0.035	0.329
-472.245	231.103	-0.111	-0.181
-471.230	800.000	-0.067	-0.214
-470.216	-55.633	-0.376	0.167
-469.201	-200.000	-0.036	-0.183
-468.186	-200.000	-0.013	-0.084
-467.172	-12.237	0.220	-0.143
-466.157	-200.000	-0.005	-0.033
-465.143	123.676	-0.213	-0.265
-464.128	800.000	0.107	0.297
-463.113	146.087	0.067	0.089
-462.099	79.035	0.083	-0.088
-461.084	-32.409	0.341	-0.189
-460.070	56.812	0.032	-0.031
-459.055	800.000	0.060	0.224
-458.040	-75.413	-0.431	0.152
-457.026	28.440	-0.062	0.052
-456.011	-200.000	0.029	0.332
-454.997	-200.000	0.074	-0.436
-453.982	-200.000	0.043	-0.218
-452.968	-200.000	-0.005	0.032
-451.953	46.723	0.095	0.088
-450.938	800.000	0.141	0.458
-449.924	43.765	0.088	0.080
-448.909	-97.643	-0.111	0.029
-447.895	-37.683	-0.232	-0.122
-446.880	186.722	0.154	0.227
-445.865	800.000	-0.059	0.238
-444.851	-11.105	0.415	-0.271
-443.836	-13.988	-0.183	-0.117
-442.822	363.595	-0.094	-0.187
-441.807	-200.000	-0.007	-0.064
-440.792	769.078	0.018	0.049
-439.778	56.699	-0.249	0.240
-438.763	749.338	0.101	0.270
-437.749	170.552	-0.093	-0.132
-436.734	197.142	-0.164	0.248
-435.719	-121.390	-0.357	0.059
-434.705	231.839	0.226	-0.367
-433.690	-6.311	0.152	-0.103
-432.676	-200.000	0.007	-0.145
-431.661	-200.000	-0.017	0.149
-430.646	54.041	0.061	0.058
-429.632	-148.713	-0.118	-0.010
-428.617	441.789	-0.067	-0.145
-427.603	76.300	0.310	0.325
-426.588	133.715	0.099	0.127
-425.573	-150.310	0.096	-0.007
-424.559	-71.715	0.020	-0.007
-423.544	-90.330	0.449	0.129
-422.530	-200.000	-0.034	-0.172
-421.515	-200.000	0.005	0.157
-420.500	-181.040	0.227	-0.004
-419.486	-107.204	0.158	0.034
-418.471	434.448	-0.105	0.226
-417.457	-138.122	0.271	0.030
-416.442	112.877	-0.170	0.204
-415.428	-59.395	0.213	0.091
-414.413	-7.212	0.082	0.055
-413.398	-200.000	0.023	0.557
-412.384	-98.691	-0.663	0.167
-411.369	-32.210	-0.161	0.089
-410.355	-163.442	0.235	0.011
-409.340	800.000	-0.075	-0.260
-408.325	-67.939	0.239	0.092
-407.311	-189.228	-0.326	0.004
-406.296	-200.000	-0.037	0.234
-405.282	-7.937	0.170	0.114
-404.267	574.301	0.152	-0.367
-403.252	-47.598	-0.143	0.069
-402.238	569.772	-0.063	0.151
-401.223	216.097	0.022	-0.035
-400.209	213.533	-0.069	-0.108
-399.194	28.112	-0.207	0.173
-398.179	158.427	-0.097	-0.132
-397.165	376.645	-0.102	-0.206
-396.150	-8.571	0.200	-0.133
-395.136	-200.000	0.027	0.373
-394.121	520.557	-0.078	-0.182
-393.106	-200.000	0.049	0.309
-392.092	127.176	0.267	-0.336
-391.077	-1.577	-0.242	-0.169
-390.063	-200.000	0.012	0.093
-389.048	437.683	-0.182	-0.393
-388.033	-200.000	-0.021	-0.146
-387.019	378.159	-0.116	-0.235
-386.004	441.314	0.064	-0.139
-384.990	62.650	-0.097	0.096
-383.975	800.000	-0.064	0.177
-382.960	12.162	-0.231	0.175
-381.946	111.384	0.099	0.117
-380.931	282.246	0.129	0.228
-379.917	-130.160	0.145	0.020
-378.902	-52.945	-0.099	-0.045
-377.888	-161.177	0.284	0.015
-376.873	800.000	-0.070	-0.218
-375.858	160.575	0.093	-0.129
-374.844	-200.000	0.027	-0.120
-373.829	-200.000	0.006	-0.096
-372.815	-140.891	0.368	-0.037
-371.800	58.657	-0.138	-0.134
-370.785	-200.000	-0.021	0.162
-369.771	-86.147	0.025	0.008
-368.756	800.000	0.042	0.154
-367.742	-95.301	0.376	-0.100
-366.727	-200.000	0.010	-0.221
-365.712	91.651	0.020	-0.022
-364.698	10.881	0.184	-0.139
-363.683	-108.632	-0.302	0.064
-362.669	-36.826	-0.337	0.179
-361.654	408.140	0.082	0.171
-360.639	306.705	0.078	-0.143
-359.625	-155.677	-0.098	0.006
-358.610	14.220	0.158	-0.122
-357.596	65.239	-0.324	0.324
-356.581	-144.760	-0.287	0.026
-355.566	200.260	-0.045	-0.069
-354.552	800.000	-0.040	-0.168
-353.537	-148.408	0.054	0.004
-352.523	-127.592	-0.176	0.025
-351.508	-200.000	0.039	-0.284
-350.493	226.619	-0.145	-0.233
-349.479	12.555	0.256	0.195
-348.464	-169.310	0.083	-0.003
-347.450	800.000	0.051	0.210
-346.435	-65.088	0.182	-0.072
-345.420	759.297	-0.054	0.144
-344.406	62.199	0.313	0.308
-343.391	-158.462	-0.137	0.008
-342.377	-200.000	-0.009	0.097
-341.362	496.644	-0.036	-0.082
-340.348	74.159	-0.171	-0.178
-339.333	-200.000	0.021	0.348
-338.318	512.043	-0.111	0.256
-337.304	626.993	-0.075	0.187
-336.289	490.576	-0.092	-0.208
-335.275	-20.733	-0.257	-0.155
-334.260	-23.659	-0.159	-0.094
-333.245	-29.127	0.203	-0.115
-332.231	800.000	-0.061	-0.195
-331.216	788.142	0.088	0.237
-330.202	-200.000	-0.008	0.472
-329.187	-200.000	-0.026	-0.264
-328.172	800.000	0.100	-0.309
-327.158	-200.000	-0.005	0.127
-326.143	-12.233	0.069	0.045
-325.129	572.937	-0.094	-0.226
-324.114	297.384	0.063	-0.114
-323.099	-200.000	-0.003	0.017
-322.085	9.723	-0.256	-0.192
-321.070	98.308	-0.193	0.219
-320.056	-16.638	0.345	0.215
-319.041	-55.921	-0.030	0.013
-318.026	142.631	0.179	-0.235
-317.012	-83.662	-0.172	-0.054
-315.997	-200.000	0.055	-0.245
-314.983	292.588	0.047	-0.084
-313.968	-200.000	0.010	0.201
-312.953	-52.306	-0.170	0.078
-311.939	112.521	-0.272	-0.324
-310.924	27.497	0.090	-0.075
-309.910	-184.178	0.207	0.003
-308.895	252.412	0.036	-0.060
-307.880	-49.287	-0.172	0.081
-306.866	-58.026	-0.054	-0.023
-305.851	134.419	0.206	-0.263
-304.837	800.000	0.045	0.195
-303.822	-200.000	-0.009	0.077
-302.807	13.056	-0.118	0.090
-301.793	18.209	0.164	-0.129
-300.778	0.059	-0.152	-0.107
-299.764	-112.306	0.282	-0.056
-298.749	83.103	-0.122	-0.131
-297.735	-32.998	0.290	0.158
-296.720	-33.752	-0.241	0.131
-295.705	800.000	-0.021	-0.074
-294.691	40.505	0.148	0.131
-293.676	567.526	-0.131	-0.313
-292.662	800.000	0.052	0.197
-291.647	800.000	0.147	0.460
-290.632	89.457	0.190	0.209
-289.618	-200.000	0.007	0.132
-288.603	-83.785	-0.253	0.080
-287.589	37.606	0.217	-0.190
-286.574	-112.541	0.180	-0.035
-285.559	800.000	0.109	-0.327
-284.545	-4.149	0.178	0.121
-283.530	0.980	0.267	0.189
-282.516	-118.590	0.324	0.056
-281.501	-200.000	0.048	-0.304
-280.486	91.823	-0.197	-0.219
-279.472	128.277	-0.280	-0.351
-278.457	-24.276	0.310	-0.182
-277.443	-57.642	-0.106	0.046
-276.428	104.283	-0.101	-0.117
-275.413	-200.000	-0.180	-0.000
-274.399	-145.647	0.434	-0.038
-273.384	800.000	0.086	-0.295
-272.370	800.000	-0.069	-0.209
-271.355	19.843	0.212	-0.168
-270.340	800.000	0.169	0.500
-269.326	111.234	0.281	-0.333
-268.311	408.400	-0.189	-0.394
-267.297	800.000	0.016	-0.059
-266.282	-79.381	0.219	-0.073
-265.267	-200.000	0.001	0.082
-264.253	-114.905	0.162	-0.030
-263.238	-107.395	-0.424	-0.092
-262.224	130.132	-0.076	0.096
-261.209	800.000	0.052	0.163
-260.195	6.812	-0.212	-0.155
-259.180	587.843	0.088	-0.213
-258.165	-35.871	0.330	-0.175
-257.151	-64.072	-0.056	0.023
-256.136	-16.185	-0.316	0.197
-255.122	362.715	-0.107	0.211
-254.107	223.713	-0.091	0.144
-253.092	-159.388	-0.347	0.019
-252.078	800.000	0.089	0.316
-251.063	-32.097	0.111	-0.061
-250.049	461.297	-0.090	0.198
-249.034	-200.000	-0.025	0.135
-248.019	634.931	0.066	-0.165
-247.005	-197.214	-0.208	0.001
-245.990	-55.566	-0.248	-0.109
-244.976	-57.526	0.348	0.150
-243.961	40.791	-0.172	-0.153
-242.946	-200.000	0.017	-0.235
-241.932	59.808	0.272	-0.264
-240.917	-69.754	-0.243	-0.091
-239.903	-42.598	0.254	0.127
-238.888	30.820	-0.117	-0.099
-237.873	246.202	0.066	-0.109
-236.859	800.000	-0.029	-0.111
-235.844	-24.763	-0.169	0.099
-234.830	113.442	-0.237	0.282
-233.815	18.757	-0.058	0.045
-232.800	-155.110	-0.367	-0.024
-231.786	800.000	0.058	-0.184
-230.771	179.554	0.105	-0.151
-229.757	800.000	-0.102	-0.412
-228.742	-50.332	-0.200	0.093
-227.727	50.852	-0.108	-0.101
-226.713	-200.000	0.021	-0.105
-225.698	-9.218	-0.174	0.114
-224.684	394.630	-0.106	0.217
-223.669	449.597	0.156	-0.337
-222.655	-200.000	0.001	0.011
-221.640	509.850	-0.157	0.358
-220.625	-200.000	0.036	0.330
-219.611	-58.228	-0.169	0.072
-218.596	309.725	-0.170	-0.312
-217.582	670.618	-0.148	0.375
-216.567	-200.000	0.048	0.296
-215.552	14.910	0.048	0.037
-214.538	-73.328	-0.397	0.143
-213.523	800.000	0.014	0.039
-212.509	-138.953	0.333	-0.035
-211.494	-200.000	0.036	0.348
-210.479	-196.122	0.178	-0.001
-209.465	-200.000	0.025	-0.111
-208.450	-136.431	-0.146	-0.017
-207.436	383.637	0.034	-0.069
-206.421	114.962	-0.055	-0.066
-205.406	-81.338	0.396	-0.128
-204.392	444.972	-0.144	0.311
-203.377	-200.000	0.049	0.415
-202.363	-140.020	-0.146	0.015
-201.348	-200.000	0.016	-0.191
-200.333	-143.197	0.166	0.016
-199.319	-50.362	-0.301	0.140
-198.304	-102.823	-0.196	-0.046
-197.290	800.000	-0.070	0.267
-196.275	11.189	-0.077	-0.058
-195.260	12.400	-0.060	0.045
-194.246	-27.794	0.253	-0.144
-193.231	-108.668	0.311	0.065
-192.217	466.142	0.020	-0.045
-191.202	76.877	0.204	0.213
-190.187	800.000	0.072	-0.291
-189.173	25.493	0.137	0.112
-188.158	-5.062	-0.154	-0.104
-187.144	-200.000	0.078	0.367
-186.129	25.758	-0.024	-0.019
-185.114	71.154	-0.109	-0.110
-184.100	220.746	-0.082	0.129
-183.085	483.212	-0.160	0.356
-182.071	596.743	-0.090	0.218
-181.056	-109.042	0.167	-0.035
-180.042	-83.655	0.471	-0.148
-179.027	-91.729	0.070	0.020
-178.012	13.916	0.463	0.353
-176.998	1.684	0.048	-0.034
-175.983	80.024	0.146	-0.154
-174.969	46.480	-0.125	0.114
-173.954	-200.000	-0.049	0.286
-172.939	-26.027	-0.174	-0.100
-171.925	395.030	-0.132	-0.270
-170.910	-172.360	0.315	-0.010
-169.896	-16.144	0.049	0.030
-168.881	5.112	-0.366	0.264
-167.866	800.000	-0.107	0.331
-166.852	-2.507	-0.120	-0.082
-165.837	-200.000	-0.023	-0.220
-164.823	-128.882	-0.221	0.031
-163.808	103.708	0.109	0.126
-162.793	800.000	-0.084	-0.295
-161.779	189.232	-0.142	-0.209
-160.764	337.774	0.024	-0.046
-159.750	-200.000	-0.001	0.014
-158.735	-139.927	0.416	-0.043
-157.720	-58.369	0.196	-0.083
-156.706	337.418	-0.139	-0.265
-155.691	-200.000	0.066	-0.611
-154.677	-40.073	0.224	-0.115
-153.662	92.163	0.234	-0.258
-152.647	-47.849	-0.099	-0.047
-151.633	50.173	0.239	0.222
-150.618	-200.000	0.006	0.382
-149.604	299.405	-0.157	-0.284
-148.589	480.268	-0.101	0.223
-147.574	19.131	-0.236	-0.185
-146.560	82.133	-0.133	-0.141
-145.545	-72.642	-0.073	-0.026
-144.531	167.329	-0.110	0.153
-143.516	-8.910	-0.090	-0.059
-142.502	-92.149	-0.289	-0.080
-141.487	177.176	-0.174	-0.248
-140.472	120.771	-0.110	0.134
-139.458	-67.743	-0.125	0.048
-138.443	144.928	-0.169	-0.221
-137.429	-27.567	0.080	-0.045
-136.414	-29.285	-0.051	-0.029
-135.399	-94.499	0.147	0.039
-134.385	-200.000	-0.042	-0.206
-133.370	-131.781	0.163	0.021
-132.356	122.520	0.092	0.112
-131.341	33.868	0.193	0.165
-130.326	70.567	-0.197	-0.199
-129.312	-64.367	-0.135	0.054
-128.297	-200.000	0.001	-0.284
-127.283	-200.000	-0.006	-0.277
-126.268	-151.067	-0.080	0.006
-125.253	-200.000	-0.007	-0.082
-124.239	215.871	0.174	0.270
-123.224	800.000	-0.030	0.099
-122.210	-99.157	-0.158	-0.039
-121.195	-200.000	0.015	0.090
