DTS Sentinel unit serial number:	SN413079Multiplexer serial number:	ORYXHardware model number:	OX4-SRSoftware version number:	ORYX F/W v4.00 Oryx Data Collector v3.7.2.0data status	okinstallation	princeton_trtdifferential loss correction	single-endedforward channel	channel 3reverse channel	N/Adate	2019/09/19time	07:44:35forward acquisition time	60.00reverse acquisition time	0.00gamma	496.2192k internal	0.2347k external	0.2347temperature offset calibration	0.9979default loss term (dB/km)	0.3790temperature slope calibration	1.0000multiplexer offset coefficient	1.0000multiplexer slope coefficient	1.0000fibre end	0.00T internal ref (°C)	19.50T ext. ref 1 (°C)	0.54T ext. ref 2 (°C)	14.60length (m)	temperature (°C)	Stokes	anti-Stokes-747.200	-132.337	-0.532	-0.069
-746.185	177.598	0.133	0.193
-745.171	-86.130	-0.302	0.093
-744.156	148.906	0.101	0.137
-743.142	58.107	-0.153	-0.150
-742.127	-40.887	-0.122	-0.063
-741.112	-200.000	0.004	0.524
-740.098	800.000	0.056	-0.245
-739.083	343.120	-0.166	-0.324
-738.069	-200.000	0.002	0.178
-737.054	-200.000	0.019	-0.118
-736.039	-150.316	-0.158	0.012
-735.025	-62.127	0.111	0.046
-734.010	91.558	-0.176	-0.198
-732.996	-113.655	-0.406	0.079
-731.981	-200.000	-0.040	0.214
-730.966	800.000	0.095	0.281
-729.952	191.682	-0.167	-0.251
-728.937	-200.000	-0.020	0.201
-727.923	17.739	0.195	-0.155
-726.908	-150.693	-0.245	-0.019
-725.894	142.460	-0.043	-0.057
-724.879	-154.954	-0.477	-0.031
-723.864	169.316	-0.011	0.015
-722.850	-44.038	-0.198	0.099
-721.835	-131.986	-0.091	-0.012
-720.821	-58.358	-0.162	0.070
-719.806	335.638	-0.179	0.347
-718.791	-160.574	-0.293	0.016
-717.777	24.639	-0.108	0.089
-716.762	272.692	-0.066	0.117
-715.748	1.351	0.117	-0.084
-714.733	48.655	0.102	-0.096
-713.718	-28.957	0.284	-0.163
-712.704	242.470	0.138	0.231
-711.689	-200.000	-0.025	0.298
-710.675	-183.259	-0.079	0.001
-709.660	211.141	-0.027	-0.043
-708.645	-91.317	0.127	0.036
-707.631	43.183	-0.141	-0.129
-706.616	-85.323	0.351	-0.109
-705.602	151.133	0.111	0.151
-704.587	-166.043	0.172	0.007
-703.572	-80.355	-0.102	0.034
-702.558	-91.511	-0.155	-0.044
-701.543	90.146	0.034	-0.038
-700.529	-149.277	-0.152	0.012
-699.514	-200.000	-0.012	-0.363
-698.499	-60.219	-0.180	0.076
-697.485	-200.000	0.024	0.129
-696.470	-9.739	0.151	0.100
-695.456	-43.634	-0.077	-0.039
-694.441	670.815	-0.167	0.431
-693.426	-58.758	0.303	-0.131
-692.412	-55.230	0.051	-0.023
-691.397	-91.626	0.168	0.048
-690.383	-200.000	-0.039	-0.252
-689.368	-37.914	-0.156	-0.082
-688.354	-78.666	0.134	-0.046
-687.339	800.000	0.080	0.335
-686.324	38.866	-0.264	0.236
-685.310	-39.193	-0.276	-0.145
-684.295	-200.000	0.005	-0.053
-683.281	53.587	-0.133	0.128
-682.266	51.980	-0.064	0.061
-681.251	800.000	0.076	0.291
-680.237	404.319	-0.089	0.187
-679.222	42.730	0.347	-0.315
-678.208	37.539	-0.073	-0.064
-677.193	-200.000	-0.044	-0.206
-676.178	800.000	-0.047	-0.143
-675.164	-65.840	-0.188	0.075
-674.149	-156.240	-0.245	-0.015
-673.135	689.082	0.018	0.047
-672.120	-110.665	-0.151	0.031
-671.105	206.877	0.074	-0.116
-670.091	46.532	0.137	-0.126
-669.076	-200.000	0.007	-0.060
-668.062	-79.620	-0.259	0.087
-667.047	-53.213	-0.271	-0.124
-666.032	-126.261	0.236	0.035
-665.018	-57.658	-0.103	-0.045
-664.003	-200.000	-0.014	-0.298
-662.989	16.352	-0.254	-0.200
-661.974	800.000	0.073	0.250
-660.959	-200.000	-0.010	0.317
-659.945	14.032	-0.134	-0.104
-658.930	800.000	-0.091	-0.339
-657.916	-70.223	0.132	0.050
-656.901	0.018	-0.134	0.095
-655.886	800.000	-0.026	0.076
-654.872	-74.396	0.034	-0.012
-653.857	-84.348	0.197	0.062
-652.843	81.067	0.228	0.246
-651.828	84.048	0.245	-0.266
-650.814	49.694	-0.153	-0.144
-649.799	-200.000	0.014	0.142
-648.784	19.552	-0.159	0.128
-647.770	-71.143	-0.458	0.171
-646.755	-26.906	0.109	0.063
-645.741	308.209	0.200	-0.371
-644.726	-99.538	-0.284	-0.071
-643.711	-200.000	0.002	0.204
-642.697	-42.878	0.287	0.145
-641.682	254.883	0.171	-0.292
-640.668	800.000	0.014	-0.040
-639.653	-200.000	-0.035	0.200
-638.638	-106.728	0.241	0.053
-637.624	132.382	-0.028	0.036
-636.609	124.653	-0.078	0.097
-635.595	-64.777	0.312	0.126
-634.580	-45.163	-0.347	0.171
-633.565	245.015	-0.138	0.231
-632.551	-29.006	0.351	-0.201
-631.536	800.000	0.016	-0.060
-630.522	3.983	0.121	-0.088
-629.507	139.971	0.118	-0.155
-628.492	110.260	0.144	-0.172
-627.478	42.211	0.089	0.080
-626.463	175.799	-0.081	-0.116
-625.449	800.000	-0.038	0.109
-624.434	121.242	0.102	0.126
-623.419	26.146	-0.280	-0.232
-622.405	48.368	-0.151	0.140
-621.390	6.997	0.309	0.229
-620.376	-40.353	0.112	-0.058
-619.361	-56.460	-0.181	-0.080
-618.346	253.232	-0.197	-0.334
-617.332	-200.000	-0.024	-0.248
-616.317	9.791	-0.047	-0.035
-615.303	-21.784	-0.247	0.150
-614.288	-200.000	-0.055	0.285
-613.273	-75.506	-0.139	-0.049
-612.259	800.000	0.034	-0.106
-611.244	733.565	-0.113	0.300
-610.230	-75.458	-0.280	-0.099
-609.215	-57.573	-0.043	-0.019
-608.201	-153.392	0.071	0.005
-607.186	800.000	-0.075	-0.262
-606.171	6.058	-0.107	0.079
-605.157	450.863	0.214	0.470
-604.142	-143.740	-0.298	-0.028
-603.128	57.190	0.120	0.116
-602.113	-200.000	-0.017	-0.487
-601.098	43.684	0.248	-0.226
-600.084	-161.227	0.290	0.015
-599.069	-10.531	-0.153	0.101
-598.055	-91.241	-0.224	-0.064
-597.040	-200.000	-0.386	-0.001
-596.025	126.456	-0.103	0.130
-595.011	231.751	0.234	-0.381
-593.996	-192.534	0.305	-0.003
-592.982	146.046	0.032	0.043
-591.967	800.000	0.024	0.080
-590.952	-86.756	0.352	0.107
-589.938	-99.156	0.249	-0.063
-588.923	-87.693	-0.289	0.087
-587.909	-139.946	0.096	-0.010
-586.894	22.415	0.136	-0.110
-585.879	32.652	-0.101	-0.087
-584.865	1.663	0.194	-0.139
-583.850	-200.000	-0.028	-0.211
-582.836	-75.135	0.298	0.106
-581.821	0.954	0.235	-0.168
-580.806	139.746	-0.082	-0.108
-579.792	304.933	-0.136	0.251
-578.777	22.114	-0.069	0.056
-577.763	35.986	-0.172	-0.150
-576.748	800.000	0.087	-0.321
-575.733	-135.665	0.214	0.025
-574.719	-111.387	-0.263	0.053
-573.704	-102.469	0.112	0.027
-572.690	-200.000	-0.013	-0.073
-571.675	-200.000	0.027	-0.266
-570.661	82.564	-0.029	0.031
-569.646	158.647	-0.102	0.140
-568.631	-167.156	-0.244	0.010
-567.617	-74.349	0.155	0.056
-566.602	800.000	-0.146	0.522
-565.588	286.080	-0.105	0.187
-564.573	-200.000	0.034	0.421
-563.558	81.349	-0.239	0.257
-562.544	68.319	-0.419	-0.426
-561.529	29.134	0.143	-0.120
-560.515	91.001	-0.059	0.066
-559.500	-160.612	-0.149	0.008
-558.485	-32.189	-0.113	-0.063
-557.471	-169.806	0.187	-0.007
-556.456	-55.939	0.132	0.058
-555.442	-1.679	0.108	0.076
-554.427	-200.000	0.020	-0.147
-553.412	800.000	0.039	-0.155
-552.398	-106.572	-0.037	-0.008
-551.383	-34.598	0.129	-0.070
-550.369	-51.246	-0.298	-0.139
-549.354	268.785	0.152	0.264
-548.339	-200.000	0.002	0.218
-547.325	-104.569	-0.278	-0.064
-546.310	-106.814	0.265	0.058
-545.296	-200.000	-0.011	-0.413
-544.281	456.469	-0.078	0.172
-543.266	-112.680	0.296	0.058
-542.252	-30.104	-0.279	-0.157
-541.237	-2.650	-0.213	-0.148
-540.223	-100.056	-0.099	0.025
-539.208	288.369	-0.101	0.180
-538.193	145.549	0.204	-0.271
-537.179	-171.670	0.377	0.012
-536.164	263.332	0.177	-0.305
-535.150	-200.000	-0.007	0.055
-534.135	-55.980	-0.115	0.051
-533.121	-200.000	0.029	0.204
-532.106	-161.979	0.301	-0.015
-531.091	-200.000	-0.020	-0.307
-530.077	-101.418	-0.325	-0.079
-529.062	-16.162	-0.115	0.072
-528.048	-27.490	0.040	-0.023
-527.033	312.656	0.101	-0.188
-526.018	-158.657	-0.226	-0.013
-525.004	-68.934	0.103	-0.039
-523.989	-42.881	0.280	-0.141
-522.975	800.000	0.088	0.341
-521.960	30.064	-0.074	0.063
-520.945	-200.000	0.079	0.383
-519.931	142.312	-0.173	0.228
-518.916	-30.609	-0.341	0.191
-517.902	-90.215	0.212	0.061
-516.887	58.728	-0.199	-0.193
-515.872	-144.355	-0.222	-0.020
-514.858	14.342	-0.019	0.015
-513.843	16.235	0.118	0.092
-512.829	-200.000	-0.011	0.217
-511.814	-200.000	-0.015	0.115
-510.799	-200.000	-0.040	0.187
-509.785	-75.376	0.276	-0.098
-508.770	73.671	-0.138	-0.144
-507.756	51.531	-0.125	0.118
-506.741	-109.453	-0.115	-0.024
-505.726	499.746	0.203	-0.462
-504.712	-117.609	0.213	-0.038
-503.697	30.601	0.037	-0.031
-502.683	-87.883	0.225	-0.067
-501.668	-5.015	0.218	0.149
-500.653	-145.750	-0.655	0.058
-499.639	-83.266	0.163	0.052
-498.624	-138.307	-0.075	-0.008
-497.610	800.000	-0.028	-0.098
-496.595	-200.000	0.042	0.221
-495.581	-133.928	-0.189	0.023
-494.566	800.000	-0.034	0.144
-493.551	-43.532	0.119	-0.060
-492.537	105.616	-0.023	0.027
-491.522	-119.841	-0.110	-0.019
-490.508	26.783	-0.199	-0.165
-489.493	800.000	0.023	-0.081
-488.478	-200.000	-0.003	0.156
-487.464	-200.000	-0.060	0.408
-486.449	574.121	0.109	0.264
-485.435	-200.000	0.000	0.143
-484.420	-56.906	0.239	-0.104
-483.405	40.449	-0.063	-0.056
-482.391	800.000	0.067	0.196
-481.376	-200.000	-0.020	0.199
-480.362	12.408	-0.167	0.127
-479.347	-200.000	-0.002	-0.105
-478.332	-100.222	0.119	0.029
-477.318	92.390	0.096	0.107
-476.303	54.959	-0.198	-0.189
-475.289	800.000	0.031	-0.133
-474.274	800.000	-0.048	0.192
-473.259	235.542	-0.070	-0.115
-472.245	-42.365	0.362	-0.183
-471.230	-200.000	0.004	-0.028
-470.216	-67.257	-0.065	0.025
-469.201	-117.581	-0.172	0.031
-468.186	255.903	0.090	-0.152
-467.172	127.705	-0.179	0.225
-466.157	244.193	-0.145	-0.241
-465.143	-6.065	-0.090	-0.061
-464.128	115.591	0.062	-0.075
-463.113	-31.336	-0.193	-0.107
-462.099	33.945	-0.258	-0.222
-461.084	800.000	0.051	-0.200
-460.070	-119.024	-0.203	0.035
-459.055	139.731	-0.039	-0.051
-458.040	684.926	0.073	-0.189
-457.026	-200.000	-0.005	0.143
-456.011	-96.946	-0.086	0.022
-454.997	-113.204	0.290	-0.056
-453.982	131.928	0.081	-0.103
-452.968	513.245	-0.070	-0.162
-451.953	-183.918	-0.508	0.008
-450.938	-175.948	0.126	0.003
-449.924	99.269	0.156	-0.178
-448.909	305.427	0.202	-0.371
-447.895	-92.512	-0.238	-0.066
-446.880	-128.619	-0.189	-0.026
-445.865	800.000	0.091	0.253
-444.851	-88.087	-0.322	0.096
-443.836	72.447	0.223	-0.230
-442.822	-108.261	0.018	0.004
-441.807	-98.348	-0.212	-0.054
-440.792	296.620	0.068	-0.123
-439.778	800.000	0.153	0.432
-438.763	-65.190	-0.176	0.070
-437.749	-3.381	0.185	-0.127
-436.734	41.221	-0.157	0.140
-435.719	-117.166	0.246	-0.044
-434.705	4.907	0.227	0.165
-433.690	-200.000	0.007	-0.238
-432.676	-136.291	0.272	-0.031
-431.661	-200.000	0.035	0.230
-430.646	-107.649	0.386	0.083
-429.632	665.453	-0.098	-0.251
-428.617	17.049	0.124	0.097
-427.603	78.085	-0.165	0.174
-426.588	236.659	0.080	0.130
-425.573	-171.987	0.306	-0.010
-424.559	-33.328	-0.139	0.076
-423.544	-193.221	-0.170	0.001
-422.530	11.305	-0.260	0.196
-421.515	11.266	-0.037	-0.028
-420.500	-85.595	-0.157	0.048
-419.486	287.214	-0.030	-0.053
-418.471	90.896	-0.021	0.023
-417.457	-200.000	0.024	0.172
-416.442	-43.560	0.151	0.075
-415.428	20.943	-0.189	-0.151
-414.413	-69.675	0.283	-0.107
-413.398	-129.919	0.254	-0.034
-412.384	-99.515	0.086	-0.021
-411.369	200.784	-0.152	0.231
-410.355	-54.886	0.280	-0.125
-409.340	-200.000	0.020	0.407
-408.325	190.374	0.040	0.060
-407.311	-5.566	0.112	0.076
-406.296	213.183	0.102	0.160
-405.282	-200.000	-0.055	0.352
-404.267	84.761	0.409	0.442
-403.252	-200.000	-0.034	-0.250
-402.238	595.931	0.070	0.172
-401.223	112.361	0.171	-0.203
-400.209	140.871	0.270	0.351
-399.194	37.733	-0.110	-0.096
-398.179	-200.000	0.016	-0.282
-397.165	38.057	-0.152	-0.133
-396.150	-74.062	-0.445	0.159
-395.136	-200.000	0.007	0.049
-394.121	-200.000	0.023	0.204
-393.106	180.924	0.037	0.053
-392.092	-200.000	0.000	0.215
-391.077	73.661	-0.141	0.145
-390.063	-200.000	0.005	-0.319
-389.048	183.576	0.119	-0.173
-388.033	-18.307	0.134	0.083
-387.019	412.498	-0.310	-0.649
-386.004	103.734	0.157	0.181
-384.990	-53.681	-0.152	-0.068
-383.975	98.488	-0.148	-0.168
-382.960	95.371	0.318	-0.358
-381.946	53.262	-0.241	0.228
-380.931	800.000	-0.055	-0.156
-379.917	680.602	0.102	-0.261
-378.902	-46.798	-0.364	0.176
-377.888	72.140	0.129	0.132
-376.873	-77.615	0.249	0.085
-375.858	58.406	0.130	0.126
-374.844	800.000	0.049	0.155
-373.829	800.000	-0.115	-0.361
-372.815	26.407	0.261	-0.215
-371.800	106.230	0.058	-0.067
-370.785	-0.126	-0.143	-0.100
-369.771	800.000	0.028	-0.111
-368.756	-200.000	-0.012	0.182
-367.742	-30.405	0.107	0.060
-366.727	6.896	-0.098	-0.072
-365.712	-200.000	0.018	-0.090
-364.698	581.729	-0.086	0.207
-363.683	-200.000	0.017	-0.127
-362.669	47.505	-0.041	0.038
-361.654	-61.666	-0.111	0.046
-360.639	-89.326	-0.068	0.020
-359.625	-19.616	0.068	-0.041
-358.610	-1.816	0.203	-0.141
-357.596	800.000	0.071	-0.255
-356.581	760.496	0.097	-0.258
-355.566	800.000	-0.078	-0.231
-354.552	-200.000	0.012	0.077
-353.537	800.000	0.084	-0.243
-352.523	28.090	0.241	-0.200
-351.508	-139.431	-0.323	-0.034
-350.493	-149.533	-0.160	-0.012
-349.479	554.516	0.079	-0.186
-348.464	18.589	-0.214	0.169
-347.450	1.665	0.253	0.179
-346.435	35.871	-0.080	0.070
-345.420	800.000	-0.056	0.217
-344.406	-88.339	-0.429	-0.126
-343.391	800.000	-0.006	0.021
-342.377	29.739	-0.217	0.182
-341.362	-68.293	0.152	0.058
-340.348	-200.000	0.048	-0.366
-339.333	6.887	-0.041	-0.030
-338.318	800.000	0.081	-0.235
-337.304	12.740	0.268	-0.203
-336.289	-200.000	-0.064	-0.386
-335.275	800.000	0.069	0.207
-334.260	-103.569	0.252	-0.058
-333.245	-42.261	0.134	-0.067
-332.231	408.877	0.086	-0.180
-331.216	-50.247	-0.083	-0.039
-330.202	-14.783	0.030	-0.019
-329.187	-61.035	-0.272	0.113
-328.172	-49.870	0.182	0.085
-327.158	-51.871	0.210	0.096
-326.143	-120.047	0.169	-0.028
-325.129	242.300	-0.115	-0.189
-324.114	568.597	0.100	0.240
-323.099	-43.129	0.106	-0.053
-322.085	469.712	0.054	-0.120
-321.070	800.000	-0.134	-0.368
-320.056	-200.000	0.029	-0.126
-319.041	161.686	0.086	-0.119
-318.026	21.222	0.224	-0.178
-317.012	-172.510	0.092	0.003
-315.997	-57.087	0.170	-0.074
-314.983	383.373	-0.088	-0.178
-313.968	321.727	-0.077	0.144
-312.953	-32.150	-0.113	-0.062
-311.939	-62.298	-0.209	-0.086
-310.924	-200.000	0.007	-0.135
-309.910	-68.949	0.245	-0.093
-308.895	-200.000	-0.043	-0.201
-307.880	-135.702	0.102	-0.012
-306.866	-122.323	-0.108	-0.017
-305.851	81.309	0.072	0.076
-304.837	-125.568	-0.109	0.016
-303.822	-200.000	-0.015	0.068
-302.807	61.741	-0.071	-0.070
-301.793	227.055	-0.192	0.307
-300.778	280.040	-0.110	0.193
-299.764	231.147	0.148	-0.238
-298.749	58.257	-0.075	0.072
-297.735	123.675	0.198	-0.244
-296.720	-200.000	-0.024	-0.225
-295.705	-200.000	-0.013	-0.088
-294.691	-200.000	0.005	0.241
-293.676	-86.988	-0.081	0.024
-292.662	378.251	-0.057	-0.114
-291.647	619.476	-0.051	0.126
-290.632	580.031	0.080	-0.192
-289.618	-32.410	0.331	0.181
-288.603	-200.000	0.007	-0.125
-287.589	29.737	0.105	0.088
-286.574	94.321	-0.133	0.149
-285.559	99.678	0.137	-0.155
-284.545	227.522	-0.139	-0.222
-283.530	23.224	0.300	0.242
-282.516	521.820	-0.020	0.046
-281.501	346.427	-0.079	-0.152
-280.486	340.274	0.067	0.129
-279.472	-118.325	0.223	-0.039
-278.457	800.000	-0.061	0.171
-277.443	-105.943	-0.023	-0.005
-276.428	-200.000	0.003	0.125
-275.413	-200.000	0.025	-0.320
-274.399	40.486	0.207	0.183
-273.384	-49.715	-0.350	0.163
-272.370	800.000	0.004	0.013
-271.355	-200.000	-0.029	0.231
-270.340	-103.434	0.172	0.040
-269.326	-200.000	-0.001	0.129
-268.311	800.000	-0.033	-0.100
-267.297	122.873	0.111	0.136
-266.282	175.047	0.294	0.418
-265.267	474.111	-0.009	-0.021
-264.253	92.405	-0.206	0.228
-263.238	-157.955	-0.249	0.014
-262.224	-91.561	0.301	-0.084
-261.209	-21.179	0.279	0.167
-260.195	800.000	0.086	-0.237
-259.180	28.414	-0.087	0.073
-258.165	-43.689	-0.116	-0.057
-257.151	153.421	0.082	-0.110
-256.136	-200.000	-0.028	0.241
-255.122	-54.131	-0.161	0.072
-254.107	-200.000	0.025	-0.205
-253.092	-123.180	-0.255	0.040
-252.078	800.000	-0.083	0.315
-251.063	-200.000	-0.030	0.248
-250.049	-31.434	0.190	-0.104
-249.034	-200.000	-0.081	0.397
-248.019	318.653	0.109	-0.203
-247.005	14.380	-0.021	0.016
-245.990	-112.106	0.031	0.006
-244.976	800.000	-0.079	0.235
-243.961	234.327	-0.084	0.136
-242.946	89.627	0.228	-0.249
-241.932	-200.000	-0.047	-0.286
-240.917	698.854	-0.026	-0.066
-239.903	116.589	-0.321	0.386
-238.888	177.386	-0.191	0.273
-237.873	577.135	-0.036	-0.086
-236.859	-129.696	-0.519	0.070
-235.844	-50.886	-0.128	0.059
-234.830	-62.871	0.228	-0.092
-233.815	-65.112	0.259	-0.103
-232.800	-3.677	0.237	0.161
-231.786	-110.872	0.156	0.031
-230.771	-22.063	0.171	0.102
-229.757	-28.964	-0.215	-0.121
-228.742	78.476	-0.185	-0.194
-227.727	800.000	0.087	-0.301
-226.713	-61.634	0.232	-0.096
-225.698	322.050	0.160	-0.298
-224.684	-39.394	-0.250	0.129
-223.669	-33.451	-0.210	-0.114
-222.655	-133.599	-0.347	0.043
-221.640	142.757	0.044	-0.057
-220.625	-200.000	0.025	-0.404
-219.611	800.000	0.114	0.462
-218.596	-200.000	-0.010	0.387
-217.582	-161.891	0.175	-0.009
-216.567	-56.836	0.247	0.107
-215.552	134.017	-0.092	-0.116
-214.538	568.138	-0.135	-0.322
-213.523	-133.395	-0.201	-0.025
-212.509	518.820	0.166	0.380
-211.494	594.758	-0.048	-0.115
-210.479	800.000	-0.017	0.065
-209.465	-143.894	0.309	0.029
-208.450	609.143	0.165	0.403
-207.436	800.000	-0.097	0.393
-206.421	-43.857	0.101	-0.050
-205.406	23.292	-0.075	0.060
-204.392	78.007	-0.198	0.206
-203.377	-127.267	-0.319	0.046
-202.363	195.395	0.252	0.375
-201.348	291.682	-0.168	0.299
-200.333	800.000	-0.075	-0.246
-199.319	800.000	0.078	-0.276
-198.304	65.410	-0.145	-0.144
-197.290	-200.000	-0.030	-0.261
-196.275	12.353	0.063	-0.047
-195.260	-97.493	0.276	0.070
-194.246	160.769	-0.224	-0.306
-193.231	800.000	-0.085	0.316
-192.217	-113.084	0.223	-0.043
-191.202	-106.682	0.075	0.016
-190.187	-200.000	0.008	0.237
-189.173	488.487	-0.082	-0.183
-188.158	417.758	0.054	0.113
-187.144	-95.802	-0.125	-0.033
-186.129	-6.870	-0.195	0.130
-185.114	-42.254	-0.236	0.118
-184.100	-80.793	0.122	-0.040
-183.085	-63.895	-0.172	-0.069
-182.071	-62.533	-0.094	-0.038
-181.056	-200.000	-0.020	-0.144
-180.042	-200.000	0.021	0.188
-179.027	800.000	0.067	-0.248
-178.012	179.855	0.185	0.265
-176.998	-200.000	0.012	0.093
-175.983	-78.015	0.098	-0.033
-174.969	46.597	-0.126	0.114
-173.954	-53.694	0.093	0.042
-172.939	334.721	0.027	-0.050
-171.925	387.774	-0.037	-0.075
-170.910	800.000	-0.019	0.071
-169.896	-112.447	-0.457	-0.089
-168.881	-200.000	-0.027	-0.270
-167.866	-200.000	-0.014	-0.179
-166.852	193.436	-0.053	0.079
-165.837	-200.000	0.000	0.130
-164.823	137.357	0.200	-0.255
-163.808	-114.544	0.401	-0.075
-162.793	129.766	-0.070	0.088
-161.779	-68.562	-0.126	0.048
-160.764	415.351	0.043	0.089
-159.750	-165.800	-0.085	-0.004
-158.735	-200.000	0.019	0.251
-157.720	-200.000	0.009	-0.067
-156.706	544.314	0.070	-0.163
-155.691	-91.032	-0.247	-0.069
-154.677	104.219	0.050	0.058
-153.662	41.357	0.080	0.071
-152.647	-56.860	-0.331	0.143
-151.633	293.630	0.103	-0.184
-150.618	-109.614	0.213	0.044
-149.604	-134.069	-0.177	-0.021
-148.589	-25.387	0.194	0.112
-147.574	192.388	0.136	-0.201
-146.560	-138.351	-0.067	-0.007
-145.545	-149.678	0.353	-0.027
-144.531	120.674	-0.211	0.256
-143.516	74.985	-0.074	0.076
-142.502	0.471	-0.180	0.126
-141.487	-10.333	0.207	-0.134
-140.472	68.896	0.143	0.144
-139.458	-73.923	0.347	0.123
-138.443	426.893	0.053	0.112
-137.429	800.000	0.066	-0.243
-136.414	195.369	-0.236	-0.350
-135.399	218.547	-0.194	-0.302
-134.385	-200.000	-0.024	0.127
-133.370	-72.329	0.174	-0.063
-132.356	-63.389	-0.159	-0.064
-131.341	-200.000	0.004	-0.104
-130.326	49.959	-0.141	0.130
-129.312	-172.150	0.382	-0.012
-128.297	-170.873	-0.229	-0.008
-127.283	86.399	-0.207	-0.222
-126.268	-200.000	-0.009	0.138
-125.253	-200.000	0.039	0.210
-124.239	-121.271	0.212	-0.034
-123.224	-74.187	0.198	0.070
-122.210	-88.193	0.090	-0.026
-121.195	-200.000	0.065	-0.290
