DTS Sentinel unit serial number:	SN413079Multiplexer serial number:	ORYXHardware model number:	OX4-SRSoftware version number:	ORYX F/W v4.00 Oryx Data Collector v3.7.2.0data status	okinstallation	princeton_trtdifferential loss correction	single-endedforward channel	channel 3reverse channel	N/Adate	2019/09/12time	15:42:11forward acquisition time	60.00reverse acquisition time	0.00gamma	496.2192k internal	0.2296k external	0.2296temperature offset calibration	1.0064default loss term (dB/km)	0.3790temperature slope calibration	1.0000multiplexer offset coefficient	1.0000multiplexer slope coefficient	1.0000fibre end	0.00T internal ref (°C)	40.05T ext. ref 1 (°C)	2.45T ext. ref 2 (°C)	32.64length (m)	temperature (°C)	Stokes	anti-Stokes-747.200	-58.015	-0.189	-0.084
-746.185	-200.000	-0.048	0.263
-745.171	-181.102	0.044	-0.001
-744.156	800.000	-0.040	-0.117
-743.142	-17.483	-0.143	-0.092
-742.127	437.621	-0.115	0.256
-741.112	-38.440	-0.317	0.171
-740.098	309.539	-0.065	-0.125
-739.083	-135.857	-0.433	-0.052
-738.069	-200.000	-0.103	0.000
-737.054	-200.000	0.033	-0.216
-736.039	-34.882	-0.148	0.082
-735.025	800.000	0.095	0.350
-734.010	-200.000	0.051	-0.245
-732.996	102.775	0.110	-0.131
-731.981	-149.777	-0.179	0.014
-730.966	312.567	0.191	0.366
-729.952	-117.489	-0.110	-0.020
-728.937	-5.487	-0.224	-0.157
-727.923	-179.529	-0.163	0.004
-726.908	84.614	0.133	0.148
-725.894	-200.000	0.044	0.251
-724.879	-29.930	-0.176	0.103
-723.864	445.639	0.146	-0.328
-722.850	17.631	0.104	-0.084
-721.835	-200.000	-0.051	-0.000
-720.821	-51.931	0.076	0.036
-719.806	-50.072	-0.110	-0.053
-718.791	-43.890	0.058	-0.030
-717.777	-29.372	-0.369	-0.215
-716.762	-114.674	-0.216	-0.042
-715.748	-200.000	-0.008	-0.059
-714.733	660.037	0.062	-0.162
-713.718	-40.698	-0.125	-0.066
-712.704	-31.164	-0.242	0.139
-711.689	-93.241	-0.056	-0.016
-710.675	-69.424	-0.081	0.032
-709.660	-159.220	0.210	-0.012
-708.645	166.576	-0.032	-0.047
-707.631	-30.231	0.351	0.204
-706.616	-95.312	-0.314	0.086
-705.602	-20.981	0.380	-0.237
-704.587	-14.592	-0.245	-0.161
-703.572	-17.537	-0.256	-0.164
-702.558	212.228	0.075	-0.121
-701.543	-116.109	0.051	-0.010
-700.529	-95.219	-0.263	-0.072
-699.514	-112.134	0.258	-0.053
-698.499	10.755	-0.203	-0.158
-697.485	-24.123	0.171	-0.104
-696.470	362.999	0.085	0.173
-695.456	800.000	0.022	-0.083
-694.441	214.616	0.168	-0.271
-693.426	800.000	0.092	0.350
-692.412	-200.000	0.010	-0.068
-691.397	-36.870	0.108	-0.059
-690.383	-137.886	-0.334	0.038
-689.368	-200.000	-0.004	0.091
-688.354	800.000	-0.096	-0.303
-687.339	-38.991	0.070	-0.038
-686.324	277.391	-0.100	0.181
-685.310	53.474	-0.298	0.291
-684.295	4.427	0.114	-0.085
-683.281	-199.188	-0.312	-0.002
-682.266	-54.839	0.334	0.154
-681.251	59.145	-0.240	-0.240
-680.237	-76.353	0.045	0.016
-679.222	-88.799	-0.059	0.018
-678.208	-98.641	0.326	0.085
-677.193	-72.093	-0.226	-0.085
-676.178	237.598	0.123	0.208
-675.164	-154.427	-0.101	0.007
-674.149	315.419	-0.089	0.172
-673.135	-200.000	-0.014	0.196
-672.120	-200.000	0.045	0.365
-671.105	-27.098	0.233	-0.138
-670.091	-104.042	-0.389	-0.092
-669.076	66.830	0.061	-0.063
-668.062	-87.367	0.313	0.097
-667.047	-37.132	0.062	0.034
-666.032	633.458	0.057	-0.147
-665.018	61.787	-0.167	-0.170
-664.003	-69.089	-0.159	0.063
-662.989	1.216	0.065	-0.048
-661.974	-200.000	-0.016	0.125
-660.959	-126.033	-0.253	0.039
-659.945	171.431	-0.096	-0.140
-658.930	-22.310	-0.092	-0.057
-657.916	-68.737	0.084	0.033
-656.901	102.141	-0.122	-0.146
-655.886	-200.000	-0.000	-0.060
-654.872	-120.422	-0.066	0.011
-653.857	-200.000	0.022	-0.385
-652.843	119.463	-0.224	-0.283
-651.828	5.456	-0.120	0.090
-650.814	-200.000	0.010	0.224
-649.799	-200.000	-0.006	-0.509
-648.784	-75.768	-0.223	-0.081
-647.770	-117.390	0.117	-0.022
-646.755	-59.775	0.125	0.055
-645.741	800.000	0.045	-0.189
-644.726	-61.106	-0.183	0.079
-643.711	-141.685	0.133	-0.014
-642.697	0.482	-0.230	-0.167
-641.682	11.873	-0.230	0.180
-640.668	-135.667	-0.184	-0.022
-639.653	-200.000	0.336	0.001
-638.638	-172.855	0.382	0.012
-637.624	370.078	0.170	0.351
-636.609	-10.906	-0.139	-0.093
-635.595	-58.447	0.080	-0.035
-634.580	-127.499	-0.288	0.042
-633.565	-200.000	-0.004	-0.205
-632.551	204.917	-0.184	0.291
-631.536	-200.000	0.017	0.103
-630.522	-61.773	-0.314	0.134
-629.507	-3.022	0.124	0.088
-628.492	-108.236	0.366	0.081
-627.478	-99.844	0.248	-0.063
-626.463	-143.843	0.268	-0.026
-625.449	800.000	0.108	0.446
-624.434	-162.136	0.330	0.017
-623.419	800.000	0.088	-0.382
-622.405	205.324	0.172	-0.272
-621.390	800.000	-0.053	0.198
-620.376	-139.504	0.324	0.035
-619.361	71.855	0.130	-0.138
-618.346	29.073	0.136	-0.117
-617.332	-200.000	-0.041	-0.325
-616.317	195.063	-0.137	0.212
-615.303	-200.000	0.002	-0.432
-614.288	-82.429	-0.136	0.045
-613.273	800.000	-0.084	0.321
-612.259	180.068	0.016	0.025
-611.244	800.000	-0.048	0.169
-610.230	-125.022	-0.154	0.024
-609.215	-85.775	0.099	-0.031
-608.201	-103.126	-0.342	0.082
-607.186	-33.673	-0.091	-0.051
-606.171	-60.115	-0.217	0.094
-605.157	-69.872	0.074	0.029
-604.142	92.925	0.202	-0.231
-603.128	-200.000	-0.062	0.361
-602.113	-56.203	-0.039	0.017
-601.098	30.495	0.093	-0.081
-600.084	40.972	-0.114	-0.105
-599.069	11.036	0.231	-0.179
-598.055	-200.000	-0.006	0.158
-597.040	595.578	-0.059	-0.148
-596.025	-17.937	-0.294	0.187
-595.011	46.828	-0.142	-0.134
-593.996	-157.078	-0.188	-0.012
-592.982	-109.219	-0.144	0.031
-591.967	-33.883	-0.105	0.059
-590.952	-200.000	-0.006	0.142
-589.938	-42.558	0.292	-0.151
-588.923	44.719	0.195	-0.182
-587.909	-116.917	-0.214	0.040
-586.894	21.274	-0.317	-0.262
-585.879	-200.000	0.000	-0.297
-584.865	76.102	0.148	-0.159
-583.850	-161.563	-0.073	0.004
-582.836	-5.590	-0.233	-0.162
-581.821	-102.781	-0.121	0.029
-580.806	104.360	0.185	-0.221
-579.792	357.334	-0.074	-0.150
-578.777	105.261	0.041	0.049
-577.763	241.129	0.118	-0.200
-576.748	161.581	0.070	0.099
-575.733	-51.154	0.267	0.127
-574.719	109.580	-0.336	-0.409
-573.704	-10.554	0.369	0.248
-572.690	172.394	0.144	0.210
-571.675	-130.698	-0.546	0.075
-570.661	206.306	-0.211	0.333
-569.646	55.186	-0.154	-0.151
-568.631	-45.675	-0.061	-0.031
-567.617	156.607	-0.132	0.185
-566.602	-20.095	0.156	-0.098
-565.588	-127.000	-0.055	-0.008
-564.573	-133.531	0.310	0.039
-563.558	27.992	0.106	0.091
-562.544	-103.237	-0.119	-0.029
-561.529	-70.369	0.105	-0.040
-560.515	-21.090	0.139	0.087
-559.500	-61.896	-0.257	0.109
-558.485	-113.831	-0.155	0.031
-557.471	-200.000	-0.003	0.031
-556.456	-200.000	-0.002	0.300
-555.442	-2.541	0.039	-0.028
-554.427	241.707	-0.024	-0.040
-553.412	-164.061	0.068	0.003
-552.398	-200.000	-0.001	-0.115
-551.383	314.746	0.124	0.237
-550.369	-144.552	-0.321	0.030
-549.354	-108.321	-0.099	-0.022
-548.339	361.200	0.127	0.258
-547.325	800.000	-0.051	-0.202
-546.310	-127.181	0.196	0.029
-545.296	71.925	0.155	0.164
-544.281	800.000	-0.023	0.084
-543.266	59.362	-0.216	-0.216
-542.252	-200.000	0.035	-0.204
-541.237	206.584	-0.133	0.211
-540.223	-138.558	0.012	-0.001
-539.208	-54.178	-0.105	0.049
-538.193	704.748	-0.029	-0.077
-537.179	-24.629	-0.411	-0.248
-536.164	199.004	-0.168	-0.261
-535.150	85.986	0.062	-0.069
-534.135	-200.000	-0.003	0.180
-533.121	125.858	0.071	-0.091
-532.106	-75.653	-0.121	0.044
-531.091	-200.000	-0.031	-0.158
-530.077	5.515	-0.172	0.129
-529.062	-200.000	0.014	-0.076
-528.048	-131.139	-0.207	0.028
-527.033	800.000	-0.033	0.146
-526.018	-200.000	0.003	-0.150
-525.004	136.199	-0.146	-0.193
-523.989	-200.000	0.009	-0.100
-522.975	-200.000	0.004	0.339
-521.960	43.856	0.137	-0.127
-520.945	600.580	-0.072	-0.182
-519.931	800.000	-0.105	0.340
-518.916	-90.793	-0.161	-0.047
-517.902	-178.141	-0.162	-0.004
-516.887	-200.000	-0.014	-0.263
-515.872	109.469	0.279	-0.339
-514.858	140.737	0.053	-0.071
-513.843	-1.453	-0.240	-0.172
-512.829	650.434	-0.107	-0.277
-511.814	7.079	0.160	-0.121
-510.799	-200.000	-0.016	-0.167
-509.785	-124.678	-0.243	-0.038
-508.770	-86.601	-0.078	0.024
-507.756	312.418	-0.051	0.097
-506.741	240.144	-0.114	-0.192
-505.726	18.921	0.106	-0.086
-504.712	-102.425	0.242	0.059
-503.697	-113.430	-0.232	0.046
-502.683	-200.000	0.018	-0.280
-501.668	103.120	0.065	-0.077
-500.653	-16.983	0.068	-0.044
-499.639	31.349	-0.091	0.079
-498.624	-48.157	0.250	0.122
-497.610	-79.638	0.063	0.021
-496.595	-0.575	0.138	0.099
-495.581	250.720	0.096	0.165
-494.566	-112.996	-0.242	0.048
-493.551	-40.397	0.175	0.092
-492.537	229.907	-0.121	0.200
-491.522	-200.000	0.024	-0.304
-490.508	800.000	0.050	-0.174
-489.493	-57.368	-0.033	0.015
-488.478	588.088	-0.168	0.419
-487.464	-81.544	-0.123	0.041
-486.449	112.394	-0.085	0.103
-485.435	-46.009	-0.326	-0.163
-484.420	-112.949	0.097	0.020
-483.405	-51.056	-0.288	0.137
-482.391	-200.000	-0.023	-0.209
-481.376	219.676	0.090	0.145
-480.362	-54.836	-0.281	-0.128
-479.347	107.509	-0.117	0.141
-478.332	51.925	0.275	-0.265
-477.318	-38.176	0.082	0.044
-476.303	21.444	-0.165	-0.135
-475.289	-200.000	-0.000	0.100
-474.274	-18.817	-0.262	-0.165
-473.259	-139.768	-0.227	-0.024
-472.245	800.000	0.184	-0.574
-471.230	7.330	0.111	-0.084
-470.216	174.973	-0.158	0.231
-469.201	800.000	0.034	-0.151
-468.186	800.000	-0.042	-0.136
-467.172	330.798	-0.068	-0.132
-466.157	-129.862	-0.134	-0.019
-465.143	87.600	-0.180	0.201
-464.128	144.339	-0.073	-0.098
-463.113	339.559	-0.080	-0.157
-462.099	-130.246	0.360	0.049
-461.084	-55.344	0.129	0.059
-460.070	-10.256	-0.108	0.072
-459.055	267.094	-0.062	-0.109
-458.040	-150.972	-0.279	-0.021
-457.026	78.851	0.214	-0.232
-456.011	-60.906	0.204	0.087
-454.997	-200.000	0.012	0.056
-453.982	-56.047	-0.330	-0.149
-452.968	-155.370	-0.222	0.015
-451.953	-85.245	0.108	-0.034
-450.938	-200.000	0.053	0.266
-449.924	-66.647	0.418	0.167
-448.909	-134.911	0.114	0.014
-447.895	-200.000	-0.024	0.109
-446.880	-200.000	0.042	0.206
-445.865	800.000	0.050	0.195
-444.851	-72.743	0.364	-0.136
-443.836	-200.000	-0.038	-0.175
-442.822	-99.946	0.249	-0.063
-441.807	146.753	0.087	0.118
-440.792	-71.505	0.230	-0.087
-439.778	1.596	0.167	-0.121
-438.763	237.461	-0.119	0.199
-437.749	87.260	0.145	0.162
-436.734	93.635	0.185	-0.212
-435.719	399.418	-0.089	0.189
-434.705	-15.046	0.327	0.211
-433.690	163.233	-0.139	-0.197
-432.676	-87.671	-0.257	0.078
-431.661	-46.544	-0.200	-0.099
-430.646	157.246	-0.133	0.186
-429.632	203.451	0.172	0.269
-428.617	-138.835	0.204	0.022
-427.603	326.910	0.078	-0.152
-426.588	-109.785	0.336	0.071
-425.573	394.130	0.057	0.120
-424.559	-102.392	-0.026	0.006
-423.544	70.206	0.044	0.046
-422.530	-200.000	0.037	0.165
-421.515	61.391	-0.114	-0.115
-420.500	293.871	0.171	-0.315
-419.486	424.299	-0.231	-0.501
-418.471	-73.488	-0.105	0.039
-417.457	-37.883	0.405	0.217
-416.442	-69.318	0.189	-0.073
-415.428	800.000	0.098	0.295
-414.413	298.755	-0.043	-0.080
-413.398	372.537	0.040	-0.081
-412.384	355.426	-0.082	0.164
-411.369	761.228	0.034	-0.092
-410.355	154.505	-0.191	-0.265
-409.340	140.248	-0.041	0.054
-408.325	103.263	-0.017	0.021
-407.311	-112.670	0.409	-0.082
-406.296	46.848	0.086	-0.081
-405.282	800.000	-0.045	-0.132
-404.267	-73.156	0.300	0.111
-403.252	800.000	0.068	0.232
-402.238	93.570	0.209	0.239
-401.223	-200.000	-0.004	-0.167
-400.209	405.656	0.089	0.188
-399.194	15.363	0.275	-0.218
-398.179	800.000	0.073	-0.320
-397.165	0.660	0.264	0.190
-396.150	-118.956	-0.156	0.028
-395.136	20.926	0.104	-0.085
-394.121	142.573	0.033	0.044
-393.106	25.603	0.161	0.135
-392.092	690.475	-0.027	0.071
-391.077	101.438	-0.126	0.147
-390.063	-14.202	0.270	-0.176
-389.048	-25.012	0.093	-0.056
-388.033	130.112	0.042	-0.054
-387.019	-200.000	-0.008	-0.107
-386.004	-76.781	0.232	0.082
-384.990	-144.345	-0.450	-0.042
-383.975	-200.000	0.044	0.250
-382.960	87.425	-0.091	0.102
-381.946	800.000	0.071	0.203
-380.931	-200.000	0.006	0.379
-379.917	-200.000	-0.013	0.088
-378.902	90.722	0.116	0.131
-377.888	36.444	0.367	-0.326
-376.873	10.576	0.223	-0.172
-375.858	159.797	-0.129	-0.180
-374.844	214.794	0.167	-0.267
-373.829	350.699	0.076	-0.152
-372.815	800.000	0.061	0.232
-371.800	-200.000	-0.010	-0.155
-370.785	-200.000	-0.030	-0.279
-369.771	381.725	0.054	-0.112
-368.756	-169.186	0.312	0.012
-367.742	-200.000	-0.392	-0.002
-366.727	-200.000	0.010	0.206
-365.712	-200.000	0.008	0.055
-364.698	-200.000	0.041	-0.190
-363.683	186.728	-0.066	-0.099
-362.669	-200.000	0.052	0.246
-361.654	-200.000	-0.026	0.178
-360.639	38.277	0.197	-0.177
-359.625	-49.835	0.226	0.108
-358.610	180.610	0.120	0.178
-357.596	-77.463	-0.299	-0.104
-356.581	800.000	-0.133	0.502
-355.566	-56.688	0.127	-0.057
-354.552	186.724	0.110	-0.165
-353.537	-8.572	-0.106	0.071
-352.523	-144.061	-0.251	0.024
-351.508	236.863	0.131	0.218
-350.493	100.083	0.067	-0.078
-349.479	-113.104	-0.160	0.032
-348.464	-34.765	-0.126	0.069
-347.450	121.457	-0.088	-0.110
-346.435	180.850	0.289	-0.428
-345.420	550.112	-0.120	0.289
-344.406	800.000	-0.064	0.210
-343.391	60.894	-0.178	-0.178
-342.377	800.000	-0.045	0.165
-341.362	-36.789	-0.144	-0.078
-340.348	142.681	0.096	-0.128
-339.333	-29.484	-0.426	0.245
-338.318	800.000	-0.047	0.144
-337.304	16.929	-0.160	0.128
-336.289	800.000	-0.016	0.056
-335.275	-91.461	-0.039	0.011
-334.260	-139.215	0.166	0.018
-333.245	800.000	-0.084	-0.269
-332.231	-158.226	-0.302	-0.018
-331.216	-60.623	0.197	-0.084
-330.202	-76.594	0.099	-0.035
-329.187	-200.000	0.008	-0.187
-328.172	800.000	0.133	-0.390
-327.158	412.647	0.043	0.092
-326.143	51.746	0.261	0.249
-325.129	131.822	-0.223	-0.288
-324.114	-200.000	0.021	0.222
-323.099	-154.256	-0.280	-0.019
-322.085	-35.295	-0.359	-0.196
-321.070	-7.846	-0.200	-0.136
-320.056	-99.846	0.347	0.087
-319.041	-129.888	-0.154	-0.021
-318.026	-200.000	-0.007	0.252
-317.012	-200.000	-0.018	-0.118
-315.997	-83.619	-0.080	-0.026
-314.983	-101.241	-0.178	-0.044
-313.968	517.730	-0.105	0.248
-312.953	167.053	-0.139	-0.198
-311.939	103.377	-0.171	-0.202
-310.924	-54.783	0.169	-0.077
-309.910	-60.560	0.031	-0.013
-308.895	264.379	-0.054	0.095
-307.880	66.800	0.186	0.190
-306.866	331.599	-0.045	0.088
-305.851	-135.253	-0.321	0.039
-304.837	-13.664	-0.188	0.122
-303.822	-9.184	0.091	-0.061
-302.807	18.519	0.055	0.044
-301.793	-55.528	0.230	-0.104
-300.778	172.399	0.075	0.109
-299.764	-200.000	-0.036	-0.295
-298.749	194.730	0.054	0.082
-297.735	-148.652	-0.144	-0.012
-296.720	-29.927	0.485	-0.278
-295.705	-48.698	-0.129	0.062
-294.691	604.543	-0.209	0.521
-293.676	261.012	-0.051	-0.088
-292.662	479.167	-0.129	0.293
-291.647	-12.151	-0.180	-0.118
-290.632	0.425	0.013	0.010
-289.618	556.091	0.032	-0.077
-288.603	249.187	-0.281	0.478
-287.589	353.468	-0.225	0.449
-286.574	133.332	0.139	0.180
-285.559	-200.000	0.054	-0.291
-284.545	-200.000	-0.023	-0.134
-283.530	-62.358	-0.265	-0.111
-282.516	-107.194	-0.142	-0.031
-281.501	613.941	0.047	-0.119
-280.486	-107.561	-0.066	-0.015
-279.472	-200.000	0.019	-0.242
-278.457	53.588	-0.106	-0.102
-277.443	210.155	0.125	-0.198
-276.428	-111.711	0.267	0.054
-275.413	-200.000	0.002	-0.201
-274.399	46.146	0.303	-0.282
-273.384	8.939	-0.263	-0.199
-272.370	11.147	-0.143	0.110
-271.355	-21.505	0.109	0.067
-270.340	-34.576	-0.108	-0.059
-269.326	64.852	-0.101	0.103
-268.311	12.487	0.429	0.332
-267.297	49.528	-0.076	0.071
-266.282	800.000	-0.022	0.060
-265.267	-200.000	0.027	0.253
-264.253	23.578	0.150	-0.124
-263.238	-28.228	0.248	-0.144
-262.224	800.000	0.049	-0.166
-261.209	800.000	-0.011	-0.041
-260.195	-30.633	-0.162	-0.092
-259.180	13.410	-0.071	-0.055
-258.165	119.746	-0.260	-0.323
-257.151	800.000	-0.021	0.078
-256.136	124.056	0.251	0.316
-255.122	-52.343	-0.268	0.124
-254.107	341.055	0.203	-0.397
-253.092	-91.539	-0.063	-0.018
-252.078	-48.622	0.293	0.141
-251.063	131.989	0.242	0.313
-250.049	61.494	0.221	-0.221
-249.034	705.214	0.098	-0.258
-248.019	-44.285	-0.106	0.053
-247.005	105.600	0.232	0.274
-245.990	19.907	-0.040	-0.033
-244.976	-59.427	0.173	-0.074
-243.961	800.000	0.056	-0.235
-242.946	562.471	0.127	-0.307
-241.932	-26.432	0.427	0.251
-240.917	-200.000	-0.009	0.046
-239.903	-200.000	0.036	-0.339
-238.888	-70.600	-0.179	-0.068
-237.873	394.995	-0.110	0.230
-236.859	103.018	0.108	0.127
-235.844	342.222	-0.081	0.160
-234.830	800.000	0.032	-0.119
-233.815	-200.000	0.007	0.096
-232.800	209.745	0.159	0.250
-231.786	-80.571	-0.108	-0.036
-230.771	437.066	-0.143	-0.312
-229.757	180.098	-0.069	-0.101
-228.742	-78.917	0.085	-0.029
-227.727	53.669	0.248	0.239
-226.713	23.731	-0.323	0.266
-225.698	-200.000	0.028	-0.141
-224.684	-0.044	0.101	0.072
-223.669	800.000	-0.024	-0.092
-222.655	1.459	-0.109	-0.079
-221.640	449.164	0.106	0.234
-220.625	-50.474	0.070	-0.033
-219.611	-200.000	0.022	-0.193
-218.596	76.784	-0.101	-0.107
-217.582	-86.404	-0.192	0.059
-216.567	-113.796	0.271	-0.053
-215.552	-200.000	-0.014	-0.098
-214.538	-6.218	0.133	-0.091
-213.523	-132.429	-0.393	-0.051
-212.509	-2.425	0.180	0.126
-211.494	-200.000	-0.020	0.208
-210.479	288.420	0.047	-0.085
-209.465	152.329	-0.171	-0.233
-208.450	-200.000	-0.007	0.249
-207.436	-99.554	0.103	0.026
-206.421	-61.322	0.335	-0.141
-205.406	-77.946	-0.508	-0.175
-204.392	52.827	0.033	-0.032
-203.377	-81.980	0.317	-0.104
-202.363	-62.447	-0.259	-0.108
-201.348	-108.315	0.255	-0.055
-200.333	-57.583	-0.136	0.060
-199.319	-200.000	-0.020	0.099
-198.304	126.107	0.289	0.366
-197.290	-45.600	-0.173	-0.085
-196.275	-127.228	-0.116	-0.017
-195.260	-9.791	-0.084	0.056
-194.246	-118.174	0.124	0.022
-193.231	800.000	0.080	0.327
-192.217	-200.000	0.001	0.182
-191.202	-200.000	0.000	-0.156
-190.187	108.914	-0.034	0.040
-189.173	-12.303	-0.155	0.101
-188.158	-126.378	0.141	-0.021
-187.144	-156.643	0.331	-0.020
-186.129	-200.000	-0.007	-0.108
-185.114	376.963	0.077	0.157
-184.100	182.194	0.114	-0.169
-183.085	54.321	-0.427	0.411
-182.071	302.358	0.035	-0.065
-181.056	120.587	0.040	-0.049
-180.042	-41.084	-0.128	-0.066
-179.027	-200.000	-0.017	-0.096
-178.012	377.252	-0.097	0.198
-176.998	-200.000	0.016	0.217
-175.983	173.832	0.166	-0.239
-174.969	-28.619	0.196	-0.113
-173.954	-134.892	0.333	-0.040
-172.939	-115.502	-0.366	0.069
-171.925	-200.000	-0.010	0.087
-170.910	214.873	-0.060	0.094
-169.896	-57.095	-0.073	0.032
-168.881	697.632	0.038	0.101
-167.866	592.810	0.104	0.257
-166.852	6.181	0.269	0.199
-165.837	151.894	-0.205	0.280
-164.823	4.645	-0.203	0.149
-163.808	643.323	-0.057	0.145
-162.793	175.145	0.183	-0.264
-161.779	373.401	0.217	0.441
-160.764	109.837	-0.170	0.203
-159.750	800.000	-0.097	0.397
-158.735	-102.172	-0.376	0.090
-157.720	-200.000	-0.009	-0.042
-156.706	300.799	0.061	0.112
-155.691	64.291	-0.251	-0.252
-154.677	-22.606	0.109	0.066
-153.662	-200.000	0.016	0.086
-152.647	38.304	-0.061	-0.054
-151.633	93.800	-0.119	0.135
-150.618	105.437	-0.031	0.036
-149.604	-125.553	-0.224	-0.034
-148.589	244.613	0.100	-0.168
-147.574	-132.590	0.197	-0.025
-146.560	-151.253	-0.348	0.026
-145.545	-200.000	0.045	-0.235
-144.531	-87.819	0.250	-0.075
-143.516	196.610	-0.128	0.195
-142.502	48.947	0.135	-0.127
-141.487	-192.503	-0.200	0.002
-140.472	-106.391	-0.251	0.056
-139.458	551.203	0.068	-0.162
-138.443	-83.660	0.300	-0.096
-137.429	412.150	0.102	-0.216
-136.414	-69.761	0.393	-0.150
-135.399	-60.275	0.251	0.107
-134.385	600.191	0.035	0.087
-133.370	-57.860	-0.144	0.063
-132.356	-200.000	0.035	-0.234
-131.341	-95.637	-0.200	0.053
-130.326	142.820	-0.192	0.254
-129.312	38.972	0.328	0.292
-128.297	800.000	-0.051	0.177
-127.283	-10.040	-0.234	0.155
-126.268	157.057	0.142	0.195
-125.253	-17.537	-0.159	0.099
-124.239	-66.982	-0.159	0.063
-123.224	-67.667	-0.065	-0.025
-122.210	2.098	0.180	0.130
