DTS Sentinel unit serial number:	SN413079Multiplexer serial number:	ORYXHardware model number:	OX4-SRSoftware version number:	ORYX F/W v4.00 Oryx Data Collector v3.7.2.0data status	okinstallation	princeton_trtdifferential loss correction	single-endedforward channel	channel 3reverse channel	N/Adate	2019/09/13time	05:52:34forward acquisition time	60.00reverse acquisition time	0.00gamma	496.2192k internal	0.2338k external	0.2338temperature offset calibration	1.0134default loss term (dB/km)	0.3790temperature slope calibration	1.0000multiplexer offset coefficient	1.0000multiplexer slope coefficient	1.0000fibre end	0.00T internal ref (°C)	26.17T ext. ref 1 (°C)	4.07T ext. ref 2 (°C)	20.94length (m)	temperature (°C)	Stokes	anti-Stokes-747.200	-200.000	0.036	-0.421
-746.185	-72.072	-0.195	-0.073
-745.171	187.532	0.209	0.312
-744.156	203.288	-0.360	0.558
-743.142	-200.000	-0.011	-0.283
-742.127	800.000	-0.094	0.370
-741.112	-45.325	0.498	0.248
-740.098	313.878	-0.017	-0.031
-739.083	-130.075	-0.110	0.015
-738.069	-82.577	-0.162	-0.053
-737.054	268.812	0.182	-0.321
-736.039	140.960	-0.245	-0.325
-735.025	662.056	-0.052	0.134
-734.010	-181.478	-0.032	-0.001
-732.996	558.513	-0.054	0.131
-731.981	-165.361	-0.336	0.015
-730.966	-116.165	-0.445	-0.083
-729.952	180.955	0.136	0.200
-728.937	94.893	0.042	0.048
-727.923	-200.000	-0.044	0.219
-726.908	178.465	-0.062	0.091
-725.894	33.578	0.162	-0.141
-724.879	81.373	-0.286	0.309
-723.864	-116.277	-0.174	0.032
-722.850	800.000	-0.066	-0.206
-721.835	75.801	-0.197	-0.208
-720.821	71.410	0.209	-0.218
-719.806	-76.056	-0.218	0.077
-718.791	-200.000	0.015	-0.085
-717.777	-200.000	0.016	0.351
-716.762	8.869	0.061	0.046
-715.748	560.877	-0.019	0.047
-714.733	-200.000	0.081	-0.491
-713.718	17.770	-0.188	-0.150
-712.704	-200.000	-0.003	0.030
-711.689	-12.594	0.015	0.010
-710.675	-155.724	0.377	-0.024
-709.660	-110.765	0.395	0.082
-708.645	127.694	0.070	0.089
-707.631	-200.000	-0.009	-0.050
-706.616	18.628	-0.186	0.149
-705.602	-11.583	-0.324	-0.213
-704.587	-200.000	0.013	-0.388
-703.572	-200.000	0.006	0.068
-702.558	-52.994	0.130	0.060
-701.543	-200.000	0.025	0.134
-700.529	513.055	-0.056	0.132
-699.514	17.149	-0.274	-0.218
-698.499	69.244	0.136	0.140
-697.485	-200.000	-0.012	0.080
-696.470	-200.000	0.037	0.233
-695.456	-105.258	0.233	-0.053
-694.441	-6.707	0.173	-0.118
-693.426	118.897	-0.043	0.054
-692.412	214.873	-0.071	0.112
-691.397	123.980	0.050	0.062
-690.383	-65.422	-0.294	0.118
-689.368	800.000	-0.078	0.295
-688.354	-69.785	-0.298	-0.114
-687.339	-144.129	-0.337	-0.032
-686.324	24.717	0.193	-0.160
-685.310	-59.569	0.201	0.086
-684.295	-101.968	0.385	0.093
-683.281	116.287	-0.164	-0.201
-682.266	697.952	0.072	-0.190
-681.251	63.240	-0.067	0.067
-680.237	14.201	0.193	-0.151
-679.222	76.071	0.159	0.168
-678.208	-200.000	0.034	0.279
-677.193	56.998	-0.145	-0.142
-676.178	33.074	0.190	-0.165
-675.164	28.197	-0.116	0.098
-674.149	196.230	-0.144	0.220
-673.135	-192.914	-0.201	-0.002
-672.120	19.877	-0.255	0.206
-671.105	-165.900	0.352	0.015
-670.091	800.000	-0.091	-0.317
-669.076	-200.000	0.023	-0.156
-668.062	-79.871	-0.129	-0.043
-667.047	-200.000	0.081	0.398
-666.032	-200.000	0.004	0.035
-665.018	800.000	0.047	-0.173
-664.003	-29.925	0.077	0.044
-662.989	-70.965	0.078	0.029
-661.974	339.691	-0.097	0.190
-660.959	733.981	-0.115	0.309
-659.945	-85.909	0.103	-0.032
-658.930	542.493	0.087	0.207
-657.916	53.905	-0.078	-0.075
-656.901	88.209	0.037	-0.041
-655.886	762.065	-0.094	0.256
-654.872	448.738	-0.089	-0.197
-653.857	21.610	0.020	0.016
-652.843	124.658	0.183	-0.230
-651.828	131.434	0.112	0.144
-650.814	-54.833	-0.302	-0.136
-649.799	575.084	-0.121	0.294
-648.784	94.441	0.124	-0.141
-647.770	800.000	-0.077	-0.328
-646.755	178.441	-0.103	0.151
-645.741	189.774	-0.097	-0.145
-644.726	-38.031	-0.129	0.068
-643.711	-200.000	0.018	0.214
-642.697	-200.000	-0.008	-0.252
-641.682	86.932	0.041	0.045
-640.668	-148.446	0.096	0.008
-639.653	-46.420	0.195	0.096
-638.638	800.000	-0.043	0.186
-637.624	-200.000	0.017	-0.306
-636.609	-200.000	-0.065	-0.396
-635.595	800.000	-0.070	-0.211
-634.580	800.000	-0.035	0.135
-633.565	-66.056	-0.205	-0.082
-632.551	-27.431	-0.154	-0.089
-631.536	-147.984	0.535	0.044
-630.522	113.705	-0.050	0.060
-629.507	37.326	0.075	-0.066
-628.492	-81.689	0.246	-0.081
-627.478	-17.822	-0.162	-0.101
-626.463	32.318	-0.154	0.133
-625.449	77.168	0.142	0.150
-624.434	-99.498	-0.148	0.037
-623.419	725.585	-0.087	-0.233
-622.405	-152.858	-0.151	-0.011
-621.390	-111.822	-0.109	0.022
-620.376	-200.000	0.006	0.067
-619.361	800.000	-0.069	0.196
-618.346	-200.000	0.008	0.090
-617.332	-55.177	0.129	-0.058
-616.317	-163.322	-0.231	-0.011
-615.303	7.923	0.149	0.111
-614.288	186.967	0.091	0.136
-613.273	-38.225	-0.512	0.271
-612.259	800.000	-0.043	0.121
-611.244	-63.200	0.234	0.096
-610.230	-85.079	0.303	0.095
-609.215	-121.360	-0.169	0.028
-608.201	800.000	0.126	0.409
-607.186	-96.371	0.248	0.066
-606.171	-18.506	0.126	-0.078
-605.157	151.146	-0.113	-0.153
-604.142	728.858	0.036	0.095
-603.128	110.285	0.135	0.162
-602.113	2.474	-0.064	0.047
-601.098	487.304	-0.043	-0.097
-600.084	20.780	0.239	-0.193
-599.069	37.140	0.067	-0.059
-598.055	286.121	-0.107	0.193
-597.040	-24.741	0.133	0.079
-596.025	624.020	0.115	-0.288
-595.011	-34.068	-0.309	-0.169
-593.996	-14.295	0.125	-0.080
-592.982	-3.185	0.107	0.074
-591.967	67.940	-0.298	0.304
-590.952	754.601	0.054	0.144
-589.938	119.704	0.145	-0.179
-588.923	481.781	-0.132	-0.299
-587.909	-88.735	-0.302	0.090
-586.894	-200.000	0.001	0.296
-585.879	-178.864	-0.375	-0.008
-584.865	-105.695	0.192	-0.043
-583.850	800.000	0.083	0.244
-582.836	-79.745	0.376	-0.126
-581.821	-200.000	0.069	-0.418
-580.806	-98.381	0.268	0.068
-579.792	-200.000	0.000	0.035
-578.777	34.764	-0.028	-0.025
-577.763	227.067	-0.139	0.225
-576.748	800.000	0.057	-0.191
-575.733	172.764	-0.108	0.155
-574.719	13.193	0.160	-0.123
-573.704	537.030	0.087	0.206
-572.690	40.601	0.126	-0.113
-571.675	-87.994	0.111	-0.033
-570.661	34.808	-0.310	0.270
-569.646	14.704	-0.086	-0.067
-568.631	69.011	0.088	-0.090
-567.617	428.267	-0.209	-0.451
-566.602	-200.000	0.023	0.207
-565.588	148.799	-0.010	0.014
-564.573	800.000	-0.068	0.235
-563.558	-200.000	-0.028	0.129
-562.544	99.147	-0.203	-0.233
-561.529	302.663	0.051	-0.094
-560.515	-74.335	-0.314	-0.113
-559.500	-200.000	-0.003	-0.187
-558.485	-142.505	0.239	0.023
-557.471	4.396	-0.198	-0.145
-556.456	-1.262	0.198	-0.139
-555.442	362.183	0.170	-0.340
-554.427	267.525	-0.036	-0.063
-553.412	246.241	-0.057	0.095
-552.398	800.000	0.062	-0.173
-551.383	-60.729	-0.123	-0.052
-550.369	-41.092	0.211	-0.109
-549.354	-11.252	-0.148	-0.097
-548.339	-119.774	-0.132	-0.023
-547.325	-200.000	0.026	-0.340
-546.310	252.977	-0.017	0.029
-545.296	293.155	0.095	-0.173
-544.281	-75.185	-0.455	-0.162
-543.266	-68.454	-0.227	-0.088
-542.252	-52.308	0.125	0.058
-541.237	50.785	-0.083	-0.078
-540.223	294.486	-0.039	-0.071
-539.208	-140.991	-0.256	-0.026
-538.193	-84.968	-0.199	-0.062
-537.179	800.000	-0.053	-0.194
-536.164	-25.080	-0.278	0.164
-535.150	97.010	-0.217	-0.248
-534.135	24.886	-0.313	-0.258
-533.121	-113.120	-0.170	0.033
-532.106	257.412	0.127	-0.217
-531.091	-200.000	0.046	0.224
-530.077	-175.816	-0.235	-0.006
-529.062	-17.487	-0.073	0.046
-528.048	-25.369	0.042	0.025
-527.033	-4.136	-0.020	-0.014
-526.018	-200.000	0.046	0.401
-525.004	-200.000	-0.002	-0.262
-523.989	-60.084	-0.291	0.123
-522.975	-53.215	-0.218	-0.100
-521.960	-200.000	0.002	-0.050
-520.945	306.600	0.097	0.180
-519.931	90.582	0.350	-0.389
-518.916	88.887	-0.190	-0.211
-517.902	-200.000	-0.009	0.138
-516.887	-200.000	-0.057	-0.251
-515.872	-200.000	0.022	-0.362
-514.858	-161.875	-0.239	-0.012
-513.843	73.968	0.210	-0.220
-512.829	800.000	0.081	-0.352
-511.814	714.223	0.110	-0.290
-510.799	18.179	0.249	0.198
-509.785	-60.069	0.135	0.057
-508.770	73.262	-0.066	-0.069
-507.756	586.938	0.015	0.038
-506.741	-200.000	-0.048	-0.407
-505.726	-33.367	0.216	-0.119
-504.712	-200.000	-0.055	0.438
-503.697	-110.309	-0.262	0.054
-502.683	229.826	0.230	0.373
-501.668	-200.000	0.058	0.413
-500.653	-61.942	-0.111	0.046
-499.639	-78.211	-0.075	0.026
-498.624	-200.000	-0.027	-0.198
-497.610	-200.000	-0.002	-0.223
-496.595	-200.000	0.006	-0.178
-495.581	-94.920	-0.251	0.067
-494.566	451.376	0.088	-0.192
-493.551	-200.000	-0.031	0.142
-492.537	146.297	0.051	-0.067
-491.522	-116.008	0.253	0.047
-490.508	-82.760	-0.237	0.076
-489.493	800.000	-0.045	-0.132
-488.478	-87.562	-0.115	-0.034
-487.464	111.411	0.083	-0.099
-486.449	-141.321	0.182	0.018
-485.435	-112.334	-0.026	0.005
-484.420	-126.400	-0.179	0.027
-483.405	-47.870	-0.226	-0.109
-482.391	338.180	-0.083	0.161
-481.376	-20.929	0.056	-0.034
-480.362	93.636	-0.144	-0.162
-479.347	-160.376	0.173	-0.009
-478.332	190.010	0.109	-0.163
-477.318	208.863	-0.287	-0.447
-476.303	178.893	0.182	0.264
-475.289	-200.000	0.026	-0.171
-474.274	-200.000	0.066	0.290
-473.259	355.777	0.189	0.373
-472.245	-200.000	-0.025	-0.236
-471.230	569.641	0.065	-0.156
-470.216	-200.000	0.009	-0.140
-469.201	-153.384	-0.154	0.011
-468.186	60.951	-0.113	0.111
-467.172	800.000	0.046	-0.135
-466.157	-31.272	-0.049	-0.027
-465.143	-200.000	0.036	-0.337
-464.128	144.531	0.181	0.240
-463.113	53.933	-0.226	-0.216
-462.099	-102.758	-0.291	-0.069
-461.084	456.235	0.068	0.150
-460.070	317.365	-0.047	-0.089
-459.055	-200.000	0.017	-0.177
-458.040	5.531	-0.210	-0.154
-457.026	69.606	0.139	0.142
-456.011	128.074	0.030	-0.038
-454.997	223.518	0.112	0.179
-453.982	252.713	0.095	0.161
-452.968	-39.860	0.166	0.086
-451.953	-76.026	0.134	0.047
-450.938	27.354	-0.140	-0.116
-449.924	80.668	0.174	0.187
-448.909	67.462	0.091	0.093
-447.895	-46.010	-0.147	-0.072
-446.880	560.720	-0.068	0.164
-445.865	321.834	-0.066	-0.125
-444.851	-200.000	-0.002	0.063
-443.836	274.103	0.006	0.011
-442.822	-200.000	0.011	-0.074
-441.807	800.000	-0.022	0.071
-440.792	-17.069	-0.081	0.051
-439.778	-81.953	-0.305	-0.099
-438.763	-29.638	0.238	0.135
-437.749	85.325	0.159	-0.173
-436.734	-200.000	-0.045	-0.258
-435.719	365.949	0.002	-0.004
-434.705	800.000	-0.094	0.290
-433.690	41.105	0.134	0.120
-432.676	363.327	0.123	-0.245
-431.661	678.235	0.028	0.072
-430.646	67.707	-0.151	0.153
-429.632	214.634	-0.175	0.275
-428.617	800.000	-0.123	-0.373
-427.603	-183.980	0.162	-0.003
-426.588	-200.000	-0.044	0.433
-425.573	-65.631	0.057	-0.023
-424.559	-200.000	-0.038	0.184
-423.544	103.340	-0.053	0.061
-422.530	-89.173	-0.024	-0.007
-421.515	800.000	-0.051	-0.145
-420.500	-45.660	-0.293	-0.144
-419.486	-200.000	-0.001	-0.194
-418.471	-162.541	0.151	0.007
-417.457	-200.000	-0.008	0.142
-416.442	800.000	-0.055	0.215
-415.428	69.403	-0.052	-0.053
-414.413	-114.911	-0.351	0.066
-413.398	16.586	0.233	0.183
-412.384	564.372	-0.099	-0.237
-411.369	-200.000	-0.003	0.077
-410.355	-200.000	-0.000	-0.276
-409.340	-80.477	0.568	0.188
-408.325	800.000	-0.045	0.172
-407.311	-35.239	0.282	0.152
-406.296	508.583	-0.052	0.120
-405.282	-77.824	-0.263	0.090
-404.267	162.244	0.223	-0.309
-403.252	-21.350	0.343	0.207
-402.238	-79.718	0.042	0.014
-401.223	-200.000	-0.000	0.074
-400.209	121.161	-0.198	-0.244
-399.194	-60.847	0.134	0.056
-398.179	92.185	-0.175	-0.195
-397.165	-200.000	-0.029	0.383
-396.150	34.491	-0.169	-0.146
-395.136	-124.019	-0.420	-0.065
-394.121	390.323	-0.052	-0.107
-393.106	-42.205	-0.078	-0.039
-392.092	-200.000	-0.022	-0.104
-391.077	-25.396	-0.141	-0.083
-390.063	-48.935	0.200	-0.095
-389.048	-37.637	0.174	0.092
-388.033	-30.624	0.105	0.059
-387.019	-83.573	-0.047	0.015
-386.004	-146.559	0.189	0.016
-384.990	207.891	0.108	0.167
-383.975	-69.611	-0.183	-0.069
-382.960	467.110	0.096	-0.212
-381.946	73.468	-0.108	0.112
-380.931	108.306	-0.193	0.228
-379.917	-200.000	0.017	-0.180
-378.902	214.096	-0.130	-0.204
-377.888	143.194	-0.048	0.064
-376.873	288.092	0.160	-0.287
-375.858	612.768	-0.170	0.420
-374.844	-200.000	-0.035	-0.256
-373.829	-121.931	-0.320	0.052
-372.815	-200.000	-0.022	0.146
-371.800	-62.871	-0.195	0.080
-370.785	118.332	0.068	0.083
-369.771	633.570	-0.146	-0.367
-368.756	-164.943	0.248	0.011
-367.742	-119.018	-0.226	-0.039
-366.727	-200.000	0.000	0.118
-365.712	182.645	-0.044	-0.065
-364.698	572.371	0.122	0.293
-363.683	109.957	0.116	-0.137
-362.669	143.601	0.174	-0.229
-361.654	230.251	0.081	-0.131
-360.639	193.929	0.166	0.249
-359.625	-11.692	0.121	0.078
-358.610	272.330	-0.066	0.115
-357.596	505.058	-0.008	-0.018
-356.581	-5.471	0.104	-0.071
-355.566	6.762	-0.190	0.139
-354.552	38.099	-0.226	-0.199
-353.537	-200.000	0.003	-0.143
-352.523	-200.000	-0.033	0.154
-351.508	-11.671	-0.170	-0.110
-350.493	-200.000	0.003	-0.136
-349.479	-120.843	-0.323	0.054
-348.464	-200.000	-0.007	0.221
-347.450	-167.703	-0.077	-0.003
-346.435	-146.615	-0.036	0.003
-345.420	85.240	0.130	0.141
-344.406	-81.797	-0.295	0.096
-343.391	-10.136	0.291	0.191
-342.377	525.363	0.077	-0.179
-341.362	146.000	0.041	0.054
-340.348	-86.864	-0.194	-0.058
-339.333	-200.000	-0.017	0.325
-338.318	-136.513	0.233	0.027
-337.304	608.648	0.149	-0.368
-336.289	-27.350	-0.126	0.073
-335.275	-200.000	-0.001	0.051
-334.260	800.000	0.081	0.286
-333.245	3.040	-0.095	0.068
-332.231	-21.127	0.306	0.185
-331.216	-75.653	-0.382	-0.134
-330.202	244.224	0.133	-0.221
-329.187	135.695	-0.091	0.117
-328.172	800.000	-0.090	0.247
-327.158	-86.795	-0.113	-0.034
-326.143	-200.000	0.002	-0.031
-325.129	230.659	0.230	0.372
-324.114	110.167	0.143	-0.170
-323.099	-102.919	-0.256	-0.060
-322.085	800.000	0.095	0.312
-321.070	-200.000	0.003	0.101
-320.056	728.915	0.045	0.118
-319.041	536.280	0.047	0.110
-318.026	-51.708	0.166	0.076
-317.012	-135.736	-0.292	-0.034
-315.997	-168.608	-0.086	0.003
-314.983	30.002	0.223	-0.188
-313.968	-130.879	0.294	-0.039
-312.953	-80.134	0.138	0.046
-311.939	-89.959	-0.406	-0.117
-310.924	-200.000	-0.064	-0.330
-309.910	-80.012	0.149	-0.049
-308.895	85.479	0.176	0.190
-307.880	20.050	0.140	-0.112
-306.866	-26.607	-0.198	-0.114
-305.851	-131.493	-0.118	-0.015
-304.837	760.552	0.060	-0.159
-303.822	-200.000	0.039	-0.208
-302.807	227.617	-0.246	0.395
-301.793	-185.755	-0.198	0.003
-300.778	142.382	0.112	0.146
-299.764	-27.363	-0.396	0.227
-298.749	178.385	-0.037	0.053
-297.735	68.294	0.121	0.123
-296.720	-200.000	0.056	0.319
-295.705	800.000	-0.029	-0.093
-294.691	31.113	-0.242	0.205
-293.676	-101.253	0.192	0.046
-292.662	159.470	-0.129	-0.178
-291.647	9.891	0.216	-0.162
-290.632	-102.552	0.272	0.064
-289.618	-25.634	-0.155	0.090
-288.603	-132.747	0.239	0.030
-287.589	112.590	0.083	0.099
-286.574	96.263	0.042	-0.047
-285.559	-97.256	0.117	-0.030
-284.545	-200.000	0.001	0.264
-283.530	-9.352	0.148	-0.097
-282.516	-200.000	-0.051	0.265
-281.501	544.820	0.040	-0.094
-280.486	800.000	-0.014	-0.049
-279.472	-108.061	0.259	-0.055
-278.457	58.861	0.108	-0.104
-277.443	95.087	-0.261	0.293
-276.428	247.031	-0.149	0.247
-275.413	91.428	-0.115	-0.128
-274.399	338.360	0.082	-0.158
-273.384	133.976	0.233	0.297
-272.370	-21.596	-0.069	-0.042
-271.355	-63.634	-0.353	0.143
-270.340	-96.700	-0.218	-0.056
-269.326	67.096	-0.074	-0.074
-268.311	-150.036	-0.246	-0.019
-267.297	123.517	0.119	-0.147
-266.282	723.051	0.067	-0.175
-265.267	-102.592	0.299	0.070
-264.253	-200.000	0.041	0.449
-263.238	-14.747	-0.286	-0.181
-262.224	-169.974	0.121	0.004
-261.209	-61.048	0.075	0.031
-260.195	168.351	0.202	0.284
-259.180	-126.010	0.107	0.016
-258.165	177.787	0.233	-0.335
-257.151	509.685	-0.081	0.186
-256.136	-62.045	0.050	0.020
-255.122	274.466	0.052	0.090
-254.107	-50.471	0.043	-0.020
-253.092	21.518	0.145	0.116
-252.078	5.330	0.220	0.160
-251.063	-91.037	-0.324	-0.092
-250.049	-200.000	0.026	0.152
-249.034	-8.688	0.160	-0.106
-248.019	159.617	-0.169	-0.231
-247.005	-22.059	-0.260	-0.155
-245.990	-200.000	-0.009	0.347
-244.976	-83.418	-0.098	-0.031
-243.961	616.786	0.122	0.301
-242.946	659.372	-0.050	0.128
-241.932	-109.759	-0.209	0.043
-240.917	-21.931	0.213	-0.128
-239.903	365.066	-0.030	0.060
-238.888	136.022	-0.136	-0.174
-237.873	800.000	0.055	-0.183
-236.859	262.098	0.073	0.125
-235.844	-200.000	0.002	-0.187
-234.830	246.453	0.196	-0.325
-233.815	-70.201	0.405	-0.151
-232.800	-200.000	-0.007	-0.056
-231.786	-17.422	0.206	0.128
-230.771	96.482	0.273	0.308
-229.757	-200.000	-0.028	0.195
-228.742	-56.786	0.101	-0.044
-227.727	-101.464	0.168	-0.040
-226.713	20.948	-0.186	-0.148
-225.698	-1.014	0.282	0.196
-224.684	211.200	0.115	0.178
-223.669	10.888	0.124	-0.093
-222.655	-200.000	-0.033	0.159
-221.640	-200.000	0.024	0.199
-220.625	68.589	0.039	0.039
-219.611	134.021	-0.131	0.167
-218.596	800.000	0.033	0.138
-217.582	-19.264	0.032	-0.019
-216.567	-10.998	0.232	-0.151
-215.552	-200.000	0.007	0.262
-214.538	237.502	-0.121	-0.197
-213.523	-200.000	-0.017	-0.106
-212.509	-147.569	-0.174	-0.014
-211.494	-47.268	0.023	0.011
-210.479	-200.000	-0.051	0.224
-209.465	-69.682	-0.119	-0.045
-208.450	-200.000	-0.039	0.195
-207.436	5.580	-0.028	0.020
-206.421	-176.585	0.069	0.002
-205.406	16.622	-0.219	-0.170
-204.392	-127.853	0.446	-0.063
-203.377	560.746	-0.018	-0.043
-202.363	-124.762	-0.249	0.038
-201.348	800.000	-0.065	0.210
-200.333	-15.126	0.384	0.241
-199.319	800.000	0.039	0.129
-198.304	6.969	0.130	0.095
-197.290	281.513	-0.084	-0.148
-196.275	800.000	0.072	0.234
-195.260	206.557	-0.063	-0.097
-194.246	-200.000	-0.026	-0.468
-193.231	283.027	0.087	0.153
-192.217	-90.300	-0.200	0.057
-191.202	208.908	0.133	0.205
-190.187	-200.000	0.004	0.207
-189.173	-75.571	-0.050	-0.017
-188.158	-14.176	0.253	0.160
-187.144	108.962	-0.144	0.169
-186.129	-67.344	-0.272	-0.105
-185.114	800.000	0.015	0.046
-184.100	800.000	0.012	-0.051
-183.085	-105.941	0.465	0.103
-182.071	-200.000	-0.041	-0.228
-181.056	-92.544	0.246	-0.068
-180.042	-200.000	-0.053	-0.244
-179.027	-120.537	-0.188	-0.031
-178.012	432.161	-0.150	0.319
-176.998	205.990	-0.070	-0.107
-175.983	-103.294	0.263	-0.061
-174.969	-118.160	0.440	0.077
-173.954	-200.000	0.065	-0.479
-172.939	299.146	-0.059	-0.107
-171.925	-200.000	-0.079	-0.404
-170.910	499.405	0.130	0.294
-169.896	261.379	0.039	-0.067
-168.881	34.511	0.238	-0.204
-167.866	-125.820	0.311	0.046
-166.852	235.271	-0.043	0.069
-165.837	800.000	0.059	-0.208
-164.823	248.228	0.151	-0.250
-163.808	99.786	-0.153	0.174
-162.793	-133.986	0.287	0.035
-161.779	-65.975	-0.277	-0.109
-160.764	-200.000	-0.022	0.166
-159.750	111.552	0.188	0.223
-158.735	800.000	0.057	0.217
-157.720	-33.799	0.174	-0.094
-156.706	800.000	-0.079	-0.290
-155.691	-136.590	-0.081	0.009
-154.677	-38.846	-0.091	-0.047
-153.662	83.323	0.108	0.115
-152.647	-125.697	0.154	-0.023
-151.633	-0.648	-0.034	0.024
-150.618	-200.000	-0.037	0.255
-149.604	800.000	-0.025	0.083
-148.589	-21.499	-0.335	0.200
-147.574	23.018	0.049	-0.039
-146.560	-200.000	0.017	0.188
-145.545	490.524	0.147	-0.329
-144.531	-149.612	-0.141	0.011
-143.516	-200.000	0.029	0.141
-142.502	76.017	-0.119	-0.123
-141.487	-9.010	0.093	0.061
-140.472	7.414	0.133	0.097
-139.458	-97.518	-0.088	0.022
-138.443	-0.070	0.140	-0.097
-137.429	-84.032	0.344	0.107
-136.414	-118.350	-0.363	0.063
-135.399	-200.000	0.043	-0.213
-134.385	-48.961	0.226	0.106
-133.370	539.973	0.127	-0.297
-132.356	37.747	0.065	0.057
-131.341	-50.547	0.218	0.101
-130.326	57.846	0.123	0.117
-129.312	-101.241	0.517	-0.124
-128.297	575.576	-0.043	0.102
-127.283	313.510	0.123	0.227
-126.268	-85.587	0.273	-0.083
-125.253	-200.000	-0.015	-0.086
-124.239	195.277	0.059	-0.088
-123.224	-200.000	0.020	-0.139
-122.210	-141.603	-0.435	-0.043
-121.195	191.849	0.154	-0.228
