DTS Sentinel unit serial number:	SN413079Multiplexer serial number:	ORYXHardware model number:	OX4-SRSoftware version number:	ORYX F/W v4.00 Oryx Data Collector v3.7.2.0data status	okinstallation	princeton_trtdifferential loss correction	single-endedforward channel	channel 3reverse channel	N/Adate	2019/09/11time	14:54:11forward acquisition time	60.00reverse acquisition time	0.00gamma	496.2192k internal	0.2289k external	0.2289temperature offset calibration	0.9978default loss term (dB/km)	0.3790temperature slope calibration	1.0000multiplexer offset coefficient	1.0000multiplexer slope coefficient	1.0000fibre end	0.00T internal ref (°C)	42.66T ext. ref 1 (°C)	0.93T ext. ref 2 (°C)	39.30length (m)	temperature (°C)	Stokes	anti-Stokes-747.200	-200.000	-0.034	0.219
-746.185	799.858	0.071	0.201
-745.171	1.069	-0.114	0.084
-744.156	131.701	-0.093	0.123
-743.142	126.388	-0.062	0.081
-742.127	169.302	0.267	0.390
-741.112	-182.533	-0.136	0.003
-740.098	-200.000	-0.018	0.126
-739.083	82.561	0.069	0.077
-738.069	-200.000	0.047	0.497
-737.054	274.193	-0.147	0.267
-736.039	242.719	-0.108	0.185
-735.025	347.951	0.203	0.409
-734.010	-89.237	0.182	-0.055
-732.996	210.219	-0.149	-0.239
-731.981	14.038	0.105	0.083
-730.966	0.331	0.287	-0.210
-729.952	-72.105	-0.307	-0.117
-728.937	-49.015	-0.199	-0.098
-727.923	39.551	-0.269	-0.247
-726.908	216.837	0.246	0.401
-725.894	44.659	-0.038	-0.036
-724.879	327.079	0.101	-0.199
-723.864	-200.000	-0.076	-0.365
-722.850	332.272	-0.068	0.134
-721.835	182.409	-0.153	0.230
-720.821	36.416	-0.112	0.101
-719.806	129.525	0.201	0.262
-718.791	-200.000	-0.028	-0.248
-717.777	800.000	-0.110	-0.421
-716.762	-114.206	0.225	-0.045
-715.748	-111.868	0.225	0.046
-714.733	-42.179	-0.236	-0.123
-713.718	196.714	0.077	-0.120
-712.704	-200.000	-0.020	-0.237
-711.689	-125.321	0.128	-0.020
-710.675	-200.000	0.001	0.053
-709.660	499.876	0.026	0.062
-708.645	-200.000	0.022	-0.299
-707.631	229.680	0.113	0.189
-706.616	69.995	0.215	-0.227
-705.602	-96.191	0.162	0.044
-704.587	800.000	-0.065	0.239
-703.572	-200.000	0.004	-0.136
-702.558	267.049	-0.084	-0.151
-701.543	41.473	0.235	-0.218
-700.529	-168.019	-0.134	0.005
-699.514	800.000	0.036	-0.110
-698.499	218.096	-0.095	-0.155
-697.485	-80.634	0.145	0.049
-696.470	800.000	0.024	-0.087
-695.456	-200.000	-0.014	0.062
-694.441	-112.615	0.268	0.055
-693.426	510.657	0.208	-0.494
-692.412	155.251	-0.140	0.198
-691.397	-2.854	0.138	0.098
-690.383	339.355	-0.185	0.368
-689.368	748.837	0.083	-0.229
-688.354	4.002	-0.152	-0.114
-687.339	-200.000	0.003	-0.022
-686.324	-58.678	-0.213	0.095
-685.310	800.000	-0.043	-0.172
-684.295	-200.000	0.005	-0.277
-683.281	800.000	-0.081	0.230
-682.266	-200.000	0.033	0.261
-681.251	-63.352	-0.321	-0.135
-680.237	27.361	-0.157	-0.135
-679.222	800.000	0.089	-0.252
-678.208	140.329	0.075	0.101
-677.193	-111.313	-0.467	0.098
-676.178	-129.811	-0.348	0.049
-675.164	-31.014	-0.081	0.047
-674.149	54.836	0.041	-0.041
-673.135	-57.608	-0.092	-0.041
-672.120	165.757	-0.076	0.110
-671.105	-91.178	-0.065	0.019
-670.091	-200.000	-0.013	-0.129
-669.076	-200.000	0.004	0.484
-668.062	-200.000	0.030	0.173
-667.047	-200.000	0.044	-0.227
-666.032	-200.000	0.072	-0.440
-665.018	69.674	-0.106	-0.112
-664.003	224.659	0.048	0.079
-662.989	-163.082	-0.146	-0.007
-661.974	-61.701	0.149	-0.064
-660.959	800.000	-0.076	0.312
-659.945	136.696	0.075	0.100
-658.930	-200.000	-0.069	-0.437
-657.916	800.000	0.075	-0.231
-656.901	-200.000	-0.055	-0.468
-655.886	-200.000	-0.029	-0.293
-654.872	504.540	0.066	0.157
-653.857	-59.331	0.379	0.167
-652.843	594.357	0.054	0.136
-651.828	-121.452	0.295	-0.050
-650.814	-200.000	-0.018	-0.276
-649.799	-103.440	0.229	0.055
-648.784	-94.527	0.097	0.027
-647.770	-158.723	0.451	0.026
-646.755	800.000	0.098	0.344
-645.741	-200.000	0.095	-0.504
-644.726	-200.000	0.001	-0.055
-643.711	18.841	-0.203	0.166
-642.697	-50.235	0.024	0.011
-641.682	350.088	0.126	-0.254
-640.668	-114.650	-0.178	0.035
-639.653	-78.708	0.280	-0.097
-638.638	213.855	-0.212	0.343
-637.624	-78.583	0.109	-0.038
-636.609	52.113	0.058	-0.056
-635.595	364.622	-0.070	0.144
-634.580	-109.287	-0.147	-0.032
-633.565	55.431	0.092	-0.091
-632.551	-200.000	-0.026	-0.324
-631.536	-41.279	0.277	-0.146
-630.522	-150.098	0.209	-0.017
-629.507	734.167	-0.037	-0.102
-628.492	800.000	-0.021	0.091
-627.478	397.577	0.054	0.114
-626.463	82.040	0.100	-0.111
-625.449	310.483	-0.105	-0.201
-624.434	-149.494	0.049	-0.004
-623.419	243.927	-0.168	-0.287
-622.405	800.000	0.023	0.091
-621.390	368.318	0.162	-0.335
-620.376	134.911	-0.230	-0.304
-619.361	-48.895	0.126	-0.062
-618.346	-96.461	0.221	-0.060
-617.332	115.173	0.235	0.293
-616.317	134.287	-0.072	0.095
-615.303	128.384	-0.313	0.407
-614.288	-7.947	0.110	-0.076
-613.273	-200.000	-0.009	0.235
-612.259	447.214	0.028	-0.063
-611.244	-98.111	0.122	-0.032
-610.230	-12.043	0.098	-0.065
-609.215	79.375	0.194	0.212
-608.201	-69.057	-0.221	0.087
-607.186	147.556	-0.078	0.107
-606.171	13.299	-0.126	0.100
-605.157	623.182	0.045	0.115
-604.142	-111.278	-0.220	0.046
-603.128	-161.419	0.141	0.007
-602.113	162.482	0.276	-0.394
-601.098	-14.647	-0.418	-0.274
-600.084	86.524	0.112	-0.126
-599.069	-26.670	0.069	0.041
-598.055	96.256	0.080	0.093
-597.040	-72.660	-0.314	0.118
-596.025	-1.542	-0.389	0.279
-595.011	15.560	0.296	0.237
-593.996	800.000	0.081	0.347
-592.982	32.232	-0.234	-0.205
-591.967	154.232	0.080	-0.112
-590.952	464.722	0.233	-0.531
-589.938	-200.000	-0.064	-0.405
-588.923	-62.703	-0.151	0.064
-587.909	-50.208	-0.027	-0.013
-586.894	404.290	0.034	-0.074
-585.879	-39.579	0.422	0.225
-584.865	-119.572	0.188	0.033
-583.850	-200.000	0.051	0.269
-582.836	63.761	-0.041	-0.042
-581.821	-164.966	-0.214	-0.010
-580.806	101.114	0.066	-0.078
-579.792	800.000	-0.029	-0.093
-578.777	213.888	0.102	-0.164
-577.763	-36.368	0.263	0.144
-576.748	800.000	-0.027	0.118
-575.733	290.477	0.068	-0.126
-574.719	6.890	-0.249	-0.189
-573.704	22.207	0.323	0.269
-572.690	-75.191	0.322	0.117
-571.675	-200.000	0.001	0.160
-570.661	40.369	0.134	-0.123
-569.646	-91.164	-0.176	-0.051
-568.631	208.721	0.097	-0.154
-567.617	-200.000	-0.064	-0.323
-566.602	7.992	-0.177	-0.135
-565.588	14.573	-0.090	-0.071
-564.573	156.908	0.148	0.209
-563.558	134.481	0.253	0.334
-562.544	-185.419	-0.069	0.001
-561.529	93.517	0.115	0.133
-560.515	8.467	-0.124	-0.095
-559.500	-200.000	0.068	-0.385
-558.485	-200.000	-0.004	-0.135
-557.471	629.950	-0.040	-0.103
-556.456	-67.175	-0.222	0.089
-555.442	285.819	-0.077	-0.141
-554.427	-163.281	-0.194	-0.009
-553.412	-10.748	-0.170	-0.114
-552.398	90.089	-0.278	0.316
-551.383	-51.995	-0.122	0.058
-550.369	37.319	0.235	0.211
-549.354	-170.109	-0.470	0.017
-548.339	-38.416	-0.127	-0.068
-547.325	2.326	0.139	0.103
-546.310	-129.884	0.205	-0.029
-545.296	25.995	-0.196	-0.166
-544.281	420.660	0.025	-0.053
-543.266	550.404	-0.098	0.239
-542.252	-200.000	0.003	0.012
-541.237	-117.812	-0.333	-0.061
-540.223	-200.000	0.016	0.072
-539.208	-200.000	0.012	-0.085
-538.193	-200.000	0.014	-0.237
-537.179	4.176	0.391	-0.291
-536.164	-200.000	-0.006	-0.443
-535.150	35.481	0.091	0.081
-534.135	330.016	0.071	0.138
-533.121	-200.000	0.024	-0.160
-532.106	282.823	0.112	-0.203
-531.091	-200.000	-0.009	0.160
-530.077	800.000	-0.084	0.259
-529.062	140.508	0.160	0.215
-528.048	-92.254	-0.159	0.046
-527.033	11.805	0.111	0.086
-526.018	-200.000	0.054	0.439
-525.004	-190.613	-0.402	-0.004
-523.989	-27.056	0.417	-0.247
-522.975	-129.735	-0.251	0.035
-521.960	165.370	0.018	0.025
-520.945	-149.422	0.306	-0.025
-519.931	102.082	-0.046	0.055
-518.916	125.490	-0.125	0.161
-517.902	258.313	0.170	-0.298
-516.887	800.000	-0.024	0.074
-515.872	-200.000	0.122	0.000
-514.858	191.200	-0.212	0.324
-513.843	230.702	-0.102	0.170
-512.829	85.998	-0.185	-0.207
-511.814	-200.000	-0.042	-0.189
-510.799	-72.596	-0.082	0.031
-509.785	6.136	-0.157	-0.119
-508.770	800.000	-0.071	-0.267
-507.756	173.947	0.135	-0.198
-506.741	-66.426	0.107	0.043
-505.726	-85.264	-0.171	-0.054
-504.712	16.457	-0.197	0.158
-503.697	-115.825	-0.282	-0.053
-502.683	-127.051	0.301	-0.045
-501.668	800.000	0.049	-0.170
-500.653	-200.000	-0.026	-0.180
-499.639	105.871	0.135	-0.162
-498.624	-48.958	0.237	-0.115
-497.610	-129.760	-0.206	0.029
-496.595	-1.215	0.250	0.179
-495.581	68.648	-0.159	-0.166
-494.566	20.649	-0.149	0.122
-493.551	63.110	-0.316	-0.322
-492.537	514.911	0.086	-0.204
-491.522	-104.421	-0.414	0.097
-490.508	-200.000	0.029	-0.179
-489.493	283.493	-0.113	-0.206
-488.478	26.235	0.123	-0.104
-487.464	-200.000	-0.026	0.304
-486.449	326.477	-0.044	-0.085
-485.435	-20.816	0.262	-0.163
-484.420	800.000	0.013	-0.036
-483.405	687.832	0.030	0.080
-482.391	-141.831	0.148	0.015
-481.376	-200.000	-0.053	0.241
-480.362	95.540	-0.316	0.366
-479.347	-79.138	0.223	-0.077
-478.332	203.510	0.085	0.133
-477.318	-80.747	0.148	0.050
-476.303	-63.955	0.178	0.074
-475.289	103.693	0.123	0.147
-474.274	-94.090	-0.154	0.043
-473.259	800.000	0.050	0.144
-472.245	800.000	0.044	0.164
-471.230	11.245	0.074	0.058
-470.216	212.357	0.071	0.114
-469.201	254.908	-0.133	0.231
-468.186	88.016	0.123	0.138
-467.172	94.526	0.100	-0.115
-466.157	-154.057	-0.393	-0.027
-465.143	-79.751	-0.214	-0.073
-464.128	-12.911	0.147	0.097
-463.113	-200.000	-0.056	0.255
-462.099	-177.541	0.099	-0.002
-461.084	-32.314	-0.106	-0.060
-460.070	-36.949	0.346	0.188
-459.055	-200.000	-0.014	0.375
-458.040	213.320	-0.090	-0.144
-457.026	454.273	-0.191	-0.428
-456.011	-115.003	0.250	-0.048
-454.997	175.444	-0.171	0.251
-453.982	-149.290	0.399	0.032
-452.968	501.578	0.068	0.158
-451.953	241.035	-0.068	0.114
-450.938	800.000	-0.051	-0.222
-449.924	390.492	0.198	-0.417
-448.909	-67.473	0.452	-0.180
-447.895	-98.444	0.181	0.047
-446.880	373.232	0.130	-0.269
-445.865	36.222	-0.108	-0.096
-444.851	800.000	-0.094	0.264
-443.836	70.019	0.122	-0.128
-442.822	-134.168	0.246	-0.031
-441.807	4.546	-0.036	-0.027
-440.792	-4.430	0.314	-0.220
-439.778	-200.000	-0.036	-0.247
-438.763	16.862	-0.308	0.247
-437.749	62.623	-0.252	0.255
-436.734	-200.000	0.032	0.253
-435.719	90.908	-0.108	0.123
-434.705	-200.000	-0.131	0.000
-433.690	-90.696	0.054	-0.016
-432.676	47.872	-0.263	-0.249
-431.661	62.598	0.026	0.027
-430.646	43.632	-0.207	0.192
-429.632	1.485	0.255	0.186
-428.617	176.597	-0.064	-0.095
-427.603	-170.962	-0.268	0.009
-426.588	107.101	-0.194	-0.233
-425.573	-200.000	0.036	-0.197
-424.559	-200.000	0.019	-0.103
-423.544	-110.794	-0.329	-0.069
-422.530	-174.688	-0.200	-0.006
-421.515	14.099	0.174	-0.137
-420.500	-96.220	-0.126	-0.034
-419.486	-59.649	-0.381	0.165
-418.471	-73.096	0.150	-0.056
-417.457	500.955	0.022	-0.051
-416.442	544.538	-0.033	0.079
-415.428	52.411	-0.190	0.184
-414.413	-152.362	-0.158	-0.012
-413.398	224.563	-0.093	0.152
-412.384	-200.000	-0.055	0.354
-411.369	-200.000	0.033	-0.261
-410.355	-90.735	-0.068	0.020
-409.340	52.973	-0.171	-0.165
-408.325	-106.886	0.017	0.004
-407.311	235.605	-0.153	-0.256
-406.296	8.382	0.023	-0.017
-405.282	-200.000	-0.044	-0.395
-404.267	-200.000	-0.015	0.251
-403.252	-159.535	0.307	0.017
-402.238	-12.475	0.107	-0.071
-401.223	292.017	0.159	-0.292
-400.209	-80.011	-0.378	-0.128
-399.194	-124.020	-0.414	-0.066
-398.179	103.172	0.238	0.282
-397.165	54.000	0.046	-0.045
-396.150	-172.699	-0.216	0.007
-395.136	-1.198	0.111	0.080
-394.121	-200.000	-0.009	0.297
-393.106	-200.000	0.013	0.226
-392.092	800.000	0.069	0.307
-391.077	-174.382	-0.378	0.011
-390.063	526.678	0.057	-0.136
-389.048	-140.652	-0.064	0.007
-388.033	800.000	0.032	-0.125
-387.019	-179.211	-0.129	-0.003
-386.004	-200.000	-0.138	-0.001
-384.990	800.000	-0.023	-0.082
-383.975	48.136	0.265	0.250
-382.960	157.106	-0.095	-0.133
-381.946	-80.808	-0.476	-0.160
-380.931	-25.269	-0.390	-0.233
-379.917	-84.500	0.097	-0.031
-378.902	-200.000	0.038	-0.173
-377.888	-90.142	0.195	-0.057
-376.873	-171.745	-0.096	0.003
-375.858	6.321	-0.188	0.141
-374.844	176.146	-0.019	0.027
-373.829	279.709	-0.127	0.230
-372.815	74.518	-0.246	-0.261
-371.800	-87.830	0.455	-0.139
-370.785	130.890	-0.119	-0.154
-369.771	362.117	-0.087	0.176
-368.756	-39.238	0.172	0.091
-367.742	-139.593	-0.206	-0.022
-366.727	-64.336	0.117	-0.048
-365.712	-35.526	-0.103	-0.057
-364.698	364.718	-0.051	-0.104
-363.683	143.595	-0.145	0.195
-362.669	479.933	0.034	0.078
-361.654	800.000	-0.067	0.297
-360.639	137.262	0.094	0.125
-359.625	278.588	0.113	0.203
-358.610	-70.719	0.237	0.090
-357.596	-50.302	-0.197	-0.094
-356.581	-132.685	-0.089	0.011
-355.566	113.966	-0.074	0.091
-354.552	800.000	0.055	0.190
-353.537	66.261	-0.123	0.127
-352.523	-61.695	-0.237	-0.100
-351.508	64.450	0.028	-0.029
-350.493	47.563	-0.172	0.162
-349.479	-138.083	-0.233	-0.026
-348.464	-131.394	0.232	-0.031
-347.450	-186.738	0.280	-0.004
-346.435	-144.814	0.199	0.018
-345.420	428.157	-0.106	0.230
-344.406	800.000	-0.063	0.246
-343.391	-24.647	-0.124	-0.074
-342.377	-200.000	0.014	-0.211
-341.362	-200.000	-0.001	-0.178
-340.348	-16.081	-0.155	0.099
-339.333	-109.738	-0.179	-0.038
-338.318	121.863	-0.062	0.078
-337.304	-147.567	0.248	0.021
-336.289	-28.751	0.242	-0.140
-335.275	162.441	0.105	0.149
-334.260	800.000	-0.069	0.201
-333.245	144.153	-0.224	0.301
-332.231	40.916	0.051	-0.046
-331.216	110.041	-0.019	0.023
-330.202	-86.086	0.295	-0.092
-329.187	-86.791	0.087	-0.027
-328.172	-170.165	-0.177	-0.006
-327.158	-200.000	-0.018	-0.379
-326.143	-200.000	-0.018	-0.387
-325.129	-173.738	-0.095	0.003
-324.114	290.349	0.030	0.055
-323.099	-44.386	0.265	-0.134
-322.085	-135.046	0.497	-0.060
-321.070	-39.132	-0.300	0.159
-320.056	800.000	-0.122	0.413
-319.041	-200.000	-0.016	-0.084
-318.026	120.348	-0.080	-0.100
-317.012	-95.685	-0.166	0.045
-315.997	117.345	-0.263	-0.326
-314.983	59.585	-0.173	0.172
-313.968	144.392	0.151	-0.203
-312.953	511.370	-0.127	0.299
-311.939	-157.871	-0.192	0.011
-310.924	154.794	-0.154	0.213
-309.910	-109.387	0.109	0.023
-308.895	-200.000	0.021	0.232
-307.880	800.000	-0.054	0.229
-306.866	-200.000	0.020	0.121
-305.851	250.626	-0.221	0.378
-304.837	296.967	-0.261	-0.483
-303.822	-100.613	-0.097	-0.024
-302.807	-200.000	0.050	-0.327
-301.793	-96.614	-0.239	0.063
-300.778	800.000	-0.106	-0.309
-299.764	-200.000	-0.010	0.233
-298.749	201.283	-0.046	-0.071
-297.735	-94.047	-0.192	-0.053
-296.720	-200.000	-0.003	0.167
-295.705	-16.250	-0.104	-0.067
-294.691	-71.259	-0.145	0.055
-293.676	24.508	-0.315	-0.262
-292.662	-132.384	0.366	0.048
-291.647	-42.446	-0.434	-0.223
-290.632	-115.651	0.077	-0.014
-289.618	800.000	-0.057	-0.173
-288.603	55.162	-0.064	-0.062
-287.589	195.073	0.099	0.151
-286.574	-127.078	-0.311	0.046
-285.559	-9.420	0.255	-0.171
-284.545	-200.000	-0.008	-0.283
-283.530	100.982	-0.195	-0.229
-282.516	-0.628	-0.158	-0.113
-281.501	302.841	-0.115	-0.214
-280.486	-200.000	-0.039	0.370
-279.472	800.000	0.113	0.359
-278.457	-200.000	0.009	-0.064
-277.443	-93.538	0.183	-0.051
-276.428	-69.932	0.374	-0.144
-275.413	-128.089	-0.212	-0.031
-274.399	-103.128	0.248	-0.059
-273.384	800.000	0.009	-0.029
-272.370	-99.005	-0.206	0.052
-271.355	435.731	0.137	0.300
-270.340	-200.000	0.018	0.341
-269.326	800.000	0.077	0.321
-268.311	-200.000	0.041	0.285
-267.297	735.295	0.133	0.359
-266.282	139.422	0.283	-0.375
-265.267	-87.097	0.101	-0.031
-264.253	-36.572	0.193	0.104
-263.238	252.029	0.167	-0.286
-262.224	-200.000	-0.000	-0.091
-261.209	-111.052	0.251	-0.052
-260.195	93.328	-0.268	0.305
-259.180	-193.466	-0.313	0.003
-258.165	30.366	0.071	0.061
-257.151	-200.000	0.005	0.164
-256.136	-0.844	0.370	0.263
-255.122	-200.000	0.021	-0.182
-254.107	318.661	-0.173	-0.329
-253.092	-119.192	0.150	-0.026
-252.078	-156.129	0.208	0.013
-251.063	161.089	0.167	0.234
-250.049	-52.050	-0.085	-0.040
-249.034	79.256	-0.093	0.101
-248.019	444.152	-0.161	-0.355
-247.005	-57.487	0.271	-0.119
-245.990	27.483	-0.205	-0.173
-244.976	-200.000	0.027	0.381
-243.961	-83.067	0.167	0.054
-242.946	24.218	0.263	0.218
-241.932	324.242	0.083	-0.159
-240.917	-41.424	0.302	0.156
-239.903	-104.966	0.174	0.040
-238.888	-135.603	-0.203	0.024
-237.873	739.806	0.051	-0.139
-236.859	14.184	0.071	0.055
-235.844	-1.532	-0.219	-0.155
-234.830	800.000	0.109	-0.348
-233.815	57.984	0.120	0.118
-232.800	-166.606	0.250	-0.010
-231.786	-200.000	0.043	0.231
-230.771	-81.688	0.041	0.014
-229.757	800.000	0.046	0.183
-228.742	-200.000	0.011	-0.235
-227.727	-71.397	0.173	-0.065
-226.713	-27.907	0.107	-0.062
-225.698	20.189	0.130	-0.106
-224.684	208.128	-0.180	0.282
-223.669	218.194	0.129	-0.207
-222.655	236.923	0.187	-0.312
-221.640	-193.990	-0.263	-0.002
-220.625	658.734	-0.065	-0.168
-219.611	-200.000	0.036	-0.179
-218.596	800.000	-0.048	0.178
-217.582	172.600	0.144	-0.208
-216.567	-200.000	-0.074	-0.330
-215.552	-38.230	-0.183	0.097
-214.538	-27.160	0.331	-0.194
-213.523	114.108	0.080	0.097
-212.509	241.374	0.079	0.133
-211.494	-200.000	0.030	-0.196
-210.479	-200.000	0.003	0.172
-209.465	-20.933	-0.192	0.118
-208.450	-140.891	0.146	0.015
-207.436	-23.150	0.209	-0.126
-206.421	-5.028	0.168	-0.116
-205.406	-200.000	0.008	0.105
-204.392	-73.041	-0.080	0.029
-203.377	-72.109	0.185	0.069
-202.363	550.276	0.139	0.334
-201.348	42.699	-0.192	0.176
-200.333	-97.254	-0.381	-0.100
-199.319	395.922	0.155	0.325
-198.304	-13.525	0.118	-0.077
-197.290	800.000	0.014	0.056
-196.275	44.385	0.266	0.245
-195.260	-27.965	0.073	0.043
-194.246	606.239	0.036	-0.090
-193.231	1.706	0.272	0.197
-192.217	800.000	0.103	0.287
-191.202	-51.829	0.290	-0.136
-190.187	145.345	-0.169	0.227
-189.173	28.924	-0.098	-0.084
-188.158	-124.064	-0.282	0.044
-187.144	732.628	-0.041	0.110
-186.129	60.796	-0.135	0.135
-185.114	-63.077	0.232	-0.096
-184.100	-23.506	0.160	0.096
-183.085	-67.330	0.117	0.046
-182.071	715.891	0.031	-0.084
-181.056	-93.844	-0.315	-0.087
-180.042	505.009	-0.046	-0.107
-179.027	653.589	0.129	0.331
-178.012	488.376	-0.146	0.334
-176.998	-17.658	-0.163	0.103
-175.983	-105.617	-0.188	0.043
-174.969	-1.269	0.044	0.031
-173.954	189.824	-0.044	-0.066
-172.939	265.497	-0.098	-0.172
-171.925	800.000	-0.044	-0.186
-170.910	128.787	-0.032	-0.041
-169.896	-0.663	-0.169	-0.120
-168.881	-200.000	-0.033	-0.186
-167.866	45.260	0.197	0.182
-166.852	138.438	0.186	0.244
-165.837	251.903	-0.109	-0.186
-164.823	800.000	-0.126	-0.350
-163.808	800.000	-0.074	0.235
-162.793	148.239	0.082	-0.111
-161.779	-200.000	-0.071	-0.314
-160.764	-200.000	0.082	0.563
-159.750	16.042	0.041	0.033
-158.735	-200.000	-0.026	-0.285
-157.720	78.707	0.184	-0.197
-156.706	53.810	0.101	-0.097
-155.691	769.662	0.082	0.222
-154.677	-136.079	0.114	-0.013
-153.662	-49.349	0.298	-0.142
-152.647	-60.614	0.127	-0.054
-151.633	-75.167	0.090	0.032
-150.618	-16.309	-0.089	0.057
-149.604	800.000	0.093	0.313
-148.589	-61.004	0.141	0.059
-147.574	-52.215	0.185	0.086
-146.560	-26.726	0.189	-0.111
-145.545	150.636	-0.163	0.221
-144.531	-110.649	-0.203	0.042
-143.516	240.832	0.245	0.408
-142.502	-134.361	-0.082	0.010
-141.487	800.000	-0.088	-0.255
-140.472	104.491	-0.075	0.089
-139.458	-200.000	-0.025	-0.115
-138.443	-182.081	-0.277	0.005
-137.429	800.000	-0.099	-0.288
-136.414	48.488	-0.099	-0.092
-135.399	188.580	-0.046	-0.069
-134.385	167.106	-0.036	-0.051
-133.370	236.886	-0.155	-0.256
-132.356	151.070	-0.089	0.121
-131.341	176.542	-0.091	0.133
-130.326	-84.224	0.486	0.154
-129.312	110.674	-0.052	0.062
-128.297	800.000	0.039	-0.131
-127.283	-200.000	0.037	0.254
-126.268	-81.411	-0.189	0.062
-125.253	-29.259	0.043	-0.024
-124.239	-11.596	0.119	0.078
-123.224	78.797	-0.055	-0.059
-122.210	-15.172	-0.061	-0.039
-121.195	800.000	-0.078	0.255
