DTS Sentinel unit serial number:	SN413079Multiplexer serial number:	ORYXHardware model number:	OX4-SRSoftware version number:	ORYX F/W v4.00 Oryx Data Collector v3.7.2.0data status	okinstallation	princeton_trtdifferential loss correction	single-endedforward channel	channel 3reverse channel	N/Adate	2019/09/14time	03:52:35forward acquisition time	60.00reverse acquisition time	0.00gamma	496.2192k internal	0.2339k external	0.2339temperature offset calibration	1.0055default loss term (dB/km)	0.3790temperature slope calibration	1.0000multiplexer offset coefficient	1.0000multiplexer slope coefficient	1.0000fibre end	0.00T internal ref (°C)	26.67T ext. ref 1 (°C)	3.31T ext. ref 2 (°C)	21.69length (m)	temperature (°C)	Stokes	anti-Stokes-747.200	-200.000	-0.056	-0.345
-746.185	-61.511	-0.315	0.133
-745.171	-151.956	-0.232	-0.017
-744.156	-68.773	-0.241	-0.093
-743.142	800.000	0.062	-0.208
-742.127	-128.283	0.092	0.013
-741.112	-21.245	0.189	-0.116
-740.098	19.226	0.264	0.212
-739.083	278.950	0.076	0.137
-738.069	55.361	-0.112	-0.109
-737.054	14.192	-0.148	-0.116
-736.039	-102.072	0.128	0.031
-735.025	337.345	0.329	0.640
-734.010	44.243	0.140	0.129
-732.996	175.850	-0.060	-0.088
-731.981	64.011	-0.241	-0.243
-730.966	-184.123	-0.113	-0.002
-729.952	-13.175	0.139	-0.091
-728.937	800.000	0.052	-0.182
-727.923	800.000	-0.029	0.128
-726.908	208.290	0.130	0.204
-725.894	800.000	0.097	-0.315
-724.879	643.323	-0.081	-0.206
-723.864	7.116	-0.262	0.196
-722.850	800.000	0.050	-0.164
-721.835	-200.000	0.039	-0.307
-720.821	-200.000	0.016	-0.262
-719.806	-1.634	0.154	0.109
-718.791	-51.672	0.028	-0.013
-717.777	-87.489	-0.442	-0.134
-716.762	135.119	-0.061	-0.079
-715.748	25.715	0.243	-0.203
-714.733	-200.000	0.021	-0.215
-713.718	800.000	0.051	0.158
-712.704	-102.942	0.120	0.029
-711.689	57.869	-0.180	0.176
-710.675	-63.509	-0.249	0.102
-709.660	-125.917	-0.148	0.022
-708.645	331.487	-0.079	0.153
-707.631	-200.000	-0.010	-0.182
-706.616	-92.353	-0.183	0.052
-705.602	-177.784	-0.062	-0.002
-704.587	74.657	0.146	0.154
-703.572	-200.000	-0.027	0.184
-702.558	38.998	-0.045	0.041
-701.543	143.881	-0.143	0.191
-700.529	524.757	0.094	-0.220
-699.514	-129.072	0.226	-0.032
-698.499	360.384	-0.126	-0.252
-697.485	566.850	0.085	0.206
-696.470	63.803	-0.106	-0.107
-695.456	14.338	-0.217	-0.170
-694.441	193.411	0.168	-0.254
-693.426	-114.569	-0.310	0.060
-692.412	41.216	0.373	0.337
-691.397	-179.498	0.168	0.004
-690.383	-200.000	0.024	-0.440
-689.368	800.000	-0.022	-0.080
-688.354	126.681	-0.298	-0.378
-687.339	-166.494	-0.192	-0.008
-686.324	-200.000	0.041	-0.248
-685.310	-56.025	-0.156	-0.070
-684.295	-73.831	-0.154	-0.056
-683.281	-55.498	0.082	0.037
-682.266	169.746	-0.116	-0.166
-681.251	-89.675	-0.161	0.047
-680.237	59.656	-0.092	0.091
-679.222	126.345	-0.149	-0.189
-678.208	27.384	-0.085	-0.071
-677.193	-125.225	-0.328	-0.050
-676.178	-200.000	0.015	-0.211
-675.164	-200.000	0.036	-0.200
-674.149	800.000	-0.088	-0.357
-673.135	-68.425	-0.480	0.186
-672.120	-90.713	-0.041	-0.012
-671.105	-152.144	-0.254	-0.018
-670.091	260.495	-0.063	0.109
-669.076	-14.193	0.130	-0.084
-668.062	-116.730	0.156	-0.029
-667.047	99.401	0.105	-0.121
-666.032	23.502	-0.299	-0.246
-665.018	147.039	-0.130	0.175
-664.003	213.902	0.189	0.299
-662.989	-54.762	0.095	0.043
-661.974	78.097	-0.014	-0.015
-660.959	-76.710	-0.154	0.054
-659.945	-120.714	-0.243	-0.041
-658.930	800.000	0.025	0.106
-657.916	-128.235	-0.345	-0.049
-656.901	235.179	0.160	-0.264
-655.886	-200.000	0.015	-0.119
-654.872	23.348	0.184	-0.151
-653.857	38.545	0.067	-0.060
-652.843	-48.145	0.124	-0.060
-651.828	-200.000	-0.036	-0.184
-650.814	303.092	0.101	-0.187
-649.799	345.938	0.050	0.098
-648.784	-60.911	0.385	-0.163
-647.770	800.000	-0.050	-0.190
-646.755	-54.145	-0.077	-0.035
-645.741	-16.884	0.235	-0.148
-644.726	58.929	0.207	0.204
-643.711	-75.393	0.262	-0.093
-642.697	-200.000	0.001	-0.023
-641.682	-88.357	0.119	0.035
-640.668	138.234	0.032	-0.042
-639.653	-116.377	0.152	-0.028
-638.638	533.225	-0.051	0.120
-637.624	484.554	-0.118	-0.267
-636.609	395.035	-0.129	-0.268
-635.595	349.327	-0.096	-0.189
-634.580	800.000	-0.110	-0.409
-633.565	349.550	-0.061	0.121
-632.551	36.587	0.060	0.052
-631.536	756.973	0.060	0.161
-630.522	-200.000	0.006	0.109
-629.507	38.041	-0.143	-0.127
-628.492	248.681	-0.187	-0.315
-627.478	-200.000	-0.051	-0.248
-626.463	293.379	0.187	0.340
-625.449	-59.983	-0.121	-0.052
-624.434	136.326	-0.070	0.091
-623.419	-8.056	-0.301	0.203
-622.405	-200.000	-0.025	-0.134
-621.390	-75.532	0.332	0.118
-620.376	-200.000	-0.008	0.445
-619.361	50.020	-0.124	-0.117
-618.346	-7.244	0.024	0.016
-617.332	13.877	-0.309	-0.240
-616.317	-200.000	-0.014	-0.427
-615.303	800.000	-0.189	-0.546
-614.288	-62.675	0.084	-0.035
-613.273	126.600	-0.024	-0.030
-612.259	-200.000	-0.073	-0.398
-611.244	26.564	-0.226	-0.189
-610.230	448.283	0.046	0.101
-609.215	-39.465	0.032	0.017
-608.201	57.501	0.083	-0.081
-607.186	-77.032	-0.435	-0.152
-606.171	-130.145	-0.241	-0.033
-605.157	289.906	-0.082	-0.149
-604.142	-29.570	-0.038	-0.022
-603.128	-130.926	-0.358	0.048
-602.113	327.731	0.029	0.055
-601.098	-200.000	-0.033	-0.242
-600.084	-75.066	0.135	0.048
-599.069	-145.833	-0.149	0.013
-598.055	800.000	-0.099	0.348
-597.040	71.699	-0.077	0.080
-596.025	-73.354	-0.317	-0.116
-595.011	-20.598	0.239	0.146
-593.996	164.115	0.164	0.231
-592.982	217.461	0.116	-0.184
-591.967	31.467	0.166	-0.142
-590.952	-112.681	0.391	0.078
-589.938	29.646	0.105	0.089
-588.923	286.945	-0.119	-0.215
-587.909	41.432	0.325	-0.293
-586.894	31.626	-0.099	-0.084
-585.879	-5.561	0.173	0.118
-584.865	800.000	0.082	-0.280
-583.850	800.000	0.028	-0.113
-582.836	596.940	0.066	0.163
-581.821	-35.068	0.159	-0.086
-580.806	-200.000	-0.031	-0.188
-579.792	-200.000	-0.050	0.268
-578.777	78.327	-0.040	-0.043
-577.763	31.124	0.285	-0.244
-576.748	-64.650	0.266	-0.107
-575.733	707.492	-0.026	-0.068
-574.719	182.255	0.166	-0.244
-573.704	-119.956	-0.489	0.084
-572.690	116.062	0.118	0.144
-571.675	-91.361	0.205	-0.058
-570.661	275.129	0.075	-0.133
-569.646	518.329	-0.044	-0.102
-568.631	-200.000	-0.022	-0.197
-567.617	98.837	-0.154	-0.177
-566.602	231.444	0.167	-0.273
-565.588	-71.206	-0.245	0.091
-564.573	-103.303	0.468	0.110
-563.558	-141.817	-0.266	-0.027
-562.544	-68.744	0.143	0.055
-561.529	-200.000	-0.002	0.218
-560.515	788.920	-0.055	-0.151
-559.500	27.090	0.230	-0.193
-558.485	75.733	0.206	0.217
-557.471	20.363	-0.101	0.081
-556.456	150.168	0.185	-0.249
-555.442	-148.765	0.368	-0.030
-554.427	361.455	0.034	0.068
-553.412	-65.791	-0.102	0.040
-552.398	-28.036	0.090	0.052
-551.383	-76.324	0.173	0.060
-550.369	-125.211	-0.395	0.060
-549.354	100.678	0.158	0.182
-548.339	688.439	0.045	-0.118
-547.325	-200.000	-0.050	-0.390
-546.310	275.155	0.208	-0.367
-545.296	170.589	-0.131	0.187
-544.281	105.029	-0.110	-0.129
-543.266	-24.112	0.242	-0.144
-542.252	-190.928	-0.246	0.003
-541.237	-48.862	-0.322	0.153
-540.223	639.829	-0.118	0.298
-539.208	9.725	-0.325	0.246
-538.193	-57.402	0.044	-0.019
-537.179	-173.075	0.237	0.007
-536.164	800.000	-0.032	-0.137
-535.150	800.000	-0.073	0.281
-534.135	369.145	0.117	-0.236
-533.121	195.095	-0.075	0.113
-532.106	800.000	0.100	0.412
-531.091	800.000	-0.056	-0.217
-530.077	-200.000	-0.039	0.578
-529.062	-13.504	-0.202	-0.130
-528.048	209.573	-0.088	-0.137
-527.033	800.000	0.034	-0.137
-526.018	-36.335	-0.093	0.050
-525.004	767.758	-0.058	-0.156
-523.989	438.004	0.096	0.208
-522.975	15.575	0.047	-0.037
-521.960	184.921	-0.161	-0.238
-520.945	689.649	0.071	-0.184
-519.931	-138.640	0.086	0.009
-518.916	82.007	0.220	-0.237
-517.902	-93.978	-0.265	0.072
-516.887	-111.887	0.183	0.037
-515.872	-200.000	0.006	0.237
-514.858	67.063	-0.150	0.152
-513.843	-28.744	0.178	0.102
-512.829	46.524	0.224	0.207
-511.814	800.000	0.247	0.783
-510.799	483.340	-0.130	0.293
-509.785	-131.489	0.123	-0.016
-508.770	-200.000	0.004	-0.374
-507.756	800.000	0.122	-0.475
-506.741	66.705	0.130	-0.132
-505.726	45.156	0.338	0.309
-504.712	45.916	0.196	0.180
-503.697	45.833	-0.429	-0.395
-502.683	133.443	-0.022	-0.028
-501.668	800.000	-0.068	0.237
-500.653	170.596	-0.059	0.084
-499.639	-46.146	0.082	0.040
-498.624	800.000	0.056	-0.167
-497.610	-55.071	-0.246	-0.110
-496.595	390.807	-0.156	0.321
-495.581	-200.000	0.039	0.305
-494.566	150.207	0.213	0.287
-493.551	-200.000	-0.012	-0.074
-492.537	-200.000	0.011	-0.076
-491.522	800.000	-0.062	-0.203
-490.508	-200.000	-0.007	0.102
-489.493	-76.369	-0.261	-0.091
-488.478	9.719	0.245	-0.185
-487.464	117.901	0.129	0.157
-486.449	133.268	0.019	0.024
-485.435	-50.457	0.083	0.039
-484.420	51.081	-0.177	0.167
-483.405	-39.130	-0.229	-0.120
-482.391	38.551	-0.310	0.275
-481.376	-200.000	0.014	-0.092
-480.362	-200.000	-0.035	0.188
-479.347	-150.576	0.262	0.020
-478.332	-37.839	0.217	-0.115
-477.318	-200.000	0.052	0.238
-476.303	-16.126	-0.090	0.056
-475.289	48.816	-0.166	0.155
-474.274	472.674	0.061	-0.137
-473.259	-58.138	-0.117	0.051
-472.245	561.835	-0.034	0.081
-471.230	800.000	-0.032	-0.128
-470.216	-200.000	-0.012	-0.157
-469.201	-122.629	-0.178	-0.029
-468.186	-13.306	0.143	-0.092
-467.172	201.026	0.117	-0.179
-466.157	97.860	-0.230	-0.263
-465.143	377.189	-0.142	-0.288
-464.128	-159.720	0.168	-0.009
-463.113	248.810	0.014	-0.024
-462.099	-46.691	-0.339	-0.164
-461.084	778.320	0.118	0.320
-460.070	563.266	0.061	0.146
-459.055	13.074	0.279	0.214
-458.040	66.298	-0.227	-0.229
-457.026	-200.000	0.043	0.374
-456.011	-200.000	0.037	0.268
-454.997	19.627	0.187	0.150
-453.982	401.396	-0.057	0.118
-452.968	51.060	-0.149	0.140
-451.953	-38.474	0.180	0.094
-450.938	-35.713	0.348	0.187
-449.924	-200.000	-0.037	0.180
-448.909	-19.700	0.166	-0.102
-447.895	800.000	0.049	-0.182
-446.880	-75.192	0.183	0.065
-445.865	-200.000	-0.009	-0.143
-444.851	214.737	-0.168	-0.265
-443.836	-200.000	-0.005	0.208
-442.822	800.000	0.090	0.251
-441.807	-130.084	0.278	0.038
-440.792	-127.962	-0.276	0.039
-439.778	-200.000	0.015	-0.170
-438.763	-28.062	-0.287	-0.164
-437.749	-45.473	-0.302	0.148
-436.734	281.156	-0.260	0.462
-435.719	-82.646	0.300	-0.096
-434.705	-48.096	-0.112	-0.054
-433.690	-200.000	-0.017	-0.151
-432.676	465.056	-0.035	-0.079
-431.661	78.317	0.229	-0.243
-430.646	800.000	-0.066	-0.195
-429.632	-92.872	-0.137	-0.038
-428.617	-163.332	-0.265	-0.013
-427.603	-200.000	0.030	0.143
-426.588	118.844	-0.159	0.195
-425.573	46.407	-0.109	0.100
-424.559	-100.219	0.219	0.054
-423.544	-65.929	0.247	0.098
-422.530	5.908	-0.233	-0.171
-421.515	-200.000	-0.040	-0.286
-420.500	22.579	-0.158	-0.128
-419.486	129.184	-0.029	-0.037
-418.471	628.465	0.032	-0.079
-417.457	793.990	0.089	-0.241
-416.442	-200.000	-0.006	-0.067
-415.428	-108.640	0.299	-0.064
-414.413	136.507	-0.232	-0.300
-413.398	-200.000	-0.049	0.234
-412.384	45.637	-0.080	-0.073
-411.369	-108.578	-0.231	-0.049
-410.355	123.652	0.126	-0.157
-409.340	800.000	-0.085	-0.298
-408.325	-139.026	-0.092	0.010
-407.311	135.143	-0.226	0.291
-406.296	-200.000	0.334	-0.001
-405.282	-49.070	-0.080	-0.038
-404.267	216.632	0.074	0.117
-403.252	220.576	0.211	0.335
-402.238	-93.205	0.181	-0.050
-401.223	70.269	-0.365	0.374
-400.209	311.562	0.102	0.189
-399.194	-139.954	-0.098	-0.010
-398.179	800.000	0.077	0.323
-397.165	-200.000	-0.009	-0.307
-396.150	-200.000	-0.028	-0.227
-395.136	-25.052	0.209	0.123
-394.121	8.152	-0.185	-0.137
-393.106	-200.000	0.006	-0.083
-392.092	-159.966	-0.168	0.009
-391.077	95.348	0.130	-0.147
-390.063	-0.737	0.157	0.110
-389.048	-7.585	0.037	-0.025
-388.033	-200.000	0.054	-0.242
-387.019	-200.000	0.093	-0.440
-386.004	800.000	0.088	-0.366
-384.990	-116.631	-0.377	-0.069
-383.975	223.662	0.157	0.251
-382.960	800.000	-0.066	0.273
-381.946	800.000	-0.071	0.231
-380.931	224.680	-0.021	-0.034
-379.917	-128.082	0.159	-0.022
-378.902	-58.868	0.224	0.096
-377.888	743.494	0.135	-0.359
-376.873	-101.050	-0.191	0.046
-375.858	-121.413	-0.401	0.066
-374.844	-75.015	0.149	0.053
-373.829	80.922	-0.213	0.228
-372.815	-126.184	0.254	-0.038
-371.800	-39.445	-0.058	0.030
-370.785	75.324	0.083	-0.086
-369.771	38.194	0.139	-0.123
-368.756	524.419	-0.035	0.082
-367.742	800.000	-0.051	0.179
-366.727	-19.002	-0.290	-0.178
-365.712	-200.000	0.047	0.239
-364.698	-9.633	0.189	-0.124
-363.683	41.649	-0.232	0.208
-362.669	37.655	0.265	-0.232
-361.654	0.181	0.206	0.145
-360.639	800.000	-0.045	-0.178
-359.625	-145.310	-0.436	-0.039
-358.610	480.907	-0.029	-0.066
-357.596	-153.635	0.153	0.010
-356.581	-39.850	-0.051	0.026
-355.566	472.672	0.165	0.368
-354.552	-45.707	-0.161	0.078
-353.537	-40.388	-0.068	0.035
-352.523	506.827	-0.090	0.206
-351.508	-82.883	0.235	0.075
-350.493	800.000	0.093	-0.275
-349.479	-154.932	-0.033	0.002
-348.464	800.000	0.035	0.120
-347.450	386.655	0.039	-0.079
-346.435	800.000	0.011	0.043
-345.420	175.726	0.163	-0.234
-344.406	30.024	0.125	-0.105
-343.391	45.991	0.182	-0.167
-342.377	-4.094	-0.308	-0.211
-341.362	152.718	0.169	0.228
-340.348	-0.363	0.167	0.117
-339.333	800.000	0.095	-0.397
-338.318	800.000	-0.064	-0.199
-337.304	-200.000	-0.021	-0.165
-336.289	-58.674	0.221	0.095
-335.275	278.582	-0.099	0.174
-334.260	800.000	-0.070	0.202
-333.245	-200.000	-0.006	-0.164
-332.231	-52.570	0.110	-0.050
-331.216	-200.000	-0.016	0.242
-330.202	20.964	0.322	-0.257
-329.187	800.000	0.009	0.026
-328.172	-200.000	-0.039	0.278
-327.158	-128.541	0.212	0.030
-326.143	512.122	-0.084	0.192
-325.129	121.713	-0.147	0.181
-324.114	-151.622	-0.320	-0.023
-323.099	-72.271	0.232	-0.085
-322.085	-24.238	0.073	-0.043
-321.070	164.792	-0.164	-0.229
-320.056	-200.000	-0.057	-0.324
-319.041	-12.199	0.136	0.088
-318.026	27.179	-0.246	-0.203
-317.012	-113.225	0.300	0.058
-315.997	-104.634	0.424	0.096
-314.983	-11.185	-0.230	-0.150
-313.968	128.535	0.078	0.098
-312.953	-200.000	-0.004	-0.236
-311.939	20.997	0.239	-0.191
-310.924	208.008	0.106	-0.164
-309.910	-200.000	-0.027	-0.406
-308.895	-46.618	-0.217	0.105
-307.880	-63.211	-0.329	0.134
-306.866	-132.928	0.076	0.010
-305.851	-61.530	-0.094	0.039
-304.837	-200.000	0.044	0.194
-303.822	800.000	0.064	0.252
-302.807	800.000	0.069	0.218
-301.793	24.838	0.261	0.213
-300.778	-80.119	-0.190	-0.063
-299.764	166.853	-0.205	-0.287
-298.749	-200.000	-0.048	0.443
-297.735	389.793	0.225	-0.459
-296.720	257.140	-0.120	-0.204
-295.705	161.895	-0.152	-0.210
-294.691	-44.863	-0.357	-0.176
-293.676	-24.347	0.303	0.178
-292.662	1.687	0.114	0.081
-291.647	-76.047	-0.307	-0.107
-290.632	-119.830	-0.373	0.063
-289.618	-137.515	-0.204	0.023
-288.603	165.087	-0.073	0.101
-287.589	-17.914	0.182	-0.113
-286.574	-200.000	-0.031	-0.137
-285.559	73.347	-0.222	0.228
-284.545	59.712	0.103	0.100
-283.530	60.241	-0.130	-0.127
-282.516	-65.571	0.130	0.052
-281.501	60.436	-0.087	-0.085
-280.486	-53.530	-0.225	0.101
-279.472	-129.244	-0.214	-0.029
-278.457	147.376	-0.251	-0.333
-277.443	-91.781	-0.248	-0.069
-276.428	800.000	0.078	0.232
-275.413	-69.192	0.285	-0.108
-274.399	-200.000	0.042	0.322
-273.384	188.930	-0.240	0.355
-272.370	-200.000	-0.022	0.210
-271.355	248.716	0.081	0.134
-270.340	0.634	-0.044	0.031
-269.326	401.045	-0.106	0.219
-268.311	-82.419	0.344	0.110
-267.297	717.458	0.057	0.148
-266.282	-23.634	0.228	-0.134
-265.267	270.933	0.127	0.220
-264.253	100.521	0.185	0.212
-263.238	-200.000	-0.041	0.341
-262.224	698.862	0.043	0.112
-261.209	275.764	0.092	-0.161
-260.195	248.218	0.005	-0.008
-259.180	-72.116	0.209	0.076
-258.165	-109.258	-0.253	0.053
-257.151	-24.559	-0.096	0.056
-256.136	800.000	0.125	0.443
-255.122	-53.958	-0.318	-0.143
-254.107	-200.000	0.006	-0.045
-253.092	151.217	-0.060	0.080
-252.078	-129.577	-0.266	0.036
-251.063	31.978	-0.052	0.044
-250.049	-125.876	-0.347	0.052
-249.034	-83.977	0.048	0.015
-248.019	345.520	-0.036	0.070
-247.005	-165.104	0.353	0.015
-245.990	7.936	-0.137	0.101
-244.976	112.242	-0.252	0.300
-243.961	56.198	0.040	-0.038
-242.946	523.245	0.069	-0.160
-241.932	339.813	-0.301	-0.576
-240.917	11.109	0.010	-0.008
-239.903	-34.313	0.071	-0.038
-238.888	-200.000	-0.002	0.070
-237.873	800.000	0.156	0.479
-236.859	800.000	0.075	0.212
-235.844	15.652	-0.192	-0.148
-234.830	123.649	-0.041	0.050
-233.815	178.527	0.189	0.272
-232.800	-19.265	0.319	0.194
-231.786	-200.000	-0.032	-0.213
-230.771	-200.000	-0.015	0.096
-229.757	625.117	-0.051	0.126
-228.742	222.727	-0.161	-0.255
-227.727	-90.088	-0.152	-0.044
-226.713	-100.776	-0.056	-0.014
-225.698	30.691	0.311	0.262
-224.684	89.647	0.224	0.246
-223.669	-30.068	-0.050	0.028
-222.655	-200.000	0.045	-0.260
-221.640	-200.000	0.034	0.276
-220.625	2.650	0.335	-0.239
-219.611	-146.143	0.182	0.016
-218.596	-200.000	-0.056	0.283
-217.582	-48.946	0.256	0.121
-216.567	-55.115	-0.367	-0.162
-215.552	23.119	0.155	-0.125
-214.538	136.868	-0.278	0.357
-213.523	-138.833	-0.219	0.023
-212.509	50.287	-0.105	0.097
-211.494	39.593	0.145	-0.128
-210.479	128.138	0.091	0.113
-209.465	-17.952	-0.245	0.151
-208.450	-68.697	-0.123	-0.047
-207.436	147.899	0.269	-0.356
-206.421	-200.000	-0.141	0.001
-205.406	-99.238	0.202	0.050
-204.392	-149.785	0.198	-0.015
-203.377	226.093	0.200	-0.319
-202.363	-110.230	-0.090	-0.018
-201.348	23.233	-0.112	-0.091
-200.333	191.244	-0.122	0.181
-199.319	428.166	0.124	-0.262
-198.304	800.000	-0.017	0.062
-197.290	800.000	-0.067	-0.208
-196.275	-122.385	-0.323	0.052
-195.260	-157.283	0.156	0.009
-194.246	27.088	0.213	0.175
-193.231	648.528	-0.038	-0.095
-192.217	307.079	-0.051	0.093
-191.202	800.000	-0.039	0.137
-190.187	55.097	0.036	0.034
-189.173	142.584	0.078	0.101
-188.158	-200.000	-0.012	-0.120
-187.144	-136.790	-0.293	0.033
-186.129	-117.488	-0.203	0.036
-185.114	111.039	0.165	0.194
-184.100	-169.377	-0.075	-0.003
-183.085	-200.000	0.013	-0.139
-182.071	205.742	0.025	0.039
-181.056	56.589	-0.130	-0.124
-180.042	-161.490	0.359	-0.018
-179.027	800.000	-0.111	-0.304
-178.012	121.082	-0.153	0.187
-176.998	-37.983	0.365	0.190
-175.983	-200.000	-0.000	-0.083
-174.969	54.422	0.116	-0.109
-173.954	-200.000	-0.024	0.140
-172.939	-199.626	-0.422	0.002
-171.925	800.000	-0.027	-0.093
-170.910	-10.854	-0.058	0.037
-169.896	-29.942	0.312	0.174
-168.881	-183.695	0.289	-0.005
-167.866	84.594	-0.401	-0.430
-166.852	-22.258	-0.117	0.070
-165.837	800.000	0.067	-0.212
-164.823	37.675	0.132	0.115
-163.808	477.208	0.165	0.366
-162.793	-200.000	-0.010	-0.132
-161.779	686.138	0.047	0.121
-160.764	793.781	-0.079	0.212
-159.750	-124.284	-0.310	0.048
-158.735	297.998	0.050	0.090
-157.720	28.103	-0.225	0.186
-156.706	77.857	0.090	-0.094
-155.691	-109.666	0.364	0.075
-154.677	77.224	-0.215	0.224
-153.662	517.203	-0.072	-0.166
-152.647	245.254	0.104	-0.171
-151.633	563.614	0.113	-0.267
-150.618	-200.000	0.009	0.206
-149.604	22.215	0.354	-0.284
-148.589	-101.550	-0.170	0.041
-147.574	-88.954	0.181	0.053
-146.560	327.373	-0.167	0.314
-145.545	-8.573	0.295	-0.194
-144.531	97.435	-0.210	-0.236
-143.516	288.320	0.017	-0.031
-142.502	800.000	-0.015	-0.052
-141.487	-127.140	0.435	0.062
-140.472	-200.000	0.095	-0.564
-139.458	-135.607	-0.109	-0.013
-138.443	78.392	-0.138	0.144
-137.429	-31.125	-0.055	0.031
-136.414	-200.000	-0.009	-0.053
-135.399	-80.635	0.032	0.011
-134.385	14.180	-0.202	0.154
-133.370	30.437	0.232	0.194
-132.356	87.952	0.174	-0.189
-131.341	-101.380	-0.103	0.025
-130.326	434.824	-0.097	-0.206
-129.312	-200.000	0.046	0.252
-128.297	-200.000	-0.034	-0.348
-127.283	-44.064	0.123	0.060
-126.268	-200.000	0.063	0.303
-125.253	100.926	-0.154	0.176
-124.239	-98.443	-0.197	0.049
-123.224	-30.542	-0.188	0.104
-122.210	40.526	0.098	-0.086
-121.195	-44.218	-0.204	0.100
