DTS Sentinel unit serial number:	SN413079Multiplexer serial number:	ORYXHardware model number:	OX4-SRSoftware version number:	ORYX F/W v4.00 Oryx Data Collector v3.7.2.0data status	okinstallation	princeton_trtdifferential loss correction	single-endedforward channel	channel 3reverse channel	N/Adate	2019/09/14time	17:44:35forward acquisition time	60.00reverse acquisition time	0.00gamma	496.2192k internal	0.2297k external	0.2297temperature offset calibration	1.0023default loss term (dB/km)	0.3790temperature slope calibration	1.0000multiplexer offset coefficient	1.0000multiplexer slope coefficient	1.0000fibre end	0.00T internal ref (°C)	37.50T ext. ref 1 (°C)	5.04T ext. ref 2 (°C)	32.74length (m)	temperature (°C)	Stokes	anti-Stokes-747.200	17.943	0.252	0.205
-746.185	-28.115	0.026	-0.015
-745.171	225.566	0.120	0.199
-744.156	-77.427	0.182	-0.065
-743.142	-71.821	-0.143	-0.054
-742.127	-20.007	-0.173	0.109
-741.112	-169.214	-0.240	-0.009
-740.098	-71.685	-0.186	-0.071
-739.083	800.000	-0.048	0.191
-738.069	-106.414	-0.182	-0.041
-737.054	-34.494	0.169	0.095
-736.039	800.000	-0.066	-0.242
-735.025	-14.495	0.205	0.134
-734.010	-88.179	-0.174	-0.053
-732.996	-200.000	0.019	0.086
-731.981	260.943	0.084	0.149
-730.966	800.000	-0.049	0.207
-729.952	-45.649	-0.301	-0.152
-728.937	432.801	0.013	0.029
-727.923	73.492	-0.210	0.224
-726.908	-184.365	-0.302	0.005
-725.894	-116.315	-0.198	-0.037
-724.879	-200.000	-0.017	-0.186
-723.864	-78.685	-0.400	-0.139
-722.850	-61.234	-0.197	-0.085
-721.835	-200.000	-0.012	0.060
-720.821	-200.000	-0.029	0.169
-719.806	172.446	0.178	0.262
-718.791	286.360	0.100	-0.184
-717.777	-40.173	0.183	0.097
-716.762	-68.329	-0.188	-0.075
-715.748	48.580	0.275	-0.263
-714.733	-87.630	0.360	0.111
-713.718	39.666	0.051	0.047
-712.704	800.000	0.067	-0.275
-711.689	214.063	-0.161	-0.259
-710.675	88.003	0.085	-0.096
-709.660	-24.828	0.189	0.114
-708.645	-115.846	0.129	-0.025
-707.631	-165.587	-0.035	-0.002
-706.616	-200.000	-0.004	-0.083
-705.602	761.450	-0.119	-0.328
-704.587	-93.548	0.112	-0.031
-703.572	637.649	-0.032	0.082
-702.558	-200.000	0.009	0.232
-701.543	257.151	0.108	-0.190
-700.529	108.943	0.094	0.115
-699.514	-200.000	0.004	-0.201
-698.499	196.369	-0.092	-0.143
-697.485	800.000	0.029	-0.095
-696.470	-92.654	0.149	-0.042
-695.456	-23.212	-0.074	0.046
-694.441	-200.000	-0.040	-0.288
-693.426	-200.000	0.034	0.212
-692.412	800.000	0.105	-0.431
-691.397	60.362	0.114	0.115
-690.383	-62.061	-0.118	-0.050
-689.368	5.147	0.177	0.133
-688.354	-200.000	0.036	-0.219
-687.339	-28.817	0.072	0.042
-686.324	-69.998	-0.052	-0.020
-685.310	197.371	-0.065	0.102
-684.295	37.632	0.043	-0.039
-683.281	-95.663	0.072	-0.020
-682.266	-28.013	0.131	-0.077
-681.251	-66.192	-0.173	0.070
-680.237	243.934	-0.082	-0.140
-679.222	-123.104	0.458	0.075
-678.208	42.074	0.079	-0.073
-677.193	-106.320	-0.568	-0.129
-676.178	-16.915	0.087	0.056
-675.164	-117.033	-0.120	0.022
-674.149	-117.024	-0.296	-0.055
-673.135	800.000	-0.042	0.175
-672.120	-125.387	0.204	-0.032
-671.105	292.654	-0.124	-0.231
-670.091	-190.629	-0.218	0.002
-669.076	303.077	-0.098	0.184
-668.062	-141.766	-0.236	0.024
-667.047	-58.433	-0.242	-0.107
-666.032	-66.637	-0.117	0.047
-665.018	215.926	0.120	0.194
-664.003	70.426	-0.187	-0.197
-662.989	-200.000	-0.020	0.276
-661.974	800.000	-0.090	-0.273
-660.959	-98.109	0.142	-0.037
-659.945	-161.052	-0.220	-0.012
-658.930	-200.000	-0.045	-0.395
-657.916	70.907	0.148	-0.156
-656.901	255.219	0.153	0.266
-655.886	-143.594	-0.172	0.017
-654.872	800.000	-0.103	-0.303
-653.857	-90.823	0.270	0.079
-652.843	31.489	-0.196	-0.171
-651.828	483.825	0.126	-0.292
-650.814	70.753	-0.194	-0.204
-649.799	-200.000	0.009	-0.113
-648.784	800.000	0.076	0.338
-647.770	179.549	-0.143	0.213
-646.755	-200.000	0.001	0.066
-645.741	-200.000	-0.015	-0.337
-644.726	-24.862	-0.206	0.125
-643.711	-35.931	0.180	0.099
-642.697	228.276	0.036	-0.059
-641.682	26.922	0.096	0.082
-640.668	-200.000	-0.036	0.233
-639.653	261.040	-0.121	-0.213
-638.638	271.659	0.056	-0.101
-637.624	37.504	-0.132	-0.119
-636.609	135.475	0.162	-0.214
-635.595	63.375	-0.165	0.168
-634.580	-3.426	-0.038	-0.027
-633.565	-168.577	-0.142	0.005
-632.551	800.000	0.099	0.280
-631.536	-123.687	-0.150	0.024
-630.522	-200.000	0.031	-0.209
-629.507	-200.000	0.002	0.067
-628.492	800.000	0.077	-0.251
-627.478	-39.991	-0.101	0.053
-626.463	100.568	-0.077	0.091
-625.449	226.110	0.062	0.102
-624.434	-146.450	0.197	-0.017
-623.419	-2.529	-0.170	-0.121
-622.405	8.355	-0.116	-0.089
-621.390	-92.985	-0.416	0.118
-620.376	14.513	0.114	0.090
-619.361	-149.903	0.432	-0.034
-618.346	393.526	0.079	0.167
-617.332	-101.029	-0.095	0.024
-616.317	207.770	-0.292	-0.463
-615.303	-162.523	-0.261	-0.013
-614.288	142.505	0.189	0.255
-613.273	160.786	-0.176	-0.250
-612.259	-200.000	0.066	-0.392
-611.244	-43.738	-0.290	-0.148
-610.230	44.208	0.163	0.152
-609.215	-128.245	0.194	-0.028
-608.201	-171.748	0.127	0.004
-607.186	-200.000	0.037	0.447
-606.171	-23.951	0.023	-0.014
-605.157	-74.440	0.252	0.092
-604.142	-73.671	-0.032	0.012
-603.128	-104.659	-0.044	0.010
-602.113	-45.576	-0.052	-0.026
-601.098	-110.498	-0.372	-0.078
-600.084	32.717	-0.113	-0.099
-599.069	-200.000	-0.018	-0.158
-598.055	433.866	0.131	0.290
-597.040	-125.054	0.414	-0.065
-596.025	376.297	-0.020	0.042
-595.011	-200.000	0.020	-0.174
-593.996	-200.000	0.004	0.119
-592.982	-65.521	0.219	-0.089
-591.967	295.679	-0.102	-0.189
-590.952	-200.000	-0.016	-0.100
-589.938	100.715	-0.186	0.219
-588.923	40.890	-0.244	0.223
-587.909	24.685	0.272	-0.228
-586.894	332.580	0.085	-0.167
-585.879	-200.000	-0.160	0.841
-584.865	-136.038	-0.189	0.023
-583.850	-200.000	-0.012	-0.220
-582.836	-23.927	0.055	-0.033
-581.821	-93.093	-0.099	0.028
-580.806	-105.201	-0.208	0.048
-579.792	-122.924	-0.366	-0.060
-578.777	-25.541	-0.491	-0.294
-577.763	-144.986	0.298	-0.028
-576.748	-154.888	-0.180	0.012
-575.733	-71.776	-0.371	-0.140
-574.719	469.165	-0.048	-0.108
-573.704	-9.301	-0.496	0.336
-572.690	-200.000	-0.033	0.211
-571.675	65.668	0.149	0.153
-570.661	38.018	0.230	-0.208
-569.646	-200.000	0.004	-0.248
-568.631	-178.431	-0.271	0.006
-567.617	-97.261	0.269	0.071
-566.602	800.000	0.030	-0.126
-565.588	642.149	0.026	-0.067
-564.573	-64.615	0.636	0.262
-563.558	-200.000	-0.027	0.264
-562.544	74.609	-0.018	-0.019
-561.529	800.000	0.136	0.452
-560.515	-76.382	0.275	-0.098
-559.500	-200.000	0.016	0.251
-558.485	800.000	0.015	-0.052
-557.471	-84.804	-0.090	-0.029
-556.456	-34.889	-0.108	-0.060
-555.442	-51.963	-0.320	-0.151
-554.427	439.994	-0.044	0.096
-553.412	-88.346	0.296	-0.090
-552.398	109.571	-0.090	-0.109
-551.383	-60.201	0.155	0.067
-550.369	-200.000	-0.008	-0.039
-549.354	800.000	0.062	0.264
-548.339	65.433	-0.076	0.078
-547.325	-170.425	0.128	0.005
-546.310	520.670	-0.122	0.290
-545.296	4.053	0.125	-0.093
-544.281	0.021	-0.067	-0.049
-543.266	-200.000	-0.027	0.302
-542.252	29.223	0.065	-0.056
-541.237	39.256	0.104	0.095
-540.223	-200.000	-0.021	-0.133
-539.208	-38.490	0.160	-0.086
-538.193	19.822	-0.128	0.105
-537.179	800.000	-0.063	0.180
-536.164	-172.278	0.110	0.004
-535.150	-128.121	-0.172	-0.025
-534.135	99.986	0.155	0.183
-533.121	-88.398	-0.134	-0.041
-532.106	107.256	-0.208	-0.251
-531.091	414.226	-0.109	-0.236
-530.077	2.297	-0.032	-0.023
-529.062	-156.709	0.070	-0.004
-528.048	-200.000	0.011	-0.185
-527.033	-5.820	0.147	-0.102
-526.018	41.756	-0.085	-0.078
-525.004	-59.829	0.196	-0.085
-523.989	-108.381	-0.219	-0.048
-522.975	-200.000	-0.004	-0.191
-521.960	119.319	0.246	0.308
-520.945	-31.332	0.221	-0.126
-519.931	81.782	0.064	0.070
-518.916	-200.000	-0.025	-0.125
-517.902	-49.285	0.218	-0.105
-516.887	-82.726	-0.102	0.034
-515.872	-200.000	0.041	-0.353
-514.858	-44.764	-0.064	0.032
-513.843	-200.000	-0.006	0.135
-512.829	237.292	0.092	-0.154
-511.814	-149.935	-0.321	-0.025
-510.799	-38.014	-0.181	0.098
-509.785	-195.388	0.119	-0.001
-508.770	30.184	-0.270	-0.234
-507.756	14.857	0.272	-0.215
-506.741	800.000	0.065	-0.184
-505.726	12.282	0.137	0.107
-504.712	-47.710	-0.180	0.088
-503.697	-12.819	0.172	-0.113
-502.683	-74.111	0.214	0.078
-501.668	42.532	0.106	-0.098
-500.653	-200.000	-0.040	-0.508
-499.639	-85.057	-0.345	0.109
-498.624	-41.683	-0.196	0.102
-497.610	355.455	-0.059	0.119
-496.595	250.302	-0.087	-0.149
-495.581	-50.091	0.195	-0.093
-494.566	800.000	-0.076	-0.239
-493.551	172.184	-0.254	0.369
-492.537	-185.686	0.063	-0.001
-491.522	300.518	-0.150	-0.280
-490.508	246.853	-0.191	-0.325
-489.493	-21.988	0.239	0.147
-488.478	128.613	-0.034	0.044
-487.464	-106.511	0.218	-0.049
-486.449	55.941	0.220	-0.216
-485.435	-87.973	0.119	-0.036
-484.420	-154.190	-0.264	0.018
-483.405	-106.546	-0.192	-0.043
-482.391	-51.781	0.193	0.091
-481.376	-87.480	0.177	-0.054
-480.362	479.747	0.179	-0.411
-479.347	641.023	0.108	-0.277
-478.332	800.000	-0.049	0.142
-477.318	-200.000	0.008	0.058
-476.303	-14.720	0.184	0.119
-475.289	71.825	-0.155	0.163
-474.274	800.000	0.134	0.391
-473.259	800.000	0.142	-0.468
-472.245	48.665	0.092	0.087
-471.230	800.000	-0.025	-0.087
-470.216	800.000	0.095	0.323
-469.201	800.000	-0.083	0.271
-468.186	-200.000	-0.039	0.373
-467.172	227.728	-0.169	-0.278
-466.157	-2.477	0.190	0.135
-465.143	31.047	0.162	0.140
-464.128	-48.133	0.237	0.116
-463.113	112.448	0.115	-0.141
-462.099	-200.000	0.042	0.297
-461.084	-50.012	-0.315	-0.151
-460.070	77.437	-0.101	-0.108
-459.055	-200.000	0.015	-0.322
-458.040	277.688	-0.171	-0.308
-457.026	10.212	0.193	0.148
-456.011	-200.000	0.036	0.328
-454.997	37.685	0.095	0.085
-453.982	-22.060	-0.207	0.127
-452.968	160.117	-0.166	-0.233
-451.953	117.383	-0.071	0.088
-450.938	528.989	0.068	-0.163
-449.924	126.621	0.110	-0.141
-448.909	-14.699	-0.199	-0.129
-447.895	-129.116	0.123	-0.017
-446.880	-127.539	0.408	0.060
-445.865	207.132	0.097	0.153
-444.851	-70.213	0.237	0.091
-443.836	-97.537	0.320	0.084
-442.822	257.950	-0.076	-0.132
-441.807	-105.919	-0.286	-0.065
-440.792	-73.641	-0.088	-0.032
-439.778	391.724	0.238	-0.499
-438.763	-200.000	-0.028	-0.286
-437.749	-200.000	0.033	-0.205
-436.734	-200.000	-0.012	0.130
-435.719	-136.337	0.256	0.030
-434.705	-142.142	-0.141	-0.014
-433.690	-58.250	0.176	0.077
-432.676	97.444	0.259	-0.301
-431.661	800.000	-0.112	0.360
-430.646	92.282	0.185	0.210
-429.632	-119.677	-0.129	0.023
-428.617	118.773	0.200	-0.250
-427.603	406.212	-0.107	-0.227
-426.588	653.981	0.126	-0.325
-425.573	-117.652	0.101	-0.018
-424.559	258.217	-0.104	0.181
-423.544	-20.159	0.175	0.109
-422.530	328.314	0.100	0.194
-421.515	130.568	-0.235	-0.303
-420.500	706.320	0.094	0.249
-419.486	-20.243	-0.106	0.066
-418.471	346.303	-0.192	0.381
-417.457	-200.000	0.003	0.034
-416.442	23.790	0.163	-0.135
-415.428	-100.967	-0.067	0.017
-414.413	800.000	-0.065	-0.227
-413.398	-10.443	0.241	0.161
-412.384	106.544	-0.183	0.219
-411.369	800.000	0.127	-0.368
-410.355	-138.687	-0.018	-0.002
-409.340	-57.885	-0.060	0.026
-408.325	-71.992	0.197	0.074
-407.311	-20.531	-0.243	-0.151
-406.296	-109.642	-0.463	-0.098
-405.282	-0.843	-0.412	-0.294
-404.267	-91.505	-0.219	0.063
-403.252	378.662	-0.109	0.226
-402.238	-115.870	-0.275	-0.052
-401.223	-55.288	0.160	-0.073
-400.209	130.965	-0.069	-0.089
-399.194	-200.000	-0.018	-0.182
-398.179	451.771	-0.121	-0.269
-397.165	-6.718	0.229	-0.157
-396.150	151.559	0.147	-0.202
-395.136	-200.000	-0.065	-0.388
-394.121	-41.977	-0.023	-0.012
-393.106	129.043	0.107	-0.137
-392.092	72.149	0.101	-0.106
-391.077	-69.996	-0.200	0.077
-390.063	-200.000	0.023	0.121
-389.048	196.687	0.065	-0.100
-388.033	296.641	-0.151	0.280
-387.019	-75.339	-0.102	0.036
-386.004	800.000	0.059	0.244
-384.990	571.641	-0.114	0.279
-383.975	-86.903	0.154	-0.047
-382.960	342.627	0.156	-0.308
-381.946	-152.141	0.144	-0.011
-380.931	787.245	-0.067	-0.184
-379.917	-200.000	-0.006	0.160
-378.902	-81.099	-0.018	0.006
-377.888	-89.532	0.096	-0.028
-376.873	-139.948	-0.207	-0.022
-375.858	-200.000	0.031	0.268
-374.844	-200.000	0.031	-0.156
-373.829	-200.000	0.014	0.343
-372.815	-175.221	0.089	0.002
-371.800	-46.281	-0.262	0.130
-370.785	332.841	0.061	-0.118
-369.771	192.970	-0.197	-0.300
-368.756	127.126	-0.224	-0.286
-367.742	-45.373	0.165	-0.083
-366.727	-25.703	-0.313	0.186
-365.712	-200.000	0.001	-0.113
-364.698	-200.000	0.023	0.333
-363.683	-42.223	-0.352	0.181
-362.669	800.000	-0.038	-0.114
-361.654	227.084	0.113	-0.184
-360.639	-106.161	-0.273	-0.062
-359.625	-200.000	0.004	0.201
-358.610	29.334	0.053	0.045
-357.596	-200.000	-0.075	0.350
-356.581	-111.597	-0.370	0.076
-355.566	-54.524	0.250	0.114
-354.552	199.361	-0.129	0.199
-353.537	-140.573	0.203	0.021
-352.523	161.844	0.089	-0.125
-351.508	800.000	-0.017	-0.071
-350.493	800.000	-0.037	-0.152
-349.479	-200.000	-0.040	-0.362
-348.464	107.358	0.123	-0.147
-347.450	-114.899	0.234	-0.045
-346.435	-4.543	0.201	-0.140
-345.420	-200.000	-0.048	-0.229
-344.406	129.802	-0.088	-0.113
-343.391	-22.207	0.137	0.084
-342.377	1.596	-0.178	-0.129
-341.362	800.000	-0.064	0.263
-340.348	240.201	-0.120	-0.201
-339.333	170.617	0.134	0.193
-338.318	800.000	-0.090	0.387
-337.304	800.000	0.093	0.267
-336.289	-114.421	-0.365	0.070
-335.275	-47.410	0.338	-0.165
-334.260	-200.000	0.022	-0.371
-333.245	195.730	-0.108	0.165
-332.231	346.061	-0.172	0.339
-331.216	136.545	-0.131	0.171
-330.202	800.000	0.012	-0.044
-329.187	-200.000	0.012	0.374
-328.172	370.918	0.084	-0.172
-327.158	77.467	-0.019	-0.021
-326.143	16.553	0.132	-0.105
-325.129	-140.777	0.354	-0.037
-324.114	-109.704	-0.363	-0.077
-323.099	-200.000	-0.011	0.100
-322.085	-115.868	-0.219	-0.041
-321.070	-36.219	-0.149	0.080
-320.056	233.564	0.078	0.128
-319.041	-86.229	0.097	0.030
-318.026	-200.000	0.012	-0.141
-317.012	7.627	-0.362	0.272
-315.997	140.648	-0.169	0.224
-314.983	206.487	0.146	0.228
-313.968	-72.331	0.182	0.068
-312.953	-126.248	-0.251	0.038
-311.939	-200.000	0.011	-0.153
-310.924	188.243	-0.198	0.296
-309.910	-0.367	-0.176	0.125
-308.895	-200.000	-0.029	-0.147
-307.880	432.180	0.085	0.186
-306.866	89.889	0.411	0.460
-305.851	-98.874	0.288	-0.073
-304.837	-80.301	0.134	-0.045
-303.822	-200.000	0.012	0.153
-302.807	-200.000	0.013	0.147
-301.793	-58.017	-0.129	0.057
-300.778	124.481	0.179	0.226
-299.764	-200.000	-0.003	0.401
-298.749	-87.222	0.141	0.043
-297.735	800.000	0.065	-0.274
-296.720	579.512	0.063	-0.156
-295.705	-200.000	-0.011	-0.228
-294.691	378.362	-0.113	0.231
-293.676	173.175	0.088	-0.127
-292.662	800.000	-0.097	0.286
-291.647	-23.731	0.190	0.114
-290.632	335.383	-0.022	-0.042
-289.618	-19.166	-0.115	-0.072
-288.603	-200.000	0.018	-0.137
-287.589	18.545	0.261	0.210
-286.574	-146.461	0.146	0.013
-285.559	-109.355	-0.313	0.066
-284.545	12.216	-0.199	-0.154
-283.530	713.127	0.090	-0.240
-282.516	114.137	-0.045	0.055
-281.501	800.000	0.097	0.295
-280.486	64.845	-0.134	-0.136
-279.472	73.520	-0.248	-0.260
-278.457	-109.172	0.150	-0.032
-277.443	-60.332	0.156	-0.067
-276.428	-200.000	-0.040	-0.244
-275.413	-128.687	-0.245	0.035
-274.399	-57.709	0.269	0.118
-273.384	-200.000	-0.022	0.135
-272.370	25.088	-0.279	-0.232
-271.355	596.877	-0.082	-0.204
-270.340	390.318	-0.034	-0.070
-269.326	800.000	0.033	-0.126
-268.311	29.165	0.168	-0.143
-267.297	374.965	0.099	-0.202
-266.282	-88.827	-0.353	0.105
-265.267	48.932	-0.101	0.095
-264.253	219.224	0.129	-0.206
-263.238	-200.000	-0.028	-0.159
-262.224	55.031	-0.279	-0.270
-261.209	800.000	-0.006	0.019
-260.195	-200.000	0.003	-0.149
-259.180	-180.395	-0.145	-0.003
-258.165	9.735	0.015	0.012
-257.151	99.642	0.054	0.063
-256.136	283.547	0.181	-0.325
-255.122	567.186	0.082	0.200
-254.107	-36.264	0.076	-0.041
-253.092	29.937	0.271	-0.231
-252.078	601.935	-0.100	-0.248
-251.063	-126.303	0.310	0.046
-250.049	310.197	0.065	-0.122
-249.034	-200.000	0.019	0.323
-248.019	116.168	0.140	-0.172
-247.005	800.000	0.087	0.289
-245.990	-160.707	-0.198	0.011
-244.976	-8.299	-0.113	-0.076
-243.961	346.211	0.159	0.313
-242.946	322.061	0.112	0.213
-241.932	-15.790	0.060	-0.038
-240.917	337.365	0.046	-0.090
-239.903	228.196	0.100	0.162
-238.888	-2.505	0.167	0.117
-237.873	-146.298	-0.240	0.021
-236.859	-200.000	-0.020	-0.244
-235.844	-63.871	-0.477	-0.195
-234.830	-14.955	0.346	0.222
-233.815	209.326	0.134	-0.210
-232.800	-166.162	0.258	0.011
-231.786	-200.000	0.041	0.478
-230.771	9.642	-0.184	-0.139
-229.757	88.805	0.201	0.223
-228.742	42.936	-0.243	-0.222
-227.727	-200.000	0.035	0.248
-226.713	-85.862	0.213	-0.066
-225.698	-200.000	-0.008	-0.126
-224.684	-140.630	-0.319	0.033
-223.669	-26.822	0.103	-0.060
-222.655	10.422	0.116	-0.089
-221.640	390.365	-0.051	-0.106
-220.625	-22.938	0.070	-0.042
-219.611	169.360	0.127	0.182
-218.596	715.862	-0.107	0.285
-217.582	-200.000	0.028	0.122
-216.567	-119.621	-0.037	-0.006
-215.552	-31.013	-0.432	0.244
-214.538	-85.497	-0.294	0.091
-213.523	18.538	0.242	0.193
-212.509	-200.000	0.012	0.246
-211.494	800.000	0.024	-0.094
-210.479	-182.733	0.210	0.004
-209.465	79.398	0.312	0.334
-208.450	-79.662	0.170	-0.057
-207.436	115.779	0.234	-0.286
-206.421	-200.000	0.030	0.215
-205.406	98.597	0.379	0.437
-204.392	-92.258	0.159	0.045
-203.377	13.382	0.075	-0.058
-202.363	-76.212	-0.057	-0.020
-201.348	-90.516	0.281	0.081
-200.333	800.000	0.096	0.415
-199.319	800.000	-0.027	0.099
-198.304	215.290	-0.155	-0.246
-197.290	186.993	0.086	-0.127
-196.275	-200.000	0.020	0.205
-195.260	352.802	-0.166	-0.329
-194.246	-134.931	-0.222	-0.027
-193.231	800.000	0.099	-0.289
-192.217	403.675	-0.071	0.150
-191.202	-12.792	-0.301	0.196
-190.187	511.644	-0.015	-0.036
-189.173	-70.672	0.082	-0.031
-188.158	-12.048	-0.149	-0.097
-187.144	-22.608	0.181	0.109
-186.129	-133.313	0.143	-0.018
-185.114	-74.360	-0.199	0.072
-184.100	147.847	-0.184	0.247
-183.085	56.717	-0.216	0.210
-182.071	427.084	0.123	0.265
-181.056	-26.436	0.234	-0.137
-180.042	33.461	0.122	0.106
-179.027	494.490	0.137	-0.314
-178.012	-200.000	0.032	0.241
-176.998	800.000	-0.071	0.225
-175.983	582.528	0.032	-0.079
-174.969	90.434	-0.286	-0.320
-173.954	485.350	-0.117	-0.265
-172.939	205.604	0.094	-0.147
-171.925	-136.278	-0.221	-0.026
-170.910	-194.320	-0.257	0.002
-169.896	97.246	0.300	-0.343
-168.881	-200.000	-0.027	0.156
-167.866	65.122	0.208	0.210
-166.852	-6.905	-0.185	-0.126
-165.837	285.663	-0.031	-0.057
-164.823	-191.568	-0.297	0.003
-163.808	800.000	0.082	-0.278
-162.793	800.000	-0.031	0.123
-161.779	-37.095	-0.177	0.095
-160.764	68.753	0.176	0.180
-159.750	-120.578	0.310	-0.052
-158.735	-200.000	0.014	0.116
-157.720	-200.000	-0.012	-0.094
-156.706	50.183	0.116	0.109
-155.691	18.451	0.259	0.207
-154.677	66.678	-0.224	-0.228
-153.662	-58.445	-0.053	-0.023
-152.647	-119.726	0.206	-0.035
-151.633	456.908	-0.067	-0.149
-150.618	150.433	0.042	-0.057
-149.604	222.175	0.153	-0.246
-148.589	-117.187	-0.079	-0.014
-147.574	-200.000	0.014	0.195
-146.560	253.448	0.045	0.076
-145.545	5.154	-0.290	0.213
-144.531	21.102	-0.154	0.125
-143.516	-83.220	-0.057	-0.018
-142.502	-200.000	0.026	-0.203
-141.487	72.903	-0.080	-0.084
-140.472	-200.000	-0.013	0.076
-139.458	-21.636	0.112	0.068
-138.443	-200.000	0.052	0.306
-137.429	-18.683	0.219	0.136
-136.414	-139.066	-0.109	-0.012
-135.399	10.129	0.212	-0.161
-134.385	-105.597	-0.191	-0.043
-133.370	-111.733	0.119	0.024
-132.356	456.865	-0.116	-0.257
-131.341	-167.794	-0.051	-0.002
-130.326	-133.145	0.158	-0.020
-129.312	19.085	0.226	0.181
-128.297	800.000	-0.047	0.153
-127.283	12.619	0.063	0.049
-126.268	-3.961	-0.342	0.236
-125.253	49.910	0.111	-0.104
-124.239	66.098	-0.220	0.222
-123.224	150.140	-0.241	0.326
-122.210	800.000	-0.015	-0.057
