DTS Sentinel unit serial number:	SN413079Multiplexer serial number:	ORYXHardware model number:	OX4-SRSoftware version number:	ORYX F/W v4.00 Oryx Data Collector v3.7.2.0data status	okinstallation	princeton_trtdifferential loss correction	single-endedforward channel	channel 3reverse channel	N/Adate	2019/09/18time	20:20:35forward acquisition time	60.00reverse acquisition time	0.00gamma	496.2192k internal	0.2335k external	0.2335temperature offset calibration	1.0009default loss term (dB/km)	0.3790temperature slope calibration	1.0000multiplexer offset coefficient	1.0000multiplexer slope coefficient	1.0000fibre end	0.00T internal ref (°C)	28.94T ext. ref 1 (°C)	1.05T ext. ref 2 (°C)	19.66length (m)	temperature (°C)	Stokes	anti-Stokes-747.200	0.613	-0.291	0.209
-746.185	-156.614	-0.199	0.012
-745.171	-200.000	-0.005	-0.323
-744.156	359.720	-0.070	-0.140
-743.142	-155.537	0.384	0.025
-742.127	-200.000	-0.066	0.424
-741.112	-200.000	0.025	0.126
-740.098	109.581	-0.174	0.210
-739.083	83.583	-0.111	0.122
-738.069	183.775	-0.075	-0.111
-737.054	500.566	-0.057	-0.132
-736.039	800.000	-0.101	-0.393
-735.025	142.376	0.150	0.200
-734.010	-200.000	0.024	-0.508
-732.996	-76.350	-0.239	-0.085
-731.981	800.000	0.036	-0.111
-730.966	-200.000	0.045	-0.227
-729.952	-101.174	0.193	0.047
-728.937	-200.000	0.010	0.144
-727.923	-118.269	-0.321	-0.057
-726.908	66.574	0.131	0.134
-725.894	-104.638	0.225	0.052
-724.879	10.077	-0.149	-0.113
-723.864	-26.858	0.296	0.174
-722.850	-146.130	0.315	0.028
-721.835	-49.269	-0.122	0.058
-720.821	-32.544	-0.125	-0.070
-719.806	-18.151	-0.145	0.091
-718.791	171.238	0.182	-0.262
-717.777	-200.000	-0.015	-0.082
-716.762	-60.660	0.386	-0.164
-715.748	12.968	-0.052	-0.041
-714.733	-164.446	0.026	-0.001
-713.718	-15.444	0.101	-0.065
-712.704	35.561	0.263	0.231
-711.689	98.560	0.172	-0.198
-710.675	-175.742	-0.060	0.002
-709.660	-44.604	0.323	0.162
-708.645	-2.988	0.053	0.037
-707.631	-142.456	0.135	0.013
-706.616	-52.756	-0.276	-0.128
-705.602	278.934	0.062	-0.111
-704.587	-200.000	-0.018	-0.178
-703.572	218.232	-0.339	-0.543
-702.558	-200.000	0.051	-0.303
-701.543	-48.255	0.156	-0.076
-700.529	-149.062	0.147	-0.012
-699.514	201.579	0.077	-0.118
-698.499	-200.000	-0.056	0.260
-697.485	636.801	0.111	0.282
-696.470	56.221	-0.299	-0.292
-695.456	-107.465	0.248	0.055
-694.441	-119.010	0.261	0.046
-693.426	-200.000	-0.044	-0.200
-692.412	17.744	0.069	0.055
-691.397	135.997	0.094	0.123
-690.383	-82.815	0.406	-0.132
-689.368	160.430	-0.085	-0.119
-688.354	419.800	0.209	-0.449
-687.339	-129.519	0.220	0.031
-686.324	74.560	-0.152	-0.160
-685.310	-108.534	-0.141	-0.030
-684.295	-200.000	0.008	-0.200
-683.281	-56.626	0.238	-0.106
-682.266	19.620	-0.356	-0.287
-681.251	-200.000	0.016	0.347
-680.237	61.298	0.152	-0.151
-679.222	282.176	-0.233	-0.419
-678.208	15.600	-0.108	-0.085
-677.193	800.000	-0.025	0.084
-676.178	91.404	-0.104	-0.118
-675.164	91.326	-0.245	0.275
-674.149	-200.000	0.001	-0.286
-673.135	-82.705	-0.256	0.083
-672.120	246.575	-0.018	0.030
-671.105	-40.574	0.157	-0.082
-670.091	-102.835	0.119	0.028
-669.076	-78.084	0.187	0.065
-668.062	-200.000	0.038	-0.445
-667.047	-160.743	0.089	0.005
-666.032	800.000	0.095	-0.283
-665.018	800.000	0.141	-0.394
-664.003	-200.000	0.012	-0.102
-662.989	800.000	0.050	-0.195
-661.974	-135.260	0.324	-0.039
-660.959	-154.948	0.210	-0.014
-659.945	-93.457	-0.008	0.002
-658.930	800.000	-0.054	-0.223
-657.916	293.452	0.134	-0.244
-656.901	-60.696	0.219	0.093
-655.886	455.475	0.029	0.065
-654.872	-2.589	0.101	0.071
-653.857	-35.122	-0.469	-0.256
-652.843	1.261	-0.067	-0.048
-651.828	-62.068	0.307	0.128
-650.814	800.000	0.083	-0.248
-649.799	-139.213	0.078	-0.008
-648.784	-200.000	-0.009	-0.285
-647.770	90.186	-0.089	-0.100
-646.755	-116.406	-0.201	-0.037
-645.741	-170.581	-0.115	0.004
-644.726	-52.066	-0.231	0.107
-643.711	-58.605	0.345	0.150
-642.697	-28.709	0.207	-0.119
-641.682	-200.000	0.012	0.057
-640.668	-146.487	0.344	-0.030
-639.653	800.000	0.169	-0.568
-638.638	70.878	0.068	-0.070
-637.624	-121.594	0.463	0.077
-636.609	800.000	-0.148	-0.411
-635.595	-200.000	0.015	-0.088
-634.580	32.650	0.181	-0.156
-633.565	470.151	0.159	-0.356
-632.551	800.000	0.058	-0.179
-631.536	-68.462	-0.136	0.053
-630.522	-67.016	0.185	-0.073
-629.507	-200.000	0.018	0.097
-628.492	-82.030	-0.179	0.058
-627.478	219.564	0.037	0.060
-626.463	303.110	0.087	0.161
-625.449	98.282	0.057	0.066
-624.434	42.070	0.076	-0.069
-623.419	-41.922	-0.228	0.117
-622.405	-14.446	-0.242	0.156
-621.390	-6.516	0.067	-0.045
-620.376	431.372	0.118	0.256
-619.361	-200.000	-0.000	0.105
-618.346	-200.000	-0.025	-0.180
-617.332	-200.000	-0.006	-0.128
-616.317	-42.447	0.189	0.096
-615.303	-102.386	0.085	0.020
-614.288	-140.994	0.188	0.019
-613.273	-200.000	0.035	-0.296
-612.259	-74.303	-0.077	-0.028
-611.244	-33.491	-0.210	0.116
-610.230	77.432	-0.155	0.165
-609.215	-87.865	-0.380	-0.114
-608.201	800.000	-0.110	-0.427
-607.186	-157.412	0.291	-0.018
-606.171	800.000	0.065	0.264
-605.157	-138.894	0.138	0.015
-604.142	22.138	0.062	-0.051
-603.128	-194.738	-0.325	-0.003
-602.113	252.865	-0.150	0.256
-601.098	-200.000	-0.026	0.322
-600.084	-138.537	-0.284	-0.031
-599.069	800.000	-0.063	0.245
-598.055	-200.000	-0.003	-0.127
-597.040	-200.000	-0.014	0.101
-596.025	9.854	-0.461	0.349
-595.011	-128.574	0.651	0.092
-593.996	-200.000	0.067	0.297
-592.982	-57.656	0.142	0.062
-591.967	-50.104	0.256	-0.121
-590.952	-14.279	0.132	0.085
-589.938	77.178	0.256	0.272
-588.923	-200.000	-0.039	-0.207
-587.909	162.925	0.145	-0.203
-586.894	-76.334	0.237	0.083
-585.879	-90.128	-0.129	0.037
-584.865	-160.377	-0.114	-0.006
-583.850	-187.373	-0.163	0.002
-582.836	-200.000	-0.057	-0.255
-581.821	-86.453	-0.264	-0.081
-580.806	-125.669	-0.213	-0.032
-579.792	62.534	0.194	-0.194
-578.777	-104.834	-0.052	0.012
-577.763	-57.986	-0.150	-0.065
-576.748	152.737	-0.029	0.040
-575.733	-27.664	0.474	0.274
-574.719	490.202	0.044	0.100
-573.704	-70.676	-0.118	-0.045
-572.690	92.650	0.081	0.091
-571.675	-157.399	-0.308	0.018
-570.661	800.000	-0.065	-0.187
-569.646	42.863	0.127	0.116
-568.631	479.738	-0.125	-0.283
-567.617	-103.711	-0.119	-0.028
-566.602	800.000	0.066	-0.183
-565.588	-39.865	-0.191	-0.100
-564.573	147.834	0.158	-0.213
-563.558	-136.377	-0.128	-0.015
-562.544	12.165	-0.176	0.135
-561.529	-67.019	-0.084	0.033
-560.515	93.953	-0.003	-0.003
-559.500	-200.000	0.020	0.249
-558.485	86.951	0.113	-0.125
-557.471	195.674	0.116	-0.175
-556.456	-158.202	-0.409	0.024
-555.442	50.102	-0.167	-0.157
-554.427	-88.085	-0.295	0.088
-553.412	800.000	0.087	-0.252
-552.398	-200.000	-0.060	0.348
-551.383	200.990	0.060	-0.092
-550.369	231.724	0.161	-0.263
-549.354	66.077	0.096	-0.097
-548.339	800.000	-0.018	-0.051
-547.325	387.120	-0.156	-0.322
-546.310	718.098	-0.202	-0.534
-545.296	-23.162	-0.098	-0.059
-544.281	-18.488	0.240	0.149
-543.266	-171.187	-0.250	0.008
-542.252	-88.143	0.280	-0.084
-541.237	-2.366	-0.108	-0.075
-540.223	-64.342	-0.201	0.082
-539.208	-200.000	0.003	-0.126
-538.193	678.557	-0.032	-0.083
-537.179	-28.355	0.299	0.172
-536.164	210.021	0.034	-0.053
-535.150	14.308	0.067	-0.052
-534.135	-86.219	-0.149	0.046
-533.121	-103.065	0.204	0.048
-532.106	-81.167	0.218	-0.072
-531.091	-14.407	0.134	-0.086
-530.077	-5.475	0.136	0.093
-529.062	-158.039	0.122	-0.007
-528.048	410.655	0.052	-0.110
-527.033	-46.377	-0.048	-0.023
-526.018	149.824	-0.069	-0.093
-525.004	188.045	0.160	0.238
-523.989	-200.000	0.020	0.518
-522.975	229.932	-0.018	0.030
-521.960	-200.000	0.002	-0.030
-520.945	-154.750	-0.343	0.023
-519.931	-63.854	-0.072	-0.029
-518.916	-47.502	0.397	-0.192
-517.902	-161.991	-0.322	-0.016
-516.887	95.126	-0.121	0.137
-515.872	408.405	-0.083	0.175
-514.858	-200.000	0.056	0.448
-513.843	48.988	-0.159	0.149
-512.829	-57.022	0.088	-0.039
-511.814	442.885	-0.153	-0.333
-510.799	724.465	-0.019	0.051
-509.785	136.890	-0.270	-0.351
-508.770	-200.000	-0.011	0.150
-507.756	462.712	-0.116	0.259
-506.741	-124.787	-0.366	-0.056
-505.726	-200.000	0.020	0.101
-504.712	-71.723	-0.259	0.096
-503.697	-200.000	0.012	-0.193
-502.683	-170.074	0.368	0.013
-501.668	455.733	0.112	0.248
-500.653	-54.774	-0.173	0.078
-499.639	800.000	-0.040	0.126
-498.624	374.973	0.234	0.474
-497.610	-200.000	-0.009	-0.081
-496.595	-68.874	-0.213	0.082
-495.581	-200.000	-0.054	-0.299
-494.566	-6.400	-0.277	-0.188
-493.551	800.000	0.075	0.251
-492.537	122.391	-0.119	0.147
-491.522	-200.000	-0.023	0.118
-490.508	696.838	-0.057	0.149
-489.493	-126.707	0.294	-0.043
-488.478	3.725	-0.195	-0.141
-487.464	108.686	0.187	-0.223
-486.449	-72.875	0.304	0.111
-485.435	162.959	-0.118	-0.164
-484.420	-200.000	-0.058	-0.338
-483.405	161.526	-0.162	-0.225
-482.391	155.949	0.209	-0.286
-481.376	58.442	0.009	0.009
-480.362	335.035	-0.232	-0.446
-479.347	83.867	-0.200	0.218
-478.332	-200.000	-0.279	-0.000
-477.318	-200.000	0.008	-0.051
-476.303	151.988	0.062	-0.084
-475.289	-62.957	-0.052	0.021
-474.274	-179.106	-0.171	0.004
-473.259	-200.000	0.061	0.346
-472.245	-40.350	-0.261	0.135
-471.230	-39.742	0.107	0.056
-470.216	247.499	0.061	-0.103
-469.201	211.288	-0.264	-0.412
-468.186	-134.237	0.320	0.039
-467.172	10.288	-0.201	-0.152
-466.157	-142.899	0.202	-0.019
-465.143	-200.000	-0.025	-0.205
-464.128	-33.929	0.170	0.093
-463.113	170.611	-0.031	-0.044
-462.099	85.405	-0.127	-0.139
-461.084	320.331	0.044	0.083
-460.070	800.000	-0.069	-0.189
-459.055	84.100	0.184	-0.199
-458.040	-105.571	0.124	0.028
-457.026	-139.352	-0.054	-0.006
-456.011	-200.000	0.030	-0.278
-454.997	-162.268	0.323	-0.016
-453.982	-134.994	-0.100	0.012
-452.968	-91.870	0.112	-0.032
-451.953	-67.934	0.081	0.032
-450.938	-48.814	-0.173	0.082
-449.924	90.332	0.139	0.154
-448.909	-18.504	-0.286	0.177
-447.895	461.722	-0.130	-0.288
-446.880	-96.671	-0.090	-0.023
-445.865	-26.177	-0.167	0.098
-444.851	5.597	0.520	0.382
-443.836	601.825	0.109	0.269
-442.822	-132.935	-0.100	-0.013
-441.807	142.257	-0.144	0.189
-440.792	-158.178	0.194	0.011
-439.778	39.472	-0.083	0.074
-438.763	-200.000	0.002	0.017
-437.749	-200.000	-0.003	-0.157
-436.734	-48.770	-0.157	0.075
-435.719	175.992	0.037	-0.053
-434.705	241.324	-0.037	0.061
-433.690	-119.180	-0.214	-0.037
-432.676	800.000	0.170	0.513
-431.661	-200.000	0.008	0.281
-430.646	160.164	0.160	0.221
-429.632	-55.150	0.283	0.126
-428.617	22.173	-0.195	0.158
-427.603	88.857	-0.222	-0.245
-426.588	800.000	0.043	0.129
-425.573	-38.171	-0.017	0.009
-424.559	-6.709	-0.218	0.147
-423.544	472.236	0.086	-0.191
-422.530	-9.384	0.121	-0.080
-421.515	272.876	0.131	-0.229
-420.500	-107.938	0.254	-0.055
-419.486	-54.163	-0.093	0.042
-418.471	800.000	-0.074	-0.209
-417.457	-146.189	-0.170	0.015
-416.442	-112.232	-0.210	-0.042
-415.428	-61.128	-0.307	0.129
-414.413	-74.826	-0.124	-0.044
-413.398	145.329	-0.039	-0.052
-412.384	38.793	0.228	-0.202
-411.369	568.631	-0.088	-0.212
-410.355	231.546	0.070	0.113
-409.340	-21.661	0.227	0.137
-408.325	74.128	-0.248	0.258
-407.311	-100.573	-0.471	0.115
-406.296	150.686	-0.134	-0.180
-405.282	-28.427	-0.122	-0.070
-404.267	800.000	-0.117	0.327
-403.252	106.238	-0.211	-0.248
-402.238	-25.047	0.106	0.062
-401.223	41.881	-0.271	0.244
-400.209	-6.994	-0.056	0.037
-399.194	4.387	0.169	-0.123
-398.179	-49.226	-0.167	-0.079
-397.165	-89.626	0.164	0.048
-396.150	-78.165	-0.192	0.065
-395.136	451.551	-0.083	-0.183
-394.121	-169.267	0.455	-0.017
-393.106	800.000	-0.011	-0.037
-392.092	-200.000	-0.029	0.151
-391.077	-84.386	-0.069	0.022
-390.063	-162.979	-0.099	-0.005
-389.048	-40.465	-0.113	0.058
-388.033	-200.000	-0.045	-0.509
-387.019	125.781	-0.175	-0.219
-386.004	111.367	-0.148	-0.176
-384.990	800.000	-0.058	0.159
-383.975	42.080	-0.246	0.221
-382.960	105.100	0.100	-0.117
-381.946	-20.838	-0.174	-0.106
-380.931	-85.405	-0.163	0.050
-379.917	-28.765	0.172	0.098
-378.902	-110.415	0.223	-0.046
-377.888	43.801	0.015	0.014
-376.873	-200.000	-0.034	0.158
-375.858	302.668	-0.037	-0.067
-374.844	-63.028	-0.325	0.133
-373.829	-55.505	-0.045	0.020
-372.815	564.140	0.161	-0.385
-371.800	-102.266	-0.398	0.095
-370.785	800.000	0.104	0.335
-369.771	-1.259	0.263	-0.184
-368.756	491.793	0.045	0.101
-367.742	-200.000	-0.029	-0.150
-366.727	6.612	-0.149	0.110
-365.712	318.499	0.147	0.275
-364.698	800.000	0.107	0.318
-363.683	-200.000	0.006	-0.050
-362.669	-122.762	0.243	0.039
-361.654	56.716	-0.169	-0.163
-360.639	-16.284	-0.256	-0.161
-359.625	145.330	-0.214	0.284
-358.610	-153.429	-0.086	0.006
-357.596	-100.909	-0.283	-0.069
-356.581	133.275	-0.188	0.240
-355.566	-181.734	0.344	-0.007
-354.552	-200.000	0.007	0.233
-353.537	800.000	-0.078	0.217
-352.523	230.836	-0.196	0.317
-351.508	64.794	0.401	0.400
-350.493	-136.492	-0.263	-0.030
-349.479	0.928	0.176	-0.125
-348.464	-29.030	-0.150	0.085
-347.450	-42.105	-0.216	-0.109
-346.435	124.216	0.194	-0.241
-345.420	268.511	0.142	0.246
-344.406	89.310	0.099	-0.110
-343.391	744.954	0.141	0.375
-342.377	10.775	-0.140	0.106
-341.362	-119.916	-0.127	-0.022
-340.348	-43.766	0.314	-0.156
-339.333	-92.443	0.164	-0.046
-338.318	78.486	0.089	0.094
-337.304	-79.787	-0.130	-0.043
-336.289	-91.778	0.335	-0.094
-335.275	113.588	0.136	-0.164
-334.260	-200.000	-0.047	-0.251
-333.245	-121.440	0.064	-0.011
-332.231	800.000	-0.117	0.444
-331.216	613.871	0.032	-0.078
-330.202	-5.729	0.287	-0.194
-329.187	-55.822	0.265	0.117
-328.172	-28.960	-0.018	0.010
-327.158	68.138	-0.103	0.104
-326.143	234.775	0.135	-0.220
-325.129	-3.459	-0.190	0.131
-324.114	264.146	-0.100	0.173
-323.099	-200.000	0.071	0.365
-322.085	27.833	0.178	-0.148
-321.070	499.270	-0.044	-0.100
-320.056	-71.516	0.213	-0.079
-319.041	80.100	0.033	-0.035
-318.026	800.000	-0.122	-0.342
-317.012	-101.032	-0.130	0.032
-315.997	-68.855	0.182	0.070
-314.983	-121.709	-0.110	0.018
-313.968	90.208	-0.185	-0.205
-312.953	-10.316	-0.245	0.161
-311.939	-170.754	-0.021	0.001
-310.924	-200.000	0.012	-0.390
-309.910	393.005	0.135	-0.278
-308.895	116.743	0.252	-0.306
-307.880	260.425	0.152	-0.260
-306.866	46.678	0.084	-0.077
-305.851	172.675	-0.044	0.063
-304.837	800.000	0.068	0.275
-303.822	728.483	-0.056	0.149
-302.807	29.007	-0.209	-0.175
-301.793	-200.000	-0.021	-0.185
-300.778	800.000	0.106	-0.409
-299.764	-200.000	0.001	-0.239
-298.749	33.637	0.091	-0.078
-297.735	49.019	0.066	-0.061
-296.720	-58.047	0.131	0.056
-295.705	-121.797	0.317	-0.052
-294.691	-73.064	0.075	-0.027
-293.676	247.248	-0.030	-0.051
-292.662	-200.000	0.016	0.169
-291.647	46.240	0.156	0.143
-290.632	-200.000	-0.035	0.299
-289.618	800.000	0.056	0.182
-288.603	-66.730	-0.304	-0.119
-287.589	31.011	-0.101	-0.086
-286.574	315.863	-0.056	-0.105
-285.559	26.651	0.320	-0.264
-284.545	-58.812	-0.103	0.044
-283.530	800.000	0.053	0.220
-282.516	634.425	-0.027	-0.069
-281.501	-43.680	-0.134	-0.067
-280.486	267.240	0.035	-0.060
-279.472	97.289	-0.155	0.176
-278.457	103.503	-0.064	0.074
-277.443	476.355	-0.088	-0.197
-276.428	511.304	0.037	0.084
-275.413	-108.090	-0.179	0.038
-274.399	-200.000	-0.015	0.306
-273.384	-200.000	0.001	-0.058
-272.370	-83.175	-0.227	-0.072
-271.355	-45.508	-0.330	0.161
-270.340	-107.415	0.132	-0.029
-269.326	-180.150	0.169	0.004
-268.311	-65.606	0.142	0.056
-267.297	250.081	0.010	-0.018
-266.282	151.190	0.200	-0.268
-265.267	7.638	0.215	-0.158
-264.253	-200.000	-0.037	0.213
-263.238	-2.683	0.295	0.204
-262.224	800.000	-0.063	-0.175
-261.209	-61.281	0.224	-0.093
-260.195	-200.000	0.003	0.085
-259.180	524.038	0.151	0.350
-258.165	-40.046	0.202	-0.104
-257.151	-85.811	0.080	-0.024
-256.136	116.176	-0.071	-0.086
-255.122	-50.375	-0.254	-0.118
-254.107	-170.254	0.137	-0.005
-253.092	-82.340	0.057	-0.018
-252.078	541.340	0.018	0.042
-251.063	-111.373	-0.059	-0.012
-250.049	309.447	-0.066	0.122
-249.034	-79.283	0.308	0.103
-248.019	585.034	0.080	0.194
-247.005	37.994	-0.156	-0.136
-245.990	138.539	0.141	-0.182
-244.976	-129.281	-0.280	0.038
-243.961	-86.212	0.302	0.092
-242.946	11.234	-0.028	-0.021
-241.932	48.676	-0.098	-0.091
-240.917	-87.351	0.252	-0.075
-239.903	135.642	-0.175	-0.224
-238.888	12.954	0.157	0.120
-237.873	-83.748	0.343	0.108
-236.859	-29.802	-0.463	-0.260
-235.844	-64.502	0.282	0.113
-234.830	326.166	-0.126	-0.238
-233.815	-200.000	0.015	0.151
-232.800	-200.000	0.032	0.344
-231.786	-13.663	0.255	0.163
-230.771	-52.612	0.526	0.239
-229.757	-200.000	-0.006	-0.135
-228.742	-72.346	-0.330	0.120
-227.727	262.708	0.110	-0.188
-226.713	166.804	0.119	-0.166
-225.698	-197.847	-0.303	-0.002
-224.684	800.000	0.015	0.055
-223.669	-84.667	0.310	-0.096
-222.655	113.099	-0.151	-0.180
-221.640	143.288	-0.045	0.058
-220.625	-50.870	0.258	0.119
-219.611	-159.339	0.224	-0.012
-218.596	800.000	-0.085	0.313
-217.582	308.803	-0.195	-0.359
-216.567	-1.540	0.171	0.119
-215.552	-132.347	-0.260	0.033
-214.538	-145.059	0.279	0.025
-213.523	-0.554	0.135	-0.094
-212.509	-91.159	0.127	-0.036
-211.494	-200.000	-0.011	-0.235
-210.479	3.045	-0.119	-0.085
-209.465	-200.000	-0.027	0.304
-208.450	-73.498	0.157	0.056
-207.436	-176.797	0.082	0.002
-206.421	-37.076	0.334	0.176
-205.406	-70.187	-0.195	-0.073
-204.392	3.691	-0.145	0.104
-203.377	800.000	0.028	0.093
-202.363	-122.620	0.111	0.018
-201.348	-119.145	0.409	-0.070
-200.333	-200.000	0.053	0.268
-199.319	-76.639	0.154	-0.053
-198.304	400.673	0.030	-0.063
-197.290	-35.372	0.126	-0.067
-196.275	-119.470	-0.058	-0.010
-195.260	322.558	0.136	-0.255
-194.246	98.847	-0.074	0.084
-193.231	-132.862	0.249	0.031
-192.217	800.000	-0.115	0.404
-191.202	-200.000	0.005	0.031
-190.187	37.546	0.195	-0.170
-189.173	-46.492	-0.331	-0.160
-188.158	-73.387	0.241	0.087
-187.144	173.149	-0.098	0.139
-186.129	181.191	-0.321	0.464
-185.114	800.000	-0.053	0.147
-184.100	-99.134	-0.327	-0.081
-183.085	-33.535	-0.076	0.041
-182.071	-4.698	0.137	0.093
-181.056	74.569	-0.302	0.312
-180.042	328.005	-0.081	-0.153
-179.027	29.994	0.127	-0.107
-178.012	108.686	0.235	0.275
-176.998	77.039	0.118	-0.123
-175.983	23.931	0.310	-0.252
-174.969	-41.927	0.041	-0.021
-173.954	-38.942	0.089	0.046
-172.939	-83.854	-0.314	-0.098
-171.925	246.577	-0.143	0.237
-170.910	45.305	0.012	0.011
-169.896	-127.571	-0.104	0.015
-168.881	-34.792	-0.224	0.120
-167.866	53.156	-0.320	-0.301
-166.852	-148.131	-0.273	0.022
-165.837	135.874	0.149	0.191
-164.823	-200.000	-0.046	0.239
-163.808	4.170	0.319	0.229
-162.793	176.190	0.083	-0.118
-161.779	-119.052	0.430	-0.074
-160.764	91.609	-0.216	0.238
-159.750	-113.726	-0.330	0.063
-158.735	-200.000	0.017	-0.134
-157.720	-200.000	0.004	-0.117
-156.706	-200.000	-0.074	-0.319
-155.691	-49.138	-0.145	-0.068
-154.677	81.350	-0.052	0.055
-153.662	-10.419	0.073	-0.047
-152.647	37.488	0.116	0.101
-151.633	-200.000	0.039	-0.221
-150.618	-200.000	0.007	-0.276
-149.604	592.535	0.020	0.049
-148.589	-200.000	0.015	-0.686
-147.574	-200.000	0.059	-0.331
-146.560	-53.963	0.427	-0.191
-145.545	723.793	0.066	0.172
-144.531	800.000	-0.053	0.145
-143.516	-9.238	-0.246	0.162
-142.502	-78.220	0.055	0.019
-141.487	800.000	-0.068	-0.260
-140.472	389.135	0.121	-0.247
-139.458	-120.965	0.216	0.036
-138.443	505.562	-0.078	0.177
-137.429	105.560	-0.097	0.113
-136.414	-93.697	0.291	-0.079
-135.399	103.349	0.092	-0.106
-134.385	239.320	0.066	-0.108
-133.370	-200.000	0.025	0.266
-132.356	478.942	-0.015	-0.034
-131.341	-200.000	0.007	-0.136
-130.326	161.833	0.121	-0.166
-129.312	800.000	-0.171	0.493
-128.297	162.434	0.325	-0.448
-127.283	256.733	0.146	-0.245
-126.268	-24.148	0.252	0.148
-125.253	-115.352	0.662	-0.123
-124.239	102.367	-0.207	0.238
-123.224	151.287	-0.149	0.199
-122.210	-174.646	0.217	0.006
-121.195	-32.366	0.176	0.096
