DTS Sentinel unit serial number:	SN413079Multiplexer serial number:	ORYXHardware model number:	OX4-SRSoftware version number:	ORYX F/W v4.00 Oryx Data Collector v3.7.2.0data status	okinstallation	princeton_trtdifferential loss correction	single-endedforward channel	channel 3reverse channel	N/Adate	2019/09/14time	03:48:35forward acquisition time	60.00reverse acquisition time	0.00gamma	496.2192k internal	0.2338k external	0.2338temperature offset calibration	1.0052default loss term (dB/km)	0.3790temperature slope calibration	1.0000multiplexer offset coefficient	1.0000multiplexer slope coefficient	1.0000fibre end	0.00T internal ref (°C)	26.64T ext. ref 1 (°C)	3.31T ext. ref 2 (°C)	21.69length (m)	temperature (°C)	Stokes	anti-Stokes-747.200	-34.971	0.049	0.027
-746.185	-200.000	0.005	0.370
-745.171	800.000	0.020	0.072
-744.156	-86.760	0.161	0.049
-743.142	-121.759	-0.362	0.060
-742.127	103.936	-0.275	0.325
-741.112	136.637	-0.163	-0.214
-740.098	-200.000	0.075	0.419
-739.083	-40.813	-0.101	0.053
-738.069	185.332	-0.205	0.305
-737.054	-75.636	0.070	0.025
-736.039	-134.553	0.175	0.021
-735.025	-108.209	0.429	0.093
-734.010	-17.917	-0.261	-0.164
-732.996	12.682	0.206	-0.160
-731.981	-200.000	0.017	0.101
-730.966	800.000	-0.047	0.147
-729.952	274.954	-0.135	0.239
-728.937	-163.522	0.188	0.009
-727.923	42.093	0.151	-0.138
-726.908	-55.114	0.060	0.027
-725.894	-129.720	0.160	-0.022
-724.879	70.162	-0.180	-0.187
-723.864	155.742	-0.104	-0.144
-722.850	221.469	0.062	-0.100
-721.835	11.531	-0.131	-0.100
-720.821	-142.069	-0.241	0.024
-719.806	-148.055	0.248	-0.021
-718.791	119.351	-0.255	-0.317
-717.777	419.375	0.132	-0.282
-716.762	-200.000	0.040	-0.281
-715.748	-59.171	0.260	-0.112
-714.733	-55.831	-0.164	0.073
-713.718	-83.195	0.185	-0.060
-712.704	30.768	-0.283	0.242
-711.689	-200.000	0.006	-0.205
-710.675	179.464	0.097	-0.142
-709.660	800.000	0.054	-0.210
-708.645	-200.000	0.004	-0.102
-707.631	-6.648	-0.089	0.061
-706.616	-50.267	-0.280	-0.133
-705.602	24.048	-0.251	-0.207
-704.587	-3.312	0.034	0.024
-703.572	-91.518	0.284	0.081
-702.558	-122.745	0.493	-0.080
-701.543	111.490	-0.208	-0.252
-700.529	-102.207	0.260	-0.063
-699.514	-87.571	0.171	-0.052
-698.499	-68.399	-0.207	-0.080
-697.485	-23.208	-0.143	-0.086
-696.470	800.000	-0.049	0.171
-695.456	-200.000	0.017	0.212
-694.441	79.898	-0.133	0.143
-693.426	-200.000	0.040	0.232
-692.412	161.398	-0.127	0.178
-691.397	-142.488	-0.195	-0.019
-690.383	-18.235	-0.125	-0.079
-689.368	371.962	0.017	-0.034
-688.354	-124.913	-0.198	-0.031
-687.339	296.335	-0.066	0.122
-686.324	478.058	0.039	-0.088
-685.310	-110.045	0.092	0.019
-684.295	252.740	0.159	-0.271
-683.281	185.577	-0.040	0.060
-682.266	-133.123	0.331	0.042
-681.251	-111.899	0.083	0.017
-680.237	-200.000	0.058	0.316
-679.222	-51.431	0.127	0.059
-678.208	-200.000	-0.001	-0.150
-677.193	-100.609	0.385	0.095
-676.178	13.774	-0.192	-0.149
-675.164	-121.462	-0.056	-0.009
-674.149	-200.000	-0.004	-0.266
-673.135	-66.521	0.033	-0.013
-672.120	-113.662	-0.175	-0.034
-671.105	521.097	-0.052	-0.122
-670.091	364.464	-0.197	0.397
-669.076	-88.203	0.062	-0.018
-668.062	370.729	-0.121	-0.245
-667.047	545.328	0.204	0.487
-666.032	-37.172	0.347	-0.186
-665.018	-0.954	-0.097	0.068
-664.003	60.254	0.154	-0.153
-662.989	89.299	0.051	-0.057
-661.974	88.814	-0.102	0.113
-660.959	33.264	-0.074	-0.064
-659.945	331.186	0.092	0.177
-658.930	-36.863	-0.313	0.168
-657.916	132.511	0.314	-0.404
-656.901	-146.167	0.129	-0.011
-655.886	-121.484	0.155	0.026
-654.872	-0.208	-0.384	-0.273
-653.857	-44.781	-0.270	0.135
-652.843	-0.573	-0.395	-0.280
-651.828	294.950	0.079	0.144
-650.814	-200.000	0.022	-0.112
-649.799	129.257	0.102	-0.131
-648.784	621.902	0.050	0.125
-647.770	64.486	-0.261	-0.263
-646.755	-3.024	0.079	-0.055
-645.741	26.701	-0.171	-0.143
-644.726	-83.986	0.256	0.081
-643.711	-64.404	-0.147	0.060
-642.697	-1.060	-0.111	0.078
-641.682	-58.550	0.159	-0.069
-640.668	124.623	-0.166	0.209
-639.653	169.807	0.172	0.245
-638.638	800.000	0.063	-0.207
-637.624	439.260	0.131	-0.285
-636.609	-134.959	0.145	-0.018
-635.595	-165.231	-0.369	-0.016
-634.580	-94.531	-0.179	-0.049
-633.565	85.490	-0.164	-0.180
-632.551	-195.284	-0.233	0.002
-631.536	216.782	-0.185	-0.294
-630.522	800.000	0.014	0.061
-629.507	-112.927	0.368	0.073
-628.492	-48.688	0.078	-0.037
-627.478	-200.000	0.033	0.167
-626.463	800.000	0.110	0.371
-625.449	-125.025	0.334	0.051
-624.434	141.346	-0.262	-0.346
-623.419	-30.203	-0.107	0.061
-622.405	-32.781	0.275	0.153
-621.390	-51.096	0.311	-0.146
-620.376	-67.907	-0.400	-0.156
-619.361	-22.175	-0.265	-0.160
-618.346	-146.274	0.060	-0.005
-617.332	-17.553	0.065	0.041
-616.317	776.111	-0.139	-0.378
-615.303	800.000	0.039	-0.128
-614.288	143.854	-0.105	0.139
-613.273	-4.793	0.314	-0.216
-612.259	800.000	0.133	-0.455
-611.244	93.363	-0.113	-0.128
-610.230	-185.446	0.046	0.001
-609.215	-117.097	0.211	0.038
-608.201	-200.000	0.048	-0.455
-607.186	568.048	-0.104	0.253
-606.171	-102.444	-0.148	-0.035
-605.157	672.511	-0.099	-0.257
-604.142	-113.001	0.023	0.005
-603.128	36.837	-0.240	-0.212
-602.113	491.593	0.103	-0.236
-601.098	75.422	0.098	-0.103
-600.084	385.758	-0.089	0.184
-599.069	800.000	-0.067	0.212
-598.055	-99.589	-0.511	0.128
-597.040	-200.000	-0.034	0.161
-596.025	55.329	0.184	-0.177
-595.011	403.222	0.076	0.159
-593.996	-67.283	-0.217	0.085
-592.982	181.917	-0.080	0.117
-591.967	-40.404	-0.119	0.062
-590.952	-96.804	-0.096	-0.025
-589.938	42.069	-0.106	-0.096
-588.923	800.000	0.024	0.093
-587.909	-91.429	-0.187	0.053
-586.894	-17.692	0.292	0.183
-585.879	-136.863	-0.125	-0.014
-584.865	-141.955	0.192	-0.019
-583.850	-14.231	0.257	0.165
-582.836	259.868	0.139	-0.240
-581.821	43.885	0.206	-0.188
-580.806	-0.519	-0.225	-0.159
-579.792	-200.000	-0.010	0.167
-578.777	123.117	-0.203	-0.253
-577.763	21.299	0.053	-0.043
-576.748	-112.226	-0.339	-0.068
-575.733	800.000	0.059	0.191
-574.719	-139.197	0.093	0.010
-573.704	-94.240	-0.136	-0.037
-572.690	631.009	-0.085	-0.214
-571.675	218.891	0.138	-0.221
-570.661	-18.848	0.211	-0.131
-569.646	427.789	-0.124	0.267
-568.631	-25.483	0.137	-0.080
-567.617	-200.000	-0.015	0.148
-566.602	-28.313	-0.277	-0.159
-565.588	-200.000	-0.068	-0.384
-564.573	484.859	0.075	0.170
-563.558	-44.728	-0.100	0.050
-562.544	551.347	-0.068	0.162
-561.529	-166.023	-0.423	-0.018
-560.515	52.467	-0.108	0.103
-559.500	-92.385	0.324	-0.091
-558.485	-114.557	0.164	-0.031
-557.471	-200.000	-0.017	-0.159
-556.456	-22.363	0.340	-0.205
-555.442	800.000	-0.065	-0.238
-554.427	723.047	0.063	-0.168
-553.412	751.393	0.070	-0.188
-552.398	-200.000	0.036	-0.376
-551.383	565.549	0.025	-0.059
-550.369	-200.000	-0.030	0.134
-549.354	-59.473	-0.119	0.051
-548.339	-115.267	-0.086	-0.016
-547.325	770.230	0.047	0.126
-546.310	800.000	0.058	0.162
-545.296	49.723	0.116	-0.109
-544.281	569.282	0.075	-0.183
-543.266	800.000	0.051	-0.185
-542.252	339.445	-0.085	-0.165
-541.237	-145.044	-0.116	0.010
-540.223	-141.998	0.339	-0.034
-539.208	103.628	0.055	0.064
-538.193	-62.450	-0.091	-0.037
-537.179	125.718	-0.103	0.130
-536.164	315.843	-0.015	-0.028
-535.150	98.376	0.114	-0.130
-534.135	-200.000	0.035	0.225
-533.121	212.259	0.137	0.216
-532.106	-88.340	-0.341	0.101
-531.091	65.975	0.267	-0.269
-530.077	763.991	0.039	0.106
-529.062	800.000	0.041	0.115
-528.048	-65.653	-0.049	-0.020
-527.033	-86.271	0.232	0.071
-526.018	34.486	0.126	0.110
-525.004	800.000	-0.127	0.481
-523.989	-200.000	-0.014	-0.223
-522.975	-82.216	-0.261	0.085
-521.960	800.000	0.057	-0.229
-520.945	-11.073	0.245	0.161
-519.931	-200.000	-0.018	-0.114
-518.916	-200.000	-0.010	0.247
-517.902	-76.337	-0.287	0.100
-516.887	-200.000	0.008	0.085
-515.872	-200.000	0.037	0.361
-514.858	-144.983	0.277	-0.025
-513.843	132.558	-0.151	0.194
-512.829	-138.990	0.370	0.040
-511.814	-44.938	-0.207	-0.103
-510.799	234.161	0.138	-0.226
-509.785	-17.669	0.134	0.084
-508.770	0.807	-0.098	0.070
-507.756	336.888	-0.017	0.033
-506.741	-89.894	0.020	-0.006
-505.726	264.588	0.155	0.268
-504.712	-153.685	-0.158	0.011
-503.697	-100.796	-0.107	0.026
-502.683	795.564	0.138	0.378
-501.668	80.304	0.071	0.076
-500.653	-125.979	-0.076	-0.011
-499.639	-200.000	-0.008	-0.090
-498.624	12.961	0.218	-0.167
-497.610	19.087	-0.139	0.111
-496.595	484.056	0.072	0.164
-495.581	-132.041	0.080	-0.010
-494.566	-122.179	0.413	0.067
-493.551	-200.000	-0.026	-0.120
-492.537	800.000	-0.097	0.292
-491.522	128.870	-0.201	-0.255
-490.508	-140.263	-0.189	0.020
-489.493	75.731	0.036	0.038
-488.478	103.144	-0.108	-0.125
-487.464	-155.831	0.208	-0.013
-486.449	52.994	-0.075	-0.071
-485.435	37.794	0.252	-0.222
-484.420	-200.000	-0.027	0.148
-483.405	-42.167	0.023	0.012
-482.391	-200.000	0.001	0.083
-481.376	800.000	0.077	-0.236
-480.362	88.831	0.144	-0.159
-479.347	253.147	-0.163	0.276
-478.332	-103.485	-0.181	-0.042
-477.318	238.066	-0.073	0.121
-476.303	78.789	0.116	-0.123
-475.289	-200.000	-0.045	0.295
-474.274	508.909	-0.026	0.061
-473.259	196.723	0.021	-0.032
-472.245	-151.869	-0.483	0.035
-471.230	-200.000	-0.029	-0.167
-470.216	75.750	0.073	0.076
-469.201	800.000	-0.052	0.149
-468.186	62.551	0.109	0.108
-467.172	33.576	0.192	0.165
-466.157	56.632	0.221	0.213
-465.143	-200.000	0.005	-0.238
-464.128	800.000	-0.055	-0.210
-463.113	515.100	0.082	0.189
-462.099	161.084	0.163	-0.226
-461.084	181.215	0.110	-0.160
-460.070	577.483	-0.063	0.152
-459.055	-18.823	-0.170	0.105
-458.040	800.000	-0.056	-0.183
-457.026	241.159	-0.171	-0.284
-456.011	-91.546	-0.077	-0.022
-454.997	-12.850	0.039	-0.025
-453.982	-103.818	0.030	-0.007
-452.968	304.472	0.135	-0.249
-451.953	16.189	-0.356	-0.278
-450.938	25.662	-0.056	-0.047
-449.924	-113.085	-0.416	0.081
-448.909	288.207	0.234	0.420
-447.895	690.535	0.093	-0.241
-446.880	127.761	0.046	0.058
-445.865	800.000	0.023	-0.091
-444.851	-39.670	-0.137	-0.071
-443.836	41.102	0.395	-0.354
-442.822	-18.988	-0.019	0.012
-441.807	-200.000	-0.036	-0.158
-440.792	570.829	-0.056	0.135
-439.778	-130.462	-0.336	0.045
-438.763	-76.582	0.205	0.071
-437.749	-81.254	-0.565	0.185
-436.734	-200.000	0.055	0.266
-435.719	166.742	-0.036	0.051
-434.705	-29.448	0.125	0.071
-433.690	8.960	-0.141	0.105
-432.676	-98.374	-0.219	-0.056
-431.661	588.923	-0.074	-0.180
-430.646	-41.239	-0.245	-0.125
-429.632	96.943	0.086	-0.097
-428.617	29.727	-0.301	-0.254
-427.603	405.159	-0.139	-0.291
-426.588	-125.355	-0.264	-0.040
-425.573	-8.228	-0.088	0.059
-424.559	143.838	-0.159	0.210
-423.544	17.560	0.227	-0.178
-422.530	-144.140	-0.209	-0.019
-421.515	90.003	0.213	0.236
-420.500	73.815	0.349	-0.363
-419.486	786.815	-0.064	0.174
-418.471	-200.000	-0.022	-0.210
-417.457	311.159	0.157	0.291
-416.442	-200.000	-0.028	0.195
-415.428	76.176	0.284	0.298
-414.413	-129.076	-0.110	-0.015
-413.398	136.073	0.179	-0.231
-412.384	-200.000	-0.009	-0.056
-411.369	-78.304	0.461	0.157
-410.355	52.772	-0.216	0.205
-409.340	194.836	0.086	0.129
-408.325	225.273	-0.063	0.101
-407.311	92.968	0.232	-0.259
-406.296	-200.000	0.016	0.205
-405.282	-179.962	-0.191	-0.004
-404.267	-55.569	0.167	0.074
-403.252	-200.000	-0.011	0.091
-402.238	71.259	0.216	0.222
-401.223	444.937	0.087	0.188
-400.209	-71.617	-0.132	0.049
-399.194	800.000	-0.097	0.313
-398.179	-65.578	0.220	0.087
-397.165	-157.043	-0.190	-0.011
-396.150	512.409	0.052	0.121
-395.136	190.399	0.094	0.140
-394.121	236.565	0.159	0.261
-393.106	29.475	0.095	-0.080
-392.092	429.835	0.180	-0.386
-391.077	40.350	-0.261	0.232
-390.063	-200.000	-0.012	-0.154
-389.048	16.117	0.151	0.118
-388.033	65.600	-0.372	-0.373
-387.019	800.000	0.055	-0.226
-386.004	30.593	0.139	0.117
-384.990	-65.212	0.176	-0.070
-383.975	135.561	-0.119	-0.153
-382.960	-100.526	-0.174	-0.042
-381.946	15.660	-0.256	-0.199
-380.931	-91.897	0.253	0.071
-379.917	-148.122	0.351	-0.029
-378.902	69.535	-0.144	-0.147
-377.888	-167.287	-0.456	-0.018
-376.873	-200.000	0.015	-0.209
-375.858	49.430	-0.152	-0.141
-374.844	-200.000	-0.034	-0.247
-373.829	637.515	-0.054	0.137
-372.815	-83.003	0.149	-0.047
-371.800	-126.251	-0.198	0.029
-370.785	-103.634	-0.343	-0.080
-369.771	637.394	0.021	0.054
-368.756	-81.478	-0.219	-0.071
-367.742	-29.774	0.338	0.191
-366.727	88.098	0.244	0.267
-365.712	800.000	-0.143	-0.417
-364.698	311.211	-0.116	0.214
-363.683	445.816	0.118	-0.256
-362.669	-148.819	0.315	0.025
-361.654	22.823	-0.201	-0.163
-360.639	29.926	-0.125	-0.105
-359.625	125.995	0.220	0.275
-358.610	-158.766	0.216	-0.012
-357.596	485.395	0.018	-0.040
-356.581	48.014	-0.115	0.107
-355.566	-75.129	0.239	0.084
-354.552	-200.000	0.048	-0.243
-353.537	-8.701	0.126	0.084
-352.523	-200.000	0.081	0.362
-351.508	-79.722	-0.057	-0.019
-350.493	761.421	0.122	0.328
-349.479	244.679	-0.136	0.226
-348.464	-200.000	0.050	0.404
-347.450	715.702	0.025	0.065
-346.435	-200.000	0.107	-0.518
-345.420	59.354	-0.183	-0.178
-344.406	-125.371	-0.203	0.031
-343.391	-108.767	0.235	0.050
-342.377	33.176	0.087	-0.075
-341.362	-21.675	0.140	-0.084
-340.348	433.688	0.114	0.245
-339.333	683.787	0.106	0.272
-338.318	331.291	0.118	0.226
-337.304	-200.000	0.008	0.221
-336.289	800.000	0.061	0.211
-335.275	800.000	0.072	-0.223
-334.260	82.858	-0.057	-0.061
-333.245	-39.386	-0.234	0.121
-332.231	286.918	0.060	-0.108
-331.216	-158.985	0.567	0.032
-330.202	-200.000	0.031	-0.246
-329.187	800.000	-0.113	0.445
-328.172	74.523	-0.114	-0.118
-327.158	-143.481	0.082	0.008
-326.143	57.686	-0.085	-0.082
-325.129	-200.000	-0.005	0.026
-324.114	-200.000	-0.051	-0.241
-323.099	-200.000	-0.022	0.313
-322.085	205.663	-0.113	0.174
-321.070	-137.838	0.142	-0.016
-320.056	-18.738	0.017	0.010
-319.041	800.000	-0.034	-0.126
-318.026	-79.878	-0.105	-0.035
-317.012	-200.000	-0.027	-0.253
-315.997	-54.317	0.295	0.132
-314.983	420.661	0.095	0.201
-313.968	569.507	-0.105	0.251
-312.953	-200.000	0.016	-0.178
-311.939	800.000	0.041	0.132
-310.924	242.584	-0.031	-0.051
-309.910	-200.000	-0.007	-0.063
-308.895	214.435	-0.013	0.021
-307.880	-200.000	0.017	0.100
-306.866	40.856	-0.213	0.189
-305.851	63.083	-0.225	0.222
-304.837	-76.502	-0.035	-0.012
-303.822	-175.741	-0.175	-0.005
-302.807	-200.000	0.020	0.163
-301.793	-9.763	0.046	0.030
-300.778	197.850	0.300	0.453
-299.764	-109.732	-0.355	0.074
-298.749	-157.611	-0.448	0.026
-297.735	800.000	0.102	-0.302
-296.720	-25.420	0.121	-0.070
-295.705	-58.890	0.085	-0.036
-294.691	-200.000	0.019	0.315
-293.676	-32.783	0.296	-0.162
-292.662	-200.000	0.031	-0.444
-291.647	-10.504	-0.109	0.071
-290.632	65.082	-0.102	0.102
-289.618	-30.148	0.326	0.183
-288.603	-200.000	0.041	0.347
-287.589	-136.838	-0.382	0.043
-286.574	-99.178	-0.154	0.038
-285.559	-99.870	0.078	-0.019
-284.545	-2.471	0.130	-0.090
-283.530	-3.188	0.113	-0.077
-282.516	-105.536	-0.494	0.110
-281.501	-126.160	0.283	0.042
-280.486	17.204	-0.336	-0.263
-279.472	800.000	-0.071	-0.273
-278.457	-135.541	0.257	-0.030
-277.443	327.202	-0.117	-0.222
-276.428	800.000	-0.056	0.170
-275.413	257.074	-0.077	0.131
-274.399	75.844	0.258	-0.269
-273.384	37.229	0.163	0.142
-272.370	-145.242	-0.526	0.047
-271.355	167.662	-0.049	0.069
-270.340	800.000	0.029	0.116
-269.326	-151.702	0.029	-0.002
-268.311	-200.000	-0.007	0.135
-267.297	345.144	-0.098	0.189
-266.282	-200.000	0.017	0.209
-265.267	-29.284	0.220	0.124
-264.253	-37.426	-0.132	-0.069
-263.238	-38.732	-0.454	-0.236
-262.224	-200.000	0.013	-0.093
-261.209	277.972	0.017	0.030
-260.195	171.788	-0.124	-0.175
-259.180	-200.000	0.041	-0.213
-258.165	304.844	0.104	-0.189
-257.151	-85.242	0.132	0.040
-256.136	-67.082	-0.252	-0.098
-255.122	338.151	0.077	0.147
-254.107	118.960	0.145	0.177
-253.092	159.608	-0.147	-0.201
-252.078	128.082	-0.231	-0.289
-251.063	31.629	0.041	-0.035
-250.049	139.708	-0.143	0.186
-249.034	289.750	0.098	-0.176
-248.019	800.000	-0.060	0.194
-247.005	-200.000	-0.014	-0.097
-245.990	299.411	0.035	-0.063
-244.976	36.972	0.168	0.146
-243.961	-200.000	0.006	-0.478
-242.946	-13.609	0.193	0.123
-241.932	250.548	-0.136	-0.227
-240.917	108.708	-0.082	0.097
-239.903	-33.012	0.073	0.040
-238.888	-72.923	-0.206	-0.074
-237.873	412.661	0.083	-0.175
-236.859	85.480	-0.159	-0.172
-235.844	57.143	0.117	-0.112
-234.830	-169.437	-0.112	-0.004
-233.815	258.223	-0.129	-0.218
-232.800	260.575	-0.077	-0.131
-231.786	230.643	0.062	0.100
-230.771	155.479	0.056	0.075
-229.757	800.000	-0.076	-0.272
-228.742	150.997	-0.164	-0.219
-227.727	46.881	0.133	-0.121
-226.713	800.000	-0.019	0.069
-225.698	183.089	0.080	-0.117
-224.684	800.000	0.056	-0.158
-223.669	115.711	0.144	-0.173
-222.655	800.000	-0.051	0.145
-221.640	-122.338	0.126	-0.020
-220.625	171.086	0.075	-0.106
-219.611	-6.096	0.222	0.149
-218.596	-43.067	0.101	0.050
-217.582	-200.000	0.005	0.147
-216.567	-4.380	-0.192	-0.131
-215.552	151.826	-0.035	0.047
-214.538	-156.600	-0.136	0.008
-213.523	96.442	0.084	0.094
-212.509	-200.000	-0.032	-0.219
-211.494	-200.000	0.001	-0.227
-210.479	-200.000	0.006	0.149
-209.465	66.865	-0.062	0.062
-208.450	-156.623	0.260	0.016
-207.436	-200.000	0.009	0.511
-206.421	-93.062	-0.103	-0.028
-205.406	800.000	-0.096	-0.291
-204.392	49.052	0.418	0.386
-203.377	-200.000	0.023	-0.175
-202.363	72.407	-0.019	-0.019
-201.348	-117.199	0.101	0.018
-200.333	22.906	-0.174	-0.140
-199.319	-27.773	0.437	0.249
-198.304	13.688	0.094	-0.072
-197.290	-31.975	0.265	-0.145
-196.275	-66.739	0.238	-0.093
-195.260	-104.046	0.231	-0.053
-194.246	18.598	0.195	0.153
-193.231	800.000	-0.032	-0.124
-192.217	-200.000	0.083	0.405
-191.202	-200.000	-0.023	0.108
-190.187	223.661	-0.069	-0.110
-189.173	-19.021	0.225	0.137
-188.158	-100.799	0.079	-0.019
-187.144	438.206	-0.093	-0.200
-186.129	244.648	0.095	0.156
-185.114	336.556	-0.209	0.399
-184.100	104.554	-0.224	0.259
-183.085	28.100	-0.194	0.161
-182.071	109.510	-0.100	-0.118
-181.056	-200.000	0.023	0.227
-180.042	-35.214	-0.206	0.110
-179.027	-88.627	0.243	0.071
-178.012	-200.000	0.036	0.224
-176.998	-5.362	-0.185	-0.125
-175.983	113.979	-0.259	-0.309
-174.969	-48.455	0.138	-0.065
-173.954	-162.307	-0.051	0.002
-172.939	36.732	0.057	-0.049
-171.925	7.064	-0.182	-0.133
-170.910	70.945	-0.374	0.381
-169.896	-200.000	0.010	-0.245
-168.881	-200.000	0.042	0.205
-167.866	-121.806	0.200	0.032
-166.852	33.007	-0.290	0.247
-165.837	-3.225	-0.039	-0.027
-164.823	800.000	0.116	0.352
-163.808	55.589	-0.162	-0.154
-162.793	90.232	0.092	0.101
-161.779	3.557	-0.137	0.098
-160.764	-122.721	0.232	0.037
-159.750	800.000	-0.060	-0.228
-158.735	-200.000	0.001	-0.310
-157.720	-72.505	0.070	-0.025
-156.706	494.694	0.154	0.346
-155.691	124.857	-0.147	0.181
-154.677	-127.427	0.108	-0.015
-153.662	-200.000	0.219	0.001
-152.647	-112.706	-0.110	-0.021
-151.633	-98.422	0.159	0.040
-150.618	90.211	-0.319	-0.350
-149.604	155.497	-0.113	0.153
-148.589	800.000	0.029	0.098
-147.574	243.740	0.024	0.039
-146.560	-26.679	-0.302	-0.173
-145.545	147.263	0.119	-0.157
-144.531	82.338	-0.101	0.108
-143.516	354.744	-0.075	-0.146
-142.502	-200.000	0.086	-0.535
-141.487	92.089	0.237	-0.262
-140.472	340.643	0.101	-0.193
-139.458	675.106	0.202	0.513
-138.443	-30.532	0.091	-0.050
-137.429	-180.471	0.195	0.004
-136.414	43.543	-0.201	-0.180
-135.399	-166.171	-0.155	-0.006
-134.385	-200.000	-0.042	-0.273
-133.370	-200.000	-0.053	-0.410
-132.356	52.393	0.238	0.222
-131.341	-91.656	-0.132	0.037
-130.326	-200.000	0.012	0.064
-129.312	800.000	0.062	0.170
-128.297	-200.000	0.023	-0.167
-127.283	800.000	-0.121	0.432
-126.268	-200.000	0.007	-0.169
-125.253	375.266	-0.218	0.435
-124.239	-106.675	0.254	-0.055
-123.224	800.000	0.023	-0.089
-122.210	34.779	-0.113	-0.097
-121.195	121.725	0.121	0.148
-120.180	-200.000	-0.043	-0.236
