DTS Sentinel unit serial number:	SN413079Multiplexer serial number:	ORYXHardware model number:	OX4-SRSoftware version number:	ORYX F/W v4.00 Oryx Data Collector v3.7.2.0data status	okinstallation	princeton_trtdifferential loss correction	single-endedforward channel	channel 3reverse channel	N/Adate	2019/09/18time	04:52:34forward acquisition time	60.00reverse acquisition time	0.00gamma	496.2192k internal	0.2342k external	0.2342temperature offset calibration	0.9949default loss term (dB/km)	0.3790temperature slope calibration	1.0000multiplexer offset coefficient	1.0000multiplexer slope coefficient	1.0000fibre end	0.00T internal ref (°C)	23.45T ext. ref 1 (°C)	0.18T ext. ref 2 (°C)	18.02length (m)	temperature (°C)	Stokes	anti-Stokes-747.200	-200.000	-0.026	0.428
-746.185	452.268	-0.069	0.152
-745.171	-200.000	-0.019	0.306
-744.156	98.385	0.154	0.178
-743.142	-200.000	0.002	0.015
-742.127	-200.000	0.011	0.556
-741.112	-80.919	0.354	0.117
-740.098	762.475	-0.030	0.082
-739.083	282.543	0.142	0.254
-738.069	800.000	0.018	0.062
-737.054	-32.421	0.377	0.211
-736.039	21.011	-0.274	-0.223
-735.025	353.498	-0.174	-0.345
-734.010	800.000	-0.015	-0.057
-732.996	23.296	-0.119	0.098
-731.981	501.102	0.122	-0.282
-730.966	-118.709	-0.381	0.067
-729.952	-9.756	0.087	-0.058
-728.937	-3.167	0.251	-0.175
-727.923	-200.000	0.003	-0.302
-726.908	25.732	-0.269	-0.224
-725.894	-73.237	0.101	0.037
-724.879	78.113	0.172	0.184
-723.864	-117.073	-0.074	-0.013
-722.850	-43.587	-0.455	0.230
-721.835	-200.000	-0.031	0.282
-720.821	-86.208	-0.168	-0.052
-719.806	387.873	0.164	0.340
-718.791	-121.841	-0.160	0.026
-717.777	-200.000	0.006	0.090
-716.762	-124.497	-0.145	-0.023
-715.748	-5.602	0.178	-0.122
-714.733	-155.280	0.195	-0.013
-713.718	800.000	-0.109	0.459
-712.704	-35.744	-0.162	0.088
-711.689	477.020	-0.060	0.135
-710.675	71.355	0.243	-0.253
-709.660	-23.856	-0.137	-0.082
-708.645	-78.153	0.293	-0.101
-707.631	618.598	-0.058	-0.145
-706.616	-19.532	-0.279	-0.173
-705.602	-52.847	0.336	-0.155
-704.587	72.003	-0.173	-0.180
-703.572	-92.428	0.227	-0.064
-702.558	-119.925	-0.274	0.047
-701.543	381.144	0.191	0.391
-700.529	-99.386	0.102	0.026
-699.514	-140.043	-0.145	-0.015
-698.499	-200.000	-0.013	0.110
-697.485	132.487	0.082	0.105
-696.470	290.624	-0.059	0.108
-695.456	800.000	0.182	0.593
-694.441	507.942	-0.045	0.105
-693.426	-200.000	0.016	-0.168
-692.412	788.322	0.123	-0.337
-691.397	-200.000	-0.004	0.054
-690.383	-8.086	0.142	0.096
-689.368	800.000	-0.028	0.081
-688.354	800.000	0.092	-0.344
-687.339	-200.000	0.052	-0.340
-686.324	800.000	0.077	-0.284
-685.310	-43.720	-0.097	0.049
-684.295	-200.000	0.001	-0.403
-683.281	-200.000	-0.052	0.268
-682.266	379.247	-0.139	-0.284
-681.251	-200.000	0.004	-0.154
-680.237	8.808	0.224	0.169
-679.222	31.533	0.094	-0.081
-678.208	123.341	0.114	-0.142
-677.193	800.000	-0.010	0.042
-676.178	-200.000	-0.008	0.254
-675.164	-153.820	0.255	-0.017
-674.149	-18.368	-0.102	0.063
-673.135	-118.244	0.116	-0.021
-672.120	48.097	-0.156	0.145
-671.105	-104.319	-0.235	0.054
-670.091	517.565	0.152	0.354
-669.076	-52.164	-0.169	-0.078
-668.062	-200.000	0.015	-0.069
-667.047	626.515	-0.056	-0.141
-666.032	41.928	0.144	-0.131
-665.018	800.000	-0.036	-0.107
-664.003	-23.380	0.279	-0.168
-662.989	-92.534	-0.628	-0.176
-661.974	108.309	-0.100	-0.119
-660.959	-135.817	-0.193	-0.023
-659.945	800.000	-0.062	-0.192
-658.930	-59.636	0.139	0.059
-657.916	190.171	-0.185	0.278
-656.901	153.088	-0.130	-0.177
-655.886	126.723	-0.190	-0.241
-654.872	-200.000	-0.038	-0.255
-653.857	-100.247	0.174	0.043
-652.843	-113.434	-0.290	-0.057
-651.828	52.689	0.145	0.138
-650.814	-130.587	-0.236	0.032
-649.799	-132.959	-0.182	0.023
-648.784	82.687	-0.100	-0.108
-647.770	177.510	-0.213	-0.309
-646.755	800.000	-0.061	-0.213
-645.741	141.953	-0.092	0.121
-644.726	800.000	-0.066	-0.192
-643.711	126.366	0.112	0.142
-642.697	-95.779	0.163	0.043
-641.682	78.822	0.151	-0.161
-640.668	-20.466	-0.095	0.058
-639.653	-125.686	-0.402	-0.061
-638.638	800.000	0.048	0.133
-637.624	-97.912	-0.240	-0.062
-636.609	-47.043	0.301	0.147
-635.595	261.418	0.142	0.245
-634.580	-102.716	-0.184	-0.044
-633.565	-200.000	-0.006	0.072
-632.551	-132.399	-0.370	0.048
-631.536	430.697	-0.079	-0.170
-630.522	-146.402	0.348	0.030
-629.507	0.678	-0.424	0.303
-628.492	-110.236	-0.132	-0.027
-627.478	-84.096	0.183	0.058
-626.463	-100.403	-0.237	0.059
-625.449	219.197	0.115	0.183
-624.434	-200.000	-0.017	-0.082
-623.419	-151.831	0.326	0.024
-622.405	-157.251	0.083	-0.005
-621.390	101.469	-0.334	0.388
-620.376	34.184	0.197	-0.172
-619.361	-200.000	0.018	-0.183
-618.346	-200.000	-0.048	-0.238
-617.332	-200.000	-0.017	-0.095
-616.317	-152.487	0.289	0.021
-615.303	-105.773	0.064	0.014
-614.288	82.989	0.352	0.381
-613.273	-168.835	-0.153	0.006
-612.259	-200.000	0.046	-0.215
-611.244	-200.000	0.013	0.292
-610.230	-125.796	-0.383	0.058
-609.215	-200.000	-0.027	0.525
-608.201	455.631	0.145	-0.320
-607.186	-200.000	-0.017	-0.168
-606.171	800.000	-0.108	-0.358
-605.157	-63.628	-0.360	-0.147
-604.142	800.000	0.022	0.095
-603.128	191.332	-0.184	0.276
-602.113	36.650	0.177	0.156
-601.098	727.305	0.064	0.171
-600.084	-200.000	-0.006	0.078
-599.069	-62.381	-0.247	-0.102
-598.055	-135.610	-0.123	0.015
-597.040	10.553	0.230	-0.175
-596.025	385.023	-0.161	-0.332
-595.011	-40.644	-0.232	0.120
-593.996	107.379	0.207	0.245
-592.982	-28.517	-0.141	-0.081
-591.967	298.010	0.170	-0.312
-590.952	-200.000	-0.041	-0.239
-589.938	776.033	0.078	-0.212
-588.923	-200.000	0.025	0.366
-587.909	800.000	0.008	-0.028
-586.894	-200.000	-0.020	0.148
-585.879	720.683	-0.171	0.453
-584.865	-89.397	0.287	0.084
-583.850	-52.905	0.127	0.058
-582.836	235.552	0.100	-0.165
-581.821	679.060	-0.096	-0.249
-580.806	89.076	-0.075	0.083
-579.792	-135.676	-0.078	0.009
-578.777	-53.156	0.287	-0.131
-577.763	-116.053	-0.216	-0.040
-576.748	404.012	-0.077	0.161
-575.733	-195.959	-0.070	0.000
-574.719	17.471	0.316	0.250
-573.704	266.021	0.011	0.019
-572.690	88.718	0.207	-0.229
-571.675	-200.000	0.009	0.282
-570.661	40.046	-0.104	-0.093
-569.646	-200.000	-0.084	0.391
-568.631	61.315	-0.113	-0.112
-567.617	-200.000	-0.027	0.146
-566.602	138.377	-0.142	-0.185
-565.588	-12.701	0.215	0.139
-564.573	800.000	-0.037	0.117
-563.558	78.974	0.067	0.071
-562.544	340.607	0.191	0.370
-561.529	800.000	0.117	0.489
-560.515	-161.383	0.316	0.016
-559.500	-28.760	-0.159	0.091
-558.485	102.146	-0.041	0.048
-557.471	-187.127	-0.204	-0.003
-556.456	-200.000	0.091	0.405
-555.442	471.406	-0.112	-0.251
-554.427	62.687	-0.137	0.136
-553.412	27.457	0.211	0.177
-552.398	-32.475	0.136	0.075
-551.383	261.580	0.075	-0.129
-550.369	-155.940	0.124	0.008
-549.354	259.776	0.061	-0.105
-548.339	-200.000	-0.042	0.353
-547.325	340.430	-0.039	0.075
-546.310	-117.792	0.401	-0.072
-545.296	-80.404	0.355	-0.118
-544.281	-132.423	0.041	0.005
-543.266	-200.000	-0.063	0.304
-542.252	-158.540	-0.073	-0.004
-541.237	152.761	0.170	-0.231
-540.223	400.318	0.081	0.168
-539.208	337.959	0.099	0.191
-538.193	-14.533	-0.159	-0.102
-537.179	-200.000	-0.090	0.455
-536.164	-106.490	0.225	0.050
-535.150	223.844	-0.181	-0.290
-534.135	-127.189	0.313	0.045
-533.121	611.321	-0.097	0.240
-532.106	-130.536	-0.333	0.045
-531.091	17.429	-0.012	0.009
-530.077	800.000	-0.036	-0.145
-529.062	231.857	0.136	0.221
-528.048	-146.417	-0.090	-0.008
-527.033	454.696	0.088	-0.193
-526.018	91.535	-0.076	-0.085
-525.004	12.754	-0.218	0.167
-523.989	366.472	0.126	-0.252
-522.975	800.000	-0.016	-0.058
-521.960	-9.339	-0.062	0.041
-520.945	214.400	0.267	0.420
-519.931	-45.165	0.081	-0.040
-518.916	-19.948	0.056	0.034
-517.902	800.000	-0.090	0.274
-516.887	-14.949	-0.195	-0.124
-515.872	-33.140	-0.152	-0.083
-514.858	94.760	-0.273	0.308
-513.843	223.155	0.141	0.225
-512.829	-64.378	-0.184	-0.074
-511.814	-145.942	0.271	0.024
-510.799	336.330	0.183	0.353
-509.785	-46.578	0.071	0.034
-508.770	362.322	-0.218	-0.434
-507.756	-98.623	-0.141	0.036
-506.741	800.000	0.022	-0.091
-505.726	-200.000	0.021	0.147
-504.712	46.498	0.113	-0.104
-503.697	253.840	-0.151	0.256
-502.683	-91.612	-0.264	-0.075
-501.668	106.319	-0.125	-0.147
-500.653	261.890	-0.021	-0.036
-499.639	728.767	0.085	-0.225
-498.624	800.000	-0.040	0.169
-497.610	-61.385	0.221	-0.092
-496.595	-200.000	0.016	-0.071
-495.581	16.284	-0.168	-0.131
-494.566	800.000	-0.011	0.046
-493.551	-1.540	0.175	-0.122
-492.537	276.458	0.113	0.199
-491.522	736.710	0.032	-0.086
-490.508	332.162	-0.083	-0.160
-489.493	352.790	-0.145	-0.286
-488.478	273.764	0.106	-0.185
-487.464	-170.686	0.261	-0.009
-486.449	-60.077	-0.383	-0.162
-485.435	317.192	-0.152	-0.285
-484.420	42.767	-0.235	-0.212
-483.405	-78.017	0.253	-0.086
-482.391	-30.696	-0.457	0.256
-481.376	-149.207	0.384	-0.030
-480.362	170.788	-0.079	0.113
-479.347	-200.000	-0.005	0.145
-478.332	13.442	0.145	-0.111
-477.318	73.849	0.240	0.250
-476.303	-29.541	-0.170	-0.096
-475.289	153.875	-0.044	0.060
-474.274	-25.132	-0.045	-0.027
-473.259	-43.577	-0.215	0.108
-472.245	386.012	0.015	-0.031
-471.230	-146.510	-0.215	-0.019
-470.216	338.631	0.160	-0.310
-469.201	736.859	-0.071	0.189
-468.186	800.000	0.096	0.291
-467.172	-111.305	0.166	0.034
-466.157	361.585	-0.040	0.080
-465.143	-19.158	-0.160	-0.098
-464.128	-163.462	0.284	0.013
-463.113	348.386	0.075	-0.147
-462.099	-200.000	-0.020	0.101
-461.084	-200.000	0.031	0.226
-460.070	-63.683	0.118	0.048
-459.055	800.000	-0.087	-0.317
-458.040	-53.307	-0.191	0.087
-457.026	800.000	0.074	0.212
-456.011	25.738	0.318	-0.262
-454.997	153.045	-0.091	-0.123
-453.982	-36.242	0.239	0.128
-452.968	-148.188	-0.336	-0.027
-451.953	511.229	0.140	-0.324
-450.938	115.037	0.069	0.083
-449.924	-200.000	0.242	0.000
-448.909	800.000	-0.055	0.164
-447.895	-76.992	-0.348	0.120
-446.880	60.220	0.110	-0.108
-445.865	800.000	0.079	0.297
-444.851	-200.000	-0.003	-0.042
-443.836	-200.000	0.033	0.272
-442.822	-36.821	0.361	0.192
-441.807	-200.000	-0.041	-0.370
-440.792	-200.000	0.026	-0.262
-439.778	800.000	0.030	0.114
-438.763	19.164	0.101	-0.080
-437.749	248.837	0.078	0.131
-436.734	101.086	-0.378	-0.435
-435.719	-200.000	-0.039	-0.226
-434.705	422.567	0.077	-0.163
-433.690	-200.000	-0.018	-0.390
-432.676	-82.487	-0.077	-0.025
-431.661	800.000	-0.026	-0.077
-430.646	-200.000	-0.000	-0.248
-429.632	-71.939	-0.283	0.104
-428.617	800.000	0.090	-0.266
-427.603	-113.063	0.118	-0.023
-426.588	13.976	-0.083	0.064
-425.573	-200.000	-0.019	0.299
-424.559	-92.897	0.074	-0.021
-423.544	-72.052	0.197	0.072
-422.530	-83.065	0.219	-0.070
-421.515	17.770	0.259	-0.204
-420.500	-200.000	-0.005	-0.208
-419.486	209.193	-0.136	-0.210
-418.471	157.866	-0.120	-0.165
-417.457	-200.000	-0.017	0.151
-416.442	-98.830	-0.433	0.109
-415.428	-69.609	0.192	0.073
-414.413	-200.000	0.017	0.107
-413.398	-98.929	-0.347	-0.087
-412.384	800.000	0.091	0.266
-411.369	168.222	0.129	0.182
-410.355	216.392	0.074	0.116
-409.340	183.188	0.096	0.140
-408.325	25.859	-0.049	0.041
-407.311	85.640	-0.133	-0.145
-406.296	-151.855	0.251	-0.018
-405.282	-159.327	0.194	0.011
-404.267	280.699	0.169	0.300
-403.252	243.175	-0.143	-0.238
-402.238	44.635	-0.144	0.130
-401.223	-200.000	0.012	0.064
-400.209	-8.324	-0.146	0.097
-399.194	-48.752	-0.097	-0.046
-398.179	69.476	-0.158	0.161
-397.165	800.000	0.017	-0.074
-396.150	-75.137	0.131	0.046
-395.136	-6.859	0.230	-0.154
-394.121	210.844	0.125	-0.194
-393.106	61.627	0.206	-0.203
-392.092	-54.717	0.155	0.069
-391.077	-7.171	0.334	0.224
-390.063	800.000	-0.037	-0.105
-389.048	-200.000	-0.060	0.524
-388.033	440.002	-0.062	0.134
-387.019	336.466	-0.122	0.233
-386.004	-200.000	-0.062	0.305
-384.990	51.523	-0.047	-0.044
-383.975	361.415	-0.106	0.211
-382.960	-35.743	0.333	0.178
-381.946	-159.148	0.353	0.020
-380.931	-177.328	0.355	0.009
-379.917	800.000	0.064	-0.260
-378.902	13.735	0.222	0.170
-377.888	-77.525	-0.152	0.052
-376.873	-66.913	-0.396	-0.155
-375.858	47.013	0.138	0.127
-374.844	18.835	-0.204	0.162
-373.829	-166.500	0.300	-0.012
-372.815	-200.000	0.037	0.174
-371.800	-200.000	-0.066	0.380
-370.785	-200.000	0.023	-0.176
-369.771	-157.925	0.405	-0.024
-368.756	-5.716	0.200	-0.135
-367.742	800.000	-0.054	-0.204
-366.727	-52.584	0.114	-0.052
-365.712	110.291	0.009	0.011
-364.698	102.582	0.061	0.070
-363.683	-200.000	0.046	-0.276
-362.669	-200.000	-0.045	-0.248
-361.654	-200.000	0.019	-0.332
-360.639	99.932	-0.126	-0.144
-359.625	78.648	-0.133	-0.140
-358.610	-27.123	0.282	-0.162
-357.596	454.749	-0.157	0.344
-356.581	201.306	0.099	-0.150
-355.566	128.154	-0.193	-0.242
-354.552	-200.000	-0.063	0.317
-353.537	-83.923	-0.171	0.054
-352.523	800.000	-0.074	-0.263
-351.508	-200.000	-0.024	0.158
-350.493	361.981	-0.112	-0.222
-349.479	438.108	0.145	-0.312
-348.464	19.026	0.079	-0.062
-347.450	-200.000	0.018	-0.158
-346.435	-8.140	-0.103	-0.068
-345.420	513.451	0.114	0.263
-344.406	-126.958	-0.518	-0.075
-343.391	144.087	-0.145	-0.191
-342.377	339.812	0.069	0.132
-341.362	-115.342	0.266	-0.049
-340.348	-90.413	0.110	-0.032
-339.333	-200.000	-0.034	0.228
-338.318	-112.914	0.202	0.039
-337.304	21.308	0.077	-0.062
-336.289	233.630	-0.116	-0.188
-335.275	-70.080	-0.111	0.042
-334.260	-200.000	-0.000	0.069
-333.245	-151.609	-0.117	0.009
-332.231	359.811	-0.040	0.079
-331.216	126.604	-0.033	-0.041
-330.202	-33.454	-0.211	0.115
-329.187	-119.743	-0.179	-0.030
-328.172	-47.686	-0.301	0.144
-327.158	800.000	-0.038	-0.113
-326.143	-181.900	0.255	0.005
-325.129	-97.900	-0.316	-0.080
-324.114	800.000	-0.113	-0.334
-323.099	800.000	-0.008	-0.031
-322.085	-166.234	-0.133	0.006
-321.070	800.000	-0.013	-0.051
-320.056	-105.964	-0.276	-0.061
-319.041	27.016	0.103	0.085
-318.026	120.432	0.233	-0.285
-317.012	347.333	0.188	-0.366
-315.997	-200.000	-0.018	0.161
-314.983	332.768	0.083	0.157
-313.968	-188.213	-0.347	0.004
-312.953	800.000	0.105	-0.331
-311.939	196.834	0.135	-0.202
-310.924	60.540	0.160	-0.156
-309.910	-57.069	-0.176	0.076
-308.895	179.638	-0.135	-0.195
-307.880	800.000	-0.047	-0.157
-306.866	-34.563	0.080	0.043
-305.851	-200.000	-0.034	-0.330
-304.837	34.362	-0.257	-0.220
-303.822	-200.000	-0.058	0.294
-302.807	800.000	0.042	-0.148
-301.793	-200.000	0.015	0.152
-300.778	119.847	-0.010	-0.012
-299.764	-103.633	-0.205	-0.047
-298.749	-53.598	0.281	0.127
-297.735	89.713	-0.115	0.126
-296.720	-200.000	-0.028	0.166
-295.705	-1.563	-0.033	-0.023
-294.691	-120.682	0.141	0.024
-293.676	-124.324	-0.292	0.045
-292.662	-154.200	-0.144	-0.010
-291.647	82.845	-0.038	-0.040
-290.632	-200.000	0.056	0.389
-289.618	-97.162	-0.064	0.017
-288.603	-112.876	0.147	0.029
-287.589	-94.635	-0.261	0.070
-286.574	-9.885	-0.016	-0.011
-285.559	55.843	-0.075	-0.071
-284.545	216.188	0.111	0.174
-283.530	476.808	-0.112	-0.248
-282.516	-146.459	0.177	0.015
-281.501	800.000	-0.021	0.092
-280.486	-69.858	-0.223	0.084
-279.472	149.922	-0.136	0.182
-278.457	236.871	0.139	-0.227
-277.443	336.970	0.177	-0.337
-276.428	800.000	-0.094	0.256
-275.413	16.240	-0.068	-0.052
-274.399	40.777	-0.149	-0.132
-273.384	-75.371	0.023	-0.008
-272.370	800.000	0.063	0.239
-271.355	138.692	-0.066	0.085
-270.340	217.169	0.215	0.337
-269.326	-200.000	0.040	0.197
-268.311	27.376	-0.297	-0.245
-267.297	-37.712	-0.068	-0.035
-266.282	157.108	0.173	0.235
-265.267	-200.000	-0.019	0.178
-264.253	-200.000	-0.027	0.174
-263.238	609.458	0.157	-0.385
-262.224	139.042	-0.055	0.071
-261.209	194.093	0.093	-0.138
-260.195	81.873	-0.104	-0.111
-259.180	649.401	0.056	-0.142
-258.165	-200.000	-0.059	-0.256
-257.151	-200.000	0.054	-0.265
-256.136	-14.729	-0.247	0.156
-255.122	14.744	0.136	-0.104
-254.107	97.829	0.109	-0.123
-253.092	-178.378	-0.063	-0.001
-252.078	558.212	-0.031	0.075
-251.063	800.000	0.123	0.432
-250.049	-111.848	0.124	-0.025
-249.034	800.000	-0.081	-0.308
-248.019	-200.000	0.416	0.001
-247.005	800.000	0.088	-0.318
-245.990	-200.000	0.031	0.202
-244.976	-200.000	0.009	-0.176
-243.961	44.695	-0.341	-0.308
-242.946	5.590	0.308	0.223
-241.932	-200.000	-0.042	-0.201
-240.917	-12.431	-0.185	0.119
-239.903	150.593	-0.223	0.298
-238.888	-25.421	0.484	0.281
-237.873	800.000	-0.035	0.113
-236.859	-115.736	0.123	0.023
-235.844	-36.094	0.191	0.101
-234.830	-11.485	0.052	-0.034
-233.815	118.999	-0.105	0.128
-232.800	10.382	-0.147	-0.110
-231.786	73.544	-0.188	0.193
-230.771	-200.000	0.039	-0.299
-229.757	-200.000	0.047	-0.310
-228.742	-65.225	-0.390	0.154
-227.727	-128.264	0.068	-0.010
-226.713	280.611	-0.157	-0.276
-225.698	23.355	-0.304	-0.245
-224.684	338.430	-0.079	0.151
-223.669	-0.426	-0.274	0.191
-222.655	-100.691	0.092	0.022
-221.640	-62.315	-0.306	-0.125
-220.625	-155.996	0.297	-0.018
-219.611	-200.000	-0.025	-0.187
-218.596	-45.620	0.203	0.098
-217.582	167.503	-0.095	-0.132
-216.567	-200.000	0.028	-0.120
-215.552	-116.756	-0.042	0.008
-214.538	-200.000	-0.064	-0.319
-213.523	-108.405	0.091	0.019
-212.509	-200.000	0.273	-0.000
-211.494	111.564	0.161	0.191
-210.479	-102.750	0.055	-0.013
-209.465	-115.026	0.274	-0.051
-208.450	240.350	0.110	-0.180
-207.436	-99.479	0.247	-0.061
-206.421	-38.743	0.283	-0.146
-205.406	-111.852	-0.133	0.026
-204.392	-137.060	-0.429	0.048
-203.377	430.469	-0.031	-0.065
-202.363	76.017	0.271	0.281
-201.348	800.000	-0.049	-0.155
-200.333	800.000	0.082	0.278
-199.319	-20.416	-0.103	-0.062
-198.304	-122.957	-0.246	-0.039
-197.290	-138.719	-0.297	-0.032
-196.275	-200.000	-0.012	0.173
-195.260	-146.102	-0.090	-0.008
-194.246	800.000	-0.036	-0.134
-193.231	-200.000	-0.065	-0.303
-192.217	72.650	0.139	0.142
-191.202	-107.013	-0.224	-0.049
-190.187	-2.882	-0.159	-0.109
-189.173	-200.000	0.040	-0.260
-188.158	-200.000	-0.041	0.233
-187.144	-148.531	0.138	-0.011
-186.129	515.233	0.147	0.337
-185.114	33.697	-0.130	-0.111
-184.100	-200.000	-0.009	-0.214
-183.085	800.000	0.018	-0.055
-182.071	20.675	0.119	-0.095
-181.056	556.035	-0.026	-0.061
-180.042	-33.026	-0.156	0.085
-179.027	-94.234	-0.147	-0.039
-178.012	-74.270	-0.297	0.105
-176.998	-200.000	-0.009	0.092
-175.983	800.000	0.052	-0.140
-174.969	-200.000	-0.047	0.239
-173.954	-65.371	-0.209	0.082
-172.939	133.124	0.106	-0.135
-171.925	-125.835	0.163	0.024
-170.910	4.087	0.186	-0.133
-169.896	-103.157	0.268	0.062
-168.881	-156.251	0.211	0.013
-167.866	-200.000	-0.018	0.257
-166.852	-30.255	0.157	-0.087
-165.837	-14.538	-0.177	-0.111
-164.823	564.077	0.146	-0.346
-163.808	-62.549	0.270	-0.110
-162.793	128.246	0.117	-0.145
-161.779	-123.933	0.144	0.022
-160.764	25.244	0.169	-0.137
-159.750	-200.000	-0.044	0.388
-158.735	800.000	-0.029	0.115
-157.720	586.906	-0.127	-0.306
-156.706	-200.000	0.253	-0.000
-155.691	184.645	0.049	-0.071
-154.677	-64.716	-0.363	-0.144
-153.662	0.514	-0.191	0.134
-152.647	578.435	-0.102	0.244
-151.633	177.778	0.167	0.238
-150.618	-200.000	0.042	0.297
-149.604	800.000	-0.071	0.249
-148.589	-8.451	-0.102	0.067
-147.574	-200.000	0.030	0.188
-146.560	-10.187	-0.053	0.034
-145.545	-200.000	-0.018	0.371
-144.531	-53.515	-0.380	0.170
-143.516	-45.159	-0.225	-0.109
-142.502	65.494	-0.083	0.082
-141.487	-97.764	0.310	0.078
-140.472	-140.220	0.333	-0.034
-139.458	350.531	-0.093	-0.180
-138.443	-165.872	-0.083	-0.003
-137.429	-200.000	-0.031	0.201
-136.414	-6.345	-0.090	-0.060
-135.399	62.466	-0.152	0.149
-134.385	-108.759	-0.198	0.041
-133.370	1.248	0.283	0.199
-132.356	-9.754	0.058	0.038
-131.341	-200.000	0.022	0.249
-130.326	-146.991	0.151	-0.013
-129.312	-200.000	-0.008	-0.100
-128.297	-12.856	0.236	0.150
-127.283	0.719	-0.406	-0.284
-126.268	-7.300	-0.095	-0.063
-125.253	-66.491	0.234	0.091
-124.239	-90.997	0.400	-0.112
-123.224	680.662	0.159	0.405
-122.210	-200.000	-0.071	0.375
