DTS Sentinel unit serial number:	SN413079Multiplexer serial number:	ORYXHardware model number:	OX4-SRSoftware version number:	ORYX F/W v4.00 Oryx Data Collector v3.7.2.0data status	okinstallation	princeton_trtdifferential loss correction	single-endedforward channel	channel 3reverse channel	N/Adate	2019/09/15time	22:36:35forward acquisition time	60.00reverse acquisition time	0.00gamma	496.2192k internal	0.2333k external	0.2333temperature offset calibration	0.9949default loss term (dB/km)	0.3790temperature slope calibration	1.0000multiplexer offset coefficient	1.0000multiplexer slope coefficient	1.0000fibre end	0.00T internal ref (°C)	29.05T ext. ref 1 (°C)	8.80T ext. ref 2 (°C)	22.47length (m)	temperature (°C)	Stokes	anti-Stokes-747.200	59.914	0.214	0.213
-746.185	800.000	-0.045	0.188
-745.171	8.046	0.284	0.214
-744.156	-102.758	-0.381	0.091
-743.142	220.328	-0.029	-0.046
-742.127	18.359	0.212	-0.170
-741.112	-200.000	0.010	0.116
-740.098	8.372	-0.193	0.146
-739.083	330.921	-0.253	-0.490
-738.069	-200.000	0.010	0.072
-737.054	-200.000	0.038	-0.314
-736.039	800.000	0.033	0.117
-735.025	-188.994	0.184	-0.002
-734.010	-200.000	0.021	-0.243
-732.996	-88.048	-0.206	-0.062
-731.981	800.000	-0.051	-0.165
-730.966	-200.000	-0.048	-0.364
-729.952	-153.721	-0.233	0.016
-728.937	65.688	-0.145	0.147
-727.923	-124.262	-0.249	-0.039
-726.908	-26.709	-0.162	-0.095
-725.894	-37.961	-0.457	0.244
-724.879	283.886	0.157	0.283
-723.864	-162.312	0.523	-0.026
-722.850	-43.118	-0.305	-0.155
-721.835	-200.000	0.024	-0.294
-720.821	-200.000	0.016	0.137
-719.806	379.553	-0.092	-0.189
-718.791	800.000	-0.056	-0.162
-717.777	89.877	0.221	-0.248
-716.762	4.600	0.298	-0.219
-715.748	449.286	-0.022	0.048
-714.733	93.480	-0.187	-0.213
-713.718	274.118	0.158	-0.281
-712.704	47.358	-0.301	0.281
-711.689	-58.884	-0.161	-0.070
-710.675	-200.000	0.057	-0.551
-709.660	-200.000	-0.015	0.240
-708.645	661.066	0.027	0.070
-707.631	114.350	-0.028	-0.035
-706.616	316.128	0.036	0.068
-705.602	309.833	0.096	-0.180
-704.587	-151.352	0.167	-0.012
-703.572	-65.303	-0.224	-0.090
-702.558	-75.295	0.664	0.238
-701.543	126.938	0.057	0.073
-700.529	-74.942	0.150	-0.054
-699.514	-200.000	-0.002	-0.171
-698.499	-24.845	-0.085	0.051
-697.485	-17.311	0.139	0.088
-696.470	-200.000	-0.021	-0.112
-695.456	-106.887	-0.354	0.079
-694.441	-200.000	0.000	-0.272
-693.426	-169.832	-0.178	-0.006
-692.412	116.257	-0.050	-0.062
-691.397	-133.589	0.153	-0.019
-690.383	-87.929	-0.043	-0.013
-689.368	-180.678	-0.197	-0.004
-688.354	123.005	0.125	-0.157
-687.339	800.000	0.113	0.427
-686.324	224.768	-0.027	0.043
-685.310	783.491	0.025	-0.069
-684.295	20.430	-0.108	0.087
-683.281	-1.886	0.235	-0.166
-682.266	163.661	0.110	-0.155
-681.251	-95.738	-0.479	-0.128
-680.237	196.974	0.055	0.084
-679.222	28.335	0.181	-0.153
-678.208	63.133	-0.388	-0.390
-677.193	800.000	-0.024	-0.089
-676.178	-94.504	0.198	0.054
-675.164	-200.000	0.028	0.224
-674.149	800.000	0.080	-0.316
-673.135	-200.000	0.035	-0.243
-672.120	-105.120	0.368	0.084
-671.105	-110.074	-0.065	-0.014
-670.091	236.370	0.132	-0.219
-669.076	-200.000	0.006	-0.382
-668.062	630.456	-0.104	-0.263
-667.047	314.686	0.197	0.373
-666.032	-137.939	-0.034	-0.004
-665.018	-150.865	-0.479	-0.036
-664.003	800.000	0.019	-0.072
-662.989	-7.814	0.166	-0.112
-661.974	-106.983	-0.145	-0.032
-660.959	-22.950	-0.281	0.170
-659.945	133.269	0.194	-0.251
-658.930	-99.778	-0.280	0.070
-657.916	-42.186	0.243	-0.124
-656.901	-200.000	-0.022	0.247
-655.886	-31.222	-0.267	-0.151
-654.872	-93.469	-0.095	-0.026
-653.857	-170.587	0.333	0.012
-652.843	-200.000	-0.053	0.440
-651.828	-14.715	-0.160	-0.103
-650.814	54.462	-0.081	0.078
-649.799	-111.028	0.059	-0.012
-648.784	49.006	0.117	0.110
-647.770	-92.451	0.198	0.056
-646.755	-36.467	0.070	0.038
-645.741	-18.910	-0.132	-0.082
-644.726	126.325	0.188	0.238
-643.711	-152.824	-0.111	-0.008
-642.697	-200.000	0.021	-0.217
-641.682	182.934	0.176	0.260
-640.668	800.000	0.040	0.133
-639.653	111.183	-0.090	-0.109
-638.638	262.363	0.051	-0.088
-637.624	133.778	-0.102	0.132
-636.609	262.628	0.126	-0.220
-635.595	-39.013	0.224	0.118
-634.580	369.617	-0.078	0.159
-633.565	452.264	0.086	-0.190
-632.551	-136.860	-0.058	-0.007
-631.536	82.339	-0.110	-0.119
-630.522	489.455	-0.107	0.245
-629.507	-200.000	0.046	0.303
-628.492	-52.788	-0.320	-0.148
-627.478	-24.133	-0.244	-0.146
-626.463	-33.378	0.446	-0.247
-625.449	-200.000	-0.009	-0.054
-624.434	-76.919	0.339	0.119
-623.419	-200.000	-0.030	-0.249
-622.405	-200.000	0.041	0.197
-621.390	139.839	0.050	-0.066
-620.376	5.480	0.086	-0.063
-619.361	105.937	0.185	-0.220
-618.346	-13.789	-0.158	-0.102
-617.332	-69.546	-0.104	-0.040
-616.317	6.747	0.154	0.115
-615.303	111.609	-0.232	0.280
-614.288	-200.000	-0.005	0.034
-613.273	264.841	0.051	-0.089
-612.259	407.288	0.177	0.374
-611.244	-105.438	-0.290	-0.066
-610.230	-158.472	-0.108	-0.006
-609.215	-99.667	0.293	-0.074
-608.201	-114.189	-0.215	0.041
-607.186	151.245	0.218	0.297
-606.171	-86.230	-0.031	-0.010
-605.157	-63.722	-0.316	-0.129
-604.142	-200.000	0.028	0.170
-603.128	-200.000	-0.037	-0.235
-602.113	331.302	-0.165	-0.318
-601.098	13.073	-0.220	-0.170
-600.084	-23.721	0.228	0.137
-599.069	235.760	-0.124	0.205
-598.055	41.124	0.095	-0.086
-597.040	-200.000	0.040	0.207
-596.025	59.914	0.150	0.148
-595.011	36.270	0.263	-0.232
-593.996	19.982	-0.124	0.100
-592.982	-41.212	0.234	0.121
-591.967	-91.091	-0.119	-0.034
-590.952	52.418	0.231	0.220
-589.938	168.046	0.090	0.129
-588.923	175.195	-0.224	-0.324
-587.909	148.309	-0.139	0.187
-586.894	800.000	-0.104	-0.323
-585.879	-55.688	-0.283	-0.127
-584.865	-101.416	-0.264	0.064
-583.850	97.781	-0.183	0.210
-582.836	0.812	-0.162	0.116
-581.821	-200.000	0.010	-0.168
-580.806	-48.108	0.114	-0.055
-579.792	800.000	0.060	-0.242
-578.777	-200.000	-0.014	0.104
-577.763	-46.068	-0.125	-0.062
-576.748	166.968	0.168	-0.239
-575.733	-78.214	0.162	0.056
-574.719	800.000	0.132	0.390
-573.704	373.307	-0.085	-0.173
-572.690	-127.098	0.210	-0.031
-571.675	-200.000	-0.039	-0.374
-570.661	638.614	-0.068	0.173
-569.646	-200.000	0.045	0.292
-568.631	-35.443	-0.085	-0.046
-567.617	405.560	0.065	-0.137
-566.602	643.655	-0.115	0.293
-565.588	-31.119	0.075	-0.042
-564.573	-97.067	0.211	0.055
-563.558	120.187	0.101	-0.125
-562.544	800.000	-0.101	-0.419
-561.529	800.000	-0.043	0.139
-560.515	-200.000	-0.011	-0.136
-559.500	-110.155	0.143	0.030
-558.485	-14.200	0.261	-0.168
-557.471	-58.689	0.454	-0.196
-556.456	-22.487	0.086	-0.052
-555.442	-200.000	-0.058	-0.423
-554.427	-200.000	-0.002	0.026
-553.412	-189.312	0.382	-0.004
-552.398	-200.000	0.051	0.448
-551.383	-88.403	0.321	0.096
-550.369	507.906	-0.092	0.214
-549.354	-15.974	0.265	-0.169
-548.339	229.522	0.085	-0.139
-547.325	85.264	0.112	-0.123
-546.310	-200.000	0.005	0.060
-545.296	293.879	0.077	-0.141
-544.281	248.805	-0.216	0.366
-543.266	-15.026	-0.325	-0.208
-542.252	-200.000	-0.015	-0.189
-541.237	46.280	-0.153	0.142
-540.223	-24.469	0.151	-0.090
-539.208	-125.105	0.207	-0.032
-538.193	2.677	-0.184	0.133
-537.179	-60.978	-0.250	-0.105
-536.164	53.706	-0.173	0.165
-535.150	30.458	-0.154	-0.131
-534.135	-18.479	-0.183	-0.114
-533.121	104.911	-0.064	-0.075
-532.106	-80.421	-0.359	-0.120
-531.091	-92.600	-0.109	0.030
-530.077	-200.000	0.029	-0.163
-529.062	-200.000	-0.009	0.044
-528.048	-20.833	0.191	-0.117
-527.033	800.000	-0.013	0.042
-526.018	33.406	0.153	0.133
-525.004	-69.780	-0.128	0.049
-523.989	-110.788	0.209	-0.043
-522.975	-200.000	-0.010	-0.137
-521.960	-112.415	-0.187	0.037
-520.945	800.000	0.035	-0.146
-519.931	294.676	-0.111	-0.202
-518.916	18.192	-0.190	0.151
-517.902	-45.609	-0.114	0.056
-516.887	74.783	0.248	-0.260
-515.872	10.851	-0.061	0.046
-514.858	22.609	-0.225	0.184
-513.843	568.742	-0.069	0.167
-512.829	-7.966	-0.044	0.029
-511.814	-111.340	0.214	-0.044
-510.799	800.000	0.080	0.258
-509.785	-200.000	-0.010	-0.344
-508.770	-200.000	0.003	-0.174
-507.756	-200.000	0.011	0.265
-506.741	-200.000	0.008	0.050
-505.726	-120.908	-0.188	0.032
-504.712	800.000	0.071	0.206
-503.697	67.319	0.094	0.096
-502.683	-129.871	0.098	-0.013
-501.668	-98.572	-0.099	0.025
-500.653	-8.474	-0.212	0.142
-499.639	261.793	0.144	-0.248
-498.624	-74.690	0.199	0.071
-497.610	186.067	-0.055	-0.081
-496.595	206.609	0.184	0.286
-495.581	-200.000	0.004	0.115
-494.566	-125.914	-0.096	0.014
-493.551	-162.535	0.190	0.009
-492.537	-200.000	0.052	-0.457
-491.522	15.720	0.102	-0.080
-490.508	202.046	0.141	-0.217
-489.493	21.238	-0.243	0.196
-488.478	-91.178	0.046	-0.013
-487.464	-174.751	-0.105	0.003
-486.449	-51.943	0.048	-0.022
-485.435	-200.000	-0.004	-0.055
-484.420	-200.000	-0.037	-0.215
-483.405	-200.000	0.028	0.183
-482.391	-117.355	-0.547	0.099
-481.376	-11.628	0.157	-0.103
-480.362	-200.000	-0.043	-0.251
-479.347	273.438	-0.093	-0.163
-478.332	-110.024	-0.217	-0.045
-477.318	-97.645	0.178	-0.046
-476.303	-81.430	-0.188	0.062
-475.289	241.943	0.166	-0.276
-474.274	30.455	-0.161	-0.137
-473.259	-0.660	-0.406	-0.287
-472.245	165.580	-0.152	-0.214
-471.230	-96.293	0.424	0.112
-470.216	-182.794	0.102	-0.002
-469.201	433.467	0.054	0.116
-468.186	437.734	-0.070	0.151
-467.172	185.904	-0.140	0.207
-466.157	-136.586	0.118	0.014
-465.143	800.000	-0.089	0.311
-464.128	-41.176	0.326	0.167
-463.113	-116.246	0.060	-0.011
-462.099	-117.900	-0.125	0.022
-461.084	-200.000	-0.059	-0.263
-460.070	35.512	-0.000	-0.000
-459.055	-200.000	-0.004	0.259
-458.040	-200.000	-0.012	0.072
-457.026	-112.891	0.273	0.054
-456.011	32.573	0.024	0.021
-454.997	243.699	-0.053	0.088
-453.982	626.419	0.099	0.248
-452.968	106.273	-0.155	0.182
-451.953	-43.273	-0.213	0.107
-450.938	-15.948	-0.321	0.203
-449.924	-96.135	-0.533	-0.141
-448.909	-200.000	0.064	0.285
-447.895	800.000	-0.034	0.138
-446.880	-164.497	-0.075	-0.003
-445.865	-200.000	-0.052	-0.363
-444.851	-2.002	-0.114	-0.080
-443.836	-114.787	0.176	0.033
-442.822	-29.902	0.178	0.101
-441.807	-16.476	0.316	0.199
-440.792	-62.976	0.140	-0.058
-439.778	-92.783	0.184	-0.051
-438.763	-115.033	0.263	0.050
-437.749	-200.000	0.023	-0.119
-436.734	-200.000	-0.014	0.286
-435.719	-52.619	-0.231	0.106
-434.705	-13.274	-0.191	-0.123
-433.690	-138.916	-0.228	0.025
-432.676	267.215	0.152	-0.265
-431.661	53.281	-0.049	0.047
-430.646	85.181	-0.125	0.136
-429.632	-118.008	-0.095	-0.017
-428.617	1.417	0.088	-0.063
-427.603	800.000	-0.067	0.210
-426.588	146.406	-0.149	0.199
-425.573	535.210	-0.134	-0.315
-424.559	-65.052	0.416	0.167
-423.544	-200.000	0.089	0.391
-422.530	46.117	0.010	0.010
-421.515	-35.081	-0.122	-0.066
-420.500	-98.075	0.272	0.069
-419.486	-200.000	-0.018	-0.147
-418.471	54.811	-0.192	0.184
-417.457	-200.000	0.033	0.235
-416.442	-200.000	0.011	0.091
-415.428	244.038	-0.058	-0.096
-414.413	323.105	-0.081	-0.153
-413.398	-25.912	0.419	0.245
-412.384	-200.000	-0.037	0.194
-411.369	213.330	0.196	0.307
-410.355	374.831	-0.177	-0.357
-409.340	42.793	0.234	-0.212
-408.325	129.098	-0.062	0.078
-407.311	-200.000	0.027	0.162
-406.296	-93.623	0.127	-0.035
-405.282	61.487	0.058	-0.057
-404.267	-119.187	-0.241	-0.042
-403.252	82.368	0.111	0.119
-402.238	-200.000	-0.041	0.313
-401.223	217.385	-0.058	-0.092
-400.209	-19.548	-0.132	-0.081
-399.194	273.133	0.103	-0.181
-398.179	-200.000	-0.007	-0.171
-397.165	163.250	0.114	0.159
-396.150	502.076	-0.067	-0.153
-395.136	-59.886	-0.328	-0.139
-394.121	-200.000	-0.000	-0.260
-393.106	-103.557	-0.117	-0.027
-392.092	800.000	0.131	0.399
-391.077	-23.282	-0.255	0.152
-390.063	-107.892	-0.285	0.062
-389.048	-25.164	0.175	0.103
-388.033	-200.000	-0.048	-0.246
-387.019	-80.396	-0.344	0.114
-386.004	-72.138	0.133	-0.049
-384.990	248.929	-0.031	0.052
-383.975	-200.000	0.075	0.352
-382.960	177.848	0.135	0.195
-381.946	-200.000	0.012	-0.145
-380.931	0.937	0.315	-0.224
-379.917	81.601	0.138	-0.148
-378.902	350.414	0.061	-0.120
-377.888	800.000	-0.009	0.029
-376.873	-200.000	0.023	0.230
-375.858	800.000	-0.039	-0.118
-374.844	122.042	-0.179	0.221
-373.829	-49.772	-0.032	-0.015
-372.815	-165.933	-0.123	-0.005
-371.800	-30.813	0.177	-0.099
-370.785	800.000	0.073	-0.226
-369.771	-55.221	-0.219	-0.098
-368.756	3.590	-0.262	-0.189
-367.742	51.048	0.235	-0.221
-366.727	800.000	-0.076	-0.326
-365.712	800.000	0.094	-0.269
-364.698	739.934	0.106	-0.282
-363.683	84.928	-0.074	0.080
-362.669	22.690	-0.156	0.127
-361.654	64.227	0.198	-0.197
-360.639	58.089	0.181	-0.175
-359.625	-198.472	0.158	-0.001
-358.610	-109.503	0.132	-0.028
-357.596	-200.000	0.041	0.322
-356.581	689.343	-0.109	0.282
-355.566	-200.000	-0.014	-0.181
-354.552	-200.000	-0.043	-0.292
-353.537	145.704	-0.042	0.056
-352.523	-200.000	0.024	0.262
-351.508	-51.322	-0.229	0.106
-350.493	-69.701	-0.083	0.031
-349.479	590.190	0.073	0.179
-348.464	106.695	0.095	0.112
-347.450	-200.000	0.021	-0.247
-346.435	-28.998	-0.212	-0.120
-345.420	-200.000	-0.048	-0.288
-344.406	-85.985	0.319	-0.098
-343.391	-1.553	0.110	0.077
-342.377	45.825	-0.301	-0.275
-341.362	-150.777	0.288	-0.022
-340.348	-84.174	0.103	-0.032
-339.333	91.407	-0.356	-0.396
-338.318	-200.000	0.051	-0.276
-337.304	-15.637	0.153	-0.097
-336.289	377.313	0.026	0.054
-335.275	197.247	-0.104	-0.157
-334.260	-2.951	0.287	0.198
-333.245	-6.552	-0.135	-0.091
-332.231	-200.000	-0.031	0.163
-331.216	-200.000	0.029	-0.200
-330.202	535.151	-0.022	0.051
-329.187	15.442	-0.347	0.270
-328.172	-29.182	-0.223	0.127
-327.158	-117.339	0.092	-0.016
-326.143	20.020	0.185	0.148
-325.129	-181.461	0.184	0.004
-324.114	-0.841	0.307	-0.215
-323.099	-70.940	0.158	-0.059
-322.085	-100.965	-0.247	0.060
-321.070	-85.506	-0.158	-0.049
-320.056	45.445	0.223	-0.204
-319.041	-27.758	-0.123	0.070
-318.026	90.454	0.183	-0.203
-317.012	800.000	-0.037	-0.112
-315.997	93.907	0.019	-0.022
-314.983	118.658	-0.194	-0.237
-313.968	3.159	-0.183	0.131
-312.953	77.928	0.017	0.018
-311.939	-173.873	0.161	0.005
-310.924	800.000	0.097	0.294
-309.910	800.000	-0.052	-0.200
-308.895	-34.073	0.252	-0.137
-307.880	-19.005	-0.162	-0.100
-306.866	609.993	0.120	-0.297
-305.851	734.182	-0.089	-0.235
-304.837	-150.695	-0.156	-0.012
-303.822	-30.454	0.237	-0.133
-302.807	667.821	0.066	-0.168
-301.793	243.763	0.094	-0.155
-300.778	-200.000	-0.003	0.047
-299.764	-179.156	0.089	-0.002
-298.749	-70.165	0.136	-0.051
-297.735	80.219	-0.131	-0.139
-296.720	293.003	0.117	-0.211
-295.705	172.737	0.025	0.035
-294.691	69.878	0.057	-0.058
-293.676	132.293	0.146	0.186
-292.662	40.675	0.264	0.235
-291.647	97.891	0.070	0.079
-290.632	59.976	-0.132	-0.128
-289.618	-16.640	0.236	0.148
-288.603	-40.869	-0.337	0.172
-287.589	93.227	0.101	-0.113
-286.574	73.716	0.217	0.224
-285.559	242.536	-0.064	-0.106
-284.545	-200.000	0.045	-0.247
-283.530	89.556	0.297	-0.328
-282.516	-135.596	-0.448	-0.053
-281.501	476.079	-0.033	-0.073
-280.486	-200.000	-0.036	-0.428
-279.472	800.000	0.056	0.193
-278.457	-102.128	0.044	0.011
-277.443	-39.951	-0.258	-0.133
-276.428	-145.921	-0.198	0.017
-275.413	-62.109	0.258	-0.106
-274.399	-200.000	-0.029	0.420
-273.384	2.129	0.346	0.247
-272.370	-24.218	-0.288	0.170
-271.355	-70.478	0.219	0.082
-270.340	-84.614	-0.237	-0.074
-269.326	-98.853	-0.206	0.052
-268.311	-17.865	-0.119	0.074
-267.297	389.760	0.136	0.278
-266.282	245.268	0.092	0.153
-265.267	-200.000	0.044	-0.244
-264.253	-200.000	0.026	-0.118
-263.238	411.513	0.166	0.348
-262.224	-41.440	0.124	-0.063
-261.209	-194.851	0.316	-0.002
-260.195	-115.810	0.273	-0.050
-259.180	-21.487	-0.280	-0.168
-258.165	87.529	0.132	-0.145
-257.151	-125.410	-0.358	-0.054
-256.136	-200.000	0.001	-0.174
-255.122	-14.122	-0.302	0.192
-254.107	-200.000	-0.016	-0.197
-253.092	113.414	-0.195	0.233
-252.078	172.689	-0.031	0.043
-251.063	800.000	0.056	-0.156
-250.049	418.647	0.104	0.219
-249.034	301.863	-0.063	0.116
-248.019	-59.713	-0.178	0.075
-247.005	490.526	0.109	-0.245
-245.990	114.338	-0.129	0.155
-244.976	-46.210	-0.242	-0.117
-243.961	98.270	-0.014	-0.016
-242.946	-25.027	-0.305	-0.179
-241.932	-200.000	0.022	0.254
-240.917	168.925	-0.102	0.144
-239.903	-38.290	0.271	0.141
-238.888	348.521	-0.024	-0.047
-237.873	-3.310	-0.148	0.102
-236.859	224.228	-0.105	-0.168
-235.844	98.448	0.159	-0.181
-234.830	-200.000	0.027	-0.131
-233.815	-55.697	0.069	-0.030
-232.800	51.977	-0.143	0.134
-231.786	114.356	0.232	-0.278
-230.771	119.869	0.154	0.188
-229.757	-52.793	0.241	-0.110
-228.742	-52.042	-0.130	-0.060
-227.727	212.528	-0.151	-0.235
-226.713	183.590	-0.052	-0.076
-225.698	-200.000	-0.052	-0.281
-224.684	-200.000	-0.114	-0.000
-223.669	-200.000	0.036	0.189
-222.655	-35.401	-0.167	0.089
-221.640	-104.760	-0.439	0.100
-220.625	-69.585	0.212	0.080
-219.611	-95.738	-0.440	-0.116
-218.596	127.551	-0.194	-0.242
-217.582	-200.000	0.008	-0.091
-216.567	-143.163	-0.283	-0.027
-215.552	-164.831	-0.208	-0.009
-214.538	800.000	-0.052	0.221
-213.523	-115.957	0.149	0.027
-212.509	800.000	-0.107	0.336
-211.494	-62.427	-0.159	-0.065
-210.479	19.388	-0.197	-0.156
-209.465	-195.124	0.199	0.001
-208.450	486.136	0.127	0.285
-207.436	22.106	0.174	0.140
-206.421	-200.000	-0.005	-0.228
-205.406	86.273	0.302	0.327
-204.392	385.661	-0.059	0.120
-203.377	332.449	-0.153	0.290
-202.363	800.000	0.095	-0.261
-201.348	35.917	-0.259	0.224
-200.333	-69.704	0.286	-0.108
-199.319	-111.546	0.356	-0.071
-198.304	-200.000	-0.003	-0.274
-197.290	280.073	-0.138	0.242
-196.275	-90.737	-0.141	0.040
-195.260	-5.931	0.123	0.082
-194.246	550.262	-0.138	0.326
-193.231	-102.892	-0.093	-0.022
-192.217	-93.186	0.265	-0.072
-191.202	-6.269	-0.112	-0.075
-190.187	-103.799	0.027	-0.006
-189.173	25.928	0.216	0.177
-188.158	256.346	-0.016	0.026
-187.144	-44.336	-0.118	0.058
-186.129	-200.000	-0.032	0.302
-185.114	-120.920	0.454	0.075
-184.100	-200.000	0.006	0.258
-183.085	189.669	0.127	0.187
-182.071	800.000	-0.121	0.393
-181.056	482.592	0.028	-0.063
-180.042	-133.453	-0.182	-0.022
-179.027	-123.391	-0.059	-0.009
-178.012	800.000	0.175	0.579
-176.998	326.466	0.133	0.251
-175.983	-114.080	-0.247	-0.047
-174.969	83.931	0.258	0.277
-173.954	-200.000	-0.034	0.224
-172.939	-200.000	-0.033	0.377
-171.925	98.262	-0.167	0.189
-170.910	800.000	0.062	0.250
-169.896	-200.000	-0.002	0.249
-168.881	58.286	-0.063	-0.061
-167.866	168.674	0.119	0.167
-166.852	800.000	0.046	-0.187
-165.837	5.567	-0.191	-0.139
-164.823	-85.717	-0.186	0.057
-163.808	-100.578	0.499	0.121
-162.793	-134.424	-0.334	-0.040
-161.779	-200.000	0.003	0.046
-160.764	21.831	-0.123	-0.099
-159.750	360.890	0.098	-0.193
-158.735	800.000	0.019	0.052
-157.720	-200.000	-0.020	-0.092
-156.706	650.042	0.069	-0.174
-155.691	-200.000	0.019	-0.140
-154.677	-119.733	0.207	0.035
-153.662	697.762	-0.090	-0.233
-152.647	-200.000	0.024	-0.429
-151.633	7.958	-0.140	-0.103
-150.618	-200.000	0.068	0.312
-149.604	15.467	0.424	0.327
-148.589	800.000	0.033	-0.097
-147.574	-79.121	-0.224	-0.075
-146.560	105.563	0.172	-0.199
-145.545	-17.505	-0.218	-0.135
-144.531	709.302	0.010	0.025
-143.516	431.067	-0.037	-0.079
-142.502	-200.000	0.089	-0.000
-141.487	-7.749	-0.141	0.094
-140.472	270.444	-0.106	0.184
-139.458	-67.486	0.098	-0.038
-138.443	365.874	0.103	0.205
-137.429	-63.755	-0.041	-0.017
-136.414	-75.684	0.217	-0.076
-135.399	-59.495	-0.174	-0.073
-134.385	-200.000	0.017	-0.148
-133.370	170.038	-0.150	-0.210
-132.356	-31.158	0.325	0.180
-131.341	42.658	-0.225	-0.202
-130.326	521.820	0.168	0.388
-129.312	59.736	0.113	0.109
-128.297	1.084	0.205	0.144
-127.283	47.522	0.397	0.363
-126.268	72.764	-0.107	0.109
-125.253	-200.000	-0.038	0.246
-124.239	-119.356	0.564	0.096
-123.224	84.486	0.037	0.040
-122.210	239.098	0.113	0.184
