DTS Sentinel unit serial number:	SN413079Multiplexer serial number:	ORYXHardware model number:	OX4-SRSoftware version number:	ORYX F/W v4.00 Oryx Data Collector v3.7.2.0data status	okinstallation	princeton_trtdifferential loss correction	single-endedforward channel	channel 3reverse channel	N/Adate	2019/09/12time	18:48:03forward acquisition time	15.00reverse acquisition time	0.00gamma	496.2192k internal	0.2318k external	0.2318temperature offset calibration	1.0107default loss term (dB/km)	0.3790temperature slope calibration	1.0000multiplexer offset coefficient	1.0000multiplexer slope coefficient	1.0000fibre end	0.00T internal ref (°C)	32.94T ext. ref 1 (°C)	3.01T ext. ref 2 (°C)	27.45length (m)	temperature (°C)	Stokes	anti-Stokes-747.200	-111.300	0.191	0.039
-746.185	-200.000	-0.110	0.686
-745.171	137.648	-0.110	0.145
-744.156	-77.923	0.860	0.300
-743.142	-39.134	0.621	0.330
-742.127	104.385	0.325	0.387
-741.112	800.000	0.237	0.772
-740.098	224.847	-0.154	-0.252
-739.083	-14.625	-0.281	0.183
-738.069	559.462	0.269	-0.658
-737.054	22.812	0.301	0.250
-736.039	-20.511	0.322	-0.200
-735.025	-86.349	-0.656	0.204
-734.010	94.489	-0.444	-0.511
-732.996	22.814	-0.052	-0.043
-731.981	111.833	-0.496	-0.606
-730.966	219.567	0.071	0.116
-729.952	800.000	0.189	0.759
-728.937	-134.157	-0.716	0.089
-727.923	293.704	-0.345	-0.637
-726.908	-126.676	-0.559	0.084
-725.894	204.389	-0.142	0.223
-724.879	800.000	-0.139	0.478
-723.864	-106.790	-0.455	-0.102
-722.850	-200.000	0.112	-0.633
-721.835	18.036	0.137	0.110
-720.821	-97.334	-0.742	0.195
-719.806	-20.590	0.284	-0.176
-718.791	-106.915	-0.153	-0.034
-717.777	-9.823	0.527	0.354
-716.762	16.335	-0.160	0.127
-715.748	73.265	0.320	0.339
-714.733	-31.766	-0.582	-0.330
-713.718	109.880	-0.564	0.684
-712.704	-193.494	-0.611	0.005
-711.689	121.499	0.385	0.485
-710.675	573.820	0.178	-0.439
-709.660	-200.000	0.020	-0.178
-708.645	439.626	-0.457	-1.008
-707.631	102.642	-0.544	-0.643
-706.616	-28.606	-0.319	-0.185
-705.602	37.942	-0.280	0.252
-704.587	-200.000	0.074	-0.682
-703.572	-7.148	-0.797	-0.546
-702.558	136.807	-0.200	0.264
-701.543	-174.504	-0.583	-0.017
-700.529	-132.912	0.604	-0.078
-699.514	162.824	-0.313	-0.444
-698.499	60.395	0.145	0.145
-697.485	-4.413	0.445	-0.311
-696.470	340.654	0.108	-0.213
-695.456	-200.000	0.055	-0.339
-694.441	-120.888	-0.819	0.139
-693.426	479.608	0.024	0.055
-692.412	-94.452	0.124	-0.034
-691.397	-144.863	0.091	0.008
-690.383	582.782	0.339	0.840
-689.368	9.879	0.642	0.492
-688.354	16.627	0.079	0.063
-687.339	2.901	0.333	-0.244
-686.324	-129.400	0.425	0.060
-685.310	-135.439	-0.972	0.117
-684.295	-90.265	0.486	0.143
-683.281	256.165	0.320	-0.553
-682.266	-66.084	0.857	-0.345
-681.251	-200.000	0.007	0.226
-680.237	670.445	0.084	0.221
-679.222	-67.018	0.085	0.034
-678.208	-200.000	0.050	-0.460
-677.193	-89.473	-0.319	0.095
-676.178	64.039	-0.392	-0.398
-675.164	800.000	0.211	0.662
-674.149	-4.081	-0.949	0.664
-673.135	-96.278	0.228	-0.061
-672.120	-82.474	0.204	0.067
-671.105	-97.267	-0.454	-0.120
-670.091	-88.592	-0.361	-0.109
-669.076	67.891	0.336	0.346
-668.062	-55.112	-0.175	0.079
-667.047	800.000	-0.131	-0.391
-666.032	-44.755	-0.597	-0.300
-665.018	-131.155	-0.748	0.100
-664.003	-2.433	1.048	0.741
-662.989	-200.000	0.120	0.838
-661.974	-104.762	0.342	0.079
-660.959	160.395	0.092	0.130
-659.945	-33.384	0.610	-0.340
-658.930	-164.421	0.625	0.029
-657.916	-10.290	-0.423	-0.283
-656.901	-17.002	-0.594	0.378
-655.886	106.010	-0.452	0.540
-654.872	61.624	-0.593	-0.595
-653.857	-123.976	0.232	-0.037
-652.843	800.000	-0.109	0.428
-651.828	-66.613	-0.770	0.308
-650.814	-56.767	-0.569	-0.254
-649.799	-151.938	-0.560	0.041
-648.784	14.417	-0.474	-0.373
-647.770	-13.752	-0.557	-0.363
-646.755	269.338	0.199	0.353
-645.741	800.000	-0.168	0.615
-644.726	340.357	0.147	0.290
-643.711	63.796	0.242	0.245
-642.697	204.188	0.330	0.515
-641.682	-82.153	-0.821	-0.270
-640.668	392.763	-0.258	-0.540
-639.653	40.015	-0.709	0.642
-638.638	-2.198	-0.634	-0.449
-637.624	-151.624	0.573	-0.043
-636.609	-22.467	0.492	-0.300
-635.595	-166.239	-0.690	0.029
-634.580	-200.000	0.048	-1.236
-633.565	-63.325	-0.216	0.090
-632.551	363.404	-0.147	0.297
-631.536	-117.336	-0.495	0.090
-630.522	800.000	-0.162	-0.610
-629.507	83.140	-0.624	0.685
-628.492	-200.000	0.011	-0.377
-627.478	311.370	0.090	0.171
-626.463	40.693	0.103	0.093
-625.449	375.746	-0.407	-0.835
-624.434	800.000	-0.262	-0.754
-623.419	-200.000	-0.018	-0.618
-622.405	800.000	-0.231	-0.644
-621.390	-72.891	0.414	0.153
-620.376	800.000	0.170	-0.510
-619.361	-29.081	0.602	0.348
-618.346	-28.997	-0.355	0.205
-617.332	-95.970	-0.882	-0.237
-616.317	-23.440	-0.395	-0.239
-615.303	-84.959	-0.255	0.080
-614.288	371.324	0.119	-0.243
-613.273	16.237	0.329	0.261
-612.259	126.766	0.351	0.448
-611.244	189.396	0.478	0.720
-610.230	-200.000	-0.091	0.401
-609.215	-200.000	0.033	0.361
-608.201	-200.000	0.169	1.129
-607.186	-200.000	-0.013	0.079
-606.171	-125.641	0.273	-0.042
-605.157	-200.000	0.036	0.560
-604.142	570.519	0.105	0.257
-603.128	163.043	-0.084	0.119
-602.113	-200.000	0.069	-0.425
-601.098	190.985	0.287	-0.434
-600.084	-200.000	-0.148	0.680
-599.069	348.111	-0.214	-0.424
-598.055	106.830	-0.335	-0.400
-597.040	800.000	0.327	-0.913
-596.025	-33.804	-0.623	0.345
-595.011	-31.335	-0.271	0.153
-593.996	611.873	-0.104	0.263
-592.982	-19.215	-0.166	-0.104
-591.967	440.479	0.170	0.373
-590.952	305.527	-0.181	0.338
-589.938	800.000	-0.094	0.359
-588.923	-200.000	0.079	-0.560
-587.909	-56.578	-0.468	-0.209
-586.894	-27.134	-0.458	0.268
-585.879	13.294	-0.365	-0.284
-584.865	92.543	0.668	-0.758
-583.850	-114.587	0.536	-0.103
-582.836	30.107	-0.669	0.574
-581.821	-74.770	0.649	0.234
-580.806	800.000	-0.173	-0.692
-579.792	428.498	-0.345	-0.748
-578.777	800.000	0.051	0.193
-577.763	-200.000	-0.044	-0.843
-576.748	303.562	0.228	-0.425
-575.733	37.131	0.548	0.488
-574.719	8.153	0.966	-0.729
-573.704	409.205	0.084	0.178
-572.690	328.526	-0.261	-0.504
-571.675	-200.000	0.010	-0.515
-570.661	244.168	0.521	-0.879
-569.646	-87.442	-1.088	-0.331
-568.631	241.909	-0.015	0.025
-567.617	351.925	-0.212	0.423
-566.602	224.262	-0.342	-0.555
-565.588	552.275	0.197	-0.475
-564.573	18.569	0.504	0.405
-563.558	-140.243	-0.592	-0.062
-562.544	-138.298	-0.330	-0.037
-561.529	-200.000	-0.091	0.584
-560.515	300.584	0.247	-0.457
-559.500	-57.428	0.194	0.085
-558.485	114.859	0.392	-0.480
-557.471	66.196	0.464	-0.473
-556.456	-22.609	-0.248	-0.151
-555.442	152.321	-0.136	0.186
-554.427	-73.533	-0.243	-0.089
-553.412	-200.000	-0.024	0.237
-552.398	190.596	-0.467	-0.705
-551.383	-31.987	-0.456	-0.256
-550.369	34.725	0.226	-0.198
-549.354	193.990	0.239	0.364
-548.339	-200.000	0.035	-0.479
-547.325	-33.596	0.107	0.059
-546.310	-200.000	0.006	-0.233
-545.296	800.000	-0.173	-0.587
-544.281	-157.082	0.673	0.041
-543.266	800.000	-0.106	0.407
-542.252	-13.153	0.523	0.341
-541.237	-43.154	-0.484	0.246
-540.223	-200.000	-0.013	0.233
-539.208	-161.920	0.367	0.019
-538.193	-40.583	0.348	-0.181
-537.179	-25.073	-0.728	-0.433
-536.164	78.436	0.320	0.343
-535.150	200.379	0.048	-0.074
-534.135	6.742	-0.496	-0.370
-533.121	65.139	0.148	0.150
-532.106	-59.162	0.217	-0.094
-531.091	173.881	0.417	-0.604
-530.077	-200.000	-0.024	0.550
-529.062	310.378	-0.313	0.588
-528.048	291.321	0.367	0.669
-527.033	161.520	-0.243	-0.341
-526.018	-133.084	0.715	0.091
-525.004	116.436	-0.601	0.739
-523.989	-200.000	0.115	-1.127
-522.975	-200.000	-0.010	-0.502
-521.960	800.000	0.062	0.222
-520.945	145.948	-0.301	0.405
-519.931	-73.175	-0.869	-0.319
-518.916	-200.000	-0.038	-0.257
-517.902	98.682	-0.325	-0.376
-516.887	800.000	0.132	0.451
-515.872	41.792	0.301	0.273
-514.858	-131.469	-0.027	0.004
-513.843	-200.000	0.112	-0.881
-512.829	-34.709	-0.117	0.064
-511.814	-105.282	-0.336	-0.077
-510.799	-200.000	0.110	0.734
-509.785	266.438	-0.102	0.180
-508.770	800.000	0.199	0.747
-507.756	-200.000	-0.021	0.381
-506.741	67.425	0.249	-0.255
-505.726	-69.700	0.280	-0.107
-504.712	27.080	-0.425	0.357
-503.697	-55.518	0.789	-0.355
-502.683	-200.000	-0.165	-1.004
-501.668	411.672	-0.043	-0.091
-500.653	-116.783	-0.222	0.041
-499.639	428.313	-0.271	-0.587
-498.624	125.731	0.303	-0.384
-497.610	800.000	-0.086	0.349
-496.595	-200.000	-0.027	-0.969
-495.581	32.285	-0.598	-0.517
-494.566	7.752	-0.237	0.178
-493.551	-200.000	-0.007	0.187
-492.537	222.003	-0.179	-0.289
-491.522	-23.366	-0.508	-0.306
-490.508	-83.311	-0.527	0.169
-489.493	420.581	-0.271	0.583
-488.478	92.148	0.324	0.366
-487.464	-200.000	0.093	-0.450
-486.449	112.805	0.601	-0.729
-485.435	-124.095	-0.696	-0.109
-484.420	-8.429	-0.255	0.171
-483.405	298.065	-0.368	0.678
-482.391	198.218	-0.147	0.225
-481.376	-58.532	0.211	-0.092
-480.362	-200.000	-0.142	-0.650
-479.347	800.000	0.190	0.567
-478.332	30.113	0.626	-0.535
-477.318	262.649	0.162	-0.281
-476.303	-200.000	0.077	0.583
-475.289	-17.185	0.779	0.492
-474.274	800.000	-0.119	-0.330
-473.259	277.112	0.330	0.588
-472.245	132.855	-0.141	0.182
-471.230	800.000	0.040	-0.145
-470.216	800.000	0.444	1.231
-469.201	-6.519	-0.408	0.278
-468.186	800.000	-0.165	-0.531
-467.172	219.313	-0.331	-0.530
-466.157	-200.000	-0.001	-0.170
-465.143	-123.660	0.351	-0.056
-464.128	-200.000	-0.074	0.473
-463.113	48.157	0.276	0.258
-462.099	-28.768	-0.528	0.304
-461.084	-89.739	-0.648	0.190
-460.070	-200.000	0.044	1.648
-459.055	-106.298	-0.697	0.156
-458.040	-90.670	-0.266	0.077
-457.026	-89.622	0.889	0.261
-456.011	-200.000	-0.007	-0.566
-454.997	57.696	-0.251	-0.245
-453.982	-200.000	0.066	-0.292
-452.968	800.000	0.151	-0.551
-451.953	-200.000	0.071	0.475
-450.938	216.218	-0.068	-0.109
-449.924	-124.050	0.504	0.079
-448.909	38.312	0.386	0.344
-447.895	336.716	-0.174	0.338
-446.880	42.295	-0.265	-0.241
-445.865	329.290	0.163	-0.313
-444.851	-121.932	-0.133	0.022
-443.836	133.453	-0.126	0.163
-442.822	87.550	0.352	0.390
-441.807	502.735	0.301	0.696
-440.792	-76.089	0.693	0.245
-439.778	188.401	-0.135	-0.202
-438.763	262.966	0.023	0.041
-437.749	-5.668	0.375	-0.257
-436.734	800.000	0.117	0.404
-435.719	102.839	-0.323	0.378
-434.705	800.000	0.175	0.507
-433.690	-69.027	0.424	-0.163
-432.676	-200.000	0.096	-0.739
-431.661	-143.832	-0.252	0.024
-430.646	18.813	-0.296	0.237
-429.632	-26.531	0.821	-0.481
-428.617	-200.000	-0.083	0.618
-427.603	134.763	0.111	0.144
-426.588	-65.126	1.030	0.415
-425.573	-200.000	0.037	0.346
-424.559	250.129	-0.365	0.619
-423.544	-196.017	0.625	-0.004
-422.530	-113.484	0.361	-0.071
-421.515	-84.721	-0.148	0.046
-420.500	-138.701	0.525	0.057
-419.486	-200.000	0.009	1.069
-418.471	-148.545	0.815	0.067
-417.457	65.954	-0.486	-0.492
-416.442	-153.720	0.319	-0.022
-415.428	35.094	-0.719	0.630
-414.413	-200.000	0.005	0.114
-413.398	-17.847	-0.414	0.259
-412.384	-64.789	-0.754	0.305
-411.369	-140.581	-1.056	-0.109
-410.355	94.679	-0.630	0.716
-409.340	168.161	0.279	-0.396
-408.325	26.755	0.443	0.371
-407.311	-15.565	0.163	-0.104
-406.296	399.401	-0.121	0.253
-405.282	444.892	0.345	-0.756
-404.267	-65.966	0.958	0.382
-403.252	690.538	0.112	-0.292
-402.238	800.000	-0.035	0.137
-401.223	-152.864	-0.631	0.045
-400.209	-138.022	0.227	-0.025
-399.194	17.630	0.433	-0.344
-398.179	-54.204	-0.605	0.274
-397.165	-200.000	0.132	-0.833
-396.150	76.102	-0.267	-0.282
-395.136	-200.000	-0.017	0.226
-394.121	39.432	0.298	-0.266
-393.106	800.000	-0.095	0.342
-392.092	-200.000	0.005	-0.691
-391.077	57.196	-0.386	-0.375
-390.063	-187.470	-0.601	-0.008
-389.048	-40.739	-0.109	-0.057
-388.033	771.580	-0.180	0.490
-387.019	-75.444	0.426	0.151
-386.004	15.055	-0.642	-0.502
-384.990	-163.200	-0.454	0.022
-383.975	-200.000	0.135	0.804
-382.960	-109.353	-1.363	-0.288
-381.946	73.461	0.382	0.399
-380.931	85.670	-0.148	0.162
-379.917	-139.859	0.484	-0.051
-378.902	48.357	-0.083	-0.077
-377.888	517.271	-0.208	-0.485
-376.873	468.520	0.138	-0.309
-375.858	96.671	-0.459	-0.524
-374.844	-200.000	-0.098	0.815
-373.829	-200.000	0.066	1.013
-372.815	72.915	0.344	0.359
-371.800	69.395	-0.611	0.627
-370.785	26.737	0.907	0.757
-369.771	-200.000	-0.078	-0.738
-368.756	-116.232	0.490	-0.091
-367.742	800.000	0.161	-0.515
-366.727	-134.379	0.492	0.060
-365.712	-124.384	-0.639	-0.099
-364.698	800.000	0.182	0.513
-363.683	206.889	0.284	-0.442
-362.669	-115.282	1.078	0.203
-361.654	226.013	0.605	-0.979
-360.639	-200.000	-0.160	-0.929
-359.625	-108.307	0.550	-0.118
-358.610	68.655	-0.524	-0.536
-357.596	361.883	0.206	0.413
-356.581	83.770	-0.393	0.428
-355.566	168.035	0.164	0.232
-354.552	-200.000	0.026	-0.767
-353.537	-131.886	0.639	-0.083
-352.523	-149.319	0.491	0.039
-351.508	95.595	0.387	0.440
-350.493	77.709	-0.286	-0.304
-349.479	40.732	-0.595	-0.535
-348.464	-130.077	-1.150	0.157
-347.450	156.051	0.558	0.767
-346.435	-83.325	0.204	-0.065
-345.420	379.112	-0.255	-0.519
-344.406	-76.104	-0.500	0.176
-343.391	-200.000	0.027	0.237
-342.377	96.350	0.428	0.488
-341.362	15.747	0.772	-0.605
-340.348	-105.020	-0.439	-0.100
-339.333	800.000	0.159	-0.500
-338.318	298.851	-0.123	-0.225
-337.304	800.000	-0.043	0.134
-336.289	26.937	0.221	0.185
-335.275	800.000	0.194	-0.596
-334.260	287.079	-0.331	-0.596
-333.245	-200.000	-0.048	0.954
-332.231	-200.000	0.019	-0.336
-331.216	141.117	0.284	-0.374
-330.202	-23.504	0.394	0.235
-329.187	-58.239	-0.459	0.199
-328.172	507.729	0.111	-0.257
-327.158	-84.909	-0.612	0.191
-326.143	800.000	0.183	0.673
-325.129	275.888	0.543	-0.958
-324.114	640.846	0.237	-0.602
-323.099	800.000	-0.095	-0.274
-322.085	1.140	0.321	-0.229
-321.070	-45.454	0.459	-0.226
-320.056	-27.104	-0.416	0.242
-319.041	411.009	0.121	0.256
-318.026	-200.000	-0.040	0.490
-317.012	263.162	-0.332	-0.573
-315.997	185.524	-0.302	-0.447
-314.983	-78.576	-0.745	0.254
-313.968	800.000	-0.092	0.327
-312.953	-135.161	-1.039	0.124
-311.939	-65.647	0.648	0.258
-310.924	-200.000	0.068	-0.451
-309.910	12.285	0.180	-0.138
-308.895	-55.462	0.455	0.203
-307.880	-2.363	0.275	0.192
-306.866	-60.347	0.049	0.021
-305.851	190.998	0.283	0.423
-304.837	604.230	0.236	0.585
-303.822	120.554	0.710	0.877
-302.807	569.464	0.200	0.484
-301.793	-200.000	0.038	-0.252
-300.778	-200.000	-0.074	-0.577
-299.764	-27.567	-0.188	-0.109
-298.749	7.480	0.425	-0.316
-297.735	-24.376	0.364	-0.216
-296.720	800.000	0.042	0.127
-295.705	-48.412	0.500	0.239
-294.691	-200.000	0.003	0.361
-293.676	446.149	0.282	-0.616
-292.662	23.543	-0.531	-0.435
-291.647	-55.165	-0.232	-0.104
-290.632	-200.000	-0.028	-0.215
-289.618	53.447	-0.260	-0.248
-288.603	-165.844	-0.815	0.035
-287.589	195.533	-0.171	0.259
-286.574	-60.275	-0.151	-0.064
-285.559	-119.798	0.638	0.109
-284.545	147.887	-0.572	0.766
-283.530	0.363	0.374	0.266
-282.516	-99.094	-0.399	0.101
-281.501	-128.944	-1.158	0.161
-280.486	47.479	0.070	0.065
-279.472	-54.780	0.329	0.147
-278.457	-169.716	0.580	-0.021
-277.443	-102.965	0.083	-0.020
-276.428	800.000	-0.131	0.432
-275.413	184.787	0.162	0.239
-274.399	274.192	0.126	-0.221
-273.384	-176.879	-1.393	-0.035
-272.370	-141.863	-0.086	0.009
-271.355	147.897	0.198	-0.265
-270.340	-171.659	-0.744	-0.024
-269.326	-18.564	-0.709	-0.440
-268.311	128.741	0.339	-0.429
-267.297	800.000	0.205	0.685
-266.282	-110.454	-0.145	0.030
-265.267	-158.199	0.601	0.035
-264.253	-7.974	-0.059	0.040
-263.238	-92.105	0.371	0.104
-262.224	-200.000	-0.075	0.863
-261.209	-200.000	-0.043	-0.466
-260.195	6.374	-0.207	0.152
-259.180	-118.132	0.468	-0.083
-258.165	-121.081	-0.333	-0.055
-257.151	724.820	0.101	-0.266
-256.136	712.638	-0.138	0.363
-255.122	-21.364	-0.206	0.125
-254.107	-200.000	0.037	0.589
-253.092	-149.584	1.010	0.079
-252.078	800.000	-0.130	0.520
-251.063	-44.264	0.311	0.155
-250.049	-200.000	0.155	-0.695
-249.034	-183.936	0.750	-0.013
-248.019	-21.432	0.280	-0.169
-247.005	-200.000	0.159	0.788
-245.990	22.059	0.581	0.470
-244.976	-200.000	0.058	-0.325
-243.961	800.000	0.159	-0.556
-242.946	-200.000	-0.146	-0.750
-241.932	800.000	-0.164	0.555
-240.917	-102.454	0.588	0.140
-239.903	-13.401	0.378	0.243
-238.888	-149.243	-0.661	-0.052
-237.873	-125.703	-0.076	-0.011
-236.859	-18.932	0.248	-0.153
-235.844	-13.201	-0.312	-0.201
-234.830	44.996	-0.278	0.254
-233.815	-200.000	-0.008	0.399
-232.800	29.646	0.717	0.606
-231.786	-57.142	0.860	-0.376
-230.771	-124.739	-0.145	-0.022
-229.757	-128.177	0.583	-0.083
-228.742	-105.679	-0.661	0.148
-227.727	-161.713	0.984	-0.050
-226.713	-193.140	-0.538	0.005
-225.698	-87.464	-0.387	0.116
-224.684	-21.110	0.578	-0.351
-223.669	35.550	-0.465	0.405
-222.655	63.267	-0.329	-0.327
-221.640	-31.279	-0.805	0.449
-220.625	17.505	0.318	-0.251
-219.611	800.000	0.096	-0.283
-218.596	119.941	0.276	0.340
-217.582	96.101	0.425	-0.482
-216.567	-109.587	-0.728	0.152
-215.552	266.817	-0.396	0.686
-214.538	-10.464	-0.631	-0.414
-213.523	-115.042	-1.142	-0.215
-212.509	-116.332	0.841	-0.154
-211.494	-79.058	-0.705	-0.237
-210.479	248.562	-0.295	-0.495
-209.465	-149.019	0.697	-0.056
-208.450	-45.576	0.701	0.344
-207.436	-159.985	-0.679	-0.037
-206.421	62.057	-0.807	0.797
-205.406	800.000	-0.299	-0.884
-204.392	76.968	0.215	0.227
-203.377	79.075	-0.104	-0.111
-202.363	289.676	-0.140	0.252
-201.348	-200.000	0.088	-1.114
-200.333	-2.566	0.247	-0.172
-199.319	243.280	-0.129	0.214
-198.304	4.770	0.783	-0.570
-197.290	24.408	-0.484	0.397
-196.275	800.000	-0.379	-1.147
-195.260	-57.990	0.259	0.112
-194.246	21.636	-0.563	0.454
-193.231	-73.176	-0.367	0.133
-192.217	21.277	0.764	-0.615
-191.202	251.035	0.289	0.487
-190.187	59.050	-0.445	0.433
-189.173	73.877	0.461	-0.479
-188.158	46.326	0.129	0.118
-187.144	132.292	0.399	0.510
-186.129	-14.304	0.266	0.170
-185.114	-54.947	-0.110	0.049
-184.100	800.000	0.169	-0.537
-183.085	-200.000	0.088	0.528
-182.071	-200.000	0.142	0.840
-181.056	796.819	-0.111	0.303
-180.042	-118.679	0.692	-0.121
-179.027	3.514	0.421	0.304
-178.012	153.525	-0.438	0.594
-176.998	297.847	0.047	-0.085
-175.983	-122.361	0.362	-0.058
-174.969	217.259	0.117	-0.184
-173.954	-132.521	0.102	-0.013
-172.939	-57.235	0.301	0.131
-171.925	-200.000	-0.097	-0.865
-170.910	214.745	-0.054	-0.084
-169.896	13.908	-0.248	0.191
-168.881	-200.000	0.029	-0.339
-167.866	-200.000	0.024	0.608
-166.852	-112.607	0.439	-0.086
-165.837	-115.196	0.764	0.143
-164.823	-102.154	-0.638	0.152
-163.808	-36.835	0.329	0.175
-162.793	-0.276	0.419	-0.295
-161.779	61.860	0.259	-0.255
-160.764	-0.690	0.461	-0.324
-159.750	33.758	-0.363	0.312
-158.735	18.988	-0.064	0.051
-157.720	192.338	-0.272	-0.406
-156.706	102.808	0.423	-0.489
-155.691	-27.984	-0.362	-0.207
-154.677	405.542	-0.254	0.529
-153.662	800.000	-0.152	0.491
-152.647	-200.000	-0.163	0.727
-151.633	101.254	-0.239	-0.275
-150.618	131.978	-0.418	-0.531
-149.604	-60.667	-0.459	0.192
-148.589	-85.580	0.669	0.206
-147.574	543.057	-0.183	-0.432
-146.560	-169.842	-0.811	0.029
-145.545	-200.000	-0.115	0.597
-144.531	202.600	-0.353	-0.540
-143.516	196.900	0.315	-0.474
-142.502	-131.955	0.720	0.093
-141.487	-92.480	-0.309	-0.086
-140.472	71.383	0.199	-0.204
-139.458	-200.000	0.045	0.413
-138.443	515.687	0.145	-0.336
-137.429	-56.497	0.426	-0.187
-136.414	-200.000	0.146	0.642
-135.399	-84.732	0.688	-0.214
-134.385	-136.992	-0.702	-0.079
-133.370	459.069	0.211	-0.463
-132.356	-200.000	-0.003	-0.377
-131.341	-48.381	-0.096	0.046
-130.326	15.087	-0.701	-0.543
-129.312	200.807	-0.024	-0.037
-128.297	-24.498	0.634	0.373
-127.283	-168.035	-0.420	0.016
-126.268	-200.000	-0.064	-0.550
-125.253	800.000	0.074	-0.247
-124.239	-200.000	-0.079	-0.707
-123.224	-105.388	-0.753	-0.169
-122.210	-200.000	-0.002	-0.088
-121.195	-20.572	0.312	0.189
-120.180	-182.834	-0.176	-0.003
