DTS Sentinel unit serial number:	SN413079Multiplexer serial number:	ORYXHardware model number:	OX4-SRSoftware version number:	ORYX F/W v4.00 Oryx Data Collector v3.7.2.0data status	okinstallation	princeton_trtdifferential loss correction	single-endedforward channel	channel 3reverse channel	N/Adate	2019/09/13time	15:32:35forward acquisition time	60.00reverse acquisition time	0.00gamma	496.2192k internal	0.2306k external	0.2306temperature offset calibration	1.0146default loss term (dB/km)	0.3790temperature slope calibration	1.0000multiplexer offset coefficient	1.0000multiplexer slope coefficient	1.0000fibre end	0.00T internal ref (°C)	35.06T ext. ref 1 (°C)	4.76T ext. ref 2 (°C)	29.64length (m)	temperature (°C)	Stokes	anti-Stokes-747.200	-19.524	0.175	-0.110
-746.185	171.601	0.151	0.221
-745.171	398.154	-0.118	-0.251
-744.156	189.309	-0.185	0.283
-743.142	50.989	0.184	0.177
-742.127	623.124	0.202	0.518
-741.112	-23.350	0.227	-0.139
-740.098	194.474	0.060	0.092
-739.083	-43.802	-0.183	0.094
-738.069	-200.000	0.016	-0.083
-737.054	-200.000	0.009	-0.199
-736.039	-200.000	0.024	0.187
-735.025	90.058	-0.161	0.183
-734.010	-96.776	-0.291	-0.078
-732.996	19.850	0.030	-0.025
-731.981	479.316	-0.067	-0.155
-730.966	51.579	0.167	-0.161
-729.952	510.973	-0.082	-0.193
-728.937	-41.447	-0.127	0.067
-727.923	-100.609	-0.205	0.051
-726.908	-15.974	0.042	-0.027
-725.894	-95.214	-0.438	-0.120
-724.879	-56.535	-0.081	-0.037
-723.864	-200.000	0.003	0.229
-722.850	800.000	-0.051	-0.191
-721.835	-183.275	-0.191	-0.003
-720.821	327.922	0.087	0.169
-719.806	101.180	-0.130	-0.153
-718.791	-31.606	0.099	0.057
-717.777	-128.828	-0.130	0.019
-716.762	-200.000	0.019	0.154
-715.748	-96.693	-0.191	-0.051
-714.733	800.000	0.095	0.356
-713.718	-25.564	-0.199	-0.119
-712.704	-97.542	-0.258	-0.068
-711.689	-134.195	-0.179	-0.022
-710.675	-180.442	0.216	0.005
-709.660	66.271	0.268	0.277
-708.645	-89.401	0.462	0.138
-707.631	19.550	-0.315	0.258
-706.616	-200.000	0.043	-0.309
-705.602	-40.413	-0.322	-0.170
-704.587	-200.000	0.029	0.278
-703.572	800.000	-0.071	0.234
-702.558	88.689	0.082	-0.093
-701.543	-68.117	-0.204	-0.081
-700.529	-44.377	-0.388	-0.197
-699.514	800.000	0.017	0.071
-698.499	-200.000	-0.053	0.353
-697.485	-120.364	-0.230	-0.040
-696.470	228.962	0.196	-0.324
-695.456	-150.749	0.307	-0.024
-694.441	450.399	-0.184	0.412
-693.426	68.940	0.243	-0.254
-692.412	-200.000	-0.023	0.195
-691.397	-117.972	0.124	0.023
-690.383	-107.174	0.073	-0.016
-689.368	55.474	-0.188	0.184
-688.354	-68.376	0.084	-0.033
-687.339	-200.000	0.025	0.294
-686.324	7.128	-0.278	0.211
-685.310	41.918	0.073	-0.068
-684.295	-106.575	-0.276	-0.062
-683.281	24.592	-0.256	0.215
-682.266	417.316	0.035	-0.076
-681.251	-96.050	-0.146	-0.039
-680.237	-94.239	-0.234	-0.065
-679.222	800.000	-0.027	0.110
-678.208	-74.579	0.284	-0.104
-677.193	-200.000	-0.028	-0.161
-676.178	-200.000	0.025	0.165
-675.164	-174.906	0.359	0.010
-674.149	800.000	-0.156	-0.507
-673.135	-135.508	-0.214	-0.026
-672.120	723.380	-0.026	-0.069
-671.105	-9.975	-0.301	-0.203
-670.091	800.000	0.047	-0.199
-669.076	119.633	-0.239	0.300
-668.062	77.256	0.086	-0.093
-667.047	-78.943	0.384	-0.132
-666.032	-99.934	-0.341	0.086
-665.018	-118.397	0.695	-0.125
-664.003	51.527	-0.136	-0.131
-662.989	-200.000	-0.044	-0.203
-661.974	147.221	0.066	-0.090
-660.959	130.518	-0.179	-0.232
-659.945	278.279	0.093	0.167
-658.930	-62.759	0.336	-0.141
-657.916	-200.000	-0.017	-0.239
-656.901	-200.000	-0.027	-0.172
-655.886	-27.876	-0.082	-0.048
-654.872	-200.000	0.004	-0.135
-653.857	-200.000	-0.054	-0.330
-652.843	9.551	0.284	-0.218
-651.828	-200.000	-0.004	0.172
-650.814	-96.100	0.265	0.071
-649.799	74.333	-0.159	-0.170
-648.784	800.000	-0.062	0.242
-647.770	169.410	0.212	0.307
-646.755	-26.240	-0.327	0.195
-645.741	-13.310	0.244	-0.161
-644.726	503.204	-0.108	0.253
-643.711	-100.912	-0.242	0.060
-642.697	-193.782	0.225	0.002
-641.682	800.000	-0.060	-0.237
-640.668	-81.746	-0.362	0.120
-639.653	-200.000	0.000	-0.257
-638.638	562.550	0.116	-0.284
-637.624	800.000	0.040	0.153
-636.609	-87.913	0.123	-0.038
-635.595	-200.000	0.023	-0.324
-634.580	800.000	-0.080	0.292
-633.565	91.714	0.098	0.112
-632.551	-28.335	0.132	0.077
-631.536	683.152	-0.055	-0.145
-630.522	-28.598	-0.153	-0.089
-629.507	136.825	-0.096	0.127
-628.492	-113.070	0.245	0.049
-627.478	-200.000	-0.042	-0.286
-626.463	-200.000	0.008	-0.114
-625.449	-200.000	-0.003	-0.158
-624.434	112.122	0.053	-0.065
-623.419	84.750	0.294	-0.326
-622.405	-114.085	-0.347	-0.068
-621.390	-200.000	-0.028	-0.259
-620.376	-112.440	0.086	-0.017
-619.361	-143.209	-0.437	-0.043
-618.346	800.000	0.038	-0.154
-617.332	-200.000	-0.019	0.133
-616.317	-17.424	-0.107	-0.068
-615.303	-97.385	-0.245	0.065
-614.288	454.769	-0.101	-0.226
-613.273	-75.856	0.214	0.077
-612.259	4.946	-0.122	0.091
-611.244	62.873	0.098	-0.100
-610.230	290.948	-0.038	0.069
-609.215	-200.000	0.024	-0.216
-608.201	4.156	-0.272	0.202
-607.186	83.688	-0.128	-0.142
-606.171	-43.874	0.184	-0.094
-605.157	-52.857	0.290	0.135
-604.142	247.647	0.091	-0.156
-603.128	120.108	-0.308	-0.386
-602.113	-107.571	0.175	0.039
-601.098	-9.111	0.225	0.153
-600.084	-2.281	-0.042	0.030
-599.069	800.000	0.110	0.335
-598.055	-46.105	-0.343	-0.171
-597.040	7.970	-0.115	0.087
-596.025	59.612	-0.118	0.117
-595.011	-200.000	-0.054	-0.405
-593.996	800.000	0.074	0.318
-592.982	-40.092	0.232	-0.122
-591.967	191.699	-0.048	-0.074
-590.952	-123.383	-0.505	-0.081
-589.938	-200.000	-0.051	0.410
-588.923	-110.427	-0.116	-0.024
-587.909	167.230	0.128	-0.184
-586.894	-200.000	-0.036	0.169
-585.879	-33.993	0.256	0.143
-584.865	353.931	0.125	-0.251
-583.850	-5.355	-0.224	-0.156
-582.836	42.615	-0.066	0.061
-581.821	-2.213	0.225	-0.160
-580.806	19.878	0.062	-0.050
-579.792	-200.000	-0.058	0.373
-578.777	-35.852	0.186	0.102
-577.763	-71.716	-0.408	-0.154
-576.748	2.529	0.106	-0.078
-575.733	-72.542	-0.383	-0.143
-574.719	-200.000	0.008	0.133
-573.704	158.185	-0.205	-0.288
-572.690	109.799	-0.192	-0.232
-571.675	-105.439	0.108	0.025
-570.661	-125.854	0.230	-0.035
-569.646	-151.383	-0.463	0.035
-568.631	-200.000	-0.008	0.343
-567.617	79.804	-0.011	0.012
-566.602	800.000	-0.052	-0.218
-565.588	294.312	-0.154	-0.285
-564.573	-133.659	-0.295	0.037
-563.558	-200.000	0.036	0.198
-562.544	-88.328	-0.201	-0.061
-561.529	-200.000	-0.018	0.242
-560.515	-42.331	-0.129	-0.066
-559.500	-59.604	-0.153	-0.066
-558.485	800.000	0.061	-0.228
-557.471	-104.203	-0.149	-0.035
-556.456	-113.194	0.343	-0.068
-555.442	800.000	0.081	-0.236
-554.427	98.146	0.158	-0.184
-553.412	60.092	-0.065	-0.065
-552.398	92.888	0.226	0.257
-551.383	-33.724	-0.205	0.114
-550.369	2.308	-0.228	0.166
-549.354	-200.000	-0.021	0.122
-548.339	-91.047	0.295	0.086
-547.325	30.999	-0.138	0.119
-546.310	95.812	0.079	0.091
-545.296	178.516	0.165	0.243
-544.281	610.206	-0.099	0.251
-543.266	419.634	0.017	-0.037
-542.252	686.360	-0.105	-0.277
-541.237	148.919	0.117	0.160
-540.223	-193.429	0.334	0.003
-539.208	-22.928	0.140	0.085
-538.193	800.000	-0.065	-0.184
-537.179	-137.756	0.193	0.022
-536.164	-200.000	0.045	0.398
-535.150	-200.000	0.029	-0.366
-534.135	-30.929	-0.121	0.069
-533.121	-200.000	0.013	-0.140
-532.106	186.129	0.037	-0.055
-531.091	-50.754	-0.076	-0.036
-530.077	-57.593	0.161	-0.071
-529.062	-127.843	-0.112	0.016
-528.048	-200.000	-0.507	0.002
-527.033	194.317	-0.278	-0.426
-526.018	800.000	0.032	-0.114
-525.004	31.641	0.159	0.138
-523.989	-112.598	0.424	0.085
-522.975	-200.000	-0.015	-0.104
-521.960	97.152	0.145	-0.168
-520.945	70.381	-0.092	0.096
-519.931	115.276	-0.109	0.134
-518.916	-65.102	0.058	-0.024
-517.902	-79.768	0.155	0.053
-516.887	-200.000	0.005	-0.189
-515.872	-200.000	0.053	-0.296
-514.858	-28.421	0.228	-0.132
-513.843	-19.180	-0.102	-0.064
-512.829	273.459	-0.060	0.108
-511.814	-64.554	-0.172	0.070
-510.799	288.856	-0.139	0.255
-509.785	-124.527	-0.316	0.049
-508.770	-20.072	0.086	-0.054
-507.756	-92.647	-0.412	-0.116
-506.741	-123.352	0.069	-0.011
-505.726	40.453	-0.187	0.170
-504.712	65.097	0.262	0.267
-503.697	362.886	-0.050	0.101
-502.683	426.844	-0.084	0.183
-501.668	-18.902	-0.103	0.065
-500.653	800.000	-0.112	-0.394
-499.639	-96.436	-0.072	0.019
-498.624	-200.000	0.016	0.092
-497.610	-83.991	-0.296	-0.095
-496.595	282.562	0.064	0.116
-495.581	-40.928	0.238	-0.124
-494.566	607.430	0.091	0.228
-493.551	800.000	0.035	-0.102
-492.537	-149.650	0.146	-0.012
-491.522	800.000	-0.068	0.246
-490.508	-200.000	0.032	0.285
-489.493	-41.331	0.054	-0.028
-488.478	10.449	0.343	-0.263
-487.464	-0.669	-0.128	-0.091
-486.449	511.380	-0.163	0.382
-485.435	637.431	-0.049	0.125
-484.420	-149.405	-0.078	0.006
-483.405	800.000	0.084	0.264
-482.391	424.211	-0.006	-0.012
-481.376	345.989	-0.117	0.231
-480.362	800.000	0.026	-0.099
-479.347	-2.886	-0.234	-0.164
-478.332	274.278	0.104	0.185
-477.318	-200.000	0.012	-0.271
-476.303	-93.094	0.085	0.024
-475.289	477.313	-0.101	0.229
-474.274	-60.930	0.219	0.093
-473.259	800.000	-0.015	-0.055
-472.245	24.893	0.233	-0.195
-471.230	-200.000	0.043	0.212
-470.216	-29.000	0.148	-0.086
-469.201	-200.000	0.030	0.151
-468.186	17.489	0.299	0.239
-467.172	-152.793	-0.099	0.007
-466.157	90.394	-0.072	-0.081
-465.143	-200.000	-0.004	0.082
-464.128	-48.191	0.158	0.077
-463.113	285.699	0.182	-0.330
-462.099	-102.672	-0.111	-0.027
-461.084	-200.000	0.009	0.272
-460.070	365.314	-0.063	-0.129
-459.055	-99.603	0.157	0.040
-458.040	462.897	0.021	0.048
-457.026	47.657	0.137	-0.128
-456.011	-90.062	0.030	-0.009
-454.997	-71.538	0.095	0.036
-453.982	-42.015	0.029	-0.015
-452.968	1.368	0.189	-0.136
-451.953	-26.888	0.272	0.160
-450.938	2.481	-0.203	0.148
-449.924	-152.542	0.235	0.017
-448.909	800.000	0.037	-0.120
-447.895	-200.000	-0.064	0.391
-446.880	-183.361	-0.230	-0.004
-445.865	-74.309	0.163	-0.059
-444.851	38.276	-0.087	0.078
-443.836	108.130	-0.214	-0.257
-442.822	-8.760	-0.097	-0.065
-441.807	35.630	-0.162	-0.143
-440.792	2.548	0.166	-0.121
-439.778	-38.040	0.364	0.194
-438.763	-200.000	0.013	0.125
-437.749	196.140	-0.110	0.168
-436.734	37.381	-0.133	0.118
-435.719	-104.273	-0.192	-0.045
-434.705	5.446	-0.133	0.099
-433.690	12.155	-0.065	-0.051
-432.676	334.482	-0.081	-0.158
-431.661	-200.000	-0.034	0.271
-430.646	800.000	-0.078	-0.220
-429.632	62.811	-0.115	-0.116
-428.617	178.810	0.020	-0.030
-427.603	-55.705	-0.311	-0.140
-426.588	41.995	0.126	0.115
-425.573	771.318	-0.140	0.383
-424.559	-200.000	0.010	-0.245
-423.544	230.604	0.308	-0.507
-422.530	800.000	-0.073	-0.314
-421.515	107.508	-0.129	-0.154
-420.500	-200.000	0.032	-0.253
-419.486	-56.739	0.148	-0.066
-418.471	58.452	0.114	0.112
-417.457	318.240	0.147	0.280
-416.442	-118.325	0.018	-0.003
-415.428	-44.856	0.081	-0.041
-414.413	-15.983	-0.211	-0.135
-413.398	11.047	-0.174	0.134
-412.384	322.013	-0.201	0.385
-411.369	-200.000	-0.035	0.252
-410.355	781.852	0.087	-0.240
-409.340	-99.277	0.365	0.093
-408.325	800.000	0.083	-0.235
-407.311	800.000	-0.049	-0.205
-406.296	800.000	0.045	-0.185
-405.282	-89.629	-0.150	0.044
-404.267	-5.953	-0.200	0.137
-403.252	-156.472	-0.292	0.018
-402.238	-200.000	0.009	-0.224
-401.223	122.178	0.098	0.123
-400.209	-23.617	0.329	0.198
-399.194	-67.512	-0.089	-0.035
-398.179	367.745	-0.182	0.369
-397.165	106.725	-0.166	-0.198
-396.150	-153.380	-0.411	-0.029
-395.136	-200.000	0.035	0.207
-394.121	-200.000	0.017	0.557
-393.106	509.976	0.120	-0.281
-392.092	-18.108	-0.164	-0.103
-391.077	69.616	0.170	-0.176
-390.063	-20.390	-0.324	0.200
-389.048	-200.000	0.010	0.117
-388.033	-59.358	0.216	0.093
-387.019	800.000	0.070	0.225
-386.004	-122.174	-0.186	-0.031
-384.990	87.603	0.284	0.316
-383.975	-12.878	0.155	0.101
-382.960	-119.745	0.053	0.009
-381.946	-68.789	0.234	-0.091
-380.931	104.602	-0.113	0.133
-379.917	150.795	0.197	-0.268
-378.902	-200.000	0.032	0.342
-377.888	176.142	-0.217	-0.316
-376.873	-101.892	0.309	-0.075
-375.858	-103.063	-0.133	0.032
-374.844	383.974	0.154	-0.318
-373.829	-36.661	-0.175	0.094
-372.815	-78.494	0.251	-0.086
-371.800	-117.303	-0.363	0.066
-370.785	199.269	-0.092	-0.141
-369.771	800.000	-0.055	0.206
-368.756	-200.000	-0.010	-0.216
-367.742	192.727	-0.003	0.005
-366.727	295.854	0.096	0.176
-365.712	-127.770	0.200	-0.029
-364.698	-104.786	0.170	-0.039
-363.683	-64.569	-0.115	-0.047
-362.669	24.022	-0.268	0.222
-361.654	266.303	-0.057	0.100
-360.639	800.000	0.056	-0.199
-359.625	-51.879	-0.063	-0.030
-358.610	-21.379	0.181	0.111
-357.596	7.635	-0.125	-0.094
-356.581	-116.819	0.128	-0.023
-355.566	-200.000	-0.009	-0.095
-354.552	-200.000	-0.022	-0.104
-353.537	198.361	-0.083	0.127
-352.523	800.000	-0.004	-0.011
-351.508	800.000	-0.033	0.135
-350.493	205.694	0.206	-0.320
-349.479	-12.039	-0.150	0.098
-348.464	484.070	0.067	0.152
-347.450	-109.119	-0.192	-0.041
-346.435	707.044	0.033	0.086
-345.420	155.532	-0.080	-0.111
-344.406	15.745	-0.197	-0.155
-343.391	-200.000	0.015	0.127
-342.377	-70.830	-0.359	0.136
-341.362	-200.000	-0.018	0.251
-340.348	-36.097	-0.187	-0.101
-339.333	365.503	-0.073	-0.147
-338.318	-110.082	-0.279	-0.058
-337.304	-47.182	0.289	0.141
-336.289	-59.911	0.139	0.059
-335.275	102.379	-0.141	-0.165
-334.260	-171.628	-0.031	-0.001
-333.245	-139.582	-0.230	0.025
-332.231	-132.299	0.249	-0.032
-331.216	-200.000	0.022	0.274
-330.202	10.983	-0.145	-0.111
-329.187	-174.765	0.085	-0.002
-328.172	-49.602	-0.378	0.180
-327.158	-200.000	-0.011	0.212
-326.143	-200.000	-0.024	0.258
-325.129	260.907	-0.027	-0.046
-324.114	579.204	-0.089	0.218
-323.099	800.000	0.043	-0.137
-322.085	232.899	-0.016	0.026
-321.070	195.372	0.124	-0.189
-320.056	-145.661	-0.128	0.011
-319.041	35.901	-0.118	0.104
-318.026	157.323	0.118	0.163
-317.012	-200.000	-0.033	-0.372
-315.997	-17.682	-0.101	0.063
-314.983	-127.898	0.165	0.024
-313.968	-200.000	-0.032	0.184
-312.953	-98.548	-0.084	-0.022
-311.939	-57.835	0.365	0.160
-310.924	69.074	-0.268	-0.275
-309.910	147.925	0.184	-0.249
-308.895	-47.195	0.442	0.215
-307.880	157.392	-0.029	-0.040
-306.866	-43.166	0.199	-0.101
-305.851	313.397	-0.031	0.057
-304.837	491.162	0.067	0.154
-303.822	-17.029	-0.041	-0.026
-302.807	86.911	0.224	-0.247
-301.793	113.367	0.128	0.155
-300.778	123.850	-0.092	-0.116
-299.764	-200.000	-0.035	-0.210
-298.749	-21.336	0.210	-0.128
-297.735	211.009	0.159	-0.250
-296.720	28.310	-0.314	0.265
-295.705	-76.601	0.175	-0.061
-294.691	-165.561	0.098	0.004
-293.676	-38.380	-0.349	0.185
-292.662	-91.126	-0.163	-0.047
-291.647	-200.000	0.034	0.278
-290.632	-200.000	0.001	0.367
-289.618	-200.000	0.025	0.164
-288.603	102.527	0.338	0.395
-287.589	-131.805	-0.236	-0.031
-286.574	789.477	0.193	0.531
-285.559	-173.919	-0.181	0.005
-284.545	352.257	-0.151	0.299
-283.530	72.258	-0.291	0.303
-282.516	-61.848	0.121	0.051
-281.501	-118.139	0.168	-0.030
-280.486	175.890	-0.153	-0.222
-279.472	800.000	0.085	-0.295
-278.457	-154.096	0.064	-0.004
-277.443	-175.850	-0.461	-0.012
-276.428	-16.845	0.061	0.038
-275.413	800.000	0.129	0.491
-274.399	-28.808	0.165	-0.095
-273.384	-200.000	-0.004	-0.225
-272.370	23.901	0.110	-0.091
-271.355	617.253	0.099	0.248
-270.340	-59.248	0.252	-0.108
-269.326	-63.601	0.385	0.158
-268.311	800.000	-0.061	-0.244
-267.297	-94.928	0.294	-0.079
-266.282	68.471	-0.152	0.156
-265.267	800.000	0.033	-0.138
-264.253	-126.879	-0.156	-0.023
-263.238	129.786	-0.036	-0.046
-262.224	-43.014	0.089	0.045
-261.209	653.073	-0.091	-0.233
-260.195	-200.000	0.004	-0.061
-259.180	275.543	-0.097	-0.172
-258.165	-31.649	0.125	0.070
-257.151	-12.850	0.255	-0.166
-256.136	15.457	0.060	0.047
-255.122	201.228	-0.163	-0.251
-254.107	248.196	0.125	0.210
-253.092	-94.083	-0.063	-0.017
-252.078	-200.000	-0.020	0.184
-251.063	-38.903	-0.237	-0.124
-250.049	30.191	-0.146	-0.124
-249.034	-45.637	-0.152	0.075
-248.019	-88.416	-0.411	0.122
-247.005	48.230	0.398	-0.371
-245.990	-18.086	0.203	-0.127
-244.976	800.000	-0.035	-0.115
-243.961	800.000	0.037	0.114
-242.946	800.000	-0.032	0.133
-241.932	-184.284	-0.111	-0.002
-240.917	-137.009	0.292	0.033
-239.903	-152.747	0.294	0.021
-238.888	314.747	0.020	-0.038
-237.873	243.753	0.148	0.248
-236.859	-41.465	0.300	0.154
-235.844	-119.143	-0.329	0.057
-234.830	90.814	0.235	0.263
-233.815	253.877	0.065	0.111
-232.800	-86.907	-0.211	-0.064
-231.786	-200.000	0.004	0.064
-230.771	-84.307	-0.481	-0.152
-229.757	-98.942	0.122	-0.031
-228.742	272.334	-0.134	0.236
-227.727	165.072	-0.074	-0.105
-226.713	60.702	-0.174	-0.172
-225.698	-200.000	-0.054	-0.476
-224.684	4.396	-0.166	-0.121
-223.669	800.000	0.042	0.118
-222.655	-68.489	-0.141	-0.055
-221.640	-114.260	0.127	0.024
-220.625	-125.186	0.181	-0.028
-219.611	800.000	0.075	0.267
-218.596	-200.000	0.012	0.104
-217.582	-143.846	0.264	0.025
-216.567	-75.110	-0.169	0.060
-215.552	-109.735	0.238	0.050
-214.538	-200.000	0.049	-0.336
-213.523	709.991	-0.143	-0.377
-212.509	488.888	0.068	-0.154
-211.494	-200.000	-0.001	-0.341
-210.479	-200.000	-0.053	-0.399
-209.465	-152.119	-0.277	-0.020
-208.450	-121.807	0.036	-0.006
-207.436	301.928	0.076	-0.140
-206.421	-200.000	0.068	-0.298
-205.406	-200.000	0.005	-0.088
-204.392	800.000	-0.012	-0.036
-203.377	-154.098	0.276	0.019
-202.363	-121.621	-0.092	0.015
-201.348	151.529	0.063	-0.086
-200.333	-200.000	-0.027	0.165
-199.319	-200.000	-0.058	0.280
-198.304	-133.938	0.361	-0.045
-197.290	106.123	-0.034	-0.040
-196.275	-39.936	0.427	-0.222
-195.260	495.593	-0.092	-0.212
-194.246	430.059	-0.049	0.106
-193.231	94.951	-0.106	-0.120
-192.217	340.700	-0.208	0.405
-191.202	-121.488	0.304	0.050
-190.187	-133.682	-0.242	0.030
-189.173	51.970	0.260	0.247
-188.158	46.715	0.315	-0.292
-187.144	112.630	0.065	0.078
-186.129	55.674	0.135	-0.130
-185.114	6.221	-0.127	-0.094
-184.100	-88.377	0.288	0.086
-183.085	-200.000	-0.004	0.221
-182.071	-81.160	-0.110	0.036
-181.056	-200.000	-0.014	0.090
-180.042	-126.436	0.111	0.016
-179.027	-200.000	-0.008	-0.263
-178.012	69.098	-0.202	-0.206
-176.998	1.232	0.185	-0.132
-175.983	-200.000	0.004	-0.156
-174.969	733.237	0.044	0.118
-173.954	-156.736	-0.237	-0.015
-172.939	-27.930	0.259	0.149
-171.925	358.081	0.102	-0.202
-170.910	43.838	0.182	0.166
-169.896	-9.104	-0.074	-0.050
-168.881	101.975	-0.080	0.092
-167.866	-121.635	0.218	-0.036
-166.852	17.144	0.114	0.090
-165.837	-32.014	-0.088	-0.049
-164.823	256.066	0.207	0.353
-163.808	-135.370	-0.087	-0.010
-162.793	-200.000	-0.027	0.181
-161.779	277.938	-0.098	0.174
-160.764	46.162	0.143	0.132
-159.750	-60.401	0.021	0.009
-158.735	-103.489	0.250	-0.058
-157.720	-52.155	-0.232	-0.107
-156.706	-118.914	-0.138	0.024
-155.691	-51.078	0.122	0.057
-154.677	-200.000	0.039	-0.287
-153.662	108.828	-0.198	-0.235
-152.647	-116.803	0.169	0.031
-151.633	-124.347	0.450	-0.070
-150.618	108.401	0.095	0.113
-149.604	90.503	-0.263	0.293
-148.589	46.186	0.178	0.164
-147.574	356.214	-0.158	-0.312
-146.560	263.914	0.185	0.320
-145.545	162.908	0.188	0.262
-144.531	800.000	0.025	0.077
-143.516	380.474	0.150	0.305
-142.502	74.249	0.097	-0.101
-141.487	-5.014	-0.235	0.161
-140.472	78.726	-0.228	0.242
-139.458	359.313	0.039	0.077
-138.443	212.885	0.004	0.006
-137.429	800.000	0.015	0.064
-136.414	800.000	0.121	0.403
-135.399	-200.000	0.012	0.082
-134.385	-200.000	0.032	0.253
-133.370	800.000	-0.044	-0.140
-132.356	800.000	0.108	0.385
-131.341	-92.621	-0.049	0.014
-130.326	68.759	0.057	-0.058
-129.312	-29.974	0.156	0.088
-128.297	-30.250	0.162	-0.092
-127.283	381.643	0.096	0.195
-126.268	561.719	0.216	-0.518
-125.253	12.726	-0.211	0.161
-124.239	109.492	-0.088	-0.104
-123.224	69.531	0.273	-0.280
-122.210	141.520	0.117	0.154
-121.195	-85.260	0.323	0.100
