DTS Sentinel unit serial number:	SN413079Multiplexer serial number:	ORYXHardware model number:	OX4-SRSoftware version number:	ORYX F/W v4.00 Oryx Data Collector v3.7.2.0data status	okinstallation	princeton_trtdifferential loss correction	single-endedforward channel	channel 3reverse channel	N/Adate	2019/09/18time	20:48:34forward acquisition time	60.00reverse acquisition time	0.00gamma	496.2192k internal	0.2342k external	0.2342temperature offset calibration	1.0008default loss term (dB/km)	0.3790temperature slope calibration	1.0000multiplexer offset coefficient	1.0000multiplexer slope coefficient	1.0000fibre end	0.00T internal ref (°C)	27.17T ext. ref 1 (°C)	1.04T ext. ref 2 (°C)	18.48length (m)	temperature (°C)	Stokes	anti-Stokes-747.200	158.031	0.168	-0.233
-746.185	389.364	-0.089	-0.185
-745.171	462.232	0.071	-0.159
-744.156	147.073	-0.153	-0.207
-743.142	413.349	0.257	0.547
-742.127	592.282	-0.098	0.242
-741.112	-21.408	0.373	-0.228
-740.098	207.285	0.111	0.173
-739.083	-183.306	0.366	-0.006
-738.069	437.680	-0.131	0.286
-737.054	32.638	-0.211	0.183
-736.039	-168.331	-0.308	-0.012
-735.025	32.823	-0.028	0.024
-734.010	-112.618	-0.130	0.026
-732.996	-172.218	0.262	0.008
-731.981	800.000	-0.042	0.125
-730.966	-200.000	0.041	-0.370
-729.952	-200.000	0.017	0.102
-728.937	41.694	-0.084	-0.076
-727.923	31.798	-0.211	-0.182
-726.908	-16.365	-0.210	-0.133
-725.894	630.905	-0.102	-0.258
-724.879	467.925	-0.128	0.288
-723.864	800.000	0.042	0.116
-722.850	-200.000	-0.010	-0.389
-721.835	-114.610	0.245	0.047
-720.821	-32.892	-0.028	-0.015
-719.806	733.127	-0.138	-0.370
-718.791	251.772	-0.070	0.119
-717.777	176.492	-0.250	0.364
-716.762	-40.097	-0.155	-0.081
-715.748	211.681	0.184	0.290
-714.733	16.079	-0.157	-0.123
-713.718	-20.702	-0.097	-0.060
-712.704	-59.693	0.235	0.101
-711.689	-200.000	-0.032	-0.156
-710.675	155.841	-0.071	-0.098
-709.660	-78.832	0.256	-0.087
-708.645	138.894	-0.078	-0.103
-707.631	800.000	-0.053	-0.220
-706.616	476.588	-0.139	-0.314
-705.602	96.950	-0.147	0.168
-704.587	562.663	-0.103	-0.249
-703.572	48.611	0.146	-0.137
-702.558	-120.632	0.259	0.044
-701.543	546.744	-0.043	0.104
-700.529	190.076	0.060	0.090
-699.514	800.000	0.032	0.098
-698.499	116.656	-0.063	-0.077
-697.485	-200.000	-0.015	0.192
-696.470	181.686	-0.071	-0.105
-695.456	-114.859	-0.266	0.051
-694.441	51.077	0.131	-0.124
-693.426	800.000	0.034	0.121
-692.412	120.599	-0.173	-0.215
-691.397	800.000	0.043	-0.127
-690.383	52.812	0.274	-0.262
-689.368	-18.812	0.111	-0.069
-688.354	-56.874	-0.183	-0.081
-687.339	155.638	-0.065	-0.089
-686.324	-15.757	0.085	-0.054
-685.310	-200.000	0.005	0.030
-684.295	194.841	-0.070	0.107
-683.281	34.489	-0.112	0.098
-682.266	348.868	0.085	-0.168
-681.251	-200.000	0.006	0.032
-680.237	-200.000	0.002	0.259
-679.222	-67.668	0.190	-0.074
-678.208	23.133	0.101	-0.082
-677.193	337.977	-0.206	-0.401
-676.178	28.024	-0.356	-0.300
-675.164	93.442	-0.071	-0.080
-674.149	-8.871	-0.146	0.098
-673.135	800.000	0.102	-0.310
-672.120	53.043	-0.217	-0.207
-671.105	336.980	0.114	-0.220
-670.091	-39.742	-0.201	0.105
-669.076	9.839	0.254	-0.192
-668.062	-95.611	-0.113	-0.030
-667.047	-45.649	-0.250	0.124
-666.032	1.245	-0.060	-0.043
-665.018	-200.000	0.004	0.148
-664.003	4.281	0.062	-0.045
-662.989	800.000	0.059	0.238
-661.974	373.595	-0.095	-0.193
-660.959	-200.000	0.001	0.180
-659.945	-200.000	-0.009	0.224
-658.930	-200.000	-0.009	-0.206
-657.916	-131.837	0.167	0.022
-656.901	23.371	0.149	0.122
-655.886	800.000	0.043	-0.168
-654.872	40.070	-0.263	-0.236
-653.857	-176.991	0.200	0.005
-652.843	95.008	0.337	-0.383
-651.828	15.949	-0.297	-0.234
-650.814	215.271	-0.118	0.188
-649.799	-200.000	-0.009	0.157
-648.784	210.960	0.059	-0.092
-647.770	-26.875	-0.099	0.058
-646.755	-95.048	-0.168	0.045
-645.741	-21.898	-0.261	-0.158
-644.726	-200.000	-0.014	0.186
-643.711	800.000	0.072	-0.204
-642.697	11.212	0.149	-0.114
-641.682	-35.069	-0.069	-0.038
-640.668	10.734	0.086	0.065
-639.653	-15.974	-0.180	-0.115
-638.638	-55.203	0.069	0.031
-637.624	544.486	-0.084	0.200
-636.609	-63.251	0.181	-0.074
-635.595	181.071	-0.277	-0.406
-634.580	-183.903	-0.054	-0.001
-633.565	22.164	-0.232	0.189
-632.551	85.971	0.358	0.393
-631.536	147.950	0.297	0.399
-630.522	313.381	0.055	0.102
-629.507	-98.393	0.254	0.065
-628.492	231.181	-0.330	-0.539
-627.478	-187.089	-0.176	-0.002
-626.463	-200.000	0.015	0.232
-625.449	800.000	0.066	0.260
-624.434	108.732	0.077	-0.092
-623.419	106.761	-0.149	-0.176
-622.405	144.132	-0.190	-0.253
-621.390	-27.837	0.213	0.123
-620.376	-152.840	0.145	-0.010
-619.361	-200.000	0.010	-0.343
-618.346	171.162	-0.106	-0.151
-617.332	382.546	0.115	-0.235
-616.317	800.000	-0.093	0.313
-615.303	278.564	-0.140	-0.249
-614.288	-100.313	0.035	0.009
-613.273	-166.648	-0.157	0.006
-612.259	78.871	0.157	-0.167
-611.244	-39.510	0.058	-0.030
-610.230	59.375	-0.098	0.096
-609.215	149.751	0.086	-0.116
-608.201	-37.994	0.278	-0.147
-607.186	-135.122	-0.221	0.027
-606.171	76.668	-0.209	0.221
-605.157	11.116	0.075	-0.057
-604.142	-10.863	-0.055	-0.037
-603.128	19.433	-0.147	-0.117
-602.113	70.818	-0.105	-0.108
-601.098	-105.060	-0.106	-0.024
-600.084	-51.373	-0.128	0.060
-599.069	118.940	0.152	-0.187
-598.055	-200.000	0.019	0.375
-597.040	-200.000	-0.018	0.091
-596.025	-91.618	-0.402	0.114
-595.011	-135.424	-0.282	0.033
-593.996	55.255	-0.027	-0.026
-592.982	20.271	-0.090	-0.073
-591.967	-76.994	-0.303	-0.105
-590.952	-18.758	0.116	-0.072
-589.938	-57.884	-0.065	-0.028
-588.923	396.147	-0.052	0.108
-587.909	9.160	0.310	-0.233
-586.894	210.580	0.156	0.244
-585.879	-63.049	0.412	0.169
-584.865	13.750	0.084	0.065
-583.850	-133.995	-0.064	-0.008
-582.836	24.432	-0.049	0.041
-581.821	-200.000	-0.061	-0.323
-580.806	800.000	0.013	-0.043
-579.792	363.418	0.042	0.085
-578.777	-46.588	0.175	0.086
-577.763	21.157	-0.152	0.123
-576.748	-46.393	-0.252	-0.123
-575.733	-135.482	0.338	-0.040
-574.719	-200.000	0.003	-0.077
-573.704	27.206	0.285	-0.238
-572.690	-140.480	-0.203	0.021
-571.675	-200.000	-0.041	0.200
-570.661	13.527	-0.222	-0.171
-569.646	800.000	0.038	0.141
-568.631	454.200	-0.052	-0.116
-567.617	-200.000	0.014	-0.104
-566.602	-122.501	-0.457	-0.074
-565.588	96.218	0.193	-0.219
-564.573	342.026	-0.224	-0.437
-563.558	-43.859	0.051	-0.026
-562.544	-200.000	-0.002	0.112
-561.529	53.301	-0.195	-0.186
-560.515	-177.789	0.292	-0.007
-559.500	264.035	0.076	0.131
-558.485	88.923	-0.284	0.315
-557.471	-200.000	-0.021	0.177
-556.456	169.818	0.111	0.158
-555.442	111.265	0.101	0.121
-554.427	21.679	-0.157	-0.127
-553.412	556.360	0.064	0.154
-552.398	-14.782	0.151	-0.096
-551.383	539.434	0.109	-0.258
-550.369	800.000	0.046	-0.148
-549.354	800.000	-0.042	-0.174
-548.339	-200.000	-0.041	-0.266
-547.325	-6.830	0.101	-0.068
-546.310	139.725	-0.161	-0.211
-545.296	-9.465	-0.350	-0.232
-544.281	126.137	0.070	-0.088
-543.266	-77.809	-0.449	-0.154
-542.252	167.200	0.054	0.077
-541.237	-75.344	-0.239	-0.085
-540.223	95.646	0.322	0.365
-539.208	-200.000	-0.017	-0.086
-538.193	-167.715	-0.219	-0.009
-537.179	-75.228	0.267	0.095
-536.164	-139.181	-0.372	0.040
-535.150	457.509	0.092	0.202
-534.135	552.323	0.050	0.119
-533.121	-200.000	0.010	-0.220
-532.106	659.584	-0.054	0.138
-531.091	-22.107	-0.485	0.292
-530.077	800.000	0.053	0.228
-529.062	-13.209	-0.125	-0.081
-528.048	2.531	-0.199	0.143
-527.033	10.403	0.077	-0.058
-526.018	-106.935	-0.249	-0.055
-525.004	800.000	0.030	-0.124
-523.989	356.957	0.082	-0.163
-522.975	148.825	-0.097	0.130
-521.960	-33.464	0.338	-0.185
-520.945	228.793	0.063	-0.102
-519.931	-145.972	-0.360	-0.032
-518.916	-200.000	0.051	0.230
-517.902	143.525	-0.155	0.205
-516.887	800.000	0.058	-0.174
-515.872	-175.578	-0.216	-0.006
-514.858	30.688	0.164	-0.140
-513.843	89.550	0.093	-0.103
-512.829	-11.607	0.206	0.135
-511.814	755.819	0.046	0.124
-510.799	121.309	0.162	0.200
-509.785	-36.827	0.103	0.055
-508.770	114.119	0.095	0.115
-507.756	785.266	-0.048	-0.130
-506.741	320.996	0.051	0.096
-505.726	-111.102	0.171	0.035
-504.712	-200.000	0.006	-0.130
-503.697	-52.136	-0.099	0.046
-502.683	-200.000	-0.023	-0.248
-501.668	7.190	0.203	0.150
-500.653	-111.061	-0.284	-0.058
-499.639	611.141	0.088	0.219
-498.624	21.368	0.142	0.115
-497.610	-200.000	-0.025	-0.110
-496.595	280.530	0.169	-0.300
-495.581	66.714	-0.146	0.148
-494.566	-79.240	0.162	0.054
-493.551	-113.645	-0.152	0.029
-492.537	-48.454	0.086	0.041
-491.522	-35.880	0.271	0.146
-490.508	-3.345	-0.224	0.155
-489.493	-53.477	0.180	0.082
-488.478	33.254	-0.102	-0.088
-487.464	393.236	-0.232	-0.478
-486.449	-168.826	0.302	-0.011
-485.435	230.465	-0.141	0.229
-484.420	800.000	-0.027	-0.115
-483.405	397.512	-0.108	-0.223
-482.391	68.724	0.027	-0.027
-481.376	-96.295	-0.215	-0.057
-480.362	0.676	0.281	-0.200
-479.347	-32.031	0.213	-0.118
-478.332	-157.926	-0.258	0.015
-477.318	-82.943	0.148	-0.047
-476.303	-200.000	0.005	0.200
-475.289	-59.399	0.141	-0.060
-474.274	612.691	-0.003	-0.008
-473.259	-110.334	0.140	-0.029
-472.245	-138.615	-0.294	-0.032
-471.230	226.662	0.226	-0.364
-470.216	259.259	0.052	0.088
-469.201	129.429	0.093	-0.118
-468.186	-86.127	0.162	-0.050
-467.172	100.034	-0.140	0.161
-466.157	123.419	-0.331	0.411
-465.143	-78.405	-0.061	0.021
-464.128	126.036	-0.209	-0.261
-463.113	-200.000	0.041	-0.291
-462.099	-170.325	-0.205	-0.007
-461.084	-92.243	0.269	-0.075
-460.070	-176.655	-0.170	-0.004
-459.055	-22.781	-0.284	0.170
-458.040	-84.273	0.107	-0.034
-457.026	-101.283	-0.299	-0.072
-456.011	373.493	0.126	-0.254
-454.997	309.423	0.116	0.216
-453.982	349.640	-0.088	0.172
-452.968	-200.000	-0.078	0.558
-451.953	62.397	0.209	-0.206
-450.938	80.964	-0.188	-0.200
-449.924	-18.173	0.137	0.085
-448.909	-1.874	0.113	0.078
-447.895	-200.000	-0.021	-0.092
-446.880	41.280	-0.028	-0.025
-445.865	-132.140	-0.117	-0.015
-444.851	485.279	-0.053	-0.121
-443.836	-127.266	-0.291	-0.042
-442.822	800.000	-0.047	0.179
-441.807	-99.125	0.110	0.028
-440.792	-149.660	0.203	0.016
-439.778	6.379	0.259	-0.191
-438.763	-103.290	-0.146	-0.034
-437.749	321.956	0.172	-0.323
-436.734	59.650	0.181	-0.177
-435.719	659.605	0.058	-0.147
-434.705	-95.125	-0.121	0.032
-433.690	18.507	-0.143	0.113
-432.676	-0.586	-0.324	0.228
-431.661	-200.000	0.015	0.152
-430.646	-87.125	-0.235	-0.071
-429.632	576.338	0.017	-0.042
-428.617	187.536	0.064	-0.094
-427.603	-200.000	-0.012	-0.163
-426.588	-1.356	-0.149	-0.104
-425.573	90.848	0.171	-0.189
-424.559	-200.000	0.024	-0.136
-423.544	312.364	0.060	-0.111
-422.530	222.000	0.091	0.145
-421.515	-117.655	0.136	0.024
-420.500	-57.545	0.133	0.058
-419.486	197.081	0.195	0.294
-418.471	-88.228	-0.275	-0.081
-417.457	800.000	-0.036	-0.129
-416.442	-90.278	-0.165	-0.047
-415.428	-200.000	-0.018	0.214
-414.413	131.420	-0.047	-0.060
-413.398	800.000	-0.056	-0.240
-412.384	-27.264	-0.157	0.090
-411.369	100.078	-0.096	0.110
-410.355	61.277	0.051	-0.050
-409.340	259.724	-0.103	0.175
-408.325	-120.672	0.206	0.034
-407.311	-200.000	-0.075	-0.444
-406.296	-67.160	0.183	-0.071
-405.282	12.894	0.241	-0.184
-404.267	-45.739	-0.181	0.089
-403.252	-105.611	-0.326	0.073
-402.238	-70.308	0.306	0.115
-401.223	-162.616	-0.283	0.014
-400.209	-200.000	0.005	-0.068
-399.194	130.850	0.104	-0.132
-398.179	-200.000	0.018	0.177
-397.165	706.541	-0.109	0.284
-396.150	-119.038	-0.264	-0.046
-395.136	800.000	0.056	0.154
-394.121	-200.000	-0.011	-0.075
-393.106	-156.396	0.094	-0.006
-392.092	-200.000	-0.005	0.034
-391.077	86.954	0.174	0.190
-390.063	-200.000	-0.011	-0.106
-389.048	59.079	0.220	-0.214
-388.033	800.000	0.046	-0.127
-387.019	-143.417	0.113	-0.011
-386.004	-183.361	0.076	0.001
-384.990	-98.196	-0.034	0.009
-383.975	-32.885	-0.157	-0.086
-382.960	-200.000	0.001	0.351
-381.946	44.071	-0.243	-0.220
-380.931	800.000	-0.082	0.231
-379.917	-137.024	0.138	-0.016
-378.902	114.381	-0.060	-0.072
-377.888	800.000	-0.020	0.080
-376.873	-74.078	-0.174	0.062
-375.858	547.516	-0.048	-0.114
-374.844	-165.445	0.230	0.010
-373.829	11.998	0.389	0.295
-372.815	-44.289	0.220	-0.109
-371.800	-81.428	-0.079	0.026
-370.785	139.140	0.065	0.084
-369.771	-32.822	-0.279	-0.153
-368.756	80.553	0.152	0.162
-367.742	-79.736	-0.126	0.042
-366.727	-159.904	-0.406	0.022
-365.712	-200.000	0.039	-0.227
-364.698	581.177	0.207	-0.500
-363.683	468.525	-0.028	-0.061
-362.669	-9.914	0.284	0.187
-361.654	-153.776	0.270	-0.018
-360.639	-200.000	-0.022	0.183
-359.625	-111.645	-0.216	0.043
-358.610	-148.458	0.129	-0.010
-357.596	-200.000	0.012	0.333
-356.581	770.851	-0.167	-0.450
-355.566	-30.024	0.175	0.098
-354.552	-154.530	0.285	0.019
-353.537	-200.000	0.010	-0.056
-352.523	-47.217	-0.342	0.164
-351.508	-125.441	-0.280	-0.042
-350.493	-200.000	-0.019	-0.270
-349.479	82.607	-0.076	-0.082
-348.464	-10.816	-0.220	0.144
-347.450	-83.601	-0.139	-0.044
-346.435	582.211	-0.130	-0.315
-345.420	196.046	0.117	0.176
-344.406	457.354	0.086	0.189
-343.391	-15.319	0.300	-0.189
-342.377	-200.000	0.003	-0.039
-341.362	800.000	0.076	0.221
-340.348	-184.532	0.073	0.001
-339.333	105.770	-0.178	0.207
-338.318	-145.146	-0.225	0.020
-337.304	-175.625	-0.051	-0.001
-336.289	-200.000	0.013	0.168
-335.275	635.387	-0.068	0.171
-334.260	532.471	0.087	-0.204
-333.245	-24.051	0.024	0.014
-332.231	35.115	0.231	0.200
-331.216	-68.437	0.357	0.137
-330.202	174.875	0.205	0.292
-329.187	-200.000	0.073	-0.462
-328.172	218.864	-0.188	0.296
-327.158	131.824	-0.149	0.189
-326.143	-200.000	0.004	-0.135
-325.129	800.000	-0.093	0.390
-324.114	-127.006	0.046	0.007
-323.099	-200.000	-0.032	0.148
-322.085	183.049	-0.161	-0.234
-321.070	-121.298	0.296	-0.049
-320.056	-71.012	-0.060	0.022
-319.041	-200.000	0.001	-0.066
-318.026	-160.528	-0.315	0.017
-317.012	-70.784	0.221	-0.082
-315.997	-94.104	0.246	-0.066
-314.983	-53.537	-0.288	-0.130
-313.968	-200.000	-0.156	0.001
-312.953	-200.000	0.011	0.191
-311.939	41.226	0.193	-0.172
-310.924	32.690	0.076	0.064
-309.910	-200.000	0.054	0.330
-308.895	-34.870	-0.199	0.107
-307.880	-200.000	-0.063	-0.418
-306.866	-11.116	-0.085	0.055
-305.851	-162.083	-0.237	-0.012
-304.837	-200.000	-0.057	-0.366
-303.822	299.871	-0.198	0.360
-302.807	-31.907	-0.157	0.087
-301.793	378.640	-0.156	-0.313
-300.778	800.000	0.047	0.136
-299.764	152.475	-0.145	0.195
-298.749	-6.211	-0.046	0.031
-297.735	800.000	-0.084	0.253
-296.720	424.722	-0.071	0.150
-295.705	540.098	0.096	0.224
-294.691	501.016	0.151	-0.343
-293.676	-158.368	-0.156	-0.009
-292.662	-96.854	-0.246	0.064
-291.647	-50.226	0.155	0.072
-290.632	638.725	0.159	-0.397
-289.618	56.791	0.276	0.265
-288.603	-200.000	-0.025	-0.174
-287.589	-92.927	-0.256	0.070
-286.574	-34.717	0.075	0.040
-285.559	-200.000	-0.077	-0.464
-284.545	-200.000	0.001	-0.028
-283.530	24.962	-0.278	-0.226
-282.516	92.679	0.019	-0.021
-281.501	-65.549	-0.112	0.044
-280.486	132.470	-0.034	0.044
-279.472	-200.000	-0.035	0.425
-278.457	-158.539	-0.154	0.009
-277.443	-163.824	-0.264	0.012
-276.428	-200.000	-0.053	-0.263
-275.413	-9.683	0.101	0.066
-274.399	15.424	0.333	-0.257
-273.384	-97.256	0.276	0.071
-272.370	800.000	0.053	-0.148
-271.355	-105.609	-0.249	-0.055
-270.340	-47.869	0.204	-0.097
-269.326	-190.814	-0.344	-0.004
-268.311	800.000	-0.059	0.226
-267.297	309.438	0.126	0.232
-266.282	-119.451	0.165	0.028
-265.267	-121.858	0.187	0.030
-264.253	-140.367	0.260	0.027
-263.238	-166.044	0.276	0.012
-262.224	-200.000	-0.080	0.523
-261.209	800.000	-0.058	-0.237
-260.195	395.805	-0.022	0.044
-259.180	161.105	0.041	-0.057
-258.165	-23.512	0.310	-0.183
-257.151	-150.581	-0.221	0.017
-256.136	-112.383	0.107	0.021
-255.122	-200.000	0.003	-0.060
-254.107	-113.521	0.190	0.036
-253.092	71.615	0.085	0.087
-252.078	-16.076	0.095	-0.059
-251.063	-51.610	0.088	-0.041
-250.049	95.895	-0.178	0.199
-249.034	23.356	0.223	0.180
-248.019	-10.330	-0.041	-0.027
-247.005	-72.604	-0.076	0.027
-245.990	44.246	0.346	-0.311
-244.976	27.705	-0.230	0.190
-243.961	75.259	0.039	0.041
-242.946	-200.000	-0.010	0.074
-241.932	4.152	0.145	-0.104
-240.917	-200.000	-0.003	-0.086
-239.903	-152.406	0.069	0.005
-238.888	-126.280	-0.349	0.051
-237.873	720.619	-0.019	-0.049
-236.859	-200.000	-0.039	-0.409
-235.844	199.350	0.155	0.234
-234.830	211.488	0.130	-0.201
-233.815	-200.000	0.008	-0.169
-232.800	68.457	0.278	0.280
-231.786	45.818	-0.082	0.074
-230.771	800.000	0.063	-0.229
-229.757	-70.348	0.274	0.102
-228.742	-200.000	-0.056	-0.384
-227.727	189.138	-0.086	-0.126
-226.713	2.102	-0.290	-0.205
-225.698	-115.974	-0.257	-0.047
-224.684	-117.150	0.181	-0.032
-223.669	800.000	0.018	-0.070
-222.655	302.214	0.055	-0.100
-221.640	137.938	0.138	0.178
-220.625	26.164	-0.198	-0.163
-219.611	-129.363	0.262	-0.036
-218.596	-200.000	0.067	-0.378
-217.582	-200.000	-0.016	0.242
-216.567	-143.788	0.178	-0.016
-215.552	-135.468	0.078	-0.009
-214.538	800.000	-0.023	-0.094
-213.523	-92.924	0.509	0.140
-212.509	-200.000	0.019	0.093
-211.494	743.094	0.044	-0.115
-210.479	-200.000	0.026	0.272
-209.465	-17.027	0.321	0.199
-208.450	46.263	0.195	0.178
-207.436	-161.829	0.059	0.003
-206.421	-200.000	0.013	0.130
-205.406	-200.000	0.020	0.241
-204.392	209.770	0.108	0.166
-203.377	-46.169	0.162	0.078
-202.363	14.009	-0.133	0.102
-201.348	-25.204	-0.084	0.049
-200.333	117.132	0.246	-0.296
-199.319	101.426	0.054	0.061
-198.304	30.082	-0.171	0.143
-197.290	76.259	-0.169	-0.176
-196.275	18.281	-0.142	-0.111
-195.260	-132.491	-0.146	-0.018
-194.246	800.000	-0.034	-0.097
-193.231	453.410	0.119	0.259
-192.217	43.391	0.296	0.265
-191.202	-200.000	-0.187	-0.001
-190.187	-62.740	0.313	-0.127
-189.173	-40.630	0.173	-0.088
-188.158	-32.051	0.127	0.070
-187.144	50.346	-0.064	0.059
-186.129	800.000	0.031	-0.111
-185.114	-65.033	0.045	0.018
-184.100	-200.000	-0.135	0.585
-183.085	-61.618	0.297	0.122
-182.071	90.391	-0.085	-0.093
-181.056	-158.758	0.407	0.023
-180.042	-125.299	-0.274	-0.041
-179.027	9.773	-0.179	0.133
-178.012	-200.000	0.004	0.231
-176.998	17.069	0.173	-0.134
-175.983	447.012	-0.053	-0.114
-174.969	-25.156	0.204	0.119
-173.954	369.909	0.165	0.327
-172.939	465.559	0.144	0.315
-171.925	-106.011	-0.075	0.016
-170.910	147.583	0.119	0.157
-169.896	-9.877	0.159	-0.104
-168.881	-200.000	0.054	-0.355
-167.866	56.053	0.050	-0.048
-166.852	153.171	0.064	0.086
-165.837	800.000	-0.014	-0.061
-164.823	127.314	-0.018	-0.022
-163.808	-200.000	-0.016	0.132
-162.793	507.819	-0.056	0.128
-161.779	-8.073	0.047	-0.031
-160.764	647.700	-0.092	-0.230
-159.750	-65.245	-0.263	0.104
-158.735	45.837	-0.159	-0.144
-157.720	308.117	-0.184	0.336
-156.706	43.515	-0.169	0.151
-155.691	800.000	-0.089	0.271
-154.677	190.128	0.035	0.051
-153.662	-126.857	0.333	0.048
-152.647	-119.298	-0.086	0.015
-151.633	91.907	0.078	-0.086
-150.618	-77.499	0.165	-0.056
-149.604	327.078	-0.100	0.188
-148.589	5.801	0.229	-0.166
-147.574	-200.000	0.013	0.275
-146.560	-35.601	0.229	0.122
-145.545	-200.000	0.013	0.069
-144.531	-200.000	-0.045	-0.290
-143.516	79.301	-0.124	0.130
-142.502	-159.736	0.189	0.010
-141.487	800.000	0.050	0.203
-140.472	117.776	0.150	-0.181
-139.458	31.533	0.257	-0.216
-138.443	357.594	-0.142	0.277
-137.429	800.000	-0.050	0.156
-136.414	158.999	0.094	0.128
-135.399	-60.148	0.182	-0.076
-134.385	396.408	-0.077	-0.157
-133.370	-175.238	0.204	-0.006
-132.356	96.600	-0.284	0.318
-131.341	800.000	-0.035	-0.122
-130.326	170.053	-0.123	-0.172
-129.312	54.521	0.172	-0.162
-128.297	432.340	0.079	0.168
-127.283	800.000	0.099	-0.377
-126.268	-14.182	0.018	-0.011
-125.253	-15.948	-0.149	-0.093
-124.239	-141.771	0.138	-0.014
-123.224	800.000	0.055	-0.198
-122.210	-109.998	-0.281	-0.058
-121.195	800.000	-0.021	-0.059
