DTS Sentinel unit serial number:	SN413079Multiplexer serial number:	ORYXHardware model number:	OX4-SRSoftware version number:	ORYX F/W v4.00 Oryx Data Collector v3.7.2.0data status	okinstallation	princeton_trtdifferential loss correction	single-endedforward channel	channel 3reverse channel	N/Adate	2019/09/15time	18:44:35forward acquisition time	60.00reverse acquisition time	0.00gamma	496.2192k internal	0.2287k external	0.2287temperature offset calibration	0.9926default loss term (dB/km)	0.3790temperature slope calibration	1.0000multiplexer offset coefficient	1.0000multiplexer slope coefficient	1.0000fibre end	0.00T internal ref (°C)	43.47T ext. ref 1 (°C)	6.87T ext. ref 2 (°C)	35.74length (m)	temperature (°C)	Stokes	anti-Stokes-747.200	305.056	-0.068	0.129
-746.185	-24.728	-0.249	0.152
-745.171	51.883	-0.172	0.168
-744.156	165.766	0.074	-0.107
-743.142	17.775	0.104	0.085
-742.127	72.366	-0.159	0.170
-741.112	32.370	-0.328	-0.290
-740.098	-200.000	-0.024	0.141
-739.083	16.011	0.211	0.171
-738.069	-200.000	0.025	0.178
-737.054	-128.262	0.311	0.045
-736.039	35.075	-0.246	0.221
-735.025	-59.536	0.238	0.105
-734.010	25.822	-0.107	-0.092
-732.996	-101.794	0.220	-0.055
-731.981	-107.164	-0.128	0.029
-730.966	447.447	0.127	-0.286
-729.952	-99.572	0.052	-0.013
-728.937	-96.167	-0.342	-0.093
-727.923	574.293	-0.049	0.124
-726.908	19.109	0.150	0.123
-725.894	800.000	0.057	0.212
-724.879	800.000	-0.047	-0.175
-723.864	800.000	-0.058	-0.180
-722.850	-13.884	0.018	-0.012
-721.835	-52.829	0.174	0.082
-720.821	5.692	-0.222	0.168
-719.806	800.000	0.057	0.220
-718.791	61.302	-0.078	0.079
-717.777	618.973	0.062	0.161
-716.762	102.481	0.158	-0.190
-715.748	-200.000	0.008	-0.106
-714.733	800.000	0.070	-0.247
-713.718	-102.726	0.059	-0.014
-712.704	800.000	-0.074	0.259
-711.689	800.000	-0.066	-0.286
-710.675	-64.988	-0.206	-0.085
-709.660	800.000	0.075	0.219
-708.645	189.988	0.117	0.180
-707.631	-180.658	-0.201	-0.004
-706.616	168.775	0.129	-0.188
-705.602	0.265	0.110	-0.080
-704.587	4.176	0.215	0.161
-703.572	-69.309	0.312	-0.123
-702.558	-143.260	-0.090	-0.009
-701.543	12.522	-0.112	-0.089
-700.529	-200.000	-0.010	-0.290
-699.514	-60.056	0.081	-0.035
-698.499	-77.628	-0.164	-0.058
-697.485	-72.136	-0.108	0.041
-696.470	-108.634	-0.321	-0.071
-695.456	379.656	0.159	-0.334
-694.441	-118.723	-0.076	0.014
-693.426	-164.962	-0.251	-0.011
-692.412	-200.000	0.037	-0.325
-691.397	688.633	0.103	-0.275
-690.383	-18.532	0.180	-0.115
-689.368	281.931	0.091	0.168
-688.354	-105.893	0.114	0.026
-687.339	97.529	0.214	-0.252
-686.324	-85.046	-0.473	-0.152
-685.310	-44.754	0.284	0.145
-684.295	-13.115	0.082	0.055
-683.281	-19.448	-0.237	0.150
-682.266	-129.901	-0.063	0.009
-681.251	174.792	-0.162	-0.241
-680.237	265.663	-0.016	-0.028
-679.222	-11.387	0.264	0.178
-678.208	-46.266	0.103	0.052
-677.193	-200.000	0.034	-0.161
-676.178	-115.715	-0.240	0.046
-675.164	-62.575	0.111	0.047
-674.149	800.000	-0.137	0.456
-673.135	-174.016	0.200	0.006
-672.120	236.364	0.237	-0.400
-671.105	245.326	0.045	0.077
-670.091	347.757	-0.022	-0.044
-669.076	-93.341	-0.148	-0.042
-668.062	161.962	0.150	0.214
-667.047	-200.000	-0.049	-0.316
-666.032	-59.579	0.199	0.088
-665.018	237.656	-0.074	-0.126
-664.003	308.444	-0.060	-0.114
-662.989	-73.239	0.257	-0.096
-661.974	-200.000	0.052	-0.238
-660.959	70.833	-0.065	-0.069
-659.945	-200.000	-0.000	-0.481
-658.930	37.210	0.116	-0.105
-657.916	800.000	0.063	0.184
-656.901	-18.718	0.182	-0.116
-655.886	-74.147	-0.021	0.008
-654.872	-134.955	-0.061	-0.007
-653.857	3.207	0.228	0.169
-652.843	-40.822	-0.141	0.075
-651.828	242.597	-0.122	0.209
-650.814	58.736	0.045	0.045
-649.799	-38.812	-0.133	-0.072
-648.784	11.272	0.148	-0.116
-647.770	-200.000	-0.015	-0.099
-646.755	203.013	-0.051	-0.081
-645.741	-200.000	0.002	-0.034
-644.726	-200.000	-0.001	0.241
-643.711	-116.354	0.440	0.083
-642.697	-77.885	0.118	-0.042
-641.682	-200.000	0.003	-0.039
-640.668	53.510	0.124	0.121
-639.653	-55.021	-0.285	-0.131
-638.638	343.202	-0.021	0.042
-637.624	-101.443	-0.102	0.025
-636.609	86.993	0.191	0.215
-635.595	0.984	-0.274	0.201
-634.580	-67.502	-0.128	0.051
-633.565	-200.000	0.027	0.119
-632.551	61.961	-0.240	0.244
-631.536	-121.332	0.127	0.022
-630.522	-103.464	-0.148	-0.036
-629.507	800.000	0.074	-0.233
-628.492	-104.081	-0.277	-0.066
-627.478	24.828	-0.159	-0.135
-626.463	-91.172	0.379	0.111
-625.449	-200.000	-0.003	0.080
-624.434	483.402	-0.123	-0.286
-623.419	-86.572	-0.167	-0.052
-622.405	-200.000	0.005	0.234
-621.390	800.000	-0.060	0.186
-620.376	75.513	0.174	0.188
-619.361	-121.711	0.190	-0.032
-618.346	430.088	0.086	0.190
-617.332	800.000	-0.034	-0.130
-616.317	800.000	-0.041	0.155
-615.303	800.000	-0.078	-0.313
-614.288	-200.000	-0.007	0.082
-613.273	78.239	-0.263	0.287
-612.259	-126.540	0.235	0.036
-611.244	-36.460	-0.093	0.051
-610.230	-124.023	-0.059	-0.009
-609.215	-7.359	-0.137	0.094
-608.201	38.286	-0.130	-0.118
-607.186	-121.481	0.335	-0.057
-606.171	-200.000	0.014	0.224
-605.157	-114.510	-0.094	-0.018
-604.142	-103.641	-0.287	-0.069
-603.128	800.000	0.049	0.194
-602.113	120.724	0.104	-0.132
-601.098	-200.000	-0.071	0.353
-600.084	-200.000	0.010	0.200
-599.069	-200.000	-0.001	-0.004
-598.055	-44.034	0.196	-0.100
-597.040	109.863	0.112	0.137
-596.025	310.600	-0.013	-0.025
-595.011	-200.000	-0.078	0.593
-593.996	-126.727	-0.323	-0.049
-592.982	-26.383	-0.183	-0.110
-591.967	-200.000	-0.035	-0.183
-590.952	800.000	-0.132	-0.423
-589.938	-200.000	-0.007	0.180
-588.923	151.398	-0.157	0.218
-587.909	-71.891	-0.164	-0.062
-586.894	-82.693	-0.436	-0.144
-585.879	-127.154	0.343	0.051
-584.865	663.046	-0.116	0.304
-583.850	-200.000	0.012	-0.087
-582.836	131.613	0.133	-0.175
-581.821	-102.191	-0.187	-0.046
-580.806	259.215	-0.213	0.375
-579.792	-200.000	-0.010	-0.127
-578.777	5.578	0.125	0.094
-577.763	-89.906	-0.111	-0.033
-576.748	17.387	0.188	0.152
-575.733	800.000	0.055	-0.166
-574.719	196.687	0.053	-0.082
-573.704	76.190	0.215	-0.232
-572.690	-200.000	0.054	0.331
-571.675	-200.000	-0.040	0.194
-570.661	85.496	0.078	-0.087
-569.646	-99.768	-0.262	-0.067
-568.631	-30.476	0.076	0.044
-567.617	-200.000	-0.029	-0.543
-566.602	-169.963	-0.048	-0.002
-565.588	73.831	0.051	-0.054
-564.573	25.228	0.144	-0.122
-563.558	800.000	0.056	-0.162
-562.544	177.268	-0.137	0.202
-561.529	-77.598	0.153	-0.054
-560.515	166.828	0.023	0.033
-559.500	-45.614	0.183	0.092
-558.485	31.326	0.169	0.148
-557.471	84.169	-0.155	0.173
-556.456	-178.900	-0.300	-0.007
-555.442	-200.000	0.014	-0.341
-554.427	-124.023	0.159	0.025
-553.412	71.400	0.194	0.205
-552.398	-200.000	-0.004	-0.121
-551.383	-133.358	-0.108	0.014
-550.369	38.284	0.066	-0.060
-549.354	-169.288	0.239	-0.009
-548.339	-120.439	-0.083	-0.014
-547.325	-180.902	-0.263	0.005
-546.310	-57.111	0.085	-0.038
-545.296	255.506	0.047	-0.082
-544.281	89.089	-0.025	0.029
-543.266	151.666	0.105	0.146
-542.252	-200.000	-0.033	-0.227
-541.237	-200.000	-0.028	0.160
-540.223	221.500	-0.182	-0.297
-539.208	-92.452	0.054	0.015
-538.193	36.616	0.185	0.166
-537.179	229.507	-0.153	-0.254
-536.164	153.552	-0.200	-0.279
-535.150	800.000	-0.074	0.211
-534.135	-101.876	-0.293	-0.072
-533.121	167.993	-0.131	0.189
-532.106	-24.692	0.033	-0.020
-531.091	-134.189	-0.073	0.009
-530.077	-95.698	0.229	0.062
-529.062	-110.986	-0.529	0.111
-528.048	315.256	0.111	-0.213
-527.033	800.000	0.107	0.345
-526.018	-149.664	-0.260	-0.021
-525.004	-126.376	-0.152	-0.023
-523.989	-200.000	0.022	0.263
-522.975	158.467	0.167	-0.236
-521.960	240.729	0.114	-0.194
-520.945	-4.574	0.182	0.128
-519.931	-155.510	-0.099	-0.006
-518.916	-200.000	0.028	0.182
-517.902	142.895	-0.104	0.140
-516.887	-124.569	-0.180	-0.028
-515.872	-27.171	-0.112	0.066
-514.858	-154.584	-0.198	-0.013
-513.843	-24.762	-0.068	0.041
-512.829	-15.103	0.180	0.117
-511.814	620.256	0.096	0.246
-510.799	-200.000	0.025	0.345
-509.785	163.418	-0.151	0.216
-508.770	-164.132	-0.084	-0.004
-507.756	-62.491	0.424	-0.179
-506.741	20.228	-0.326	-0.267
-505.726	74.524	-0.104	-0.111
-504.712	-42.668	-0.088	-0.045
-503.697	19.984	0.221	-0.181
-502.683	-200.000	-0.006	0.385
-501.668	-200.000	-0.001	0.015
-500.653	-176.924	-0.257	-0.007
-499.639	47.102	0.065	0.061
-498.624	31.227	-0.036	-0.032
-497.610	-200.000	0.008	0.059
-496.595	384.238	-0.135	-0.283
-495.581	188.133	0.197	-0.298
-494.566	21.721	0.189	0.156
-493.551	-97.757	0.257	0.068
-492.537	-200.000	-0.001	0.168
-491.522	-200.000	-0.094	-0.436
-490.508	192.051	0.071	-0.109
-489.493	172.347	0.127	0.186
-488.478	384.567	-0.076	0.158
-487.464	-117.772	0.131	-0.024
-486.449	48.212	-0.217	0.206
-485.435	63.495	0.229	0.233
-484.420	-121.348	0.091	-0.015
-483.405	140.876	-0.163	-0.219
-482.391	324.869	-0.116	0.225
-481.376	-200.000	0.009	0.233
-480.362	-92.854	-0.128	-0.036
-479.347	-122.124	0.126	-0.021
-478.332	-140.505	0.394	-0.042
-477.318	81.438	0.156	-0.171
-476.303	800.000	-0.010	0.029
-475.289	110.491	-0.159	-0.194
-474.274	-200.000	-0.034	-0.181
-473.259	172.736	-0.275	0.401
-472.245	75.068	0.225	0.240
-471.230	-179.301	0.183	-0.004
-470.216	-200.000	-0.070	-0.313
-469.201	-200.000	-0.013	-0.367
-468.186	-108.515	-0.336	0.073
-467.172	800.000	0.034	-0.152
-466.157	-79.313	-0.333	-0.115
-465.143	81.145	-0.130	0.142
-464.128	-112.817	0.193	0.039
-463.113	254.478	0.127	-0.220
-462.099	-200.000	-0.050	-0.383
-461.084	-200.000	-0.028	-0.151
-460.070	16.171	0.103	-0.082
-459.055	-101.993	-0.144	0.035
-458.040	-200.000	0.038	0.283
-457.026	-200.000	-0.015	-0.270
-456.011	-200.000	0.064	0.311
-454.997	-71.751	0.044	-0.017
-453.982	110.784	0.085	0.104
-452.968	175.175	-0.197	0.290
-451.953	-200.000	-0.011	0.237
-450.938	800.000	0.038	-0.134
-449.924	198.280	0.142	-0.220
-448.909	318.555	0.096	0.184
-447.895	-200.000	0.040	-0.211
-446.880	-27.400	0.311	-0.184
-445.865	-200.000	0.025	0.233
-444.851	-11.852	0.225	0.150
-443.836	-200.000	-0.020	-0.208
-442.822	478.585	-0.135	0.311
-441.807	-200.000	-0.036	0.261
-440.792	-65.499	-0.142	-0.058
-439.778	-200.000	-0.027	-0.320
-438.763	-200.000	0.013	-0.080
-437.749	-57.818	0.489	0.217
-436.734	384.738	-0.099	0.206
-435.719	-147.288	-0.152	0.013
-434.705	601.700	0.083	0.209
-433.690	-71.344	0.091	0.034
-432.676	507.455	-0.064	0.150
-431.661	75.576	-0.099	-0.106
-430.646	-97.941	0.138	-0.036
-429.632	513.633	-0.013	-0.030
-428.617	-128.606	0.132	0.019
-427.603	79.139	-0.212	-0.230
-426.588	-31.601	-0.168	0.095
-425.573	-93.248	-0.240	0.068
-424.559	-129.329	-0.121	0.017
-423.544	15.326	-0.266	0.211
-422.530	156.296	-0.320	0.447
-421.515	528.852	-0.024	0.057
-420.500	-60.442	-0.190	-0.082
-419.486	-200.000	-0.018	-0.194
-418.471	800.000	0.029	0.092
-417.457	549.168	-0.114	-0.277
-416.442	348.147	0.090	0.180
-415.428	-74.925	0.249	-0.090
-414.413	800.000	-0.020	-0.067
-413.398	-184.268	-0.235	-0.004
-412.384	602.251	-0.052	-0.132
-411.369	-133.013	-0.230	0.030
-410.355	-72.523	-0.330	0.123
-409.340	-20.114	0.138	0.086
-408.325	778.424	0.123	-0.340
-407.311	-25.852	-0.069	0.041
-406.296	239.521	-0.078	-0.131
-405.282	611.867	0.177	-0.448
-404.267	-93.125	-0.215	-0.061
-403.252	30.636	-0.075	-0.065
-402.238	-26.865	0.038	0.023
-401.223	-165.286	-0.301	0.013
-400.209	-104.708	-0.182	0.042
-399.194	-136.855	0.090	0.010
-398.179	242.176	-0.117	-0.197
-397.165	-86.831	0.077	0.024
-396.150	-162.505	0.242	-0.012
-395.136	10.028	0.014	-0.011
-394.121	800.000	-0.083	-0.273
-393.106	-5.294	0.200	-0.139
-392.092	800.000	0.066	0.191
-391.077	130.608	-0.059	-0.076
-390.063	800.000	-0.033	0.141
-389.048	-65.584	-0.056	-0.023
-388.033	-66.373	-0.165	-0.066
-387.019	120.735	0.108	-0.136
-386.004	11.053	0.375	0.290
-384.990	98.950	-0.082	-0.096
-383.975	-96.978	0.258	-0.068
-382.960	380.859	-0.101	-0.210
-381.946	180.717	0.071	-0.106
-380.931	5.493	-0.153	-0.115
-379.917	77.390	0.316	-0.340
-378.902	329.433	0.086	0.167
-377.888	-22.818	0.125	-0.076
-376.873	49.231	0.188	0.179
-375.858	-200.000	0.047	0.316
-374.844	84.491	-0.110	0.122
-373.829	78.249	0.141	-0.152
-372.815	-73.301	0.194	-0.072
-371.800	-167.536	-0.054	-0.002
-370.785	90.906	-0.100	0.113
-369.771	132.729	-0.210	0.274
-368.756	166.516	0.035	0.050
-367.742	800.000	-0.022	0.085
-366.727	-76.060	0.080	0.028
-365.712	-200.000	0.038	-0.188
-364.698	-89.449	0.128	-0.038
-363.683	-58.966	0.230	0.100
-362.669	-200.000	0.006	-0.185
-361.654	-200.000	0.000	-0.023
-360.639	-185.705	-0.034	0.001
-359.625	2.863	0.095	0.070
-358.610	-129.757	-0.091	-0.013
-357.596	6.672	-0.260	-0.195
-356.581	-11.544	0.120	0.080
-355.566	229.495	-0.144	0.238
-354.552	-146.214	-0.126	0.011
-353.537	800.000	0.053	-0.167
-352.523	229.001	0.049	-0.081
-351.508	731.027	-0.035	0.093
-350.493	-114.226	0.245	0.048
-349.479	95.894	0.282	0.326
-348.464	-200.000	-0.013	-0.091
-347.450	46.044	-0.294	-0.275
-346.435	66.569	0.128	-0.131
-345.420	-63.165	-0.042	0.017
-344.406	-200.000	-0.048	0.379
-343.391	800.000	0.112	-0.314
-342.377	800.000	0.061	0.184
-341.362	-64.941	-0.246	0.100
-340.348	62.583	-0.079	0.080
-339.333	-8.376	-0.123	-0.083
-338.318	23.635	-0.123	0.102
-337.304	489.835	-0.067	-0.155
-336.289	800.000	-0.109	-0.370
-335.275	38.378	0.056	0.050
-334.260	800.000	-0.088	0.282
-333.245	800.000	0.022	-0.067
-332.231	-27.458	0.145	0.085
-331.216	524.773	-0.183	0.434
-330.202	292.975	0.084	-0.154
-329.187	-105.026	-0.129	-0.030
-328.172	-200.000	-0.018	0.303
-327.158	759.212	0.039	-0.106
-326.143	-79.081	0.229	-0.079
-325.129	241.480	0.272	-0.458
-324.114	21.224	0.177	-0.145
-323.099	577.855	0.102	0.253
-322.085	222.633	0.217	-0.353
-321.070	175.008	0.171	-0.250
-320.056	800.000	-0.047	0.187
-319.041	-98.860	0.112	-0.029
-318.026	-82.691	0.072	-0.023
-317.012	208.578	-0.072	0.114
-315.997	-98.393	0.146	0.038
-314.983	-176.087	0.420	0.011
-313.968	800.000	-0.110	-0.321
-312.953	-14.539	-0.092	-0.059
-311.939	16.840	0.327	-0.261
-310.924	-58.384	0.033	0.015
-309.910	-113.068	0.062	-0.012
-308.895	-200.000	-0.020	0.120
-307.880	-200.000	-0.422	-0.002
-306.866	-4.262	0.232	0.162
-305.851	-14.602	0.091	0.059
-304.837	-109.653	-0.042	-0.009
-303.822	279.102	-0.037	0.066
-302.807	-36.419	-0.076	0.041
-301.793	212.777	-0.072	0.114
-300.778	-25.600	0.206	0.123
-299.764	159.459	-0.053	0.074
-298.749	271.361	0.125	-0.221
-297.735	-200.000	-0.010	0.061
-296.720	-200.000	-0.012	0.096
-295.705	313.646	0.073	-0.138
-294.691	323.534	-0.135	-0.260
-293.676	507.034	-0.064	-0.149
-292.662	302.080	0.244	-0.455
-291.647	-200.000	-0.000	0.089
-290.632	123.399	0.148	0.186
-289.618	123.119	-0.192	0.242
-288.603	-200.000	-0.017	0.090
-287.589	-200.000	-0.097	-0.445
-286.574	-18.934	0.112	0.070
-285.559	-87.447	-0.255	0.078
-284.545	-200.000	-0.000	-0.211
-283.530	-200.000	0.066	-0.362
-282.516	-37.876	-0.164	-0.088
-281.501	232.393	0.174	-0.288
-280.486	-200.000	-0.048	-0.252
-279.472	-131.047	-0.092	0.012
-278.457	-195.015	-0.225	-0.002
-277.443	227.052	0.145	0.238
-276.428	-64.543	0.265	-0.108
-275.413	126.482	-0.092	0.118
-274.399	434.281	-0.166	0.362
-273.384	800.000	-0.016	-0.068
-272.370	40.293	0.318	-0.288
-271.355	25.504	0.149	0.124
-270.340	-95.304	0.355	-0.096
-269.326	-70.905	0.168	0.064
-268.311	357.199	-0.076	0.152
-267.297	-82.729	0.096	-0.031
-266.282	-72.369	0.346	-0.129
-265.267	261.570	-0.231	0.404
-264.253	96.315	-0.089	0.102
-263.238	62.065	-0.073	0.074
-262.224	-40.016	-0.151	-0.079
-261.209	800.000	-0.099	0.304
-260.195	-152.339	0.267	-0.019
-259.180	-133.266	-0.143	0.018
-258.165	-200.000	0.060	-0.273
-257.151	143.544	-0.061	-0.082
-256.136	3.337	0.264	-0.193
-255.122	800.000	-0.058	-0.206
-254.107	-200.000	-0.414	-0.002
-253.092	-102.698	0.188	-0.045
-252.078	51.365	0.186	0.178
-251.063	-139.197	0.131	0.014
-250.049	-200.000	0.011	0.261
-249.034	253.155	-0.087	0.150
-248.019	47.337	0.353	-0.331
-247.005	-68.314	0.141	0.055
-245.990	-200.000	0.038	0.198
-244.976	-79.698	0.309	0.105
-243.961	211.624	-0.045	0.071
-242.946	225.995	-0.045	0.074
-241.932	311.498	-0.121	0.228
-240.917	-200.000	0.004	-0.173
-239.903	800.000	-0.102	-0.342
-238.888	-102.837	0.186	-0.045
-237.873	-65.056	-0.175	-0.071
-236.859	-139.870	0.176	-0.019
-235.844	-12.632	-0.130	0.085
-234.830	-118.429	-0.267	0.048
-233.815	44.898	0.022	0.020
-232.800	66.315	-0.082	-0.084
-231.786	64.749	0.170	-0.172
-230.771	-69.163	0.159	0.062
-229.757	-94.836	0.248	-0.068
-228.742	-19.649	0.262	-0.163
-227.727	9.590	-0.117	0.089
-226.713	-140.176	0.226	-0.024
-225.698	-48.854	-0.190	0.091
-224.684	-176.540	0.198	0.005
-223.669	693.269	-0.025	-0.065
-222.655	800.000	-0.052	-0.152
-221.640	-115.027	-0.453	-0.086
-220.625	292.095	0.112	0.205
-219.611	-200.000	0.033	-0.186
-218.596	-35.159	0.429	0.235
-217.582	459.985	0.074	-0.165
-216.567	548.321	0.126	-0.304
-215.552	-200.000	0.001	0.235
-214.538	326.834	0.085	-0.165
-213.523	-108.277	-0.129	0.028
-212.509	45.367	-0.217	-0.202
-211.494	-24.666	0.262	0.156
-210.479	-15.634	-0.323	-0.207
-209.465	97.093	0.211	-0.243
-208.450	393.574	-0.163	-0.342
-207.436	500.558	-0.025	0.057
-206.421	50.494	0.268	-0.255
-205.406	129.986	-0.267	0.343
-204.392	29.198	-0.064	-0.054
-203.377	470.224	0.088	-0.199
-202.363	462.896	0.037	-0.082
-201.348	800.000	-0.056	0.175
-200.333	231.254	0.125	0.206
-199.319	-48.013	0.254	0.123
-198.304	361.730	0.032	-0.064
-197.290	51.828	0.249	-0.238
-196.275	59.084	-0.076	-0.075
-195.260	800.000	0.093	0.306
-194.246	-49.414	0.036	0.017
-193.231	231.080	0.130	0.213
-192.217	605.615	0.070	0.175
-191.202	514.404	0.033	-0.078
-190.187	-117.623	0.283	0.051
-189.173	-97.956	-0.169	0.044
-188.158	255.331	-0.116	-0.199
-187.144	-200.000	-0.039	-0.198
-186.129	-82.372	0.201	0.065
-185.114	18.777	-0.100	-0.081
-184.100	-19.411	0.109	0.068
-183.085	-55.483	-0.392	-0.176
-182.071	-31.117	0.435	0.246
-181.056	-60.275	-0.056	-0.024
-180.042	384.657	-0.068	0.141
-179.027	155.888	-0.121	0.167
-178.012	800.000	-0.027	-0.075
-176.998	-77.965	-0.254	-0.088
-175.983	-50.768	-0.190	0.089
-174.969	-48.869	0.053	0.026
-173.954	800.000	-0.036	0.123
-172.939	800.000	-0.037	-0.109
-171.925	-109.225	-0.423	-0.090
-170.910	-200.000	0.005	0.408
-169.896	-82.355	-0.324	-0.106
-168.881	-200.000	0.133	-0.000
-167.866	-103.038	-0.078	-0.018
-166.852	264.829	0.116	0.202
-165.837	800.000	-0.037	0.130
-164.823	237.820	-0.073	-0.122
-163.808	-107.588	0.298	0.065
-162.793	75.155	-0.181	0.192
-161.779	-200.000	0.055	-0.284
-160.764	-23.758	-0.300	0.180
-159.750	-58.929	-0.338	0.147
-158.735	177.748	-0.176	-0.257
-157.720	236.841	-0.053	-0.088
-156.706	-69.316	-0.157	0.061
-155.691	-66.853	-0.286	0.114
-154.677	-32.092	0.028	-0.016
-153.662	-59.119	0.183	0.079
-152.647	232.581	0.146	-0.240
-151.633	270.757	0.058	0.102
-150.618	-200.000	0.024	-0.150
-149.604	-200.000	0.039	0.320
-148.589	-165.711	0.196	0.009
-147.574	-183.974	0.357	-0.006
-146.560	-200.000	-0.047	0.334
-145.545	68.447	-0.251	0.258
-144.531	288.394	-0.186	0.338
-143.516	-200.000	-0.011	-0.228
-142.502	-200.000	0.000	-0.040
-141.487	39.816	-0.162	-0.146
-140.472	-200.000	-0.025	-0.252
-139.458	431.510	0.117	-0.255
-138.443	-79.431	-0.266	0.090
-137.429	-200.000	-0.029	0.155
-136.414	291.138	0.028	0.050
-135.399	-88.837	0.128	-0.038
-134.385	-200.000	0.024	0.430
-133.370	15.152	-0.312	-0.245
-132.356	35.476	-0.127	-0.112
-131.341	-103.061	0.164	-0.039
-130.326	-35.181	0.337	-0.184
-129.312	-200.000	-0.072	-0.393
-128.297	-43.982	0.212	0.107
-127.283	-76.097	0.251	-0.089
-126.268	-46.409	-0.182	-0.090
-125.253	-36.804	0.108	-0.058
-124.239	-200.000	0.137	-0.000
-123.224	161.440	-0.050	-0.070
-122.210	393.803	-0.067	-0.140
