DTS Sentinel unit serial number:	SN413079Multiplexer serial number:	ORYXHardware model number:	OX4-SRSoftware version number:	ORYX F/W v4.00 Oryx Data Collector v3.7.2.0data status	okinstallation	princeton_trtdifferential loss correction	single-endedforward channel	channel 3reverse channel	N/Adate	2019/09/13time	22:16:35forward acquisition time	60.00reverse acquisition time	0.00gamma	496.2192k internal	0.2335k external	0.2335temperature offset calibration	1.0064default loss term (dB/km)	0.3790temperature slope calibration	1.0000multiplexer offset coefficient	1.0000multiplexer slope coefficient	1.0000fibre end	0.00T internal ref (°C)	27.87T ext. ref 1 (°C)	3.25T ext. ref 2 (°C)	22.58length (m)	temperature (°C)	Stokes	anti-Stokes-747.200	-200.000	-0.016	-0.213
-746.185	378.090	0.067	0.138
-745.171	-10.868	0.200	0.133
-744.156	800.000	-0.099	0.376
-743.142	70.774	-0.224	0.233
-742.127	-124.205	0.202	0.032
-741.112	-71.619	0.215	0.081
-740.098	800.000	-0.025	0.085
-739.083	316.176	0.127	-0.241
-738.069	-51.144	-0.242	-0.114
-737.054	189.463	-0.252	0.380
-736.039	-123.167	-0.182	-0.029
-735.025	-94.450	0.313	-0.086
-734.010	-88.910	-0.159	-0.047
-732.996	-200.000	-0.004	0.063
-731.981	169.160	0.081	0.116
-730.966	-200.000	-0.148	-0.001
-729.952	102.638	-0.184	-0.216
-728.937	-133.360	-0.140	-0.018
-727.923	166.082	0.070	0.100
-726.908	-1.889	-0.170	-0.120
-725.894	-102.250	-0.460	-0.111
-724.879	45.888	0.258	0.239
-723.864	-83.475	0.102	0.033
-722.850	-93.602	-0.230	-0.064
-721.835	-146.690	0.210	0.018
-720.821	-26.609	-0.365	0.214
-719.806	173.805	-0.056	-0.081
-718.791	-200.000	-0.005	-0.125
-717.777	594.145	-0.159	0.395
-716.762	-200.000	0.011	-0.051
-715.748	-200.000	0.030	-0.223
-714.733	800.000	-0.173	-0.491
-713.718	325.676	-0.038	-0.073
-712.704	78.675	0.148	-0.159
-711.689	70.649	-0.156	-0.162
-710.675	184.781	-0.028	-0.042
-709.660	-200.000	0.038	-0.285
-708.645	-13.585	-0.208	-0.135
-707.631	-51.748	-0.264	-0.123
-706.616	153.739	-0.184	-0.253
-705.602	800.000	0.088	-0.334
-704.587	-200.000	-0.006	0.185
-703.572	800.000	-0.107	0.305
-702.558	-141.476	0.118	0.012
-701.543	-131.617	-0.245	-0.032
-700.529	-200.000	-0.075	-0.456
-699.514	575.546	0.040	-0.099
-698.499	186.575	0.164	-0.244
-697.485	-134.512	0.092	0.011
-696.470	118.270	-0.080	0.099
-695.456	-7.497	0.274	-0.186
-694.441	-48.184	-0.223	0.108
-693.426	58.819	-0.156	0.154
-692.412	576.411	0.044	-0.107
-691.397	15.261	0.042	0.033
-690.383	444.109	-0.072	-0.159
-689.368	-115.595	-0.173	0.033
-688.354	-200.000	0.013	-0.268
-687.339	387.081	-0.053	-0.109
-686.324	-200.000	-0.028	0.326
-685.310	-129.482	-0.258	-0.036
-684.295	210.943	0.182	0.287
-683.281	-116.093	-0.273	-0.051
-682.266	-151.084	0.231	0.017
-681.251	-200.000	-0.008	-0.099
-680.237	-92.520	0.179	0.050
-679.222	800.000	-0.036	0.148
-678.208	90.106	0.234	0.263
-677.193	-37.352	0.129	-0.069
-676.178	593.401	0.077	-0.191
-675.164	-60.037	0.287	-0.123
-674.149	36.014	0.039	-0.035
-673.135	-105.458	-0.024	0.006
-672.120	134.686	-0.230	-0.299
-671.105	15.715	-0.246	0.194
-670.091	800.000	0.020	-0.059
-669.076	128.660	-0.116	0.148
-668.062	-65.629	-0.303	-0.122
-667.047	-200.000	0.010	0.141
-666.032	-54.721	-0.097	0.044
-665.018	-200.000	-0.004	0.095
-664.003	220.850	-0.050	0.081
-662.989	301.350	0.059	-0.109
-661.974	-200.000	0.052	-0.305
-660.959	91.607	0.083	0.093
-659.945	137.792	0.089	0.117
-658.930	800.000	0.053	0.203
-657.916	-81.322	0.177	-0.058
-656.901	-38.828	0.222	-0.117
-655.886	-68.293	0.211	-0.082
-654.872	-76.871	-0.417	0.146
-653.857	-56.256	0.052	-0.023
-652.843	-105.908	0.305	0.069
-651.828	-200.000	-0.011	0.090
-650.814	800.000	-0.041	-0.146
-649.799	-200.000	0.249	0.001
-648.784	301.603	0.093	0.172
-647.770	722.025	0.070	-0.188
-646.755	-200.000	0.029	-0.395
-645.741	129.046	-0.192	-0.245
-644.726	-5.685	-0.121	-0.083
-643.711	118.082	0.110	0.136
-642.697	308.500	-0.035	-0.064
-641.682	-200.000	-0.011	-0.155
-640.668	266.792	0.235	0.411
-639.653	547.567	0.067	-0.160
-638.638	-200.000	-0.034	0.186
-637.624	438.073	-0.099	0.216
-636.609	-200.000	0.030	0.171
-635.595	-144.723	-0.162	-0.015
-634.580	-54.749	0.103	0.046
-633.565	-187.506	-0.272	-0.004
-632.551	-78.173	-0.227	-0.078
-631.536	255.184	0.114	-0.196
-630.522	-200.000	-0.089	0.434
-629.507	85.925	-0.040	0.044
-628.492	79.773	-0.192	-0.207
-627.478	-200.000	0.058	-0.324
-626.463	252.464	0.207	-0.353
-625.449	-3.260	-0.277	-0.193
-624.434	-200.000	-0.024	-0.247
-623.419	-116.448	-0.069	0.013
-622.405	33.488	0.306	-0.266
-621.390	633.821	-0.166	-0.422
-620.376	448.680	-0.117	-0.258
-619.361	-16.293	0.239	0.151
-618.346	41.620	0.152	0.138
-617.332	154.105	-0.170	-0.232
-616.317	-131.754	-0.373	-0.049
-615.303	-50.358	0.242	0.114
-614.288	-200.000	-0.052	-0.325
-613.273	-101.594	0.358	0.087
-612.259	-200.000	-0.000	-0.060
-611.244	251.690	-0.112	-0.191
-610.230	-161.504	-0.230	-0.012
-609.215	210.764	-0.129	0.203
-608.201	-73.457	-0.112	-0.041
-607.186	-200.000	0.000	-0.205
-606.171	596.214	-0.122	0.303
-605.157	-157.058	0.120	-0.007
-604.142	-200.000	0.019	0.154
-603.128	-143.261	-0.398	-0.038
-602.113	-118.509	0.148	-0.026
-601.098	-185.186	0.090	-0.001
-600.084	-200.000	0.022	-0.113
-599.069	-200.000	-0.000	-0.096
-598.055	800.000	-0.012	0.048
-597.040	24.359	-0.188	0.155
-596.025	800.000	0.040	-0.171
-595.011	-117.055	-0.449	-0.082
-593.996	5.300	-0.213	0.157
-592.982	37.613	-0.187	-0.166
-591.967	800.000	0.112	-0.466
-590.952	-12.244	0.158	-0.103
-589.938	800.000	-0.052	-0.203
-588.923	156.300	0.155	0.214
-587.909	-200.000	-0.006	-0.140
-586.894	-72.250	-0.263	0.097
-585.879	98.624	0.255	0.293
-584.865	19.008	-0.212	-0.170
-583.850	-55.505	0.130	-0.058
-582.836	-111.017	-0.484	-0.099
-581.821	-124.737	-0.285	0.044
-580.806	10.141	0.243	-0.184
-579.792	-118.114	-0.189	0.034
-578.777	-100.745	-0.121	-0.030
-577.763	25.632	0.227	-0.188
-576.748	800.000	0.052	-0.163
-575.733	-168.175	-0.233	-0.009
-574.719	-55.155	0.248	-0.111
-573.704	-42.573	0.029	-0.014
-572.690	-168.772	-0.203	-0.008
-571.675	12.797	-0.115	0.089
-570.661	97.457	-0.169	0.194
-569.646	-70.668	0.307	-0.116
-568.631	302.597	0.202	0.373
-567.617	-76.731	-0.422	0.148
-566.602	133.449	-0.156	-0.201
-565.588	-65.266	0.139	-0.056
-564.573	-57.788	-0.129	-0.056
-563.558	800.000	-0.037	-0.155
-562.544	-128.345	-0.310	0.044
-561.529	148.258	-0.385	-0.518
-560.515	-200.000	-0.030	-0.475
-559.500	-127.985	0.115	-0.016
-558.485	800.000	0.098	0.291
-557.471	-15.030	-0.140	-0.090
-556.456	-18.965	-0.135	-0.084
-555.442	578.574	0.073	0.177
-554.427	294.770	-0.120	0.219
-553.412	85.881	0.134	-0.147
-552.398	-112.434	-0.403	-0.080
-551.383	-31.461	0.328	0.184
-550.369	-200.000	-0.016	-0.080
-549.354	258.375	0.047	-0.080
-548.339	-92.040	0.156	0.044
-547.325	-18.717	-0.147	-0.091
-546.310	503.089	0.117	0.270
-545.296	534.032	0.115	-0.271
-544.281	800.000	0.038	0.141
-543.266	-188.835	0.199	0.002
-542.252	-61.486	-0.186	-0.078
-541.237	98.865	0.063	0.073
-540.223	-119.093	-0.355	-0.062
-539.208	99.480	0.229	-0.264
-538.193	488.407	-0.054	-0.124
-537.179	695.594	0.200	-0.523
-536.164	395.366	0.043	-0.090
-535.150	614.566	-0.082	0.204
-534.135	320.665	0.118	0.223
-533.121	-51.709	-0.233	0.108
-532.106	486.143	-0.029	0.065
-531.091	303.537	-0.104	-0.192
-530.077	-200.000	-0.033	-0.208
-529.062	95.750	-0.170	-0.193
-528.048	800.000	0.015	-0.052
-527.033	51.361	0.158	-0.149
-526.018	-33.018	-0.253	0.140
-525.004	-21.252	-0.173	-0.105
-523.989	-86.601	0.192	0.059
-522.975	800.000	-0.048	-0.173
-521.960	-200.000	-0.000	0.093
-520.945	39.091	0.320	0.285
-519.931	-127.551	-0.108	-0.016
-518.916	-200.000	0.003	0.087
-517.902	-124.309	0.311	-0.048
-516.887	81.853	-0.289	0.312
-515.872	-200.000	0.001	-0.166
-514.858	-178.959	-0.091	-0.002
-513.843	800.000	0.121	0.466
-512.829	-114.714	0.153	0.029
-511.814	126.440	-0.152	-0.191
-510.799	-95.923	0.057	-0.015
-509.785	96.312	-0.191	0.217
-508.770	-60.149	0.326	0.138
-507.756	91.485	0.104	-0.116
-506.741	54.665	-0.190	0.182
-505.726	-16.112	-0.315	-0.199
-504.712	800.000	0.097	-0.274
-503.697	-93.532	-0.374	0.103
-502.683	800.000	-0.041	-0.120
-501.668	214.051	-0.123	0.193
-500.653	-200.000	0.051	0.268
-499.639	164.655	-0.118	0.166
-498.624	-200.000	-0.003	0.371
-497.610	-67.467	-0.144	0.056
-496.595	-109.884	-0.222	-0.046
-495.581	-106.586	0.204	0.045
-494.566	196.551	0.238	0.360
-493.551	800.000	-0.050	-0.217
-492.537	28.206	-0.174	0.146
-491.522	41.074	-0.169	0.152
-490.508	-200.000	0.047	-0.217
-489.493	-200.000	-0.008	-0.192
-488.478	2.904	-0.342	0.247
-487.464	-116.592	0.266	-0.049
-486.449	-23.781	-0.162	-0.097
-485.435	-129.165	-0.161	0.022
-484.420	-73.723	0.217	0.079
-483.405	160.493	0.165	0.229
-482.391	-200.000	-0.037	-0.383
-481.376	-140.636	0.289	0.030
-480.362	26.865	0.156	-0.130
-479.347	60.366	0.187	-0.184
-478.332	-45.413	0.103	-0.051
-477.318	21.111	-0.015	-0.012
-476.303	-75.845	0.186	-0.065
-475.289	-26.789	-0.079	-0.046
-474.274	71.571	-0.236	0.243
-473.259	-10.682	0.229	-0.150
-472.245	-117.893	-0.148	0.026
-471.230	-29.607	0.123	-0.070
-470.216	-5.556	0.253	0.173
-469.201	-138.280	-0.096	-0.011
-468.186	-113.980	-0.071	0.014
-467.172	-123.938	0.082	0.013
-466.157	-200.000	-0.034	-0.162
-465.143	80.114	0.129	-0.138
-464.128	-55.746	-0.237	-0.105
-463.113	747.927	0.055	0.148
-462.099	33.034	-0.142	0.123
-461.084	17.483	-0.166	0.131
-460.070	62.685	-0.121	0.120
-459.055	321.775	-0.097	-0.184
-458.040	-200.000	-0.004	-0.233
-457.026	-200.000	0.115	0.000
-456.011	1.619	-0.177	0.126
-454.997	125.416	-0.082	0.103
-453.982	-131.230	-0.065	-0.009
-452.968	44.870	0.099	0.090
-451.953	-98.043	0.177	0.045
-450.938	123.806	0.107	0.133
-449.924	98.161	0.099	-0.113
-448.909	-200.000	0.027	-0.363
-447.895	373.244	0.067	0.136
-446.880	-93.637	-0.160	-0.044
-445.865	-200.000	-0.018	-0.150
-444.851	800.000	0.076	0.272
-443.836	-200.000	0.004	0.153
-442.822	25.890	0.147	-0.122
-441.807	-200.000	-0.017	-0.145
-440.792	-173.764	-0.238	-0.007
-439.778	-200.000	-0.019	0.363
-438.763	-18.427	0.158	0.098
-437.749	-200.000	-0.007	0.069
-436.734	129.064	0.169	-0.214
-435.719	125.072	0.074	0.092
-434.705	-72.580	0.163	0.060
-433.690	82.764	0.159	0.171
-432.676	-200.000	-0.011	0.100
-431.661	390.456	0.149	0.306
-430.646	-200.000	0.033	-0.280
-429.632	-75.517	0.133	-0.047
-428.617	-1.406	0.197	-0.138
-427.603	800.000	-0.076	0.249
-426.588	238.770	-0.114	0.188
-425.573	800.000	0.004	-0.017
-424.559	-127.738	0.027	-0.004
-423.544	9.154	0.073	-0.054
-422.530	152.486	-0.149	-0.202
-421.515	80.296	0.229	-0.245
-420.500	-200.000	-0.029	-0.179
-419.486	-200.000	0.025	0.124
-418.471	800.000	0.123	0.379
-417.457	800.000	-0.027	-0.103
-416.442	445.766	-0.104	0.226
-415.428	-170.312	-0.309	-0.011
-414.413	41.291	0.277	0.249
-413.398	127.197	0.104	-0.130
-412.384	-200.000	0.043	-0.301
-411.369	-50.062	0.334	0.157
-410.355	-200.000	-0.013	-0.087
-409.340	-58.737	-0.100	0.043
-408.325	154.564	0.175	-0.239
-407.311	800.000	-0.047	0.130
-406.296	-200.000	-0.002	0.083
-405.282	496.281	0.088	-0.201
-404.267	-120.428	0.394	-0.066
-403.252	-104.129	-0.324	-0.075
-402.238	72.014	0.037	0.038
-401.223	-119.569	0.276	0.047
-400.209	262.699	-0.179	-0.308
-399.194	-45.593	-0.246	0.120
-398.179	783.809	-0.096	0.261
-397.165	800.000	0.087	0.261
-396.150	-50.944	0.163	-0.076
-395.136	27.485	-0.336	-0.280
-394.121	785.026	-0.099	0.269
-393.106	45.776	0.089	-0.082
-392.092	-17.009	-0.247	-0.154
-391.077	-93.575	-0.129	-0.035
-390.063	800.000	0.010	0.034
-389.048	207.061	0.073	-0.112
-388.033	-175.590	0.207	0.006
-387.019	18.743	-0.110	-0.087
-386.004	357.053	-0.112	0.222
-384.990	13.833	-0.189	-0.146
-383.975	800.000	0.088	0.260
-382.960	-94.871	0.171	-0.046
-381.946	-200.000	0.038	-0.278
-380.931	-200.000	-0.024	-0.125
-379.917	-182.985	-0.139	0.002
-378.902	-144.923	0.184	0.017
-377.888	-200.000	0.029	0.142
-376.873	-107.938	-0.291	0.063
-375.858	800.000	-0.020	-0.071
-374.844	-200.000	0.049	-0.264
-373.829	65.742	-0.059	0.059
-372.815	607.398	0.053	0.130
-371.800	-111.204	0.169	-0.034
-370.785	-121.745	-0.183	-0.030
-369.771	-49.959	-0.117	0.055
-368.756	188.668	0.068	-0.101
-367.742	-200.000	0.001	0.077
-366.727	-200.000	-0.085	-0.421
-365.712	112.499	-0.014	-0.016
-364.698	3.494	0.172	-0.124
-363.683	-146.503	0.443	-0.038
-362.669	800.000	0.046	-0.154
-361.654	-29.756	-0.116	-0.065
-360.639	575.331	0.049	-0.117
-359.625	-20.374	-0.217	0.132
-358.610	-102.502	0.332	0.079
-357.596	309.913	-0.105	-0.194
-356.581	-30.181	-0.127	0.071
-355.566	-147.613	-0.077	-0.006
-354.552	800.000	0.040	-0.137
-353.537	-140.307	-0.123	-0.013
-352.523	-132.238	0.331	-0.042
-351.508	-23.031	-0.336	0.200
-350.493	800.000	-0.030	0.096
-349.479	116.360	-0.024	-0.029
-348.464	719.116	0.012	0.032
-347.450	-200.000	0.020	-0.219
-346.435	-88.811	-0.245	0.072
-345.420	90.921	0.340	0.377
-344.406	-200.000	0.018	-0.090
-343.391	-200.000	-0.007	0.189
-342.377	620.591	-0.057	0.142
-341.362	0.170	-0.059	0.042
-340.348	-80.673	0.196	0.065
-339.333	-19.601	0.116	-0.071
-338.318	176.373	0.204	-0.293
-337.304	800.000	0.055	0.188
-336.289	171.563	-0.106	0.151
-335.275	800.000	-0.035	0.106
-334.260	800.000	0.195	0.674
-333.245	-86.531	-0.166	0.050
-332.231	403.825	-0.109	-0.226
-331.216	155.149	0.269	-0.366
-330.202	372.208	0.083	-0.166
-329.187	-200.000	0.002	0.150
-328.172	-119.192	-0.287	-0.049
-327.158	-200.000	0.004	0.071
-326.143	-88.886	0.290	-0.085
-325.129	20.516	0.099	-0.079
-324.114	128.097	0.080	-0.101
-323.099	0.585	-0.062	0.044
-322.085	-36.748	0.090	0.048
-321.070	234.638	-0.043	0.070
-320.056	107.074	-0.369	0.433
-319.041	-37.392	0.296	-0.156
-318.026	-37.199	-0.327	-0.173
-317.012	472.052	-0.099	-0.221
-315.997	-56.464	0.152	0.067
-314.983	-194.064	-0.190	-0.002
-313.968	25.125	0.086	0.071
-312.953	-200.000	0.031	-0.158
-311.939	-200.000	0.047	0.255
-310.924	7.065	0.042	-0.031
-309.910	-120.933	-0.143	0.024
-308.895	109.343	0.098	0.116
-307.880	492.463	-0.092	0.208
-306.866	207.077	0.093	-0.143
-305.851	800.000	-0.077	0.267
-304.837	-6.445	0.220	-0.148
-303.822	800.000	0.112	-0.421
-302.807	218.708	0.102	0.161
-301.793	210.425	0.178	0.275
-300.778	-200.000	-0.027	0.299
-299.764	36.957	-0.134	0.117
-298.749	-200.000	-0.027	0.215
-297.735	333.736	-0.150	-0.287
-296.720	-62.076	-0.161	-0.067
-295.705	-200.000	0.003	0.261
-294.691	-45.473	-0.151	0.074
-293.676	800.000	0.036	-0.118
-292.662	800.000	-0.105	0.372
-291.647	-55.425	0.252	-0.112
-290.632	-200.000	-0.020	0.229
-289.618	-74.298	0.225	-0.080
-288.603	191.255	0.164	-0.243
-287.589	-64.236	-0.317	-0.128
-286.574	-115.949	0.231	0.042
-285.559	-20.739	-0.223	-0.135
-284.545	43.050	0.204	0.183
-283.530	-200.000	0.018	0.158
-282.516	175.588	0.115	0.164
-281.501	-92.033	-0.179	-0.050
-280.486	800.000	0.096	-0.350
-279.472	70.778	0.084	0.086
-278.457	-200.000	0.038	-0.183
-277.443	295.813	0.157	-0.284
-276.428	-45.661	-0.069	0.033
-275.413	-200.000	-0.044	0.241
-274.399	375.577	-0.041	0.082
-273.384	800.000	-0.025	0.099
-272.370	-108.801	-0.189	-0.040
-271.355	-21.458	-0.080	-0.048
-270.340	79.578	0.246	0.261
-269.326	-71.471	-0.289	0.107
-268.311	-38.345	0.273	-0.142
-267.297	-79.935	-0.258	0.085
-266.282	800.000	-0.086	0.335
-265.267	-109.972	0.346	0.071
-264.253	800.000	0.191	-0.573
-263.238	-0.568	-0.046	0.032
-262.224	46.225	0.319	-0.291
-261.209	-87.985	0.315	0.093
-260.195	314.564	0.081	0.150
-259.180	-165.723	0.142	-0.006
-258.165	-137.648	0.120	-0.013
-257.151	-200.000	-0.056	0.254
-256.136	191.208	0.179	-0.266
-255.122	121.011	0.047	0.058
-254.107	753.417	0.023	-0.061
-253.092	-67.636	-0.276	-0.107
-252.078	-200.000	0.032	-0.161
-251.063	-164.302	0.417	0.019
-250.049	80.197	-0.389	0.412
-249.034	-200.000	0.033	0.239
-248.019	153.263	0.137	0.185
-247.005	800.000	0.111	0.334
-245.990	-78.659	-0.142	0.048
-244.976	110.716	0.179	0.212
-243.961	44.112	-0.052	-0.047
-242.946	-157.454	0.160	-0.009
-241.932	-26.490	0.180	0.104
-240.917	53.487	0.300	0.284
-239.903	-200.000	0.020	0.095
-238.888	-63.202	-0.246	0.100
-237.873	298.326	-0.115	-0.207
-236.859	-200.000	-0.012	-0.064
-235.844	97.378	0.114	0.129
-234.830	23.602	-0.018	0.015
-233.815	174.150	0.059	0.084
-232.800	-114.685	-0.296	0.056
-231.786	-76.040	-0.183	-0.064
-230.771	-44.903	-0.112	0.055
-229.757	-140.933	-0.162	-0.016
-228.742	-68.271	-0.241	-0.092
-227.727	-165.453	0.057	-0.002
-226.713	-9.304	0.098	0.064
-225.698	-121.990	0.275	0.045
-224.684	-200.000	0.009	-0.076
-223.669	214.098	0.124	0.194
-222.655	600.316	0.050	-0.122
-221.640	6.614	-0.224	0.164
-220.625	126.899	-0.036	0.045
-219.611	79.046	0.016	-0.017
-218.596	-200.000	-0.029	-0.211
-217.582	163.593	0.103	0.143
-216.567	-188.744	-0.237	0.003
-215.552	-132.867	0.215	-0.027
-214.538	166.476	0.243	-0.339
-213.523	800.000	-0.049	0.202
-212.509	194.743	-0.017	-0.026
-211.494	315.731	0.117	-0.216
-210.479	-200.000	0.029	-0.255
-209.465	-200.000	-0.014	-0.193
-208.450	-67.625	0.072	0.028
-207.436	655.350	-0.086	-0.217
-206.421	-83.964	-0.231	-0.072
-205.406	-169.415	0.269	-0.010
-204.392	-143.968	0.166	0.015
-203.377	193.828	-0.237	-0.353
-202.363	800.000	0.012	-0.050
-201.348	220.492	-0.178	-0.281
-200.333	111.476	-0.061	-0.072
-199.319	88.392	0.098	-0.107
-198.304	-200.000	-0.006	-0.053
-197.290	-200.000	-0.007	-0.262
-196.275	-156.830	-0.051	-0.003
-195.260	365.427	0.015	0.030
-194.246	-12.034	-0.227	0.146
-193.231	-43.494	-0.253	0.126
-192.217	-2.234	0.257	-0.177
-191.202	101.957	-0.173	0.199
-190.187	800.000	-0.023	-0.077
-189.173	-151.487	0.544	0.040
-188.158	-12.938	-0.150	0.096
-187.144	177.267	-0.126	0.180
-186.129	47.747	-0.091	0.083
-185.114	800.000	-0.049	0.170
-184.100	21.101	-0.205	0.163
-183.085	763.909	0.007	-0.019
-182.071	37.996	0.372	0.325
-181.056	-200.000	-0.042	0.287
-180.042	21.667	0.284	0.227
-179.027	-200.000	-0.062	0.354
-178.012	-96.482	-0.224	0.058
-176.998	-74.993	0.098	-0.034
-175.983	-200.000	-0.016	-0.080
-174.969	-200.000	0.019	-0.286
-173.954	-72.303	-0.244	-0.089
-172.939	-106.199	-0.241	0.053
-171.925	744.003	0.079	0.208
-170.910	107.065	-0.260	0.304
-169.896	-60.990	0.130	0.054
-168.881	-57.504	-0.153	-0.066
-167.866	294.591	-0.123	-0.221
-166.852	261.356	-0.121	0.206
-165.837	32.090	-0.197	0.167
-164.823	79.283	0.180	0.189
-163.808	800.000	0.065	-0.243
-162.793	-91.202	-0.035	-0.010
-161.779	800.000	0.073	0.265
-160.764	-200.000	-0.002	0.014
-159.750	-51.625	0.210	-0.096
-158.735	-200.000	-0.032	-0.153
-157.720	-126.281	0.210	0.031
-156.706	-176.224	0.337	0.009
-155.691	-200.000	0.007	0.507
-154.677	46.272	0.207	0.189
-153.662	-75.162	0.182	0.064
-152.647	-152.374	0.228	0.016
-151.633	800.000	-0.071	-0.269
-150.618	-128.771	-0.385	0.053
-149.604	192.674	0.147	-0.217
-148.589	-200.000	-0.009	0.266
-147.574	281.283	-0.163	-0.286
-146.560	-62.075	-0.180	-0.074
-145.545	81.945	0.151	0.160
-144.531	-200.000	0.022	0.133
-143.516	353.843	0.056	0.108
-142.502	-183.140	-0.226	-0.004
-141.487	-50.246	-0.246	-0.114
-140.472	-77.148	0.033	-0.011
-139.458	-82.011	0.147	-0.047
-138.443	-97.340	0.175	0.045
-137.429	42.827	0.176	0.157
-136.414	-117.546	-0.341	-0.060
-135.399	800.000	0.053	0.204
-134.385	-11.269	-0.294	-0.190
-133.370	44.289	-0.087	0.078
-132.356	-31.167	0.216	0.120
-131.341	-78.962	0.226	-0.076
-130.326	-200.000	-0.000	0.039
-129.312	800.000	-0.019	-0.075
-128.297	-69.622	0.282	-0.106
-127.283	40.242	0.177	-0.156
-126.268	-25.958	-0.042	-0.024
-125.253	221.519	-0.134	-0.211
-124.239	800.000	-0.078	-0.258
-123.224	434.984	0.042	0.091
-122.210	32.861	0.403	0.342
