DTS Sentinel unit serial number:	SN413079Multiplexer serial number:	ORYXHardware model number:	OX4-SRSoftware version number:	ORYX F/W v4.00 Oryx Data Collector v3.7.2.0data status	okinstallation	princeton_trtdifferential loss correction	single-endedforward channel	channel 3reverse channel	N/Adate	2019/09/16time	10:36:35forward acquisition time	60.00reverse acquisition time	0.00gamma	496.2192k internal	0.2304k external	0.2304temperature offset calibration	0.9944default loss term (dB/km)	0.3790temperature slope calibration	1.0000multiplexer offset coefficient	1.0000multiplexer slope coefficient	1.0000fibre end	0.00T internal ref (°C)	35.64T ext. ref 1 (°C)	12.61T ext. ref 2 (°C)	33.58length (m)	temperature (°C)	Stokes	anti-Stokes-747.200	-200.000	0.002	0.201
-746.185	-103.758	0.347	-0.083
-745.171	-200.000	0.023	-0.197
-744.156	309.787	0.134	0.255
-743.142	-200.000	-0.044	-0.240
-742.127	285.882	0.208	0.382
-741.112	672.864	0.042	0.110
-740.098	-200.000	-0.097	0.511
-739.083	260.003	-0.122	0.215
-738.069	-200.000	-0.041	0.355
-737.054	95.341	0.188	-0.219
-736.039	-27.130	-0.133	0.079
-735.025	-133.260	0.304	-0.039
-734.010	-178.170	-0.201	-0.005
-732.996	2.293	0.064	-0.047
-731.981	49.246	-0.289	-0.277
-730.966	463.438	0.128	-0.290
-729.952	-75.947	0.070	-0.025
-728.937	247.923	-0.082	-0.141
-727.923	-79.830	-0.268	0.092
-726.908	-200.000	0.022	0.213
-725.894	258.909	0.052	-0.090
-724.879	73.593	-0.186	-0.198
-723.864	-55.460	-0.069	0.031
-722.850	-108.291	-0.230	-0.051
-721.835	99.489	0.236	0.278
-720.821	-200.000	-0.003	-0.133
-719.806	-130.783	-0.341	-0.047
-718.791	24.113	-0.339	-0.285
-717.777	38.150	0.327	-0.296
-716.762	53.255	0.148	-0.145
-715.748	247.285	0.125	-0.214
-714.733	595.520	0.113	0.283
-713.718	-138.853	-0.392	0.043
-712.704	73.944	-0.152	-0.162
-711.689	75.548	0.057	0.061
-710.675	-94.933	-0.094	0.026
-709.660	-44.697	0.103	0.052
-708.645	-43.854	0.164	0.084
-707.631	160.907	-0.053	0.075
-706.616	-103.869	-0.173	-0.041
-705.602	-200.000	0.058	-0.393
-704.587	-200.000	0.050	-0.293
-703.572	582.157	-0.048	0.120
-702.558	-16.753	-0.123	0.079
-701.543	-41.264	-0.262	-0.138
-700.529	197.896	-0.160	0.248
-699.514	80.458	0.063	-0.069
-698.499	-200.000	0.009	-0.365
-697.485	-64.496	-0.110	-0.046
-696.470	-145.647	-0.345	-0.031
-695.456	-200.000	0.028	-0.136
-694.441	-33.403	-0.252	-0.142
-693.426	248.996	-0.079	-0.135
-692.412	381.640	0.192	0.401
-691.397	-35.903	-0.069	-0.038
-690.383	49.722	0.068	0.065
-689.368	395.596	-0.067	0.142
-688.354	-134.190	-0.160	0.020
-687.339	-55.987	0.318	-0.144
-686.324	800.000	-0.094	0.293
-685.310	-200.000	0.011	-0.079
-684.295	176.793	0.099	0.146
-683.281	-166.572	-0.240	0.010
-682.266	86.679	-0.112	-0.126
-681.251	-65.075	-0.102	-0.042
-680.237	40.494	-0.257	0.235
-679.222	-87.327	0.049	-0.015
-678.208	43.701	0.049	-0.046
-677.193	16.004	0.109	-0.087
-676.178	800.000	-0.089	0.320
-675.164	-80.123	-0.120	0.041
-674.149	-6.425	0.257	0.178
-673.135	-87.525	-0.136	0.042
-672.120	378.024	-0.053	0.111
-671.105	-61.018	0.076	-0.032
-670.091	71.167	-0.218	0.229
-669.076	89.136	0.168	-0.190
-668.062	-82.619	0.468	-0.154
-667.047	-200.000	0.004	-0.217
-666.032	229.291	0.147	0.243
-665.018	-75.558	0.422	0.152
-664.003	11.073	-0.251	-0.195
-662.989	800.000	-0.067	-0.298
-661.974	-34.315	-0.126	0.070
-660.959	344.223	0.085	-0.169
-659.945	-110.517	-0.456	0.096
-658.930	386.099	-0.088	-0.184
-657.916	52.752	0.116	0.113
-656.901	257.317	0.085	-0.148
-655.886	561.795	0.192	-0.472
-654.872	55.355	-0.276	-0.271
-653.857	80.061	-0.242	-0.264
-652.843	38.489	0.071	0.064
-651.828	-200.000	0.038	0.350
-650.814	350.522	-0.055	0.109
-649.799	75.531	0.062	-0.066
-648.784	67.676	0.289	-0.299
-647.770	146.099	-0.124	-0.169
-646.755	800.000	-0.027	0.102
-645.741	129.296	-0.119	-0.154
-644.726	-200.000	-0.012	-0.161
-643.711	-133.271	0.224	0.029
-642.697	-200.000	-0.007	0.095
-641.682	-200.000	0.013	0.077
-640.668	30.986	0.061	-0.053
-639.653	-42.064	0.309	0.160
-638.638	-47.667	-0.284	-0.140
-637.624	174.998	-0.194	-0.285
-636.609	-200.000	0.016	0.292
-635.595	708.547	-0.038	-0.103
-634.580	642.828	0.077	-0.200
-633.565	300.374	-0.089	-0.166
-632.551	-28.448	0.275	-0.161
-631.536	-200.000	0.035	0.183
-630.522	-200.000	0.003	-0.095
-629.507	-200.000	0.001	-0.142
-628.492	225.262	0.113	-0.186
-627.478	-38.682	-0.266	0.143
-626.463	43.026	-0.324	0.300
-625.449	184.871	-0.169	0.254
-624.434	278.391	-0.122	0.221
-623.419	139.726	0.134	0.179
-622.405	-111.918	0.164	0.034
-621.390	211.228	0.062	0.098
-620.376	-131.692	-0.197	-0.026
-619.361	141.248	-0.143	0.192
-618.346	-113.886	0.220	-0.043
-617.332	-173.969	-0.276	-0.008
-616.317	-200.000	-0.006	0.117
-615.303	-200.000	0.035	-0.211
-614.288	800.000	0.027	-0.088
-613.273	-119.762	-0.157	-0.027
-612.259	-200.000	-0.063	-0.331
-611.244	321.011	-0.043	0.083
-610.230	-76.616	-0.165	-0.059
-609.215	-96.340	-0.419	-0.112
-608.201	764.675	0.082	0.226
-607.186	31.328	-0.110	-0.096
-606.171	-43.804	-0.130	0.066
-605.157	-152.042	-0.449	0.033
-604.142	-105.503	-0.184	0.042
-603.128	214.259	0.092	-0.148
-602.113	-200.000	-0.029	0.211
-601.098	-45.248	0.052	-0.026
-600.084	-140.814	0.139	0.014
-599.069	-82.683	0.049	0.016
-598.055	-57.275	-0.092	0.041
-597.040	-91.901	0.226	0.065
-596.025	-88.524	-0.486	0.147
-595.011	-146.519	-0.134	-0.012
-593.996	17.533	0.038	-0.030
-592.982	78.809	0.140	0.152
-591.967	-65.874	0.134	-0.054
-590.952	-200.000	0.020	-0.288
-589.938	-200.000	-0.039	-0.333
-588.923	-35.486	-0.209	-0.115
-587.909	-49.341	-0.221	0.107
-586.894	-15.632	-0.234	0.151
-585.879	21.661	-0.244	-0.201
-584.865	-6.915	-0.147	-0.101
-583.850	-88.606	0.018	-0.006
-582.836	800.000	0.101	0.357
-581.821	-138.279	-0.084	0.009
-580.806	-41.363	-0.389	-0.203
-579.792	141.825	-0.085	-0.114
-578.777	38.821	0.207	-0.187
-577.763	-141.498	-0.324	0.033
-576.748	800.000	0.076	-0.324
-575.733	318.817	0.250	-0.480
-574.719	261.485	-0.127	-0.222
-573.704	172.315	-0.089	-0.129
-572.690	66.047	0.184	-0.189
-571.675	800.000	0.063	-0.220
-570.661	-127.197	-0.374	-0.055
-569.646	-138.198	-0.216	0.024
-568.631	-200.000	-0.008	-0.212
-567.617	-120.845	0.097	0.017
-566.602	-155.414	0.153	0.010
-565.588	466.597	-0.206	0.466
-564.573	800.000	-0.037	0.144
-563.558	1.245	-0.072	-0.052
-562.544	800.000	0.084	0.270
-561.529	-149.360	0.161	-0.013
-560.515	292.927	0.280	-0.517
-559.500	19.274	-0.088	-0.072
-558.485	-200.000	-0.004	-0.024
-557.471	581.863	0.063	0.156
-556.456	-36.790	0.240	0.130
-555.442	800.000	-0.096	0.361
-554.427	123.791	-0.174	-0.221
-553.412	370.830	0.068	-0.140
-552.398	800.000	0.086	-0.248
-551.383	-6.385	-0.220	0.151
-550.369	26.496	-0.142	0.120
-549.354	-60.878	0.090	0.039
-548.339	148.175	-0.215	-0.293
-547.325	-200.000	0.031	0.241
-546.310	-200.000	-0.024	-0.122
-545.296	307.876	-0.040	-0.075
-544.281	-193.047	-0.468	0.004
-543.266	129.700	-0.135	-0.175
-542.252	-200.000	-0.023	-0.102
-541.237	301.967	0.072	-0.135
-540.223	-200.000	-0.012	0.287
-539.208	509.579	0.027	0.063
-538.193	-169.215	-0.236	-0.009
-537.179	242.848	0.127	-0.215
-536.164	-23.121	0.093	0.056
-535.150	118.616	0.121	0.151
-534.135	604.928	0.066	-0.165
-533.121	800.000	0.046	0.199
-532.106	-112.941	0.105	0.021
-531.091	7.966	0.186	-0.141
-530.077	187.485	-0.288	-0.434
-529.062	-79.311	0.108	-0.037
-528.048	800.000	0.091	0.302
-527.033	-163.695	-0.270	-0.013
-526.018	10.834	0.086	-0.066
-525.004	-200.000	0.038	0.239
-523.989	-29.206	0.204	-0.118
-522.975	-132.555	0.027	0.003
-521.960	68.854	0.286	0.296
-520.945	800.000	-0.074	-0.236
-519.931	-200.000	0.009	-0.151
-518.916	-60.838	-0.209	-0.089
-517.902	-19.360	-0.224	0.140
-516.887	-170.038	-0.163	0.006
-515.872	-200.000	0.024	-0.160
-514.858	258.766	-0.080	0.138
-513.843	-77.531	-0.136	0.048
-512.829	-68.085	-0.275	0.108
-511.814	21.223	-0.234	0.191
-510.799	-169.698	0.169	0.006
-509.785	96.394	0.286	-0.330
-508.770	320.251	0.039	-0.075
-507.756	800.000	-0.060	0.170
-506.741	-39.875	-0.078	-0.041
-505.726	26.897	-0.242	-0.204
-504.712	73.011	0.233	-0.246
-503.697	800.000	0.120	-0.335
-502.683	20.522	-0.058	-0.047
-501.668	-29.403	0.081	0.047
-500.653	-122.059	-0.218	0.036
-499.639	-200.000	0.061	-0.391
-498.624	-62.308	0.187	-0.078
-497.610	-39.498	0.318	0.168
-496.595	-200.000	-0.021	0.097
-495.581	-200.000	0.007	-0.087
-494.566	-126.889	0.246	-0.037
-493.551	-200.000	-0.025	-0.170
-492.537	-33.529	-0.182	-0.102
-491.522	-36.244	-0.040	0.022
-490.508	-145.703	0.068	0.006
-489.493	483.895	0.105	-0.240
-488.478	350.724	0.105	0.209
-487.464	-200.000	0.003	-0.217
-486.449	30.928	-0.120	-0.104
-485.435	208.289	-0.051	0.080
-484.420	-24.643	0.123	0.074
-483.405	-200.000	0.004	-0.255
-482.391	-28.507	0.230	-0.134
-481.376	6.842	0.079	0.060
-480.362	100.180	-0.028	-0.033
-479.347	62.785	-0.101	0.102
-478.332	3.667	-0.131	-0.096
-477.318	112.622	0.168	-0.204
-476.303	-200.000	-0.017	-0.299
-475.289	800.000	-0.043	-0.161
-474.274	-125.151	0.216	-0.033
-473.259	-9.085	-0.384	0.259
-472.245	-68.858	0.050	-0.019
-471.230	109.834	-0.163	-0.197
-470.216	110.315	0.179	0.216
-469.201	121.654	0.088	0.110
-468.186	-110.916	0.153	0.032
-467.172	-3.654	0.024	-0.017
-466.157	-36.854	-0.193	-0.104
-465.143	-200.000	-0.001	0.323
-464.128	-200.000	0.069	0.450
-463.113	-200.000	-0.017	-0.246
-462.099	-78.552	-0.105	-0.036
-461.084	207.759	0.099	-0.156
-460.070	800.000	0.054	-0.213
-459.055	167.454	-0.073	-0.104
-458.040	-15.861	0.125	-0.080
-457.026	-200.000	0.008	0.171
-456.011	-18.419	0.280	0.176
-454.997	800.000	-0.053	-0.185
-453.982	-200.000	-0.034	-0.208
-452.968	400.715	0.098	0.208
-451.953	-89.361	0.238	0.071
-450.938	87.699	0.261	0.291
-449.924	73.894	-0.266	-0.281
-448.909	-141.522	-0.317	0.032
-447.895	447.269	-0.132	0.293
-446.880	-82.668	-0.256	0.083
-445.865	10.495	-0.219	0.168
-444.851	-197.896	0.184	-0.001
-443.836	-22.897	-0.171	0.104
-442.822	-200.000	0.004	0.099
-441.807	-94.756	0.286	-0.078
-440.792	3.180	0.184	-0.135
-439.778	273.823	-0.060	0.106
-438.763	-119.686	-0.194	0.034
-437.749	51.954	0.194	0.186
-436.734	61.944	-0.137	-0.138
-435.719	124.083	-0.140	0.177
-434.705	-47.078	0.163	-0.080
-433.690	-85.588	-0.114	-0.036
-432.676	505.302	0.112	0.260
-431.661	-200.000	0.003	-0.312
-430.646	222.477	-0.144	-0.233
-429.632	-81.619	-0.186	-0.061
-428.617	238.407	-0.156	-0.261
-427.603	-200.000	-0.017	0.280
-426.588	-69.068	-0.192	-0.074
-425.573	-200.000	0.002	0.074
-424.559	-125.549	0.457	0.070
-423.544	-200.000	0.001	-0.310
-422.530	800.000	-0.027	-0.098
-421.515	800.000	0.110	0.429
-420.500	-32.453	0.113	-0.063
-419.486	12.858	-0.092	0.071
-418.471	-90.862	0.311	-0.090
-417.457	-200.000	0.007	0.203
-416.442	800.000	0.092	0.263
-415.428	-200.000	-0.003	0.336
-414.413	193.511	-0.160	0.243
-413.398	-55.800	0.041	-0.019
-412.384	320.871	-0.174	-0.333
-411.369	74.606	-0.218	0.230
-410.355	-28.766	0.075	0.043
-409.340	47.573	-0.123	-0.116
-408.325	800.000	0.013	0.055
-407.311	-91.966	0.212	-0.060
-406.296	78.366	0.262	-0.282
-405.282	-45.217	0.122	0.061
-404.267	-138.384	0.369	-0.041
-403.252	-142.344	0.307	0.030
-402.238	-113.794	0.178	0.035
-401.223	800.000	0.072	-0.289
-400.209	-200.000	-0.033	0.384
-399.194	-200.000	-0.020	0.225
-398.179	-81.282	0.170	0.056
-397.165	144.944	0.155	0.208
-396.150	9.346	-0.229	0.174
-395.136	-64.052	0.149	0.061
-394.121	227.098	0.182	-0.298
-393.106	-85.998	-0.228	-0.071
-392.092	80.940	0.293	0.318
-391.077	693.363	0.029	0.076
-390.063	-124.314	-0.043	-0.007
-389.048	139.138	0.326	-0.430
-388.033	114.736	0.096	-0.118
-387.019	-132.076	-0.200	-0.026
-386.004	260.928	0.150	0.260
-384.990	296.906	0.079	-0.146
-383.975	-104.548	-0.186	0.043
-382.960	-200.000	-0.025	0.259
-381.946	-115.967	0.091	-0.017
-380.931	-95.914	-0.041	-0.011
-379.917	-108.805	0.234	0.050
-378.902	-179.682	0.419	-0.009
-377.888	159.463	-0.061	0.085
-376.873	-50.704	-0.221	-0.104
-375.858	357.219	0.051	-0.101
-374.844	-200.000	0.003	-0.359
-373.829	670.489	0.008	0.020
-372.815	-143.214	-0.349	-0.034
-371.800	14.148	-0.230	-0.180
-370.785	-69.022	-0.138	0.053
-369.771	22.405	0.401	0.329
-368.756	-3.789	-0.037	0.026
-367.742	-200.000	0.035	0.303
-366.727	-137.357	0.024	-0.003
-365.712	271.627	0.037	0.066
-364.698	800.000	-0.021	-0.090
-363.683	-53.834	-0.178	-0.081
-362.669	61.936	-0.083	-0.083
-361.654	-112.086	0.316	0.064
-360.639	-200.000	-0.017	-0.118
-359.625	112.264	-0.107	0.130
-358.610	-7.376	-0.068	0.046
-357.596	-200.000	-0.001	-0.153
-356.581	227.408	0.269	0.438
-355.566	16.162	0.158	-0.125
-354.552	129.723	0.109	-0.140
-353.537	36.383	0.034	0.030
-352.523	132.831	0.100	0.129
-351.508	147.173	-0.150	-0.202
-350.493	-122.048	-0.080	0.013
-349.479	152.227	0.162	-0.222
-348.464	-101.335	-0.238	0.058
-347.450	-102.634	0.104	-0.025
-346.435	-200.000	-0.004	0.158
-345.420	-54.186	0.063	0.029
-344.406	-7.644	0.111	0.075
-343.391	-92.035	0.067	-0.019
-342.377	-124.366	-0.192	-0.030
-341.362	-77.720	0.413	0.143
-340.348	158.673	0.178	0.247
-339.333	232.523	-0.167	0.275
-338.318	-39.045	-0.134	-0.071
-337.304	-27.023	0.331	-0.193
-336.289	-200.000	0.011	-0.116
-335.275	16.621	-0.208	-0.165
-334.260	-98.607	0.215	-0.055
-333.245	79.086	-0.220	-0.236
-332.231	119.201	-0.158	0.196
-331.216	800.000	0.059	-0.254
-330.202	29.826	0.194	-0.166
-329.187	-2.786	-0.209	0.146
-328.172	800.000	0.070	0.193
-327.158	457.107	-0.081	0.181
-326.143	-200.000	0.022	-0.100
-325.129	-16.893	0.114	0.072
-324.114	174.247	0.146	0.212
-323.099	75.342	-0.033	-0.034
-322.085	-121.308	0.466	0.078
-321.070	737.954	-0.101	0.271
-320.056	800.000	0.111	0.322
-319.041	-200.000	0.019	0.224
-318.026	27.429	-0.221	0.186
-317.012	428.925	-0.101	0.218
-315.997	764.381	-0.061	-0.166
-314.983	-139.481	-0.069	0.007
-313.968	-200.000	0.062	-0.280
-312.953	-153.729	-0.238	-0.016
-311.939	-180.252	0.265	0.006
-310.924	-200.000	0.124	0.584
-309.910	-54.843	-0.241	-0.109
-308.895	15.684	0.238	0.188
-307.880	-148.732	0.191	-0.015
-306.866	33.482	0.013	-0.011
-305.851	-106.670	0.308	-0.069
-304.837	-93.662	-0.240	-0.066
-303.822	-93.384	-0.071	0.020
-302.807	-105.034	0.263	0.060
-301.793	92.828	-0.186	0.210
-300.778	59.044	0.244	0.241
-299.764	142.943	0.125	-0.166
-298.749	-112.403	-0.129	0.026
-297.735	800.000	-0.041	0.175
-296.720	40.164	-0.302	0.272
-295.705	800.000	0.029	-0.104
-294.691	-184.287	-0.401	0.007
-293.676	87.419	0.333	0.368
-292.662	47.013	-0.185	-0.172
-291.647	-26.841	0.231	-0.135
-290.632	438.132	0.028	-0.061
-289.618	800.000	0.031	-0.107
-288.603	68.739	-0.314	-0.323
-287.589	-200.000	0.057	0.440
-286.574	-200.000	-0.066	0.290
-285.559	173.585	0.235	-0.339
-284.545	137.750	-0.096	-0.126
-283.530	127.985	-0.168	0.214
-282.516	-200.000	0.068	0.340
-281.501	-39.256	-0.420	0.221
-280.486	-200.000	0.037	0.313
-279.472	-41.658	0.036	0.019
-278.457	160.737	0.183	-0.256
-277.443	45.047	0.079	0.072
-276.428	-20.687	0.485	-0.297
-275.413	24.560	0.127	-0.105
-274.399	209.439	0.141	0.222
-273.384	31.336	-0.214	-0.184
-272.370	-74.372	0.143	-0.052
-271.355	70.234	0.156	-0.161
-270.340	-43.695	0.255	-0.129
-269.326	-80.998	-0.264	-0.087
-268.311	-200.000	0.031	0.214
-267.297	-200.000	-0.034	-0.198
-266.282	-5.186	-0.109	-0.075
-265.267	-21.507	0.442	0.269
-264.253	-103.599	-0.132	-0.031
-263.238	-87.194	-0.158	0.048
-262.224	-154.435	0.355	0.024
-261.209	55.547	0.045	0.044
-260.195	800.000	0.128	-0.353
-259.180	105.629	0.190	0.224
-258.165	-117.574	-0.085	0.015
-257.151	-14.606	0.085	0.055
-256.136	241.173	-0.124	-0.207
-255.122	409.869	0.165	0.349
-254.107	-200.000	-0.020	0.161
-253.092	408.800	0.110	0.233
-252.078	-200.000	0.008	0.334
-251.063	-139.858	-0.231	0.024
-250.049	-200.000	0.024	-0.217
-249.034	234.839	-0.137	-0.225
-248.019	800.000	0.072	0.250
-247.005	-43.735	0.155	-0.078
-245.990	759.843	-0.074	-0.199
-244.976	53.706	-0.133	0.128
-243.961	67.933	-0.226	-0.230
-242.946	133.848	-0.075	-0.098
-241.932	2.581	-0.212	0.153
-240.917	800.000	0.056	-0.217
-239.903	321.078	-0.094	-0.178
-238.888	181.928	-0.184	-0.270
-237.873	-0.556	-0.112	-0.079
-236.859	55.398	0.222	-0.214
-235.844	-33.631	0.489	0.269
-234.830	-200.000	0.018	-0.139
-233.815	800.000	0.039	0.120
-232.800	-129.004	-0.206	0.029
-231.786	-107.285	0.212	-0.046
-230.771	547.030	0.067	-0.159
-229.757	-200.000	-0.013	0.207
-228.742	20.102	-0.179	-0.144
-227.727	-62.355	-0.092	0.038
-226.713	-82.052	-0.080	-0.026
-225.698	-200.000	-0.037	-0.176
-224.684	14.469	-0.134	-0.104
-223.669	-58.876	-0.115	0.049
-222.655	-200.000	0.050	-0.555
-221.640	800.000	0.090	0.291
-220.625	-38.757	0.081	-0.042
-219.611	-52.450	0.167	0.077
-218.596	-56.611	-0.279	0.123
-217.582	800.000	-0.028	-0.098
-216.567	27.510	-0.301	0.253
-215.552	-47.310	-0.216	0.105
-214.538	-200.000	0.015	-0.089
-213.523	430.265	0.061	-0.133
-212.509	800.000	-0.011	0.044
-211.494	213.991	-0.133	0.210
-210.479	204.880	-0.161	-0.249
-209.465	47.749	-0.262	0.244
-208.450	8.965	-0.119	-0.090
-207.436	-200.000	-0.034	-0.258
-206.421	-106.050	0.222	0.050
-205.406	-200.000	-0.039	0.188
-204.392	-200.000	-0.018	0.120
-203.377	-200.000	-0.045	-0.268
-202.363	-200.000	-0.033	0.180
-201.348	235.199	-0.089	0.146
-200.333	-101.424	-0.282	0.069
-199.319	315.875	-0.186	-0.350
-198.304	205.905	0.041	0.064
-197.290	-69.149	0.078	0.030
-196.275	-98.068	-0.354	-0.091
-195.260	-30.048	-0.102	0.058
-194.246	800.000	-0.039	-0.125
-193.231	320.152	0.156	0.295
-192.217	-132.349	0.404	-0.052
-191.202	-200.000	0.006	-0.224
-190.187	-200.000	0.021	-0.301
-189.173	-13.404	0.057	-0.037
-188.158	800.000	0.048	0.161
-187.144	372.035	-0.022	0.045
-186.129	-34.971	-0.178	-0.097
-185.114	-78.357	-0.085	-0.029
-184.100	-200.000	0.020	-0.147
-183.085	-66.789	-0.357	0.141
-182.071	-131.566	0.270	0.035
-181.056	-79.388	0.232	0.078
-180.042	-186.548	0.257	0.004
-179.027	800.000	-0.118	0.357
-178.012	380.942	-0.103	0.210
-176.998	568.619	-0.012	0.029
-175.983	521.760	0.047	0.111
-174.969	439.264	-0.141	-0.306
-173.954	382.148	-0.087	-0.179
-172.939	-80.667	0.420	0.139
-171.925	-34.485	0.291	0.159
-170.910	-115.723	0.129	-0.024
-169.896	538.726	0.063	-0.150
-168.881	481.951	0.091	0.205
-167.866	-200.000	0.011	0.559
-166.852	800.000	0.046	0.191
-165.837	-168.738	0.286	-0.011
-164.823	31.796	0.148	0.127
-163.808	-53.676	-0.011	-0.005
-162.793	-200.000	0.003	-0.022
-161.779	-17.482	-0.138	-0.086
-160.764	-169.821	0.238	0.009
-159.750	-101.875	-0.165	-0.040
-158.735	405.326	0.047	-0.100
-157.720	-101.834	0.045	0.011
-156.706	-119.673	0.155	-0.027
-155.691	-31.278	-0.400	-0.224
-154.677	-200.000	-0.016	0.205
-153.662	-91.686	0.152	0.043
-152.647	95.632	-0.296	0.336
-151.633	-200.000	-0.028	-0.199
-150.618	-200.000	-0.023	0.134
-149.604	-81.420	-0.235	0.077
-148.589	139.838	0.236	0.310
-147.574	11.243	0.078	0.060
-146.560	557.574	-0.089	0.214
-145.545	77.946	0.160	0.169
-144.531	-200.000	-0.010	0.320
-143.516	-30.362	0.297	-0.168
-142.502	800.000	-0.056	-0.243
-141.487	220.515	-0.077	0.122
-140.472	-200.000	0.048	-0.291
-139.458	-142.259	-0.197	-0.019
-138.443	-156.364	0.328	-0.020
-137.429	-200.000	0.006	-0.042
-136.414	-100.613	-0.291	0.072
-135.399	-112.562	-0.004	-0.001
-134.385	800.000	0.061	-0.198
-133.370	-151.507	-0.240	0.018
-132.356	304.712	-0.079	0.146
-131.341	-200.000	-0.078	-0.347
-130.326	88.470	0.092	-0.101
-129.312	353.489	0.029	0.057
-128.297	25.544	0.130	-0.107
-127.283	-53.414	-0.124	0.056
-126.268	126.282	0.111	0.139
-125.253	-200.000	0.051	0.361
-124.239	767.041	0.077	0.207
-123.224	-137.441	0.238	0.027
-122.210	800.000	-0.093	-0.297
-121.195	-45.672	-0.093	-0.046
