DTS Sentinel unit serial number:	SN413079Multiplexer serial number:	ORYXHardware model number:	OX4-SRSoftware version number:	ORYX F/W v4.00 Oryx Data Collector v3.7.2.0data status	okinstallation	princeton_trtdifferential loss correction	single-endedforward channel	channel 3reverse channel	N/Adate	2019/09/16time	18:32:35forward acquisition time	60.00reverse acquisition time	0.00gamma	496.2192k internal	0.2306k external	0.2306temperature offset calibration	1.0257default loss term (dB/km)	0.3790temperature slope calibration	1.0000multiplexer offset coefficient	1.0000multiplexer slope coefficient	1.0000fibre end	0.00T internal ref (°C)	36.55T ext. ref 1 (°C)	11.81T ext. ref 2 (°C)	29.97length (m)	temperature (°C)	Stokes	anti-Stokes-747.200	-50.798	-0.146	-0.070
-746.185	77.532	0.086	-0.093
-745.171	124.838	0.134	-0.172
-744.156	300.176	-0.106	0.198
-743.142	78.285	0.183	0.199
-742.127	-200.000	-0.020	0.345
-741.112	240.284	0.129	0.220
-740.098	74.233	-0.244	0.261
-739.083	164.912	0.014	-0.020
-738.069	398.040	-0.145	0.308
-737.054	-40.353	-0.042	0.022
-736.039	736.902	-0.074	0.203
-735.025	-46.385	0.120	0.060
-734.010	800.000	-0.041	0.128
-732.996	-183.302	-0.426	0.008
-731.981	97.213	-0.070	-0.081
-730.966	155.074	0.077	0.108
-729.952	-200.000	0.010	-0.327
-728.937	-103.242	0.182	-0.044
-727.923	-200.000	0.057	-0.267
-726.908	-137.930	0.123	-0.014
-725.894	332.406	0.073	-0.144
-724.879	408.328	-0.074	-0.159
-723.864	-111.210	-0.150	-0.031
-722.850	-95.670	-0.190	0.052
-721.835	496.563	-0.093	-0.218
-720.821	-200.000	0.063	-0.362
-719.806	48.760	0.140	-0.133
-718.791	80.278	-0.135	0.148
-717.777	42.630	0.149	0.137
-716.762	-39.751	-0.247	-0.131
-715.748	-78.081	-0.178	0.062
-714.733	86.646	0.111	-0.125
-713.718	166.066	-0.062	-0.089
-712.704	-135.549	-0.346	0.042
-711.689	-200.000	0.026	0.202
-710.675	394.872	0.020	-0.042
-709.660	45.826	-0.080	-0.075
-708.645	-177.504	-0.365	0.009
-707.631	800.000	0.037	0.154
-706.616	100.881	0.095	-0.112
-705.602	-62.570	-0.205	-0.087
-704.587	-127.300	0.202	0.030
-703.572	-61.822	-0.265	0.113
-702.558	-200.000	0.057	0.327
-701.543	34.690	0.065	-0.058
-700.529	-40.403	-0.034	-0.018
-699.514	249.584	0.193	0.333
-698.499	316.655	0.062	0.118
-697.485	292.951	-0.115	0.212
-696.470	514.430	0.045	-0.105
-695.456	-22.566	-0.217	0.133
-694.441	-168.711	-0.386	0.015
-693.426	-31.338	0.140	-0.080
-692.412	87.389	0.094	0.106
-691.397	-200.000	-0.018	-0.088
-690.383	54.151	-0.165	-0.161
-689.368	800.000	-0.103	0.338
-688.354	-40.584	-0.241	0.127
-687.339	-200.000	-0.011	-0.068
-686.324	-122.010	-0.696	0.116
-685.310	800.000	-0.030	-0.089
-684.295	-71.563	0.107	-0.041
-683.281	800.000	-0.031	0.091
-682.266	-200.000	-0.023	-0.202
-681.251	50.509	0.222	-0.213
-680.237	-28.598	-0.201	0.117
-679.222	199.217	-0.117	0.182
-678.208	-12.461	0.313	0.207
-677.193	-200.000	-0.029	0.496
-676.178	455.323	-0.006	-0.013
-675.164	800.000	-0.061	-0.232
-674.149	-114.915	0.314	0.061
-673.135	-31.688	-0.223	-0.127
-672.120	114.645	0.064	-0.079
-671.105	800.000	0.047	-0.206
-670.091	50.025	0.183	0.175
-669.076	-81.871	0.077	0.026
-668.062	-121.312	0.099	-0.017
-667.047	-87.296	-0.087	-0.027
-666.032	420.220	0.047	-0.102
-665.018	-200.000	0.039	0.247
-664.003	-200.000	0.049	-0.439
-662.989	-115.265	-0.219	-0.042
-661.974	209.453	0.050	0.080
-660.959	65.403	-0.225	-0.230
-659.945	167.502	-0.174	0.251
-658.930	222.790	-0.107	0.174
-657.916	110.658	0.438	0.535
-656.901	707.529	-0.072	0.193
-655.886	-188.557	0.084	0.001
-654.872	-8.055	-0.201	0.137
-653.857	-9.596	-0.273	0.185
-652.843	-124.990	-0.131	-0.020
-651.828	10.972	0.404	0.313
-650.814	-200.000	-0.033	0.344
-649.799	-80.977	0.093	-0.031
-648.784	213.104	-0.025	-0.040
-647.770	-16.364	-0.353	-0.227
-646.755	800.000	0.077	0.231
-645.741	-44.248	-0.141	0.072
-644.726	-5.991	-0.142	0.098
-643.711	167.649	-0.084	0.121
-642.697	-66.797	-0.150	-0.060
-641.682	-200.000	0.003	0.607
-640.668	-135.593	0.447	0.054
-639.653	-142.274	-0.132	0.013
-638.638	800.000	0.114	0.343
-637.624	-200.000	-0.013	0.112
-636.609	-64.657	0.303	0.124
-635.595	-171.997	0.434	0.014
-634.580	-37.705	0.248	-0.134
-633.565	192.279	0.086	-0.132
-632.551	-122.054	-0.523	-0.087
-631.536	-200.000	0.033	0.231
-630.522	74.838	-0.128	-0.137
-629.507	-200.000	0.046	0.335
-628.492	800.000	-0.084	0.249
-627.478	-119.196	-0.376	0.066
-626.463	800.000	-0.145	-0.501
-625.449	-64.255	0.293	-0.121
-624.434	145.750	0.105	0.143
-623.419	-3.532	-0.148	-0.105
-622.405	-70.875	0.416	-0.159
-621.390	584.600	-0.035	-0.087
-620.376	-94.964	0.093	0.026
-619.361	-200.000	-0.044	-0.461
-618.346	181.721	0.136	-0.202
-617.332	311.996	-0.063	0.120
-616.317	800.000	0.048	0.209
-615.303	-6.579	0.359	-0.248
-614.288	-7.861	-0.058	0.040
-613.273	800.000	0.040	0.162
-612.259	-98.799	0.177	-0.046
-611.244	66.943	0.222	-0.228
-610.230	471.667	0.098	0.224
-609.215	395.546	0.070	0.147
-608.201	-184.638	0.136	-0.002
-607.186	33.148	-0.222	0.195
-606.171	-63.446	-0.144	-0.060
-605.157	126.967	-0.218	-0.280
-604.142	537.391	-0.087	0.208
-603.128	-200.000	0.017	-0.349
-602.113	-114.498	0.289	-0.056
-601.098	-200.000	0.005	0.202
-600.084	109.423	0.179	-0.217
-599.069	-82.876	-0.207	-0.068
-598.055	800.000	-0.055	0.209
-597.040	-97.419	-0.281	-0.074
-596.025	-200.000	-0.031	0.177
-595.011	-123.979	0.063	0.010
-593.996	-164.132	-0.171	0.008
-592.982	239.846	0.154	-0.259
-591.967	76.895	-0.053	-0.057
-590.952	314.895	-0.222	-0.424
-589.938	-30.456	0.271	-0.155
-588.923	362.864	0.113	0.229
-587.909	15.517	-0.300	-0.238
-586.894	150.782	0.053	-0.072
-585.879	-165.739	-0.211	-0.009
-584.865	7.716	0.206	0.156
-583.850	-10.417	0.055	0.037
-582.836	354.451	-0.021	0.041
-581.821	-146.945	-0.229	-0.020
-580.806	-200.000	0.003	0.295
-579.792	43.624	-0.045	-0.042
-578.777	-10.356	-0.106	0.071
-577.763	-78.852	-0.224	0.077
-576.748	800.000	-0.058	0.179
-575.733	-128.991	0.469	-0.066
-574.719	-72.656	0.111	-0.042
-573.704	-200.000	-0.013	-0.105
-572.690	146.968	-0.100	-0.136
-571.675	109.059	-0.177	0.214
-570.661	106.025	0.229	0.274
-569.646	-130.490	0.085	0.012
-568.631	48.661	-0.138	-0.130
-567.617	143.917	0.179	-0.242
-566.602	-22.391	0.227	-0.139
-565.588	-197.504	-0.165	-0.001
-564.573	19.268	0.182	0.148
-563.558	-200.000	0.021	-0.227
-562.544	-200.000	0.182	0.001
-561.529	-97.234	0.182	-0.048
-560.515	-42.291	-0.374	0.193
-559.500	224.212	-0.092	0.150
-558.485	-200.000	0.009	0.235
-557.471	-37.595	0.223	0.120
-556.456	-76.467	-0.342	0.121
-555.442	-200.000	-0.020	-0.178
-554.427	718.022	-0.106	-0.284
-553.412	687.609	0.024	-0.065
-552.398	169.191	-0.173	-0.249
-551.383	-58.288	-0.230	-0.101
-550.369	90.711	0.220	0.248
-549.354	-4.867	-0.259	-0.180
-548.339	51.977	0.012	-0.012
-547.325	-64.697	0.265	0.109
-546.310	562.886	-0.046	-0.111
-545.296	800.000	-0.072	-0.210
-544.281	-200.000	0.008	-0.155
-543.266	288.767	0.077	0.141
-542.252	438.582	0.071	-0.156
-541.237	-54.907	-0.311	-0.141
-540.223	490.178	-0.081	0.187
-539.208	-159.913	-0.204	-0.011
-538.193	144.703	0.071	-0.095
-537.179	67.999	0.109	0.113
-536.164	-158.395	-0.326	-0.019
-535.150	800.000	0.101	-0.339
-534.135	800.000	0.019	0.083
-533.121	-200.000	-0.035	0.386
-532.106	-122.644	0.352	-0.058
-531.091	-200.000	-0.055	-0.267
-530.077	36.422	0.163	-0.145
-529.062	-103.886	-0.303	0.071
-528.048	-200.000	-0.004	-0.317
-527.033	-1.281	0.098	-0.070
-526.018	-200.000	0.067	0.323
-525.004	255.875	0.081	-0.140
-523.989	353.461	0.163	-0.327
-522.975	70.264	0.109	-0.114
-521.960	-76.550	0.256	-0.091
-520.945	-136.304	-0.264	-0.031
-519.931	-200.000	0.000	0.232
-518.916	800.000	-0.066	0.228
-517.902	534.653	0.069	0.165
-516.887	273.164	-0.119	-0.212
-515.872	244.892	-0.283	-0.479
-514.858	13.108	0.218	-0.170
-513.843	-40.953	-0.326	0.170
-512.829	-107.589	0.098	0.022
-511.814	277.766	0.090	-0.162
-510.799	-200.000	0.032	0.196
-509.785	388.065	-0.018	0.037
-508.770	-7.667	-0.310	0.211
-507.756	297.193	-0.067	0.124
-506.741	-200.000	-0.036	0.180
-505.726	145.310	-0.059	0.079
-504.712	-50.716	-0.283	-0.134
-503.697	-200.000	-0.018	0.207
-502.683	-13.243	0.314	-0.205
-501.668	-39.360	-0.160	-0.085
-500.653	385.952	0.141	-0.294
-499.639	23.724	-0.144	-0.119
-498.624	328.010	-0.071	0.137
-497.610	-23.054	-0.206	-0.125
-496.595	770.272	0.052	-0.142
-495.581	800.000	0.043	-0.174
-494.566	-200.000	0.026	0.271
-493.551	174.434	-0.108	-0.157
-492.537	571.980	0.068	0.167
-491.522	207.885	0.173	0.272
-490.508	800.000	0.009	0.036
-489.493	-10.456	-0.253	0.169
-488.478	-71.100	-0.117	-0.044
-487.464	-194.356	-0.199	-0.002
-486.449	-200.000	0.003	-0.015
-485.435	-39.339	-0.197	0.104
-484.420	-200.000	0.051	0.457
-483.405	800.000	0.072	0.233
-482.391	143.787	-0.448	-0.601
-481.376	-43.709	-0.240	-0.122
-480.362	-75.108	0.253	-0.091
-479.347	234.746	-0.067	0.112
-478.332	42.012	0.220	-0.201
-477.318	31.317	-0.153	0.132
-476.303	-109.250	0.083	0.018
-475.289	-109.022	0.316	0.068
-474.274	2.205	-0.259	0.188
-473.259	-97.902	0.179	-0.046
-472.245	162.795	0.235	-0.332
-471.230	114.617	-0.021	-0.026
-470.216	207.425	-0.072	-0.114
-469.201	800.000	0.069	-0.257
-468.186	-35.072	0.125	0.069
-467.172	-200.000	-0.011	0.126
-466.157	-200.000	-0.023	0.426
-465.143	-56.152	0.081	0.036
-464.128	-73.146	-0.183	0.067
-463.113	138.889	0.160	-0.212
-462.099	-200.000	-0.000	0.231
-461.084	-99.430	-0.128	0.033
-460.070	-125.886	-0.131	0.020
-459.055	800.000	0.082	-0.231
-458.040	-36.975	-0.084	-0.045
-457.026	-68.427	0.159	0.062
-456.011	-34.174	0.115	-0.064
-454.997	4.023	0.171	-0.126
-453.982	-15.167	-0.244	-0.157
-452.968	800.000	0.057	0.226
-451.953	800.000	-0.031	0.128
-450.938	-150.004	0.260	0.020
-449.924	327.486	-0.099	-0.191
-448.909	-200.000	-0.024	0.255
-447.895	-48.228	-0.404	-0.196
-446.880	-200.000	0.012	0.104
-445.865	-13.052	-0.086	0.057
-444.851	-80.696	0.275	-0.092
-443.836	186.140	0.136	-0.203
-442.822	-104.233	-0.162	-0.038
-441.807	-200.000	-0.004	0.121
-440.792	-84.996	-0.112	-0.035
-439.778	800.000	0.017	-0.069
-438.763	-200.000	0.021	-0.099
-437.749	-200.000	0.085	0.395
-436.734	84.229	-0.117	-0.129
-435.719	224.945	-0.156	-0.254
-434.705	-200.000	0.040	-0.196
-433.690	408.535	0.106	-0.226
-432.676	-65.290	-0.309	-0.125
-431.661	-85.998	-0.220	-0.068
-430.646	228.206	0.096	-0.156
-429.632	-71.045	0.091	-0.034
-428.617	125.992	0.025	0.031
-427.603	67.623	0.196	-0.202
-426.588	-157.616	0.341	0.020
-425.573	394.011	0.011	0.022
-424.559	20.916	0.207	0.168
-423.544	-94.049	0.251	-0.069
-422.530	10.592	0.218	-0.167
-421.515	31.820	0.190	-0.164
-420.500	42.017	0.211	0.192
-419.486	157.090	-0.063	-0.088
-418.471	136.614	0.185	-0.242
-417.457	-200.000	0.009	0.065
-416.442	76.509	0.108	-0.115
-415.428	-22.475	-0.101	-0.061
-414.413	776.300	0.165	-0.453
-413.398	-16.546	0.239	0.152
-412.384	800.000	0.070	-0.295
-411.369	562.789	-0.094	-0.229
-410.355	185.336	0.148	0.220
-409.340	180.020	-0.082	0.121
-408.325	-138.391	-0.273	0.030
-407.311	-200.000	-0.008	-0.207
-406.296	237.021	-0.059	0.098
-405.282	-1.791	0.131	-0.093
-404.267	-108.593	-0.112	0.024
-403.252	2.349	-0.057	-0.041
-402.238	10.299	-0.175	-0.133
-401.223	-66.290	0.126	-0.050
-400.209	461.347	0.045	-0.100
-399.194	800.000	0.100	0.339
-398.179	745.014	0.035	0.094
-397.165	-105.809	-0.271	0.061
-396.150	379.932	-0.166	0.341
-395.136	98.437	-0.077	0.089
-394.121	-200.000	0.019	0.110
-393.106	148.720	-0.207	0.281
-392.092	664.759	-0.127	-0.329
-391.077	-200.000	0.035	-0.377
-390.063	163.268	-0.133	0.188
-389.048	14.773	0.252	0.198
-388.033	-90.151	0.226	0.066
-387.019	674.047	-0.046	0.120
-386.004	0.102	-0.226	-0.161
-384.990	168.841	0.126	-0.180
-383.975	108.762	0.232	0.279
-382.960	-12.025	-0.266	-0.175
-381.946	-96.618	0.157	0.041
-380.931	46.216	-0.242	-0.225
-379.917	-126.537	-0.133	-0.020
-378.902	16.903	0.158	0.125
-377.888	77.711	0.115	-0.123
-376.873	-105.781	0.185	0.042
-375.858	-200.000	-0.034	-0.187
-374.844	-80.930	-0.201	-0.067
-373.829	544.188	-0.009	0.021
-372.815	53.369	0.130	-0.125
-371.800	282.960	0.186	-0.335
-370.785	-200.000	-0.042	-0.349
-369.771	800.000	0.035	0.119
-368.756	740.774	0.030	0.081
-367.742	-90.048	0.287	0.084
-366.727	65.516	0.232	-0.235
-365.712	152.548	0.120	-0.164
-364.698	800.000	0.092	0.276
-363.683	-119.631	-0.251	-0.043
-362.669	-53.257	-0.173	-0.079
-361.654	183.538	-0.158	0.233
-360.639	8.851	0.436	0.329
-359.625	94.468	-0.136	0.155
-358.610	-145.878	-0.070	-0.006
-357.596	-23.625	0.105	-0.063
-356.581	-81.699	-0.404	0.133
-355.566	-200.000	0.068	0.342
-354.552	190.584	0.020	0.030
-353.537	-200.000	-0.063	-0.314
-352.523	771.704	-0.064	-0.176
-351.508	-179.865	-0.284	0.006
-350.493	324.225	0.029	0.056
-349.479	-60.102	0.124	-0.053
-348.464	-128.840	-0.514	-0.072
-347.450	52.950	0.322	0.309
-346.435	-124.427	0.317	0.049
-345.420	-108.364	0.178	-0.039
-344.406	-200.000	0.023	-0.215
-343.391	-200.000	0.014	-0.075
-342.377	315.367	0.095	-0.179
-341.362	47.585	-0.269	-0.252
-340.348	32.065	0.181	-0.156
-339.333	114.870	-0.189	0.231
-338.318	133.687	0.104	-0.135
-337.304	-66.207	-0.335	-0.134
-336.289	128.107	-0.050	-0.064
-335.275	-200.000	-0.017	0.107
-334.260	157.997	0.103	0.142
-333.245	52.759	-0.068	0.065
-332.231	37.795	0.081	-0.072
-331.216	44.151	0.148	0.136
-330.202	-31.832	0.152	0.085
-329.187	-97.707	-0.204	-0.053
-328.172	503.866	0.070	-0.162
-327.158	-124.330	0.199	-0.031
-326.143	800.000	-0.062	0.244
-325.129	738.299	-0.113	0.304
-324.114	800.000	0.058	0.167
-323.099	-131.757	0.257	-0.034
-322.085	22.206	0.033	-0.027
-321.070	-163.265	0.207	-0.010
-320.056	22.400	-0.204	0.167
-319.041	-105.047	-0.177	-0.041
-318.026	-38.478	0.324	0.171
-317.012	181.620	-0.150	0.221
-315.997	-38.067	-0.154	0.082
-314.983	424.177	0.126	-0.272
-313.968	343.957	-0.125	0.244
-312.953	-103.632	-0.054	-0.013
-311.939	-102.222	-0.223	-0.054
-310.924	56.950	0.065	-0.064
-309.910	-200.000	0.018	0.292
-308.895	-200.000	0.004	-0.129
-307.880	-65.815	0.099	-0.040
-306.866	-51.459	-0.058	0.027
-305.851	-94.521	0.218	-0.059
-304.837	-200.000	-0.010	-0.067
-303.822	-65.593	0.200	-0.080
-302.807	515.491	0.130	-0.303
-301.793	273.727	-0.122	-0.217
-300.778	-41.966	-0.208	-0.106
-299.764	-148.740	-0.207	0.017
-298.749	800.000	0.040	-0.118
-297.735	103.574	-0.110	0.129
-296.720	-93.436	0.264	0.073
-295.705	-127.556	-0.246	0.036
-294.691	-200.000	-0.015	-0.134
-293.676	-200.000	0.035	-0.174
-292.662	20.994	-0.078	-0.063
-291.647	-117.401	-0.171	0.031
-290.632	267.712	0.174	-0.305
-289.618	6.939	0.209	-0.156
-288.603	-135.685	0.179	-0.021
-287.589	-200.000	-0.000	-0.050
-286.574	174.244	-0.143	-0.207
-285.559	-90.506	-0.274	-0.079
-284.545	-132.578	0.237	-0.030
-283.530	-41.019	0.091	0.047
-282.516	-200.000	0.012	0.143
-281.501	38.978	-0.253	0.226
-280.486	-1.138	0.212	0.150
-279.472	-200.000	-0.002	0.303
-278.457	-135.355	-0.290	-0.035
-277.443	34.196	0.224	-0.195
-276.428	-85.904	-0.287	0.089
-275.413	-200.000	0.028	0.231
-274.399	282.005	0.050	0.090
-273.384	42.182	0.265	0.240
-272.370	303.800	-0.101	-0.187
-271.355	-200.000	0.045	0.235
-270.340	662.608	0.063	0.162
-269.326	-80.416	0.134	0.045
-268.311	99.250	-0.185	-0.213
-267.297	-200.000	0.000	-0.055
-266.282	59.472	0.195	0.192
-265.267	-19.075	-0.185	-0.115
-264.253	-119.073	0.246	0.043
-263.238	-11.330	0.340	-0.224
-262.224	800.000	-0.044	0.168
-261.209	-54.060	-0.115	-0.052
-260.195	232.358	-0.122	-0.201
-259.180	-65.054	-0.302	0.121
-258.165	-200.000	0.059	-0.381
-257.151	-37.231	0.105	0.056
-256.136	-76.252	-0.315	0.111
-255.122	-184.289	0.099	-0.002
-254.107	28.817	0.128	0.109
-253.092	-200.000	0.003	0.070
-252.078	-200.000	0.011	0.261
-251.063	593.746	-0.038	0.093
-250.049	251.316	0.261	0.442
-249.034	-123.506	-0.031	-0.005
-248.019	-5.770	-0.132	0.090
-247.005	-200.000	-0.020	-0.139
-245.990	187.693	0.119	-0.177
-244.976	595.092	0.076	0.188
-243.961	-119.829	0.357	0.061
-242.946	126.312	0.031	-0.039
-241.932	-3.262	0.175	-0.122
-240.917	-200.000	0.003	0.218
-239.903	30.439	0.296	-0.253
-238.888	311.194	-0.083	0.156
-237.873	-143.233	-0.209	-0.020
-236.859	-200.000	0.027	-0.269
-235.844	238.507	-0.115	0.190
-234.830	-146.170	-0.333	-0.029
-233.815	-111.165	0.095	-0.019
-232.800	800.000	-0.125	-0.390
-231.786	316.968	0.085	0.159
-230.771	-200.000	0.045	-0.446
-229.757	-32.704	0.297	0.165
-228.742	106.632	0.032	0.038
-227.727	32.665	-0.036	-0.031
-226.713	79.482	0.190	0.203
-225.698	-70.665	-0.058	-0.022
-224.684	94.359	0.352	0.398
-223.669	-21.613	-0.253	0.154
-222.655	-47.981	0.323	-0.156
-221.640	689.442	0.091	0.237
-220.625	338.857	0.109	0.211
-219.611	60.127	-0.118	0.116
-218.596	-200.000	0.057	-0.268
-217.582	-200.000	0.072	0.403
-216.567	295.830	0.085	0.155
-215.552	800.000	0.053	-0.149
-214.538	-40.427	-0.224	0.116
-213.523	-200.000	0.015	-0.429
-212.509	33.041	0.023	-0.020
-211.494	800.000	0.080	0.329
-210.479	-57.663	0.186	0.081
-209.465	-118.016	0.073	0.013
-208.450	-130.328	0.253	-0.034
-207.436	-107.495	-0.288	-0.063
-206.421	201.741	0.031	0.047
-205.406	-200.000	0.014	-0.198
-204.392	84.064	0.071	0.077
-203.377	96.499	0.251	0.287
-202.363	524.565	-0.115	0.269
-201.348	-62.029	-0.233	-0.097
-200.333	800.000	-0.088	0.271
-199.319	-200.000	-0.034	-0.514
-198.304	-80.858	0.207	-0.068
-197.290	-200.000	-0.036	0.360
-196.275	-157.449	-0.486	0.029
-195.260	-51.712	-0.194	-0.090
-194.246	-68.039	0.272	-0.106
-193.231	-200.000	0.070	0.355
-192.217	-85.427	-0.190	0.059
-191.202	-80.575	-0.346	-0.115
-190.187	-183.319	0.196	-0.003
-189.173	-200.000	-0.009	-0.124
-188.158	-103.473	-0.283	0.066
-187.144	800.000	0.021	-0.070
-186.129	-200.000	0.041	0.419
-185.114	-200.000	0.054	0.319
-184.100	-52.356	0.006	-0.003
-183.085	800.000	-0.044	0.185
-182.071	-67.216	-0.160	0.063
-181.056	389.910	-0.045	0.094
-180.042	95.302	0.152	0.172
-179.027	66.875	0.228	0.231
-178.012	158.837	-0.129	-0.179
-176.998	-54.681	-0.181	0.081
-175.983	-54.908	0.252	0.113
-174.969	-125.458	0.276	0.042
-173.954	800.000	-0.047	-0.146
-172.939	215.869	-0.182	0.288
-171.925	-118.726	0.157	0.028
-170.910	127.530	-0.171	-0.216
-169.896	-200.000	-0.065	-0.381
-168.881	-29.721	-0.420	-0.239
-167.866	-90.152	-0.074	-0.022
-166.852	-200.000	0.006	0.056
-165.837	-200.000	0.001	-0.145
-164.823	-104.878	-0.190	0.043
-163.808	-66.990	-0.311	0.122
-162.793	-44.372	-0.116	-0.058
-161.779	245.391	-0.076	0.127
-160.764	229.971	0.127	0.207
-159.750	486.733	-0.087	0.198
-158.735	800.000	-0.124	-0.374
-157.720	-200.000	0.014	0.137
-156.706	800.000	0.074	0.210
-155.691	800.000	0.021	-0.062
-154.677	-118.653	0.155	-0.027
-153.662	-62.590	-0.198	-0.082
-152.647	-77.618	-0.248	-0.085
-151.633	265.056	-0.138	0.238
-150.618	71.619	-0.069	0.072
-149.604	10.570	0.082	0.062
-148.589	-200.000	-0.027	0.124
-147.574	-200.000	-0.008	0.161
-146.560	800.000	-0.060	0.172
-145.545	-35.308	-0.110	0.060
-144.531	30.397	0.198	-0.168
-143.516	494.523	-0.063	-0.144
-142.502	283.524	0.060	-0.108
-141.487	-49.142	0.185	0.088
-140.472	256.047	0.091	0.155
-139.458	-200.000	0.000	0.120
-138.443	-200.000	-0.035	-0.184
-137.429	-200.000	0.017	-0.266
-136.414	-70.660	-0.165	0.062
-135.399	-188.906	-0.345	0.004
-134.385	-200.000	-0.013	-0.336
-133.370	-200.000	-0.041	0.229
-132.356	-10.781	-0.174	0.114
-131.341	193.293	0.062	0.093
-130.326	-120.663	0.132	-0.022
-129.312	-200.000	-0.027	-0.131
-128.297	-1.390	0.095	0.066
-127.283	20.808	-0.279	0.224
-126.268	119.880	-0.280	0.345
-125.253	1.725	-0.162	0.116
-124.239	-135.714	0.068	-0.008
-123.224	-86.640	0.100	0.030
-122.210	45.194	0.135	-0.124
-121.195	-104.706	-0.104	-0.024
