DTS Sentinel unit serial number:	SN413079Multiplexer serial number:	ORYXHardware model number:	OX4-SRSoftware version number:	ORYX F/W v4.00 Oryx Data Collector v3.7.2.0data status	okinstallation	princeton_trtdifferential loss correction	single-endedforward channel	channel 3reverse channel	N/Adate	2019/09/17time	02:28:35forward acquisition time	60.00reverse acquisition time	0.00gamma	496.2192k internal	0.2323k external	0.2323temperature offset calibration	0.9941default loss term (dB/km)	0.3790temperature slope calibration	1.0000multiplexer offset coefficient	1.0000multiplexer slope coefficient	1.0000fibre end	0.00T internal ref (°C)	29.77T ext. ref 1 (°C)	0.12T ext. ref 2 (°C)	24.77length (m)	temperature (°C)	Stokes	anti-Stokes-747.200	228.231	-0.266	-0.437
-746.185	-200.000	0.040	0.305
-745.171	662.386	0.086	0.224
-744.156	182.834	-0.170	0.253
-743.142	-200.000	0.034	-0.177
-742.127	-75.558	-0.288	-0.103
-741.112	800.000	-0.050	0.153
-740.098	220.437	0.038	0.062
-739.083	6.555	0.318	0.238
-738.069	167.283	0.126	0.181
-737.054	-138.972	0.144	0.016
-736.039	-9.709	-0.387	0.260
-735.025	-149.888	0.090	-0.007
-734.010	-66.670	-0.411	-0.164
-732.996	800.000	0.024	-0.071
-731.981	299.727	0.137	-0.254
-730.966	13.325	-0.050	0.039
-729.952	-162.388	0.123	0.006
-728.937	269.544	-0.130	-0.231
-727.923	-25.905	-0.103	-0.061
-726.908	-158.806	-0.373	0.022
-725.894	-111.051	0.157	0.033
-724.879	-200.000	-0.031	-0.249
-723.864	82.886	0.088	0.096
-722.850	800.000	-0.060	-0.234
-721.835	6.182	-0.264	-0.198
-720.821	499.102	-0.051	0.118
-719.806	11.630	-0.232	-0.180
-718.791	561.049	-0.107	-0.262
-717.777	-200.000	0.001	0.305
-716.762	800.000	-0.117	-0.482
-715.748	-200.000	0.002	-0.225
-714.733	-121.390	-0.115	0.019
-713.718	800.000	-0.079	-0.235
-712.704	197.512	0.205	-0.316
-711.689	-200.000	-0.020	-0.162
-710.675	376.866	-0.097	-0.199
-709.660	-200.000	-0.103	-0.000
-708.645	350.690	0.209	0.417
-707.631	-81.524	0.356	-0.118
-706.616	211.527	0.120	-0.190
-705.602	130.220	0.093	-0.120
-704.587	-69.302	0.276	-0.107
-703.572	438.206	0.075	-0.165
-702.558	800.000	-0.028	0.111
-701.543	170.519	-0.228	0.329
-700.529	800.000	-0.116	0.479
-699.514	42.032	0.004	0.004
-698.499	-200.000	-0.012	-0.331
-697.485	-109.796	0.287	-0.061
-696.470	195.192	-0.052	0.080
-695.456	-136.886	0.190	-0.022
-694.441	-133.446	-0.165	-0.021
-693.426	-28.722	0.263	-0.153
-692.412	303.624	0.198	0.371
-691.397	-34.835	-0.123	-0.068
-690.383	-200.000	0.143	-0.000
-689.368	254.197	-0.075	0.130
-688.354	-184.817	-0.331	-0.005
-687.339	-200.000	-0.045	0.354
-686.324	26.231	0.175	0.147
-685.310	-3.917	-0.238	0.166
-684.295	-45.665	0.085	0.042
-683.281	272.506	0.037	-0.065
-682.266	676.403	-0.062	0.162
-681.251	344.862	0.072	-0.143
-680.237	175.784	0.085	0.125
-679.222	-200.000	0.013	-0.096
-678.208	-150.409	0.244	0.019
-677.193	800.000	0.028	0.081
-676.178	-27.299	-0.043	0.025
-675.164	-63.162	-0.022	-0.009
-674.149	-105.889	-0.168	-0.038
-673.135	-200.000	0.052	-0.240
-672.120	800.000	-0.055	0.232
-671.105	258.696	0.165	0.286
-670.091	-25.876	0.316	-0.188
-669.076	800.000	0.086	-0.330
-668.062	484.588	0.107	-0.246
-667.047	281.592	0.076	0.137
-666.032	-200.000	-0.007	0.082
-665.018	156.155	0.235	-0.326
-664.003	300.711	-0.086	-0.159
-662.989	-90.199	-0.111	-0.032
-661.974	191.150	-0.252	-0.382
-660.959	50.443	-0.155	0.148
-659.945	800.000	-0.082	-0.230
-658.930	-200.000	0.017	-0.466
-657.916	-34.185	0.184	0.102
-656.901	501.376	0.124	0.287
-655.886	636.341	-0.108	-0.277
-654.872	-200.000	-0.002	-0.148
-653.857	500.754	-0.052	-0.121
-652.843	202.375	-0.045	-0.070
-651.828	-28.919	-0.200	0.116
-650.814	-200.000	0.004	0.155
-649.799	-141.597	0.554	-0.056
-648.784	-200.000	-0.048	-0.221
-647.770	-7.599	-0.354	-0.241
-646.755	-46.839	0.219	-0.108
-645.741	-114.881	-0.150	-0.029
-644.726	503.686	-0.179	0.417
-643.711	15.940	0.233	0.185
-642.697	-76.591	0.122	0.043
-641.682	-200.000	-0.015	0.178
-640.668	-75.014	-0.257	0.093
-639.653	-200.000	0.002	-0.110
-638.638	165.707	-0.050	0.072
-637.624	-27.376	0.027	-0.016
-636.609	158.808	0.194	-0.271
-635.595	-200.000	0.059	0.278
-634.580	19.018	0.543	-0.438
-633.565	-3.305	0.067	0.047
-632.551	-142.600	0.326	0.032
-631.536	-84.317	0.203	-0.065
-630.522	-191.600	-0.273	-0.003
-629.507	-200.000	-0.011	-0.104
-628.492	-97.715	-0.255	0.066
-627.478	-56.993	0.211	-0.094
-626.463	24.847	0.130	0.109
-625.449	-73.169	0.181	-0.067
-624.434	-38.792	-0.092	0.049
-623.419	46.541	0.033	0.031
-622.405	28.470	0.159	-0.135
-621.390	-132.384	-0.059	0.008
-620.376	-94.535	-0.189	-0.052
-619.361	-200.000	0.016	0.159
-618.346	106.540	0.035	-0.042
-617.332	-104.737	-0.249	-0.058
-616.317	-166.328	-0.317	-0.013
-615.303	-142.741	0.120	0.012
-614.288	-20.389	0.278	-0.172
-613.273	-200.000	-0.044	-0.282
-612.259	-70.583	0.030	-0.011
-611.244	-78.864	0.329	-0.113
-610.230	37.641	-0.033	0.030
-609.215	102.016	-0.396	0.464
-608.201	-200.000	-0.085	0.482
-607.186	-94.766	-0.209	-0.057
-606.171	-200.000	-0.058	-0.309
-605.157	-64.677	-0.454	-0.185
-604.142	-104.253	-0.110	-0.026
-603.128	-76.368	0.284	-0.101
-602.113	743.100	-0.078	-0.212
-601.098	10.158	-0.231	-0.176
-600.084	14.770	0.416	-0.327
-599.069	24.639	0.191	0.159
-598.055	41.712	0.276	0.251
-597.040	800.000	-0.122	-0.389
-596.025	36.159	-0.290	-0.256
-595.011	70.208	-0.252	-0.261
-593.996	-3.400	-0.108	-0.075
-592.982	640.258	-0.094	-0.241
-591.967	559.832	-0.106	-0.257
-590.952	158.578	-0.176	-0.245
-589.938	238.914	-0.196	-0.327
-588.923	-41.903	-0.177	-0.091
-587.909	-14.457	-0.167	-0.108
-586.894	0.249	-0.060	-0.043
-585.879	2.126	0.087	0.063
-584.865	-20.508	0.218	0.134
-583.850	-19.854	0.125	0.077
-582.836	-200.000	0.013	0.138
-581.821	-200.000	0.012	-0.055
-580.806	800.000	-0.066	-0.253
-579.792	400.530	0.037	-0.078
-578.777	-106.521	0.481	-0.108
-577.763	74.717	0.160	-0.169
-576.748	35.330	0.063	0.055
-575.733	39.297	-0.295	-0.265
-574.719	-200.000	0.053	-0.237
-573.704	677.735	-0.166	0.433
-572.690	800.000	-0.072	0.200
-571.675	800.000	-0.070	0.231
-570.661	-151.335	-0.226	0.017
-569.646	-200.000	-0.025	-0.123
-568.631	47.851	0.305	0.286
-567.617	2.394	-0.206	-0.149
-566.602	-200.000	0.005	-0.075
-565.588	-200.000	-0.001	0.115
-564.573	-200.000	0.049	-0.296
-563.558	-49.514	0.135	-0.064
-562.544	13.903	-0.109	0.085
-561.529	22.980	-0.116	0.096
-560.515	-61.786	-0.161	-0.067
-559.500	33.955	0.177	0.155
-558.485	-18.041	-0.216	0.135
-557.471	256.596	-0.071	0.122
-556.456	800.000	0.054	0.207
-555.442	229.322	-0.158	-0.259
-554.427	800.000	0.049	0.159
-553.412	30.929	-0.363	-0.312
-552.398	88.046	0.066	-0.073
-551.383	80.196	-0.141	0.152
-550.369	-200.000	-0.048	0.229
-549.354	568.565	0.056	-0.137
-548.339	-47.355	-0.087	0.043
-547.325	470.166	0.064	-0.144
-546.310	232.705	0.154	-0.254
-545.296	-101.386	0.230	-0.056
-544.281	-200.000	0.016	-0.099
-543.266	-89.748	0.208	-0.061
-542.252	530.499	0.128	-0.304
-541.237	-200.000	-0.003	-0.050
-540.223	-20.083	-0.062	-0.038
-539.208	-81.773	-0.323	0.106
-538.193	227.336	0.057	-0.093
-537.179	83.068	0.211	0.230
-536.164	-179.614	-0.087	-0.002
-535.150	73.388	0.203	-0.213
-534.135	800.000	-0.054	-0.231
-533.121	144.991	0.194	-0.259
-532.106	-200.000	0.009	0.170
-531.091	800.000	0.044	0.144
-530.077	-200.000	0.018	0.108
-529.062	37.444	-0.129	0.115
-528.048	511.464	0.183	0.426
-527.033	-1.446	0.097	0.069
-526.018	20.818	0.297	-0.241
-525.004	800.000	-0.024	-0.094
-523.989	399.204	-0.193	-0.406
-522.975	-49.854	-0.236	-0.112
-521.960	277.232	-0.080	-0.142
-520.945	-121.904	0.068	0.011
-519.931	21.725	0.167	0.136
-518.916	-200.000	-0.036	-0.219
-517.902	54.715	-0.141	0.136
-516.887	-200.000	0.057	0.376
-515.872	372.414	-0.058	-0.118
-514.858	-102.949	-0.359	0.085
-513.843	672.271	0.015	-0.038
-512.829	176.461	-0.118	0.172
-511.814	98.790	0.132	-0.152
-510.799	106.662	0.184	0.218
-509.785	-107.958	0.095	-0.021
-508.770	93.780	-0.107	0.121
-507.756	800.000	-0.103	0.300
-506.741	17.100	0.197	-0.156
-505.726	-33.451	0.095	-0.053
-504.712	-200.000	0.013	-0.244
-503.697	-129.525	-0.356	0.049
-502.683	-122.461	0.282	0.046
-501.668	-67.725	-0.262	-0.103
-500.653	73.619	0.372	0.390
-499.639	104.409	0.161	0.190
-498.624	-200.000	0.021	-0.155
-497.610	-75.456	-0.136	0.048
-496.595	-51.835	-0.278	0.129
-495.581	800.000	0.085	0.332
-494.566	-158.471	-0.245	-0.014
-493.551	800.000	0.053	0.163
-492.537	-192.879	-0.220	-0.002
-491.522	-75.812	-0.205	0.073
-490.508	-122.127	-0.293	-0.048
-489.493	-200.000	0.087	0.427
-488.478	-200.000	-0.005	-0.142
-487.464	-58.500	-0.194	0.084
-486.449	-87.586	-0.142	-0.043
-485.435	73.315	-0.084	-0.087
-484.420	-200.000	-0.035	0.386
-483.405	-200.000	0.018	-0.084
-482.391	135.979	0.076	-0.099
-481.376	-74.884	0.353	-0.127
-480.362	346.101	-0.087	-0.172
-479.347	-200.000	-0.014	0.174
-478.332	1.814	-0.206	0.149
-477.318	-200.000	-0.015	0.084
-476.303	-28.778	0.097	-0.056
-475.289	72.145	0.185	-0.192
-474.274	-200.000	0.035	0.238
-473.259	-156.170	0.161	0.010
-472.245	413.655	-0.096	0.205
-471.230	800.000	0.124	-0.352
-470.216	-200.000	-0.013	0.130
-469.201	-92.878	0.136	0.038
-468.186	469.409	0.024	0.055
-467.172	-200.000	0.006	0.312
-466.157	-200.000	0.089	-0.416
-465.143	439.109	-0.066	-0.143
-464.128	-17.327	0.030	-0.019
-463.113	-200.000	0.013	-0.239
-462.099	-133.706	0.304	-0.038
-461.084	800.000	0.057	0.183
-460.070	68.840	0.136	0.139
-459.055	-110.324	-0.436	0.090
-458.040	298.812	-0.134	-0.246
-457.026	190.686	-0.055	0.082
-456.011	-75.845	-0.172	-0.061
-454.997	-48.400	0.477	0.229
-453.982	361.501	-0.200	0.401
-452.968	-200.000	-0.004	-0.090
-451.953	-179.623	0.276	-0.006
-450.938	-163.577	0.305	0.014
-449.924	-112.222	-0.105	-0.021
-448.909	624.216	-0.052	-0.130
-447.895	-157.595	0.163	-0.010
-446.880	154.575	0.109	-0.150
-445.865	722.765	0.037	-0.098
-444.851	800.000	-0.042	-0.181
-443.836	-142.370	-0.135	-0.013
-442.822	89.224	0.119	-0.132
-441.807	800.000	-0.081	0.234
-440.792	469.159	-0.194	0.435
-439.778	-84.805	0.458	0.144
-438.763	800.000	-0.078	0.271
-437.749	55.207	-0.018	0.018
-436.734	-49.738	0.092	-0.043
-435.719	25.750	0.254	0.211
-434.705	46.344	-0.045	0.041
-433.690	800.000	-0.056	-0.195
-432.676	-87.172	0.479	0.145
-431.661	-200.000	0.037	0.222
-430.646	-32.095	0.142	-0.079
-429.632	-149.236	0.263	0.021
-428.617	-39.215	0.041	-0.022
-427.603	-200.000	-0.011	0.132
-426.588	-104.075	-0.091	-0.021
-425.573	28.227	0.110	-0.092
-424.559	-200.000	-0.010	0.043
-423.544	-91.916	-0.285	-0.081
-422.530	175.576	-0.069	-0.099
-421.515	0.567	-0.260	-0.186
-420.500	100.774	0.117	-0.136
-419.486	396.252	-0.052	-0.108
-418.471	259.456	-0.037	-0.063
-417.457	6.201	-0.032	-0.023
-416.442	22.294	-0.301	-0.245
-415.428	369.840	0.071	0.144
-414.413	-33.722	0.073	0.040
-413.398	-109.167	0.291	-0.062
-412.384	-200.000	0.090	-0.401
-411.369	103.967	0.090	-0.106
-410.355	463.899	-0.111	-0.248
-409.340	559.087	0.008	-0.020
-408.325	800.000	-0.073	-0.273
-407.311	-73.074	0.044	0.016
-406.296	800.000	-0.139	0.393
-405.282	-128.669	0.176	-0.025
-404.267	800.000	-0.069	0.224
-403.252	-25.376	-0.072	0.043
-402.238	164.566	-0.035	0.049
-401.223	131.831	0.114	-0.146
-400.209	502.002	-0.060	-0.139
-399.194	151.970	-0.075	-0.102
-398.179	-124.915	0.149	0.023
-397.165	-9.912	-0.199	-0.132
-396.150	73.694	-0.161	-0.169
-395.136	-200.000	-0.018	-0.192
-394.121	-155.926	-0.311	-0.020
-393.106	-200.000	-0.038	-0.233
-392.092	-200.000	-0.041	-0.290
-391.077	-200.000	-0.031	0.276
-390.063	74.780	-0.304	0.319
-389.048	-110.862	0.299	0.061
-388.033	-109.392	0.342	0.072
-387.019	-152.269	-0.104	-0.007
-386.004	-200.000	0.026	-0.178
-384.990	-200.000	-0.061	-0.449
-383.975	-200.000	-0.033	0.169
-382.960	-200.000	0.026	-0.494
-381.946	22.721	0.247	0.201
-380.931	800.000	0.059	0.251
-379.917	-69.958	-0.034	0.013
-378.902	11.904	-0.230	-0.176
-377.888	800.000	-0.034	-0.142
-376.873	800.000	-0.067	0.256
-375.858	-131.353	-0.305	0.040
-374.844	-3.108	-0.104	-0.072
-373.829	-200.000	0.025	0.607
-372.815	-21.784	-0.292	0.177
-371.800	-200.000	0.014	0.408
-370.785	-200.000	0.020	-0.268
-369.771	-200.000	0.020	-0.155
-368.756	37.473	-0.415	-0.367
-367.742	311.450	-0.028	0.053
-366.727	800.000	0.064	0.227
-365.712	-129.965	0.192	-0.026
-364.698	300.080	-0.186	0.341
-363.683	112.050	0.247	0.297
-362.669	115.974	0.085	-0.103
-361.654	800.000	0.035	-0.130
-360.639	348.816	0.087	0.172
-359.625	-55.167	0.205	0.092
-358.610	-63.598	-0.424	0.173
-357.596	-200.000	0.019	0.137
-356.581	-113.675	-0.326	-0.063
-355.566	-106.729	-0.257	0.057
-354.552	-200.000	0.025	-0.155
-353.537	-103.056	0.187	-0.044
-352.523	135.581	0.222	-0.288
-351.508	800.000	0.021	-0.068
-350.493	-74.298	0.188	-0.068
-349.479	-46.230	-0.328	0.161
-348.464	-200.000	0.021	-0.113
-347.450	202.944	0.109	0.167
-346.435	160.983	-0.122	-0.170
-345.420	-16.973	0.138	-0.087
-344.406	-159.673	0.225	-0.012
-343.391	349.171	0.164	0.322
-342.377	800.000	-0.104	-0.369
-341.362	-137.689	-0.210	0.023
-340.348	-200.000	-0.016	0.308
-339.333	800.000	-0.057	-0.191
-338.318	-103.013	-0.019	-0.004
-337.304	134.802	-0.160	0.207
-336.289	106.056	-0.143	0.168
-335.275	-51.490	-0.227	0.105
-334.260	-26.883	-0.254	-0.147
-333.245	71.577	-0.057	0.059
-332.231	-144.217	0.322	0.030
-331.216	-141.141	0.138	0.014
-330.202	-200.000	-0.049	-0.262
-329.187	-200.000	0.048	-0.359
-328.172	-151.310	0.175	-0.013
-327.158	-101.590	-0.089	-0.021
-326.143	-200.000	0.022	0.222
-325.129	34.012	-0.111	0.096
-324.114	21.665	-0.233	0.188
-323.099	34.624	-0.147	0.128
-322.085	800.000	-0.046	-0.127
-321.070	-197.809	0.415	-0.002
-320.056	359.450	0.063	0.124
-319.041	79.352	0.165	-0.176
-318.026	800.000	-0.062	0.233
-317.012	194.962	-0.154	-0.232
-315.997	-185.556	-0.476	-0.007
-314.983	-119.057	-0.258	-0.045
-313.968	120.344	0.182	-0.224
-312.953	-53.085	0.081	0.037
-311.939	-200.000	-0.037	0.288
-310.924	-200.000	-0.021	0.276
-309.910	-75.376	0.198	0.070
-308.895	-80.164	-0.158	-0.053
-307.880	-200.000	0.004	0.203
-306.866	-24.589	-0.024	0.014
-305.851	301.717	-0.114	-0.210
-304.837	-44.838	-0.196	-0.097
-303.822	-122.788	0.192	-0.031
-302.807	-47.182	-0.219	0.106
-301.793	28.807	0.308	0.259
-300.778	656.451	-0.079	-0.201
-299.764	-168.874	0.077	-0.003
-298.749	378.846	0.074	0.150
-297.735	-12.259	0.109	0.071
-296.720	-200.000	-0.023	-0.405
-295.705	800.000	0.059	0.191
-294.691	246.529	0.176	0.295
-293.676	-149.144	0.027	0.002
-292.662	239.982	0.083	-0.137
-291.647	44.076	0.167	-0.152
-290.632	-83.475	-0.235	0.075
-289.618	-2.401	-0.166	0.116
-288.603	-109.668	-0.286	0.060
-287.589	-109.128	-0.220	0.047
-286.574	-13.931	-0.069	0.044
-285.559	800.000	0.076	0.235
-284.545	196.332	0.104	0.158
-283.530	800.000	-0.057	0.191
-282.516	-61.054	-0.292	0.122
-281.501	-200.000	0.022	0.116
-280.486	-55.921	0.294	-0.130
-279.472	800.000	0.048	-0.133
-278.457	800.000	0.020	0.058
-277.443	-200.000	-0.056	-0.259
-276.428	-55.696	-0.162	0.072
-275.413	104.400	0.089	0.104
-274.399	-88.595	-0.331	-0.098
-273.384	-200.000	0.031	0.333
-272.370	561.883	0.085	-0.205
-271.355	244.895	-0.038	0.063
-270.340	-90.662	0.488	0.140
-269.326	-200.000	0.022	0.111
-268.311	31.191	-0.077	0.066
-267.297	-164.786	0.181	-0.008
-266.282	800.000	0.031	0.128
-265.267	553.159	-0.079	-0.187
-264.253	3.506	-0.402	-0.291
-263.238	170.914	0.162	0.230
-262.224	-200.000	0.024	-0.355
-261.209	738.397	-0.089	-0.236
-260.195	279.776	-0.161	0.285
-259.180	-26.832	-0.282	0.163
-258.165	0.948	0.143	-0.101
-257.151	-200.000	-0.022	-0.135
-256.136	-200.000	0.002	0.039
-255.122	800.000	0.113	0.338
-254.107	490.085	-0.084	0.190
-253.092	800.000	-0.058	0.208
-252.078	-62.238	0.211	-0.087
-251.063	-200.000	0.000	-0.112
-250.049	-200.000	0.024	-0.215
-249.034	-37.359	0.129	-0.068
-248.019	-89.054	-0.159	-0.047
-247.005	-96.600	0.456	0.119
-245.990	-115.981	0.311	-0.058
-244.976	-70.305	-0.284	-0.107
-243.961	-200.000	-0.071	-0.383
-242.946	258.689	0.045	0.077
-241.932	-130.203	-0.160	0.022
-240.917	135.743	-0.128	-0.166
-239.903	-150.868	-0.149	0.011
-238.888	179.337	-0.030	0.043
-237.873	-68.737	0.089	0.034
-236.859	-174.487	0.337	-0.010
-235.844	37.604	-0.128	-0.113
-234.830	62.894	0.074	0.073
-233.815	173.149	0.142	0.203
-232.800	-200.000	0.043	-0.217
-231.786	-200.000	0.028	0.181
-230.771	8.512	0.236	0.176
-229.757	45.108	0.060	-0.055
-228.742	90.681	0.113	-0.126
-227.727	-200.000	0.031	0.422
-226.713	-91.142	0.223	0.063
-225.698	137.804	-0.229	-0.297
-224.684	222.806	0.101	-0.161
-223.669	56.405	-0.125	-0.120
-222.655	512.073	-0.090	-0.208
-221.640	-200.000	0.050	-0.364
-220.625	164.152	-0.156	0.217
-219.611	24.085	-0.074	-0.061
-218.596	800.000	0.060	0.177
-217.582	-121.109	0.243	-0.040
-216.567	-162.762	-0.118	0.006
-215.552	7.002	0.327	-0.241
-214.538	54.077	-0.273	-0.260
-213.523	107.811	-0.152	0.179
-212.509	-65.084	-0.182	0.073
-211.494	107.014	0.111	-0.130
-210.479	800.000	0.053	0.146
-209.465	-120.279	0.271	-0.046
-208.450	39.782	0.086	0.077
-207.436	-200.000	0.066	0.330
-206.421	90.676	0.135	-0.150
-205.406	73.021	-0.170	0.176
-204.392	800.000	-0.061	-0.187
-203.377	276.288	0.102	-0.179
-202.363	-183.156	0.132	0.002
-201.348	485.867	0.091	0.204
-200.333	8.920	0.313	0.234
-199.319	337.732	0.193	-0.372
-198.304	52.194	-0.117	0.110
-197.290	19.431	0.406	-0.323
-196.275	21.799	-0.229	-0.184
-195.260	-189.882	-0.196	-0.002
-194.246	-10.887	0.275	-0.179
-193.231	-98.365	-0.360	0.091
-192.217	52.085	-0.175	-0.164
-191.202	39.433	-0.087	-0.077
-190.187	58.733	0.141	0.137
-189.173	94.201	0.076	-0.086
-188.158	800.000	0.035	0.116
-187.144	-200.000	-0.044	0.223
-186.129	-61.209	-0.239	-0.100
-185.114	453.928	-0.015	0.032
-184.100	-43.032	-0.260	-0.130
-183.085	-51.026	-0.078	0.036
-182.071	-115.775	0.401	0.074
-181.056	6.559	0.292	0.214
-180.042	-88.890	0.046	0.013
-179.027	-200.000	0.074	-0.335
-178.012	-52.057	0.148	0.068
-176.998	332.267	-0.100	0.190
-175.983	367.662	-0.106	-0.211
-174.969	-29.357	-0.349	0.197
-173.954	212.183	-0.072	0.113
-172.939	111.414	-0.084	0.100
-171.925	-200.000	0.067	0.296
-170.910	110.412	0.297	0.352
-169.896	33.911	-0.231	0.199
-168.881	637.421	0.093	0.233
-167.866	671.407	0.105	0.270
-166.852	0.343	-0.179	0.126
-165.837	204.659	0.207	0.316
-164.823	800.000	0.041	-0.173
-163.808	-173.053	0.207	-0.006
-162.793	353.069	0.138	-0.271
-161.779	-200.000	-0.012	-0.395
-160.764	387.095	-0.091	0.185
-159.750	-96.875	-0.189	0.049
-158.735	800.000	0.008	-0.030
-157.720	9.203	0.375	0.280
-156.706	8.886	0.227	-0.169
-155.691	31.635	0.181	0.154
-154.677	64.625	-0.176	0.175
-153.662	56.607	-0.207	-0.199
-152.647	-33.798	0.124	0.067
-151.633	-16.761	-0.299	0.186
-150.618	-139.279	0.258	-0.027
-149.604	28.425	-0.206	-0.172
-148.589	-47.496	0.071	-0.034
-147.574	199.127	0.128	-0.193
-146.560	800.000	-0.023	-0.075
-145.545	-50.593	0.274	-0.127
-144.531	-104.121	-0.062	0.014
-143.516	800.000	0.069	0.215
-142.502	-84.767	0.173	-0.054
-141.487	81.113	-0.070	0.074
-140.472	-23.787	-0.157	0.093
-139.458	224.472	0.103	0.165
-138.443	-200.000	0.072	-0.690
-137.429	564.830	-0.076	-0.182
-136.414	-22.684	-0.069	0.041
-135.399	158.492	0.111	-0.152
-134.385	-200.000	0.030	-0.220
-133.370	-200.000	0.057	-0.340
-132.356	16.450	-0.168	-0.131
-131.341	517.083	-0.135	-0.311
-130.326	-178.035	0.252	-0.006
-129.312	-200.000	0.000	-0.293
-128.297	32.403	0.165	-0.141
-127.283	-89.393	0.235	-0.068
-126.268	-173.995	0.022	0.001
-125.253	392.621	0.247	0.506
-124.239	-144.161	0.278	-0.026
-123.224	-110.062	-0.298	0.061
-122.210	291.652	0.124	-0.223
-121.195	-26.577	-0.183	0.105
