DTS Sentinel unit serial number:	SN413079Multiplexer serial number:	ORYXHardware model number:	OX4-SRSoftware version number:	ORYX F/W v4.00 Oryx Data Collector v3.7.2.0data status	okinstallation	princeton_trtdifferential loss correction	single-endedforward channel	channel 3reverse channel	N/Adate	2019/09/14time	17:40:35forward acquisition time	60.00reverse acquisition time	0.00gamma	496.2192k internal	0.2297k external	0.2297temperature offset calibration	1.0025default loss term (dB/km)	0.3790temperature slope calibration	1.0000multiplexer offset coefficient	1.0000multiplexer slope coefficient	1.0000fibre end	0.00T internal ref (°C)	37.55T ext. ref 1 (°C)	5.04T ext. ref 2 (°C)	32.74length (m)	temperature (°C)	Stokes	anti-Stokes-747.200	-85.106	-0.157	0.050
-746.185	-144.769	-0.245	0.023
-745.171	-78.989	0.366	-0.127
-744.156	204.215	0.033	0.053
-743.142	-119.513	0.369	0.065
-742.127	65.844	0.135	0.140
-741.112	800.000	-0.075	-0.312
-740.098	-200.000	-0.038	-0.188
-739.083	-200.000	-0.015	0.221
-738.069	28.980	0.185	-0.160
-737.054	-200.000	-0.020	-0.214
-736.039	800.000	0.032	-0.112
-735.025	-86.651	0.358	-0.112
-734.010	152.146	-0.179	-0.249
-732.996	-179.721	-0.412	0.009
-731.981	-200.000	-0.024	0.143
-730.966	-200.000	-0.049	-0.223
-729.952	272.469	-0.105	-0.189
-728.937	38.935	0.249	0.227
-727.923	69.151	-0.217	-0.227
-726.908	530.523	-0.167	-0.404
-725.894	304.497	0.086	-0.164
-724.879	3.440	-0.137	-0.102
-723.864	800.000	-0.028	0.111
-722.850	141.928	-0.161	-0.218
-721.835	-12.034	-0.200	-0.134
-720.821	-32.867	-0.180	-0.102
-719.806	325.244	-0.298	0.582
-718.791	-159.459	-0.432	-0.025
-717.777	-138.017	-0.140	-0.016
-716.762	-52.047	0.344	0.163
-715.748	800.000	-0.009	-0.025
-714.733	27.726	-0.146	0.125
-713.718	-156.181	0.298	-0.019
-712.704	-62.890	-0.102	-0.043
-711.689	-130.090	-0.543	0.076
-710.675	-135.150	0.038	0.005
-709.660	461.974	-0.085	0.192
-708.645	800.000	0.037	0.125
-707.631	90.361	-0.066	0.075
-706.616	329.890	0.181	-0.356
-705.602	-26.014	-0.269	-0.161
-704.587	200.274	-0.050	-0.078
-703.572	-5.817	-0.219	-0.153
-702.558	-200.000	0.035	-0.396
-701.543	-130.740	0.161	-0.022
-700.529	800.000	-0.014	0.045
-699.514	-200.000	0.018	-0.233
-698.499	408.361	-0.136	0.293
-697.485	-200.000	-0.001	-0.090
-696.470	-42.122	-0.252	-0.131
-695.456	196.590	0.091	-0.142
-694.441	-200.000	-0.003	0.028
-693.426	-30.242	-0.257	-0.149
-692.412	183.550	-0.107	0.161
-691.397	28.599	-0.321	0.277
-690.383	329.071	0.137	-0.269
-689.368	-76.475	0.387	-0.139
-688.354	-107.540	-0.062	0.014
-687.339	632.112	0.082	0.212
-686.324	488.961	0.029	0.067
-685.310	-183.571	0.093	0.002
-684.295	-200.000	0.176	0.000
-683.281	-200.000	-0.012	-0.109
-682.266	137.779	0.094	0.125
-681.251	576.403	0.078	-0.193
-680.237	234.270	-0.067	-0.112
-679.222	225.985	-0.083	0.137
-678.208	800.000	-0.097	-0.281
-677.193	143.795	0.023	-0.032
-676.178	265.734	0.109	0.193
-675.164	-39.796	-0.106	0.056
-674.149	99.891	0.048	-0.056
-673.135	-196.086	-0.165	0.001
-672.120	229.074	0.064	0.107
-671.105	-71.632	0.389	-0.148
-670.091	800.000	-0.029	-0.114
-669.076	800.000	-0.013	0.053
-668.062	193.450	0.069	0.107
-667.047	216.990	-0.195	0.316
-666.032	-37.104	-0.336	-0.183
-665.018	-200.000	-0.044	-0.356
-664.003	-169.174	-0.117	-0.004
-662.989	-9.516	-0.263	-0.179
-661.974	438.785	0.136	-0.303
-660.959	104.602	-0.189	-0.227
-659.945	716.147	-0.058	-0.157
-658.930	800.000	0.067	-0.239
-657.916	-17.838	-0.012	-0.008
-656.901	-74.944	0.377	-0.137
-655.886	800.000	0.012	0.034
-654.872	-198.603	0.050	0.000
-653.857	800.000	-0.047	0.134
-652.843	81.025	0.087	0.096
-651.828	123.414	0.078	0.100
-650.814	4.247	0.291	-0.217
-649.799	-200.000	-0.143	0.001
-648.784	-130.788	-0.153	0.021
-647.770	174.814	-0.133	0.196
-646.755	279.272	-0.087	0.158
-645.741	-39.498	0.183	0.098
-644.726	-200.000	0.023	-0.106
-643.711	-55.730	-0.096	-0.044
-642.697	311.659	-0.156	0.298
-641.682	402.050	-0.094	0.202
-640.668	13.834	-0.109	-0.086
-639.653	-117.606	-0.191	0.035
-638.638	169.358	-0.044	0.063
-637.624	-200.000	0.002	-0.343
-636.609	137.264	0.139	-0.185
-635.595	-200.000	-0.030	0.316
-634.580	352.224	0.081	-0.162
-633.565	-200.000	-0.003	-0.131
-632.551	-106.045	0.147	-0.034
-631.536	-116.748	0.070	0.013
-630.522	106.313	-0.115	0.139
-629.507	-49.345	-0.043	-0.021
-628.492	-14.393	0.326	0.214
-627.478	39.417	-0.186	-0.169
-626.463	-93.818	-0.365	-0.102
-625.449	15.649	0.158	0.126
-624.434	95.932	-0.074	-0.086
-623.419	53.402	-0.178	0.174
-622.405	-20.750	0.091	-0.057
-621.390	273.933	0.110	-0.198
-620.376	138.165	-0.026	0.034
-619.361	229.360	0.166	-0.275
-618.346	-108.185	-0.388	0.085
-617.332	-28.336	0.157	-0.092
-616.317	-200.000	-0.099	-0.518
-615.303	17.359	0.311	-0.251
-614.288	6.123	-0.267	0.201
-613.273	-150.993	0.059	0.004
-612.259	168.183	0.151	-0.218
-611.244	141.486	-0.055	-0.074
-610.230	244.006	-0.204	-0.348
-609.215	-119.975	-0.200	-0.035
-608.201	-183.147	0.298	-0.005
-607.186	-200.000	0.009	-0.115
-606.171	-91.209	-0.392	-0.114
-605.157	-200.000	0.379	0.000
-604.142	-131.189	-0.004	-0.001
-603.128	-0.651	-0.127	-0.092
-602.113	7.548	-0.259	-0.197
-601.098	-167.901	0.358	0.014
-600.084	-37.364	0.327	0.177
-599.069	-65.975	-0.198	0.080
-598.055	386.853	-0.049	-0.102
-597.040	102.291	-0.195	-0.232
-596.025	-73.313	0.130	-0.048
-595.011	-117.274	0.186	-0.034
-593.996	630.801	-0.098	-0.253
-592.982	43.758	0.190	0.177
-591.967	-129.425	-0.217	-0.031
-590.952	-95.567	-0.151	-0.041
-589.938	162.719	-0.091	0.129
-588.923	-43.027	-0.323	-0.166
-587.909	192.897	0.260	-0.398
-586.894	4.378	-0.197	0.146
-585.879	31.562	0.201	0.176
-584.865	-200.000	-0.011	0.068
-583.850	43.246	0.038	0.036
-582.836	64.435	-0.084	-0.086
-581.821	257.615	-0.027	-0.047
-580.806	-92.122	-0.266	-0.076
-579.792	-151.529	-0.047	-0.004
-578.777	162.825	-0.053	0.075
-577.763	358.316	-0.079	0.160
-576.748	408.651	0.195	-0.418
-575.733	-59.280	-0.304	-0.133
-574.719	-161.797	0.366	0.019
-573.704	51.526	0.193	-0.186
-572.690	78.246	0.137	-0.149
-571.675	106.622	0.174	0.209
-570.661	-36.121	0.035	0.019
-569.646	178.006	0.086	-0.127
-568.631	683.025	0.156	0.411
-567.617	-94.490	-0.208	-0.058
-566.602	-46.330	0.306	0.153
-565.588	408.429	-0.069	-0.149
-564.573	-78.760	0.070	0.024
-563.558	-54.658	-0.062	-0.029
-562.544	65.710	0.089	0.091
-561.529	-200.000	-0.022	0.155
-560.515	-131.087	-0.156	0.021
-559.500	-200.000	-0.067	0.391
-558.485	800.000	-0.057	0.204
-557.471	-200.000	0.051	0.228
-556.456	-21.591	0.078	-0.048
-555.442	732.279	-0.010	0.028
-554.427	140.561	0.051	-0.068
-553.412	800.000	-0.070	-0.262
-552.398	-127.747	0.121	0.018
-551.383	-200.000	-0.192	-0.001
-550.369	347.775	0.061	-0.121
-549.354	-27.047	0.181	-0.107
-548.339	386.594	0.068	-0.143
-547.325	-69.764	0.108	0.042
-546.310	-140.135	-0.084	0.009
-545.296	-200.000	0.047	0.217
-544.281	-200.000	0.002	0.176
-543.266	800.000	-0.065	0.192
-542.252	-124.655	-0.186	0.029
-541.237	-36.217	-0.354	-0.194
-540.223	10.756	0.032	-0.025
-539.208	697.296	-0.117	-0.312
-538.193	113.896	-0.060	0.074
-537.179	-200.000	0.055	-0.353
-536.164	-136.247	0.253	-0.030
-535.150	387.220	-0.078	-0.163
-534.135	-200.000	0.028	0.287
-533.121	-96.412	-0.311	-0.083
-532.106	-85.509	0.141	-0.045
-531.091	800.000	0.037	-0.114
-530.077	-67.498	0.206	-0.082
-529.062	800.000	-0.050	-0.155
-528.048	125.139	0.191	-0.244
-527.033	337.714	0.081	-0.159
-526.018	800.000	0.074	0.237
-525.004	336.164	-0.102	0.200
-523.989	-200.000	-0.024	-0.119
-522.975	-51.254	0.085	-0.040
-521.960	800.000	0.018	0.069
-520.945	89.691	-0.050	0.057
-519.931	725.450	0.079	0.213
-518.916	-23.966	0.073	-0.044
-517.902	-44.796	-0.343	-0.173
-516.887	145.004	0.195	-0.265
-515.872	-200.000	-0.026	-0.125
-514.858	800.000	-0.084	-0.242
-513.843	-88.223	0.057	0.017
-512.829	-108.588	-0.197	-0.043
-511.814	-149.576	0.190	0.015
-510.799	630.777	0.037	-0.095
-509.785	-200.000	-0.010	-0.296
-508.770	313.383	-0.140	-0.266
-507.756	-200.000	0.016	-0.282
-506.741	87.745	-0.281	-0.315
-505.726	-127.041	-0.360	0.053
-504.712	-139.486	0.255	-0.028
-503.697	-122.525	0.345	-0.057
-502.683	-200.000	-0.008	0.315
-501.668	800.000	-0.022	0.069
-500.653	-200.000	-0.012	-0.324
-499.639	-34.556	0.144	-0.080
-498.624	221.457	0.072	-0.117
-497.610	98.890	0.117	-0.137
-496.595	-130.787	0.118	-0.016
-495.581	80.736	-0.099	0.108
-494.566	-9.388	0.117	-0.079
-493.551	-69.257	0.209	-0.081
-492.537	235.146	0.069	-0.114
-491.522	163.130	-0.332	-0.472
-490.508	800.000	-0.055	-0.155
-489.493	3.616	-0.151	0.112
-488.478	76.053	-0.176	0.189
-487.464	327.319	-0.156	0.303
-486.449	243.714	0.117	0.198
-485.435	-200.000	-0.020	-0.152
-484.420	-200.000	-0.037	-0.166
-483.405	89.999	-0.065	-0.073
-482.391	-200.000	-0.019	0.157
-481.376	-42.389	-0.144	0.074
-480.362	-89.925	-0.294	-0.087
-479.347	-43.672	0.027	-0.014
-478.332	-200.000	0.001	-0.079
-477.318	-33.789	-0.115	0.064
-476.303	-163.095	0.185	0.009
-475.289	800.000	-0.079	0.256
-474.274	305.498	-0.045	-0.085
-473.259	74.110	0.117	-0.124
-472.245	-200.000	-0.012	0.239
-471.230	-60.823	-0.314	-0.134
-470.216	-50.488	0.191	0.091
-469.201	-53.065	-0.378	-0.176
-468.186	-54.995	-0.069	-0.032
-467.172	800.000	-0.087	0.275
-466.157	-103.640	0.330	0.078
-465.143	93.849	-0.110	-0.126
-464.128	106.686	-0.058	-0.070
-463.113	221.324	-0.148	0.239
-462.099	800.000	0.040	-0.125
-461.084	-1.815	-0.073	0.052
-460.070	-37.889	0.346	0.186
-459.055	-21.236	0.055	-0.034
-458.040	-200.000	0.035	0.450
-457.026	93.091	-0.132	-0.150
-456.011	-200.000	-0.009	-0.180
-454.997	17.747	0.197	0.158
-453.982	-27.503	-0.134	0.079
-452.968	800.000	0.033	0.138
-451.953	-75.393	-0.261	0.094
-450.938	-113.088	-0.066	0.013
-449.924	-97.776	0.066	0.017
-448.909	-200.000	0.041	-0.312
-447.895	800.000	-0.086	0.285
-446.880	-128.808	-0.179	0.025
-445.865	-28.237	-0.038	-0.022
-444.851	-185.847	0.427	0.006
-443.836	-91.031	0.113	-0.033
-442.822	-200.000	-0.038	-0.182
-441.807	164.978	0.116	-0.165
-440.792	265.591	0.055	-0.096
-439.778	83.500	0.254	0.279
-438.763	-35.109	0.234	0.129
-437.749	117.353	0.042	-0.052
-436.734	800.000	-0.015	0.046
-435.719	-200.000	0.018	-0.182
-434.705	-77.764	0.119	-0.042
-433.690	-21.582	-0.401	0.246
-432.676	55.351	0.307	0.299
-431.661	679.479	0.097	0.255
-430.646	-59.224	-0.117	-0.051
-429.632	-100.925	0.096	-0.024
-428.617	-180.152	-0.155	0.003
-427.603	71.736	-0.058	-0.061
-426.588	245.991	-0.047	0.079
-425.573	557.970	0.058	0.141
-424.559	-149.591	-0.212	-0.017
-423.544	472.798	0.073	0.166
-422.530	5.160	-0.047	0.035
-421.515	13.394	0.280	-0.219
-420.500	99.466	0.069	-0.081
-419.486	26.068	0.135	0.113
-418.471	-33.203	0.129	0.072
-417.457	76.682	0.233	0.249
-416.442	-49.542	-0.320	-0.154
-415.428	-13.767	-0.360	-0.235
-414.413	36.970	-0.291	0.260
-413.398	373.798	0.110	-0.227
-412.384	-200.000	-0.011	-0.080
-411.369	136.726	-0.184	-0.243
-410.355	-42.644	0.054	-0.028
-409.340	180.811	0.135	0.200
-408.325	-44.928	0.271	0.136
-407.311	-102.708	0.126	0.030
-406.296	-6.310	0.106	-0.073
-405.282	-125.816	-0.144	-0.022
-404.267	-200.000	0.007	-0.041
-403.252	-200.000	-0.047	-0.387
-402.238	-71.298	0.091	-0.035
-401.223	-109.718	-0.080	-0.017
-400.209	-84.468	-0.147	-0.047
-399.194	128.789	0.069	-0.089
-398.179	800.000	0.099	-0.306
-397.165	65.314	0.149	0.152
-396.150	426.568	0.103	0.224
-395.136	-135.057	-0.415	-0.050
-394.121	-148.677	-0.272	0.022
-393.106	54.903	-0.221	0.215
-392.092	-151.339	0.183	-0.014
-391.077	215.756	-0.132	0.211
-390.063	-96.750	0.237	0.063
-389.048	-82.823	0.441	-0.144
-388.033	800.000	-0.022	0.069
-387.019	94.098	-0.307	0.351
-386.004	38.038	0.046	-0.041
-384.990	60.465	0.092	-0.092
-383.975	41.960	-0.264	0.241
-382.960	-200.000	0.035	0.362
-381.946	15.734	0.164	0.130
-380.931	-139.585	0.225	-0.024
-379.917	-127.432	0.313	0.046
-378.902	304.045	-0.081	0.150
-377.888	-107.532	0.163	0.036
-376.873	665.454	0.110	0.287
-375.858	107.253	0.014	0.017
-374.844	-81.715	0.330	0.109
-373.829	-99.545	0.113	0.029
-372.815	137.626	-0.174	-0.229
-371.800	-200.000	0.049	0.284
-370.785	-200.000	0.042	-0.377
-369.771	-139.541	-0.258	-0.028
-368.756	-200.000	0.054	-0.334
-367.742	-200.000	-0.001	0.378
-366.727	463.425	0.163	0.366
-365.712	56.452	-0.234	-0.229
-364.698	-90.009	0.285	-0.084
-363.683	117.471	-0.129	-0.160
-362.669	-147.763	0.037	-0.003
-361.654	-97.740	0.139	0.036
-360.639	-99.540	0.107	-0.027
-359.625	-44.232	-0.158	-0.080
-358.610	183.551	-0.097	-0.145
-357.596	-23.039	0.167	0.101
-356.581	-59.064	0.045	-0.019
-355.566	-87.232	-0.174	-0.053
-354.552	-200.000	-0.012	0.075
-353.537	-200.000	0.032	0.179
-352.523	800.000	0.092	0.345
-351.508	93.006	-0.117	-0.133
-350.493	-200.000	-0.050	-0.286
-349.479	83.114	0.052	0.057
-348.464	-59.730	-0.089	-0.038
-347.450	-66.507	0.044	-0.017
-346.435	107.293	-0.065	-0.078
-345.420	3.794	-0.054	0.040
-344.406	-26.719	-0.035	-0.020
-343.391	-7.363	-0.183	0.124
-342.377	-94.127	-0.001	0.000
-341.362	-105.103	0.287	0.066
-340.348	-69.521	0.242	-0.093
-339.333	-200.000	0.028	0.154
-338.318	-200.000	-0.020	0.138
-337.304	-200.000	-0.011	-0.177
-336.289	-67.266	0.050	-0.020
-335.275	-53.231	0.293	-0.135
-334.260	105.610	0.159	-0.188
-333.245	-50.181	-0.409	0.194
-332.231	800.000	0.072	-0.230
-331.216	136.971	-0.283	0.371
-330.202	-128.239	0.258	0.037
-329.187	19.949	-0.061	0.049
-328.172	274.158	0.219	0.389
-327.158	-200.000	0.007	0.204
-326.143	-200.000	0.020	0.373
-325.129	-108.338	0.278	0.060
-324.114	111.945	-0.220	-0.266
-323.099	800.000	-0.129	-0.385
-322.085	560.531	-0.045	0.109
-321.070	193.444	0.017	0.027
-320.056	-162.322	0.211	-0.011
-319.041	-193.463	-0.243	0.002
-318.026	69.834	-0.112	0.116
-317.012	-200.000	-0.023	0.108
-315.997	16.876	0.033	-0.026
-314.983	800.000	-0.038	0.109
-313.968	-39.033	-0.112	0.059
-312.953	200.974	0.100	-0.155
-311.939	608.493	-0.061	-0.153
-310.924	-120.818	0.165	0.028
-309.910	114.521	0.056	0.069
-308.895	10.125	-0.353	-0.270
-307.880	7.667	0.100	0.075
-306.866	-61.221	0.108	-0.045
-305.851	457.286	-0.077	-0.173
-304.837	-200.000	0.056	-0.321
-303.822	22.527	0.371	0.304
-302.807	800.000	0.037	0.122
-301.793	-95.396	0.126	0.034
-300.778	64.459	0.154	-0.156
-299.764	-92.129	0.185	-0.052
-298.749	-200.000	0.011	-0.148
-297.735	-46.883	-0.064	0.032
-296.720	342.565	0.122	0.240
-295.705	27.461	-0.093	0.079
-294.691	-200.000	0.007	0.147
-293.676	-3.863	0.137	-0.096
-292.662	-200.000	-0.014	-0.253
-291.647	7.061	-0.087	0.065
-290.632	47.230	-0.209	0.195
-289.618	-1.588	-0.312	0.221
-288.603	570.730	0.070	0.171
-287.589	21.733	0.223	0.182
-286.574	8.298	-0.174	-0.131
-285.559	33.442	0.236	-0.205
-284.545	-200.000	-0.021	-0.156
-283.530	264.118	0.018	-0.031
-282.516	-168.047	0.276	-0.011
-281.501	-77.678	0.082	0.029
-280.486	609.841	0.038	-0.096
-279.472	-36.785	-0.363	0.195
-278.457	-2.059	0.046	0.032
-277.443	203.382	-0.047	-0.072
-276.428	15.005	-0.194	0.153
-275.413	800.000	0.070	0.237
-274.399	-200.000	0.014	0.177
-273.384	138.311	-0.068	-0.090
-272.370	800.000	-0.036	-0.107
-271.355	-10.418	-0.221	-0.147
-270.340	-47.987	-0.403	-0.196
-269.326	-126.274	0.284	0.043
-268.311	-129.170	0.326	0.046
-267.297	38.673	0.161	0.144
-266.282	65.203	0.172	0.174
-265.267	-84.278	-0.443	-0.141
-264.253	-20.149	0.145	0.089
-263.238	579.831	-0.185	-0.454
-262.224	-200.000	-0.004	0.297
-261.209	-200.000	-0.042	0.368
-260.195	-151.277	0.118	-0.009
-259.180	46.355	0.127	0.118
-258.165	-200.000	-0.010	0.091
-257.151	-158.245	0.347	0.020
-256.136	296.973	-0.113	0.207
-255.122	75.785	-0.234	0.248
-254.107	-77.200	0.116	-0.040
-253.092	-0.224	-0.103	0.074
-252.078	-200.000	-0.013	-0.101
-251.063	-41.665	-0.321	0.165
-250.049	-21.074	0.058	0.036
-249.034	-110.869	0.278	-0.057
-248.019	534.591	0.084	-0.199
-247.005	-185.890	-0.110	-0.002
-245.990	-196.121	0.133	0.001
-244.976	142.525	-0.221	0.293
-243.961	-88.268	0.443	-0.133
-242.946	800.000	-0.058	-0.207
-241.932	800.000	0.020	-0.058
-240.917	-200.000	0.002	0.154
-239.903	-52.895	-0.220	-0.101
-238.888	-200.000	-0.026	-0.128
-237.873	-156.742	0.170	-0.010
-236.859	-65.699	-0.068	0.027
-235.844	514.826	0.158	0.369
-234.830	43.687	0.237	0.217
-233.815	-52.230	0.319	-0.148
-232.800	-95.342	-0.330	0.089
-231.786	178.717	0.042	0.062
-230.771	325.637	0.118	-0.226
-229.757	107.300	-0.233	-0.277
-228.742	-102.185	0.306	-0.074
-227.727	-97.094	-0.051	0.013
-226.713	800.000	-0.050	0.217
-225.698	-98.542	0.150	0.038
-224.684	137.999	-0.091	0.120
-223.669	-21.435	-0.166	0.101
-222.655	-80.503	0.041	-0.014
-221.640	53.763	-0.183	-0.176
-220.625	143.615	-0.092	-0.123
-219.611	-84.759	0.100	-0.032
-218.596	59.874	0.157	-0.156
-217.582	385.192	0.135	0.279
-216.567	221.522	-0.061	0.098
-215.552	-37.208	0.217	-0.116
-214.538	800.000	0.099	0.283
-213.523	800.000	0.065	0.179
-212.509	47.779	0.188	0.175
-211.494	-200.000	0.015	-0.372
-210.479	-200.000	-0.016	0.146
-209.465	-146.422	0.214	0.019
-208.450	331.689	0.098	-0.189
-207.436	61.782	-0.170	0.169
-206.421	469.196	0.141	-0.316
-205.406	118.837	0.142	-0.176
-204.392	-14.568	0.108	0.070
-203.377	14.999	0.009	-0.007
-202.363	21.742	-0.034	0.028
-201.348	-200.000	0.022	-0.147
-200.333	-117.932	-0.384	-0.069
-199.319	-126.923	-0.346	0.051
-198.304	800.000	-0.047	-0.158
-197.290	-200.000	0.076	-0.426
-196.275	176.540	0.135	-0.196
-195.260	-29.448	0.201	0.115
-194.246	-200.000	-0.016	0.322
-193.231	-200.000	-0.022	-0.182
-192.217	-103.207	0.128	-0.030
-191.202	-200.000	-0.002	0.083
-190.187	79.429	-0.103	0.110
-189.173	10.775	0.195	0.148
-188.158	800.000	-0.051	0.220
-187.144	268.246	-0.144	0.253
-186.129	-14.931	0.286	0.183
-185.114	16.016	-0.266	0.210
-184.100	-39.614	-0.164	0.086
-183.085	484.872	-0.132	-0.301
-182.071	800.000	-0.107	0.302
-181.056	56.001	-0.052	0.050
-180.042	511.919	-0.113	-0.262
-179.027	800.000	0.125	-0.358
-178.012	-114.876	-0.156	-0.030
-176.998	-50.571	-0.273	0.129
-175.983	313.221	-0.104	-0.195
-174.969	253.099	-0.120	0.205
-173.954	-132.663	0.198	0.025
-172.939	-200.000	-0.001	0.090
-171.925	-39.521	-0.125	-0.066
-170.910	-139.557	-0.252	0.027
-169.896	-32.669	0.415	0.231
-168.881	160.627	-0.163	0.227
-167.866	-23.247	0.361	-0.217
-166.852	800.000	0.033	0.107
-165.837	800.000	-0.041	0.170
-164.823	170.843	-0.226	0.323
-163.808	-200.000	0.017	-0.285
-162.793	25.346	-0.072	-0.059
-161.779	-126.404	-0.194	0.029
-160.764	-200.000	0.020	-0.173
-159.750	-38.922	-0.175	0.092
-158.735	-200.000	-0.040	-0.235
-157.720	-200.000	0.019	-0.152
-156.706	-132.595	-0.157	0.020
-155.691	23.854	-0.127	0.105
-154.677	800.000	-0.018	-0.064
-153.662	-200.000	-0.029	0.204
-152.647	-72.751	-0.314	-0.115
-151.633	-12.228	-0.064	-0.042
-150.618	43.765	0.165	-0.150
-149.604	-95.921	-0.261	0.069
-148.589	10.797	-0.013	0.010
-147.574	-87.431	0.404	0.122
-146.560	-155.986	0.265	0.017
-145.545	432.582	-0.110	0.239
-144.531	-68.194	0.362	0.140
-143.516	-151.855	-0.120	-0.009
-142.502	7.216	0.235	0.175
-141.487	-21.337	0.256	-0.156
-140.472	122.048	-0.046	-0.057
-139.458	382.126	-0.099	0.203
-138.443	-76.579	0.137	-0.048
-137.429	-89.484	-0.155	-0.045
-136.414	132.510	0.095	-0.123
-135.399	-112.505	-0.356	-0.071
-134.385	31.476	-0.309	0.264
-133.370	-152.072	-0.356	-0.026
-132.356	-200.000	-0.036	0.294
-131.341	54.856	0.177	0.170
-130.326	-10.913	-0.140	0.092
-129.312	95.127	-0.079	-0.090
-128.297	-26.884	0.475	0.277
-127.283	-26.533	-0.258	0.151
-126.268	92.858	0.180	0.202
-125.253	-120.859	0.268	0.045
-124.239	800.000	-0.096	-0.380
-123.224	209.771	-0.013	-0.020
-122.210	380.845	0.160	0.327
-121.195	-200.000	0.041	-0.365
