DTS Sentinel unit serial number:	SN413079Multiplexer serial number:	ORYXHardware model number:	OX4-SRSoftware version number:	ORYX F/W v4.00 Oryx Data Collector v3.7.2.0data status	okinstallation	princeton_trtdifferential loss correction	single-endedforward channel	channel 3reverse channel	N/Adate	2019/09/16time	04:56:34forward acquisition time	60.00reverse acquisition time	0.00gamma	496.2192k internal	0.2337k external	0.2337temperature offset calibration	0.9952default loss term (dB/km)	0.3790temperature slope calibration	1.0000multiplexer offset coefficient	1.0000multiplexer slope coefficient	1.0000fibre end	0.00T internal ref (°C)	27.19T ext. ref 1 (°C)	10.97T ext. ref 2 (°C)	21.81length (m)	temperature (°C)	Stokes	anti-Stokes-747.200	76.466	0.102	0.109
-746.185	118.829	-0.201	0.249
-745.171	-92.948	0.191	-0.054
-744.156	81.744	-0.105	-0.114
-743.142	72.042	-0.098	-0.102
-742.127	800.000	0.032	0.108
-741.112	-70.003	0.054	-0.021
-740.098	693.849	-0.095	0.251
-739.083	-200.000	-0.009	0.045
-738.069	12.005	-0.344	0.266
-737.054	-200.000	-0.020	0.152
-736.039	-30.609	-0.353	-0.201
-735.025	-115.140	0.065	-0.012
-734.010	-200.000	0.014	0.092
-732.996	-200.000	0.315	0.001
-731.981	93.230	-0.152	0.173
-730.966	800.000	0.030	0.118
-729.952	47.010	0.326	0.304
-728.937	-154.232	-0.243	-0.016
-727.923	158.244	0.099	0.137
-726.908	-200.000	0.018	-0.216
-725.894	571.404	-0.127	-0.311
-724.879	-49.801	0.010	-0.005
-723.864	762.766	-0.037	-0.101
-722.850	-200.000	-0.029	-0.246
-721.835	123.731	0.103	0.129
-720.821	-200.000	0.018	-0.294
-719.806	-124.745	-0.084	0.013
-718.791	-47.463	0.087	0.042
-717.777	-155.437	-0.139	-0.009
-716.762	5.957	-0.321	0.238
-715.748	147.794	0.112	-0.152
-714.733	-23.942	-0.154	0.092
-713.718	-135.297	0.168	0.020
-712.704	130.246	0.253	0.325
-711.689	-200.000	-0.018	-0.182
-710.675	-13.666	0.138	-0.089
-709.660	491.034	-0.139	-0.320
-708.645	53.131	0.111	-0.107
-707.631	34.499	-0.126	0.110
-706.616	189.727	0.068	-0.102
-705.602	106.299	-0.188	-0.224
-704.587	-52.240	-0.151	0.070
-703.572	364.225	0.088	0.177
-702.558	-188.656	-0.302	0.004
-701.543	43.476	0.201	0.184
-700.529	271.131	-0.099	-0.174
-699.514	-0.732	0.234	0.167
-698.499	-53.771	0.141	-0.064
-697.485	163.761	-0.132	0.187
-696.470	-200.000	0.004	-0.464
-695.456	781.879	0.145	-0.398
-694.441	-200.000	0.012	-0.068
-693.426	228.097	0.076	0.124
-692.412	-200.000	0.010	0.044
-691.397	-68.965	0.279	-0.108
-690.383	70.975	-0.054	0.056
-689.368	-92.348	-0.344	0.097
-688.354	-33.047	0.148	-0.082
-687.339	369.309	0.068	0.139
-686.324	75.593	0.172	-0.182
-685.310	-124.237	0.271	-0.043
-684.295	-200.000	0.033	0.302
-683.281	95.991	-0.077	0.088
-682.266	-89.965	0.215	0.063
-681.251	104.434	0.046	-0.054
-680.237	-182.087	-0.119	0.002
-679.222	-200.000	0.070	-0.314
-678.208	-9.208	0.288	0.193
-677.193	35.238	-0.025	0.022
-676.178	-10.998	-0.121	-0.080
-675.164	-11.647	-0.246	-0.162
-674.149	23.565	0.198	0.163
-673.135	578.534	-0.077	-0.188
-672.120	-2.873	0.192	-0.135
-671.105	-50.851	-0.185	0.087
-670.091	247.583	-0.155	0.262
-669.076	-189.867	-0.209	-0.002
-668.062	46.872	0.219	-0.204
-667.047	-26.048	-0.324	-0.191
-666.032	-111.381	-0.051	-0.010
-665.018	145.971	0.105	-0.141
-664.003	-200.000	-0.023	-0.221
-662.989	90.154	-0.117	-0.130
-661.974	162.938	-0.219	-0.308
-660.959	338.667	0.041	-0.081
-659.945	750.953	-0.065	-0.177
-658.930	1.815	-0.204	-0.147
-657.916	5.764	0.123	-0.091
-656.901	-183.319	-0.204	0.004
-655.886	-200.000	0.012	0.109
-654.872	60.192	-0.020	-0.019
-653.857	800.000	-0.019	0.073
-652.843	174.871	0.187	0.271
-651.828	-97.101	0.569	-0.149
-650.814	69.067	-0.171	-0.176
-649.799	-200.000	0.010	0.251
-648.784	558.483	0.087	0.209
-647.770	-200.000	-0.023	0.189
-646.755	334.772	0.044	-0.084
-645.741	-58.057	0.264	-0.115
-644.726	-168.830	0.327	-0.012
-643.711	311.782	-0.082	-0.154
-642.697	-72.967	0.071	-0.026
-641.682	-107.047	-0.270	0.060
-640.668	413.832	-0.215	0.457
-639.653	-200.000	0.026	-0.361
-638.638	-24.055	-0.309	-0.184
-637.624	13.269	0.355	-0.275
-636.609	-200.000	0.034	-0.175
-635.595	-25.340	0.114	-0.068
-634.580	-94.197	0.229	-0.063
-633.565	800.000	-0.080	-0.244
-632.551	50.847	-0.102	0.096
-631.536	-61.469	-0.261	-0.110
-630.522	83.252	0.121	0.132
-629.507	52.371	0.310	-0.296
-628.492	-200.000	0.008	0.215
-627.478	-17.722	0.031	0.019
-626.463	8.808	0.214	0.161
-625.449	478.868	-0.012	0.026
-624.434	9.837	-0.366	-0.277
-623.419	-90.574	0.218	0.063
-622.405	52.320	-0.198	0.188
-621.390	243.283	0.052	-0.088
-620.376	114.259	-0.131	-0.159
-619.361	-1.718	0.154	-0.108
-618.346	-38.178	-0.203	-0.108
-617.332	-45.204	-0.340	-0.169
-616.317	-200.000	-0.022	0.122
-615.303	218.009	0.023	-0.036
-614.288	800.000	0.092	-0.268
-613.273	366.131	-0.123	0.247
-612.259	800.000	0.094	-0.267
-611.244	-122.043	0.546	0.090
-610.230	-200.000	0.064	0.396
-609.215	-200.000	-0.020	0.147
-608.201	-200.000	0.069	-0.319
-607.186	23.040	0.065	-0.053
-606.171	-36.650	-0.229	0.123
-605.157	149.492	-0.084	-0.114
-604.142	343.534	-0.126	0.247
-603.128	-200.000	-0.030	-0.223
-602.113	800.000	-0.120	-0.404
-601.098	-69.163	0.048	0.019
-600.084	-66.778	0.239	-0.094
-599.069	178.889	-0.064	-0.094
-598.055	131.275	0.259	0.332
-597.040	109.059	-0.070	0.084
-596.025	52.177	-0.295	0.281
-595.011	800.000	-0.145	0.495
-593.996	800.000	0.044	0.124
-592.982	-200.000	-0.044	-0.315
-591.967	-200.000	0.004	-0.022
-590.952	127.495	0.179	-0.226
-589.938	91.363	-0.138	-0.155
-588.923	800.000	0.050	0.141
-587.909	-174.639	-0.251	-0.007
-586.894	-200.000	-0.011	0.063
-585.879	-131.262	-0.289	-0.038
-584.865	800.000	0.035	-0.129
-583.850	74.603	0.178	0.187
-582.836	-200.000	-0.006	0.131
-581.821	-28.521	-0.301	-0.173
-580.806	-42.448	0.166	0.084
-579.792	66.071	-0.260	-0.263
-578.777	30.396	0.136	-0.116
-577.763	87.252	0.154	0.170
-576.748	-72.447	-0.137	0.050
-575.733	-80.641	0.100	-0.033
-574.719	-63.787	-0.296	-0.121
-573.704	-200.000	0.055	0.347
-572.690	444.412	0.075	-0.164
-571.675	-11.063	-0.145	0.096
-570.661	-135.316	0.286	0.034
-569.646	-131.465	-0.196	-0.026
-568.631	-95.426	0.120	-0.032
-567.617	338.885	-0.092	-0.178
-566.602	216.202	0.129	-0.204
-565.588	710.324	-0.049	0.130
-564.573	-57.381	0.031	0.013
-563.558	-200.000	-0.002	0.040
-562.544	-200.000	-0.010	0.044
-561.529	-53.696	-0.085	-0.039
-560.515	610.548	-0.034	0.084
-559.500	-200.000	-0.044	-0.194
-558.485	-115.572	0.181	0.034
-557.471	800.000	-0.042	0.154
-556.456	-200.000	-0.048	0.366
-555.442	-99.947	-0.267	0.066
-554.427	58.654	-0.121	-0.119
-553.412	141.625	-0.053	0.070
-552.398	-0.628	-0.147	0.104
-551.383	-200.000	-0.007	-0.077
-550.369	309.589	-0.173	0.322
-549.354	-6.651	-0.085	-0.058
-548.339	-123.966	0.165	-0.026
-547.325	33.927	-0.214	-0.186
-546.310	454.396	0.063	-0.138
-545.296	-200.000	-0.004	0.048
-544.281	130.587	-0.301	-0.385
-543.266	-200.000	-0.020	-0.128
-542.252	-200.000	-0.027	-0.235
-541.237	107.035	-0.043	-0.051
-540.223	800.000	0.054	0.157
-539.208	-200.000	-0.005	-0.086
-538.193	21.494	-0.241	-0.195
-537.179	-148.505	-0.184	-0.015
-536.164	72.903	0.090	0.094
-535.150	800.000	0.099	-0.350
-534.135	268.843	-0.092	0.161
-533.121	-200.000	-0.045	0.255
-532.106	12.996	-0.186	-0.143
-531.091	-200.000	0.012	0.092
-530.077	-59.793	0.446	-0.190
-529.062	360.777	-0.176	-0.351
-528.048	-1.848	0.254	0.178
-527.033	-200.000	0.054	-0.377
-526.018	363.423	0.164	0.329
-525.004	358.288	0.076	0.152
-523.989	110.261	-0.033	0.039
-522.975	-33.196	0.120	-0.066
-521.960	106.274	0.122	0.144
-520.945	-163.922	-0.061	0.003
-519.931	-83.503	0.222	-0.071
-518.916	577.234	0.083	-0.203
-517.902	20.667	0.328	-0.264
-516.887	111.905	-0.080	0.096
-515.872	-150.175	-0.371	-0.029
-514.858	169.879	0.144	-0.204
-513.843	-73.970	0.074	0.027
-512.829	-105.295	-0.281	0.064
-511.814	-154.765	0.024	-0.002
-510.799	-38.997	-0.227	-0.119
-509.785	147.004	0.015	0.020
-508.770	-200.000	-0.002	-0.512
-507.756	-155.793	0.205	-0.013
-506.741	85.816	-0.040	-0.044
-505.726	-110.098	-0.104	0.022
-504.712	-98.726	-0.027	-0.007
-503.697	800.000	-0.051	-0.148
-502.683	-28.275	0.287	0.165
-501.668	64.701	-0.119	-0.119
-500.653	475.204	0.037	0.084
-499.639	-39.011	-0.182	-0.095
-498.624	-150.654	-0.029	0.002
-497.610	329.087	0.156	0.299
-496.595	800.000	0.056	0.183
-495.581	-155.924	0.183	-0.012
-494.566	-121.389	-0.240	0.040
-493.551	-61.907	-0.213	0.089
-492.537	390.873	0.114	-0.235
-491.522	-134.426	-0.174	0.021
-490.508	-171.621	0.258	0.008
-489.493	800.000	-0.024	-0.071
-488.478	251.994	-0.124	-0.209
-487.464	-200.000	0.037	0.209
-486.449	11.684	0.144	-0.110
-485.435	-76.441	0.201	0.070
-484.420	-112.094	0.224	0.045
-483.405	186.620	0.135	-0.200
-482.391	-53.379	-0.094	-0.043
-481.376	60.052	-0.018	0.017
-480.362	226.078	-0.124	0.200
-479.347	-98.734	-0.193	-0.049
-478.332	9.865	-0.137	0.103
-477.318	170.295	0.216	-0.307
-476.303	-175.300	0.065	-0.002
-475.289	143.595	-0.249	0.329
-474.274	-114.763	-0.618	-0.117
-473.259	-17.506	-0.212	0.132
-472.245	58.218	0.105	0.102
-471.230	76.316	-0.201	0.212
-470.216	446.796	-0.172	-0.376
-469.201	124.438	-0.171	-0.214
-468.186	-40.674	-0.351	-0.181
-467.172	-165.263	-0.285	0.012
-466.157	11.394	-0.263	0.200
-465.143	-114.830	-0.230	-0.044
-464.128	-94.623	0.386	-0.104
-463.113	-41.714	0.105	-0.054
-462.099	-200.000	0.038	-0.371
-461.084	121.283	0.227	0.281
-460.070	203.870	-0.107	0.164
-459.055	-200.000	-0.042	-0.382
-458.040	-200.000	-0.048	-0.304
-457.026	-200.000	-0.060	-0.420
-456.011	-56.214	-0.308	-0.136
-454.997	-200.000	0.024	-0.135
-453.982	-133.963	0.039	-0.005
-452.968	800.000	0.117	0.349
-451.953	-200.000	-0.021	0.160
-450.938	-8.533	0.277	0.185
-449.924	-70.254	-0.128	0.048
-448.909	-105.705	0.054	0.012
-447.895	-67.586	-0.324	0.126
-446.880	-200.000	0.008	0.062
-445.865	20.647	0.244	-0.196
-444.851	-200.000	0.054	-0.286
-443.836	-26.841	0.195	-0.113
-442.822	-181.566	-0.191	-0.004
-441.807	162.816	0.062	-0.087
-440.792	800.000	-0.032	-0.099
-439.778	0.506	-0.202	-0.143
-438.763	478.814	0.016	-0.037
-437.749	-96.793	-0.365	0.095
-436.734	-169.048	0.052	-0.002
-435.719	-200.000	-0.031	-0.150
-434.705	-113.897	0.082	0.016
-433.690	672.602	0.086	-0.222
-432.676	-127.785	0.118	-0.017
-431.661	-78.392	-0.121	-0.041
-430.646	-10.392	0.379	0.249
-429.632	353.383	-0.092	0.181
-428.617	-135.482	-0.107	0.013
-427.603	79.843	0.232	0.247
-426.588	-156.756	-0.049	0.003
-425.573	-151.125	0.056	0.004
-424.559	-122.866	-0.295	-0.047
-423.544	655.135	0.094	0.239
-422.530	-200.000	-0.485	-0.000
-421.515	430.457	0.232	0.499
-420.500	-25.154	-0.113	0.066
-419.486	-108.154	0.412	0.088
-418.471	317.857	0.051	-0.096
-417.457	-66.052	0.304	0.120
-416.442	800.000	0.038	0.136
-415.428	-200.000	-0.009	-0.124
-414.413	-11.789	0.178	0.116
-413.398	-195.125	-0.216	-0.002
-412.384	170.618	0.151	-0.214
-411.369	800.000	-0.091	-0.384
-410.355	-17.714	0.259	0.161
-409.340	-132.158	0.122	0.016
-408.325	800.000	-0.116	-0.339
-407.311	-92.448	0.242	-0.067
-406.296	308.616	-0.170	0.314
-405.282	-34.089	0.173	0.094
-404.267	-200.000	-0.005	0.298
-403.252	-19.670	0.149	-0.091
-402.238	-165.249	0.045	0.002
-401.223	351.315	-0.181	-0.356
-400.209	-43.668	-0.250	0.125
-399.194	337.995	-0.126	0.242
-398.179	87.126	-0.159	-0.174
-397.165	-200.000	-0.002	0.146
-396.150	-36.342	-0.254	0.136
-395.136	800.000	0.071	0.240
-394.121	-200.000	-0.020	-0.470
-393.106	-16.852	-0.177	-0.111
-392.092	22.001	-0.191	0.154
-391.077	-116.902	-0.395	-0.072
-390.063	12.888	0.163	0.125
-389.048	-30.481	0.185	0.104
-388.033	-29.737	-0.163	0.092
-387.019	-168.900	0.024	0.001
-386.004	124.608	0.179	-0.222
-384.990	31.836	-0.202	-0.173
-383.975	-200.000	-0.020	0.154
-382.960	-147.519	0.110	-0.009
-381.946	-112.544	-0.300	-0.059
-380.931	-37.078	0.294	0.156
-379.917	48.324	-0.109	0.101
-378.902	-77.376	0.190	0.065
-377.888	-200.000	-0.013	-0.072
-376.873	-136.183	0.150	0.017
-375.858	800.000	-0.116	0.342
-374.844	-107.913	0.198	0.043
-373.829	548.580	0.084	0.199
-372.815	-200.000	-0.010	0.081
-371.800	-181.911	0.245	0.005
-370.785	144.408	0.149	-0.197
-369.771	-61.686	-0.201	-0.083
-368.756	128.780	-0.085	-0.107
-367.742	-200.000	0.052	-0.387
-366.727	-200.000	-0.025	-0.136
-365.712	291.150	0.158	-0.284
-364.698	209.767	0.137	-0.213
-363.683	300.629	-0.170	0.311
-362.669	32.806	-0.245	-0.210
-361.654	-6.177	0.372	-0.251
-360.639	-200.000	0.007	0.074
-359.625	-140.491	-0.243	-0.025
-358.610	507.007	0.059	-0.135
-357.596	-19.476	-0.228	0.139
-356.581	287.617	0.072	0.128
-355.566	-29.978	0.366	-0.206
-354.552	353.013	0.094	0.184
-353.537	-146.174	0.356	0.031
-352.523	-71.452	0.209	0.077
-351.508	-66.366	0.183	-0.072
-350.493	239.907	0.051	-0.084
-349.479	-188.133	0.342	0.004
-348.464	40.979	-0.161	-0.143
-347.450	699.822	0.025	0.064
-346.435	-180.808	0.421	-0.008
-345.420	-4.619	0.241	-0.164
-344.406	99.702	-0.101	-0.116
-343.391	-200.000	0.033	-0.198
-342.377	636.567	-0.025	0.062
-341.362	800.000	-0.037	0.144
-340.348	-200.000	-0.047	0.322
-339.333	-200.000	0.025	-0.125
-338.318	-155.462	-0.070	0.004
-337.304	-153.641	-0.189	-0.013
-336.289	-200.000	-0.017	0.090
-335.275	-27.649	-0.500	0.287
-334.260	-163.353	0.469	0.022
-333.245	0.752	-0.104	0.074
-332.231	-23.102	0.339	0.202
-331.216	-55.562	0.206	0.091
-330.202	-147.050	0.291	-0.025
-329.187	-200.000	0.000	0.162
-328.172	-80.207	0.089	-0.029
-327.158	735.595	0.151	-0.399
-326.143	-67.970	0.127	0.049
-325.129	87.043	-0.100	0.110
-324.114	-37.279	0.112	-0.059
-323.099	-73.594	-0.061	0.022
-322.085	7.325	0.147	0.108
-321.070	800.000	0.053	-0.148
-320.056	51.723	-0.160	0.150
-319.041	402.930	-0.098	0.203
-318.026	-82.957	0.195	0.062
-317.012	132.606	-0.063	-0.081
-315.997	520.293	-0.140	-0.325
-314.983	-200.000	-0.021	-0.098
-313.968	-96.790	0.145	-0.038
-312.953	107.519	-0.053	-0.062
-311.939	-200.000	0.020	-0.124
-310.924	-126.463	0.160	-0.024
-309.910	-16.264	0.326	0.204
-308.895	-99.328	0.345	-0.086
-307.880	-107.083	-0.028	0.006
-306.866	110.737	-0.085	-0.101
-305.851	-94.550	0.099	-0.027
-304.837	-84.247	-0.322	-0.101
-303.822	-200.000	0.005	-0.097
-302.807	-176.781	0.444	0.011
-301.793	173.364	-0.009	0.012
-300.778	97.126	-0.039	0.044
-299.764	-200.000	0.039	-0.188
-298.749	-104.398	-0.395	-0.090
-297.735	8.492	-0.128	-0.095
-296.720	-59.748	0.242	-0.102
-295.705	-35.545	-0.152	0.081
-294.691	62.100	0.312	-0.307
-293.676	-125.416	-0.136	0.020
-292.662	-96.608	0.387	0.101
-291.647	208.159	0.248	0.383
-290.632	125.133	-0.061	-0.075
-289.618	-31.621	-0.221	0.123
-288.603	-200.000	-0.026	0.113
-287.589	292.919	0.055	0.100
-286.574	-59.453	0.121	0.051
-285.559	201.175	0.161	-0.244
-284.545	248.665	0.217	0.363
-283.530	184.829	-0.110	-0.161
-282.516	-75.180	-0.406	0.143
-281.501	-12.999	0.135	0.087
-280.486	20.957	0.171	0.136
-279.472	-61.368	0.303	0.126
-278.457	-39.652	0.154	-0.079
-277.443	-121.832	-0.173	0.028
-276.428	-200.000	0.012	-0.115
-275.413	-25.628	0.171	0.099
-274.399	-38.718	-0.340	-0.177
-273.384	-169.743	-0.134	0.005
-272.370	-71.086	-0.090	0.034
-271.355	-200.000	-0.016	0.135
-270.340	218.850	-0.137	0.215
-269.326	-147.214	-0.373	-0.031
-268.311	238.554	0.153	0.250
-267.297	-127.425	0.152	0.022
-266.282	-76.364	0.094	-0.033
-265.267	-81.251	-0.156	-0.051
-264.253	-58.639	0.049	-0.021
-263.238	336.930	0.137	0.262
-262.224	-129.830	0.172	0.023
-261.209	43.618	0.384	0.346
-260.195	-120.433	0.208	0.035
-259.180	-154.572	0.305	0.020
-258.165	-23.721	-0.136	0.080
-257.151	-71.078	-0.146	-0.054
-256.136	131.097	0.213	-0.269
-255.122	245.990	-0.151	-0.250
-254.107	-62.670	-0.255	0.104
-253.092	-200.000	-0.075	0.428
-252.078	800.000	-0.092	0.312
-251.063	72.104	-0.304	0.311
-250.049	-200.000	0.004	0.036
-249.034	328.251	0.021	0.039
-248.019	73.518	0.101	-0.104
-247.005	109.925	-0.123	-0.145
-245.990	-200.000	-0.063	0.339
-244.976	-65.630	0.294	0.116
-243.961	-12.159	0.203	0.131
-242.946	800.000	-0.022	0.063
-241.932	-158.128	-0.154	-0.009
-240.917	-200.000	0.061	-0.494
-239.903	585.783	0.074	0.180
-238.888	-149.626	0.357	0.028
-237.873	202.939	-0.125	0.190
-236.859	-37.118	-0.021	-0.011
-235.844	-200.000	-0.065	0.438
-234.830	-200.000	-0.003	-0.016
-233.815	-200.000	0.013	0.247
-232.800	-74.155	0.066	0.023
-231.786	800.000	0.143	0.524
-230.771	36.461	0.271	0.235
-229.757	-200.000	-0.159	-0.000
-228.742	65.086	-0.088	-0.087
-227.727	-75.504	0.047	-0.016
-226.713	78.610	-0.073	0.077
-225.698	-87.188	-0.171	-0.051
-224.684	48.936	-0.140	0.130
-223.669	771.173	-0.103	-0.276
-222.655	800.000	0.120	-0.440
-221.640	-200.000	-0.002	-0.383
-220.625	-75.338	0.115	0.040
-219.611	-108.465	-0.190	0.040
-218.596	16.235	0.239	0.185
-217.582	-0.944	0.199	-0.139
-216.567	192.158	-0.117	0.173
-215.552	169.401	-0.087	-0.122
-214.538	-200.000	-0.172	-0.000
-213.523	-200.000	0.018	-0.273
-212.509	447.476	-0.061	-0.131
-211.494	-132.176	-0.356	0.045
-210.479	53.450	-0.089	0.084
-209.465	84.207	0.088	0.095
-208.450	308.521	-0.030	-0.054
-207.436	158.797	-0.108	-0.147
-206.421	215.992	-0.116	0.181
-205.406	36.383	-0.173	0.150
-204.392	-134.394	0.225	0.027
-203.377	28.597	-0.147	-0.122
-202.363	-2.894	0.160	0.110
-201.348	-200.000	0.064	0.289
-200.333	-200.000	0.024	0.130
-199.319	124.619	-0.241	0.298
-198.304	57.629	0.206	0.198
-197.290	-200.000	0.010	-0.270
-196.275	147.247	0.110	-0.146
-195.260	-48.922	0.138	-0.065
-194.246	178.978	-0.223	-0.321
-193.231	775.334	0.093	0.250
-192.217	160.200	0.106	-0.145
-191.202	16.183	0.090	-0.070
-190.187	-155.298	-0.372	0.024
-189.173	74.389	0.162	0.167
-188.158	-60.750	-0.147	0.061
-187.144	-40.899	0.168	0.085
-186.129	-107.866	-0.150	0.032
-185.114	287.071	-0.143	-0.254
-184.100	50.693	0.263	0.245
-183.085	110.380	0.231	0.272
-182.071	800.000	-0.054	0.180
-181.056	-128.482	-0.117	0.016
-180.042	376.880	-0.109	-0.219
-179.027	454.755	-0.093	0.202
-178.012	-23.355	0.078	0.046
-176.998	-122.713	-0.154	-0.024
-175.983	456.134	0.042	0.092
-174.969	-2.673	0.039	0.027
-173.954	322.650	-0.090	0.169
-172.939	231.068	-0.127	-0.204
-171.925	-0.273	0.219	-0.153
-170.910	-200.000	-0.007	-0.223
-169.896	-71.454	0.092	0.034
-168.881	-41.375	-0.238	0.120
-167.866	319.444	-0.122	-0.227
-166.852	7.405	0.144	-0.106
-165.837	95.789	0.069	0.078
-164.823	-75.806	-0.443	0.154
-163.808	-143.420	0.193	0.018
-162.793	800.000	-0.009	-0.034
-161.779	-147.484	-0.317	-0.026
-160.764	-89.321	-0.162	-0.047
-159.750	-47.073	-0.188	-0.090
-158.735	2.075	-0.095	0.067
-157.720	-200.000	-0.011	0.220
-156.706	-200.000	-0.028	0.162
-155.691	41.221	0.131	-0.116
-154.677	-189.002	0.237	-0.003
-153.662	800.000	-0.065	0.211
-152.647	800.000	-0.163	-0.471
-151.633	-85.409	-0.139	-0.043
-150.618	-4.607	-0.148	0.100
-149.604	-66.771	-0.151	-0.059
-148.589	2.832	-0.249	-0.177
-147.574	-10.430	-0.175	0.114
-146.560	-200.000	0.051	-0.233
-145.545	221.798	-0.076	-0.120
-144.531	-200.000	-0.022	0.140
-143.516	42.103	0.035	0.031
-142.502	-155.391	0.189	0.012
-141.487	-200.000	-0.002	0.132
-140.472	-37.627	-0.151	0.079
-139.458	203.125	-0.088	-0.134
-138.443	52.432	-0.006	-0.005
-137.429	-200.000	0.041	0.222
-136.414	59.361	0.082	-0.079
-135.399	-49.585	-0.018	0.009
-134.385	143.304	0.124	0.162
-133.370	-34.915	0.102	-0.055
-132.356	-64.483	0.085	0.034
-131.341	7.146	0.189	0.138
-130.326	-48.659	-0.281	0.132
-129.312	30.147	0.295	-0.247
-128.297	77.007	0.083	-0.087
-127.283	203.189	-0.120	-0.183
-126.268	103.130	0.184	0.211
-125.253	-151.998	-0.081	0.006
-124.239	-13.450	0.024	0.015
-123.224	-200.000	0.045	0.262
-122.210	213.288	-0.138	0.214
-121.195	-82.730	-0.026	-0.008
