DTS Sentinel unit serial number:	SN413079Multiplexer serial number:	ORYXHardware model number:	OX4-SRSoftware version number:	ORYX F/W v4.00 Oryx Data Collector v3.7.2.0data status	okinstallation	princeton_trtdifferential loss correction	single-endedforward channel	channel 3reverse channel	N/Adate	2019/09/15time	19:24:35forward acquisition time	60.00reverse acquisition time	0.00gamma	496.2192k internal	0.2297k external	0.2297temperature offset calibration	0.9936default loss term (dB/km)	0.3790temperature slope calibration	1.0000multiplexer offset coefficient	1.0000multiplexer slope coefficient	1.0000fibre end	0.00T internal ref (°C)	39.36T ext. ref 1 (°C)	7.25T ext. ref 2 (°C)	28.86length (m)	temperature (°C)	Stokes	anti-Stokes-747.200	-200.000	0.012	-0.073
-746.185	87.738	-0.275	0.312
-745.171	-7.906	0.117	0.081
-744.156	292.660	0.158	0.293
-743.142	214.062	0.126	0.204
-742.127	6.505	-0.142	0.107
-741.112	-29.640	-0.171	0.100
-740.098	66.227	-0.302	0.313
-739.083	539.403	-0.119	-0.289
-738.069	765.710	-0.076	0.210
-737.054	-139.790	-0.268	0.029
-736.039	-169.427	-0.474	-0.018
-735.025	-48.729	0.126	0.062
-734.010	65.140	0.055	-0.057
-732.996	-169.931	0.266	-0.010
-731.981	-118.755	-0.341	0.061
-730.966	-19.453	0.244	-0.155
-729.952	5.991	-0.284	-0.215
-728.937	-200.000	0.033	0.192
-727.923	800.000	-0.056	-0.181
-726.908	-102.428	0.214	-0.052
-725.894	135.711	-0.188	-0.249
-724.879	-200.000	0.021	-0.123
-723.864	-97.204	-0.411	-0.110
-722.850	-136.574	0.284	0.034
-721.835	-7.260	-0.134	0.093
-720.821	-22.451	-0.308	0.190
-719.806	255.582	0.064	0.112
-718.791	83.029	-0.068	0.075
-717.777	44.038	-0.156	-0.146
-716.762	-200.000	-0.003	-0.380
-715.748	82.616	-0.208	0.230
-714.733	-118.778	0.317	0.057
-713.718	291.040	-0.038	-0.071
-712.704	126.721	0.198	0.255
-711.689	55.475	0.059	0.058
-710.675	-105.520	0.286	-0.066
-709.660	-43.174	-0.261	-0.135
-708.645	789.575	0.093	0.261
-707.631	-14.213	-0.128	-0.084
-706.616	32.978	-0.107	-0.095
-705.602	32.468	-0.022	0.020
-704.587	126.905	-0.052	-0.068
-703.572	192.904	-0.216	0.334
-702.558	800.000	0.106	0.431
-701.543	-7.280	0.042	0.029
-700.529	198.578	0.006	0.010
-699.514	-153.867	0.171	-0.012
-698.499	800.000	-0.034	-0.136
-697.485	-126.717	0.189	0.028
-696.470	800.000	-0.061	-0.222
-695.456	451.077	-0.104	-0.234
-694.441	-28.836	0.184	-0.108
-693.426	-31.895	-0.171	-0.098
-692.412	0.429	0.154	0.112
-691.397	-74.408	-0.089	0.033
-690.383	-162.853	0.199	-0.010
-689.368	-49.964	-0.311	-0.151
-688.354	59.598	-0.064	0.065
-687.339	152.187	-0.214	-0.298
-686.324	-87.282	0.126	0.039
-685.310	-65.630	-0.099	0.041
-684.295	-200.000	-0.019	0.286
-683.281	800.000	0.162	-0.550
-682.266	-58.506	-0.120	0.053
-681.251	353.786	-0.139	-0.280
-680.237	-140.608	0.168	-0.018
-679.222	-76.489	0.320	-0.115
-678.208	-200.000	0.033	0.218
-677.193	-95.441	-0.090	-0.025
-676.178	-12.687	-0.059	0.039
-675.164	-113.033	-0.183	-0.037
-674.149	352.741	-0.059	0.119
-673.135	-200.000	-0.025	0.180
-672.120	-174.237	-0.133	0.004
-671.105	614.169	-0.067	0.170
-670.091	-200.000	0.044	0.343
-669.076	187.286	0.101	0.153
-668.062	800.000	-0.025	0.075
-667.047	-2.627	-0.254	0.181
-666.032	-46.843	-0.092	-0.046
-665.018	-179.595	0.305	0.007
-664.003	-68.565	-0.302	-0.119
-662.989	589.368	-0.067	-0.168
-661.974	-200.000	0.011	0.281
-660.959	800.000	-0.085	-0.241
-659.945	-128.768	-0.365	-0.052
-658.930	265.692	-0.120	0.214
-657.916	800.000	-0.063	-0.245
-656.901	-37.434	-0.215	0.117
-655.886	-67.842	-0.290	-0.115
-654.872	104.526	-0.236	-0.282
-653.857	129.576	-0.156	0.203
-652.843	-134.984	0.114	0.014
-651.828	14.183	0.142	0.113
-650.814	-176.838	-0.267	-0.007
-649.799	-41.893	-0.366	-0.191
-648.784	143.032	-0.148	-0.200
-647.770	-160.318	0.253	0.014
-646.755	521.858	-0.059	-0.142
-645.741	110.593	0.054	0.067
-644.726	-40.477	0.176	-0.093
-643.711	219.274	0.247	-0.401
-642.697	540.359	0.040	-0.097
-641.682	-25.105	0.110	0.066
-640.668	-26.007	-0.245	-0.147
-639.653	217.906	-0.111	-0.181
-638.638	134.563	0.155	-0.205
-637.624	710.744	0.111	0.298
-636.609	800.000	0.009	0.031
-635.595	31.533	-0.052	-0.045
-634.580	192.763	0.040	-0.061
-633.565	800.000	-0.103	-0.404
-632.551	-72.381	-0.132	0.050
-631.536	-200.000	-0.014	0.132
-630.522	-71.460	-0.266	0.101
-629.507	-109.339	0.057	-0.012
-628.492	296.349	-0.142	0.265
-627.478	-200.000	0.023	0.380
-626.463	296.509	-0.178	0.331
-625.449	-200.000	0.042	-0.199
-624.434	-200.000	0.026	-0.285
-623.419	573.440	-0.076	-0.188
-622.405	800.000	-0.046	-0.141
-621.390	92.019	-0.127	-0.145
-620.376	-171.956	-0.249	-0.008
-619.361	204.115	-0.042	0.066
-618.346	55.387	-0.063	-0.062
-617.332	-75.446	-0.120	0.043
-616.317	-200.000	0.023	-0.243
-615.303	526.538	0.112	0.267
-614.288	-200.000	-0.009	0.045
-613.273	-200.000	-0.017	-0.427
-612.259	369.236	0.067	-0.137
-611.244	-25.511	0.230	0.138
-610.230	-93.841	-0.067	-0.019
-609.215	88.310	-0.290	-0.327
-608.201	-133.652	0.352	0.045
-607.186	-153.380	-0.072	-0.005
-606.171	651.545	-0.032	0.083
-605.157	86.327	0.123	-0.138
-604.142	472.035	-0.119	0.272
-603.128	169.821	-0.114	-0.166
-602.113	800.000	0.044	-0.172
-601.098	-22.692	0.159	-0.098
-600.084	5.482	-0.279	-0.209
-599.069	-171.182	-0.215	0.007
-598.055	407.787	-0.145	-0.311
-597.040	269.671	-0.055	0.098
-596.025	800.000	0.033	-0.108
-595.011	305.543	-0.070	-0.133
-593.996	-114.656	0.133	-0.026
-592.982	-115.882	0.221	0.042
-591.967	51.360	0.141	0.136
-590.952	115.678	0.073	-0.091
-589.938	103.616	-0.222	0.264
-588.923	75.144	-0.108	0.116
-587.909	124.201	-0.093	0.119
-586.894	-50.494	0.232	-0.111
-585.879	104.062	-0.277	-0.331
-584.865	-13.287	-0.212	-0.140
-583.850	126.025	-0.118	-0.151
-582.836	237.916	0.173	0.291
-581.821	-119.815	0.260	0.046
-580.806	51.923	0.116	-0.112
-579.792	256.404	-0.045	-0.078
-578.777	-60.566	-0.143	-0.062
-577.763	-58.710	-0.183	-0.080
-576.748	-165.813	-0.186	0.008
-575.733	167.558	-0.028	-0.040
-574.719	240.601	-0.050	0.085
-573.704	274.692	0.170	0.306
-572.690	-18.511	-0.287	-0.182
-571.675	-156.016	0.117	-0.007
-570.661	127.169	0.163	0.210
-569.646	800.000	-0.079	0.223
-568.631	314.765	0.036	0.069
-567.617	800.000	0.107	0.332
-566.602	210.038	0.150	-0.239
-565.588	277.268	-0.150	0.271
-564.573	-200.000	0.046	-0.313
-563.558	-200.000	0.010	0.140
-562.544	215.912	-0.061	-0.098
-561.529	-200.000	0.018	-0.200
-560.515	-200.000	-0.059	0.306
-559.500	-123.437	-0.230	-0.037
-558.485	-45.369	-0.410	-0.206
-557.471	800.000	0.051	0.198
-556.456	-155.391	0.340	-0.022
-555.442	534.746	-0.079	-0.190
-554.427	800.000	-0.051	-0.192
-553.412	-14.811	0.203	0.132
-552.398	-130.694	0.127	0.017
-551.383	-120.365	0.079	0.014
-550.369	-200.000	0.010	0.150
-549.354	40.719	-0.167	0.153
-548.339	-200.000	-0.015	-0.091
-547.325	800.000	0.052	-0.172
-546.310	800.000	0.076	-0.269
-545.296	-141.893	0.312	0.032
-544.281	-200.000	-0.068	0.450
-543.266	761.438	0.032	-0.088
-542.252	56.280	0.451	0.444
-541.237	167.630	-0.292	-0.420
-540.223	-135.044	0.256	-0.031
-539.208	-73.937	-0.274	0.101
-538.193	-62.015	-0.216	-0.092
-537.179	144.042	-0.054	-0.073
-536.164	-125.664	-0.261	-0.040
-535.150	-155.636	0.243	-0.016
-534.135	-200.000	-0.013	-0.098
-533.121	-74.815	-0.588	-0.214
-532.106	788.227	-0.095	0.263
-531.091	94.412	0.118	-0.136
-530.077	372.633	0.034	-0.069
-529.062	-200.000	0.021	-0.207
-528.048	-56.789	0.202	-0.090
-527.033	-200.000	0.019	0.126
-526.018	-30.743	0.204	0.117
-525.004	-140.021	0.194	0.021
-523.989	320.978	0.138	-0.265
-522.975	570.124	0.128	0.316
-521.960	-132.917	-0.110	0.014
-520.945	282.578	-0.004	-0.007
-519.931	-157.814	0.283	-0.017
-518.916	162.404	-0.165	0.234
-517.902	93.774	0.135	-0.155
-516.887	800.000	-0.101	-0.400
-515.872	30.864	0.087	-0.076
-514.858	-64.973	0.248	-0.101
-513.843	358.988	-0.057	0.116
-512.829	-2.770	0.154	-0.109
-511.814	-18.330	-0.082	-0.052
-510.799	-200.000	0.024	0.174
-509.785	522.588	-0.019	-0.046
-508.770	37.157	0.159	0.142
-507.756	-122.104	0.225	0.037
-506.741	-66.525	0.271	0.109
-505.726	504.970	0.129	-0.301
-504.712	-200.000	0.002	0.059
-503.697	715.233	0.035	-0.095
-502.683	794.223	-0.096	0.267
-501.668	-105.066	0.165	-0.038
-500.653	66.717	-0.056	0.058
-499.639	-100.250	-0.206	-0.052
-498.624	-24.127	-0.273	0.165
-497.610	-131.913	0.186	-0.025
-496.595	70.652	-0.169	-0.177
-495.581	121.184	-0.170	-0.214
-494.566	235.559	0.105	0.176
-493.551	-55.386	0.293	-0.133
-492.537	-200.000	0.025	-0.117
-491.522	641.438	-0.079	-0.203
-490.508	-22.108	0.157	0.096
-489.493	-79.721	-0.083	0.028
-488.478	-131.029	-0.066	0.009
-487.464	14.553	-0.138	-0.109
-486.449	-200.000	0.026	-0.305
-485.435	432.527	0.089	-0.196
-484.420	-18.975	-0.184	-0.116
-483.405	-112.101	-0.246	-0.050
-482.391	-139.715	-0.183	0.020
-481.376	17.292	0.255	0.204
-480.362	-102.082	-0.093	0.023
-479.347	-194.225	-0.136	0.001
-478.332	-188.891	0.055	0.001
-477.318	-35.886	-0.102	-0.056
-476.303	800.000	-0.014	0.059
-475.289	-200.000	-0.046	-0.317
-474.274	800.000	0.031	-0.088
-473.259	-20.011	-0.198	-0.123
-472.245	800.000	-0.056	0.190
-471.230	-125.170	-0.196	-0.030
-470.216	-2.861	0.098	0.069
-469.201	800.000	0.073	-0.239
-468.186	-137.567	0.430	0.049
-467.172	-78.306	-0.393	-0.136
-466.157	8.006	0.182	0.138
-465.143	-154.815	-0.137	-0.009
-464.128	-87.160	-0.140	0.043
-463.113	82.653	-0.148	0.163
-462.099	-200.000	-0.006	0.200
-461.084	-200.000	-0.010	0.105
-460.070	-10.756	0.315	0.210
-459.055	113.276	-0.083	-0.102
-458.040	-129.997	-0.381	-0.053
-457.026	79.780	0.199	-0.216
-456.011	17.843	-0.064	0.052
-454.997	305.782	0.166	-0.313
-453.982	54.134	0.094	-0.092
-452.968	-74.037	-0.234	0.085
-451.953	-200.000	0.026	-0.250
-450.938	-98.075	-0.371	-0.096
-449.924	-83.197	0.323	-0.105
-448.909	-4.070	0.336	0.235
-447.895	-140.347	0.156	0.016
-446.880	-77.927	-0.051	0.018
-445.865	-73.911	-0.335	-0.123
-444.851	75.291	0.192	0.205
-443.836	45.444	0.130	0.122
-442.822	-162.354	-0.076	0.004
-441.807	8.466	0.018	0.014
-440.792	49.239	0.123	-0.116
-439.778	-200.000	-0.014	0.072
-438.763	476.688	-0.170	-0.388
-437.749	800.000	-0.051	0.220
-436.734	-88.033	-0.107	0.032
-435.719	-96.334	0.512	0.137
-434.705	-131.780	0.067	-0.009
-433.690	95.459	0.054	0.062
-432.676	-87.618	0.189	0.058
-431.661	-200.000	-0.031	-0.170
-430.646	-138.961	-0.535	-0.059
-429.632	27.471	-0.274	0.233
-428.617	-69.216	-0.205	-0.080
-427.603	-21.264	-0.118	0.073
-426.588	-18.234	0.177	0.112
-425.573	-200.000	0.012	0.120
-424.559	-121.683	-0.261	0.044
-423.544	86.753	-0.080	-0.089
-422.530	137.132	0.306	-0.403
-421.515	-22.702	-0.167	0.102
-420.500	-1.324	0.213	0.152
-419.486	800.000	0.015	0.054
-418.471	-77.039	0.307	0.108
-417.457	-200.000	0.046	-0.248
-416.442	57.177	-0.171	0.168
-415.428	-42.697	0.129	0.066
-414.413	12.574	0.177	-0.138
-413.398	94.062	0.206	-0.235
-412.384	29.027	-0.372	0.318
-411.369	141.671	-0.200	0.267
-410.355	-200.000	-0.054	-0.324
-409.340	60.064	-0.116	0.115
-408.325	108.862	0.055	-0.066
-407.311	771.320	0.034	-0.092
-406.296	-62.972	0.124	0.052
-405.282	-142.415	0.140	-0.014
-404.267	60.583	0.021	-0.021
-403.252	-43.196	-0.378	0.193
-402.238	135.155	-0.290	0.379
-401.223	-24.435	-0.104	-0.062
-400.209	-132.602	0.133	0.017
-399.194	-132.643	-0.125	0.016
-398.179	-62.796	0.232	-0.097
-397.165	-118.546	0.122	-0.022
-396.150	295.256	0.218	0.402
-395.136	-105.226	0.359	0.083
-394.121	163.276	0.120	-0.169
-393.106	-17.142	-0.209	-0.133
-392.092	-50.686	0.088	0.042
-391.077	237.673	-0.099	0.165
-390.063	-200.000	0.009	0.093
-389.048	-71.854	0.119	0.044
-388.033	289.179	-0.218	0.398
-387.019	-200.000	0.053	-0.243
-386.004	3.116	-0.263	0.193
-384.990	167.063	0.110	0.157
-383.975	-200.000	0.037	0.208
-382.960	104.733	-0.067	-0.079
-381.946	343.228	-0.039	-0.077
-380.931	-200.000	0.026	0.364
-379.917	-174.736	0.086	-0.002
-378.902	-200.000	-0.013	-0.074
-377.888	800.000	-0.106	0.437
-376.873	-123.133	-0.190	0.031
-375.858	-75.545	0.145	-0.052
-374.844	-200.000	-0.002	0.567
-373.829	514.043	0.102	0.241
-372.815	197.664	-0.049	-0.075
-371.800	171.146	-0.201	0.291
-370.785	6.606	-0.015	-0.012
-369.771	800.000	-0.070	-0.222
-368.756	-122.777	-0.192	0.031
-367.742	-82.234	-0.338	0.111
-366.727	-200.000	-0.027	0.341
-365.712	-106.772	0.381	-0.085
-364.698	402.857	-0.052	0.110
-363.683	-1.523	-0.159	-0.113
-362.669	-57.257	-0.163	-0.072
-361.654	420.432	0.076	0.163
-360.639	-1.825	0.333	-0.236
-359.625	126.806	-0.309	-0.394
-358.610	360.137	0.082	0.165
-357.596	-61.302	-0.150	-0.064
-356.581	54.581	-0.280	-0.272
-355.566	-58.300	0.070	0.031
-354.552	-87.273	0.233	0.071
-353.537	464.339	0.107	-0.240
-352.523	338.777	-0.088	-0.173
-351.508	41.265	0.217	-0.197
-350.493	800.000	0.036	-0.110
-349.479	-14.665	0.073	-0.047
-348.464	-200.000	-0.016	-0.205
-347.450	800.000	0.101	0.426
-346.435	-13.972	0.324	0.210
-345.420	-200.000	0.036	0.384
-344.406	499.476	0.171	0.396
-343.391	305.492	-0.099	0.184
-342.377	-157.153	-0.198	-0.012
-341.362	283.478	0.129	0.234
-340.348	800.000	-0.090	0.312
-339.333	800.000	0.088	0.254
-338.318	351.058	0.213	0.424
-337.304	245.573	0.097	-0.164
-336.289	-36.823	0.182	0.098
-335.275	275.226	0.166	0.296
-334.260	23.479	0.082	-0.068
-333.245	-7.684	0.363	0.247
-332.231	-69.439	-0.130	0.050
-331.216	-95.204	-0.211	-0.057
-330.202	343.891	0.043	0.084
-329.187	-0.374	-0.235	-0.168
-328.172	-117.196	-0.104	0.019
-327.158	-40.644	0.178	0.093
-326.143	0.456	0.031	-0.022
-325.129	-63.240	-0.231	0.096
-324.114	-200.000	0.059	0.416
-323.099	800.000	-0.014	0.051
-322.085	-66.616	-0.124	0.049
-321.070	-200.000	-0.004	0.041
-320.056	800.000	-0.026	-0.110
-319.041	18.207	-0.282	-0.226
-318.026	-121.232	0.184	-0.031
-317.012	148.129	-0.236	0.320
-315.997	-44.827	0.119	-0.060
-314.983	-75.973	0.229	-0.081
-313.968	-200.000	-0.010	0.195
-312.953	34.462	0.262	0.230
-311.939	237.978	0.059	0.098
-310.924	140.658	-0.200	-0.266
-309.910	-200.000	0.007	0.091
-308.895	-200.000	0.004	-0.453
-307.880	95.728	-0.224	0.257
-306.866	800.000	-0.095	0.283
-305.851	16.306	-0.267	-0.211
-304.837	-77.906	0.110	0.038
-303.822	417.023	-0.048	0.104
-302.807	800.000	0.074	0.236
-301.793	-200.000	-0.053	-0.488
-300.778	82.841	0.054	0.058
-299.764	-159.774	0.536	-0.030
-298.749	-3.912	-0.321	-0.224
-297.735	-200.000	-0.017	0.460
-296.720	-71.490	0.426	0.160
-295.705	543.674	0.093	0.224
-294.691	91.939	-0.165	0.187
-293.676	84.976	0.138	-0.152
-292.662	-188.110	0.203	0.003
-291.647	59.477	-0.205	-0.203
-290.632	-114.941	0.075	0.014
-289.618	-200.000	0.003	0.144
-288.603	118.644	0.087	0.108
-287.589	-200.000	-0.009	-0.097
-286.574	-97.576	-0.212	-0.055
-285.559	69.693	0.144	-0.149
-284.545	-40.855	0.269	-0.139
-283.530	35.380	-0.163	0.144
-282.516	-62.098	-0.126	-0.053
-281.501	800.000	-0.073	-0.208
-280.486	168.829	-0.022	0.032
-279.472	800.000	-0.080	-0.320
-278.457	-200.000	0.062	0.452
-277.443	50.421	0.066	-0.063
-276.428	-107.769	-0.143	-0.031
-275.413	3.667	0.395	0.289
-274.399	72.248	0.180	-0.188
-273.384	8.071	-0.139	-0.105
-272.370	-200.000	-0.006	0.198
-271.355	54.449	0.206	-0.199
-270.340	18.115	0.412	-0.330
-269.326	-123.675	-0.117	0.019
-268.311	307.748	-0.061	-0.113
-267.297	-200.000	0.063	0.291
-266.282	-12.166	-0.091	-0.059
-265.267	-114.548	-0.155	-0.030
-264.253	-145.586	-0.226	-0.020
-263.238	127.290	0.167	0.212
-262.224	-146.825	-0.218	0.019
-261.209	-51.990	-0.500	-0.233
-260.195	-113.438	-0.298	0.058
-259.180	81.789	0.066	0.072
-258.165	61.129	0.216	0.215
-257.151	-120.420	-0.100	-0.017
-256.136	-79.264	0.170	-0.058
-255.122	152.244	-0.262	-0.358
-254.107	-3.786	0.038	0.027
-253.092	-24.307	0.347	-0.207
-252.078	-102.351	-0.367	0.088
-251.063	-3.655	0.140	0.097
-250.049	-45.610	-0.216	0.107
-249.034	-165.033	0.085	0.004
-248.019	307.043	-0.081	-0.152
-247.005	-42.372	0.222	-0.113
-245.990	-111.755	0.129	0.026
-244.976	-77.618	0.201	0.070
-243.961	-25.833	-0.287	0.169
-242.946	-175.183	-0.164	0.005
-241.932	-200.000	-0.014	-0.240
-240.917	800.000	-0.120	-0.420
-239.903	126.530	-0.043	0.054
-238.888	-200.000	0.004	0.344
-237.873	-81.468	0.301	0.099
-236.859	39.969	-0.117	-0.105
-235.844	636.455	0.129	0.328
-234.830	-58.216	0.112	-0.049
-233.815	-124.372	0.104	-0.016
-232.800	136.428	0.152	-0.199
-231.786	130.727	-0.117	0.150
-230.771	13.993	-0.275	-0.214
-229.757	164.883	0.047	0.066
-228.742	-200.000	-0.020	0.235
-227.727	-200.000	-0.013	0.221
-226.713	371.280	-0.018	0.036
-225.698	800.000	0.026	-0.086
-224.684	47.988	0.347	-0.324
-223.669	178.130	-0.107	-0.156
-222.655	-32.610	-0.193	-0.107
-221.640	-8.850	-0.170	0.114
-220.625	-91.443	0.235	-0.067
-219.611	800.000	0.035	-0.142
-218.596	-93.346	-0.356	0.099
-217.582	-55.860	0.188	0.084
-216.567	-93.735	0.134	-0.037
-215.552	-18.833	0.333	0.207
-214.538	-113.813	0.337	-0.066
-213.523	-63.544	0.589	-0.242
-212.509	-106.566	-0.461	-0.103
-211.494	-28.669	-0.201	-0.116
-210.479	-85.554	0.130	-0.040
-209.465	-200.000	0.083	0.402
-208.450	-161.904	-0.210	-0.011
-207.436	-200.000	0.016	0.253
-206.421	-72.774	-0.132	0.049
-205.406	-200.000	0.008	0.137
-204.392	42.011	0.246	-0.223
-203.377	325.161	-0.083	-0.159
-202.363	-200.000	-0.018	-0.323
-201.348	159.732	-0.072	0.101
-200.333	-200.000	-0.048	-0.282
-199.319	291.791	-0.227	0.413
-198.304	800.000	-0.030	0.126
-197.290	800.000	-0.082	-0.346
-196.275	-2.203	0.222	0.155
-195.260	-152.638	0.059	-0.004
-194.246	426.467	-0.058	-0.125
-193.231	-200.000	-0.025	-0.174
-192.217	-200.000	0.041	-0.201
-191.202	47.264	0.061	-0.056
-190.187	-147.303	0.162	-0.014
-189.173	-200.000	0.034	-0.165
-188.158	-93.331	0.445	-0.123
-187.144	-138.546	-0.242	0.027
-186.129	-200.000	0.004	-0.279
-185.114	-151.389	0.275	0.020
-184.100	302.723	0.087	0.162
-183.085	-30.433	0.098	-0.056
-182.071	-6.067	0.141	-0.096
-181.056	-121.297	-0.350	-0.058
-180.042	-0.983	0.314	0.222
-179.027	-60.746	-0.204	0.087
-178.012	532.621	-0.064	0.152
-176.998	-60.078	-0.076	-0.032
-175.983	-73.338	0.289	0.105
-174.969	-112.307	-0.200	-0.040
-173.954	195.225	-0.068	0.104
-172.939	-77.586	-0.218	-0.075
-171.925	-200.000	-0.050	-0.285
-170.910	356.775	-0.096	0.191
-169.896	-159.968	-0.339	0.019
-168.881	-128.453	0.214	-0.030
-167.866	-160.237	0.174	-0.009
-166.852	474.560	-0.149	-0.337
-165.837	-200.000	-0.077	-0.354
-164.823	287.464	0.055	0.099
-163.808	555.155	0.063	-0.151
-162.793	-51.311	0.187	-0.088
-161.779	317.967	-0.107	-0.202
-160.764	800.000	0.112	0.361
-159.750	-200.000	0.032	0.273
-158.735	51.971	-0.283	-0.269
-157.720	-38.668	0.172	0.091
-156.706	589.177	0.132	-0.326
-155.691	-164.919	-0.468	0.021
-154.677	161.900	0.267	0.374
-153.662	418.938	0.095	-0.203
-152.647	160.493	0.110	0.154
-151.633	-44.956	-0.256	0.127
-150.618	-139.843	0.531	0.056
-149.604	800.000	0.165	-0.509
-148.589	138.696	0.129	-0.169
-147.574	-45.372	0.172	-0.085
-146.560	800.000	-0.088	-0.344
-145.545	-100.450	0.444	0.110
-144.531	331.533	0.139	0.267
-143.516	216.733	-0.075	0.120
-142.502	172.007	-0.080	-0.114
-141.487	-105.830	-0.288	0.065
-140.472	800.000	0.065	0.228
-139.458	227.444	0.052	0.084
-138.443	-200.000	-0.011	0.119
-137.429	800.000	0.036	0.131
-136.414	66.142	0.118	-0.119
-135.399	759.454	0.082	0.221
-134.385	44.061	0.198	-0.181
-133.370	-200.000	-0.001	0.055
-132.356	462.650	0.094	0.210
-131.341	34.801	-0.208	0.181
-130.326	55.554	0.053	-0.051
-129.312	-88.238	-0.422	-0.126
-128.297	-200.000	-0.014	0.068
-127.283	239.764	0.251	-0.416
-126.268	-120.077	0.324	-0.055
-125.253	-91.923	0.299	0.085
-124.239	800.000	-0.117	0.448
-123.224	-111.676	0.258	-0.052
-122.210	744.510	-0.008	-0.022
-121.195	-200.000	-0.002	-0.078
