DTS Sentinel unit serial number:	SN413079Multiplexer serial number:	ORYXHardware model number:	OX4-SRSoftware version number:	ORYX F/W v4.00 Oryx Data Collector v3.7.2.0data status	okinstallation	princeton_trtdifferential loss correction	single-endedforward channel	channel 3reverse channel	N/Adate	2019/09/18time	13:44:35forward acquisition time	60.00reverse acquisition time	0.00gamma	496.2192k internal	0.2311k external	0.2311temperature offset calibration	0.9972default loss term (dB/km)	0.3790temperature slope calibration	1.0000multiplexer offset coefficient	1.0000multiplexer slope coefficient	1.0000fibre end	0.00T internal ref (°C)	34.48T ext. ref 1 (°C)	0.64T ext. ref 2 (°C)	30.04length (m)	temperature (°C)	Stokes	anti-Stokes-747.200	-145.597	-0.286	-0.026
-746.185	-8.084	-0.128	-0.088
-745.171	18.124	-0.243	0.197
-744.156	212.647	-0.076	0.121
-743.142	800.000	-0.079	0.238
-742.127	800.000	-0.096	0.328
-741.112	298.671	0.179	0.334
-740.098	148.638	-0.063	-0.086
-739.083	124.541	-0.201	0.257
-738.069	-46.776	-0.458	0.228
-737.054	-72.658	-0.262	0.098
-736.039	-97.357	-0.273	-0.072
-735.025	-18.491	-0.049	-0.031
-734.010	148.482	-0.189	-0.258
-732.996	-200.000	0.061	-0.343
-731.981	-4.224	0.140	0.098
-730.966	247.275	0.032	-0.055
-729.952	70.244	-0.292	-0.306
-728.937	-99.218	0.028	-0.007
-727.923	91.506	-0.089	-0.101
-726.908	-52.923	-0.467	-0.218
-725.894	105.163	-0.263	-0.315
-724.879	0.848	0.240	-0.175
-723.864	135.139	-0.167	0.220
-722.850	800.000	0.120	0.387
-721.835	-150.305	-0.161	-0.013
-720.821	-177.990	0.301	0.007
-719.806	-25.777	-0.427	-0.255
-718.791	344.048	-0.080	0.158
-717.777	9.349	0.124	-0.095
-716.762	-106.148	0.258	-0.059
-715.748	61.719	-0.241	-0.244
-714.733	-62.354	-0.293	0.124
-713.718	64.967	-0.191	0.195
-712.704	-200.000	-0.033	-0.187
-711.689	-82.163	-0.143	0.047
-710.675	511.493	0.099	0.234
-709.660	-200.000	0.005	0.310
-708.645	31.228	0.381	0.331
-707.631	101.261	0.170	0.201
-706.616	-200.000	-0.037	-0.327
-705.602	-200.000	-0.015	0.083
-704.587	127.274	0.097	-0.125
-703.572	-62.307	0.093	0.039
-702.558	-147.284	0.102	0.009
-701.543	301.292	0.155	-0.289
-700.529	119.735	0.239	-0.300
-699.514	111.845	-0.091	0.111
-698.499	-13.426	-0.341	-0.224
-697.485	294.035	0.036	-0.066
-696.470	800.000	0.068	0.195
-695.456	-16.777	0.193	-0.123
-694.441	-69.043	0.212	-0.083
-693.426	-80.276	-0.358	0.121
-692.412	-96.560	-0.247	-0.066
-691.397	-200.000	0.019	0.303
-690.383	197.037	0.230	0.355
-689.368	-65.200	-0.362	0.148
-688.354	42.903	0.101	0.093
-687.339	156.169	0.217	0.304
-686.324	-59.813	-0.170	0.074
-685.310	-57.066	-0.344	-0.153
-684.295	-143.963	0.441	0.042
-683.281	258.873	-0.059	-0.103
-682.266	-89.807	0.068	0.020
-681.251	-49.589	-0.268	-0.129
-680.237	-200.000	-0.022	0.115
-679.222	-200.000	-0.062	0.389
-678.208	-77.638	0.034	-0.012
-677.193	582.222	-0.033	0.083
-676.178	-169.785	-0.293	0.011
-675.164	800.000	0.058	0.210
-674.149	-103.754	-0.137	0.033
-673.135	-142.336	0.117	-0.012
-672.120	91.790	0.112	-0.128
-671.105	-137.996	-0.306	-0.035
-670.091	-82.837	-0.101	0.033
-669.076	74.633	0.114	-0.122
-668.062	-200.000	-0.062	-0.279
-667.047	-200.000	-0.002	0.076
-666.032	13.186	0.267	0.209
-665.018	-169.130	0.316	-0.012
-664.003	-25.697	0.243	-0.145
-662.989	-200.000	-0.019	0.097
-661.974	800.000	-0.106	-0.298
-660.959	-200.000	-0.039	0.362
-659.945	-66.920	0.292	0.117
-658.930	-61.885	0.222	-0.094
-657.916	-200.000	0.005	-0.092
-656.901	-21.709	0.277	-0.171
-655.886	800.000	0.013	-0.052
-654.872	47.448	-0.185	-0.175
-653.857	25.525	-0.230	-0.193
-652.843	-17.074	-0.115	-0.073
-651.828	-120.310	-0.514	0.089
-650.814	-92.151	0.236	0.067
-649.799	536.861	-0.012	0.029
-648.784	578.277	-0.045	-0.112
-647.770	155.320	-0.189	-0.263
-646.755	113.319	0.114	0.140
-645.741	800.000	-0.010	-0.039
-644.726	-200.000	0.026	-0.182
-643.711	377.511	0.124	0.256
-642.697	-26.699	0.176	-0.104
-641.682	89.151	-0.098	-0.110
-640.668	226.830	0.136	-0.224
-639.653	-180.261	-0.287	-0.006
-638.638	336.571	0.016	-0.031
-637.624	111.594	0.107	0.131
-636.609	18.644	0.267	0.216
-635.595	-200.000	0.007	-0.111
-634.580	237.291	-0.151	-0.252
-633.565	-97.060	-0.265	0.070
-632.551	800.000	-0.094	-0.276
-631.536	-200.000	0.021	-0.319
-630.522	-200.000	-0.036	-0.265
-629.507	120.301	0.136	-0.171
-628.492	-200.000	-0.086	-0.475
-627.478	-200.000	0.002	-0.234
-626.463	-107.895	0.116	-0.026
-625.449	-62.971	-0.160	0.067
-624.434	-115.738	0.165	-0.031
-623.419	-200.000	-0.030	0.430
-622.405	800.000	0.046	-0.157
-621.390	-154.386	-0.096	-0.007
-620.376	-92.101	-0.206	-0.059
-619.361	-20.210	-0.254	0.158
-618.346	68.573	0.368	-0.382
-617.332	-61.999	-0.119	-0.050
-616.317	345.458	-0.041	-0.081
-615.303	-53.585	0.191	0.088
-614.288	-42.337	-0.155	-0.080
-613.273	-200.000	0.027	0.214
-612.259	74.873	-0.191	-0.203
-611.244	-200.000	0.039	-0.187
-610.230	-89.626	-0.354	0.105
-609.215	106.740	0.236	0.283
-608.201	466.231	0.073	-0.164
-607.186	-200.000	0.004	-0.273
-606.171	-118.920	-0.267	0.047
-605.157	755.754	-0.013	-0.036
-604.142	24.785	0.104	-0.087
-603.128	-28.238	0.405	-0.236
-602.113	570.699	0.094	-0.230
-601.098	-200.000	0.011	0.147
-600.084	-25.809	0.037	-0.022
-599.069	800.000	-0.164	0.489
-598.055	242.421	-0.059	-0.100
-597.040	-200.000	-0.028	-0.174
-596.025	141.962	0.304	-0.406
-595.011	-200.000	-0.041	-0.271
-593.996	-52.259	0.133	0.062
-592.982	-200.000	0.025	0.217
-591.967	-200.000	0.017	0.104
-590.952	16.818	0.300	0.240
-589.938	-181.302	0.463	0.009
-588.923	-33.066	-0.286	0.160
-587.909	-42.186	-0.150	0.077
-586.894	249.348	-0.295	-0.504
-585.879	-38.379	0.083	-0.044
-584.865	143.978	-0.065	-0.088
-583.850	-126.095	0.457	0.069
-582.836	-96.829	0.173	-0.046
-581.821	-159.989	-0.173	0.010
-580.806	69.818	-0.181	0.189
-579.792	-200.000	-0.036	-0.254
-578.777	48.073	0.245	-0.231
-577.763	-165.888	-0.206	0.009
-576.748	297.403	-0.075	-0.139
-575.733	200.472	-0.242	-0.376
-574.719	-84.814	0.039	0.012
-573.704	120.644	-0.080	-0.100
-572.690	-3.272	-0.162	-0.114
-571.675	-200.000	-0.001	-0.044
-570.661	-129.278	0.224	0.031
-569.646	56.142	-0.078	0.076
-568.631	800.000	0.067	0.190
-567.617	787.454	0.129	-0.358
-566.602	-82.108	-0.044	0.014
-565.588	-117.725	0.088	-0.016
-564.573	800.000	0.025	-0.077
-563.558	71.964	-0.194	0.204
-562.544	-73.058	-0.107	-0.039
-561.529	-159.782	0.078	0.004
-560.515	203.066	0.078	-0.121
-559.500	100.325	-0.291	0.341
-558.485	-80.379	-0.284	-0.096
-557.471	79.465	0.170	-0.184
-556.456	-161.065	-0.315	-0.017
-555.442	-15.369	0.252	-0.162
-554.427	10.380	0.064	-0.049
-553.412	-200.000	-0.018	-0.194
-552.398	-111.243	0.276	0.057
-551.383	-143.881	0.183	0.017
-550.369	800.000	0.054	0.187
-549.354	-110.275	-0.192	0.040
-548.339	-113.615	-0.038	-0.008
-547.325	-149.114	0.215	-0.017
-546.310	6.131	0.012	0.009
-545.296	303.888	0.018	-0.034
-544.281	114.275	0.083	0.102
-543.266	116.293	-0.162	0.200
-542.252	-22.800	0.058	0.035
-541.237	29.343	-0.281	0.240
-540.223	377.777	0.052	0.108
-539.208	87.545	0.121	-0.135
-538.193	78.209	-0.180	-0.194
-537.179	314.330	-0.195	-0.370
-536.164	11.294	0.169	0.130
-535.150	119.115	-0.094	-0.117
-534.135	-96.686	-0.155	0.041
-533.121	-200.000	-0.019	-0.271
-532.106	1.680	0.080	-0.058
-531.091	-113.730	0.139	0.027
-530.077	1.349	-0.123	0.089
-529.062	800.000	0.065	0.255
-528.048	-148.441	0.160	0.013
-527.033	-73.615	-0.177	0.065
-526.018	-114.225	0.221	-0.043
-525.004	260.950	0.078	-0.135
-523.989	13.835	-0.132	-0.103
-522.975	105.891	-0.322	0.384
-521.960	-66.812	-0.124	0.049
-520.945	-180.527	-0.421	-0.009
-519.931	-101.944	-0.148	0.036
-518.916	82.191	0.121	0.132
-517.902	40.921	0.068	-0.062
-516.887	-9.941	-0.125	-0.084
-515.872	303.167	-0.087	0.162
-514.858	71.580	-0.082	0.086
-513.843	16.702	0.079	0.063
-512.829	800.000	-0.045	-0.171
-511.814	642.693	-0.061	-0.157
-510.799	7.493	-0.219	-0.165
-509.785	-87.285	0.349	-0.106
-508.770	-143.245	0.338	-0.033
-507.756	189.928	0.091	-0.138
-506.741	-135.522	0.307	-0.037
-505.726	-200.000	-0.008	-0.189
-504.712	-200.000	0.045	-0.336
-503.697	-21.167	0.324	-0.200
-502.683	208.478	0.061	-0.096
-501.668	17.633	-0.119	0.095
-500.653	48.115	0.070	-0.066
-499.639	-39.554	0.089	0.047
-498.624	-159.539	-0.396	0.022
-497.610	800.000	0.050	0.142
-496.595	440.676	0.144	0.318
-495.581	138.722	0.111	-0.146
-494.566	743.581	-0.135	-0.364
-493.551	328.600	-0.203	0.392
-492.537	-119.037	0.205	-0.036
-491.522	800.000	0.029	0.103
-490.508	-18.400	0.138	-0.087
-489.493	10.453	-0.176	0.135
-488.478	42.946	-0.189	-0.173
-487.464	800.000	-0.056	-0.174
-486.449	-200.000	0.027	-0.151
-485.435	-78.960	0.318	0.109
-484.420	321.052	0.151	0.288
-483.405	-45.901	-0.205	-0.102
-482.391	118.891	0.138	-0.171
-481.376	-25.424	0.361	0.215
-480.362	82.507	0.196	0.214
-479.347	-150.106	-0.283	-0.022
-478.332	158.477	0.170	-0.237
-477.318	162.650	0.243	-0.342
-476.303	-46.519	-0.307	-0.151
-475.289	800.000	-0.062	-0.186
-474.274	73.559	-0.065	0.069
-473.259	723.356	-0.134	0.358
-472.245	-18.667	-0.216	0.135
-471.230	194.326	-0.164	-0.250
-470.216	-6.081	-0.365	-0.251
-469.201	-192.063	-0.214	-0.002
-468.186	94.405	-0.064	-0.073
-467.172	-89.204	0.113	0.033
-466.157	800.000	-0.035	0.123
-465.143	73.031	-0.153	0.161
-464.128	42.765	0.274	-0.250
-463.113	4.334	-0.134	-0.099
-462.099	229.881	0.154	0.252
-461.084	135.079	0.076	0.100
-460.070	-49.885	-0.178	0.085
-459.055	150.016	-0.235	0.320
-458.040	-38.454	-0.248	-0.132
-457.026	356.839	-0.133	-0.267
-456.011	-58.701	0.039	-0.017
-454.997	30.850	0.073	-0.063
-453.982	10.522	-0.277	-0.212
-452.968	-18.584	0.052	-0.032
-451.953	41.037	0.076	0.069
-450.938	108.932	0.096	-0.115
-449.924	-14.830	-0.028	0.018
-448.909	-63.575	0.034	-0.014
-447.895	800.000	0.021	-0.091
-446.880	-78.243	-0.099	-0.034
-445.865	511.615	0.088	0.205
-444.851	559.536	-0.104	-0.252
-443.836	145.390	0.078	-0.104
-442.822	149.991	0.100	-0.136
-441.807	-200.000	-0.000	-0.311
-440.792	-15.142	-0.223	-0.143
-439.778	-38.918	0.105	0.055
-438.763	204.760	-0.105	-0.164
-437.749	-41.710	-0.127	-0.065
-436.734	-200.000	-0.087	0.000
-435.719	-145.505	-0.269	0.024
-434.705	64.676	-0.128	0.129
-433.690	-200.000	0.030	-0.200
-432.676	-200.000	-0.023	0.247
-431.661	-43.617	-0.237	-0.120
-430.646	211.261	-0.058	-0.092
-429.632	-115.371	0.209	0.039
-428.617	160.971	-0.196	-0.274
-427.603	-127.324	0.223	0.033
-426.588	-117.299	0.379	0.069
-425.573	-200.000	0.006	0.111
-424.559	-82.837	-0.152	0.049
-423.544	449.582	0.112	0.247
-422.530	200.990	-0.040	-0.062
-421.515	800.000	-0.145	0.430
-420.500	370.970	-0.332	0.675
-419.486	5.525	0.262	0.194
-418.471	55.696	0.109	-0.106
-417.457	5.295	-0.150	0.111
-416.442	-143.298	0.208	0.020
-415.428	126.882	0.228	0.290
-414.413	28.488	-0.167	-0.141
-413.398	166.149	-0.192	-0.272
-412.384	82.733	0.118	-0.129
-411.369	130.370	-0.245	0.315
-410.355	97.278	-0.018	-0.020
-409.340	37.628	-0.202	-0.179
-408.325	-12.468	0.166	-0.109
-407.311	-200.000	-0.000	-0.183
-406.296	800.000	-0.086	-0.256
-405.282	136.226	-0.207	0.271
-404.267	216.096	0.020	0.032
-403.252	-200.000	0.049	0.285
-402.238	-200.000	0.029	0.282
-401.223	-11.234	0.231	0.153
-400.209	68.203	0.281	0.289
-399.194	217.318	0.073	0.117
-398.179	-158.989	-0.191	0.011
-397.165	111.941	-0.184	0.223
-396.150	649.908	-0.116	-0.296
-395.136	-200.000	-0.022	-0.230
-394.121	-37.205	-0.258	0.138
-393.106	-66.281	-0.185	0.074
-392.092	690.391	0.088	0.230
-391.077	214.719	-0.114	-0.181
-390.063	38.158	-0.065	-0.058
-389.048	-200.000	-0.006	0.194
-388.033	-104.018	-0.352	-0.082
-387.019	-103.449	0.061	0.014
-386.004	-167.055	0.193	0.008
-384.990	-97.703	-0.057	0.015
-383.975	401.359	-0.072	0.150
-382.960	-29.417	-0.038	-0.022
-381.946	-99.297	0.377	-0.095
-380.931	-63.703	0.205	0.084
-379.917	9.734	-0.206	-0.157
-378.902	402.106	-0.161	0.338
-377.888	630.214	-0.212	-0.536
-376.873	734.762	-0.079	0.211
-375.858	-200.000	-0.018	0.092
-374.844	-200.000	0.018	0.107
-373.829	22.814	0.499	0.409
-372.815	78.732	-0.213	0.228
-371.800	-66.964	-0.156	0.062
-370.785	61.529	0.220	0.219
-369.771	800.000	0.042	0.119
-368.756	-57.143	0.149	-0.066
-367.742	-186.409	-0.175	-0.003
-366.727	41.630	0.179	0.162
-365.712	-69.323	0.124	0.048
-364.698	-200.000	-0.025	-0.113
-363.683	800.000	0.053	0.172
-362.669	-147.119	0.179	0.015
-361.654	14.593	-0.202	0.158
-360.639	-145.874	-0.122	-0.011
-359.625	-200.000	0.011	-0.123
-358.610	623.317	0.104	-0.261
-357.596	-23.856	0.277	0.166
-356.581	-33.432	0.285	-0.157
-355.566	45.563	0.202	0.187
-354.552	-53.707	0.265	0.121
-353.537	-67.080	0.303	-0.120
-352.523	157.152	-0.115	-0.160
-351.508	253.976	0.086	0.147
-350.493	609.066	-0.068	-0.169
-349.479	316.337	-0.082	-0.155
-348.464	800.000	-0.093	0.286
-347.450	-4.330	-0.447	-0.309
-346.435	-180.969	-0.081	-0.002
-345.420	-49.662	0.185	0.088
-344.406	-32.502	0.039	-0.022
-343.391	-145.134	0.154	-0.014
-342.377	800.000	0.006	0.025
-341.362	94.592	0.228	-0.259
-340.348	-200.000	0.018	-0.140
-339.333	-46.169	-0.220	0.108
-338.318	287.292	-0.068	0.123
-337.304	296.379	-0.070	-0.128
-336.289	-125.469	-0.252	-0.038
-335.275	1.566	-0.245	0.176
-334.260	31.235	0.041	-0.035
-333.245	-111.923	0.074	0.015
-332.231	48.869	0.107	0.100
-331.216	-149.363	-0.256	0.020
-330.202	-200.000	-0.015	0.123
-329.187	-81.276	0.122	-0.040
-328.172	-68.132	-0.086	0.034
-327.158	771.833	-0.054	0.147
-326.143	-107.645	0.244	0.053
-325.129	-200.000	-0.001	0.041
-324.114	-200.000	0.024	0.246
-323.099	108.354	0.139	0.165
-322.085	246.388	0.122	-0.205
-321.070	-87.052	0.334	-0.102
-320.056	-144.523	-0.230	-0.021
-319.041	102.601	0.098	0.114
-318.026	-47.291	0.248	-0.121
-317.012	205.356	0.142	-0.221
-315.997	-45.759	0.352	-0.174
-314.983	-200.000	0.013	-0.104
-313.968	71.137	-0.131	0.136
-312.953	137.162	-0.021	-0.027
-311.939	-40.928	-0.209	-0.108
-310.924	36.539	0.016	-0.014
-309.910	274.047	-0.184	-0.325
-308.895	-37.166	0.243	-0.130
-307.880	800.000	0.158	0.451
-306.866	185.150	0.185	0.274
-305.851	-200.000	0.007	0.171
-304.837	-200.000	0.027	-0.259
-303.822	-65.936	0.080	-0.032
-302.807	192.174	-0.270	0.407
-301.793	800.000	0.103	-0.309
-300.778	9.596	0.085	-0.064
-299.764	-92.567	-0.395	0.111
-298.749	-158.870	0.271	-0.015
-297.735	14.342	0.355	-0.276
-296.720	148.463	-0.215	-0.290
-295.705	-36.499	-0.177	0.095
-294.691	-200.000	0.019	0.109
-293.676	-110.787	0.113	-0.023
-292.662	90.632	-0.266	0.297
-291.647	-5.755	0.151	-0.103
-290.632	63.515	0.149	0.149
-289.618	1.462	-0.172	0.123
-288.603	475.282	-0.026	-0.058
-287.589	116.041	0.197	-0.240
-286.574	63.853	0.124	-0.124
-285.559	-200.000	0.015	0.341
-284.545	800.000	-0.054	-0.208
-283.530	800.000	0.064	-0.259
-282.516	54.414	-0.030	-0.029
-281.501	432.723	-0.128	0.277
-280.486	-200.000	-0.051	0.357
-279.472	-200.000	0.061	0.288
-278.457	20.761	0.298	-0.241
-277.443	800.000	-0.064	-0.257
-276.428	800.000	-0.010	-0.028
-275.413	800.000	0.037	0.148
-274.399	120.743	0.152	0.188
-273.384	35.895	-0.243	0.213
-272.370	-82.616	0.053	-0.017
-271.355	-105.882	-0.277	0.062
-270.340	800.000	-0.082	0.296
-269.326	800.000	0.044	0.161
-268.311	26.084	-0.212	-0.176
-267.297	-37.467	0.303	-0.161
-266.282	478.201	-0.068	0.153
-265.267	-200.000	0.004	0.164
-264.253	-200.000	-0.009	-0.208
-263.238	-200.000	0.003	-0.046
-262.224	-57.920	-0.315	-0.137
-261.209	412.469	0.119	-0.253
-260.195	800.000	-0.036	-0.113
-259.180	-3.397	0.111	0.077
-258.165	-49.985	-0.212	0.100
-257.151	99.392	0.087	0.100
-256.136	57.838	-0.128	0.125
-255.122	-65.197	-0.362	-0.145
-254.107	142.547	0.095	0.125
-253.092	-67.836	-0.019	0.007
-252.078	-200.000	-0.011	0.179
-251.063	-200.000	0.074	0.333
-250.049	156.249	-0.073	0.101
-249.034	3.579	0.177	0.129
-248.019	800.000	0.050	0.172
-247.005	-200.000	-0.015	-0.250
-245.990	-86.528	-0.247	0.075
-244.976	800.000	-0.040	-0.144
-243.961	-140.416	-0.330	0.034
-242.946	800.000	0.058	0.173
-241.932	-84.486	0.160	-0.050
-240.917	-173.900	-0.222	-0.007
-239.903	162.856	-0.069	0.097
-238.888	287.842	0.088	0.158
-237.873	187.854	0.100	0.148
-236.859	688.864	0.017	0.044
-235.844	-200.000	0.011	0.067
-234.830	97.074	0.049	-0.056
-233.815	-5.561	0.247	-0.168
-232.800	-111.528	-0.232	-0.047
-231.786	-4.768	0.108	0.074
-230.771	364.418	-0.064	0.128
-229.757	800.000	0.085	-0.253
-228.742	434.198	0.065	0.141
-227.727	58.216	0.198	-0.194
-226.713	-100.691	-0.191	0.047
-225.698	-200.000	0.005	-0.231
-224.684	800.000	0.061	0.257
-223.669	-94.245	0.155	-0.042
-222.655	204.644	0.059	0.092
-221.640	-200.000	0.030	0.432
-220.625	800.000	-0.071	-0.219
-219.611	447.181	-0.048	-0.105
-218.596	195.300	0.264	0.399
-217.582	128.184	-0.136	0.172
-216.567	800.000	0.062	0.175
-215.552	151.327	0.098	-0.133
-214.538	72.218	-0.136	-0.141
-213.523	-200.000	0.025	-0.125
-212.509	-200.000	-0.018	-0.087
-211.494	-200.000	0.052	0.288
-210.479	64.007	0.133	-0.133
-209.465	800.000	0.118	-0.463
-208.450	-148.603	-0.480	-0.039
-207.436	-53.046	0.128	-0.059
-206.421	-63.190	-0.058	0.024
-205.406	1.768	-0.059	-0.042
-204.392	-139.814	0.163	-0.017
-203.377	-200.000	0.021	-0.230
-202.363	-112.606	-0.190	0.038
-201.348	-164.348	0.323	0.015
-200.333	-200.000	-0.009	-0.206
-199.319	-97.030	0.218	0.057
-198.304	-5.871	-0.131	0.089
-197.290	598.355	0.110	0.272
-196.275	-200.000	0.043	0.314
-195.260	176.500	-0.088	0.126
-194.246	127.448	0.142	0.179
-193.231	800.000	0.027	0.101
-192.217	-200.000	-0.029	0.439
-191.202	-41.459	0.163	-0.083
-190.187	-15.844	0.076	0.048
-189.173	-200.000	0.017	-0.315
-188.158	118.161	0.332	0.407
-187.144	-17.755	0.298	0.186
-186.129	-62.069	-0.248	-0.103
-185.114	-200.000	0.004	-0.119
-184.100	3.052	0.227	-0.164
-183.085	29.203	-0.105	-0.089
-182.071	800.000	0.043	0.173
-181.056	189.885	-0.091	-0.135
-180.042	-119.790	-0.266	-0.046
-179.027	-3.767	-0.222	0.153
-178.012	-30.338	0.189	-0.106
-176.998	7.010	0.130	0.096
-175.983	-59.432	0.399	0.170
-174.969	-24.207	-0.119	-0.071
-173.954	-105.055	0.425	0.097
-172.939	171.824	-0.054	-0.077
-171.925	479.202	0.221	0.497
-170.910	-200.000	-0.025	0.230
-169.896	-128.309	-0.235	0.033
-168.881	658.036	0.029	-0.074
-167.866	5.375	-0.217	-0.159
-166.852	-45.063	0.158	-0.078
-165.837	-126.799	0.131	-0.019
-164.823	503.564	-0.069	0.159
-163.808	-180.479	0.138	0.003
-162.793	-65.409	-0.082	0.033
-161.779	189.229	0.139	0.207
-160.764	198.081	-0.174	-0.264
-159.750	-21.919	0.204	0.123
-158.735	230.063	-0.055	0.089
-157.720	-71.610	-0.432	-0.160
-156.706	-3.011	-0.072	-0.050
-155.691	150.152	-0.149	0.200
-154.677	1.184	0.087	0.062
-153.662	-200.000	0.041	-0.212
-152.647	415.112	-0.041	-0.086
-151.633	-22.481	-0.223	0.134
-150.618	800.000	0.071	-0.251
-149.604	-182.194	0.160	0.003
-148.589	-18.886	-0.147	0.091
-147.574	648.180	0.254	0.645
-146.560	156.846	0.018	0.025
-145.545	-152.441	0.052	0.004
-144.531	295.155	-0.144	-0.262
-143.516	-200.000	0.052	0.409
-142.502	800.000	-0.063	0.188
-141.487	264.897	0.182	0.314
-140.472	110.057	0.091	0.109
-139.458	-200.000	0.072	0.488
-138.443	-200.000	0.041	0.305
-137.429	597.854	-0.128	0.315
-136.414	183.842	-0.160	-0.235
-135.399	432.812	-0.158	-0.340
-134.385	-117.411	0.287	0.052
-133.370	-200.000	-0.084	-0.460
-132.356	32.146	-0.206	-0.176
-131.341	-68.284	0.198	-0.076
-130.326	133.008	0.074	-0.094
-129.312	-88.918	-0.248	0.073
-128.297	800.000	-0.081	0.283
-127.283	-56.139	-0.223	-0.098
-126.268	-200.000	-0.012	0.205
-125.253	261.577	0.122	0.209
-124.239	-200.000	-0.008	0.204
-123.224	483.387	-0.139	0.314
-122.210	33.413	0.220	0.189
-121.195	-106.032	0.132	-0.029
-120.180	-175.535	0.287	-0.008
