DTS Sentinel unit serial number:	SN413079Multiplexer serial number:	ORYXHardware model number:	OX4-SRSoftware version number:	ORYX F/W v4.00 Oryx Data Collector v3.7.2.0data status	okinstallation	princeton_trtdifferential loss correction	single-endedforward channel	channel 3reverse channel	N/Adate	2019/09/19time	06:40:35forward acquisition time	60.00reverse acquisition time	0.00gamma	496.2192k internal	0.2348k external	0.2348temperature offset calibration	0.9991default loss term (dB/km)	0.3790temperature slope calibration	1.0000multiplexer offset coefficient	1.0000multiplexer slope coefficient	1.0000fibre end	0.00T internal ref (°C)	19.00T ext. ref 1 (°C)	0.57T ext. ref 2 (°C)	12.79length (m)	temperature (°C)	Stokes	anti-Stokes-747.200	-121.626	0.210	0.035
-746.185	-44.512	-0.118	-0.059
-745.171	523.087	-0.094	0.222
-744.156	172.833	-0.135	-0.194
-743.142	143.997	0.024	-0.031
-742.127	55.192	-0.141	0.136
-741.112	800.000	-0.018	-0.075
-740.098	354.119	0.046	0.091
-739.083	-71.387	-0.292	0.109
-738.069	10.953	-0.305	0.233
-737.054	84.032	0.106	0.116
-736.039	-68.850	-0.134	-0.052
-735.025	-108.508	0.349	-0.075
-734.010	71.494	0.071	-0.073
-732.996	341.927	-0.116	-0.226
-731.981	-18.805	-0.187	-0.116
-730.966	19.365	-0.089	-0.071
-729.952	-90.978	-0.493	0.142
-728.937	57.958	-0.111	-0.109
-727.923	800.000	-0.058	0.226
-726.908	-88.866	-0.334	-0.099
-725.894	-79.192	-0.107	0.036
-724.879	-200.000	0.027	-0.227
-723.864	-69.520	-0.158	0.060
-722.850	-123.867	-0.398	-0.063
-721.835	10.205	0.172	-0.131
-720.821	-72.082	0.274	0.101
-719.806	89.678	0.075	-0.084
-718.791	800.000	-0.075	0.230
-717.777	-13.680	0.073	-0.047
-716.762	-37.526	-0.264	0.141
-715.748	-99.529	0.113	-0.028
-714.733	-200.000	-0.006	-0.144
-713.718	231.087	0.088	0.144
-712.704	-54.765	-0.389	-0.175
-711.689	12.284	0.288	0.222
-710.675	2.228	0.166	0.119
-709.660	230.045	0.161	0.262
-708.645	800.000	0.035	0.098
-707.631	525.755	0.046	0.109
-706.616	-97.962	0.334	-0.086
-705.602	-52.825	-0.315	-0.145
-704.587	-136.271	-0.180	-0.021
-703.572	-200.000	-0.048	-0.349
-702.558	258.515	0.174	-0.298
-701.543	-181.033	-0.435	0.009
-700.529	752.726	0.034	0.092
-699.514	619.903	0.206	0.516
-698.499	800.000	-0.130	0.400
-697.485	-20.214	-0.197	0.121
-696.470	73.344	-0.079	-0.082
-695.456	-108.343	-0.295	-0.063
-694.441	-200.000	0.020	0.346
-693.426	20.597	0.168	0.136
-692.412	535.203	0.097	0.229
-691.397	-116.330	-0.087	-0.016
-690.383	240.272	-0.074	-0.123
-689.368	751.374	0.026	0.069
-688.354	-13.167	0.120	0.078
-687.339	-200.000	-0.037	-0.246
-686.324	-131.854	-0.105	0.014
-685.310	800.000	0.048	0.137
-684.295	128.629	0.132	0.167
-683.281	421.123	-0.079	0.169
-682.266	-101.804	0.153	0.037
-681.251	48.265	-0.222	-0.207
-680.237	-200.000	0.004	-0.073
-679.222	-34.937	0.225	-0.122
-678.208	-18.675	0.150	0.093
-677.193	341.296	0.115	-0.224
-676.178	800.000	-0.088	-0.329
-675.164	139.417	-0.101	-0.132
-674.149	-200.000	0.005	0.039
-673.135	-67.360	-0.371	0.145
-672.120	18.228	-0.105	0.083
-671.105	-21.350	-0.315	-0.191
-670.091	184.201	0.060	-0.089
-669.076	-118.517	0.052	-0.009
-668.062	-46.015	-0.323	0.158
-667.047	-110.544	0.385	0.079
-666.032	101.797	0.112	0.130
-665.018	-84.164	-0.114	-0.036
-664.003	-131.969	0.264	-0.034
-662.989	90.890	0.170	-0.190
-661.974	-15.674	-0.234	-0.149
-660.959	-200.000	0.005	-0.049
-659.945	470.226	0.085	-0.191
-658.930	148.978	-0.226	0.304
-657.916	-99.219	0.228	-0.057
-656.901	-87.169	0.105	0.032
-655.886	-200.000	0.039	0.182
-654.872	-200.000	0.008	-0.316
-653.857	800.000	-0.040	0.119
-652.843	8.315	0.057	0.043
-651.828	-97.775	-0.217	0.056
-650.814	-200.000	0.002	0.035
-649.799	-86.926	-0.123	0.037
-648.784	117.430	-0.218	0.267
-647.770	-200.000	-0.015	-0.207
-646.755	-200.000	-0.067	0.321
-645.741	-200.000	-0.004	-0.153
-644.726	800.000	0.130	0.381
-643.711	-197.302	0.260	-0.002
-642.697	-109.908	0.246	0.051
-641.682	100.658	0.042	0.048
-640.668	-200.000	-0.050	0.318
-639.653	175.247	0.268	0.387
-638.638	48.791	-0.110	0.103
-637.624	19.505	-0.441	-0.353
-636.609	272.870	-0.081	-0.143
-635.595	480.366	-0.114	0.258
-634.580	75.398	-0.194	-0.204
-633.565	21.983	0.284	-0.230
-632.551	-111.217	0.061	-0.012
-631.536	87.374	-0.086	0.094
-630.522	-1.532	0.228	-0.160
-629.507	462.994	0.082	-0.182
-628.492	554.498	0.158	-0.379
-627.478	158.238	-0.112	-0.155
-626.463	-83.862	-0.174	0.055
-625.449	-73.922	0.177	0.064
-624.434	-69.051	0.208	0.080
-623.419	-64.595	0.277	0.112
-622.405	-24.371	0.293	0.174
-621.390	622.807	-0.070	-0.176
-620.376	-155.159	-0.138	0.009
-619.361	32.481	-0.284	0.244
-618.346	115.908	0.062	0.075
-617.332	-76.517	0.084	-0.029
-616.317	-41.765	0.490	-0.250
-615.303	28.361	0.086	0.073
-614.288	-91.385	-0.306	0.087
-613.273	158.389	0.203	-0.280
-612.259	142.894	-0.168	-0.221
-611.244	-125.240	0.140	-0.021
-610.230	-26.794	0.132	-0.077
-609.215	800.000	0.051	-0.190
-608.201	175.604	0.183	-0.264
-607.186	-68.278	0.101	-0.039
-606.171	-30.278	-0.178	-0.100
-605.157	-77.524	-0.208	-0.072
-604.142	-58.711	-0.216	0.093
-603.128	185.763	-0.046	0.068
-602.113	263.498	-0.045	0.078
-601.098	-200.000	0.007	-0.166
-600.084	-81.466	-0.296	-0.097
-599.069	-198.516	0.158	0.001
-598.055	800.000	0.072	-0.256
-597.040	-53.740	-0.102	-0.046
-596.025	19.019	0.026	-0.021
-595.011	-200.000	0.024	-0.540
-593.996	-7.580	0.426	-0.286
-592.982	431.220	-0.105	0.226
-591.967	432.006	0.017	-0.037
-590.952	800.000	-0.079	-0.284
-589.938	-158.422	-0.125	-0.007
-588.923	44.455	0.145	-0.133
-587.909	-34.315	-0.198	-0.108
-586.894	275.057	0.077	-0.135
-585.879	27.499	0.062	-0.052
-584.865	-200.000	-0.010	0.246
-583.850	694.774	-0.100	-0.260
-582.836	-73.823	-0.282	-0.102
-581.821	-48.502	0.211	0.101
-580.806	159.813	-0.159	0.220
-579.792	116.584	-0.277	0.337
-578.777	205.638	-0.060	-0.092
-577.763	-200.000	0.013	-0.401
-576.748	-26.406	-0.090	0.053
-575.733	581.541	0.163	0.397
-574.719	-200.000	-0.036	-0.254
-573.704	-49.797	0.152	0.072
-572.690	334.547	-0.280	0.538
-571.675	-119.014	0.126	-0.022
-570.661	-77.822	0.257	-0.088
-569.646	-52.713	-0.146	0.067
-568.631	-10.748	0.165	-0.108
-567.617	-62.234	0.067	0.028
-566.602	-70.587	0.119	0.045
-565.588	-200.000	-0.022	-0.095
-564.573	51.395	0.252	-0.237
-563.558	-114.352	0.292	0.056
-562.544	-146.874	-0.304	0.026
-561.529	-11.704	0.302	-0.197
-560.515	124.762	-0.272	-0.339
-559.500	396.347	-0.096	0.199
-558.485	-200.000	-0.017	-0.083
-557.471	-121.722	-0.206	-0.034
-556.456	-53.439	-0.333	-0.151
-555.442	-200.000	0.018	0.264
-554.427	546.329	-0.040	0.095
-553.412	-91.019	0.193	0.055
-552.398	86.487	0.268	-0.294
-551.383	-140.159	0.321	-0.033
-550.369	-134.356	-0.329	-0.040
-549.354	-200.000	0.010	-0.151
-548.339	34.819	0.162	0.141
-547.325	-25.377	-0.175	-0.103
-546.310	260.764	0.124	0.213
-545.296	-8.107	-0.245	0.163
-544.281	73.457	0.110	0.114
-543.266	-200.000	-0.041	-0.368
-542.252	800.000	0.018	0.072
-541.237	116.585	-0.035	0.043
-540.223	87.435	-0.071	-0.078
-539.208	772.804	-0.054	0.147
-538.193	-96.030	-0.223	-0.059
-537.179	-105.308	-0.220	-0.050
-536.164	-11.298	-0.345	0.225
-535.150	-107.990	-0.197	0.042
-534.135	21.568	0.338	0.273
-533.121	-200.000	0.042	0.207
-532.106	-200.000	-0.002	0.023
-531.091	572.090	0.037	-0.089
-530.077	385.027	0.034	0.069
-529.062	23.506	-0.213	0.173
-528.048	264.122	0.153	-0.264
-527.033	-200.000	0.002	-0.246
-526.018	-66.318	-0.465	0.183
-525.004	84.655	-0.285	-0.309
-523.989	398.816	0.080	0.166
-522.975	-126.959	0.218	-0.032
-521.960	295.039	-0.084	0.153
-520.945	-36.615	0.055	-0.029
-519.931	77.850	-0.212	0.223
-518.916	46.205	0.081	0.074
-517.902	544.403	0.216	0.510
-516.887	411.359	-0.051	0.108
-515.872	-42.450	0.467	-0.236
-514.858	37.924	-0.135	-0.119
-513.843	94.780	0.243	0.274
-512.829	-200.000	-0.014	0.230
-511.814	8.687	0.163	-0.121
-510.799	66.154	0.208	0.209
-509.785	-113.408	0.392	0.076
-508.770	-200.000	-0.064	-0.422
-507.756	-22.303	0.146	-0.088
-506.741	-80.664	0.257	0.084
-505.726	-200.000	0.006	-0.090
-504.712	665.404	0.044	-0.112
-503.697	-200.000	-0.006	0.182
-502.683	-200.000	-0.006	-0.222
-501.668	-185.004	-0.371	0.006
-500.653	-137.872	-0.294	-0.033
-499.639	-51.102	0.171	-0.079
-498.624	238.262	0.153	0.251
-497.610	39.767	-0.032	0.028
-496.595	-68.118	-0.392	-0.151
-495.581	-133.653	0.341	0.042
-494.566	800.000	-0.020	-0.057
-493.551	195.144	0.082	0.123
-492.537	-188.241	-0.087	-0.001
-491.522	-200.000	0.015	-0.509
-490.508	-36.097	-0.422	-0.226
-489.493	460.573	-0.042	0.092
-488.478	800.000	-0.058	0.224
-487.464	-200.000	-0.048	0.227
-486.449	713.785	0.072	-0.188
-485.435	800.000	-0.056	0.221
-484.420	-194.513	-0.139	-0.001
-483.405	50.748	-0.277	-0.259
-482.391	509.836	0.026	-0.060
-481.376	323.475	0.123	-0.231
-480.362	-109.940	-0.102	-0.021
-479.347	276.255	0.097	-0.170
-478.332	-100.289	0.207	0.051
-477.318	-20.418	-0.213	-0.130
-476.303	-65.837	0.234	0.092
-475.289	472.743	-0.056	0.125
-474.274	354.973	0.147	0.289
-473.259	48.900	0.093	0.086
-472.245	-93.729	-0.165	0.045
-471.230	19.203	-0.122	-0.097
-470.216	116.480	0.145	-0.176
-469.201	207.640	-0.215	-0.332
-468.186	251.303	-0.111	0.187
-467.172	-200.000	0.003	-0.079
-466.157	800.000	-0.146	-0.412
-465.143	-4.964	0.148	-0.101
-464.128	198.994	-0.079	0.119
-463.113	-18.736	-0.272	0.168
-462.099	-200.000	0.003	-0.176
-461.084	-2.846	-0.192	0.132
-460.070	1.781	0.138	-0.098
-459.055	357.060	-0.058	0.114
-458.040	-122.411	-0.009	-0.001
-457.026	-8.752	0.284	0.189
-456.011	-36.831	-0.073	-0.038
-454.997	-165.751	0.306	0.013
-453.982	-83.697	-0.114	0.036
-452.968	304.047	-0.134	-0.245
-451.953	178.782	0.110	-0.158
-450.938	-43.592	-0.251	0.125
-449.924	238.175	-0.084	-0.138
-448.909	-97.852	-0.116	-0.030
-447.895	-3.433	-0.042	0.029
-446.880	-200.000	0.005	-0.214
-445.865	-138.939	0.377	0.040
-444.851	-107.452	-0.330	-0.071
-443.836	-12.156	-0.154	0.100
-442.822	340.983	0.090	0.173
-441.807	340.183	-0.057	-0.109
-440.792	-54.022	0.109	0.049
-439.778	236.534	-0.139	-0.227
-438.763	-103.439	0.310	-0.072
-437.749	-70.383	-0.147	-0.055
-436.734	397.731	0.055	0.113
-435.719	-150.011	-0.038	0.003
-434.705	-200.000	0.030	-0.129
-433.690	163.961	-0.062	0.086
-432.676	78.794	-0.237	-0.250
-431.661	-8.212	0.175	0.116
-430.646	133.508	0.061	-0.078
-429.632	-200.000	0.007	-0.307
-428.617	409.261	-0.093	0.195
-427.603	-147.597	-0.214	0.018
-426.588	47.003	0.344	0.316
-425.573	737.586	0.056	0.147
-424.559	-14.309	0.206	0.131
-423.544	800.000	0.105	0.321
-422.530	-200.000	-0.023	0.346
-421.515	-4.356	0.223	-0.152
-420.500	800.000	-0.081	0.268
-419.486	-200.000	-0.016	0.227
-418.471	667.879	0.031	-0.079
-417.457	105.750	-0.101	-0.118
-416.442	-200.000	0.003	0.351
-415.428	-200.000	-0.028	-0.182
-414.413	-85.131	-0.116	0.036
-413.398	-105.258	-0.294	-0.066
-412.384	35.834	-0.124	-0.107
-411.369	-4.230	0.385	0.263
-410.355	-200.000	-0.005	0.432
-409.340	296.903	0.017	0.031
-408.325	800.000	0.033	0.135
-407.311	518.261	0.041	0.096
-406.296	800.000	-0.067	0.271
-405.282	78.626	0.219	0.231
-404.267	-162.928	-0.214	-0.010
-403.252	-138.162	0.192	0.021
-402.238	688.514	-0.176	0.454
-401.223	-10.188	0.071	0.047
-400.209	-153.725	-0.359	0.024
-399.194	-47.509	-0.171	-0.082
-398.179	460.108	0.140	0.308
-397.165	-83.355	-0.125	0.039
-396.150	-59.900	0.078	0.033
-395.136	-28.073	-0.038	-0.021
-394.121	-200.000	-0.008	-0.179
-393.106	431.924	0.052	-0.111
-392.092	-200.000	-0.066	-0.297
-391.077	-155.749	-0.255	-0.016
-390.063	-30.090	-0.323	-0.181
-389.048	-200.000	0.050	0.268
-388.033	54.036	0.150	0.142
-387.019	266.997	0.062	0.107
-386.004	-130.659	-0.083	-0.011
-384.990	438.619	0.117	0.252
-383.975	-60.536	0.115	0.048
-382.960	-200.000	-0.051	0.332
-381.946	-19.153	0.198	-0.121
-380.931	171.948	-0.151	0.214
-379.917	-29.002	-0.237	0.134
-378.902	329.027	0.068	0.128
-377.888	-200.000	0.015	0.089
-376.873	94.299	-0.146	0.163
-375.858	800.000	0.057	0.218
-374.844	-8.852	-0.042	0.028
-373.829	-200.000	0.004	0.036
-372.815	-66.725	0.083	0.032
-371.800	-45.448	-0.160	-0.078
-370.785	439.319	0.049	0.105
-369.771	-91.962	0.200	-0.056
-368.756	68.199	-0.313	-0.316
-367.742	-34.544	0.171	0.092
-366.727	800.000	-0.067	-0.251
-365.712	-160.931	-0.189	0.010
-364.698	95.979	0.067	0.075
-363.683	-40.498	-0.061	0.031
-362.669	-134.703	0.206	-0.025
-361.654	-45.407	0.069	-0.034
-360.639	80.123	-0.118	0.125
-359.625	100.369	-0.244	-0.279
-358.610	-200.000	-0.061	-0.425
-357.596	-93.225	0.120	0.033
-356.581	-189.700	-0.084	-0.001
-355.566	540.633	0.091	-0.213
-354.552	384.194	0.129	0.261
-353.537	-200.000	0.003	0.237
-352.523	800.000	-0.097	0.293
-351.508	66.686	0.295	0.296
-350.493	356.591	-0.078	0.153
-349.479	-22.468	0.185	-0.110
-348.464	-128.672	-0.255	0.035
-347.450	800.000	0.052	-0.210
-346.435	-94.519	0.369	-0.099
-345.420	-27.502	0.208	-0.119
-344.406	-28.948	0.444	-0.251
-343.391	194.727	0.117	-0.174
-342.377	626.037	0.051	0.125
-341.362	234.284	-0.082	0.133
-340.348	-200.000	-0.021	-0.208
-339.333	31.422	-0.180	0.152
-338.318	-83.800	0.470	0.147
-337.304	102.327	0.034	0.039
-336.289	800.000	0.044	-0.138
-335.275	-200.000	0.008	-0.078
-334.260	-161.398	0.165	0.008
-333.245	150.338	-0.059	-0.078
-332.231	323.912	0.147	0.276
-331.216	-61.677	-0.430	-0.177
-330.202	127.534	0.052	0.065
-329.187	400.144	-0.103	-0.211
-328.172	-95.279	-0.298	0.079
-327.158	-200.000	0.005	-0.032
-326.143	285.371	0.142	0.251
-325.129	-21.237	0.163	-0.098
-324.114	2.373	-0.189	-0.134
-323.099	-200.000	0.035	0.193
-322.085	91.151	-0.152	0.168
-321.070	77.239	0.239	-0.249
-320.056	-142.962	0.088	0.008
-319.041	272.154	0.131	0.226
-318.026	-200.000	-0.016	0.156
-317.012	380.559	0.096	0.193
-315.997	75.467	0.267	-0.277
-314.983	35.116	0.145	0.125
-313.968	-128.324	-0.353	0.049
-312.953	-168.040	0.286	0.011
-311.939	-200.000	0.052	-0.403
-310.924	142.594	-0.120	-0.156
-309.910	100.117	0.148	-0.169
-308.895	800.000	0.046	-0.153
-307.880	-68.239	0.239	-0.091
-306.866	710.028	0.128	-0.334
-305.851	440.030	0.093	-0.200
-304.837	18.173	-0.040	0.032
-303.822	42.794	-0.067	-0.060
-302.807	319.450	-0.161	-0.300
-301.793	136.284	-0.192	0.245
-300.778	-90.728	0.110	-0.031
-299.764	-64.613	0.262	-0.104
-298.749	505.954	-0.053	-0.120
-297.735	531.630	0.040	-0.093
-296.720	800.000	-0.073	0.217
-295.705	-81.867	0.023	-0.007
-294.691	-200.000	0.018	-0.315
-293.676	-145.581	-0.284	0.025
-292.662	-5.733	0.347	-0.233
-291.647	-24.636	-0.205	-0.119
-290.632	-200.000	-0.066	-0.370
-289.618	-113.349	0.104	0.020
-288.603	17.950	0.135	-0.106
-287.589	-52.694	0.075	-0.034
-286.574	-200.000	-0.005	-0.119
-285.559	16.671	0.119	-0.092
-284.545	-146.079	-0.103	0.009
-283.530	44.994	0.141	-0.127
-282.516	311.311	-0.085	-0.156
-281.501	265.533	-0.119	-0.203
-280.486	-200.000	-0.059	0.283
-279.472	-146.886	0.456	-0.038
-278.457	-56.705	0.108	0.047
-277.443	-77.892	0.258	0.087
-276.428	146.478	-0.153	-0.202
-275.413	-8.499	-0.094	-0.062
-274.399	225.464	-0.131	0.208
-273.384	-24.981	0.230	-0.134
-272.370	-200.000	-0.054	0.256
-271.355	800.000	-0.081	0.293
-270.340	-109.680	-0.244	0.050
-269.326	800.000	0.042	-0.147
-268.311	560.714	0.110	-0.261
-267.297	-173.512	0.244	0.007
-266.282	-200.000	0.049	0.594
-265.267	-200.000	0.023	0.248
-264.253	-177.012	-0.120	0.003
-263.238	0.088	-0.127	0.089
-262.224	-51.024	-0.213	-0.098
-261.209	1.392	-0.131	-0.092
-260.195	-200.000	0.016	0.086
-259.180	-200.000	-0.032	0.281
-258.165	-200.000	0.011	-0.359
-257.151	-43.429	-0.242	-0.120
-256.136	-3.393	0.068	0.047
-255.122	-200.000	0.043	-0.288
-254.107	-101.682	-0.142	0.034
-253.092	464.249	0.139	-0.304
-252.078	19.977	-0.181	0.143
-251.063	-200.000	-0.031	0.274
-250.049	-169.814	-0.118	0.004
-249.034	-106.087	-0.147	0.032
-248.019	800.000	-0.074	-0.287
-247.005	-200.000	0.012	0.103
-245.990	28.082	-0.027	-0.023
-244.976	20.620	-0.151	0.120
-243.961	-200.000	-0.010	0.093
-242.946	-49.146	0.355	-0.166
-241.932	-200.000	-0.024	0.139
-240.917	-200.000	-0.025	-0.447
-239.903	-200.000	-0.002	-0.113
-238.888	-67.757	-0.098	-0.038
-237.873	657.705	-0.173	-0.435
-236.859	-85.367	0.236	0.072
-235.844	-9.681	0.159	0.104
-234.830	-30.685	-0.438	-0.243
-233.815	384.665	-0.182	-0.368
-232.800	76.821	-0.114	-0.118
-231.786	800.000	0.106	0.350
-230.771	137.869	0.158	-0.202
-229.757	-200.000	0.087	0.391
-228.742	1.883	-0.242	0.171
-227.727	-200.000	-0.023	-0.103
-226.713	223.090	0.120	0.189
-225.698	-200.000	-0.031	-0.216
-224.684	-200.000	0.060	0.439
-223.669	-86.704	0.262	-0.079
-222.655	800.000	-0.138	0.431
-221.640	-140.057	0.332	0.034
-220.625	426.040	-0.091	0.192
-219.611	-106.903	0.092	0.020
-218.596	-142.658	-0.573	0.055
-217.582	-200.000	0.035	-0.185
-216.567	800.000	0.032	0.117
-215.552	107.138	-0.113	0.131
-214.538	-200.000	-0.047	0.478
-213.523	800.000	0.046	0.148
-212.509	-200.000	-0.114	-0.000
-211.494	-200.000	0.006	-0.033
-210.479	-106.784	0.153	0.033
-209.465	800.000	0.047	-0.137
-208.450	189.753	-0.026	0.038
-207.436	-200.000	0.015	-0.358
-206.421	73.993	-0.104	0.106
-205.406	-24.013	0.273	0.160
-204.392	319.871	-0.214	-0.397
-203.377	73.237	-0.059	-0.060
-202.363	-135.653	-0.220	-0.026
-201.348	-176.797	-0.101	0.003
-200.333	-100.650	0.177	-0.043
-199.319	-132.755	-0.174	-0.022
-198.304	133.234	0.153	-0.194
-197.290	800.000	0.077	0.279
-196.275	664.261	-0.082	0.207
-195.260	-185.516	0.319	-0.005
-194.246	-22.219	-0.152	-0.090
-193.231	99.361	0.071	-0.081
-192.217	800.000	-0.057	-0.211
-191.202	-42.981	-0.186	-0.092
-190.187	159.767	-0.153	-0.208
-189.173	-6.446	0.060	0.040
-188.158	-200.000	-0.028	-0.161
-187.144	121.341	0.026	-0.031
-186.129	-55.368	-0.169	-0.074
-185.114	-200.000	-0.041	0.239
-184.100	-200.000	0.040	0.197
-183.085	-42.344	-0.319	0.159
-182.071	-114.209	0.251	0.047
-181.056	-73.019	-0.340	-0.122
-180.042	420.520	0.128	-0.267
-179.027	-200.000	0.015	0.205
-178.012	-111.860	0.430	-0.085
-176.998	-22.150	-0.363	0.215
-175.983	-74.595	-0.249	0.088
-174.969	800.000	0.057	0.233
-173.954	117.863	0.234	-0.281
-172.939	-200.000	-0.066	-0.393
-171.925	-200.000	0.001	0.077
-170.910	94.740	0.342	0.380
-169.896	51.145	-0.226	0.209
-168.881	-90.371	0.075	-0.021
-167.866	-200.000	0.075	0.465
-166.852	80.535	0.193	0.203
-165.837	214.832	0.074	0.115
-164.823	134.096	-0.048	-0.060
-163.808	-200.000	0.032	0.394
-162.793	-82.912	0.218	-0.069
-161.779	800.000	0.018	0.062
-160.764	-13.912	-0.338	0.213
-159.750	-200.000	0.058	0.357
-158.735	1.901	0.142	-0.100
-157.720	418.590	-0.120	-0.250
-156.706	-103.151	0.031	0.007
-155.691	101.276	-0.202	-0.229
-154.677	-200.000	-0.055	-0.265
-153.662	551.600	-0.084	-0.196
-152.647	-200.000	0.022	0.099
-151.633	15.446	0.314	-0.240
-150.618	21.051	-0.103	-0.082
-149.604	156.818	-0.084	0.113
-148.589	47.706	0.043	0.040
-147.574	-200.000	0.011	-0.084
-146.560	800.000	0.062	0.172
-145.545	19.490	-0.138	0.108
-144.531	-122.760	-0.322	0.051
-143.516	-6.216	0.090	0.060
-142.502	58.627	0.245	-0.235
-141.487	-153.204	-0.333	-0.023
-140.472	-108.340	0.151	-0.032
-139.458	-200.000	-0.020	-0.089
-138.443	-200.000	0.011	0.184
-137.429	-200.000	-0.027	0.175
-136.414	-135.505	-0.198	-0.023
-135.399	-200.000	-0.012	-0.146
-134.385	-32.397	-0.148	-0.081
-133.370	-102.527	-0.325	-0.076
-132.356	701.635	-0.173	0.444
-131.341	-21.065	-0.064	0.038
-130.326	-200.000	-0.018	0.098
-129.312	72.114	-0.130	0.132
-128.297	312.913	0.129	0.237
-127.283	-83.626	-0.099	0.031
-126.268	376.813	0.039	-0.077
-125.253	800.000	0.014	0.056
-124.239	-200.000	0.031	0.348
-123.224	-92.417	0.224	0.061
-122.210	800.000	0.049	0.160
-121.195	32.418	-0.138	-0.116
