DTS Sentinel unit serial number:	SN413079Multiplexer serial number:	ORYXHardware model number:	OX4-SRSoftware version number:	ORYX F/W v4.00 Oryx Data Collector v3.7.2.0data status	okinstallation	princeton_trtdifferential loss correction	single-endedforward channel	channel 3reverse channel	N/Adate	2019/09/18time	23:00:35forward acquisition time	60.00reverse acquisition time	0.00gamma	496.2192k internal	0.2345k external	0.2345temperature offset calibration	0.9991default loss term (dB/km)	0.3790temperature slope calibration	1.0000multiplexer offset coefficient	1.0000multiplexer slope coefficient	1.0000fibre end	0.00T internal ref (°C)	24.02T ext. ref 1 (°C)	0.78T ext. ref 2 (°C)	18.01length (m)	temperature (°C)	Stokes	anti-Stokes-747.200	92.554	0.054	-0.060
-746.185	47.928	-0.246	0.230
-745.171	-36.444	-0.021	0.012
-744.156	-200.000	0.084	0.383
-743.142	-94.482	0.205	-0.056
-742.127	26.881	-0.238	0.200
-741.112	800.000	0.161	-0.478
-740.098	9.296	-0.062	0.047
-739.083	169.574	-0.175	0.250
-738.069	-52.663	0.223	0.103
-737.054	186.672	-0.304	-0.453
-736.039	118.642	-0.066	-0.082
-735.025	665.935	-0.121	0.314
-734.010	-148.703	0.378	-0.031
-732.996	800.000	-0.060	0.193
-731.981	123.522	-0.055	-0.069
-730.966	491.575	-0.225	-0.516
-729.952	-91.713	-0.342	-0.097
-728.937	800.000	0.076	-0.244
-727.923	-98.522	-0.161	-0.041
-726.908	-200.000	-0.007	-0.259
-725.894	432.042	0.054	-0.118
-724.879	186.517	0.089	-0.132
-723.864	127.682	-0.187	-0.238
-722.850	-89.879	0.136	-0.040
-721.835	671.120	-0.092	-0.237
-720.821	-200.000	-0.017	-0.240
-719.806	-24.148	-0.212	0.127
-718.791	-200.000	-0.034	0.614
-717.777	232.822	0.038	0.062
-716.762	-200.000	0.020	-0.111
-715.748	149.439	-0.070	-0.095
-714.733	458.625	0.057	0.127
-713.718	800.000	-0.059	0.207
-712.704	74.176	-0.105	-0.111
-711.689	-6.830	0.341	0.232
-710.675	71.746	-0.399	-0.414
-709.660	299.059	-0.115	-0.211
-708.645	111.088	-0.165	0.199
-707.631	-200.000	-0.002	-0.064
-706.616	6.516	0.124	-0.092
-705.602	-135.259	-0.186	-0.022
-704.587	482.850	0.232	0.528
-703.572	800.000	0.042	0.147
-702.558	249.670	0.099	0.168
-701.543	-200.000	0.022	-0.182
-700.529	301.576	-0.060	-0.110
-699.514	178.211	0.228	-0.333
-698.499	506.525	0.104	-0.240
-697.485	19.998	-0.350	-0.282
-696.470	-70.365	-0.292	0.110
-695.456	138.431	-0.055	-0.073
-694.441	577.537	-0.080	-0.195
-693.426	-194.922	0.191	0.001
-692.412	-151.372	-0.288	-0.021
-691.397	44.061	-0.179	-0.164
-690.383	-142.861	0.080	-0.008
-689.368	73.459	-0.036	-0.037
-688.354	117.204	0.244	0.300
-687.339	165.940	-0.156	0.220
-686.324	-23.684	0.229	0.137
-685.310	50.180	-0.168	-0.159
-684.295	112.657	-0.244	-0.295
-683.281	-141.573	0.348	-0.035
-682.266	32.096	0.056	-0.048
-681.251	147.334	-0.175	0.236
-680.237	403.393	0.091	-0.192
-679.222	601.782	-0.018	-0.044
-678.208	-45.112	0.424	-0.210
-677.193	96.607	-0.171	0.196
-676.178	91.797	-0.131	-0.147
-675.164	152.441	-0.115	0.156
-674.149	-20.867	-0.089	-0.054
-673.135	-11.150	0.080	-0.053
-672.120	-21.333	-0.129	-0.079
-671.105	51.615	-0.269	0.255
-670.091	-91.969	0.099	0.028
-669.076	-123.582	0.238	0.038
-668.062	800.000	0.081	0.269
-667.047	-200.000	-0.026	-0.283
-666.032	-42.300	-0.437	0.222
-665.018	-39.930	0.286	-0.149
-664.003	92.360	-0.190	-0.213
-662.989	800.000	0.032	-0.111
-661.974	-200.000	-0.028	-0.130
-660.959	800.000	-0.062	-0.175
-659.945	-126.451	-0.209	-0.031
-658.930	800.000	-0.027	-0.098
-657.916	800.000	-0.107	0.366
-656.901	782.052	0.066	-0.180
-655.886	-92.222	0.550	0.155
-654.872	-200.000	0.005	-0.159
-653.857	353.039	0.156	-0.309
-652.843	-79.288	-0.247	0.083
-651.828	97.229	-0.268	-0.306
-650.814	-13.186	0.333	-0.216
-649.799	171.311	0.188	0.269
-648.784	266.312	-0.180	0.313
-647.770	-136.566	-0.304	0.035
-646.755	-24.822	0.233	0.138
-645.741	-124.176	-0.205	0.032
-644.726	-200.000	0.002	-0.119
-643.711	800.000	-0.060	0.169
-642.697	196.878	0.043	0.066
-641.682	-119.569	-0.193	0.033
-640.668	-43.614	-0.084	-0.042
-639.653	4.851	0.067	-0.049
-638.638	-181.867	0.250	-0.005
-637.624	-72.831	-0.098	0.036
-636.609	167.076	0.093	0.132
-635.595	-125.182	0.076	0.012
-634.580	800.000	-0.017	-0.059
-633.565	-34.986	0.220	0.119
-632.551	-37.435	0.448	0.238
-631.536	479.670	0.097	0.220
-630.522	258.350	0.085	0.146
-629.507	26.221	0.098	0.082
-628.492	34.615	-0.141	0.123
-627.478	-165.704	-0.202	0.009
-626.463	-200.000	0.038	-0.208
-625.449	87.255	-0.277	-0.305
-624.434	199.206	-0.086	-0.132
-623.419	-157.809	0.307	-0.018
-622.405	6.360	0.107	-0.079
-621.390	-200.000	-0.032	-0.185
-620.376	22.154	0.107	-0.087
-619.361	-90.064	-0.357	0.103
-618.346	-112.371	-0.106	0.021
-617.332	-117.624	-0.237	0.043
-616.317	-39.493	0.256	0.134
-615.303	76.474	-0.170	-0.179
-614.288	-78.584	0.170	-0.058
-613.273	-163.580	-0.172	0.008
-612.259	-72.969	0.290	-0.106
-611.244	-188.096	-0.364	-0.005
-610.230	22.223	-0.156	-0.127
-609.215	-200.000	0.036	0.177
-608.201	333.054	0.071	0.137
-607.186	-200.000	-0.036	-0.296
-606.171	714.247	-0.118	-0.312
-605.157	139.135	-0.018	0.023
-604.142	800.000	0.037	0.157
-603.128	-64.284	0.317	0.129
-602.113	63.036	-0.129	-0.128
-601.098	800.000	0.075	0.244
-600.084	800.000	0.102	-0.318
-599.069	534.118	-0.096	-0.227
-598.055	11.731	-0.227	0.173
-597.040	-102.008	0.195	-0.047
-596.025	800.000	-0.058	-0.222
-595.011	117.327	-0.076	-0.093
-593.996	800.000	-0.106	-0.340
-592.982	-200.000	0.104	0.466
-591.967	-120.837	-0.410	-0.069
-590.952	-32.457	0.202	-0.112
-589.938	-21.921	0.181	-0.109
-588.923	518.743	-0.134	0.311
-587.909	800.000	-0.098	0.300
-586.894	-132.052	-0.173	-0.022
-585.879	800.000	-0.101	-0.398
-584.865	44.762	0.079	-0.072
-583.850	-200.000	-0.015	-0.270
-582.836	-200.000	-0.013	-0.209
-581.821	-121.278	-0.059	-0.010
-580.806	227.115	-0.187	-0.302
-579.792	137.269	-0.166	-0.216
-578.777	800.000	0.138	0.394
-577.763	800.000	0.033	0.122
-576.748	-200.000	-0.002	0.179
-575.733	711.164	-0.083	0.217
-574.719	-19.834	-0.253	-0.155
-573.704	800.000	0.009	0.032
-572.690	-153.397	0.180	0.012
-571.675	800.000	0.018	0.080
-570.661	800.000	0.059	-0.210
-569.646	-200.000	0.008	-0.184
-568.631	20.950	-0.212	-0.171
-567.617	193.048	0.031	-0.047
-566.602	-150.067	-0.413	-0.032
-565.588	800.000	-0.069	-0.284
-564.573	318.769	0.125	-0.236
-563.558	188.833	-0.114	0.170
-562.544	-3.804	0.118	-0.082
-561.529	43.367	0.075	-0.068
-560.515	-65.584	-0.229	0.091
-559.500	186.484	0.053	-0.078
-558.485	231.109	-0.060	-0.098
-557.471	800.000	-0.056	0.211
-556.456	-57.090	0.346	-0.151
-555.442	223.531	0.108	-0.172
-554.427	-48.363	-0.058	-0.028
-553.412	154.443	-0.084	-0.115
-552.398	95.884	0.217	0.246
-551.383	67.978	-0.155	0.158
-550.369	-200.000	-0.026	-0.344
-549.354	117.978	-0.127	-0.155
-548.339	2.338	-0.063	0.045
-547.325	-76.296	0.168	0.059
-546.310	800.000	0.064	-0.274
-545.296	-38.566	-0.087	-0.046
-544.281	-200.000	-0.016	-0.178
-543.266	-130.832	0.462	0.062
-542.252	58.979	0.188	0.184
-541.237	293.829	-0.106	0.192
-540.223	-33.156	0.156	0.086
-539.208	61.459	-0.070	-0.069
-538.193	-136.875	0.231	-0.026
-537.179	422.314	-0.097	-0.207
-536.164	-200.000	0.020	-0.203
-535.150	-3.797	-0.181	-0.125
-534.135	-200.000	-0.003	0.324
-533.121	106.573	0.231	0.272
-532.106	8.905	-0.172	-0.128
-531.091	81.152	-0.184	-0.197
-530.077	283.475	-0.132	0.235
-529.062	-59.692	-0.229	-0.097
-528.048	800.000	0.119	-0.466
-527.033	-125.440	0.521	0.079
-526.018	423.584	0.040	-0.085
-525.004	-200.000	-0.034	-0.219
-523.989	800.000	-0.009	-0.028
-522.975	-200.000	0.011	-0.216
-521.960	586.870	-0.043	-0.106
-520.945	-200.000	-0.045	0.449
-519.931	-122.484	0.355	0.057
-518.916	800.000	0.029	0.113
-517.902	-200.000	0.016	-0.162
-516.887	-64.233	0.115	-0.046
-515.872	646.893	0.109	-0.276
-514.858	82.711	0.128	0.138
-513.843	-169.573	0.303	0.011
-512.829	-78.152	0.151	-0.051
-511.814	-200.000	-0.009	0.071
-510.799	102.443	-0.274	-0.317
-509.785	-36.140	0.161	-0.086
-508.770	564.970	-0.136	0.328
-507.756	-130.938	0.057	-0.008
-506.741	-28.758	0.125	0.071
-505.726	67.216	0.171	-0.173
-504.712	-200.000	-0.018	-0.205
-503.697	-200.000	0.013	-0.183
-502.683	-200.000	-0.003	0.311
-501.668	-200.000	-0.013	-0.082
-500.653	-187.815	-0.173	-0.002
-499.639	-86.645	0.344	-0.104
-498.624	378.156	-0.136	-0.276
-497.610	-91.634	-0.026	0.007
-496.595	207.043	-0.109	0.169
-495.581	-200.000	0.011	0.138
-494.566	545.765	0.109	-0.258
-493.551	-127.932	-0.211	0.030
-492.537	-23.660	-0.355	-0.211
-491.522	-200.000	-0.009	0.460
-490.508	683.774	-0.111	0.288
-489.493	-27.573	-0.436	-0.251
-488.478	326.268	0.202	-0.383
-487.464	-12.885	-0.327	-0.211
-486.449	7.097	0.146	-0.108
-485.435	-200.000	-0.025	0.328
-484.420	-29.045	-0.160	-0.091
-483.405	15.129	0.329	-0.256
-482.391	-86.663	0.188	0.057
-481.376	-36.804	0.365	-0.194
-480.362	-169.057	-0.044	0.002
-479.347	28.560	-0.126	-0.106
-478.332	-22.001	0.057	0.034
-477.318	800.000	-0.003	-0.008
-476.303	527.751	0.117	-0.273
-475.289	-38.403	-0.212	-0.111
-474.274	-190.486	0.264	-0.003
-473.259	-155.679	-0.198	0.013
-472.245	800.000	0.053	0.171
-471.230	-155.800	0.216	-0.014
-470.216	-200.000	0.008	0.371
-469.201	540.841	-0.148	0.348
-468.186	5.635	0.276	-0.202
-467.172	-90.005	0.052	-0.015
-466.157	718.306	-0.021	-0.056
-465.143	97.347	-0.261	0.296
-464.128	41.625	-0.218	0.195
-463.113	800.000	0.055	0.173
-462.099	34.347	0.138	0.119
-461.084	800.000	0.096	-0.271
-460.070	483.124	-0.221	0.498
-459.055	294.502	-0.169	0.306
-458.040	-200.000	-0.022	-0.314
-457.026	102.886	-0.089	0.103
-456.011	-200.000	-0.075	0.349
-454.997	135.071	-0.097	0.125
-453.982	-145.380	-0.105	0.009
-452.968	-200.000	-0.044	0.414
-451.953	167.810	-0.133	0.187
-450.938	-200.000	0.077	-0.349
-449.924	-139.393	-0.034	-0.004
-448.909	-200.000	-0.003	0.325
-447.895	-200.000	0.019	-0.263
-446.880	-200.000	-0.003	-0.104
-445.865	166.488	-0.272	0.381
-444.851	-36.764	-0.191	0.102
-443.836	473.753	-0.164	-0.365
-442.822	800.000	0.039	-0.110
-441.807	145.404	-0.096	0.126
-440.792	-78.293	0.130	-0.044
-439.778	435.339	-0.048	0.103
-438.763	-10.368	0.278	0.182
-437.749	83.296	0.033	0.036
-436.734	-20.919	0.203	-0.123
-435.719	44.506	-0.122	0.111
-434.705	42.288	-0.205	0.184
-433.690	544.199	0.143	0.338
-432.676	110.087	0.247	-0.293
-431.661	640.329	-0.032	0.081
-430.646	800.000	0.048	0.192
-429.632	800.000	0.101	0.308
-428.617	253.398	0.148	0.249
-427.603	-140.673	0.164	0.017
-426.588	239.868	-0.151	-0.249
-425.573	-127.197	-0.020	-0.003
-424.559	-66.319	-0.133	0.052
-423.544	457.842	-0.116	-0.255
-422.530	119.138	-0.077	-0.094
-421.515	800.000	-0.004	0.013
-420.500	-124.103	0.347	-0.054
-419.486	-158.256	0.095	-0.006
-418.471	-155.372	0.188	-0.012
-417.457	212.498	0.037	-0.057
-416.442	315.815	-0.013	0.024
-415.428	180.884	-0.069	0.101
-414.413	-17.958	-0.186	0.115
-413.398	-87.175	0.147	0.044
-412.384	642.867	0.196	0.493
-411.369	800.000	-0.050	-0.146
-410.355	540.149	-0.099	-0.232
-409.340	-145.347	-0.226	-0.020
-408.325	227.591	-0.206	-0.332
-407.311	-200.000	0.015	-0.255
-406.296	18.644	0.034	0.027
-405.282	4.601	0.037	0.027
-404.267	87.102	-0.266	0.290
-403.252	-81.083	0.193	0.063
-402.238	-200.000	-0.049	0.214
-401.223	13.639	0.318	0.244
-400.209	-200.000	-0.004	-0.289
-399.194	219.540	-0.174	-0.275
-398.179	-109.412	0.116	-0.024
-397.165	-141.121	-0.201	0.020
-396.150	246.360	0.088	0.146
-395.136	800.000	-0.086	-0.297
-394.121	-200.000	-0.026	-0.156
-393.106	-19.748	-0.389	-0.237
-392.092	-24.729	0.220	-0.129
-391.077	-200.000	-0.040	0.206
-390.063	-106.760	-0.239	0.052
-389.048	491.751	-0.147	0.332
-388.033	-200.000	-0.001	-0.209
-387.019	-41.780	-0.408	0.207
-386.004	-153.749	-0.136	-0.009
-384.990	-95.632	-0.106	-0.028
-383.975	-92.579	0.193	-0.054
-382.960	30.721	0.220	-0.186
-381.946	93.144	-0.278	0.310
-380.931	355.565	-0.054	0.107
-379.917	-165.585	0.120	0.005
-378.902	-200.000	0.232	-0.000
-377.888	281.654	0.052	-0.091
-376.873	-200.000	0.004	-0.246
-375.858	24.498	-0.151	0.123
-374.844	-84.042	-0.215	-0.067
-373.829	-28.374	-0.044	0.025
-372.815	2.305	-0.224	-0.160
-371.800	-200.000	0.000	-0.369
-370.785	365.270	-0.046	-0.090
-369.771	-200.000	0.018	0.140
-368.756	-25.000	0.200	0.117
-367.742	577.995	0.046	-0.112
-366.727	54.555	0.217	-0.206
-365.712	98.997	-0.189	0.215
-364.698	-200.000	-0.043	0.229
-363.683	182.177	0.145	0.211
-362.669	-9.438	-0.052	-0.034
-361.654	800.000	-0.030	0.097
-360.639	-82.914	-0.074	-0.024
-359.625	-152.318	0.411	-0.029
-358.610	148.682	0.086	0.115
-357.596	20.643	0.181	0.144
-356.581	-188.913	-0.098	0.001
-355.566	-111.880	-0.153	-0.030
-354.552	72.698	-0.229	-0.236
-353.537	-200.000	-0.010	0.167
-352.523	11.997	0.078	-0.059
-351.508	-19.742	-0.179	0.109
-350.493	-34.209	0.167	-0.090
-349.479	12.366	-0.246	-0.187
-348.464	-110.811	-0.176	0.036
-347.450	-163.718	-0.406	0.019
-346.435	710.837	0.103	0.269
-345.420	-185.938	-0.287	-0.004
-344.406	-200.000	-0.050	0.419
-343.391	-97.772	-0.181	0.046
-342.377	-13.943	0.190	0.121
-341.362	-200.000	-0.022	-0.335
-340.348	86.886	0.105	0.114
-339.333	12.702	0.038	-0.029
-338.318	-117.427	0.306	-0.055
-337.304	800.000	-0.069	0.241
-336.289	-96.963	-0.079	-0.020
-335.275	-136.824	-0.230	0.026
-334.260	32.234	-0.249	0.211
-333.245	45.254	0.182	0.165
-332.231	628.203	-0.138	-0.342
-331.216	-138.948	0.312	0.033
-330.202	800.000	-0.082	-0.281
-329.187	-129.830	0.211	0.029
-328.172	-114.209	0.198	-0.038
-327.158	-33.164	-0.300	-0.164
-326.143	785.816	0.086	0.233
-325.129	800.000	-0.046	0.195
-324.114	117.027	0.276	-0.333
-323.099	177.527	-0.181	-0.260
-322.085	800.000	0.056	-0.217
-321.070	486.359	-0.025	0.055
-320.056	-58.780	0.337	0.143
-319.041	149.389	0.069	-0.092
-318.026	-200.000	-0.024	-0.318
-317.012	-200.000	0.030	0.369
-315.997	643.392	0.089	0.224
-314.983	168.645	-0.081	0.114
-313.968	81.491	0.084	-0.090
-312.953	32.283	0.033	0.028
-311.939	63.508	-0.062	0.061
-310.924	-200.000	-0.007	-0.296
-309.910	-72.705	0.281	0.102
-308.895	-87.174	-0.483	0.144
-307.880	224.783	-0.192	0.306
-306.866	-200.000	-0.061	-0.271
-305.851	-200.000	0.029	0.233
-304.837	800.000	-0.095	0.379
-303.822	-162.339	0.088	-0.004
-302.807	-92.888	0.148	-0.041
-301.793	-24.096	0.210	-0.124
-300.778	-18.739	0.193	-0.118
-299.764	559.411	-0.079	-0.187
-298.749	-23.456	-0.076	0.045
-297.735	-57.201	0.472	0.204
-296.720	800.000	-0.093	0.308
-295.705	51.038	0.177	0.165
-294.691	-200.000	-0.001	-0.351
-293.676	11.982	-0.076	0.058
-292.662	4.338	0.193	-0.139
-291.647	800.000	-0.047	0.129
-290.632	-37.947	0.136	-0.071
-289.618	422.031	0.234	-0.493
-288.603	-71.026	-0.204	-0.076
-287.589	-200.000	-0.008	-0.131
-286.574	-63.188	0.107	-0.043
-285.559	-44.679	0.056	0.028
-284.545	-36.400	-0.320	0.170
-283.530	18.788	-0.156	0.123
-282.516	-62.154	0.333	0.136
-281.501	-84.988	0.145	0.045
-280.486	44.329	0.325	0.294
-279.472	193.141	-0.151	0.224
-278.457	-131.591	0.021	0.003
-277.443	762.176	0.160	-0.427
-276.428	0.201	0.324	-0.227
-275.413	32.442	-0.259	0.220
-274.399	-200.000	0.002	0.033
-273.384	-200.000	-0.001	-0.144
-272.370	-108.060	-0.205	-0.044
-271.355	5.591	-0.122	0.088
-270.340	234.268	0.183	0.296
-269.326	83.850	-0.074	-0.079
-268.311	-75.640	-0.089	0.031
-267.297	54.542	-0.034	-0.032
-266.282	-96.377	0.228	-0.059
-265.267	40.874	0.115	-0.102
-264.253	-56.840	0.144	0.063
-263.238	-69.707	0.292	-0.110
-262.224	30.482	-0.257	-0.215
-261.209	-64.669	0.220	-0.088
-260.195	-142.408	-0.072	0.007
-259.180	-129.521	0.011	0.001
-258.165	134.789	0.209	-0.266
-257.151	-174.937	0.188	0.005
-256.136	15.798	0.186	0.143
-255.122	148.771	0.171	0.227
-254.107	-133.356	0.092	0.011
-253.092	29.483	-0.232	0.194
-252.078	-19.797	-0.313	0.190
-251.063	623.150	0.030	0.074
-250.049	-154.184	0.272	0.018
-249.034	-100.822	-0.103	0.025
-248.019	43.203	-0.306	-0.274
-247.005	-47.212	-0.219	0.105
-245.990	718.604	0.177	-0.460
-244.976	800.000	-0.071	-0.302
-243.961	-98.491	-0.308	0.077
-242.946	-200.000	0.003	-0.183
-241.932	800.000	-0.024	0.093
-240.917	-21.958	-0.134	-0.080
-239.903	-48.938	0.083	0.039
-238.888	3.924	0.291	0.208
-237.873	800.000	0.017	-0.049
-236.859	100.520	-0.052	0.059
-235.844	800.000	0.034	0.104
-234.830	-66.567	-0.318	0.124
-233.815	800.000	0.079	0.222
-232.800	-88.423	-0.065	0.019
-231.786	-200.000	-0.045	0.199
-230.771	-92.717	0.261	0.072
-229.757	-41.865	-0.142	-0.072
-228.742	-200.000	-0.015	-0.066
-227.727	-79.182	0.157	-0.052
-226.713	51.651	0.102	-0.096
-225.698	-42.533	0.420	0.210
-224.684	201.870	0.161	-0.243
-223.669	27.600	-0.247	-0.204
-222.655	-144.586	0.105	0.009
-221.640	800.000	0.093	-0.262
-220.625	-134.510	-0.079	0.009
-219.611	-20.779	0.097	-0.058
-218.596	13.770	-0.150	0.114
-217.582	-26.872	-0.155	-0.089
-216.567	-136.996	0.075	-0.008
-215.552	209.126	0.073	0.111
-214.538	-148.973	-0.353	-0.028
-213.523	-105.101	0.104	-0.023
-212.509	-43.369	-0.178	-0.088
-211.494	-128.591	0.187	-0.026
-210.479	-184.572	0.121	0.002
-209.465	-124.234	-0.311	-0.048
-208.450	800.000	-0.035	0.120
-207.436	37.020	-0.168	-0.146
-206.421	-123.570	-0.162	-0.025
-205.406	-17.983	0.197	0.121
-204.392	-33.398	0.043	-0.023
-203.377	800.000	-0.225	-0.613
-202.363	800.000	0.076	0.255
-201.348	109.019	0.216	0.253
-200.333	-200.000	-0.021	-0.102
-199.319	800.000	-0.101	0.321
-198.304	-200.000	-0.006	0.046
-197.290	800.000	0.069	0.215
-196.275	-200.000	-0.006	-0.110
-195.260	-145.185	0.333	0.030
-194.246	-162.991	-0.309	0.015
-193.231	-200.000	-0.019	-0.161
-192.217	39.600	0.199	-0.175
-191.202	-144.057	-0.364	0.033
-190.187	224.080	0.125	0.198
-189.173	-48.558	-0.256	-0.121
-188.158	29.324	0.329	0.274
-187.144	-3.006	0.073	0.050
-186.129	-155.402	-0.157	-0.010
-185.114	-97.437	0.384	0.098
-184.100	-128.556	-0.058	-0.008
-183.085	-200.000	0.011	-0.058
-182.071	-134.731	0.212	-0.025
-181.056	37.228	0.251	-0.218
-180.042	124.214	-0.225	0.277
-179.027	800.000	0.105	-0.300
-178.012	67.323	0.160	-0.160
-176.998	356.148	-0.166	-0.324
-175.983	521.386	0.184	-0.423
-174.969	183.841	-0.139	-0.201
-173.954	-200.000	-0.065	0.536
-172.939	62.859	-0.152	0.149
-171.925	-52.831	-0.163	-0.073
-170.910	660.843	0.080	0.201
-169.896	-200.000	-0.029	-0.198
-168.881	-200.000	-0.020	0.144
-167.866	-110.261	-0.081	0.017
-166.852	-68.142	-0.283	0.108
-165.837	-200.000	0.024	0.315
-164.823	84.668	0.169	0.181
-163.808	800.000	-0.100	0.293
-162.793	-77.587	0.449	0.152
-161.779	-102.702	-0.347	-0.081
-160.764	-44.439	-0.152	-0.075
-159.750	-64.713	-0.072	-0.028
-158.735	265.224	-0.010	0.018
-157.720	598.092	-0.071	-0.173
-156.706	-200.000	0.024	-0.131
-155.691	800.000	0.056	0.224
-154.677	268.850	0.199	0.341
-153.662	23.102	-0.141	0.113
-152.647	-59.341	0.167	-0.070
-151.633	182.521	0.119	-0.171
-150.618	-3.902	0.308	-0.209
-149.604	-200.000	-0.006	-0.071
-148.589	106.456	0.098	-0.114
-147.574	-200.000	-0.009	0.228
-146.560	53.213	-0.077	-0.072
-145.545	-200.000	-0.019	0.386
-144.531	399.583	0.145	0.298
-143.516	-11.043	-0.238	-0.154
-142.502	-85.228	-0.277	-0.085
-141.487	-7.385	0.287	0.190
-140.472	-200.000	0.071	-0.357
-139.458	84.427	0.149	0.159
-138.443	-24.314	0.119	0.069
-137.429	-200.000	-0.023	-0.179
-136.414	-67.593	0.066	0.025
-135.399	-24.647	0.256	0.149
-134.385	-41.132	-0.264	-0.133
-133.370	800.000	-0.018	0.059
-132.356	385.871	0.196	0.396
-131.341	-130.113	-0.254	-0.034
-130.326	240.328	-0.216	0.351
-129.312	-200.000	-0.007	0.372
-128.297	-200.000	0.040	-0.204
-127.283	170.684	0.108	0.151
-126.268	52.883	0.181	-0.169
-125.253	-200.000	0.014	0.381
-124.239	120.097	0.141	-0.170
-123.224	800.000	0.043	-0.162
-122.210	104.763	-0.217	0.249
