DTS Sentinel unit serial number:	SN413079Multiplexer serial number:	ORYXHardware model number:	OX4-SRSoftware version number:	ORYX F/W v4.00 Oryx Data Collector v3.7.2.0data status	okinstallation	princeton_trtdifferential loss correction	single-endedforward channel	channel 3reverse channel	N/Adate	2019/09/17time	17:40:35forward acquisition time	60.00reverse acquisition time	0.00gamma	496.2192k internal	0.2290k external	0.2290temperature offset calibration	0.9946default loss term (dB/km)	0.3790temperature slope calibration	1.0000multiplexer offset coefficient	1.0000multiplexer slope coefficient	1.0000fibre end	0.00T internal ref (°C)	43.37T ext. ref 1 (°C)	0.34T ext. ref 2 (°C)	38.86length (m)	temperature (°C)	Stokes	anti-Stokes-747.200	-200.000	0.006	0.120
-746.185	-200.000	-0.013	0.221
-745.171	156.199	-0.021	0.029
-744.156	-200.000	-0.020	0.121
-743.142	-92.133	0.294	0.085
-742.127	-200.000	-0.028	0.263
-741.112	-98.962	-0.168	-0.044
-740.098	-200.000	-0.062	0.520
-739.083	-158.683	0.493	0.029
-738.069	152.044	0.167	0.233
-737.054	-93.168	-0.185	-0.053
-736.039	227.854	0.093	0.155
-735.025	280.867	0.152	-0.278
-734.010	62.315	-0.178	-0.182
-732.996	629.436	-0.033	0.086
-731.981	40.578	0.235	-0.217
-730.966	-21.382	-0.187	-0.117
-729.952	-109.491	0.257	0.056
-728.937	-89.331	0.208	-0.063
-727.923	-131.871	0.335	0.045
-726.908	-26.855	0.147	0.088
-725.894	-164.926	-0.244	-0.011
-724.879	-66.095	-0.197	0.080
-723.864	800.000	-0.074	0.327
-722.850	324.916	0.093	-0.183
-721.835	-200.000	-0.026	-0.127
-720.821	-152.516	-0.242	-0.018
-719.806	67.593	0.328	-0.343
-718.791	778.929	-0.058	-0.164
-717.777	-130.993	-0.482	-0.066
-716.762	800.000	-0.044	-0.161
-715.748	-70.099	0.237	0.092
-714.733	25.634	-0.157	0.134
-713.718	-200.000	0.051	-0.405
-712.704	209.279	0.068	-0.109
-711.689	117.990	0.194	-0.244
-710.675	167.103	0.056	0.082
-709.660	136.662	-0.128	-0.170
-708.645	-200.000	0.026	-0.152
-707.631	-99.505	-0.184	-0.047
-706.616	-120.311	-0.321	-0.056
-705.602	-48.522	0.171	0.084
-704.587	-200.000	0.014	0.076
-703.572	-200.000	-0.026	-0.282
-702.558	494.449	-0.075	0.177
-701.543	-52.331	0.148	-0.070
-700.529	-82.398	0.138	0.046
-699.514	32.154	-0.205	-0.181
-698.499	-121.888	0.169	0.029
-697.485	19.732	-0.024	0.020
-696.470	800.000	0.108	0.467
-695.456	28.389	0.087	-0.075
-694.441	539.675	-0.062	-0.151
-693.426	156.258	0.106	-0.150
-692.412	440.768	-0.053	0.117
-691.397	-200.000	-0.011	0.093
-690.383	-61.959	-0.157	0.067
-689.368	800.000	0.067	-0.273
-688.354	288.031	-0.084	0.155
-687.339	240.454	-0.039	-0.066
-686.324	-200.000	0.007	0.300
-685.310	-173.241	0.090	0.003
-684.295	-200.000	-0.051	-0.292
-683.281	474.849	-0.082	-0.189
-682.266	800.000	0.040	-0.163
-681.251	33.012	-0.329	-0.292
-680.237	-65.181	0.041	0.017
-679.222	82.231	-0.315	-0.349
-678.208	-28.498	-0.104	-0.061
-677.193	12.334	0.188	0.148
-676.178	-200.000	0.019	0.191
-675.164	-9.917	-0.110	0.074
-674.149	800.000	0.078	0.280
-673.135	-200.000	0.194	-0.000
-672.120	-164.097	-0.224	0.011
-671.105	-73.470	-0.316	-0.118
-670.091	-63.064	0.201	-0.085
-669.076	-71.030	-0.196	-0.075
-668.062	-200.000	-0.008	-0.048
-667.047	-200.000	-0.007	0.045
-666.032	-45.659	0.170	-0.086
-665.018	-43.456	0.297	-0.153
-664.003	90.170	0.236	-0.269
-662.989	635.432	0.030	0.078
-661.974	99.968	0.055	-0.065
-660.959	38.323	-0.173	0.158
-659.945	-200.000	0.010	0.142
-658.930	-4.377	-0.159	0.112
-657.916	25.268	0.059	0.050
-656.901	291.467	-0.156	-0.290
-655.886	-21.141	-0.200	-0.125
-654.872	65.016	0.249	-0.257
-653.857	-200.000	0.002	-0.109
-652.843	-200.000	-0.041	-0.332
-651.828	800.000	-0.131	-0.402
-650.814	237.728	-0.152	-0.257
-649.799	317.062	-0.068	-0.132
-648.784	-110.601	0.424	0.090
-647.770	7.058	0.315	-0.240
-646.755	800.000	0.103	-0.314
-645.741	100.223	-0.157	-0.186
-644.726	-36.499	0.317	-0.174
-643.711	521.105	0.033	0.079
-642.697	-117.528	0.452	0.083
-641.682	-114.865	0.109	-0.021
-640.668	800.000	0.022	0.090
-639.653	14.083	-0.253	0.201
-638.638	-200.000	0.018	-0.201
-637.624	-84.086	0.144	-0.047
-636.609	-200.000	-0.006	0.239
-635.595	800.000	-0.079	-0.353
-634.580	-200.000	-0.014	-0.353
-633.565	800.000	0.055	0.220
-632.551	-6.855	0.178	-0.123
-631.536	-33.825	-0.132	-0.074
-630.522	-200.000	-0.023	0.154
-629.507	-126.382	-0.255	0.039
-628.492	-200.000	0.001	0.309
-627.478	196.474	0.186	-0.289
-626.463	84.766	0.143	-0.159
-625.449	-16.947	-0.126	-0.081
-624.434	-200.000	0.025	0.172
-623.419	-18.400	-0.101	0.064
-622.405	144.036	-0.056	-0.076
-621.390	-105.025	-0.168	-0.039
-620.376	3.239	-0.223	0.165
-619.361	-1.057	-0.028	0.021
-618.346	80.256	0.025	0.027
-617.332	-102.191	0.221	-0.054
-616.317	-58.315	0.206	-0.092
-615.303	-170.436	0.190	-0.007
-614.288	-13.354	-0.197	0.131
-613.273	-200.000	-0.015	0.156
-612.259	800.000	0.098	0.309
-611.244	-200.000	0.037	-0.169
-610.230	82.634	0.098	-0.108
-609.215	800.000	-0.066	0.230
-608.201	-120.695	0.247	-0.043
-607.186	-22.409	-0.192	-0.118
-606.171	509.835	-0.044	-0.105
-605.157	-109.939	0.140	-0.030
-604.142	178.228	-0.073	-0.109
-603.128	29.455	0.075	-0.065
-602.113	648.229	0.047	-0.121
-601.098	-178.657	0.435	-0.010
-600.084	161.535	-0.071	0.101
-599.069	116.822	-0.139	0.174
-598.055	-115.553	0.019	0.004
-597.040	-64.116	-0.113	-0.047
-596.025	126.178	-0.213	0.275
-595.011	281.846	0.082	-0.149
-593.996	-30.473	-0.423	-0.244
-592.982	-151.001	-0.175	0.013
-591.967	800.000	0.079	0.281
-590.952	241.076	-0.226	-0.384
-589.938	4.450	-0.086	-0.064
-588.923	-200.000	-0.012	-0.345
-587.909	-52.059	-0.268	-0.127
-586.894	-40.306	0.303	0.160
-585.879	-200.000	0.028	0.273
-584.865	-177.966	-0.309	-0.007
-583.850	-109.277	0.144	0.031
-582.836	293.857	0.052	0.097
-581.821	119.490	-0.173	-0.218
-580.806	73.670	0.233	0.248
-579.792	-16.820	0.143	-0.092
-578.777	76.578	0.327	-0.352
-577.763	-2.727	-0.226	-0.161
-576.748	-200.000	0.011	-0.054
-575.733	236.330	0.182	-0.306
-574.719	-200.000	0.026	0.198
-573.704	-147.161	-0.108	-0.009
-572.690	391.211	-0.084	-0.176
-571.675	401.685	0.035	0.075
-570.661	-79.612	-0.216	-0.074
-569.646	553.749	0.022	-0.054
-568.631	2.591	0.349	-0.257
-567.617	-91.228	-0.349	-0.102
-566.602	339.991	-0.034	0.068
-565.588	-55.913	-0.211	-0.096
-564.573	-51.108	-0.097	0.046
-563.558	164.048	0.128	0.184
-562.544	800.000	0.042	-0.179
-561.529	-200.000	0.060	-0.334
-560.515	800.000	0.053	0.228
-559.500	-162.386	0.405	0.020
-558.485	186.329	-0.186	0.282
-557.471	-200.000	0.009	0.264
-556.456	-137.322	0.102	-0.012
-555.442	-99.827	0.125	-0.032
-554.427	-37.098	-0.152	0.083
-553.412	-200.000	-0.032	-0.288
-552.398	-63.701	-0.355	-0.148
-551.383	-42.051	-0.088	0.046
-550.369	408.168	-0.085	0.183
-549.354	-150.311	0.276	-0.022
-548.339	-200.000	-0.007	-0.223
-547.325	800.000	0.049	0.139
-546.310	-120.617	-0.028	-0.005
-545.296	592.317	-0.116	-0.292
-544.281	-67.243	-0.245	-0.098
-543.266	-8.727	0.101	-0.069
-542.252	556.743	-0.097	-0.237
-541.237	-114.009	-0.275	-0.054
-540.223	-29.211	0.077	-0.045
-539.208	81.474	-0.161	0.177
-538.193	-46.865	0.195	0.097
-537.179	-24.996	-0.106	0.064
-536.164	-158.216	0.204	0.012
-535.150	-200.000	0.046	-0.239
-534.135	35.086	0.098	0.087
-533.121	84.081	-0.143	-0.158
-532.106	74.441	0.198	-0.211
-531.091	-132.272	-0.186	-0.025
-530.077	366.043	-0.125	-0.256
-529.062	-139.378	0.340	-0.037
-528.048	-62.538	0.217	0.091
-527.033	800.000	0.063	0.182
-526.018	800.000	-0.051	0.146
-525.004	-146.219	0.134	0.012
-523.989	-72.970	0.073	0.027
-522.975	168.972	-0.098	-0.142
-521.960	-63.643	-0.199	0.083
-520.945	-160.152	0.417	0.023
-519.931	-200.000	-0.010	0.233
-518.916	61.432	-0.240	-0.242
-517.902	-53.754	0.181	-0.084
-516.887	-200.000	-0.013	0.100
-515.872	-123.851	0.302	0.048
-514.858	73.999	-0.095	-0.101
-513.843	-200.000	0.058	0.276
-512.829	241.411	0.086	-0.147
-511.814	-200.000	0.024	0.408
-510.799	-200.000	0.013	0.123
-509.785	257.440	0.125	-0.218
-508.770	6.434	0.181	0.136
-507.756	44.757	-0.122	0.114
-506.741	458.305	-0.110	0.248
-505.726	128.124	-0.092	-0.119
-504.712	212.197	-0.141	-0.226
-503.697	556.598	0.124	0.303
-502.683	153.282	-0.175	0.243
-501.668	-38.977	0.158	0.084
-500.653	-65.340	0.396	0.162
-499.639	-35.447	-0.175	-0.097
-498.624	-53.812	0.232	-0.108
-497.610	286.700	0.107	-0.195
-496.595	-145.079	-0.104	0.010
-495.581	800.000	-0.050	0.209
-494.566	-88.264	-0.377	-0.115
-493.551	31.574	-0.145	-0.126
-492.537	800.000	-0.046	0.129
-491.522	128.654	0.079	0.102
-490.508	-160.827	-0.188	0.010
-489.493	-200.000	0.044	-0.375
-488.478	800.000	0.070	0.274
-487.464	141.121	-0.250	0.335
-486.449	-111.914	-0.393	0.081
-485.435	-92.142	0.187	0.053
-484.420	214.863	0.046	-0.074
-483.405	-200.000	0.033	-0.215
-482.391	-7.276	0.082	-0.056
-481.376	-200.000	-0.017	-0.171
-480.362	-6.390	0.149	0.103
-479.347	-200.000	0.122	-0.621
-478.332	-83.047	-0.183	0.060
-477.318	-200.000	0.043	-0.190
-476.303	296.058	-0.012	0.023
-475.289	733.002	-0.120	0.324
-474.274	61.243	0.107	0.108
-473.259	263.769	-0.177	0.313
-472.245	-164.197	0.104	0.005
-471.230	-91.762	0.066	0.019
-470.216	-35.854	-0.138	0.075
-469.201	404.389	0.174	0.372
-468.186	-136.670	0.426	0.050
-467.172	-176.229	0.199	-0.005
-466.157	-83.976	-0.169	-0.055
-465.143	-200.000	-0.056	0.305
-464.128	-70.643	0.117	0.045
-463.113	169.657	-0.142	-0.206
-462.099	189.473	0.186	-0.282
-461.084	116.546	0.110	-0.136
-460.070	103.777	0.078	-0.093
-459.055	-200.000	0.009	-0.056
-458.040	-200.000	-0.036	0.184
-457.026	-52.896	-0.161	-0.075
-456.011	-81.748	-0.328	0.109
-454.997	-200.000	0.003	-0.278
-453.982	336.868	-0.181	-0.357
-452.968	420.992	0.082	0.178
-451.953	136.614	-0.215	-0.285
-450.938	12.079	-0.276	0.215
-449.924	-62.962	0.141	-0.059
-448.909	800.000	-0.016	0.047
-447.895	800.000	-0.100	-0.366
-446.880	-200.000	-0.038	-0.287
-445.865	9.673	-0.084	-0.064
-444.851	14.404	0.283	-0.224
-443.836	14.901	0.181	-0.143
-442.822	-25.405	-0.095	-0.057
-441.807	-138.468	-0.174	0.019
-440.792	47.489	-0.260	-0.245
-439.778	-127.572	-0.143	0.021
-438.763	231.132	0.159	-0.263
-437.749	-87.670	0.095	0.029
-436.734	505.161	-0.069	-0.162
-435.719	-104.934	0.392	0.091
-434.705	65.809	-0.106	-0.109
-433.690	800.000	0.054	0.229
-432.676	116.356	0.269	0.334
-431.661	165.507	-0.130	0.186
-430.646	-77.884	-0.117	-0.041
-429.632	-65.719	-0.187	-0.076
-428.617	-200.000	-0.102	0.466
-427.603	-26.165	0.236	0.140
-426.588	-86.739	-0.206	-0.064
-425.573	175.580	-0.055	0.081
-424.559	315.441	0.091	-0.174
-423.544	-200.000	0.004	0.095
-422.530	-39.409	-0.255	0.135
-421.515	-126.508	0.343	0.052
-420.500	-133.815	0.028	-0.003
-419.486	-134.282	-0.262	0.033
-418.471	-78.134	0.059	-0.021
-417.457	800.000	-0.081	0.308
-416.442	-200.000	0.034	0.272
-415.428	-112.583	-0.331	-0.067
-414.413	800.000	-0.072	0.225
-413.398	280.462	0.112	0.202
-412.384	217.301	-0.152	-0.244
-411.369	-65.390	-0.265	0.108
-410.355	-25.882	-0.150	-0.089
-409.340	800.000	-0.108	-0.329
-408.325	-79.459	0.306	-0.105
-407.311	800.000	-0.074	-0.317
-406.296	-200.000	-0.021	0.219
-405.282	-200.000	0.042	-0.215
-404.267	-200.000	0.012	0.218
-403.252	-200.000	-0.057	0.410
-402.238	800.000	-0.036	0.105
-401.223	-200.000	0.001	0.167
-400.209	-200.000	-0.043	0.198
-399.194	16.768	0.104	-0.083
-398.179	-168.564	0.460	-0.018
-397.165	-29.062	0.255	0.148
-396.150	153.682	0.164	0.227
-395.136	-35.510	-0.097	-0.053
-394.121	228.505	-0.088	0.146
-393.106	232.270	0.024	-0.040
-392.092	-119.740	0.247	0.043
-391.077	-10.652	-0.046	0.031
-390.063	256.739	-0.083	0.144
-389.048	-200.000	-0.017	0.244
-388.033	-48.062	0.184	0.090
-387.019	-86.772	-0.451	0.139
-386.004	-72.431	-0.115	-0.043
-384.990	-31.043	-0.055	0.032
-383.975	109.590	-0.075	-0.091
-382.960	800.000	0.002	-0.006
-381.946	-60.017	0.201	-0.087
-380.931	592.971	0.050	-0.124
-379.917	-55.581	0.232	-0.105
-378.902	-200.000	0.042	-0.220
-377.888	-23.955	-0.088	0.053
-376.873	800.000	-0.068	0.267
-375.858	283.940	-0.157	0.284
-374.844	637.371	-0.081	-0.208
-373.829	-44.568	-0.124	0.062
-372.815	41.718	0.120	0.110
-371.800	-200.000	0.040	0.257
-370.785	-200.000	-0.008	0.157
-369.771	-90.239	-0.166	-0.049
-368.756	-5.169	0.032	0.023
-367.742	-200.000	0.003	0.198
-366.727	347.329	0.064	-0.127
-365.712	800.000	-0.011	0.039
-364.698	341.035	-0.060	-0.119
-363.683	399.050	-0.122	0.257
-362.669	-168.120	0.273	-0.011
-361.654	-200.000	-0.020	-0.116
-360.639	-81.187	-0.082	-0.027
-359.625	-200.000	0.050	0.334
-358.610	-121.129	0.419	0.071
-357.596	216.038	0.230	-0.369
-356.581	-200.000	-0.029	-0.322
-355.566	-200.000	-0.015	0.241
-354.552	-12.367	-0.199	-0.131
-353.537	423.888	0.145	-0.314
-352.523	-200.000	-0.008	0.185
-351.508	800.000	-0.049	-0.209
-350.493	-75.027	0.181	-0.065
-349.479	-200.000	-0.003	0.136
-348.464	231.476	0.059	0.097
-347.450	124.018	-0.202	-0.256
-346.435	27.653	-0.306	-0.260
-345.420	-82.838	-0.130	0.042
-344.406	121.207	-0.062	0.078
-343.391	292.383	-0.091	-0.167
-342.377	277.019	-0.132	-0.236
-341.362	-67.605	-0.285	0.113
-340.348	-200.000	0.006	-0.118
-339.333	-200.000	-0.021	0.213
-338.318	54.687	-0.116	0.113
-337.304	85.834	0.193	0.214
-336.289	-200.000	0.024	-0.155
-335.275	-14.706	-0.230	-0.149
-334.260	-200.000	-0.328	0.001
-333.245	-45.819	-0.216	-0.107
-332.231	800.000	-0.101	0.360
-331.216	-50.537	0.175	0.083
-330.202	-49.798	-0.340	0.163
-329.187	-140.120	-0.205	-0.022
-328.172	-123.570	-0.234	0.038
-327.158	-200.000	0.035	-0.202
-326.143	131.277	0.009	0.012
-325.129	749.801	-0.098	-0.267
-324.114	8.754	-0.222	0.169
-323.099	-200.000	0.004	0.157
-322.085	549.646	0.062	-0.149
-321.070	97.356	0.110	0.127
-320.056	203.522	-0.199	-0.310
-319.041	-200.000	0.034	-0.209
-318.026	722.938	-0.033	0.089
-317.012	218.061	-0.057	-0.092
-315.997	545.077	0.070	-0.169
-314.983	-6.740	0.347	0.238
-313.968	-32.249	-0.177	-0.100
-312.953	297.414	-0.206	-0.381
-311.939	-70.175	0.295	0.113
-310.924	328.641	-0.022	0.042
-309.910	-32.558	0.176	-0.099
-308.895	61.713	-0.136	-0.136
-307.880	-56.163	-0.069	-0.031
-306.866	-116.402	0.071	-0.013
-305.851	-7.124	0.143	-0.098
-304.837	-64.250	0.432	-0.177
-303.822	89.948	-0.273	-0.307
-302.807	79.574	-0.095	0.102
-301.793	22.608	-0.155	0.128
-300.778	-122.083	0.210	0.035
-299.764	234.132	0.193	-0.320
-298.749	308.766	-0.033	0.062
-297.735	-8.864	0.038	0.025
-296.720	-17.417	-0.100	0.063
-295.705	290.603	-0.198	-0.362
-294.691	26.327	-0.142	-0.119
-293.676	800.000	0.002	0.010
-292.662	147.985	-0.182	0.248
-291.647	13.704	0.286	0.223
-290.632	-200.000	0.049	-0.216
-289.618	15.599	-0.299	0.236
-288.603	-200.000	-0.013	0.064
-287.589	-1.568	0.275	0.195
-286.574	-27.979	0.233	0.136
-285.559	-52.737	-0.252	-0.117
-284.545	-110.129	-0.289	0.061
-283.530	-115.880	0.275	0.052
-282.516	-42.652	0.085	0.044
-281.501	800.000	0.066	-0.231
-280.486	-159.163	-0.069	-0.004
-279.472	4.203	-0.140	-0.103
-278.457	-3.294	-0.291	0.204
-277.443	65.858	-0.156	-0.159
-276.428	57.849	0.127	-0.125
-275.413	283.658	0.244	0.440
-274.399	99.862	-0.131	0.152
-273.384	-200.000	0.002	-0.080
-272.370	-90.578	0.285	-0.083
-271.355	-2.868	0.476	0.335
-270.340	291.945	0.073	0.134
-269.326	-59.637	0.127	-0.055
-268.311	-134.376	0.049	0.006
-267.297	800.000	0.058	-0.175
-266.282	714.480	-0.085	-0.225
-265.267	-200.000	0.021	0.235
-264.253	-106.985	0.217	-0.048
-263.238	800.000	-0.008	-0.025
-262.224	-200.000	0.029	-0.525
-261.209	-94.419	-0.275	-0.076
-260.195	168.110	-0.077	-0.110
-259.180	202.916	-0.059	-0.092
-258.165	-79.354	0.010	0.003
-257.151	338.514	-0.075	0.147
-256.136	-85.876	-0.391	-0.122
-255.122	-133.166	-0.132	0.017
-254.107	599.372	-0.119	0.296
-253.092	-200.000	-0.051	-0.392
-252.078	89.973	0.373	0.418
-251.063	-85.991	0.153	0.048
-250.049	-97.694	0.215	0.056
-249.034	254.549	-0.093	-0.160
-248.019	-54.511	-0.185	-0.084
-247.005	-156.190	-0.267	0.017
-245.990	-44.726	-0.105	-0.052
-244.976	7.841	-0.158	0.119
-243.961	-47.687	-0.071	0.034
-242.946	-49.608	0.408	0.195
-241.932	-94.774	-0.080	0.022
-240.917	-49.908	-0.255	-0.122
-239.903	-74.030	0.078	0.028
-238.888	76.956	-0.069	-0.073
-237.873	-143.742	-0.356	0.034
-236.859	595.487	-0.047	0.116
-235.844	-59.791	0.153	0.066
-234.830	-25.943	0.128	0.075
-233.815	89.668	0.147	-0.165
-232.800	-200.000	0.009	-0.143
-231.786	306.864	0.081	-0.151
-230.771	-200.000	-0.045	-0.294
-229.757	-200.000	0.017	0.269
-228.742	-107.589	-0.149	-0.033
-227.727	800.000	-0.068	0.190
-226.713	-3.009	0.084	0.059
-225.698	-55.846	0.164	-0.073
-224.684	-47.741	-0.048	0.024
-223.669	800.000	0.136	-0.567
-222.655	-69.001	-0.104	-0.040
-221.640	74.276	0.266	0.280
-220.625	655.151	-0.159	0.410
-219.611	-155.669	-0.231	0.015
-218.596	-80.688	0.296	-0.099
-217.582	800.000	0.059	0.244
-216.567	-131.899	-0.110	-0.014
-215.552	800.000	0.041	0.117
-214.538	-200.000	-0.021	0.124
-213.523	-5.578	-0.182	0.125
-212.509	800.000	0.076	-0.237
-211.494	-149.511	0.059	-0.005
-210.479	-144.352	0.437	0.041
-209.465	159.729	-0.137	-0.191
-208.450	117.961	0.122	-0.150
-207.436	-200.000	-0.014	-0.135
-206.421	-147.648	-0.325	0.027
-205.406	800.000	-0.052	-0.208
-204.392	-200.000	-0.016	0.261
-203.377	-132.656	-0.357	-0.046
-202.363	-200.000	-0.008	0.310
-201.348	800.000	-0.025	-0.104
-200.333	88.879	0.115	0.129
-199.319	577.805	0.103	-0.254
-198.304	800.000	-0.065	-0.201
-197.290	73.575	-0.096	0.101
-196.275	-37.198	-0.147	-0.079
-195.260	137.459	-0.232	-0.305
-194.246	234.842	-0.219	0.362
-193.231	-50.715	-0.165	0.078
-192.217	36.299	0.269	0.238
-191.202	-0.421	-0.158	0.113
-190.187	361.013	0.043	0.086
-189.173	-34.652	-0.054	-0.029
-188.158	46.573	0.276	-0.257
-187.144	-117.385	0.277	-0.050
-186.129	-144.704	0.155	-0.014
-185.114	-32.564	-0.308	0.172
-184.100	-128.537	-0.213	-0.030
-183.085	-94.932	0.333	-0.090
-182.071	-55.611	0.294	-0.132
-181.056	136.942	-0.039	0.051
-180.042	233.907	0.202	0.333
-179.027	-200.000	-0.035	-0.216
-178.012	260.613	-0.010	-0.018
-176.998	192.871	0.038	-0.057
-175.983	169.624	-0.039	0.056
-174.969	-151.956	0.112	0.008
-173.954	553.159	-0.063	0.152
-172.939	-109.364	0.082	-0.017
-171.925	660.632	0.068	0.175
-170.910	-200.000	-0.032	0.171
-169.896	62.344	0.239	0.239
-168.881	17.782	0.409	0.326
-167.866	-62.559	-0.302	-0.126
-166.852	85.053	0.064	0.070
-165.837	-200.000	-0.011	0.064
-164.823	-6.653	0.015	-0.010
-163.808	624.340	0.047	0.117
-162.793	690.371	-0.038	0.100
-161.779	-200.000	0.005	0.180
-160.764	540.087	-0.014	0.034
-159.750	162.088	0.050	-0.070
-158.735	83.037	0.228	-0.249
-157.720	-73.313	0.378	0.139
-156.706	800.000	0.110	0.430
-155.691	344.043	-0.022	-0.044
-154.677	-74.432	-0.086	-0.031
-153.662	-200.000	0.017	-0.098
-152.647	800.000	-0.079	0.330
-151.633	-130.691	0.300	-0.040
-150.618	-200.000	0.009	-0.411
-149.604	-200.000	-0.022	0.227
-148.589	-34.244	-0.470	-0.259
-147.574	800.000	0.050	0.143
-146.560	-112.029	0.181	-0.037
-145.545	78.727	-0.300	0.321
-144.531	-200.000	0.023	0.318
-143.516	15.407	0.101	0.079
-142.502	200.106	0.105	0.162
-141.487	176.393	0.361	-0.525
-140.472	81.775	0.254	-0.275
-139.458	-153.509	0.385	0.027
-138.443	81.245	0.203	0.219
-137.429	27.422	0.126	0.106
-136.414	-78.265	0.142	0.049
-135.399	-46.788	-0.057	-0.028
-134.385	-51.558	0.175	0.082
-133.370	285.288	0.134	0.242
-132.356	-62.678	-0.203	0.084
-131.341	-93.538	0.175	-0.049
-130.326	-200.000	-0.011	0.104
-129.312	-200.000	0.007	0.086
-128.297	800.000	0.051	0.206
-127.283	800.000	0.031	-0.090
-126.268	-200.000	0.003	-0.119
-125.253	115.517	0.084	0.103
-124.239	-19.316	-0.240	0.149
-123.224	22.026	-0.077	-0.062
-122.210	800.000	0.090	0.251
