DTS Sentinel unit serial number:	SN413079Multiplexer serial number:	ORYXHardware model number:	OX4-SRSoftware version number:	ORYX F/W v4.00 Oryx Data Collector v3.7.2.0data status	okinstallation	princeton_trtdifferential loss correction	single-endedforward channel	channel 3reverse channel	N/Adate	2019/09/12time	10:18:10forward acquisition time	60.00reverse acquisition time	0.00gamma	496.2192k internal	0.2298k external	0.2298temperature offset calibration	1.0031default loss term (dB/km)	0.3790temperature slope calibration	1.0000multiplexer offset coefficient	1.0000multiplexer slope coefficient	1.0000fibre end	0.00T internal ref (°C)	36.62T ext. ref 1 (°C)	1.87T ext. ref 2 (°C)	34.53length (m)	temperature (°C)	Stokes	anti-Stokes-747.200	74.535	-0.287	0.308
-746.185	-200.000	-0.020	0.103
-745.171	204.894	-0.128	0.202
-744.156	169.333	-0.138	0.201
-743.142	87.256	-0.205	-0.231
-742.127	-103.053	-0.197	-0.048
-741.112	-165.786	0.341	0.015
-740.098	-115.050	-0.127	-0.025
-739.083	-200.000	0.031	0.398
-738.069	96.721	0.277	0.324
-737.054	67.176	0.170	-0.177
-736.039	-47.065	-0.259	0.129
-735.025	-128.792	0.162	-0.023
-734.010	162.333	-0.174	-0.249
-732.996	-137.663	0.304	0.035
-731.981	-110.387	-0.115	-0.024
-730.966	5.312	0.021	-0.016
-729.952	800.000	0.026	-0.092
-728.937	-170.481	-0.288	0.010
-727.923	-50.242	-0.165	0.080
-726.908	800.000	-0.068	0.193
-725.894	-172.481	0.082	-0.003
-724.879	800.000	0.035	0.128
-723.864	800.000	0.078	-0.326
-722.850	104.894	0.177	-0.212
-721.835	105.338	-0.164	-0.198
-720.821	70.625	-0.194	-0.205
-719.806	-31.041	-0.239	-0.137
-718.791	-11.448	-0.244	-0.164
-717.777	-119.689	0.257	-0.045
-716.762	199.851	-0.249	-0.390
-715.748	800.000	-0.129	-0.392
-714.733	-76.724	-0.030	0.011
-713.718	-200.000	-0.000	-0.054
-712.704	299.142	0.059	-0.111
-711.689	198.564	0.126	-0.197
-710.675	126.381	0.041	-0.053
-709.660	-200.000	-0.001	0.134
-708.645	-81.649	-0.167	0.056
-707.631	15.564	-0.081	0.065
-706.616	-57.792	-0.241	0.107
-705.602	-16.541	-0.194	0.125
-704.587	-37.233	-0.101	0.055
-703.572	436.213	-0.121	0.269
-702.558	-200.000	-0.035	-0.237
-701.543	-97.393	-0.373	-0.099
-700.529	-200.000	0.072	-0.328
-699.514	-133.807	-0.041	-0.005
-698.499	-48.371	-0.189	-0.093
-697.485	-113.662	-0.455	0.090
-696.470	320.807	-0.159	0.308
-695.456	-28.221	-0.120	0.070
-694.441	-82.383	-0.513	-0.170
-693.426	-29.842	-0.166	-0.097
-692.412	-14.985	-0.170	-0.111
-691.397	-1.672	-0.168	0.121
-690.383	-200.000	-0.012	0.439
-689.368	-151.628	0.361	0.027
-688.354	-146.003	0.222	0.020
-687.339	142.422	-0.213	0.288
-686.324	-200.000	0.031	-0.142
-685.310	-65.038	0.082	-0.034
-684.295	800.000	-0.046	0.148
-683.281	173.805	0.131	0.192
-682.266	-53.219	-0.432	-0.202
-681.251	-200.000	0.032	0.370
-680.237	638.472	0.119	-0.308
-679.222	-73.477	-0.229	-0.085
-678.208	269.811	0.084	-0.149
-677.193	-47.878	-0.144	-0.071
-676.178	-200.000	0.037	0.267
-675.164	147.917	-0.077	-0.106
-674.149	-68.995	-0.197	-0.077
-673.135	-118.502	0.305	-0.055
-672.120	534.435	0.195	-0.471
-671.105	-51.035	-0.029	0.014
-670.091	4.355	0.044	-0.032
-669.076	-149.276	0.258	0.021
-668.062	-107.365	-0.360	0.080
-667.047	-200.000	-0.050	0.274
-666.032	-90.474	0.087	-0.026
-665.018	80.389	-0.137	-0.150
-664.003	-92.491	-0.211	-0.060
-662.989	371.379	0.056	0.116
-661.974	70.589	0.053	0.055
-660.959	-127.671	-0.451	-0.066
-659.945	-200.000	0.000	0.163
-658.930	-159.576	-0.099	-0.006
-657.916	-8.464	-0.121	0.083
-656.901	275.384	0.046	0.083
-655.886	-82.922	0.481	0.158
-654.872	710.572	0.121	0.327
-653.857	264.563	0.029	0.051
-652.843	23.415	-0.176	-0.147
-651.828	34.422	-0.109	0.097
-650.814	-200.000	-0.013	-0.165
-649.799	116.035	0.035	-0.043
-648.784	-62.472	0.252	0.107
-647.770	-82.907	-0.032	0.011
-646.755	-200.000	-0.048	-0.280
-645.741	-110.700	0.183	-0.038
-644.726	800.000	0.072	0.234
-643.711	-35.126	-0.186	0.103
-642.697	-200.000	-0.012	-0.133
-641.682	4.733	-0.067	-0.050
-640.668	-19.800	0.057	0.036
-639.653	-153.949	0.141	-0.010
-638.638	131.305	0.049	-0.064
-637.624	800.000	0.136	-0.393
-636.609	-73.225	0.119	-0.044
-635.595	243.418	0.100	0.170
-634.580	800.000	0.005	0.021
-633.565	800.000	0.019	0.067
-632.551	-200.000	0.042	0.215
-631.536	101.366	-0.100	0.118
-630.522	-200.000	-0.008	-0.043
-629.507	35.063	0.315	0.280
-628.492	189.199	-0.138	0.210
-627.478	68.695	0.105	-0.110
-626.463	-128.234	0.200	0.029
-625.449	-120.540	-0.181	-0.031
-624.434	-81.815	0.127	0.042
-623.419	-70.576	0.073	0.028
-622.405	-200.000	0.013	-0.171
-621.390	654.896	0.122	0.317
-620.376	-200.000	0.002	-0.240
-619.361	-200.000	0.022	0.153
-618.346	212.002	0.104	0.166
-617.332	6.494	0.118	0.089
-616.317	-31.480	0.059	0.034
-615.303	-200.000	-0.020	0.281
-614.288	-200.000	-0.012	0.071
-613.273	800.000	0.045	0.128
-612.259	-109.069	0.270	0.058
-611.244	285.513	-0.078	0.143
-610.230	-137.308	-0.250	0.029
-609.215	-200.000	-0.050	-0.341
-608.201	800.000	-0.089	-0.364
-607.186	-9.730	0.025	-0.017
-606.171	-200.000	0.005	0.280
-605.157	-16.813	-0.289	0.186
-604.142	180.704	-0.032	0.048
-603.128	-66.202	0.210	0.085
-602.113	256.912	-0.095	0.165
-601.098	-200.000	0.065	-0.321
-600.084	-158.074	0.231	-0.014
-599.069	49.546	0.403	0.385
-598.055	331.011	-0.141	-0.276
-597.040	-96.222	0.512	-0.138
-596.025	800.000	0.038	-0.108
-595.011	75.292	0.268	-0.287
-593.996	248.327	-0.171	0.294
-592.982	101.957	-0.025	0.030
-591.967	-200.000	-0.024	-0.293
-590.952	-30.185	-0.426	-0.246
-589.938	0.075	-0.132	-0.095
-588.923	-20.908	-0.404	-0.251
-587.909	-129.787	0.195	0.027
-586.894	140.928	0.088	-0.118
-585.879	-200.000	0.021	-0.106
-584.865	-200.000	0.027	-0.141
-583.850	-115.920	-0.295	0.056
-582.836	208.025	-0.094	0.148
-581.821	-96.695	-0.080	-0.021
-580.806	-101.619	0.250	-0.062
-579.792	2.225	0.225	-0.165
-578.777	-59.041	-0.343	0.150
-577.763	13.912	0.076	0.060
-576.748	103.837	-0.181	0.216
-575.733	183.308	0.103	0.154
-574.719	114.677	-0.163	0.201
-573.704	-200.000	0.022	-0.176
-572.690	89.741	-0.109	-0.124
-571.675	-200.000	-0.013	0.215
-570.661	-96.420	-0.063	0.017
-569.646	-200.000	0.047	-0.244
-568.631	203.196	0.262	-0.410
-567.617	-35.490	0.085	-0.047
-566.602	-200.000	0.016	0.082
-565.588	153.606	-0.043	-0.059
-564.573	482.334	-0.064	0.147
-563.558	58.697	0.143	-0.142
-562.544	-77.918	0.220	0.077
-561.529	123.129	-0.048	-0.060
-560.515	-101.411	-0.050	-0.012
-559.500	269.575	0.129	-0.229
-558.485	533.518	-0.048	-0.115
-557.471	-166.399	0.440	0.019
-556.456	-200.000	-0.031	0.304
-555.442	-200.000	-0.316	-0.000
-554.427	-111.954	-0.080	-0.016
-553.412	112.128	0.161	0.197
-552.398	298.100	-0.140	-0.260
-551.383	196.370	-0.255	-0.394
-550.369	43.931	-0.222	0.206
-549.354	-200.000	-0.027	0.191
-548.339	62.192	0.202	0.204
-547.325	259.139	0.058	-0.102
-546.310	-200.000	0.013	-0.133
-545.296	-128.007	0.183	0.027
-544.281	-80.649	0.215	-0.072
-543.266	-111.234	0.221	0.046
-542.252	800.000	-0.042	-0.174
-541.237	-200.000	-0.055	-0.530
-540.223	-100.784	-0.188	-0.047
-539.208	-73.012	-0.131	-0.049
-538.193	-38.153	-0.324	-0.174
-537.179	-81.485	0.237	-0.079
-536.164	408.552	-0.134	0.287
-535.150	-96.891	0.531	-0.141
-534.135	800.000	-0.087	0.304
-533.121	261.697	0.177	0.311
-532.106	-122.964	0.034	-0.005
-531.091	-68.569	-0.294	-0.115
-530.077	-91.104	0.182	-0.053
-529.062	-114.163	0.082	-0.016
-528.048	-75.208	0.215	0.078
-527.033	-61.364	0.287	-0.122
-526.018	-13.806	-0.174	-0.114
-525.004	-153.268	-0.285	-0.020
-523.989	96.595	0.151	-0.175
-522.975	-63.894	-0.365	-0.151
-521.960	-81.169	-0.120	0.040
-520.945	-31.156	0.266	0.152
-519.931	-200.000	-0.040	-0.182
-518.916	-39.776	-0.175	-0.093
-517.902	-200.000	-0.025	-0.228
-516.887	-29.439	0.072	-0.042
-515.872	-20.671	-0.305	0.190
-514.858	-113.462	0.152	-0.030
-513.843	63.822	0.111	-0.113
-512.829	-88.395	0.154	0.047
-511.814	800.000	0.077	-0.245
-510.799	-83.908	-0.308	0.099
-509.785	800.000	-0.066	-0.207
-508.770	-55.508	0.250	-0.113
-507.756	-200.000	0.059	-0.314
-506.741	1.720	-0.222	-0.162
-505.726	-153.070	-0.267	-0.019
-504.712	-106.879	0.535	0.120
-503.697	-70.946	-0.178	-0.068
-502.683	-58.772	-0.103	-0.045
-501.668	800.000	0.016	0.045
-500.653	276.541	-0.092	-0.164
-499.639	-200.000	0.045	0.275
-498.624	247.249	-0.041	0.070
-497.610	-80.157	-0.268	-0.091
-496.595	-200.000	0.051	0.252
-495.581	-200.000	0.049	-0.222
-494.566	-107.902	-0.217	-0.048
-493.551	6.437	0.266	-0.200
-492.537	256.546	-0.218	-0.378
-491.522	-128.615	-0.172	0.025
-490.508	100.684	-0.172	-0.202
-489.493	-138.861	-0.116	-0.013
-488.478	4.400	0.280	0.207
-487.464	-158.532	0.152	-0.009
-486.449	-200.000	0.050	0.350
-485.435	-19.795	-0.259	-0.162
-484.420	-97.687	-0.103	0.027
-483.405	71.319	0.093	-0.098
-482.391	-138.347	-0.541	-0.060
-481.376	-103.385	-0.371	-0.088
-480.362	-69.290	0.393	0.152
-479.347	-200.000	-0.034	0.241
-478.332	587.274	0.089	0.222
-477.318	-139.943	-0.036	-0.004
-476.303	-200.000	-0.008	0.301
-475.289	-105.271	0.094	-0.022
-474.274	221.468	0.200	0.325
-473.259	59.807	-0.080	0.080
-472.245	-89.114	-0.289	0.086
-471.230	164.706	0.143	0.204
-470.216	445.203	0.040	-0.089
-469.201	599.861	0.086	-0.216
-468.186	800.000	-0.104	0.305
-467.172	621.617	-0.229	0.583
-466.157	-85.403	0.225	0.071
-465.143	-98.854	-0.143	-0.037
-464.128	82.158	0.022	-0.024
-463.113	22.687	-0.025	-0.021
-462.099	-147.557	-0.120	-0.010
-461.084	-200.000	-0.006	-0.096
-460.070	356.561	0.202	-0.407
-459.055	69.436	0.342	-0.355
-458.040	-150.668	-0.205	0.016
-457.026	250.494	0.029	-0.049
-456.011	800.000	-0.069	-0.269
-454.997	-51.475	0.336	-0.158
-453.982	-54.447	0.081	-0.037
-452.968	18.032	-0.335	0.270
-451.953	311.806	-0.156	0.295
-450.938	165.346	0.100	0.143
-449.924	52.051	0.243	-0.234
-448.909	-110.040	-0.332	0.070
-447.895	127.215	-0.062	0.080
-446.880	-58.387	0.247	0.108
-445.865	45.766	0.290	-0.270
-444.851	88.464	-0.163	-0.183
-443.836	-74.890	-0.245	-0.088
-442.822	-115.193	0.146	-0.028
-441.807	-164.275	-0.380	-0.018
-440.792	185.237	0.097	-0.145
-439.778	222.959	0.106	0.172
-438.763	-200.000	-0.039	0.174
-437.749	-43.325	0.071	-0.036
-436.734	-35.669	0.166	-0.091
-435.719	-200.000	-0.003	0.112
-434.705	-35.936	0.201	-0.109
-433.690	-67.539	0.192	0.076
-432.676	-123.178	0.023	0.004
-431.661	-131.316	0.463	-0.062
-430.646	-82.157	0.205	-0.067
-429.632	800.000	0.118	-0.392
-428.617	55.587	0.117	-0.114
-427.603	-35.949	-0.147	0.080
-426.588	38.077	-0.118	-0.106
-425.573	-200.000	0.002	-0.063
-424.559	-1.558	0.217	0.154
-423.544	-200.000	-0.006	-0.102
-422.530	-78.861	-0.139	0.048
-421.515	-200.000	-0.040	0.252
-420.500	-103.523	0.318	-0.075
-419.486	800.000	-0.116	-0.353
-418.471	210.893	0.249	0.395
-417.457	-36.392	-0.161	0.087
-416.442	266.259	-0.019	0.033
-415.428	800.000	0.111	-0.392
-414.413	-200.000	-0.009	0.170
-413.398	-200.000	-0.003	0.239
-412.384	113.888	0.162	-0.198
-411.369	-138.535	-0.312	0.035
-410.355	106.307	-0.272	0.324
-409.340	331.585	0.147	-0.285
-408.325	-200.000	-0.036	-0.209
-407.311	-72.607	-0.218	0.081
-406.296	34.458	-0.262	-0.231
-405.282	800.000	-0.031	0.121
-404.267	-200.000	0.007	-0.095
-403.252	-200.000	0.036	-0.450
-402.238	-21.374	-0.049	0.030
-401.223	-91.308	-0.395	0.114
-400.209	762.709	0.049	-0.134
-399.194	289.808	-0.047	0.087
-398.179	-200.000	0.037	0.185
-397.165	80.236	-0.090	0.098
-396.150	349.201	-0.067	-0.133
-395.136	290.478	-0.134	0.245
-394.121	-200.000	0.000	-0.038
-393.106	-200.000	0.009	0.103
-392.092	167.502	-0.172	0.246
-391.077	-200.000	0.010	0.253
-390.063	488.521	-0.207	-0.476
-389.048	69.873	0.162	-0.168
-388.033	-52.178	-0.354	0.165
-387.019	-57.337	0.225	-0.100
-386.004	-56.264	-0.231	-0.103
-384.990	138.091	-0.164	0.216
-383.975	69.450	-0.169	0.176
-382.960	-152.908	0.235	-0.017
-381.946	-88.373	0.380	-0.114
-380.931	-5.740	-0.230	0.158
-379.917	800.000	-0.030	-0.104
-378.902	-200.000	-0.043	-0.270
-377.888	64.807	-0.116	-0.118
-376.873	-61.736	-0.204	0.086
-375.858	455.932	-0.068	0.152
-374.844	54.056	-0.280	0.271
-373.829	581.793	0.035	-0.085
-372.815	-52.640	-0.254	0.118
-371.800	-174.307	-0.061	-0.002
-370.785	2.875	-0.448	-0.328
-369.771	-135.651	-0.140	-0.017
-368.756	-116.720	0.145	0.027
-367.742	800.000	-0.064	0.270
-366.727	-114.016	0.294	0.057
-365.712	-28.517	-0.177	-0.102
-364.698	-135.050	0.364	-0.044
-363.683	-89.471	-0.233	-0.069
-362.669	-200.000	-0.002	0.193
-361.654	-119.766	0.256	-0.044
-360.639	-200.000	-0.035	0.315
-359.625	144.195	-0.059	-0.079
-358.610	-114.095	-0.117	-0.023
-357.596	-200.000	0.060	-0.289
-356.581	209.772	0.090	-0.141
-355.566	25.360	-0.194	-0.162
-354.552	-200.000	0.049	0.262
-353.537	-200.000	0.027	0.150
-352.523	-194.773	-0.090	-0.001
-351.508	56.990	0.239	0.234
-350.493	-62.735	0.368	-0.153
-349.479	11.190	-0.135	0.104
-348.464	-41.432	-0.141	0.073
-347.450	800.000	-0.077	-0.270
-346.435	-115.749	0.173	0.033
-345.420	-200.000	-0.020	0.221
-344.406	800.000	0.054	0.158
-343.391	-39.752	0.169	0.089
-342.377	175.237	0.157	-0.229
-341.362	800.000	-0.060	0.201
-340.348	53.241	0.295	-0.284
-339.333	-200.000	0.007	0.318
-338.318	-82.223	-0.334	0.109
-337.304	800.000	0.076	-0.224
-336.289	-46.044	-0.257	-0.127
-335.275	182.893	-0.221	0.327
-334.260	-200.000	0.048	0.221
-333.245	-98.537	-0.120	0.031
-332.231	-16.077	-0.262	-0.167
-331.216	55.149	0.063	0.061
-330.202	800.000	0.048	0.194
-329.187	176.563	0.092	-0.134
-328.172	-9.404	-0.155	0.104
-327.158	62.384	0.288	0.289
-326.143	570.773	-0.120	0.294
-325.129	-70.691	0.346	0.131
-324.114	606.890	0.025	-0.062
-323.099	800.000	-0.055	-0.156
-322.085	-200.000	0.053	-0.347
-321.070	402.573	-0.089	-0.188
-320.056	-200.000	0.007	-0.032
-319.041	-200.000	-0.031	-0.198
-318.026	14.608	-0.111	-0.087
-317.012	551.918	0.046	-0.111
-315.997	-200.000	-0.061	-0.315
-314.983	139.037	-0.032	-0.042
-313.968	-47.109	0.182	-0.089
-312.953	497.497	0.061	0.141
-311.939	44.912	0.255	0.236
-310.924	322.912	-0.157	0.301
-309.910	36.097	-0.211	0.186
-308.895	145.520	-0.152	0.205
-307.880	346.977	-0.113	-0.223
-306.866	-145.094	0.206	-0.019
-305.851	-8.313	0.246	-0.166
-304.837	88.727	-0.101	-0.113
-303.822	-170.977	-0.064	-0.002
-302.807	-200.000	-0.011	-0.158
-301.793	800.000	-0.039	0.121
-300.778	132.449	-0.051	-0.066
-299.764	-152.688	-0.209	-0.015
-298.749	312.123	-0.097	-0.182
-297.735	-45.722	0.098	-0.049
-296.720	800.000	-0.034	0.127
-295.705	800.000	0.101	-0.383
-294.691	14.510	0.056	0.044
-293.676	130.301	0.408	0.524
-292.662	-121.201	0.225	-0.038
-291.647	32.178	-0.190	0.165
-290.632	14.586	0.134	0.105
-289.618	-200.000	-0.007	0.312
-288.603	-200.000	-0.018	0.320
-287.589	277.570	-0.030	-0.054
-286.574	-86.627	0.004	0.001
-285.559	-159.603	-0.306	-0.017
-284.545	800.000	0.041	0.130
-283.530	-55.487	0.485	0.218
-282.516	-53.282	0.162	-0.074
-281.501	-28.939	-0.119	-0.068
-280.486	329.435	-0.068	0.132
-279.472	-144.332	-0.184	-0.017
-278.457	35.477	0.076	0.067
-277.443	149.123	-0.060	0.082
-276.428	800.000	0.061	0.226
-275.413	192.482	0.153	0.232
-274.399	120.336	0.250	0.311
-273.384	-85.055	-0.323	0.101
-272.370	-181.453	0.273	0.005
-271.355	-108.593	0.296	0.064
-270.340	-111.623	-0.250	0.051
-269.326	-22.599	-0.342	0.207
-268.311	383.781	-0.077	0.160
-267.297	56.611	0.128	0.125
-266.282	228.266	-0.069	-0.113
-265.267	73.926	0.317	-0.333
-264.253	-76.884	-0.440	-0.154
-263.238	59.799	0.082	-0.081
-262.224	-23.142	-0.211	0.127
-261.209	-185.815	0.285	-0.004
-260.195	80.918	0.166	0.180
-259.180	36.937	-0.097	-0.086
-258.165	-62.242	0.256	-0.107
-257.151	116.117	-0.144	-0.177
-256.136	-123.402	0.237	-0.038
-255.122	-200.000	0.017	-0.157
-254.107	-62.078	-0.099	-0.041
-253.092	-150.230	-0.084	-0.006
-252.078	-200.000	-0.009	0.303
-251.063	-200.000	0.027	0.236
-250.049	-79.704	-0.301	-0.102
-249.034	-200.000	0.044	-0.241
-248.019	-6.255	-0.159	0.108
-247.005	-175.331	-0.495	-0.014
-245.990	330.585	0.110	-0.211
-244.976	46.091	0.195	-0.181
-243.961	124.242	0.218	-0.274
-242.946	52.425	0.170	-0.162
-241.932	182.766	0.166	-0.246
-240.917	781.208	0.083	-0.227
-239.903	57.506	-0.125	0.122
-238.888	-32.910	-0.057	0.032
-237.873	-73.089	0.475	0.174
-236.859	-88.275	0.336	0.101
-235.844	-200.000	0.007	-0.319
-234.830	800.000	-0.100	0.344
-233.815	-124.340	0.165	0.026
-232.800	158.600	0.203	-0.282
-231.786	59.874	0.069	-0.068
-230.771	-200.000	0.006	-0.030
-229.757	30.757	-0.135	-0.116
-228.742	-200.000	0.007	0.136
-227.727	-82.676	0.037	0.012
-226.713	381.060	-0.198	0.406
-225.698	-12.579	-0.148	-0.097
-224.684	92.997	-0.170	0.192
-223.669	141.903	-0.274	0.363
-222.655	133.235	0.153	0.197
-221.640	-117.366	-0.167	-0.030
-220.625	800.000	-0.067	-0.189
-219.611	-200.000	0.020	-0.096
-218.596	-200.000	-0.013	-0.254
-217.582	-59.801	-0.516	-0.221
-216.567	-200.000	-0.032	0.229
-215.552	164.663	0.114	0.160
-214.538	800.000	0.078	-0.290
-213.523	280.769	-0.082	-0.147
-212.509	316.937	-0.090	0.170
-211.494	-61.954	0.105	0.044
-210.479	0.424	-0.343	0.245
-209.465	47.444	0.079	-0.074
-208.450	-90.766	0.254	-0.073
-207.436	79.676	0.044	0.047
-206.421	-51.267	-0.249	-0.117
-205.406	-17.530	-0.188	-0.118
-204.392	-79.811	-0.198	-0.067
-203.377	19.989	0.422	0.340
-202.363	376.293	0.078	-0.160
-201.348	800.000	-0.045	0.132
-200.333	145.284	-0.154	-0.207
-199.319	800.000	0.079	-0.234
-198.304	-200.000	-0.036	0.352
-197.290	-200.000	-0.079	-0.446
-196.275	-173.273	-0.135	-0.004
-195.260	800.000	-0.037	-0.126
-194.246	-128.321	0.172	0.025
-193.231	70.504	-0.252	0.261
-192.217	800.000	-0.061	0.245
-191.202	-200.000	-0.007	-0.169
-190.187	23.637	-0.058	0.047
-189.173	-27.232	-0.147	-0.085
-188.158	21.880	-0.112	0.091
-187.144	-122.375	0.077	0.012
-186.129	-93.320	0.227	-0.063
-185.114	800.000	0.036	-0.126
-184.100	-200.000	0.018	0.249
-183.085	800.000	0.033	0.129
-182.071	-200.000	0.005	0.032
-181.056	800.000	-0.062	0.200
-180.042	800.000	-0.111	-0.370
-179.027	275.524	0.247	-0.437
-178.012	-156.415	-0.183	-0.011
-176.998	241.213	0.250	0.417
-175.983	58.691	0.132	-0.129
-174.969	108.136	-0.092	-0.110
-173.954	445.544	0.028	-0.062
-172.939	81.693	0.123	0.133
-171.925	137.778	-0.191	-0.249
-170.910	-115.609	0.248	0.047
-169.896	-0.186	0.216	0.153
-168.881	196.726	0.105	0.159
-167.866	-200.000	-0.030	0.139
-166.852	0.644	-0.069	-0.050
-165.837	747.806	0.059	0.160
-164.823	-112.049	0.315	-0.063
-163.808	-25.627	-0.182	0.107
-162.793	-24.614	-0.112	-0.067
-161.779	388.200	-0.174	0.359
-160.764	-24.399	-0.310	0.184
-159.750	-97.372	-0.304	0.079
-158.735	-200.000	0.033	-0.168
-157.720	595.556	0.014	0.035
-156.706	153.342	0.066	-0.090
-155.691	-200.000	0.007	-0.180
-154.677	-200.000	-0.022	0.198
-153.662	247.138	0.069	0.116
-152.647	-151.388	0.323	-0.024
-151.633	327.697	0.113	-0.217
-150.618	512.008	0.146	-0.338
-149.604	190.858	-0.087	0.130
-148.589	305.214	-0.036	-0.066
-147.574	-45.990	-0.123	-0.061
-146.560	-123.208	0.201	-0.032
-145.545	198.913	-0.146	0.223
-144.531	5.589	0.086	0.063
-143.516	-139.482	-0.135	0.014
-142.502	129.065	0.162	0.206
-141.487	-102.892	-0.205	-0.048
-140.472	158.099	-0.137	0.189
-139.458	-77.701	-0.228	0.079
-138.443	70.261	0.212	0.218
-137.429	-95.998	0.188	0.050
-136.414	-41.330	-0.106	0.055
-135.399	-68.820	-0.252	0.097
-134.385	283.090	0.032	-0.058
-133.370	124.723	0.059	-0.074
-132.356	-18.426	0.239	0.149
-131.341	170.709	0.186	0.266
-130.326	-66.765	0.275	0.108
-129.312	800.000	0.100	0.372
-128.297	-120.048	-0.153	-0.026
-127.283	106.113	-0.028	0.033
-126.268	800.000	-0.037	0.139
-125.253	-68.799	-0.261	-0.101
-124.239	24.519	-0.242	-0.200
-123.224	800.000	-0.088	-0.349
-122.210	-200.000	0.003	-0.277
