DTS Sentinel unit serial number:	SN413079Multiplexer serial number:	ORYXHardware model number:	OX4-SRSoftware version number:	ORYX F/W v4.00 Oryx Data Collector v3.7.2.0data status	okinstallation	princeton_trtdifferential loss correction	single-endedforward channel	channel 3reverse channel	N/Adate	2019/09/13time	08:40:34forward acquisition time	60.00reverse acquisition time	0.00gamma	496.2192k internal	0.2331k external	0.2331temperature offset calibration	1.0137default loss term (dB/km)	0.3790temperature slope calibration	1.0000multiplexer offset coefficient	1.0000multiplexer slope coefficient	1.0000fibre end	0.00T internal ref (°C)	27.78T ext. ref 1 (°C)	4.29T ext. ref 2 (°C)	24.73length (m)	temperature (°C)	Stokes	anti-Stokes-747.200	179.434	0.126	0.185
-746.185	32.459	0.084	-0.073
-745.171	36.107	-0.315	-0.279
-744.156	-129.557	-0.539	0.075
-743.142	595.843	0.085	-0.211
-742.127	135.561	-0.204	0.267
-741.112	800.000	-0.005	0.014
-740.098	25.143	0.185	0.155
-739.083	589.953	0.091	0.225
-738.069	572.040	-0.163	0.400
-737.054	-36.009	0.102	0.056
-736.039	-5.571	-0.254	-0.175
-735.025	-103.719	0.439	0.103
-734.010	-113.096	-0.331	0.066
-732.996	233.399	-0.066	-0.109
-731.981	209.659	-0.180	-0.284
-730.966	78.178	-0.227	0.244
-729.952	49.989	-0.318	-0.301
-728.937	181.444	0.167	0.246
-727.923	-96.912	-0.127	0.033
-726.908	53.938	0.095	-0.092
-725.894	-71.682	0.111	-0.042
-724.879	-92.868	-0.185	0.052
-723.864	746.390	0.187	0.505
-722.850	-154.291	0.094	0.006
-721.835	-94.120	0.308	-0.085
-720.821	-200.000	-0.022	-0.156
-719.806	148.633	-0.174	-0.237
-718.791	298.762	-0.064	-0.119
-717.777	-28.908	-0.187	-0.108
-716.762	88.746	0.030	0.033
-715.748	41.235	-0.069	-0.063
-714.733	31.863	-0.317	0.275
-713.718	438.363	0.067	0.148
-712.704	-71.681	-0.206	-0.077
-711.689	-126.564	0.356	0.053
-710.675	186.788	0.061	-0.091
-709.660	11.156	-0.029	-0.022
-708.645	58.815	0.077	-0.076
-707.631	-99.708	-0.139	0.035
-706.616	658.400	0.025	0.065
-705.602	783.840	0.118	0.324
-704.587	-200.000	0.052	0.228
-703.572	27.212	-0.092	-0.078
-702.558	30.149	0.162	-0.139
-701.543	-200.000	-0.006	-0.113
-700.529	-200.000	0.049	-0.323
-699.514	-124.540	0.125	-0.020
-698.499	800.000	-0.051	-0.191
-697.485	92.421	0.010	0.012
-696.470	-108.029	-0.370	-0.081
-695.456	34.206	0.157	0.138
-694.441	-18.414	-0.239	0.150
-693.426	-170.957	0.169	0.006
-692.412	-158.279	-0.253	-0.015
-691.397	-3.629	-0.186	-0.130
-690.383	187.788	-0.088	-0.132
-689.368	800.000	0.016	0.068
-688.354	62.874	-0.196	0.197
-687.339	142.543	0.107	0.143
-686.324	-96.211	-0.337	-0.090
-685.310	201.633	0.077	0.120
-684.295	800.000	-0.060	0.211
-683.281	-28.401	0.204	0.118
-682.266	-200.000	0.014	-0.188
-681.251	-112.111	-0.209	0.042
-680.237	-200.000	0.059	-0.367
-679.222	215.468	-0.093	0.148
-678.208	-200.000	-0.033	-0.192
-677.193	12.736	-0.227	0.176
-676.178	-200.000	-0.004	0.281
-675.164	-97.839	0.343	0.089
-674.149	-200.000	0.019	-0.231
-673.135	-193.500	-0.358	-0.003
-672.120	-49.667	0.179	0.085
-671.105	761.270	0.130	-0.353
-670.091	-168.035	-0.185	0.007
-669.076	-80.188	0.181	0.061
-668.062	163.902	0.167	-0.236
-667.047	-153.171	-0.072	0.005
-666.032	-52.574	-0.038	0.017
-665.018	320.365	-0.164	-0.312
-664.003	-102.750	-0.130	0.031
-662.989	36.071	-0.173	0.153
-661.974	-18.173	-0.304	-0.191
-660.959	-124.564	0.319	0.050
-659.945	-81.116	0.072	-0.024
-658.930	-84.019	-0.400	-0.127
-657.916	-107.691	-0.302	-0.066
-656.901	-122.153	-0.199	-0.033
-655.886	134.307	-0.076	0.099
-654.872	-200.000	-0.010	-0.199
-653.857	3.817	-0.261	-0.191
-652.843	53.609	-0.238	-0.229
-651.828	73.541	0.099	-0.104
-650.814	800.000	-0.047	0.137
-649.799	-116.409	0.152	-0.028
-648.784	141.029	0.108	0.143
-647.770	373.209	0.116	-0.236
-646.755	-90.617	0.157	0.046
-645.741	49.318	-0.185	-0.175
-644.726	-63.391	-0.364	0.150
-643.711	-85.682	0.225	-0.070
-642.697	800.000	-0.048	0.139
-641.682	800.000	0.059	0.205
-640.668	-11.791	0.077	-0.050
-639.653	-52.535	-0.160	0.074
-638.638	-120.177	-0.236	0.040
-637.624	-34.906	0.072	-0.039
-636.609	-3.303	-0.278	0.194
-635.595	-77.551	-0.069	-0.024
-634.580	-200.000	0.000	-0.142
-633.565	210.257	-0.182	0.287
-632.551	99.686	-0.039	-0.046
-631.536	250.386	-0.101	0.172
-630.522	-45.488	-0.218	-0.108
-629.507	31.926	-0.214	-0.185
-628.492	-33.330	0.207	0.115
-627.478	510.855	-0.099	-0.231
-626.463	341.028	-0.077	-0.152
-625.449	800.000	0.013	0.046
-624.434	87.759	-0.282	-0.313
-623.419	-200.000	0.009	-0.097
-622.405	-8.575	-0.216	-0.145
-621.390	67.347	-0.105	-0.107
-620.376	-61.451	-0.337	0.142
-619.361	800.000	0.076	0.211
-618.346	800.000	-0.058	0.211
-617.332	-139.459	-0.062	0.007
-616.317	800.000	0.093	0.312
-615.303	-200.000	0.017	0.166
-614.288	-200.000	0.023	0.121
-613.273	-63.839	-0.278	-0.114
-612.259	345.727	0.194	0.381
-611.244	44.189	-0.148	0.136
-610.230	-200.000	-0.043	-0.300
-609.215	777.219	-0.149	0.408
-608.201	171.589	-0.122	-0.175
-607.186	-67.909	-0.179	-0.070
-606.171	-158.913	0.084	0.005
-605.157	-18.865	-0.335	0.209
-604.142	-87.775	0.170	-0.051
-603.128	-200.000	0.056	0.488
-602.113	537.000	0.078	0.185
-601.098	-9.700	0.040	0.027
-600.084	800.000	0.043	-0.153
-599.069	29.854	0.295	-0.252
-598.055	-200.000	0.034	-0.180
-597.040	-200.000	-0.024	-0.197
-596.025	207.287	0.122	-0.190
-595.011	-14.271	0.381	0.246
-593.996	-143.367	-0.104	-0.010
-592.982	633.677	0.104	0.264
-591.967	65.789	-0.081	-0.083
-590.952	32.992	0.201	0.174
-589.938	15.518	0.197	0.155
-588.923	105.397	0.162	0.192
-587.909	530.336	-0.099	-0.233
-586.894	-147.853	0.092	0.008
-585.879	572.200	0.092	0.223
-584.865	119.975	-0.173	-0.215
-583.850	14.809	0.465	0.364
-582.836	800.000	-0.078	-0.245
-581.821	-120.630	0.252	0.043
-580.806	-89.595	0.173	-0.051
-579.792	800.000	0.053	-0.149
-578.777	90.721	0.192	-0.215
-577.763	-19.197	-0.307	0.191
-576.748	-84.019	-0.309	-0.098
-575.733	-200.000	-0.073	-0.340
-574.719	-179.512	0.190	-0.004
-573.704	-200.000	-0.013	0.085
-572.690	-200.000	-0.031	0.145
-571.675	-12.587	0.115	-0.075
-570.661	-200.000	0.020	0.177
-569.646	-4.270	-0.213	-0.148
-568.631	-96.859	0.196	-0.051
-567.617	363.442	-0.133	0.267
-566.602	-200.000	-0.008	0.088
-565.588	693.581	-0.066	0.172
-564.573	-57.564	0.127	-0.055
-563.558	91.501	-0.031	0.035
-562.544	-185.558	-0.410	0.006
-561.529	-200.000	-0.041	-0.187
-560.515	37.123	0.216	-0.191
-559.500	212.666	-0.055	0.086
-558.485	-200.000	0.035	-0.240
-557.471	-111.860	0.170	-0.034
-556.456	174.881	-0.167	0.242
-555.442	724.114	-0.060	-0.158
-554.427	36.714	-0.110	-0.097
-553.412	85.219	0.251	-0.275
-552.398	51.509	-0.060	0.057
-551.383	2.740	-0.269	0.195
-550.369	-200.000	-0.029	0.190
-549.354	-24.480	0.051	-0.030
-548.339	-121.944	-0.104	0.017
-547.325	9.580	-0.254	0.192
-546.310	-200.000	-0.002	-0.049
-545.296	35.228	-0.229	-0.200
-544.281	800.000	-0.046	-0.159
-543.266	-40.222	0.290	-0.151
-542.252	-48.433	-0.068	0.033
-541.237	-200.000	-0.000	0.294
-540.223	694.735	-0.088	0.231
-539.208	-88.755	-0.170	0.050
-538.193	134.689	0.235	0.304
-537.179	800.000	0.078	-0.267
-536.164	-200.000	-0.035	-0.591
-535.150	800.000	-0.008	-0.035
-534.135	499.384	-0.053	-0.121
-533.121	32.995	-0.308	0.267
-532.106	167.734	0.019	-0.026
-531.091	125.778	-0.148	-0.187
-530.077	505.006	0.089	0.206
-529.062	255.659	0.024	0.042
-528.048	-200.000	0.012	-0.062
-527.033	800.000	-0.039	-0.128
-526.018	231.309	-0.069	-0.114
-525.004	-99.842	0.282	0.070
-523.989	800.000	-0.046	-0.164
-522.975	800.000	-0.089	-0.314
-521.960	-200.000	0.022	-0.165
-520.945	428.113	-0.184	0.397
-519.931	-130.354	-0.196	0.027
-518.916	-200.000	0.033	0.168
-517.902	-65.782	0.078	-0.031
-516.887	170.179	-0.181	-0.258
-515.872	-33.229	-0.158	0.087
-514.858	-129.739	-0.165	-0.023
-513.843	-2.788	0.139	-0.097
-512.829	-121.176	-0.233	-0.039
-511.814	4.168	-0.306	0.223
-510.799	556.537	-0.048	-0.114
-509.785	192.629	0.218	-0.328
-508.770	-163.552	0.088	-0.004
-507.756	-29.084	0.115	0.066
-506.741	-43.765	0.171	-0.086
-505.726	-33.018	0.207	0.114
-504.712	-159.591	-0.308	-0.017
-503.697	-22.997	0.083	0.050
-502.683	-200.000	-0.056	0.261
-501.668	207.330	0.141	-0.219
-500.653	-200.000	-0.001	0.048
-499.639	-200.000	0.010	0.194
-498.624	-119.836	-0.376	0.065
-497.610	213.666	-0.085	0.135
-496.595	-200.000	-0.034	-0.267
-495.581	-115.938	-0.317	-0.059
-494.566	-62.184	-0.234	0.097
-493.551	282.669	-0.065	0.117
-492.537	-200.000	0.046	-0.297
-491.522	158.151	0.228	-0.315
-490.508	186.899	0.104	-0.154
-489.493	-200.000	0.023	0.129
-488.478	-18.707	-0.139	-0.087
-487.464	-12.483	-0.150	-0.098
-486.449	83.487	-0.100	0.109
-485.435	-200.000	-0.002	-0.148
-484.420	-62.766	-0.245	-0.101
-483.405	147.271	0.061	-0.082
-482.391	123.460	0.118	-0.147
-481.376	66.007	0.250	-0.252
-480.362	608.746	0.045	0.113
-479.347	317.213	0.038	-0.071
-478.332	-118.620	-0.170	0.030
-477.318	-200.000	0.035	0.171
-476.303	-200.000	0.035	0.335
-475.289	-87.385	0.037	0.011
-474.274	-143.650	0.413	0.039
-473.259	-200.000	0.010	-0.133
-472.245	-200.000	0.029	-0.230
-471.230	-112.843	-0.086	-0.017
-470.216	-200.000	0.067	0.377
-469.201	-200.000	0.003	-0.173
-468.186	-94.894	-0.331	0.089
-467.172	190.301	-0.087	0.130
-466.157	202.136	-0.152	-0.234
-465.143	-71.240	0.044	0.016
-464.128	-23.378	0.075	0.045
-463.113	-110.521	0.281	-0.058
-462.099	800.000	-0.026	0.103
-461.084	-78.678	0.057	-0.019
-460.070	-130.432	-0.047	-0.006
-459.055	4.882	-0.134	-0.098
-458.040	-105.302	0.150	-0.034
-457.026	-131.253	-0.177	-0.023
-456.011	-200.000	0.040	0.189
-454.997	-148.334	-0.274	-0.022
-453.982	-151.906	0.367	-0.027
-452.968	-200.000	-0.009	-0.047
-451.953	-74.876	0.126	-0.045
-450.938	-161.574	-0.171	0.009
-449.924	161.143	-0.145	-0.202
-448.909	211.635	-0.157	0.246
-447.895	204.345	0.160	0.246
-446.880	48.587	-0.106	0.099
-445.865	-200.000	0.055	0.344
-444.851	-200.000	0.354	-0.001
-443.836	107.665	-0.043	-0.051
-442.822	22.224	-0.155	-0.126
-441.807	-37.765	0.143	0.076
-440.792	-88.707	0.125	0.037
-439.778	-77.813	0.139	0.048
-438.763	-62.295	0.076	0.031
-437.749	-83.099	0.076	0.024
-436.734	34.726	-0.242	0.211
-435.719	-169.713	0.120	0.004
-434.705	174.720	-0.114	0.165
-433.690	800.000	0.072	-0.309
-432.676	-141.618	-0.059	-0.006
-431.661	2.745	-0.053	-0.038
-430.646	-200.000	-0.071	0.332
-429.632	-5.808	0.021	0.014
-428.617	-121.449	0.219	0.036
-427.603	-66.838	0.111	0.043
-426.588	787.241	0.107	-0.291
-425.573	93.635	0.193	0.217
-424.559	-6.740	0.527	0.357
-423.544	-144.455	-0.216	-0.020
-422.530	-153.894	-0.122	0.008
-421.515	129.169	0.195	0.248
-420.500	-200.000	0.004	-0.093
-419.486	-200.000	0.073	-0.329
-418.471	-21.998	-0.320	-0.193
-417.457	155.096	0.077	0.105
-416.442	-62.615	0.270	0.111
-415.428	24.800	0.137	-0.113
-414.413	318.497	0.184	0.346
-413.398	95.416	0.051	-0.057
-412.384	173.444	0.151	0.216
-411.369	-93.787	0.208	-0.057
-410.355	739.257	0.046	0.122
-409.340	193.062	-0.024	0.036
-408.325	-46.947	-0.128	-0.062
-407.311	616.637	-0.115	0.287
-406.296	800.000	-0.111	-0.447
-405.282	-94.949	0.455	-0.122
-404.267	-30.041	-0.045	0.025
-403.252	-200.000	0.076	-0.371
-402.238	800.000	0.139	-0.442
-401.223	759.367	0.045	-0.122
-400.209	-110.514	-0.145	0.030
-399.194	800.000	-0.194	0.601
-398.179	46.899	0.318	0.294
-397.165	187.021	0.066	0.097
-396.150	281.794	0.122	-0.217
-395.136	-106.385	-0.245	0.054
-394.121	62.756	-0.239	-0.237
-393.106	-43.360	0.240	-0.121
-392.092	800.000	0.070	0.274
-391.077	515.480	0.038	0.088
-390.063	-46.446	-0.009	-0.004
-389.048	800.000	0.069	-0.240
-388.033	83.049	0.038	0.041
-387.019	386.863	-0.064	0.131
-386.004	108.323	-0.240	-0.285
-384.990	800.000	-0.040	-0.124
-383.975	-200.000	0.005	0.480
-382.960	-20.264	0.229	-0.140
-381.946	166.092	0.043	-0.061
-380.931	-23.664	-0.192	0.114
-379.917	191.115	-0.131	0.196
-378.902	271.462	0.159	0.278
-377.888	127.608	0.156	0.196
-376.873	-87.074	-0.135	-0.041
-375.858	298.392	0.200	-0.365
-374.844	-135.964	-0.198	0.023
-373.829	-94.697	0.092	0.025
-372.815	48.614	0.099	-0.092
-371.800	84.383	0.085	-0.092
-370.785	-90.264	-0.079	0.023
-369.771	-16.202	-0.284	0.179
-368.756	207.116	-0.090	0.140
-367.742	800.000	0.026	-0.110
-366.727	-57.717	0.274	-0.119
-365.712	-8.316	-0.399	0.266
-364.698	112.075	0.208	-0.249
-363.683	42.978	-0.087	-0.079
-362.669	54.980	-0.227	0.218
-361.654	-57.724	-0.173	-0.075
-360.639	-200.000	0.084	-0.454
-359.625	11.462	0.208	-0.158
-358.610	-200.000	-0.039	0.230
-357.596	140.631	0.192	0.252
-356.581	-132.743	0.248	-0.031
-355.566	800.000	-0.056	0.190
-354.552	-137.110	0.115	0.013
-353.537	-200.000	0.001	0.180
-352.523	180.940	-0.205	-0.299
-351.508	449.907	-0.205	-0.448
-350.493	17.004	-0.249	0.196
-349.479	-52.915	0.300	-0.137
-348.464	22.467	0.125	-0.101
-347.450	-200.000	-0.205	0.001
-346.435	-83.723	0.219	-0.069
-345.420	-92.911	0.088	-0.024
-344.406	376.224	0.180	-0.364
-343.391	-10.809	-0.342	-0.224
-342.377	-61.376	0.086	-0.036
-341.362	-26.311	-0.191	-0.111
-340.348	523.462	0.098	-0.229
-339.333	25.827	0.148	-0.122
-338.318	48.189	0.122	0.113
-337.304	35.991	0.153	0.133
-336.289	-99.603	0.148	-0.037
-335.275	-200.000	-0.020	-0.348
-334.260	-119.556	-0.270	-0.046
-333.245	358.410	-0.134	0.266
-332.231	31.304	-0.104	0.089
-331.216	-69.047	-0.189	-0.072
-330.202	-200.000	0.051	-0.309
-329.187	165.418	0.118	0.165
-328.172	649.028	0.080	0.203
-327.158	418.553	0.091	0.193
-326.143	800.000	-0.097	0.332
-325.129	87.648	-0.128	0.141
-324.114	-200.000	-0.008	0.279
-323.099	-136.093	-0.180	-0.021
-322.085	38.898	-0.044	0.039
-321.070	10.059	0.156	-0.117
-320.056	800.000	0.145	0.426
-319.041	-200.000	0.051	0.303
-318.026	-140.465	0.260	-0.027
-317.012	690.698	0.058	-0.151
-315.997	-150.315	-0.167	-0.013
-314.983	-200.000	-0.042	0.194
-313.968	-200.000	0.021	-0.124
-312.953	-142.782	0.146	0.014
-311.939	8.478	-0.075	-0.056
-310.924	-200.000	-0.038	-0.230
-309.910	-145.181	-0.144	-0.013
-308.895	-200.000	0.017	0.122
-307.880	-200.000	0.010	-0.139
-306.866	185.808	-0.089	0.131
-305.851	-180.747	-0.301	-0.006
-304.837	-24.024	0.288	0.170
-303.822	-63.003	-0.344	-0.141
-302.807	-25.014	-0.391	-0.229
-301.793	-83.186	-0.082	-0.026
-300.778	-0.812	-0.215	-0.151
-299.764	82.339	-0.068	-0.073
-298.749	800.000	0.028	-0.082
-297.735	-200.000	-0.011	0.189
-296.720	478.744	0.068	0.153
-295.705	302.397	0.170	0.311
-294.691	800.000	0.074	0.220
-293.676	403.797	0.061	0.127
-292.662	-113.797	-0.254	-0.049
-291.647	-112.927	0.016	-0.003
-290.632	-119.539	-0.184	-0.032
-289.618	-13.654	-0.171	0.109
-288.603	0.487	0.261	0.184
-287.589	-200.000	0.003	-0.098
-286.574	-148.913	-0.160	0.013
-285.559	222.553	0.019	-0.030
-284.545	-76.380	0.087	0.030
-283.530	106.415	-0.082	-0.096
-282.516	-200.000	0.019	-0.276
-281.501	-25.296	-0.126	0.074
-280.486	-31.740	0.175	0.097
-279.472	-74.124	0.225	0.081
-278.457	49.185	0.257	-0.239
-277.443	531.176	-0.231	-0.539
-276.428	55.353	-0.163	0.156
-275.413	-200.000	-0.008	-0.217
-274.399	219.189	-0.148	0.234
-273.384	800.000	0.010	0.031
-272.370	245.318	-0.087	-0.145
-271.355	-31.479	0.207	0.115
-270.340	800.000	-0.088	0.363
-269.326	62.238	-0.064	0.063
-268.311	-200.000	-0.020	-0.160
-267.297	12.442	0.175	-0.133
-266.282	-200.000	0.015	0.115
-265.267	760.371	-0.073	0.197
-264.253	-78.788	0.091	0.031
-263.238	-200.000	-0.015	-0.102
-262.224	-72.012	-0.477	-0.175
-261.209	800.000	-0.078	0.212
-260.195	-200.000	0.068	-0.314
-259.180	-91.341	0.137	0.039
-258.165	-56.988	0.252	0.110
-257.151	-151.141	-0.116	-0.009
-256.136	77.665	0.166	-0.174
-255.122	-112.711	0.169	-0.033
-254.107	116.619	-0.093	0.113
-253.092	800.000	-0.049	0.186
-252.078	-179.784	0.237	0.005
-251.063	213.855	0.168	-0.262
-250.049	800.000	-0.115	0.325
-249.034	-200.000	0.013	0.292
-248.019	77.747	0.134	-0.141
-247.005	-52.259	-0.222	-0.102
-245.990	800.000	-0.050	0.139
-244.976	-200.000	-0.028	-0.203
-243.961	-73.256	-0.109	0.039
-242.946	-47.669	0.045	-0.022
-241.932	324.778	0.102	0.193
-240.917	-51.396	0.100	-0.046
-239.903	800.000	0.053	0.198
-238.888	-26.985	-0.074	0.043
-237.873	34.518	0.123	0.106
-236.859	72.389	0.038	-0.039
-235.844	-200.000	0.022	-0.255
-234.830	97.313	0.086	0.097
-233.815	-81.850	0.188	-0.061
-232.800	800.000	-0.034	0.125
-231.786	-165.801	0.276	0.012
-230.771	-200.000	0.020	0.253
-229.757	-53.564	-0.174	0.078
-228.742	-52.135	-0.202	0.092
-227.727	-200.000	0.015	0.205
-226.713	-36.613	0.336	-0.178
-225.698	529.660	0.155	-0.361
-224.684	800.000	-0.054	-0.178
-223.669	-180.895	-0.149	0.003
-222.655	-200.000	0.080	-0.354
-221.640	-200.000	0.050	0.367
-220.625	140.404	-0.185	0.241
-219.611	180.664	0.106	-0.154
-218.596	-113.758	0.258	0.050
-217.582	155.413	-0.016	-0.022
-216.567	121.508	0.066	0.081
-215.552	-105.474	-0.083	0.019
-214.538	379.140	0.118	0.238
-213.523	800.000	0.041	-0.175
-212.509	274.554	0.244	-0.425
-211.494	-5.352	-0.281	-0.190
-210.479	-200.000	-0.005	-0.287
-209.465	645.000	0.149	-0.376
-208.450	-157.972	0.010	0.001
-207.436	-126.557	0.116	-0.017
-206.421	-156.358	-0.122	-0.008
-205.406	263.946	0.031	0.053
-204.392	102.056	-0.028	-0.032
-203.377	58.093	0.104	0.101
-202.363	-82.811	-0.016	0.005
-201.348	-111.982	-0.139	-0.028
-200.333	35.740	0.153	0.133
-199.319	33.229	-0.116	-0.099
-198.304	-88.044	0.219	0.065
-197.290	-66.700	-0.293	0.114
-196.275	89.214	0.147	0.161
-195.260	568.491	0.109	-0.260
-194.246	-25.766	-0.207	-0.120
-193.231	623.298	-0.050	-0.123
-192.217	-200.000	-0.013	0.180
-191.202	29.449	0.115	-0.096
-190.187	706.410	0.051	-0.131
-189.173	-120.767	-0.311	-0.052
-188.158	57.834	0.055	0.053
-187.144	101.167	-0.017	0.019
-186.129	-200.000	-0.072	-0.507
-185.114	-171.960	0.111	0.004
-184.100	-71.995	-0.387	0.142
-183.085	133.529	0.291	-0.370
-182.071	84.705	-0.218	-0.235
-181.056	-70.743	0.144	-0.054
-180.042	171.995	0.075	-0.106
-179.027	559.611	0.184	0.437
-178.012	-175.859	0.242	-0.006
-176.998	123.664	0.161	0.199
-175.983	-200.000	-0.063	-0.274
-174.969	-18.863	0.083	0.051
-173.954	75.295	-0.077	0.080
-172.939	598.078	0.081	-0.198
-171.925	-172.286	0.075	-0.002
-170.910	-200.000	-0.024	-0.236
-169.896	267.199	0.019	0.032
-168.881	293.898	-0.059	-0.106
-167.866	619.296	-0.041	0.101
-166.852	-145.496	0.237	-0.021
-165.837	-101.360	-0.173	0.041
-164.823	-169.233	0.139	0.005
-163.808	91.328	0.207	0.229
-162.793	800.000	-0.069	0.247
-161.779	800.000	0.027	0.087
-160.764	-200.000	0.032	-0.148
-159.750	145.930	0.102	0.134
-158.735	-200.000	-0.000	0.108
-157.720	170.089	-0.012	0.016
-156.706	12.330	-0.218	-0.165
-155.691	59.303	-0.120	-0.116
-154.677	336.345	-0.060	0.115
-153.662	-200.000	-0.020	0.100
-152.647	-200.000	-0.010	-0.118
-151.633	-144.911	0.251	0.023
-150.618	111.342	0.092	-0.109
-149.604	57.935	-0.140	-0.134
-148.589	-17.518	0.135	0.083
-147.574	429.682	-0.078	-0.166
-146.560	800.000	-0.020	0.081
-145.545	461.406	0.061	0.133
-144.531	93.351	0.039	-0.043
-143.516	-200.000	0.001	0.089
-142.502	-18.799	0.250	0.153
-141.487	207.794	0.251	0.386
-140.472	-18.726	0.128	-0.078
-139.458	-135.743	0.224	0.026
-138.443	800.000	-0.059	0.184
-137.429	-58.557	-0.049	0.021
-136.414	385.456	-0.049	0.099
-135.399	-92.525	0.199	-0.055
-134.385	510.081	0.037	0.085
-133.370	407.305	-0.036	-0.074
-132.356	721.691	0.036	-0.093
-131.341	800.000	0.046	-0.127
-130.326	-20.417	-0.050	0.030
-129.312	-200.000	-0.050	-0.420
-128.297	-126.424	0.209	-0.031
-127.283	-98.178	-0.270	0.068
-126.268	-10.511	-0.059	-0.038
-125.253	-114.915	-0.304	0.057
-124.239	-200.000	0.039	-0.259
-123.224	-158.755	-0.327	-0.018
-122.210	800.000	-0.077	-0.226
-121.195	-200.000	-0.001	0.134
