DTS Sentinel unit serial number:	SN413079Multiplexer serial number:	ORYXHardware model number:	OX4-SRSoftware version number:	ORYX F/W v4.00 Oryx Data Collector v3.7.2.0data status	okinstallation	princeton_trtdifferential loss correction	single-endedforward channel	channel 3reverse channel	N/Adate	2019/09/18time	17:24:35forward acquisition time	60.00reverse acquisition time	0.00gamma	496.2192k internal	0.2291k external	0.2291temperature offset calibration	0.9988default loss term (dB/km)	0.3790temperature slope calibration	1.0000multiplexer offset coefficient	1.0000multiplexer slope coefficient	1.0000fibre end	0.00T internal ref (°C)	40.00T ext. ref 1 (°C)	0.90T ext. ref 2 (°C)	36.85length (m)	temperature (°C)	Stokes	anti-Stokes-747.200	204.666	-0.124	0.196
-746.185	116.144	0.166	0.209
-745.171	-81.535	-0.304	0.102
-744.156	-39.155	0.366	0.197
-743.142	113.048	-0.108	-0.134
-742.127	362.069	0.038	-0.078
-741.112	-112.750	0.451	0.092
-740.098	-200.000	-0.015	0.147
-739.083	-200.000	-0.018	-0.381
-738.069	-53.380	-0.371	0.174
-737.054	-177.209	0.206	-0.005
-736.039	800.000	-0.054	-0.193
-735.025	-200.000	0.000	0.087
-734.010	800.000	-0.101	-0.296
-732.996	-200.000	0.005	-0.159
-731.981	-59.462	0.147	0.064
-730.966	-35.197	-0.219	0.122
-729.952	-79.569	0.074	0.026
-728.937	33.018	0.152	0.134
-727.923	-148.915	-0.399	-0.033
-726.908	800.000	-0.056	-0.243
-725.894	95.001	-0.178	0.208
-724.879	-200.000	0.035	-0.427
-723.864	-88.674	-0.216	0.066
-722.850	-44.282	-0.129	-0.066
-721.835	138.571	0.219	0.294
-720.821	-136.887	-0.129	0.015
-719.806	-125.208	-0.241	0.038
-718.791	800.000	0.053	-0.160
-717.777	613.718	-0.065	0.166
-716.762	-115.040	-0.104	0.020
-715.748	292.292	0.065	0.121
-714.733	-106.435	-0.336	-0.077
-713.718	522.673	0.137	0.329
-712.704	224.425	0.161	-0.265
-711.689	291.774	-0.048	-0.090
-710.675	800.000	-0.169	-0.514
-709.660	83.491	0.194	-0.216
-708.645	-43.419	0.420	0.217
-707.631	-103.902	0.085	0.020
-706.616	800.000	0.084	-0.280
-705.602	-79.074	-0.063	-0.022
-704.587	800.000	0.062	0.188
-703.572	25.784	-0.263	-0.224
-702.558	492.069	0.137	-0.321
-701.543	-64.336	-0.346	0.144
-700.529	-72.924	-0.106	-0.040
-699.514	-59.607	0.226	-0.099
-698.499	-20.696	-0.022	-0.014
-697.485	24.816	-0.093	0.079
-696.470	7.035	-0.100	0.076
-695.456	-48.172	0.135	0.067
-694.441	-167.694	-0.243	-0.010
-693.426	-167.848	0.247	-0.010
-692.412	-200.000	-0.056	-0.341
-691.397	-177.660	0.220	-0.005
-690.383	224.436	-0.191	-0.315
-689.368	530.885	0.197	0.475
-688.354	1.847	0.065	0.048
-687.339	-200.000	-0.062	-0.326
-686.324	197.563	0.108	0.169
-685.310	420.589	0.154	0.338
-684.295	22.257	0.181	0.151
-683.281	-200.000	-0.020	-0.225
-682.266	327.740	0.072	-0.140
-681.251	168.059	-0.084	0.122
-680.237	368.935	-0.039	-0.080
-679.222	-35.176	0.151	0.084
-678.208	-200.000	0.013	-0.317
-677.193	623.485	0.123	-0.315
-676.178	-113.734	-0.423	0.084
-675.164	647.851	-0.055	-0.143
-674.149	-53.976	-0.138	0.064
-673.135	2.923	0.301	0.223
-672.120	-145.104	-0.319	-0.030
-671.105	318.822	0.026	-0.050
-670.091	104.212	-0.124	0.149
-669.076	-200.000	0.030	-0.182
-668.062	-200.000	0.039	-0.174
-667.047	-55.745	0.170	0.078
-666.032	-200.000	0.009	-0.220
-665.018	-200.000	0.046	0.281
-664.003	46.273	0.235	0.222
-662.989	-14.565	-0.255	-0.167
-661.974	800.000	-0.056	-0.224
-660.959	44.994	-0.184	-0.173
-659.945	-27.132	0.226	-0.134
-658.930	234.346	-0.063	-0.105
-657.916	-200.000	0.012	-0.128
-656.901	-143.886	0.230	-0.022
-655.886	88.457	0.095	-0.107
-654.872	401.786	0.113	0.243
-653.857	7.037	-0.121	-0.092
-652.843	540.345	-0.071	-0.172
-651.828	-200.000	0.010	-0.204
-650.814	800.000	-0.075	-0.235
-649.799	68.587	-0.071	0.074
-648.784	516.861	-0.145	-0.347
-647.770	-200.000	-0.036	-0.362
-646.755	-59.108	0.018	-0.008
-645.741	56.767	0.187	0.185
-644.726	-3.352	0.289	0.205
-643.711	35.006	-0.111	-0.099
-642.697	-200.000	-0.007	-0.105
-641.682	800.000	-0.113	0.318
-640.668	238.398	-0.063	-0.106
-639.653	-74.144	0.170	-0.063
-638.638	265.679	-0.099	-0.177
-637.624	-142.479	-0.171	0.017
-636.609	82.875	0.214	-0.237
-635.595	-200.000	-0.055	0.343
-634.580	-156.019	0.094	-0.006
-633.565	-25.661	-0.260	-0.156
-632.551	-27.997	0.172	-0.102
-631.536	118.135	-0.152	0.191
-630.522	-200.000	0.013	0.076
-629.507	-44.321	0.139	0.071
-628.492	800.000	-0.097	0.273
-627.478	-142.027	0.220	-0.022
-626.463	119.066	-0.094	0.119
-625.449	-123.021	-0.248	0.041
-624.434	36.089	-0.071	0.064
-623.419	112.700	-0.126	-0.156
-622.405	73.104	-0.067	-0.071
-621.390	-113.394	0.234	-0.047
-620.376	358.813	-0.080	0.163
-619.361	571.054	0.062	0.154
-618.346	62.088	0.263	-0.267
-617.332	-84.296	-0.539	-0.174
-616.317	-32.088	-0.132	-0.075
-615.303	298.454	0.080	-0.151
-614.288	-200.000	0.018	0.263
-613.273	59.795	-0.129	-0.130
-612.259	160.677	0.222	0.315
-611.244	55.345	-0.104	-0.102
-610.230	-137.770	-0.146	0.017
-609.215	36.054	-0.172	0.154
-608.201	-200.000	0.034	0.207
-607.186	-72.214	0.345	0.130
-606.171	-0.738	0.228	-0.165
-605.157	-10.177	-0.041	-0.028
-604.142	-166.096	-0.359	-0.016
-603.128	-176.002	-0.167	-0.005
-602.113	281.688	0.204	0.372
-601.098	40.079	-0.054	0.049
-600.084	-67.249	0.136	0.055
-599.069	3.990	0.096	0.071
-598.055	800.000	-0.147	-0.570
-597.040	-97.233	0.204	-0.054
-596.025	99.945	-0.058	0.068
-595.011	-43.020	-0.022	0.011
-593.996	-44.953	0.183	-0.093
-592.982	-95.916	-0.220	0.060
-591.967	-200.000	0.023	-0.243
-590.952	-200.000	-0.027	0.131
-589.938	-110.148	-0.047	0.010
-588.923	4.152	0.353	-0.263
-587.909	-64.239	0.122	-0.050
-586.894	-125.429	-0.010	-0.002
-585.879	135.687	-0.165	-0.218
-584.865	-200.000	-0.016	-0.194
-583.850	367.912	-0.120	-0.246
-582.836	-200.000	0.024	0.341
-581.821	-200.000	0.011	0.176
-580.806	-200.000	-0.004	0.106
-579.792	41.701	-0.308	0.284
-578.777	132.108	0.065	-0.085
-577.763	131.323	0.061	0.079
-576.748	-123.979	0.422	-0.068
-575.733	93.023	0.170	0.195
-574.719	-200.000	-0.014	0.097
-573.704	75.487	-0.221	-0.237
-572.690	800.000	-0.086	-0.288
-571.675	-200.000	-0.045	0.298
-570.661	-18.674	0.308	-0.195
-569.646	470.372	-0.037	-0.085
-568.631	-1.915	-0.200	-0.143
-567.617	-200.000	0.020	0.173
-566.602	84.848	-0.117	0.131
-565.588	65.984	-0.258	-0.266
-564.573	-200.000	0.001	0.041
-563.558	-122.758	-0.515	-0.085
-562.544	93.428	-0.235	-0.270
-561.529	108.059	-0.132	0.160
-560.515	-36.241	-0.046	-0.025
-559.500	800.000	-0.006	0.019
-558.485	-29.196	-0.327	-0.190
-557.471	92.121	0.208	-0.238
-556.456	-6.560	-0.100	-0.069
-555.442	-38.525	0.160	-0.086
-554.427	800.000	-0.027	-0.108
-553.412	-94.302	-0.401	0.111
-552.398	1.257	0.297	-0.217
-551.383	222.286	0.160	0.261
-550.369	-200.000	0.029	0.253
-549.354	-200.000	0.025	0.220
-548.339	-200.000	-0.000	-0.122
-547.325	74.194	-0.164	0.175
-546.310	800.000	0.032	-0.105
-545.296	9.320	0.218	-0.167
-544.281	-27.647	-0.016	0.009
-543.266	281.949	-0.238	-0.433
-542.252	22.230	-0.156	0.129
-541.237	-26.308	0.144	0.086
-540.223	191.470	-0.080	-0.123
-539.208	-200.000	-0.067	0.403
-538.193	-126.630	0.109	0.016
-537.179	7.511	0.226	-0.172
-536.164	41.451	0.067	0.062
-535.150	254.194	-0.151	0.262
-534.135	-0.409	0.118	-0.085
-533.121	69.062	0.166	0.173
-532.106	70.130	-0.085	-0.089
-531.091	-27.177	0.224	-0.133
-530.077	291.384	0.140	0.259
-529.062	40.692	0.151	0.138
-528.048	47.952	-0.132	0.126
-527.033	615.258	-0.094	-0.239
-526.018	-174.732	0.035	0.001
-525.004	134.888	0.183	-0.241
-523.989	367.199	0.054	0.111
-522.975	-55.115	-0.182	0.083
-521.960	-13.204	0.205	0.135
-520.945	251.419	0.141	0.243
-519.931	-200.000	0.062	-0.435
-518.916	712.847	-0.066	-0.177
-517.902	28.227	-0.271	0.232
-516.887	46.156	-0.291	-0.273
-515.872	-82.946	-0.136	0.045
-514.858	57.672	-0.087	-0.087
-513.843	140.274	-0.173	-0.231
-512.829	90.325	-0.270	0.307
-511.814	-200.000	-0.043	-0.230
-510.799	-167.966	-0.068	0.003
-509.785	-178.725	0.222	0.005
-508.770	61.356	-0.131	-0.132
-507.756	800.000	-0.061	0.219
-506.741	-55.639	0.244	-0.111
-505.726	190.153	-0.256	-0.391
-504.712	525.356	0.113	-0.271
-503.697	-131.540	0.320	-0.043
-502.683	198.393	-0.097	-0.151
-501.668	20.202	0.304	-0.249
-500.653	-76.631	0.177	0.063
-499.639	800.000	-0.022	-0.091
-498.624	800.000	-0.096	-0.286
-497.610	-37.663	0.150	-0.081
-496.595	-105.445	-0.218	0.050
-495.581	800.000	-0.022	-0.091
-494.566	670.470	-0.063	0.165
-493.551	418.146	-0.032	0.068
-492.537	254.780	-0.086	-0.149
-491.522	95.640	-0.248	0.286
-490.508	800.000	0.050	0.214
-489.493	800.000	0.052	0.152
-488.478	-200.000	-0.007	0.038
-487.464	-200.000	-0.024	0.252
-486.449	-89.727	-0.068	0.020
-485.435	374.855	0.104	-0.215
-484.420	-10.759	-0.166	-0.111
-483.405	-143.038	0.203	0.020
-482.391	27.105	0.136	0.116
-481.376	22.587	-0.205	0.170
-480.362	420.506	0.227	0.492
-479.347	-116.588	-0.100	0.019
-478.332	-109.285	0.077	0.017
-477.318	-27.269	-0.171	0.101
-476.303	-200.000	0.010	-0.091
-475.289	430.797	0.084	0.183
-474.274	-200.000	0.006	-0.031
-473.259	426.143	-0.056	-0.122
-472.245	-176.792	-0.155	-0.004
-471.230	-50.848	-0.222	0.106
-470.216	-200.000	0.015	-0.143
-469.201	-200.000	0.013	0.152
-468.186	800.000	-0.007	0.027
-467.172	452.361	-0.083	-0.186
-466.157	-11.052	0.212	0.142
-465.143	2.376	-0.258	0.189
-464.128	-200.000	0.040	-0.179
-463.113	44.678	0.226	0.210
-462.099	-200.000	0.056	0.266
-461.084	-57.761	-0.250	0.111
-460.070	-101.193	0.556	0.138
-459.055	76.394	-0.114	-0.122
-458.040	-200.000	-0.074	-0.459
-457.026	-200.000	-0.043	-0.412
-456.011	331.242	-0.030	0.058
-454.997	332.299	0.023	0.045
-453.982	578.861	0.014	-0.034
-452.968	144.080	0.139	0.188
-451.953	111.364	0.082	0.100
-450.938	99.362	0.020	-0.023
-449.924	-81.303	-0.285	-0.095
-448.909	-51.147	-0.229	-0.108
-447.895	605.298	0.042	0.107
-446.880	-200.000	0.016	-0.089
-445.865	-90.416	0.510	-0.150
-444.851	-83.614	0.426	0.138
-443.836	-52.318	0.346	0.162
-442.822	132.250	-0.064	-0.083
-441.807	-93.365	-0.369	0.103
-440.792	-13.113	-0.481	0.316
-439.778	-194.378	-0.215	-0.002
-438.763	146.262	0.027	-0.037
-437.749	350.274	-0.065	-0.129
-436.734	-200.000	0.017	0.152
-435.719	-200.000	-0.004	-0.344
-434.705	164.138	-0.070	0.099
-433.690	800.000	0.039	-0.114
-432.676	-134.394	-0.168	-0.021
-431.661	178.343	-0.202	0.298
-430.646	-139.979	-0.341	-0.036
-429.632	11.947	0.258	0.201
-428.617	-200.000	0.062	-0.444
-427.603	-71.259	-0.142	0.054
-426.588	-43.130	0.062	-0.032
-425.573	767.589	-0.123	0.339
-424.559	-59.382	-0.187	0.081
-423.544	-14.241	-0.232	0.152
-422.530	29.934	-0.216	0.186
-421.515	800.000	-0.137	-0.408
-420.500	-200.000	0.049	0.269
-419.486	-200.000	0.024	-0.260
-418.471	-200.000	0.001	0.020
-417.457	91.416	0.123	-0.140
-416.442	67.839	0.121	0.125
-415.428	-82.468	0.069	-0.023
-414.413	67.913	-0.238	0.246
-413.398	-62.079	0.096	-0.041
-412.384	-104.960	0.182	0.042
-411.369	-200.000	-0.019	0.086
-410.355	-176.721	0.192	-0.005
-409.340	250.213	0.068	0.116
-408.325	-109.971	-0.182	0.038
-407.311	103.790	-0.061	-0.072
-406.296	-134.489	0.299	0.037
-405.282	-22.486	0.216	0.132
-404.267	-31.414	0.040	0.023
-403.252	-40.960	0.303	0.158
-402.238	309.679	0.042	-0.080
-401.223	86.140	0.341	0.379
-400.209	-103.876	0.299	0.070
-399.194	-177.298	-0.251	0.006
-398.179	-22.979	-0.266	0.162
-397.165	-200.000	-0.005	0.031
-396.150	-111.091	-0.239	-0.050
-395.136	-1.953	-0.034	0.024
-394.121	412.319	-0.040	0.087
-393.106	-28.668	0.076	-0.044
-392.092	-200.000	0.001	0.473
-391.077	-200.000	0.025	0.187
-390.063	15.829	-0.199	0.158
-389.048	-103.740	-0.128	0.030
-388.033	37.833	-0.094	0.084
-387.019	228.604	0.149	0.246
-386.004	155.057	0.082	-0.114
-384.990	-200.000	-0.028	-0.278
-383.975	462.471	0.084	0.190
-382.960	156.533	-0.256	0.356
-381.946	-26.699	0.377	-0.222
-380.931	-9.676	0.128	-0.086
-379.917	519.174	-0.032	-0.075
-378.902	-56.632	-0.097	0.043
-377.888	-119.650	0.294	-0.051
-376.873	335.491	-0.037	0.072
-375.858	40.888	-0.366	-0.333
-374.844	173.300	0.129	0.188
-373.829	121.380	0.142	0.178
-372.815	-102.975	0.254	-0.061
-371.800	146.328	0.090	0.122
-370.785	-45.334	-0.219	0.109
-369.771	-200.000	-0.010	-0.204
-368.756	110.826	0.217	-0.264
-367.742	800.000	0.065	-0.239
-366.727	693.276	0.036	0.096
-365.712	-90.176	0.183	-0.054
-364.698	800.000	0.012	0.047
-363.683	800.000	0.063	-0.240
-362.669	-200.000	-0.023	-0.372
-361.654	626.302	-0.014	0.035
-360.639	-43.252	-0.236	-0.120
-359.625	476.151	0.093	-0.213
-358.610	-125.460	0.231	-0.035
-357.596	159.162	-0.170	0.239
-356.581	534.611	-0.073	-0.174
-355.566	-200.000	0.061	-0.296
-354.552	405.186	0.086	-0.182
-353.537	800.000	-0.072	-0.216
-352.523	-38.228	0.347	0.186
-351.508	-61.583	-0.311	-0.132
-350.493	279.065	0.058	-0.105
-349.479	-181.197	-0.336	-0.007
-348.464	243.234	-0.121	0.205
-347.450	-170.592	-0.084	0.003
-346.435	65.656	0.157	-0.161
-345.420	-30.280	-0.028	0.016
-344.406	-6.424	-0.223	0.153
-343.391	-33.210	0.172	-0.096
-342.377	25.053	0.072	0.060
-341.362	-176.977	-0.098	0.002
-340.348	53.007	-0.090	-0.087
-339.333	175.292	-0.029	0.042
-338.318	-4.533	0.251	0.175
-337.304	-65.737	0.121	0.049
-336.289	526.352	0.043	0.102
-335.275	33.757	-0.159	0.139
-334.260	-3.175	0.067	0.047
-333.245	8.985	-0.274	-0.208
-332.231	-200.000	0.055	-0.335
-331.216	-40.801	0.103	0.054
-330.202	-200.000	-0.056	-0.312
-329.187	582.062	0.148	-0.365
-328.172	-65.813	-0.502	-0.202
-327.158	475.821	-0.084	-0.190
-326.143	800.000	-0.066	-0.238
-325.129	-101.049	0.350	-0.086
-324.114	-200.000	0.015	0.108
-323.099	39.589	-0.167	-0.151
-322.085	-200.000	0.060	0.321
-321.070	-200.000	-0.015	-0.153
-320.056	-115.212	-0.090	-0.017
-319.041	-20.229	0.197	-0.122
-318.026	-136.901	0.193	0.022
-317.012	-17.167	0.201	0.128
-315.997	-85.582	0.342	-0.107
-314.983	-179.307	-0.042	-0.001
-313.968	800.000	0.066	0.224
-312.953	137.995	-0.243	-0.320
-311.939	-200.000	-0.035	0.234
-310.924	0.711	-0.166	0.119
-309.910	-200.000	0.020	0.167
-308.895	-121.747	0.206	-0.034
-307.880	-147.646	-0.158	0.013
-306.866	-27.035	0.141	0.083
-305.851	800.000	-0.074	-0.216
-304.837	-125.587	-0.134	-0.021
-303.822	-57.355	-0.121	-0.053
-302.807	-11.316	-0.200	0.132
-301.793	72.148	0.217	0.227
-300.778	429.513	0.143	0.310
-299.764	-193.434	0.072	0.001
-298.749	-123.199	0.185	-0.030
-297.735	-64.131	0.100	0.041
-296.720	-32.833	-0.135	0.076
-295.705	102.766	0.082	-0.097
-294.691	-62.747	-0.137	-0.057
-293.676	-200.000	-0.023	-0.117
-292.662	-13.626	0.232	0.151
-291.647	-22.396	-0.048	0.029
-290.632	45.915	0.193	-0.179
-289.618	185.146	0.089	-0.133
-288.603	-24.058	-0.098	0.059
-287.589	-8.834	0.174	-0.117
-286.574	-109.485	0.093	0.020
-285.559	-194.676	-0.222	-0.002
-284.545	-48.248	0.200	0.097
-283.530	800.000	-0.053	0.181
-282.516	800.000	0.073	-0.213
-281.501	-123.064	0.404	-0.065
-280.486	800.000	0.045	0.182
-279.472	-200.000	-0.020	-0.109
-278.457	-10.363	-0.156	-0.104
-277.443	104.171	0.275	-0.325
-276.428	240.747	-0.010	-0.016
-275.413	-200.000	0.053	0.271
-274.399	110.337	0.146	-0.176
-273.384	-6.833	0.294	-0.201
-272.370	21.213	0.110	0.090
-271.355	800.000	0.036	0.122
-270.340	-0.672	-0.121	0.087
-269.326	-200.000	0.021	-0.149
-268.311	-200.000	0.036	0.192
-267.297	-113.911	0.243	-0.047
-266.282	800.000	-0.095	-0.362
-265.267	175.053	0.158	0.229
-264.253	-191.723	0.279	0.003
-263.238	-200.000	0.028	-0.545
-262.224	-200.000	-0.004	-0.060
-261.209	-200.000	-0.026	-0.246
-260.195	71.711	0.075	0.078
-259.180	-169.355	-0.339	0.013
-258.165	-58.323	-0.034	-0.015
-257.151	800.000	-0.016	-0.051
-256.136	107.208	0.113	0.135
-255.122	800.000	-0.120	0.344
-254.107	-74.760	0.167	0.060
-253.092	-31.661	-0.309	-0.174
-252.078	114.393	0.058	0.071
-251.063	-200.000	-0.014	0.106
-250.049	-154.706	0.337	-0.022
-249.034	-11.572	-0.159	0.105
-248.019	800.000	0.028	0.110
-247.005	232.339	-0.081	0.133
-245.990	-127.897	0.111	0.016
-244.976	213.431	-0.157	-0.249
-243.961	-140.398	-0.061	0.006
-242.946	18.460	0.324	-0.260
-241.932	775.628	0.031	0.084
-240.917	-39.966	-0.151	-0.079
-239.903	-150.628	0.086	-0.007
-238.888	400.996	-0.088	-0.184
-237.873	43.345	0.199	-0.182
-236.859	148.229	-0.123	0.167
-235.844	19.816	0.212	-0.172
-234.830	-200.000	0.025	-0.502
-233.815	114.082	0.265	0.324
-232.800	5.252	0.176	-0.130
-231.786	609.943	0.039	-0.099
-230.771	-119.602	0.047	-0.008
-229.757	800.000	0.020	0.057
-228.742	35.126	0.080	-0.070
-227.727	-54.404	-0.267	0.121
-226.713	-200.000	-0.033	0.230
-225.698	-200.000	-0.018	0.207
-224.684	2.195	-0.054	-0.039
-223.669	23.655	0.176	0.146
-222.655	-44.384	-0.166	-0.083
-221.640	-200.000	-0.016	-0.329
-220.625	-200.000	-0.081	0.442
-219.611	538.499	0.132	-0.315
-218.596	142.093	-0.007	-0.010
-217.582	246.090	0.119	-0.201
-216.567	-200.000	0.052	-0.242
-215.552	-153.001	-0.224	0.016
-214.538	494.553	0.045	0.103
-213.523	26.581	0.187	0.157
-212.509	-200.000	0.009	0.320
-211.494	-33.067	-0.149	0.083
-210.479	-38.584	-0.127	0.067
-209.465	-94.326	-0.310	0.085
-208.450	-163.256	-0.376	-0.018
-207.436	97.401	0.192	0.221
-206.421	549.395	0.080	0.191
-205.406	-65.958	0.049	-0.020
-204.392	-55.230	-0.132	0.060
-203.377	-200.000	-0.032	-0.211
-202.363	49.222	0.166	-0.157
-201.348	255.682	0.054	-0.092
-200.333	-129.203	-0.242	0.034
-199.319	10.405	-0.093	0.071
-198.304	46.299	-0.173	-0.160
-197.290	-7.302	0.104	0.071
-196.275	-200.000	-0.000	-0.057
-195.260	-138.170	-0.171	0.019
-194.246	800.000	-0.036	-0.142
-193.231	132.332	-0.166	0.215
-192.217	-115.172	-0.036	0.007
-191.202	-174.829	-0.156	0.004
-190.187	-200.000	-0.006	0.241
-189.173	16.654	0.223	-0.177
-188.158	-102.933	-0.378	0.090
-187.144	-89.496	0.368	0.108
-186.129	-111.408	-0.069	0.014
-185.114	247.750	-0.134	-0.227
-184.100	-120.667	0.278	-0.047
-183.085	-78.252	-0.345	0.119
-182.071	175.069	-0.171	0.248
-181.056	-81.610	0.073	-0.024
-180.042	-18.068	-0.087	0.055
-179.027	-138.864	0.182	0.020
-178.012	43.177	-0.185	0.169
-176.998	-128.359	-0.081	-0.011
-175.983	-200.000	0.061	-0.307
-174.969	32.882	0.268	-0.232
-173.954	-200.000	0.023	-0.387
-172.939	-147.812	0.247	-0.021
-171.925	800.000	0.023	-0.094
-170.910	800.000	-0.081	0.297
-169.896	-111.139	0.144	0.029
-168.881	36.331	-0.220	0.194
-167.866	248.113	-0.129	0.218
-166.852	-57.434	0.157	0.069
-165.837	200.241	-0.118	-0.181
-164.823	-56.599	-0.350	0.155
-163.808	800.000	0.101	0.348
-162.793	-200.000	0.030	-0.190
-161.779	33.144	-0.156	0.136
-160.764	800.000	-0.104	0.342
-159.750	800.000	0.097	0.287
-158.735	-98.909	0.303	-0.077
-157.720	579.084	0.066	0.162
-156.706	800.000	-0.035	0.128
-155.691	-66.091	-0.157	0.063
-154.677	-13.811	-0.133	0.086
-153.662	-40.325	0.150	0.078
-152.647	-56.505	-0.027	0.012
-151.633	14.871	0.103	-0.081
-150.618	99.681	-0.194	0.224
-149.604	-200.000	-0.022	0.178
-148.589	-168.459	0.100	0.004
-147.574	800.000	-0.031	0.126
-146.560	-192.587	0.149	-0.001
-145.545	426.226	0.130	0.280
-144.531	260.129	-0.023	0.039
-143.516	237.594	0.117	-0.193
-142.502	63.984	0.051	-0.051
-141.487	-119.748	0.092	0.016
-140.472	-174.737	0.182	0.005
-139.458	-200.000	0.008	0.068
-138.443	-26.294	-0.198	0.116
-137.429	179.082	-0.286	-0.419
-136.414	-39.282	0.183	-0.096
-135.399	-85.049	0.248	0.078
-134.385	-200.000	0.012	-0.153
-133.370	175.581	0.039	0.056
-132.356	491.617	-0.121	0.277
-131.341	-15.076	0.232	-0.149
-130.326	-200.000	-0.010	-0.083
-129.312	371.653	0.073	0.149
-128.297	800.000	0.075	0.320
-127.283	34.653	0.132	0.115
-126.268	-54.941	0.442	0.199
-125.253	-103.342	0.270	-0.064
-124.239	199.168	0.151	-0.231
-123.224	22.039	0.012	0.009
-122.210	-115.939	-0.230	0.043
-121.195	-92.898	-0.129	-0.036
