DTS Sentinel unit serial number:	SN413079Multiplexer serial number:	ORYXHardware model number:	OX4-SRSoftware version number:	ORYX F/W v4.00 Oryx Data Collector v3.7.2.0data status	okinstallation	princeton_trtdifferential loss correction	single-endedforward channel	channel 3reverse channel	N/Adate	2019/09/13time	09:24:34forward acquisition time	60.00reverse acquisition time	0.00gamma	496.2192k internal	0.2325k external	0.2325temperature offset calibration	1.0139default loss term (dB/km)	0.3790temperature slope calibration	1.0000multiplexer offset coefficient	1.0000multiplexer slope coefficient	1.0000fibre end	0.00T internal ref (°C)	29.31T ext. ref 1 (°C)	4.41T ext. ref 2 (°C)	26.23length (m)	temperature (°C)	Stokes	anti-Stokes-747.200	-166.437	0.402	0.017
-746.185	-200.000	0.006	0.434
-745.171	-143.494	-0.136	0.013
-744.156	-200.000	-0.004	0.161
-743.142	208.876	-0.047	-0.074
-742.127	382.857	-0.073	-0.151
-741.112	-50.285	0.404	0.193
-740.098	183.982	0.159	0.238
-739.083	-61.126	-0.098	-0.042
-738.069	-95.415	0.393	-0.106
-737.054	689.262	0.205	0.540
-736.039	800.000	0.017	0.069
-735.025	107.341	-0.105	0.126
-734.010	800.000	0.089	-0.261
-732.996	249.503	-0.123	0.211
-731.981	119.696	-0.150	-0.187
-730.966	18.026	-0.187	0.150
-729.952	-131.188	-0.218	0.029
-728.937	103.889	0.097	-0.115
-727.923	800.000	0.032	0.132
-726.908	-107.325	0.032	0.007
-725.894	-147.497	0.089	0.008
-724.879	202.466	0.010	-0.016
-723.864	-112.211	0.383	0.077
-722.850	6.041	-0.175	0.131
-721.835	-200.000	-0.076	0.505
-720.821	-178.706	-0.222	0.005
-719.806	179.768	-0.081	0.119
-718.791	-84.044	-0.315	-0.101
-717.777	-200.000	-0.012	0.159
-716.762	-25.759	-0.117	-0.069
-715.748	-46.318	-0.185	0.092
-714.733	-42.264	0.095	0.049
-713.718	-119.210	0.192	-0.034
-712.704	-38.464	-0.015	-0.008
-711.689	125.787	-0.172	-0.219
-710.675	-108.955	-0.235	0.050
-709.660	134.718	0.157	-0.205
-708.645	-61.883	-0.123	0.052
-707.631	9.346	-0.244	-0.186
-706.616	800.000	0.054	0.161
-705.602	586.407	0.059	0.145
-704.587	76.563	-0.304	0.325
-703.572	-145.982	0.244	-0.022
-702.558	800.000	0.077	-0.228
-701.543	-163.440	0.145	-0.007
-700.529	-200.000	0.010	-0.089
-699.514	69.006	-0.044	-0.046
-698.499	368.302	0.089	-0.181
-697.485	-200.000	0.025	0.272
-696.470	338.512	-0.046	-0.089
-695.456	-200.000	0.011	0.067
-694.441	-20.985	-0.171	-0.105
-693.426	7.240	-0.099	-0.074
-692.412	-35.063	0.274	-0.150
-691.397	182.526	-0.201	0.299
-690.383	112.063	-0.088	-0.107
-689.368	87.628	-0.233	-0.260
-688.354	445.050	-0.119	-0.264
-687.339	-150.039	0.301	0.024
-686.324	122.676	-0.140	-0.176
-685.310	-158.508	-0.383	0.022
-684.295	-81.101	0.206	-0.069
-683.281	-63.201	-0.264	-0.110
-682.266	191.038	-0.189	-0.286
-681.251	-91.826	0.223	0.064
-680.237	-200.000	-0.011	-0.114
-679.222	13.627	-0.057	-0.045
-678.208	33.649	-0.051	0.044
-677.193	800.000	0.090	-0.272
-676.178	-23.443	0.196	0.118
-675.164	303.235	-0.111	-0.206
-674.149	-146.515	-0.048	0.004
-673.135	-200.000	0.017	0.145
-672.120	-176.475	-0.185	-0.005
-671.105	92.671	-0.094	0.106
-670.091	-94.402	-0.241	-0.066
-669.076	253.328	0.205	-0.352
-668.062	63.521	-0.140	0.142
-667.047	-68.960	0.165	0.064
-666.032	31.498	0.141	0.122
-665.018	646.951	0.121	0.311
-664.003	-110.333	-0.241	-0.050
-662.989	-20.217	0.121	-0.075
-661.974	245.523	-0.171	-0.290
-660.959	-94.468	-0.277	-0.076
-659.945	181.538	0.086	0.127
-658.930	503.523	0.011	-0.026
-657.916	69.130	0.147	0.152
-656.901	162.274	0.126	0.178
-655.886	-6.271	-0.197	-0.135
-654.872	-103.724	-0.298	0.070
-653.857	-200.000	-0.016	-0.100
-652.843	-135.385	-0.321	-0.039
-651.828	52.551	-0.189	0.182
-650.814	-162.604	-0.167	-0.008
-649.799	800.000	-0.032	0.118
-648.784	-69.689	0.308	0.118
-647.770	800.000	0.057	0.210
-646.755	71.861	0.119	0.124
-645.741	-76.691	-0.356	0.126
-644.726	328.201	0.043	-0.083
-643.711	212.668	-0.110	0.174
-642.697	24.579	0.380	-0.316
-641.682	-67.652	-0.179	-0.071
-640.668	-102.231	-0.233	-0.056
-639.653	-15.854	-0.274	-0.175
-638.638	6.076	-0.063	-0.047
-637.624	211.223	-0.221	-0.350
-636.609	800.000	0.045	0.134
-635.595	-91.874	0.168	0.048
-634.580	-200.000	0.036	-0.251
-633.565	633.051	0.128	-0.325
-632.551	-63.145	0.096	-0.040
-631.536	800.000	0.064	-0.230
-630.522	140.178	0.177	-0.235
-629.507	62.412	-0.232	0.232
-628.492	-200.000	-0.037	-0.234
-627.478	800.000	0.039	0.117
-626.463	-185.098	-0.190	0.003
-625.449	-200.000	-0.029	-0.217
-624.434	-79.523	0.081	0.028
-623.419	800.000	-0.054	-0.222
-622.405	171.821	0.025	0.037
-621.390	-155.376	0.213	-0.014
-620.376	-112.227	-0.113	-0.023
-619.361	-7.924	-0.018	0.012
-618.346	422.958	0.141	-0.304
-617.332	-142.881	-0.218	0.021
-616.317	200.254	0.154	0.238
-615.303	-200.000	-0.001	0.202
-614.288	27.153	-0.113	0.095
-613.273	305.683	-0.148	-0.276
-612.259	318.942	-0.186	-0.355
-611.244	800.000	0.101	-0.315
-610.230	-91.971	0.113	0.032
-609.215	-132.382	0.303	-0.039
-608.201	-184.827	-0.280	0.004
-607.186	-174.840	-0.407	0.011
-606.171	-192.257	-0.200	-0.002
-605.157	800.000	-0.028	-0.089
-604.142	-125.224	0.147	-0.023
-603.128	-200.000	0.033	0.288
-602.113	123.862	0.047	0.059
-601.098	-63.903	0.189	0.078
-600.084	-132.190	-0.347	0.045
-599.069	-200.000	0.020	0.307
-598.055	-200.000	-0.008	0.044
-597.040	30.870	0.278	0.239
-596.025	84.652	0.151	0.166
-595.011	800.000	-0.057	-0.212
-593.996	-22.170	0.197	0.120
-592.982	-200.000	-0.014	0.215
-591.967	-153.734	0.383	0.026
-590.952	736.038	-0.056	0.151
-589.938	-150.790	-0.111	-0.008
-588.923	-200.000	-0.008	0.052
-587.909	-87.416	-0.193	-0.059
-586.894	324.120	0.040	-0.077
-585.879	-29.041	-0.114	0.065
-584.865	381.231	0.146	0.301
-583.850	37.677	-0.070	-0.062
-582.836	3.894	-0.062	-0.045
-581.821	800.000	-0.087	-0.273
-580.806	146.273	-0.073	-0.098
-579.792	-44.648	-0.247	0.124
-578.777	34.344	0.136	0.119
-577.763	-73.568	0.103	-0.037
-576.748	-200.000	0.029	0.212
-575.733	69.120	-0.086	0.088
-574.719	-189.051	-0.068	-0.001
-573.704	59.165	-0.130	-0.128
-572.690	-200.000	-0.024	-0.109
-571.675	-131.154	-0.400	-0.053
-570.661	800.000	0.008	-0.025
-569.646	-57.367	0.386	0.170
-568.631	-49.801	0.152	-0.072
-567.617	-43.981	-0.103	-0.052
-566.602	-49.373	-0.490	-0.234
-565.588	-16.999	0.055	0.035
-564.573	257.962	0.083	0.142
-563.558	103.727	-0.259	-0.304
-562.544	229.050	-0.209	-0.342
-561.529	117.879	0.133	-0.164
-560.515	207.074	-0.065	0.101
-559.500	800.000	0.080	0.256
-558.485	-200.000	0.048	0.520
-557.471	542.130	-0.077	-0.183
-556.456	-200.000	0.008	0.170
-555.442	150.381	0.122	0.166
-554.427	19.649	-0.236	0.190
-553.412	39.430	-0.101	0.091
-552.398	-181.046	-0.284	-0.006
-551.383	-200.000	-0.033	0.336
-550.369	59.610	0.089	-0.088
-549.354	-26.409	0.115	0.068
-548.339	-9.534	-0.180	-0.120
-547.325	800.000	-0.109	0.319
-546.310	-120.557	-0.234	-0.040
-545.296	-140.411	0.282	-0.029
-544.281	125.061	0.180	-0.227
-543.266	138.251	-0.060	0.079
-542.252	-143.943	0.330	0.031
-541.237	-191.805	-0.028	-0.000
-540.223	42.781	0.080	0.073
-539.208	9.656	0.126	0.095
-538.193	43.727	0.052	0.048
-537.179	60.272	0.271	-0.269
-536.164	310.406	-0.160	0.300
-535.150	-22.079	0.143	-0.087
-534.135	-103.120	0.280	-0.066
-533.121	222.400	-0.126	-0.203
-532.106	-130.156	0.337	-0.046
-531.091	800.000	0.051	-0.198
-530.077	-29.469	0.278	0.159
-529.062	94.426	-0.184	-0.209
-528.048	-164.621	0.335	-0.015
-527.033	387.400	-0.135	0.278
-526.018	25.786	0.138	-0.115
-525.004	-48.573	-0.331	0.159
-523.989	3.872	-0.262	0.191
-522.975	-109.122	-0.082	0.017
-521.960	-92.124	-0.171	-0.048
-520.945	-20.069	0.332	0.205
-519.931	196.440	0.083	0.127
-518.916	40.993	-0.123	0.111
-517.902	-200.000	-0.062	0.287
-516.887	255.338	-0.121	-0.207
-515.872	60.974	0.206	-0.204
-514.858	-16.774	0.223	-0.141
-513.843	37.427	0.141	0.125
-512.829	-44.881	0.472	-0.235
-511.814	-68.040	-0.206	-0.080
-510.799	-1.494	-0.080	0.057
-509.785	97.694	0.146	-0.168
-508.770	-102.569	-0.371	0.089
-507.756	-78.802	-0.099	0.034
-506.741	109.537	0.123	-0.147
-505.726	-153.231	-0.175	0.012
-504.712	-17.969	-0.244	0.153
-503.697	-171.187	0.015	-0.001
-502.683	800.000	-0.077	0.323
-501.668	-60.325	-0.015	-0.006
-500.653	281.067	-0.033	0.059
-499.639	-172.623	0.318	0.010
-498.624	-85.397	0.297	0.092
-497.610	-104.195	-0.349	0.081
-496.595	120.733	0.110	0.137
-495.581	12.582	0.186	-0.144
-494.566	56.998	0.125	-0.122
-493.551	-145.475	-0.311	-0.028
-492.537	-200.000	-0.007	0.145
-491.522	-27.808	0.297	-0.172
-490.508	-108.460	-0.118	0.025
-489.493	515.105	-0.013	-0.030
-488.478	45.508	0.384	0.354
-487.464	-103.949	-0.115	-0.027
-486.449	206.703	0.114	-0.178
-485.435	-73.523	0.272	0.099
-484.420	131.936	0.166	0.213
-483.405	8.764	-0.155	0.116
-482.391	-21.369	-0.356	-0.217
-481.376	196.976	-0.208	-0.317
-480.362	-87.151	0.094	0.028
-479.347	-99.518	0.197	0.049
-478.332	-116.044	0.050	0.009
-477.318	-200.000	-0.038	-0.248
-476.303	176.924	-0.129	0.188
-475.289	15.658	-0.248	0.195
-474.274	-200.000	0.034	0.172
-473.259	175.093	-0.113	-0.163
-472.245	489.224	-0.056	0.129
-471.230	-200.000	0.000	-0.065
-470.216	170.137	-0.098	-0.140
-469.201	-156.311	0.233	0.015
-468.186	14.829	-0.156	-0.122
-467.172	800.000	0.056	-0.161
-466.157	6.181	0.131	-0.097
-465.143	-200.000	0.001	-0.398
-464.128	386.202	0.080	0.166
-463.113	362.446	-0.086	0.172
-462.099	-200.000	-0.010	0.127
-461.084	-50.098	-0.298	0.141
-460.070	217.514	0.259	0.412
-459.055	24.364	0.047	0.039
-458.040	331.322	-0.098	-0.188
-457.026	97.396	-0.039	0.045
-456.011	286.646	0.210	0.378
-454.997	-64.459	-0.245	-0.099
-453.982	800.000	-0.048	0.152
-452.968	129.535	0.228	-0.291
-451.953	-61.350	-0.285	-0.120
-450.938	800.000	0.024	-0.098
-449.924	-155.394	-0.247	-0.016
-448.909	229.608	0.177	0.289
-447.895	-200.000	0.081	0.377
-446.880	105.328	-0.107	0.126
-445.865	-34.069	0.066	-0.036
-444.851	577.592	-0.150	-0.366
-443.836	800.000	-0.065	0.211
-442.822	447.474	0.103	0.227
-441.807	523.810	0.097	0.228
-440.792	-32.837	-0.198	-0.110
-439.778	-113.016	-0.181	0.036
-438.763	78.024	0.093	-0.099
-437.749	-200.000	0.012	-0.118
-436.734	-95.801	-0.146	0.039
-435.719	-59.205	-0.354	0.152
-434.705	382.468	-0.117	-0.239
-433.690	-1.033	-0.249	0.175
-432.676	9.759	-0.196	-0.148
-431.661	-200.000	-0.022	0.193
-430.646	115.234	0.150	0.182
-429.632	-200.000	-0.005	-0.259
-428.617	-200.000	-0.011	-0.203
-427.603	226.347	0.113	0.182
-426.588	-200.000	0.001	-0.088
-425.573	324.870	0.060	-0.114
-424.559	800.000	0.138	0.416
-423.544	800.000	0.031	0.086
-422.530	-45.979	-0.351	-0.172
-421.515	5.359	-0.122	-0.090
-420.500	160.423	-0.192	0.266
-419.486	353.907	0.071	0.140
-418.471	458.563	-0.048	-0.107
-417.457	-167.149	-0.128	-0.005
-416.442	62.784	0.146	0.145
-415.428	631.612	-0.104	-0.261
-414.413	354.956	0.119	-0.235
-413.398	365.785	-0.063	0.126
-412.384	-200.000	0.024	-0.148
-411.369	-64.587	-0.217	-0.088
-410.355	12.036	0.195	-0.149
-409.340	800.000	-0.162	0.591
-408.325	737.856	0.023	0.063
-407.311	800.000	0.065	-0.247
-406.296	-9.523	0.241	-0.160
-405.282	-35.457	0.040	-0.022
-404.267	44.565	-0.148	0.136
-403.252	800.000	-0.024	-0.083
-402.238	-46.349	-0.406	-0.198
-401.223	800.000	0.066	-0.243
-400.209	-47.573	-0.145	0.070
-399.194	-157.237	0.282	-0.017
-398.179	88.805	0.251	-0.278
-397.165	164.215	0.238	0.334
-396.150	-200.000	-0.016	-0.140
-395.136	-105.605	-0.237	0.054
-394.121	268.893	0.162	0.283
-393.106	-37.275	-0.194	-0.103
-392.092	-58.394	-0.097	-0.042
-391.077	-119.160	-0.119	0.021
-390.063	-14.000	0.254	0.163
-389.048	-200.000	0.029	-0.174
-388.033	21.053	-0.195	0.158
-387.019	800.000	0.083	-0.242
-386.004	766.085	0.085	-0.231
-384.990	-43.869	0.371	0.186
-383.975	-200.000	0.041	0.333
-382.960	-195.468	-0.240	-0.002
-381.946	-42.811	-0.088	-0.045
-380.931	-135.861	-0.050	-0.006
-379.917	-39.042	-0.066	0.034
-378.902	-21.292	0.353	0.215
-377.888	391.920	-0.029	0.060
-376.873	203.390	-0.077	-0.119
-375.858	-166.808	0.288	-0.012
-374.844	168.515	-0.043	0.061
-373.829	64.816	0.257	-0.258
-372.815	96.510	0.335	-0.382
-371.800	84.926	-0.135	0.148
-370.785	800.000	-0.048	0.149
-369.771	-174.588	-0.097	0.003
-368.756	-200.000	0.135	0.000
-367.742	-79.673	0.096	-0.032
-366.727	-178.023	-0.056	-0.001
-365.712	-191.075	0.180	-0.002
-364.698	-200.000	0.012	0.074
-363.683	-147.085	-0.142	0.012
-362.669	265.360	0.049	-0.085
-361.654	800.000	-0.146	-0.422
-360.639	201.302	0.149	0.227
-359.625	-200.000	-0.078	-0.394
-358.610	-130.778	0.349	0.047
-357.596	297.352	-0.120	-0.220
-356.581	-200.000	-0.003	-0.136
-355.566	185.559	-0.065	-0.096
-354.552	515.911	0.056	-0.129
-353.537	-112.858	-0.037	-0.007
-352.523	-21.343	-0.231	-0.140
-351.508	780.250	0.060	0.163
-350.493	-93.890	-0.176	0.048
-349.479	228.252	0.201	-0.325
-348.464	800.000	0.053	-0.213
-347.450	-69.219	-0.526	0.201
-346.435	-108.139	-0.546	-0.117
-345.420	800.000	0.060	0.216
-344.406	-49.856	0.260	-0.122
-343.391	-147.814	0.217	-0.018
-342.377	-200.000	-0.053	0.425
-341.362	-163.279	0.189	-0.009
-340.348	-200.000	-0.058	-0.410
-339.333	-200.000	-0.004	-0.024
-338.318	72.242	-0.135	-0.139
-337.304	319.929	-0.161	0.304
-336.289	-200.000	0.004	-0.073
-335.275	81.991	0.048	0.052
-334.260	-80.790	-0.198	-0.065
-333.245	-34.117	0.096	0.052
-332.231	-13.932	-0.066	-0.042
-331.216	-200.000	-0.013	0.179
-330.202	493.740	0.119	0.271
-329.187	87.015	0.038	0.041
-328.172	305.946	-0.173	0.319
-327.158	-200.000	-0.012	0.376
-326.143	760.473	0.150	-0.403
-325.129	-115.844	0.354	-0.066
-324.114	48.477	-0.248	0.231
-323.099	446.619	0.096	0.210
-322.085	-6.965	0.151	-0.102
-321.070	193.057	-0.069	0.103
-320.056	-103.438	-0.215	0.050
-319.041	150.439	0.083	-0.112
-318.026	800.000	-0.028	-0.118
-317.012	-200.000	0.038	-0.169
-315.997	-196.145	-0.046	0.000
-314.983	-88.030	0.312	0.093
-313.968	568.364	0.052	0.126
-312.953	575.407	-0.151	0.366
-311.939	190.896	-0.064	-0.095
-310.924	-79.419	-0.220	-0.074
-309.910	-64.095	-0.191	0.077
-308.895	-200.000	-0.349	-0.001
-307.880	-63.390	-0.112	0.046
-306.866	800.000	-0.116	0.456
-305.851	141.144	0.124	-0.162
-304.837	800.000	-0.123	-0.366
-303.822	-113.023	-0.139	0.027
-302.807	-200.000	-0.039	-0.372
-301.793	34.646	-0.066	-0.058
-300.778	-66.824	0.089	0.035
-299.764	75.029	0.292	0.305
-298.749	16.146	-0.145	-0.113
-297.735	67.682	0.225	-0.228
-296.720	-200.000	-0.022	-0.184
-295.705	-106.048	-0.162	-0.036
-294.691	403.042	-0.123	-0.256
-293.676	2.814	-0.028	-0.020
-292.662	15.645	0.241	0.188
-291.647	42.394	0.157	0.142
-290.632	76.938	0.089	0.094
-289.618	-130.686	-0.721	-0.096
-288.603	480.830	0.059	0.132
-287.589	49.106	0.313	-0.291
-286.574	-46.495	-0.242	0.118
-285.559	-36.300	0.188	0.101
-284.545	-46.688	0.270	0.131
-283.530	-87.970	-0.124	-0.037
-282.516	-57.027	-0.322	0.141
-281.501	333.626	0.084	-0.162
-280.486	-188.246	0.301	0.004
-279.472	-200.000	0.040	-0.236
-278.457	-179.370	-0.071	0.002
-277.443	-99.697	0.217	0.054
-276.428	51.819	-0.145	0.137
-275.413	124.343	0.178	0.221
-274.399	-200.000	0.011	0.286
-273.384	-36.900	-0.125	0.066
-272.370	800.000	0.063	0.212
-271.355	-200.000	-0.029	-0.278
-270.340	42.686	-0.192	-0.173
-269.326	105.900	0.185	0.217
-268.311	55.775	0.228	-0.219
-267.297	10.620	0.202	-0.153
-266.282	-125.767	-0.127	0.019
-265.267	-200.000	0.000	0.364
-264.253	144.706	0.190	-0.251
-263.238	174.973	-0.159	-0.228
-262.224	-200.000	0.041	0.229
-261.209	800.000	-0.078	-0.250
-260.195	5.444	0.261	0.191
-259.180	-46.283	0.260	-0.127
-258.165	4.341	0.347	0.252
-257.151	448.257	0.135	-0.294
-256.136	-200.000	0.003	0.143
-255.122	-24.049	0.179	-0.106
-254.107	800.000	-0.076	-0.252
-253.092	-200.000	0.015	0.128
-252.078	3.028	-0.139	0.100
-251.063	-200.000	0.033	0.187
-250.049	-200.000	-0.044	-0.215
-249.034	-22.448	-0.118	-0.071
-248.019	533.185	0.038	0.089
-247.005	271.606	-0.078	0.136
-245.990	49.283	-0.106	0.099
-244.976	800.000	0.038	0.146
-243.961	488.466	0.093	-0.211
-242.946	-28.293	0.405	0.232
-241.932	-110.748	0.314	-0.064
-240.917	668.240	0.026	-0.066
-239.903	-115.419	-0.074	0.014
-238.888	284.234	-0.036	0.063
-237.873	339.075	-0.137	0.264
-236.859	-196.679	-0.379	-0.002
-235.844	27.590	-0.194	-0.161
-234.830	-11.707	-0.181	-0.118
-233.815	-86.234	0.117	-0.036
-232.800	-200.000	0.012	-0.390
-231.786	-191.208	0.241	0.002
-230.771	-200.000	0.001	0.015
-229.757	-53.327	0.054	-0.024
-228.742	-39.179	0.262	0.136
-227.727	800.000	-0.034	0.095
-226.713	10.490	-0.195	-0.147
-225.698	487.781	0.090	-0.204
-224.684	-200.000	0.047	0.261
-223.669	-200.000	0.005	0.114
-222.655	-93.834	-0.239	0.065
-221.640	-200.000	-0.012	0.241
-220.625	-200.000	-0.000	-0.152
-219.611	795.526	-0.056	0.152
-218.596	533.385	-0.057	0.135
-217.582	-51.378	-0.075	-0.035
-216.567	800.000	0.093	0.284
-215.552	800.000	0.085	-0.239
-214.538	59.898	0.217	-0.212
-213.523	39.658	-0.236	0.209
-212.509	92.195	-0.169	-0.188
-211.494	-200.000	-0.010	-0.199
-210.479	-28.941	0.121	-0.068
-209.465	580.689	0.135	-0.326
-208.450	-200.000	0.025	0.248
-207.436	221.332	0.089	0.141
-206.421	-121.635	-0.165	0.027
-205.406	-51.826	-0.230	0.106
-204.392	-18.793	0.031	0.019
-203.377	20.491	0.104	0.083
-202.363	-200.000	0.009	0.294
-201.348	-92.132	0.318	0.089
-200.333	22.381	0.064	0.052
-199.319	271.708	0.124	0.216
-198.304	800.000	-0.036	-0.118
-197.290	-200.000	0.011	0.151
-196.275	11.593	-0.214	0.162
-195.260	19.629	-0.087	0.069
-194.246	239.871	0.116	-0.191
-193.231	-200.000	-0.005	-0.072
-192.217	-154.724	0.451	0.030
-191.202	-182.749	0.145	-0.003
-190.187	-200.000	0.007	-0.488
-189.173	-46.855	0.451	-0.218
-188.158	-130.921	0.183	-0.024
-187.144	362.456	0.042	-0.083
-186.129	-200.000	0.001	-0.235
-185.114	-156.165	0.161	-0.010
-184.100	-200.000	0.033	-0.195
-183.085	110.801	0.176	-0.209
-182.071	800.000	-0.058	-0.192
-181.056	-128.681	0.169	0.024
-180.042	519.915	-0.062	0.143
-179.027	285.748	-0.150	-0.266
-178.012	33.036	-0.067	-0.058
-176.998	800.000	0.055	-0.210
-175.983	-159.353	0.467	-0.026
-174.969	101.601	-0.223	0.256
-173.954	36.190	0.011	-0.010
-172.939	800.000	-0.102	-0.317
-171.925	-200.000	0.054	0.289
-170.910	-23.427	0.131	0.078
-169.896	-101.806	-0.472	-0.113
-168.881	-200.000	0.032	-0.373
-167.866	-200.000	0.004	-0.112
-166.852	-200.000	-0.027	0.144
-165.837	-200.000	-0.014	-0.179
-164.823	-76.797	0.028	-0.010
-163.808	382.328	-0.098	0.199
-162.793	37.735	0.264	0.231
-161.779	-200.000	0.010	-0.124
-160.764	-88.848	-0.279	0.082
-159.750	-175.428	-0.138	0.004
-158.735	-20.023	-0.345	0.210
-157.720	800.000	-0.084	0.284
-156.706	-95.138	-0.470	-0.125
-155.691	800.000	-0.092	-0.256
-154.677	-200.000	0.050	0.216
-153.662	800.000	0.042	-0.119
-152.647	90.961	0.228	-0.252
-151.633	-185.776	0.179	-0.003
-150.618	10.804	-0.144	-0.108
-149.604	-16.807	0.322	-0.201
-148.589	800.000	-0.106	-0.300
-147.574	537.148	-0.045	-0.106
-146.560	228.975	-0.084	0.135
-145.545	-200.000	-0.007	0.079
-144.531	483.757	0.059	0.132
-143.516	297.755	-0.131	0.237
-142.502	-200.000	-0.109	-0.516
-141.487	-35.800	0.199	0.106
-140.472	-200.000	-0.017	-0.120
-139.458	-200.000	0.021	-0.509
-138.443	-17.013	0.276	0.172
-137.429	800.000	0.044	-0.133
-136.414	-153.126	-0.057	-0.004
-135.399	-200.000	0.003	0.220
-134.385	-200.000	0.016	-0.277
-133.370	-84.984	-0.211	0.065
-132.356	113.130	-0.028	-0.034
-131.341	-15.712	0.196	-0.123
-130.326	-98.058	0.101	-0.026
-129.312	-120.579	-0.341	0.057
-128.297	121.885	0.191	-0.234
-127.283	-21.166	0.274	-0.165
-126.268	478.645	0.112	0.251
-125.253	-107.199	-0.328	0.071
-124.239	3.868	0.163	-0.117
-123.224	-5.415	-0.392	-0.265
-122.210	22.197	0.198	-0.159
-121.195	249.526	-0.284	-0.474
