DTS Sentinel unit serial number:	SN413079Multiplexer serial number:	ORYXHardware model number:	OX4-SRSoftware version number:	ORYX F/W v4.00 Oryx Data Collector v3.7.2.0data status	okinstallation	princeton_trtdifferential loss correction	single-endedforward channel	channel 3reverse channel	N/Adate	2019/09/16time	12:12:35forward acquisition time	60.00reverse acquisition time	0.00gamma	496.2192k internal	0.2296k external	0.2296temperature offset calibration	0.9949default loss term (dB/km)	0.3790temperature slope calibration	1.0000multiplexer offset coefficient	1.0000multiplexer slope coefficient	1.0000fibre end	0.00T internal ref (°C)	39.03T ext. ref 1 (°C)	13.24T ext. ref 2 (°C)	36.49length (m)	temperature (°C)	Stokes	anti-Stokes-747.200	-135.667	0.175	0.021
-746.185	-200.000	-0.018	0.081
-745.171	-78.222	0.142	-0.050
-744.156	-200.000	-0.083	0.381
-743.142	572.203	0.034	-0.085
-742.127	-81.659	0.240	-0.081
-741.112	-181.155	0.193	0.004
-740.098	-81.471	-0.095	0.032
-739.083	-200.000	0.025	0.382
-738.069	-179.276	-0.216	-0.005
-737.054	18.129	0.455	0.371
-736.039	-98.047	0.226	0.060
-735.025	-39.356	0.286	0.153
-734.010	12.453	-0.172	-0.135
-732.996	-29.269	-0.198	-0.116
-731.981	800.000	-0.059	-0.230
-730.966	-71.186	-0.242	0.093
-729.952	346.742	0.063	-0.127
-728.937	-200.000	-0.009	-0.082
-727.923	800.000	0.033	-0.116
-726.908	-116.925	-0.205	-0.038
-725.894	800.000	-0.022	-0.068
-724.879	-76.330	-0.181	-0.065
-723.864	81.774	0.211	0.233
-722.850	-4.488	-0.043	0.031
-721.835	-200.000	0.007	-0.258
-720.821	50.463	0.292	-0.282
-719.806	-18.061	-0.193	-0.123
-718.791	34.312	-0.094	0.084
-717.777	800.000	-0.056	0.170
-716.762	41.416	-0.181	0.168
-715.748	-27.776	-0.135	0.080
-714.733	-119.750	0.170	-0.030
-713.718	-200.000	0.014	-0.152
-712.704	103.360	0.146	0.174
-711.689	-200.000	-0.027	0.138
-710.675	-107.158	-0.237	-0.053
-709.660	-110.803	-0.220	0.046
-708.645	-177.470	-0.193	-0.005
-707.631	-114.914	-0.117	-0.023
-706.616	281.062	-0.143	-0.261
-705.602	-126.197	0.298	0.045
-704.587	-124.466	0.299	-0.047
-703.572	-34.829	-0.161	-0.090
-702.558	89.650	-0.058	-0.066
-701.543	800.000	0.129	-0.408
-700.529	264.234	0.158	-0.281
-699.514	352.418	-0.125	0.254
-698.499	-66.865	-0.201	0.081
-697.485	69.471	-0.120	0.126
-696.470	105.458	0.036	-0.044
-695.456	-176.594	-0.050	-0.001
-694.441	120.433	0.229	-0.290
-693.426	-200.000	-0.013	-0.258
-692.412	-143.005	0.427	-0.042
-691.397	292.947	-0.124	-0.230
-690.383	-92.811	0.176	-0.050
-689.368	318.617	0.109	-0.210
-688.354	800.000	0.035	-0.127
-687.339	-120.453	-0.239	0.041
-686.324	355.461	0.091	0.185
-685.310	-200.000	-0.021	-0.118
-684.295	14.776	-0.162	-0.129
-683.281	10.350	-0.227	-0.176
-682.266	-75.758	-0.028	0.010
-681.251	-116.758	0.177	-0.033
-680.237	46.973	0.142	-0.135
-679.222	-109.059	-0.207	0.045
-678.208	188.706	0.120	-0.183
-677.193	784.493	0.042	0.116
-676.178	800.000	-0.054	-0.192
-675.164	-1.973	0.119	0.085
-674.149	510.043	-0.131	-0.311
-673.135	-167.041	0.382	-0.016
-672.120	316.070	0.218	0.420
-671.105	-42.631	0.317	0.164
-670.091	800.000	0.030	0.120
-669.076	-82.585	0.114	0.038
-668.062	-140.137	-0.049	-0.005
-667.047	800.000	-0.147	0.471
-666.032	-200.000	0.077	-0.444
-665.018	727.701	-0.197	0.535
-664.003	213.717	-0.077	-0.124
-662.989	-16.002	-0.275	0.178
-661.974	800.000	-0.053	-0.168
-660.959	33.661	-0.318	0.281
-659.945	-159.943	-0.321	-0.018
-658.930	743.276	-0.034	0.093
-657.916	-68.491	-0.273	-0.108
-656.901	229.009	0.185	0.308
-655.886	183.504	-0.152	0.228
-654.872	-200.000	0.001	-0.241
-653.857	67.517	0.340	-0.354
-652.843	-165.214	-0.313	-0.014
-651.828	-141.896	0.426	-0.043
-650.814	146.088	-0.156	-0.213
-649.799	4.772	0.152	-0.113
-648.784	-200.000	-0.066	-0.507
-647.770	800.000	0.131	-0.455
-646.755	800.000	-0.078	0.231
-645.741	130.737	0.138	-0.180
-644.726	132.802	0.060	-0.079
-643.711	-200.000	0.004	-0.292
-642.697	-28.599	0.296	-0.174
-641.682	-4.148	0.164	0.115
-640.668	104.481	-0.135	-0.162
-639.653	800.000	0.048	-0.149
-638.638	-105.029	-0.147	-0.034
-637.624	800.000	0.092	-0.354
-636.609	-81.846	0.333	-0.111
-635.595	78.542	0.268	-0.292
-634.580	-200.000	-0.005	0.126
-633.565	420.533	-0.084	0.184
-632.551	-144.025	-0.434	-0.041
-631.536	-120.767	0.066	0.011
-630.522	5.316	-0.168	0.126
-629.507	48.335	-0.206	0.196
-628.492	-11.504	-0.213	-0.142
-627.478	-48.624	-0.422	0.206
-626.463	-126.099	0.184	0.028
-625.449	-27.868	0.064	-0.038
-624.434	-72.285	0.112	0.042
-623.419	-54.621	-0.091	-0.042
-622.405	146.292	-0.184	-0.252
-621.390	208.239	-0.065	0.104
-620.376	8.587	-0.143	0.110
-619.361	135.425	0.226	0.299
-618.346	12.601	0.056	0.044
-617.332	-26.972	-0.138	0.082
-616.317	20.601	0.052	-0.043
-615.303	131.165	-0.045	0.059
-614.288	-200.000	-0.020	-0.285
-613.273	-128.614	-0.129	-0.018
-612.259	-138.029	-0.041	-0.005
-611.244	340.257	0.066	0.131
-610.230	-173.434	0.218	0.007
-609.215	-200.000	-0.038	-0.209
-608.201	128.309	0.036	-0.047
-607.186	-200.000	0.013	0.270
-606.171	-120.998	-0.098	0.017
-605.157	-66.891	-0.197	0.079
-604.142	131.920	-0.044	0.058
-603.128	800.000	0.127	-0.364
-602.113	-166.266	-0.153	0.007
-601.098	-67.801	0.206	0.082
-600.084	104.568	0.072	0.086
-599.069	-139.551	0.050	-0.005
-598.055	-200.000	0.017	-0.550
-597.040	-54.985	0.015	0.007
-596.025	-56.729	0.041	-0.018
-595.011	-165.950	-0.097	-0.004
-593.996	-200.000	-0.010	-0.203
-592.982	-8.883	0.097	0.066
-591.967	800.000	-0.039	0.169
-590.952	33.983	0.136	0.121
-589.938	-179.738	0.121	-0.003
-588.923	-200.000	0.026	0.451
-587.909	358.699	-0.023	-0.046
-586.894	-110.545	-0.079	0.017
-585.879	-200.000	0.054	-0.276
-584.865	297.999	0.080	-0.150
-583.850	800.000	0.071	0.286
-582.836	800.000	-0.104	0.431
-581.821	-152.168	-0.046	-0.003
-580.806	800.000	-0.056	0.200
-579.792	43.145	-0.177	0.164
-578.777	29.463	0.288	-0.248
-577.763	-78.482	0.035	0.012
-576.748	239.805	0.034	-0.058
-575.733	800.000	0.023	0.100
-574.719	-27.809	-0.178	-0.105
-573.704	642.579	0.140	-0.361
-572.690	-84.142	-0.172	-0.055
-571.675	800.000	0.060	0.178
-570.661	22.045	0.274	0.227
-569.646	800.000	-0.019	-0.068
-568.631	3.388	-0.169	0.125
-567.617	800.000	-0.028	-0.095
-566.602	-200.000	0.033	-0.157
-565.588	800.000	-0.013	-0.042
-564.573	39.439	0.153	-0.139
-563.558	26.185	-0.132	-0.112
-562.544	-84.942	0.052	-0.017
-561.529	-32.163	-0.192	-0.109
-560.515	-84.098	0.194	0.062
-559.500	-200.000	0.009	0.068
-558.485	-155.910	-0.344	0.022
-557.471	18.804	-0.143	-0.116
-556.456	800.000	-0.050	0.209
-555.442	32.145	0.069	0.060
-554.427	-200.000	-0.455	0.002
-553.412	-69.830	-0.116	-0.045
-552.398	800.000	0.102	0.341
-551.383	36.665	-0.109	0.098
-550.369	-52.375	-0.080	0.037
-549.354	491.736	-0.049	0.114
-548.339	148.040	-0.104	0.142
-547.325	-68.763	0.157	0.062
-546.310	129.260	0.095	-0.123
-545.296	-200.000	-0.040	-0.000
-544.281	-186.130	0.296	-0.004
-543.266	-104.725	0.118	-0.028
-542.252	-40.771	0.191	0.100
-541.237	-163.171	-0.314	0.015
-540.223	513.897	-0.101	-0.238
-539.208	116.561	-0.213	-0.265
-538.193	-200.000	0.026	-0.195
-537.179	-68.171	0.196	-0.077
-536.164	-200.000	0.056	-0.259
-535.150	-159.749	0.492	-0.027
-534.135	261.197	-0.114	0.201
-533.121	-200.000	0.001	0.313
-532.106	-2.236	-0.088	0.063
-531.091	429.519	-0.206	-0.451
-530.077	-27.162	-0.100	-0.059
-529.062	104.250	0.196	-0.234
-528.048	12.430	0.310	-0.242
-527.033	625.119	0.057	0.146
-526.018	800.000	-0.027	0.088
-525.004	-62.935	-0.113	0.047
-523.989	320.423	0.163	0.314
-522.975	800.000	-0.118	0.352
-521.960	-83.173	0.314	0.102
-520.945	-200.000	0.005	-0.040
-519.931	-45.306	-0.062	0.031
-518.916	-11.454	-0.209	0.139
-517.902	-2.095	0.207	-0.148
-516.887	800.000	-0.063	-0.255
-515.872	197.580	-0.190	-0.293
-514.858	87.675	-0.276	-0.309
-513.843	11.041	-0.198	-0.153
-512.829	192.415	-0.148	-0.226
-511.814	319.590	-0.050	0.097
-510.799	-5.882	-0.096	0.066
-509.785	283.408	-0.151	0.275
-508.770	511.692	0.077	0.183
-507.756	800.000	0.108	0.315
-506.741	-60.564	0.232	0.100
-505.726	524.419	-0.026	-0.061
-504.712	800.000	0.084	-0.366
-503.697	51.880	-0.226	-0.218
-502.683	-114.634	0.323	-0.063
-501.668	800.000	-0.073	-0.214
-500.653	-200.000	0.052	0.313
-499.639	17.627	0.185	0.149
-498.624	418.910	0.112	0.242
-497.610	322.636	-0.163	-0.315
-496.595	44.583	0.209	0.195
-495.581	-126.490	-0.195	-0.029
-494.566	-66.494	-0.169	0.068
-493.551	516.417	0.110	-0.261
-492.537	-200.000	0.026	-0.329
-491.522	-200.000	0.050	-0.496
-490.508	-24.209	0.327	0.197
-489.493	-71.571	-0.118	0.045
-488.478	-68.503	0.199	-0.078
-487.464	-200.000	-0.030	0.193
-486.449	154.897	0.232	0.323
-485.435	-200.000	-0.023	0.193
-484.420	-176.916	-0.303	0.008
-483.405	-200.000	-0.015	0.165
-482.391	-69.151	-0.091	-0.035
-481.376	-162.584	0.240	0.012
-480.362	800.000	0.056	0.182
-479.347	705.357	0.079	0.210
-478.332	-169.793	-0.338	-0.012
-477.318	-88.152	-0.299	0.091
-476.303	-17.901	-0.177	-0.112
-475.289	-4.833	0.102	-0.071
-474.274	800.000	0.053	-0.212
-473.259	-128.941	-0.209	-0.030
-472.245	242.137	0.064	0.108
-471.230	21.869	-0.270	-0.223
-470.216	-134.823	-0.392	0.048
-469.201	103.140	0.151	-0.179
-468.186	-172.568	-0.131	0.004
-467.172	800.000	0.133	0.421
-466.157	-84.822	-0.140	-0.044
-465.143	-110.874	-0.449	0.094
-464.128	4.144	0.166	-0.123
-463.113	-180.149	0.575	-0.012
-462.099	98.470	-0.017	0.019
-461.084	112.942	0.127	0.155
-460.070	800.000	0.021	-0.058
-459.055	640.160	0.147	0.377
-458.040	-85.081	-0.292	0.092
-457.026	37.168	-0.254	0.228
-456.011	-200.000	0.032	0.261
-454.997	98.744	0.054	0.063
-453.982	800.000	-0.039	-0.122
-452.968	-4.026	0.120	0.084
-451.953	800.000	0.081	0.260
-450.938	-48.274	-0.155	-0.076
-449.924	-0.408	0.172	-0.123
-448.909	36.993	0.050	-0.045
-447.895	69.679	-0.237	0.247
-446.880	-96.693	-0.197	-0.052
-445.865	-43.425	-0.451	-0.230
-444.851	-200.000	-0.028	-0.132
-443.836	2.638	0.328	0.240
-442.822	-50.095	0.153	-0.073
-441.807	-62.626	-0.341	-0.143
-440.792	354.503	0.079	0.158
-439.778	-8.456	0.082	-0.055
-438.763	-200.000	0.048	0.224
-437.749	-200.000	-0.006	0.027
-436.734	19.156	0.047	-0.038
-435.719	237.817	0.166	0.279
-434.705	800.000	0.021	-0.071
-433.690	-158.371	0.169	-0.010
-432.676	-76.218	-0.096	-0.034
-431.661	-72.515	-0.055	-0.020
-430.646	-126.524	0.033	0.005
-429.632	159.663	-0.074	-0.104
-428.617	-137.118	-0.257	-0.030
-427.603	-200.000	-0.027	0.297
-426.588	-117.845	0.230	0.042
-425.573	800.000	-0.060	0.182
-424.559	-27.497	0.219	-0.129
-423.544	148.191	0.176	-0.239
-422.530	-144.778	-0.046	-0.004
-421.515	260.943	-0.062	0.108
-420.500	-200.000	0.033	-0.181
-419.486	-200.000	0.022	-0.125
-418.471	-83.371	0.426	-0.138
-417.457	424.065	0.067	0.145
-416.442	-184.429	-0.663	0.011
-415.428	-200.000	-0.037	-0.212
-414.413	-5.740	-0.201	-0.139
-413.398	27.359	0.086	-0.073
-412.384	-58.692	0.143	0.063
-411.369	-38.829	0.148	-0.079
-410.355	-141.389	0.153	0.016
-409.340	-4.882	-0.147	-0.102
-408.325	-200.000	-0.011	0.166
-407.311	-200.000	0.016	0.163
-406.296	297.038	0.072	0.133
-405.282	429.906	-0.081	-0.178
-404.267	-32.624	0.164	-0.092
-403.252	-200.000	-0.006	-0.035
-402.238	-136.142	0.201	-0.024
-401.223	-63.426	0.172	0.071
-400.209	-83.476	-0.162	-0.052
-399.194	-94.603	0.367	-0.101
-398.179	-164.419	-0.186	0.009
-397.165	-57.407	0.141	-0.063
-396.150	800.000	-0.019	-0.081
-395.136	707.931	-0.035	0.093
-394.121	-40.388	-0.399	0.209
-393.106	214.577	-0.269	0.430
-392.092	-200.000	-0.008	-0.201
-391.077	-200.000	-0.025	-0.126
-390.063	-61.378	-0.266	-0.113
-389.048	47.975	0.228	-0.215
-388.033	362.522	-0.105	-0.211
-387.019	144.733	0.037	0.050
-386.004	241.247	-0.074	-0.125
-384.990	203.011	-0.049	-0.076
-383.975	18.246	-0.021	-0.017
-382.960	-198.515	-0.153	-0.001
-381.946	150.862	-0.231	-0.316
-380.931	338.849	-0.179	-0.352
-379.917	-102.067	0.254	-0.062
-378.902	-200.000	-0.020	0.237
-377.888	264.982	-0.120	0.210
-376.873	-49.671	0.059	-0.028
-375.858	-32.445	0.050	0.028
-374.844	800.000	-0.053	-0.227
-373.829	427.044	-0.064	0.139
-372.815	-200.000	0.079	0.366
-371.800	-73.960	0.074	0.027
-370.785	476.523	0.124	-0.283
-369.771	-200.000	-0.018	-0.136
-368.756	333.035	0.123	0.239
-367.742	93.922	0.207	-0.236
-366.727	565.693	0.160	-0.391
-365.712	654.675	-0.107	-0.277
-364.698	-43.775	0.323	0.164
-363.683	-60.248	-0.152	0.065
-362.669	59.146	-0.141	0.140
-361.654	-135.000	-0.296	-0.036
-360.639	-200.000	0.006	-0.294
-359.625	279.530	0.139	-0.249
-358.610	-200.000	0.003	0.087
-357.596	-116.597	-0.166	-0.031
-356.581	281.173	0.189	0.340
-355.566	-110.645	0.081	-0.017
-354.552	-50.075	-0.104	0.050
-353.537	705.688	-0.032	0.084
-352.523	215.570	-0.207	0.331
-351.508	800.000	-0.071	0.197
-350.493	800.000	0.062	-0.248
-349.479	-101.959	0.281	-0.068
-348.464	-74.872	0.307	-0.111
-347.450	45.918	-0.142	0.132
-346.435	-30.906	0.215	-0.122
-345.420	490.305	0.158	0.363
-344.406	159.256	0.064	0.089
-343.391	-104.924	-0.332	-0.077
-342.377	-200.000	0.002	0.354
-341.362	10.345	0.269	0.206
-340.348	-51.206	-0.174	0.082
-339.333	-133.595	0.182	-0.023
-338.318	-136.140	0.213	0.025
-337.304	-200.000	0.013	0.261
-336.289	-200.000	-0.034	0.368
-335.275	119.942	-0.118	0.147
-334.260	800.000	-0.055	-0.195
-333.245	-200.000	-0.023	-0.218
-332.231	800.000	-0.068	0.192
-331.216	-200.000	0.010	-0.235
-330.202	800.000	0.041	-0.129
-329.187	17.093	-0.332	0.265
-328.172	-102.549	-0.051	-0.012
-327.158	-123.322	0.245	-0.039
-326.143	628.202	0.087	-0.221
-325.129	606.742	0.061	0.154
-324.114	446.284	-0.107	0.237
-323.099	206.309	0.186	-0.291
-322.085	800.000	0.113	-0.336
-321.070	-21.697	0.251	-0.154
-320.056	57.446	0.248	-0.243
-319.041	-58.667	-0.144	-0.063
-318.026	-52.676	0.359	-0.166
-317.012	-8.014	-0.064	-0.043
-315.997	-200.000	0.002	0.170
-314.983	31.777	-0.238	0.206
-313.968	800.000	-0.042	0.130
-312.953	162.076	0.108	-0.152
-311.939	-200.000	-0.021	0.116
-310.924	23.756	0.281	0.233
-309.910	-4.334	-0.180	-0.125
-308.895	-200.000	0.006	-0.147
-307.880	704.076	0.092	0.243
-306.866	13.482	-0.127	0.099
-305.851	-200.000	-0.020	0.163
-304.837	-117.091	-0.255	-0.047
-303.822	75.812	-0.073	-0.077
-302.807	97.227	0.120	-0.138
-301.793	161.188	0.193	0.270
-300.778	-158.593	-0.163	-0.009
-299.764	120.707	0.072	0.090
-298.749	800.000	0.108	0.362
-297.735	-200.000	-0.060	0.271
-296.720	-200.000	0.116	-0.603
-295.705	22.625	-0.192	-0.158
-294.691	-33.337	0.312	-0.173
-293.676	-175.321	-0.231	-0.006
-292.662	-72.033	-0.208	-0.077
-291.647	800.000	-0.041	-0.161
-290.632	800.000	0.034	-0.107
-289.618	-147.005	0.176	-0.015
-288.603	235.561	0.050	0.083
-287.589	392.241	0.006	0.012
-286.574	-200.000	0.008	0.224
-285.559	317.860	0.087	0.164
-284.545	18.334	-0.094	0.076
-283.530	-79.448	0.140	0.047
-282.516	800.000	-0.039	-0.140
-281.501	147.273	0.238	-0.321
-280.486	354.431	0.058	-0.117
-279.472	-200.000	0.005	0.070
-278.457	-131.398	-0.199	-0.026
-277.443	-79.958	-0.228	-0.077
-276.428	103.713	-0.090	-0.106
-275.413	-6.140	0.062	0.043
-274.399	-20.599	-0.222	-0.137
-273.384	-130.219	-0.143	-0.020
-272.370	-127.041	0.044	0.006
-271.355	168.863	0.329	-0.471
-270.340	-151.277	0.062	-0.005
-269.326	-150.787	-0.367	0.028
-268.311	160.272	0.234	0.328
-267.297	-200.000	-0.005	0.058
-266.282	22.588	0.083	0.068
-265.267	800.000	-0.032	0.128
-264.253	-200.000	0.000	0.048
-263.238	-182.393	0.041	0.001
-262.224	-98.758	0.039	-0.010
-261.209	14.991	-0.157	-0.123
-260.195	-200.000	0.027	0.416
-259.180	-25.045	-0.173	0.103
-258.165	-200.000	0.010	0.324
-257.151	2.349	-0.099	-0.072
-256.136	800.000	-0.062	-0.228
-255.122	-200.000	0.033	0.304
-254.107	-137.023	-0.223	0.026
-253.092	248.109	0.067	0.113
-252.078	78.064	-0.079	-0.084
-251.063	-200.000	0.072	0.338
-250.049	-173.062	0.161	-0.005
-249.034	800.000	0.071	-0.236
-248.019	44.603	0.106	0.097
-247.005	-124.791	0.273	0.042
-245.990	-200.000	0.035	0.295
-244.976	658.527	-0.034	0.088
-243.961	800.000	-0.076	-0.291
-242.946	58.155	-0.112	0.110
-241.932	-111.341	0.318	0.065
-240.917	9.575	-0.190	0.144
-239.903	-42.438	-0.266	-0.136
-238.888	-200.000	-0.006	-0.237
-237.873	-200.000	0.036	0.191
-236.859	351.645	-0.005	-0.009
-235.844	-64.774	0.217	0.088
-234.830	800.000	-0.026	0.116
-233.815	296.452	0.122	-0.224
-232.800	286.611	0.053	0.096
-231.786	-59.558	-0.319	-0.137
-230.771	-76.774	-0.355	0.125
-229.757	280.323	0.058	-0.104
-228.742	-30.574	0.070	-0.040
-227.727	125.335	-0.086	0.109
-226.713	800.000	0.058	0.167
-225.698	-78.603	0.186	0.064
-224.684	89.479	-0.041	-0.046
-223.669	-200.000	0.001	-0.016
-222.655	-116.809	0.292	0.054
-221.640	-137.631	0.229	-0.026
-220.625	599.112	-0.042	0.104
-219.611	-200.000	0.021	0.254
-218.596	166.925	0.100	-0.142
-217.582	-67.235	-0.159	0.063
-216.567	-83.849	-0.114	-0.036
-215.552	-112.112	0.116	0.023
-214.538	43.560	0.060	0.055
-213.523	-29.806	-0.259	-0.148
-212.509	268.171	-0.049	-0.085
-211.494	119.000	-0.056	0.070
-210.479	-74.911	0.076	0.027
-209.465	-92.276	0.103	0.029
-208.450	-68.628	-0.190	-0.074
-207.436	-200.000	0.006	-0.034
-206.421	-64.703	-0.186	-0.076
-205.406	-129.631	0.117	0.016
-204.392	800.000	-0.077	-0.250
-203.377	-27.053	0.085	-0.050
-202.363	32.690	-0.322	0.279
-201.348	386.382	-0.030	0.062
-200.333	160.277	0.083	0.116
-199.319	-194.208	-0.155	-0.001
-198.304	800.000	0.018	0.062
-197.290	800.000	0.050	0.199
-196.275	10.505	-0.188	0.144
-195.260	-4.735	-0.348	0.240
-194.246	184.521	-0.191	-0.284
-193.231	-131.775	-0.312	-0.041
-192.217	-55.638	0.086	-0.038
-191.202	-91.717	0.209	0.060
-190.187	52.452	-0.238	-0.227
-189.173	309.918	0.257	-0.480
-188.158	-200.000	-0.018	0.399
-187.144	-67.619	-0.035	-0.014
-186.129	-95.915	0.282	0.075
-185.114	-70.825	0.321	0.121
-184.100	22.250	0.227	-0.186
-183.085	127.158	0.106	0.135
-182.071	9.183	-0.152	0.115
-181.056	-39.827	-0.282	-0.147
-180.042	800.000	0.045	0.174
-179.027	-44.041	-0.115	0.058
-178.012	-200.000	-0.019	-0.139
-176.998	800.000	-0.013	0.043
-175.983	-52.778	0.173	0.080
-174.969	106.707	0.192	-0.228
-173.954	500.878	-0.154	-0.355
-172.939	505.657	0.011	0.026
-171.925	45.113	-0.110	-0.102
-170.910	300.305	0.125	0.231
-169.896	110.808	-0.143	0.173
-168.881	800.000	0.041	-0.166
-167.866	81.252	0.177	0.191
-166.852	62.351	0.051	-0.051
-165.837	-89.649	0.126	0.037
-164.823	-10.278	-0.271	0.179
-163.808	-146.994	0.383	0.033
-162.793	-200.000	-0.040	-0.300
-161.779	96.516	0.097	-0.111
-160.764	-193.285	0.195	-0.002
-159.750	86.215	0.191	-0.210
-158.735	752.574	0.076	-0.204
-157.720	-200.000	-0.005	-0.107
-156.706	322.673	0.106	0.201
-155.691	-200.000	0.035	0.177
-154.677	445.410	-0.062	-0.137
-153.662	177.936	0.132	-0.192
-152.647	-14.043	-0.110	0.071
-151.633	125.232	-0.254	0.319
-150.618	-200.000	0.006	0.173
-149.604	151.571	0.004	-0.006
-148.589	-60.205	0.347	0.147
-147.574	-170.147	-0.176	-0.006
-146.560	800.000	-0.065	0.243
-145.545	800.000	0.081	0.248
-144.531	183.519	-0.058	0.085
-143.516	-8.753	-0.159	-0.106
-142.502	800.000	-0.069	-0.260
-141.487	624.172	0.048	-0.120
-140.472	-174.003	-0.124	-0.004
-139.458	161.144	0.027	0.038
-138.443	800.000	0.027	0.087
-137.429	159.263	0.071	0.098
-136.414	800.000	-0.041	0.139
-135.399	443.420	0.140	-0.307
-134.385	-59.661	-0.185	0.079
-133.370	-200.000	0.004	-0.051
-132.356	269.925	0.073	0.128
-131.341	800.000	0.091	-0.279
-130.326	28.822	-0.135	0.114
-129.312	-22.604	-0.272	0.164
-128.297	13.509	0.028	0.021
-127.283	106.327	-0.193	0.228
-126.268	-62.772	-0.236	0.098
-125.253	-39.858	-0.248	-0.129
-124.239	-75.202	0.127	0.045
-123.224	-124.189	-0.291	-0.045
-122.210	-41.112	-0.141	0.073
-121.195	800.000	0.066	-0.247
