DTS Sentinel unit serial number:	SN413079Multiplexer serial number:	ORYXHardware model number:	OX4-SRSoftware version number:	ORYX F/W v4.00 Oryx Data Collector v3.7.2.0data status	okinstallation	princeton_trtdifferential loss correction	single-endedforward channel	channel 3reverse channel	N/Adate	2019/09/17time	15:00:35forward acquisition time	60.00reverse acquisition time	0.00gamma	496.2192k internal	0.2295k external	0.2295temperature offset calibration	0.9954default loss term (dB/km)	0.3790temperature slope calibration	1.0000multiplexer offset coefficient	1.0000multiplexer slope coefficient	1.0000fibre end	0.00T internal ref (°C)	37.39T ext. ref 1 (°C)	0.39T ext. ref 2 (°C)	34.18length (m)	temperature (°C)	Stokes	anti-Stokes-747.200	-19.278	-0.176	0.112
-746.185	31.601	0.022	0.020
-745.171	800.000	-0.038	-0.124
-744.156	-157.448	-0.260	-0.016
-743.142	-117.816	0.182	0.033
-742.127	800.000	0.035	0.149
-741.112	800.000	0.098	0.304
-740.098	111.370	-0.067	-0.083
-739.083	-144.935	-0.140	0.013
-738.069	572.702	-0.108	0.270
-737.054	-134.682	-0.488	0.061
-736.039	800.000	-0.025	-0.102
-735.025	-36.361	0.158	-0.087
-734.010	37.985	-0.047	0.043
-732.996	-200.000	-0.016	-0.182
-731.981	73.604	0.175	0.188
-730.966	-200.000	-0.034	-0.211
-729.952	-91.801	-0.151	-0.044
-728.937	8.910	0.180	0.139
-727.923	189.736	-0.138	0.211
-726.908	-200.000	0.050	-0.236
-725.894	-88.265	-0.274	0.084
-724.879	300.643	0.103	0.193
-723.864	-26.558	0.588	0.351
-722.850	-200.000	-0.001	0.183
-721.835	-63.409	-0.247	0.104
-720.821	8.166	0.074	-0.057
-719.806	-63.387	0.211	-0.088
-718.791	196.623	-0.105	0.163
-717.777	-42.435	0.220	-0.115
-716.762	-200.000	0.033	-0.247
-715.748	-29.882	-0.152	0.088
-714.733	506.072	-0.089	0.210
-713.718	-105.600	-0.163	0.038
-712.704	-62.610	0.229	-0.097
-711.689	800.000	0.128	0.526
-710.675	-160.136	0.203	0.011
-709.660	800.000	-0.079	-0.252
-708.645	57.835	-0.128	-0.128
-707.631	-157.492	0.134	0.008
-706.616	-13.709	-0.114	0.075
-705.602	-200.000	-0.009	-0.159
-704.587	36.305	0.149	0.134
-703.572	237.777	0.068	0.115
-702.558	20.672	-0.452	-0.373
-701.543	109.230	0.176	0.215
-700.529	800.000	-0.133	0.417
-699.514	160.782	-0.151	-0.215
-698.499	400.487	-0.065	-0.140
-697.485	479.812	-0.131	0.304
-696.470	-10.945	-0.218	0.147
-695.456	85.812	-0.211	-0.237
-694.441	-5.076	0.112	-0.079
-693.426	191.441	-0.078	-0.120
-692.412	-200.000	-0.013	0.169
-691.397	475.890	0.112	-0.259
-690.383	-73.400	-0.027	-0.010
-689.368	-59.395	0.229	0.101
-688.354	576.424	-0.082	0.204
-687.339	-85.684	0.090	0.029
-686.324	118.394	0.232	0.292
-685.310	-71.678	0.180	0.068
-684.295	-88.397	-0.072	-0.022
-683.281	0.117	-0.468	-0.340
-682.266	77.862	-0.284	-0.309
-681.251	-78.888	-0.164	-0.057
-680.237	767.225	0.044	-0.121
-679.222	-87.794	0.070	-0.021
-678.208	800.000	0.037	0.108
-677.193	800.000	0.036	0.108
-676.178	-37.605	0.071	-0.039
-675.164	293.143	-0.011	0.020
-674.149	15.318	-0.350	0.280
-673.135	-200.000	0.038	-0.284
-672.120	-117.716	0.216	-0.040
-671.105	495.323	0.103	0.241
-670.091	-154.272	-0.192	0.013
-669.076	-200.000	0.020	0.152
-668.062	-18.158	-0.174	-0.111
-667.047	-200.000	-0.029	-0.252
-666.032	-49.163	0.054	-0.026
-665.018	104.956	0.069	0.083
-664.003	-200.000	-0.005	0.251
-662.989	-200.000	-0.020	0.194
-661.974	30.913	0.244	-0.213
-660.959	-200.000	-0.001	-0.207
-659.945	475.628	-0.034	-0.079
-658.930	-69.734	-0.085	0.033
-657.916	800.000	-0.034	0.123
-656.901	-200.000	0.051	0.304
-655.886	238.964	0.128	0.217
-654.872	-200.000	-0.006	-0.176
-653.857	419.674	-0.141	0.307
-652.843	-69.736	-0.222	0.086
-651.828	-200.000	-0.004	0.079
-650.814	-9.811	-0.105	-0.071
-649.799	-8.785	-0.164	-0.112
-648.784	144.361	0.145	0.198
-647.770	393.307	0.151	-0.319
-646.755	231.871	0.182	0.304
-645.741	32.791	0.294	-0.260
-644.726	-200.000	0.054	-0.267
-643.711	611.424	0.048	-0.123
-642.697	-44.658	0.054	0.028
-641.682	-89.422	0.038	-0.011
-640.668	-68.257	0.236	-0.093
-639.653	-92.244	0.076	0.022
-638.638	32.361	0.268	-0.235
-637.624	-29.494	0.074	0.043
-636.609	445.035	0.113	0.253
-635.595	-106.815	0.008	0.002
-634.580	-162.769	0.255	0.013
-633.565	20.619	0.173	-0.142
-632.551	676.252	-0.086	-0.227
-631.536	719.665	0.058	-0.157
-630.522	-54.833	0.227	-0.104
-629.507	259.349	0.102	0.179
-628.492	-47.958	-0.130	0.064
-627.478	12.595	0.213	-0.167
-626.463	58.811	0.130	-0.130
-625.449	-127.597	0.083	0.012
-624.434	-131.926	0.389	-0.052
-623.419	170.875	-0.084	-0.122
-622.405	-100.714	-0.371	-0.093
-621.390	125.823	0.120	0.155
-620.376	-76.315	-0.116	-0.042
-619.361	-200.000	0.001	-0.506
-618.346	-118.015	-0.080	-0.014
-617.332	800.000	-0.055	0.236
-616.317	-44.052	-0.231	-0.118
-615.303	110.159	0.174	-0.213
-614.288	-85.650	0.461	-0.145
-613.273	-168.754	0.285	0.011
-612.259	-30.274	-0.268	0.155
-611.244	-138.412	-0.216	-0.024
-610.230	191.670	-0.121	-0.185
-609.215	800.000	-0.070	-0.263
-608.201	-50.974	0.140	-0.067
-607.186	-200.000	0.016	0.183
-606.171	800.000	0.089	0.288
-605.157	-20.090	-0.344	-0.215
-604.142	-157.926	-0.175	-0.010
-603.128	67.342	0.100	0.104
-602.113	-137.558	0.225	0.026
-601.098	800.000	-0.055	0.242
-600.084	-79.701	0.364	0.125
-599.069	-110.684	-0.163	0.034
-598.055	-196.162	-0.222	-0.002
-597.040	76.731	0.238	-0.257
-596.025	-87.472	0.139	0.043
-595.011	-110.843	-0.263	0.055
-593.996	86.365	0.077	-0.086
-592.982	-83.783	-0.265	0.086
-591.967	-67.095	-0.306	-0.123
-590.952	800.000	0.112	0.394
-589.938	11.684	0.389	-0.303
-588.923	185.997	-0.164	-0.248
-587.909	-200.000	-0.036	-0.193
-586.894	-200.000	0.069	-0.550
-585.879	282.169	-0.032	0.058
-584.865	220.132	0.154	0.250
-583.850	600.840	0.065	-0.165
-582.836	-200.000	0.043	0.338
-581.821	44.772	-0.167	0.156
-580.806	751.948	-0.124	0.340
-579.792	21.856	-0.067	-0.055
-578.777	372.522	0.157	-0.323
-577.763	-200.000	-0.040	0.246
-576.748	386.747	-0.039	-0.082
-575.733	-70.961	-0.206	0.079
-574.719	-84.528	0.177	-0.057
-573.704	-200.000	-0.073	-0.459
-572.690	-200.000	0.081	-0.405
-571.675	-35.262	-0.086	0.047
-570.661	77.486	-0.057	-0.062
-569.646	-160.587	0.191	-0.010
-568.631	-89.081	-0.337	0.101
-567.617	-92.239	-0.297	0.085
-566.602	14.721	-0.141	0.112
-565.588	58.731	0.109	-0.109
-564.573	-200.000	0.013	-0.148
-563.558	-25.045	-0.254	-0.153
-562.544	-85.851	0.403	0.127
-561.529	18.290	-0.333	0.270
-560.515	-69.797	-0.134	0.052
-559.500	114.538	-0.116	-0.143
-558.485	276.673	0.199	-0.360
-557.471	-70.738	0.132	0.051
-556.456	-80.922	-0.021	-0.007
-555.442	153.462	0.232	-0.322
-554.427	25.553	-0.289	0.244
-553.412	-70.938	-0.037	0.014
-552.398	-30.208	-0.200	-0.115
-551.383	-150.450	-0.401	0.031
-550.369	-146.254	-0.124	-0.011
-549.354	-93.422	-0.231	-0.065
-548.339	232.759	0.121	-0.202
-547.325	-200.000	-0.028	-0.403
-546.310	-200.000	0.007	0.147
-545.296	636.087	0.132	-0.339
-544.281	-20.821	0.208	0.129
-543.266	-130.298	-0.285	0.039
-542.252	481.298	-0.090	-0.208
-541.237	-200.000	-0.025	-0.172
-540.223	16.855	0.045	0.036
-539.208	-97.719	0.150	-0.039
-538.193	-200.000	0.037	-0.248
-537.179	167.654	-0.076	-0.109
-536.164	800.000	0.140	0.512
-535.150	-200.000	-0.043	0.276
-534.135	-200.000	0.027	-0.297
-533.121	-12.845	0.295	-0.195
-532.106	-170.795	0.171	-0.006
-531.091	-82.787	0.117	0.038
-530.077	-56.939	0.075	-0.034
-529.062	-144.592	-0.199	0.019
-528.048	-70.533	0.146	-0.056
-527.033	208.460	0.030	-0.047
-526.018	-200.000	-0.013	0.091
-525.004	42.535	0.153	-0.141
-523.989	-161.664	-0.233	-0.012
-522.975	800.000	-0.043	0.128
-521.960	-200.000	0.034	-0.238
-520.945	9.668	-0.339	0.261
-519.931	-173.650	0.308	0.009
-518.916	800.000	0.111	0.431
-517.902	-200.000	0.004	0.174
-516.887	-129.396	0.306	0.043
-515.872	46.739	-0.451	-0.424
-514.858	-31.711	0.096	0.054
-513.843	110.298	-0.062	-0.076
-512.829	-164.198	-0.209	-0.010
-511.814	106.573	-0.245	-0.294
-510.799	-109.579	0.593	-0.127
-509.785	-200.000	-0.060	-0.298
-508.770	182.515	-0.060	0.089
-507.756	800.000	-0.077	-0.253
-506.741	209.370	-0.092	-0.145
-505.726	30.032	-0.244	0.211
-504.712	-169.493	-0.099	-0.004
-503.697	-200.000	-0.007	-0.235
-502.683	-98.585	-0.161	-0.042
-501.668	-200.000	0.021	0.143
-500.653	-173.699	-0.150	0.005
-499.639	-200.000	-0.055	-0.384
-498.624	5.621	0.430	-0.322
-497.610	103.907	-0.174	0.207
-496.595	-200.000	0.029	0.314
-495.581	122.188	-0.291	-0.368
-494.566	-128.688	-0.462	-0.066
-493.551	-86.018	0.223	0.070
-492.537	17.648	-0.135	0.108
-491.522	143.097	0.324	0.436
-490.508	-77.683	-0.070	0.025
-489.493	-61.102	-0.237	-0.101
-488.478	-39.116	-0.351	-0.187
-487.464	800.000	0.117	-0.397
-486.449	-46.501	0.274	0.136
-485.435	-200.000	-0.025	0.237
-484.420	357.387	-0.170	-0.344
-483.405	682.226	-0.082	0.217
-482.391	214.331	0.091	-0.146
-481.376	-64.131	-0.225	0.093
-480.362	420.743	0.118	0.255
-479.347	272.145	-0.067	-0.120
-478.332	631.563	0.071	0.182
-477.318	83.841	0.019	-0.021
-476.303	-131.105	-0.191	-0.026
-475.289	12.765	-0.246	0.192
-474.274	800.000	-0.059	-0.171
-473.259	482.137	0.041	0.093
-472.245	27.245	0.134	0.114
-471.230	-76.495	-0.304	0.108
-470.216	-125.448	-0.255	0.039
-469.201	-7.861	0.137	0.094
-468.186	-114.591	0.375	0.073
-467.172	-127.736	0.200	0.029
-466.157	89.897	0.058	0.066
-465.143	369.622	0.034	-0.070
-464.128	-14.213	0.609	-0.397
-463.113	68.570	-0.268	0.278
-462.099	-25.680	0.148	-0.088
-461.084	288.761	0.042	0.077
-460.070	-121.645	-0.441	-0.074
-459.055	-34.926	0.254	-0.140
-458.040	-50.413	0.346	0.165
-457.026	9.513	0.247	0.189
-456.011	-76.317	0.261	-0.093
-454.997	-87.736	0.056	0.017
-453.982	141.785	-0.226	0.302
-452.968	184.501	0.048	-0.072
-451.953	367.271	-0.114	-0.232
-450.938	200.478	0.030	0.047
-449.924	-52.259	0.084	0.039
-448.909	-200.000	-0.014	0.142
-447.895	-200.000	0.024	-0.368
-446.880	-88.409	-0.184	-0.056
-445.865	800.000	-0.088	0.356
-444.851	694.623	-0.050	0.132
-443.836	42.482	0.176	0.162
-442.822	116.268	-0.129	-0.160
-441.807	800.000	-0.070	0.309
-440.792	428.058	0.051	-0.112
-439.778	42.216	0.220	-0.202
-438.763	15.410	0.233	0.185
-437.749	-87.688	0.277	-0.084
-436.734	-200.000	0.010	0.067
-435.719	-49.167	-0.074	-0.036
-434.705	800.000	-0.086	0.268
-433.690	-24.211	0.021	-0.012
-432.676	-129.555	0.527	-0.074
-431.661	62.117	-0.110	-0.110
-430.646	-10.148	-0.177	0.119
-429.632	-200.000	-0.021	-0.179
-428.617	-127.065	-0.448	-0.066
-427.603	-87.987	-0.249	-0.075
-426.588	-114.114	0.263	-0.051
-425.573	-109.161	0.217	0.047
-424.559	-43.692	0.150	-0.076
-423.544	800.000	-0.053	-0.196
-422.530	51.842	0.166	0.159
-421.515	265.710	0.077	-0.136
-420.500	-60.862	-0.290	-0.124
-419.486	-200.000	-0.138	0.001
-418.471	35.244	0.066	0.058
-417.457	222.561	0.058	0.095
-416.442	74.265	-0.408	0.432
-415.428	119.892	-0.321	0.401
-414.413	-140.025	-0.149	0.016
-413.398	-200.000	0.002	0.064
-412.384	-31.069	0.158	0.090
-411.369	-13.705	-0.124	0.081
-410.355	800.000	0.031	-0.094
-409.340	-36.030	0.166	0.091
-408.325	72.221	-0.133	0.140
-407.311	-90.348	-0.205	0.060
-406.296	277.253	-0.049	-0.089
-405.282	502.584	-0.067	-0.156
-404.267	-200.000	0.006	-0.089
-403.252	-115.359	-0.362	0.069
-402.238	-16.097	0.200	-0.128
-401.223	-54.034	-0.223	-0.102
-400.209	-197.715	-0.246	-0.002
-399.194	233.872	0.056	0.093
-398.179	-67.108	0.172	0.068
-397.165	-75.862	-0.189	0.067
-396.150	-100.631	-0.260	-0.065
-395.136	-162.339	0.170	-0.009
-394.121	159.552	0.285	0.401
-393.106	-178.948	0.173	-0.004
-392.092	117.137	0.278	-0.344
-391.077	-104.989	-0.023	0.005
-390.063	-200.000	-0.013	-0.061
-389.048	569.189	-0.102	-0.249
-388.033	-200.000	-0.035	0.400
-387.019	-57.451	-0.173	0.076
-386.004	-134.788	0.341	-0.042
-384.990	268.891	-0.087	0.154
-383.975	-80.830	-0.328	0.110
-382.960	-66.476	0.227	-0.091
-381.946	-80.047	0.290	0.098
-380.931	45.099	-0.185	0.172
-379.917	-197.323	-0.355	-0.002
-378.902	16.986	-0.147	0.117
-377.888	800.000	-0.055	-0.187
-376.873	-114.235	0.101	-0.020
-375.858	-200.000	-0.044	0.453
-374.844	37.665	0.132	-0.118
-373.829	800.000	0.088	0.316
-372.815	-62.600	0.158	-0.066
-371.800	-23.624	-0.164	-0.099
-370.785	31.570	0.069	-0.060
-369.771	308.865	-0.128	0.240
-368.756	-12.629	0.359	0.236
-367.742	-63.676	0.284	0.117
-366.727	-66.101	0.220	-0.088
-365.712	-38.002	-0.158	0.085
-364.698	536.947	-0.145	0.347
-363.683	-200.000	-0.029	0.185
-362.669	271.141	0.173	-0.307
-361.654	-110.226	-0.343	-0.072
-360.639	-149.811	0.163	0.013
-359.625	105.949	0.115	-0.137
-358.610	333.808	0.059	-0.115
-357.596	196.709	0.102	-0.157
-356.581	171.807	-0.176	0.254
-355.566	-200.000	0.011	0.069
-354.552	332.449	0.185	0.360
-353.537	142.550	0.174	0.233
-352.523	434.088	-0.085	-0.186
-351.508	243.959	-0.070	-0.118
-350.493	-102.151	-0.208	0.050
-349.479	-61.329	0.095	-0.040
-348.464	-30.769	-0.063	-0.036
-347.450	-200.000	0.005	0.143
-346.435	-200.000	-0.040	0.197
-345.420	-138.608	-0.093	-0.010
-344.406	-56.056	-0.392	0.176
-343.391	-131.713	0.131	0.017
-342.377	-80.807	-0.246	0.082
-341.362	275.073	-0.077	0.138
-340.348	122.397	0.091	-0.115
-339.333	-200.000	0.009	-0.060
-338.318	-200.000	0.002	0.052
-337.304	52.977	-0.200	0.193
-336.289	169.600	-0.158	-0.227
-335.275	-110.665	0.320	0.067
-334.260	291.861	-0.105	0.192
-333.245	-65.256	0.365	0.148
-332.231	-76.208	-0.162	0.057
-331.216	10.684	-0.237	0.182
-330.202	-200.000	-0.048	0.259
-329.187	-189.079	-0.170	0.002
-328.172	67.677	0.091	-0.094
-327.158	-200.000	-0.012	-0.063
-326.143	350.861	0.123	0.244
-325.129	-200.000	0.049	0.235
-324.114	26.060	-0.147	-0.123
-323.099	61.015	0.278	0.277
-322.085	298.811	-0.132	-0.244
-321.070	-200.000	0.055	-0.299
-320.056	28.246	-0.189	0.160
-319.041	-200.000	-0.027	0.338
-318.026	-27.923	0.340	-0.198
-317.012	-17.929	-0.227	-0.143
-315.997	292.415	0.223	0.409
-314.983	-176.190	0.055	0.001
-313.968	362.179	-0.114	-0.230
-312.953	-126.236	-0.181	0.027
-311.939	-73.734	-0.119	0.044
-310.924	349.645	0.095	0.189
-309.910	-30.026	-0.100	-0.057
-308.895	393.774	0.056	-0.117
-307.880	-76.526	0.363	0.128
-306.866	-109.786	-0.085	-0.018
-305.851	104.244	-0.165	0.195
-304.837	168.003	0.051	-0.073
-303.822	-39.029	0.477	0.252
-302.807	23.130	-0.261	-0.215
-301.793	-32.150	-0.374	0.210
-300.778	-200.000	-0.003	-0.204
-299.764	-66.266	0.350	-0.140
-298.749	619.500	-0.100	-0.253
-297.735	-63.119	-0.039	-0.016
-296.720	-92.283	-0.293	-0.083
-295.705	51.578	-0.236	0.225
-294.691	-147.046	0.294	-0.025
-293.676	43.529	-0.227	-0.208
-292.662	-112.385	-0.155	-0.031
-291.647	800.000	-0.065	-0.238
-290.632	800.000	-0.137	0.479
-289.618	-134.036	0.325	-0.040
-288.603	84.365	-0.109	-0.120
-287.589	-117.187	-0.009	-0.002
-286.574	130.952	0.086	0.110
-285.559	-131.248	0.103	0.014
-284.545	-118.739	-0.081	0.014
-283.530	-200.000	0.043	0.218
-282.516	-200.000	0.113	0.520
-281.501	-9.738	0.140	-0.094
-280.486	-151.748	0.067	-0.005
-279.472	235.264	-0.108	0.178
-278.457	272.951	0.064	0.114
-277.443	-49.406	0.218	-0.104
-276.428	40.260	-0.215	0.194
-275.413	-182.796	0.046	-0.001
-274.399	8.836	0.147	-0.112
-273.384	800.000	0.060	0.200
-272.370	-70.752	-0.309	-0.117
-271.355	239.042	0.077	0.128
-270.340	-49.897	0.248	-0.118
-269.326	591.224	0.150	0.372
-268.311	-7.601	-0.272	0.185
-267.297	-74.345	0.088	0.032
-266.282	61.968	-0.152	-0.152
-265.267	-74.133	0.221	0.080
-264.253	155.419	-0.099	-0.137
-263.238	370.595	-0.150	0.305
-262.224	68.896	-0.132	-0.136
-261.209	289.871	-0.024	-0.044
-260.195	125.139	-0.292	-0.369
-259.180	-200.000	0.002	-0.341
-258.165	68.150	-0.133	-0.136
-257.151	-44.272	-0.124	0.062
-256.136	-90.982	-0.170	-0.049
-255.122	-127.435	-0.267	-0.039
-254.107	-200.000	-0.073	0.480
-253.092	800.000	0.030	0.127
-252.078	275.288	0.159	0.282
-251.063	-43.306	-0.215	-0.109
-250.049	-200.000	0.029	-0.306
-249.034	-84.602	0.263	-0.083
-248.019	-70.466	-0.018	-0.007
-247.005	70.041	-0.044	-0.045
-245.990	64.309	-0.062	-0.062
-244.976	46.034	-0.150	-0.139
-243.961	-139.628	-0.250	0.027
-242.946	49.802	0.406	-0.384
-241.932	482.496	0.086	-0.196
-240.917	467.405	-0.183	-0.412
-239.903	-116.387	0.185	-0.034
-238.888	-176.147	-0.166	0.004
-237.873	74.679	-0.331	-0.348
-236.859	49.337	0.158	-0.149
-235.844	-36.307	0.288	0.155
-234.830	-74.519	0.240	-0.087
-233.815	31.486	-0.046	-0.040
-232.800	562.209	-0.036	-0.087
-231.786	132.619	0.179	-0.231
-230.771	560.255	-0.033	-0.080
-229.757	585.216	-0.118	-0.292
-228.742	-81.852	-0.543	-0.178
-227.727	800.000	0.110	-0.316
-226.713	-200.000	-0.043	-0.275
-225.698	-200.000	0.042	-0.307
-224.684	-64.474	0.117	-0.048
-223.669	-29.674	0.389	-0.222
-222.655	-48.956	-0.156	0.075
-221.640	800.000	-0.035	-0.104
-220.625	-200.000	0.072	0.443
-219.611	4.225	-0.090	0.066
-218.596	178.434	0.149	0.218
-217.582	170.452	-0.081	0.116
-216.567	-89.760	0.328	0.096
-215.552	800.000	-0.033	0.114
-214.538	-116.463	0.271	0.050
-213.523	-29.517	-0.141	0.081
-212.509	800.000	-0.048	0.188
-211.494	35.009	-0.114	0.100
-210.479	136.069	-0.206	-0.269
-209.465	-118.413	0.268	0.048
-208.450	-54.071	-0.385	-0.175
-207.436	36.126	0.107	-0.094
-206.421	-158.901	0.085	-0.005
-205.406	35.910	-0.219	0.193
-204.392	35.448	0.135	0.118
-203.377	230.552	0.079	-0.130
-202.363	344.921	0.154	-0.302
-201.348	520.796	0.027	0.064
-200.333	800.000	-0.054	-0.214
-199.319	668.218	-0.096	-0.249
-198.304	21.812	0.081	0.066
-197.290	114.769	0.159	0.195
-196.275	-27.688	-0.043	0.025
-195.260	119.513	-0.302	0.374
-194.246	525.153	0.045	0.105
-193.231	487.843	0.026	0.060
-192.217	175.440	0.106	0.153
-191.202	257.488	0.080	0.138
-190.187	-7.313	0.040	0.027
-189.173	-137.056	0.161	0.018
-188.158	-126.238	0.125	-0.019
-187.144	800.000	-0.075	0.328
-186.129	-116.719	0.339	0.062
-185.114	-38.826	0.283	-0.149
-184.100	-200.000	0.021	0.190
-183.085	-128.816	-0.172	-0.024
-182.071	92.901	0.116	-0.131
-181.056	63.806	0.194	0.195
-180.042	782.222	-0.118	0.322
-179.027	173.333	0.196	-0.282
-178.012	-200.000	0.028	-0.173
-176.998	510.713	0.130	0.303
-175.983	108.038	-0.218	-0.260
-174.969	5.055	0.091	-0.067
-173.954	300.847	-0.142	-0.262
-172.939	-108.830	0.132	-0.028
-171.925	8.632	-0.063	0.047
-170.910	-99.500	0.304	0.076
-169.896	-200.000	-0.006	-0.117
-168.881	800.000	0.061	-0.260
-167.866	-200.000	-0.029	-0.164
-166.852	-35.414	0.006	-0.003
-165.837	-200.000	-0.104	0.468
-164.823	-80.432	0.242	0.081
-163.808	800.000	0.041	-0.161
-162.793	385.534	-0.062	-0.128
-161.779	-200.000	-0.050	0.315
-160.764	729.123	-0.067	0.178
-159.750	800.000	-0.037	0.129
-158.735	-26.970	-0.116	0.068
-157.720	-131.472	-0.304	0.040
-156.706	-154.605	0.062	0.004
-155.691	280.845	-0.136	0.244
-154.677	19.679	0.246	0.198
-153.662	4.816	-0.351	0.258
-152.647	-54.212	0.153	-0.069
-151.633	-200.000	0.010	0.122
-150.618	411.021	-0.129	0.274
-149.604	85.518	-0.314	0.345
-148.589	800.000	0.033	-0.118
-147.574	-107.803	0.243	-0.053
-146.560	-200.000	-0.014	-0.146
-145.545	1.067	-0.182	0.130
-144.531	-34.063	-0.239	-0.131
-143.516	-47.712	-0.059	0.028
-142.502	-5.924	0.115	-0.079
-141.487	800.000	-0.016	0.049
-140.472	-200.000	-0.045	0.230
-139.458	146.029	0.204	-0.273
-138.443	55.450	0.131	0.127
-137.429	105.372	0.038	-0.045
-136.414	545.850	0.018	0.043
-135.399	-52.362	0.299	0.138
-134.385	-89.708	0.171	-0.050
-133.370	166.103	0.143	0.202
-132.356	-200.000	0.050	0.281
-131.341	800.000	-0.036	-0.117
-130.326	9.613	-0.051	0.038
-129.312	56.366	0.143	-0.139
-128.297	-66.280	-0.078	0.031
-127.283	0.557	-0.226	-0.161
-126.268	399.889	0.065	-0.135
-125.253	-63.107	-0.127	0.052
-124.239	65.202	-0.131	0.132
-123.224	-54.350	-0.071	-0.032
-122.210	-142.088	-0.093	-0.009
-121.195	409.565	0.103	-0.217
