DTS Sentinel unit serial number:	SN413079Multiplexer serial number:	ORYXHardware model number:	OX4-SRSoftware version number:	ORYX F/W v4.00 Oryx Data Collector v3.7.2.0data status	okinstallation	princeton_trtdifferential loss correction	single-endedforward channel	channel 3reverse channel	N/Adate	2019/09/11time	14:42:10forward acquisition time	60.00reverse acquisition time	0.00gamma	496.2192k internal	0.2291k external	0.2291temperature offset calibration	0.9979default loss term (dB/km)	0.3790temperature slope calibration	1.0000multiplexer offset coefficient	1.0000multiplexer slope coefficient	1.0000fibre end	0.00T internal ref (°C)	42.39T ext. ref 1 (°C)	0.89T ext. ref 2 (°C)	38.01length (m)	temperature (°C)	Stokes	anti-Stokes-747.200	-70.444	-0.258	0.100
-746.185	213.193	0.140	-0.226
-745.171	104.985	-0.191	-0.231
-744.156	47.498	-0.052	-0.049
-743.142	-59.338	-0.183	-0.081
-742.127	-97.229	-0.138	-0.037
-741.112	157.608	0.074	-0.106
-740.098	431.666	-0.113	0.250
-739.083	-79.134	0.226	0.079
-738.069	-200.000	0.045	0.260
-737.054	-200.000	-0.040	-0.328
-736.039	-169.617	-0.340	0.013
-735.025	-27.278	0.295	-0.176
-734.010	166.683	0.110	-0.160
-732.996	-200.000	-0.061	-0.380
-731.981	48.591	0.232	-0.223
-730.966	274.887	-0.185	0.335
-729.952	322.372	0.116	0.226
-728.937	-16.031	-0.115	0.075
-727.923	-200.000	0.032	0.269
-726.908	-77.154	-0.463	0.165
-725.894	263.034	-0.130	0.231
-724.879	9.409	0.258	0.199
-723.864	103.595	0.159	-0.191
-722.850	-134.456	-0.266	-0.033
-721.835	-200.000	-0.018	-0.141
-720.821	-187.318	-0.175	0.002
-719.806	-127.758	-0.301	0.044
-718.791	212.660	-0.154	0.249
-717.777	87.486	-0.238	0.270
-716.762	424.301	-0.031	0.068
-715.748	800.000	-0.048	-0.140
-714.733	800.000	0.082	-0.281
-713.718	-18.312	-0.096	-0.061
-712.704	-90.290	0.506	-0.150
-711.689	-47.142	-0.234	0.117
-710.675	-52.967	0.179	0.084
-709.660	352.337	0.125	-0.252
-708.645	-58.836	-0.123	0.054
-707.631	-200.000	0.009	-0.053
-706.616	127.189	-0.086	-0.111
-705.602	-139.782	-0.308	0.033
-704.587	87.749	-0.228	-0.258
-703.572	-200.000	-0.010	0.225
-702.558	135.348	-0.019	0.026
-701.543	-86.016	0.297	0.094
-700.529	89.244	0.144	-0.164
-699.514	-5.978	-0.232	0.162
-698.499	-137.656	-0.377	0.043
-697.485	77.344	-0.127	0.138
-696.470	-151.773	-0.183	-0.014
-695.456	-67.155	0.213	-0.086
-694.441	-37.681	0.110	0.060
-693.426	-78.784	0.063	-0.022
-692.412	-80.920	-0.210	-0.071
-691.397	-200.000	-0.049	-0.463
-690.383	61.198	-0.179	-0.182
-689.368	13.102	0.088	-0.069
-688.354	-200.000	0.009	0.149
-687.339	630.081	-0.092	-0.237
-686.324	800.000	0.067	-0.204
-685.310	800.000	-0.062	0.177
-684.295	-89.332	-0.022	0.007
-683.281	698.810	0.123	-0.331
-682.266	132.390	-0.086	-0.113
-681.251	-36.466	-0.151	0.083
-680.237	114.367	-0.112	0.139
-679.222	-6.956	-0.412	0.286
-678.208	800.000	0.018	0.079
-677.193	800.000	-0.064	0.201
-676.178	185.465	0.035	0.053
-675.164	-56.985	-0.289	-0.130
-674.149	20.384	0.124	-0.102
-673.135	-200.000	-0.011	-0.064
-672.120	800.000	-0.021	0.064
-671.105	-122.886	-0.265	0.044
-670.091	800.000	0.039	-0.127
-669.076	-200.000	-0.025	-0.146
-668.062	171.022	-0.092	-0.135
-667.047	589.329	0.202	0.509
-666.032	-116.038	0.296	0.056
-665.018	81.498	-0.097	-0.107
-664.003	-200.000	-0.039	0.407
-662.989	-30.255	-0.221	-0.128
-661.974	-109.266	0.381	0.083
-660.959	415.539	-0.086	0.187
-659.945	-59.914	-0.297	-0.130
-658.930	-18.559	0.055	-0.035
-657.916	-130.406	-0.087	0.012
-656.901	191.795	-0.138	-0.212
-655.886	-99.470	-0.255	-0.066
-654.872	-200.000	-0.183	0.000
-653.857	5.203	0.325	-0.244
-652.843	-4.310	-0.040	-0.028
-651.828	29.188	0.030	0.026
-650.814	800.000	-0.025	0.074
-649.799	-87.122	-0.291	0.090
-648.784	-124.883	-0.263	-0.041
-647.770	-51.398	0.214	-0.102
-646.755	35.146	0.197	-0.176
-645.741	1.849	-0.148	-0.109
-644.726	90.666	-0.366	-0.418
-643.711	135.778	0.150	-0.200
-642.697	-22.763	-0.343	-0.211
-641.682	800.000	0.055	0.203
-640.668	-20.848	-0.138	0.087
-639.653	85.452	-0.190	0.213
-638.638	451.271	0.004	-0.009
-637.624	-93.935	0.153	-0.043
-636.609	800.000	-0.027	0.086
-635.595	-118.143	0.117	-0.021
-634.580	-93.699	-0.095	0.027
-633.565	-101.862	0.152	-0.038
-632.551	176.103	0.137	-0.202
-631.536	-49.828	0.028	0.013
-630.522	79.260	0.257	-0.281
-629.507	800.000	0.094	-0.347
-628.492	120.540	-0.236	-0.299
-627.478	-139.237	-0.270	0.030
-626.463	206.972	0.174	-0.276
-625.449	-200.000	-0.035	-0.239
-624.434	47.775	-0.132	0.126
-623.419	-141.610	-0.335	0.034
-622.405	-200.000	0.004	-0.300
-621.390	-70.858	0.252	-0.097
-620.376	800.000	0.073	-0.210
-619.361	-2.628	0.211	0.150
-618.346	-64.193	0.178	0.074
-617.332	-62.133	-0.017	-0.007
-616.317	114.708	-0.103	-0.128
-615.303	-200.000	0.003	0.141
-614.288	-85.543	0.379	-0.120
-613.273	34.240	0.166	0.148
-612.259	-200.000	0.026	0.170
-611.244	74.333	0.120	0.128
-610.230	-153.519	-0.129	0.009
-609.215	101.787	0.117	-0.139
-608.201	-200.000	0.013	0.216
-607.186	-200.000	0.014	0.262
-606.171	800.000	-0.041	-0.122
-605.157	-132.382	-0.022	-0.003
-604.142	-200.000	0.001	0.028
-603.128	800.000	-0.018	0.072
-602.113	-144.122	0.146	-0.014
-601.098	-123.782	-0.250	-0.040
-600.084	-200.000	0.028	-0.181
-599.069	12.726	-0.123	-0.097
-598.055	-125.561	-0.430	-0.066
-597.040	3.987	0.272	0.203
-596.025	0.528	-0.209	0.152
-595.011	184.830	-0.177	-0.267
-593.996	-72.466	0.042	0.016
-592.982	-200.000	-0.058	-0.334
-591.967	312.663	-0.124	-0.236
-590.952	69.913	-0.196	-0.206
-589.938	149.797	-0.096	-0.132
-588.923	-189.290	-0.353	-0.004
-587.909	-67.547	-0.235	-0.094
-586.894	5.210	-0.130	0.098
-585.879	-75.544	0.046	0.016
-584.865	56.812	-0.147	-0.146
-583.850	-200.000	0.003	-0.020
-582.836	-69.307	0.484	-0.189
-581.821	-22.211	0.389	-0.240
-580.806	-107.780	0.167	0.037
-579.792	-58.668	0.156	-0.069
-578.777	-18.952	0.255	0.162
-577.763	-67.311	0.108	-0.043
-576.748	-30.785	0.032	-0.018
-575.733	532.118	0.015	0.036
-574.719	-84.103	0.222	-0.072
-573.704	-100.278	0.152	0.038
-572.690	-51.726	-0.106	-0.050
-571.675	173.177	0.098	0.144
-570.661	800.000	0.096	-0.306
-569.646	9.884	0.059	0.045
-568.631	800.000	0.010	-0.037
-567.617	40.556	-0.185	-0.170
-566.602	-128.037	0.177	0.026
-565.588	20.402	-0.276	0.226
-564.573	432.916	0.114	0.252
-563.558	800.000	0.068	-0.228
-562.544	24.386	0.196	-0.165
-561.529	9.996	0.034	-0.026
-560.515	-200.000	-0.070	0.405
-559.500	396.742	0.102	-0.218
-558.485	-92.263	-0.356	0.102
-557.471	-200.000	0.000	-0.079
-556.456	304.471	0.090	0.170
-555.442	-66.527	0.167	-0.068
-554.427	-200.000	-0.023	-0.121
-553.412	25.774	0.143	0.121
-552.398	-200.000	-0.006	0.232
-551.383	75.005	0.252	-0.269
-550.369	165.229	-0.055	0.079
-549.354	-200.000	-0.007	-0.214
-548.339	-200.000	0.004	0.144
-547.325	800.000	0.021	0.079
-546.310	234.985	0.160	0.268
-545.296	189.534	0.028	-0.043
-544.281	27.388	0.155	-0.133
-543.266	-200.000	-0.007	0.374
-542.252	-200.000	-0.043	-0.327
-541.237	7.873	-0.152	-0.116
-540.223	-87.630	-0.161	-0.049
-539.208	-69.986	0.177	0.069
-538.193	653.805	-0.154	0.402
-537.179	-156.526	-0.224	0.014
-536.164	-23.578	-0.278	0.169
-535.150	13.727	-0.092	0.073
-534.135	1.032	0.057	0.042
-533.121	486.496	0.092	0.212
-532.106	-70.706	0.158	0.061
-531.091	-91.047	0.208	-0.061
-530.077	128.457	-0.163	0.210
-529.062	256.202	0.092	0.160
-528.048	-200.000	0.052	0.310
-527.033	-200.000	-0.027	0.200
-526.018	-141.024	-0.139	-0.014
-525.004	166.613	0.134	-0.192
-523.989	-140.467	0.255	-0.027
-522.975	176.352	-0.094	0.139
-521.960	8.909	0.282	-0.216
-520.945	57.307	-0.111	-0.110
-519.931	684.923	-0.181	-0.478
-518.916	656.402	-0.059	0.154
-517.902	95.509	-0.074	-0.085
-516.887	-20.506	-0.068	-0.042
-515.872	-80.388	-0.269	-0.091
-514.858	-200.000	0.024	-0.188
-513.843	-97.656	0.266	-0.070
-512.829	297.001	-0.079	0.148
-511.814	-200.000	-0.056	-0.526
-510.799	-200.000	0.017	-0.274
-509.785	185.943	-0.048	0.072
-508.770	-163.925	0.158	0.007
-507.756	800.000	0.047	-0.192
-506.741	-12.900	-0.128	-0.084
-505.726	614.601	0.059	-0.149
-504.712	17.428	-0.259	-0.209
-503.697	614.373	0.074	-0.187
-502.683	57.108	0.211	0.209
-501.668	-200.000	-0.002	-0.193
-500.653	58.186	-0.121	-0.120
-499.639	-101.121	-0.044	0.011
-498.624	-194.637	-0.228	0.002
-497.610	-116.916	-0.494	-0.092
-496.595	-200.000	0.000	-0.207
-495.581	-36.916	0.330	-0.180
-494.566	187.090	0.196	0.296
-493.551	-17.293	-0.065	0.042
-492.537	31.558	0.100	-0.088
-491.522	800.000	-0.070	-0.271
-490.508	22.238	-0.064	-0.053
-489.493	-70.510	-0.167	0.064
-488.478	93.722	-0.119	0.137
-487.464	-200.000	-0.051	-0.271
-486.449	-135.087	0.254	-0.031
-485.435	-88.664	0.042	-0.013
-484.420	-200.000	0.030	-0.179
-483.405	-200.000	-0.012	-0.170
-482.391	-12.513	-0.220	-0.146
-481.376	67.888	-0.073	0.075
-480.362	-104.986	0.156	-0.036
-479.347	-9.439	-0.171	-0.116
-478.332	-200.000	-0.001	0.033
-477.318	-42.642	-0.436	0.225
-476.303	-49.115	0.161	-0.078
-475.289	113.653	0.138	0.170
-474.274	-13.242	0.086	0.057
-473.259	39.713	-0.122	-0.111
-472.245	800.000	-0.007	-0.030
-471.230	348.469	-0.099	-0.198
-470.216	-122.734	-0.158	0.026
-469.201	-14.482	-0.163	-0.106
-468.186	-177.272	-0.193	-0.005
-467.172	310.590	0.165	-0.313
-466.157	-105.252	0.220	-0.051
-465.143	-146.705	-0.202	0.018
-464.128	259.056	-0.201	0.351
-463.113	-65.310	-0.036	-0.015
-462.099	-77.147	0.374	0.132
-461.084	-110.392	0.035	0.007
-460.070	27.052	0.282	0.240
-459.055	800.000	0.022	0.071
-458.040	0.676	0.139	0.101
-457.026	-53.335	-0.265	-0.123
-456.011	-137.718	-0.412	0.047
-454.997	-89.898	-0.206	-0.061
-453.982	151.215	0.192	-0.264
-452.968	221.810	0.051	0.083
-451.953	-99.429	0.460	0.117
-450.938	-94.492	0.234	0.065
-449.924	621.174	0.081	0.206
-448.909	-58.483	0.057	-0.025
-447.895	-200.000	-0.001	0.099
-446.880	19.923	-0.083	0.068
-445.865	592.566	0.052	0.129
-444.851	379.341	-0.038	0.078
-443.836	800.000	0.040	0.132
-442.822	10.033	-0.081	-0.062
-441.807	-99.346	-0.197	0.050
-440.792	46.284	0.084	-0.078
-439.778	-200.000	-0.004	-0.021
-438.763	-200.000	0.040	0.260
-437.749	418.247	0.094	0.203
-436.734	-55.495	-0.081	0.037
-435.719	686.138	-0.106	0.281
-434.705	35.283	0.188	0.167
-433.690	650.655	-0.070	0.182
-432.676	800.000	-0.070	-0.213
-431.661	800.000	-0.030	-0.109
-430.646	800.000	-0.049	-0.149
-429.632	-126.977	-0.133	0.020
-428.617	-124.193	-0.358	0.057
-427.603	-94.302	-0.187	0.052
-426.588	800.000	0.070	0.231
-425.573	-71.966	-0.159	-0.060
-424.559	-73.594	-0.074	0.027
-423.544	-20.478	0.172	-0.107
-422.530	-152.810	-0.026	0.002
-421.515	-62.872	0.266	0.111
-420.500	299.515	-0.039	-0.073
-419.486	126.177	-0.025	0.032
-418.471	-54.316	0.248	0.114
-417.457	271.326	-0.053	0.094
-416.442	255.144	0.077	-0.133
-415.428	800.000	-0.200	0.596
-414.413	228.461	-0.076	0.125
-413.398	-27.859	0.293	-0.172
-412.384	-46.117	-0.092	0.046
-411.369	-60.492	0.087	0.037
-410.355	800.000	-0.090	-0.295
-409.340	23.554	-0.051	-0.042
-408.325	-65.816	-0.280	0.113
-407.311	-200.000	0.052	-0.232
-406.296	-200.000	-0.005	0.274
-405.282	86.503	-0.031	-0.035
-404.267	282.629	-0.059	0.107
-403.252	-200.000	0.073	0.364
-402.238	-200.000	-0.007	0.145
-401.223	-200.000	0.042	-0.253
-400.209	-44.504	0.106	-0.053
-399.194	800.000	-0.052	-0.203
-398.179	-200.000	0.026	-0.163
-397.165	800.000	0.134	0.417
-396.150	800.000	-0.096	0.278
-395.136	354.728	0.095	0.192
-394.121	94.105	0.173	0.198
-393.106	800.000	-0.074	-0.290
-392.092	800.000	-0.043	-0.134
-391.077	-200.000	-0.016	0.118
-390.063	676.413	0.073	0.192
-389.048	-120.640	-0.188	-0.032
-388.033	-73.148	0.092	0.034
-387.019	168.896	0.020	-0.029
-386.004	-200.000	-0.082	0.366
-384.990	-38.887	0.097	-0.052
-383.975	-200.000	0.053	0.364
-382.960	800.000	0.117	0.489
-381.946	-200.000	-0.035	0.198
-380.931	-8.228	0.147	0.100
-379.917	-115.389	0.378	0.072
-378.902	-56.367	0.237	0.106
-377.888	370.945	0.010	0.020
-376.873	-70.796	0.025	0.010
-375.858	-39.817	0.233	0.123
-374.844	-104.520	0.105	-0.025
-373.829	257.979	0.065	0.113
-372.815	204.524	-0.124	-0.194
-371.800	312.324	0.012	-0.023
-370.785	-200.000	0.005	0.028
-369.771	-200.000	0.006	-0.168
-368.756	-3.815	-0.143	0.100
-367.742	43.423	0.189	-0.174
-366.727	125.853	0.201	0.256
-365.712	-181.783	-0.171	0.003
-364.698	163.013	0.131	-0.185
-363.683	-1.318	0.140	0.100
-362.669	-200.000	0.024	-0.196
-361.654	35.445	0.092	0.082
-360.639	-50.437	-0.081	0.038
-359.625	-86.873	-0.429	0.132
-358.610	-107.210	0.104	0.023
-357.596	-116.811	0.178	-0.033
-356.581	763.335	-0.099	0.270
-355.566	-74.170	-0.139	-0.051
-354.552	60.902	-0.051	-0.051
-353.537	800.000	0.060	-0.208
-352.523	-200.000	0.019	-0.123
-351.508	488.000	0.165	-0.380
-350.493	-84.397	-0.349	-0.111
-349.479	90.202	-0.236	-0.266
-348.464	216.257	0.055	-0.089
-347.450	323.682	-0.098	0.189
-346.435	51.791	-0.262	-0.252
-345.420	309.275	-0.100	-0.189
-344.406	-99.343	0.128	0.033
-343.391	8.740	-0.013	-0.010
-342.377	1.968	0.028	0.021
-341.362	800.000	0.084	-0.280
-340.348	-33.150	0.164	0.092
-339.333	-101.444	-0.064	-0.016
-338.318	-200.000	-0.004	0.070
-337.304	-197.114	0.267	-0.002
-336.289	22.746	-0.097	0.080
-335.275	-189.149	-0.218	-0.003
-334.260	156.002	0.186	-0.258
-333.245	49.029	-0.254	-0.240
-332.231	9.703	-0.250	-0.191
-331.216	-64.348	0.252	0.103
-330.202	144.333	0.122	-0.165
-329.187	-59.762	0.256	0.111
-328.172	67.887	0.145	0.150
-327.158	218.880	0.257	0.413
-326.143	-20.646	-0.107	0.066
-325.129	800.000	0.061	0.222
-324.114	78.725	-0.019	-0.021
-323.099	-4.456	-0.140	-0.098
-322.085	78.409	-0.195	0.209
-321.070	269.077	-0.176	-0.311
-320.056	186.502	-0.115	0.173
-319.041	-129.914	-0.556	-0.077
-318.026	-32.078	0.102	0.057
-317.012	247.842	0.110	0.188
-315.997	641.736	-0.050	-0.128
-314.983	-4.879	0.510	-0.354
-313.968	-200.000	-0.014	0.441
-312.953	119.364	0.145	0.181
-311.939	176.730	0.041	0.060
-310.924	-161.321	-0.110	-0.006
-309.910	-122.414	-0.181	-0.030
-308.895	237.582	-0.085	0.142
-307.880	-200.000	-0.006	-0.033
-306.866	-105.955	0.369	0.084
-305.851	-97.848	-0.383	0.100
-304.837	12.640	0.235	-0.183
-303.822	-75.514	0.292	-0.104
-302.807	-98.914	0.085	-0.022
-301.793	-59.511	-0.117	-0.051
-300.778	-200.000	-0.022	0.170
-299.764	-22.225	-0.032	0.019
-298.749	-101.860	0.124	0.030
-297.735	-200.000	-0.018	0.131
-296.720	-26.047	0.068	-0.040
-295.705	-99.521	0.137	-0.035
-294.691	508.022	-0.063	0.148
-293.676	-185.402	-0.410	-0.006
-292.662	227.377	-0.109	0.178
-291.647	-200.000	0.020	0.088
-290.632	160.103	0.070	0.098
-289.618	303.555	0.141	-0.264
-288.603	-113.374	-0.053	0.010
-287.589	-200.000	0.010	0.217
-286.574	-200.000	-0.000	0.186
-285.559	134.397	-0.033	0.042
-284.545	145.197	0.112	0.151
-283.530	361.228	0.088	0.177
-282.516	-82.310	-0.287	0.094
-281.501	800.000	-0.057	-0.162
-280.486	800.000	-0.058	0.164
-279.472	-51.200	-0.174	0.082
-278.457	-65.616	0.240	-0.097
-277.443	-53.935	0.276	-0.126
-276.428	-200.000	-0.054	-0.339
-275.413	77.986	-0.135	0.145
-274.399	3.969	0.311	0.229
-273.384	30.545	0.227	-0.195
-272.370	366.798	-0.065	0.132
-271.355	31.371	-0.066	-0.057
-270.340	29.167	0.039	-0.034
-269.326	-200.000	0.006	0.181
-268.311	-28.247	0.241	0.140
-267.297	-8.343	-0.349	-0.236
-266.282	-18.599	0.168	0.105
-265.267	46.946	-0.135	-0.126
-264.253	-107.250	-0.328	-0.073
-263.238	800.000	0.118	-0.398
-262.224	22.325	0.254	-0.209
-261.209	-200.000	0.029	-0.342
-260.195	241.781	-0.050	0.083
-259.180	129.572	-0.018	0.023
-258.165	220.219	-0.083	-0.134
-257.151	-1.632	-0.141	0.100
-256.136	800.000	-0.038	-0.148
-255.122	-111.429	0.266	0.054
-254.107	-64.381	0.157	-0.064
-253.092	800.000	-0.017	-0.057
-252.078	662.094	0.110	-0.286
-251.063	506.396	-0.094	-0.219
-250.049	-101.656	0.291	-0.071
-249.034	59.900	-0.243	0.241
-248.019	-87.736	0.173	-0.052
-247.005	-194.006	-0.237	0.002
-245.990	-109.954	0.265	-0.056
-244.976	-120.269	0.246	-0.042
-243.961	-75.295	0.224	-0.080
-242.946	-147.647	0.281	0.024
-241.932	-200.000	-0.056	-0.316
-240.917	800.000	0.131	0.380
-239.903	800.000	0.030	-0.120
-238.888	-62.345	-0.214	-0.089
-237.873	-12.650	-0.327	0.214
-236.859	1.394	-0.094	-0.068
-235.844	-93.550	-0.165	-0.046
-234.830	800.000	0.042	-0.128
-233.815	248.104	-0.137	0.233
-232.800	134.578	-0.016	0.021
-231.786	-151.403	0.400	0.030
-230.771	-150.056	0.302	0.024
-229.757	205.437	-0.201	-0.314
-228.742	259.335	0.053	0.093
-227.727	197.596	-0.152	0.232
-226.713	800.000	-0.017	0.073
-225.698	-109.621	0.354	-0.075
-224.684	36.891	-0.327	-0.290
-223.669	-200.000	-0.013	-0.229
-222.655	-45.266	0.331	0.165
-221.640	-146.493	0.211	0.018
-220.625	489.822	0.168	0.386
-219.611	46.578	0.202	-0.188
-218.596	-200.000	0.079	-0.350
-217.582	285.429	0.027	0.049
-216.567	-200.000	0.010	0.183
-215.552	800.000	-0.094	0.271
-214.538	800.000	0.113	0.386
-213.523	82.390	-0.221	0.241
-212.509	564.061	0.091	-0.220
-211.494	-130.054	-0.241	-0.033
-210.479	658.425	-0.113	0.290
-209.465	800.000	0.067	0.234
-208.450	-200.000	-0.010	0.449
-207.436	-79.413	-0.299	0.101
-206.421	-200.000	0.040	-0.538
-205.406	-200.000	0.009	0.115
-204.392	-200.000	0.045	0.207
-203.377	600.842	-0.136	0.338
-202.363	-72.332	-0.319	0.118
-201.348	32.991	-0.285	0.248
-200.333	72.975	-0.178	0.186
-199.319	88.462	0.168	0.187
-198.304	-66.043	-0.149	-0.060
-197.290	31.873	0.174	-0.151
-196.275	-200.000	-0.001	0.112
-195.260	-16.703	-0.064	0.040
-194.246	18.685	-0.228	0.183
-193.231	800.000	0.046	0.179
-192.217	800.000	0.089	0.265
-191.202	-55.407	-0.104	0.047
-190.187	9.897	-0.093	0.071
-189.173	49.787	-0.184	0.174
-188.158	800.000	0.044	0.127
-187.144	447.763	-0.139	0.307
-186.129	-82.794	-0.211	-0.068
-185.114	800.000	0.093	-0.261
-184.100	-169.413	0.199	0.007
-183.085	-200.000	-0.012	-0.097
-182.071	11.396	-0.278	-0.214
-181.056	125.963	-0.077	0.098
-180.042	273.721	-0.112	0.198
-179.027	508.363	-0.086	0.199
-178.012	800.000	-0.068	0.230
-176.998	-102.337	-0.240	0.058
-175.983	-34.410	-0.121	-0.066
-174.969	800.000	0.111	-0.406
-173.954	39.007	0.254	-0.228
-172.939	800.000	0.066	-0.275
-171.925	-200.000	-0.017	-0.197
-170.910	-200.000	-0.015	0.280
-169.896	314.867	0.135	-0.255
-168.881	-200.000	0.046	-0.246
-167.866	-200.000	0.106	-0.471
-166.852	-83.727	-0.241	-0.077
-165.837	221.059	0.165	-0.265
-164.823	125.351	-0.123	-0.155
-163.808	29.794	0.141	-0.120
-162.793	-116.283	0.076	-0.014
-161.779	45.410	0.111	0.103
-160.764	281.756	-0.134	-0.240
-159.750	259.976	-0.103	0.178
-158.735	498.186	-0.107	0.246
-157.720	176.758	-0.035	-0.051
-156.706	46.241	0.098	-0.091
-155.691	384.417	-0.061	0.125
-154.677	12.143	0.255	0.196
-153.662	-200.000	0.053	0.272
-152.647	800.000	-0.035	-0.110
-151.633	-46.945	-0.181	-0.088
-150.618	68.287	-0.191	-0.196
-149.604	800.000	-0.040	0.135
-148.589	475.593	0.062	-0.140
-147.574	800.000	0.033	0.125
-146.560	-107.955	-0.186	0.041
-145.545	270.607	-0.042	-0.074
-144.531	-52.544	-0.052	0.024
-143.516	7.864	0.332	-0.249
-142.502	650.301	0.217	-0.556
-141.487	-23.865	-0.143	-0.086
-140.472	66.333	0.081	0.082
-139.458	-200.000	-0.031	0.193
-138.443	236.058	-0.226	-0.373
-137.429	702.631	-0.093	-0.244
-136.414	-200.000	-0.002	0.053
-135.399	-31.942	-0.176	-0.099
-134.385	-200.000	0.023	0.287
-133.370	-16.744	0.149	-0.094
-132.356	123.527	-0.291	-0.365
-131.341	-96.808	0.235	0.062
-130.326	27.823	0.139	0.117
-129.312	-200.000	-0.027	0.285
-128.297	207.392	0.078	0.122
-127.283	-200.000	-0.023	-0.277
-126.268	59.973	0.083	-0.082
-125.253	-52.614	0.189	0.087
-124.239	21.549	-0.111	0.090
-123.224	800.000	0.051	-0.156
-122.210	800.000	-0.099	-0.355
-121.195	5.130	0.183	0.134
-120.180	-200.000	0.004	0.022
