DTS Sentinel unit serial number:	SN413079Multiplexer serial number:	ORYXHardware model number:	OX4-SRSoftware version number:	ORYX F/W v4.00 Oryx Data Collector v3.7.2.0data status	okinstallation	princeton_trtdifferential loss correction	single-endedforward channel	channel 3reverse channel	N/Adate	2019/09/17time	08:52:35forward acquisition time	60.00reverse acquisition time	0.00gamma	496.2192k internal	0.2330k external	0.2330temperature offset calibration	0.9940default loss term (dB/km)	0.3790temperature slope calibration	1.0000multiplexer offset coefficient	1.0000multiplexer slope coefficient	1.0000fibre end	0.00T internal ref (°C)	27.87T ext. ref 1 (°C)	0.14T ext. ref 2 (°C)	23.60length (m)	temperature (°C)	Stokes	anti-Stokes-747.200	146.580	0.129	0.175
-746.185	15.883	-0.217	0.172
-745.171	-87.424	0.173	0.053
-744.156	800.000	0.239	0.690
-743.142	800.000	0.090	0.313
-742.127	308.543	-0.120	0.226
-741.112	131.547	-0.194	-0.251
-740.098	279.232	-0.188	0.337
-739.083	39.155	0.130	-0.117
-738.069	59.941	-0.090	0.090
-737.054	-85.577	0.092	0.029
-736.039	118.545	-0.098	0.122
-735.025	-200.000	0.080	0.406
-734.010	61.527	-0.164	-0.164
-732.996	263.934	-0.192	-0.336
-731.981	-139.480	-0.383	-0.041
-730.966	37.075	-0.126	-0.112
-729.952	-110.465	-0.412	0.086
-728.937	-81.696	0.168	-0.055
-727.923	800.000	-0.053	-0.159
-726.908	46.963	0.107	0.100
-725.894	-200.000	0.013	-0.324
-724.879	17.263	-0.098	-0.078
-723.864	-79.919	-0.054	-0.018
-722.850	460.400	0.037	0.082
-721.835	-83.034	0.097	0.032
-720.821	377.402	-0.090	0.185
-719.806	-48.541	-0.300	-0.145
-718.791	335.339	-0.080	0.157
-717.777	-63.734	-0.070	-0.029
-716.762	-168.938	0.094	-0.004
-715.748	-200.000	-0.006	0.346
-714.733	-132.268	-0.311	0.041
-713.718	115.333	-0.108	-0.133
-712.704	-22.313	0.136	-0.083
-711.689	-200.000	0.041	0.197
-710.675	773.598	0.103	-0.283
-709.660	277.893	-0.082	0.146
-708.645	-110.946	-0.066	0.014
-707.631	46.949	-0.206	-0.193
-706.616	195.775	0.067	0.102
-705.602	137.910	0.114	0.151
-704.587	-63.227	0.107	0.045
-703.572	-40.602	-0.315	0.164
-702.558	-182.858	-0.272	0.005
-701.543	-157.299	0.189	0.012
-700.529	800.000	-0.066	-0.239
-699.514	-200.000	-0.024	-0.149
-698.499	800.000	0.019	-0.079
-697.485	-12.556	-0.257	-0.169
-696.470	-85.303	-0.184	-0.058
-695.456	-28.214	-0.062	0.036
-694.441	351.608	0.038	0.076
-693.426	-138.110	-0.136	-0.015
-692.412	34.111	-0.116	0.102
-691.397	95.325	0.144	0.165
-690.383	-200.000	-0.013	0.371
-689.368	-102.266	-0.280	0.068
-688.354	738.240	0.077	-0.209
-687.339	-200.000	0.014	-0.094
-686.324	800.000	0.090	0.293
-685.310	800.000	-0.101	0.397
-684.295	-200.000	0.035	-0.350
-683.281	-144.651	-0.116	-0.011
-682.266	122.954	-0.026	-0.033
-681.251	107.583	-0.047	0.057
-680.237	800.000	-0.061	-0.264
-679.222	-111.398	-0.106	-0.022
-678.208	-36.589	0.100	-0.054
-677.193	78.162	-0.221	0.236
-676.178	-13.358	-0.147	0.096
-675.164	21.417	-0.293	0.239
-674.149	-200.000	0.019	0.084
-673.135	-114.669	0.173	-0.033
-672.120	-72.478	0.214	-0.079
-671.105	406.326	-0.039	-0.082
-670.091	674.819	-0.086	0.224
-669.076	-112.184	0.222	0.045
-668.062	-58.596	0.077	0.034
-667.047	-40.933	0.323	0.168
-666.032	235.941	0.182	0.303
-665.018	158.119	-0.211	0.294
-664.003	683.630	0.079	-0.207
-662.989	-200.000	-0.014	0.297
-661.974	-110.901	0.215	0.044
-660.959	67.810	0.088	-0.090
-659.945	-88.260	-0.330	0.099
-658.930	800.000	-0.018	-0.079
-657.916	800.000	-0.026	0.105
-656.901	-125.872	0.266	0.040
-655.886	61.995	-0.316	0.316
-654.872	454.250	-0.102	-0.227
-653.857	45.665	-0.156	0.144
-652.843	-141.751	0.173	0.017
-651.828	54.022	-0.405	0.390
-650.814	331.374	0.116	0.224
-649.799	-200.000	0.112	0.506
-648.784	220.740	-0.227	0.365
-647.770	140.031	-0.036	-0.048
-646.755	-2.633	0.063	0.044
-645.741	-74.029	0.005	0.002
-644.726	-200.000	0.005	0.140
-643.711	-14.929	-0.109	-0.070
-642.697	587.286	0.101	-0.250
-641.682	700.110	0.155	-0.408
-640.668	-61.785	0.145	0.061
-639.653	-200.000	-0.011	0.441
-638.638	84.109	0.100	-0.110
-637.624	63.768	-0.071	0.071
-636.609	-146.244	-0.336	-0.030
-635.595	-135.963	-0.185	-0.022
-634.580	800.000	-0.094	0.357
-633.565	-105.996	0.451	0.102
-632.551	-6.769	-0.139	0.095
-631.536	-19.650	-0.154	-0.096
-630.522	-20.095	-0.168	0.104
-629.507	-198.127	-0.349	-0.002
-628.492	-28.377	0.412	0.238
-627.478	800.000	-0.025	0.099
-626.463	-200.000	-0.012	-0.079
-625.449	-200.000	0.059	-0.344
-624.434	-56.361	0.201	0.090
-623.419	800.000	0.070	-0.291
-622.405	800.000	-0.028	-0.082
-621.390	-117.429	-0.181	-0.033
-620.376	-131.620	-0.248	0.033
-619.361	-51.506	-0.259	-0.121
-618.346	-200.000	-0.044	-0.197
-617.332	78.185	0.151	-0.162
-616.317	-112.296	-0.152	-0.031
-615.303	41.435	-0.052	-0.047
-614.288	-200.000	-0.061	0.363
-613.273	800.000	0.039	0.159
-612.259	284.253	-0.141	0.254
-611.244	-200.000	-0.036	0.361
-610.230	-200.000	-0.363	0.001
-609.215	3.112	0.110	0.080
-608.201	-200.000	0.057	0.308
-607.186	-139.063	-0.174	0.019
-606.171	275.904	-0.087	-0.155
-605.157	337.987	0.051	-0.100
-604.142	-97.887	0.149	-0.039
-603.128	-200.000	0.044	-0.245
-602.113	55.477	0.306	-0.297
-601.098	-126.261	0.243	-0.036
-600.084	-104.867	0.027	0.006
-599.069	-75.093	-0.123	0.044
-598.055	-37.836	0.090	0.048
-597.040	-14.357	-0.113	0.073
-596.025	-169.144	0.081	-0.003
-595.011	-200.000	0.058	-0.283
-593.996	-19.057	-0.288	0.179
-592.982	75.839	0.216	0.229
-591.967	-78.957	0.266	-0.091
-590.952	246.695	0.170	0.287
-589.938	314.226	-0.077	0.146
-588.923	470.714	0.021	-0.047
-587.909	582.960	0.159	-0.389
-586.894	422.942	0.121	0.261
-585.879	212.434	-0.106	-0.167
-584.865	182.194	-0.056	-0.082
-583.850	350.438	-0.086	0.170
-582.836	-92.682	-0.132	-0.037
-581.821	95.253	0.069	0.078
-580.806	-33.501	0.342	0.189
-579.792	721.849	-0.080	-0.212
-578.777	-102.907	-0.247	0.059
-577.763	-200.000	0.009	-0.241
-576.748	-200.000	0.005	0.373
-575.733	234.724	0.119	-0.196
-574.719	-36.097	0.125	0.068
-573.704	-133.221	0.343	-0.043
-572.690	56.300	-0.223	0.217
-571.675	86.029	0.185	-0.203
-570.661	800.000	-0.017	0.073
-569.646	456.399	0.051	-0.113
-568.631	30.469	0.072	-0.062
-567.617	752.063	-0.074	0.200
-566.602	-94.024	0.433	0.119
-565.588	800.000	-0.070	0.254
-564.573	-121.509	-0.219	0.036
-563.558	800.000	-0.093	0.350
-562.544	94.916	-0.152	-0.173
-561.529	-200.000	0.001	-0.059
-560.515	800.000	0.111	0.323
-559.500	-13.301	0.129	-0.084
-558.485	-96.982	-0.111	-0.029
-557.471	-160.939	-0.306	0.016
-556.456	-71.791	-0.210	0.078
-555.442	60.738	-0.075	-0.074
-554.427	-152.385	-0.414	-0.030
-553.412	-152.067	0.336	0.024
-552.398	-59.439	0.183	-0.078
-551.383	434.424	-0.084	-0.183
-550.369	-200.000	-0.012	-0.399
-549.354	156.467	-0.155	-0.213
-548.339	-200.000	-0.013	-0.071
-547.325	83.504	0.069	0.076
-546.310	684.805	-0.112	-0.293
-545.296	-200.000	-0.020	0.267
-544.281	-68.223	0.158	-0.062
-543.266	-200.000	-0.001	-0.093
-542.252	-200.000	-0.098	-0.583
-541.237	800.000	-0.044	0.125
-540.223	386.113	0.118	0.244
-539.208	23.138	0.214	0.176
-538.193	85.631	0.231	0.253
-537.179	-112.608	0.196	-0.039
-536.164	-40.245	-0.203	-0.106
-535.150	-54.484	-0.345	-0.156
-534.135	-200.000	0.017	0.092
-533.121	800.000	0.020	0.058
-532.106	-36.835	0.333	-0.179
-531.091	-200.000	-0.097	0.463
-530.077	800.000	-0.066	0.206
-529.062	800.000	-0.043	-0.148
-528.048	28.743	0.145	-0.123
-527.033	-200.000	0.007	-0.163
-526.018	800.000	-0.088	-0.249
-525.004	-29.880	-0.087	-0.049
-523.989	449.874	0.065	-0.144
-522.975	311.826	-0.111	0.208
-521.960	-200.000	0.008	-0.058
-520.945	-150.275	0.417	0.032
-519.931	158.749	-0.244	-0.338
-518.916	-200.000	-0.011	-0.331
-517.902	124.458	0.115	-0.145
-516.887	-152.632	0.120	-0.009
-515.872	68.058	-0.171	0.174
-514.858	-55.037	0.236	-0.106
-513.843	-114.740	-0.153	0.029
-512.829	18.279	-0.234	-0.186
-511.814	117.465	-0.083	-0.102
-510.799	34.436	-0.281	0.245
-509.785	-85.314	-0.190	-0.059
-508.770	-143.653	-0.256	-0.024
-507.756	-200.000	-0.047	0.305
-506.741	8.627	0.202	-0.152
-505.726	31.281	0.284	-0.243
-504.712	800.000	0.023	0.076
-503.697	-66.277	-0.258	-0.102
-502.683	-102.800	0.090	0.021
-501.668	-200.000	0.031	-0.473
-500.653	26.922	0.222	-0.186
-499.639	96.517	-0.178	-0.204
-498.624	-152.401	-0.123	-0.009
-497.610	-98.090	0.328	0.084
-496.595	197.253	-0.154	-0.234
-495.581	71.419	0.184	-0.191
-494.566	105.553	-0.130	-0.153
-493.551	-112.302	-0.174	-0.035
-492.537	72.446	0.100	-0.104
-491.522	-90.039	-0.123	-0.036
-490.508	800.000	-0.104	0.400
-489.493	-114.083	-0.122	0.024
-488.478	-200.000	-0.010	-0.120
-487.464	-128.621	0.220	0.031
-486.449	316.083	-0.050	-0.094
-485.435	-139.820	-0.045	-0.005
-484.420	800.000	0.042	0.126
-483.405	-80.933	0.218	0.072
-482.391	-44.162	-0.121	0.061
-481.376	6.615	0.259	0.192
-480.362	108.631	-0.179	-0.213
-479.347	33.062	-0.205	0.177
-478.332	186.718	-0.067	-0.100
-477.318	800.000	0.058	-0.204
-476.303	-120.396	0.273	0.046
-475.289	163.000	-0.057	-0.080
-474.274	-83.689	0.337	-0.107
-473.259	-200.000	-0.037	0.215
-472.245	-116.336	-0.017	-0.003
-471.230	602.153	0.047	-0.116
-470.216	800.000	-0.031	-0.108
-469.201	-19.896	0.141	-0.087
-468.186	1.255	-0.182	0.130
-467.172	-87.782	0.329	0.099
-466.157	-200.000	0.015	-0.338
-465.143	-58.005	0.052	-0.023
-464.128	-200.000	0.000	-0.098
-463.113	42.961	0.294	-0.267
-462.099	-141.062	0.116	0.012
-461.084	26.971	-0.479	0.400
-460.070	-83.765	0.216	-0.069
-459.055	-200.000	-0.020	-0.249
-458.040	364.933	0.147	-0.294
-457.026	-34.136	-0.134	-0.073
-456.011	579.604	-0.089	-0.217
-454.997	-76.135	-0.196	0.069
-453.982	-200.000	-0.001	-0.084
-452.968	-200.000	-0.399	0.000
-451.953	291.568	-0.048	-0.087
-450.938	228.867	-0.154	-0.250
-449.924	-7.162	0.343	0.231
-448.909	-36.281	-0.327	-0.175
-447.895	-200.000	-0.014	0.309
-446.880	13.450	-0.285	-0.220
-445.865	480.032	-0.237	-0.534
-444.851	77.631	0.171	0.181
-443.836	63.572	-0.085	-0.085
-442.822	-200.000	-0.055	-0.516
-441.807	800.000	0.085	-0.345
-440.792	81.842	-0.037	0.040
-439.778	-200.000	-0.005	0.217
-438.763	-70.258	-0.140	0.053
-437.749	163.052	-0.041	0.057
-436.734	-47.657	-0.139	0.067
-435.719	470.618	-0.050	-0.112
-434.705	-200.000	-0.008	0.047
-433.690	-9.906	0.168	-0.111
-432.676	62.553	-0.265	-0.264
-431.661	-24.224	0.075	0.044
-430.646	-200.000	-0.035	-0.263
-429.632	19.365	0.141	-0.113
-428.617	-34.406	0.168	-0.091
-427.603	-101.808	-0.106	0.026
-426.588	-44.454	0.269	-0.134
-425.573	-200.000	-0.040	-0.385
-424.559	117.503	-0.270	-0.331
-423.544	19.509	0.099	0.079
-422.530	146.955	-0.287	-0.384
-421.515	-200.000	0.049	0.248
-420.500	80.482	0.158	-0.169
-419.486	191.221	0.162	-0.242
-418.471	-34.250	0.097	0.053
-417.457	-71.548	-0.139	0.052
-416.442	318.231	0.206	0.387
-415.428	60.468	0.256	0.252
-414.413	399.906	-0.095	0.199
-413.398	-5.219	-0.124	-0.085
-412.384	520.207	-0.086	-0.200
-411.369	384.861	0.078	-0.160
-410.355	87.099	-0.199	-0.219
-409.340	242.890	-0.268	-0.446
-408.325	800.000	-0.047	-0.143
-407.311	-160.697	0.128	0.007
-406.296	-200.000	-0.086	0.458
-405.282	259.144	-0.154	0.264
-404.267	-200.000	-0.012	0.225
-403.252	81.404	0.055	-0.059
-402.238	-200.000	0.008	0.049
-401.223	-135.021	0.111	-0.013
-400.209	127.601	-0.116	0.147
-399.194	-200.000	0.065	0.558
-398.179	-200.000	0.008	-0.137
-397.165	-49.128	0.069	-0.033
-396.150	-200.000	0.040	0.190
-395.136	616.286	-0.051	0.126
-394.121	7.984	0.107	-0.079
-393.106	-200.000	0.009	-0.078
-392.092	333.791	0.056	0.107
-391.077	-81.341	0.081	-0.027
-390.063	5.386	-0.146	0.107
-389.048	800.000	0.007	-0.028
-388.033	47.232	-0.147	-0.136
-387.019	120.375	-0.088	-0.109
-386.004	29.961	-0.145	0.123
-384.990	-17.997	-0.308	-0.191
-383.975	-75.014	0.212	0.075
-382.960	74.495	0.314	-0.327
-381.946	800.000	0.157	-0.531
-380.931	51.605	0.109	0.103
-379.917	-12.862	-0.112	0.072
-378.902	-109.100	-0.058	0.012
-377.888	800.000	-0.069	-0.229
-376.873	26.432	0.123	0.102
-375.858	59.528	-0.088	-0.086
-374.844	-200.000	-0.006	0.053
-373.829	-64.677	0.075	0.030
-372.815	-200.000	-0.062	-0.313
-371.800	-23.404	0.214	0.128
-370.785	-105.927	0.298	0.067
-369.771	-200.000	-0.049	0.229
-368.756	-200.000	0.087	-0.497
-367.742	-143.923	0.245	0.023
-366.727	-85.739	-0.055	0.017
-365.712	800.000	-0.091	0.314
-364.698	116.463	0.153	0.187
-363.683	-0.538	0.135	-0.095
-362.669	-49.298	-0.310	-0.147
-361.654	800.000	-0.161	0.500
-360.639	9.646	-0.074	-0.056
-359.625	118.435	-0.126	-0.154
-358.610	355.563	-0.144	0.285
-357.596	-22.684	-0.260	0.156
-356.581	-146.740	0.027	0.002
-355.566	-143.439	0.369	-0.035
-354.552	-68.120	-0.444	-0.171
-353.537	207.037	-0.073	0.113
-352.523	35.020	-0.076	0.066
-351.508	-123.300	0.319	0.051
-350.493	800.000	0.024	-0.074
-349.479	-200.000	0.108	-0.500
-348.464	0.374	-0.342	0.242
-347.450	-31.345	-0.497	0.277
-346.435	143.023	0.182	0.239
-345.420	290.100	0.157	-0.283
-344.406	-200.000	-0.024	0.213
-343.391	800.000	-0.060	-0.224
-342.377	-80.273	0.058	0.019
-341.362	481.858	0.057	-0.129
-340.348	800.000	0.039	0.161
-339.333	800.000	0.031	0.091
-338.318	-131.707	0.150	0.020
-337.304	378.158	-0.203	0.412
-336.289	286.310	0.076	-0.136
-335.275	-16.883	0.049	0.031
-334.260	-13.926	-0.035	-0.023
-333.245	-190.930	0.373	0.004
-332.231	-62.626	0.104	-0.043
-331.216	-200.000	-0.002	-0.107
-330.202	104.166	0.125	0.146
-329.187	-200.000	0.021	0.121
-328.172	-46.846	0.051	0.025
-327.158	-24.193	-0.286	-0.169
-326.143	-106.194	-0.259	-0.058
-325.129	113.225	0.081	-0.098
-324.114	-200.000	0.001	-0.051
-323.099	-94.069	-0.032	0.009
-322.085	-200.000	0.002	-0.032
-321.070	316.111	-0.029	0.053
-320.056	25.035	-0.163	-0.134
-319.041	800.000	-0.128	-0.366
-318.026	164.082	0.088	-0.123
-317.012	75.172	-0.083	0.086
-315.997	340.601	-0.110	-0.212
-314.983	350.515	0.136	0.266
-313.968	234.007	-0.120	0.196
-312.953	30.255	0.147	0.124
-311.939	31.029	0.254	0.216
-310.924	-48.710	0.346	-0.164
-309.910	14.637	0.193	0.149
-308.895	-200.000	0.026	-0.321
-307.880	800.000	-0.102	-0.344
-306.866	35.429	-0.045	0.039
-305.851	800.000	-0.116	-0.347
-304.837	262.721	0.115	0.198
-303.822	-49.279	0.247	-0.117
-302.807	799.323	0.023	-0.063
-301.793	-200.000	-0.036	-0.466
-300.778	667.406	0.106	0.271
-299.764	275.046	-0.202	0.354
-298.749	-200.000	0.009	0.269
-297.735	36.602	-0.085	0.074
-296.720	-200.000	0.004	-0.121
-295.705	-200.000	0.023	0.114
-294.691	-15.700	-0.280	-0.176
-293.676	54.599	0.190	0.181
-292.662	-22.136	0.131	0.079
-291.647	-139.419	0.290	-0.031
-290.632	139.753	0.114	-0.149
-289.618	-57.128	-0.093	-0.040
-288.603	-50.704	0.214	0.100
-287.589	2.815	-0.155	0.111
-286.574	-200.000	0.024	0.108
-285.559	262.587	0.232	0.398
-284.545	-200.000	-0.046	-0.351
-283.530	11.545	0.237	-0.179
-282.516	-200.000	-0.017	0.395
-281.501	-21.896	0.221	0.133
-280.486	246.721	0.139	-0.232
-279.472	800.000	0.154	-0.424
-278.457	400.974	0.090	0.186
-277.443	-34.627	0.181	0.098
-276.428	51.670	-0.157	0.148
-275.413	-200.000	-0.012	0.249
-274.399	-68.689	0.215	0.082
-273.384	-121.028	-0.425	0.071
-272.370	-200.000	-0.001	-0.085
-271.355	-200.000	0.007	0.071
-270.340	-24.828	-0.222	-0.131
-269.326	-200.000	-0.001	0.063
-268.311	-79.609	0.013	0.004
-267.297	288.111	-0.165	0.295
-266.282	613.904	0.018	-0.044
-265.267	98.738	-0.291	0.332
-264.253	11.737	0.239	-0.182
-263.238	99.449	-0.091	0.104
-262.224	-125.604	0.140	-0.021
-261.209	19.010	-0.132	0.105
-260.195	-101.526	0.312	-0.075
-259.180	88.928	-0.244	-0.268
-258.165	-191.265	0.163	0.002
-257.151	-19.590	0.227	-0.139
-256.136	-156.374	0.225	-0.014
-255.122	-200.000	-0.015	-0.248
-254.107	141.379	0.095	0.125
-253.092	-200.000	0.003	-0.145
-252.078	-160.544	0.220	0.012
-251.063	87.990	0.206	-0.226
-250.049	295.821	-0.091	0.165
-249.034	-200.000	0.000	-0.073
-248.019	-200.000	0.015	0.244
-247.005	43.504	0.166	-0.150
-245.990	87.885	0.189	-0.207
-244.976	-144.813	0.089	0.008
-243.961	-102.946	-0.160	0.037
-242.946	-23.777	-0.177	-0.105
-241.932	-142.741	0.264	0.025
-240.917	82.372	0.193	0.207
-239.903	-200.000	0.034	-0.188
-238.888	199.885	-0.165	-0.250
-237.873	800.000	-0.096	-0.311
-236.859	94.078	-0.127	-0.142
-235.844	-200.000	-0.093	0.538
-234.830	76.027	-0.086	0.090
-233.815	49.881	-0.117	0.109
-232.800	-92.465	0.344	0.095
-231.786	-82.173	0.148	-0.048
-230.771	-76.816	0.219	-0.076
-229.757	800.000	0.024	-0.093
-228.742	-200.000	0.075	0.468
-227.727	132.302	0.074	0.094
-226.713	208.770	-0.196	0.302
-225.698	-39.239	-0.161	0.084
-224.684	-74.224	0.010	0.004
-223.669	-153.768	0.265	-0.018
-222.655	37.722	-0.114	0.100
-221.640	-59.734	-0.306	0.129
-220.625	-180.163	0.111	0.002
-219.611	37.535	0.081	-0.071
-218.596	564.349	0.211	0.504
-217.582	-112.662	-0.090	-0.018
-216.567	676.488	-0.035	-0.089
-215.552	-23.286	0.308	0.183
-214.538	89.846	0.039	0.043
-213.523	300.316	-0.125	0.228
-212.509	17.476	-0.220	0.173
-211.494	-34.746	-0.196	-0.106
-210.479	142.959	-0.260	-0.342
-209.465	800.000	-0.100	0.371
-208.450	-53.275	-0.383	-0.173
-207.436	522.504	0.086	-0.198
-206.421	10.277	-0.086	0.064
-205.406	-20.415	-0.215	-0.130
-204.392	-53.934	0.115	0.052
-203.377	-200.000	0.014	0.130
-202.363	36.504	-0.254	-0.221
-201.348	-130.699	-0.506	0.067
-200.333	-107.119	-0.214	0.047
-199.319	188.666	0.086	-0.127
-198.304	-72.938	-0.147	0.053
-197.290	526.575	-0.113	0.263
-196.275	-200.000	-0.008	0.137
-195.260	800.000	-0.069	0.278
-194.246	-34.388	-0.180	-0.097
-193.231	-200.000	-0.037	-0.170
-192.217	-123.022	0.441	0.070
-191.202	800.000	0.060	-0.165
-190.187	-29.012	0.127	-0.072
-189.173	241.398	-0.052	0.085
-188.158	287.732	-0.112	-0.200
-187.144	-60.343	0.162	0.068
-186.129	196.242	0.190	0.285
-185.114	3.937	-0.022	-0.016
-184.100	326.741	0.029	0.055
-183.085	800.000	0.064	-0.235
-182.071	38.703	-0.077	-0.068
-181.056	115.542	0.136	-0.164
-180.042	-104.828	-0.021	0.005
-179.027	11.977	0.157	-0.119
-178.012	-86.588	-0.085	-0.026
-176.998	-27.264	0.404	0.231
-175.983	-200.000	0.005	0.409
-174.969	-85.786	0.097	-0.029
-173.954	-96.361	0.149	0.039
-172.939	269.386	-0.145	0.251
-171.925	-200.000	-0.003	-0.050
-170.910	72.565	0.225	0.231
-169.896	-26.186	0.130	-0.075
-168.881	242.299	-0.071	0.116
-167.866	800.000	0.017	0.073
-166.852	95.389	-0.285	0.320
-165.837	89.922	0.016	-0.017
-164.823	-38.173	0.369	-0.193
-163.808	-200.000	-0.020	0.411
-162.793	-38.593	-0.136	0.071
-161.779	-200.000	0.005	0.101
-160.764	-105.963	0.104	0.023
-159.750	5.508	-0.316	0.229
-158.735	756.784	0.141	0.375
-157.720	98.088	-0.071	-0.080
-156.706	-29.194	-0.317	0.179
-155.691	755.662	-0.075	0.199
-154.677	617.751	0.093	0.229
-153.662	300.967	-0.028	-0.051
-152.647	-118.265	-0.476	-0.083
-151.633	-77.578	0.241	0.082
-150.618	-60.594	0.188	-0.078
-149.604	-200.000	-0.053	0.289
-148.589	15.588	-0.072	0.056
-147.574	-100.288	0.318	0.078
-146.560	-80.155	0.218	0.072
-145.545	350.179	0.117	0.228
-144.531	-52.827	-0.108	0.049
-143.516	-74.611	0.184	0.065
-142.502	153.170	0.126	-0.170
-141.487	-200.000	-0.019	-0.204
-140.472	471.532	0.119	0.263
-139.458	800.000	0.081	0.261
-138.443	-70.048	-0.082	-0.031
-137.429	125.956	0.047	0.058
-136.414	119.529	-0.268	-0.326
-135.399	41.500	-0.247	0.220
-134.385	-200.000	-0.011	0.110
-133.370	-88.572	-0.165	-0.048
-132.356	-174.135	0.216	-0.006
-131.341	-200.000	0.026	-0.243
-130.326	409.140	0.087	0.180
-129.312	-53.505	0.236	0.106
-128.297	-50.090	-0.116	-0.054
-127.283	55.878	-0.153	0.146
-126.268	800.000	0.033	0.130
-125.253	64.668	0.040	0.039
-124.239	-159.525	0.188	0.010
-123.224	170.036	0.062	0.088
-122.210	-167.619	0.194	0.008
-121.195	-134.658	0.190	-0.023
-120.180	-200.000	-0.011	-0.112
