DTS Sentinel unit serial number:	SN413079Multiplexer serial number:	ORYXHardware model number:	OX4-SRSoftware version number:	ORYX F/W v4.00 Oryx Data Collector v3.7.2.0data status	okinstallation	princeton_trtdifferential loss correction	single-endedforward channel	channel 3reverse channel	N/Adate	2019/09/18time	01:32:35forward acquisition time	60.00reverse acquisition time	0.00gamma	496.2192k internal	0.2344k external	0.2344temperature offset calibration	0.9949default loss term (dB/km)	0.3790temperature slope calibration	1.0000multiplexer offset coefficient	1.0000multiplexer slope coefficient	1.0000fibre end	0.00T internal ref (°C)	23.08T ext. ref 1 (°C)	0.17T ext. ref 2 (°C)	16.74length (m)	temperature (°C)	Stokes	anti-Stokes-747.200	-200.000	0.095	0.508
-746.185	629.497	-0.115	0.292
-745.171	-130.145	0.387	0.053
-744.156	-200.000	-0.024	0.184
-743.142	627.708	0.025	0.062
-742.127	278.139	-0.114	0.203
-741.112	-200.000	-0.083	0.473
-740.098	-5.271	0.065	0.045
-739.083	-86.194	0.210	0.065
-738.069	800.000	0.136	0.377
-737.054	318.455	-0.068	0.129
-736.039	-7.911	0.203	-0.137
-735.025	-19.480	0.132	-0.082
-734.010	283.834	-0.098	-0.176
-732.996	-5.144	0.140	-0.097
-731.981	-200.000	0.015	0.306
-730.966	126.483	-0.119	0.151
-729.952	-137.694	-0.420	0.047
-728.937	-47.235	-0.101	0.049
-727.923	591.622	-0.098	0.242
-726.908	-94.307	-0.491	-0.134
-725.894	64.272	-0.148	0.149
-724.879	310.398	0.096	0.180
-723.864	-71.633	-0.239	-0.089
-722.850	-67.534	-0.221	0.087
-721.835	-199.002	-0.342	0.002
-720.821	800.000	-0.037	0.106
-719.806	-141.008	-0.215	-0.022
-718.791	-10.298	-0.198	-0.131
-717.777	800.000	-0.044	-0.169
-716.762	-107.389	-0.252	0.055
-715.748	402.459	0.032	-0.067
-714.733	151.890	0.428	0.584
-713.718	449.312	-0.024	0.052
-712.704	-113.801	-0.254	0.049
-711.689	24.879	-0.429	-0.355
-710.675	105.896	-0.195	0.231
-709.660	-149.748	-0.437	-0.034
-708.645	-200.000	-0.018	-0.161
-707.631	-32.209	-0.201	0.112
-706.616	-69.970	-0.397	-0.151
-705.602	27.809	0.158	-0.133
-704.587	-200.000	-0.003	0.255
-703.572	-68.409	-0.063	-0.025
-702.558	-70.889	0.248	-0.093
-701.543	225.032	0.176	-0.284
-700.529	39.801	-0.363	-0.326
-699.514	-63.966	0.251	-0.103
-698.499	48.463	-0.020	0.019
-697.485	596.175	-0.062	-0.152
-696.470	800.000	-0.158	-0.438
-695.456	5.111	-0.212	-0.156
-694.441	469.476	-0.067	0.150
-693.426	227.775	-0.009	-0.015
-692.412	-200.000	0.020	0.108
-691.397	-150.333	0.149	-0.011
-690.383	470.973	-0.146	0.327
-689.368	296.524	-0.145	-0.265
-688.354	144.221	-0.169	-0.225
-687.339	30.497	0.105	-0.090
-686.324	800.000	-0.087	-0.267
-685.310	450.524	0.059	-0.131
-684.295	800.000	-0.057	0.206
-683.281	-200.000	0.060	-0.314
-682.266	800.000	0.048	0.147
-681.251	-168.172	0.086	-0.003
-680.237	800.000	-0.069	0.196
-679.222	7.251	0.058	-0.043
-678.208	-31.548	0.126	-0.071
-677.193	-59.159	0.111	-0.048
-676.178	200.501	-0.112	-0.172
-675.164	156.566	0.152	-0.209
-674.149	5.988	0.134	-0.099
-673.135	188.070	0.036	-0.054
-672.120	-70.412	-0.371	0.140
-671.105	-65.747	-0.244	-0.098
-670.091	-40.949	0.215	-0.111
-669.076	3.541	-0.102	0.074
-668.062	82.969	0.090	-0.098
-667.047	632.399	-0.035	-0.088
-666.032	-90.996	-0.220	0.063
-665.018	-189.462	-0.198	0.002
-664.003	-131.227	0.069	-0.009
-662.989	-200.000	-0.009	0.147
-661.974	-154.483	-0.088	-0.006
-660.959	-1.537	-0.192	0.135
-659.945	-54.974	0.033	-0.015
-658.930	21.128	0.075	0.060
-657.916	50.494	0.296	-0.279
-656.901	-31.448	-0.419	-0.235
-655.886	-200.000	0.003	-0.089
-654.872	-54.347	0.161	0.073
-653.857	24.262	-0.059	-0.049
-652.843	121.373	-0.305	0.379
-651.828	126.696	0.089	0.112
-650.814	-48.380	0.195	-0.094
-649.799	-198.370	0.192	-0.001
-648.784	-27.609	-0.056	-0.032
-647.770	68.059	-0.211	-0.215
-646.755	-200.000	-0.070	0.379
-645.741	-117.515	-0.084	0.015
-644.726	43.061	-0.049	-0.045
-643.711	-83.384	0.117	-0.037
-642.697	-101.548	0.171	0.041
-641.682	-103.872	0.133	0.031
-640.668	-115.046	-0.069	0.013
-639.653	147.783	-0.163	-0.219
-638.638	-73.766	0.525	0.190
-637.624	-200.000	-0.024	-0.174
-636.609	173.185	0.151	-0.217
-635.595	348.843	0.101	-0.198
-634.580	-132.798	-0.438	-0.056
-633.565	153.875	-0.048	-0.065
-632.551	-73.792	-0.404	-0.146
-631.536	-80.041	0.113	0.038
-630.522	800.000	-0.105	-0.333
-629.507	-95.490	0.334	-0.089
-628.492	47.703	0.107	0.100
-627.478	-58.523	0.308	-0.133
-626.463	2.234	0.095	-0.068
-625.449	-14.371	-0.240	0.154
-624.434	101.661	-0.053	-0.062
-623.419	532.693	-0.077	-0.182
-622.405	71.586	0.086	0.089
-621.390	-20.170	-0.188	0.116
-620.376	-109.427	-0.183	0.039
-619.361	24.343	-0.064	0.053
-618.346	-77.217	0.163	0.057
-617.332	-7.213	0.170	0.115
-616.317	-119.989	-0.328	-0.056
-615.303	53.671	0.371	-0.354
-614.288	120.675	0.120	-0.148
-613.273	-200.000	0.004	0.104
-612.259	271.431	-0.054	-0.094
-611.244	-82.019	-0.298	0.097
-610.230	-120.146	-0.058	0.010
-609.215	-83.477	-0.191	-0.061
-608.201	81.752	0.258	-0.278
-607.186	-118.839	-0.382	-0.067
-606.171	800.000	0.130	-0.426
-605.157	607.194	-0.034	-0.085
-604.142	77.281	-0.051	-0.053
-603.128	56.665	-0.213	-0.207
-602.113	-200.000	-0.029	0.191
-601.098	-40.127	0.166	-0.086
-600.084	112.604	-0.101	0.121
-599.069	-16.951	0.123	0.077
-598.055	-200.000	0.016	0.167
-597.040	-141.449	-0.096	-0.010
-596.025	71.891	0.081	-0.084
-595.011	-36.315	-0.291	0.156
-593.996	30.561	-0.237	0.202
-592.982	376.299	0.089	-0.180
-591.967	-200.000	-0.034	-0.155
-590.952	-128.766	-0.356	0.050
-589.938	28.994	-0.114	0.096
-588.923	-42.337	-0.137	-0.070
-587.909	-6.697	0.056	-0.038
-586.894	403.221	-0.105	0.220
-585.879	198.855	-0.245	0.373
-584.865	-200.000	-0.006	0.048
-583.850	-70.442	-0.227	0.086
-582.836	-200.000	-0.005	-0.202
-581.821	69.173	0.125	-0.128
-580.806	357.153	0.057	0.114
-579.792	-14.501	-0.152	-0.097
-578.777	190.439	0.214	0.320
-577.763	169.784	0.278	-0.395
-576.748	-76.322	0.218	0.076
-575.733	390.356	0.071	0.146
-574.719	-32.020	0.329	-0.183
-573.704	248.263	0.086	-0.145
-572.690	-25.171	-0.102	0.060
-571.675	406.716	-0.060	-0.126
-570.661	-126.092	-0.205	0.031
-569.646	-200.000	0.000	0.030
-568.631	19.638	0.188	0.151
-567.617	-200.000	0.020	0.152
-566.602	79.054	-0.104	0.111
-565.588	-136.239	0.251	0.029
-564.573	-121.855	-0.079	-0.013
-563.558	13.530	0.181	-0.140
-562.544	137.649	0.098	0.127
-561.529	-6.570	-0.274	0.186
-560.515	-139.623	0.264	0.028
-559.500	32.553	-0.085	-0.073
-558.485	-200.000	-0.007	-0.202
-557.471	-10.009	0.163	-0.107
-556.456	54.880	-0.065	-0.063
-555.442	-159.480	0.240	-0.013
-554.427	-75.226	-0.232	0.082
-553.412	433.768	-0.089	-0.192
-552.398	-111.715	-0.317	-0.064
-551.383	-57.716	-0.338	0.147
-550.369	-123.950	0.316	0.049
-549.354	-68.068	-0.214	-0.083
-548.339	-21.847	0.434	0.262
-547.325	-65.665	-0.197	0.078
-546.310	-14.735	-0.286	0.183
-545.296	249.024	-0.115	-0.194
-544.281	-200.000	-0.006	0.146
-543.266	97.856	0.171	-0.196
-542.252	212.572	-0.177	-0.278
-541.237	25.931	-0.101	-0.084
-540.223	-200.000	0.030	-0.231
-539.208	-150.229	-0.072	0.006
-538.193	196.607	0.112	-0.169
-537.179	359.821	-0.083	-0.164
-536.164	-17.898	-0.112	-0.070
-535.150	29.532	0.179	-0.151
-534.135	800.000	-0.110	-0.370
-533.121	-192.297	-0.056	0.001
-532.106	-200.000	0.063	0.433
-531.091	-200.000	0.011	-0.181
-530.077	-150.866	0.546	0.041
-529.062	62.128	-0.147	0.146
-528.048	450.230	0.045	-0.098
-527.033	146.818	-0.160	0.213
-526.018	-200.000	0.004	-0.307
-525.004	-16.003	0.098	0.062
-523.989	-1.571	-0.341	-0.238
-522.975	-117.584	0.131	0.024
-521.960	800.000	0.015	0.047
-520.945	-200.000	-0.062	0.405
-519.931	-118.470	-0.492	0.086
-518.916	-58.432	-0.154	0.067
-517.902	-200.000	0.014	0.167
-516.887	-53.431	0.281	-0.128
-515.872	152.711	-0.231	0.313
-514.858	800.000	0.072	0.245
-513.843	-106.888	-0.199	-0.044
-512.829	203.619	0.064	0.098
-511.814	-200.000	0.005	-0.041
-510.799	-6.171	0.077	-0.052
-509.785	-45.836	-0.175	0.086
-508.770	-62.479	0.046	0.019
-507.756	57.490	0.204	0.198
-506.741	-103.539	-0.181	-0.042
-505.726	-2.683	0.094	-0.065
-504.712	-92.311	-0.318	-0.089
-503.697	763.133	-0.074	-0.200
-502.683	23.270	0.030	-0.025
-501.668	212.070	-0.063	0.099
-500.653	-200.000	0.014	-0.359
-499.639	-200.000	0.003	-0.172
-498.624	144.203	0.098	0.130
-497.610	-200.000	-0.009	-0.103
-496.595	-9.697	0.214	0.141
-495.581	800.000	-0.102	-0.304
-494.566	-13.391	0.128	-0.082
-493.551	-200.000	-0.088	0.471
-492.537	441.177	0.075	-0.162
-491.522	6.006	0.189	0.139
-490.508	50.891	0.226	-0.212
-489.493	800.000	0.059	-0.178
-488.478	-23.897	0.257	0.152
-487.464	596.623	0.096	0.236
-486.449	800.000	-0.068	0.257
-485.435	-68.721	0.204	0.078
-484.420	-64.881	-0.133	-0.053
-483.405	161.293	0.191	-0.264
-482.391	103.981	-0.158	-0.184
-481.376	-200.000	0.007	-0.035
-480.362	-200.000	-0.018	-0.084
-479.347	58.630	-0.163	-0.158
-478.332	-140.028	-0.160	-0.017
-477.318	-200.000	0.013	0.077
-476.303	800.000	-0.151	0.497
-475.289	-95.753	-0.257	-0.068
-474.274	456.657	0.021	-0.045
-473.259	662.015	0.074	0.189
-472.245	-200.000	-0.026	-0.155
-471.230	-108.007	-0.269	-0.058
-470.216	-18.259	0.101	-0.062
-469.201	31.460	-0.085	0.073
-468.186	-151.915	0.196	0.014
-467.172	168.036	-0.177	0.250
-466.157	-63.886	-0.108	-0.044
-465.143	452.757	0.162	0.355
-464.128	-84.113	0.155	-0.049
-463.113	212.693	-0.168	0.262
-462.099	53.479	-0.030	-0.028
-461.084	417.273	-0.207	-0.437
-460.070	483.351	0.026	0.060
-459.055	7.665	-0.081	0.060
-458.040	-122.821	0.049	-0.008
-457.026	800.000	-0.037	-0.106
-456.011	-171.539	-0.197	-0.006
-454.997	233.301	-0.149	0.242
-453.982	56.040	-0.053	-0.051
-452.968	-191.326	-0.229	0.002
-451.953	-102.703	0.159	-0.037
-450.938	-200.000	0.015	0.295
-449.924	-111.735	-0.298	0.060
-448.909	12.949	-0.118	0.090
-447.895	282.741	0.155	0.276
-446.880	-15.855	-0.186	0.117
-445.865	-141.256	-0.291	0.029
-444.851	172.329	0.143	0.203
-443.836	67.016	-0.151	-0.152
-442.822	115.367	-0.130	-0.157
-441.807	800.000	0.050	0.143
-440.792	-7.366	0.200	-0.134
-439.778	34.029	0.203	-0.175
-438.763	-71.050	0.239	-0.089
-437.749	-144.974	-0.109	-0.010
-436.734	800.000	0.018	-0.076
-435.719	14.464	0.192	-0.148
-434.705	73.857	-0.045	0.047
-433.690	-67.596	0.167	0.065
-432.676	-35.175	0.152	0.082
-431.661	-200.000	-0.004	-0.242
-430.646	235.492	0.127	-0.208
-429.632	-125.374	-0.334	-0.050
-428.617	348.210	0.118	-0.231
-427.603	-192.172	0.275	0.003
-426.588	800.000	-0.038	-0.123
-425.573	-103.628	-0.169	0.039
-424.559	-116.328	0.229	-0.042
-423.544	800.000	-0.026	-0.082
-422.530	71.256	-0.141	-0.145
-421.515	-41.618	0.186	0.094
-420.500	712.995	0.087	-0.227
-419.486	-15.952	-0.248	0.156
-418.471	74.600	0.275	0.286
-417.457	-17.014	0.206	0.128
-416.442	210.766	-0.272	-0.423
-415.428	23.565	0.148	-0.120
-414.413	726.174	0.081	0.212
-413.398	800.000	-0.095	-0.285
-412.384	800.000	-0.095	0.298
-411.369	-4.510	0.133	0.091
-410.355	38.162	0.247	0.217
-409.340	-17.496	-0.132	0.082
-408.325	-132.782	0.247	-0.031
-407.311	-200.000	0.009	-0.136
-406.296	200.046	0.036	-0.055
-405.282	36.415	0.185	0.161
-404.267	-123.347	-0.095	-0.015
-403.252	-109.426	0.060	-0.013
-402.238	25.497	0.253	0.208
-401.223	47.003	0.162	0.148
-400.209	12.232	0.311	0.236
-399.194	-36.324	0.231	-0.123
-398.179	8.835	0.034	-0.026
-397.165	800.000	0.119	0.398
-396.150	440.022	0.124	-0.267
-395.136	84.484	-0.311	0.336
-394.121	-178.940	0.083	-0.002
-393.106	-200.000	-0.057	-0.256
-392.092	800.000	-0.031	-0.132
-391.077	-69.326	-0.365	0.138
-390.063	-200.000	0.060	-0.281
-389.048	138.495	0.119	0.154
-388.033	-6.996	0.332	-0.222
-387.019	-157.989	-0.149	-0.009
-386.004	515.303	-0.014	0.032
-384.990	248.654	-0.230	0.384
-383.975	76.358	0.072	0.075
-382.960	-1.554	-0.177	0.123
-381.946	2.644	0.048	0.035
-380.931	260.352	-0.043	0.073
-379.917	-200.000	-0.011	0.189
-378.902	800.000	-0.049	0.206
-377.888	168.064	0.122	-0.171
-376.873	-59.272	0.166	-0.071
-375.858	106.564	-0.071	0.083
-374.844	-76.201	-0.186	0.065
-373.829	180.432	-0.089	0.129
-372.815	688.311	-0.067	-0.173
-371.800	-50.354	0.276	0.129
-370.785	-19.045	-0.183	0.112
-369.771	454.725	0.143	0.312
-368.756	-16.939	-0.147	0.091
-367.742	-200.000	-0.001	-0.059
-366.727	372.358	0.031	-0.062
-365.712	-200.000	0.002	-0.230
-364.698	-79.401	0.176	-0.059
-363.683	-123.777	-0.312	-0.049
-362.669	-39.138	-0.034	0.018
-361.654	-52.359	0.301	0.137
-360.639	272.088	0.035	0.062
-359.625	144.942	0.051	0.068
-358.610	-21.964	0.183	0.110
-357.596	-59.024	0.318	-0.135
-356.581	51.764	-0.292	0.273
-355.566	-95.656	-0.176	-0.046
-354.552	91.363	-0.134	0.149
-353.537	-87.138	0.131	0.039
-352.523	800.000	-0.030	0.113
-351.508	-144.970	0.199	-0.018
-350.493	-200.000	0.024	-0.235
-349.479	-200.000	0.046	-0.232
-348.464	292.039	0.117	-0.210
-347.450	135.143	0.160	0.205
-346.435	199.666	-0.078	-0.117
-345.420	-34.605	-0.207	0.112
-344.406	800.000	0.009	0.038
-343.391	-78.465	0.175	-0.059
-342.377	-169.619	0.263	0.009
-341.362	84.580	-0.167	-0.180
-340.348	-85.649	0.096	0.029
-339.333	211.202	0.093	-0.144
-338.318	800.000	-0.157	0.543
-337.304	609.205	0.067	0.166
-336.289	378.709	-0.190	-0.382
-335.275	102.354	-0.096	0.111
-334.260	-50.943	-0.221	0.102
-333.245	-69.134	-0.165	-0.063
-332.231	-0.139	-0.167	-0.117
-331.216	-80.220	0.235	0.078
-330.202	67.311	-0.126	-0.127
-329.187	-200.000	0.042	-0.211
-328.172	-46.343	0.177	0.086
-327.158	279.180	0.066	0.116
-326.143	-73.242	-0.235	-0.085
-325.129	-13.198	0.159	0.102
-324.114	800.000	-0.064	0.241
-323.099	24.437	0.101	-0.082
-322.085	49.688	-0.211	0.195
-321.070	-200.000	-0.035	0.228
-320.056	-8.527	0.179	-0.118
-319.041	-89.368	-0.216	-0.063
-318.026	-200.000	-0.057	-0.255
-317.012	71.604	-0.317	-0.325
-315.997	800.000	-0.079	0.225
-314.983	69.031	-0.264	0.267
-313.968	800.000	-0.079	0.280
-312.953	85.711	0.029	0.031
-311.939	146.279	0.091	0.120
-310.924	-200.000	0.074	-0.355
-309.910	-170.411	0.274	-0.009
-308.895	-30.837	0.290	0.161
-307.880	-73.849	-0.098	0.035
-306.866	36.390	0.259	0.225
-305.851	-17.781	0.362	0.223
-304.837	-178.883	-0.335	-0.007
-303.822	37.618	0.209	0.183
-302.807	184.708	0.189	0.276
-301.793	-82.503	0.329	-0.105
-300.778	-124.852	0.171	-0.026
-299.764	528.326	0.135	-0.313
-298.749	-13.419	-0.088	0.056
-297.735	-34.891	-0.166	0.089
-296.720	344.368	0.184	-0.355
-295.705	-90.487	-0.139	-0.040
-294.691	19.601	0.221	0.175
-293.676	-200.000	0.013	-0.104
-292.662	-113.625	-0.151	0.029
-291.647	227.712	-0.130	-0.207
-290.632	-160.971	-0.157	0.008
-289.618	789.454	0.069	-0.186
-288.603	-200.000	-0.082	-0.367
-287.589	-49.897	0.138	0.065
-286.574	40.188	-0.094	0.083
-285.559	-135.363	0.126	-0.015
-284.545	-16.786	-0.076	-0.048
-283.530	-195.008	0.167	-0.001
-282.516	14.280	-0.114	0.087
-281.501	-3.604	0.219	-0.149
-280.486	25.513	-0.193	-0.158
-279.472	-37.252	0.284	-0.149
-278.457	800.000	0.079	0.278
-277.443	-199.390	0.216	0.001
-276.428	36.966	-0.164	0.143
-275.413	604.666	-0.129	-0.315
-274.399	-47.058	0.433	0.208
-273.384	38.007	0.193	0.168
-272.370	-82.991	-0.129	-0.041
-271.355	-103.543	0.129	-0.030
-270.340	463.476	0.077	0.168
-269.326	359.607	-0.109	0.213
-268.311	354.600	0.027	-0.053
-267.297	60.071	-0.194	0.188
-266.282	-84.827	-0.111	-0.034
-265.267	71.730	-0.212	0.217
-264.253	-200.000	-0.047	0.297
-263.238	-200.000	-0.001	0.041
-262.224	555.602	0.121	0.286
-261.209	138.947	0.235	-0.303
-260.195	-126.652	-0.357	0.052
-259.180	-200.000	-0.001	0.202
-258.165	66.263	-0.161	-0.161
-257.151	184.452	-0.068	-0.100
-256.136	88.796	0.174	0.190
-255.122	-26.930	0.406	0.233
-254.107	-63.853	-0.186	-0.075
-253.092	-53.293	-0.189	0.085
-252.078	-29.045	-0.425	-0.240
-251.063	784.451	0.030	0.080
-250.049	800.000	-0.033	0.091
-249.034	116.526	-0.150	0.181
-248.019	-165.109	-0.203	0.009
-247.005	54.343	-0.179	0.169
-245.990	-107.026	-0.273	-0.059
-244.976	3.976	-0.075	0.054
-243.961	-76.182	0.384	0.133
-242.946	-160.457	-0.323	-0.017
-241.932	0.239	-0.201	0.141
-240.917	-200.000	-0.039	-0.210
-239.903	211.407	0.256	0.396
-238.888	-122.339	-0.135	-0.022
-237.873	-200.000	-0.017	-0.177
-236.859	-196.732	-0.286	0.002
-235.844	77.113	0.052	0.055
-234.830	170.186	-0.093	-0.130
-233.815	76.874	0.125	-0.130
-232.800	-139.874	-0.192	0.020
-231.786	-200.000	0.020	0.090
-230.771	-200.000	-0.002	0.144
-229.757	800.000	0.036	-0.139
-228.742	-16.258	0.234	0.145
-227.727	10.133	0.112	0.083
-226.713	-169.781	0.145	-0.005
-225.698	109.723	0.232	0.273
-224.684	-111.328	-0.164	0.033
-223.669	-175.544	0.248	0.007
-222.655	155.669	-0.043	0.058
-221.640	-200.000	-0.072	-0.361
-220.625	3.382	0.384	-0.274
-219.611	14.776	0.184	0.141
-218.596	-19.444	-0.224	-0.136
-217.582	167.854	-0.157	-0.219
-216.567	654.613	-0.064	0.162
-215.552	-46.743	-0.234	0.112
-214.538	-27.169	0.216	0.123
-213.523	-26.443	-0.132	0.076
-212.509	-200.000	-0.065	-0.363
-211.494	-200.000	0.025	-0.192
-210.479	402.660	0.094	0.195
-209.465	-7.908	0.213	-0.141
-208.450	-84.041	0.304	-0.095
-207.436	-200.000	-0.057	-0.326
-206.421	11.030	0.090	-0.068
-205.406	276.640	0.088	0.153
-204.392	-93.302	-0.019	0.005
-203.377	-200.000	0.071	-0.398
-202.363	-76.865	0.080	0.028
-201.348	800.000	-0.061	0.174
-200.333	-93.195	0.160	-0.044
-199.319	139.345	-0.157	-0.202
-198.304	-200.000	0.448	0.001
-197.290	667.175	0.005	0.013
-196.275	163.314	-0.152	-0.209
-195.260	17.271	0.092	-0.072
-194.246	800.000	0.086	-0.278
-193.231	32.524	0.182	0.154
-192.217	34.219	0.102	0.087
-191.202	-74.910	-0.432	-0.152
-190.187	606.781	0.130	-0.316
-189.173	325.301	0.082	-0.154
-188.158	198.550	0.009	0.014
-187.144	-97.322	-0.192	0.049
-186.129	800.000	0.096	-0.391
-185.114	-105.527	0.038	0.008
-184.100	800.000	0.033	0.091
-183.085	-6.604	0.067	-0.045
-182.071	594.974	-0.011	0.028
-181.056	66.357	-0.023	0.023
-180.042	-69.163	0.157	0.059
-179.027	38.930	-0.201	-0.176
-178.012	800.000	-0.054	0.206
-176.998	-39.402	-0.121	0.062
-175.983	-22.509	0.267	0.158
-174.969	-200.000	-0.065	0.350
-173.954	62.585	-0.062	0.060
-172.939	-61.593	-0.099	0.041
-171.925	-200.000	0.005	-0.055
-170.910	-200.000	-0.009	-0.344
-169.896	800.000	-0.052	0.162
-168.881	55.714	0.158	0.150
-167.866	160.982	-0.107	-0.146
-166.852	106.170	0.117	-0.135
-165.837	375.801	-0.126	-0.252
-164.823	-16.397	-0.209	-0.130
-163.808	-72.990	0.263	-0.094
-162.793	-56.817	-0.174	0.075
-161.779	800.000	0.024	-0.070
-160.764	800.000	-0.096	0.322
-159.750	192.638	0.217	0.321
-158.735	-38.585	0.280	-0.145
-157.720	75.092	-0.250	-0.257
-156.706	-200.000	0.001	-0.087
-155.691	-63.929	0.068	0.027
-154.677	134.785	-0.236	0.300
-153.662	-200.000	-0.032	-0.225
-152.647	223.705	0.152	-0.239
-151.633	-114.944	-0.374	0.070
-150.618	-200.000	0.037	-0.189
-149.604	-56.837	-0.146	-0.063
-148.589	16.732	0.047	-0.037
-147.574	54.938	-0.141	-0.133
-146.560	436.917	-0.048	-0.101
-145.545	800.000	-0.023	-0.094
-144.531	-200.000	0.001	-0.265
-143.516	-50.281	0.205	-0.095
-142.502	-81.893	0.249	0.080
-141.487	-84.442	-0.186	-0.057
-140.472	-200.000	-0.005	-0.167
-139.458	14.186	-0.154	-0.118
-138.443	44.162	0.224	-0.201
-137.429	120.951	-0.271	0.329
-136.414	346.909	0.135	0.260
-135.399	-200.000	-0.027	0.276
-134.385	639.256	0.081	0.202
-133.370	-87.507	0.068	0.020
-132.356	744.317	0.113	0.297
-131.341	-200.000	-0.008	0.146
-130.326	141.886	-0.196	-0.254
-129.312	-50.222	-0.054	0.025
-128.297	-27.409	0.157	0.089
-127.283	17.478	-0.133	0.103
-126.268	41.177	-0.157	-0.139
-125.253	-200.000	-0.018	0.126
-124.239	9.428	-0.061	-0.045
-123.224	-115.983	0.361	0.066
-122.210	-200.000	0.018	0.206
-121.195	-76.337	0.286	0.098
-120.180	-200.000	-0.027	-0.326
