DTS Sentinel unit serial number:	SN413079Multiplexer serial number:	ORYXHardware model number:	OX4-SRSoftware version number:	ORYX F/W v4.00 Oryx Data Collector v3.7.2.0data status	okinstallation	princeton_trtdifferential loss correction	single-endedforward channel	channel 3reverse channel	N/Adate	2019/09/13time	17:40:35forward acquisition time	60.00reverse acquisition time	0.00gamma	496.2192k internal	0.2300k external	0.2300temperature offset calibration	1.0142default loss term (dB/km)	0.3790temperature slope calibration	1.0000multiplexer offset coefficient	1.0000multiplexer slope coefficient	1.0000fibre end	0.00T internal ref (°C)	35.84T ext. ref 1 (°C)	5.34T ext. ref 2 (°C)	29.47length (m)	temperature (°C)	Stokes	anti-Stokes-747.200	800.000	-0.061	-0.241
-746.185	469.203	0.046	0.105
-745.171	800.000	0.067	-0.223
-744.156	133.480	-0.150	0.198
-743.142	29.604	-0.229	0.198
-742.127	286.876	-0.035	0.065
-741.112	-118.929	0.181	0.032
-740.098	-200.000	-0.011	0.152
-739.083	-119.733	0.105	-0.018
-738.069	115.935	0.093	0.116
-737.054	49.513	-0.323	-0.310
-736.039	-200.000	0.030	0.205
-735.025	-23.840	0.228	-0.139
-734.010	322.323	0.138	0.268
-732.996	-177.989	-0.187	-0.005
-731.981	-200.000	-0.002	0.132
-730.966	15.848	0.209	-0.168
-729.952	-14.410	-0.327	-0.215
-728.937	-139.328	-0.230	-0.025
-727.923	800.000	0.052	-0.184
-726.908	-154.665	-0.241	0.016
-725.894	-200.000	-0.045	-0.272
-724.879	53.358	-0.119	-0.117
-723.864	-200.000	-0.099	0.534
-722.850	-85.749	-0.256	-0.081
-721.835	522.689	-0.153	0.366
-720.821	216.533	0.057	0.092
-719.806	-76.885	0.147	-0.052
-718.791	-98.274	-0.140	-0.037
-717.777	800.000	0.037	-0.162
-716.762	197.091	-0.093	0.144
-715.748	30.417	0.224	-0.195
-714.733	313.167	0.049	0.094
-713.718	-71.667	-0.242	0.092
-712.704	800.000	0.048	-0.195
-711.689	-67.278	-0.088	0.035
-710.675	-162.083	-0.202	-0.010
-709.660	800.000	0.038	-0.165
-708.645	-200.000	-0.086	-0.580
-707.631	-26.185	0.445	0.266
-706.616	181.906	-0.069	0.104
-705.602	-29.800	-0.246	0.143
-704.587	163.506	-0.070	0.101
-703.572	582.175	0.057	-0.142
-702.558	800.000	0.134	-0.429
-701.543	-80.538	-0.081	-0.028
-700.529	-200.000	0.027	0.223
-699.514	109.982	-0.209	-0.255
-698.499	-28.647	0.188	-0.110
-697.485	800.000	0.020	0.062
-696.470	-128.980	0.144	0.021
-695.456	3.720	0.173	0.128
-694.441	-200.000	-0.002	-0.036
-693.426	5.193	-0.116	-0.087
-692.412	-200.000	0.011	0.339
-691.397	-200.000	-0.009	-0.183
-690.383	195.441	0.161	-0.249
-689.368	-8.964	0.076	-0.052
-688.354	-200.000	0.011	-0.096
-687.339	-59.125	0.056	0.024
-686.324	17.682	0.316	-0.256
-685.310	-200.000	-0.006	0.273
-684.295	800.000	0.071	-0.255
-683.281	-70.418	-0.169	0.065
-682.266	152.664	-0.237	-0.329
-681.251	23.324	0.160	-0.133
-680.237	-200.000	-0.022	0.275
-679.222	-21.058	0.193	-0.120
-678.208	-200.000	-0.009	0.158
-677.193	-200.000	-0.032	0.196
-676.178	57.991	-0.112	0.111
-675.164	-83.334	0.147	-0.048
-674.149	-24.822	0.206	-0.125
-673.135	210.176	0.143	0.228
-672.120	38.086	0.216	0.195
-671.105	-69.265	0.156	-0.061
-670.091	82.083	-0.204	0.225
-669.076	-165.934	0.258	-0.011
-668.062	-136.737	0.230	-0.027
-667.047	-200.000	0.002	0.039
-666.032	-200.000	-0.014	-0.062
-665.018	104.863	-0.097	0.117
-664.003	-6.627	-0.257	0.178
-662.989	-70.024	0.279	0.108
-661.974	800.000	0.033	-0.111
-660.959	-200.000	0.009	0.240
-659.945	284.394	0.108	0.197
-658.930	-18.124	-0.122	-0.078
-657.916	486.934	-0.074	0.172
-656.901	60.502	-0.071	-0.071
-655.886	104.689	0.166	0.199
-654.872	800.000	-0.021	0.081
-653.857	-51.784	0.106	-0.050
-652.843	-180.793	0.238	0.005
-651.828	-200.000	0.012	-0.072
-650.814	319.166	0.122	0.235
-649.799	626.118	-0.063	-0.162
-648.784	-53.045	0.115	0.054
-647.770	-162.769	-0.290	0.014
-646.755	-142.452	-0.287	0.029
-645.741	724.108	0.086	-0.232
-644.726	114.509	0.069	-0.085
-643.711	-117.415	-0.199	0.037
-642.697	-131.583	0.163	-0.022
-641.682	-39.176	-0.219	-0.117
-640.668	-145.894	-0.378	-0.034
-639.653	308.642	0.146	-0.277
-638.638	-48.133	-0.196	-0.096
-637.624	78.625	-0.163	-0.177
-636.609	-168.470	0.264	0.010
-635.595	-5.161	-0.136	-0.095
-634.580	-200.000	-0.060	0.276
-633.565	-200.000	-0.016	-0.143
-632.551	-200.000	-0.033	0.418
-631.536	23.952	0.146	0.123
-630.522	62.248	-0.335	-0.340
-629.507	-140.430	-0.288	0.030
-628.492	42.505	0.055	-0.051
-627.478	-200.000	0.015	0.211
-626.463	526.912	-0.032	0.077
-625.449	-63.348	-0.335	0.140
-624.434	-200.000	0.003	-0.133
-623.419	382.939	-0.064	0.133
-622.405	367.373	0.041	0.083
-621.390	250.275	0.102	-0.176
-620.376	10.276	0.134	-0.104
-619.361	-6.670	-0.058	-0.040
-618.346	94.608	-0.077	0.088
-617.332	-200.000	-0.000	-0.299
-616.317	800.000	0.024	0.072
-615.303	-118.105	-0.152	0.028
-614.288	665.515	0.043	-0.112
-613.273	94.099	0.044	0.050
-612.259	800.000	-0.029	-0.108
-611.244	491.407	-0.113	0.263
-610.230	43.810	-0.290	0.269
-609.215	-100.476	-0.217	-0.054
-608.201	-25.263	0.158	0.095
-607.186	35.635	0.171	0.152
-606.171	-128.247	-0.237	0.034
-605.157	-38.152	0.257	-0.138
-604.142	-200.000	-0.018	-0.205
-603.128	-200.000	0.013	-0.214
-602.113	-100.168	-0.059	-0.015
-601.098	-147.106	-0.261	-0.023
-600.084	-200.000	0.004	0.046
-599.069	-58.590	0.226	-0.099
-598.055	-0.209	0.327	0.236
-597.040	91.970	-0.116	0.133
-596.025	-150.093	-0.126	-0.010
-595.011	252.504	-0.055	0.096
-593.996	-100.725	0.421	-0.105
-592.982	556.970	-0.017	0.041
-591.967	149.550	-0.128	0.175
-590.952	-129.662	-0.292	0.041
-589.938	-28.386	0.277	0.162
-588.923	-200.000	-0.033	-0.354
-587.909	-89.682	-0.235	-0.070
-586.894	-200.000	0.026	-0.284
-585.879	-200.000	0.030	-0.219
-584.865	582.330	-0.049	0.122
-583.850	-1.233	-0.112	-0.080
-582.836	34.996	-0.121	-0.107
-581.821	116.082	0.074	-0.092
-580.806	-72.631	0.429	-0.160
-579.792	395.540	-0.069	-0.147
-578.777	-200.000	-0.014	-0.131
-577.763	-93.815	-0.180	-0.050
-576.748	-200.000	0.017	0.295
-575.733	272.712	-0.047	0.085
-574.719	200.572	-0.201	-0.313
-573.704	-136.994	0.302	0.035
-572.690	800.000	-0.022	0.079
-571.675	131.018	0.113	-0.147
-570.661	116.585	-0.056	0.070
-569.646	-99.489	0.162	-0.041
-568.631	34.315	0.254	-0.224
-567.617	-200.000	-0.002	-0.018
-566.602	31.673	-0.089	-0.078
-565.588	-82.671	-0.516	0.169
-564.573	-78.230	0.169	0.059
-563.558	-83.628	-0.068	0.022
-562.544	-200.000	-0.040	0.225
-561.529	-16.665	-0.318	-0.204
-560.515	166.109	-0.029	-0.041
-559.500	800.000	0.017	-0.052
-558.485	800.000	0.086	0.247
-557.471	243.705	0.277	0.471
-556.456	176.283	-0.057	-0.084
-555.442	-192.263	0.337	-0.003
-554.427	-200.000	-0.047	0.259
-553.412	800.000	-0.130	-0.424
-552.398	-52.481	0.243	-0.114
-551.383	-200.000	0.045	-0.254
-550.369	-200.000	-0.186	-0.000
-549.354	-96.454	0.172	-0.046
-548.339	-12.553	0.124	-0.082
-547.325	169.739	0.142	0.205
-546.310	-200.000	0.032	-0.190
-545.296	205.683	0.050	-0.078
-544.281	-151.464	0.241	0.018
-543.266	157.313	-0.136	0.190
-542.252	252.957	-0.065	-0.112
-541.237	-119.647	-0.223	-0.039
-540.223	-200.000	-0.035	-0.227
-539.208	-95.074	0.307	-0.084
-538.193	-200.000	0.008	0.097
-537.179	349.907	-0.089	-0.177
-536.164	582.691	-0.025	0.062
-535.150	-200.000	0.086	-0.457
-534.135	-163.882	0.169	-0.008
-533.121	800.000	0.017	-0.064
-532.106	-58.445	-0.213	-0.094
-531.091	-31.011	0.136	0.078
-530.077	732.651	-0.100	-0.272
-529.062	-200.000	-0.007	0.261
-528.048	51.130	-0.274	0.262
-527.033	435.407	-0.094	-0.206
-526.018	-105.782	0.027	0.006
-525.004	-200.000	0.002	-0.192
-523.989	259.946	0.156	0.272
-522.975	-85.705	0.457	0.143
-521.960	59.694	0.026	0.026
-520.945	13.059	0.084	-0.066
-519.931	-122.765	-0.154	-0.025
-518.916	18.562	0.142	-0.115
-517.902	-200.000	-0.003	-0.060
-516.887	-183.349	0.293	-0.005
-515.872	-200.000	0.042	0.422
-514.858	-10.051	0.377	0.253
-513.843	800.000	-0.047	-0.204
-512.829	142.240	-0.167	0.224
-511.814	45.409	-0.046	0.043
-510.799	-200.000	-0.066	-0.377
-509.785	-200.000	-0.009	0.093
-508.770	-200.000	-0.030	-0.494
-507.756	-200.000	-0.020	-0.132
-506.741	-13.764	-0.335	0.219
-505.726	-127.405	-0.230	0.034
-504.712	226.460	0.092	-0.150
-503.697	177.495	-0.229	0.337
-502.683	242.406	-0.128	0.217
-501.668	-200.000	-0.021	0.170
-500.653	-146.498	0.315	-0.028
-499.639	-6.434	-0.303	-0.209
-498.624	-49.536	-0.325	0.156
-497.610	-200.000	0.009	0.111
-496.595	58.386	0.147	0.146
-495.581	60.709	0.206	0.206
-494.566	18.540	0.218	-0.176
-493.551	94.218	-0.231	0.265
-492.537	-200.000	0.050	-0.275
-491.522	-200.000	-0.019	-0.147
-490.508	-200.000	-0.017	0.097
-489.493	-200.000	-0.019	-0.104
-488.478	-93.497	-0.225	0.063
-487.464	-200.000	-0.015	0.095
-486.449	574.410	-0.074	0.183
-485.435	-58.744	-0.152	-0.067
-484.420	-63.004	-0.227	0.095
-483.405	-163.718	0.323	0.015
-482.391	278.983	0.048	0.086
-481.376	88.167	-0.106	0.119
-480.362	800.000	0.025	-0.087
-479.347	-153.024	0.114	-0.008
-478.332	33.324	-0.035	0.031
-477.318	378.740	-0.128	0.264
-476.303	-14.782	0.352	0.228
-475.289	91.610	-0.147	0.166
-474.274	-200.000	-0.017	-0.108
-473.259	80.990	0.154	0.168
-472.245	800.000	-0.041	0.151
-471.230	702.557	-0.046	-0.123
-470.216	-200.000	-0.089	-0.408
-469.201	206.977	0.136	0.214
-468.186	-200.000	-0.025	0.402
-467.172	-22.862	-0.211	0.128
-466.157	328.417	0.272	-0.528
-465.143	-200.000	0.007	-0.360
-464.128	-107.394	-0.005	0.001
-463.113	695.933	0.126	-0.335
-462.099	800.000	0.072	0.312
-461.084	-38.435	-0.137	-0.073
-460.070	800.000	-0.082	-0.236
-459.055	800.000	-0.047	-0.136
-458.040	-200.000	-0.017	-0.209
-457.026	98.932	-0.050	0.058
-456.011	-200.000	-0.039	0.197
-454.997	416.428	0.032	0.069
-453.982	99.473	0.108	0.126
-452.968	43.043	0.202	0.186
-451.953	-22.182	0.062	-0.038
-450.938	-200.000	0.048	0.251
-449.924	800.000	0.041	0.165
-448.909	800.000	0.039	-0.148
-447.895	462.797	-0.079	-0.179
-446.880	800.000	-0.014	-0.060
-445.865	-30.170	0.215	0.123
-444.851	-9.011	-0.075	-0.051
-443.836	241.574	-0.067	-0.113
-442.822	-67.122	0.087	0.034
-441.807	-45.736	-0.104	0.052
-440.792	377.436	0.040	-0.083
-439.778	22.916	0.187	-0.155
-438.763	-168.352	0.318	0.012
-437.749	138.640	-0.100	-0.133
-436.734	384.762	-0.056	-0.116
-435.719	-73.361	0.132	-0.048
-434.705	-116.569	-0.204	0.038
-433.690	135.299	0.144	0.189
-432.676	53.799	-0.203	0.196
-431.661	-97.926	-0.380	-0.099
-430.646	80.026	0.053	-0.058
-429.632	-200.000	0.018	0.211
-428.617	-144.612	0.063	0.006
-427.603	748.068	0.039	0.106
-426.588	5.749	-0.166	0.124
-425.573	-129.907	-0.196	-0.027
-424.559	800.000	-0.112	-0.331
-423.544	-200.000	-0.008	-0.408
-422.530	-73.409	-0.133	0.049
-421.515	-200.000	-0.031	-0.164
-420.500	56.205	-0.196	0.192
-419.486	-200.000	0.000	0.268
-418.471	800.000	0.089	-0.304
-417.457	-200.000	-0.070	-0.353
-416.442	74.332	0.124	0.132
-415.428	164.399	-0.245	-0.348
-414.413	-200.000	-0.002	-0.198
-413.398	44.949	0.118	0.110
-412.384	-135.942	0.168	0.020
-411.369	-96.049	-0.121	0.032
-410.355	99.676	0.110	0.128
-409.340	-13.472	-0.112	-0.073
-408.325	-145.562	-0.124	0.011
-407.311	-58.367	-0.363	0.159
-406.296	327.666	0.038	-0.073
-405.282	800.000	0.079	-0.282
-404.267	-200.000	0.053	-0.251
-403.252	-104.416	-0.200	-0.047
-402.238	-105.395	-0.276	-0.063
-401.223	-200.000	0.024	0.194
-400.209	93.017	0.073	-0.084
-399.194	-27.616	-0.128	-0.075
-398.179	32.211	0.240	0.208
-397.165	-114.500	0.113	-0.022
-396.150	-200.000	-0.026	-0.127
-395.136	-200.000	-0.024	-0.236
-394.121	-26.912	0.245	-0.144
-393.106	529.925	0.054	-0.128
-392.092	-200.000	0.000	0.003
-391.077	-29.151	-0.048	-0.028
-390.063	85.747	0.190	-0.210
-389.048	-200.000	0.036	-0.165
-388.033	205.009	0.139	0.216
-387.019	-147.797	0.234	-0.020
-386.004	-93.282	0.241	-0.067
-384.990	-83.438	-0.055	0.018
-383.975	-5.871	0.072	-0.050
-382.960	-149.225	-0.192	0.015
-381.946	-32.119	-0.267	0.150
-380.931	-200.000	0.006	-0.335
-379.917	103.136	0.150	-0.176
-378.902	138.598	0.149	0.196
-377.888	365.033	-0.047	0.095
-376.873	126.549	-0.149	0.189
-375.858	445.265	-0.069	-0.151
-374.844	238.285	0.162	0.271
-373.829	-176.623	0.312	0.008
-372.815	-98.538	-0.112	-0.029
-371.800	27.231	0.168	-0.141
-370.785	-200.000	-0.003	-0.020
-369.771	-200.000	-0.038	-0.295
-368.756	800.000	-0.059	-0.171
-367.742	-77.239	-0.182	0.064
-366.727	-46.233	0.458	-0.227
-365.712	64.575	-0.135	0.137
-364.698	-137.092	0.106	-0.012
-363.683	-200.000	-0.053	-0.267
-362.669	247.586	-0.200	-0.340
-361.654	800.000	0.035	-0.141
-360.639	-200.000	-0.030	0.429
-359.625	249.997	0.070	0.119
-358.610	123.455	-0.140	0.176
-357.596	-0.152	0.259	0.185
-356.581	329.972	0.039	0.075
-355.566	226.524	0.076	-0.123
-354.552	-161.737	0.382	-0.020
-353.537	-200.000	0.010	0.055
-352.523	27.270	-0.122	-0.103
-351.508	-200.000	-0.045	0.202
-350.493	296.424	-0.049	-0.091
-349.479	-200.000	0.037	-0.168
-348.464	-200.000	-0.000	-0.013
-347.450	-56.860	-0.237	0.105
-346.435	121.893	-0.162	0.203
-345.420	-200.000	0.005	-0.124
-344.406	556.443	-0.048	-0.115
-343.391	405.377	0.110	-0.233
-342.377	-38.248	0.414	0.220
-341.362	-139.654	-0.353	-0.038
-340.348	487.925	-0.087	0.199
-339.333	-200.000	0.062	0.334
-338.318	-59.812	-0.184	0.079
-337.304	34.616	0.144	-0.126
-336.289	800.000	-0.076	-0.275
-335.275	62.836	-0.049	-0.049
-334.260	238.582	0.049	0.082
-333.245	95.261	0.182	0.209
-332.231	-9.847	-0.305	0.204
-331.216	-105.799	0.107	0.024
-330.202	-110.374	-0.241	-0.050
-329.187	-4.936	0.280	-0.194
-328.172	319.095	-0.082	0.157
-327.158	800.000	0.055	0.161
-326.143	800.000	-0.047	0.164
-325.129	800.000	0.106	0.409
-324.114	800.000	0.140	0.394
-323.099	-2.745	0.066	-0.046
-322.085	-5.490	0.317	-0.218
-321.070	-69.463	0.213	-0.082
-320.056	191.912	0.060	-0.091
-319.041	-20.298	-0.080	0.050
-318.026	-200.000	-0.045	0.366
-317.012	161.229	0.060	-0.084
-315.997	800.000	0.018	0.079
-314.983	-200.000	0.082	-0.448
-313.968	381.642	0.086	0.177
-312.953	-134.269	0.215	-0.026
-311.939	41.727	-0.164	-0.149
-310.924	-49.254	0.202	0.097
-309.910	43.821	-0.251	0.231
-308.895	-200.000	0.011	0.233
-307.880	428.559	0.082	0.177
-306.866	-96.325	-0.205	-0.054
-305.851	-115.456	-0.140	-0.026
-304.837	-144.471	0.309	0.029
-303.822	800.000	-0.094	0.328
-302.807	-107.823	0.266	-0.058
-301.793	28.839	0.159	-0.135
-300.778	-107.924	0.190	-0.041
-299.764	-200.000	0.001	0.143
-298.749	-64.098	-0.032	0.013
-297.735	165.931	-0.179	-0.253
-296.720	-84.736	0.481	0.152
-295.705	394.624	0.090	0.187
-294.691	-184.086	-0.193	-0.003
-293.676	-122.010	0.089	-0.015
-292.662	-158.609	0.381	0.022
-291.647	-157.920	-0.162	-0.010
-290.632	-103.385	0.277	-0.065
-289.618	-46.841	0.160	-0.079
-288.603	33.297	-0.102	0.089
-287.589	-52.553	-0.120	-0.056
-286.574	-128.138	-0.256	-0.037
-285.559	378.722	0.131	-0.268
-284.545	107.085	0.270	-0.321
-283.530	0.983	-0.294	-0.211
-282.516	-23.725	0.035	0.021
-281.501	53.763	0.129	0.124
-280.486	152.339	-0.227	0.310
-279.472	800.000	-0.121	0.334
-278.457	800.000	-0.086	0.298
-277.443	-53.288	0.094	-0.043
-276.428	-131.780	-0.120	0.016
-275.413	-67.647	-0.211	-0.083
-274.399	128.313	0.078	-0.100
-273.384	-200.000	0.022	-0.240
-272.370	800.000	0.072	-0.298
-271.355	220.432	-0.038	0.061
-270.340	92.207	0.154	0.173
-269.326	118.598	-0.109	-0.135
-268.311	530.107	-0.082	0.195
-267.297	-29.728	0.208	0.119
-266.282	-200.000	0.027	0.199
-265.267	4.515	0.191	-0.140
-264.253	-53.520	0.150	-0.069
-263.238	243.844	-0.129	0.217
-262.224	123.500	0.104	0.131
-261.209	-112.118	-0.189	0.038
-260.195	17.786	-0.412	0.328
-259.180	159.154	0.092	-0.128
-258.165	-45.218	-0.277	0.138
-257.151	-200.000	0.023	0.112
-256.136	-127.716	-0.106	-0.015
-255.122	-1.906	0.099	-0.070
-254.107	-99.023	-0.147	-0.037
-253.092	32.742	-0.245	-0.212
-252.078	-110.320	0.305	-0.064
-251.063	800.000	0.112	-0.364
-250.049	74.419	-0.035	0.036
-249.034	-138.721	-0.027	-0.003
-248.019	22.754	0.099	0.081
-247.005	365.391	-0.073	-0.148
-245.990	-36.767	0.112	0.060
-244.976	265.663	-0.157	0.273
-243.961	-136.488	0.075	-0.009
-242.946	-10.536	-0.081	0.053
-241.932	183.679	0.118	0.174
-240.917	-20.231	0.364	-0.224
-239.903	23.845	-0.330	-0.272
-238.888	25.982	-0.122	-0.102
-237.873	357.969	-0.266	0.531
-236.859	-200.000	-0.006	0.037
-235.844	-83.687	-0.446	-0.142
-234.830	332.407	0.117	-0.225
-233.815	511.554	0.059	-0.137
-232.800	-9.026	0.377	0.252
-231.786	-31.545	-0.134	0.075
-230.771	-102.942	-0.352	0.083
-229.757	-142.671	-0.227	0.022
-228.742	371.861	0.195	0.396
-227.727	28.809	0.086	-0.073
-226.713	393.292	0.078	-0.163
-225.698	287.883	0.047	0.084
-224.684	-81.132	0.079	-0.026
-223.669	-200.000	-0.012	0.139
-222.655	-7.808	-0.074	-0.050
-221.640	-68.274	-0.381	-0.148
-220.625	7.211	-0.149	0.111
-219.611	72.874	0.058	-0.060
-218.596	-118.999	-0.224	-0.039
-217.582	-200.000	-0.053	-0.294
-216.567	28.745	0.102	-0.087
-215.552	-200.000	0.018	-0.104
-214.538	0.451	0.258	0.184
-213.523	64.706	-0.154	0.155
-212.509	800.000	-0.103	-0.323
-211.494	-81.706	0.207	-0.068
-210.479	-44.345	-0.328	0.164
-209.465	-200.000	-0.002	-0.153
-208.450	368.365	0.057	-0.114
-207.436	-200.000	0.023	-0.291
-206.421	-143.342	-0.129	0.012
-205.406	120.860	-0.080	0.099
-204.392	-103.355	0.266	-0.063
-203.377	-200.000	-0.087	0.387
-202.363	-200.000	0.018	0.192
-201.348	-88.860	-0.164	0.049
-200.333	83.287	0.226	0.245
-199.319	-200.000	0.049	0.386
-198.304	-35.828	0.197	0.107
-197.290	315.652	0.116	-0.219
-196.275	-132.409	0.158	0.020
-195.260	-122.942	0.410	0.066
-194.246	244.302	0.136	0.229
-193.231	-162.973	0.272	-0.013
-192.217	793.184	-0.045	-0.122
-191.202	-15.905	0.046	-0.029
-190.187	-200.000	0.041	0.241
-189.173	-110.425	-0.075	-0.016
-188.158	-85.199	0.041	0.013
-187.144	-35.376	-0.149	0.081
-186.129	21.781	-0.227	0.185
-185.114	7.861	0.311	0.233
-184.100	-200.000	0.038	-0.169
-183.085	248.881	0.040	-0.067
-182.071	10.165	0.016	0.012
-181.056	-99.413	-0.136	0.034
-180.042	27.766	0.160	0.134
-179.027	106.611	0.039	-0.046
-178.012	-59.646	0.050	0.022
-176.998	514.622	-0.126	0.293
-175.983	-200.000	0.021	0.171
-174.969	-141.278	-0.107	0.011
-173.954	-200.000	-0.006	-0.126
-172.939	-49.859	-0.137	-0.065
-171.925	770.585	0.046	-0.125
-170.910	32.836	0.215	-0.185
-169.896	36.701	-0.237	0.209
-168.881	-71.949	0.209	-0.078
-167.866	-200.000	-0.030	0.166
-166.852	-52.498	-0.169	-0.078
-165.837	-175.870	0.166	-0.004
-164.823	12.367	0.106	-0.082
-163.808	104.051	-0.389	-0.456
-162.793	-150.146	-0.281	-0.022
-161.779	-110.254	-0.077	0.016
-160.764	-21.698	-0.199	0.121
-159.750	-29.194	0.044	0.025
-158.735	209.399	0.102	0.160
-157.720	33.561	0.158	0.136
-156.706	-65.127	0.104	-0.042
-155.691	250.568	0.069	0.117
-154.677	-89.931	0.284	-0.083
-153.662	13.659	-0.073	-0.056
-152.647	-94.055	-0.093	-0.025
-151.633	-200.000	0.011	0.166
-150.618	-200.000	0.041	-0.208
-149.604	-9.237	-0.160	-0.107
-148.589	354.227	0.030	0.059
-147.574	61.859	-0.093	0.092
-146.560	-43.864	-0.124	0.062
-145.545	800.000	-0.110	0.317
-144.531	-167.694	-0.046	0.002
-143.516	-145.762	-0.279	0.025
-142.502	83.609	0.175	-0.190
-141.487	25.625	-0.234	0.194
-140.472	134.310	0.043	-0.056
-139.458	268.477	0.238	-0.416
-138.443	800.000	-0.064	0.196
-137.429	-163.984	0.208	-0.010
-136.414	-200.000	-0.003	0.164
-135.399	-200.000	0.018	-0.113
-134.385	-162.882	-0.181	0.009
-133.370	-200.000	-0.029	0.242
-132.356	-200.000	-0.014	-0.095
-131.341	87.258	-0.339	-0.373
-130.326	190.360	0.216	0.322
-129.312	17.832	-0.216	-0.171
-128.297	213.813	0.079	-0.124
-127.283	-12.216	0.123	-0.080
-126.268	-98.484	-0.405	-0.103
-125.253	206.800	-0.084	0.130
-124.239	-200.000	0.005	-0.114
-123.224	-74.002	0.270	-0.098
-122.210	-200.000	0.000	-0.141
