DTS Sentinel unit serial number:	SN413079Multiplexer serial number:	ORYXHardware model number:	OX4-SRSoftware version number:	ORYX F/W v4.00 Oryx Data Collector v3.7.2.0data status	okinstallation	princeton_trtdifferential loss correction	single-endedforward channel	channel 3reverse channel	N/Adate	2019/09/19time	12:16:34forward acquisition time	60.00reverse acquisition time	0.00gamma	496.2192k internal	0.2338k external	0.2338temperature offset calibration	0.9988default loss term (dB/km)	0.3790temperature slope calibration	1.0000multiplexer offset coefficient	1.0000multiplexer slope coefficient	1.0000fibre end	0.00T internal ref (°C)	26.50T ext. ref 1 (°C)	0.85T ext. ref 2 (°C)	23.40length (m)	temperature (°C)	Stokes	anti-Stokes-747.200	146.479	-0.053	-0.071
-746.185	487.189	0.105	0.241
-745.171	587.270	0.124	0.307
-744.156	-200.000	-0.033	0.175
-743.142	-62.405	0.362	-0.151
-742.127	98.406	-0.217	0.251
-741.112	-200.000	0.035	-0.187
-740.098	800.000	0.085	0.278
-739.083	-200.000	0.025	0.357
-738.069	145.072	-0.038	0.051
-737.054	93.737	-0.091	0.104
-736.039	353.284	-0.070	-0.138
-735.025	204.113	-0.147	0.228
-734.010	9.373	-0.107	-0.081
-732.996	-78.051	-0.398	-0.137
-731.981	-200.000	0.023	-0.129
-730.966	202.621	0.116	-0.179
-729.952	69.242	-0.144	-0.148
-728.937	-118.080	0.201	-0.036
-727.923	27.135	-0.249	0.210
-726.908	168.608	0.170	-0.243
-725.894	800.000	0.088	-0.293
-724.879	-200.000	0.052	-0.283
-723.864	-158.118	0.229	0.013
-722.850	0.633	0.106	0.076
-721.835	91.536	0.080	-0.090
-720.821	-200.000	0.023	0.215
-719.806	-52.949	-0.269	-0.124
-718.791	-55.830	-0.173	-0.078
-717.777	800.000	-0.075	-0.232
-716.762	-200.000	0.069	-0.337
-715.748	-200.000	-0.039	-0.241
-714.733	-39.625	0.243	-0.127
-713.718	296.810	-0.078	0.144
-712.704	-85.170	-0.226	-0.071
-711.689	-128.695	-0.228	-0.032
-710.675	-30.704	-0.154	-0.087
-709.660	-200.000	0.036	-0.508
-708.645	51.581	-0.044	-0.042
-707.631	-87.160	0.076	-0.023
-706.616	-200.000	-0.007	0.070
-705.602	-48.112	0.104	0.051
-704.587	728.406	0.125	0.335
-703.572	-200.000	0.009	0.045
-702.558	733.156	0.027	0.073
-701.543	800.000	0.062	-0.175
-700.529	106.237	-0.133	0.157
-699.514	800.000	-0.044	-0.131
-698.499	-143.507	-0.314	-0.030
-697.485	-47.380	0.102	0.050
-696.470	206.337	0.168	-0.262
-695.456	-63.855	-0.096	-0.039
-694.441	-200.000	0.023	-0.250
-693.426	12.793	-0.028	0.022
-692.412	-200.000	0.080	0.361
-691.397	432.715	0.087	-0.189
-690.383	800.000	0.048	0.143
-689.368	84.575	0.151	0.166
-688.354	304.446	-0.045	-0.084
-687.339	-200.000	-0.029	-0.250
-686.324	-84.302	-0.265	-0.084
-685.310	-200.000	0.008	-0.392
-684.295	-200.000	-0.007	-0.140
-683.281	-133.547	-0.352	0.044
-682.266	-100.711	-0.059	-0.015
-681.251	-63.014	-0.155	-0.064
-680.237	124.054	-0.097	-0.122
-679.222	-12.495	-0.309	-0.202
-678.208	-200.000	-0.045	-0.425
-677.193	-73.891	-0.266	-0.097
-676.178	134.457	-0.190	-0.247
-675.164	147.516	-0.176	-0.237
-674.149	-80.347	-0.197	0.066
-673.135	-117.768	-0.096	0.017
-672.120	-132.247	-0.032	0.004
-671.105	-15.108	-0.160	-0.103
-670.091	-83.840	0.186	-0.059
-669.076	55.448	-0.143	-0.138
-668.062	-200.000	0.082	0.369
-667.047	-135.846	-0.120	-0.014
-666.032	-144.469	0.154	0.014
-665.018	-23.573	0.339	0.204
-664.003	684.888	0.062	-0.163
-662.989	-200.000	-0.045	-0.463
-661.974	89.778	0.073	0.081
-660.959	154.625	-0.134	-0.184
-659.945	800.000	-0.055	0.181
-658.930	-184.510	0.158	-0.003
-657.916	-36.563	0.137	-0.074
-656.901	-41.601	0.312	-0.161
-655.886	-79.598	-0.204	-0.069
-654.872	-56.877	0.105	-0.046
-653.857	10.621	-0.207	0.158
-652.843	-154.437	-0.278	0.019
-651.828	-144.081	-0.057	0.005
-650.814	362.896	-0.096	0.192
-649.799	-15.240	0.251	0.160
-648.784	121.390	0.116	-0.145
-647.770	70.294	-0.154	-0.159
-646.755	292.874	-0.095	-0.173
-645.741	53.686	0.244	-0.234
-644.726	231.791	0.183	-0.300
-643.711	84.712	0.107	0.117
-642.697	-25.315	-0.290	0.171
-641.682	-120.959	0.189	-0.032
-640.668	-16.746	0.190	0.120
-639.653	-43.182	0.322	0.163
-638.638	-1.723	-0.169	0.119
-637.624	-58.061	0.282	-0.123
-636.609	-63.604	-0.126	0.052
-635.595	234.604	0.236	-0.388
-634.580	-109.918	0.191	0.040
-633.565	90.658	-0.067	-0.075
-632.551	-200.000	0.014	-0.148
-631.536	182.210	-0.171	-0.251
-630.522	-179.283	-0.169	-0.004
-629.507	414.278	-0.170	-0.361
-628.492	761.348	-0.057	-0.154
-627.478	54.989	-0.244	-0.235
-626.463	-117.889	-0.328	-0.059
-625.449	501.074	-0.065	0.151
-624.434	-63.814	0.253	-0.103
-623.419	-200.000	-0.006	0.083
-622.405	-136.974	0.173	-0.020
-621.390	77.059	0.025	0.026
-620.376	142.124	-0.077	-0.101
-619.361	800.000	-0.058	0.177
-618.346	-78.288	-0.274	0.094
-617.332	11.073	-0.186	0.142
-616.317	115.175	0.122	0.148
-615.303	-200.000	-0.066	0.583
-614.288	318.880	0.137	0.260
-613.273	800.000	0.066	-0.280
-612.259	69.465	0.093	-0.095
-611.244	-200.000	0.033	0.339
-610.230	57.002	-0.266	-0.258
-609.215	303.404	0.095	-0.176
-608.201	-200.000	0.010	0.144
-607.186	-100.427	-0.109	-0.027
-606.171	800.000	-0.040	0.163
-605.157	96.354	0.023	-0.027
-604.142	-200.000	0.017	0.198
-603.128	217.841	0.172	-0.273
-602.113	-84.445	-0.210	-0.066
-601.098	75.935	-0.204	0.215
-600.084	180.504	-0.089	-0.131
-599.069	481.829	0.069	-0.156
-598.055	-30.228	0.038	0.022
-597.040	-200.000	0.019	0.262
-596.025	-85.367	-0.255	0.079
-595.011	-105.909	0.158	-0.035
-593.996	31.136	0.131	0.112
-592.982	8.951	-0.263	0.198
-591.967	82.235	-0.142	-0.154
-590.952	52.713	0.082	0.078
-589.938	-79.778	0.373	0.125
-588.923	-11.259	-0.257	-0.169
-587.909	100.168	0.176	-0.204
-586.894	-145.922	0.297	-0.026
-585.879	-149.795	0.335	0.026
-584.865	-54.621	0.100	-0.045
-583.850	-200.000	0.079	-0.409
-582.836	-67.359	-0.252	-0.099
-581.821	412.396	0.102	-0.216
-580.806	-146.595	-0.094	-0.008
-579.792	-200.000	-0.051	0.402
-578.777	-16.841	0.190	0.120
-577.763	-158.749	-0.324	0.018
-576.748	-123.816	0.211	0.033
-575.733	-167.720	0.145	0.006
-574.719	431.355	0.176	0.381
-573.704	175.242	0.049	0.070
-572.690	498.908	0.113	0.259
-571.675	46.199	-0.167	0.154
-570.661	138.207	-0.070	0.092
-569.646	739.354	-0.036	0.095
-568.631	-78.031	-0.164	0.056
-567.617	-200.000	0.029	-0.189
-566.602	800.000	0.043	-0.127
-565.588	800.000	-0.059	-0.167
-564.573	-200.000	0.015	0.187
-563.558	-48.989	-0.208	-0.099
-562.544	82.058	-0.149	-0.160
-561.529	-142.503	-0.271	0.027
-560.515	-41.465	0.160	-0.082
-559.500	-200.000	-0.001	0.047
-558.485	375.660	0.068	-0.139
-557.471	-200.000	0.008	-0.061
-556.456	464.136	0.024	0.053
-555.442	8.759	0.227	0.170
-554.427	-117.213	0.066	-0.012
-553.412	446.887	-0.172	-0.378
-552.398	745.912	-0.090	0.241
-551.383	800.000	-0.065	0.231
-550.369	-118.984	-0.084	-0.015
-549.354	7.007	-0.188	-0.140
-548.339	-91.893	-0.229	0.065
-547.325	46.639	0.179	0.165
-546.310	-150.931	0.148	-0.011
-545.296	225.542	-0.070	-0.113
-544.281	-200.000	-0.024	0.253
-543.266	89.760	0.284	-0.316
-542.252	67.106	0.094	-0.095
-541.237	-200.000	-0.011	0.164
-540.223	800.000	0.090	-0.272
-539.208	-83.206	0.019	-0.006
-538.193	-200.000	-0.029	-0.246
-537.179	96.805	0.205	-0.234
-536.164	82.804	-0.070	0.076
-535.150	195.553	-0.158	-0.239
-534.135	44.286	0.229	0.209
-533.121	13.533	-0.316	-0.244
-532.106	96.192	-0.130	-0.148
-531.091	-43.775	-0.171	0.086
-530.077	55.138	-0.140	0.134
-529.062	-42.328	-0.251	-0.127
-528.048	-200.000	-0.018	-0.080
-527.033	159.310	-0.077	-0.106
-526.018	110.567	-0.127	0.152
-525.004	800.000	0.055	-0.163
-523.989	-157.122	0.507	-0.031
-522.975	442.472	-0.080	0.173
-521.960	-150.383	0.349	0.027
-520.945	72.089	-0.452	-0.467
-519.931	-200.000	0.059	-0.270
-518.916	30.611	-0.120	0.102
-517.902	131.611	0.129	0.165
-516.887	-153.499	-0.191	0.013
-515.872	-116.300	-0.124	0.023
-514.858	166.447	-0.163	-0.230
-513.843	117.982	-0.183	0.224
-512.829	-24.010	0.423	0.251
-511.814	10.780	0.074	-0.056
-510.799	800.000	-0.056	0.176
-509.785	800.000	-0.051	-0.159
-508.770	301.518	-0.101	0.185
-507.756	-74.811	-0.149	-0.053
-506.741	300.857	-0.076	-0.139
-505.726	-200.000	0.042	0.191
-504.712	71.465	-0.136	-0.141
-503.697	-56.819	-0.144	-0.063
-502.683	266.349	0.006	-0.011
-501.668	205.505	-0.145	0.224
-500.653	800.000	-0.030	-0.115
-499.639	163.103	-0.192	0.269
-498.624	0.034	-0.244	0.173
-497.610	83.766	-0.183	0.198
-496.595	307.757	0.112	-0.207
-495.581	-101.695	-0.471	0.114
-494.566	2.355	0.248	0.178
-493.551	-200.000	-0.029	-0.211
-492.537	-8.712	0.112	-0.074
-491.522	-175.436	0.273	0.007
-490.508	20.952	-0.170	-0.137
-489.493	-200.000	-0.035	0.205
-488.478	-200.000	-0.021	0.211
-487.464	-200.000	-0.032	-0.373
-486.449	265.910	-0.169	0.293
-485.435	217.946	-0.067	-0.106
-484.420	252.267	0.074	-0.126
-483.405	-64.519	0.269	0.109
-482.391	-200.000	0.018	-0.086
-481.376	-3.790	0.131	0.090
-480.362	800.000	0.027	-0.117
-479.347	-120.321	-0.075	-0.013
-478.332	-64.269	0.137	0.055
-477.318	-50.764	-0.213	0.099
-476.303	117.925	-0.104	-0.127
-475.289	-64.374	-0.279	0.113
-474.274	800.000	-0.064	-0.215
-473.259	230.588	-0.083	0.134
-472.245	-200.000	0.031	-0.200
-471.230	184.509	-0.062	-0.092
-470.216	-116.839	0.297	0.054
-469.201	136.627	-0.189	-0.244
-468.186	392.424	-0.058	0.120
-467.172	49.510	0.139	-0.130
-466.157	36.296	0.412	-0.360
-465.143	800.000	-0.031	0.120
-464.128	-192.104	-0.260	0.002
-463.113	-4.692	-0.152	0.104
-462.099	-89.076	0.337	0.099
-461.084	-140.075	-0.097	0.010
-460.070	24.452	0.099	0.081
-459.055	49.896	0.212	-0.198
-458.040	-200.000	0.050	0.306
-457.026	136.072	-0.187	-0.241
-456.011	21.101	-0.250	0.201
-454.997	-69.553	-0.077	-0.029
-453.982	288.091	0.147	0.265
-452.968	-45.192	-0.054	-0.027
-451.953	81.650	-0.199	-0.214
-450.938	123.469	0.130	-0.162
-449.924	429.922	-0.047	-0.101
-448.909	1.190	-0.292	0.208
-447.895	-28.548	-0.185	0.106
-446.880	-80.777	-0.547	-0.180
-445.865	-200.000	-0.012	-0.168
-444.851	98.441	-0.127	0.146
-443.836	-200.000	-0.042	0.268
-442.822	-83.236	0.183	-0.058
-441.807	-66.893	-0.288	0.113
-440.792	-141.284	0.304	0.031
-439.778	35.672	-0.115	-0.100
-438.763	183.404	0.168	-0.247
-437.749	-148.448	-0.155	0.013
-436.734	399.528	-0.241	0.502
-435.719	43.135	-0.077	0.069
-434.705	65.111	0.017	-0.017
-433.690	-120.466	-0.176	0.030
-432.676	-134.177	-0.206	0.025
-431.661	126.132	-0.002	0.003
-430.646	28.559	0.126	-0.106
-429.632	-166.146	-0.084	0.004
-428.617	20.427	-0.184	-0.148
-427.603	94.876	-0.218	0.246
-426.588	147.828	-0.064	0.086
-425.573	189.007	-0.051	-0.076
-424.559	-200.000	-0.019	-0.081
-423.544	-31.478	-0.053	0.029
-422.530	-62.014	-0.439	-0.182
-421.515	-132.540	0.018	-0.002
-420.500	338.269	0.032	-0.062
-419.486	-17.577	-0.190	0.118
-418.471	-200.000	0.021	-0.135
-417.457	800.000	-0.152	-0.458
-416.442	443.517	0.087	-0.188
-415.428	-47.419	0.412	0.198
-414.413	-50.203	0.593	-0.278
-413.398	-69.630	-0.130	-0.049
-412.384	50.968	0.162	0.152
-411.369	-200.000	-0.008	0.225
-410.355	-200.000	0.079	0.371
-409.340	131.194	-0.275	0.350
-408.325	800.000	0.068	-0.243
-407.311	163.764	-0.190	0.265
-406.296	84.911	-0.162	0.176
-405.282	-15.380	-0.207	0.131
-404.267	33.043	-0.128	0.109
-403.252	-141.465	0.090	0.009
-402.238	-56.372	-0.110	-0.048
-401.223	-200.000	-0.035	0.374
-400.209	-129.187	0.183	0.025
-399.194	147.559	-0.123	-0.164
-398.179	-83.533	-0.203	-0.064
-397.165	-98.598	0.219	0.055
-396.150	674.991	-0.050	-0.129
-395.136	524.439	0.138	-0.321
-394.121	55.533	-0.139	0.133
-393.106	79.094	-0.070	-0.074
-392.092	-200.000	-0.028	-0.275
-391.077	-108.487	0.193	-0.041
-390.063	-127.143	-0.538	-0.078
-389.048	192.343	0.274	0.409
-388.033	479.549	-0.197	0.441
-387.019	518.682	-0.116	0.268
-386.004	-200.000	-0.034	0.208
-384.990	174.205	0.225	-0.322
-383.975	366.160	-0.011	-0.021
-382.960	-51.814	-0.226	-0.104
-381.946	504.661	-0.108	-0.247
-380.931	146.037	0.153	-0.203
-379.917	-200.000	0.045	-0.256
-378.902	-6.226	-0.120	-0.081
-377.888	129.041	-0.094	-0.118
-376.873	207.435	-0.127	0.195
-375.858	-48.586	-0.182	-0.087
-374.844	199.929	0.088	0.133
-373.829	421.647	-0.031	-0.066
-372.815	-67.433	0.207	0.080
-371.800	800.000	0.038	-0.113
-370.785	93.982	0.050	0.056
-369.771	-6.746	0.187	0.125
-368.756	-200.000	-0.049	-0.323
-367.742	-25.817	-0.118	0.069
-366.727	229.783	-0.203	0.328
-365.712	75.484	-0.139	-0.145
-364.698	104.993	0.202	0.236
-363.683	160.994	0.136	0.187
-362.669	-165.028	-0.308	-0.014
-361.654	800.000	-0.082	0.271
-360.639	386.472	0.020	0.041
-359.625	268.805	0.075	0.130
-358.610	-200.000	0.036	0.265
-357.596	1.676	-0.118	-0.084
-356.581	47.409	-0.095	-0.087
-355.566	-169.208	0.385	0.014
-354.552	295.460	0.049	0.089
-353.537	-59.138	0.187	0.080
-352.523	34.879	0.131	0.113
-351.508	261.667	-0.102	0.175
-350.493	-45.303	-0.397	0.195
-349.479	-27.046	-0.496	0.286
-348.464	-33.955	0.067	0.036
-347.450	-200.000	0.026	-0.127
-346.435	-68.505	0.195	0.075
-345.420	-200.000	0.039	0.240
-344.406	-133.072	0.045	0.006
-343.391	68.826	-0.166	-0.169
-342.377	455.542	-0.112	-0.245
-341.362	3.969	0.109	-0.079
-340.348	800.000	-0.052	-0.208
-339.333	286.331	0.058	-0.103
-338.318	-94.897	0.338	0.090
-337.304	-133.938	0.065	-0.008
-336.289	-59.250	0.198	0.084
-335.275	219.225	-0.224	0.354
-334.260	-54.475	0.157	0.070
-333.245	223.667	0.216	-0.344
-332.231	60.129	-0.038	0.037
-331.216	368.855	0.128	-0.255
-330.202	-200.000	0.027	0.178
-329.187	800.000	0.045	-0.160
-328.172	-200.000	-0.002	-0.294
-327.158	800.000	-0.084	0.238
-326.143	-12.894	-0.288	0.185
-325.129	-200.000	0.007	-0.253
-324.114	-32.921	-0.089	0.049
-323.099	93.725	-0.270	0.301
-322.085	7.758	0.344	-0.255
-321.070	-200.000	0.031	-0.273
-320.056	87.331	0.157	0.171
-319.041	800.000	0.094	-0.311
-318.026	-200.000	-0.018	-0.364
-317.012	-57.454	0.318	-0.138
-315.997	-66.160	0.047	-0.018
-314.983	22.422	-0.145	0.117
-313.968	-200.000	-0.006	-0.302
-312.953	-74.328	0.076	0.027
-311.939	319.151	0.224	-0.418
-310.924	319.551	0.063	-0.118
-309.910	-137.576	0.061	0.007
-308.895	800.000	0.048	0.136
-307.880	-23.967	0.167	0.098
-306.866	-200.000	0.008	0.048
-305.851	67.044	0.247	-0.248
-304.837	-135.538	0.238	0.028
-303.822	-200.000	0.006	-0.243
-302.807	336.619	-0.058	-0.111
-301.793	406.806	0.304	-0.633
-300.778	-15.512	0.109	0.069
-299.764	-83.976	-0.339	0.106
-298.749	597.072	0.096	-0.234
-297.735	249.041	-0.131	0.219
-296.720	-84.412	0.223	0.069
-295.705	-145.105	0.030	-0.003
-294.691	188.146	0.070	-0.104
-293.676	197.828	0.041	-0.062
-292.662	-200.000	-0.043	0.497
-291.647	100.321	0.173	0.198
-290.632	-118.071	-0.215	-0.038
-289.618	-200.000	0.001	0.218
-288.603	-81.137	-0.258	0.084
-287.589	5.295	-0.074	-0.054
-286.574	244.147	-0.037	-0.061
-285.559	-34.600	0.093	-0.050
-284.545	800.000	0.134	0.418
-283.530	-26.159	-0.182	0.105
-282.516	380.927	-0.147	0.297
-281.501	113.371	-0.042	0.051
-280.486	267.522	-0.091	0.157
-279.472	-121.395	0.199	0.033
-278.457	120.594	-0.120	-0.147
-277.443	800.000	0.042	-0.130
-276.428	-200.000	-0.008	0.124
-275.413	-51.251	-0.280	-0.129
-274.399	-64.793	0.191	-0.076
-273.384	-161.591	0.277	-0.014
-272.370	17.781	0.163	0.128
-271.355	-106.806	-0.046	-0.010
-270.340	-70.585	0.381	0.142
-269.326	-68.735	0.270	-0.103
-268.311	800.000	-0.104	-0.351
-267.297	-156.964	-0.126	-0.008
-266.282	106.966	0.020	-0.024
-265.267	-185.066	0.137	-0.002
-264.253	-139.276	0.297	0.031
-263.238	102.184	0.287	-0.330
-262.224	137.899	-0.248	-0.320
-261.209	234.447	0.014	-0.023
-260.195	-182.163	-0.120	-0.002
-259.180	264.354	-0.059	0.100
-258.165	-200.000	-0.068	-0.296
-257.151	-27.163	0.053	0.030
-256.136	111.827	0.046	0.054
-255.122	29.825	0.185	0.155
-254.107	-148.446	-0.235	0.019
-253.092	-135.841	0.044	-0.005
-252.078	800.000	0.051	0.211
-251.063	800.000	0.085	0.329
-250.049	-117.210	0.115	-0.021
-249.034	-96.319	0.084	-0.022
-248.019	-200.000	-0.057	-0.363
-247.005	-192.409	0.422	-0.004
-245.990	-7.369	0.129	0.086
-244.976	-109.801	-0.371	-0.077
-243.961	93.430	0.333	-0.371
-242.946	-15.292	-0.278	0.175
-241.932	-200.000	0.042	0.264
-240.917	-157.276	0.123	-0.007
-239.903	800.000	-0.060	0.248
-238.888	-156.587	0.157	0.010
-237.873	458.803	-0.074	0.162
-236.859	-101.093	-0.152	0.037
-235.844	-171.402	0.217	0.007
-234.830	-125.694	0.217	0.032
-233.815	-18.420	-0.152	-0.094
-232.800	-200.000	0.010	0.278
-231.786	800.000	0.117	-0.469
-230.771	-200.000	0.018	-0.145
-229.757	58.030	0.039	-0.038
-228.742	767.204	-0.072	0.193
-227.727	28.124	-0.237	0.197
-226.713	-34.020	0.155	-0.084
-225.698	376.727	-0.072	-0.145
-224.684	-91.716	0.138	0.039
-223.669	148.591	0.209	0.278
-222.655	98.908	0.191	-0.217
-221.640	-109.213	0.106	0.022
-220.625	-127.339	-0.302	0.043
-219.611	463.839	0.101	-0.223
-218.596	-200.000	0.005	-0.038
-217.582	129.589	-0.238	-0.300
-216.567	-200.000	-0.028	0.284
-215.552	29.936	0.260	0.218
-214.538	418.324	0.075	-0.158
-213.523	202.980	-0.094	0.142
-212.509	-200.000	0.075	0.335
-211.494	-79.344	-0.170	-0.057
-210.479	-87.940	0.330	0.097
-209.465	40.808	0.141	0.125
-208.450	-95.705	0.256	0.067
-207.436	-104.505	0.169	-0.038
-206.421	-148.730	-0.276	-0.022
-205.406	-156.358	-0.183	-0.011
-204.392	800.000	-0.126	0.408
-203.377	148.635	0.219	-0.291
-202.363	57.037	0.219	-0.210
-201.348	-44.955	0.142	0.070
-200.333	589.627	0.096	0.232
-199.319	-62.771	-0.111	-0.045
-198.304	27.774	-0.197	0.163
-197.290	13.909	-0.327	0.250
-196.275	137.807	0.116	0.149
-195.260	-5.624	-0.177	0.119
-194.246	-200.000	-0.080	0.000
-193.231	-56.548	0.343	0.149
-192.217	800.000	0.119	-0.401
-191.202	-106.303	0.099	0.022
-190.187	141.716	-0.101	0.131
-189.173	-94.478	0.380	-0.102
-188.158	800.000	0.018	-0.073
-187.144	800.000	-0.012	0.046
-186.129	242.462	0.217	0.356
-185.114	-113.182	-0.086	-0.017
-184.100	93.904	0.183	-0.204
-183.085	148.199	-0.206	-0.273
-182.071	365.512	-0.099	0.196
-181.056	-90.209	-0.242	0.069
-180.042	-200.000	-0.005	-0.135
-179.027	-105.247	0.309	0.069
-178.012	541.629	0.127	-0.297
-176.998	-55.109	-0.098	-0.043
-175.983	-40.550	-0.311	-0.158
-174.969	-133.955	-0.073	0.009
-173.954	-54.559	0.285	0.126
-172.939	-125.660	0.103	-0.015
-171.925	443.288	-0.198	-0.425
-170.910	156.688	0.118	0.160
-169.896	265.875	-0.093	0.160
-168.881	-22.792	0.277	0.164
-167.866	108.776	-0.086	-0.100
-166.852	-37.243	0.107	0.056
-165.837	-11.663	-0.064	-0.041
-164.823	-8.246	-0.103	0.068
-163.808	-200.000	-0.018	0.090
-162.793	188.616	0.157	-0.230
-161.779	179.524	0.077	0.111
-160.764	-164.795	0.323	0.014
-159.750	111.012	0.138	0.163
-158.735	379.151	-0.049	-0.099
-157.720	-80.134	-0.091	0.030
-156.706	800.000	-0.042	-0.152
-155.691	-200.000	-0.008	-0.102
-154.677	297.387	0.113	0.204
-153.662	-89.810	0.153	-0.044
-152.647	309.897	-0.114	-0.209
-151.633	-200.000	0.004	0.090
-150.618	411.638	0.096	0.200
-149.604	-200.000	0.015	-0.199
-148.589	18.701	-0.241	-0.189
-147.574	-115.386	0.180	-0.033
-146.560	-200.000	-0.010	-0.184
-145.545	800.000	0.071	-0.226
-144.531	183.157	0.041	-0.060
-143.516	800.000	-0.048	0.145
-142.502	800.000	0.058	0.193
-141.487	-200.000	0.001	-0.048
-140.472	317.851	-0.069	-0.127
-139.458	800.000	0.022	-0.075
-138.443	79.735	-0.122	0.128
-137.429	-178.633	0.347	0.008
-136.414	46.580	-0.128	-0.116
-135.399	201.149	-0.045	-0.068
-134.385	312.876	0.147	-0.270
-133.370	512.384	-0.135	-0.308
-132.356	215.812	-0.035	-0.055
-131.341	-198.846	-0.200	-0.001
-130.326	-200.000	-0.013	-0.415
-129.312	125.919	0.196	0.243
-128.297	48.906	-0.043	0.039
-127.283	-200.000	-0.015	-0.409
-126.268	-200.000	-0.043	0.561
-125.253	-200.000	0.003	0.013
-124.239	-183.877	-0.233	0.004
-123.224	-104.286	0.105	-0.024
-122.210	-26.000	0.197	0.113
