DTS Sentinel unit serial number:	SN413079Multiplexer serial number:	ORYXHardware model number:	OX4-SRSoftware version number:	ORYX F/W v4.00 Oryx Data Collector v3.7.2.0data status	okinstallation	princeton_trtdifferential loss correction	single-endedforward channel	channel 3reverse channel	N/Adate	2019/09/12time	18:52:04forward acquisition time	15.00reverse acquisition time	0.00gamma	496.2192k internal	0.2318k external	0.2318temperature offset calibration	1.0097default loss term (dB/km)	0.3790temperature slope calibration	1.0000multiplexer offset coefficient	1.0000multiplexer slope coefficient	1.0000fibre end	0.00T internal ref (°C)	32.87T ext. ref 1 (°C)	3.00T ext. ref 2 (°C)	27.44length (m)	temperature (°C)	Stokes	anti-Stokes-747.200	-200.000	-0.207	-0.957
-746.185	414.981	-0.368	0.794
-745.171	11.273	0.150	-0.116
-744.156	800.000	0.278	0.848
-743.142	-98.253	0.307	0.080
-742.127	-200.000	-0.002	1.168
-741.112	61.439	0.329	0.331
-740.098	18.028	-0.467	-0.376
-739.083	24.475	-0.407	-0.340
-738.069	800.000	-0.038	0.138
-737.054	2.520	0.436	-0.319
-736.039	48.121	-0.457	0.433
-735.025	255.149	0.212	0.367
-734.010	72.160	0.296	0.312
-732.996	-37.920	0.191	-0.103
-731.981	-200.000	-0.082	-0.712
-730.966	-94.646	0.214	0.059
-729.952	225.807	-0.227	0.372
-728.937	-35.371	-0.449	-0.247
-727.923	53.335	-0.464	0.450
-726.908	-175.327	0.496	0.014
-725.894	-80.229	-0.599	0.203
-724.879	24.147	-0.619	0.517
-723.864	-80.442	-0.036	0.012
-722.850	-32.250	-0.102	-0.058
-721.835	222.345	-0.555	-0.902
-720.821	-8.752	-0.386	-0.262
-719.806	-172.485	-0.242	-0.008
-718.791	-200.000	0.075	-0.553
-717.777	162.230	-0.368	-0.522
-716.762	-14.728	0.519	-0.337
-715.748	-80.378	1.240	0.419
-714.733	-200.000	-0.019	0.456
-713.718	-106.536	-0.187	0.042
-712.704	-200.000	0.096	0.605
-711.689	187.587	0.264	0.398
-710.675	-92.076	-0.354	-0.101
-709.660	800.000	-0.189	-0.541
-708.645	158.051	-0.214	-0.299
-707.631	-41.386	-0.102	0.053
-706.616	800.000	-0.185	0.797
-705.602	206.304	0.478	0.752
-704.587	48.564	-0.919	0.870
-703.572	73.678	-0.099	-0.105
-702.558	88.546	-0.504	-0.566
-701.543	800.000	0.034	0.143
-700.529	800.000	0.115	-0.338
-699.514	769.674	0.451	-1.241
-698.499	-90.955	0.644	0.187
-697.485	9.290	0.506	0.386
-696.470	146.427	-0.184	-0.250
-695.456	565.307	-0.174	0.426
-694.441	-106.712	0.345	0.078
-693.426	-75.140	1.252	-0.452
-692.412	-96.588	-0.816	0.217
-691.397	-56.566	-0.506	-0.226
-690.383	-200.000	0.003	0.167
-689.368	-81.245	-0.481	-0.160
-688.354	-15.735	-0.542	0.349
-687.339	236.330	0.469	0.783
-686.324	800.000	-0.214	0.776
-685.310	-181.020	-1.123	0.023
-684.295	178.393	-0.660	0.972
-683.281	176.619	0.171	0.250
-682.266	51.099	0.361	-0.346
-681.251	97.561	-0.406	-0.471
-680.237	-38.530	0.661	0.353
-679.222	800.000	-0.012	-0.040
-678.208	267.878	0.561	-0.992
-677.193	-134.919	-0.419	0.051
-676.178	800.000	-0.112	0.345
-675.164	2.173	-0.593	0.433
-674.149	-112.507	-0.571	0.115
-673.135	800.000	0.145	-0.489
-672.120	-103.736	0.464	-0.110
-671.105	223.214	0.370	-0.602
-670.091	800.000	0.246	-0.713
-669.076	-69.477	-0.319	0.123
-668.062	-200.000	-0.063	-0.493
-667.047	-56.502	0.079	-0.035
-666.032	-89.406	-0.670	0.199
-665.018	252.533	0.150	0.258
-664.003	-116.709	-0.836	-0.155
-662.989	-80.879	0.188	0.063
-661.974	61.514	-0.131	0.131
-660.959	-106.342	-0.708	-0.160
-659.945	112.750	0.113	0.138
-658.930	71.761	-0.310	-0.326
-657.916	-35.730	0.364	0.199
-656.901	-200.000	0.043	-0.656
-655.886	-187.147	0.390	-0.005
-654.872	545.265	0.162	-0.390
-653.857	45.531	-0.501	0.467
-652.843	130.763	-0.247	0.319
-651.828	-156.876	-0.415	0.026
-650.814	-120.819	-0.631	0.107
-649.799	-81.068	0.553	0.185
-648.784	800.000	0.263	0.855
-647.770	-6.111	0.197	0.136
-646.755	800.000	-0.108	0.302
-645.741	-200.000	0.080	0.431
-644.726	400.044	0.252	-0.533
-643.711	151.049	0.213	-0.292
-642.697	20.645	0.343	-0.280
-641.682	-134.580	0.182	-0.022
-640.668	329.921	-0.192	0.373
-639.653	-200.000	-0.106	-0.653
-638.638	-200.000	-0.025	-0.278
-637.624	-145.899	-0.781	-0.070
-636.609	151.953	-0.043	-0.059
-635.595	80.850	-0.561	0.610
-634.580	9.320	0.233	-0.177
-633.565	18.646	-0.093	-0.075
-632.551	137.929	0.353	-0.466
-631.536	307.983	-0.573	-1.077
-630.522	800.000	0.193	0.634
-629.507	213.406	-0.017	0.026
-628.492	535.017	-0.151	-0.361
-627.478	-200.000	0.001	0.086
-626.463	800.000	0.060	-0.191
-625.449	-106.686	-0.759	0.170
-624.434	-161.046	0.857	-0.045
-623.419	204.613	0.203	0.317
-622.405	26.099	0.587	-0.493
-621.390	49.985	-0.396	-0.376
-620.376	800.000	-0.047	0.183
-619.361	125.748	-0.257	-0.327
-618.346	196.358	0.296	-0.454
-617.332	-200.000	-0.154	-0.850
-616.317	800.000	0.044	-0.158
-615.303	517.278	-0.069	0.163
-614.288	-58.988	0.671	-0.292
-613.273	-200.000	0.049	0.398
-612.259	-200.000	-0.102	-0.643
-611.244	103.819	-0.381	0.450
-610.230	800.000	0.159	-0.448
-609.215	31.751	0.507	-0.440
-608.201	-169.141	0.612	0.023
-607.186	-200.000	0.103	0.478
-606.171	576.720	0.216	-0.531
-605.157	205.189	-0.151	-0.236
-604.142	-145.278	-0.525	0.048
-603.128	-26.867	0.448	0.263
-602.113	-96.080	-0.915	-0.245
-601.098	-22.786	-0.683	0.415
-600.084	94.359	0.718	-0.820
-599.069	-200.000	0.159	0.768
-598.055	-139.055	0.318	0.035
-597.040	-5.651	-0.416	-0.287
-596.025	183.292	0.342	0.508
-595.011	98.060	0.023	0.027
-593.996	-131.106	-0.112	0.015
-592.982	-200.000	-0.030	-0.502
-591.967	613.294	-0.252	-0.636
-590.952	-84.983	-0.649	0.205
-589.938	31.271	-0.320	-0.277
-588.923	45.111	-0.480	0.445
-587.909	54.180	-0.459	0.445
-586.894	357.996	-0.103	-0.207
-585.879	-77.202	0.595	0.209
-584.865	23.522	-0.409	0.338
-583.850	800.000	-0.116	-0.388
-582.836	16.916	-0.181	0.144
-581.821	-200.000	-0.050	0.506
-580.806	800.000	0.272	-0.904
-579.792	118.182	-0.267	-0.331
-578.777	23.820	0.240	-0.198
-577.763	-63.414	-0.621	0.257
-576.748	-132.165	0.449	0.059
-575.733	-200.000	0.002	1.051
-574.719	-200.000	-0.150	-0.785
-573.704	800.000	0.142	-0.553
-572.690	-192.161	-0.771	0.007
-571.675	447.258	0.411	0.908
-570.661	-200.000	0.081	0.453
-569.646	-193.699	0.476	-0.004
-568.631	-200.000	0.082	-0.402
-567.617	19.473	0.990	-0.800
-566.602	82.293	0.212	-0.231
-565.588	152.197	-0.144	-0.197
-564.573	419.014	0.344	0.739
-563.558	-200.000	-0.072	0.683
-562.544	-200.000	0.020	-1.421
-561.529	-95.632	-1.193	-0.321
-560.515	228.256	-0.291	0.476
-559.500	-19.136	-0.405	0.253
-558.485	800.000	-0.130	-0.508
-557.471	-200.000	-0.091	0.867
-556.456	-12.761	0.363	-0.237
-555.442	-14.601	0.467	-0.301
-554.427	286.989	-0.221	-0.402
-553.412	362.797	-0.163	-0.328
-552.398	-104.038	-0.426	-0.100
-551.383	-130.407	-0.559	0.076
-550.369	80.306	0.346	-0.374
-549.354	-31.676	0.703	0.396
-548.339	-45.232	-0.350	0.175
-547.325	-2.132	0.122	0.086
-546.310	-131.610	-0.536	-0.071
-545.296	333.186	0.077	-0.149
-544.281	608.172	0.313	-0.784
-543.266	800.000	-0.202	0.848
-542.252	330.744	-0.278	-0.537
-541.237	308.416	0.169	-0.316
-540.223	105.555	0.365	-0.433
-539.208	-190.382	0.300	-0.003
-538.193	800.000	-0.118	-0.452
-537.179	-140.804	-1.109	0.115
-536.164	-65.431	0.729	-0.294
-535.150	-41.313	-0.305	-0.158
-534.135	800.000	0.212	0.813
-533.121	407.370	-0.218	-0.462
-532.106	-7.431	-0.213	0.145
-531.091	-157.593	0.235	-0.014
-530.077	-190.544	-0.654	0.007
-529.062	-2.892	0.137	-0.096
-528.048	-74.472	0.593	0.214
-527.033	800.000	0.030	-0.092
-526.018	130.309	0.440	-0.566
-525.004	-176.761	-0.412	-0.011
-523.989	-7.955	-0.707	0.478
-522.975	29.771	0.237	0.203
-521.960	800.000	-0.173	0.571
-520.945	59.839	0.387	0.384
-519.931	192.441	-0.292	-0.443
-518.916	-68.683	0.958	0.372
-517.902	51.093	0.182	0.173
-516.887	-64.139	0.305	-0.125
-515.872	-126.323	-0.670	0.100
-514.858	-131.551	-0.141	0.019
-513.843	-158.233	-0.499	-0.029
-512.829	-69.741	-0.138	0.053
-511.814	198.660	0.183	0.281
-510.799	-200.000	0.049	0.404
-509.785	-200.000	0.012	0.378
-508.770	47.592	0.248	-0.232
-507.756	-135.818	0.603	-0.071
-506.741	259.208	0.179	0.310
-505.726	98.209	0.435	0.502
-504.712	-12.617	0.491	-0.321
-503.697	-31.575	-0.065	-0.037
-502.683	-200.000	0.120	-1.202
-501.668	96.652	0.511	-0.586
-500.653	-104.987	-0.454	-0.104
-499.639	800.000	-0.149	0.502
-498.624	-98.401	-0.576	0.148
-497.610	114.773	0.563	-0.688
-496.595	-200.000	-0.003	0.694
-495.581	12.939	0.967	0.749
-494.566	-200.000	0.055	0.323
-493.551	157.214	0.503	0.698
-492.537	-156.226	-0.801	0.050
-491.522	-117.706	0.582	0.105
-490.508	616.155	-0.398	-1.001
-489.493	314.413	-0.099	-0.187
-488.478	-94.121	0.311	0.085
-487.464	-133.518	0.662	0.083
-486.449	128.400	0.220	0.281
-485.435	-89.654	-0.723	-0.212
-484.420	691.239	0.312	0.818
-483.405	-107.052	0.822	0.182
-482.391	-33.439	-0.391	0.216
-481.376	538.061	-0.121	0.288
-480.362	-42.940	0.758	-0.385
-479.347	-200.000	0.012	-0.774
-478.332	177.184	0.438	-0.639
-477.318	159.797	0.213	-0.298
-476.303	-200.000	-0.059	-0.465
-475.289	-15.959	-0.382	0.243
-474.274	-158.395	-0.874	-0.051
-473.259	-34.372	-0.502	-0.276
-472.245	41.472	-0.192	0.174
-471.230	-123.809	0.309	0.049
-470.216	8.601	0.451	-0.340
-469.201	-1.650	0.708	0.500
-468.186	156.414	0.202	0.279
-467.172	-40.918	0.648	0.336
-466.157	-200.000	0.015	-0.482
-465.143	128.768	-0.129	0.165
-464.128	188.244	0.553	0.828
-463.113	-140.788	-0.464	0.048
-462.099	555.608	0.182	0.439
-461.084	-200.000	-0.016	0.216
-460.070	-146.549	-0.357	0.031
-459.055	-140.685	0.444	0.046
-458.040	143.264	0.690	0.919
-457.026	800.000	0.062	-0.240
-456.011	800.000	-0.080	0.334
-454.997	-5.048	-0.461	-0.318
-453.982	-140.474	0.708	-0.074
-452.968	-47.288	-0.320	0.156
-451.953	353.838	0.417	0.829
-450.938	-28.798	-0.564	0.324
-449.924	-47.983	-0.184	-0.089
-448.909	68.316	0.604	-0.619
-447.895	-17.379	0.620	-0.390
-446.880	-157.926	-0.713	0.042
-445.865	150.360	-0.262	0.356
-444.851	60.762	0.701	-0.696
-443.836	-129.810	-0.451	-0.062
-442.822	26.032	0.462	0.386
-441.807	313.793	0.407	-0.765
-440.792	-140.996	-0.513	0.053
-439.778	193.153	-0.439	0.664
-438.763	-29.129	0.716	-0.410
-437.749	6.775	0.283	0.211
-436.734	-45.445	0.142	0.070
-435.719	-54.471	0.241	-0.109
-434.705	-51.288	0.877	0.411
-433.690	-107.025	-0.803	0.177
-432.676	-200.000	0.010	-0.138
-431.661	-137.521	0.572	0.065
-430.646	-200.000	0.055	-0.441
-429.632	251.806	-0.155	0.264
-428.617	148.900	-0.400	-0.541
-427.603	-101.194	-0.907	-0.222
-426.588	-117.088	0.556	-0.101
-425.573	-7.160	-0.388	-0.263
-424.559	-200.000	-0.142	0.856
-423.544	100.705	0.105	0.122
-422.530	-200.000	-0.059	-0.269
-421.515	331.248	-0.477	-0.920
-420.500	532.362	0.251	-0.594
-419.486	800.000	0.198	-0.763
-418.471	24.070	-0.841	-0.694
-417.457	0.387	-0.781	0.557
-416.442	-83.657	0.743	-0.237
-415.428	55.902	0.237	0.230
-414.413	-200.000	0.084	0.429
-413.398	-200.000	-0.049	0.464
-412.384	-118.470	-0.348	-0.062
-411.369	394.629	-0.211	0.438
-410.355	-200.000	-0.025	0.868
-409.340	-85.475	-0.393	0.122
-408.325	-89.379	-0.479	-0.141
-407.311	-102.495	-0.941	-0.225
-406.296	-49.237	-0.332	0.158
-405.282	800.000	0.260	0.756
-404.267	-81.264	0.170	-0.056
-403.252	-200.000	-0.005	-0.556
-402.238	-118.510	-0.366	0.065
-401.223	139.548	-0.430	-0.565
-400.209	-145.725	-0.669	-0.060
-399.194	-6.012	0.100	-0.069
-398.179	235.742	0.307	0.507
-397.165	-35.204	-0.350	0.190
-396.150	-200.000	0.069	0.688
-395.136	-195.522	0.267	-0.002
-394.121	-97.026	0.526	0.138
-393.106	-120.800	-0.564	0.095
-392.092	-60.734	-0.651	-0.276
-391.077	387.733	0.443	0.915
-390.063	43.488	-0.224	0.204
-389.048	386.566	-0.422	0.869
-388.033	-200.000	-0.004	0.177
-387.019	168.080	-0.141	-0.200
-386.004	98.312	-0.272	-0.313
-384.990	104.909	0.359	0.423
-383.975	246.801	0.300	-0.505
-382.960	131.768	-0.199	-0.255
-381.946	411.389	-0.349	0.738
-380.931	-200.000	0.173	0.779
-379.917	-200.000	0.017	0.226
-378.902	300.422	-0.459	0.844
-377.888	707.610	0.085	-0.225
-376.873	800.000	-0.315	-1.054
-375.858	313.083	0.319	-0.599
-374.844	159.411	-0.253	-0.352
-373.829	397.300	-0.245	-0.511
-372.815	95.781	0.687	-0.783
-371.800	-100.777	0.628	-0.154
-370.785	-72.178	-0.708	-0.262
-369.771	-168.619	-0.325	0.012
-368.756	225.586	0.686	-1.109
-367.742	-85.064	0.807	-0.252
-366.727	442.388	0.064	-0.139
-365.712	-200.000	-0.035	-0.447
-364.698	117.817	0.564	0.693
-363.683	-200.000	-0.051	0.642
-362.669	192.579	0.119	-0.179
-361.654	-55.659	-0.245	0.109
-360.639	116.213	-0.171	-0.209
-359.625	-72.708	-0.206	-0.076
-358.610	205.636	0.184	0.285
-357.596	800.000	0.140	0.387
-356.581	414.727	-0.274	0.582
-355.566	609.581	-0.179	-0.445
-354.552	800.000	0.226	-0.779
-353.537	239.471	-0.117	-0.194
-352.523	-30.338	-0.171	0.097
-351.508	22.742	-0.279	-0.228
-350.493	547.604	-0.250	-0.597
-349.479	-154.685	-0.989	0.066
-348.464	-200.000	-0.109	-1.050
-347.450	386.467	0.274	0.564
-346.435	-91.924	-0.728	0.206
-345.420	-200.000	0.021	0.574
-344.406	60.144	-0.667	0.657
-343.391	-86.857	0.671	-0.204
-342.377	-49.056	-0.389	0.186
-341.362	-10.771	0.408	0.269
-340.348	43.844	0.409	0.373
-339.333	-162.223	0.267	0.013
-338.318	-105.342	0.314	-0.071
-337.304	800.000	-0.047	-0.180
-336.289	-200.000	0.115	-0.564
-335.275	-160.421	-0.559	-0.030
-334.260	49.965	0.539	-0.506
-333.245	-200.000	0.089	0.428
-332.231	-92.380	-0.772	-0.217
-331.216	177.269	-0.177	-0.256
-330.202	41.890	0.825	-0.745
-329.187	-28.908	0.815	0.466
-328.172	220.862	-0.562	0.898
-327.158	-200.000	0.029	0.666
-326.143	646.749	-0.076	0.192
-325.129	-124.498	-0.778	0.120
-324.114	99.967	-0.225	0.259
-323.099	24.371	0.182	-0.149
-322.085	81.283	0.376	0.404
-321.070	-129.128	-0.786	0.109
-320.056	107.677	0.259	0.307
-319.041	-180.413	0.525	0.011
-318.026	266.736	-0.319	-0.555
-317.012	3.780	0.519	-0.377
-315.997	-113.701	-1.045	0.203
-314.983	-179.237	0.807	-0.018
-313.968	-70.035	-0.610	-0.231
-312.953	212.800	0.446	-0.701
-311.939	-86.920	0.823	-0.250
-310.924	72.382	0.184	0.191
-309.910	35.850	0.221	-0.193
-308.895	-200.000	0.006	0.324
-307.880	-200.000	0.087	-0.514
-306.866	-200.000	-0.050	-0.677
-305.851	122.538	-0.245	0.304
-304.837	70.670	-0.500	-0.515
-303.822	800.000	0.044	-0.136
-302.807	-64.385	0.118	0.048
-301.793	-128.850	0.439	0.061
-300.778	-65.741	0.305	-0.122
-299.764	-13.355	-0.356	0.230
-298.749	73.458	-0.428	0.445
-297.735	800.000	-0.146	-0.566
-296.720	-200.000	-0.102	-0.672
-295.705	-16.930	0.749	-0.471
-294.691	-82.322	-1.107	0.358
-293.676	-200.000	-0.060	0.425
-292.662	113.426	-0.275	-0.332
-291.647	112.092	-0.172	-0.207
-290.632	-108.630	0.292	0.062
-289.618	800.000	-0.026	-0.100
-288.603	393.690	-0.189	-0.391
-287.589	-134.416	0.603	-0.073
-286.574	-113.389	0.862	0.168
-285.559	-200.000	0.010	0.088
-284.545	222.398	-0.384	0.615
-283.530	367.872	0.303	0.608
-282.516	82.864	-0.185	0.200
-281.501	122.009	0.298	-0.370
-280.486	800.000	-0.194	0.604
-279.472	21.394	-0.413	-0.334
-278.457	397.178	0.156	-0.324
-277.443	31.154	0.595	-0.508
-276.428	375.472	0.128	0.260
-275.413	53.930	-0.425	0.405
-274.399	800.000	-0.176	0.521
-273.384	800.000	0.174	-0.634
-272.370	800.000	-0.216	0.592
-271.355	-153.638	-0.979	0.067
-270.340	-127.436	0.719	-0.104
-269.326	292.902	-0.219	-0.396
-268.311	333.690	-0.424	-0.815
-267.297	-200.000	-0.061	0.396
-266.282	-159.897	0.533	0.029
-265.267	-6.609	-0.237	0.160
-264.253	186.762	-0.299	0.442
-263.238	49.369	0.213	-0.199
-262.224	140.203	0.107	-0.140
-261.209	21.508	0.620	0.501
-260.195	56.749	0.730	0.706
-259.180	-58.079	-0.141	-0.061
-258.165	-200.000	0.076	-0.448
-257.151	-200.000	0.086	0.523
-256.136	-140.550	-0.971	-0.100
-255.122	33.035	-0.398	-0.343
-254.107	265.516	-0.285	-0.494
-253.092	-200.000	0.013	-0.308
-252.078	-200.000	0.032	0.301
-251.063	-152.775	-0.307	0.022
-250.049	-200.000	-0.084	-0.373
-249.034	59.941	0.422	0.414
-248.019	782.851	0.205	0.556
-247.005	469.570	0.472	1.053
-245.990	-200.000	0.115	-1.097
-244.976	206.885	-0.243	-0.376
-243.961	38.662	0.284	0.251
-242.946	97.178	0.514	0.585
-241.932	-123.628	0.073	0.012
-240.917	193.570	-0.106	0.159
-239.903	-48.165	-0.263	-0.126
-238.888	154.589	0.616	-0.840
-237.873	302.996	0.110	-0.203
-236.859	-81.924	-0.903	-0.293
-235.844	15.804	0.306	0.239
-234.830	-53.264	-0.236	-0.107
-233.815	800.000	0.200	0.563
-232.800	-93.074	0.414	0.114
-231.786	136.739	0.354	-0.458
-230.771	560.913	0.100	0.239
-229.757	-16.609	-0.264	0.166
-228.742	-60.412	-0.438	0.185
-227.727	149.384	0.394	0.529
-226.713	-200.000	-0.018	0.250
-225.698	-200.000	0.155	-0.882
-224.684	116.922	-0.110	0.134
-223.669	-37.493	-0.587	-0.310
-222.655	180.655	0.248	-0.362
-221.640	195.150	-0.130	0.195
-220.625	74.091	0.788	0.820
-219.611	185.746	-0.395	0.582
-218.596	-122.605	-0.834	-0.134
-217.582	9.402	0.754	0.566
-216.567	-10.996	-0.689	0.451
-215.552	-200.000	0.033	-0.267
-214.538	113.628	0.268	0.323
-213.523	-5.695	0.118	0.080
-212.509	-200.000	-0.203	-1.124
-211.494	-27.272	1.008	0.582
-210.479	-82.120	-1.313	-0.425
-209.465	204.408	0.471	-0.723
-208.450	-68.973	-0.371	0.142
-207.436	126.857	0.151	-0.189
-206.421	800.000	0.146	0.443
-205.406	-31.860	0.856	0.476
-204.392	-159.165	0.390	-0.022
-203.377	800.000	-0.031	0.126
-202.363	127.566	0.529	-0.666
-201.348	-200.000	0.012	-0.102
-200.333	140.736	0.082	0.107
-199.319	131.855	-0.422	-0.538
-198.304	-200.000	-0.108	1.067
-197.290	423.495	-0.312	-0.663
-196.275	-82.529	0.439	-0.141
-195.260	-79.157	0.347	-0.117
-194.246	-36.187	-0.212	0.113
-193.231	79.584	0.354	0.377
-192.217	-35.873	0.248	-0.133
-191.202	-200.000	-0.068	0.357
-190.187	-144.311	1.100	0.101
-189.173	-138.708	-0.053	-0.006
-188.158	-67.258	-0.662	-0.258
-187.144	-200.000	0.029	0.198
-186.129	-107.177	-1.003	0.219
-185.114	32.403	-0.362	0.309
-184.100	-85.860	0.562	-0.172
-183.085	-148.605	-0.527	-0.043
-182.071	90.108	-0.737	-0.816
-181.056	-109.391	-0.725	0.152
-180.042	2.229	0.421	0.301
-179.027	44.964	-0.283	-0.258
-178.012	430.379	0.252	0.540
-176.998	-70.645	0.063	0.024
-175.983	268.477	0.447	0.776
-174.969	167.614	-0.283	-0.399
-173.954	-200.000	-0.191	-0.984
-172.939	-43.383	0.203	0.102
-171.925	-64.201	0.847	-0.342
-170.910	-85.012	-0.222	-0.069
-169.896	-134.754	-0.382	-0.046
-168.881	-35.693	-0.353	-0.190
-167.866	12.137	-0.492	0.374
-166.852	800.000	-0.059	-0.179
-165.837	-33.808	-0.537	-0.293
-164.823	800.000	0.236	0.725
-163.808	323.021	0.084	-0.159
-162.793	-118.846	-0.727	-0.126
-161.779	18.379	-0.155	-0.122
-160.764	-200.000	-0.133	0.697
-159.750	293.494	-0.257	0.465
-158.735	-200.000	-0.029	0.161
-157.720	800.000	-0.348	1.080
-156.706	22.484	-0.409	0.331
-155.691	206.532	0.381	-0.586
-154.677	-118.129	0.926	0.163
-153.662	207.571	0.382	0.590
-152.647	800.000	-0.199	0.766
-151.633	84.659	0.309	-0.334
-150.618	-24.402	-0.144	0.085
-149.604	-200.000	-0.075	0.379
-148.589	800.000	-0.056	-0.168
-147.574	199.269	0.251	0.380
-146.560	-200.000	0.045	-1.005
-145.545	505.275	0.082	0.187
-144.531	-200.000	0.076	0.401
-143.516	-132.956	-0.583	0.073
-142.502	-126.403	-0.772	-0.114
-141.487	-200.000	0.015	-0.498
-140.472	22.498	0.603	0.487
-139.458	-48.930	-0.420	-0.199
-138.443	116.237	-0.308	0.373
-137.429	426.464	0.056	0.118
-136.414	-145.352	0.989	0.088
-135.399	-36.888	-0.731	-0.387
-134.385	-135.877	0.717	-0.084
-133.370	-143.817	-0.415	0.039
-132.356	50.455	0.758	0.708
-131.341	800.000	-0.356	1.063
-130.326	-200.000	-0.022	-0.228
-129.312	-200.000	0.182	0.952
-128.297	54.372	-0.185	0.176
-127.283	309.804	0.245	-0.454
-126.268	800.000	0.124	-0.345
-125.253	-88.834	-0.555	-0.163
-124.239	-96.271	0.457	0.120
-123.224	-50.024	0.527	-0.247
-122.210	-200.000	-0.100	-0.570
-121.195	-39.168	-0.119	-0.062
