DTS Sentinel unit serial number:	SN413079Multiplexer serial number:	ORYXHardware model number:	OX4-SRSoftware version number:	ORYX F/W v4.00 Oryx Data Collector v3.7.2.0data status	okinstallation	princeton_trtdifferential loss correction	single-endedforward channel	channel 3reverse channel	N/Adate	2019/09/16time	12:20:34forward acquisition time	60.00reverse acquisition time	0.00gamma	496.2192k internal	0.2296k external	0.2296temperature offset calibration	0.9946default loss term (dB/km)	0.3790temperature slope calibration	1.0000multiplexer offset coefficient	1.0000multiplexer slope coefficient	1.0000fibre end	0.00T internal ref (°C)	39.31T ext. ref 1 (°C)	13.30T ext. ref 2 (°C)	36.68length (m)	temperature (°C)	Stokes	anti-Stokes-747.200	-97.286	-0.069	0.018
-746.185	65.358	0.234	0.242
-745.171	122.671	0.267	-0.342
-744.156	104.566	-0.168	0.203
-743.142	-100.744	0.027	-0.007
-742.127	125.863	0.403	0.520
-741.112	92.754	-0.173	0.199
-740.098	800.000	-0.102	0.345
-739.083	-59.503	0.238	0.104
-738.069	495.188	-0.126	0.296
-737.054	800.000	-0.026	-0.111
-736.039	-200.000	-0.012	0.061
-735.025	-25.987	0.125	0.075
-734.010	64.009	-0.245	0.252
-732.996	3.357	0.247	0.184
-731.981	-200.000	-0.027	0.257
-730.966	14.420	-0.164	-0.130
-729.952	31.273	-0.201	0.176
-728.937	437.808	0.089	0.198
-727.923	-14.885	-0.368	-0.241
-726.908	667.619	-0.063	-0.166
-725.894	87.785	-0.112	-0.127
-724.879	17.737	0.081	-0.066
-723.864	35.119	0.172	-0.154
-722.850	156.282	-0.072	0.101
-721.835	800.000	-0.091	-0.332
-720.821	454.659	0.180	-0.407
-719.806	-37.709	0.105	-0.057
-718.791	359.922	-0.059	-0.120
-717.777	-200.000	-0.005	-0.046
-716.762	80.265	-0.102	0.112
-715.748	-200.000	0.016	-0.161
-714.733	193.552	-0.023	0.035
-713.718	662.290	-0.124	0.326
-712.704	296.080	0.039	-0.072
-711.689	346.049	0.200	-0.402
-710.675	-166.377	0.142	-0.006
-709.660	114.596	-0.135	0.168
-708.645	-200.000	-0.020	-0.163
-707.631	747.172	-0.091	0.250
-706.616	-11.103	-0.141	-0.095
-705.602	-82.895	0.020	-0.007
-704.587	-135.484	-0.216	-0.026
-703.572	52.061	0.041	0.040
-702.558	-150.972	0.137	-0.011
-701.543	-110.992	-0.065	0.014
-700.529	-200.000	-0.043	0.482
-699.514	-166.733	-0.064	0.003
-698.499	711.307	0.062	-0.167
-697.485	-84.985	0.074	0.024
-696.470	569.683	-0.108	0.269
-695.456	16.670	-0.189	0.153
-694.441	-49.408	0.164	0.080
-693.426	-200.000	0.053	0.301
-692.412	-23.693	-0.061	-0.037
-691.397	-200.000	-0.015	-0.317
-690.383	-200.000	-0.017	0.266
-689.368	392.488	-0.058	0.123
-688.354	800.000	-0.056	-0.211
-687.339	-200.000	-0.065	-0.341
-686.324	-129.138	-0.228	0.032
-685.310	-200.000	0.002	0.026
-684.295	-99.255	-0.103	0.026
-683.281	225.936	0.130	-0.214
-682.266	103.132	0.203	0.243
-681.251	48.632	0.109	0.104
-680.237	139.350	-0.103	0.138
-679.222	-26.461	-0.228	0.137
-678.208	-134.007	-0.174	0.022
-677.193	-58.569	0.275	0.122
-676.178	-100.538	-0.022	-0.006
-675.164	362.422	-0.103	-0.211
-674.149	83.329	-0.135	0.150
-673.135	-57.358	-0.123	0.055
-672.120	-88.078	0.300	0.092
-671.105	-20.694	-0.242	0.151
-670.091	-173.548	-0.135	0.004
-669.076	-51.729	-0.155	0.073
-668.062	73.336	0.117	0.124
-667.047	800.000	0.091	-0.314
-666.032	-73.506	0.203	0.076
-665.018	-19.485	-0.280	-0.177
-664.003	-6.454	0.216	-0.150
-662.989	-200.000	0.005	-0.169
-661.974	-200.000	0.028	-0.441
-660.959	117.884	-0.142	-0.178
-659.945	-60.953	0.264	0.114
-658.930	-146.290	-0.105	0.009
-657.916	46.299	0.145	-0.137
-656.901	800.000	-0.079	0.340
-655.886	-75.120	-0.255	0.093
-654.872	-200.000	0.019	-0.168
-653.857	-82.803	-0.307	0.101
-652.843	-156.064	-0.134	0.009
-651.828	119.478	0.327	0.412
-650.814	250.200	-0.108	-0.186
-649.799	-145.547	-0.138	0.013
-648.784	-200.000	0.053	-0.298
-647.770	-127.040	-0.156	-0.023
-646.755	-139.361	-0.301	-0.033
-645.741	-90.743	-0.155	-0.045
-644.726	800.000	0.026	0.094
-643.711	-60.342	0.076	-0.033
-642.697	800.000	0.113	-0.366
-641.682	94.596	0.086	0.100
-640.668	-45.751	-0.159	-0.080
-639.653	161.393	0.248	-0.353
-638.638	25.982	-0.061	0.052
-637.624	-200.000	0.064	0.291
-636.609	-120.065	-0.338	0.059
-635.595	-31.281	-0.210	-0.120
-634.580	-145.667	0.330	0.030
-633.565	-94.844	-0.072	0.020
-632.551	-142.371	-0.110	0.011
-631.536	60.238	0.073	-0.074
-630.522	-179.146	0.106	0.002
-629.507	136.676	-0.061	0.082
-628.492	1.474	0.190	-0.139
-627.478	71.268	0.215	-0.227
-626.463	168.204	-0.061	-0.088
-625.449	25.768	0.183	0.155
-624.434	-200.000	-0.010	-0.192
-623.419	-162.095	-0.142	-0.007
-622.405	-103.114	-0.089	0.021
-621.390	76.724	0.227	0.245
-620.376	322.283	-0.105	0.203
-619.361	-200.000	0.051	-0.313
-618.346	-76.689	0.321	0.114
-617.332	90.096	0.045	-0.051
-616.317	40.746	0.124	0.114
-615.303	800.000	0.046	-0.140
-614.288	-200.000	-0.001	0.035
-613.273	-68.843	0.114	0.045
-612.259	-138.526	-0.170	0.019
-611.244	491.068	-0.072	-0.167
-610.230	-200.000	-0.044	0.223
-609.215	-174.476	0.372	-0.011
-608.201	-200.000	-0.028	-0.172
-607.186	-59.110	0.301	-0.132
-606.171	6.909	-0.072	-0.054
-605.157	800.000	0.127	-0.361
-604.142	-200.000	-0.028	-0.273
-603.128	127.140	-0.201	-0.259
-602.113	-156.868	0.155	0.010
-601.098	-48.022	-0.093	-0.046
-600.084	429.601	-0.044	0.096
-599.069	-77.617	-0.181	-0.064
-598.055	112.329	-0.278	0.342
-597.040	-19.762	-0.385	0.242
-596.025	580.222	0.081	-0.201
-595.011	-98.330	-0.402	0.105
-593.996	-109.895	0.369	0.079
-592.982	66.381	-0.064	0.066
-591.967	606.094	-0.076	-0.193
-590.952	-104.781	0.025	0.006
-589.938	-200.000	-0.030	-0.203
-588.923	-163.008	0.359	-0.018
-587.909	83.477	0.099	0.110
-586.894	800.000	0.047	-0.134
-585.879	-46.507	0.193	-0.096
-584.865	-70.619	0.184	0.070
-583.850	-78.445	-0.043	0.015
-582.836	-8.439	-0.104	0.071
-581.821	176.048	0.044	-0.065
-580.806	800.000	0.080	0.237
-579.792	-13.945	-0.195	0.128
-578.777	-171.987	-0.382	0.013
-577.763	166.378	0.103	0.148
-576.748	800.000	0.045	-0.196
-575.733	68.277	0.141	-0.146
-574.719	-200.000	0.018	0.161
-573.704	95.546	-0.095	-0.110
-572.690	-98.341	0.355	0.092
-571.675	-78.046	-0.089	-0.031
-570.661	-125.060	0.321	-0.050
-569.646	126.386	0.077	0.099
-568.631	-200.000	0.009	0.040
-567.617	-200.000	-0.047	0.342
-566.602	-200.000	0.041	-0.328
-565.588	-97.543	0.129	-0.034
-564.573	-30.687	-0.205	-0.118
-563.558	549.410	0.021	-0.051
-562.544	272.083	-0.128	0.230
-561.529	-173.716	-0.192	0.006
-560.515	-81.838	-0.039	-0.013
-559.500	368.836	0.093	-0.192
-558.485	800.000	-0.076	-0.217
-557.471	67.153	0.190	-0.197
-556.456	800.000	-0.088	-0.369
-555.442	-42.693	0.215	0.111
-554.427	-88.363	0.042	-0.013
-553.412	-200.000	0.031	-0.140
-552.398	800.000	-0.041	-0.173
-551.383	-115.794	0.020	0.004
-550.369	-80.768	0.277	-0.093
-549.354	23.448	-0.129	-0.108
-548.339	85.393	0.071	0.079
-547.325	235.269	-0.013	-0.022
-546.310	-200.000	-0.015	-0.126
-545.296	-68.348	0.176	-0.069
-544.281	548.057	-0.072	0.176
-543.266	117.008	0.092	-0.114
-542.252	-93.500	0.084	-0.024
-541.237	-59.399	-0.365	0.159
-540.223	663.778	-0.019	0.050
-539.208	20.551	0.277	0.227
-538.193	-200.000	-0.018	0.203
-537.179	-42.361	-0.101	-0.052
-536.164	-200.000	-0.020	0.119
-535.150	800.000	0.045	0.154
-534.135	617.484	0.093	0.237
-533.121	55.505	0.175	-0.171
-532.106	338.337	-0.249	0.491
-531.091	-28.060	-0.195	0.115
-530.077	112.687	-0.102	-0.125
-529.062	-130.254	-0.116	-0.016
-528.048	227.825	0.105	-0.173
-527.033	-200.000	0.037	0.185
-526.018	47.448	-0.128	0.121
-525.004	-200.000	-0.061	0.353
-523.989	-200.000	-0.004	-0.054
-522.975	34.208	0.120	0.106
-521.960	-200.000	0.038	-0.357
-520.945	117.983	0.094	-0.117
-519.931	-83.381	0.262	0.085
-518.916	-48.570	-0.078	0.038
-517.902	-110.847	-0.124	-0.026
-516.887	-200.000	-0.007	0.220
-515.872	-109.445	0.080	-0.017
-514.858	417.984	-0.101	-0.218
-513.843	64.949	-0.026	-0.027
-512.829	194.100	0.151	-0.232
-511.814	95.466	-0.095	-0.110
-510.799	-97.878	0.170	0.045
-509.785	800.000	0.053	0.165
-508.770	-200.000	0.012	-0.140
-507.756	-200.000	0.084	0.397
-506.741	-33.607	0.211	-0.118
-505.726	-119.133	-0.273	-0.048
-504.712	93.131	0.127	-0.146
-503.697	210.800	0.059	0.093
-502.683	460.476	-0.123	0.277
-501.668	-3.370	0.253	-0.178
-500.653	-8.955	-0.023	-0.015
-499.639	74.431	0.116	-0.124
-498.624	-165.292	-0.164	0.007
-497.610	-129.868	-0.143	0.020
-496.595	44.813	0.069	-0.065
-495.581	345.295	0.024	0.047
-494.566	709.795	0.191	-0.511
-493.551	330.302	-0.038	0.074
-492.537	287.137	-0.247	0.451
-491.522	6.302	-0.188	0.141
-490.508	-16.169	-0.228	0.146
-489.493	-184.897	0.046	0.001
-488.478	0.653	0.156	0.113
-487.464	800.000	-0.073	0.294
-486.449	287.197	0.139	-0.255
-485.435	-61.316	0.242	-0.103
-484.420	-96.398	-0.197	-0.053
-483.405	-200.000	-0.042	0.228
-482.391	11.960	-0.187	-0.145
-481.376	-50.459	-0.181	0.086
-480.362	-4.144	0.097	0.068
-479.347	66.282	0.295	0.303
-478.332	800.000	-0.049	0.156
-477.318	121.908	-0.208	0.262
-476.303	-200.000	0.053	-0.327
-475.289	800.000	0.016	0.068
-474.274	-80.453	0.373	-0.126
-473.259	-67.515	0.095	-0.038
-472.245	403.190	-0.076	0.162
-471.230	334.606	0.124	0.242
-470.216	-0.856	0.045	-0.032
-469.201	-51.248	0.343	0.162
-468.186	28.628	0.186	0.159
-467.172	-53.718	-0.197	-0.091
-466.157	-122.866	0.353	0.058
-465.143	-158.491	0.229	-0.013
-464.128	-148.305	0.198	0.017
-463.113	-135.013	-0.253	0.031
-462.099	-200.000	-0.019	-0.092
-461.084	40.520	0.200	-0.182
-460.070	-200.000	-0.005	-0.120
-459.055	-193.067	-0.344	0.003
-458.040	212.802	-0.078	-0.125
-457.026	-78.479	0.128	0.044
-456.011	-133.040	0.333	-0.043
-454.997	-61.225	0.188	0.080
-453.982	705.614	-0.051	-0.136
-452.968	-59.723	0.481	-0.208
-451.953	55.229	-0.117	-0.114
-450.938	-28.890	0.203	-0.118
-449.924	-200.000	-0.036	0.334
-448.909	-33.294	-0.247	-0.138
-447.895	-181.916	-0.133	0.003
-446.880	-141.022	-0.248	-0.026
-445.865	-200.000	0.021	0.163
-444.851	-63.523	-0.218	-0.090
-443.836	800.000	-0.085	-0.346
-442.822	79.369	-0.268	-0.291
-441.807	62.644	0.144	0.146
-440.792	-50.667	-0.112	-0.053
-439.778	-120.703	-0.310	-0.053
-438.763	-67.386	-0.098	-0.039
-437.749	-166.350	-0.539	0.023
-436.734	650.798	0.041	0.105
-435.719	786.245	-0.115	0.319
-434.705	-70.324	-0.141	0.054
-433.690	-92.746	0.091	0.026
-432.676	55.272	-0.132	0.129
-431.661	564.441	0.092	-0.225
-430.646	-53.960	-0.116	0.054
-429.632	-1.069	-0.439	-0.313
-428.617	-200.000	0.017	0.214
-427.603	156.430	-0.166	0.232
-426.588	129.328	-0.141	-0.182
-425.573	800.000	-0.018	0.061
-424.559	-200.000	-0.013	0.088
-423.544	-118.992	-0.086	-0.015
-422.530	-200.000	0.052	-0.319
-421.515	-0.985	0.236	-0.169
-420.500	-45.041	0.348	0.175
-419.486	219.513	0.100	0.161
-418.471	-200.000	0.037	-0.170
-417.457	-34.317	0.146	0.081
-416.442	-200.000	-0.048	-0.320
-415.428	80.741	0.137	-0.149
-414.413	70.398	-0.257	-0.268
-413.398	141.019	-0.043	0.058
-412.384	95.907	0.090	0.103
-411.369	-5.296	0.130	-0.090
-410.355	15.557	0.136	0.108
-409.340	-126.996	0.438	-0.065
-408.325	-116.425	0.364	-0.068
-407.311	22.252	-0.204	0.168
-406.296	-200.000	0.017	-0.300
-405.282	800.000	0.058	-0.194
-404.267	15.064	0.114	0.090
-403.252	-177.791	0.384	-0.009
-402.238	800.000	-0.037	-0.151
-401.223	800.000	0.024	0.072
-400.209	782.279	0.124	-0.344
-399.194	-36.730	0.101	0.055
-398.179	-200.000	0.033	0.196
-397.165	11.940	-0.088	0.068
-396.150	257.055	0.202	-0.351
-395.136	-200.000	0.000	-0.346
-394.121	-51.091	-0.153	0.072
-393.106	223.179	-0.154	0.251
-392.092	-36.355	-0.103	0.056
-391.077	-84.941	0.047	0.015
-390.063	-71.209	0.182	0.069
-389.048	-6.275	0.189	0.130
-388.033	436.073	-0.047	-0.103
-387.019	231.972	0.193	-0.319
-386.004	-200.000	-0.029	-0.245
-384.990	112.731	-0.238	0.290
-383.975	39.633	0.224	-0.203
-382.960	192.907	0.082	0.125
-381.946	-200.000	-0.014	-0.102
-380.931	231.928	-0.080	0.133
-379.917	121.542	-0.159	-0.200
-378.902	-200.000	-0.009	-0.045
-377.888	800.000	0.058	-0.250
-376.873	330.280	-0.051	0.099
-375.858	-200.000	0.032	0.255
-374.844	800.000	-0.045	0.188
-373.829	193.251	0.049	0.074
-372.815	16.395	0.085	-0.067
-371.800	-200.000	-0.031	0.299
-370.785	-79.549	-0.024	-0.008
-369.771	-75.387	0.279	-0.100
-368.756	1.359	0.147	0.106
-367.742	800.000	-0.063	-0.183
-366.727	-89.250	0.373	-0.111
-365.712	-200.000	0.017	-0.193
-364.698	-102.763	-0.054	-0.013
-363.683	-56.636	-0.241	-0.108
-362.669	800.000	0.027	0.109
-361.654	-200.000	-0.035	-0.419
-360.639	-42.934	-0.219	-0.112
-359.625	260.255	-0.053	0.092
-358.610	430.617	0.074	-0.162
-357.596	-82.294	-0.200	0.066
-356.581	4.108	0.060	-0.044
-355.566	800.000	-0.024	-0.085
-354.552	800.000	0.097	-0.355
-353.537	-74.351	0.082	0.030
-352.523	161.815	-0.099	-0.140
-351.508	-86.438	-0.377	0.116
-350.493	-116.530	-0.191	-0.035
-349.479	464.413	0.209	0.470
-348.464	-200.000	0.023	-0.110
-347.450	-53.393	-0.378	-0.174
-346.435	195.596	-0.066	-0.101
-345.420	-30.675	0.278	0.159
-344.406	114.666	-0.100	-0.123
-343.391	800.000	-0.059	0.259
-342.377	-48.107	-0.083	0.040
-341.362	-73.608	0.202	0.074
-340.348	90.061	-0.138	0.155
-339.333	-126.383	-0.299	-0.045
-338.318	800.000	-0.061	0.198
-337.304	-200.000	-0.014	0.085
-336.289	-200.000	-0.013	-0.085
-335.275	14.718	-0.155	0.122
-334.260	-179.760	-0.306	-0.007
-333.245	30.282	-0.302	-0.260
-332.231	111.727	-0.164	0.199
-331.216	800.000	0.056	0.239
-330.202	-7.986	-0.253	0.172
-329.187	-200.000	-0.021	-0.238
-328.172	-105.448	0.218	0.050
-327.158	173.374	-0.117	0.170
-326.143	104.123	0.123	0.146
-325.129	17.762	-0.163	0.131
-324.114	-200.000	0.024	-0.154
-323.099	-200.000	-0.055	0.415
-322.085	-200.000	-0.034	0.255
-321.070	800.000	0.065	-0.232
-320.056	44.994	-0.141	0.131
-319.041	-1.401	-0.133	0.095
-318.026	800.000	0.036	-0.113
-317.012	-18.094	-0.588	0.370
-315.997	800.000	-0.165	-0.462
-314.983	92.179	0.169	-0.191
-313.968	800.000	-0.144	0.519
-312.953	800.000	0.032	0.131
-311.939	800.000	0.076	0.220
-310.924	-154.435	-0.458	-0.031
-309.910	800.000	0.058	-0.203
-308.895	56.589	-0.217	-0.212
-307.880	-139.104	-0.133	0.014
-306.866	90.113	-0.110	0.123
-305.851	800.000	-0.079	0.318
-304.837	98.248	-0.077	-0.089
-303.822	-16.904	0.088	0.056
-302.807	-158.500	-0.056	-0.003
-301.793	172.492	0.159	0.230
-300.778	-122.011	-0.053	0.009
-299.764	102.136	-0.203	0.238
-298.749	-108.856	-0.075	-0.016
-297.735	-93.567	-0.302	0.084
-296.720	23.238	0.062	-0.051
-295.705	-200.000	0.018	-0.096
-294.691	368.571	0.171	0.347
-293.676	-150.929	0.131	-0.010
-292.662	138.269	0.130	0.171
-291.647	-200.000	0.038	-0.335
-290.632	206.419	0.161	0.252
-289.618	-65.309	-0.139	0.056
-288.603	-200.000	0.047	-0.438
-287.589	800.000	0.065	0.264
-286.574	-187.743	-0.157	0.002
-285.559	65.306	0.106	-0.108
-284.545	-97.347	0.228	-0.060
-283.530	28.526	0.078	-0.066
-282.516	89.127	-0.186	0.208
-281.501	-76.051	-0.493	0.175
-280.486	-96.193	0.172	-0.046
-279.472	-200.000	-0.010	-0.079
-278.457	18.951	0.181	-0.146
-277.443	377.959	-0.139	-0.286
-276.428	-37.771	0.279	0.149
-275.413	-200.000	-0.050	-0.282
-274.399	-159.957	-0.178	0.010
-273.384	-62.708	0.144	0.060
-272.370	-21.476	0.120	-0.073
-271.355	-97.947	0.151	0.039
-270.340	1.139	-0.091	0.065
-269.326	-99.639	-0.235	-0.059
-268.311	-17.744	-0.106	-0.067
-267.297	39.551	-0.172	0.154
-266.282	31.693	-0.055	-0.048
-265.267	-173.988	-0.268	0.008
-264.253	-32.855	-0.284	-0.158
-263.238	-132.258	-0.153	0.020
-262.224	299.365	0.022	0.041
-261.209	532.781	0.085	-0.202
-260.195	-200.000	0.030	0.139
-259.180	257.100	0.119	-0.205
-258.165	152.713	0.211	-0.288
-257.151	159.828	0.176	-0.246
-256.136	-200.000	-0.019	0.211
-255.122	-176.896	-0.218	0.006
-254.107	-45.877	-0.365	0.181
-253.092	53.148	0.203	0.195
-252.078	93.556	0.279	-0.317
-251.063	259.111	0.175	-0.303
-250.049	-55.664	-0.075	-0.034
-249.034	111.323	0.257	-0.310
-248.019	-64.737	0.296	-0.120
-247.005	-62.201	-0.467	-0.195
-245.990	121.786	0.097	0.122
-244.976	111.086	0.058	0.069
-243.961	800.000	-0.089	-0.387
-242.946	363.909	-0.236	-0.475
-241.932	-40.247	-0.048	0.025
-240.917	200.971	-0.109	0.169
-239.903	6.239	-0.134	0.100
-238.888	69.644	0.225	-0.232
-237.873	-119.025	0.165	0.029
-236.859	-200.000	0.031	0.177
-235.844	-33.578	-0.110	0.061
-234.830	227.252	-0.053	-0.086
-233.815	65.267	0.151	-0.153
-232.800	192.710	-0.282	-0.426
-231.786	264.910	0.218	0.381
-230.771	800.000	0.056	-0.220
-229.757	178.675	-0.302	0.442
-228.742	-200.000	0.022	0.099
-227.727	80.939	0.144	0.155
-226.713	-84.655	0.292	-0.092
-225.698	444.685	-0.033	-0.072
-224.684	-200.000	-0.019	0.265
-223.669	-107.224	-0.148	-0.033
-222.655	-11.508	-0.135	0.089
-221.640	28.278	0.297	-0.251
-220.625	-200.000	0.045	0.384
-219.611	292.516	0.098	0.179
-218.596	186.310	-0.148	0.221
-217.582	-200.000	0.010	-0.178
-216.567	171.119	-0.149	-0.214
-215.552	-39.436	0.140	0.074
-214.538	-200.000	-0.006	-0.101
-213.523	377.766	-0.073	0.150
-212.509	-36.281	-0.268	0.144
-211.494	681.665	-0.014	-0.036
-210.479	-200.000	0.007	0.078
-209.465	102.114	-0.103	0.120
-208.450	-200.000	-0.018	0.292
-207.436	-156.031	-0.138	0.009
-206.421	800.000	0.019	0.067
-205.406	-200.000	0.044	0.240
-204.392	-78.119	0.116	0.040
-203.377	-125.468	0.049	0.007
-202.363	352.796	0.038	-0.076
-201.348	800.000	-0.030	-0.112
-200.333	-138.757	-0.208	0.023
-199.319	-200.000	-0.008	0.058
-198.304	151.190	-0.199	-0.271
-197.290	-44.267	-0.475	-0.238
-196.275	-164.186	-0.300	0.014
-195.260	-200.000	-0.020	0.338
-194.246	-200.000	0.048	0.264
-193.231	-200.000	0.009	-0.166
-192.217	-4.980	0.168	0.115
-191.202	-91.941	0.415	-0.118
-190.187	546.648	-0.054	0.130
-189.173	-200.000	-0.011	0.261
-188.158	-200.000	-0.010	0.332
-187.144	-200.000	-0.018	-0.162
-186.129	-200.000	0.054	0.297
-185.114	-100.380	-0.282	0.070
-184.100	-32.336	0.246	0.137
-183.085	-200.000	-0.025	-0.351
-182.071	121.186	0.120	0.149
-181.056	-92.235	0.243	0.069
-180.042	698.488	0.116	0.304
-179.027	394.864	0.149	0.310
-178.012	126.603	0.022	-0.028
-176.998	-103.266	0.424	0.100
-175.983	-200.000	0.031	0.221
-174.969	22.848	-0.167	0.137
-173.954	50.932	-0.050	0.047
-172.939	193.805	-0.091	-0.138
-171.925	-200.000	-0.021	-0.275
-170.910	14.380	0.203	0.158
-169.896	800.000	0.026	-0.095
-168.881	-200.000	-0.018	0.178
-167.866	-95.953	0.376	-0.100
-166.852	355.697	0.063	-0.124
-165.837	-200.000	0.038	-0.182
-164.823	-48.572	-0.160	0.077
-163.808	-200.000	-0.006	-0.443
-162.793	-152.144	0.100	-0.007
-161.779	26.071	-0.152	-0.127
-160.764	161.783	0.120	-0.167
-159.750	-47.571	0.305	0.148
-158.735	123.455	-0.142	-0.178
-157.720	-56.744	-0.172	-0.076
-156.706	151.566	0.218	0.296
-155.691	104.599	0.180	0.212
-154.677	-14.518	-0.265	0.170
-153.662	-9.045	0.109	0.073
-152.647	-50.022	0.375	-0.177
-151.633	212.666	0.270	0.426
-150.618	-200.000	-0.034	0.165
-149.604	-65.433	0.162	-0.065
-148.589	-43.516	-0.204	-0.103
-147.574	85.785	-0.062	0.069
-146.560	-18.201	-0.407	-0.254
-145.545	-55.353	0.225	-0.101
-144.531	-200.000	-0.003	0.067
-143.516	-146.942	-0.072	-0.006
-142.502	-65.216	0.052	0.021
-141.487	-200.000	0.012	0.124
-140.472	-27.544	0.177	0.103
-139.458	-84.524	0.371	-0.117
-138.443	108.096	-0.044	-0.052
-137.429	339.637	-0.061	-0.119
-136.414	117.030	0.136	0.167
-135.399	-148.968	0.259	0.021
-134.385	66.318	0.297	-0.301
-133.370	-52.479	0.208	-0.096
-132.356	144.945	0.146	-0.195
-131.341	-200.000	0.036	0.387
-130.326	157.527	-0.127	-0.176
-129.312	-200.000	0.012	0.123
-128.297	-117.293	-0.098	-0.018
-127.283	-98.208	-0.076	0.019
-126.268	26.727	-0.204	-0.170
-125.253	130.290	-0.222	-0.284
-124.239	-200.000	-0.021	-0.117
-123.224	-63.848	0.063	0.026
-122.210	576.372	0.113	0.277
-121.195	-180.988	0.201	0.004
