DTS Sentinel unit serial number:	SN413079Multiplexer serial number:	ORYXHardware model number:	OX4-SRSoftware version number:	ORYX F/W v4.00 Oryx Data Collector v3.7.2.0data status	okinstallation	princeton_trtdifferential loss correction	single-endedforward channel	channel 3reverse channel	N/Adate	2019/09/14time	09:56:34forward acquisition time	60.00reverse acquisition time	0.00gamma	496.2192k internal	0.2314k external	0.2314temperature offset calibration	1.0053default loss term (dB/km)	0.3790temperature slope calibration	1.0000multiplexer offset coefficient	1.0000multiplexer slope coefficient	1.0000fibre end	0.00T internal ref (°C)	32.84T ext. ref 1 (°C)	3.99T ext. ref 2 (°C)	31.24length (m)	temperature (°C)	Stokes	anti-Stokes-747.200	-200.000	0.023	0.157
-746.185	-103.630	-0.144	0.034
-745.171	292.481	0.237	0.438
-744.156	182.680	0.223	0.333
-743.142	-63.099	0.118	0.049
-742.127	-73.641	-0.120	0.044
-741.112	178.968	0.136	-0.201
-740.098	-53.915	-0.269	0.124
-739.083	800.000	0.086	0.245
-738.069	35.129	-0.121	-0.108
-737.054	55.993	-0.235	-0.231
-736.039	-151.998	-0.037	-0.003
-735.025	196.974	-0.063	0.098
-734.010	-200.000	-0.050	-0.281
-732.996	80.067	0.258	-0.281
-731.981	167.129	-0.141	-0.204
-730.966	447.128	-0.105	0.234
-729.952	-146.650	0.195	-0.017
-728.937	11.457	-0.172	0.134
-727.923	41.998	0.232	-0.213
-726.908	-88.578	-0.149	0.045
-725.894	800.000	0.037	-0.149
-724.879	39.441	-0.092	-0.083
-723.864	-6.322	-0.336	-0.232
-722.850	-74.882	-0.270	0.098
-721.835	-60.780	-0.083	0.036
-720.821	-103.408	-0.390	0.093
-719.806	-43.771	-0.204	-0.104
-718.791	82.159	-0.130	-0.143
-717.777	-60.702	-0.209	0.090
-716.762	-94.733	0.044	0.012
-715.748	-200.000	-0.005	-0.237
-714.733	657.817	-0.197	-0.514
-713.718	-63.772	0.314	-0.130
-712.704	190.340	-0.035	0.054
-711.689	800.000	0.060	0.254
-710.675	429.145	-0.086	0.188
-709.660	800.000	-0.067	-0.203
-708.645	-47.887	-0.340	-0.167
-707.631	166.635	0.265	-0.381
-706.616	83.540	0.189	-0.209
-705.602	260.513	0.185	0.324
-704.587	-71.842	0.358	-0.135
-703.572	-140.063	-0.266	0.028
-702.558	-200.000	-0.030	-0.492
-701.543	209.279	0.118	-0.187
-700.529	-13.198	0.202	0.133
-699.514	-200.000	0.003	0.024
-698.499	9.883	0.170	0.131
-697.485	-68.199	0.248	-0.098
-696.470	37.180	-0.029	0.026
-695.456	-20.435	0.034	-0.021
-694.441	-200.000	0.006	-0.139
-693.426	-63.047	-0.236	-0.099
-692.412	-28.456	-0.324	-0.189
-691.397	34.180	0.094	0.083
-690.383	-123.531	-0.158	0.025
-689.368	46.726	-0.161	0.151
-688.354	151.410	-0.138	0.190
-687.339	-128.343	0.111	-0.016
-686.324	-200.000	-0.000	0.066
-685.310	411.847	0.202	0.435
-684.295	-65.192	-0.279	-0.114
-683.281	-89.435	0.160	0.048
-682.266	11.947	-0.029	-0.022
-681.251	-97.364	-0.130	-0.034
-680.237	800.000	-0.062	-0.181
-679.222	279.342	0.042	-0.077
-678.208	122.671	-0.130	-0.165
-677.193	-158.394	-0.332	-0.019
-676.178	-200.000	-0.007	0.092
-675.164	176.053	0.087	-0.128
-674.149	-167.511	-0.161	0.006
-673.135	132.388	0.155	-0.202
-672.120	-200.000	-0.046	0.236
-671.105	459.353	-0.108	-0.242
-670.091	-44.238	0.059	-0.030
-669.076	-93.489	0.268	0.075
-668.062	192.323	0.076	0.116
-667.047	431.158	0.198	0.434
-666.032	34.297	0.215	0.189
-665.018	-93.588	0.176	-0.049
-664.003	28.008	0.166	-0.141
-662.989	-27.668	0.040	-0.024
-661.974	20.546	-0.033	0.027
-660.959	800.000	0.070	-0.265
-659.945	-25.881	-0.140	0.084
-658.930	-200.000	-0.015	0.086
-657.916	216.497	-0.080	-0.129
-656.901	536.044	-0.163	0.392
-655.886	-76.498	-0.217	0.077
-654.872	92.109	-0.189	-0.215
-653.857	54.814	-0.238	-0.232
-652.843	-200.000	0.010	0.102
-651.828	215.114	-0.202	-0.324
-650.814	800.000	-0.075	-0.286
-649.799	-200.000	-0.005	-0.296
-648.784	22.313	-0.268	-0.221
-647.770	-68.210	0.192	0.075
-646.755	-127.884	-0.188	-0.027
-645.741	-184.906	-0.178	-0.003
-644.726	46.769	0.324	-0.304
-643.711	495.804	0.144	-0.335
-642.697	800.000	-0.089	-0.294
-641.682	-164.893	-0.138	-0.006
-640.668	-14.702	-0.263	0.170
-639.653	-115.819	0.220	0.042
-638.638	800.000	0.177	-0.565
-637.624	8.256	-0.095	-0.072
-636.609	-9.172	-0.068	0.046
-635.595	20.518	0.216	0.176
-634.580	284.543	-0.203	0.369
-633.565	-29.047	0.406	0.235
-632.551	-179.963	-0.169	0.004
-631.536	-122.884	-0.420	-0.068
-630.522	85.892	0.164	-0.182
-629.507	73.100	0.060	-0.063
-628.492	-200.000	-0.064	-0.373
-627.478	151.968	0.154	-0.212
-626.463	248.867	0.160	0.273
-625.449	-200.000	0.035	0.385
-624.434	-43.213	-0.149	-0.076
-623.419	-26.364	-0.144	-0.085
-622.405	-72.876	0.423	-0.157
-621.390	-71.948	-0.045	0.017
-620.376	42.455	0.122	0.112
-619.361	-99.123	-0.330	0.084
-618.346	-136.472	-0.234	0.027
-617.332	-0.982	-0.038	-0.027
-616.317	204.083	0.020	-0.031
-615.303	-200.000	-0.044	0.215
-614.288	-130.649	-0.257	-0.035
-613.273	-200.000	-0.006	0.256
-612.259	47.119	-0.185	-0.174
-611.244	-134.641	-0.199	-0.024
-610.230	-31.906	-0.106	0.060
-609.215	24.655	-0.297	-0.248
-608.201	-181.570	-0.215	-0.004
-607.186	-200.000	-0.005	0.036
-606.171	-20.462	0.199	0.124
-605.157	-114.334	-0.440	-0.085
-604.142	10.083	-0.177	-0.136
-603.128	343.782	-0.071	-0.141
-602.113	322.446	-0.071	0.137
-601.098	218.563	-0.302	-0.487
-600.084	73.147	0.209	-0.220
-599.069	21.354	0.250	0.204
-598.055	800.000	-0.120	0.438
-597.040	610.321	0.005	0.014
-596.025	-200.000	-0.009	-0.066
-595.011	-90.679	-0.341	0.099
-593.996	-16.384	0.067	-0.043
-592.982	-200.000	0.021	-0.114
-591.967	328.919	0.042	-0.081
-590.952	-2.933	0.045	-0.032
-589.938	800.000	-0.078	-0.276
-588.923	-200.000	-0.021	-0.133
-587.909	259.530	0.071	-0.124
-586.894	65.430	-0.155	0.158
-585.879	-200.000	-0.019	0.113
-584.865	-85.629	0.113	-0.035
-583.850	-140.868	-0.325	0.034
-582.836	-65.576	0.304	0.123
-581.821	-60.104	-0.269	0.115
-580.806	-172.702	-0.207	-0.007
-579.792	118.062	0.043	-0.054
-578.777	-20.909	0.188	0.116
-577.763	239.423	0.054	-0.091
-576.748	-200.000	0.012	0.099
-575.733	-200.000	0.010	0.189
-574.719	338.157	0.046	-0.091
-573.704	628.155	-0.062	0.158
-572.690	85.395	-0.099	0.109
-571.675	-200.000	-0.038	0.282
-570.661	-46.393	0.045	0.022
-569.646	50.559	-0.114	-0.109
-568.631	-11.407	-0.226	0.150
-567.617	800.000	0.085	0.270
-566.602	243.513	0.178	0.300
-565.588	-150.231	-0.313	-0.024
-564.573	-178.299	0.184	-0.004
-563.558	-26.732	0.163	0.096
-562.544	236.459	-0.116	-0.193
-561.529	-109.247	0.202	-0.043
-560.515	365.379	-0.052	-0.106
-559.500	-56.457	0.166	-0.074
-558.485	-64.941	0.044	-0.018
-557.471	-49.880	-0.217	-0.104
-556.456	-114.499	-0.260	0.050
-555.442	15.852	-0.087	-0.069
-554.427	800.000	-0.039	0.109
-553.412	161.452	0.272	-0.384
-552.398	-166.090	-0.122	-0.005
-551.383	18.566	0.233	0.187
-550.369	-145.083	-0.376	0.034
-549.354	-65.860	0.281	0.113
-548.339	511.713	-0.089	-0.209
-547.325	800.000	-0.037	-0.107
-546.310	-12.752	0.330	-0.217
-545.296	-10.925	-0.120	-0.080
-544.281	800.000	-0.108	-0.303
-543.266	-200.000	-0.009	0.126
-542.252	-110.326	0.385	0.080
-541.237	119.959	0.199	-0.248
-540.223	-200.000	-0.016	-0.199
-539.208	800.000	0.086	-0.288
-538.193	-83.492	-0.187	0.060
-537.179	585.589	0.122	0.301
-536.164	-200.000	-0.006	0.381
-535.150	-20.916	-0.036	0.022
-534.135	-112.771	0.181	0.036
-533.121	-116.734	0.294	0.054
-532.106	108.674	-0.024	0.029
-531.091	111.496	-0.128	0.155
-530.077	-165.034	0.182	0.008
-529.062	168.274	-0.149	-0.214
-528.048	-92.261	0.246	0.070
-527.033	-74.601	-0.190	-0.069
-526.018	124.042	0.178	-0.225
-525.004	-150.152	-0.286	0.022
-523.989	-44.588	-0.007	-0.003
-522.975	-123.507	0.281	-0.045
-521.960	-10.979	0.117	0.078
-520.945	800.000	0.048	0.194
-519.931	-43.178	-0.135	0.068
-518.916	141.274	-0.282	-0.375
-517.902	-200.000	-0.020	-0.136
-516.887	1.879	-0.069	0.050
-515.872	-200.000	0.068	0.308
-514.858	387.755	-0.162	0.337
-513.843	31.245	0.161	-0.139
-512.829	-200.000	-0.036	0.337
-511.814	226.916	0.112	0.182
-510.799	-51.931	0.091	-0.042
-509.785	146.303	0.061	0.083
-508.770	-163.528	-0.110	-0.005
-507.756	-200.000	-0.018	-0.378
-506.741	-133.156	-0.103	-0.013
-505.726	-71.358	-0.131	-0.049
-504.712	-120.743	0.388	0.066
-503.697	-145.331	0.172	-0.016
-502.683	-200.000	-0.068	-0.337
-501.668	76.826	-0.112	-0.120
-500.653	-140.652	0.287	-0.030
-499.639	-200.000	-0.006	-0.273
-498.624	-23.074	-0.212	-0.128
-497.610	-200.000	-0.022	-0.137
-496.595	-129.986	0.131	0.018
-495.581	47.661	0.058	-0.054
-494.566	26.279	-0.162	0.136
-493.551	-200.000	-0.047	0.325
-492.537	550.579	-0.085	0.204
-491.522	-1.735	0.199	-0.140
-490.508	-200.000	-0.001	-0.216
-489.493	-138.215	0.115	-0.013
-488.478	104.101	-0.079	-0.094
-487.464	423.369	-0.095	-0.205
-486.449	107.239	-0.218	-0.260
-485.435	566.470	0.165	-0.401
-484.420	800.000	-0.064	-0.231
-483.405	-200.000	0.053	-0.283
-482.391	-40.052	-0.125	-0.065
-481.376	-145.377	-0.066	-0.006
-480.362	496.450	0.103	-0.237
-479.347	-44.975	-0.192	-0.096
-478.332	-200.000	-0.046	-0.269
-477.318	-108.833	0.061	0.013
-476.303	87.599	0.210	0.234
-475.289	-200.000	0.030	-0.137
-474.274	-7.693	-0.220	0.149
-473.259	14.468	0.087	-0.068
-472.245	-200.000	0.014	-0.093
-471.230	-200.000	0.020	-0.201
-470.216	217.440	0.048	0.077
-469.201	-3.872	-0.155	-0.108
-468.186	-53.983	0.379	-0.173
-467.172	-35.175	0.270	-0.148
-466.157	7.579	0.165	0.124
-465.143	-200.000	-0.003	0.121
-464.128	-5.758	0.343	0.236
-463.113	-30.970	-0.116	0.066
-462.099	13.452	-0.313	0.244
-461.084	800.000	-0.056	0.170
-460.070	332.806	0.111	-0.214
-459.055	44.735	-0.343	0.316
-458.040	-71.300	0.141	-0.053
-457.026	-57.639	-0.108	0.048
-456.011	-81.041	0.161	-0.053
-454.997	800.000	0.113	0.346
-453.982	-73.765	-0.485	0.177
-452.968	800.000	-0.105	0.327
-451.953	64.579	-0.189	0.191
-450.938	-180.896	-0.455	-0.009
-449.924	-76.464	0.055	-0.019
-448.909	205.853	0.173	-0.269
-447.895	-18.684	-0.383	-0.239
-446.880	-31.676	-0.215	0.121
-445.865	505.245	0.113	0.262
-444.851	49.612	-0.141	0.133
-443.836	-107.986	-0.231	0.050
-442.822	768.827	0.152	0.415
-441.807	126.657	-0.169	0.215
-440.792	24.394	-0.221	0.183
-439.778	774.308	-0.112	-0.306
-438.763	-38.662	0.202	0.107
-437.749	-63.212	-0.152	0.063
-436.734	-159.074	-0.062	0.004
-435.719	207.988	-0.130	0.204
-434.705	-188.512	0.105	0.001
-433.690	-200.000	-0.001	0.127
-432.676	-35.716	-0.154	-0.084
-431.661	157.049	-0.064	0.089
-430.646	334.064	-0.112	0.217
-429.632	-200.000	0.014	0.207
-428.617	-45.039	-0.361	-0.180
-427.603	208.788	0.033	0.051
-426.588	37.900	-0.239	0.213
-425.573	-65.852	0.060	-0.024
-424.559	-70.837	-0.178	-0.067
-423.544	-82.118	0.169	-0.055
-422.530	318.345	-0.096	0.183
-421.515	773.133	-0.043	0.117
-420.500	800.000	-0.076	0.232
-419.486	-140.985	-0.158	-0.016
-418.471	-200.000	0.025	-0.223
-417.457	229.091	0.123	-0.201
-416.442	-48.189	0.041	0.020
-415.428	116.945	-0.119	0.146
-414.413	-53.936	-0.073	0.033
-413.398	-200.000	0.034	0.253
-412.384	279.144	0.188	0.335
-411.369	-200.000	-0.005	0.167
-410.355	623.847	0.112	0.283
-409.340	-128.137	0.039	0.006
-408.325	747.477	0.074	0.199
-407.311	-67.559	0.140	-0.055
-406.296	800.000	-0.072	0.298
-405.282	622.449	0.063	0.159
-404.267	212.742	0.021	0.033
-403.252	149.107	-0.177	-0.239
-402.238	69.038	0.205	0.211
-401.223	-97.665	-0.355	-0.092
-400.209	-200.000	-0.034	-0.199
-399.194	120.905	0.127	0.157
-398.179	102.403	-0.054	-0.064
-397.165	-200.000	-0.051	-0.386
-396.150	-69.214	0.404	0.156
-395.136	113.804	0.231	0.280
-394.121	156.081	0.186	0.257
-393.106	-200.000	0.018	-0.142
-392.092	531.910	0.104	0.246
-391.077	216.872	-0.155	-0.247
-390.063	226.625	-0.146	0.237
-389.048	66.560	-0.278	0.283
-388.033	-147.067	-0.234	0.020
-387.019	35.659	-0.245	-0.215
-386.004	421.977	0.094	-0.202
-384.990	800.000	0.113	0.322
-383.975	-167.028	-0.324	-0.013
-382.960	202.795	-0.054	0.084
-381.946	-200.000	0.034	0.477
-380.931	746.616	0.047	-0.126
-379.917	-200.000	-0.008	-0.172
-378.902	33.150	0.057	0.050
-377.888	-149.244	-0.381	-0.030
-376.873	59.743	-0.092	-0.091
-375.858	800.000	-0.105	0.292
-374.844	-94.849	0.112	0.030
-373.829	16.100	-0.119	-0.094
-372.815	-200.000	-0.083	-0.508
-371.800	-95.877	-0.086	0.023
-370.785	-37.218	-0.375	0.200
-369.771	800.000	0.039	-0.114
-368.756	-200.000	0.046	-0.220
-367.742	61.780	0.110	-0.109
-366.727	-112.570	0.312	-0.062
-365.712	331.391	-0.101	-0.195
-364.698	-111.856	0.196	0.040
-363.683	-7.288	0.076	-0.051
-362.669	112.473	-0.079	0.095
-361.654	-159.649	0.097	-0.005
-360.639	-177.978	0.178	0.004
-359.625	800.000	0.031	-0.114
-358.610	40.028	-0.071	-0.064
-357.596	-146.340	0.131	-0.011
-356.581	780.360	0.044	0.121
-355.566	120.065	0.169	0.210
-354.552	-50.681	0.140	0.066
-353.537	-66.861	0.425	-0.168
-352.523	-96.627	0.234	0.062
-351.508	-53.612	-0.186	0.085
-350.493	137.969	-0.076	-0.100
-349.479	111.844	0.253	-0.305
-348.464	-200.000	0.041	-0.287
-347.450	800.000	0.084	-0.341
-346.435	800.000	0.070	0.256
-345.420	-200.000	-0.058	-0.460
-344.406	-200.000	-0.068	0.304
-343.391	-70.249	-0.244	0.093
-342.377	-200.000	-0.019	0.177
-341.362	-111.537	0.364	-0.074
-340.348	1.869	0.085	0.061
-339.333	800.000	-0.048	0.170
-338.318	-200.000	0.034	0.231
-337.304	-132.562	-0.245	-0.031
-336.289	800.000	0.142	0.415
-335.275	-200.000	-0.037	-0.275
-334.260	147.263	0.076	-0.102
-333.245	180.860	0.093	-0.136
-332.231	-200.000	-0.003	-0.112
-331.216	245.415	0.048	0.081
-330.202	98.299	0.197	0.226
-329.187	-200.000	0.033	0.162
-328.172	-200.000	-0.013	0.360
-327.158	-100.551	-0.196	0.048
-326.143	114.497	0.056	-0.068
-325.129	800.000	0.018	0.062
-324.114	-101.507	-0.252	0.061
-323.099	800.000	0.091	-0.323
-322.085	-200.000	0.011	-0.069
-321.070	-86.639	-0.090	-0.027
-320.056	-33.854	0.370	-0.204
-319.041	-200.000	-0.001	-0.007
-318.026	-81.669	0.062	0.020
-317.012	-26.032	-0.088	-0.051
-315.997	-21.149	-0.140	-0.086
-314.983	-51.447	0.177	0.082
-313.968	129.519	0.173	-0.221
-312.953	-200.000	-0.096	0.507
-311.939	247.300	-0.024	0.040
-310.924	-200.000	-0.004	0.082
-309.910	29.112	0.204	0.172
-308.895	151.653	-0.083	-0.113
-307.880	800.000	-0.048	-0.150
-306.866	800.000	0.035	0.117
-305.851	306.989	0.157	0.292
-304.837	-73.775	-0.045	0.016
-303.822	462.772	0.057	-0.126
-302.807	800.000	-0.095	0.337
-301.793	-113.089	-0.101	0.020
-300.778	43.433	0.012	0.011
-299.764	-90.461	0.176	-0.051
-298.749	142.297	0.245	0.324
-297.735	160.494	-0.151	-0.209
-296.720	2.808	0.204	-0.148
-295.705	-69.429	-0.370	0.142
-294.691	-124.674	-0.047	0.007
-293.676	800.000	0.030	-0.097
-292.662	124.660	0.156	-0.195
-291.647	153.985	0.123	-0.167
-290.632	-63.108	-0.146	-0.060
-289.618	-71.101	0.194	0.073
-288.603	47.822	-0.183	0.170
-287.589	181.516	-0.198	0.290
-286.574	-200.000	0.009	0.174
-285.559	-200.000	-0.033	-0.394
-284.545	-132.091	-0.268	0.035
-283.530	127.090	0.158	-0.199
-282.516	800.000	-0.040	0.158
-281.501	670.297	-0.078	0.201
-280.486	-92.359	0.289	-0.081
-279.472	763.736	-0.166	-0.449
-278.457	-106.650	-0.264	0.059
-277.443	-25.074	0.353	-0.208
-276.428	-25.472	-0.136	-0.080
-275.413	-72.227	0.118	-0.044
-274.399	-33.400	-0.179	-0.099
-273.384	39.162	0.094	-0.084
-272.370	-129.883	-0.223	-0.030
-271.355	514.785	-0.069	0.160
-270.340	577.316	0.009	-0.021
-269.326	-200.000	0.062	0.355
-268.311	-50.239	0.070	-0.033
-267.297	-200.000	-0.002	0.149
-266.282	-39.286	0.128	0.067
-265.267	-200.000	-0.028	0.218
-264.253	15.816	0.062	0.048
-263.238	20.027	0.226	-0.181
-262.224	-119.315	-0.346	0.060
-261.209	1.083	0.170	-0.121
-260.195	-171.935	0.402	0.013
-259.180	34.558	0.058	0.051
-258.165	232.198	0.116	0.189
-257.151	778.434	-0.074	0.200
-256.136	-200.000	0.097	0.485
-255.122	300.236	0.083	0.152
-254.107	-68.700	-0.138	-0.053
-253.092	0.818	-0.103	-0.074
-252.078	-200.000	0.012	0.068
-251.063	-200.000	0.011	-0.115
-250.049	50.070	0.191	0.180
-249.034	126.448	0.233	-0.293
-248.019	-33.341	0.114	-0.063
-247.005	309.835	0.122	-0.227
-245.990	-169.953	0.218	-0.008
-244.976	-108.436	0.382	-0.082
-243.961	-51.143	-0.310	-0.144
-242.946	-200.000	0.042	0.398
-241.932	-139.946	-0.490	0.051
-240.917	704.871	0.070	0.184
-239.903	68.706	0.095	0.097
-238.888	457.799	0.116	0.256
-237.873	461.149	0.119	-0.264
-236.859	-70.311	-0.253	0.095
-235.844	-106.333	-0.081	0.018
-234.830	54.173	0.182	-0.174
-233.815	225.797	0.057	-0.092
-232.800	52.761	-0.200	0.190
-231.786	82.975	0.041	-0.044
-230.771	-46.908	-0.286	-0.139
-229.757	-129.765	0.209	0.029
-228.742	105.799	0.065	0.077
-227.727	125.726	-0.195	-0.245
-226.713	-200.000	-0.016	-0.426
-225.698	599.358	0.074	0.182
-224.684	156.387	-0.091	-0.125
-223.669	209.156	0.179	-0.278
-222.655	-79.141	0.155	0.052
-221.640	210.541	-0.124	0.194
-220.625	-33.311	0.183	-0.100
-219.611	-7.182	0.202	-0.136
-218.596	336.888	-0.022	0.042
-217.582	17.448	-0.081	-0.064
-216.567	-110.343	0.183	0.038
-215.552	-200.000	0.015	-0.290
-214.538	26.667	-0.102	0.084
-213.523	79.000	0.173	0.184
-212.509	-200.000	-0.032	-0.152
-211.494	800.000	-0.027	0.114
-210.479	65.773	-0.224	0.226
-209.465	-158.463	0.033	0.002
-208.450	-119.040	-0.313	-0.054
-207.436	-122.473	0.086	-0.014
-206.421	-40.314	-0.154	-0.080
-205.406	-200.000	-0.127	-0.001
-204.392	-67.154	0.130	-0.051
-203.377	117.155	0.128	-0.156
-202.363	-140.654	-0.183	0.019
-201.348	435.408	0.163	-0.353
-200.333	20.797	-0.336	0.270
-199.319	-52.539	0.324	-0.149
-198.304	-137.775	-0.204	-0.023
-197.290	-200.000	0.005	0.051
-196.275	-52.562	-0.399	0.183
-195.260	-144.971	0.419	0.038
-194.246	38.495	0.110	-0.098
-193.231	800.000	-0.067	-0.190
-192.217	-69.135	0.189	-0.072
-191.202	270.228	-0.023	-0.040
-190.187	-86.443	0.128	-0.039
-189.173	-161.211	-0.117	0.006
-188.158	-53.801	-0.246	0.111
-187.144	-104.201	0.287	-0.066
-186.129	28.369	0.090	0.076
-185.114	122.770	0.038	0.047
-184.100	-112.466	-0.132	0.026
-183.085	-89.033	0.233	0.068
-182.071	-200.000	0.005	0.211
-181.056	2.128	-0.223	0.160
-180.042	-85.243	0.328	0.102
-179.027	-200.000	0.008	-0.226
-178.012	-200.000	-0.024	0.244
-176.998	620.149	0.088	-0.220
-175.983	-117.509	0.189	0.034
-174.969	800.000	-0.031	-0.106
-173.954	527.161	0.046	-0.107
-172.939	-0.219	0.285	-0.201
-171.925	0.107	-0.068	-0.048
-170.910	148.562	0.075	-0.100
-169.896	-200.000	0.086	0.408
-168.881	304.990	0.098	-0.180
-167.866	-29.925	-0.270	-0.153
-166.852	-70.123	0.422	0.159
-165.837	-127.817	0.116	-0.017
-164.823	-64.544	-0.127	0.051
-163.808	-151.858	0.271	-0.020
-162.793	-29.994	0.110	-0.062
-161.779	572.285	0.005	0.011
-160.764	-83.801	-0.172	-0.054
-159.750	-35.644	0.209	-0.112
-158.735	-200.000	-0.035	-0.202
-157.720	36.725	0.113	-0.099
-156.706	169.912	-0.200	-0.283
-155.691	-89.648	0.080	0.023
-154.677	-78.521	0.269	-0.091
-153.662	800.000	0.064	-0.257
-152.647	-82.607	-0.290	0.093
-151.633	47.497	0.229	-0.211
-150.618	186.216	0.122	0.179
-149.604	800.000	-0.093	-0.368
-148.589	30.263	-0.119	0.100
-147.574	-33.878	-0.230	0.125
-146.560	-123.223	0.270	-0.043
-145.545	-56.038	-0.096	-0.042
-144.531	-60.355	0.458	0.193
-143.516	-200.000	0.020	-0.106
-142.502	161.000	-0.088	0.122
-141.487	-200.000	-0.016	-0.211
-140.472	-200.000	0.005	0.172
-139.458	223.184	-0.105	-0.167
-138.443	800.000	0.031	0.125
-137.429	800.000	-0.091	-0.260
-136.414	-200.000	-0.028	0.264
-135.399	-200.000	-0.003	-0.126
-134.385	77.882	0.142	0.150
-133.370	-8.354	-0.293	0.195
-132.356	23.359	0.274	0.223
-131.341	-181.454	-0.494	0.010
-130.326	-200.000	0.032	0.179
-129.312	-200.000	-0.003	-0.025
-128.297	9.280	0.140	-0.104
-127.283	-41.954	0.388	0.197
-126.268	-128.288	0.207	0.029
-125.253	-200.000	0.006	-0.102
-124.239	-200.000	0.027	-0.329
-123.224	5.906	-0.052	0.038
-122.210	-200.000	-0.004	0.183
