DTS Sentinel unit serial number:	SN413079Multiplexer serial number:	ORYXHardware model number:	OX4-SRSoftware version number:	ORYX F/W v4.00 Oryx Data Collector v3.7.2.0data status	okinstallation	princeton_trtdifferential loss correction	single-endedforward channel	channel 3reverse channel	N/Adate	2019/09/19time	06:24:34forward acquisition time	60.00reverse acquisition time	0.00gamma	496.2192k internal	0.2348k external	0.2348temperature offset calibration	0.9987default loss term (dB/km)	0.3790temperature slope calibration	1.0000multiplexer offset coefficient	1.0000multiplexer slope coefficient	1.0000fibre end	0.00T internal ref (°C)	19.03T ext. ref 1 (°C)	0.57T ext. ref 2 (°C)	12.77length (m)	temperature (°C)	Stokes	anti-Stokes-747.200	-200.000	-0.039	0.356
-746.185	23.987	-0.097	0.080
-745.171	-135.712	0.141	-0.017
-744.156	72.245	0.065	0.067
-743.142	-157.872	-0.055	0.003
-742.127	-157.489	0.163	-0.010
-741.112	-200.000	0.085	0.579
-740.098	-9.210	-0.199	0.133
-739.083	166.935	-0.166	-0.235
-738.069	-65.216	-0.193	0.078
-737.054	144.927	0.156	0.209
-736.039	-112.649	-0.427	0.085
-735.025	-130.338	0.252	0.034
-734.010	-132.250	0.119	-0.015
-732.996	-57.239	-0.227	-0.100
-731.981	37.896	0.035	0.031
-730.966	-37.743	-0.206	-0.109
-729.952	-145.715	-0.130	0.012
-728.937	-154.178	-0.402	-0.027
-727.923	-200.000	-0.001	-0.270
-726.908	53.296	0.223	-0.214
-725.894	119.079	0.133	0.164
-724.879	-21.383	0.186	-0.113
-723.864	-200.000	0.000	-0.299
-722.850	296.521	0.027	-0.050
-721.835	-68.556	-0.268	0.104
-720.821	70.673	-0.296	0.306
-719.806	-103.120	0.264	0.062
-718.791	-83.639	-0.469	0.149
-717.777	1.469	-0.165	0.118
-716.762	-9.445	-0.243	0.162
-715.748	-160.986	0.240	-0.013
-714.733	-48.514	0.171	0.082
-713.718	-134.238	-0.403	-0.050
-712.704	800.000	0.051	0.191
-711.689	800.000	-0.040	-0.134
-710.675	31.545	-0.126	0.108
-709.660	-144.155	-0.122	-0.011
-708.645	-142.844	-0.116	0.011
-707.631	129.408	0.201	-0.257
-706.616	1.526	0.331	-0.238
-705.602	7.431	0.237	0.177
-704.587	-37.503	-0.089	0.047
-703.572	78.632	0.119	-0.127
-702.558	115.237	-0.118	0.143
-701.543	800.000	0.041	-0.163
-700.529	302.725	0.148	-0.273
-699.514	231.694	-0.105	0.171
-698.499	90.019	-0.164	-0.182
-697.485	391.497	-0.134	-0.278
-696.470	-75.179	0.477	-0.170
-695.456	85.466	-0.203	-0.222
-694.441	-14.363	-0.076	-0.049
-693.426	65.087	0.265	-0.267
-692.412	-167.418	-0.253	-0.010
-691.397	-78.954	0.049	0.017
-690.383	-200.000	-0.059	-0.316
-689.368	-200.000	0.063	-0.397
-688.354	127.765	0.158	-0.201
-687.339	-136.421	-0.326	-0.038
-686.324	-88.033	0.357	-0.107
-685.310	-164.993	0.100	-0.004
-684.295	-200.000	-0.002	-0.341
-683.281	-161.353	0.419	-0.022
-682.266	-200.000	-0.034	-0.155
-681.251	280.925	-0.130	-0.233
-680.237	6.078	-0.161	0.119
-679.222	321.004	-0.134	0.253
-678.208	-200.000	0.004	0.268
-677.193	-1.855	0.289	0.203
-676.178	-200.000	-0.029	0.191
-675.164	18.983	-0.199	-0.159
-674.149	-157.158	0.068	0.004
-673.135	-200.000	0.016	0.082
-672.120	118.784	0.031	0.038
-671.105	-93.793	-0.213	-0.059
-670.091	11.913	-0.110	-0.085
-669.076	800.000	-0.075	0.259
-668.062	241.270	-0.052	-0.087
-667.047	-120.190	0.182	0.031
-666.032	800.000	0.154	-0.453
-665.018	274.830	0.066	0.116
-664.003	224.548	-0.090	0.145
-662.989	-25.901	0.290	-0.170
-661.974	-110.314	-0.217	0.045
-660.959	230.122	-0.112	-0.183
-659.945	-175.588	-0.235	0.006
-658.930	-112.447	0.109	0.022
-657.916	-105.978	-0.141	0.032
-656.901	419.852	0.147	-0.314
-655.886	-138.487	0.319	-0.035
-654.872	251.167	0.076	-0.128
-653.857	-200.000	-0.006	-0.164
-652.843	800.000	0.058	-0.183
-651.828	38.990	-0.131	0.116
-650.814	688.620	-0.053	0.137
-649.799	-200.000	-0.044	-0.262
-648.784	7.029	-0.097	0.072
-647.770	-133.480	0.069	0.009
-646.755	53.956	0.138	0.132
-645.741	33.249	0.081	-0.070
-644.726	458.279	-0.078	-0.173
-643.711	364.957	0.110	-0.221
-642.697	21.285	-0.306	-0.247
-641.682	-64.601	-0.459	0.185
-640.668	-47.745	-0.046	-0.022
-639.653	-99.534	0.168	0.042
-638.638	800.000	-0.026	-0.096
-637.624	-165.771	0.264	-0.011
-636.609	179.632	-0.104	-0.152
-635.595	103.123	-0.230	0.268
-634.580	-200.000	0.023	0.214
-633.565	-149.251	-0.215	-0.017
-632.551	-200.000	-0.023	-0.351
-631.536	217.266	0.054	0.086
-630.522	67.235	0.131	0.133
-629.507	-200.000	-0.027	0.440
-628.492	686.960	-0.190	-0.494
-627.478	12.637	0.097	0.074
-626.463	69.935	0.220	-0.226
-625.449	63.178	-0.088	0.088
-624.434	-68.062	0.385	0.149
-623.419	15.870	-0.218	0.171
-622.405	-97.078	0.026	-0.007
-621.390	123.370	-0.074	-0.093
-620.376	-121.013	0.233	-0.039
-619.361	-200.000	-0.031	0.281
-618.346	35.344	-0.113	-0.099
-617.332	203.177	-0.162	-0.249
-616.317	-72.657	0.197	0.072
-615.303	-142.057	-0.071	-0.007
-614.288	512.778	0.054	0.124
-613.273	70.110	-0.133	-0.136
-612.259	516.696	0.130	0.302
-611.244	-78.785	0.178	-0.060
-610.230	354.405	-0.098	-0.194
-609.215	-80.856	0.232	-0.077
-608.201	145.102	0.133	0.176
-607.186	-125.267	-0.296	-0.045
-606.171	124.818	-0.278	-0.348
-605.157	800.000	-0.070	-0.278
-604.142	260.993	-0.122	-0.211
-603.128	-200.000	0.049	-0.298
-602.113	-56.127	-0.106	-0.047
-601.098	360.547	-0.055	0.109
-600.084	175.668	-0.183	-0.263
-599.069	-200.000	-0.064	-0.282
-598.055	26.461	0.049	0.041
-597.040	23.747	0.164	-0.134
-596.025	-200.000	-0.001	0.024
-595.011	800.000	0.076	-0.298
-593.996	-200.000	0.040	0.282
-592.982	272.917	0.138	-0.243
-591.967	-78.817	-0.102	-0.035
-590.952	-68.358	-0.227	0.088
-589.938	-200.000	-0.011	0.110
-588.923	98.520	0.146	-0.167
-587.909	-147.426	-0.379	-0.032
-586.894	-200.000	-0.015	0.194
-585.879	112.528	-0.293	0.352
-584.865	55.647	-0.201	-0.193
-583.850	-44.887	0.238	-0.118
-582.836	-36.522	0.193	0.103
-581.821	-200.000	-0.025	0.136
-580.806	-108.860	-0.516	-0.109
-579.792	-200.000	0.003	-0.080
-578.777	-200.000	-0.019	0.141
-577.763	-148.631	0.249	-0.020
-576.748	540.602	-0.139	0.329
-575.733	63.251	0.367	-0.365
-574.719	514.656	-0.146	0.338
-573.704	40.956	-0.115	-0.103
-572.690	-200.000	0.014	0.272
-571.675	217.140	-0.067	-0.106
-570.661	-196.227	0.092	-0.001
-569.646	94.194	-0.085	-0.095
-568.631	22.880	-0.068	0.055
-567.617	77.441	0.070	-0.074
-566.602	-200.000	-0.013	-0.118
-565.588	-78.369	-0.119	0.040
-564.573	237.548	-0.190	-0.313
-563.558	-44.567	0.093	0.046
-562.544	-165.412	-0.370	-0.016
-561.529	107.329	0.251	0.296
-560.515	203.092	-0.114	-0.174
-559.500	6.631	0.158	0.117
-558.485	113.985	0.124	0.150
-557.471	-131.185	0.126	0.017
-556.456	147.827	0.160	0.214
-555.442	-3.266	-0.121	0.084
-554.427	-178.189	-0.373	0.009
-553.412	-148.177	0.179	-0.015
-552.398	16.451	0.211	-0.166
-551.383	-38.486	0.457	-0.240
-550.369	321.044	-0.138	0.260
-549.354	-172.223	-0.093	-0.003
-548.339	-65.469	-0.324	0.129
-547.325	800.000	-0.016	-0.051
-546.310	-200.000	-0.045	-0.309
-545.296	-139.915	-0.133	-0.014
-544.281	-59.545	-0.335	0.143
-543.266	-148.844	0.268	-0.021
-542.252	800.000	0.118	0.372
-541.237	-1.341	0.173	0.121
-540.223	-200.000	0.049	0.293
-539.208	628.196	-0.174	-0.436
-538.193	-98.538	-0.297	0.075
-537.179	800.000	-0.079	0.262
-536.164	-107.269	0.330	-0.072
-535.150	6.822	0.241	0.178
-534.135	143.595	-0.028	-0.036
-533.121	-160.062	-0.371	-0.020
-532.106	-200.000	-0.044	-0.357
-531.091	800.000	-0.067	-0.195
-530.077	800.000	0.101	-0.292
-529.062	-200.000	0.039	-0.208
-528.048	-52.318	0.111	0.051
-527.033	283.448	0.110	0.196
-526.018	279.057	0.142	-0.251
-525.004	277.805	0.076	-0.135
-523.989	81.931	-0.101	0.109
-522.975	800.000	0.038	-0.134
-521.960	-164.825	0.149	0.007
-520.945	32.926	0.148	0.127
-519.931	-164.695	-0.329	-0.015
-518.916	282.195	-0.031	-0.056
-517.902	-200.000	-0.037	0.272
-516.887	52.029	-0.201	-0.190
-515.872	-182.477	-0.144	0.003
-514.858	800.000	0.060	0.164
-513.843	43.847	0.075	-0.068
-512.829	-200.000	-0.038	0.290
-511.814	377.587	-0.035	-0.072
-510.799	532.151	-0.120	0.282
-509.785	-200.000	0.037	-0.193
-508.770	526.720	0.058	-0.135
-507.756	-70.570	-0.356	-0.134
-506.741	5.933	0.210	-0.154
-505.726	26.350	0.081	-0.067
-504.712	-37.359	-0.093	-0.049
-503.697	-68.752	-0.331	-0.127
-502.683	800.000	0.082	-0.277
-501.668	-43.753	0.140	-0.070
-500.653	429.588	0.069	0.148
-499.639	48.371	-0.014	0.013
-498.624	-110.818	-0.170	-0.035
-497.610	238.290	-0.077	-0.126
-496.595	-106.923	0.078	-0.017
-495.581	4.388	0.269	0.195
-494.566	-72.713	-0.438	0.160
-493.551	65.010	0.485	-0.485
-492.537	143.169	-0.116	-0.153
-491.522	-200.000	0.020	0.318
-490.508	-200.000	-0.056	-0.362
-489.493	-24.126	0.220	0.130
-488.478	453.084	-0.123	0.270
-487.464	-96.811	0.261	0.068
-486.449	56.382	-0.057	-0.055
-485.435	128.703	0.166	-0.209
-484.420	45.862	-0.152	0.139
-483.405	-200.000	-0.016	0.188
-482.391	439.278	-0.238	-0.513
-481.376	-86.364	-0.112	-0.034
-480.362	-57.268	0.089	-0.039
-479.347	-200.000	-0.001	-0.135
-478.332	-183.921	-0.304	0.005
-477.318	-13.399	-0.270	0.173
-476.303	-148.541	0.217	0.018
-475.289	147.495	-0.249	-0.331
-474.274	-167.923	-0.429	0.017
-473.259	-200.000	0.023	0.175
-472.245	74.181	-0.177	0.184
-471.230	-101.043	0.273	0.066
-470.216	-160.340	-0.237	0.013
-469.201	-200.000	0.081	-0.416
-468.186	800.000	0.029	0.112
-467.172	127.220	-0.056	-0.070
-466.157	-59.858	-0.330	0.140
-465.143	-132.066	0.192	0.025
-464.128	-91.626	0.210	0.059
-463.113	-95.164	-0.149	-0.040
-462.099	-136.374	-0.424	0.049
-461.084	-42.235	-0.147	-0.074
-460.070	-102.679	-0.055	-0.013
-459.055	189.948	0.199	-0.295
-458.040	-171.710	-0.145	-0.005
-457.026	94.537	-0.193	0.217
-456.011	438.039	0.092	0.197
-454.997	77.591	0.331	0.348
-453.982	-200.000	0.001	0.043
-452.968	-14.441	0.241	-0.154
-451.953	-200.000	0.026	-0.213
-450.938	-200.000	0.061	-0.408
-449.924	-200.000	0.032	-0.222
-448.909	43.326	0.057	0.051
-447.895	-149.313	0.136	0.011
-446.880	636.266	0.101	-0.254
-445.865	505.720	0.027	0.063
-444.851	269.542	0.123	0.214
-443.836	462.637	-0.096	0.212
-442.822	-53.142	0.148	0.067
-441.807	142.420	-0.122	0.160
-440.792	138.313	-0.097	0.126
-439.778	800.000	-0.033	0.133
-438.763	-150.406	-0.200	-0.015
-437.749	229.392	-0.100	-0.161
-436.734	-200.000	-0.043	-0.326
-435.719	90.342	0.205	0.227
-434.705	800.000	0.057	0.180
-433.690	-107.242	0.250	-0.054
-432.676	58.847	0.080	-0.077
-431.661	84.317	-0.075	-0.081
-430.646	-113.840	-0.107	0.021
-429.632	388.345	0.026	0.053
-428.617	-35.054	0.258	0.139
-427.603	61.921	-0.222	-0.218
-426.588	-27.226	0.260	0.149
-425.573	-131.369	-0.253	0.033
-424.559	-200.000	-0.012	0.145
-423.544	68.149	0.139	-0.140
-422.530	-149.493	0.101	-0.008
-421.515	-200.000	0.016	0.090
-420.500	176.755	-0.143	-0.205
-419.486	-22.077	0.221	0.132
-418.471	-151.061	0.231	0.017
-417.457	204.993	0.250	0.383
-416.442	-200.000	-0.001	0.012
-415.428	739.982	-0.026	-0.069
-414.413	-200.000	-0.042	-0.322
-413.398	20.252	0.242	-0.193
-412.384	-114.230	0.072	0.014
-411.369	-72.948	0.291	-0.106
-410.355	-90.408	-0.261	-0.075
-409.340	-200.000	0.032	0.144
-408.325	800.000	-0.026	0.113
-407.311	800.000	-0.073	0.280
-406.296	-95.179	0.329	-0.088
-405.282	-170.361	0.291	-0.010
-404.267	130.524	-0.270	0.342
-403.252	-105.929	-0.327	-0.073
-402.238	-121.972	-0.359	-0.058
-401.223	800.000	0.070	0.223
-400.209	33.413	-0.073	-0.062
-399.194	-99.798	-0.082	0.020
-398.179	-200.000	-0.060	-0.455
-397.165	-76.482	-0.320	0.111
-396.150	-135.368	0.179	-0.021
-395.136	800.000	-0.046	0.179
-394.121	-84.189	-0.107	-0.033
-393.106	-79.647	-0.206	-0.068
-392.092	-70.919	0.275	0.102
-391.077	-200.000	0.056	-0.312
-390.063	-24.856	0.146	0.086
-389.048	43.439	0.257	-0.232
-388.033	581.159	-0.072	0.174
-387.019	-38.197	-0.202	-0.106
-386.004	-200.000	-0.016	0.143
-384.990	-66.838	-0.156	0.061
-383.975	-77.733	0.145	-0.049
-382.960	-200.000	0.017	-0.218
-381.946	52.014	0.137	-0.129
-380.931	-101.004	0.530	0.128
-379.917	-200.000	-0.027	-0.363
-378.902	-136.834	-0.398	0.045
-377.888	-111.935	0.117	-0.023
-376.873	800.000	0.018	0.062
-375.858	26.029	-0.145	-0.119
-374.844	-101.395	0.152	0.036
-373.829	-148.929	-0.398	-0.032
-372.815	162.110	-0.157	0.216
-371.800	152.700	-0.168	-0.227
-370.785	141.472	-0.091	0.118
-369.771	-125.953	0.283	-0.042
-368.756	-200.000	0.017	-0.152
-367.742	-107.230	0.207	-0.045
-366.727	-105.390	0.262	0.059
-365.712	-12.094	0.405	0.261
-364.698	-68.502	-0.134	0.051
-363.683	-200.000	-0.124	-0.622
-362.669	-124.286	-0.181	0.028
-361.654	-179.060	0.344	-0.008
-360.639	-200.000	-0.002	-0.066
-359.625	499.148	-0.145	0.330
-358.610	-132.047	0.318	-0.041
-357.596	800.000	-0.099	0.286
-356.581	106.794	-0.261	-0.305
-355.566	273.815	-0.104	-0.180
-354.552	-132.773	-0.283	0.036
-353.537	-200.000	-0.006	0.092
-352.523	-200.000	-0.005	-0.180
-351.508	10.673	0.113	-0.085
-350.493	-23.438	-0.169	0.100
-349.479	800.000	0.028	-0.119
-348.464	5.712	-0.134	0.097
-347.450	-94.221	-0.126	-0.034
-346.435	-68.982	-0.271	0.103
-345.420	-114.463	0.101	0.019
-344.406	-200.000	-0.050	0.289
-343.391	-200.000	-0.019	0.168
-342.377	-161.292	0.345	-0.018
-341.362	12.734	0.400	-0.304
-340.348	-200.000	0.016	0.165
-339.333	223.270	0.128	-0.202
-338.318	-200.000	-0.081	0.396
-337.304	171.066	-0.148	0.209
-336.289	-34.134	-0.322	0.174
-335.275	206.736	0.278	-0.425
-334.260	53.793	-0.184	-0.173
-333.245	-123.366	0.292	0.046
-332.231	178.334	0.064	0.092
-331.216	517.903	0.088	0.202
-330.202	18.873	-0.058	-0.046
-329.187	-98.431	0.243	-0.061
-328.172	-30.779	-0.061	-0.034
-327.158	800.000	-0.083	0.311
-326.143	-121.094	0.087	0.014
-325.129	248.604	0.211	0.351
-324.114	4.262	-0.114	0.082
-323.099	200.965	-0.276	-0.417
-322.085	800.000	-0.097	0.389
-321.070	-57.648	0.298	0.128
-320.056	54.558	-0.041	0.039
-319.041	486.728	0.079	-0.176
-318.026	-139.054	-0.254	0.027
-317.012	174.793	0.251	0.358
-315.997	545.191	0.066	-0.154
-314.983	51.293	-0.003	-0.003
-313.968	115.078	-0.118	0.141
-312.953	454.809	-0.049	0.108
-311.939	2.406	0.205	0.146
-310.924	-116.723	0.159	-0.029
-309.910	-68.617	0.188	-0.072
-308.895	-200.000	0.049	-0.358
-307.880	-200.000	0.023	0.296
-306.866	210.975	0.125	0.194
-305.851	-200.000	-0.035	-0.391
-304.837	8.875	-0.021	-0.016
-303.822	-200.000	0.007	-0.385
-302.807	151.314	0.175	0.235
-301.793	194.717	0.101	0.151
-300.778	800.000	0.009	0.035
-299.764	800.000	-0.076	-0.226
-298.749	-57.320	0.168	-0.073
-297.735	515.374	-0.164	0.377
-296.720	725.508	-0.068	-0.178
-295.705	-42.146	0.302	-0.152
-294.691	-113.768	-0.059	-0.011
-293.676	440.316	-0.044	0.093
-292.662	294.060	0.100	0.179
-291.647	-106.206	0.028	0.006
-290.632	-112.300	-0.063	0.012
-289.618	592.350	-0.083	-0.200
-288.603	-200.000	0.002	0.239
-287.589	363.927	0.072	-0.142
-286.574	800.000	0.114	0.335
-285.559	205.999	0.052	-0.080
-284.545	269.547	-0.088	0.152
-283.530	-111.364	-0.284	-0.057
-282.516	226.540	-0.142	0.227
-281.501	45.911	-0.284	0.258
-280.486	-200.000	-0.028	0.328
-279.472	-32.206	0.094	0.051
-278.457	291.128	-0.139	-0.248
-277.443	313.174	-0.042	0.078
-276.428	-89.694	-0.145	-0.042
-275.413	-200.000	-0.034	-0.338
-274.399	151.090	0.079	-0.106
-273.384	-97.329	-0.369	0.094
-272.370	700.934	-0.073	0.189
-271.355	-123.595	-0.068	-0.011
-270.340	-123.110	-0.120	0.019
-269.326	-200.000	-0.017	-0.155
-268.311	-111.318	0.261	-0.052
-267.297	226.867	0.243	-0.387
-266.282	702.164	0.030	-0.077
-265.267	-20.455	-0.202	-0.122
-264.253	1.923	-0.282	-0.199
-263.238	62.616	-0.086	0.084
-262.224	171.288	0.085	0.120
-261.209	-18.605	-0.188	-0.115
-260.195	800.000	-0.074	-0.244
-259.180	232.625	0.164	0.264
-258.165	504.545	0.023	-0.052
-257.151	105.803	0.210	0.243
-256.136	-200.000	0.003	-0.173
-255.122	800.000	0.049	-0.203
-254.107	591.976	-0.074	0.179
-253.092	56.167	0.146	-0.139
-252.078	-200.000	0.015	-0.285
-251.063	-88.732	0.175	0.051
-250.049	800.000	-0.036	0.150
-249.034	-21.948	-0.194	-0.116
-248.019	-124.935	-0.230	-0.035
-247.005	-200.000	-0.053	0.253
-245.990	-200.000	-0.073	0.412
-244.976	118.410	-0.173	0.210
-243.961	-200.000	0.002	-0.086
-242.946	-200.000	0.041	0.228
-241.932	800.000	0.156	0.488
-240.917	-120.155	0.193	-0.032
-239.903	88.025	-0.139	0.151
-238.888	128.424	0.167	-0.208
-237.873	276.564	0.064	0.111
-236.859	25.125	0.201	-0.164
-235.844	-120.811	0.147	0.024
-234.830	503.039	-0.088	0.199
-233.815	58.807	0.184	0.177
-232.800	119.059	0.118	0.143
-231.786	96.668	0.208	0.233
-230.771	733.640	0.198	-0.519
-229.757	-126.739	0.459	0.066
-228.742	-134.253	-0.155	-0.019
-227.727	800.000	-0.065	0.197
-226.713	-71.731	0.190	-0.069
-225.698	-20.405	0.098	-0.059
-224.684	44.155	0.233	-0.210
-223.669	-12.501	-0.158	-0.101
-222.655	-101.789	0.414	0.098
-221.640	-82.704	-0.174	-0.055
-220.625	-9.298	0.115	0.075
-219.611	453.053	0.092	-0.199
-218.596	719.548	0.055	0.143
-217.582	-36.363	-0.042	0.022
-216.567	35.057	0.030	-0.025
-215.552	444.772	0.082	-0.176
-214.538	-90.625	0.168	-0.048
-213.523	-103.358	0.287	0.066
-212.509	616.063	0.056	0.137
-211.494	135.020	-0.141	0.179
-210.479	137.642	0.225	0.288
-209.465	-35.966	-0.307	0.162
-208.450	50.278	0.097	-0.090
-207.436	-52.781	-0.384	-0.173
-206.421	-143.909	0.021	0.002
-205.406	-200.000	-0.027	0.128
-204.392	-30.318	0.255	0.142
-203.377	-56.148	0.095	-0.041
-202.363	21.391	0.167	0.133
-201.348	148.079	0.132	0.174
-200.333	-102.213	-0.140	0.033
-199.319	-97.427	0.040	-0.010
-198.304	-200.000	-0.010	0.221
-197.290	-87.405	-0.165	0.049
-196.275	-14.007	0.238	0.150
-195.260	429.076	0.092	-0.195
-194.246	104.654	0.127	0.147
-193.231	200.712	-0.003	-0.005
-192.217	21.569	-0.141	0.112
-191.202	-151.098	-0.199	0.015
-190.187	-67.197	0.131	-0.051
-189.173	-58.578	-0.199	-0.084
-188.158	142.157	-0.029	-0.037
-187.144	800.000	-0.121	-0.387
-186.129	-200.000	-0.010	0.058
-185.114	20.520	-0.143	0.113
-184.100	-125.990	-0.180	0.026
-183.085	47.991	-0.315	-0.287
-182.071	21.456	0.174	0.138
-181.056	-50.301	0.242	0.112
-180.042	-1.239	-0.090	-0.062
-179.027	-200.000	0.040	0.261
-178.012	-200.000	-0.016	-0.220
-176.998	163.899	-0.149	-0.204
-175.983	-132.151	0.169	-0.021
-174.969	382.652	0.103	0.207
-173.954	188.837	-0.107	-0.157
-172.939	0.335	0.158	0.110
-171.925	136.794	0.169	0.216
-170.910	69.312	-0.084	0.085
-169.896	-19.647	0.199	-0.120
-168.881	-42.906	-0.380	0.189
-167.866	-200.000	-0.022	-0.139
-166.852	-44.366	0.101	-0.050
-165.837	-200.000	0.042	0.283
-164.823	478.442	-0.154	0.340
-163.808	-200.000	0.042	-0.290
-162.793	-126.724	0.089	-0.013
-161.779	-200.000	0.049	-0.237
-160.764	227.894	0.038	-0.060
-159.750	800.000	0.079	-0.256
-158.735	-200.000	0.034	0.327
-157.720	-200.000	-0.011	0.129
-156.706	85.360	-0.129	-0.138
-155.691	-200.000	0.120	0.584
-154.677	-39.719	-0.349	-0.178
-153.662	800.000	-0.044	-0.133
-152.647	-166.404	0.124	-0.005
-151.633	-200.000	-0.039	-0.273
-150.618	-127.495	-0.169	0.024
-149.604	-78.352	-0.344	0.115
-148.589	-18.678	-0.203	0.123
-147.574	-107.587	0.220	0.047
-146.560	-133.759	0.333	0.040
-145.545	109.672	0.029	-0.034
-144.531	-61.713	-0.318	-0.130
-143.516	-148.750	0.071	0.006
-142.502	392.239	0.012	0.024
-141.487	206.416	0.037	-0.057
-140.472	196.011	-0.166	0.246
-139.458	13.463	0.124	0.094
-138.443	35.093	0.103	-0.088
-137.429	-73.415	0.163	-0.058
-136.414	-30.932	0.177	-0.098
-135.399	-66.755	0.346	-0.134
-134.385	409.523	-0.042	-0.086
-133.370	800.000	-0.046	0.192
-132.356	-128.547	0.247	0.034
-131.341	-172.093	0.194	0.006
-130.326	64.642	0.232	0.228
-129.312	-42.296	-0.330	0.164
-128.297	44.257	0.276	-0.247
-127.283	338.660	-0.146	0.277
-126.268	-98.609	0.077	-0.019
-125.253	188.221	0.136	0.199
-124.239	-46.789	-0.121	-0.058
-123.224	359.438	-0.167	0.326
-122.210	417.366	0.158	0.330
