DTS Sentinel unit serial number:	SN413079Multiplexer serial number:	ORYXHardware model number:	OX4-SRSoftware version number:	ORYX F/W v4.00 Oryx Data Collector v3.7.2.0data status	okinstallation	princeton_trtdifferential loss correction	single-endedforward channel	channel 3reverse channel	N/Adate	2019/09/15time	16:40:35forward acquisition time	60.00reverse acquisition time	0.00gamma	496.2192k internal	0.2289k external	0.2289temperature offset calibration	0.9933default loss term (dB/km)	0.3790temperature slope calibration	1.0000multiplexer offset coefficient	1.0000multiplexer slope coefficient	1.0000fibre end	0.00T internal ref (°C)	44.16T ext. ref 1 (°C)	5.68T ext. ref 2 (°C)	40.30length (m)	temperature (°C)	Stokes	anti-Stokes-747.200	-81.846	0.190	0.064
-746.185	800.000	0.098	0.422
-745.171	12.990	0.077	-0.061
-744.156	178.044	-0.207	0.309
-743.142	-200.000	0.020	0.096
-742.127	26.940	-0.083	0.071
-741.112	-117.373	0.397	-0.074
-740.098	-200.000	0.014	0.144
-739.083	323.603	-0.069	0.135
-738.069	-107.089	0.034	0.008
-737.054	35.157	0.087	-0.078
-736.039	-65.383	-0.171	-0.071
-735.025	-0.834	-0.130	-0.094
-734.010	-101.116	0.275	-0.069
-732.996	-58.231	-0.127	-0.057
-731.981	173.640	-0.145	-0.215
-730.966	-112.399	-0.263	-0.054
-729.952	88.496	-0.178	-0.203
-728.937	-69.676	-0.043	0.017
-727.923	-200.000	-0.003	0.043
-726.908	41.105	0.252	-0.234
-725.894	-142.135	0.230	0.023
-724.879	67.154	-0.118	-0.124
-723.864	-200.000	-0.014	-0.219
-722.850	800.000	0.051	-0.165
-721.835	-200.000	-0.033	-0.147
-720.821	-17.529	0.023	-0.015
-719.806	-200.000	-0.002	-0.127
-718.791	-200.000	-0.076	-0.407
-717.777	-101.737	0.244	-0.061
-716.762	166.225	-0.035	0.050
-715.748	-83.276	0.083	0.027
-714.733	78.071	0.062	0.068
-713.718	258.532	0.172	-0.304
-712.704	258.384	-0.133	0.235
-711.689	594.556	0.073	-0.185
-710.675	23.097	-0.208	0.174
-709.660	8.993	0.074	-0.057
-708.645	-93.769	0.167	-0.047
-707.631	-159.535	0.002	0.000
-706.616	-28.720	0.042	-0.025
-705.602	-62.892	-0.210	-0.089
-704.587	-200.000	0.010	0.166
-703.572	800.000	-0.100	0.285
-702.558	81.623	0.072	-0.080
-701.543	-76.457	-0.296	0.107
-700.529	-51.467	-0.089	0.042
-699.514	-86.655	-0.155	-0.049
-698.499	588.916	-0.077	-0.193
-697.485	-200.000	0.034	0.194
-696.470	-85.367	-0.150	-0.048
-695.456	46.063	-0.087	-0.082
-694.441	-200.000	-0.004	-0.111
-693.426	-80.008	-0.294	-0.101
-692.412	158.601	-0.230	-0.327
-691.397	-72.197	0.040	0.015
-690.383	8.246	0.151	0.116
-689.368	-14.582	-0.190	-0.125
-688.354	274.519	0.084	-0.151
-687.339	-12.007	0.077	0.052
-686.324	28.384	-0.281	-0.243
-685.310	82.207	-0.169	-0.187
-684.295	106.238	-0.230	-0.279
-683.281	27.847	-0.237	-0.204
-682.266	342.178	0.064	0.128
-681.251	-120.492	-0.178	-0.031
-680.237	-124.697	0.196	-0.031
-679.222	108.339	-0.067	0.082
-678.208	88.056	-0.018	0.021
-677.193	-22.594	-0.214	0.133
-676.178	86.656	0.131	0.147
-675.164	-200.000	0.017	0.088
-674.149	242.995	-0.088	-0.151
-673.135	-200.000	0.023	0.189
-672.120	599.409	-0.182	0.461
-671.105	756.770	0.092	0.255
-670.091	737.239	-0.103	0.281
-669.076	336.617	-0.072	0.142
-668.062	-10.719	-0.147	0.099
-667.047	-120.111	-0.183	-0.032
-666.032	-51.014	0.245	0.117
-665.018	-122.397	0.354	-0.059
-664.003	-111.362	0.061	0.013
-662.989	45.281	-0.223	0.210
-661.974	-200.000	0.001	-0.194
-660.959	597.501	0.073	-0.186
-659.945	-175.080	-0.333	-0.009
-658.930	59.003	-0.082	0.082
-657.916	-39.505	-0.294	0.158
-656.901	-129.011	-0.177	0.025
-655.886	-82.457	-0.096	-0.032
-654.872	186.806	-0.097	0.147
-653.857	-4.649	0.083	-0.058
-652.843	486.388	0.097	-0.225
-651.828	-87.664	-0.244	-0.075
-650.814	-112.821	0.295	0.060
-649.799	228.797	-0.098	0.164
-648.784	19.504	0.075	0.061
-647.770	-112.883	-0.082	-0.017
-646.755	601.921	0.093	-0.237
-645.741	-97.194	-0.192	0.051
-644.726	-139.469	-0.155	0.017
-643.711	746.215	-0.043	-0.119
-642.697	-82.841	0.216	-0.071
-641.682	-200.000	0.003	0.032
-640.668	-153.811	0.166	-0.012
-639.653	-147.204	-0.327	-0.028
-638.638	-101.569	-0.395	-0.098
-637.624	-146.866	-0.272	0.024
-636.609	354.124	0.058	0.118
-635.595	-200.000	0.017	-0.152
-634.580	342.562	0.136	0.272
-633.565	133.371	-0.209	0.276
-632.551	-168.745	-0.062	-0.002
-631.536	-103.178	-0.174	0.042
-630.522	-156.522	-0.138	0.009
-629.507	-200.000	-0.026	-0.273
-628.492	-200.000	-0.006	-0.219
-627.478	28.361	-0.312	0.269
-626.463	-102.517	-0.204	0.050
-625.449	131.934	-0.150	-0.197
-624.434	-145.242	-0.150	-0.014
-623.419	800.000	-0.080	-0.338
-622.405	370.146	0.094	-0.194
-621.390	625.155	0.110	-0.283
-620.376	4.093	0.246	0.184
-619.361	-200.000	-0.045	0.259
-618.346	-5.982	0.028	-0.020
-617.332	82.186	-0.173	0.192
-616.317	498.447	0.084	-0.197
-615.303	245.011	0.060	-0.103
-614.288	-67.411	-0.091	-0.036
-613.273	143.305	-0.149	-0.202
-612.259	-43.910	-0.351	-0.180
-611.244	50.820	0.160	-0.155
-610.230	-53.108	0.176	0.082
-609.215	44.029	0.145	-0.135
-608.201	14.857	0.241	-0.192
-607.186	36.462	0.085	-0.077
-606.171	59.935	0.269	0.271
-605.157	-143.607	-0.201	0.019
-604.142	147.123	0.078	0.107
-603.128	-126.998	0.195	0.029
-602.113	800.000	0.038	-0.134
-601.098	800.000	-0.015	-0.046
-600.084	-74.798	-0.282	0.103
-599.069	-65.829	0.171	0.070
-598.055	-97.944	0.112	0.030
-597.040	-62.557	-0.239	0.101
-596.025	112.925	0.214	-0.264
-595.011	-200.000	0.026	-0.275
-593.996	35.493	0.204	0.183
-592.982	800.000	0.179	0.579
-591.967	79.554	-0.154	-0.169
-590.952	107.503	-0.205	0.249
-589.938	800.000	-0.023	0.067
-588.923	479.130	0.131	0.301
-587.909	246.011	0.107	0.183
-586.894	46.087	-0.090	0.085
-585.879	343.158	-0.063	-0.126
-584.865	-120.530	-0.287	0.050
-583.850	31.369	0.145	0.127
-582.836	-200.000	0.003	0.192
-581.821	-165.821	0.126	-0.006
-580.806	-113.421	0.166	0.033
-579.792	359.693	0.045	-0.092
-578.777	7.193	0.276	0.210
-577.763	-119.409	-0.245	0.043
-576.748	193.333	0.133	0.204
-575.733	439.213	0.124	-0.275
-574.719	-6.879	0.069	-0.048
-573.704	220.934	-0.096	0.158
-572.690	65.801	-0.266	-0.274
-571.675	-20.846	-0.227	-0.142
-570.661	674.195	-0.214	0.565
-569.646	625.678	0.053	0.136
-568.631	-1.727	-0.255	-0.183
-567.617	1.472	0.245	-0.179
-566.602	-53.738	0.227	-0.106
-565.588	-200.000	-0.000	0.016
-564.573	-73.856	-0.381	0.141
-563.558	76.357	0.142	0.153
-562.544	254.291	0.057	-0.100
-561.529	800.000	-0.077	0.271
-560.515	163.458	-0.078	-0.111
-559.500	409.256	-0.089	-0.192
-558.485	-101.252	0.090	-0.022
-557.471	-108.954	0.182	-0.040
-556.456	53.834	0.097	-0.095
-555.442	-200.000	-0.022	-0.176
-554.427	-11.023	0.291	-0.195
-553.412	-45.044	0.408	0.207
-552.398	-137.025	0.436	0.051
-551.383	-89.578	0.119	-0.036
-550.369	-112.980	-0.284	0.057
-549.354	-89.538	-0.302	-0.090
-548.339	-149.645	0.328	0.026
-547.325	-61.193	-0.232	-0.100
-546.310	40.862	0.096	0.088
-545.296	-200.000	-0.004	0.200
-544.281	800.000	-0.085	-0.297
-543.266	452.492	-0.101	0.226
-542.252	56.352	0.145	0.143
-541.237	-200.000	0.025	-0.447
-540.223	-155.680	0.229	-0.015
-539.208	81.320	-0.254	-0.279
-538.193	-200.000	-0.001	-0.342
-537.179	800.000	0.095	0.420
-536.164	296.266	-0.171	-0.320
-535.150	103.339	-0.120	0.143
-534.135	-115.458	-0.215	-0.041
-533.121	-200.000	-0.023	-0.132
-532.106	107.327	0.213	0.258
-531.091	-109.369	-0.105	-0.023
-530.077	-82.232	0.266	0.088
-529.062	800.000	-0.027	-0.090
-528.048	62.216	-0.201	-0.204
-527.033	-34.504	-0.159	0.088
-526.018	-200.000	0.025	-0.271
-525.004	-200.000	-0.028	-0.220
-523.989	-93.844	-0.013	0.004
-522.975	800.000	0.150	0.477
-521.960	-6.475	-0.163	-0.113
-520.945	9.833	-0.331	-0.255
-519.931	347.684	0.058	-0.115
-518.916	-106.188	0.268	-0.061
-517.902	-54.720	-0.222	0.102
-516.887	-200.000	-0.018	0.113
-515.872	88.824	0.117	-0.132
-514.858	782.467	0.068	-0.189
-513.843	-119.740	-0.287	0.050
-512.829	12.222	-0.104	0.081
-511.814	215.752	0.106	-0.172
-510.799	-110.000	0.073	0.016
-509.785	800.000	-0.034	0.125
-508.770	-44.980	-0.134	-0.068
-507.756	-98.912	0.008	-0.002
-506.741	-200.000	0.026	-0.208
-505.726	148.767	0.066	-0.090
-504.712	-78.373	0.105	-0.037
-503.697	-200.000	-0.064	-0.342
-502.683	-65.098	-0.302	0.124
-501.668	161.629	0.254	0.361
-500.653	-113.159	0.255	0.051
-499.639	6.864	-0.208	-0.157
-498.624	336.693	-0.142	-0.279
-497.610	-137.733	-0.269	-0.031
-496.595	-200.000	0.009	-0.126
-495.581	14.147	0.259	0.204
-494.566	-200.000	-0.044	0.239
-493.551	-93.443	-0.152	0.043
-492.537	800.000	-0.095	0.360
-491.522	134.785	-0.049	0.064
-490.508	89.894	-0.134	0.152
-489.493	26.889	0.192	-0.163
-488.478	133.671	-0.078	-0.102
-487.464	-50.411	0.436	0.209
-486.449	-143.393	-0.231	0.022
-485.435	31.705	-0.378	-0.330
-484.420	-199.572	-0.249	0.001
-483.405	664.490	0.127	0.333
-482.391	79.915	0.125	-0.137
-481.376	115.876	0.224	0.278
-480.362	-139.835	-0.083	-0.009
-479.347	-200.000	0.047	0.372
-478.332	-181.319	-0.209	-0.004
-477.318	-95.940	-0.160	0.043
-476.303	27.148	-0.216	0.184
-475.289	149.312	-0.122	-0.168
-474.274	-47.450	0.178	0.088
-473.259	94.288	-0.096	0.110
-472.245	-10.268	-0.113	-0.076
-471.230	332.191	-0.200	0.391
-470.216	90.895	0.069	0.079
-469.201	24.831	-0.123	-0.103
-468.186	4.719	0.175	0.131
-467.172	66.787	0.103	-0.106
-466.157	29.563	-0.138	-0.119
-465.143	666.577	0.081	0.213
-464.128	54.980	0.105	-0.103
-463.113	108.807	0.174	-0.211
-462.099	700.351	-0.061	-0.164
-461.084	523.910	0.076	-0.181
-460.070	254.925	0.134	0.232
-459.055	-94.768	0.122	-0.034
-458.040	-200.000	0.014	-0.091
-457.026	-200.000	0.017	-0.099
-456.011	800.000	-0.084	-0.325
-454.997	-11.660	0.151	-0.100
-453.982	-200.000	0.020	0.439
-452.968	685.865	-0.089	0.235
-451.953	13.161	0.082	0.064
-450.938	368.390	0.074	0.151
-449.924	-27.948	0.130	-0.077
-448.909	-50.237	0.201	-0.096
-447.895	142.519	0.088	-0.119
-446.880	-127.909	0.273	-0.040
-445.865	363.028	0.135	0.275
-444.851	-200.000	0.036	-0.166
-443.836	-136.540	0.055	-0.006
-442.822	-59.081	-0.132	-0.058
-441.807	111.456	0.040	-0.049
-440.792	485.647	-0.211	0.488
-439.778	-124.445	-0.077	-0.012
-438.763	-67.702	0.273	-0.108
-437.749	52.587	-0.122	-0.118
-436.734	-200.000	0.006	-0.198
-435.719	185.599	0.108	-0.163
-434.705	-200.000	-0.048	-0.218
-433.690	-200.000	0.043	-0.429
-432.676	-139.382	-0.328	0.036
-431.661	146.856	0.171	-0.232
-430.646	-200.000	0.021	0.164
-429.632	-200.000	0.004	0.260
-428.617	100.344	-0.178	-0.210
-427.603	33.451	0.275	0.241
-426.588	-90.845	0.194	0.056
-425.573	98.531	-0.128	0.150
-424.559	323.021	0.062	-0.119
-423.544	800.000	-0.042	0.176
-422.530	24.981	-0.056	-0.047
-421.515	-157.287	-0.173	-0.011
-420.500	16.516	-0.306	0.244
-419.486	83.216	0.325	0.358
-418.471	-105.009	0.127	-0.030
-417.457	-200.000	0.052	0.401
-416.442	504.380	0.109	0.255
-415.428	-7.860	-0.267	-0.182
-414.413	-144.693	-0.068	-0.006
-413.398	-94.003	-0.088	0.024
-412.384	-52.025	0.293	0.138
-411.369	-75.552	0.107	0.039
-410.355	-50.143	0.205	-0.098
-409.340	-55.503	-0.135	0.061
-408.325	86.315	-0.136	-0.152
-407.311	800.000	0.063	-0.218
-406.296	800.000	-0.064	0.226
-405.282	-88.101	-0.150	0.046
-404.267	800.000	-0.058	0.175
-403.252	-200.000	0.039	0.250
-402.238	-200.000	-0.039	0.232
-401.223	60.872	0.197	-0.197
-400.209	-124.751	0.050	-0.008
-399.194	-134.398	-0.233	0.029
-398.179	105.378	0.169	-0.202
-397.165	800.000	-0.101	0.353
-396.150	-80.835	-0.150	0.051
-395.136	-93.985	-0.143	-0.040
-394.121	110.210	0.125	-0.152
-393.106	48.775	-0.121	-0.114
-392.092	-47.204	-0.216	0.107
-391.077	-200.000	0.024	0.132
-390.063	-200.000	0.017	-0.313
-389.048	-200.000	0.009	0.061
-388.033	45.084	-0.069	-0.064
-387.019	428.639	0.123	0.269
-386.004	19.877	-0.279	-0.227
-384.990	-83.746	-0.277	0.089
-383.975	-75.076	0.225	-0.081
-382.960	-93.391	0.082	0.023
-381.946	505.580	0.054	0.127
-380.931	-69.676	0.309	-0.119
-379.917	-168.337	0.260	0.010
-378.902	-200.000	-0.016	-0.268
-377.888	-162.576	-0.277	-0.014
-376.873	141.745	0.059	0.079
-375.858	676.879	0.067	-0.175
-374.844	-66.176	0.238	-0.096
-373.829	-145.527	0.313	0.028
-372.815	185.459	0.137	-0.205
-371.800	556.002	0.042	-0.102
-370.785	-200.000	-0.030	-0.349
-369.771	-200.000	-0.005	-0.045
-368.756	-155.620	0.301	0.020
-367.742	800.000	0.047	0.186
-366.727	-173.467	-0.374	0.011
-365.712	-61.035	0.020	-0.009
-364.698	158.972	-0.252	-0.353
-363.683	-200.000	-0.041	-0.361
-362.669	65.338	0.119	-0.122
-361.654	-142.227	-0.235	0.023
-360.639	-200.000	0.019	-0.125
-359.625	-88.119	0.298	0.090
-358.610	-35.284	-0.217	-0.119
-357.596	-200.000	-0.020	0.423
-356.581	-75.740	-0.174	0.062
-355.566	193.173	0.068	-0.103
-354.552	-35.630	0.144	0.079
-353.537	-200.000	-0.266	-0.000
-352.523	-26.305	0.313	-0.186
-351.508	-109.787	0.330	0.070
-350.493	274.915	0.095	-0.169
-349.479	-112.109	0.163	0.033
-348.464	195.528	0.041	0.063
-347.450	-58.701	0.181	-0.079
-346.435	97.412	0.235	0.273
-345.420	-173.054	-0.268	0.008
-344.406	10.443	0.122	-0.094
-343.391	-14.015	-0.096	0.063
-342.377	-100.629	-0.081	0.020
-341.362	-200.000	0.011	0.102
-340.348	291.733	-0.114	-0.209
-339.333	-200.000	0.008	-0.275
-338.318	202.712	0.135	0.210
-337.304	-48.746	0.190	0.092
-336.289	224.943	-0.180	0.294
-335.275	-97.979	0.076	-0.020
-334.260	42.929	-0.061	-0.056
-333.245	-69.821	-0.404	0.155
-332.231	-27.426	-0.112	-0.066
-331.216	356.103	-0.140	0.281
-330.202	-153.335	0.091	-0.006
-329.187	256.861	0.132	-0.229
-328.172	-38.042	0.077	0.041
-327.158	-138.374	0.146	0.016
-326.143	-117.281	0.040	0.007
-325.129	-200.000	-0.000	-0.128
-324.114	800.000	0.047	-0.170
-323.099	-200.000	0.039	-0.353
-322.085	-76.954	-0.156	-0.055
-321.070	-200.000	-0.001	0.140
-320.056	-108.784	-0.159	0.034
-319.041	-200.000	0.089	-0.422
-318.026	450.434	0.055	0.123
-317.012	-2.105	0.306	-0.216
-315.997	800.000	-0.064	-0.245
-314.983	800.000	-0.017	-0.055
-313.968	800.000	-0.092	-0.256
-312.953	166.597	-0.138	0.197
-311.939	-71.215	-0.226	-0.086
-310.924	558.921	0.146	0.356
-309.910	800.000	0.087	-0.243
-308.895	30.953	-0.171	-0.147
-307.880	-170.195	0.170	0.006
-306.866	308.738	0.066	0.125
-305.851	437.459	0.130	-0.286
-304.837	800.000	0.112	-0.342
-303.822	-84.062	0.087	-0.028
-302.807	-49.140	-0.069	-0.033
-301.793	-103.919	-0.178	0.042
-300.778	-149.652	-0.110	-0.009
-299.764	-129.129	0.188	-0.026
-298.749	55.581	0.083	-0.081
-297.735	-70.715	-0.405	0.154
-296.720	189.558	0.051	-0.077
-295.705	521.381	0.051	0.120
-294.691	-50.401	-0.225	-0.107
-293.676	-200.000	0.013	-0.258
-292.662	55.949	-0.069	-0.068
-291.647	-96.804	-0.246	0.065
-290.632	-147.195	0.143	-0.012
-289.618	-106.799	0.280	-0.063
-288.603	128.755	0.103	-0.133
-287.589	-95.336	-0.159	0.043
-286.574	-200.000	-0.030	0.166
-285.559	-43.768	-0.266	0.135
-284.545	667.107	0.006	-0.015
-283.530	31.133	-0.121	-0.104
-282.516	-45.898	0.260	-0.129
-281.501	279.420	0.151	0.272
-280.486	55.491	0.167	-0.163
-279.472	-68.610	-0.404	-0.158
-278.457	196.573	-0.064	0.098
-277.443	-200.000	-0.013	-0.091
-276.428	357.958	0.062	-0.125
-275.413	87.881	-0.256	0.286
-274.399	-79.347	-0.073	-0.025
-273.384	-200.000	-0.039	-0.184
-272.370	163.867	-0.092	0.130
-271.355	80.143	0.113	0.123
-270.340	354.894	0.034	0.068
-269.326	596.470	0.066	-0.165
-268.311	-57.566	-0.154	-0.068
-267.297	-19.815	0.128	0.080
-266.282	10.606	-0.102	-0.078
-265.267	96.170	0.242	-0.278
-264.253	-8.220	-0.086	0.058
-263.238	-200.000	-0.066	0.305
-262.224	450.060	-0.129	0.287
-261.209	800.000	0.046	0.136
-260.195	-17.199	-0.180	0.114
-259.180	-34.246	-0.134	0.074
-258.165	-36.232	-0.315	-0.171
-257.151	253.467	0.125	-0.215
-256.136	800.000	0.160	-0.584
-255.122	-151.656	-0.216	0.016
-254.107	175.607	0.128	-0.187
-253.092	129.857	0.252	0.324
-252.078	-14.462	-0.201	-0.130
-251.063	800.000	0.047	-0.194
-250.049	-76.363	0.193	0.068
-249.034	-200.000	0.009	-0.280
-248.019	-200.000	0.016	0.212
-247.005	-200.000	-0.026	0.442
-245.990	202.260	0.030	0.047
-244.976	7.692	0.076	0.057
-243.961	-7.916	0.172	-0.117
-242.946	800.000	-0.065	0.268
-241.932	-99.996	0.445	0.112
-240.917	439.264	0.144	-0.317
-239.903	800.000	-0.086	0.250
-238.888	59.692	-0.033	-0.033
-237.873	67.322	-0.178	-0.182
-236.859	-105.018	0.102	0.024
-235.844	-69.410	-0.311	0.120
-234.830	800.000	0.031	0.095
-233.815	69.944	-0.096	0.100
-232.800	486.750	-0.023	-0.054
-231.786	800.000	0.082	-0.232
-230.771	-200.000	0.033	-0.327
-229.757	-127.500	-0.229	0.033
-228.742	-76.063	-0.207	0.073
-227.727	800.000	0.043	0.162
-226.713	-200.000	0.027	0.128
-225.698	40.161	0.134	0.121
-224.684	774.870	-0.028	0.076
-223.669	800.000	0.051	0.209
-222.655	800.000	0.030	0.100
-221.640	-28.606	0.285	0.165
-220.625	290.964	0.136	0.248
-219.611	-200.000	0.026	0.270
-218.596	219.077	-0.123	0.197
-217.582	-4.038	0.146	0.101
-216.567	147.431	-0.166	-0.225
-215.552	-146.109	-0.183	0.016
-214.538	105.749	-0.241	0.287
-213.523	2.242	0.193	-0.140
-212.509	800.000	0.072	-0.213
-211.494	327.403	0.120	-0.231
-210.479	-200.000	0.004	0.417
-209.465	-200.000	0.069	0.433
-208.450	800.000	-0.044	-0.135
-207.436	-65.881	0.346	0.139
-206.421	-0.227	0.300	0.214
-205.406	-68.560	-0.137	0.053
-204.392	214.410	0.040	-0.064
-203.377	-200.000	-0.017	0.296
-202.363	498.262	0.045	-0.103
-201.348	-145.836	-0.138	0.012
-200.333	-134.671	-0.140	-0.017
-199.319	-200.000	-0.048	-0.247
-198.304	-67.771	-0.257	-0.101
-197.290	505.034	0.119	-0.276
-196.275	304.990	0.137	-0.255
-195.260	-91.152	0.197	-0.057
-194.246	397.410	-0.093	-0.195
-193.231	-150.407	-0.056	0.004
-192.217	800.000	0.074	0.261
-191.202	-200.000	-0.021	0.439
-190.187	184.144	0.106	-0.157
-189.173	203.615	-0.091	0.141
-188.158	-33.349	0.158	0.087
-187.144	105.869	-0.179	-0.213
-186.129	-46.142	0.137	0.068
-185.114	-35.246	-0.115	0.063
-184.100	10.055	-0.273	0.208
-183.085	75.598	-0.119	-0.126
-182.071	479.246	-0.130	0.296
-181.056	14.556	-0.198	0.155
-180.042	800.000	-0.045	-0.172
-179.027	-37.292	-0.077	-0.041
-178.012	-133.510	0.134	0.017
-176.998	-200.000	-0.029	-0.363
-175.983	210.635	-0.151	-0.237
-174.969	-73.758	0.182	0.066
-173.954	175.331	0.169	0.245
-172.939	-79.159	0.029	0.010
-171.925	-6.359	0.201	0.137
-170.910	-87.747	-0.145	0.044
-169.896	7.774	-0.140	0.105
-168.881	274.900	0.200	0.355
-167.866	115.700	0.096	-0.118
-166.852	-200.000	0.004	0.109
-165.837	89.590	0.153	0.171
-164.823	9.388	-0.165	-0.125
-163.808	186.495	0.110	0.164
-162.793	-36.952	0.289	0.155
-161.779	111.968	0.087	0.105
-160.764	-18.395	-0.225	-0.141
-159.750	800.000	-0.050	-0.210
-158.735	57.434	0.095	-0.093
-157.720	607.674	-0.059	0.148
-156.706	-172.580	0.178	-0.006
-155.691	-8.665	0.390	-0.262
-154.677	-40.355	-0.329	-0.171
-153.662	-101.200	0.167	0.041
-152.647	-21.292	0.123	0.075
-151.633	35.045	-0.078	-0.069
-150.618	247.660	-0.144	0.243
-149.604	366.800	-0.121	-0.245
-148.589	558.244	0.097	0.235
-147.574	800.000	0.066	-0.249
-146.560	164.902	0.109	0.154
-145.545	143.056	0.144	0.192
-144.531	696.684	-0.039	0.102
-143.516	2.030	0.284	0.205
-142.502	6.657	0.075	0.056
-141.487	142.733	-0.061	-0.081
-140.472	14.978	0.134	-0.105
-139.458	-93.990	0.133	0.036
-138.443	299.391	-0.089	0.164
-137.429	148.041	0.284	0.384
-136.414	-147.008	-0.272	0.023
-135.399	262.695	-0.107	-0.187
-134.385	7.543	-0.213	0.160
-133.370	-200.000	-0.000	-0.066
-132.356	368.864	-0.164	0.332
-131.341	800.000	-0.098	0.300
-130.326	800.000	-0.050	0.167
-129.312	155.663	-0.271	0.374
-128.297	46.617	0.172	0.160
-127.283	40.947	0.189	0.171
-126.268	438.773	-0.211	-0.460
-125.253	472.463	0.131	-0.296
-124.239	93.416	0.064	0.072
-123.224	0.634	0.120	0.086
-122.210	437.532	0.035	0.076
-121.195	-151.284	0.268	0.020
-120.180	356.767	0.067	0.134
