DTS Sentinel unit serial number:	SN413079Multiplexer serial number:	ORYXHardware model number:	OX4-SRSoftware version number:	ORYX F/W v4.00 Oryx Data Collector v3.7.2.0data status	okinstallation	princeton_trtdifferential loss correction	single-endedforward channel	channel 3reverse channel	N/Adate	2019/09/17time	18:04:35forward acquisition time	60.00reverse acquisition time	0.00gamma	496.2192k internal	0.2289k external	0.2289temperature offset calibration	0.9946default loss term (dB/km)	0.3790temperature slope calibration	1.0000multiplexer offset coefficient	1.0000multiplexer slope coefficient	1.0000fibre end	0.00T internal ref (°C)	43.50T ext. ref 1 (°C)	0.32T ext. ref 2 (°C)	38.25length (m)	temperature (°C)	Stokes	anti-Stokes-747.200	-173.787	-0.044	-0.001
-746.185	-79.285	-0.233	-0.081
-745.171	226.735	0.036	0.060
-744.156	773.445	0.108	-0.303
-743.142	9.760	0.348	0.271
-742.127	-19.415	-0.242	0.154
-741.112	800.000	0.015	0.053
-740.098	10.921	0.117	0.092
-739.083	-66.516	-0.156	-0.063
-738.069	64.897	-0.194	0.201
-737.054	-200.000	-0.001	0.100
-736.039	85.758	-0.088	0.099
-735.025	-200.000	0.020	0.430
-734.010	-144.321	-0.194	0.019
-732.996	-200.000	0.002	0.130
-731.981	-200.000	-0.014	-0.105
-730.966	354.888	-0.094	0.192
-729.952	800.000	-0.056	0.197
-728.937	800.000	-0.016	0.055
-727.923	-120.126	0.279	-0.049
-726.908	-149.697	0.140	0.011
-725.894	116.261	-0.234	-0.293
-724.879	-56.503	-0.210	-0.096
-723.864	61.071	0.169	-0.172
-722.850	-70.609	0.198	-0.077
-721.835	1.565	-0.180	-0.133
-720.821	-200.000	-0.005	-0.250
-719.806	800.000	0.007	-0.025
-718.791	215.587	-0.094	0.154
-717.777	-49.078	0.124	-0.061
-716.762	-87.238	-0.152	0.047
-715.748	-200.000	-0.027	-0.272
-714.733	800.000	-0.068	-0.240
-713.718	-19.156	-0.292	0.185
-712.704	-200.000	-0.000	-0.104
-711.689	-170.974	-0.207	0.007
-710.675	381.989	-0.167	0.350
-709.660	-80.105	-0.188	-0.064
-708.645	-52.391	-0.053	-0.025
-707.631	-81.139	-0.188	-0.064
-706.616	-200.000	0.069	-0.316
-705.602	-200.000	-0.007	-0.268
-704.587	568.889	0.161	-0.400
-703.572	800.000	0.080	-0.259
-702.558	286.022	0.051	-0.095
-701.543	-146.776	-0.172	-0.015
-700.529	406.324	0.135	0.292
-699.514	-63.153	-0.299	0.126
-698.499	192.019	-0.109	-0.168
-697.485	9.128	0.158	0.122
-696.470	-200.000	-0.017	0.117
-695.456	-200.000	-0.011	-0.154
-694.441	-137.140	-0.198	-0.023
-693.426	-74.154	0.107	0.040
-692.412	800.000	-0.041	-0.172
-691.397	243.674	0.110	0.189
-690.383	196.768	0.206	-0.321
-689.368	-91.695	-0.172	-0.050
-688.354	798.347	0.040	0.113
-687.339	-57.473	0.085	0.038
-686.324	-200.000	0.002	-0.565
-685.310	800.000	0.099	-0.309
-684.295	-193.148	-0.246	0.002
-683.281	30.246	-0.081	-0.071
-682.266	141.780	-0.214	0.290
-681.251	85.182	-0.063	-0.070
-680.237	-200.000	-0.007	-0.222
-679.222	739.573	-0.105	0.287
-678.208	88.747	0.135	-0.154
-677.193	156.786	-0.099	-0.141
-676.178	499.585	-0.073	-0.172
-675.164	-34.532	-0.387	-0.217
-674.149	570.719	0.134	-0.334
-673.135	-200.000	0.005	-0.155
-672.120	-71.710	-0.269	-0.103
-671.105	-30.585	0.052	-0.030
-670.091	-121.861	-0.244	-0.041
-669.076	-200.000	-0.020	-0.232
-668.062	15.590	0.147	-0.118
-667.047	40.418	-0.212	-0.195
-666.032	-200.000	0.019	-0.330
-665.018	-27.135	0.264	0.157
-664.003	68.154	0.306	0.320
-662.989	19.066	0.118	-0.097
-661.974	-33.687	-0.276	0.155
-660.959	-106.973	0.042	0.009
-659.945	-50.070	-0.059	0.029
-658.930	-84.807	0.059	-0.019
-657.916	151.610	-0.247	-0.344
-656.901	-88.556	-0.140	-0.043
-655.886	238.876	0.097	0.165
-654.872	-200.000	0.071	0.326
-653.857	-42.886	0.250	0.130
-652.843	-200.000	0.019	-0.115
-651.828	139.576	-0.166	0.224
-650.814	-77.651	-0.271	0.096
-649.799	191.764	0.083	0.128
-648.784	-27.265	-0.166	0.099
-647.770	800.000	0.071	-0.246
-646.755	-104.499	-0.037	-0.009
-645.741	518.837	-0.064	-0.153
-644.726	378.391	0.031	-0.065
-643.711	-43.205	-0.431	-0.223
-642.697	125.510	0.190	-0.245
-641.682	7.522	0.124	0.094
-640.668	-119.962	-0.152	0.027
-639.653	-111.425	0.305	0.063
-638.638	-121.329	-0.240	-0.041
-637.624	800.000	-0.067	-0.191
-636.609	100.203	0.102	-0.120
-635.595	-157.134	-0.201	-0.012
-634.580	556.878	-0.049	-0.121
-633.565	-98.721	-0.234	-0.061
-632.551	-58.160	-0.107	0.048
-631.536	-121.420	-0.360	0.061
-630.522	136.713	-0.064	0.086
-629.507	-200.000	-0.015	0.082
-628.492	209.963	0.099	-0.159
-627.478	-200.000	0.012	-0.190
-626.463	108.934	0.130	-0.158
-625.449	138.233	0.209	0.280
-624.434	75.295	-0.153	-0.165
-623.419	-184.316	-0.354	0.006
-622.405	19.216	-0.051	-0.042
-621.390	-200.000	-0.030	-0.142
-620.376	-129.522	-0.241	0.034
-619.361	-111.806	-0.236	-0.049
-618.346	-76.012	0.156	0.056
-617.332	175.179	-0.122	-0.181
-616.317	-190.353	-0.096	-0.001
-615.303	-200.000	-0.015	0.270
-614.288	734.362	0.064	0.174
-613.273	-200.000	-0.006	-0.237
-612.259	800.000	0.014	0.058
-611.244	-200.000	-0.034	-0.203
-610.230	-96.955	0.180	0.048
-609.215	-200.000	0.080	0.363
-608.201	267.877	0.197	0.351
-607.186	22.638	0.253	0.211
-606.171	800.000	-0.017	0.056
-605.157	-200.000	0.003	0.244
-604.142	-90.814	-0.179	0.053
-603.128	136.107	-0.094	-0.125
-602.113	-200.000	0.043	0.256
-601.098	468.671	-0.141	0.323
-600.084	-95.505	-0.140	0.038
-599.069	-85.938	0.211	0.067
-598.055	124.664	-0.108	-0.139
-597.040	-114.488	-0.409	0.080
-596.025	70.698	0.174	-0.184
-595.011	-49.847	-0.173	0.084
-593.996	149.549	0.154	-0.212
-592.982	-2.973	0.048	0.034
-591.967	-43.412	-0.114	-0.058
-590.952	-191.695	-0.382	-0.004
-589.938	372.369	0.008	-0.016
-588.923	-72.188	-0.113	-0.043
-587.909	-87.052	-0.173	-0.054
-586.894	-118.789	-0.175	-0.031
-585.879	-60.371	0.030	0.013
-584.865	334.652	-0.112	0.220
-583.850	70.888	-0.192	0.203
-582.836	-200.000	0.018	-0.241
-581.821	60.209	-0.127	0.128
-580.806	18.163	-0.242	0.196
-579.792	679.555	-0.110	0.292
-578.777	197.759	-0.057	0.089
-577.763	39.208	-0.355	0.323
-576.748	-65.048	0.259	-0.107
-575.733	-83.979	-0.119	-0.039
-574.719	-149.107	-0.261	-0.021
-573.704	79.884	0.151	0.165
-572.690	24.473	0.129	-0.108
-571.675	-200.000	-0.008	-0.036
-570.661	77.801	-0.127	0.137
-569.646	8.651	-0.182	-0.140
-568.631	800.000	-0.051	0.147
-567.617	-166.762	0.096	-0.004
-566.602	-66.702	0.072	-0.029
-565.588	-200.000	-0.050	-0.253
-564.573	-13.088	0.197	0.130
-563.558	-200.000	0.036	-0.366
-562.544	-200.000	-0.062	-0.310
-561.529	-200.000	-0.017	-0.167
-560.515	-200.000	-0.031	-0.183
-559.500	-71.213	-0.094	0.036
-558.485	41.324	-0.094	-0.087
-557.471	-51.532	0.207	0.098
-556.456	-151.847	0.149	0.011
-555.442	-69.788	-0.086	-0.033
-554.427	235.146	0.079	-0.133
-553.412	68.402	-0.232	-0.242
-552.398	-22.088	-0.138	-0.085
-551.383	4.544	-0.116	-0.087
-550.369	-65.506	0.086	-0.035
-549.354	306.600	-0.125	0.236
-548.339	304.101	-0.049	-0.093
-547.325	-200.000	0.003	-0.114
-546.310	-200.000	0.008	-0.072
-545.296	-200.000	0.013	0.109
-544.281	-200.000	-0.013	0.200
-543.266	-50.898	-0.054	-0.026
-542.252	-126.548	0.216	-0.033
-541.237	12.880	0.187	0.147
-540.223	259.578	0.078	-0.136
-539.208	-86.385	0.174	0.054
-538.193	675.053	0.119	-0.314
-537.179	-4.480	0.088	-0.062
-536.164	177.492	-0.193	-0.286
-535.150	-107.253	-0.236	-0.053
-534.135	308.890	0.115	-0.218
-533.121	-32.172	-0.167	-0.095
-532.106	-96.268	0.176	-0.047
-531.091	718.248	0.032	-0.086
-530.077	122.815	-0.160	0.204
-529.062	800.000	-0.044	0.182
-528.048	549.076	-0.051	-0.123
-527.033	-152.380	-0.255	0.019
-526.018	142.836	-0.085	-0.114
-525.004	490.050	-0.132	-0.306
-523.989	-200.000	0.071	-0.525
-522.975	119.346	0.184	0.231
-521.960	291.737	-0.166	-0.307
-520.945	-113.816	-0.213	-0.042
-519.931	218.228	0.175	0.284
-518.916	-97.207	-0.240	0.064
-517.902	241.422	0.067	-0.114
-516.887	275.743	0.082	0.148
-515.872	-172.504	0.019	0.001
-514.858	-154.972	-0.309	-0.021
-513.843	-200.000	-0.024	-0.537
-512.829	352.082	-0.034	-0.068
-511.814	302.950	0.132	-0.248
-510.799	-200.000	-0.001	0.012
-509.785	3.758	-0.187	0.139
-508.770	-34.352	-0.212	-0.118
-507.756	-200.000	-0.002	0.115
-506.741	121.325	0.220	0.278
-505.726	800.000	0.039	0.147
-504.712	64.322	-0.056	-0.057
-503.697	-91.472	-0.227	-0.066
-502.683	-26.671	0.160	-0.095
-501.668	-200.000	0.072	-0.399
-500.653	22.560	-0.192	-0.160
-499.639	534.363	0.105	-0.254
-498.624	-13.912	-0.385	0.253
-497.610	165.813	0.112	0.161
-496.595	-69.930	-0.237	-0.092
-495.581	18.223	-0.107	0.086
-494.566	-73.916	-0.201	0.074
-493.551	-79.934	-0.151	0.051
-492.537	313.233	0.274	0.524
-491.522	23.094	0.095	-0.079
-490.508	-200.000	-0.025	0.315
-489.493	800.000	-0.097	-0.368
-488.478	-200.000	0.010	0.050
-487.464	-114.883	0.228	-0.044
-486.449	-116.648	0.211	-0.039
-485.435	-33.153	0.125	-0.070
-484.420	-46.675	-0.247	0.123
-483.405	-78.959	-0.329	-0.113
-482.391	-200.000	-0.002	-0.082
-481.376	-96.875	0.219	0.058
-480.362	10.920	0.028	-0.022
-479.347	471.795	0.046	-0.106
-478.332	-200.000	-0.048	-0.309
-477.318	-200.000	-0.007	-0.157
-476.303	-82.877	0.115	-0.038
-475.289	-136.162	0.276	-0.033
-474.274	57.811	-0.047	-0.047
-473.259	800.000	-0.091	-0.278
-472.245	19.843	-0.109	0.089
-471.230	800.000	0.089	0.297
-470.216	180.469	0.272	-0.404
-469.201	-140.894	-0.048	-0.005
-468.186	589.303	0.129	-0.321
-467.172	37.036	0.128	0.115
-466.157	597.106	0.244	-0.612
-465.143	-200.000	0.019	0.170
-464.128	-200.000	0.026	-0.204
-463.113	-27.686	0.257	-0.151
-462.099	66.964	0.246	-0.254
-461.084	-200.000	-0.014	0.115
-460.070	-61.502	-0.059	-0.025
-459.055	85.717	0.139	0.155
-458.040	19.818	0.171	0.139
-457.026	778.261	0.067	-0.187
-456.011	157.805	-0.153	-0.214
-454.997	-200.000	-0.004	0.161
-453.982	-60.626	-0.088	0.038
-452.968	1.046	-0.268	-0.194
-451.953	319.679	-0.056	-0.107
-450.938	-181.427	-0.292	0.006
-449.924	12.154	-0.246	0.192
-448.909	-200.000	-0.003	0.266
-447.895	-85.836	-0.148	0.047
-446.880	800.000	-0.046	0.183
-445.865	-200.000	-0.021	0.167
-444.851	-200.000	-0.056	-0.300
-443.836	529.720	0.156	0.373
-442.822	-200.000	-0.025	-0.118
-441.807	-79.293	0.168	-0.058
-440.792	-102.987	0.054	-0.013
-439.778	-200.000	0.007	0.141
-438.763	-128.981	-0.099	-0.014
-437.749	-200.000	0.034	0.248
-436.734	41.277	0.118	0.108
-435.719	37.784	-0.111	-0.100
-434.705	-124.997	0.080	-0.012
-433.690	348.237	-0.182	0.364
-432.676	-200.000	-0.043	0.380
-431.661	220.454	-0.118	0.191
-430.646	800.000	0.100	-0.307
-429.632	-124.243	-0.174	-0.028
-428.617	216.402	-0.054	0.087
-427.603	240.449	-0.046	0.078
-426.588	254.440	-0.126	-0.219
-425.573	239.290	0.188	0.317
-424.559	800.000	0.068	-0.244
-423.544	161.552	0.123	0.174
-422.530	53.664	-0.108	0.105
-421.515	7.022	0.150	-0.113
-420.500	-200.000	0.031	0.377
-419.486	-200.000	-0.021	0.225
-418.471	479.232	-0.141	0.322
-417.457	-65.349	-0.149	-0.061
-416.442	-4.814	-0.050	-0.035
-415.428	-122.833	0.215	-0.035
-414.413	-135.458	-0.116	-0.014
-413.398	-183.976	0.238	-0.004
-412.384	23.242	0.309	-0.257
-411.369	19.969	-0.014	0.011
-410.355	1.322	-0.254	0.185
-409.340	468.537	-0.043	-0.098
-408.325	156.796	-0.071	-0.099
-407.311	358.310	-0.111	-0.225
-406.296	96.666	0.225	0.260
-405.282	23.844	0.164	0.136
-404.267	-83.935	0.176	0.057
-403.252	756.390	0.042	-0.115
-402.238	-200.000	0.010	0.130
-401.223	282.779	-0.142	-0.258
-400.209	533.661	0.074	0.178
-399.194	800.000	0.089	-0.251
-398.179	800.000	-0.108	0.310
-397.165	168.427	0.062	0.090
-396.150	-23.408	-0.190	-0.115
-395.136	13.348	0.092	0.072
-394.121	172.500	0.125	0.182
-393.106	177.740	-0.075	0.110
-392.092	-137.456	-0.405	-0.046
-391.077	101.833	0.101	-0.119
-390.063	-80.039	0.144	-0.049
-389.048	-102.342	-0.225	-0.054
-388.033	-161.865	0.446	-0.023
-387.019	403.659	0.259	0.551
-386.004	-65.677	-0.201	-0.082
-384.990	217.991	-0.176	0.284
-383.975	309.525	-0.151	-0.286
-382.960	-200.000	-0.049	0.256
-381.946	173.763	-0.218	-0.318
-380.931	188.386	-0.119	-0.180
-379.917	-107.025	0.369	0.082
-378.902	665.695	0.164	-0.428
-377.888	138.382	0.094	-0.125
-376.873	92.684	0.181	0.207
-375.858	-200.000	0.016	0.204
-374.844	3.874	0.127	-0.094
-373.829	-33.008	-0.098	-0.055
-372.815	-20.107	0.043	0.027
-371.800	-3.149	-0.398	0.280
-370.785	-160.315	0.166	0.009
-369.771	-82.965	0.215	-0.070
-368.756	-128.835	0.193	-0.027
-367.742	-200.000	0.021	-0.255
-366.727	113.377	-0.094	-0.115
-365.712	60.039	-0.195	0.195
-364.698	276.706	0.242	0.435
-363.683	106.767	-0.088	0.106
-362.669	104.813	-0.138	-0.164
-361.654	-142.790	-0.208	0.020
-360.639	-93.076	0.141	0.040
-359.625	-87.037	-0.405	0.125
-358.610	-0.858	0.062	0.044
-357.596	56.161	-0.238	0.234
-356.581	800.000	0.029	0.108
-355.566	-40.568	-0.175	-0.092
-354.552	-48.378	-0.120	0.058
-353.537	250.408	0.169	-0.289
-352.523	487.873	-0.098	-0.226
-351.508	-47.198	0.220	0.108
-350.493	112.392	-0.322	-0.393
-349.479	-200.000	0.006	0.081
-348.464	117.634	0.287	0.357
-347.450	800.000	0.068	-0.192
-346.435	228.103	0.079	-0.129
-345.420	-149.240	-0.226	-0.018
-344.406	-56.333	0.175	-0.078
-343.391	-200.000	0.047	-0.359
-342.377	-200.000	0.010	-0.099
-341.362	-55.846	-0.028	-0.013
-340.348	-12.992	-0.242	0.159
-339.333	641.451	0.040	-0.102
-338.318	224.787	0.098	-0.161
-337.304	18.258	0.210	-0.169
-336.289	-127.360	0.317	0.047
-335.275	558.197	-0.127	0.310
-334.260	175.521	0.036	-0.053
-333.245	800.000	0.013	0.038
-332.231	-168.553	-0.225	-0.009
-331.216	-200.000	0.010	-0.197
-330.202	156.873	-0.050	-0.070
-329.187	800.000	-0.093	0.294
-328.172	-200.000	0.050	0.317
-327.158	-200.000	0.290	0.000
-326.143	-69.964	-0.134	-0.052
-325.129	308.528	0.150	-0.283
-324.114	685.678	-0.122	-0.322
-323.099	-200.000	0.004	0.023
-322.085	3.754	-0.143	0.105
-321.070	22.321	-0.187	0.154
-320.056	-113.403	-0.101	0.020
-319.041	-200.000	-0.021	-0.218
-318.026	-68.877	0.119	0.046
-317.012	-134.597	0.027	0.003
-315.997	-22.972	0.363	0.221
-314.983	-173.022	-0.272	0.008
-313.968	-117.464	0.193	-0.035
-312.953	149.653	0.179	0.245
-311.939	-150.827	0.450	0.034
-310.924	-200.000	-0.057	0.305
-309.910	703.224	0.177	-0.469
-308.895	-1.499	0.158	-0.113
-307.880	-179.147	0.117	0.003
-306.866	27.971	0.224	-0.190
-305.851	-115.613	0.146	-0.028
-304.837	138.424	0.190	0.251
-303.822	-200.000	0.040	0.342
-302.807	-120.753	0.331	0.056
-301.793	20.024	-0.247	-0.201
-300.778	-53.777	0.413	0.190
-299.764	175.374	-0.130	-0.190
-298.749	214.602	0.021	0.034
-297.735	206.111	0.103	-0.161
-296.720	800.000	-0.031	0.104
-295.705	-159.680	0.261	0.015
-294.691	800.000	0.079	0.302
-293.676	121.020	0.086	0.108
-292.662	-130.277	0.247	0.034
-291.647	-16.744	-0.192	0.122
-290.632	-116.770	0.123	-0.023
-289.618	-73.352	-0.165	-0.061
-288.603	-12.375	0.256	-0.168
-287.589	-66.405	0.104	0.042
-286.574	128.215	0.085	0.109
-285.559	10.621	-0.133	-0.102
-284.545	-6.187	0.092	0.063
-283.530	616.622	-0.098	0.247
-282.516	-73.670	0.240	0.088
-281.501	-60.408	0.462	0.198
-280.486	-41.493	-0.247	-0.128
-279.472	-95.838	0.201	-0.054
-278.457	150.443	0.084	-0.114
-277.443	-200.000	-0.004	-0.078
-276.428	-99.655	-0.256	-0.065
-275.413	-200.000	-0.006	0.237
-274.399	800.000	-0.093	-0.281
-273.384	-20.745	-0.135	0.083
-272.370	-70.419	-0.219	-0.083
-271.355	-160.786	-0.141	0.008
-270.340	-200.000	0.033	-0.253
-269.326	-116.389	0.335	-0.062
-268.311	-200.000	0.009	0.121
-267.297	103.897	-0.204	0.241
-266.282	225.798	0.076	-0.124
-265.267	-62.981	0.177	-0.073
-264.253	800.000	0.018	0.080
-263.238	-182.123	0.135	-0.003
-262.224	-200.000	0.001	0.055
-261.209	-76.799	-0.322	0.113
-260.195	11.011	0.353	0.271
-259.180	91.398	-0.045	0.051
-258.165	-118.598	-0.310	-0.055
-257.151	-158.914	-0.055	-0.003
-256.136	800.000	0.049	0.143
-255.122	184.965	-0.083	-0.124
-254.107	81.138	0.109	-0.118
-253.092	800.000	-0.072	-0.302
-252.078	203.410	0.046	-0.072
-251.063	-71.291	-0.208	0.078
-250.049	-200.000	-0.016	0.229
-249.034	-200.000	-0.024	-0.565
-248.019	239.801	-0.033	0.056
-247.005	800.000	-0.083	0.299
-245.990	-120.639	0.098	-0.017
-244.976	66.938	0.141	0.145
-243.961	22.932	-0.070	-0.058
-242.946	-62.456	-0.099	0.042
-241.932	259.639	0.131	0.227
-240.917	439.876	0.104	0.229
-239.903	320.995	-0.144	0.276
-238.888	109.007	-0.172	-0.206
-237.873	-28.629	0.197	0.114
-236.859	82.017	0.184	-0.200
-235.844	-200.000	0.016	0.306
-234.830	353.583	0.151	0.300
-233.815	-39.984	-0.192	0.101
-232.800	43.029	0.173	0.158
-231.786	84.645	0.184	0.203
-230.771	-200.000	0.013	0.180
-229.757	14.132	-0.090	-0.070
-228.742	37.849	-0.052	-0.046
-227.727	-111.719	0.127	0.026
-226.713	-200.000	-0.028	-0.153
-225.698	140.369	0.129	-0.171
-224.684	800.000	-0.026	-0.096
-223.669	-155.560	0.202	-0.013
-222.655	78.370	0.271	0.291
-221.640	-171.277	-0.299	0.010
-220.625	292.009	-0.139	-0.255
-219.611	56.051	0.221	0.216
-218.596	-33.273	-0.083	0.046
-217.582	-44.234	0.084	0.042
-216.567	-43.596	0.048	-0.024
-215.552	-38.180	0.112	-0.060
-214.538	-200.000	-0.001	-0.183
-213.523	-54.166	0.246	0.112
-212.509	-64.092	0.185	0.076
-211.494	-123.902	-0.481	-0.076
-210.479	9.454	-0.038	0.029
-209.465	106.241	0.248	0.295
-208.450	800.000	0.021	-0.086
-207.436	800.000	0.077	-0.248
-206.421	800.000	0.130	-0.458
-205.406	-84.263	-0.230	-0.073
-204.392	-107.590	-0.032	0.007
-203.377	496.975	0.112	0.260
-202.363	-94.691	0.113	0.031
-201.348	-24.060	-0.206	0.123
-200.333	96.001	0.164	-0.188
-199.319	231.062	0.163	-0.267
-198.304	800.000	0.051	-0.197
-197.290	-117.695	-0.093	0.017
-196.275	800.000	0.112	-0.396
-195.260	800.000	-0.044	0.159
-194.246	-45.989	0.285	0.141
-193.231	-100.499	-0.200	-0.050
-192.217	-82.268	0.036	0.012
-191.202	-200.000	-0.043	-0.214
-190.187	405.473	-0.111	0.236
-189.173	-200.000	0.059	0.262
-188.158	59.016	-0.185	0.182
-187.144	162.102	0.064	0.089
-186.129	144.015	-0.120	0.160
-185.114	-46.816	-0.451	0.221
-184.100	-200.000	0.002	-0.134
-183.085	-66.441	0.339	-0.135
-182.071	607.398	0.022	0.055
-181.056	-106.933	-0.133	0.030
-180.042	677.886	0.088	0.228
-179.027	-21.055	0.148	0.091
-178.012	310.953	0.215	-0.403
-176.998	-200.000	0.016	-0.121
-175.983	-200.000	-0.012	-0.150
-174.969	-29.733	-0.267	-0.153
-173.954	-159.486	-0.173	-0.010
-172.939	-162.033	-0.179	-0.009
-171.925	-200.000	0.026	-0.329
-170.910	83.486	0.191	-0.209
-169.896	-200.000	-0.004	0.120
-168.881	800.000	0.030	-0.089
-167.866	-77.448	-0.269	0.094
-166.852	800.000	-0.018	-0.062
-165.837	-200.000	-0.040	0.179
-164.823	452.658	-0.011	0.025
-163.808	99.262	-0.140	0.162
-162.793	-7.193	0.100	0.068
-161.779	-154.231	-0.245	0.017
-160.764	-150.026	0.207	-0.016
-159.750	1.104	0.081	-0.058
-158.735	-103.772	0.358	0.084
-157.720	-151.452	0.343	0.025
-156.706	216.997	0.112	-0.178
-155.691	800.000	0.004	0.013
-154.677	32.593	0.472	0.409
-153.662	-200.000	-0.016	0.266
-152.647	169.788	-0.341	0.488
-151.633	80.018	0.153	-0.165
-150.618	-200.000	0.021	-0.143
-149.604	613.410	0.100	0.250
-148.589	219.587	0.136	0.218
-147.574	108.703	0.138	0.165
-146.560	-200.000	-0.036	-0.350
-145.545	1.448	0.234	0.169
-144.531	-101.611	0.049	0.012
-143.516	124.305	0.058	-0.073
-142.502	27.770	0.297	0.251
-141.487	14.494	0.110	-0.086
-140.472	-200.000	-0.012	-0.160
-139.458	800.000	-0.058	-0.218
-138.443	119.545	0.112	-0.139
-137.429	-177.767	0.192	-0.005
-136.414	46.401	-0.171	0.158
-135.399	22.566	0.118	-0.097
-134.385	-4.131	-0.062	0.043
-133.370	-157.429	0.051	0.003
-132.356	298.136	-0.085	-0.156
-131.341	757.441	0.108	-0.293
-130.326	-200.000	-0.003	0.439
-129.312	-200.000	0.025	-0.164
-128.297	79.947	-0.209	-0.225
-127.283	96.935	-0.095	0.109
-126.268	195.421	0.256	0.390
-125.253	-200.000	-0.004	-0.126
-124.239	-31.716	0.157	0.088
-123.224	39.137	0.199	-0.178
-122.210	-81.048	-0.212	0.070
