DTS Sentinel unit serial number:	SN413079Multiplexer serial number:	ORYXHardware model number:	OX4-SRSoftware version number:	ORYX F/W v4.00 Oryx Data Collector v3.7.2.0data status	okinstallation	princeton_trtdifferential loss correction	single-endedforward channel	channel 3reverse channel	N/Adate	2019/09/12time	15:26:11forward acquisition time	60.00reverse acquisition time	0.00gamma	496.2192k internal	0.2292k external	0.2292temperature offset calibration	1.0058default loss term (dB/km)	0.3790temperature slope calibration	1.0000multiplexer offset coefficient	1.0000multiplexer slope coefficient	1.0000fibre end	0.00T internal ref (°C)	40.70T ext. ref 1 (°C)	2.42T ext. ref 2 (°C)	34.58length (m)	temperature (°C)	Stokes	anti-Stokes-747.200	-0.396	-0.197	0.143
-746.185	220.373	-0.068	0.111
-745.171	-80.685	0.061	-0.021
-744.156	174.592	-0.119	0.177
-743.142	-156.774	0.268	-0.017
-742.127	-200.000	0.031	0.226
-741.112	98.559	-0.214	-0.253
-740.098	7.647	-0.065	-0.050
-739.083	46.317	0.178	-0.169
-738.069	-200.000	-0.018	0.101
-737.054	-85.029	-0.316	0.101
-736.039	291.869	-0.070	0.131
-735.025	-32.421	-0.155	0.089
-734.010	-13.712	-0.122	0.081
-732.996	800.000	-0.067	0.251
-731.981	712.190	-0.079	-0.215
-730.966	-200.000	0.005	-0.216
-729.952	-112.425	-0.132	0.027
-728.937	-19.530	0.096	0.061
-727.923	-135.941	-0.369	-0.044
-726.908	-1.185	-0.337	-0.244
-725.894	-200.000	-0.032	0.170
-724.879	58.262	-0.203	0.204
-723.864	-106.755	-0.325	0.074
-722.850	-80.023	-0.064	-0.022
-721.835	-24.419	-0.258	-0.157
-720.821	139.180	-0.078	-0.104
-719.806	-130.396	0.258	0.036
-718.791	71.346	-0.314	-0.333
-717.777	122.130	0.143	0.183
-716.762	195.009	-0.047	0.072
-715.748	188.287	-0.156	0.239
-714.733	176.391	-0.170	0.252
-713.718	-114.265	0.230	0.045
-712.704	45.073	-0.274	0.258
-711.689	-200.000	-0.002	-0.027
-710.675	-57.259	-0.226	0.102
-709.660	-113.321	-0.252	0.051
-708.645	345.025	0.038	-0.077
-707.631	35.047	0.184	-0.164
-706.616	-200.000	-0.032	0.163
-705.602	-200.000	-0.078	0.386
-704.587	-200.000	0.014	-0.174
-703.572	129.193	-0.081	-0.106
-702.558	800.000	0.042	0.121
-701.543	194.059	-0.073	-0.114
-700.529	-200.000	0.008	0.070
-699.514	-200.000	0.051	0.287
-698.499	800.000	-0.024	-0.108
-697.485	276.326	0.072	0.130
-696.470	57.860	-0.191	0.191
-695.456	-87.426	-0.312	0.097
-694.441	742.724	0.026	0.071
-693.426	5.826	-0.318	-0.240
-692.412	688.225	0.069	-0.184
-691.397	260.338	-0.081	-0.144
-690.383	23.731	-0.220	-0.185
-689.368	800.000	-0.099	-0.389
-688.354	162.788	-0.137	-0.196
-687.339	-91.703	0.261	0.076
-686.324	216.939	0.169	-0.275
-685.310	-200.000	0.031	-0.175
-684.295	-83.882	-0.298	-0.097
-683.281	-61.919	-0.260	0.111
-682.266	158.418	-0.146	-0.206
-681.251	800.000	-0.039	0.130
-680.237	800.000	-0.065	0.198
-679.222	800.000	0.044	-0.168
-678.208	-200.000	-0.059	-0.353
-677.193	582.398	0.054	-0.136
-676.178	-49.004	0.153	0.075
-675.164	161.421	-0.073	-0.104
-674.149	-31.585	0.287	0.165
-673.135	800.000	0.023	-0.066
-672.120	650.489	0.098	-0.257
-671.105	-43.650	0.356	0.183
-670.091	-74.200	0.124	0.046
-669.076	-200.000	-0.105	-0.494
-668.062	61.534	0.173	0.175
-667.047	-146.480	-0.085	-0.008
-666.032	-41.406	-0.359	0.188
-665.018	-11.000	-0.150	-0.101
-664.003	-93.523	0.286	0.081
-662.989	-110.181	-0.307	-0.065
-661.974	776.382	0.106	0.295
-660.959	-11.556	-0.169	-0.113
-659.945	-21.580	-0.150	-0.093
-658.930	800.000	0.010	0.039
-657.916	82.650	-0.068	0.076
-656.901	41.767	0.104	-0.096
-655.886	-127.907	-0.472	0.069
-654.872	-145.029	-0.127	0.012
-653.857	143.785	-0.224	-0.305
-652.843	-163.618	0.242	-0.012
-651.828	149.579	0.122	-0.169
-650.814	99.236	-0.042	0.050
-649.799	298.076	-0.223	-0.417
-648.784	-48.278	-0.063	0.031
-647.770	12.964	-0.136	0.108
-646.755	277.809	0.027	-0.048
-645.741	538.969	-0.033	-0.079
-644.726	51.910	-0.285	0.277
-643.711	-180.865	0.451	-0.009
-642.697	432.416	0.029	-0.065
-641.682	-74.625	0.321	-0.118
-640.668	60.301	0.033	0.034
-639.653	-59.439	0.242	0.106
-638.638	113.294	0.057	-0.071
-637.624	-150.064	0.159	-0.013
-636.609	-200.000	-0.009	0.134
-635.595	-200.000	-0.028	-0.143
-634.580	800.000	-0.035	-0.116
-633.565	276.965	-0.071	0.128
-632.551	42.918	-0.278	-0.258
-631.536	800.000	0.067	0.225
-630.522	486.133	-0.100	-0.231
-629.507	-137.422	0.262	-0.030
-628.492	-98.085	0.239	-0.063
-627.478	215.037	0.089	-0.144
-626.463	-200.000	0.014	-0.150
-625.449	662.765	-0.128	0.337
-624.434	46.961	0.202	-0.192
-623.419	-92.989	-0.423	0.120
-622.405	34.819	0.214	-0.190
-621.390	462.633	0.102	-0.231
-620.376	-29.424	0.251	0.147
-619.361	-58.983	-0.337	-0.148
-618.346	354.681	-0.069	-0.139
-617.332	-76.881	0.297	-0.106
-616.317	147.092	-0.225	-0.308
-615.303	-200.000	-0.011	-0.310
-614.288	49.881	-0.108	-0.104
-613.273	-200.000	-0.021	-0.222
-612.259	29.761	0.240	0.208
-611.244	127.140	-0.079	0.102
-610.230	558.781	-0.055	-0.135
-609.215	8.382	0.270	0.207
-608.201	201.701	-0.037	0.059
-607.186	-10.731	-0.054	-0.037
-606.171	-12.647	0.162	0.107
-605.157	-30.260	0.311	0.180
-604.142	-60.914	0.144	0.062
-603.128	-7.517	-0.145	0.100
-602.113	63.486	0.356	-0.364
-601.098	411.530	-0.129	0.278
-600.084	-2.272	0.155	0.110
-599.069	437.023	0.088	-0.195
-598.055	-77.416	0.287	0.102
-597.040	-171.726	0.358	-0.012
-596.025	-200.000	0.009	0.405
-595.011	-51.614	0.496	0.236
-593.996	-133.495	0.263	-0.034
-592.982	116.704	0.091	0.114
-591.967	-35.258	-0.241	-0.134
-590.952	-200.000	0.031	0.243
-589.938	-160.042	-0.553	-0.031
-588.923	35.692	-0.103	0.092
-587.909	-200.000	0.003	-0.425
-586.894	800.000	0.018	0.054
-585.879	91.770	-0.089	-0.101
-584.865	-200.000	0.003	0.110
-583.850	-48.755	-0.404	0.197
-582.836	338.298	-0.009	-0.018
-581.821	210.861	0.085	-0.136
-580.806	-108.241	0.309	0.068
-579.792	-37.669	-0.154	-0.083
-578.777	-64.996	-0.186	-0.077
-577.763	-54.773	0.237	-0.109
-576.748	-200.000	0.019	0.366
-575.733	21.134	0.049	-0.040
-574.719	-165.093	-0.262	-0.012
-573.704	23.837	-0.106	0.089
-572.690	92.210	0.061	0.070
-571.675	392.168	0.203	0.428
-570.661	-150.692	-0.470	0.036
-569.646	35.492	-0.394	-0.352
-568.631	-60.280	0.166	-0.072
-567.617	-49.269	0.167	0.081
-566.602	623.292	-0.088	-0.226
-565.588	-60.972	-0.352	-0.151
-564.573	-104.686	-0.123	0.029
-563.558	800.000	0.090	0.293
-562.544	67.953	-0.152	0.158
-561.529	-97.236	-0.085	0.022
-560.515	800.000	0.082	-0.366
-559.500	-47.405	0.443	-0.219
-558.485	-200.000	0.035	-0.176
-557.471	-51.565	-0.347	-0.165
-556.456	32.435	-0.124	0.109
-555.442	-200.000	-0.023	-0.129
-554.427	482.180	-0.026	-0.060
-553.412	-200.000	0.011	-0.250
-552.398	800.000	0.078	0.334
-551.383	6.909	0.177	-0.134
-550.369	-155.450	0.384	-0.025
-549.354	-200.000	-0.028	0.244
-548.339	-200.000	-0.016	-0.155
-547.325	-84.793	0.260	0.083
-546.310	-105.836	-0.303	-0.070
-545.296	-2.944	-0.313	0.222
-544.281	-91.296	-0.136	-0.039
-543.266	436.424	-0.179	0.396
-542.252	491.512	-0.096	-0.222
-541.237	27.334	-0.314	0.268
-540.223	-55.054	0.262	0.120
-539.208	-127.312	-0.202	-0.030
-538.193	800.000	0.060	-0.179
-537.179	39.781	0.128	-0.117
-536.164	-200.000	-0.031	-0.283
-535.150	-52.980	-0.158	-0.074
-534.135	-92.598	-0.157	0.045
-533.121	-200.000	0.018	-0.119
-532.106	33.814	-0.286	0.253
-531.091	-200.000	0.008	0.237
-530.077	800.000	0.079	0.298
-529.062	-62.697	-0.291	0.123
-528.048	-200.000	0.031	0.232
-527.033	231.693	0.079	0.131
-526.018	65.539	-0.236	0.243
-525.004	-6.011	0.189	-0.131
-523.989	652.517	0.183	0.476
-522.975	-21.779	0.111	0.068
-521.960	-72.968	0.346	0.129
-520.945	58.443	-0.231	-0.230
-519.931	-143.370	-0.227	-0.022
-518.916	98.706	-0.258	0.302
-517.902	-200.000	-0.009	0.314
-516.887	15.183	-0.236	-0.188
-515.872	-193.850	0.153	-0.001
-514.858	-25.906	-0.118	-0.070
-513.843	800.000	0.061	-0.254
-512.829	-200.000	0.015	0.201
-511.814	-165.032	0.228	0.010
-510.799	-58.814	-0.081	0.036
-509.785	-193.067	-0.144	-0.001
-508.770	2.551	-0.142	0.104
-507.756	19.298	-0.087	0.071
-506.741	93.411	-0.114	-0.130
-505.726	-169.724	-0.206	-0.008
-504.712	-98.616	0.280	-0.072
-503.697	-89.988	0.229	-0.068
-502.683	800.000	-0.048	0.175
-501.668	-7.152	-0.238	0.164
-500.653	403.289	0.062	-0.133
-499.639	747.493	0.120	0.327
-498.624	-92.307	0.304	-0.087
-497.610	-157.203	0.458	-0.028
-496.595	800.000	0.141	-0.440
-495.581	-126.855	-0.145	0.022
-494.566	62.956	0.184	-0.187
-493.551	-54.723	-0.353	-0.162
-492.537	32.835	-0.066	0.058
-491.522	-73.874	-0.172	-0.063
-490.508	660.300	0.060	0.157
-489.493	1.403	-0.202	0.148
-488.478	-145.784	-0.248	-0.022
-487.464	-200.000	0.004	-0.051
-486.449	753.654	-0.052	0.144
-485.435	288.600	-0.047	-0.086
-484.420	800.000	-0.081	-0.245
-483.405	-35.425	0.189	0.104
-482.391	379.056	0.068	-0.140
-481.376	5.753	-0.308	-0.230
-480.362	-10.292	0.029	-0.020
-479.347	-200.000	0.005	0.114
-478.332	405.312	-0.086	0.184
-477.318	-143.294	0.118	0.011
-476.303	75.022	0.140	-0.149
-475.289	-61.513	-0.354	0.151
-474.274	123.304	-0.266	0.338
-473.259	-195.709	-0.239	-0.002
-472.245	-24.686	-0.272	0.164
-471.230	-32.702	-0.172	-0.097
-470.216	-121.908	0.110	0.018
-469.201	-28.262	0.380	-0.222
-468.186	800.000	-0.064	0.189
-467.172	-200.000	-0.047	0.219
-466.157	13.265	-0.136	0.107
-465.143	-61.137	-0.131	0.056
-464.128	-200.000	0.003	0.153
-463.113	10.281	-0.032	-0.025
-462.099	800.000	-0.047	-0.133
-461.084	800.000	0.086	-0.376
-460.070	800.000	0.036	0.141
-459.055	-200.000	0.032	-0.237
-458.040	800.000	-0.066	-0.278
-457.026	800.000	0.088	-0.341
-456.011	362.553	0.049	0.100
-454.997	-200.000	-0.005	0.189
-453.982	800.000	0.022	-0.073
-452.968	-58.091	0.110	0.049
-451.953	62.151	-0.080	-0.080
-450.938	245.351	0.070	0.120
-449.924	98.326	0.344	-0.401
-448.909	44.489	-0.033	-0.031
-447.895	176.716	0.050	0.074
-446.880	67.774	-0.114	-0.118
-445.865	246.991	0.057	-0.097
-444.851	-200.000	-0.024	-0.220
-443.836	-200.000	-0.010	-0.410
-442.822	514.575	-0.057	-0.135
-441.807	-14.067	-0.237	0.155
-440.792	205.593	0.074	-0.117
-439.778	-41.961	0.200	-0.104
-438.763	-200.000	0.008	-0.108
-437.749	-94.089	-0.577	-0.160
-436.734	123.423	-0.196	0.249
-435.719	800.000	-0.146	0.443
-434.705	-200.000	0.029	0.301
-433.690	-200.000	-0.020	-0.112
-432.676	-138.655	0.220	-0.024
-431.661	297.785	0.308	0.573
-430.646	-134.727	-0.290	0.036
-429.632	-200.000	0.006	-0.098
-428.617	570.736	-0.107	-0.264
-427.603	161.548	-0.114	-0.162
-426.588	-175.715	-0.339	0.009
-425.573	-200.000	-0.041	0.255
-424.559	-200.000	0.054	0.249
-423.544	-4.723	-0.164	0.114
-422.530	-72.818	-0.117	0.043
-421.515	-143.302	-0.122	-0.012
-420.500	-200.000	-0.081	0.400
-419.486	-78.238	0.583	-0.203
-418.471	-200.000	0.015	-0.141
-417.457	-200.000	0.042	0.244
-416.442	45.140	0.204	0.190
-415.428	-103.672	-0.150	-0.036
-414.413	21.880	-0.147	-0.121
-413.398	45.598	-0.335	0.312
-412.384	80.936	0.250	0.272
-411.369	800.000	-0.077	0.280
-410.355	-136.589	-0.103	0.012
-409.340	-200.000	-0.005	0.096
-408.325	-167.262	-0.094	-0.004
-407.311	-175.188	-0.089	-0.002
-406.296	-158.370	0.434	-0.025
-405.282	800.000	0.030	-0.122
-404.267	67.011	-0.085	0.088
-403.252	604.359	-0.109	0.273
-402.238	-200.000	0.018	0.146
-401.223	800.000	0.096	-0.378
-400.209	-200.000	0.061	-0.449
-399.194	-56.920	0.240	0.107
-398.179	-200.000	0.000	0.112
-397.165	-83.569	-0.255	0.082
-396.150	-47.411	-0.100	-0.049
-395.136	-22.472	0.419	0.256
-394.121	-16.841	0.395	-0.252
-393.106	-6.634	-0.155	-0.106
-392.092	0.977	0.122	-0.089
-391.077	-53.221	-0.007	-0.003
-390.063	139.761	0.038	-0.050
-389.048	91.272	0.116	0.131
-388.033	-77.407	0.055	0.019
-387.019	800.000	-0.126	0.512
-386.004	290.004	0.048	0.089
-384.990	-48.667	0.058	0.028
-383.975	337.480	-0.097	0.191
-382.960	626.171	-0.064	-0.163
-381.946	-200.000	0.037	-0.643
-380.931	141.584	-0.087	0.117
-379.917	22.629	-0.060	-0.050
-378.902	58.430	-0.137	0.136
-377.888	0.864	-0.293	-0.212
-376.873	458.920	-0.157	-0.353
-375.858	-57.630	0.144	-0.063
-374.844	138.803	0.235	0.312
-373.829	788.659	-0.089	-0.246
-372.815	-33.516	0.209	-0.117
-371.800	-62.854	-0.427	0.178
-370.785	293.634	-0.100	-0.184
-369.771	-70.665	-0.147	-0.056
-368.756	-83.544	0.248	-0.080
-367.742	260.917	0.181	-0.315
-366.727	127.331	-0.198	-0.254
-365.712	-124.437	0.220	0.035
-364.698	800.000	-0.156	-0.484
-363.683	-200.000	-0.043	-0.318
-362.669	-200.000	0.045	-0.311
-361.654	-200.000	-0.008	-0.113
-360.639	-53.054	0.301	-0.140
-359.625	293.094	0.118	-0.218
-358.610	-57.171	0.100	0.045
-357.596	800.000	-0.054	0.158
-356.581	185.068	-0.079	-0.118
-355.566	26.357	-0.147	-0.124
-354.552	-72.485	-0.254	-0.095
-353.537	66.287	0.054	0.056
-352.523	-40.458	-0.447	0.234
-351.508	-150.785	0.465	-0.036
-350.493	171.123	-0.052	0.075
-349.479	74.544	0.205	0.217
-348.464	658.485	0.039	-0.101
-347.450	800.000	-0.052	-0.216
-346.435	-82.283	0.340	-0.111
-345.420	-92.000	-0.141	-0.040
-344.406	-95.488	0.108	-0.029
-343.391	800.000	-0.061	0.232
-342.377	534.779	0.030	-0.073
-341.362	-45.811	0.098	0.049
-340.348	22.405	-0.128	-0.105
-339.333	-26.143	-0.145	0.086
-338.318	200.193	0.057	0.088
-337.304	-125.047	-0.240	0.037
-336.289	-147.910	0.247	-0.021
-335.275	-200.000	-0.015	0.162
-334.260	-138.433	0.532	-0.059
-333.245	24.967	-0.145	-0.121
-332.231	-34.905	0.103	0.057
-331.216	-133.909	-0.139	0.017
-330.202	108.422	-0.127	0.152
-329.187	59.736	-0.066	-0.066
-328.172	-97.548	0.217	-0.057
-327.158	355.512	-0.218	-0.437
-326.143	-41.561	-0.130	0.067
-325.129	-161.818	0.415	0.021
-324.114	800.000	-0.108	0.417
-323.099	584.279	-0.092	0.227
-322.085	118.904	0.105	-0.131
-321.070	-66.795	-0.409	-0.163
-320.056	51.975	0.179	-0.172
-319.041	3.462	0.198	0.145
-318.026	-12.704	0.023	-0.015
-317.012	122.351	0.273	0.344
-315.997	562.942	0.158	0.384
-314.983	558.137	-0.037	0.090
-313.968	-95.362	-0.135	-0.037
-312.953	12.599	-0.241	0.187
-311.939	-106.070	-0.044	0.010
-310.924	800.000	-0.023	-0.085
-309.910	-91.632	-0.109	0.031
-308.895	264.211	0.056	-0.097
-307.880	-200.000	0.014	-0.476
-306.866	147.857	0.138	0.187
-305.851	-63.316	0.165	-0.069
-304.837	-200.000	0.001	-0.090
-303.822	-200.000	-0.049	-0.362
-302.807	-200.000	0.033	0.286
-301.793	92.185	0.258	0.293
-300.778	242.071	0.051	0.086
-299.764	-4.037	-0.085	-0.059
-298.749	-24.835	-0.111	0.066
-297.735	-65.990	0.290	-0.116
-296.720	-200.000	0.045	-0.366
-295.705	800.000	0.081	0.230
-294.691	-2.842	-0.214	-0.150
-293.676	800.000	0.032	-0.131
-292.662	-200.000	0.020	-0.272
-291.647	3.618	0.222	-0.163
-290.632	800.000	0.143	-0.406
-289.618	59.826	0.246	0.244
-288.603	5.878	0.085	-0.063
-287.589	-200.000	0.027	-0.185
-286.574	193.172	0.067	0.101
-285.559	61.249	-0.257	-0.257
-284.545	-200.000	-0.012	0.092
-283.530	53.261	0.221	-0.212
-282.516	-200.000	0.052	-0.523
-281.501	800.000	0.076	-0.302
-280.486	113.176	0.109	-0.132
-279.472	-200.000	0.028	0.175
-278.457	-200.000	-0.006	-0.041
-277.443	-200.000	0.002	-0.101
-276.428	-61.754	0.170	-0.072
-275.413	96.010	0.060	0.069
-274.399	-48.591	0.084	0.041
-273.384	307.398	0.168	-0.316
-272.370	21.926	-0.230	-0.188
-271.355	325.616	0.185	-0.356
-270.340	-159.973	-0.044	0.002
-269.326	22.520	0.216	-0.178
-268.311	122.583	-0.050	-0.063
-267.297	7.671	-0.154	0.116
-266.282	-128.786	0.238	0.034
-265.267	627.031	-0.227	-0.575
-264.253	328.632	0.175	0.337
-263.238	-200.000	0.003	0.075
-262.224	-200.000	0.035	0.227
-261.209	-200.000	-0.002	-0.134
-260.195	205.848	-0.197	-0.307
-259.180	-94.272	0.460	-0.126
-258.165	95.113	-0.286	-0.327
-257.151	113.502	0.071	-0.086
-256.136	800.000	0.080	-0.341
-255.122	52.337	-0.067	-0.064
-254.107	575.169	0.044	0.108
-253.092	193.272	-0.145	0.220
-252.078	-185.149	-0.206	-0.003
-251.063	287.421	0.090	0.163
-250.049	-6.337	0.167	0.114
-249.034	-126.702	0.065	-0.010
-248.019	-200.000	-0.040	-0.254
-247.005	-76.105	-0.365	-0.129
-245.990	-121.797	-0.238	-0.039
-244.976	238.808	0.080	0.133
-243.961	-120.947	-0.246	-0.042
-242.946	-200.000	0.017	0.116
-241.932	797.457	-0.079	0.219
-240.917	-30.144	0.192	-0.110
-239.903	-36.608	-0.288	-0.155
-238.888	800.000	-0.154	0.614
-237.873	39.352	-0.107	0.096
-236.859	175.677	0.021	0.030
-235.844	219.588	0.181	-0.291
-234.830	800.000	-0.147	-0.431
-233.815	38.432	0.239	0.214
-232.800	87.556	0.091	0.101
-231.786	800.000	0.058	-0.186
-230.771	209.758	-0.131	0.206
-229.757	34.329	0.164	0.144
-228.742	305.592	-0.117	0.219
-227.727	86.561	-0.166	0.183
-226.713	-177.650	0.236	-0.006
-225.698	-50.756	0.244	0.115
-224.684	191.213	0.164	-0.248
-223.669	-62.419	0.116	0.049
-222.655	116.666	-0.071	-0.087
-221.640	672.855	-0.114	0.297
-220.625	574.507	0.113	-0.276
-219.611	-59.917	-0.236	-0.101
-218.596	-92.819	-0.327	0.092
-217.582	-16.578	-0.057	0.036
-216.567	126.030	-0.301	0.381
-215.552	675.794	0.153	0.399
-214.538	168.458	-0.125	0.179
-213.523	-200.000	-0.018	0.129
-212.509	28.650	-0.143	0.122
-211.494	-200.000	0.016	0.305
-210.479	86.525	-0.183	0.202
-209.465	154.089	-0.215	-0.295
-208.450	-200.000	-0.019	-0.281
-207.436	-15.409	0.105	-0.067
-206.421	11.974	-0.098	0.076
-205.406	-47.067	-0.313	0.153
-204.392	258.250	-0.052	0.091
-203.377	115.554	0.261	0.320
-202.363	-145.024	-0.067	0.006
-201.348	-55.429	-0.347	-0.156
-200.333	-179.747	-0.235	0.005
-199.319	-17.132	0.193	0.122
-198.304	500.875	-0.114	0.264
-197.290	64.101	-0.209	-0.210
-196.275	-78.820	0.286	-0.098
-195.260	800.000	-0.018	0.059
-194.246	800.000	0.034	0.099
-193.231	211.121	0.145	-0.228
-192.217	62.178	0.164	-0.164
-191.202	284.310	-0.119	0.215
-190.187	268.755	-0.113	0.199
-189.173	140.070	-0.105	-0.138
-188.158	-117.320	0.131	0.024
-187.144	-20.532	-0.099	0.061
-186.129	800.000	0.063	0.224
-185.114	-68.219	0.446	0.174
-184.100	-5.740	0.082	0.056
-183.085	-77.858	-0.019	-0.007
-182.071	-139.804	-0.190	-0.020
-181.056	-68.187	-0.162	0.063
-180.042	-58.905	0.151	0.065
-179.027	-200.000	0.007	-0.088
-178.012	117.285	0.036	0.044
-176.998	-200.000	-0.022	-0.102
-175.983	800.000	0.100	0.279
-174.969	284.287	0.025	0.045
-173.954	-10.499	-0.100	0.066
-172.939	-77.124	0.359	-0.125
-171.925	151.808	0.133	0.182
-170.910	33.035	0.126	-0.109
-169.896	161.398	-0.271	0.380
-168.881	97.995	0.076	0.088
-167.866	63.700	0.115	0.115
-166.852	-17.048	-0.132	0.083
-165.837	-37.780	0.220	0.117
-164.823	-116.729	-0.066	0.012
-163.808	800.000	-0.057	-0.192
-162.793	182.113	0.074	0.110
-161.779	177.361	0.120	0.175
-160.764	-25.991	-0.344	0.202
-159.750	337.940	0.040	0.078
-158.735	-66.601	0.180	-0.071
-157.720	-200.000	-0.015	0.124
-156.706	-65.202	0.144	0.058
-155.691	-200.000	-0.064	0.285
-154.677	-35.119	0.239	0.130
-153.662	-67.140	0.093	-0.037
-152.647	-58.629	0.273	0.118
-151.633	295.343	-0.043	-0.079
-150.618	-8.028	-0.074	-0.050
-149.604	-53.740	0.311	-0.142
-148.589	-200.000	0.014	-0.080
-147.574	109.037	0.128	-0.153
-146.560	800.000	-0.157	0.531
-145.545	-84.778	-0.256	-0.080
-144.531	83.886	-0.121	0.132
-143.516	-200.000	0.079	0.346
-142.502	27.351	0.129	0.109
-141.487	18.713	-0.284	-0.227
-140.472	-19.656	0.178	-0.110
-139.458	110.002	0.147	-0.177
-138.443	-109.564	0.151	0.032
-137.429	-48.918	-0.439	0.210
-136.414	-200.000	0.040	0.188
-135.399	357.002	-0.078	0.156
-134.385	-200.000	-0.029	-0.138
-133.370	-133.621	0.084	-0.010
-132.356	800.000	-0.078	0.262
-131.341	77.374	-0.043	-0.045
-130.326	-141.226	0.252	0.026
-129.312	-129.593	-0.066	-0.009
-128.297	800.000	0.078	0.234
-127.283	-106.392	-0.145	0.032
-126.268	-51.014	-0.306	-0.143
-125.253	-42.710	-0.160	-0.081
-124.239	-48.262	-0.151	-0.073
-123.224	800.000	-0.059	0.193
-122.210	-48.514	0.196	0.094
-121.195	-83.468	-0.083	-0.027
-120.180	541.110	-0.083	-0.198
