DTS Sentinel unit serial number:	SN413079Multiplexer serial number:	ORYXHardware model number:	OX4-SRSoftware version number:	ORYX F/W v4.00 Oryx Data Collector v3.7.2.0data status	okinstallation	princeton_trtdifferential loss correction	single-endedforward channel	channel 3reverse channel	N/Adate	2019/09/14time	04:48:34forward acquisition time	60.00reverse acquisition time	0.00gamma	496.2192k internal	0.2337k external	0.2337temperature offset calibration	1.0055default loss term (dB/km)	0.3790temperature slope calibration	1.0000multiplexer offset coefficient	1.0000multiplexer slope coefficient	1.0000fibre end	0.00T internal ref (°C)	26.83T ext. ref 1 (°C)	3.34T ext. ref 2 (°C)	21.96length (m)	temperature (°C)	Stokes	anti-Stokes-747.200	800.000	-0.067	0.209
-746.185	-68.308	0.332	-0.130
-745.171	-46.615	0.298	0.147
-744.156	3.428	-0.120	0.088
-743.142	105.522	-0.235	0.279
-742.127	519.260	-0.093	0.219
-741.112	33.167	-0.147	0.128
-740.098	-68.146	-0.192	0.075
-739.083	800.000	0.016	-0.055
-738.069	-45.366	-0.222	0.110
-737.054	217.815	0.160	0.256
-736.039	-122.929	0.139	-0.022
-735.025	-12.988	0.006	-0.004
-734.010	-90.070	-0.113	-0.033
-732.996	-72.372	-0.066	-0.024
-731.981	-153.906	-0.166	0.011
-730.966	35.864	-0.095	-0.084
-729.952	25.043	0.116	-0.096
-728.937	-17.560	-0.428	-0.270
-727.923	376.265	-0.113	0.232
-726.908	-97.506	0.473	-0.123
-725.894	-103.307	-0.265	-0.063
-724.879	91.636	0.113	-0.128
-723.864	182.660	-0.104	-0.154
-722.850	800.000	0.091	0.297
-721.835	-200.000	0.016	-0.087
-720.821	-81.288	0.131	0.043
-719.806	-41.556	-0.135	0.070
-718.791	-134.169	-0.374	0.046
-717.777	759.970	0.055	-0.149
-716.762	-200.000	-0.087	-0.497
-715.748	-200.000	-0.050	-0.248
-714.733	207.282	-0.082	0.129
-713.718	-86.397	0.105	0.032
-712.704	-200.000	-0.026	0.173
-711.689	6.296	0.070	-0.052
-710.675	-30.350	0.262	0.149
-709.660	131.489	0.156	0.201
-708.645	26.566	-0.046	-0.038
-707.631	-200.000	0.056	0.249
-706.616	-112.768	-0.142	-0.028
-705.602	227.600	0.077	0.125
-704.587	-200.000	-0.008	-0.087
-703.572	-0.751	0.101	-0.072
-702.558	76.952	0.160	-0.171
-701.543	-79.044	0.463	0.158
-700.529	-99.251	0.142	-0.036
-699.514	51.370	0.057	0.054
-698.499	-6.022	-0.556	0.381
-697.485	-41.023	0.138	0.072
-696.470	-109.909	-0.327	0.069
-695.456	13.266	0.225	-0.174
-694.441	800.000	-0.084	0.366
-693.426	-131.794	-0.126	-0.017
-692.412	179.539	-0.102	-0.150
-691.397	-200.000	-0.033	-0.193
-690.383	800.000	0.093	-0.296
-689.368	618.574	0.145	0.365
-688.354	-83.435	-0.118	-0.038
-687.339	-200.000	-0.003	-0.275
-686.324	-182.616	-0.101	-0.002
-685.310	-29.216	0.021	-0.012
-684.295	514.864	-0.108	-0.253
-683.281	-94.181	0.040	0.011
-682.266	181.176	-0.188	-0.276
-681.251	-90.010	-0.247	0.072
-680.237	800.000	0.023	0.064
-679.222	2.401	-0.090	0.065
-678.208	150.526	0.036	0.049
-677.193	-134.720	-0.379	-0.046
-676.178	-26.831	0.157	-0.092
-675.164	12.051	0.218	-0.168
-674.149	-141.823	-0.069	0.007
-673.135	47.785	0.151	0.141
-672.120	-6.001	-0.334	0.229
-671.105	-12.637	-0.295	-0.193
-670.091	49.298	-0.122	-0.115
-669.076	106.105	-0.216	-0.256
-668.062	-132.793	-0.137	-0.018
-667.047	239.846	-0.073	-0.122
-666.032	-68.577	0.381	-0.148
-665.018	-170.938	-0.635	-0.022
-664.003	57.128	-0.182	-0.178
-662.989	69.366	0.047	0.048
-661.974	-196.240	0.097	0.001
-660.959	-155.851	0.336	-0.021
-659.945	-200.000	-0.032	-0.366
-658.930	-116.382	-0.236	0.044
-657.916	140.198	0.060	0.079
-656.901	7.385	-0.043	-0.032
-655.886	187.364	-0.094	-0.141
-654.872	-2.681	-0.241	0.168
-653.857	61.321	-0.113	-0.113
-652.843	800.000	-0.111	-0.361
-651.828	209.775	0.128	0.200
-650.814	119.349	-0.137	0.170
-649.799	725.671	-0.037	0.098
-648.784	73.771	-0.321	-0.337
-647.770	-71.437	-0.396	0.148
-646.755	-74.064	-0.223	0.081
-645.741	-143.982	0.370	-0.035
-644.726	148.018	-0.177	-0.238
-643.711	-200.000	-0.031	-0.199
-642.697	800.000	-0.072	-0.215
-641.682	-1.242	0.121	-0.086
-640.668	-200.000	-0.076	0.382
-639.653	-125.612	0.194	0.029
-638.638	-47.059	-0.245	-0.120
-637.624	182.839	-0.063	0.092
-636.609	-88.930	-0.173	-0.051
-635.595	615.455	-0.093	-0.233
-634.580	62.210	0.215	-0.214
-633.565	-80.366	-0.339	0.113
-632.551	-32.320	0.152	0.085
-631.536	-111.733	0.345	-0.070
-630.522	85.916	-0.080	-0.088
-629.507	1.526	0.423	0.304
-628.492	-193.251	0.433	0.004
-627.478	203.476	0.105	0.162
-626.463	-56.917	-0.354	0.156
-625.449	218.065	0.159	0.253
-624.434	69.939	0.286	-0.294
-623.419	-59.260	-0.227	0.098
-622.405	75.395	0.018	0.018
-621.390	-200.000	-0.178	-0.000
-620.376	-79.391	-0.055	-0.019
-619.361	800.000	-0.030	0.130
-618.346	201.345	-0.136	0.210
-617.332	-183.324	0.318	-0.006
-616.317	-200.000	-0.052	-0.476
-615.303	31.501	-0.270	0.232
-614.288	26.797	0.106	-0.089
-613.273	-200.000	0.023	0.119
-612.259	-200.000	0.011	-0.240
-611.244	800.000	-0.062	0.203
-610.230	-138.181	-0.120	-0.013
-609.215	417.955	-0.033	0.070
-608.201	-200.000	-0.016	-0.395
-607.186	556.669	-0.122	0.293
-606.171	-165.920	0.148	0.006
-605.157	-80.890	0.217	-0.072
-604.142	132.214	0.111	-0.143
-603.128	800.000	-0.110	0.335
-602.113	-144.736	-0.220	-0.020
-601.098	-200.000	0.011	-0.115
-600.084	-40.933	0.032	0.017
-599.069	-97.167	-0.289	-0.075
-598.055	451.082	0.106	-0.233
-597.040	-127.987	0.126	0.018
-596.025	93.618	0.197	-0.223
-595.011	-200.000	-0.016	-0.268
-593.996	-43.831	-0.157	-0.079
-592.982	219.764	-0.058	-0.092
-591.967	-81.989	-0.203	-0.066
-590.952	-139.753	-0.232	0.025
-589.938	-200.000	0.014	0.150
-588.923	-200.000	-0.052	0.383
-587.909	-188.857	0.216	0.003
-586.894	318.704	-0.088	-0.167
-585.879	-200.000	-0.002	0.235
-584.865	-67.949	-0.043	0.017
-583.850	42.485	0.102	-0.093
-582.836	-79.869	-0.491	0.165
-581.821	303.159	0.021	0.039
-580.806	-39.771	-0.285	-0.149
-579.792	-75.843	-0.353	0.125
-578.777	-40.478	-0.124	-0.064
-577.763	-71.765	0.287	-0.107
-576.748	598.343	0.153	-0.377
-575.733	591.367	-0.025	-0.062
-574.719	-32.798	-0.237	0.132
-573.704	73.244	-0.075	-0.078
-572.690	27.811	-0.045	0.038
-571.675	267.942	0.088	0.154
-570.661	-200.000	-0.036	-0.646
-569.646	800.000	-0.074	-0.281
-568.631	312.313	-0.102	-0.191
-567.617	-101.988	0.117	-0.028
-566.602	800.000	0.090	0.300
-565.588	-7.608	-0.077	-0.052
-564.573	57.189	-0.137	-0.133
-563.558	267.284	0.088	0.154
-562.544	-31.952	0.232	-0.130
-561.529	-71.045	-0.234	-0.088
-560.515	696.470	-0.072	-0.188
-559.500	86.781	0.199	0.219
-558.485	75.885	0.090	0.095
-557.471	-111.524	-0.385	0.078
-556.456	-200.000	0.011	0.354
-555.442	-68.584	-0.224	-0.087
-554.427	-200.000	0.017	-0.177
-553.412	-118.454	0.403	0.071
-552.398	-71.838	-0.240	-0.089
-551.383	-78.607	-0.097	0.033
-550.369	207.380	0.179	0.278
-549.354	-200.000	-0.026	-0.144
-548.339	31.895	0.173	-0.148
-547.325	-46.762	-0.217	0.106
-546.310	-200.000	0.003	0.021
-545.296	-73.529	0.409	-0.149
-544.281	-200.000	0.070	-0.325
-543.266	170.267	-0.068	0.097
-542.252	-44.466	0.044	0.022
-541.237	800.000	-0.073	-0.244
-540.223	-35.353	-0.318	0.172
-539.208	-88.155	-0.276	0.082
-538.193	294.539	0.137	0.249
-537.179	273.956	-0.117	0.207
-536.164	800.000	0.118	-0.421
-535.150	77.025	-0.131	0.139
-534.135	-200.000	0.012	0.210
-533.121	800.000	0.056	0.219
-532.106	-200.000	0.020	-0.228
-531.091	450.702	-0.120	-0.264
-530.077	199.015	0.098	-0.149
-529.062	800.000	0.038	-0.122
-528.048	-200.000	-0.005	-0.289
-527.033	9.222	-0.101	0.076
-526.018	-52.331	0.095	-0.044
-525.004	194.845	-0.150	0.227
-523.989	-200.000	-0.040	0.192
-522.975	484.637	0.044	0.100
-521.960	-29.776	0.086	0.049
-520.945	-5.713	0.184	-0.126
-519.931	-49.354	-0.309	0.147
-518.916	211.010	0.006	0.010
-517.902	414.458	0.106	-0.224
-516.887	127.016	0.016	-0.021
-515.872	5.442	0.019	-0.014
-514.858	13.795	0.259	0.200
-513.843	-200.000	0.038	0.301
-512.829	14.840	0.106	-0.083
-511.814	779.076	0.075	-0.205
-510.799	-200.000	0.013	0.209
-509.785	-79.076	0.249	-0.084
-508.770	8.993	-0.275	0.206
-507.756	-26.026	0.186	-0.109
-506.741	-200.000	-0.058	-0.355
-505.726	261.826	0.136	0.234
-504.712	115.970	0.137	0.166
-503.697	800.000	0.059	-0.176
-502.683	-200.000	-0.021	0.192
-501.668	40.762	-0.057	0.051
-500.653	177.395	0.142	0.206
-499.639	-44.525	-0.238	-0.118
-498.624	413.533	-0.038	0.080
-497.610	-131.414	0.349	-0.046
-496.595	13.580	-0.130	-0.100
-495.581	-200.000	0.017	0.121
-494.566	-62.630	-0.202	0.083
-493.551	19.049	0.098	0.078
-492.537	-200.000	0.000	0.339
-491.522	800.000	0.041	-0.169
-490.508	-48.302	0.263	-0.126
-489.493	-73.556	-0.245	-0.089
-488.478	-94.284	-0.153	-0.042
-487.464	265.573	-0.080	0.138
-486.449	239.691	0.247	0.409
-485.435	-137.805	-0.419	0.047
-484.420	154.881	-0.052	-0.071
-483.405	678.557	0.060	0.156
-482.391	-178.738	0.279	0.006
-481.376	-200.000	-0.051	0.290
-480.362	800.000	0.047	-0.190
-479.347	94.538	-0.071	-0.080
-478.332	-82.703	0.139	-0.045
-477.318	-73.908	-0.019	0.007
-476.303	-82.761	0.046	-0.015
-475.289	-200.000	-0.017	0.098
-474.274	66.899	-0.150	-0.151
-473.259	351.547	0.131	0.258
-472.245	-200.000	0.031	0.254
-471.230	-200.000	-0.043	0.259
-470.216	-200.000	-0.015	0.323
-469.201	-127.341	0.096	0.014
-468.186	-10.579	-0.281	0.185
-467.172	12.278	-0.235	0.180
-466.157	-200.000	0.065	-0.329
-465.143	-200.000	-0.021	-0.231
-464.128	-23.916	0.264	0.157
-463.113	248.208	0.071	0.119
-462.099	-39.541	-0.289	-0.150
-461.084	25.681	0.197	-0.163
-460.070	301.877	-0.114	-0.208
-459.055	-200.000	-0.016	-0.278
-458.040	180.964	0.066	-0.096
-457.026	27.898	-0.059	-0.050
-456.011	-200.000	-0.030	0.160
-454.997	212.055	-0.077	0.120
-453.982	-155.059	0.270	0.018
-452.968	-69.682	-0.344	0.131
-451.953	96.705	-0.143	0.163
-450.938	800.000	0.045	-0.163
-449.924	-200.000	0.033	-0.293
-448.909	67.558	0.205	0.208
-447.895	800.000	0.112	0.395
-446.880	-167.656	0.119	0.005
-445.865	-200.000	0.004	0.241
-444.851	269.455	0.135	0.235
-443.836	800.000	0.088	0.285
-442.822	-112.530	0.051	-0.010
-441.807	409.267	0.117	0.245
-440.792	7.816	0.215	-0.159
-439.778	-82.227	0.282	-0.091
-438.763	-69.056	-0.256	0.098
-437.749	800.000	-0.126	0.470
-436.734	74.059	-0.172	-0.180
-435.719	-200.000	-0.007	-0.314
-434.705	-95.743	0.138	-0.037
-433.690	-43.002	-0.046	-0.023
-432.676	-82.216	-0.157	-0.051
-431.661	-71.419	-0.227	-0.084
-430.646	-101.403	-0.195	-0.047
-429.632	123.612	0.115	-0.143
-428.617	290.913	-0.141	0.255
-427.603	800.000	0.049	0.185
-426.588	-191.675	0.249	0.002
-425.573	-37.761	0.116	-0.061
-424.559	0.523	0.022	-0.015
-423.544	-13.164	0.218	0.140
-422.530	-91.620	0.151	0.042
-421.515	-77.949	-0.147	-0.050
-420.500	116.804	-0.106	-0.130
-419.486	-4.830	-0.106	-0.072
-418.471	-109.949	0.076	0.016
-417.457	37.584	-0.213	0.187
-416.442	-200.000	-0.008	-0.119
-415.428	86.557	0.055	0.060
-414.413	-200.000	-0.014	0.388
-413.398	-200.000	-0.015	-0.164
-412.384	-142.248	-0.329	0.032
-411.369	-200.000	-0.023	-0.214
-410.355	-59.463	0.228	-0.097
-409.340	81.449	-0.235	-0.251
-408.325	800.000	-0.124	0.374
-407.311	153.625	-0.102	-0.138
-406.296	2.540	0.365	0.262
-405.282	-200.000	0.004	0.087
-404.267	6.476	-0.045	-0.033
-403.252	-200.000	-0.006	0.077
-402.238	-168.146	0.253	0.010
-401.223	-72.140	-0.324	-0.119
-400.209	800.000	0.084	-0.269
-399.194	-174.646	0.065	-0.002
-398.179	322.012	0.091	-0.172
-397.165	306.415	0.179	0.331
-396.150	-200.000	0.019	-0.538
-395.136	214.119	-0.135	0.211
-394.121	-104.826	0.210	0.048
-393.106	-131.796	-0.403	-0.052
-392.092	-200.000	-0.017	0.201
-391.077	118.670	0.052	0.064
-390.063	9.921	-0.167	-0.125
-389.048	25.109	-0.117	0.096
-388.033	-158.563	0.222	0.013
-387.019	361.247	-0.029	-0.058
-386.004	-4.853	0.283	-0.193
-384.990	46.244	-0.090	-0.083
-383.975	-148.255	0.130	-0.011
-382.960	-112.706	-0.120	-0.024
-381.946	179.905	-0.016	-0.024
-380.931	-155.139	0.223	-0.014
-379.917	21.947	-0.149	0.120
-378.902	-55.911	-0.088	-0.039
-377.888	-200.000	-0.004	-0.263
-376.873	-200.000	0.019	-0.618
-375.858	-40.077	0.170	-0.087
-374.844	-79.372	-0.200	-0.067
-373.829	74.034	0.242	-0.252
-372.815	800.000	0.064	-0.263
-371.800	150.586	-0.161	0.217
-370.785	67.422	-0.259	0.262
-369.771	-142.654	-0.154	-0.015
-368.756	-40.264	-0.089	0.046
-367.742	11.767	0.113	0.086
-366.727	27.466	-0.200	-0.167
-365.712	686.330	0.082	0.212
-364.698	-11.719	-0.245	0.159
-363.683	168.638	-0.113	-0.159
-362.669	34.120	0.187	0.162
-361.654	-195.763	-0.198	0.001
-360.639	-200.000	0.309	-0.000
-359.625	800.000	0.107	-0.340
-358.610	-83.266	0.120	0.038
-357.596	-21.234	0.079	0.048
-356.581	-200.000	0.001	0.098
-355.566	-200.000	-0.034	-0.397
-354.552	157.107	0.064	0.088
-353.537	-55.051	-0.341	-0.152
-352.523	-53.156	0.254	-0.115
-351.508	800.000	0.068	-0.234
-350.493	-64.607	-0.105	0.042
-349.479	690.168	0.074	-0.190
-348.464	-42.682	-0.202	-0.101
-347.450	800.000	-0.033	-0.108
-346.435	800.000	-0.138	0.384
-345.420	-111.138	0.586	0.119
-344.406	11.028	0.082	0.062
-343.391	269.110	0.052	0.090
-342.377	-29.801	-0.260	0.146
-341.362	51.974	0.283	-0.266
-340.348	32.140	-0.184	-0.157
-339.333	163.475	0.078	0.108
-338.318	-87.944	0.350	0.104
-337.304	-29.123	0.182	0.103
-336.289	-200.000	-0.001	-0.009
-335.275	-19.220	0.188	0.116
-334.260	676.760	-0.100	0.257
-333.245	-83.050	-0.439	-0.140
-332.231	-200.000	-0.036	0.298
-331.216	-42.474	-0.146	-0.074
-330.202	-135.125	0.254	-0.030
-329.187	71.991	0.121	0.124
-328.172	384.392	-0.098	-0.199
-327.158	-104.873	-0.148	0.034
-326.143	-120.921	0.449	-0.075
-325.129	-157.733	0.261	0.015
-324.114	98.205	0.287	-0.326
-323.099	-68.933	0.245	-0.093
-322.085	-200.000	-0.018	0.153
-321.070	64.194	-0.154	-0.153
-320.056	68.110	0.076	0.076
-319.041	-200.000	0.063	0.277
-318.026	27.688	0.131	0.109
-317.012	-24.922	0.033	0.019
-315.997	-200.000	-0.015	0.306
-314.983	132.464	0.136	-0.173
-313.968	-200.000	-0.001	0.041
-312.953	86.292	-0.191	0.208
-311.939	626.887	-0.046	-0.114
-310.924	-16.051	0.063	0.039
-309.910	-200.000	-0.002	0.018
-308.895	800.000	0.104	-0.435
-307.880	497.061	-0.047	0.107
-306.866	54.347	-0.112	-0.106
-305.851	1.943	-0.222	-0.158
-304.837	174.115	-0.157	0.224
-303.822	44.730	-0.094	-0.085
-302.807	-17.425	0.060	0.037
-301.793	146.663	0.039	0.052
-300.778	-90.652	-0.322	0.092
-299.764	-200.000	-0.009	0.399
-298.749	2.295	0.235	-0.168
-297.735	800.000	0.021	-0.081
-296.720	-98.430	0.176	-0.045
-295.705	-73.313	-0.027	0.010
-294.691	253.674	-0.175	0.295
-293.676	-143.383	-0.064	0.006
-292.662	-22.482	0.112	-0.067
-291.647	-8.753	0.358	0.237
-290.632	-149.981	-0.319	-0.025
-289.618	148.199	-0.078	0.104
-288.603	-1.201	0.048	-0.034
-287.589	295.298	-0.136	-0.246
-286.574	117.788	0.131	-0.158
-285.559	-159.943	0.038	0.002
-284.545	-200.000	0.072	0.353
-283.530	18.011	-0.127	0.100
-282.516	189.004	0.050	-0.074
-281.501	142.797	0.126	-0.165
-280.486	-200.000	-0.022	-0.173
-279.472	800.000	0.034	-0.140
-278.457	71.776	-0.111	-0.114
-277.443	-125.242	0.357	0.054
-276.428	-152.824	0.275	-0.019
-275.413	155.446	-0.105	-0.143
-274.399	47.525	0.327	-0.300
-273.384	217.984	-0.115	-0.182
-272.370	-200.000	-0.022	0.233
-271.355	760.577	0.069	-0.185
-270.340	-200.000	-0.026	-0.198
-269.326	-151.156	0.177	-0.013
-268.311	-73.354	0.225	-0.081
-267.297	-200.000	0.016	-0.086
-266.282	-97.531	-0.101	-0.026
-265.267	800.000	0.082	0.310
-264.253	-155.761	-0.201	-0.013
-263.238	-200.000	0.106	-0.491
-262.224	374.578	0.033	-0.067
-261.209	-200.000	-0.021	-0.316
-260.195	277.089	-0.229	0.401
-259.180	578.392	-0.055	0.134
-258.165	-200.000	0.017	-0.207
-257.151	-99.626	-0.108	0.027
-256.136	-133.460	-0.238	-0.029
-255.122	800.000	0.056	-0.184
-254.107	120.959	0.140	-0.172
-253.092	800.000	-0.013	0.049
-252.078	800.000	-0.055	0.157
-251.063	-200.000	-0.006	0.238
-250.049	-31.965	0.110	0.061
-249.034	-186.212	-0.407	-0.006
-248.019	-145.669	0.215	-0.019
-247.005	-200.000	0.057	0.337
-245.990	211.613	0.234	0.362
-244.976	19.922	-0.146	0.116
-243.961	-200.000	-0.051	0.471
-242.946	800.000	-0.087	-0.320
-241.932	800.000	-0.042	0.178
-240.917	181.712	-0.158	-0.229
-239.903	-31.566	-0.053	-0.029
-238.888	0.902	-0.085	-0.060
-237.873	47.391	-0.371	-0.340
-236.859	-200.000	0.000	-0.035
-235.844	-200.000	0.013	0.136
-234.830	67.834	0.279	0.280
-233.815	800.000	0.075	0.235
-232.800	-92.095	0.141	-0.039
-231.786	-86.211	-0.073	-0.022
-230.771	-200.000	0.011	0.142
-229.757	-144.890	0.253	-0.023
-228.742	-130.485	-0.220	0.029
-227.727	-142.758	-0.194	0.019
-226.713	343.753	0.051	0.099
-225.698	-200.000	0.009	0.096
-224.684	-143.446	0.356	-0.033
-223.669	800.000	0.127	0.394
-222.655	499.388	0.102	-0.231
-221.640	591.904	0.064	0.156
-220.625	96.239	0.129	0.145
-219.611	-200.000	0.020	-0.109
-218.596	550.221	-0.072	-0.171
-217.582	-75.891	-0.457	-0.159
-216.567	-200.000	0.037	0.168
-215.552	-62.377	-0.372	-0.152
-214.538	800.000	0.047	-0.151
-213.523	800.000	-0.073	0.232
-212.509	-146.475	-0.100	0.009
-211.494	145.952	0.085	0.111
-210.479	382.514	-0.037	0.074
-209.465	-168.409	-0.324	0.012
-208.450	123.155	0.044	-0.054
-207.436	-40.414	0.124	0.063
-206.421	-11.451	0.278	-0.180
-205.406	138.244	0.267	-0.344
-204.392	-1.586	-0.306	0.212
-203.377	-42.640	-0.303	0.151
-202.363	707.842	0.087	0.225
-201.348	-72.880	0.100	0.036
-200.333	-200.000	0.007	-0.052
-199.319	237.366	-0.177	0.289
-198.304	-59.290	0.115	-0.049
-197.290	55.492	0.172	-0.163
-196.275	-48.125	-0.159	0.075
-195.260	-159.683	-0.034	-0.002
-194.246	-64.254	0.362	0.145
-193.231	62.544	-0.214	-0.210
-192.217	-156.714	0.392	-0.024
-191.202	54.309	0.075	-0.071
-190.187	12.782	-0.156	0.118
-189.173	-103.273	-0.096	-0.022
-188.158	116.281	-0.194	-0.234
-187.144	-200.000	0.004	0.147
-186.129	162.360	-0.113	0.155
-185.114	800.000	-0.126	-0.365
-184.100	90.597	0.256	-0.281
-183.085	800.000	-0.106	-0.421
-182.071	-53.218	0.333	-0.150
-181.056	-81.821	0.133	-0.043
-180.042	-35.317	0.179	-0.096
-179.027	-126.276	0.163	0.024
-178.012	-139.648	0.351	0.037
-176.998	-40.500	0.197	-0.101
-175.983	158.057	-0.103	0.141
-174.969	125.309	0.145	-0.179
-173.954	-200.000	0.005	-0.198
-172.939	-139.506	-0.135	0.014
-171.925	61.469	0.087	-0.085
-170.910	123.680	0.067	0.082
-169.896	-82.199	-0.138	0.044
-168.881	-67.459	-0.196	0.076
-167.866	800.000	-0.037	-0.109
-166.852	-200.000	0.016	0.124
-165.837	19.856	0.121	-0.096
-164.823	-93.966	-0.072	-0.019
-163.808	-17.960	0.056	0.035
-162.793	-93.782	-0.146	-0.039
-161.779	-17.527	-0.240	0.148
-160.764	45.731	-0.117	0.106
-159.750	173.747	-0.136	-0.193
-158.735	196.947	0.166	0.249
-157.720	392.764	0.081	0.166
-156.706	800.000	-0.061	0.228
-155.691	69.319	-0.030	0.031
-154.677	-48.918	-0.154	-0.072
-153.662	-11.659	0.214	0.138
-152.647	-60.827	-0.067	-0.028
-151.633	62.875	-0.123	-0.121
-150.618	800.000	-0.015	0.044
-149.604	-73.244	-0.202	0.073
-148.589	770.319	-0.105	0.281
-147.574	-200.000	-0.043	-0.190
-146.560	110.570	0.076	0.089
-145.545	800.000	-0.029	-0.109
-144.531	-34.110	-0.126	-0.068
-143.516	-11.061	0.076	0.049
-142.502	-200.000	0.020	0.596
-141.487	40.328	0.275	0.243
-140.472	-200.000	0.019	0.164
-139.458	-78.648	0.081	0.027
-138.443	92.353	0.037	0.041
-137.429	-200.000	0.039	-0.334
-136.414	238.845	0.063	-0.103
-135.399	-132.871	-0.141	0.018
-134.385	-200.000	0.026	-0.199
-133.370	-5.168	-0.255	-0.172
-132.356	800.000	-0.042	-0.153
-131.341	-124.680	-0.091	-0.014
-130.326	406.523	0.138	0.286
-129.312	82.069	0.177	-0.188
-128.297	-42.237	0.221	0.111
-127.283	800.000	-0.036	-0.109
-126.268	434.677	0.094	-0.201
-125.253	110.941	-0.267	-0.315
-124.239	286.707	0.116	0.205
-123.224	-28.107	0.165	-0.094
-122.210	-200.000	-0.026	-0.268
-121.195	-176.971	-0.136	0.003
