DTS Sentinel unit serial number:	SN413079Multiplexer serial number:	ORYXHardware model number:	OX4-SRSoftware version number:	ORYX F/W v4.00 Oryx Data Collector v3.7.2.0data status	okinstallation	princeton_trtdifferential loss correction	single-endedforward channel	channel 3reverse channel	N/Adate	2019/09/16time	04:32:35forward acquisition time	60.00reverse acquisition time	0.00gamma	496.2192k internal	0.2336k external	0.2336temperature offset calibration	0.9955default loss term (dB/km)	0.3790temperature slope calibration	1.0000multiplexer offset coefficient	1.0000multiplexer slope coefficient	1.0000fibre end	0.00T internal ref (°C)	27.25T ext. ref 1 (°C)	10.86T ext. ref 2 (°C)	21.33length (m)	temperature (°C)	Stokes	anti-Stokes-747.200	-158.130	0.246	0.014
-746.185	686.991	-0.119	0.311
-745.171	-14.207	0.171	-0.111
-744.156	139.314	-0.271	0.358
-743.142	23.977	-0.120	0.099
-742.127	-91.995	0.077	-0.022
-741.112	-87.981	0.124	-0.037
-740.098	79.940	0.080	-0.086
-739.083	234.777	0.081	-0.134
-738.069	-200.000	-0.056	0.549
-737.054	214.536	-0.146	0.231
-736.039	-141.753	-0.506	0.051
-735.025	800.000	-0.082	0.233
-734.010	71.175	-0.154	0.161
-732.996	102.996	-0.178	-0.209
-731.981	-113.654	-0.180	-0.035
-730.966	-63.217	-0.094	-0.039
-729.952	94.513	0.159	0.181
-728.937	-5.779	0.160	-0.110
-727.923	21.983	-0.221	-0.181
-726.908	-200.000	-0.007	0.131
-725.894	-200.000	-0.008	0.513
-724.879	-200.000	0.038	-0.232
-723.864	-150.477	0.218	-0.017
-722.850	129.429	0.030	0.038
-721.835	-200.000	0.052	-0.286
-720.821	800.000	0.032	0.102
-719.806	785.593	-0.038	0.105
-718.791	-37.034	-0.508	-0.273
-717.777	57.048	-0.189	-0.185
-716.762	-61.144	-0.299	0.126
-715.748	-200.000	0.016	-0.095
-714.733	-200.000	0.038	0.329
-713.718	339.545	0.172	-0.337
-712.704	291.391	0.044	-0.081
-711.689	93.003	0.029	0.033
-710.675	-25.575	0.166	-0.098
-709.660	129.500	0.118	0.151
-708.645	-200.000	-0.017	0.282
-707.631	-200.000	-0.032	0.243
-706.616	520.497	0.041	-0.096
-705.602	183.263	-0.129	-0.191
-704.587	37.510	-0.125	-0.111
-703.572	-2.421	0.066	0.046
-702.558	-200.000	-0.028	-0.320
-701.543	-76.628	-0.164	-0.058
-700.529	-186.683	-0.227	-0.003
-699.514	-200.000	0.003	0.035
-698.499	-126.162	0.213	-0.032
-697.485	208.716	-0.133	0.208
-696.470	709.866	0.084	-0.222
-695.456	34.759	-0.169	-0.148
-694.441	-52.552	-0.343	0.159
-693.426	-79.573	-0.098	0.033
-692.412	184.356	-0.184	-0.273
-691.397	-21.753	-0.101	-0.061
-690.383	-170.037	-0.147	0.005
-689.368	147.495	0.101	0.137
-688.354	800.000	0.027	-0.093
-687.339	205.818	-0.036	-0.057
-686.324	8.027	-0.253	-0.190
-685.310	-200.000	0.051	-0.246
-684.295	800.000	-0.072	-0.280
-683.281	764.831	0.084	0.229
-682.266	247.127	-0.061	0.103
-681.251	66.844	-0.188	-0.191
-680.237	21.098	-0.223	-0.181
-679.222	521.678	-0.061	0.144
-678.208	66.969	0.202	-0.206
-677.193	-110.343	-0.367	-0.076
-676.178	47.478	0.207	0.194
-675.164	-81.874	0.069	0.023
-674.149	-90.022	-0.316	-0.092
-673.135	-200.000	0.019	-0.094
-672.120	62.156	-0.185	-0.185
-671.105	8.467	-0.169	-0.127
-670.091	-55.915	0.141	-0.063
-669.076	-107.589	-0.266	-0.058
-668.062	-108.068	-0.361	-0.078
-667.047	99.250	-0.075	-0.086
-666.032	212.963	-0.180	0.285
-665.018	228.784	-0.171	-0.279
-664.003	800.000	0.093	-0.269
-662.989	94.446	-0.008	0.009
-661.974	-88.270	0.116	-0.035
-660.959	-77.854	0.252	0.087
-659.945	465.425	0.051	0.114
-658.930	-200.000	0.015	-0.125
-657.916	687.405	-0.032	-0.084
-656.901	6.652	0.182	-0.136
-655.886	-166.509	0.090	0.004
-654.872	-132.750	0.153	0.020
-653.857	-7.221	-0.156	0.106
-652.843	-200.000	-0.027	-0.203
-651.828	-15.747	-0.211	-0.135
-650.814	-98.205	-0.071	-0.018
-649.799	-31.589	-0.323	-0.181
-648.784	-59.376	0.183	-0.079
-647.770	52.189	0.046	-0.044
-646.755	-200.000	-0.028	-0.303
-645.741	17.822	-0.182	-0.145
-644.726	623.134	0.106	0.266
-643.711	800.000	0.026	0.108
-642.697	143.413	0.054	-0.072
-641.682	-200.000	0.005	0.242
-640.668	-47.041	-0.210	0.102
-639.653	37.234	0.249	-0.221
-638.638	109.054	0.102	-0.122
-637.624	18.420	-0.197	-0.157
-636.609	800.000	0.066	-0.245
-635.595	-111.649	0.267	0.054
-634.580	282.519	0.185	0.333
-633.565	-200.000	0.030	0.305
-632.551	800.000	0.010	0.030
-631.536	-97.561	-0.286	0.074
-630.522	-99.806	-0.084	-0.021
-629.507	39.005	0.064	0.057
-628.492	23.444	-0.179	-0.147
-627.478	349.199	-0.053	0.106
-626.463	-200.000	0.018	0.116
-625.449	-200.000	-0.043	-0.266
-624.434	-93.428	-0.178	0.049
-623.419	800.000	-0.054	-0.187
-622.405	-60.352	-0.106	-0.045
-621.390	-200.000	0.041	0.323
-620.376	488.071	0.182	0.415
-619.361	800.000	0.044	-0.169
-618.346	800.000	0.033	-0.102
-617.332	537.025	0.062	0.148
-616.317	-50.145	-0.348	0.165
-615.303	272.869	0.104	-0.184
-614.288	12.453	0.205	-0.158
-613.273	-92.806	-0.272	-0.076
-612.259	-200.000	-0.043	0.225
-611.244	135.640	-0.113	0.148
-610.230	30.575	0.064	0.055
-609.215	-121.615	-0.269	0.045
-608.201	-63.456	-0.155	-0.064
-607.186	-37.925	0.134	0.071
-606.171	-59.388	-0.308	-0.132
-605.157	158.994	0.125	-0.173
-604.142	-13.941	0.229	-0.148
-603.128	800.000	0.009	0.038
-602.113	-173.186	-0.354	-0.011
-601.098	108.182	-0.157	-0.187
-600.084	75.047	0.053	-0.055
-599.069	-200.000	-0.010	0.249
-598.055	-78.962	0.378	0.129
-597.040	6.118	-0.227	-0.168
-596.025	10.447	-0.311	-0.236
-595.011	351.492	0.142	-0.282
-593.996	-84.607	0.188	0.059
-592.982	-200.000	-0.005	0.050
-591.967	-200.000	0.023	-0.521
-590.952	800.000	-0.038	-0.145
-589.938	136.478	-0.290	0.378
-588.923	-75.374	0.205	-0.073
-587.909	-200.000	-0.032	-0.406
-586.894	50.439	-0.138	-0.130
-585.879	460.399	0.044	0.099
-584.865	-17.844	-0.284	0.178
-583.850	633.693	0.161	0.408
-582.836	49.898	0.140	-0.131
-581.821	357.805	-0.045	-0.089
-580.806	-22.690	0.419	-0.253
-579.792	696.651	0.087	-0.227
-578.777	-200.000	0.018	0.164
-577.763	441.034	-0.038	-0.083
-576.748	4.650	-0.191	0.140
-575.733	466.720	-0.039	0.087
-574.719	800.000	-0.023	-0.069
-573.704	-25.372	-0.373	0.220
-572.690	760.056	0.095	0.256
-571.675	321.012	0.032	0.061
-570.661	97.491	-0.101	-0.115
-569.646	88.149	0.161	0.179
-568.631	-200.000	0.041	0.263
-567.617	357.089	-0.157	0.313
-566.602	-51.945	0.148	0.069
-565.588	215.081	-0.087	0.138
-564.573	71.091	0.091	-0.094
-563.558	-200.000	-0.041	0.185
-562.544	167.248	-0.119	0.169
-561.529	-4.907	0.117	0.080
-560.515	112.030	0.026	-0.031
-559.500	-200.000	-0.004	-0.304
-558.485	-8.723	0.316	-0.211
-557.471	276.075	-0.099	0.176
-556.456	51.321	-0.195	-0.185
-555.442	-63.677	0.405	-0.166
-554.427	12.265	-0.152	-0.117
-553.412	-121.886	0.314	-0.052
-552.398	141.224	-0.067	0.088
-551.383	-149.478	-0.187	0.015
-550.369	-94.559	0.306	0.083
-549.354	205.236	-0.129	-0.199
-548.339	-143.648	-0.218	-0.021
-547.325	27.234	0.026	0.021
-546.310	199.143	-0.049	0.075
-545.296	366.602	-0.079	-0.159
-544.281	226.950	-0.142	0.230
-543.266	80.647	0.069	-0.075
-542.252	-200.000	-0.005	0.025
-541.237	-200.000	0.012	0.167
-540.223	-176.098	0.172	0.005
-539.208	800.000	-0.018	-0.068
-538.193	111.133	-0.022	0.026
-537.179	-200.000	-0.026	-0.251
-536.164	-200.000	-0.035	0.254
-535.150	-12.246	0.138	-0.090
-534.135	-200.000	-0.025	0.369
-533.121	-200.000	-0.018	-0.116
-532.106	-200.000	-0.082	-0.383
-531.091	-190.868	0.068	-0.001
-530.077	-25.517	0.187	-0.110
-529.062	-20.287	-0.065	0.040
-528.048	-77.928	-0.372	0.128
-527.033	-101.436	0.151	0.037
-526.018	319.808	-0.102	-0.194
-525.004	-63.159	-0.083	0.034
-523.989	-31.398	-0.066	0.037
-522.975	-126.580	-0.533	0.079
-521.960	134.501	0.107	0.138
-520.945	800.000	0.039	-0.166
-519.931	248.838	0.056	-0.095
-518.916	800.000	-0.086	-0.245
-517.902	-64.859	-0.251	0.101
-516.887	-42.323	-0.225	0.115
-515.872	133.097	0.116	0.149
-514.858	-200.000	-0.044	0.201
-513.843	-200.000	-0.041	0.241
-512.829	-84.626	0.191	-0.060
-511.814	-10.113	-0.563	-0.372
-510.799	-35.159	0.241	-0.131
-509.785	-182.476	0.068	0.001
-508.770	800.000	0.034	-0.102
-507.756	129.241	0.039	0.050
-506.741	44.836	0.103	-0.094
-505.726	83.890	0.220	-0.239
-504.712	-124.131	0.134	-0.021
-503.697	-73.866	0.254	-0.092
-502.683	-12.641	0.211	-0.137
-501.668	-57.501	0.097	0.043
-500.653	-11.443	0.228	-0.149
-499.639	336.856	-0.119	-0.230
-498.624	-153.869	-0.281	-0.019
-497.610	-53.327	0.048	0.022
-496.595	203.953	-0.086	0.132
-495.581	800.000	-0.046	0.131
-494.566	-200.000	0.030	-0.230
-493.551	47.539	-0.056	-0.052
-492.537	-106.317	0.208	0.046
-491.522	427.510	0.051	-0.108
-490.508	-200.000	-0.010	0.207
-489.493	-4.823	0.190	0.130
-488.478	-200.000	-0.023	0.333
-487.464	-20.621	-0.220	0.134
-486.449	-36.227	0.037	-0.020
-485.435	-200.000	-0.016	0.104
-484.420	-200.000	-0.008	0.109
-483.405	384.042	0.052	-0.107
-482.391	-200.000	-0.032	0.189
-481.376	-200.000	-0.042	0.201
-480.362	-113.702	0.050	-0.010
-479.347	-200.000	-0.017	-0.159
-478.332	673.201	0.058	-0.151
-477.318	193.726	0.055	-0.083
-476.303	-2.850	0.123	0.085
-475.289	-27.537	0.123	0.071
-474.274	4.192	0.046	0.034
-473.259	-200.000	-0.032	-0.198
-472.245	182.986	0.129	0.189
-471.230	115.185	-0.039	0.047
-470.216	29.349	0.098	0.083
-469.201	195.087	0.037	-0.055
-468.186	6.460	-0.270	0.199
-467.172	800.000	0.095	-0.379
-466.157	-200.000	-0.017	0.128
-465.143	800.000	0.129	-0.393
-464.128	464.530	-0.041	-0.092
-463.113	-74.421	0.115	-0.041
-462.099	-57.049	0.309	0.135
-461.084	-41.495	-0.284	0.145
-460.070	9.453	-0.023	-0.017
-459.055	-138.151	-0.266	-0.029
-458.040	-22.875	0.274	-0.164
-457.026	-169.662	0.142	0.005
-456.011	-83.853	-0.085	0.027
-454.997	537.247	0.009	-0.022
-453.982	-43.447	-0.229	-0.115
-452.968	-200.000	0.042	-0.273
-451.953	18.678	0.144	-0.114
-450.938	272.001	0.026	-0.046
-449.924	800.000	0.067	0.236
-448.909	242.926	0.170	0.283
-447.895	-138.057	-0.223	0.025
-446.880	-200.000	0.014	0.243
-445.865	-200.000	0.060	0.284
-444.851	-96.296	-0.065	-0.017
-443.836	-200.000	-0.014	0.100
-442.822	-200.000	-0.021	-0.269
-441.807	-200.000	-0.001	-0.062
-440.792	649.904	0.146	0.370
-439.778	690.823	-0.043	0.111
-438.763	-48.151	0.220	-0.105
-437.749	-45.052	0.232	-0.115
-436.734	-40.706	0.289	-0.149
-435.719	346.733	0.137	-0.267
-434.705	-200.000	0.010	0.153
-433.690	309.865	-0.079	0.146
-432.676	570.840	0.168	-0.405
-431.661	-27.104	-0.108	-0.062
-430.646	3.805	-0.402	0.291
-429.632	60.269	-0.055	-0.054
-428.617	561.913	-0.078	-0.188
-427.603	-90.235	-0.097	0.028
-426.588	800.000	0.092	-0.266
-425.573	-78.733	0.125	-0.042
-424.559	232.348	-0.082	0.134
-423.544	-200.000	-0.020	-0.197
-422.530	-200.000	-0.030	0.165
-421.515	199.541	0.145	-0.221
-420.500	-35.404	0.299	0.161
-419.486	250.638	-0.066	-0.111
-418.471	800.000	-0.088	0.354
-417.457	-200.000	-0.054	0.489
-416.442	-86.426	-0.278	-0.085
-415.428	-57.412	-0.088	-0.038
-414.413	-200.000	-0.026	0.125
-413.398	83.920	0.038	0.041
-412.384	332.301	-0.131	-0.252
-411.369	31.577	0.159	-0.136
-410.355	-200.000	0.058	-0.377
-409.340	-200.000	0.025	-0.245
-408.325	489.571	-0.105	-0.239
-407.311	21.811	-0.152	0.123
-406.296	-200.000	0.099	-0.478
-405.282	-105.133	-0.192	-0.043
-404.267	102.986	-0.217	0.251
-403.252	-60.217	0.170	0.072
-402.238	-2.115	-0.107	-0.074
-401.223	-49.345	0.317	0.150
-400.209	178.743	-0.017	0.025
-399.194	795.616	0.057	0.155
-398.179	3.333	-0.065	0.047
-397.165	16.287	0.097	0.076
-396.150	-200.000	-0.002	-0.075
-395.136	800.000	-0.075	0.274
-394.121	142.167	0.085	0.111
-393.106	20.382	-0.154	-0.123
-392.092	138.997	0.238	0.310
-391.077	-174.310	-0.118	-0.003
-390.063	800.000	-0.094	0.275
-389.048	65.088	0.201	0.201
-388.033	800.000	0.052	0.150
-387.019	-111.921	-0.161	0.032
-386.004	-125.411	0.573	-0.087
-384.990	-26.306	0.073	-0.042
-383.975	-200.000	-0.005	-0.204
-382.960	-200.000	0.037	0.214
-381.946	-117.233	0.137	0.025
-380.931	22.393	0.261	-0.211
-379.917	729.705	-0.056	0.148
-378.902	48.228	-0.112	0.103
-377.888	-200.000	-0.067	-0.353
-376.873	527.716	-0.042	0.098
-375.858	25.026	0.150	-0.123
-374.844	274.469	0.135	-0.236
-373.829	101.288	-0.286	-0.330
-372.815	-178.722	-0.192	0.004
-371.800	47.947	0.194	-0.179
-370.785	-200.000	-0.048	-0.269
-369.771	-119.856	0.035	0.006
-368.756	800.000	0.022	0.060
-367.742	-53.993	-0.175	0.079
-366.727	800.000	0.051	-0.178
-365.712	800.000	-0.017	0.073
-364.698	-148.802	0.249	0.020
-363.683	-0.997	0.228	-0.160
-362.669	-145.498	0.063	-0.006
-361.654	112.311	-0.221	-0.265
-360.639	-54.739	0.077	0.034
-359.625	94.863	-0.197	0.222
-358.610	84.246	-0.182	0.197
-357.596	-52.546	-0.165	0.075
-356.581	-120.984	0.080	-0.013
-355.566	43.575	0.231	-0.209
-354.552	108.287	-0.182	-0.215
-353.537	-200.000	-0.005	0.100
-352.523	800.000	0.067	0.192
-351.508	-192.733	-0.142	-0.001
-350.493	-2.279	-0.394	-0.273
-349.479	254.030	-0.160	0.270
-348.464	-200.000	0.080	-0.427
-347.450	-200.000	-0.039	-0.274
-346.435	19.084	-0.139	0.110
-345.420	-72.413	0.118	0.043
-344.406	11.704	0.043	-0.033
-343.391	184.997	0.143	-0.210
-342.377	-96.852	-0.173	-0.045
-341.362	-200.000	0.016	-0.278
-340.348	-69.057	-0.212	-0.081
-339.333	319.463	0.148	0.277
-338.318	-125.146	-0.083	0.013
-337.304	-28.027	0.253	0.144
-336.289	-186.715	-0.286	-0.004
-335.275	472.325	-0.085	-0.190
-334.260	312.497	-0.209	0.388
-333.245	41.292	-0.150	0.134
-332.231	-63.573	0.164	-0.067
-331.216	-200.000	0.004	0.383
-330.202	792.574	-0.098	0.266
-329.187	139.321	-0.038	0.050
-328.172	-200.000	0.012	-0.851
-327.158	-200.000	0.024	-0.249
-326.143	-200.000	-0.012	-0.058
-325.129	-200.000	0.040	0.192
-324.114	102.703	0.199	0.230
-323.099	467.612	0.049	0.108
-322.085	800.000	-0.072	0.253
-321.070	-61.765	0.153	-0.063
-320.056	486.534	0.117	-0.263
-319.041	220.927	-0.027	-0.043
-318.026	386.781	-0.192	0.391
-317.012	180.949	-0.094	0.136
-315.997	-130.809	0.430	0.057
-314.983	-200.000	0.048	0.220
-313.968	-62.504	0.140	0.057
-312.953	-76.259	0.421	-0.147
-311.939	-81.538	-0.292	0.095
-310.924	-200.000	0.045	0.286
-309.910	59.155	0.095	0.093
-308.895	567.754	-0.126	0.303
-307.880	800.000	0.054	-0.183
-306.866	-102.016	0.285	-0.068
-305.851	-200.000	-0.009	-0.121
-304.837	21.645	-0.274	0.220
-303.822	-77.848	-0.275	-0.094
-302.807	-200.000	-0.018	0.282
-301.793	-23.405	0.135	0.080
-300.778	-200.000	0.005	-0.117
-299.764	366.570	0.094	-0.188
-298.749	112.509	-0.130	0.155
-297.735	-200.000	-0.037	0.166
-296.720	800.000	-0.102	0.353
-295.705	-89.305	0.244	0.071
-294.691	88.328	-0.125	0.137
-293.676	-33.158	-0.209	0.114
-292.662	-21.938	0.281	-0.169
-291.647	-41.934	-0.066	-0.033
-290.632	112.202	-0.149	-0.177
-289.618	56.157	0.125	-0.120
-288.603	-200.000	0.017	0.077
-287.589	-145.672	0.178	-0.016
-286.574	800.000	0.035	0.117
-285.559	107.343	0.156	-0.183
-284.545	35.681	-0.175	-0.152
-283.530	183.516	0.123	0.179
-282.516	-200.000	0.041	-0.234
-281.501	-156.594	-0.572	-0.035
-280.486	124.307	0.240	0.298
-279.472	1.867	0.446	-0.317
-278.457	-185.113	-0.334	-0.005
-277.443	131.277	0.212	0.269
-276.428	163.250	0.236	-0.327
-275.413	661.941	0.128	-0.326
-274.399	1.134	0.277	0.196
-273.384	800.000	0.063	0.221
-272.370	-3.794	0.047	-0.032
-271.355	-82.346	-0.269	0.086
-270.340	-200.000	0.150	0.000
-269.326	426.879	0.093	0.197
-268.311	-188.352	0.208	0.003
-267.297	-46.561	-0.144	0.070
-266.282	155.970	-0.041	-0.055
-265.267	355.918	0.129	-0.253
-264.253	-2.071	-0.145	-0.100
-263.238	60.213	0.319	-0.311
-262.224	591.292	0.049	-0.119
-261.209	800.000	-0.050	0.145
-260.195	527.338	-0.051	0.118
-259.180	-200.000	0.023	0.326
-258.165	341.915	0.092	-0.177
-257.151	800.000	-0.066	0.227
-256.136	715.904	0.141	0.368
-255.122	-75.208	-0.352	0.124
-254.107	112.104	-0.062	-0.074
-253.092	273.645	-0.066	-0.116
-252.078	-101.442	0.145	-0.035
-251.063	-23.030	0.060	0.035
-250.049	-95.358	-0.061	-0.016
-249.034	98.344	0.154	-0.174
-248.019	-200.000	0.008	-0.062
-247.005	71.694	0.069	0.071
-245.990	-56.830	0.030	0.013
-244.976	-144.517	-0.160	0.015
-243.961	184.931	0.195	-0.285
-242.946	200.135	-0.099	0.150
-241.932	-84.092	0.194	0.061
-240.917	419.187	-0.141	-0.297
-239.903	800.000	-0.073	-0.299
-238.888	-80.341	-0.137	0.045
-237.873	-98.828	0.044	0.011
-236.859	33.738	-0.187	-0.160
-235.844	-200.000	0.001	0.201
-234.830	81.944	-0.039	0.042
-233.815	-200.000	0.004	-0.131
-232.800	0.810	-0.100	0.070
-231.786	-36.107	-0.329	-0.175
-230.771	-57.604	0.181	0.078
-229.757	-30.122	-0.340	-0.190
-228.742	6.878	-0.053	0.039
-227.727	-1.222	0.072	-0.050
-226.713	-25.338	0.228	0.133
-225.698	-40.886	-0.153	0.078
-224.684	-200.000	0.020	-0.176
-223.669	102.249	0.058	0.067
-222.655	-14.022	0.290	0.184
-221.640	35.612	0.269	0.232
-220.625	-200.000	-0.058	-0.384
-219.611	47.669	0.255	0.234
-218.596	-200.000	0.019	0.136
-217.582	800.000	0.108	0.294
-216.567	-121.894	-0.178	-0.029
-215.552	-35.750	0.238	0.127
-214.538	-16.358	-0.205	-0.128
-213.523	25.928	-0.077	-0.063
-212.509	172.717	0.160	-0.227
-211.494	-57.910	-0.198	0.085
-210.479	510.046	0.088	0.201
-209.465	43.182	0.146	-0.131
-208.450	89.162	-0.133	0.146
-207.436	-153.914	0.030	-0.002
-206.421	267.333	0.085	-0.146
-205.406	-132.863	0.264	-0.033
-204.392	-72.078	0.324	0.118
-203.377	-124.077	-0.308	0.048
-202.363	487.707	-0.075	-0.167
-201.348	-81.549	0.332	0.107
-200.333	770.686	-0.102	-0.273
-199.319	-102.641	-0.114	-0.027
-198.304	705.939	0.039	-0.100
-197.290	-102.525	-0.143	-0.034
-196.275	6.396	-0.139	0.101
-195.260	-30.213	-0.126	-0.070
-194.246	-174.379	0.481	-0.014
-193.231	-26.089	0.146	-0.084
-192.217	-71.324	0.229	-0.084
-191.202	-84.522	0.175	0.054
-190.187	800.000	0.020	0.061
-189.173	209.387	0.113	-0.174
-188.158	800.000	-0.041	0.143
-187.144	-73.839	-0.275	-0.098
-186.129	59.788	0.121	-0.117
-185.114	-32.040	-0.148	-0.081
-184.100	11.002	0.151	-0.113
-183.085	-142.075	-0.226	0.022
-182.071	-53.031	0.286	-0.129
-181.056	-184.716	-0.270	-0.004
-180.042	66.950	-0.145	0.145
-179.027	800.000	0.111	0.375
-178.012	-200.000	-0.046	0.213
-176.998	-80.267	-0.237	-0.078
-175.983	6.794	-0.402	0.294
-174.969	-47.044	0.095	0.045
-173.954	-59.040	-0.325	0.138
-172.939	800.000	-0.015	0.062
-171.925	106.814	-0.186	0.217
-170.910	-76.388	0.158	-0.055
-169.896	-200.000	0.016	-0.086
-168.881	22.041	-0.333	-0.267
-167.866	800.000	-0.033	0.097
-166.852	-13.164	0.177	0.113
-165.837	219.308	0.146	-0.230
-164.823	-200.000	-0.019	0.088
-163.808	-135.461	-0.240	-0.028
-162.793	-33.054	-0.083	0.045
-161.779	-71.299	-0.104	-0.038
-160.764	-31.192	0.066	-0.036
-159.750	-48.776	-0.270	-0.127
-158.735	800.000	-0.071	0.247
-157.720	-46.703	0.107	0.051
-156.706	727.996	-0.117	0.307
-155.691	-200.000	-0.037	-0.225
-154.677	-134.371	-0.266	0.032
-153.662	-9.399	-0.159	-0.104
-152.647	391.522	-0.013	0.027
-151.633	420.300	0.066	0.140
-150.618	177.003	0.089	0.127
-149.604	6.291	-0.335	-0.244
-148.589	-200.000	0.110	0.491
-147.574	63.674	-0.225	0.222
-146.560	-200.000	0.044	-0.233
-145.545	-136.053	-0.106	0.012
-144.531	-180.287	0.272	-0.006
-143.516	311.641	-0.037	0.069
-142.502	800.000	-0.035	0.139
-141.487	42.515	-0.174	0.156
-140.472	-92.986	0.261	0.071
-139.458	-70.030	-0.044	-0.016
-138.443	-12.374	-0.174	0.112
-137.429	-178.237	-0.205	-0.005
-136.414	-78.241	0.519	0.175
-135.399	40.979	-0.245	0.217
-134.385	-200.000	-0.025	0.177
-133.370	-200.000	-0.051	0.276
-132.356	-142.550	-0.118	-0.011
-131.341	-3.543	0.085	0.058
-130.326	187.541	-0.251	0.368
-129.312	-47.881	0.290	0.137
-128.297	-64.607	-0.094	0.037
-127.283	21.030	0.165	0.131
-126.268	-193.359	-0.167	-0.001
-125.253	61.995	0.182	0.178
-124.239	-40.693	0.118	0.060
-123.224	800.000	-0.066	0.254
-122.210	170.490	0.163	0.229
-121.195	-200.000	-0.022	0.144
-120.180	-14.956	0.266	-0.167
