DTS Sentinel unit serial number:	SN413079Multiplexer serial number:	ORYXHardware model number:	OX4-SRSoftware version number:	ORYX F/W v4.00 Oryx Data Collector v3.7.2.0data status	okinstallation	princeton_trtdifferential loss correction	single-endedforward channel	channel 3reverse channel	N/Adate	2019/09/16time	13:28:35forward acquisition time	60.00reverse acquisition time	0.00gamma	496.2192k internal	0.2294k external	0.2294temperature offset calibration	0.9939default loss term (dB/km)	0.3790temperature slope calibration	1.0000multiplexer offset coefficient	1.0000multiplexer slope coefficient	1.0000fibre end	0.00T internal ref (°C)	41.69T ext. ref 1 (°C)	13.81T ext. ref 2 (°C)	39.67length (m)	temperature (°C)	Stokes	anti-Stokes-747.200	606.673	-0.056	0.143
-746.185	-200.000	-0.022	-0.135
-745.171	139.969	0.057	0.077
-744.156	800.000	0.025	0.107
-743.142	160.234	-0.034	0.048
-742.127	43.185	-0.230	0.215
-741.112	-39.381	-0.336	-0.180
-740.098	91.519	0.253	-0.291
-739.083	-41.967	-0.208	-0.109
-738.069	173.561	-0.115	0.169
-737.054	5.368	0.001	0.001
-736.039	800.000	-0.077	0.291
-735.025	-115.087	0.427	-0.083
-734.010	-200.000	-0.042	-0.509
-732.996	168.079	-0.177	0.258
-731.981	322.496	-0.040	-0.078
-730.966	-16.388	0.333	0.216
-729.952	99.796	-0.063	-0.075
-728.937	-181.317	-0.464	-0.009
-727.923	37.429	-0.334	-0.303
-726.908	9.291	-0.055	-0.043
-725.894	800.000	-0.067	0.263
-724.879	-47.640	-0.263	-0.130
-723.864	-152.478	0.231	0.017
-722.850	-23.149	0.108	-0.067
-721.835	205.921	-0.028	0.044
-720.821	31.387	0.165	0.145
-719.806	-2.723	-0.173	0.123
-718.791	-142.127	0.237	0.024
-717.777	263.135	0.069	0.122
-716.762	-131.265	-0.430	-0.058
-715.748	-200.000	-0.021	-0.132
-714.733	-200.000	-0.034	-0.319
-713.718	181.098	0.158	0.237
-712.704	32.992	-0.141	-0.125
-711.689	-65.319	-0.346	0.142
-710.675	182.882	0.105	0.158
-709.660	-61.384	0.097	-0.041
-708.645	38.733	0.041	0.037
-707.631	-126.084	-0.264	0.040
-706.616	-200.000	-0.011	-0.051
-705.602	543.047	0.102	-0.248
-704.587	800.000	-0.055	0.158
-703.572	-117.229	-0.180	-0.033
-702.558	340.458	0.128	0.256
-701.543	103.842	0.018	0.021
-700.529	-92.889	0.155	0.044
-699.514	49.619	-0.007	-0.007
-698.499	-50.223	0.439	0.212
-697.485	146.837	-0.135	-0.185
-696.470	800.000	-0.091	-0.333
-695.456	-101.544	-0.279	0.069
-694.441	-44.874	0.202	0.103
-693.426	76.844	-0.221	-0.240
-692.412	800.000	0.071	0.239
-691.397	-58.906	-0.282	-0.124
-690.383	-51.467	-0.241	-0.115
-689.368	9.916	-0.322	-0.249
-688.354	72.296	0.298	0.317
-687.339	-153.340	0.148	0.011
-686.324	67.908	0.136	0.141
-685.310	-21.622	0.100	-0.062
-684.295	251.471	0.099	-0.172
-683.281	69.613	-0.219	-0.230
-682.266	186.646	0.193	-0.294
-681.251	128.478	0.159	-0.207
-680.237	-200.000	0.006	0.311
-679.222	-200.000	-0.001	0.218
-678.208	-200.000	0.012	-0.060
-677.193	-88.146	-0.079	-0.024
-676.178	800.000	0.041	-0.126
-675.164	-73.151	-0.126	-0.047
-674.149	-200.000	-0.027	-0.226
-673.135	-178.559	-0.026	0.001
-672.120	-75.865	0.338	0.122
-671.105	366.183	-0.042	0.086
-670.091	64.090	-0.191	-0.196
-669.076	-200.000	0.007	-0.197
-668.062	-140.657	-0.288	0.030
-667.047	-44.654	0.172	-0.088
-666.032	362.770	-0.143	-0.293
-665.018	-21.347	0.390	0.243
-664.003	-200.000	-0.029	0.192
-662.989	-53.061	-0.098	0.046
-661.974	-63.754	0.129	-0.054
-660.959	405.009	0.036	0.078
-659.945	-73.470	0.232	-0.086
-658.930	-200.000	-0.006	0.040
-657.916	81.778	-0.191	0.211
-656.901	118.911	0.062	0.078
-655.886	-115.320	0.224	0.043
-654.872	224.486	-0.122	0.200
-653.857	800.000	0.020	0.066
-652.843	13.213	-0.099	0.078
-651.828	210.405	-0.092	-0.148
-650.814	372.862	0.109	-0.226
-649.799	-147.643	0.222	-0.019
-648.784	-2.670	0.180	0.128
-647.770	-200.000	0.062	-0.363
-646.755	220.516	-0.118	-0.192
-645.741	-166.892	0.145	0.006
-644.726	-173.998	-0.267	-0.008
-643.711	309.708	-0.041	-0.079
-642.697	-122.825	-0.097	0.016
-641.682	605.800	-0.069	-0.175
-640.668	-74.553	0.080	-0.029
-639.653	-200.000	0.028	-0.136
-638.638	-200.000	-0.032	0.274
-637.624	-14.788	-0.127	-0.083
-636.609	-112.095	-0.138	-0.028
-635.595	-160.380	-0.146	0.008
-634.580	27.489	0.187	0.160
-633.565	5.537	0.196	0.147
-632.551	-0.544	-0.233	-0.169
-631.536	-134.292	-0.138	-0.017
-630.522	800.000	0.117	0.368
-629.507	127.676	-0.158	0.205
-628.492	-40.489	-0.151	-0.080
-627.478	466.587	0.098	0.223
-626.463	-200.000	-0.020	-0.270
-625.449	-200.000	-0.009	-0.243
-624.434	189.577	0.164	-0.250
-623.419	223.268	-0.103	-0.169
-622.405	113.721	-0.104	0.128
-621.390	424.802	0.072	-0.159
-620.376	-200.000	-0.013	-0.309
-619.361	688.299	0.130	0.345
-618.346	-52.325	-0.338	-0.159
-617.332	140.782	-0.085	0.115
-616.317	778.223	-0.070	0.195
-615.303	800.000	0.053	0.153
-614.288	-65.012	0.199	0.082
-613.273	60.412	0.105	-0.106
-612.259	17.235	-0.314	-0.253
-611.244	110.921	0.038	0.047
-610.230	1.465	0.143	-0.105
-609.215	67.087	0.133	-0.138
-608.201	206.252	0.118	-0.187
-607.186	800.000	0.026	0.076
-606.171	218.072	0.189	-0.306
-605.157	-122.183	0.241	-0.040
-604.142	22.502	0.328	0.273
-603.128	166.799	-0.132	-0.190
-602.113	35.018	-0.342	-0.305
-601.098	-106.525	0.065	-0.015
-600.084	800.000	-0.064	-0.286
-599.069	-38.680	-0.234	0.126
-598.055	110.058	-0.137	0.167
-597.040	40.555	0.205	0.188
-596.025	329.537	-0.120	0.235
-595.011	305.347	0.138	0.261
-593.996	194.450	-0.224	-0.345
-592.982	-68.679	-0.331	-0.130
-591.967	-109.415	-0.420	-0.090
-590.952	-136.144	0.122	-0.015
-589.938	-78.293	-0.123	-0.043
-588.923	-200.000	-0.090	-0.649
-587.909	317.155	0.039	0.074
-586.894	-200.000	0.014	-0.273
-585.879	-84.970	0.060	-0.019
-584.865	-103.743	-0.312	0.074
-583.850	-55.496	-0.072	-0.033
-582.836	-143.569	-0.362	0.035
-581.821	800.000	0.067	-0.208
-580.806	-63.435	-0.346	0.145
-579.792	100.770	0.126	0.149
-578.777	-200.000	0.022	-0.157
-577.763	729.842	-0.029	0.080
-576.748	-200.000	0.022	0.202
-575.733	528.873	0.025	-0.061
-574.719	-200.000	0.020	-0.217
-573.704	-200.000	0.003	-0.238
-572.690	800.000	0.031	0.131
-571.675	-118.064	-0.453	0.082
-570.661	248.887	0.033	-0.057
-569.646	-70.176	0.331	0.128
-568.631	-74.071	0.086	-0.032
-567.617	-200.000	-0.013	-0.124
-566.602	800.000	-0.067	0.203
-565.588	-151.563	0.194	0.015
-564.573	94.588	0.180	-0.208
-563.558	11.686	0.136	-0.106
-562.544	-43.158	0.182	-0.093
-561.529	13.838	0.221	0.174
-560.515	-89.566	-0.358	-0.107
-559.500	149.231	0.122	0.167
-558.485	-129.939	-0.294	-0.041
-557.471	-105.813	0.360	0.083
-556.456	-119.342	-0.277	0.049
-555.442	45.820	-0.040	0.037
-554.427	-133.030	0.129	-0.017
-553.412	-110.220	0.249	-0.053
-552.398	111.837	0.088	0.108
-551.383	-44.789	-0.107	-0.054
-550.369	800.000	-0.067	-0.216
-549.354	315.619	0.052	-0.099
-548.339	-78.827	0.092	0.032
-547.325	14.881	-0.193	-0.153
-546.310	-28.260	-0.262	-0.154
-545.296	-108.243	0.316	0.069
-544.281	-83.857	-0.134	-0.043
-543.266	50.021	0.199	0.190
-542.252	477.027	-0.051	0.117
-541.237	-47.886	0.277	0.136
-540.223	434.262	-0.094	0.207
-539.208	51.958	-0.006	0.006
-538.193	-138.196	0.145	0.016
-537.179	-200.000	0.005	0.274
-536.164	-25.157	-0.199	-0.119
-535.150	-178.302	0.401	0.010
-534.135	-200.000	0.013	0.073
-533.121	-13.122	0.296	-0.195
-532.106	566.104	-0.022	-0.055
-531.091	-63.023	0.145	-0.061
-530.077	-117.587	-0.183	-0.034
-529.062	56.534	0.190	-0.187
-528.048	-145.226	-0.108	-0.010
-527.033	95.269	-0.290	-0.336
-526.018	312.117	-0.175	-0.333
-525.004	-2.589	-0.230	-0.163
-523.989	-119.975	0.106	-0.018
-522.975	-200.000	-0.088	0.474
-521.960	76.245	0.183	0.197
-520.945	-40.645	0.192	-0.101
-519.931	-160.411	0.349	-0.019
-518.916	800.000	0.037	-0.138
-517.902	-200.000	0.012	0.070
-516.887	173.141	-0.111	0.162
-515.872	60.518	0.151	0.152
-514.858	-200.000	-0.004	-0.200
-513.843	-101.692	0.321	-0.079
-512.829	-147.639	-0.229	-0.020
-511.814	-30.012	0.158	-0.091
-510.799	30.546	-0.214	0.185
-509.785	733.100	-0.068	-0.184
-508.770	-200.000	-0.016	0.208
-507.756	33.528	0.088	0.078
-506.741	-103.747	0.162	-0.039
-505.726	-4.954	0.172	0.120
-504.712	130.693	-0.062	-0.081
-503.697	-200.000	0.010	-0.186
-502.683	-200.000	-0.019	-0.246
-501.668	415.401	-0.130	0.280
-500.653	-162.056	-0.314	-0.016
-499.639	10.401	-0.128	0.098
-498.624	-14.992	0.190	0.124
-497.610	-200.000	0.004	-0.188
-496.595	292.624	-0.090	-0.166
-495.581	212.494	0.217	-0.347
-494.566	-200.000	-0.046	-0.265
-493.551	-119.373	0.437	0.077
-492.537	176.210	-0.129	-0.190
-491.522	800.000	0.028	0.091
-490.508	-20.877	0.131	0.081
-489.493	112.909	-0.137	0.168
-488.478	-130.949	0.326	-0.044
-487.464	800.000	0.067	0.230
-486.449	-49.922	0.204	0.098
-485.435	142.245	-0.085	-0.114
-484.420	-40.046	0.249	-0.132
-483.405	269.267	0.074	-0.132
-482.391	-134.139	0.352	-0.044
-481.376	70.423	0.230	0.241
-480.362	-133.617	0.163	0.021
-479.347	-193.590	-0.207	-0.002
-478.332	-200.000	0.047	-0.293
-477.318	-200.000	-0.013	-0.065
-476.303	-200.000	0.075	-0.345
-475.289	-200.000	-0.035	0.293
-474.274	-31.766	0.019	-0.011
-473.259	-177.363	0.078	-0.002
-472.245	-200.000	-0.004	0.126
-471.230	193.829	-0.137	-0.209
-470.216	80.805	-0.138	0.150
-469.201	-98.638	-0.095	0.024
-468.186	-200.000	0.042	-0.238
-467.172	-142.857	0.131	-0.013
-466.157	-200.000	0.003	-0.044
-465.143	800.000	-0.112	0.396
-464.128	-200.000	-0.002	-0.161
-463.113	-72.037	-0.187	-0.070
-462.099	-120.071	0.361	0.063
-461.084	102.837	-0.096	0.114
-460.070	34.768	-0.151	-0.134
-459.055	78.370	-0.228	-0.247
-458.040	-155.098	0.175	0.012
-457.026	163.633	0.099	0.141
-456.011	76.976	0.228	-0.245
-454.997	-200.000	-0.019	-0.143
-453.982	-200.000	0.003	-0.060
-452.968	30.403	-0.423	0.365
-451.953	120.826	-0.060	0.075
-450.938	-68.922	0.142	-0.055
-449.924	-200.000	0.222	0.001
-448.909	88.968	-0.055	0.061
-447.895	-200.000	-0.006	-0.223
-446.880	151.031	0.049	-0.067
-445.865	-1.476	-0.125	-0.089
-444.851	371.024	-0.141	0.288
-443.836	269.279	0.048	0.086
-442.822	-87.223	0.215	0.066
-441.807	9.092	-0.223	-0.170
-440.792	17.681	0.177	-0.142
-439.778	-124.221	0.083	0.013
-438.763	-200.000	0.002	-0.013
-437.749	-200.000	0.075	0.347
-436.734	-123.329	-0.289	0.047
-435.719	-50.961	-0.127	-0.060
-434.705	-13.412	0.163	-0.107
-433.690	-64.280	0.082	-0.034
-432.676	-200.000	-0.065	-0.302
-431.661	607.456	0.107	-0.268
-430.646	-47.702	0.223	0.109
-429.632	800.000	-0.014	0.046
-428.617	264.480	0.138	0.243
-427.603	74.286	-0.155	0.164
-426.588	-42.433	0.315	-0.162
-425.573	-100.894	-0.126	0.031
-424.559	-137.913	0.145	-0.016
-423.544	-127.355	0.245	-0.036
-422.530	135.610	-0.134	0.176
-421.515	-47.472	0.175	-0.086
-420.500	100.147	0.277	-0.324
-419.486	-122.102	0.266	0.044
-418.471	-66.630	-0.235	0.094
-417.457	-200.000	0.011	-0.073
-416.442	-9.730	0.183	0.123
-415.428	63.044	-0.034	0.034
-414.413	157.672	-0.066	-0.092
-413.398	15.513	0.072	0.057
-412.384	76.633	-0.063	0.068
-411.369	-176.613	0.182	-0.005
-410.355	-200.000	0.029	-0.208
-409.340	-146.501	-0.319	0.028
-408.325	169.592	-0.042	-0.061
-407.311	579.178	0.123	-0.304
-406.296	-91.264	0.143	-0.041
-405.282	55.685	0.148	0.144
-404.267	139.080	0.076	-0.101
-403.252	-44.366	0.185	-0.094
-402.238	-200.000	0.012	0.235
-401.223	-165.881	0.181	-0.008
-400.209	77.132	-0.095	0.101
-399.194	-59.525	0.206	-0.089
-398.179	-35.538	0.308	0.168
-397.165	800.000	-0.055	-0.177
-396.150	-180.113	0.388	0.008
-395.136	-18.807	-0.321	-0.202
-394.121	-50.173	-0.161	0.077
-393.106	-111.957	-0.315	-0.064
-392.092	-200.000	0.005	0.109
-391.077	-95.135	0.211	-0.058
-390.063	-200.000	0.008	0.361
-389.048	-19.142	0.122	0.076
-388.033	624.590	0.089	-0.225
-387.019	-93.234	-0.200	0.056
-386.004	-5.717	0.048	0.033
-384.990	140.721	-0.159	0.211
-383.975	-200.000	0.020	-0.145
-382.960	142.360	0.141	0.188
-381.946	58.047	0.109	0.108
-380.931	-2.961	-0.127	0.090
-379.917	43.120	0.091	0.084
-378.902	271.150	0.225	-0.400
-377.888	-200.000	0.047	-0.279
-376.873	-52.661	-0.338	0.157
-375.858	351.305	-0.109	-0.217
-374.844	-200.000	-0.014	0.091
-373.829	5.539	0.058	0.043
-372.815	-85.419	-0.365	-0.115
-371.800	-25.884	0.377	0.224
-370.785	-115.206	0.179	0.034
-369.771	-200.000	0.001	0.067
-368.756	-200.000	-0.024	0.265
-367.742	-82.206	-0.071	0.023
-366.727	41.330	-0.170	0.155
-365.712	800.000	0.039	0.160
-364.698	-79.224	0.114	-0.039
-363.683	800.000	0.035	-0.132
-362.669	800.000	-0.044	0.151
-361.654	-86.183	0.067	-0.021
-360.639	-66.845	0.132	-0.052
-359.625	-147.853	0.148	-0.012
-358.610	240.695	-0.103	0.172
-357.596	141.933	-0.080	0.107
-356.581	-97.942	-0.254	-0.066
-355.566	9.415	0.085	-0.065
-354.552	6.029	-0.081	-0.060
-353.537	329.327	-0.123	0.239
-352.523	28.342	0.017	0.015
-351.508	2.224	0.119	0.087
-350.493	-200.000	-0.021	0.387
-349.479	9.195	0.207	0.157
-348.464	-142.749	0.226	-0.022
-347.450	0.172	0.088	0.063
-346.435	142.299	-0.246	0.329
-345.420	548.087	0.047	-0.113
-344.406	130.824	-0.116	0.149
-343.391	117.984	0.108	0.134
-342.377	800.000	0.076	0.249
-341.362	15.173	-0.227	-0.179
-340.348	418.999	-0.021	0.046
-339.333	-59.901	-0.284	0.122
-338.318	-200.000	0.114	0.614
-337.304	135.629	0.106	-0.138
-336.289	-77.094	0.270	-0.095
-335.275	498.318	-0.064	0.148
-334.260	800.000	0.047	0.184
-333.245	-200.000	-0.027	0.176
-332.231	116.999	-0.044	-0.055
-331.216	108.599	-0.218	-0.262
-330.202	-147.374	0.174	0.015
-329.187	536.768	-0.173	-0.413
-328.172	723.543	0.084	-0.225
-327.158	313.457	-0.093	0.176
-326.143	6.265	-0.067	-0.050
-325.129	-2.128	-0.226	0.160
-324.114	-105.178	-0.207	0.047
-323.099	-140.623	-0.103	-0.011
-322.085	-15.365	-0.054	0.035
-321.070	-75.875	-0.228	-0.081
-320.056	-115.822	0.102	-0.019
-319.041	188.720	0.283	-0.426
-318.026	-200.000	0.008	-0.196
-317.012	-200.000	0.035	-0.200
-315.997	-70.995	-0.141	0.053
-314.983	252.938	-0.110	-0.189
-313.968	42.601	0.190	-0.174
-312.953	673.619	-0.088	0.231
-311.939	427.508	0.162	0.351
-310.924	147.968	0.232	0.315
-309.910	750.644	0.118	-0.320
-308.895	28.176	0.113	-0.096
-307.880	-139.463	-0.105	0.011
-306.866	-200.000	0.005	-0.135
-305.851	-200.000	-0.002	-0.081
-304.837	465.979	-0.107	-0.240
-303.822	-189.260	-0.027	0.000
-302.807	-200.000	-0.012	0.201
-301.793	98.030	0.338	-0.391
-300.778	-1.466	0.105	-0.075
-299.764	-200.000	0.029	-0.182
-298.749	-200.000	0.010	0.138
-297.735	800.000	-0.068	0.200
-296.720	-100.913	-0.327	-0.081
-295.705	-200.000	0.015	-0.097
-294.691	107.579	-0.131	-0.157
-293.676	-134.298	-0.078	0.010
-292.662	-200.000	0.015	0.169
-291.647	-111.119	0.274	0.057
-290.632	166.641	0.071	0.101
-289.618	13.519	-0.110	0.086
-288.603	-200.000	-0.002	-0.248
-287.589	95.505	0.050	0.057
-286.574	683.762	0.079	-0.206
-285.559	-133.238	0.125	-0.016
-284.545	-200.000	-0.035	0.468
-283.530	800.000	-0.086	0.269
-282.516	-74.097	-0.212	0.077
-281.501	-0.737	0.169	0.121
-280.486	-25.706	-0.130	-0.077
-279.472	-200.000	0.015	0.110
-278.457	100.036	-0.030	-0.035
-277.443	203.482	-0.115	0.178
-276.428	491.135	-0.098	0.225
-275.413	627.364	-0.042	0.107
-274.399	-11.549	-0.129	-0.085
-273.384	268.339	-0.187	0.330
-272.370	-200.000	0.022	-0.212
-271.355	256.172	0.077	0.132
-270.340	59.756	0.132	0.130
-269.326	-27.201	0.036	0.021
-268.311	342.693	-0.146	-0.286
-267.297	-68.844	-0.211	-0.082
-266.282	49.060	0.197	0.186
-265.267	-200.000	-0.010	0.242
-264.253	800.000	0.028	-0.092
-263.238	-170.800	-0.151	0.005
-262.224	-200.000	0.050	-0.316
-261.209	-200.000	-0.064	0.390
-260.195	87.054	0.306	0.340
-259.180	-64.217	0.107	0.044
-258.165	22.449	-0.042	0.035
-257.151	-45.940	0.221	0.110
-256.136	8.466	-0.344	-0.259
-255.122	425.530	-0.071	0.153
-254.107	-1.705	0.249	-0.176
-253.092	-93.546	-0.088	-0.024
-252.078	453.298	-0.062	-0.137
-251.063	27.117	-0.138	0.116
-250.049	475.198	0.080	-0.181
-249.034	205.236	0.105	-0.164
-248.019	222.329	0.199	0.321
-247.005	-200.000	-0.020	0.394
-245.990	-60.809	0.131	-0.055
-244.976	742.662	0.043	0.117
-243.961	147.341	0.066	0.088
-242.946	800.000	-0.059	-0.202
-241.932	188.214	-0.234	-0.350
-240.917	218.459	-0.100	0.160
-239.903	-200.000	0.004	0.254
-238.888	134.889	0.105	0.137
-237.873	13.730	-0.205	0.159
-236.859	-1.305	-0.166	0.117
-235.844	-146.529	0.238	-0.021
-234.830	288.437	-0.081	-0.146
-233.815	-5.521	-0.143	0.098
-232.800	2.318	0.208	-0.151
-231.786	476.513	-0.016	0.037
-230.771	454.748	-0.109	-0.242
-229.757	800.000	-0.017	0.064
-228.742	119.739	-0.247	0.307
-227.727	-200.000	-0.061	-0.467
-226.713	177.154	0.360	-0.525
-225.698	-53.762	0.193	-0.088
-224.684	-124.773	-0.039	-0.006
-223.669	-161.105	0.085	-0.004
-222.655	-121.387	0.167	0.028
-221.640	-200.000	0.016	0.131
-220.625	10.089	-0.217	-0.165
-219.611	800.000	-0.029	-0.098
-218.596	585.014	-0.156	0.383
-217.582	18.323	-0.182	-0.146
-216.567	-3.825	-0.166	-0.115
-215.552	-6.065	-0.115	0.079
-214.538	-119.578	-0.412	0.071
-213.523	-160.684	-0.098	-0.005
-212.509	800.000	0.047	-0.150
-211.494	32.300	-0.130	0.113
-210.479	-138.521	-0.034	0.004
-209.465	372.596	0.037	0.075
-208.450	-132.571	-0.173	0.022
-207.436	199.631	-0.109	-0.167
-206.421	-200.000	0.006	0.155
-205.406	-200.000	-0.051	-0.260
-204.392	800.000	-0.023	0.080
-203.377	160.408	-0.049	0.069
-202.363	-110.663	0.062	0.013
-201.348	-39.870	-0.167	-0.087
-200.333	-200.000	-0.005	-0.289
-199.319	17.491	-0.252	0.201
-198.304	-155.037	-0.235	0.015
-197.290	611.259	0.122	0.305
-196.275	800.000	-0.100	-0.306
-195.260	800.000	-0.030	-0.086
-194.246	-16.938	-0.259	0.164
-193.231	-200.000	0.018	0.092
-192.217	163.878	0.197	0.278
-191.202	-60.050	-0.210	0.090
-190.187	268.758	-0.144	-0.253
-189.173	-91.836	-0.081	0.023
-188.158	-200.000	-0.006	0.203
-187.144	112.389	-0.085	-0.103
-186.129	-200.000	-0.189	0.001
-185.114	-131.017	0.139	0.019
-184.100	-114.804	0.020	-0.004
-183.085	340.603	-0.078	0.153
-182.071	267.819	-0.071	-0.124
-181.056	-47.217	-0.186	-0.091
-180.042	266.272	0.105	-0.183
-179.027	171.389	-0.134	0.192
-178.012	-156.878	-0.239	0.015
-176.998	29.422	0.143	0.121
-175.983	17.741	-0.284	0.226
-174.969	800.000	-0.024	-0.078
-173.954	-111.603	0.169	0.034
-172.939	800.000	0.070	0.227
-171.925	-60.503	-0.044	0.019
-170.910	1.954	0.097	-0.070
-169.896	800.000	-0.037	0.143
-168.881	-108.112	0.314	-0.068
-167.866	-106.740	-0.315	-0.070
-166.852	151.733	-0.017	-0.023
-165.837	800.000	0.058	-0.210
-164.823	-123.526	0.091	-0.014
-163.808	-2.495	-0.128	-0.090
-162.793	261.244	-0.136	-0.236
-161.779	125.752	0.236	0.298
-160.764	-200.000	0.019	0.231
-159.750	-200.000	-0.037	0.297
-158.735	-124.137	0.348	0.055
-157.720	-54.556	-0.220	0.100
-156.706	-200.000	0.156	-0.000
-155.691	-169.248	0.164	-0.006
-154.677	-200.000	-0.048	0.312
-153.662	74.359	0.233	-0.245
-152.647	505.469	-0.097	0.224
-151.633	-147.662	-0.419	0.035
-150.618	212.326	0.054	0.084
-149.604	-41.229	0.133	-0.068
-148.589	448.584	0.025	0.055
-147.574	-11.060	-0.168	-0.111
-146.560	-42.153	0.245	0.125
-145.545	133.783	-0.168	-0.217
-144.531	160.306	-0.092	0.128
-143.516	57.257	0.224	0.218
-142.502	337.697	0.058	0.112
-141.487	-0.363	0.203	-0.144
-140.472	-22.971	-0.326	-0.196
-139.458	2.071	-0.110	-0.079
-138.443	340.713	0.110	0.215
-137.429	190.833	0.075	-0.112
-136.414	800.000	0.060	-0.211
-135.399	800.000	0.100	0.337
-134.385	-44.232	0.067	0.033
-133.370	446.670	0.069	0.152
-132.356	-200.000	0.079	-0.481
-131.341	-137.345	-0.046	-0.005
-130.326	-200.000	-0.020	-0.146
-129.312	800.000	0.031	-0.111
-128.297	-140.057	-0.368	0.039
-127.283	-109.303	-0.174	0.037
-126.268	-78.100	0.342	0.117
-125.253	278.197	-0.190	0.339
-124.239	-193.886	-0.140	0.001
-123.224	20.400	-0.314	-0.253
-122.210	-165.353	0.233	0.010
-121.195	146.325	0.289	0.388
