DTS Sentinel unit serial number:	SN413079Multiplexer serial number:	ORYXHardware model number:	OX4-SRSoftware version number:	ORYX F/W v4.00 Oryx Data Collector v3.7.2.0data status	okinstallation	princeton_trtdifferential loss correction	single-endedforward channel	channel 3reverse channel	N/Adate	2019/09/13time	23:00:35forward acquisition time	60.00reverse acquisition time	0.00gamma	496.2192k internal	0.2338k external	0.2338temperature offset calibration	1.0063default loss term (dB/km)	0.3790temperature slope calibration	1.0000multiplexer offset coefficient	1.0000multiplexer slope coefficient	1.0000fibre end	0.00T internal ref (°C)	27.31T ext. ref 1 (°C)	3.19T ext. ref 2 (°C)	21.33length (m)	temperature (°C)	Stokes	anti-Stokes-747.200	128.113	-0.227	-0.290
-746.185	555.600	-0.037	-0.090
-745.171	-74.236	0.288	0.104
-744.156	-36.712	0.136	0.073
-743.142	329.457	0.062	-0.121
-742.127	86.165	-0.010	-0.011
-741.112	-97.192	-0.189	0.050
-740.098	27.537	-0.331	0.279
-739.083	221.287	0.093	-0.149
-738.069	-120.350	-0.177	0.030
-737.054	-58.815	-0.189	0.082
-736.039	355.570	-0.080	0.160
-735.025	-63.432	0.316	0.130
-734.010	-75.801	0.166	-0.059
-732.996	-200.000	0.011	-0.361
-731.981	-123.214	-0.255	-0.041
-730.966	-47.752	0.241	0.117
-729.952	800.000	-0.076	0.284
-728.937	800.000	-0.075	0.212
-727.923	-38.173	0.041	-0.022
-726.908	-55.229	-0.265	0.120
-725.894	-14.710	0.116	-0.075
-724.879	29.702	0.154	0.131
-723.864	-31.660	-0.177	0.100
-722.850	6.410	-0.205	-0.153
-721.835	-200.000	0.012	0.156
-720.821	-200.000	0.018	0.089
-719.806	-48.559	-0.116	0.056
-718.791	68.288	0.276	0.284
-717.777	-5.201	0.102	0.070
-716.762	800.000	-0.114	0.360
-715.748	40.924	-0.175	-0.158
-714.733	308.216	-0.109	0.203
-713.718	800.000	-0.060	0.204
-712.704	336.758	0.170	0.330
-711.689	87.182	-0.231	0.256
-710.675	92.821	-0.220	-0.249
-709.660	-64.032	0.241	-0.099
-708.645	-200.000	-0.057	0.566
-707.631	97.550	0.103	-0.119
-706.616	74.938	0.188	0.199
-705.602	536.251	0.101	-0.241
-704.587	-65.461	-0.253	-0.102
-703.572	-19.981	-0.075	-0.046
-702.558	-200.000	-0.016	-0.084
-701.543	452.917	0.080	0.178
-700.529	39.835	0.071	-0.064
-699.514	151.864	0.146	-0.199
-698.499	196.811	-0.075	0.115
-697.485	308.318	0.060	0.112
-696.470	-42.827	-0.309	-0.158
-695.456	47.818	0.225	0.210
-694.441	-200.000	0.008	0.045
-693.426	88.073	0.047	-0.053
-692.412	-18.776	0.229	-0.143
-691.397	-15.119	-0.151	0.097
-690.383	800.000	0.061	0.246
-689.368	800.000	0.027	0.098
-688.354	100.711	-0.122	0.142
-687.339	-156.510	0.300	-0.019
-686.324	-200.000	-0.009	-0.217
-685.310	95.811	-0.090	-0.103
-684.295	800.000	-0.021	-0.072
-683.281	8.278	0.155	0.117
-682.266	800.000	-0.117	0.405
-681.251	-200.000	-0.020	0.126
-680.237	179.300	-0.118	-0.173
-679.222	2.171	-0.255	-0.184
-678.208	-2.972	-0.391	0.273
-677.193	-13.693	-0.395	0.256
-676.178	-152.034	-0.271	-0.020
-675.164	371.683	0.051	-0.103
-674.149	130.764	-0.119	-0.153
-673.135	-200.000	0.036	-0.307
-672.120	-78.701	0.295	0.101
-671.105	428.909	0.120	-0.260
-670.091	54.984	-0.162	-0.156
-669.076	100.393	0.036	-0.042
-668.062	-200.000	-0.005	-0.142
-667.047	77.484	0.066	0.071
-666.032	79.989	-0.103	-0.111
-665.018	-126.483	-0.179	0.027
-664.003	-25.257	-0.229	0.136
-662.989	800.000	0.036	-0.100
-661.974	-83.763	0.249	-0.080
-660.959	-34.277	0.501	-0.275
-659.945	-47.169	0.239	0.116
-658.930	-63.693	0.319	-0.131
-657.916	276.750	0.070	-0.125
-656.901	129.458	-0.090	-0.115
-655.886	102.585	0.151	0.176
-654.872	-200.000	0.053	-0.291
-653.857	415.827	0.030	-0.063
-652.843	-143.130	0.187	0.018
-651.828	157.765	-0.242	-0.335
-650.814	45.963	-0.256	-0.237
-649.799	49.089	-0.119	0.112
-648.784	-141.992	0.265	0.026
-647.770	-200.000	0.042	-0.211
-646.755	403.393	0.070	0.148
-645.741	453.232	-0.116	-0.256
-644.726	-200.000	0.002	0.048
-643.711	49.971	0.137	0.129
-642.697	70.570	-0.052	-0.054
-641.682	-162.140	-0.162	0.008
-640.668	274.406	0.066	0.117
-639.653	-200.000	-0.054	-0.281
-638.638	-78.872	-0.120	-0.041
-637.624	20.500	0.122	-0.098
-636.609	352.648	0.078	0.155
-635.595	35.931	0.106	0.093
-634.580	800.000	0.039	-0.125
-633.565	-115.417	-0.255	-0.048
-632.551	-108.082	0.185	0.040
-631.536	-105.452	-0.109	-0.025
-630.522	-200.000	0.030	-0.253
-629.507	-200.000	0.000	-0.182
-628.492	273.226	-0.041	-0.073
-627.478	-150.632	-0.418	-0.032
-626.463	-200.000	0.019	-0.172
-625.449	-19.895	-0.271	0.167
-624.434	-88.987	0.288	0.085
-623.419	-69.861	-0.122	-0.046
-622.405	-166.778	-0.076	-0.003
-621.390	-69.365	-0.231	-0.089
-620.376	-95.657	-0.300	0.080
-619.361	232.966	-0.119	0.195
-618.346	568.082	-0.025	-0.061
-617.332	800.000	-0.073	0.290
-616.317	548.380	-0.076	-0.182
-615.303	-101.604	0.084	0.020
-614.288	85.220	0.042	0.046
-613.273	264.888	-0.129	-0.224
-612.259	-188.923	0.113	-0.001
-611.244	-200.000	0.039	0.300
-610.230	-200.000	-0.004	-0.189
-609.215	-200.000	-0.049	0.000
-608.201	-93.143	0.147	0.041
-607.186	-126.119	-0.228	-0.034
-606.171	-157.408	-0.149	-0.009
-605.157	-73.516	-0.176	0.064
-604.142	-154.672	-0.179	-0.012
-603.128	-27.140	0.303	-0.176
-602.113	-46.118	-0.156	0.077
-601.098	251.194	0.117	-0.199
-600.084	27.068	-0.135	0.113
-599.069	-6.643	0.011	-0.008
-598.055	-15.397	-0.467	0.298
-597.040	28.378	0.201	0.170
-596.025	302.650	-0.078	-0.144
-595.011	800.000	0.056	-0.203
-593.996	800.000	-0.080	0.259
-592.982	-118.278	-0.076	-0.014
-591.967	530.116	0.104	-0.246
-590.952	-200.000	0.024	-0.124
-589.938	-141.625	-0.132	0.013
-588.923	218.676	-0.152	0.242
-587.909	437.245	-0.035	-0.076
-586.894	-78.406	0.271	0.093
-585.879	342.391	-0.065	-0.128
-584.865	-200.000	-0.008	0.141
-583.850	246.911	0.026	0.044
-582.836	442.543	0.166	-0.363
-581.821	592.688	0.102	0.251
-580.806	-200.000	0.028	0.188
-579.792	-85.156	0.059	0.018
-578.777	222.842	0.082	-0.132
-577.763	43.492	0.204	-0.186
-576.748	433.013	0.091	-0.197
-575.733	28.318	-0.184	0.155
-574.719	-200.000	0.012	0.107
-573.704	-4.713	-0.150	-0.103
-572.690	800.000	0.057	0.220
-571.675	-51.387	-0.065	0.030
-570.661	-82.428	-0.214	0.069
-569.646	800.000	-0.097	-0.300
-568.631	-110.746	0.449	-0.092
-567.617	-200.000	-0.042	0.233
-566.602	-129.931	0.244	-0.033
-565.588	98.814	0.316	-0.364
-564.573	-175.317	-0.335	0.009
-563.558	-62.430	-0.177	0.074
-562.544	38.215	-0.180	0.160
-561.529	248.386	-0.264	0.444
-560.515	-76.600	-0.245	0.086
-559.500	-158.728	0.398	-0.023
-558.485	132.087	0.231	-0.296
-557.471	-61.542	0.010	0.004
-556.456	-200.000	-0.032	-0.680
-555.442	2.546	0.200	0.145
-554.427	-200.000	-0.118	-0.546
-553.412	-184.881	-0.209	-0.003
-552.398	-53.208	0.280	0.128
-551.383	-76.637	0.165	0.058
-550.369	-163.562	0.323	0.015
-549.354	-116.594	-0.173	-0.032
-548.339	800.000	-0.097	-0.285
-547.325	-118.158	-0.041	-0.007
-546.310	-28.422	0.123	0.071
-545.296	-43.656	0.098	-0.049
-544.281	800.000	-0.038	-0.158
-543.266	-15.068	-0.400	0.255
-542.252	-41.067	0.272	0.140
-541.237	251.021	0.175	0.296
-540.223	-200.000	0.008	-0.086
-539.208	299.579	-0.040	-0.073
-538.193	-49.865	-0.077	-0.036
-537.179	-100.545	0.236	0.058
-536.164	52.747	-0.194	-0.185
-535.150	-125.167	0.081	-0.012
-534.135	-34.814	-0.032	0.017
-533.121	-132.236	-0.179	-0.023
-532.106	-58.399	0.293	0.127
-531.091	385.443	0.067	-0.137
-530.077	146.553	0.031	0.041
-529.062	800.000	-0.083	-0.288
-528.048	-132.592	-0.228	-0.029
-527.033	22.411	0.314	-0.255
-526.018	-100.937	-0.378	-0.092
-525.004	14.839	-0.237	-0.184
-523.989	-78.386	-0.093	0.032
-522.975	-118.420	0.115	-0.020
-521.960	-39.451	-0.078	-0.041
-520.945	-200.000	-0.011	-0.267
-519.931	0.702	0.333	-0.237
-518.916	-81.612	-0.226	0.074
-517.902	-144.394	0.142	-0.013
-516.887	-63.397	0.057	-0.023
-515.872	327.432	0.099	0.189
-514.858	-81.045	-0.290	0.095
-513.843	43.127	0.168	0.152
-512.829	-21.008	-0.296	-0.180
-511.814	658.094	0.126	0.323
-510.799	208.214	0.045	0.071
-509.785	-65.136	0.154	0.062
-508.770	122.862	0.059	-0.074
-507.756	-22.002	-0.150	-0.091
-506.741	800.000	0.140	0.467
-505.726	311.966	-0.039	0.073
-504.712	800.000	-0.078	-0.333
-503.697	-200.000	-0.040	0.250
-502.683	539.604	0.023	0.055
-501.668	291.060	0.115	-0.208
-500.653	-200.000	0.003	0.016
-499.639	142.809	-0.221	0.292
-498.624	-200.000	-0.019	-0.184
-497.610	-23.881	0.247	-0.147
-496.595	203.365	0.170	0.261
-495.581	-22.312	-0.073	-0.044
-494.566	41.884	0.316	0.285
-493.551	6.615	-0.342	-0.253
-492.537	162.135	-0.108	-0.150
-491.522	326.492	0.134	-0.256
-490.508	-89.004	0.081	-0.024
-489.493	-140.572	0.109	0.011
-488.478	-102.076	0.094	-0.022
-487.464	-9.974	0.075	-0.050
-486.449	118.412	-0.178	0.218
-485.435	-12.696	-0.073	0.047
-484.420	-110.037	0.370	0.077
-483.405	-24.750	-0.184	0.108
-482.391	-200.000	0.054	-0.249
-481.376	800.000	0.068	-0.249
-480.362	-200.000	0.012	-0.125
-479.347	35.525	-0.212	-0.185
-478.332	20.697	0.068	-0.054
-477.318	-40.418	0.443	-0.229
-476.303	-0.807	0.140	0.099
-475.289	196.508	-0.061	0.093
-474.274	800.000	-0.013	-0.048
-473.259	212.110	-0.152	-0.238
-472.245	-200.000	-0.001	0.013
-471.230	108.269	-0.050	0.059
-470.216	-29.744	0.155	-0.088
-469.201	-47.360	0.198	-0.096
-468.186	-90.524	0.204	-0.059
-467.172	314.371	-0.088	0.165
-466.157	275.018	-0.064	-0.112
-465.143	194.417	0.069	0.104
-464.128	-17.717	0.170	-0.106
-463.113	-76.147	-0.153	-0.054
-462.099	-17.000	-0.101	-0.064
-461.084	-46.496	-0.086	0.042
-460.070	-145.833	-0.125	-0.011
-459.055	5.675	0.333	-0.244
-458.040	23.961	-0.315	-0.257
-457.026	69.367	0.131	-0.134
-456.011	-41.092	-0.091	0.047
-454.997	-200.000	-0.025	0.297
-453.982	111.556	-0.064	-0.077
-452.968	-118.067	-0.301	-0.053
-451.953	-77.574	-0.184	0.063
-450.938	166.473	-0.157	0.220
-449.924	-200.000	0.021	0.140
-448.909	43.613	-0.101	0.091
-447.895	206.547	-0.154	0.239
-446.880	-116.199	-0.087	0.016
-445.865	-200.000	-0.076	0.489
-444.851	33.773	0.303	0.262
-443.836	100.012	0.125	0.144
-442.822	329.526	0.101	0.192
-441.807	-115.846	0.453	0.084
-440.792	42.931	-0.307	-0.278
-439.778	172.380	-0.062	0.088
-438.763	-166.840	0.119	0.005
-437.749	-200.000	-0.045	0.348
-436.734	266.086	0.149	-0.257
-435.719	800.000	-0.039	0.131
-434.705	348.059	-0.054	0.105
-433.690	-43.201	-0.153	0.077
-432.676	800.000	0.077	-0.260
-431.661	-21.534	0.203	-0.123
-430.646	-200.000	0.029	0.299
-429.632	-123.113	0.266	0.042
-428.617	-200.000	0.012	-0.321
-427.603	-200.000	-0.029	-0.193
-426.588	77.863	-0.106	-0.112
-425.573	43.741	0.214	0.194
-424.559	-117.392	-0.215	0.039
-423.544	-105.810	0.130	-0.029
-422.530	-200.000	0.018	-0.100
-421.515	22.287	-0.102	-0.083
-420.500	284.681	0.244	-0.435
-419.486	-200.000	0.006	-0.272
-418.471	-4.300	-0.131	0.090
-417.457	-85.684	0.460	-0.142
-416.442	194.012	0.123	-0.184
-415.428	-158.415	-0.175	0.010
-414.413	-85.232	-0.227	0.070
-413.398	-176.022	-0.092	-0.002
-412.384	-86.562	0.252	-0.077
-411.369	217.113	-0.084	0.132
-410.355	-157.676	0.131	-0.008
-409.340	44.733	0.047	0.043
-408.325	621.534	-0.021	-0.052
-407.311	440.651	-0.071	-0.155
-406.296	-192.193	-0.160	-0.002
-405.282	-28.440	0.253	0.144
-404.267	-200.000	0.007	-0.105
-403.252	-200.000	0.018	-0.238
-402.238	800.000	0.038	0.129
-401.223	-200.000	0.001	0.119
-400.209	-98.194	-0.264	0.067
-399.194	175.736	-0.050	0.072
-398.179	158.688	-0.105	-0.145
-397.165	379.980	0.044	-0.090
-396.150	800.000	-0.043	0.149
-395.136	-38.295	-0.280	0.147
-394.121	-200.000	-0.009	-0.147
-393.106	12.743	-0.158	-0.120
-392.092	49.450	0.088	0.082
-391.077	800.000	-0.064	-0.198
-390.063	-200.000	0.022	0.290
-389.048	296.365	-0.160	-0.291
-388.033	800.000	-0.021	0.064
-387.019	101.349	-0.094	-0.109
-386.004	800.000	0.070	-0.243
-384.990	-200.000	-0.019	-0.100
-383.975	73.253	0.112	0.116
-382.960	-200.000	-0.029	0.146
-381.946	-109.654	-0.572	0.119
-380.931	540.469	-0.139	-0.329
-379.917	131.185	-0.213	0.271
-378.902	-200.000	0.008	0.492
-377.888	-200.000	0.007	-0.190
-376.873	61.302	0.092	-0.091
-375.858	-66.829	0.062	0.024
-374.844	-94.792	-0.105	-0.028
-373.829	-173.581	-0.176	-0.005
-372.815	-189.807	0.372	-0.004
-371.800	-109.428	0.276	0.058
-370.785	-36.742	-0.126	0.067
-369.771	800.000	-0.092	0.255
-368.756	-200.000	-0.007	0.177
-367.742	189.260	0.230	-0.340
-366.727	-93.007	-0.423	0.117
-365.712	-67.148	-0.192	0.075
-364.698	-81.864	0.108	-0.035
-363.683	-90.198	-0.373	0.107
-362.669	800.000	0.016	0.046
-361.654	106.842	0.268	0.314
-360.639	800.000	0.093	-0.263
-359.625	-96.099	-0.233	-0.061
-358.610	561.270	0.211	-0.504
-357.596	-101.755	0.116	0.028
-356.581	-64.621	0.196	-0.079
-355.566	800.000	-0.065	-0.204
-354.552	-27.087	-0.276	-0.159
-353.537	40.506	-0.037	-0.033
-352.523	-19.419	0.078	-0.047
-351.508	43.809	-0.094	-0.085
-350.493	696.018	-0.151	0.393
-349.479	-52.711	0.219	-0.100
-348.464	-56.923	-0.334	0.146
-347.450	-200.000	0.003	0.211
-346.435	-87.980	0.248	-0.074
-345.420	567.989	0.024	-0.057
-344.406	261.996	0.166	0.284
-343.391	66.457	0.065	-0.065
-342.377	-38.996	0.144	-0.075
-341.362	139.444	-0.035	-0.045
-340.348	188.550	0.251	0.372
-339.333	74.409	0.165	0.171
-338.318	-115.418	0.110	0.020
-337.304	-28.678	0.077	0.044
-336.289	-200.000	0.014	0.118
-335.275	134.984	0.147	-0.189
-334.260	461.220	-0.124	0.272
-333.245	17.102	-0.066	0.051
-332.231	-46.944	-0.321	0.155
-331.216	-200.000	0.024	0.312
-330.202	-200.000	-0.030	-0.294
-329.187	-88.735	0.092	-0.027
-328.172	21.312	-0.109	-0.088
-327.158	-200.000	0.022	-0.103
-326.143	800.000	0.026	0.104
-325.129	103.978	-0.072	-0.083
-324.114	800.000	0.020	-0.056
-323.099	-8.882	0.244	-0.161
-322.085	18.573	-0.236	0.187
-321.070	384.684	-0.188	0.382
-320.056	-200.000	0.025	0.165
-319.041	-60.377	0.086	0.036
-318.026	62.837	-0.209	0.206
-317.012	-200.000	-0.095	0.436
-315.997	108.324	-0.270	-0.318
-314.983	80.469	0.221	-0.235
-313.968	-112.181	0.147	0.029
-312.953	-51.550	-0.221	-0.102
-311.939	-199.759	-0.259	0.001
-310.924	-136.345	-0.333	0.038
-309.910	-74.724	0.247	0.088
-308.895	-200.000	0.005	0.094
-307.880	-58.909	-0.167	0.071
-306.866	128.467	0.078	0.098
-305.851	18.546	0.139	-0.110
-304.837	53.157	0.135	0.128
-303.822	-36.798	0.122	0.065
-302.807	539.525	-0.082	-0.191
-301.793	800.000	-0.048	-0.180
-300.778	42.809	0.141	0.127
-299.764	-95.097	-0.232	-0.062
-298.749	63.488	-0.127	0.125
-297.735	800.000	-0.079	0.278
-296.720	472.674	0.044	0.097
-295.705	-62.521	0.326	0.134
-294.691	91.776	-0.180	-0.199
-293.676	-134.126	0.164	-0.020
-292.662	-100.778	0.331	0.080
-291.647	30.835	0.157	0.133
-290.632	32.107	0.219	-0.186
-289.618	65.231	-0.188	-0.187
-288.603	162.051	0.030	0.042
-287.589	-23.390	-0.205	-0.121
-286.574	-200.000	0.046	0.409
-285.559	-4.514	0.322	0.219
-284.545	53.955	0.272	0.258
-283.530	228.367	-0.093	-0.149
-282.516	-200.000	-0.048	-0.224
-281.501	-200.000	-0.007	-0.341
-280.486	98.362	-0.113	-0.128
-279.472	-139.624	0.029	-0.003
-278.457	-104.998	-0.190	0.043
-277.443	-200.000	-0.027	-0.169
-276.428	-59.050	0.187	-0.079
-275.413	-176.592	-0.253	-0.006
-274.399	-0.953	-0.162	-0.113
-273.384	-114.017	-0.169	0.032
-272.370	800.000	-0.109	0.326
-271.355	-200.000	-0.019	0.128
-270.340	492.047	0.061	0.138
-269.326	-109.130	0.106	0.022
-268.311	800.000	-0.048	0.158
-267.297	-72.542	-0.231	-0.084
-266.282	87.004	0.194	0.211
-265.267	-92.890	-0.171	0.047
-264.253	60.333	0.071	-0.069
-263.238	231.778	0.147	-0.237
-262.224	-126.041	-0.059	0.009
-261.209	142.210	0.105	0.137
-260.195	81.168	0.161	-0.171
-259.180	-112.284	0.317	0.063
-258.165	800.000	-0.078	0.225
-257.151	-73.230	0.226	0.082
-256.136	-52.885	0.140	0.063
-255.122	-134.831	0.226	0.027
-254.107	-200.000	0.008	0.143
-253.092	-200.000	0.003	0.263
-252.078	-200.000	-0.011	0.149
-251.063	-105.518	0.075	-0.017
-250.049	-200.000	-0.054	0.287
-249.034	-200.000	0.008	-0.091
-248.019	-200.000	-0.002	-0.339
-247.005	-124.096	0.082	-0.013
-245.990	604.088	-0.082	-0.202
-244.976	451.245	-0.024	-0.051
-243.961	-111.350	0.202	-0.041
-242.946	19.639	0.139	0.110
-241.932	584.003	0.110	0.265
-240.917	-60.819	0.088	0.037
-239.903	37.706	0.261	-0.228
-238.888	-109.942	-0.390	-0.080
-237.873	173.079	0.074	0.105
-236.859	-0.490	0.119	0.083
-235.844	800.000	-0.036	-0.128
-234.830	800.000	0.043	-0.133
-233.815	-200.000	-0.031	0.451
-232.800	51.181	0.108	-0.101
-231.786	-96.366	-0.094	-0.024
-230.771	-78.871	-0.176	-0.059
-229.757	-56.905	0.385	0.167
-228.742	-19.506	-0.120	-0.073
-227.727	-94.220	-0.315	-0.085
-226.713	150.490	0.203	-0.271
-225.698	-200.000	0.044	0.225
-224.684	-145.977	0.320	0.028
-223.669	-178.114	-0.044	0.001
-222.655	-89.420	-0.223	-0.065
-221.640	22.779	-0.075	-0.061
-220.625	374.164	0.206	0.412
-219.611	800.000	0.074	-0.212
-218.596	-44.367	-0.085	0.042
-217.582	72.618	-0.182	-0.187
-216.567	464.093	-0.189	-0.415
-215.552	800.000	0.065	0.250
-214.538	-89.308	-0.200	0.058
-213.523	-200.000	-0.013	0.135
-212.509	270.768	-0.142	-0.246
-211.494	193.144	-0.118	0.175
-210.479	-200.000	-0.018	0.115
-209.465	-200.000	-0.077	-0.344
-208.450	-94.975	-0.255	0.068
-207.436	-0.030	-0.231	0.161
-206.421	-200.000	-0.023	0.167
-205.406	-119.952	0.101	-0.017
-204.392	-31.802	0.196	0.108
-203.377	719.656	-0.040	-0.104
-202.363	-113.956	-0.559	-0.107
-201.348	-200.000	-0.016	-0.317
-200.333	526.876	-0.054	0.124
-199.319	77.665	-0.136	-0.142
-198.304	-94.113	-0.107	-0.029
-197.290	-115.804	-0.164	0.030
-196.275	-200.000	-0.002	0.181
-195.260	-86.035	0.351	-0.107
-194.246	-166.937	0.073	0.003
-193.231	-136.398	0.058	0.007
-192.217	-96.793	0.252	-0.065
-191.202	319.860	0.164	0.306
-190.187	68.749	0.074	0.075
-189.173	-200.000	0.002	-0.011
-188.158	-119.214	-0.118	0.020
-187.144	-124.674	0.287	-0.044
-186.129	166.183	0.050	-0.069
-185.114	-174.358	-0.247	-0.007
-184.100	327.566	-0.099	0.186
-183.085	173.538	0.199	0.282
-182.071	-16.730	-0.196	0.122
-181.056	285.496	-0.061	0.109
-180.042	-12.481	-0.152	-0.097
-179.027	-200.000	0.036	0.227
-178.012	99.383	0.264	0.300
-176.998	-200.000	-0.062	-0.275
-175.983	-200.000	0.005	-0.097
-174.969	-86.308	-0.182	-0.055
-173.954	800.000	0.120	-0.380
-172.939	221.999	-0.250	-0.395
-171.925	13.674	0.333	-0.254
-170.910	57.521	-0.160	-0.154
-169.896	-91.183	0.620	-0.174
-168.881	172.382	0.112	0.158
-167.866	-24.725	-0.091	0.053
-166.852	-200.000	-0.007	0.278
-165.837	800.000	0.024	-0.100
-164.823	800.000	0.114	0.414
-163.808	160.214	-0.060	0.082
-162.793	12.717	0.110	-0.084
-161.779	-69.992	0.277	-0.103
-160.764	-37.770	-0.204	-0.106
-159.750	-123.093	-0.211	-0.033
-158.735	-119.442	0.168	0.029
-157.720	-75.301	-0.247	0.086
-156.706	-73.124	-0.237	0.085
-155.691	206.589	0.200	-0.306
-154.677	-26.305	0.135	-0.078
-153.662	-68.807	0.132	0.050
-152.647	8.593	0.279	0.206
-151.633	800.000	-0.032	0.132
-150.618	-7.932	-0.240	-0.159
-149.604	-119.664	-0.127	0.021
-148.589	-200.000	-0.070	-0.307
-147.574	-31.608	0.162	-0.089
-146.560	-70.124	-0.403	-0.150
-145.545	800.000	0.028	0.086
-144.531	318.992	0.087	-0.162
-143.516	-101.407	-0.248	-0.059
-142.502	800.000	-0.042	0.139
-141.487	800.000	0.065	-0.190
-140.472	134.018	0.079	0.100
-139.458	-16.913	-0.154	0.095
-138.443	560.066	0.025	0.059
-137.429	-200.000	0.002	-0.225
-136.414	313.455	-0.066	0.121
-135.399	-200.000	0.035	-0.324
-134.385	-119.523	-0.142	0.024
-133.370	-55.403	0.180	0.079
-132.356	-53.722	0.208	0.093
-131.341	91.961	-0.099	0.109
-130.326	-74.782	-0.231	-0.081
-129.312	-100.980	0.399	0.096
-128.297	410.865	-0.075	0.156
-127.283	60.129	0.160	0.155
-126.268	-3.681	0.267	0.182
-125.253	-48.904	-0.092	-0.043
-124.239	-96.044	0.109	0.028
-123.224	-0.953	-0.083	0.058
-122.210	-58.742	0.096	0.041
-121.195	-19.183	-0.142	-0.086
