DTS Sentinel unit serial number:	SN413079Multiplexer serial number:	ORYXHardware model number:	OX4-SRSoftware version number:	ORYX F/W v4.00 Oryx Data Collector v3.7.2.0data status	okinstallation	princeton_trtdifferential loss correction	single-endedforward channel	channel 3reverse channel	N/Adate	2019/09/18time	12:12:35forward acquisition time	60.00reverse acquisition time	0.00gamma	496.2192k internal	0.2323k external	0.2323temperature offset calibration	0.9959default loss term (dB/km)	0.3790temperature slope calibration	1.0000multiplexer offset coefficient	1.0000multiplexer slope coefficient	1.0000fibre end	0.00T internal ref (°C)	31.70T ext. ref 1 (°C)	0.50T ext. ref 2 (°C)	27.19length (m)	temperature (°C)	Stokes	anti-Stokes-747.200	171.428	0.065	0.094
-746.185	-136.957	-0.324	0.038
-745.171	-138.857	-0.168	-0.019
-744.156	-101.855	0.110	-0.027
-743.142	217.357	-0.224	-0.360
-742.127	-118.064	-0.120	0.022
-741.112	1.369	-0.168	0.122
-740.098	-200.000	0.008	-0.050
-739.083	-92.479	-0.086	0.024
-738.069	800.000	0.029	-0.099
-737.054	-200.000	0.110	-0.580
-736.039	-90.561	-0.065	0.019
-735.025	-200.000	-0.035	0.376
-734.010	128.121	-0.191	0.246
-732.996	-21.588	-0.360	0.221
-731.981	-75.635	-0.147	-0.053
-730.966	38.616	-0.008	0.007
-729.952	-12.404	-0.174	-0.115
-728.937	-86.158	-0.106	-0.033
-727.923	-65.324	-0.359	0.146
-726.908	-140.718	-0.313	0.033
-725.894	-200.000	0.013	-0.186
-724.879	18.789	-0.178	-0.144
-723.864	-123.048	0.198	-0.032
-722.850	-116.995	-0.377	0.069
-721.835	54.203	0.122	-0.119
-720.821	231.568	0.207	0.343
-719.806	800.000	-0.057	0.233
-718.791	-155.512	0.151	0.010
-717.777	135.132	0.049	-0.065
-716.762	-200.000	-0.036	-0.256
-715.748	82.648	0.124	-0.136
-714.733	800.000	0.124	0.440
-713.718	-97.700	-0.088	0.023
-712.704	-99.007	0.280	0.072
-711.689	435.663	0.077	0.168
-710.675	197.511	-0.098	0.152
-709.660	472.427	-0.093	-0.211
-708.645	-200.000	0.017	-0.077
-707.631	-82.059	0.307	-0.101
-706.616	394.299	-0.096	0.203
-705.602	12.321	-0.109	0.084
-704.587	148.345	0.134	0.183
-703.572	443.627	-0.099	-0.219
-702.558	800.000	0.112	-0.403
-701.543	-39.730	-0.364	0.192
-700.529	31.293	0.037	-0.032
-699.514	112.755	-0.176	0.215
-698.499	-98.308	0.203	-0.052
-697.485	-164.196	-0.249	0.012
-696.470	800.000	0.069	-0.204
-695.456	-16.374	-0.371	-0.237
-694.441	800.000	-0.041	0.164
-693.426	800.000	-0.055	-0.234
-692.412	-200.000	0.027	0.257
-691.397	-200.000	-0.021	0.093
-690.383	97.741	-0.122	-0.141
-689.368	-200.000	-0.036	-0.219
-688.354	-86.975	0.055	0.017
-687.339	380.173	0.138	-0.285
-686.324	-2.259	0.160	0.113
-685.310	399.091	-0.037	0.077
-684.295	-157.607	-0.020	0.001
-683.281	-200.000	0.050	-0.308
-682.266	-70.508	-0.266	0.101
-681.251	-33.993	0.216	-0.120
-680.237	59.042	0.195	-0.193
-679.222	-87.331	-0.415	-0.127
-678.208	-66.351	0.212	0.085
-677.193	-78.259	-0.151	0.052
-676.178	-72.564	0.141	0.052
-675.164	-94.162	-0.129	0.035
-674.149	-63.172	-0.239	0.099
-673.135	-200.000	-0.039	0.178
-672.120	-191.111	0.059	0.001
-671.105	-27.613	-0.231	0.135
-670.091	-200.000	0.035	0.223
-669.076	169.839	0.248	0.357
-668.062	-67.090	0.337	0.134
-667.047	-200.000	0.032	-0.410
-666.032	-106.097	-0.153	-0.035
-665.018	-200.000	-0.009	0.122
-664.003	-65.333	0.210	-0.085
-662.989	-54.567	0.264	0.120
-661.974	-62.737	0.134	0.056
-660.959	359.365	-0.061	0.122
-659.945	-1.540	-0.156	-0.111
-658.930	-79.031	0.157	0.054
-657.916	-146.303	0.202	0.018
-656.901	-50.933	-0.247	-0.117
-655.886	-192.388	-0.171	-0.002
-654.872	9.199	0.151	-0.115
-653.857	792.538	-0.129	-0.357
-652.843	-87.302	-0.243	0.074
-651.828	-200.000	-0.001	0.086
-650.814	-200.000	-0.003	0.086
-649.799	-93.438	-0.124	0.034
-648.784	-200.000	-0.053	-0.268
-647.770	-126.971	-0.402	-0.059
-646.755	-24.716	0.125	-0.075
-645.741	-43.889	-0.312	-0.158
-644.726	-44.358	-0.273	-0.137
-643.711	-142.111	-0.345	0.034
-642.697	-124.492	0.426	0.067
-641.682	-10.317	0.146	-0.097
-640.668	329.250	-0.024	0.046
-639.653	-19.344	0.191	0.119
-638.638	89.856	-0.268	-0.301
-637.624	-200.000	0.017	-0.467
-636.609	800.000	0.078	-0.280
-635.595	-87.829	0.240	-0.073
-634.580	20.060	0.087	-0.071
-633.565	215.269	0.155	0.247
-632.551	-145.244	0.173	-0.016
-631.536	64.848	-0.093	0.095
-630.522	-200.000	0.030	0.289
-629.507	55.970	-0.011	-0.010
-628.492	92.822	0.117	-0.133
-627.478	-200.000	0.021	0.119
-626.463	27.417	0.244	-0.206
-625.449	118.847	-0.023	0.028
-624.434	29.657	-0.121	0.103
-623.419	-141.416	0.133	0.014
-622.405	800.000	-0.082	-0.281
-621.390	95.155	-0.161	-0.184
-620.376	4.291	-0.239	-0.176
-619.361	-0.527	0.139	0.099
-618.346	-200.000	-0.037	0.327
-617.332	-200.000	-0.011	-0.084
-616.317	-78.800	-0.212	-0.073
-615.303	232.404	0.058	-0.095
-614.288	-162.807	-0.051	-0.003
-613.273	-200.000	-0.020	-0.191
-612.259	-172.742	0.175	0.005
-611.244	-86.044	-0.245	0.076
-610.230	6.163	-0.338	-0.252
-609.215	72.334	0.097	0.102
-608.201	-34.711	-0.193	-0.106
-607.186	-200.000	0.005	-0.217
-606.171	-51.869	0.026	0.012
-605.157	-19.992	-0.056	-0.035
-604.142	-195.448	-0.259	-0.002
-603.128	-92.473	0.363	0.103
-602.113	22.254	0.078	-0.064
-601.098	800.000	0.059	-0.241
-600.084	-200.000	0.020	0.253
-599.069	-24.280	-0.214	0.128
-598.055	-115.457	-0.300	0.057
-597.040	213.207	-0.078	0.123
-596.025	194.813	-0.136	-0.207
-595.011	-132.691	-0.172	0.022
-593.996	800.000	-0.122	0.395
-592.982	-115.379	0.008	0.001
-591.967	5.353	0.309	0.229
-590.952	720.065	-0.143	0.382
-589.938	-195.315	0.355	-0.003
-588.923	195.836	0.088	0.134
-587.909	-200.000	0.053	-0.279
-586.894	216.756	0.076	0.122
-585.879	277.937	-0.183	0.328
-584.865	8.463	-0.068	0.051
-583.850	-18.633	-0.223	-0.140
-582.836	-200.000	0.038	-0.357
-581.821	147.486	-0.044	-0.060
-580.806	-200.000	0.013	0.101
-579.792	-66.816	-0.108	-0.043
-578.777	0.485	0.178	-0.128
-577.763	230.298	-0.044	-0.072
-576.748	-200.000	-0.056	0.378
-575.733	800.000	0.048	0.206
-574.719	345.815	0.035	0.070
-573.704	64.317	0.133	0.135
-572.690	229.212	-0.087	0.143
-571.675	78.612	-0.153	0.164
-570.661	182.387	0.311	0.460
-569.646	-200.000	-0.004	0.093
-568.631	-53.368	-0.158	-0.073
-567.617	-106.600	0.396	0.089
-566.602	-44.689	0.300	-0.150
-565.588	126.872	-0.115	-0.146
-564.573	-53.250	-0.028	-0.013
-563.558	765.219	-0.024	-0.065
-562.544	-106.234	0.097	0.022
-561.529	-200.000	-0.019	0.274
-560.515	93.273	0.250	0.284
-559.500	-200.000	-0.020	0.247
-558.485	263.658	-0.078	-0.136
-557.471	-95.191	-0.065	-0.017
-556.456	-116.263	-0.063	0.012
-555.442	-200.000	0.059	-0.319
-554.427	4.219	-0.327	-0.240
-553.412	74.889	0.089	0.094
-552.398	161.590	-0.090	-0.127
-551.383	40.190	0.094	0.085
-550.369	-139.394	-0.109	-0.012
-549.354	-200.000	-0.016	0.210
-548.339	34.205	-0.026	-0.022
-547.325	-71.176	0.189	0.071
-546.310	155.236	0.078	-0.108
-545.296	-200.000	-0.011	-0.051
-544.281	-46.429	-0.164	0.081
-543.266	-200.000	-0.033	0.181
-542.252	-138.891	-0.208	-0.023
-541.237	6.349	-0.230	0.171
-540.223	-198.508	-0.153	-0.001
-539.208	-48.784	0.135	-0.065
-538.193	-200.000	-0.006	-0.089
-537.179	-122.107	-0.413	0.068
-536.164	-200.000	-0.036	0.350
-535.150	-138.649	0.107	0.012
-534.135	165.896	0.181	-0.256
-533.121	-56.778	-0.184	0.081
-532.106	11.091	-0.127	-0.097
-531.091	-200.000	-0.006	0.141
-530.077	180.738	0.086	0.127
-529.062	65.422	-0.183	0.186
-528.048	662.526	0.110	-0.284
-527.033	-39.990	0.106	-0.056
-526.018	16.975	0.288	0.229
-525.004	6.211	-0.287	0.213
-523.989	20.561	0.100	0.081
-522.975	-30.149	-0.194	-0.111
-521.960	-79.915	-0.276	0.093
-520.945	-114.788	0.256	0.049
-519.931	-26.744	-0.091	0.054
-518.916	-200.000	-0.006	0.111
-517.902	-185.386	0.221	-0.003
-516.887	-80.374	-0.118	-0.039
-515.872	-200.000	0.047	0.221
-514.858	177.649	0.038	-0.056
-513.843	-200.000	0.025	0.203
-512.829	142.168	0.106	0.141
-511.814	-66.518	0.024	0.010
-510.799	58.593	-0.191	0.188
-509.785	17.866	-0.062	-0.049
-508.770	22.269	-0.226	0.185
-507.756	-197.050	-0.186	0.001
-506.741	55.372	-0.099	0.096
-505.726	-142.020	0.193	-0.019
-504.712	-118.079	-0.092	0.016
-503.697	-200.000	0.000	-0.033
-502.683	165.021	-0.043	-0.060
-501.668	800.000	-0.043	0.160
-500.653	800.000	-0.062	-0.175
-499.639	158.340	-0.060	-0.083
-498.624	-30.350	0.203	-0.116
-497.610	60.066	0.033	-0.032
-496.595	-161.464	0.069	0.004
-495.581	70.756	-0.132	0.136
-494.566	-167.440	-0.318	-0.013
-493.551	601.279	-0.090	-0.224
-492.537	-191.043	0.115	0.001
-491.522	-113.130	0.299	-0.059
-490.508	64.070	-0.091	0.091
-489.493	45.185	0.079	-0.073
-488.478	221.930	0.051	-0.082
-487.464	333.701	0.079	-0.152
-486.449	-63.892	-0.213	-0.087
-485.435	-200.000	0.014	0.204
-484.420	622.772	-0.055	0.139
-483.405	-67.872	0.130	0.051
-482.391	55.122	0.170	-0.164
-481.376	17.121	0.187	0.148
-480.362	-38.607	0.183	0.097
-479.347	-102.800	-0.446	0.106
-478.332	81.456	0.046	-0.050
-477.318	21.143	-0.317	-0.257
-476.303	364.968	0.114	-0.229
-475.289	103.502	0.042	-0.050
-474.274	-73.735	0.390	-0.142
-473.259	345.269	-0.082	-0.161
-472.245	483.118	-0.021	-0.049
-471.230	800.000	-0.045	-0.184
-470.216	-49.689	0.218	-0.104
-469.201	119.109	-0.044	0.054
-468.186	462.908	-0.055	0.122
-467.172	-78.254	-0.194	0.066
-466.157	26.852	-0.176	-0.147
-465.143	-200.000	-0.029	0.135
-464.128	-200.000	-0.016	0.144
-463.113	-112.839	-0.128	0.025
-462.099	-200.000	-0.005	-0.166
-461.084	128.674	-0.214	-0.272
-460.070	800.000	-0.094	-0.289
-459.055	-59.189	0.213	-0.092
-458.040	8.847	-0.037	0.028
-457.026	679.789	-0.072	-0.188
-456.011	32.062	-0.165	0.142
-454.997	398.215	0.066	-0.139
-453.982	-200.000	-0.012	-0.066
-452.968	800.000	0.021	0.078
-451.953	-179.723	-0.152	0.003
-450.938	-140.731	-0.408	0.042
-449.924	-83.202	0.387	-0.124
-448.909	740.189	-0.043	-0.115
-447.895	-126.616	0.251	-0.037
-446.880	1.639	0.095	0.068
-445.865	345.864	0.084	0.165
-444.851	-116.775	-0.243	0.045
-443.836	800.000	0.085	-0.329
-442.822	52.810	0.132	-0.126
-441.807	-200.000	0.001	-0.302
-440.792	28.298	0.049	-0.041
-439.778	127.002	0.147	-0.185
-438.763	-25.757	0.246	0.145
-437.749	24.813	0.105	-0.087
-436.734	-184.977	0.105	0.002
-435.719	-50.395	-0.373	0.176
-434.705	-200.000	0.095	0.564
-433.690	-174.980	0.117	-0.003
-432.676	-24.543	0.370	0.220
-431.661	-200.000	-0.022	-0.127
-430.646	-4.463	0.075	-0.052
-429.632	800.000	0.054	-0.212
-428.617	87.081	-0.120	-0.133
-427.603	-25.196	0.203	-0.120
-426.588	539.694	-0.078	-0.185
-425.573	800.000	-0.096	0.264
-424.559	-114.877	0.479	-0.091
-423.544	-29.189	0.197	-0.112
-422.530	-200.000	0.017	0.087
-421.515	78.493	-0.276	-0.295
-420.500	-23.112	-0.070	-0.042
-419.486	343.169	-0.066	-0.129
-418.471	395.320	-0.161	0.334
-417.457	-200.000	-0.040	0.191
-416.442	-157.096	-0.369	0.022
-415.428	-200.000	0.039	-0.225
-414.413	62.699	0.115	0.115
-413.398	-40.702	0.276	-0.142
-412.384	800.000	-0.037	-0.106
-411.369	220.179	0.134	0.215
-410.355	-3.145	0.277	0.193
-409.340	-200.000	0.067	0.330
-408.325	-76.198	0.276	-0.097
-407.311	51.978	0.187	-0.177
-406.296	-58.824	0.157	-0.068
-405.282	249.361	-0.033	0.056
-404.267	51.752	0.105	-0.099
-403.252	57.253	0.096	-0.094
-402.238	800.000	0.017	0.052
-401.223	186.013	-0.091	-0.135
-400.209	-124.039	0.485	0.076
-399.194	-200.000	-0.013	-0.279
-398.179	-18.059	-0.190	0.118
-397.165	488.512	0.118	-0.269
-396.150	143.107	0.049	-0.065
-395.136	121.261	0.261	0.324
-394.121	29.933	-0.072	0.061
-393.106	-161.450	-0.343	-0.018
-392.092	-135.861	0.188	-0.022
-391.077	-99.980	-0.380	0.094
-390.063	800.000	0.049	-0.142
-389.048	-139.815	0.327	-0.035
-388.033	-146.135	0.071	-0.006
-387.019	157.739	-0.117	-0.161
-386.004	-200.000	-0.027	-0.295
-384.990	571.516	-0.146	0.353
-383.975	103.056	0.098	0.115
-382.960	155.329	-0.090	-0.123
-381.946	-97.120	-0.174	0.045
-380.931	-86.739	0.226	0.069
-379.917	225.979	-0.082	-0.133
-378.902	-95.747	0.060	-0.016
-377.888	488.883	-0.102	0.232
-376.873	-58.550	-0.016	-0.007
-375.858	-109.725	0.098	-0.020
-374.844	-200.000	-0.033	0.200
-373.829	472.266	0.076	-0.171
-372.815	20.689	0.111	-0.089
-371.800	800.000	0.070	0.225
-370.785	-131.623	0.336	0.044
-369.771	-99.544	-0.143	0.036
-368.756	-53.200	0.127	0.058
-367.742	-151.176	-0.336	-0.025
-366.727	-200.000	0.025	-0.155
-365.712	23.738	0.168	0.138
-364.698	69.017	0.093	-0.096
-363.683	800.000	0.118	-0.354
-362.669	800.000	0.087	-0.283
-361.654	-97.511	-0.195	-0.050
-360.639	36.276	-0.183	-0.160
-359.625	-126.539	-0.264	0.039
-358.610	31.054	0.334	0.285
-357.596	-200.000	0.040	0.181
-356.581	270.698	0.081	-0.141
-355.566	77.337	-0.190	-0.201
-354.552	-44.061	-0.273	0.137
-353.537	-110.513	0.407	0.084
-352.523	-96.806	-0.267	0.070
-351.508	-25.699	-0.146	-0.086
-350.493	1.745	0.243	-0.174
-349.479	223.074	0.186	0.298
-348.464	-200.000	-0.024	0.193
-347.450	-200.000	0.087	0.384
-346.435	-200.000	0.002	0.061
-345.420	242.900	-0.089	-0.149
-344.406	194.840	-0.033	0.050
-343.391	-76.498	-0.132	-0.046
-342.377	-110.544	-0.099	0.020
-341.362	83.310	0.071	0.077
-340.348	-200.000	-0.024	0.427
-339.333	-70.409	-0.050	0.019
-338.318	-81.616	-0.208	-0.068
-337.304	304.554	-0.293	-0.540
-336.289	-200.000	-0.046	-0.207
-335.275	118.664	-0.148	-0.182
-334.260	174.986	0.039	0.056
-333.245	287.351	0.203	0.365
-332.231	-200.000	0.056	0.325
-331.216	163.438	0.160	0.224
-330.202	-103.049	-0.023	0.005
-329.187	-200.000	0.064	0.326
-328.172	6.112	0.195	-0.143
-327.158	-28.359	-0.188	-0.108
-326.143	-74.021	0.070	-0.025
-325.129	800.000	0.024	0.074
-324.114	24.418	-0.205	0.168
-323.099	800.000	-0.074	0.212
-322.085	-172.984	0.386	-0.012
-321.070	11.210	0.392	0.298
-320.056	-126.420	-0.285	-0.042
-319.041	-200.000	0.007	0.154
-318.026	17.594	-0.143	0.113
-317.012	-37.287	0.298	-0.158
-315.997	-5.355	0.182	-0.124
-314.983	-74.984	0.210	-0.075
-313.968	615.804	-0.082	0.204
-312.953	80.190	-0.137	0.147
-311.939	-63.576	-0.068	0.028
-310.924	174.791	-0.042	0.061
-309.910	-4.667	0.113	0.077
-308.895	151.012	0.023	-0.032
-307.880	68.161	-0.086	0.088
-306.866	-74.191	0.283	-0.102
-305.851	-200.000	-0.057	-0.457
-304.837	-15.384	-0.162	0.103
-303.822	143.786	-0.184	-0.244
-302.807	800.000	-0.061	-0.174
-301.793	-200.000	-0.007	0.404
-300.778	-200.000	0.016	-0.144
-299.764	-77.377	-0.208	-0.072
-298.749	18.551	0.103	0.082
-297.735	-119.339	0.179	0.031
-296.720	68.807	-0.119	-0.121
-295.705	-57.365	-0.102	-0.044
-294.691	80.933	0.156	-0.167
-293.676	800.000	0.054	-0.159
-292.662	-94.406	-0.093	-0.025
-291.647	151.131	0.048	0.065
-290.632	-134.386	-0.194	-0.024
-289.618	-8.767	-0.021	0.014
-288.603	291.421	0.129	-0.234
-287.589	-129.452	-0.357	0.049
-286.574	158.717	0.058	-0.080
-285.559	-135.800	0.380	0.045
-284.545	-103.071	-0.313	0.073
-283.530	-200.000	0.071	0.312
-282.516	54.714	0.215	-0.206
-281.501	-4.839	-0.179	-0.122
-280.486	-105.104	-0.213	0.048
-279.472	7.566	-0.210	-0.156
-278.457	475.393	0.079	0.177
-277.443	-18.254	0.198	0.123
-276.428	27.471	-0.176	-0.147
-275.413	233.300	0.186	0.303
-274.399	30.909	-0.066	0.056
-273.384	-16.797	-0.033	0.021
-272.370	642.885	0.128	-0.324
-271.355	-35.164	-0.171	-0.093
-270.340	-147.497	0.292	-0.024
-269.326	4.000	0.121	-0.088
-268.311	-139.082	-0.123	-0.013
-267.297	800.000	0.072	0.269
-266.282	14.334	0.180	0.139
-265.267	766.662	0.069	0.185
-264.253	-200.000	-0.014	-0.085
-263.238	42.500	0.063	0.057
-262.224	800.000	0.096	0.327
-261.209	-49.228	0.139	0.066
-260.195	-31.347	0.285	-0.159
-259.180	-19.091	-0.239	0.147
-258.165	111.975	0.125	0.149
-257.151	110.642	-0.328	-0.391
-256.136	-200.000	0.069	-0.330
-255.122	-176.389	0.046	-0.001
-254.107	-26.962	0.182	-0.105
-253.092	106.309	-0.064	-0.075
-252.078	-200.000	0.053	0.388
-251.063	-7.754	0.028	-0.019
-250.049	-35.833	-0.164	0.088
-249.034	255.383	0.178	-0.302
-248.019	347.428	0.060	0.116
-247.005	35.129	-0.044	-0.038
-245.990	17.588	0.333	-0.262
-244.976	-12.118	0.298	0.193
-243.961	30.478	-0.128	0.109
-242.946	-45.557	-0.151	-0.074
-241.932	-56.454	0.082	-0.036
-240.917	-200.000	0.019	-0.112
-239.903	-55.086	-0.112	-0.050
-238.888	20.106	0.178	-0.143
-237.873	170.160	0.059	0.083
-236.859	-86.020	0.533	0.163
-235.844	-35.199	0.267	0.144
-234.830	12.317	0.368	0.280
-233.815	62.772	-0.120	-0.118
-232.800	405.122	-0.130	-0.270
-231.786	194.810	0.084	-0.126
-230.771	800.000	-0.085	0.310
-229.757	800.000	0.019	0.081
-228.742	-200.000	0.003	-0.145
-227.727	-91.852	-0.480	-0.135
-226.713	-185.997	0.142	-0.002
-225.698	499.326	0.116	0.264
-224.684	-200.000	0.093	0.000
-223.669	-200.000	-0.062	0.277
-222.655	-200.000	0.005	0.203
-221.640	-200.000	-0.004	-0.088
-220.625	-97.824	0.071	-0.018
-219.611	-130.649	0.290	-0.039
-218.596	-112.903	-0.182	-0.036
-217.582	-134.968	-0.142	0.017
-216.567	-200.000	0.018	0.130
-215.552	-63.507	-0.371	0.151
-214.538	113.957	0.070	0.084
-213.523	800.000	-0.043	-0.138
-212.509	-102.759	0.227	-0.053
-211.494	-200.000	0.009	0.056
-210.479	-1.484	-0.063	0.044
-209.465	701.369	-0.038	0.100
-208.450	-33.057	0.316	-0.173
-207.436	738.586	-0.013	-0.035
-206.421	161.254	-0.106	0.146
-205.406	800.000	-0.054	0.152
-204.392	325.915	-0.152	0.287
-203.377	175.160	-0.161	0.231
-202.363	112.464	0.288	-0.345
-201.348	69.542	-0.187	-0.191
-200.333	-171.827	0.216	0.007
-199.319	200.218	0.137	-0.208
-198.304	718.003	-0.062	-0.163
-197.290	22.856	-0.132	0.107
-196.275	-200.000	0.010	-0.172
-195.260	-200.000	-0.008	0.399
-194.246	-200.000	0.008	-0.112
-193.231	-79.803	-0.383	-0.127
-192.217	152.978	-0.072	0.097
-191.202	-27.624	-0.265	-0.152
-190.187	-135.790	-0.064	0.007
-189.173	-25.312	-0.130	0.076
-188.158	-160.479	-0.137	-0.007
-187.144	420.900	-0.037	0.079
-186.129	-108.683	-0.369	-0.078
-185.114	-118.467	0.524	-0.092
-184.100	-20.309	-0.026	0.016
-183.085	103.350	0.212	0.246
-182.071	-87.436	-0.327	0.098
-181.056	-102.023	0.427	-0.102
-180.042	-200.000	-0.015	0.104
-179.027	-97.545	-0.367	-0.094
-178.012	-136.529	-0.379	-0.043
-176.998	25.856	-0.080	-0.066
-175.983	76.227	-0.128	-0.134
-174.969	-41.293	0.165	-0.084
-173.954	204.873	0.101	-0.155
-172.939	-48.867	-0.115	-0.054
-171.925	63.253	-0.258	0.256
-170.910	-146.527	0.119	-0.010
-169.896	151.662	0.076	-0.103
-168.881	-14.827	0.254	0.161
-167.866	3.480	0.128	0.092
-166.852	115.758	-0.136	-0.164
-165.837	-200.000	-0.047	0.285
-164.823	-124.537	-0.302	-0.046
-163.808	84.700	0.083	0.090
-162.793	638.966	-0.111	-0.279
-161.779	-172.928	-0.170	0.005
-160.764	-200.000	0.035	-0.416
-159.750	800.000	0.041	0.140
-158.735	443.011	-0.053	-0.115
-157.720	-114.072	-0.102	-0.020
-156.706	-84.463	-0.338	-0.105
-155.691	-79.361	0.250	-0.084
-154.677	445.929	0.144	-0.312
-153.662	-186.040	0.093	0.001
-152.647	138.110	-0.197	-0.255
-151.633	193.524	-0.057	-0.085
-150.618	-37.974	0.264	-0.138
-149.604	800.000	-0.068	0.196
-148.589	800.000	0.027	-0.114
-147.574	147.707	-0.131	0.174
-146.560	-99.018	0.244	-0.061
-145.545	-47.996	-0.379	-0.181
-144.531	-28.261	0.177	0.101
-143.516	108.181	0.106	-0.125
-142.502	213.616	-0.232	-0.362
-141.487	-113.243	0.202	-0.039
-140.472	-81.821	-0.310	-0.100
-139.458	112.413	0.238	0.284
-138.443	101.504	0.089	0.102
-137.429	-130.078	-0.239	-0.032
-136.414	-200.000	0.011	0.369
-135.399	-200.000	0.004	0.189
-134.385	548.916	-0.024	-0.056
-133.370	-88.613	0.171	0.050
-132.356	63.257	0.071	-0.070
-131.341	-51.584	-0.228	-0.105
-130.326	335.810	-0.138	0.264
-129.312	-164.756	0.217	-0.010
-128.297	-78.850	0.236	0.079
-127.283	-181.761	-0.102	0.002
-126.268	-186.404	0.221	0.003
-125.253	-200.000	0.012	-0.092
-124.239	128.655	-0.250	0.314
-123.224	190.897	-0.150	0.222
-122.210	105.621	-0.141	-0.164
-121.195	222.871	0.118	0.187
