DTS Sentinel unit serial number:	SN413079Multiplexer serial number:	ORYXHardware model number:	OX4-SRSoftware version number:	ORYX F/W v4.00 Oryx Data Collector v3.7.2.0data status	okinstallation	princeton_trtdifferential loss correction	single-endedforward channel	channel 3reverse channel	N/Adate	2019/09/14time	01:08:35forward acquisition time	60.00reverse acquisition time	0.00gamma	496.2192k internal	0.2340k external	0.2340temperature offset calibration	1.0051default loss term (dB/km)	0.3790temperature slope calibration	1.0000multiplexer offset coefficient	1.0000multiplexer slope coefficient	1.0000fibre end	0.00T internal ref (°C)	26.37T ext. ref 1 (°C)	3.18T ext. ref 2 (°C)	21.43length (m)	temperature (°C)	Stokes	anti-Stokes-747.200	-103.865	-0.052	-0.012
-746.185	292.333	-0.059	-0.108
-745.171	-200.000	0.006	-0.246
-744.156	-200.000	0.023	0.240
-743.142	194.881	-0.098	0.149
-742.127	-87.144	-0.130	-0.040
-741.112	-20.247	0.250	0.155
-740.098	-46.398	-0.279	-0.137
-739.083	48.603	0.130	-0.122
-738.069	6.103	-0.124	0.092
-737.054	29.924	-0.134	0.115
-736.039	-39.448	-0.302	-0.158
-735.025	79.534	0.334	0.360
-734.010	-200.000	-0.223	-0.001
-732.996	-23.484	-0.156	0.094
-731.981	-68.379	0.117	0.045
-730.966	-200.000	0.015	-0.286
-729.952	23.555	0.231	-0.191
-728.937	-21.618	-0.080	-0.049
-727.923	800.000	-0.035	-0.134
-726.908	298.818	0.038	-0.071
-725.894	-38.653	-0.326	-0.172
-724.879	800.000	0.025	0.086
-723.864	183.854	-0.143	-0.212
-722.850	800.000	-0.037	-0.132
-721.835	74.925	-0.173	0.183
-720.821	649.163	-0.130	0.334
-719.806	49.892	-0.192	0.181
-718.791	-169.950	-0.470	0.017
-717.777	-124.100	-0.262	0.041
-716.762	27.280	0.126	-0.106
-715.748	-59.033	-0.120	0.052
-714.733	114.136	-0.160	-0.195
-713.718	-95.864	-0.190	-0.051
-712.704	-5.048	-0.193	0.133
-711.689	-114.563	-0.169	-0.032
-710.675	-177.807	0.144	-0.003
-709.660	154.288	0.146	0.201
-708.645	-86.626	0.303	0.093
-707.631	281.491	0.073	-0.132
-706.616	-200.000	0.002	0.188
-705.602	13.646	-0.155	-0.120
-704.587	117.905	-0.077	-0.095
-703.572	51.084	-0.213	0.202
-702.558	547.363	0.165	0.396
-701.543	800.000	-0.079	-0.309
-700.529	104.974	0.090	0.107
-699.514	-55.802	-0.107	0.048
-698.499	-200.000	0.050	-0.473
-697.485	-134.703	0.196	-0.024
-696.470	-98.776	-0.103	-0.026
-695.456	-102.338	0.441	-0.106
-694.441	-200.000	0.015	0.168
-693.426	-53.154	-0.177	-0.081
-692.412	-70.091	0.120	-0.046
-691.397	0.223	0.088	0.063
-690.383	-200.000	-0.001	0.057
-689.368	-145.858	-0.197	0.018
-688.354	-200.000	0.058	0.291
-687.339	15.152	-0.188	0.147
-686.324	377.629	0.075	0.153
-685.310	-91.309	-0.367	0.105
-684.295	-200.000	0.047	-0.321
-683.281	800.000	0.044	-0.160
-682.266	484.344	0.020	0.045
-681.251	50.208	0.314	-0.297
-680.237	-156.435	0.384	-0.024
-679.222	-200.000	0.056	-0.262
-678.208	-200.000	0.063	0.426
-677.193	-200.000	0.000	0.483
-676.178	-200.000	0.065	0.336
-675.164	-62.177	0.266	-0.111
-674.149	-96.942	-0.059	-0.015
-673.135	-41.605	-0.217	0.112
-672.120	104.213	0.093	0.110
-671.105	-200.000	0.012	0.080
-670.091	-200.000	-0.024	0.183
-669.076	86.343	0.177	0.195
-668.062	349.101	0.151	0.299
-667.047	-87.301	0.134	0.041
-666.032	-134.181	-0.314	0.039
-665.018	24.611	0.306	-0.253
-664.003	-45.670	0.140	-0.069
-662.989	69.132	-0.287	0.295
-661.974	-55.959	0.159	0.071
-660.959	367.898	0.132	0.267
-659.945	795.967	-0.124	0.342
-658.930	-88.912	0.165	0.049
-657.916	131.589	-0.121	0.155
-656.901	-23.891	0.129	0.077
-655.886	-200.000	0.045	-0.302
-654.872	-142.790	0.275	-0.027
-653.857	-200.000	-0.004	-0.210
-652.843	-162.289	-0.186	0.009
-651.828	-26.963	-0.106	0.062
-650.814	-24.327	0.068	-0.041
-649.799	-113.931	0.334	-0.065
-648.784	-200.000	-0.023	-0.190
-647.770	45.780	0.159	-0.147
-646.755	45.571	0.112	0.104
-645.741	800.000	-0.052	-0.172
-644.726	-89.968	-0.199	0.058
-643.711	192.585	0.098	-0.148
-642.697	122.620	-0.229	0.286
-641.682	-125.455	0.235	-0.036
-640.668	-135.735	-0.316	0.037
-639.653	133.582	-0.178	-0.230
-638.638	800.000	0.038	0.125
-637.624	-200.000	-0.017	-0.189
-636.609	-34.521	0.295	-0.161
-635.595	-134.504	-0.278	0.034
-634.580	-84.144	-0.182	-0.057
-633.565	98.006	-0.049	-0.056
-632.551	-138.768	-0.108	0.012
-631.536	248.948	-0.171	-0.289
-630.522	-97.120	0.402	0.105
-629.507	133.174	-0.132	-0.170
-628.492	800.000	-0.048	0.163
-627.478	-200.000	0.005	0.286
-626.463	338.988	0.119	0.231
-625.449	133.305	0.069	-0.089
-624.434	-69.000	-0.026	-0.010
-623.419	31.347	-0.200	-0.172
-622.405	-200.000	0.019	0.248
-621.390	21.701	-0.168	0.137
-620.376	-170.520	0.117	0.004
-619.361	107.547	-0.070	-0.084
-618.346	-200.000	0.020	-0.236
-617.332	-113.404	0.204	0.040
-616.317	-99.300	-0.257	0.065
-615.303	800.000	0.058	0.185
-614.288	254.228	-0.210	0.357
-613.273	139.342	0.156	-0.205
-612.259	-200.000	0.003	0.060
-611.244	-111.474	0.211	-0.043
-610.230	-200.000	0.017	-0.154
-609.215	75.349	0.145	-0.152
-608.201	-200.000	-0.046	0.263
-607.186	-82.092	-0.228	-0.074
-606.171	-159.463	-0.261	-0.014
-605.157	-83.634	0.198	0.063
-604.142	-52.350	-0.198	0.092
-603.128	119.067	-0.028	-0.034
-602.113	173.301	-0.200	-0.288
-601.098	23.574	-0.079	0.065
-600.084	-200.000	-0.019	0.117
-599.069	-6.635	0.083	-0.056
-598.055	84.279	-0.282	-0.307
-597.040	-83.060	-0.197	0.063
-596.025	2.730	-0.113	0.082
-595.011	12.990	0.114	0.088
-593.996	60.383	0.283	0.279
-592.982	462.891	-0.118	-0.263
-591.967	17.262	-0.262	0.207
-590.952	126.703	0.065	0.082
-589.938	-111.994	-0.156	0.031
-588.923	-158.070	-0.184	0.011
-587.909	800.000	0.025	0.103
-586.894	800.000	-0.091	0.282
-585.879	352.867	-0.145	-0.287
-584.865	120.785	0.255	-0.316
-583.850	-88.161	0.236	-0.071
-582.836	-192.405	0.057	0.001
-581.821	-200.000	0.029	0.132
-580.806	-170.630	-0.196	0.007
-579.792	327.766	-0.167	0.319
-578.777	-85.129	-0.116	0.036
-577.763	166.746	0.119	0.169
-576.748	-53.969	0.106	0.048
-575.733	270.300	0.122	-0.214
-574.719	-55.360	-0.087	0.039
-573.704	-200.000	0.007	-0.376
-572.690	-200.000	-0.102	0.491
-571.675	43.914	-0.198	-0.181
-570.661	-33.972	-0.183	0.100
-569.646	17.717	-0.148	0.117
-568.631	47.348	0.086	0.080
-567.617	800.000	0.051	-0.171
-566.602	0.874	-0.014	0.010
-565.588	84.060	-0.056	0.061
-564.573	-78.244	0.124	-0.042
-563.558	-110.831	0.441	-0.090
-562.544	-147.737	-0.203	-0.017
-561.529	-200.000	0.020	-0.127
-560.515	790.351	0.116	-0.317
-559.500	800.000	-0.072	-0.257
-558.485	38.655	0.081	0.072
-557.471	-29.605	-0.204	-0.116
-556.456	93.234	-0.108	-0.122
-555.442	-35.466	0.231	0.125
-554.427	-56.071	0.161	-0.071
-553.412	2.508	-0.113	0.082
-552.398	-200.000	-0.031	-0.338
-551.383	-104.118	-0.293	-0.068
-550.369	-18.398	-0.217	-0.135
-549.354	31.243	0.125	0.107
-548.339	449.479	-0.133	0.291
-547.325	800.000	0.063	-0.186
-546.310	246.242	0.103	0.173
-545.296	464.618	-0.123	0.274
-544.281	800.000	0.032	-0.113
-543.266	-146.018	0.148	-0.013
-542.252	-64.176	-0.147	0.060
-541.237	47.499	-0.105	0.098
-540.223	11.546	0.252	-0.192
-539.208	11.380	0.189	-0.144
-538.193	-200.000	0.009	-0.102
-537.179	-99.675	0.122	0.030
-536.164	-112.847	-0.292	0.058
-535.150	-37.180	-0.233	0.124
-534.135	370.735	0.105	-0.212
-533.121	-39.612	-0.573	-0.298
-532.106	-200.000	0.068	-0.297
-531.091	800.000	-0.034	0.122
-530.077	355.466	0.127	-0.252
-529.062	800.000	0.128	-0.353
-528.048	-0.854	-0.303	0.213
-527.033	-35.702	0.304	-0.164
-526.018	-132.069	-0.255	0.033
-525.004	-84.489	-0.089	-0.028
-523.989	-88.111	0.251	0.075
-522.975	-200.000	-0.035	-0.356
-521.960	-10.739	0.223	0.146
-520.945	-48.370	0.255	0.122
-519.931	-149.913	0.199	-0.015
-518.916	-15.180	-0.207	-0.132
-517.902	-184.350	0.169	0.003
-516.887	-60.794	0.284	0.120
-515.872	-200.000	-0.018	-0.236
-514.858	-200.000	-0.025	0.117
-513.843	-0.512	-0.139	-0.098
-512.829	244.384	0.058	0.097
-511.814	5.168	0.353	0.258
-510.799	-27.698	0.260	-0.150
-509.785	-0.392	-0.325	0.230
-508.770	319.271	-0.068	0.129
-507.756	1.022	-0.236	0.168
-506.741	-65.783	0.223	-0.089
-505.726	800.000	0.063	0.207
-504.712	800.000	0.044	-0.128
-503.697	-69.813	0.116	0.044
-502.683	-9.277	0.101	-0.067
-501.668	537.174	-0.064	0.151
-500.653	226.013	-0.054	0.087
-499.639	68.977	-0.277	-0.282
-498.624	10.173	-0.215	0.163
-497.610	800.000	-0.039	-0.168
-496.595	8.918	0.187	-0.140
-495.581	-141.618	-0.551	0.055
-494.566	-52.261	0.044	-0.020
-493.551	142.579	0.149	0.197
-492.537	-113.546	-0.100	-0.019
-491.522	28.803	0.101	-0.085
-490.508	-2.731	-0.220	-0.153
-489.493	15.722	0.144	0.112
-488.478	-200.000	-0.003	-0.211
-487.464	800.000	-0.055	-0.231
-486.449	402.186	-0.050	-0.104
-485.435	196.554	0.217	-0.328
-484.420	-126.711	-0.398	0.058
-483.405	-200.000	0.032	0.166
-482.391	-99.266	-0.175	-0.044
-481.376	64.474	-0.148	0.148
-480.362	269.340	0.135	0.235
-479.347	-142.554	-0.298	-0.029
-478.332	-43.303	0.051	-0.025
-477.318	-37.977	0.319	-0.168
-476.303	-8.727	0.144	-0.096
-475.289	800.000	-0.057	-0.164
-474.274	-200.000	0.026	0.178
-473.259	490.392	-0.020	0.046
-472.245	-200.000	-0.020	-0.213
-471.230	-200.000	-0.000	0.078
-470.216	800.000	-0.027	-0.111
-469.201	-124.378	-0.242	-0.037
-468.186	-103.237	-0.333	-0.078
-467.172	-50.668	0.346	0.162
-466.157	800.000	-0.063	0.264
-465.143	-158.716	0.106	0.006
-464.128	-66.219	0.039	-0.016
-463.113	-55.251	0.163	-0.073
-462.099	34.365	0.113	0.098
-461.084	800.000	0.010	-0.029
-460.070	544.414	-0.062	0.146
-459.055	60.374	0.198	-0.195
-458.040	93.206	-0.064	0.072
-457.026	180.432	0.105	0.153
-456.011	-142.677	-0.141	0.014
-454.997	21.700	0.348	-0.281
-453.982	84.356	-0.151	-0.164
-452.968	196.870	-0.129	0.195
-451.953	223.434	-0.149	0.238
-450.938	-51.174	0.287	-0.133
-449.924	-140.110	-0.214	-0.022
-448.909	-67.633	-0.033	0.013
-447.895	89.875	0.226	0.251
-446.880	800.000	0.043	-0.126
-445.865	363.163	-0.075	0.148
-444.851	800.000	-0.089	0.319
-443.836	-200.000	-0.029	0.527
-442.822	-72.614	0.156	-0.057
-441.807	-200.000	0.007	-0.136
-440.792	4.227	-0.203	-0.147
-439.778	-49.311	0.073	0.034
-438.763	715.250	0.067	0.177
-437.749	-85.671	0.104	-0.032
-436.734	800.000	-0.025	-0.099
-435.719	-60.127	-0.307	-0.130
-434.705	251.775	-0.172	0.291
-433.690	69.880	-0.253	-0.258
-432.676	611.612	0.056	-0.140
-431.661	29.352	0.252	0.212
-430.646	-59.792	-0.147	-0.062
-429.632	-83.281	-0.377	-0.120
-428.617	-138.785	-0.157	0.017
-427.603	-33.761	0.215	-0.117
-426.588	140.218	0.162	-0.212
-425.573	257.048	-0.048	0.082
-424.559	800.000	0.086	0.365
-423.544	-93.089	-0.227	-0.063
-422.530	-96.311	-0.215	0.056
-421.515	72.640	-0.195	0.202
-420.500	-200.000	0.009	0.138
-419.486	-200.000	-0.001	-0.021
-418.471	61.146	0.237	-0.233
-417.457	-148.794	0.332	-0.027
-416.442	-200.000	-0.002	-0.096
-415.428	-200.000	0.040	-0.214
-414.413	482.909	-0.076	0.172
-413.398	-19.865	-0.174	0.106
-412.384	189.824	0.065	0.096
-411.369	164.741	0.096	-0.134
-410.355	48.969	-0.113	-0.105
-409.340	72.247	-0.216	-0.222
-408.325	-47.932	0.083	-0.040
-407.311	-87.068	0.117	0.035
-406.296	87.247	0.195	-0.214
-405.282	19.585	-0.262	-0.208
-404.267	800.000	-0.056	0.179
-403.252	1.316	-0.056	-0.040
-402.238	50.972	-0.041	-0.038
-401.223	82.847	0.037	-0.039
-400.209	607.223	-0.051	-0.126
-399.194	156.697	0.103	-0.141
-398.179	-200.000	-0.114	-0.510
-397.165	-168.535	-0.095	0.004
-396.150	11.905	-0.176	0.133
-395.136	118.463	-0.062	-0.075
-394.121	-83.878	0.256	-0.081
-393.106	322.415	0.032	-0.061
-392.092	-49.051	0.024	-0.011
-391.077	-56.899	0.487	0.213
-390.063	800.000	0.087	0.306
-389.048	-117.199	-0.255	0.046
-388.033	266.879	0.061	-0.106
-387.019	-116.190	0.122	-0.022
-386.004	-48.153	-0.104	-0.050
-384.990	-91.501	0.117	-0.033
-383.975	-200.000	-0.029	-0.297
-382.960	-20.062	0.156	-0.095
-381.946	402.900	0.025	-0.053
-380.931	-26.414	0.230	-0.133
-379.917	-34.472	0.186	-0.101
-378.902	282.883	-0.039	0.069
-377.888	-122.037	-0.389	-0.063
-376.873	-80.823	-0.370	0.121
-375.858	-200.000	0.026	0.264
-374.844	-84.302	0.176	-0.055
-373.829	-41.881	0.289	0.146
-372.815	-200.000	-0.042	0.358
-371.800	800.000	-0.074	0.288
-370.785	-200.000	-0.005	0.224
-369.771	-200.000	-0.020	-0.091
-368.756	-116.026	0.266	0.049
-367.742	-107.376	-0.069	0.015
-366.727	385.380	-0.177	-0.360
-365.712	-200.000	-0.003	0.395
-364.698	800.000	0.029	0.120
-363.683	-0.633	0.194	-0.136
-362.669	-200.000	-0.050	-0.345
-361.654	800.000	0.026	0.099
-360.639	-59.763	0.110	0.047
-359.625	232.902	-0.144	-0.234
-358.610	-81.863	0.123	-0.040
-357.596	-50.709	0.274	0.127
-356.581	-115.013	-0.264	-0.049
-355.566	249.797	0.134	0.224
-354.552	-75.754	0.143	-0.050
-353.537	151.155	-0.105	0.141
-352.523	29.268	-0.315	-0.264
-351.508	290.649	-0.071	0.127
-350.493	576.321	0.127	0.307
-349.479	-200.000	-0.022	0.207
-348.464	-89.256	-0.217	-0.063
-347.450	-90.979	0.033	-0.009
-346.435	-200.000	-0.027	-0.310
-345.420	-110.483	-0.134	0.027
-344.406	222.805	-0.095	-0.151
-343.391	-47.523	-0.166	-0.079
-342.377	-200.000	0.040	-0.254
-341.362	44.514	-0.210	0.190
-340.348	-200.000	0.016	0.322
-339.333	518.256	0.082	0.189
-338.318	-39.981	-0.078	0.040
-337.304	-200.000	-0.013	0.180
-336.289	-5.743	-0.254	0.172
-335.275	-120.739	0.412	-0.069
-334.260	800.000	-0.136	0.438
-333.245	385.800	0.098	0.199
-332.231	255.914	-0.105	0.177
-331.216	-155.180	0.110	0.007
-330.202	-200.000	0.041	-0.308
-329.187	498.774	0.106	0.240
-328.172	73.168	-0.169	-0.174
-327.158	-12.615	0.080	-0.052
-326.143	-97.992	0.209	0.053
-325.129	10.393	0.241	-0.181
-324.114	-200.000	-0.003	-0.344
-323.099	-200.000	0.081	-0.360
-322.085	88.360	0.072	0.079
-321.070	800.000	0.057	0.244
-320.056	-200.000	-0.033	-0.157
-319.041	752.388	-0.066	0.175
-318.026	-200.000	-0.025	-0.234
-317.012	356.175	0.124	0.244
-315.997	-200.000	-0.003	-0.084
-314.983	-19.581	0.250	0.152
-313.968	-41.127	-0.171	0.087
-312.953	160.980	0.260	-0.358
-311.939	538.622	-0.149	0.349
-310.924	-85.454	-0.069	0.021
-309.910	-28.613	0.154	0.087
-308.895	800.000	-0.037	-0.158
-307.880	602.424	0.064	-0.157
-306.866	143.744	-0.210	0.276
-305.851	-122.217	-0.196	-0.032
-304.837	330.817	0.100	0.190
-303.822	-48.183	0.060	-0.029
-302.807	-71.584	0.153	0.056
-301.793	682.214	0.104	-0.267
-300.778	-92.208	0.237	0.066
-299.764	305.728	-0.074	0.135
-298.749	172.320	0.121	0.172
-297.735	-66.924	-0.095	0.037
-296.720	-142.690	-0.272	-0.026
-295.705	62.045	0.262	-0.258
-294.691	27.953	-0.093	-0.077
-293.676	-152.354	0.109	0.008
-292.662	-118.947	-0.257	0.044
-291.647	-172.127	-0.283	-0.009
-290.632	779.943	-0.020	-0.054
-289.618	-200.000	-0.008	0.240
-288.603	-200.000	0.002	0.029
-287.589	-81.440	0.230	0.074
-286.574	44.394	-0.143	0.129
-285.559	111.527	-0.198	0.236
-284.545	459.763	0.151	0.332
-283.530	-138.636	0.351	0.038
-282.516	-122.831	0.240	-0.038
-281.501	-200.000	-0.015	-0.157
-280.486	485.849	0.140	-0.313
-279.472	800.000	-0.066	0.263
-278.457	181.714	-0.068	-0.099
-277.443	69.851	0.110	0.111
-276.428	-119.803	-0.226	-0.038
-275.413	-89.520	0.192	-0.055
-274.399	800.000	0.013	-0.053
-273.384	-200.000	0.077	-0.343
-272.370	-113.778	0.113	0.022
-271.355	710.747	0.059	-0.154
-270.340	-85.185	-0.216	0.067
-269.326	34.777	0.057	-0.049
-268.311	174.959	0.222	0.317
-267.297	393.091	-0.073	0.150
-266.282	124.409	-0.178	0.220
-265.267	800.000	0.122	0.415
-264.253	511.188	0.077	0.177
-263.238	87.050	0.237	-0.258
-262.224	-200.000	0.016	0.279
-261.209	-200.000	-0.042	-0.188
-260.195	-93.144	-0.320	-0.088
-259.180	18.953	-0.214	-0.169
-258.165	800.000	-0.074	0.258
-257.151	218.842	0.115	0.180
-256.136	153.711	-0.137	-0.185
-255.122	-83.058	0.424	-0.134
-254.107	-77.799	-0.264	-0.090
-253.092	217.311	0.063	0.098
-252.078	-68.417	0.328	-0.125
-251.063	-40.352	0.212	-0.108
-250.049	-130.580	0.099	-0.013
-249.034	408.914	0.062	0.129
-248.019	-73.268	-0.247	-0.089
-247.005	-93.703	-0.124	0.034
-245.990	41.533	-0.185	-0.165
-244.976	-110.732	0.264	0.054
-243.961	-122.262	0.170	0.027
-242.946	-119.770	-0.097	-0.016
-241.932	-137.780	-0.049	-0.005
-240.917	-200.000	-0.057	-0.418
-239.903	-200.000	-0.001	-0.103
-238.888	800.000	0.048	0.132
-237.873	23.934	0.281	0.228
-236.859	79.218	0.251	0.264
-235.844	140.504	-0.064	0.083
-234.830	-117.812	0.351	0.062
-233.815	800.000	-0.070	-0.213
-232.800	-194.659	0.083	0.001
-231.786	-122.072	0.148	0.024
-230.771	685.170	0.103	0.265
-229.757	60.557	-0.183	0.178
-228.742	110.991	-0.148	0.175
-227.727	49.024	0.167	0.154
-226.713	159.510	0.046	-0.063
-225.698	-200.000	-0.028	-0.161
-224.684	248.294	0.157	0.260
-223.669	-61.753	-0.148	-0.061
-222.655	-9.136	0.255	0.168
-221.640	598.620	-0.104	-0.254
-220.625	-200.000	0.089	-0.420
-219.611	-76.552	-0.217	-0.075
-218.596	36.284	-0.141	0.122
-217.582	28.209	0.091	-0.076
-216.567	109.866	0.165	-0.194
-215.552	74.223	-0.023	-0.024
-214.538	-22.548	-0.237	-0.141
-213.523	-40.316	0.419	0.214
-212.509	-103.510	-0.226	0.052
-211.494	481.340	0.104	0.232
-210.479	-200.000	0.007	0.317
-209.465	-30.048	-0.328	0.183
-208.450	29.367	0.228	0.190
-207.436	-10.650	0.080	-0.052
-206.421	-168.823	0.231	-0.009
-205.406	-128.447	-0.231	-0.032
-204.392	288.418	-0.092	0.163
-203.377	-200.000	0.035	-0.169
-202.363	-161.541	-0.280	0.014
-201.348	800.000	0.021	-0.082
-200.333	-109.657	0.165	0.034
-199.319	20.253	-0.104	0.083
-198.304	-90.643	-0.218	0.062
-197.290	-0.943	-0.415	-0.288
-196.275	-80.467	-0.330	-0.108
-195.260	-166.415	-0.287	0.012
-194.246	222.319	0.230	-0.363
-193.231	-67.820	0.333	0.128
-192.217	-45.460	-0.137	0.067
-191.202	81.863	0.123	-0.131
-190.187	800.000	0.059	0.209
-189.173	-33.386	-0.258	-0.140
-188.158	82.756	-0.116	-0.124
-187.144	147.522	-0.024	-0.032
-186.129	9.216	0.249	-0.185
-185.114	4.797	0.125	-0.090
-184.100	800.000	0.035	-0.142
-183.085	10.005	-0.095	-0.071
-182.071	221.220	0.142	0.223
-181.056	174.476	-0.159	-0.226
-180.042	-120.882	0.178	-0.029
-179.027	-90.659	0.194	-0.055
-178.012	-140.768	0.193	-0.020
-176.998	100.587	0.142	0.162
-175.983	31.357	-0.148	0.125
-174.969	-104.158	-0.338	-0.077
-173.954	9.404	0.069	0.051
-172.939	11.050	-0.145	-0.108
-171.925	100.967	0.018	0.021
-170.910	46.456	-0.108	-0.098
-169.896	-200.000	-0.053	-0.241
-168.881	603.073	-0.098	0.238
-167.866	-71.191	0.349	-0.128
-166.852	800.000	-0.073	-0.201
-165.837	-200.000	-0.058	0.296
-164.823	-128.174	0.034	-0.005
-163.808	8.859	-0.120	-0.089
-162.793	127.389	-0.236	0.293
-161.779	290.969	-0.101	-0.181
-160.764	-200.000	-0.017	-0.228
-159.750	-31.832	0.179	-0.099
-158.735	-182.207	0.222	-0.004
-157.720	114.229	0.084	-0.100
-156.706	800.000	-0.045	0.148
-155.691	-116.363	0.488	0.088
-154.677	-98.454	0.147	0.037
-153.662	193.752	-0.248	0.367
-152.647	-13.347	0.139	0.088
-151.633	-110.144	0.388	0.079
-150.618	-200.000	0.061	0.328
-149.604	145.924	0.235	0.309
-148.589	-66.574	0.192	0.075
-147.574	449.055	-0.065	-0.141
-146.560	-87.663	0.194	0.057
-145.545	-113.867	-0.517	-0.098
-144.531	186.694	0.053	-0.077
-143.516	652.781	-0.065	-0.164
-142.502	49.748	-0.052	0.048
-141.487	4.601	0.273	0.196
-140.472	-106.020	-0.087	0.019
-139.458	-200.000	-0.001	0.018
-138.443	-26.327	0.127	0.073
-137.429	247.376	-0.083	0.138
-136.414	-200.000	0.050	0.245
-135.399	800.000	-0.031	-0.131
-134.385	280.061	-0.266	-0.465
-133.370	800.000	-0.029	0.122
-132.356	90.578	-0.080	-0.088
-131.341	-200.000	-0.026	0.511
-130.326	800.000	-0.037	0.110
-129.312	190.898	-0.139	-0.205
-128.297	24.466	0.275	0.222
-127.283	-96.419	-0.477	-0.123
-126.268	-151.241	0.218	0.016
-125.253	94.407	0.127	-0.141
-124.239	34.265	0.076	0.065
-123.224	800.000	0.072	0.268
-122.210	3.862	0.223	0.160
-121.195	-49.715	-0.342	0.159
-120.180	800.000	-0.088	-0.243
