DTS Sentinel unit serial number:	SN413079Multiplexer serial number:	ORYXHardware model number:	OX4-SRSoftware version number:	ORYX F/W v4.00 Oryx Data Collector v3.7.2.0data status	okinstallation	princeton_trtdifferential loss correction	single-endedforward channel	channel 3reverse channel	N/Adate	2019/09/12time	19:13:04forward acquisition time	15.00reverse acquisition time	0.00gamma	496.2192k internal	0.2319k external	0.2319temperature offset calibration	1.0113default loss term (dB/km)	0.3790temperature slope calibration	1.0000multiplexer offset coefficient	1.0000multiplexer slope coefficient	1.0000fibre end	0.00T internal ref (°C)	32.56T ext. ref 1 (°C)	3.23T ext. ref 2 (°C)	27.13length (m)	temperature (°C)	Stokes	anti-Stokes-747.200	19.331	0.677	0.550
-746.185	-200.000	-0.140	0.845
-745.171	-102.193	-0.805	0.196
-744.156	800.000	-0.113	0.334
-743.142	-79.335	0.449	0.154
-742.127	368.856	-0.172	-0.351
-741.112	-61.013	-0.289	-0.123
-740.098	142.063	-0.438	-0.587
-739.083	-141.788	-0.680	-0.069
-738.069	-200.000	-0.080	0.540
-737.054	-200.000	0.002	0.166
-736.039	-123.795	1.021	0.163
-735.025	177.624	-0.413	-0.608
-734.010	-150.057	0.470	-0.037
-732.996	40.717	0.122	0.111
-731.981	-200.000	-0.083	-0.551
-730.966	-107.714	-0.258	0.057
-729.952	-12.414	0.622	-0.410
-728.937	-131.550	0.325	0.043
-727.923	-200.000	0.149	0.898
-726.908	62.193	-0.504	-0.508
-725.894	71.009	-0.262	-0.274
-724.879	33.671	-0.244	-0.215
-723.864	-44.534	0.138	-0.069
-722.850	-200.000	-0.107	-0.645
-721.835	-132.106	-0.382	-0.050
-720.821	10.251	0.168	-0.129
-719.806	487.276	-0.197	-0.454
-718.791	201.219	0.183	-0.285
-717.777	-14.202	0.826	0.538
-716.762	649.229	0.185	0.477
-715.748	800.000	-0.080	0.269
-714.733	-200.000	0.108	0.507
-713.718	476.775	0.047	0.107
-712.704	324.456	-0.366	-0.705
-711.689	364.040	0.323	0.656
-710.675	-67.369	-0.446	0.177
-709.660	800.000	-0.274	0.834
-708.645	-102.204	-0.893	-0.217
-707.631	52.938	-0.695	0.672
-706.616	-86.420	0.338	-0.105
-705.602	-118.747	-0.106	0.019
-704.587	800.000	-0.100	0.419
-703.572	-35.700	-0.445	-0.243
-702.558	86.805	0.278	0.310
-701.543	-136.830	0.803	-0.093
-700.529	335.816	0.170	-0.333
-699.514	-91.972	-0.337	-0.096
-698.499	216.375	-0.354	-0.569
-697.485	-31.127	-0.396	0.225
-696.470	800.000	-0.169	0.476
-695.456	800.000	0.262	0.751
-694.441	302.048	0.025	0.047
-693.426	-96.282	-0.445	0.119
-692.412	-19.484	-0.405	-0.253
-691.397	-126.619	0.241	0.036
-690.383	172.743	0.211	-0.307
-689.368	66.311	-0.249	-0.256
-688.354	69.904	-0.155	0.162
-687.339	-54.132	0.603	-0.277
-686.324	-26.529	0.169	0.100
-685.310	-200.000	0.094	0.913
-684.295	118.198	-0.308	0.384
-683.281	35.136	-0.285	-0.252
-682.266	674.345	0.173	-0.454
-681.251	7.388	-0.553	0.417
-680.237	-200.000	0.097	0.645
-679.222	450.430	0.165	0.368
-678.208	-200.000	0.059	0.397
-677.193	-200.000	-0.056	0.976
-676.178	-148.024	-0.380	0.032
-675.164	-82.739	-0.451	0.147
-674.149	693.372	-0.140	0.370
-673.135	334.560	-0.287	0.561
-672.120	84.997	-0.387	-0.428
-671.105	-200.000	0.017	-0.569
-670.091	-51.512	0.792	-0.373
-669.076	-200.000	0.026	0.825
-668.062	-31.589	-0.313	0.178
-667.047	283.142	-0.338	-0.612
-666.032	-36.989	0.799	-0.432
-665.018	58.824	0.290	0.287
-664.003	-122.732	-0.266	0.043
-662.989	-91.331	0.356	0.103
-661.974	-200.000	0.043	0.229
-660.959	-200.000	0.000	-0.133
-659.945	800.000	0.128	-0.417
-658.930	622.747	-0.319	0.809
-657.916	111.408	-0.370	-0.450
-656.901	273.073	-0.104	-0.185
-655.886	225.591	0.267	-0.436
-654.872	82.647	0.140	0.154
-653.857	446.108	0.237	-0.526
-652.843	8.099	0.631	0.478
-651.828	-0.471	-0.413	0.295
-650.814	-23.839	0.595	0.359
-649.799	-21.857	0.565	0.347
-648.784	-49.193	0.590	-0.284
-647.770	-10.864	0.764	-0.508
-646.755	200.244	0.341	0.527
-645.741	522.101	0.323	0.765
-644.726	800.000	0.043	0.134
-643.711	51.776	0.280	-0.268
-642.697	-200.000	0.055	-0.292
-641.682	-200.000	-0.006	0.431
-640.668	40.523	0.701	0.636
-639.653	-200.000	0.021	-0.326
-638.638	-200.000	0.001	-0.518
-637.624	257.531	-0.175	-0.303
-636.609	-50.628	-0.755	-0.358
-635.595	679.899	-0.383	1.005
-634.580	-39.619	-0.186	0.098
-633.565	-71.957	0.154	0.058
-632.551	-31.600	0.822	-0.465
-631.536	284.084	-0.560	-1.014
-630.522	34.971	-0.235	0.207
-629.507	-109.257	-0.286	0.061
-628.492	75.629	0.490	0.521
-627.478	619.748	-0.253	0.641
-626.463	218.617	0.168	-0.270
-625.449	-78.213	-0.335	-0.116
-624.434	-74.401	0.770	-0.280
-623.419	344.370	0.148	0.291
-622.405	22.023	-0.246	0.202
-621.390	-19.866	-0.188	0.117
-620.376	-200.000	0.049	-0.492
-619.361	98.014	-0.143	0.165
-618.346	72.137	0.681	-0.714
-617.332	171.515	-0.334	-0.482
-616.317	274.028	0.242	0.431
-615.303	-80.580	-0.703	-0.236
-614.288	-200.000	0.192	1.157
-613.273	-200.000	-0.004	-0.081
-612.259	-75.950	-1.076	-0.383
-611.244	-79.428	-0.362	0.123
-610.230	-200.000	0.354	1.642
-609.215	-24.509	-0.395	0.236
-608.201	-88.575	0.439	0.132
-607.186	395.823	0.203	-0.427
-606.171	85.370	-0.456	0.504
-605.157	150.721	-0.435	0.595
-604.142	-135.101	-0.236	-0.029
-603.128	-22.952	0.426	-0.258
-602.113	-200.000	-0.078	-0.755
-601.098	-200.000	-0.087	0.419
-600.084	-200.000	-0.053	0.308
-599.069	399.402	0.267	0.562
-598.055	-50.898	-0.467	0.221
-597.040	168.045	0.428	-0.613
-596.025	800.000	-0.101	-0.380
-595.011	800.000	-0.065	-0.258
-593.996	-200.000	0.012	0.323
-592.982	283.542	-0.166	0.300
-591.967	-171.565	0.547	0.018
-590.952	384.844	-0.214	0.444
-589.938	-200.000	0.027	0.355
-588.923	65.443	-0.360	0.367
-587.909	-200.000	-0.060	-0.310
-586.894	-103.772	0.191	0.045
-585.879	2.430	0.475	-0.346
-584.865	51.007	0.289	0.275
-583.850	-200.000	0.012	-0.531
-582.836	800.000	0.165	-0.459
-581.821	-200.000	-0.122	0.760
-580.806	-108.300	-0.181	0.039
-579.792	229.322	-0.405	-0.665
-578.777	248.720	-0.194	0.330
-577.763	321.995	-0.246	0.470
-576.748	54.686	-0.194	-0.188
-575.733	-147.605	0.843	-0.071
-574.719	800.000	0.251	0.713
-573.704	-36.218	-0.301	-0.163
-572.690	435.196	0.161	-0.352
-571.675	800.000	-0.071	-0.243
-570.661	-200.000	0.005	-0.464
-569.646	-151.335	-0.602	-0.045
-568.631	-148.634	-0.385	0.032
-567.617	-64.877	-0.524	0.213
-566.602	800.000	0.189	0.714
-565.588	-192.518	0.419	-0.004
-564.573	-38.716	0.800	-0.424
-563.558	40.842	-0.609	0.552
-562.544	-200.000	0.262	1.199
-561.529	-19.880	-0.570	0.353
-560.515	-200.000	0.056	0.254
-559.500	800.000	0.136	-0.405
-558.485	-53.016	0.273	0.126
-557.471	-137.171	0.167	0.019
-556.456	120.040	0.046	0.058
-555.442	-52.274	-0.297	0.138
-554.427	-200.000	-0.058	-0.661
-553.412	-200.000	-0.099	-0.902
-552.398	5.901	0.308	-0.229
-551.383	208.669	-0.232	-0.364
-550.369	323.549	-0.058	-0.112
-549.354	-200.000	-0.083	-0.524
-548.339	-49.354	-0.391	0.187
-547.325	-192.380	-0.387	0.004
-546.310	36.967	0.034	-0.030
-545.296	-200.000	0.004	0.096
-544.281	-28.861	-0.703	0.406
-543.266	-90.063	-0.822	-0.240
-542.252	94.880	0.356	0.407
-541.237	-110.017	0.566	-0.119
-540.223	38.347	0.097	-0.086
-539.208	406.796	0.191	-0.406
-538.193	-200.000	0.010	-0.852
-537.179	408.908	-0.332	-0.704
-536.164	-102.069	-0.499	0.121
-535.150	632.769	0.221	-0.563
-534.135	68.228	0.443	-0.455
-533.121	8.251	-0.672	0.506
-532.106	-21.112	0.668	-0.410
-531.091	48.966	0.033	0.031
-530.077	-125.522	-1.035	0.158
-529.062	-0.077	-0.452	0.323
-528.048	45.807	-0.463	0.429
-527.033	21.185	0.371	0.302
-526.018	93.240	0.171	-0.194
-525.004	33.565	-0.435	-0.379
-523.989	-200.000	-0.009	-0.590
-522.975	-44.274	0.603	0.303
-521.960	22.702	-0.415	-0.341
-520.945	86.664	-0.376	-0.415
-519.931	480.224	0.087	0.198
-518.916	111.908	-0.636	0.770
-517.902	47.081	-0.089	-0.083
-516.887	800.000	0.160	-0.642
-515.872	-22.240	-1.279	0.777
-514.858	628.049	-0.145	-0.367
-513.843	-91.080	0.418	0.120
-512.829	27.910	0.711	-0.601
-511.814	779.252	0.168	0.462
-510.799	800.000	0.133	-0.399
-509.785	-200.000	-0.005	0.867
-508.770	-58.324	-0.426	-0.186
-507.756	118.560	-0.371	0.459
-506.741	-64.216	0.441	0.180
-505.726	-106.149	-0.469	-0.105
-504.712	-147.013	-1.284	0.110
-503.697	-200.000	-0.163	1.199
-502.683	800.000	0.203	-0.635
-501.668	-83.567	-1.144	-0.366
-500.653	184.093	-0.077	0.115
-499.639	367.732	-0.292	0.590
-498.624	552.556	-0.261	0.627
-497.610	-200.000	0.005	0.083
-496.595	-115.333	0.629	0.119
-495.581	-200.000	-0.020	0.355
-494.566	-189.102	-1.183	-0.014
-493.551	172.805	-0.138	-0.199
-492.537	-77.561	0.211	-0.073
-491.522	-200.000	-0.009	-0.118
-490.508	-78.681	-0.713	0.244
-489.493	-200.000	-0.070	-0.516
-488.478	800.000	0.409	1.397
-487.464	31.957	-0.337	0.290
-486.449	-144.135	-0.471	-0.044
-485.435	66.334	0.395	-0.402
-484.420	-28.980	-0.363	-0.209
-483.405	-109.589	-0.600	-0.127
-482.391	270.820	0.419	0.737
-481.376	102.992	0.563	-0.660
-480.362	-200.000	-0.036	0.201
-479.347	89.822	0.226	0.252
-478.332	380.525	-0.110	0.226
-477.318	57.969	0.312	0.305
-476.303	-35.741	0.590	0.320
-475.289	61.040	0.411	0.408
-474.274	-108.044	-0.551	0.120
-473.259	-95.347	-0.354	0.095
-472.245	800.000	-0.144	0.464
-471.230	50.303	-0.584	-0.552
-470.216	69.998	-0.652	-0.673
-469.201	-200.000	-0.142	-0.639
-468.186	-139.243	-0.477	0.051
-467.172	402.971	0.192	-0.403
-466.157	-200.000	-0.003	-0.169
-465.143	-31.138	0.470	-0.265
-464.128	800.000	-0.309	-0.861
-463.113	457.420	-0.213	-0.474
-462.099	-167.827	0.915	0.036
-461.084	800.000	0.085	-0.279
-460.070	360.674	0.195	-0.391
-459.055	-27.941	-0.426	0.247
-458.040	-176.277	-0.834	0.022
-457.026	60.873	-0.374	-0.371
-456.011	-97.445	-0.670	0.174
-454.997	733.233	-0.047	-0.126
-453.982	-180.907	0.668	-0.013
-452.968	800.000	0.116	-0.421
-451.953	-200.000	0.095	0.760
-450.938	26.369	0.724	0.605
-449.924	-66.253	0.191	0.076
-448.909	-168.724	0.021	-0.001
-447.895	-107.600	0.666	0.146
-446.880	-116.551	-0.374	0.069
-445.865	-110.582	-1.170	-0.242
-444.851	-200.000	0.022	0.353
-443.836	800.000	-0.090	0.264
-442.822	153.614	-0.231	0.316
-441.807	-200.000	-0.065	-0.652
-440.792	87.013	0.080	-0.088
-439.778	-200.000	0.149	1.015
-438.763	800.000	-0.085	-0.249
-437.749	-200.000	0.020	0.502
-436.734	-95.952	-0.566	0.151
-435.719	-200.000	-0.012	0.052
-434.705	135.499	0.308	-0.401
-433.690	274.915	-0.265	0.469
-432.676	-197.241	0.176	-0.001
-431.661	800.000	0.123	-0.485
-430.646	-200.000	0.047	-0.810
-429.632	-52.498	-0.383	0.177
-428.617	-49.526	-0.256	0.122
-427.603	-200.000	-0.021	0.250
-426.588	-121.549	0.201	-0.033
-425.573	800.000	0.287	-0.882
-424.559	627.329	-0.217	-0.548
-423.544	23.880	-0.383	-0.315
-422.530	347.032	0.162	-0.319
-421.515	-35.646	0.818	0.443
-420.500	-89.353	0.635	-0.187
-419.486	800.000	0.064	-0.220
-418.471	-48.697	0.408	-0.195
-417.457	-153.690	0.595	-0.041
-416.442	-139.430	-0.945	-0.101
-415.428	-12.058	0.583	-0.382
-414.413	-58.653	0.870	0.377
-413.398	129.783	0.396	0.506
-412.384	-143.758	0.209	-0.020
-411.369	-200.000	-0.035	0.298
-410.355	67.532	0.528	0.538
-409.340	-51.464	-0.267	-0.125
-408.325	68.013	0.306	-0.313
-407.311	219.690	-0.338	-0.540
-406.296	-200.000	-0.126	-0.930
-405.282	-200.000	0.037	-0.198
-404.267	-114.016	0.497	-0.096
-403.252	-135.296	0.382	0.046
-402.238	-160.798	0.761	-0.040
-401.223	-77.045	0.332	0.116
-400.209	17.145	0.560	0.443
-399.194	-65.775	0.592	0.237
-398.179	-134.248	0.077	0.009
-397.165	101.527	0.613	0.713
-396.150	63.549	0.069	-0.069
-395.136	-97.793	-0.939	0.242
-394.121	800.000	0.290	1.033
-393.106	-200.000	-0.077	0.379
-392.092	162.966	0.152	-0.213
-391.077	195.617	0.363	-0.550
-390.063	-4.217	-0.244	-0.168
-389.048	-120.661	0.212	-0.036
-388.033	-56.556	-0.302	-0.133
-387.019	-20.885	0.155	0.095
-386.004	-53.331	0.522	-0.239
-384.990	638.856	-0.489	-1.240
-383.975	-144.353	0.703	0.065
-382.960	198.895	-0.685	1.047
-381.946	-200.000	-0.003	0.131
-380.931	51.247	0.757	0.716
-379.917	-181.971	-0.212	0.004
-378.902	800.000	0.291	-0.900
-377.888	800.000	0.172	-0.599
-376.873	800.000	-0.067	-0.229
-375.858	37.981	0.452	0.401
-374.844	115.101	-0.211	-0.256
-373.829	800.000	0.327	0.901
-372.815	423.361	-0.076	-0.162
-371.800	116.038	-0.394	0.481
-370.785	-200.000	-0.124	1.213
-369.771	-200.000	-0.053	0.252
-368.756	-134.014	0.492	-0.061
-367.742	95.840	0.160	-0.183
-366.727	-140.498	-0.504	-0.052
-365.712	43.068	-0.222	0.201
-364.698	-200.000	0.010	0.218
-363.683	800.000	0.115	-0.334
-362.669	491.334	0.180	0.411
-361.654	-200.000	-0.039	0.655
-360.639	123.547	-0.394	-0.493
-359.625	-15.776	-0.231	-0.147
-358.610	-200.000	-0.029	-0.135
-357.596	-69.917	0.669	0.254
-356.581	436.961	-0.097	0.210
-355.566	-200.000	0.079	-0.550
-354.552	404.109	-0.229	-0.479
-353.537	-32.282	0.654	-0.364
-352.523	-121.678	0.469	-0.077
-351.508	24.364	0.347	-0.285
-350.493	-103.308	-0.346	-0.081
-349.479	353.456	0.322	0.636
-348.464	371.350	-0.548	1.106
-347.450	800.000	-0.227	-0.631
-346.435	784.316	0.117	-0.319
-345.420	7.954	-0.124	-0.093
-344.406	424.258	-0.194	-0.415
-343.391	-91.306	0.894	-0.255
-342.377	-35.889	0.540	0.291
-341.362	57.346	-0.826	-0.803
-340.348	180.903	0.496	-0.725
-339.333	800.000	-0.116	0.340
-338.318	-98.769	-0.577	-0.146
-337.304	430.584	-0.373	-0.804
-336.289	800.000	0.128	-0.362
-335.275	-200.000	0.065	-0.373
-334.260	-88.428	0.213	-0.063
-333.245	94.460	0.329	0.372
-332.231	17.404	0.922	0.729
-331.216	-126.848	-0.369	-0.054
-330.202	328.175	0.517	-0.987
-329.187	800.000	0.053	-0.199
-328.172	-133.780	-0.370	-0.046
-327.158	25.794	-0.456	-0.378
-326.143	-59.342	-0.389	0.166
-325.129	97.009	0.381	-0.434
-324.114	-18.456	-0.307	0.191
-323.099	800.000	-0.241	0.950
-322.085	75.608	0.301	-0.316
-321.070	60.143	0.278	0.274
-320.056	-30.626	0.339	-0.191
-319.041	69.335	0.160	0.164
-318.026	372.343	-0.218	0.440
-317.012	-32.214	-0.255	0.142
-315.997	-200.000	-0.168	-1.543
-314.983	800.000	-0.124	0.399
-313.968	91.589	-0.355	-0.397
-312.953	-200.000	0.103	-0.494
-311.939	91.995	-0.203	0.227
-310.924	104.760	-0.633	-0.742
-309.910	92.545	0.617	-0.692
-308.895	244.813	0.535	0.895
-307.880	81.461	0.254	0.273
-306.866	-13.752	0.820	0.527
-305.851	-120.337	0.492	-0.083
-304.837	800.000	0.048	-0.163
-303.822	567.260	-0.139	-0.335
-302.807	297.973	0.154	-0.281
-301.793	-20.157	-0.740	-0.454
-300.778	-200.000	-0.054	0.290
-299.764	-129.861	-0.910	-0.124
-298.749	-175.662	0.706	-0.019
-297.735	-200.000	0.133	0.889
-296.720	0.835	0.290	0.207
-295.705	-200.000	0.032	0.286
-294.691	800.000	-0.244	-0.833
-293.676	-185.033	0.422	-0.007
-292.662	9.459	0.945	0.711
-291.647	-160.913	-0.828	-0.043
-290.632	-47.663	0.249	-0.120
-289.618	-76.501	0.250	0.087
-288.603	-200.000	-0.079	-0.631
-287.589	19.052	-0.203	-0.162
-286.574	-45.086	0.335	-0.165
-285.559	-17.512	0.346	0.216
-284.545	800.000	-0.201	0.623
-283.530	32.058	0.179	0.153
-282.516	312.740	-0.131	0.244
-281.501	-200.000	-0.051	-0.620
-280.486	-163.408	-1.134	0.054
-279.472	-62.067	0.328	0.136
-278.457	-172.556	-0.163	0.005
-277.443	-137.136	0.498	0.056
-276.428	113.588	-0.174	0.210
-275.413	127.055	0.452	-0.569
-274.399	-45.679	-0.470	-0.231
-273.384	35.043	-0.889	-0.773
-272.370	-200.000	-0.020	0.532
-271.355	623.311	0.201	-0.502
-270.340	-200.000	0.049	-0.672
-269.326	-179.531	-0.299	-0.006
-268.311	-14.212	-0.640	-0.410
-267.297	-100.769	-0.203	-0.050
-266.282	-44.402	-0.626	-0.311
-265.267	402.300	0.247	0.515
-264.253	-200.000	0.093	-0.494
-263.238	111.949	-0.491	-0.589
-262.224	-200.000	-0.098	-0.800
-261.209	-200.000	0.074	-0.457
-260.195	-91.228	0.226	0.064
-259.180	-132.490	0.372	-0.047
-258.165	-200.000	0.059	0.889
-257.151	77.145	-0.601	0.634
-256.136	61.932	-0.829	0.820
-255.122	128.388	-0.268	-0.339
-254.107	-35.580	-0.709	0.381
-253.092	88.732	0.462	-0.510
-252.078	-187.746	0.308	0.004
-251.063	800.000	-0.036	0.125
-250.049	233.038	0.132	0.215
-249.034	11.070	-0.836	0.634
-248.019	111.917	-0.305	0.365
-247.005	111.783	-0.513	-0.615
-245.990	800.000	0.261	0.824
-244.976	-200.000	-0.107	0.553
-243.961	67.052	0.311	0.315
-242.946	72.582	0.358	-0.371
-241.932	363.254	-0.145	-0.290
-240.917	5.190	0.338	-0.247
-239.903	-40.148	-0.347	-0.179
-238.888	800.000	0.076	0.231
-237.873	-16.883	-0.761	-0.477
-236.859	-16.073	0.932	0.588
-235.844	-178.966	-0.662	-0.015
-234.830	-49.457	0.201	0.095
-233.815	21.223	0.121	-0.098
-232.800	-35.034	-0.649	0.351
-231.786	-114.600	0.311	0.059
-230.771	52.736	0.687	0.651
-229.757	130.111	-0.318	-0.403
-228.742	135.623	0.220	-0.284
-227.727	363.665	0.270	-0.537
-226.713	479.259	-0.254	0.571
-225.698	-112.963	-0.204	0.040
-224.684	43.026	0.489	0.442
-223.669	54.742	0.728	-0.696
-222.655	477.247	-0.058	0.129
-221.640	-144.225	-0.929	0.086
-220.625	800.000	-0.108	0.333
-219.611	-69.728	0.805	0.305
-218.596	-145.955	1.035	-0.091
-217.582	-200.000	-0.076	0.473
-216.567	800.000	0.105	0.431
-215.552	-200.000	-0.119	-0.538
-214.538	-166.616	0.394	0.016
-213.523	-200.000	0.026	-0.489
-212.509	-99.885	-0.464	-0.115
-211.494	10.752	0.563	-0.426
-210.479	-200.000	0.016	0.445
-209.465	593.134	-0.204	-0.499
-208.450	-26.810	0.424	-0.245
-207.436	-138.665	-0.482	-0.052
-206.421	-48.286	0.367	-0.175
-205.406	10.313	0.433	-0.327
-204.392	43.274	-0.365	0.330
-203.377	-81.707	0.320	0.104
-202.363	49.877	-0.275	0.257
-201.348	285.345	-0.057	0.101
-200.333	405.490	-0.337	0.704
-199.319	-200.000	0.167	-0.783
-198.304	752.693	0.244	-0.653
-197.290	-12.575	-0.445	0.288
-196.275	558.932	0.120	-0.287
-195.260	659.204	0.077	-0.195
-194.246	-93.975	0.350	-0.095
-193.231	313.496	-0.065	0.121
-192.217	-84.523	-0.356	-0.111
-191.202	-146.945	0.397	0.034
-190.187	56.086	-0.283	0.272
-189.173	-160.420	0.687	-0.037
-188.158	599.985	-0.298	-0.733
-187.144	271.874	-0.374	0.652
-186.129	-84.293	0.487	0.153
-185.114	-136.377	0.818	-0.094
-184.100	-200.000	-0.008	-0.634
-183.085	-200.000	0.005	0.780
-182.071	150.591	0.461	0.620
-181.056	-40.985	0.229	-0.117
-180.042	191.477	0.177	0.264
-179.027	-200.000	0.052	-0.800
-178.012	-89.776	0.414	0.120
-176.998	-33.151	-0.384	-0.211
-175.983	-200.000	-0.013	-0.192
-174.969	-30.812	0.054	-0.030
-173.954	16.307	0.729	-0.569
-172.939	773.393	-0.147	-0.398
-171.925	800.000	0.181	-0.525
-170.910	553.290	-0.303	0.721
-169.896	112.312	-0.634	0.758
-168.881	-13.867	-0.206	-0.132
-167.866	-200.000	-0.023	0.500
-166.852	-13.269	0.381	-0.244
-165.837	345.377	0.297	0.577
-164.823	160.558	0.492	-0.679
-163.808	-200.000	-0.159	-0.785
-162.793	275.733	0.281	-0.493
-161.779	-15.750	0.191	-0.120
-160.764	800.000	-0.299	0.843
-159.750	-200.000	-0.099	0.762
-158.735	800.000	-0.231	0.797
-157.720	10.609	0.197	0.148
-156.706	31.306	-0.260	0.221
-155.691	-94.024	-0.544	0.147
-154.677	800.000	-0.351	0.977
-153.662	-79.443	0.135	0.045
-152.647	359.982	0.230	-0.455
-151.633	547.940	-0.085	-0.201
-150.618	100.090	-0.257	0.294
-149.604	-160.401	-0.691	0.037
-148.589	19.073	-0.605	-0.479
-147.574	-150.150	0.244	-0.019
-146.560	20.649	-0.431	0.345
-145.545	142.937	0.304	0.399
-144.531	125.004	0.248	0.309
-143.516	225.477	0.253	0.405
-142.502	-30.803	-0.173	-0.097
-141.487	-200.000	-0.055	0.651
-140.472	723.768	0.177	0.465
-139.458	-200.000	0.051	-0.350
-138.443	-200.000	0.036	0.505
-137.429	-200.000	-0.243	1.201
-136.414	-43.538	0.458	-0.228
-135.399	318.158	-0.164	0.306
-134.385	210.625	-0.653	1.014
-133.370	85.420	0.217	0.235
-132.356	13.074	0.198	0.151
-131.341	-17.174	-0.489	0.304
-130.326	800.000	0.048	-0.154
-129.312	32.616	-0.378	0.323
-128.297	255.793	0.301	-0.509
-127.283	-136.366	0.570	-0.065
-126.268	-75.139	0.431	0.152
-125.253	-200.000	0.015	-0.630
-124.239	-108.774	-1.078	0.228
-123.224	-1.520	0.197	0.137
-122.210	-200.000	0.067	-0.655
-121.195	168.184	-0.410	-0.576
