DTS Sentinel unit serial number:	SN413079Multiplexer serial number:	ORYXHardware model number:	OX4-SRSoftware version number:	ORYX F/W v4.00 Oryx Data Collector v3.7.2.0data status	okinstallation	princeton_trtdifferential loss correction	single-endedforward channel	channel 3reverse channel	N/Adate	2019/09/18time	23:40:35forward acquisition time	60.00reverse acquisition time	0.00gamma	496.2192k internal	0.2346k external	0.2346temperature offset calibration	0.9989default loss term (dB/km)	0.3790temperature slope calibration	1.0000multiplexer offset coefficient	1.0000multiplexer slope coefficient	1.0000fibre end	0.00T internal ref (°C)	23.50T ext. ref 1 (°C)	0.75T ext. ref 2 (°C)	16.30length (m)	temperature (°C)	Stokes	anti-Stokes-747.200	800.000	-0.080	0.234
-746.185	-200.000	0.070	0.570
-745.171	-200.000	-0.008	0.115
-744.156	-106.724	-0.212	-0.047
-743.142	-2.683	0.317	0.222
-742.127	-58.030	-0.217	-0.094
-741.112	-200.000	-0.057	0.314
-740.098	-200.000	0.028	0.219
-739.083	800.000	-0.096	0.322
-738.069	412.949	-0.171	0.364
-737.054	800.000	0.019	-0.083
-736.039	-200.000	-0.345	-0.001
-735.025	-65.795	0.232	0.093
-734.010	-8.649	-0.121	0.081
-732.996	-39.557	-0.027	-0.014
-731.981	-75.649	0.154	0.055
-730.966	-158.819	0.133	0.008
-729.952	219.809	0.139	-0.222
-728.937	800.000	-0.091	-0.324
-727.923	-184.900	0.196	0.003
-726.908	-200.000	-0.071	-0.361
-725.894	-200.000	-0.031	-0.177
-724.879	-36.183	0.059	0.032
-723.864	-200.000	-0.002	-0.058
-722.850	-15.767	0.118	0.075
-721.835	494.190	-0.044	-0.100
-720.821	-39.866	0.206	0.107
-719.806	-200.000	-0.005	0.022
-718.791	0.524	-0.110	-0.078
-717.777	-200.000	0.041	0.275
-716.762	193.707	-0.086	0.130
-715.748	-98.857	0.134	-0.034
-714.733	-52.276	0.233	0.108
-713.718	800.000	-0.043	-0.135
-712.704	647.346	0.175	0.446
-711.689	74.394	0.188	-0.197
-710.675	496.431	-0.109	-0.250
-709.660	-61.976	0.188	-0.078
-708.645	-66.182	-0.194	-0.077
-707.631	48.041	0.297	-0.277
-706.616	-115.927	0.252	-0.047
-705.602	251.194	-0.037	0.063
-704.587	800.000	0.049	-0.158
-703.572	53.319	-0.096	-0.092
-702.558	17.267	-0.054	-0.043
-701.543	-151.452	0.180	-0.013
-700.529	-62.688	-0.070	0.029
-699.514	-200.000	0.057	-0.397
-698.499	-200.000	-0.053	-0.349
-697.485	-200.000	0.029	-0.508
-696.470	160.950	-0.123	-0.172
-695.456	269.474	0.176	0.309
-694.441	5.980	0.162	-0.120
-693.426	470.116	-0.055	0.123
-692.412	780.991	0.130	-0.356
-691.397	9.938	0.335	-0.254
-690.383	-104.987	-0.059	-0.014
-689.368	87.845	0.062	-0.068
-688.354	403.533	-0.169	-0.354
-687.339	-86.012	-0.118	-0.036
-686.324	-139.590	-0.364	0.039
-685.310	800.000	0.033	-0.136
-684.295	-93.797	0.062	-0.017
-683.281	18.649	-0.239	0.191
-682.266	-122.038	0.108	0.018
-681.251	-200.000	-0.033	0.173
-680.237	5.964	0.085	-0.063
-679.222	-86.317	0.392	-0.120
-678.208	375.684	-0.086	-0.176
-677.193	-71.409	-0.249	0.093
-676.178	148.449	0.278	-0.375
-675.164	-0.407	0.034	0.024
-674.149	800.000	-0.116	-0.364
-673.135	337.604	0.079	0.153
-672.120	-41.371	0.268	0.138
-671.105	-200.000	0.010	0.368
-670.091	-132.895	0.302	-0.038
-669.076	-81.952	0.220	0.072
-668.062	-118.490	0.184	-0.032
-667.047	74.594	-0.140	0.147
-666.032	-200.000	-0.023	0.140
-665.018	-200.000	0.007	-0.169
-664.003	-147.914	-0.194	-0.016
-662.989	-45.015	-0.270	-0.134
-661.974	99.724	-0.171	0.197
-660.959	-105.739	0.354	-0.080
-659.945	-69.669	0.378	-0.144
-658.930	34.285	0.329	0.286
-657.916	-200.000	-0.001	0.057
-656.901	-189.324	-0.102	-0.001
-655.886	-41.171	0.037	-0.019
-654.872	-200.000	0.016	-0.381
-653.857	-56.249	0.275	0.122
-652.843	44.517	-0.242	-0.222
-651.828	122.895	0.228	-0.284
-650.814	-81.791	-0.322	0.105
-649.799	800.000	-0.080	-0.256
-648.784	412.926	-0.126	-0.266
-647.770	106.758	0.218	0.258
-646.755	-87.979	-0.309	0.093
-645.741	800.000	0.079	-0.266
-644.726	362.563	0.054	-0.109
-643.711	322.297	0.030	0.057
-642.697	800.000	0.039	-0.138
-641.682	-194.233	-0.341	-0.003
-640.668	229.472	-0.090	0.147
-639.653	442.199	0.053	-0.115
-638.638	-200.000	0.058	-0.308
-637.624	59.546	-0.282	-0.277
-636.609	117.099	-0.137	-0.167
-635.595	-17.217	0.210	0.132
-634.580	-200.000	0.000	0.008
-633.565	-116.477	0.208	0.038
-632.551	43.311	-0.195	0.177
-631.536	-41.348	-0.014	-0.007
-630.522	15.586	0.139	-0.109
-629.507	-53.035	0.193	0.088
-628.492	800.000	0.067	-0.264
-627.478	-200.000	0.005	-0.098
-626.463	-85.443	-0.105	0.033
-625.449	13.393	-0.269	-0.207
-624.434	-150.572	0.208	0.016
-623.419	-123.113	-0.255	0.041
-622.405	-200.000	-0.004	0.066
-621.390	-55.610	-0.149	-0.067
-620.376	-9.621	-0.133	-0.088
-619.361	-132.731	0.253	0.032
-618.346	-139.739	-0.134	0.014
-617.332	-200.000	0.021	-0.301
-616.317	749.152	-0.037	-0.100
-615.303	584.191	0.086	-0.210
-614.288	40.440	-0.144	0.129
-613.273	-124.068	0.453	0.071
-612.259	59.503	0.118	0.116
-611.244	83.450	0.223	-0.242
-610.230	660.263	0.073	0.186
-609.215	734.658	-0.073	-0.194
-608.201	-102.113	0.279	0.067
-607.186	39.761	0.025	0.022
-606.171	28.240	0.247	-0.207
-605.157	-27.675	0.207	0.119
-604.142	-198.578	-0.288	0.002
-603.128	-108.192	-0.249	-0.053
-602.113	800.000	0.079	-0.322
-601.098	117.892	-0.265	0.324
-600.084	-115.461	-0.081	0.015
-599.069	-102.441	0.203	0.048
-598.055	103.372	0.226	0.264
-597.040	-199.521	0.384	0.002
-596.025	800.000	-0.034	0.103
-595.011	24.893	-0.242	0.199
-593.996	47.597	0.120	-0.112
-592.982	800.000	0.061	0.258
-591.967	555.832	-0.034	0.082
-590.952	-128.388	0.152	-0.021
-589.938	800.000	-0.054	-0.162
-588.923	78.141	-0.095	-0.101
-587.909	5.059	0.122	-0.089
-586.894	-168.117	-0.160	-0.006
-585.879	70.106	-0.148	0.151
-584.865	-114.386	-0.225	-0.043
-583.850	-40.875	0.058	-0.030
-582.836	-200.000	0.040	0.276
-581.821	-73.161	0.060	0.022
-580.806	-108.284	-0.418	0.090
-579.792	125.958	0.134	0.169
-578.777	198.870	0.211	-0.321
-577.763	494.382	-0.093	-0.211
-576.748	-103.425	0.191	-0.045
-575.733	-37.771	-0.224	0.118
-574.719	265.045	-0.130	0.226
-573.704	11.222	-0.391	-0.298
-572.690	-74.664	-0.334	-0.119
-571.675	-30.490	-0.102	0.057
-570.661	54.924	-0.111	0.106
-569.646	-61.284	-0.208	-0.087
-568.631	-17.979	-0.187	-0.116
-567.617	292.194	-0.115	0.208
-566.602	197.203	-0.049	0.075
-565.588	412.183	-0.169	-0.357
-564.573	-104.280	0.183	-0.042
-563.558	800.000	-0.081	0.256
-562.544	33.628	-0.057	0.049
-561.529	6.768	-0.189	-0.139
-560.515	224.110	0.106	0.171
-559.500	15.323	0.149	0.116
-558.485	-130.779	-0.270	0.036
-557.471	-101.339	0.179	-0.043
-556.456	314.664	0.036	-0.068
-555.442	-108.604	0.261	0.056
-554.427	481.768	-0.121	0.272
-553.412	177.456	0.080	-0.115
-552.398	77.027	0.048	-0.050
-551.383	232.861	-0.172	-0.281
-550.369	-167.372	-0.295	0.012
-549.354	210.669	0.086	0.133
-548.339	-200.000	0.039	-0.183
-547.325	-52.900	-0.200	0.091
-546.310	356.955	-0.151	-0.299
-545.296	56.323	-0.161	-0.156
-544.281	-200.000	-0.007	-0.349
-543.266	-103.204	0.104	0.024
-542.252	38.715	0.088	0.078
-541.237	62.810	0.205	0.203
-540.223	91.713	-0.115	-0.128
-539.208	101.658	-0.052	-0.060
-538.193	-0.779	-0.222	0.156
-537.179	-124.858	0.172	0.026
-536.164	0.115	0.270	0.191
-535.150	148.477	-0.028	-0.037
-534.135	-73.704	0.222	0.080
-533.121	-126.669	-0.203	0.030
-532.106	-103.457	0.229	-0.053
-531.091	-119.644	-0.292	-0.050
-530.077	800.000	-0.012	-0.033
-529.062	800.000	0.102	-0.301
-528.048	22.175	0.144	0.117
-527.033	68.557	0.103	0.105
-526.018	800.000	0.041	-0.174
-525.004	-82.548	-0.170	0.055
-523.989	77.880	0.162	0.171
-522.975	367.733	-0.150	0.300
-521.960	-154.846	0.386	0.025
-520.945	100.614	0.029	-0.034
-519.931	60.717	0.084	0.083
-518.916	270.715	0.091	0.158
-517.902	215.364	-0.130	0.205
-516.887	-104.122	-0.309	-0.071
-515.872	-69.798	0.110	-0.042
-514.858	-153.839	-0.330	0.022
-513.843	-185.090	0.194	0.003
-512.829	-100.418	0.322	-0.079
-511.814	-200.000	-0.007	0.211
-510.799	-200.000	-0.052	0.271
-509.785	-70.293	0.045	-0.017
-508.770	-200.000	-0.070	-0.348
-507.756	-23.808	0.033	-0.019
-506.741	243.306	0.115	-0.191
-505.726	-200.000	0.065	-0.319
-504.712	132.615	-0.105	0.134
-503.697	-200.000	-0.023	-0.177
-502.683	800.000	0.158	0.481
-501.668	66.879	-0.313	0.315
-500.653	157.491	0.120	-0.164
-499.639	-200.000	0.060	-0.478
-498.624	-124.290	-0.053	-0.008
-497.610	-120.661	0.155	0.026
-496.595	20.945	-0.293	-0.236
-495.581	-23.632	-0.283	-0.168
-494.566	216.979	0.093	0.147
-493.551	776.233	0.058	0.158
-492.537	95.221	0.024	-0.027
-491.522	317.243	0.122	-0.228
-490.508	126.280	0.152	0.191
-489.493	-200.000	0.001	-0.197
-488.478	-134.192	-0.320	-0.039
-487.464	69.736	-0.090	0.092
-486.449	112.020	0.141	-0.168
-485.435	-200.000	-0.052	0.280
-484.420	86.904	0.206	0.226
-483.405	226.674	-0.153	-0.245
-482.391	-47.820	-0.133	-0.064
-481.376	-103.772	0.151	-0.035
-480.362	-106.922	-0.112	0.025
-479.347	31.161	0.246	0.209
-478.332	309.204	-0.131	-0.242
-477.318	370.004	-0.092	-0.184
-476.303	-38.687	-0.178	0.093
-475.289	-37.456	-0.184	0.097
-474.274	-15.237	0.348	0.220
-473.259	-153.427	-0.184	0.013
-472.245	303.007	-0.078	-0.142
-471.230	-0.856	0.318	0.223
-470.216	331.623	0.166	0.316
-469.201	278.898	0.128	-0.225
-468.186	-117.686	-0.253	-0.045
-467.172	-130.295	-0.113	-0.015
-466.157	-200.000	-0.042	0.184
-465.143	-43.924	0.115	-0.057
-464.128	-16.522	-0.120	-0.075
-463.113	-200.000	0.001	0.030
-462.099	112.803	0.064	-0.077
-461.084	181.915	0.080	0.116
-460.070	350.449	-0.123	-0.240
-459.055	-71.189	0.240	-0.089
-458.040	-77.187	-0.480	0.165
-457.026	743.710	-0.064	-0.170
-456.011	-7.092	-0.097	0.065
-454.997	-139.774	-0.495	0.052
-453.982	-20.284	-0.133	0.081
-452.968	42.735	-0.108	-0.097
-451.953	456.468	0.123	-0.271
-450.938	-200.000	-0.027	-0.181
-449.924	300.395	0.189	0.344
-448.909	-57.140	-0.156	-0.068
-447.895	86.595	0.113	-0.123
-446.880	-7.408	-0.241	-0.161
-445.865	800.000	0.017	-0.064
-444.851	145.015	-0.142	-0.187
-443.836	39.044	0.189	0.167
-442.822	-22.522	-0.192	0.115
-441.807	781.457	0.079	-0.214
-440.792	405.925	-0.097	-0.203
-439.778	-77.996	-0.073	0.025
-438.763	113.829	0.129	-0.154
-437.749	219.336	-0.151	-0.238
-436.734	800.000	0.026	-0.095
-435.719	225.391	0.238	-0.381
-434.705	-58.119	-0.115	0.049
-433.690	-161.247	0.049	-0.003
-432.676	27.576	0.061	0.051
-431.661	800.000	-0.081	-0.296
-430.646	0.335	-0.259	0.183
-429.632	3.722	0.264	0.190
-428.617	800.000	0.027	-0.113
-427.603	-200.000	0.017	0.286
-426.588	145.212	0.141	0.186
-425.573	92.550	0.278	-0.310
-424.559	-200.000	-0.011	-0.116
-423.544	-77.603	0.350	-0.120
-422.530	286.004	0.175	-0.312
-421.515	109.932	0.166	-0.197
-420.500	-99.740	-0.166	0.041
-419.486	-40.560	-0.166	0.085
-418.471	-160.045	0.321	0.017
-417.457	668.425	-0.085	0.217
-416.442	-112.868	0.130	-0.025
-415.428	-30.977	0.210	-0.117
-414.413	21.697	0.099	0.080
-413.398	800.000	-0.048	-0.165
-412.384	302.399	0.102	0.186
-411.369	-75.767	0.193	0.068
-410.355	-16.459	-0.178	-0.111
-409.340	189.172	-0.181	0.268
-408.325	-200.000	-0.089	0.000
-407.311	800.000	0.051	0.168
-406.296	-76.164	-0.011	-0.004
-405.282	800.000	-0.087	0.296
-404.267	8.584	-0.052	-0.039
-403.252	71.725	-0.036	-0.036
-402.238	387.006	0.087	0.178
-401.223	4.521	0.247	-0.179
-400.209	76.366	0.164	0.171
-399.194	-124.219	0.287	0.044
-398.179	267.455	-0.172	0.296
-397.165	-12.176	-0.067	-0.043
-396.150	434.776	0.137	-0.293
-395.136	-7.960	0.142	0.094
-394.121	92.796	-0.251	-0.280
-393.106	800.000	0.030	0.116
-392.092	293.629	-0.042	0.076
-391.077	-48.498	-0.074	0.035
-390.063	-102.896	0.314	-0.074
-389.048	-88.243	-0.305	0.090
-388.033	800.000	0.077	0.313
-387.019	-55.959	-0.365	-0.161
-386.004	-200.000	0.019	0.280
-384.990	39.004	0.139	0.123
-383.975	-54.118	0.304	0.136
-382.960	36.605	0.121	-0.106
-381.946	-200.000	0.027	0.431
-380.931	-17.534	0.136	0.085
-379.917	-96.595	-0.270	0.070
-378.902	800.000	-0.017	0.071
-377.888	-74.316	-0.250	0.089
-376.873	800.000	0.068	0.229
-375.858	-19.200	-0.189	0.116
-374.844	258.601	0.077	-0.131
-373.829	-151.502	-0.126	0.009
-372.815	-41.469	0.237	-0.120
-371.800	-200.000	0.054	-0.499
-370.785	-200.000	-0.013	0.365
-369.771	800.000	-0.082	-0.278
-368.756	800.000	0.056	0.173
-367.742	-200.000	0.028	0.167
-366.727	-60.114	0.346	0.145
-365.712	-200.000	0.012	0.161
-364.698	-150.962	-0.074	0.005
-363.683	-18.664	-0.189	0.116
-362.669	-39.651	-0.095	0.049
-361.654	-135.450	0.238	-0.028
-360.639	-200.000	0.005	0.258
-359.625	120.805	-0.261	0.319
-358.610	-27.732	0.108	-0.062
-357.596	-200.000	-0.003	-0.033
-356.581	248.571	0.128	-0.214
-355.566	-133.233	-0.172	-0.021
-354.552	153.514	-0.051	0.068
-353.537	742.259	-0.053	-0.140
-352.523	189.858	0.110	-0.162
-351.508	-107.779	-0.153	0.033
-350.493	-200.000	0.009	-0.327
-349.479	-127.651	0.296	0.042
-348.464	-84.989	-0.184	-0.057
-347.450	-200.000	0.019	-0.131
-346.435	-200.000	0.013	0.085
-345.420	204.951	0.211	0.322
-344.406	-9.440	-0.285	-0.187
-343.391	33.781	0.126	-0.108
-342.377	97.807	0.173	-0.196
-341.362	-97.791	-0.084	0.021
-340.348	-16.351	0.171	0.107
-339.333	-63.124	-0.082	0.033
-338.318	168.865	-0.155	0.217
-337.304	435.713	0.026	0.056
-336.289	-200.000	-0.025	-0.124
-335.275	391.565	-0.107	-0.219
-334.260	-12.297	0.213	-0.137
-333.245	61.403	-0.128	0.125
-332.231	800.000	-0.046	0.174
-331.216	189.683	-0.037	-0.055
-330.202	-27.710	-0.195	-0.111
-329.187	-40.312	0.292	0.150
-328.172	-37.280	-0.101	-0.053
-327.158	28.625	0.035	-0.029
-326.143	-93.025	0.233	0.064
-325.129	-59.683	-0.183	0.077
-324.114	-101.020	-0.109	-0.026
-323.099	110.543	-0.103	0.122
-322.085	800.000	0.088	-0.255
-321.070	-100.799	-0.329	0.080
-320.056	-154.374	0.110	-0.007
-319.041	448.702	-0.012	-0.025
-318.026	-7.192	0.278	-0.186
-317.012	213.851	-0.056	-0.087
-315.997	-200.000	0.012	0.187
-314.983	800.000	-0.095	0.298
-313.968	-108.111	-0.273	0.058
-312.953	-200.000	0.014	-0.073
-311.939	535.093	-0.103	0.241
-310.924	124.963	-0.108	-0.134
-309.910	17.291	0.140	-0.110
-308.895	-85.084	0.395	-0.122
-307.880	95.055	-0.059	-0.066
-306.866	-68.748	0.336	0.128
-305.851	-10.846	-0.207	0.134
-304.837	-200.000	-0.002	-0.302
-303.822	261.474	-0.045	0.077
-302.807	770.752	-0.065	-0.173
-301.793	-200.000	0.012	0.150
-300.778	-157.426	0.257	0.015
-299.764	-200.000	0.030	0.461
-298.749	800.000	-0.046	0.134
-297.735	-59.543	-0.158	0.067
-296.720	305.142	0.072	0.131
-295.705	800.000	0.090	0.355
-294.691	800.000	0.059	-0.166
-293.676	-195.391	-0.039	0.000
-292.662	161.476	-0.036	-0.049
-291.647	800.000	0.050	-0.211
-290.632	-86.029	0.215	-0.065
-289.618	800.000	-0.024	0.086
-288.603	426.149	0.073	0.155
-287.589	-33.200	0.120	0.065
-286.574	-31.887	-0.221	-0.122
-285.559	23.341	0.219	-0.177
-284.545	-34.539	0.234	0.126
-283.530	-147.965	0.519	0.042
-282.516	-200.000	-0.042	0.240
-281.501	-141.761	-0.182	-0.018
-280.486	150.369	-0.307	0.410
-279.472	-200.000	0.000	-0.147
-278.457	-200.000	0.064	-0.453
-277.443	-25.790	0.239	-0.138
-276.428	-59.531	0.123	0.052
-275.413	-82.439	-0.191	-0.061
-274.399	35.486	-0.145	-0.125
-273.384	446.734	-0.095	0.205
-272.370	637.423	0.087	0.216
-271.355	-200.000	0.018	0.111
-270.340	800.000	-0.090	0.287
-269.326	246.653	-0.103	-0.170
-268.311	-23.123	-0.389	-0.230
-267.297	-18.923	0.382	-0.233
-266.282	-97.281	0.509	0.130
-265.267	-200.000	-0.047	0.307
-264.253	-72.191	-0.164	-0.060
-263.238	494.442	-0.087	0.195
-262.224	223.906	0.051	-0.080
-261.209	-24.917	-0.235	0.137
-260.195	-96.029	0.268	0.070
-259.180	428.721	0.049	-0.104
-258.165	-152.963	-0.335	0.023
-257.151	-200.000	-0.022	-0.232
-256.136	1.737	0.178	-0.126
-255.122	-200.000	-0.021	-0.339
-254.107	211.047	0.077	0.118
-253.092	-95.586	-0.233	-0.061
-252.078	44.593	0.084	-0.076
-251.063	800.000	-0.129	0.394
-250.049	800.000	0.110	-0.403
-249.034	-81.638	0.206	-0.066
-248.019	63.788	-0.015	0.015
-247.005	-119.691	-0.277	-0.047
-245.990	448.909	0.026	-0.056
-244.976	-154.590	0.306	-0.020
-243.961	285.604	0.172	0.304
-242.946	800.000	0.090	-0.273
-241.932	372.725	-0.211	-0.420
-240.917	-200.000	0.011	-0.115
-239.903	-180.055	0.387	0.008
-238.888	2.046	0.163	-0.115
-237.873	386.564	-0.018	-0.036
-236.859	174.346	0.191	0.270
-235.844	545.451	0.155	0.362
-234.830	64.531	-0.152	0.150
-233.815	139.221	0.240	-0.309
-232.800	17.339	0.181	0.141
-231.786	-200.000	-0.006	0.072
-230.771	-41.625	-0.318	0.160
-229.757	-200.000	0.068	0.446
-228.742	233.644	-0.038	0.061
-227.727	-174.744	0.191	-0.005
-226.713	-108.617	0.180	-0.038
-225.698	-200.000	-0.008	-0.207
-224.684	185.708	0.157	-0.229
-223.669	-72.417	-0.447	-0.162
-222.655	26.903	-0.034	0.028
-221.640	65.055	0.111	-0.110
-220.625	-200.000	0.077	-0.482
-219.611	-100.310	-0.257	-0.062
-218.596	-59.946	-0.118	0.049
-217.582	-18.856	0.232	-0.142
-216.567	800.000	-0.058	-0.159
-215.552	-200.000	0.020	0.201
-214.538	-102.626	0.072	0.017
-213.523	-24.849	0.258	-0.150
-212.509	800.000	0.031	-0.108
-211.494	176.264	-0.061	0.087
-210.479	-29.002	-0.275	-0.155
-209.465	598.035	0.119	-0.289
-208.450	-170.216	0.142	-0.005
-207.436	283.353	0.068	0.120
-206.421	243.411	-0.037	-0.060
-205.406	-63.304	0.292	-0.118
-204.392	-162.697	0.083	0.004
-203.377	-64.209	0.435	-0.174
-202.363	-14.205	-0.128	0.081
-201.348	-150.219	-0.119	-0.009
-200.333	451.771	-0.117	-0.253
-199.319	-140.573	-0.272	0.028
-198.304	-38.376	-0.154	0.080
-197.290	-133.912	-0.083	-0.010
-196.275	-150.250	0.249	0.019
-195.260	-89.609	-0.108	0.031
-194.246	69.399	0.136	0.137
-193.231	86.798	0.124	0.134
-192.217	800.000	0.069	0.222
-191.202	-94.828	-0.128	-0.034
-190.187	-100.757	-0.102	-0.025
-189.173	-200.000	-0.014	0.092
-188.158	800.000	0.068	0.238
-187.144	-82.382	-0.366	0.116
-186.129	800.000	0.045	0.187
-185.114	81.833	-0.258	0.273
-184.100	99.692	0.156	-0.177
-183.085	800.000	-0.090	0.318
-182.071	-200.000	0.038	-0.350
-181.056	-200.000	0.032	0.142
-180.042	800.000	0.084	0.345
-179.027	-48.392	0.271	-0.127
-178.012	237.662	-0.092	-0.150
-176.998	-87.167	-0.158	-0.047
-175.983	-80.700	0.162	0.053
-174.969	122.737	0.080	0.097
-173.954	-55.451	0.159	-0.070
-172.939	-200.000	-0.031	-0.208
-171.925	160.125	-0.203	0.277
-170.910	133.360	-0.188	0.238
-169.896	800.000	0.145	-0.425
-168.881	800.000	-0.149	-0.475
-167.866	120.633	-0.139	-0.168
-166.852	634.300	0.009	-0.023
-165.837	800.000	-0.069	0.237
-164.823	800.000	0.038	0.126
-163.808	157.249	-0.227	0.307
-162.793	10.843	0.071	-0.053
-161.779	165.252	-0.168	-0.232
-160.764	-200.000	-0.009	0.130
-159.750	29.726	-0.163	0.135
-158.735	342.435	0.189	0.361
-157.720	-89.534	-0.239	-0.069
-156.706	-22.591	-0.238	0.140
-155.691	-200.000	-0.010	0.292
-154.677	-42.458	-0.243	-0.121
-153.662	11.620	0.211	0.158
-152.647	553.765	-0.079	0.185
-151.633	-200.000	-0.005	0.051
-150.618	792.208	0.180	0.485
-149.604	-4.791	-0.224	-0.151
-148.589	-80.340	0.536	-0.175
-147.574	108.981	-0.239	-0.279
-146.560	62.279	0.166	0.162
-145.545	-80.668	0.163	0.053
-144.531	-200.000	0.011	-0.154
-143.516	-57.832	0.207	-0.088
-142.502	216.717	0.034	0.053
-141.487	-200.000	0.060	0.297
-140.472	162.555	-0.065	0.089
-139.458	-155.850	0.145	0.009
-138.443	676.782	0.016	-0.041
-137.429	-149.515	0.272	0.021
-136.414	133.998	0.128	0.162
-135.399	76.634	0.033	-0.035
-134.385	23.380	-0.227	-0.182
-133.370	141.558	-0.212	0.274
-132.356	221.459	0.061	-0.096
-131.341	-76.543	0.055	0.019
-130.326	-26.711	0.223	0.128
-129.312	-73.787	-0.223	0.079
-128.297	-83.641	0.187	0.058
-127.283	259.325	-0.127	0.214
-126.268	291.377	-0.135	0.239
-125.253	-55.373	-0.373	0.163
-124.239	-151.184	0.187	0.014
-123.224	-70.408	-0.032	0.012
-122.210	-33.859	0.244	-0.131
-121.195	-129.483	0.199	0.027
-120.180	-78.391	-0.159	0.053
