DTS Sentinel unit serial number:	SN413079Multiplexer serial number:	ORYXHardware model number:	OX4-SRSoftware version number:	ORYX F/W v4.00 Oryx Data Collector v3.7.2.0data status	okinstallation	princeton_trtdifferential loss correction	single-endedforward channel	channel 3reverse channel	N/Adate	2019/09/15time	00:52:35forward acquisition time	60.00reverse acquisition time	0.00gamma	496.2192k internal	0.2320k external	0.2320temperature offset calibration	0.9966default loss term (dB/km)	0.3790temperature slope calibration	1.0000multiplexer offset coefficient	1.0000multiplexer slope coefficient	1.0000fibre end	0.00T internal ref (°C)	32.06T ext. ref 1 (°C)	4.56T ext. ref 2 (°C)	26.97length (m)	temperature (°C)	Stokes	anti-Stokes-747.200	-200.000	-0.047	0.473
-746.185	-51.214	-0.103	-0.049
-745.171	-85.553	0.159	-0.050
-744.156	-99.265	0.074	-0.019
-743.142	10.808	-0.086	0.066
-742.127	-155.589	-0.098	-0.006
-741.112	-41.502	0.254	0.132
-740.098	602.887	-0.150	-0.377
-739.083	173.070	-0.265	-0.386
-738.069	2.447	0.102	-0.075
-737.054	-43.946	-0.429	0.218
-736.039	465.652	-0.072	-0.162
-735.025	114.272	-0.073	0.089
-734.010	-4.300	0.231	0.162
-732.996	16.188	-0.163	-0.130
-731.981	-42.735	-0.065	-0.033
-730.966	-200.000	0.001	-0.152
-729.952	9.776	-0.064	-0.049
-728.937	627.843	0.156	-0.397
-727.923	-76.870	-0.231	0.082
-726.908	321.611	0.021	0.041
-725.894	202.646	-0.059	-0.093
-724.879	800.000	0.038	-0.130
-723.864	-134.852	0.235	-0.029
-722.850	20.254	0.354	0.289
-721.835	-90.721	-0.181	-0.053
-720.821	519.005	0.100	-0.236
-719.806	348.999	-0.226	-0.451
-718.791	-86.968	-0.426	0.131
-717.777	6.545	-0.127	-0.096
-716.762	81.618	-0.093	0.101
-715.748	85.954	0.074	-0.082
-714.733	-50.044	-0.155	-0.074
-713.718	138.466	-0.098	-0.130
-712.704	-200.000	0.071	0.325
-711.689	-26.881	0.143	0.084
-710.675	-200.000	-0.005	-0.060
-709.660	-94.950	-0.240	0.066
-708.645	800.000	0.020	-0.084
-707.631	62.911	-0.114	-0.116
-706.616	-182.716	-0.309	-0.006
-705.602	-145.031	-0.207	-0.019
-704.587	-200.000	0.046	-0.436
-703.572	-41.755	0.370	-0.192
-702.558	-109.854	0.230	-0.049
-701.543	251.892	0.132	-0.227
-700.529	750.883	-0.070	-0.191
-699.514	-72.709	0.183	0.068
-698.499	257.013	0.147	0.255
-697.485	190.527	0.114	-0.173
-696.470	-200.000	0.027	-0.281
-695.456	89.509	-0.206	-0.232
-694.441	110.110	-0.055	0.067
-693.426	-54.189	0.283	0.130
-692.412	-43.461	0.204	0.104
-691.397	-28.470	-0.268	0.156
-690.383	458.058	-0.110	0.246
-689.368	504.685	0.101	0.236
-688.354	-111.997	-0.285	-0.058
-687.339	-200.000	0.025	-0.362
-686.324	-200.000	-0.034	0.223
-685.310	153.613	-0.094	0.130
-684.295	221.279	0.145	0.235
-683.281	-50.261	-0.185	0.088
-682.266	149.371	0.109	0.149
-681.251	-200.000	-0.006	-0.201
-680.237	800.000	-0.074	-0.211
-679.222	47.489	-0.124	-0.116
-678.208	275.176	-0.141	-0.252
-677.193	-48.851	0.435	0.210
-676.178	160.211	0.198	-0.279
-675.164	800.000	-0.018	-0.067
-674.149	-80.224	-0.199	0.067
-673.135	-200.000	0.035	-0.175
-672.120	59.204	0.164	0.163
-671.105	-80.849	-0.093	-0.031
-670.091	-47.654	-0.182	-0.089
-669.076	118.430	-0.163	0.203
-668.062	-200.000	0.011	0.321
-667.047	25.411	0.137	0.115
-666.032	-95.370	0.273	0.074
-665.018	232.150	0.171	0.282
-664.003	-200.000	0.003	-0.354
-662.989	254.171	-0.180	-0.310
-661.974	800.000	0.077	0.288
-660.959	422.850	0.007	-0.016
-659.945	61.575	0.045	0.045
-658.930	800.000	-0.098	-0.287
-657.916	-60.415	-0.149	-0.064
-656.901	800.000	0.195	0.544
-655.886	56.459	0.206	0.202
-654.872	72.828	-0.283	-0.297
-653.857	-39.748	-0.221	-0.116
-652.843	147.465	-0.130	0.176
-651.828	-200.000	-0.050	-0.292
-650.814	27.781	0.272	-0.231
-649.799	-35.952	0.241	0.131
-648.784	138.414	-0.042	-0.055
-647.770	-138.622	0.236	0.026
-646.755	235.862	0.038	-0.063
-645.741	67.481	-0.089	0.091
-644.726	272.544	0.170	-0.302
-643.711	-200.000	-0.202	0.000
-642.697	-137.445	0.291	0.033
-641.682	800.000	0.027	-0.108
-640.668	79.382	0.080	-0.087
-639.653	237.644	0.137	-0.230
-638.638	-200.000	0.042	-0.188
-637.624	-149.626	0.254	0.020
-636.609	-88.275	-0.127	0.038
-635.595	-53.758	-0.153	0.070
-634.580	-120.144	-0.437	0.075
-633.565	16.334	0.103	-0.082
-632.551	160.877	-0.143	0.201
-631.536	-200.000	-0.085	0.424
-630.522	800.000	-0.050	-0.150
-629.507	-200.000	-0.014	0.309
-628.492	19.882	-0.101	-0.082
-627.478	-111.418	-0.169	-0.035
-626.463	-200.000	0.001	-0.104
-625.449	800.000	-0.066	0.194
-624.434	-200.000	-0.004	0.129
-623.419	-200.000	0.022	-0.159
-622.405	90.888	-0.336	-0.379
-621.390	-200.000	0.048	-0.446
-620.376	-177.741	-0.170	0.004
-619.361	149.555	-0.181	0.247
-618.346	-200.000	0.001	0.255
-617.332	-16.496	-0.251	0.160
-616.317	-93.371	-0.326	-0.091
-615.303	-91.376	0.149	0.043
-614.288	800.000	0.021	-0.072
-613.273	-102.381	-0.377	-0.091
-612.259	-23.315	-0.047	-0.028
-611.244	184.251	0.193	-0.288
-610.230	800.000	0.045	-0.139
-609.215	-143.002	-0.071	0.007
-608.201	230.740	0.044	-0.072
-607.186	-84.653	0.148	-0.047
-606.171	800.000	-0.013	0.037
-605.157	-200.000	0.035	-0.194
-604.142	-85.516	0.186	-0.058
-603.128	413.643	0.084	-0.181
-602.113	-57.679	-0.140	0.062
-601.098	-200.000	-0.007	0.259
-600.084	-66.856	-0.020	0.008
-599.069	52.667	-0.120	-0.115
-598.055	-117.162	-0.193	0.035
-597.040	126.639	0.169	0.215
-596.025	115.046	-0.239	0.293
-595.011	309.019	-0.042	0.078
-593.996	-200.000	0.005	-0.267
-592.982	-43.897	0.114	0.058
-591.967	335.012	-0.285	-0.555
-590.952	-49.340	-0.203	-0.097
-589.938	299.703	0.030	-0.055
-588.923	-164.320	-0.139	-0.006
-587.909	87.653	0.148	0.165
-586.894	381.657	0.028	-0.058
-585.879	-4.465	0.099	0.069
-584.865	-83.940	0.451	-0.144
-583.850	800.000	0.089	-0.247
-582.836	92.298	0.054	-0.061
-581.821	800.000	-0.035	-0.127
-580.806	515.764	-0.124	0.290
-579.792	-54.347	-0.386	0.176
-578.777	685.806	0.117	0.308
-577.763	-46.604	0.241	-0.119
-576.748	-120.703	-0.191	-0.032
-575.733	495.726	-0.108	-0.249
-574.719	84.627	0.229	0.252
-573.704	800.000	-0.030	0.099
-572.690	-200.000	0.006	-0.035
-571.675	35.135	-0.426	-0.375
-570.661	-29.936	-0.366	0.210
-569.646	-166.292	-0.423	0.018
-568.631	-200.000	0.029	0.149
-567.617	198.021	0.121	0.186
-566.602	-200.000	0.019	0.264
-565.588	-26.185	-0.219	0.129
-564.573	-8.481	-0.163	0.110
-563.558	-114.067	0.474	0.092
-562.544	117.306	-0.200	-0.247
-561.529	-37.723	0.358	-0.191
-560.515	17.939	0.113	0.090
-559.500	500.542	-0.151	-0.349
-558.485	800.000	0.042	-0.172
-557.471	199.501	0.098	0.151
-556.456	88.601	0.135	-0.151
-555.442	-200.000	-0.005	-0.104
-554.427	-100.938	-0.092	0.023
-553.412	-200.000	0.080	0.416
-552.398	72.408	-0.129	0.134
-551.383	-157.517	0.111	-0.007
-550.369	-200.000	0.007	-0.045
-549.354	-166.135	0.334	0.014
-548.339	-7.088	0.237	-0.162
-547.325	484.216	-0.192	-0.438
-546.310	-200.000	0.065	-0.384
-545.296	800.000	0.028	0.105
-544.281	-91.274	-0.225	-0.065
-543.266	256.199	-0.102	-0.176
-542.252	-200.000	-0.040	0.203
-541.237	506.737	0.117	0.273
-540.223	-42.324	0.102	0.052
-539.208	800.000	-0.018	-0.069
-538.193	-37.105	-0.169	-0.091
-537.179	573.944	0.046	0.111
-536.164	12.494	0.074	-0.057
-535.150	-48.549	0.192	-0.093
-534.135	800.000	-0.096	-0.293
-533.121	-200.000	-0.022	-0.183
-532.106	79.512	-0.085	-0.091
-531.091	505.552	0.016	-0.037
-530.077	246.037	0.093	-0.157
-529.062	184.048	-0.082	-0.122
-528.048	-200.000	0.035	0.243
-527.033	166.863	0.256	0.365
-526.018	-82.155	-0.432	0.141
-525.004	-163.677	0.145	-0.007
-523.989	195.269	-0.224	-0.341
-522.975	-36.508	-0.123	0.067
-521.960	742.382	-0.032	0.085
-520.945	-90.215	0.195	-0.057
-519.931	402.396	-0.096	-0.203
-518.916	10.891	0.149	0.114
-517.902	612.294	0.078	0.196
-516.887	-200.000	0.060	0.269
-515.872	-144.847	-0.090	0.008
-514.858	-200.000	0.013	0.069
-513.843	-174.126	0.202	0.006
-512.829	-116.724	-0.220	0.040
-511.814	144.239	-0.088	-0.118
-510.799	-117.797	-0.256	-0.046
-509.785	-23.303	-0.123	-0.074
-508.770	161.332	0.055	0.077
-507.756	-200.000	0.026	-0.160
-506.741	-200.000	0.045	-0.314
-505.726	-89.664	-0.190	-0.056
-504.712	-200.000	0.003	0.065
-503.697	-51.275	0.137	0.064
-502.683	68.786	0.263	0.270
-501.668	91.247	0.261	0.293
-500.653	23.385	0.252	-0.208
-499.639	-200.000	0.004	-0.269
-498.624	-200.000	0.020	-0.283
-497.610	6.766	0.219	0.163
-496.595	581.187	-0.268	0.657
-495.581	26.015	-0.178	0.148
-494.566	406.006	0.114	0.242
-493.551	243.161	-0.016	-0.027
-492.537	47.888	0.060	0.056
-491.522	-63.443	0.166	0.068
-490.508	-145.083	-0.045	0.004
-489.493	-89.175	0.111	0.033
-488.478	-189.355	-0.380	-0.004
-487.464	-200.000	-0.018	-0.113
-486.449	48.287	-0.211	0.198
-485.435	125.650	-0.153	0.193
-484.420	91.092	0.298	0.335
-483.405	-5.376	-0.181	-0.124
-482.391	141.614	-0.156	-0.207
-481.376	247.638	0.155	-0.263
-480.362	-139.176	-0.397	0.043
-479.347	340.607	-0.048	0.094
-478.332	-23.148	-0.044	-0.026
-477.318	800.000	0.147	0.469
-476.303	405.532	-0.140	-0.295
-475.289	-200.000	0.034	0.204
-474.274	-200.000	-0.046	0.353
-473.259	-97.347	-0.184	-0.048
-472.245	53.161	-0.053	-0.050
-471.230	64.695	0.118	-0.119
-470.216	289.168	0.059	0.107
-469.201	192.971	0.114	0.172
-468.186	71.444	0.059	-0.061
-467.172	47.141	0.233	-0.217
-466.157	-77.506	-0.144	0.050
-465.143	667.963	0.102	-0.265
-464.128	303.737	0.074	0.137
-463.113	20.493	-0.114	-0.092
-462.099	-46.448	0.112	-0.055
-461.084	91.870	0.176	0.198
-460.070	-154.868	-0.166	0.011
-459.055	34.901	-0.233	-0.204
-458.040	56.304	0.182	0.177
-457.026	-27.448	-0.246	-0.143
-456.011	-59.510	-0.219	-0.094
-454.997	640.955	0.045	-0.114
-453.982	800.000	0.079	-0.312
-452.968	-90.599	0.117	-0.034
-451.953	207.697	0.092	-0.144
-450.938	-200.000	-0.007	-0.119
-449.924	-112.423	0.090	0.018
-448.909	-88.050	0.406	0.122
-447.895	180.725	-0.176	0.259
-446.880	69.626	0.034	0.035
-445.865	800.000	0.035	0.101
-444.851	140.865	-0.147	0.193
-443.836	-127.474	-0.299	0.043
-442.822	148.548	0.191	-0.258
-441.807	-60.565	0.240	-0.102
-440.792	83.668	-0.128	-0.139
-439.778	-79.824	0.206	0.069
-438.763	800.000	0.019	0.056
-437.749	63.905	0.147	-0.147
-436.734	-118.437	-0.341	-0.060
-435.719	-62.942	-0.226	0.093
-434.705	744.647	0.119	0.321
-433.690	298.516	0.068	0.126
-432.676	735.329	0.029	0.079
-431.661	-83.281	0.014	-0.004
-430.646	611.331	-0.065	-0.162
-429.632	-200.000	-0.102	-0.513
-428.617	-142.608	0.112	0.011
-427.603	98.079	0.161	0.185
-426.588	40.477	0.195	0.175
-425.573	160.622	-0.174	-0.242
-424.559	307.556	0.102	-0.189
-423.544	-104.785	-0.194	0.044
-422.530	476.693	-0.078	-0.176
-421.515	-98.633	-0.192	-0.049
-420.500	-39.262	0.203	-0.107
-419.486	-200.000	0.062	-0.329
-418.471	800.000	-0.036	0.119
-417.457	800.000	-0.011	-0.047
-416.442	719.509	-0.110	0.293
-415.428	36.978	0.330	0.291
-414.413	334.486	-0.212	0.409
-413.398	36.011	-0.164	0.144
-412.384	-200.000	0.019	0.138
-411.369	236.647	0.143	0.236
-410.355	800.000	-0.090	0.328
-409.340	159.919	-0.282	-0.393
-408.325	800.000	0.037	-0.149
-407.311	0.679	-0.021	-0.015
-406.296	492.013	0.040	-0.092
-405.282	-200.000	0.009	-0.242
-404.267	-167.773	0.056	0.002
-403.252	-200.000	-0.009	0.057
-402.238	-65.354	0.492	0.198
-401.223	800.000	-0.030	0.100
-400.209	800.000	0.075	-0.222
-399.194	-128.600	0.211	-0.030
-398.179	-72.922	0.108	0.039
-397.165	-71.147	0.109	-0.041
-396.150	-200.000	0.031	0.154
-395.136	165.431	-0.166	0.234
-394.121	-72.913	0.067	0.025
-393.106	94.408	-0.112	0.126
-392.092	-80.231	-0.063	0.021
-391.077	800.000	-0.037	-0.149
-390.063	-135.767	0.328	0.039
-389.048	261.494	0.081	0.140
-388.033	-132.554	-0.302	0.039
-387.019	-124.783	0.190	0.029
-386.004	60.531	-0.213	0.211
-384.990	-1.331	-0.250	-0.176
-383.975	-200.000	-0.035	-0.167
-382.960	-200.000	0.042	-0.197
-381.946	138.994	-0.158	0.207
-380.931	-33.443	0.132	0.073
-379.917	47.367	-0.081	0.076
-378.902	-200.000	0.019	0.177
-377.888	-111.706	-0.074	-0.015
-376.873	800.000	0.066	0.247
-375.858	-200.000	0.038	0.288
-374.844	5.448	0.267	-0.197
-373.829	467.915	0.119	-0.265
-372.815	-124.734	0.439	0.068
-371.800	30.830	-0.138	-0.118
-370.785	-200.000	-0.016	0.146
-369.771	58.700	-0.138	-0.135
-368.756	-87.714	0.155	-0.046
-367.742	-110.318	-0.408	0.085
-366.727	-200.000	0.016	0.157
-365.712	236.473	-0.067	-0.110
-364.698	125.496	0.056	0.070
-363.683	-19.514	0.258	0.159
-362.669	255.638	-0.097	-0.165
-361.654	800.000	0.032	0.113
-360.639	-200.000	-0.010	-0.110
-359.625	-88.968	0.110	-0.033
-358.610	-116.652	0.349	-0.064
-357.596	-110.867	0.246	0.051
-356.581	127.103	0.022	-0.028
-355.566	676.681	-0.055	-0.143
-354.552	-76.351	0.189	0.066
-353.537	342.593	-0.141	-0.276
-352.523	213.389	-0.096	0.151
-351.508	-44.813	0.179	0.089
-350.493	-200.000	0.022	-0.211
-349.479	-23.916	0.172	0.103
-348.464	268.530	-0.083	0.145
-347.450	-151.384	-0.184	-0.014
-346.435	-102.728	-0.149	0.035
-345.420	151.094	-0.061	0.082
-344.406	203.627	0.126	-0.194
-343.391	338.108	-0.088	-0.171
-342.377	-173.957	-0.273	0.008
-341.362	116.688	0.087	0.106
-340.348	-154.832	-0.180	0.012
-339.333	-62.071	-0.012	0.005
-338.318	-159.161	0.087	0.005
-337.304	-7.618	0.124	0.083
-336.289	34.317	-0.133	-0.115
-335.275	-152.594	-0.114	0.008
-334.260	201.434	0.206	0.316
-333.245	-65.759	0.183	0.073
-332.231	220.919	-0.171	0.274
-331.216	570.544	0.144	0.348
-330.202	56.433	-0.162	-0.157
-329.187	-56.531	-0.115	0.051
-328.172	142.059	-0.222	0.293
-327.158	-165.619	-0.109	0.005
-326.143	362.552	0.224	0.447
-325.129	12.521	-0.175	0.134
-324.114	-166.598	0.405	0.017
-323.099	-200.000	-0.065	-0.289
-322.085	-200.000	-0.006	-0.232
-321.070	800.000	-0.040	-0.120
-320.056	-30.364	-0.388	-0.219
-319.041	-200.000	-0.017	-0.146
-318.026	67.722	0.220	0.223
-317.012	-50.160	-0.338	-0.159
-315.997	85.235	0.266	0.290
-314.983	-93.225	-0.231	-0.064
-313.968	-84.809	0.096	0.030
-312.953	280.463	-0.130	-0.232
-311.939	-83.574	-0.082	-0.026
-310.924	-200.000	-0.093	-0.499
-309.910	-140.801	0.171	0.017
-308.895	745.164	0.105	-0.280
-307.880	-70.734	-0.209	-0.078
-306.866	800.000	-0.151	0.436
-305.851	-44.464	0.088	0.044
-304.837	-124.068	-0.145	0.023
-303.822	25.568	-0.044	-0.037
-302.807	-59.045	0.262	-0.113
-301.793	-57.152	0.395	-0.173
-300.778	122.845	-0.090	0.112
-299.764	-152.093	-0.171	-0.012
-298.749	800.000	0.062	0.257
-297.735	300.817	-0.115	-0.211
-296.720	162.588	0.093	0.129
-295.705	-153.225	0.049	-0.003
-294.691	-60.062	0.081	0.035
-293.676	800.000	-0.026	0.098
-292.662	427.842	-0.143	-0.307
-291.647	59.930	-0.133	-0.130
-290.632	-178.655	0.161	0.004
-289.618	-54.967	-0.184	-0.082
-288.603	22.022	0.222	0.180
-287.589	-200.000	-0.009	0.409
-286.574	133.218	0.142	0.182
-285.559	36.491	-0.231	-0.203
-284.545	219.398	0.088	-0.140
-283.530	71.376	0.122	-0.126
-282.516	-99.054	-0.215	0.054
-281.501	65.181	0.118	0.119
-280.486	-128.120	0.301	-0.043
-279.472	136.823	0.169	-0.220
-278.457	-144.120	0.125	-0.012
-277.443	-200.000	-0.002	-0.096
-276.428	-110.898	-0.352	-0.072
-275.413	-175.819	0.157	-0.004
-274.399	-182.707	-0.147	0.003
-273.384	-200.000	-0.005	-0.171
-272.370	130.641	-0.074	-0.094
-271.355	-36.414	0.033	-0.018
-270.340	800.000	-0.029	0.113
-269.326	-66.480	-0.249	0.098
-268.311	-101.740	-0.207	-0.050
-267.297	8.704	-0.312	0.233
-266.282	-74.284	-0.330	-0.118
-265.267	320.247	0.067	0.125
-264.253	800.000	0.056	-0.238
-263.238	23.696	-0.180	-0.147
-262.224	86.228	-0.120	0.131
-261.209	800.000	0.058	-0.201
-260.195	190.711	0.262	0.391
-259.180	800.000	0.052	-0.147
-258.165	248.986	-0.016	0.027
-257.151	73.483	0.204	0.211
-256.136	354.560	-0.030	-0.059
-255.122	-91.411	-0.178	0.051
-254.107	-200.000	0.003	-0.167
-253.092	159.516	0.193	0.267
-252.078	23.204	0.080	-0.065
-251.063	-79.079	-0.103	0.035
-250.049	436.006	-0.053	-0.114
-249.034	-200.000	-0.010	-0.301
-248.019	-200.000	-0.007	-0.184
-247.005	-74.575	-0.316	-0.113
-245.990	-32.019	-0.184	-0.102
-244.976	15.306	-0.050	-0.039
-243.961	-3.771	-0.280	-0.193
-242.946	96.933	-0.075	-0.085
-241.932	418.616	-0.147	0.311
-240.917	-159.464	0.145	-0.008
-239.903	-134.743	0.124	0.015
-238.888	-50.301	-0.143	-0.067
-237.873	-64.602	-0.553	0.222
-236.859	198.930	-0.171	0.259
-235.844	-126.612	-0.040	0.006
-234.830	158.361	0.081	0.112
-233.815	77.352	0.190	-0.200
-232.800	-67.153	0.148	0.058
-231.786	524.457	0.093	0.216
-230.771	-200.000	0.016	-0.161
-229.757	-47.681	0.063	0.030
-228.742	0.611	0.191	0.136
-227.727	-200.000	-0.001	0.115
-226.713	-73.751	0.094	0.034
-225.698	-200.000	0.034	0.256
-224.684	337.115	-0.064	0.123
-223.669	189.082	-0.062	-0.092
-222.655	192.134	-0.212	-0.317
-221.640	-100.084	-0.089	0.022
-220.625	2.758	0.196	-0.141
-219.611	528.962	-0.050	0.116
-218.596	-126.725	-0.229	-0.034
-217.582	-135.896	0.209	-0.024
-216.567	800.000	0.028	0.111
-215.552	-88.170	0.340	-0.101
-214.538	-128.678	-0.113	0.016
-213.523	-71.262	0.172	0.064
-212.509	-13.317	-0.135	-0.087
-211.494	-200.000	-0.010	-0.125
-210.479	800.000	-0.052	0.202
-209.465	-18.323	0.108	0.067
-208.450	800.000	-0.083	0.237
-207.436	30.249	-0.170	-0.144
-206.421	-75.717	0.257	0.090
-205.406	-132.979	-0.167	0.021
-204.392	-61.871	0.087	-0.036
-203.377	800.000	0.075	-0.260
-202.363	18.529	-0.335	0.265
-201.348	-52.194	0.141	-0.065
-200.333	128.283	0.213	-0.268
-199.319	-6.433	0.284	-0.191
-198.304	720.684	0.047	0.124
-197.290	-132.129	0.251	-0.032
-196.275	210.002	0.165	0.256
-195.260	-89.813	-0.047	-0.014
-194.246	-43.156	0.136	-0.068
-193.231	-65.848	0.459	0.181
-192.217	-79.698	0.272	0.091
-191.202	65.341	0.031	-0.031
-190.187	184.291	0.092	0.134
-189.173	-200.000	-0.025	0.145
-188.158	335.602	0.031	0.059
-187.144	498.692	0.110	-0.250
-186.129	-200.000	0.008	-0.059
-185.114	404.592	0.123	0.256
-184.100	13.629	-0.226	0.173
-183.085	-97.582	-0.060	-0.015
-182.071	523.796	0.044	-0.102
-181.056	-33.890	0.137	0.075
-180.042	560.572	-0.026	-0.061
-179.027	-4.501	0.286	0.196
-178.012	-200.000	-0.000	0.213
-176.998	800.000	-0.049	-0.196
-175.983	287.889	0.128	-0.229
-174.969	-26.740	-0.211	-0.122
-173.954	-71.996	0.182	-0.067
-172.939	3.090	0.325	-0.234
-171.925	800.000	-0.057	0.163
-170.910	-55.562	0.109	0.048
-169.896	493.920	-0.057	0.129
-168.881	-161.633	-0.252	0.013
-167.866	128.993	0.053	0.067
-166.852	-97.029	-0.022	0.006
-165.837	-14.674	-0.093	-0.059
-164.823	-200.000	0.387	0.001
-163.808	-200.000	0.059	-0.277
-162.793	-37.208	-0.320	-0.169
-161.779	-193.294	0.391	0.003
-160.764	800.000	-0.141	-0.430
-159.750	96.928	-0.108	-0.123
-158.735	-37.493	0.162	-0.085
-157.720	-127.901	0.241	-0.034
-156.706	39.514	-0.152	0.134
-155.691	69.505	0.172	-0.175
-154.677	170.307	-0.054	0.076
-153.662	-51.629	-0.063	0.029
-152.647	107.756	-0.103	0.121
-151.633	-119.747	0.085	-0.014
-150.618	38.820	0.173	0.152
-149.604	-200.000	0.004	-0.155
-148.589	319.362	0.159	-0.298
-147.574	800.000	0.061	-0.169
-146.560	624.034	-0.086	-0.214
-145.545	6.242	-0.183	-0.134
-144.531	-123.705	-0.033	-0.005
-143.516	-50.790	-0.118	0.055
-142.502	-147.303	-0.136	-0.011
-141.487	119.697	0.074	-0.091
-140.472	-20.876	-0.165	-0.100
-139.458	-70.687	0.194	-0.072
-138.443	50.292	0.011	-0.010
-137.429	213.005	0.067	0.104
-136.414	39.070	0.039	-0.034
-135.399	17.774	-0.102	0.080
-134.385	-200.000	0.013	0.209
-133.370	-200.000	-0.023	0.204
-132.356	-200.000	0.036	0.216
-131.341	-72.224	-0.199	0.073
-130.326	-48.132	0.122	0.058
-129.312	-87.432	-0.117	0.035
-128.297	64.578	0.096	0.095
-127.283	180.035	0.053	0.077
-126.268	637.565	0.082	0.206
-125.253	-45.873	0.186	0.091
-124.239	-53.787	0.302	-0.136
-123.224	-117.876	-0.194	0.034
-122.210	-200.000	-0.029	-0.153
-121.195	279.573	-0.166	0.292
-120.180	-53.748	-0.151	0.068
