DTS Sentinel unit serial number:	SN413079Multiplexer serial number:	ORYXHardware model number:	OX4-SRSoftware version number:	ORYX F/W v4.00 Oryx Data Collector v3.7.2.0data status	okinstallation	princeton_trtdifferential loss correction	single-endedforward channel	channel 3reverse channel	N/Adate	2019/09/14time	04:32:34forward acquisition time	60.00reverse acquisition time	0.00gamma	496.2192k internal	0.2338k external	0.2338temperature offset calibration	1.0056default loss term (dB/km)	0.3790temperature slope calibration	1.0000multiplexer offset coefficient	1.0000multiplexer slope coefficient	1.0000fibre end	0.00T internal ref (°C)	26.75T ext. ref 1 (°C)	3.35T ext. ref 2 (°C)	21.99length (m)	temperature (°C)	Stokes	anti-Stokes-747.200	-91.954	0.310	-0.088
-746.185	-12.063	-0.400	0.263
-745.171	9.314	0.155	0.118
-744.156	752.760	-0.106	0.286
-743.142	-200.000	0.073	-0.324
-742.127	676.831	-0.118	0.308
-741.112	63.345	-0.245	-0.247
-740.098	800.000	0.098	0.280
-739.083	-200.000	-0.026	0.228
-738.069	41.256	-0.124	0.112
-737.054	-92.433	0.166	-0.047
-736.039	163.472	-0.259	-0.365
-735.025	-200.000	0.035	0.228
-734.010	173.060	-0.238	-0.345
-732.996	800.000	0.018	0.052
-731.981	-84.296	-0.294	-0.093
-730.966	36.729	0.136	0.121
-729.952	90.928	-0.280	-0.315
-728.937	-155.132	-0.404	-0.027
-727.923	197.973	0.019	0.030
-726.908	37.650	0.152	0.135
-725.894	-200.000	0.025	0.203
-724.879	116.376	-0.213	0.262
-723.864	-165.755	0.096	-0.004
-722.850	27.866	-0.192	-0.162
-721.835	702.731	0.010	-0.027
-720.821	56.662	-0.086	0.084
-719.806	-144.078	-0.077	0.007
-718.791	-4.815	-0.095	-0.066
-717.777	-58.297	0.332	-0.145
-716.762	257.999	-0.237	-0.410
-715.748	-59.561	0.115	-0.050
-714.733	-67.081	-0.151	-0.060
-713.718	36.060	0.217	-0.191
-712.704	147.053	-0.149	0.201
-711.689	138.137	0.215	-0.283
-710.675	-132.113	-0.094	-0.012
-709.660	47.161	-0.169	-0.158
-708.645	345.877	-0.160	0.316
-707.631	-5.262	0.225	-0.155
-706.616	0.550	-0.053	-0.038
-705.602	108.678	-0.086	-0.103
-704.587	285.041	-0.112	-0.203
-703.572	-101.639	-0.168	-0.041
-702.558	250.524	0.110	-0.187
-701.543	423.772	0.028	0.060
-700.529	-156.576	-0.122	0.008
-699.514	12.661	0.119	0.092
-698.499	101.691	0.175	0.205
-697.485	37.558	0.061	-0.054
-696.470	-73.691	-0.208	-0.076
-695.456	414.426	0.047	0.100
-694.441	15.584	0.069	-0.054
-693.426	467.218	-0.069	-0.155
-692.412	13.905	-0.129	-0.100
-691.397	122.948	-0.090	-0.112
-690.383	463.038	-0.170	0.380
-689.368	-125.436	0.153	0.023
-688.354	-32.463	0.184	0.103
-687.339	-24.687	-0.263	-0.156
-686.324	406.171	0.038	0.080
-685.310	-44.075	-0.322	-0.162
-684.295	98.823	0.138	0.159
-683.281	167.159	-0.013	-0.018
-682.266	-25.831	0.143	0.085
-681.251	-62.784	0.117	-0.048
-680.237	-200.000	-0.008	-0.066
-679.222	66.137	0.198	-0.201
-678.208	791.904	-0.089	-0.246
-677.193	800.000	0.021	-0.062
-676.178	31.243	0.397	-0.341
-675.164	4.238	0.272	-0.200
-674.149	-161.924	0.125	-0.006
-673.135	-87.364	-0.196	-0.059
-672.120	152.397	0.008	-0.011
-671.105	-30.032	-0.266	-0.151
-670.091	-200.000	0.012	-0.217
-669.076	608.979	-0.112	-0.280
-668.062	361.094	-0.061	-0.122
-667.047	168.930	-0.112	-0.160
-666.032	-70.399	-0.206	-0.078
-665.018	-84.325	0.215	-0.068
-664.003	-200.000	-0.039	0.195
-662.989	85.830	0.168	-0.185
-661.974	3.274	0.151	-0.110
-660.959	800.000	-0.086	0.284
-659.945	164.625	-0.244	0.345
-658.930	16.080	0.217	-0.171
-657.916	-169.627	0.387	-0.014
-656.901	-199.827	0.117	-0.001
-655.886	-170.618	-0.386	0.013
-654.872	81.471	0.207	0.224
-653.857	-62.141	-0.192	0.080
-652.843	-157.358	-0.256	-0.015
-651.828	103.862	-0.360	-0.423
-650.814	-163.766	-0.123	0.006
-649.799	-200.000	-0.020	0.104
-648.784	-9.740	0.279	0.186
-647.770	-79.215	-0.056	0.019
-646.755	43.672	-0.273	-0.249
-645.741	-89.950	-0.499	0.146
-644.726	-35.984	0.470	-0.254
-643.711	800.000	-0.057	-0.214
-642.697	187.773	0.105	-0.157
-641.682	64.027	-0.302	0.304
-640.668	-30.224	-0.284	-0.161
-639.653	-135.019	-0.174	-0.021
-638.638	800.000	0.053	0.177
-637.624	-36.426	-0.449	0.242
-636.609	-50.334	-0.028	-0.013
-635.595	-200.000	-0.024	0.120
-634.580	800.000	0.102	0.311
-633.565	-28.954	-0.145	-0.083
-632.551	800.000	0.058	0.212
-631.536	-200.000	0.162	-0.000
-630.522	800.000	0.099	0.333
-629.507	186.254	0.108	-0.160
-628.492	-25.766	-0.269	-0.158
-627.478	-108.858	0.236	0.050
-626.463	33.808	-0.140	0.122
-625.449	-200.000	0.032	-0.289
-624.434	-55.992	-0.275	-0.123
-623.419	-169.533	-0.319	0.012
-622.405	-55.259	-0.123	-0.055
-621.390	30.392	0.097	-0.083
-620.376	611.919	-0.102	0.256
-619.361	131.863	0.107	-0.137
-618.346	-45.507	0.220	-0.109
-617.332	800.000	-0.024	-0.089
-616.317	-192.029	-0.262	0.003
-615.303	-75.778	0.300	0.106
-614.288	-151.231	0.341	0.026
-613.273	18.324	0.134	-0.107
-612.259	-125.206	-0.062	-0.009
-611.244	-200.000	-0.002	-0.056
-610.230	69.405	-0.201	0.207
-609.215	390.963	0.192	-0.398
-608.201	127.399	0.145	-0.183
-607.186	800.000	-0.070	0.248
-606.171	800.000	-0.035	0.114
-605.157	-94.118	-0.383	-0.105
-604.142	-35.815	-0.087	0.047
-603.128	51.834	0.068	-0.065
-602.113	53.900	0.372	0.356
-601.098	-70.455	0.073	0.028
-600.084	-200.000	-0.063	0.335
-599.069	-200.000	-0.072	-0.327
-598.055	800.000	-0.056	0.218
-597.040	-200.000	0.003	-0.096
-596.025	198.102	0.095	-0.144
-595.011	77.438	0.213	0.226
-593.996	8.780	0.308	-0.232
-592.982	-114.120	-0.173	0.033
-591.967	-88.391	0.050	-0.015
-590.952	-200.000	-0.001	-0.152
-589.938	-31.578	-0.208	-0.117
-588.923	-65.289	0.226	-0.091
-587.909	568.613	-0.098	-0.238
-586.894	-200.000	-0.007	0.069
-585.879	-200.000	0.033	-0.214
-584.865	-7.991	0.189	-0.127
-583.850	-79.670	0.163	0.055
-582.836	-200.000	0.069	0.376
-581.821	-127.012	0.179	0.026
-580.806	800.000	0.015	0.051
-579.792	-200.000	-0.060	-0.478
-578.777	-36.172	-0.186	-0.100
-577.763	1.106	-0.046	0.033
-576.748	37.899	0.240	0.213
-575.733	312.391	-0.078	0.145
-574.719	-200.000	-0.030	0.157
-573.704	187.512	0.243	-0.362
-572.690	-93.720	0.103	0.028
-571.675	200.152	-0.030	-0.046
-570.661	168.975	-0.229	0.325
-569.646	476.209	-0.052	0.116
-568.631	-114.388	-0.096	-0.018
-567.617	-15.591	0.311	0.198
-566.602	249.960	0.044	-0.074
-565.588	-15.460	-0.291	0.185
-564.573	-200.000	0.059	0.268
-563.558	670.368	0.135	-0.347
-562.544	39.180	0.050	0.044
-561.529	90.039	0.176	-0.195
-560.515	-89.226	-0.121	-0.036
-559.500	-130.960	0.159	-0.021
-558.485	800.000	-0.087	0.242
-557.471	471.326	0.238	-0.534
-556.456	-101.507	-0.298	0.072
-555.442	9.144	0.217	0.164
-554.427	-200.000	0.045	-0.252
-553.412	-166.603	-0.104	0.004
-552.398	-82.038	0.330	-0.107
-551.383	227.463	-0.135	-0.218
-550.369	210.529	-0.139	0.217
-549.354	-73.605	0.480	-0.174
-548.339	-200.000	-0.044	0.258
-547.325	51.469	-0.343	0.325
-546.310	-200.000	0.035	0.205
-545.296	-70.773	0.131	0.049
-544.281	-121.835	-0.083	-0.014
-543.266	-200.000	-0.021	0.148
-542.252	106.892	-0.108	-0.127
-541.237	-126.575	-0.246	0.036
-540.223	-15.270	-0.222	0.142
-539.208	-200.000	0.017	-0.213
-538.193	364.890	0.101	0.202
-537.179	82.566	-0.129	0.139
-536.164	501.889	0.070	-0.160
-535.150	21.710	0.130	0.105
-534.135	800.000	-0.088	-0.275
-533.121	-122.878	-0.381	-0.061
-532.106	-200.000	-0.263	-0.001
-531.091	-98.413	-0.163	-0.042
-530.077	69.985	-0.022	0.022
-529.062	-101.390	-0.127	0.031
-528.048	-200.000	-0.018	0.173
-527.033	-200.000	-0.065	-0.309
-526.018	-200.000	0.002	-0.095
-525.004	67.452	-0.203	-0.206
-523.989	-29.547	-0.288	-0.164
-522.975	302.493	0.085	0.156
-521.960	25.849	-0.235	0.195
-520.945	-91.762	0.027	0.008
-519.931	206.345	0.135	-0.208
-518.916	-200.000	-0.049	-0.298
-517.902	-188.965	-0.374	0.004
-516.887	534.855	-0.087	0.206
-515.872	288.082	0.222	-0.399
-514.858	108.656	-0.090	0.107
-513.843	-22.785	-0.093	-0.056
-512.829	517.483	-0.070	-0.164
-511.814	73.486	-0.271	-0.282
-510.799	-200.000	-0.018	-0.418
-509.785	-200.000	-0.048	0.227
-508.770	-136.795	0.133	-0.015
-507.756	179.668	0.044	-0.063
-506.741	800.000	0.068	-0.215
-505.726	216.932	-0.222	-0.352
-504.712	329.333	0.064	0.122
-503.697	561.717	0.137	0.330
-502.683	2.820	-0.132	0.095
-501.668	-68.745	-0.335	-0.129
-500.653	326.322	-0.057	-0.109
-499.639	-200.000	-0.036	-0.199
-498.624	-200.000	-0.001	-0.210
-497.610	-40.529	-0.145	-0.075
-496.595	-200.000	0.008	0.189
-495.581	-162.191	-0.408	-0.020
-494.566	296.618	-0.163	0.297
-493.551	-54.985	0.225	0.101
-492.537	-29.291	-0.119	0.067
-491.522	-15.178	-0.454	0.289
-490.508	-104.228	0.072	0.017
-489.493	2.974	-0.102	0.074
-488.478	-200.000	-0.004	-0.031
-487.464	-3.899	0.132	-0.091
-486.449	-58.656	-0.074	-0.032
-485.435	-92.024	0.119	0.034
-484.420	38.529	-0.171	-0.151
-483.405	314.708	-0.119	0.223
-482.391	224.796	0.108	-0.173
-481.376	-200.000	0.003	0.023
-480.362	-78.056	0.127	-0.043
-479.347	105.358	-0.016	-0.018
-478.332	-165.178	-0.429	0.019
-477.318	-200.000	-0.017	-0.101
-476.303	-50.680	0.343	0.160
-475.289	94.959	0.229	0.259
-474.274	-14.837	0.183	0.117
-473.259	800.000	-0.086	0.240
-472.245	-42.067	-0.304	0.155
-471.230	800.000	-0.056	0.201
-470.216	-200.000	-0.048	0.217
-469.201	-200.000	0.044	0.270
-468.186	66.596	0.130	0.131
-467.172	-6.391	-0.115	0.078
-466.157	-15.727	0.129	0.081
-465.143	-200.000	-0.047	-0.367
-464.128	622.649	0.112	-0.281
-463.113	48.699	0.120	-0.112
-462.099	800.000	-0.058	-0.222
-461.084	19.356	0.248	-0.198
-460.070	800.000	-0.022	0.067
-459.055	-16.658	0.075	-0.047
-458.040	-103.566	-0.414	-0.097
-457.026	-81.366	-0.175	-0.057
-456.011	-77.539	-0.182	-0.063
-454.997	498.215	-0.077	-0.176
-453.982	249.027	0.136	-0.228
-452.968	-2.937	-0.246	0.171
-451.953	-31.532	-0.227	-0.127
-450.938	-74.809	0.141	0.050
-449.924	-51.681	0.165	0.076
-448.909	-200.000	0.001	0.108
-447.895	27.517	-0.182	0.152
-446.880	800.000	0.038	-0.136
-445.865	-13.282	0.118	-0.076
-444.851	413.280	0.087	-0.184
-443.836	510.727	-0.169	0.390
-442.822	36.432	0.317	-0.277
-441.807	-195.359	0.141	0.001
-440.792	-100.652	0.147	-0.036
-439.778	183.543	0.058	0.085
-438.763	26.034	-0.151	-0.125
-437.749	236.499	-0.077	-0.126
-436.734	-93.737	-0.315	0.086
-435.719	168.636	0.296	-0.418
-434.705	-129.642	0.274	0.038
-433.690	-200.000	0.006	-0.049
-432.676	800.000	-0.039	0.145
-431.661	-177.950	-0.038	0.001
-430.646	171.031	-0.133	0.190
-429.632	800.000	-0.132	0.400
-428.617	-200.000	0.070	-0.308
-427.603	-200.000	0.011	-0.355
-426.588	800.000	0.073	0.209
-425.573	115.986	0.176	0.213
-424.559	395.449	0.118	0.245
-423.544	96.679	-0.162	0.184
-422.530	16.768	0.128	-0.100
-421.515	662.570	-0.071	0.180
-420.500	249.143	-0.030	-0.050
-419.486	-106.116	0.259	-0.058
-418.471	-143.415	-0.150	-0.014
-417.457	-61.704	0.324	0.135
-416.442	-200.000	0.021	0.100
-415.428	-98.992	-0.237	-0.059
-414.413	48.307	0.091	0.084
-413.398	-12.887	-0.235	0.152
-412.384	-89.254	-0.200	0.058
-411.369	171.951	0.209	-0.298
-410.355	-119.140	-0.441	0.076
-409.340	-66.232	-0.146	-0.058
-408.325	101.794	0.313	0.361
-407.311	-200.000	0.159	0.001
-406.296	533.622	0.036	-0.085
-405.282	43.764	-0.315	0.286
-404.267	633.808	0.089	0.224
-403.252	-181.308	0.463	-0.009
-402.238	-150.004	0.139	0.011
-401.223	-32.930	0.377	-0.207
-400.209	562.354	0.103	0.247
-399.194	27.138	0.221	0.184
-398.179	800.000	-0.095	-0.267
-397.165	82.438	0.063	0.067
-396.150	63.052	0.297	-0.294
-395.136	-33.412	-0.144	-0.079
-394.121	-200.000	-0.000	0.124
-393.106	7.044	0.244	0.180
-392.092	-174.585	-0.311	0.009
-391.077	391.901	-0.068	0.140
-390.063	-66.295	0.277	0.109
-389.048	12.397	-0.228	-0.174
-388.033	244.107	-0.033	-0.055
-387.019	-21.549	0.041	0.024
-386.004	800.000	-0.012	-0.038
-384.990	-20.179	-0.143	-0.087
-383.975	89.150	-0.092	-0.101
-382.960	-113.455	-0.042	-0.008
-381.946	-146.020	0.423	-0.037
-380.931	-200.000	0.056	0.267
-379.917	-200.000	-0.025	-0.334
-378.902	47.918	-0.040	0.037
-377.888	22.782	-0.134	-0.108
-376.873	-51.065	0.154	0.071
-375.858	800.000	-0.081	0.223
-374.844	665.209	-0.067	-0.172
-373.829	-200.000	-0.058	0.415
-372.815	800.000	-0.037	-0.134
-371.800	509.044	0.060	-0.138
-370.785	-10.836	0.118	-0.077
-369.771	238.558	-0.052	-0.085
-368.756	-159.164	0.216	0.012
-367.742	150.276	0.140	-0.187
-366.727	428.828	0.113	0.241
-365.712	-40.533	0.038	-0.019
-364.698	800.000	0.029	0.117
-363.683	-115.015	0.165	0.031
-362.669	-65.519	-0.278	0.110
-361.654	-72.332	0.117	-0.043
-360.639	-36.163	-0.082	-0.044
-359.625	-200.000	0.050	-0.244
-358.610	-3.389	-0.270	0.186
-357.596	66.811	-0.140	0.141
-356.581	-168.613	0.150	0.006
-355.566	-63.745	0.173	-0.070
-354.552	-44.914	-0.152	0.075
-353.537	579.030	0.102	-0.247
-352.523	124.774	-0.125	-0.156
-351.508	-131.447	0.149	0.019
-350.493	-71.357	0.367	-0.136
-349.479	122.889	0.135	-0.167
-348.464	-186.589	0.180	-0.003
-347.450	115.918	0.077	-0.093
-346.435	193.588	-0.024	0.035
-345.420	-189.477	-0.267	-0.003
-344.406	184.303	-0.191	-0.279
-343.391	-200.000	-0.009	0.299
-342.377	497.628	-0.010	-0.022
-341.362	639.470	-0.123	0.310
-340.348	425.289	-0.038	0.082
-339.333	-179.892	0.233	0.005
-338.318	-59.185	0.257	-0.109
-337.304	-200.000	0.027	0.268
-336.289	393.207	-0.147	0.303
-335.275	-50.512	-0.224	0.104
-334.260	-95.842	0.130	-0.034
-333.245	-58.205	-0.200	0.086
-332.231	146.661	0.219	-0.291
-331.216	-60.283	0.132	-0.055
-330.202	15.471	0.398	0.309
-329.187	-200.000	0.002	-0.285
-328.172	-45.274	0.041	0.020
-327.158	-200.000	0.004	0.048
-326.143	-62.582	0.381	0.156
-325.129	76.542	0.076	-0.080
-324.114	143.741	-0.078	0.103
-323.099	107.923	-0.072	-0.084
-322.085	-25.030	0.189	-0.110
-321.070	18.317	-0.108	0.085
-320.056	208.320	0.167	-0.258
-319.041	741.964	-0.086	-0.229
-318.026	-10.986	0.092	-0.060
-317.012	-200.000	0.024	-0.166
-315.997	55.620	-0.295	0.282
-314.983	368.242	0.165	-0.329
-313.968	-122.306	-0.223	-0.036
-312.953	510.650	0.117	0.269
-311.939	394.102	-0.027	0.055
-310.924	37.552	-0.217	-0.190
-309.910	-200.000	0.019	-0.201
-308.895	110.324	-0.061	-0.072
-307.880	-108.780	-0.224	0.047
-306.866	58.667	0.193	0.187
-305.851	105.989	-0.095	-0.111
-304.837	-18.073	-0.333	0.206
-303.822	-200.000	-0.017	-0.145
-302.807	800.000	0.058	0.196
-301.793	-62.320	-0.205	-0.084
-300.778	122.716	-0.089	0.109
-299.764	83.083	0.175	-0.188
-298.749	-32.156	-0.039	-0.022
-297.735	-47.340	-0.362	0.174
-296.720	-112.515	0.327	0.064
-295.705	125.818	-0.190	-0.236
-294.691	179.156	0.012	0.018
-293.676	213.242	-0.069	0.107
-292.662	800.000	-0.050	0.154
-291.647	-112.485	-0.101	-0.020
-290.632	42.599	0.199	-0.179
-289.618	104.195	-0.013	-0.016
-288.603	-42.934	0.297	0.149
-287.589	-33.107	-0.142	0.078
-286.574	-85.353	0.317	-0.098
-285.559	-188.869	-0.247	-0.003
-284.545	-27.399	0.087	0.050
-283.530	207.652	0.037	-0.057
-282.516	-112.103	0.158	0.031
-281.501	-194.162	0.073	-0.001
-280.486	-11.263	-0.110	0.072
-279.472	-200.000	-0.003	0.092
-278.457	-109.564	0.340	-0.071
-277.443	290.051	-0.108	-0.194
-276.428	-145.543	0.197	0.017
-275.413	-142.114	0.168	0.016
-274.399	189.331	-0.020	0.030
-273.384	-34.116	0.452	0.245
-272.370	60.163	0.249	0.243
-271.355	-200.000	-0.037	-0.160
-270.340	-100.529	-0.456	-0.111
-269.326	-95.699	-0.374	0.098
-268.311	-200.000	-0.053	0.346
-267.297	-21.530	0.062	-0.037
-266.282	-178.090	-0.246	-0.006
-265.267	757.499	0.121	0.323
-264.253	-135.342	0.238	-0.028
-263.238	125.048	0.052	0.065
-262.224	39.291	0.231	0.204
-261.209	146.730	-0.082	-0.108
-260.195	-200.000	-0.037	-0.197
-259.180	-130.223	-0.110	-0.015
-258.165	34.771	0.153	-0.131
-257.151	-102.351	0.178	0.042
-256.136	636.075	-0.039	-0.097
-255.122	-55.599	-0.162	-0.072
-254.107	279.111	0.142	-0.249
-253.092	-200.000	-0.028	-0.146
-252.078	-0.670	-0.228	0.159
-251.063	159.984	0.222	-0.305
-250.049	0.709	0.090	-0.063
-249.034	-64.065	0.062	-0.025
-248.019	-200.000	-0.037	0.249
-247.005	800.000	0.019	-0.060
-245.990	434.216	0.273	0.584
-244.976	-125.120	-0.137	-0.021
-243.961	-200.000	0.029	-0.193
-242.946	-28.596	-0.340	-0.193
-241.932	-1.475	-0.098	-0.068
-240.917	190.897	-0.191	0.282
-239.903	-121.731	-0.260	0.042
-238.888	-200.000	0.022	-0.112
-237.873	-28.720	-0.368	0.208
-236.859	75.491	-0.221	0.229
-235.844	4.252	0.226	-0.163
-234.830	46.385	-0.136	0.124
-233.815	15.634	0.289	-0.223
-232.800	-11.972	0.095	0.061
-231.786	-102.940	-0.231	-0.054
-230.771	-188.835	-0.123	-0.001
-229.757	-120.320	0.406	0.068
-228.742	-200.000	0.037	0.267
-227.727	-132.737	0.120	-0.015
-226.713	-200.000	0.028	0.222
-225.698	39.584	-0.157	-0.139
-224.684	-111.842	-0.458	-0.091
-223.669	47.844	0.035	0.032
-222.655	800.000	-0.100	0.289
-221.640	800.000	0.039	0.126
-220.625	-5.315	0.398	-0.269
-219.611	-148.951	-0.186	0.015
-218.596	-112.991	0.364	-0.071
-217.582	56.082	0.436	0.416
-216.567	800.000	0.049	-0.198
-215.552	-200.000	0.031	-0.248
-214.538	-196.402	-0.132	-0.001
-213.523	-4.138	-0.435	-0.296
-212.509	-113.549	0.156	-0.030
-211.494	-47.064	-0.189	0.091
-210.479	-168.457	-0.418	0.016
-209.465	566.009	0.076	0.181
-208.450	291.354	0.036	-0.064
-207.436	-63.949	0.119	0.048
-206.421	-148.370	-0.061	-0.005
-205.406	-19.358	-0.056	-0.034
-204.392	746.924	-0.157	-0.417
-203.377	-200.000	0.110	-0.477
-202.363	-157.265	0.095	-0.006
-201.348	800.000	0.021	-0.076
-200.333	28.802	-0.173	0.144
-199.319	13.760	-0.200	-0.153
-198.304	759.836	0.133	0.355
-197.290	262.381	-0.039	-0.067
-196.275	-106.153	0.281	-0.062
-195.260	-123.770	0.436	0.068
-194.246	-94.413	0.069	0.019
-193.231	-124.245	0.369	0.057
-192.217	-53.729	-0.262	0.118
-191.202	-42.349	0.388	-0.195
-190.187	-126.167	0.082	-0.012
-189.173	65.157	0.180	-0.178
-188.158	-160.773	-0.100	-0.005
-187.144	-133.109	-0.207	-0.026
-186.129	-200.000	-0.037	0.197
-185.114	66.100	0.168	-0.167
-184.100	188.432	0.170	-0.249
-183.085	-121.384	-0.159	-0.026
-182.071	504.811	0.139	-0.317
-181.056	800.000	0.024	0.080
-180.042	165.365	-0.168	0.232
-179.027	-200.000	-0.018	-0.393
-178.012	-185.801	0.252	-0.004
-176.998	-200.000	0.034	-0.262
-175.983	632.176	0.008	-0.020
-174.969	-29.390	0.092	-0.052
-173.954	800.000	0.012	-0.045
-172.939	62.470	0.117	0.114
-171.925	-102.138	0.222	0.052
-170.910	12.128	-0.151	0.114
-169.896	-200.000	-0.025	0.420
-168.881	431.812	0.071	-0.150
-167.866	-164.718	0.191	-0.008
-166.852	-200.000	-0.017	0.075
-165.837	-200.000	0.039	0.254
-164.823	-24.877	0.090	0.052
-163.808	-16.083	0.191	-0.119
-162.793	248.113	-0.149	-0.247
-161.779	-195.913	-0.170	-0.001
-160.764	613.177	-0.135	-0.333
-159.750	238.367	-0.120	-0.195
-158.735	-62.953	-0.317	-0.129
-157.720	-101.410	0.171	-0.041
-156.706	800.000	0.093	0.263
-155.691	412.905	0.155	0.324
-154.677	-200.000	-0.001	0.448
-153.662	47.775	-0.122	0.112
-152.647	-200.000	-0.021	0.153
-151.633	-114.855	-0.205	0.038
-150.618	-56.145	-0.104	-0.045
-149.604	21.424	0.125	-0.099
-148.589	122.524	-0.064	0.078
-147.574	-200.000	0.003	-0.098
-146.560	-81.686	0.036	-0.012
-145.545	-200.000	-0.029	0.151
-144.531	-170.291	0.079	0.003
-143.516	-63.776	0.641	0.257
-142.502	-30.227	0.092	-0.051
-141.487	233.610	0.179	0.289
-140.472	-200.000	0.061	0.361
-139.458	198.670	-0.096	-0.143
-138.443	554.458	-0.165	-0.389
-137.429	800.000	0.074	0.251
-136.414	51.812	0.351	0.327
-135.399	-162.048	0.267	-0.013
-134.385	-200.000	0.079	0.375
-133.370	800.000	-0.104	0.322
-132.356	285.083	-0.088	-0.155
-131.341	-132.931	0.356	-0.044
-130.326	36.428	0.258	-0.223
-129.312	-62.301	0.226	0.092
-128.297	-200.000	0.052	-0.255
-127.283	369.340	0.078	-0.155
-126.268	-200.000	-0.005	0.231
-125.253	800.000	0.094	0.380
-124.239	-200.000	-0.041	-0.207
-123.224	159.625	-0.135	-0.184
-122.210	-33.700	-0.341	-0.184
