DTS Sentinel unit serial number:	SN413079Multiplexer serial number:	ORYXHardware model number:	OX4-SRSoftware version number:	ORYX F/W v4.00 Oryx Data Collector v3.7.2.0data status	okinstallation	princeton_trtdifferential loss correction	single-endedforward channel	channel 3reverse channel	N/Adate	2019/09/18time	03:20:34forward acquisition time	60.00reverse acquisition time	0.00gamma	496.2192k internal	0.2344k external	0.2344temperature offset calibration	0.9948default loss term (dB/km)	0.3790temperature slope calibration	1.0000multiplexer offset coefficient	1.0000multiplexer slope coefficient	1.0000fibre end	0.00T internal ref (°C)	22.75T ext. ref 1 (°C)	0.16T ext. ref 2 (°C)	16.91length (m)	temperature (°C)	Stokes	anti-Stokes-747.200	-89.747	-0.390	-0.114
-746.185	800.000	0.034	0.127
-745.171	623.567	0.073	0.183
-744.156	-35.294	0.112	0.061
-743.142	96.838	0.174	0.200
-742.127	18.135	-0.249	0.199
-741.112	284.626	-0.171	-0.308
-740.098	346.064	0.057	0.111
-739.083	20.227	-0.109	0.088
-738.069	-135.033	-0.121	-0.015
-737.054	325.042	0.060	-0.114
-736.039	-110.090	-0.303	-0.063
-735.025	800.000	-0.095	-0.377
-734.010	86.834	-0.103	0.114
-732.996	-169.483	-0.493	-0.018
-731.981	-128.835	-0.034	0.005
-730.966	-90.297	-0.382	-0.111
-729.952	-60.204	0.082	-0.035
-728.937	81.244	-0.148	0.159
-727.923	-32.802	-0.085	0.047
-726.908	95.008	-0.162	-0.185
-725.894	131.982	-0.192	-0.247
-724.879	152.784	0.223	-0.305
-723.864	-42.603	-0.160	-0.081
-722.850	21.128	0.196	-0.159
-721.835	800.000	0.080	-0.262
-720.821	785.518	0.028	-0.076
-719.806	-200.000	0.028	0.224
-718.791	-86.064	-0.182	-0.056
-717.777	-72.345	-0.420	0.155
-716.762	73.709	0.085	0.089
-715.748	190.332	-0.171	-0.257
-714.733	-200.000	-0.014	-0.187
-713.718	-140.172	-0.355	0.037
-712.704	-167.542	0.269	0.011
-711.689	-200.000	-0.008	-0.411
-710.675	-200.000	0.042	0.242
-709.660	-110.594	0.248	-0.051
-708.645	800.000	-0.035	0.102
-707.631	95.321	0.074	-0.084
-706.616	273.531	-0.123	0.217
-705.602	-114.208	0.436	0.084
-704.587	13.675	-0.067	-0.052
-703.572	130.147	0.152	0.195
-702.558	167.631	0.230	-0.327
-701.543	-145.630	0.037	0.003
-700.529	-28.329	-0.296	-0.170
-699.514	-71.769	-0.284	-0.106
-698.499	-9.182	-0.229	-0.153
-697.485	370.255	0.229	-0.463
-696.470	-11.327	-0.203	-0.134
-695.456	78.765	0.172	-0.184
-694.441	7.647	-0.126	0.094
-693.426	-200.000	-0.009	0.106
-692.412	-200.000	0.006	-0.331
-691.397	59.326	-0.134	-0.132
-690.383	-83.505	-0.305	0.097
-689.368	207.599	-0.030	0.047
-688.354	-87.202	-0.303	-0.092
-687.339	112.007	0.072	0.087
-686.324	788.660	-0.046	-0.127
-685.310	173.670	0.135	0.194
-684.295	800.000	0.070	-0.227
-683.281	25.918	-0.319	-0.266
-682.266	-56.279	-0.127	0.057
-681.251	-200.000	-0.005	0.038
-680.237	-86.211	0.341	0.105
-679.222	-69.855	-0.234	0.089
-678.208	-88.957	-0.292	-0.086
-677.193	-200.000	-0.043	-0.243
-676.178	800.000	-0.034	-0.140
-675.164	192.906	-0.072	0.108
-674.149	-10.245	-0.120	-0.080
-673.135	-200.000	0.000	0.210
-672.120	277.948	-0.044	-0.079
-671.105	-126.090	0.305	-0.046
-670.091	-131.387	-0.193	0.025
-669.076	-16.501	-0.311	-0.196
-668.062	136.892	0.151	-0.197
-667.047	-200.000	0.017	0.207
-666.032	-174.365	0.312	-0.009
-665.018	800.000	0.042	-0.174
-664.003	-71.931	-0.240	0.089
-662.989	464.442	-0.086	0.191
-661.974	211.493	-0.070	-0.109
-660.959	317.285	-0.131	-0.248
-659.945	81.175	0.147	-0.158
-658.930	125.916	-0.116	0.146
-657.916	4.710	-0.174	-0.127
-656.901	116.749	-0.138	-0.169
-655.886	48.810	0.063	-0.059
-654.872	206.862	0.167	-0.259
-653.857	-80.579	-0.351	0.116
-652.843	-200.000	0.013	0.158
-651.828	446.862	0.043	-0.094
-650.814	-38.918	0.387	-0.203
-649.799	-200.000	-0.008	0.050
-648.784	385.275	-0.072	-0.148
-647.770	-166.878	0.110	0.005
-646.755	-96.561	0.274	0.072
-645.741	-21.822	-0.283	-0.172
-644.726	-51.467	-0.184	-0.086
-643.711	-200.000	0.036	0.262
-642.697	-200.000	0.044	0.361
-641.682	-103.356	0.075	-0.018
-640.668	73.016	0.326	0.340
-639.653	-30.225	0.147	0.083
-638.638	-24.203	-0.413	-0.246
-637.624	-37.941	0.306	-0.162
-636.609	800.000	-0.052	0.223
-635.595	-200.000	-0.025	-0.136
-634.580	717.285	-0.076	0.200
-633.565	49.617	-0.197	0.185
-632.551	360.818	-0.023	-0.047
-631.536	108.355	0.058	0.069
-630.522	14.789	0.387	-0.302
-629.507	-200.000	0.026	-0.170
-628.492	227.615	-0.176	-0.286
-627.478	44.692	0.174	-0.159
-626.463	-40.439	-0.164	-0.085
-625.449	112.761	0.056	0.068
-624.434	-3.817	-0.066	-0.046
-623.419	-44.242	0.084	-0.042
-622.405	-200.000	0.007	0.239
-621.390	39.348	0.226	0.201
-620.376	-200.000	-0.002	0.030
-619.361	800.000	0.087	-0.257
-618.346	800.000	0.106	0.450
-617.332	-44.507	-0.370	0.184
-616.317	-200.000	0.038	0.172
-615.303	-142.397	-0.107	-0.010
-614.288	-95.691	-0.186	0.050
-613.273	-200.000	-0.013	-0.181
-612.259	58.292	0.134	-0.131
-611.244	114.826	0.173	-0.210
-610.230	-200.000	-0.087	0.388
-609.215	-200.000	-0.041	0.253
-608.201	130.662	-0.136	-0.174
-607.186	326.209	0.108	0.206
-606.171	-200.000	0.007	0.221
-605.157	-104.026	0.077	0.018
-604.142	-20.723	-0.141	0.086
-603.128	-200.000	0.023	0.152
-602.113	260.540	0.128	0.220
-601.098	-58.254	0.117	0.051
-600.084	-57.556	0.466	-0.203
-599.069	345.471	0.137	0.268
-598.055	17.951	-0.078	0.062
-597.040	499.673	-0.113	-0.259
-596.025	220.726	0.152	-0.243
-595.011	-25.433	0.143	0.084
-593.996	-200.000	-0.035	0.282
-592.982	-200.000	0.013	-0.190
-591.967	-166.065	0.219	0.009
-590.952	58.994	0.336	0.328
-589.938	736.216	-0.102	-0.272
-588.923	-200.000	0.005	-0.201
-587.909	410.442	0.111	-0.234
-586.894	-200.000	-0.013	0.150
-585.879	-114.120	-0.432	-0.083
-584.865	800.000	-0.035	0.147
-583.850	-110.600	-0.328	0.068
-582.836	-113.754	-0.204	-0.040
-581.821	-200.000	-0.043	-0.215
-580.806	7.936	-0.111	-0.082
-579.792	-76.135	-0.345	0.121
-578.777	16.551	-0.335	-0.264
-577.763	800.000	0.045	0.140
-576.748	-82.988	-0.062	0.020
-575.733	386.993	-0.039	-0.080
-574.719	497.355	0.231	0.529
-573.704	-200.000	0.030	0.352
-572.690	800.000	-0.066	-0.224
-571.675	-200.000	0.026	-0.174
-570.661	-179.773	0.302	-0.006
-569.646	8.577	0.113	-0.084
-568.631	284.263	0.039	-0.070
-567.617	-42.496	-0.168	0.085
-566.602	141.987	-0.146	-0.193
-565.588	79.948	-0.090	0.096
-564.573	607.770	0.050	-0.125
-563.558	-0.076	-0.358	0.254
-562.544	70.061	-0.226	0.232
-561.529	-36.805	-0.069	-0.037
-560.515	47.418	0.039	0.036
-559.500	-36.066	-0.129	0.069
-558.485	50.088	0.165	-0.155
-557.471	800.000	0.024	0.090
-556.456	-113.767	0.186	-0.036
-555.442	252.532	0.082	0.138
-554.427	510.945	-0.112	0.260
-553.412	314.810	-0.077	0.144
-552.398	-92.890	-0.172	-0.048
-551.383	529.945	-0.069	0.162
-550.369	800.000	0.041	0.119
-549.354	800.000	-0.028	-0.090
-548.339	162.720	0.155	0.216
-547.325	-64.636	-0.107	-0.043
-546.310	-150.007	0.520	0.040
-545.296	-92.898	-0.159	0.044
-544.281	-200.000	0.029	-0.174
-543.266	-188.539	-0.295	0.004
-542.252	-94.994	0.123	0.033
-541.237	800.000	0.042	0.180
-540.223	-200.000	0.019	-0.222
-539.208	-200.000	0.006	0.285
-538.193	-141.814	0.449	0.045
-537.179	-167.155	-0.138	0.006
-536.164	81.753	0.079	-0.085
-535.150	64.081	0.168	-0.167
-534.135	46.981	0.036	0.033
-533.121	-200.000	-0.011	-0.206
-532.106	-200.000	-0.022	-0.267
-531.091	800.000	0.010	-0.027
-530.077	-200.000	-0.035	-0.306
-529.062	-107.555	0.088	-0.019
-528.048	62.616	-0.237	0.236
-527.033	527.950	-0.132	0.308
-526.018	-78.267	-0.159	0.054
-525.004	268.242	0.115	-0.200
-523.989	-122.617	-0.161	-0.026
-522.975	-54.158	0.219	-0.099
-521.960	-162.417	0.198	-0.010
-520.945	800.000	-0.030	-0.111
-519.931	-177.388	-0.281	0.007
-518.916	65.985	0.201	0.202
-517.902	-138.773	0.283	-0.031
-516.887	262.143	-0.199	0.342
-515.872	-91.618	0.448	0.127
-514.858	-200.000	-0.037	-0.178
-513.843	-104.970	-0.250	0.057
-512.829	-164.998	0.240	0.011
-511.814	-33.807	-0.295	0.161
-510.799	147.568	0.122	0.163
-509.785	-103.529	-0.446	-0.104
-508.770	-38.354	-0.154	-0.081
-507.756	208.654	-0.095	-0.148
-506.741	800.000	-0.004	0.013
-505.726	800.000	0.049	-0.145
-504.712	-200.000	0.019	0.279
-503.697	-35.784	-0.350	-0.188
-502.683	450.080	0.083	0.181
-501.668	-79.967	-0.130	0.043
-500.653	223.462	0.143	-0.229
-499.639	-7.747	0.251	0.168
-498.624	113.591	-0.130	0.156
-497.610	-133.766	0.146	-0.018
-496.595	202.916	-0.113	0.172
-495.581	800.000	0.014	-0.062
-494.566	-97.765	-0.079	-0.020
-493.551	38.442	0.312	0.276
-492.537	-200.000	-0.069	-0.316
-491.522	175.310	-0.085	-0.122
-490.508	800.000	0.081	-0.254
-489.493	-200.000	-0.015	0.215
-488.478	-169.959	-0.115	0.004
-487.464	216.561	-0.104	0.163
-486.449	399.737	-0.152	-0.315
-485.435	-200.000	-0.041	0.264
-484.420	-33.839	-0.195	-0.107
-483.405	-125.646	0.376	0.056
-482.391	-88.017	0.285	0.085
-481.376	-176.136	0.231	-0.006
-480.362	-156.401	-0.179	0.011
-479.347	-132.592	0.181	0.023
-478.332	284.276	0.053	0.094
-477.318	-172.137	0.338	-0.011
-476.303	800.000	0.096	-0.299
-475.289	-200.000	-0.002	-0.103
-474.274	-137.598	-0.183	-0.020
-473.259	-87.208	0.079	-0.024
-472.245	135.151	0.096	0.124
-471.230	-200.000	-0.002	-0.041
-470.216	-200.000	-0.008	-0.089
-469.201	-200.000	0.035	-0.197
-468.186	800.000	0.047	0.166
-467.172	-79.528	0.237	0.079
-466.157	-14.989	0.180	0.114
-465.143	-92.779	0.276	-0.076
-464.128	-167.939	0.224	0.009
-463.113	363.838	-0.071	-0.141
-462.099	4.704	-0.119	-0.086
-461.084	-74.161	0.250	0.090
-460.070	800.000	0.029	0.091
-459.055	-133.293	-0.102	-0.013
-458.040	-109.913	0.391	-0.081
-457.026	191.957	0.191	-0.285
-456.011	-200.000	-0.005	0.032
-454.997	192.323	0.157	-0.234
-453.982	-200.000	-0.032	0.155
-452.968	-200.000	-0.033	-0.295
-451.953	-200.000	0.030	-0.147
-450.938	7.773	0.244	0.181
-449.924	215.690	0.139	0.219
-448.909	150.713	0.253	-0.341
-447.895	800.000	-0.013	-0.040
-446.880	97.462	0.066	0.075
-445.865	35.490	-0.136	-0.118
-444.851	24.977	0.113	-0.092
-443.836	-200.000	0.025	-0.179
-442.822	-37.407	-0.117	0.062
-441.807	-200.000	-0.012	-0.287
-440.792	-109.731	-0.209	0.044
-439.778	-156.218	-0.237	-0.015
-438.763	494.436	-0.019	0.042
-437.749	136.635	-0.302	-0.390
-436.734	-48.182	0.166	-0.079
-435.719	12.885	0.161	-0.123
-434.705	-148.650	0.003	0.000
-433.690	-200.000	0.003	0.016
-432.676	-200.000	-0.032	-0.278
-431.661	589.252	-0.081	-0.198
-430.646	-118.208	0.139	0.025
-429.632	-45.329	0.198	-0.097
-428.617	-200.000	-0.062	0.352
-427.603	235.929	-0.025	0.041
-426.588	-45.925	-0.350	-0.171
-425.573	-60.254	0.154	-0.065
-424.559	753.251	-0.085	0.227
-423.544	-200.000	0.027	0.256
-422.530	-76.174	0.180	0.063
-421.515	-200.000	0.025	-0.118
-420.500	-126.873	0.249	-0.036
-419.486	427.570	-0.142	-0.303
-418.471	294.585	-0.053	-0.095
-417.457	800.000	0.067	-0.250
-416.442	-135.606	-0.390	-0.046
-415.428	-70.226	-0.323	0.121
-414.413	-56.969	-0.088	-0.038
-413.398	-60.739	0.257	-0.108
-412.384	623.500	0.201	0.501
-411.369	-200.000	-0.008	0.268
-410.355	-39.240	0.175	-0.091
-409.340	594.649	0.135	0.329
-408.325	-117.640	0.442	0.079
-407.311	-92.387	-0.234	-0.065
-406.296	-9.129	0.206	0.136
-405.282	-200.000	0.014	0.228
-404.267	316.358	0.235	-0.439
-403.252	-134.870	-0.257	0.031
-402.238	-200.000	0.029	-0.440
-401.223	423.434	0.018	-0.037
-400.209	410.216	0.133	0.278
-399.194	-200.000	-0.014	-0.154
-398.179	-200.000	-0.004	0.064
-397.165	-200.000	0.002	-0.220
-396.150	51.809	0.180	-0.169
-395.136	74.382	-0.219	-0.227
-394.121	-86.665	-0.123	0.037
-393.106	-152.029	-0.189	-0.014
-392.092	359.736	-0.145	-0.286
-391.077	-200.000	-0.019	-0.105
-390.063	-200.000	0.010	-0.219
-389.048	-39.820	-0.127	-0.066
-388.033	-35.705	-0.008	0.004
-387.019	199.867	0.055	-0.084
-386.004	-160.981	0.090	0.005
-384.990	-200.000	-0.011	0.114
-383.975	146.051	0.101	-0.134
-382.960	-200.000	0.034	-0.202
-381.946	-4.030	-0.323	-0.221
-380.931	-20.812	-0.195	0.118
-379.917	-102.555	-0.326	0.077
-378.902	-74.878	0.299	-0.106
-377.888	88.548	0.274	0.301
-376.873	2.312	0.282	-0.201
-375.858	497.071	-0.140	0.317
-374.844	800.000	-0.045	0.179
-373.829	737.730	0.103	0.274
-372.815	-168.359	-0.338	0.013
-371.800	610.184	-0.174	-0.429
-370.785	17.165	0.262	-0.205
-369.771	-154.444	-0.153	0.010
-368.756	157.920	0.171	0.233
-367.742	-72.316	0.282	0.103
-366.727	-129.217	-0.418	0.057
-365.712	-23.317	0.167	0.099
-364.698	126.984	0.175	-0.218
-363.683	98.078	0.245	-0.278
-362.669	-200.000	-0.026	0.133
-361.654	113.574	-0.171	-0.205
-360.639	800.000	-0.032	-0.096
-359.625	-2.568	-0.334	-0.231
-358.610	289.820	0.091	0.163
-357.596	316.144	-0.042	-0.079
-356.581	-72.102	-0.096	-0.035
-355.566	291.496	-0.113	-0.203
-354.552	-12.032	-0.120	0.077
-353.537	110.005	0.100	-0.119
-352.523	-108.293	0.246	0.052
-351.508	-155.178	-0.158	0.010
-350.493	393.098	-0.078	0.159
-349.479	-61.439	-0.315	0.130
-348.464	-17.103	-0.043	-0.026
-347.450	74.032	-0.094	-0.097
-346.435	800.000	-0.127	0.347
-345.420	107.806	-0.124	0.146
-344.406	-101.825	-0.145	-0.034
-343.391	434.371	-0.109	0.234
-342.377	-192.683	0.188	-0.002
-341.362	-85.922	-0.282	-0.086
-340.348	-143.337	-0.353	0.033
-339.333	116.100	-0.163	-0.197
-338.318	-200.000	0.011	0.205
-337.304	800.000	-0.049	0.190
-336.289	80.287	0.093	0.098
-335.275	-200.000	0.079	0.350
-334.260	-200.000	-0.001	0.098
-333.245	198.792	0.103	0.155
-332.231	23.383	-0.208	0.169
-331.216	-126.895	-0.129	0.019
-330.202	-149.814	-0.070	0.005
-329.187	800.000	-0.038	0.161
-328.172	377.311	0.032	0.064
-327.158	-159.953	-0.123	-0.007
-326.143	-76.856	-0.275	-0.095
-325.129	-94.481	0.243	0.065
-324.114	-200.000	-0.019	-0.107
-323.099	781.216	0.123	0.331
-322.085	31.057	0.085	0.072
-321.070	800.000	-0.134	0.473
-320.056	713.577	-0.044	-0.115
-319.041	43.763	0.392	-0.353
-318.026	-67.003	-0.225	0.088
-317.012	-200.000	-0.022	0.140
-315.997	-200.000	0.089	0.391
-314.983	-200.000	-0.027	-0.253
-313.968	-28.441	-0.232	-0.132
-312.953	-37.075	0.356	0.188
-311.939	800.000	0.007	0.031
-310.924	-75.416	-0.191	-0.067
-309.910	-134.752	0.074	0.009
-308.895	253.289	-0.118	0.198
-307.880	800.000	0.044	-0.155
-306.866	-115.127	-0.269	-0.050
-305.851	278.345	-0.163	-0.285
-304.837	28.049	-0.116	-0.097
-303.822	-141.966	0.274	0.027
-302.807	-157.379	0.096	0.006
-301.793	45.183	0.088	0.080
-300.778	664.463	0.083	0.210
-299.764	-172.716	-0.253	-0.008
-298.749	55.266	-0.182	0.173
-297.735	-1.942	0.132	0.092
-296.720	-96.395	-0.144	0.037
-295.705	-118.519	-0.360	-0.063
-294.691	800.000	-0.014	0.048
-293.676	-52.114	-0.341	-0.155
-292.662	108.458	-0.059	0.069
-291.647	-9.225	-0.184	-0.121
-290.632	596.505	-0.121	-0.296
-289.618	44.452	0.347	0.313
-288.603	173.640	0.118	-0.168
-287.589	-200.000	-0.014	0.231
-286.574	164.939	0.046	-0.064
-285.559	5.452	-0.053	0.039
-284.545	37.826	0.247	0.215
-283.530	800.000	-0.097	-0.336
-282.516	800.000	-0.082	-0.274
-281.501	66.209	0.036	-0.036
-280.486	-169.959	-0.129	-0.005
-279.472	140.077	0.198	0.256
-278.457	358.020	0.157	0.308
-277.443	800.000	0.013	-0.036
-276.428	-200.000	0.027	0.191
-275.413	-83.166	-0.125	-0.039
-274.399	-109.318	0.387	0.081
-273.384	-200.000	-0.039	0.321
-272.370	-92.023	-0.122	0.034
-271.355	800.000	0.009	-0.031
-270.340	-200.000	0.046	0.313
-269.326	249.983	0.137	-0.228
-268.311	-61.383	0.072	-0.030
-267.297	800.000	0.072	0.216
-266.282	97.263	-0.170	0.192
-265.267	111.634	-0.197	0.233
-264.253	91.169	-0.241	-0.266
-263.238	288.313	-0.101	-0.180
-262.224	-80.705	0.080	-0.026
-261.209	169.808	0.201	-0.282
-260.195	-200.000	0.011	-0.222
-259.180	73.691	0.110	0.113
-258.165	53.205	-0.231	-0.217
-257.151	7.679	0.169	-0.124
-256.136	514.023	-0.169	-0.387
-255.122	148.617	0.091	0.120
-254.107	800.000	-0.147	0.430
-253.092	800.000	-0.050	0.197
-252.078	91.663	0.163	0.180
-251.063	-200.000	-0.008	-0.094
-250.049	-139.533	-0.416	0.044
-249.034	-91.665	0.292	-0.081
-248.019	-43.806	0.110	-0.055
-247.005	-200.000	0.042	0.262
-245.990	-106.360	-0.129	0.028
-244.976	75.098	0.106	0.109
-243.961	81.761	-0.222	-0.236
-242.946	54.935	0.270	0.256
-241.932	-200.000	0.015	0.094
-240.917	111.149	0.129	-0.153
-239.903	-97.953	-0.192	0.049
-238.888	28.673	0.148	-0.123
-237.873	-200.000	-0.330	0.001
-236.859	-101.593	0.382	-0.091
-235.844	297.471	-0.129	-0.233
-234.830	800.000	-0.033	-0.106
-233.815	379.897	0.165	-0.332
-232.800	-26.365	-0.109	-0.063
-231.786	346.704	-0.101	-0.196
-230.771	110.402	-0.342	-0.403
-229.757	-46.382	-0.472	0.228
-228.742	-101.289	0.317	0.076
-227.727	109.631	-0.094	-0.111
-226.713	266.238	-0.057	-0.098
-225.698	122.360	-0.132	0.162
-224.684	222.597	0.112	0.177
-223.669	205.501	0.143	0.218
-222.655	800.000	0.033	-0.114
-221.640	188.851	0.289	-0.424
-220.625	-99.063	0.068	0.017
-219.611	-49.402	-0.141	0.066
-218.596	-49.085	0.207	-0.097
-217.582	-14.716	0.174	-0.110
-216.567	-131.438	-0.487	-0.063
-215.552	-3.874	-0.172	-0.117
-214.538	100.032	0.051	-0.057
-213.523	-60.247	-0.325	-0.136
-212.509	-47.659	0.386	-0.184
-211.494	-41.583	-0.347	-0.175
-210.479	-97.894	0.109	0.028
-209.465	454.063	0.084	-0.183
-208.450	454.932	-0.054	-0.117
-207.436	707.323	0.073	0.189
-206.421	-78.063	0.187	0.063
-205.406	-200.000	-0.006	0.156
-204.392	-200.000	0.024	0.192
-203.377	331.752	-0.184	-0.347
-202.363	-200.000	0.024	0.219
-201.348	-84.864	0.307	0.095
-200.333	-133.779	0.544	0.066
-199.319	-131.582	-0.205	-0.026
-198.304	319.390	-0.239	-0.444
-197.290	394.413	0.096	0.195
-196.275	218.183	0.145	-0.227
-195.260	-105.682	-0.188	-0.042
-194.246	-8.507	0.359	-0.236
-193.231	104.972	-0.437	0.505
-192.217	12.019	-0.183	0.138
-191.202	-200.000	0.105	0.641
-190.187	-200.000	0.044	0.340
-189.173	-200.000	0.055	-0.235
-188.158	7.208	0.210	-0.154
-187.144	-200.000	0.018	0.124
-186.129	-200.000	0.009	0.060
-185.114	-67.775	0.364	0.140
-184.100	-92.063	0.168	0.046
-183.085	-3.244	-0.244	-0.166
-182.071	800.000	0.115	-0.458
-181.056	242.938	0.159	0.260
-180.042	800.000	-0.026	-0.105
-179.027	-76.507	0.070	-0.024
-178.012	800.000	0.019	-0.072
-176.998	166.879	0.076	-0.106
-175.983	-200.000	-0.010	-0.404
-174.969	171.982	-0.063	-0.088
-173.954	800.000	0.056	-0.175
-172.939	-200.000	-0.010	0.086
-171.925	-200.000	-0.036	0.408
-170.910	-16.005	-0.176	0.110
-169.896	-83.959	0.319	0.099
-168.881	494.748	-0.057	-0.129
-167.866	70.143	-0.221	-0.224
-166.852	-55.330	0.225	0.099
-165.837	-200.000	0.001	0.273
-164.823	-113.651	-0.080	0.015
-163.808	97.216	0.131	-0.147
-162.793	396.047	-0.117	-0.239
-161.779	-74.882	-0.266	-0.093
-160.764	800.000	-0.094	-0.335
-159.750	800.000	-0.016	-0.058
-158.735	-200.000	-0.019	0.314
-157.720	-18.572	0.152	0.093
-156.706	-28.036	-0.212	0.120
-155.691	-138.699	-0.148	0.016
-154.677	800.000	-0.035	0.119
-153.662	800.000	-0.023	-0.063
-152.647	596.684	-0.153	-0.370
-151.633	-135.919	0.303	0.035
-150.618	251.766	-0.044	0.074
-149.604	-200.000	0.002	0.285
-148.589	-152.969	-0.117	-0.008
-147.574	197.869	-0.187	0.279
-146.560	-12.365	0.276	0.177
-145.545	-69.963	0.085	-0.032
-144.531	-54.495	0.140	-0.062
-143.516	-129.994	-0.622	0.083
-142.502	-124.224	-0.067	-0.010
-141.487	57.380	0.129	-0.123
-140.472	164.361	0.114	0.157
-139.458	800.000	-0.042	0.120
-138.443	-15.541	-0.286	0.179
-137.429	-29.823	0.087	0.048
-136.414	-27.673	0.361	0.205
-135.399	214.474	0.121	0.188
-134.385	26.166	-0.195	-0.159
-133.370	-105.966	0.160	-0.035
-132.356	392.271	-0.101	-0.206
-131.341	259.268	-0.193	0.326
-130.326	-22.908	-0.216	-0.127
-129.312	127.658	0.158	-0.196
-128.297	-200.000	-0.035	-0.154
-127.283	-42.519	0.140	-0.070
-126.268	-175.232	0.035	0.001
-125.253	110.531	-0.226	0.265
-124.239	-130.203	-0.152	0.020
-123.224	0.523	0.195	-0.136
-122.210	563.211	-0.030	0.071
