DTS Sentinel unit serial number:	SN413079Multiplexer serial number:	ORYXHardware model number:	OX4-SRSoftware version number:	ORYX F/W v4.00 Oryx Data Collector v3.7.2.0data status	okinstallation	princeton_trtdifferential loss correction	single-endedforward channel	channel 3reverse channel	N/Adate	2019/09/15time	02:44:34forward acquisition time	60.00reverse acquisition time	0.00gamma	496.2192k internal	0.2322k external	0.2322temperature offset calibration	0.9969default loss term (dB/km)	0.3790temperature slope calibration	1.0000multiplexer offset coefficient	1.0000multiplexer slope coefficient	1.0000fibre end	0.00T internal ref (°C)	31.37T ext. ref 1 (°C)	4.57T ext. ref 2 (°C)	25.80length (m)	temperature (°C)	Stokes	anti-Stokes-747.200	21.594	-0.074	-0.061
-746.185	-107.525	-0.159	-0.035
-745.171	800.000	-0.050	0.204
-744.156	800.000	-0.058	-0.181
-743.142	193.921	-0.119	0.183
-742.127	800.000	0.045	0.166
-741.112	-130.215	0.388	0.053
-740.098	-200.000	-0.038	0.295
-739.083	-60.757	0.006	-0.002
-738.069	-200.000	-0.010	0.053
-737.054	800.000	-0.048	-0.199
-736.039	-84.838	0.141	-0.045
-735.025	-131.716	0.418	0.055
-734.010	127.470	0.261	-0.335
-732.996	-200.000	-0.037	-0.609
-731.981	-73.860	0.243	0.089
-730.966	800.000	-0.100	-0.336
-729.952	-30.954	-0.232	-0.132
-728.937	-77.225	-0.213	-0.075
-727.923	146.577	-0.076	-0.103
-726.908	800.000	0.149	-0.419
-725.894	267.567	-0.109	0.193
-724.879	78.710	-0.049	-0.053
-723.864	137.020	0.046	-0.060
-722.850	-29.728	-0.381	0.219
-721.835	800.000	-0.062	-0.176
-720.821	81.012	0.140	0.153
-719.806	-21.374	-0.405	-0.250
-718.791	800.000	0.105	-0.365
-717.777	414.230	0.072	-0.154
-716.762	600.035	0.198	-0.495
-715.748	743.984	0.172	-0.468
-714.733	-200.000	-0.009	0.069
-713.718	-138.885	0.287	-0.032
-712.704	-7.539	-0.191	-0.130
-711.689	-200.000	-0.063	0.366
-710.675	800.000	-0.052	-0.224
-709.660	-182.318	-0.226	-0.004
-708.645	-75.008	-0.119	-0.043
-707.631	-200.000	-0.009	0.189
-706.616	-98.941	0.078	0.020
-705.602	359.618	-0.121	-0.245
-704.587	-200.000	-0.026	-0.363
-703.572	706.735	0.058	-0.153
-702.558	-46.977	0.084	0.041
-701.543	800.000	0.026	0.079
-700.529	-83.660	0.041	0.013
-699.514	-143.556	0.228	0.022
-698.499	152.797	0.095	-0.131
-697.485	80.888	-0.177	0.193
-696.470	57.394	-0.036	-0.035
-695.456	134.558	-0.092	0.121
-694.441	34.256	0.137	-0.120
-693.426	-177.624	-0.046	-0.001
-692.412	-200.000	-0.036	-0.357
-691.397	299.798	0.062	-0.115
-690.383	-200.000	-0.006	-0.300
-689.368	-105.858	0.311	0.071
-688.354	34.595	0.119	0.104
-687.339	79.594	0.114	-0.124
-686.324	-162.561	0.194	-0.010
-685.310	66.591	-0.308	-0.315
-684.295	-4.447	0.163	-0.114
-683.281	800.000	0.131	0.383
-682.266	192.723	0.027	0.041
-681.251	161.193	-0.231	0.325
-680.237	221.267	-0.294	0.475
-679.222	-18.660	0.014	0.009
-678.208	800.000	0.077	0.236
-677.193	-200.000	-0.028	-0.147
-676.178	-74.259	0.190	-0.069
-675.164	-200.000	-0.015	-0.577
-674.149	697.540	0.015	-0.040
-673.135	-44.354	0.201	0.101
-672.120	-98.338	-0.172	-0.044
-671.105	127.518	0.283	-0.361
-670.091	263.035	0.031	-0.054
-669.076	254.081	0.104	0.179
-668.062	-200.000	-0.024	0.151
-667.047	87.962	0.078	-0.087
-666.032	70.856	-0.205	0.214
-665.018	-72.874	-0.179	-0.066
-664.003	287.022	-0.145	0.264
-662.989	372.785	0.062	0.127
-661.974	-47.503	0.232	-0.114
-660.959	-71.398	-0.016	0.006
-659.945	-82.644	0.099	-0.032
-658.930	768.095	-0.116	-0.317
-657.916	-14.407	0.235	-0.152
-656.901	-200.000	0.031	0.284
-655.886	143.081	-0.123	-0.164
-654.872	182.238	0.109	-0.162
-653.857	-200.000	-0.035	-0.183
-652.843	475.640	-0.167	-0.379
-651.828	-19.012	-0.322	0.201
-650.814	800.000	0.046	-0.135
-649.799	1.957	-0.222	0.161
-648.784	-59.771	0.380	-0.164
-647.770	298.039	-0.034	-0.063
-646.755	-33.540	0.262	0.146
-645.741	-200.000	0.004	0.186
-644.726	365.174	-0.052	-0.106
-643.711	800.000	0.065	-0.225
-642.697	-200.000	-0.011	0.170
-641.682	600.052	0.116	0.289
-640.668	-179.788	-0.202	-0.004
-639.653	-83.992	0.071	-0.023
-638.638	-167.820	0.178	-0.007
-637.624	-81.318	-0.306	0.101
-636.609	800.000	-0.108	-0.341
-635.595	105.631	0.077	0.092
-634.580	800.000	0.093	-0.298
-633.565	52.206	-0.223	-0.214
-632.551	-9.818	-0.071	0.048
-631.536	-29.294	-0.113	-0.065
-630.522	58.749	0.150	0.148
-629.507	130.808	-0.234	-0.302
-628.492	304.470	0.179	0.334
-627.478	70.710	-0.041	-0.043
-626.463	-56.072	0.125	0.056
-625.449	137.543	-0.163	-0.215
-624.434	-200.000	0.014	-0.158
-623.419	26.448	-0.121	-0.102
-622.405	-111.332	-0.172	-0.035
-621.390	-200.000	-0.026	0.136
-620.376	800.000	-0.038	0.127
-619.361	-124.154	-0.337	0.053
-618.346	-200.000	-0.006	-0.141
-617.332	-165.264	0.198	0.009
-616.317	7.152	-0.121	0.090
-615.303	13.934	0.029	-0.023
-614.288	18.862	-0.104	0.083
-613.273	-200.000	-0.013	-0.120
-612.259	-67.829	-0.041	0.016
-611.244	-200.000	-0.040	0.248
-610.230	-200.000	-0.025	0.259
-609.215	-133.157	0.161	0.020
-608.201	-200.000	-0.059	-0.402
-607.186	800.000	0.068	-0.225
-606.171	85.023	-0.155	-0.170
-605.157	195.259	0.192	-0.293
-604.142	304.487	0.097	0.181
-603.128	4.358	-0.177	-0.130
-602.113	-200.000	0.009	-0.213
-601.098	-53.360	-0.142	-0.065
-600.084	56.544	-0.130	-0.127
-599.069	800.000	-0.065	0.257
-598.055	33.290	0.239	0.208
-597.040	80.715	-0.233	0.253
-596.025	664.764	0.069	-0.180
-595.011	107.328	0.241	0.288
-593.996	92.278	-0.028	0.032
-592.982	800.000	0.027	-0.087
-591.967	-129.266	-0.153	-0.021
-590.952	-64.684	0.256	-0.104
-589.938	-200.000	0.056	-0.262
-588.923	-200.000	-0.024	0.151
-587.909	-121.286	-0.182	0.030
-586.894	775.873	0.072	-0.198
-585.879	-200.000	0.068	-0.409
-584.865	51.531	-0.125	0.119
-583.850	375.921	0.061	0.124
-582.836	-27.116	-0.158	0.092
-581.821	-83.265	-0.519	-0.167
-580.806	-200.000	0.029	0.285
-579.792	719.141	0.059	0.157
-578.777	-200.000	0.016	0.317
-577.763	-200.000	-0.013	-0.106
-576.748	60.325	0.222	-0.221
-575.733	800.000	-0.087	-0.300
-574.719	800.000	-0.101	0.298
-573.704	540.723	-0.106	-0.254
-572.690	800.000	0.034	0.145
-571.675	-44.938	0.127	-0.063
-570.661	-200.000	-0.011	-0.070
-569.646	-200.000	-0.009	-0.081
-568.631	20.395	0.201	-0.163
-567.617	-110.250	0.087	-0.018
-566.602	-200.000	0.000	-0.222
-565.588	38.207	-0.194	0.174
-564.573	-200.000	-0.024	-0.263
-563.558	-105.528	-0.256	0.058
-562.544	-113.299	-0.235	0.046
-561.529	-77.611	-0.343	0.119
-560.515	-200.000	-0.004	-0.450
-559.500	800.000	0.045	-0.129
-558.485	456.570	-0.039	-0.087
-557.471	800.000	0.115	-0.320
-556.456	29.421	0.161	-0.137
-555.442	72.364	0.293	-0.307
-554.427	325.542	-0.051	0.098
-553.412	237.812	-0.108	0.180
-552.398	625.768	-0.072	-0.181
-551.383	-25.243	0.153	0.091
-550.369	632.756	-0.066	0.167
-549.354	587.563	-0.138	0.340
-548.339	800.000	-0.050	-0.202
-547.325	-30.540	0.185	-0.105
-546.310	124.631	-0.187	-0.235
-545.296	-200.000	-0.018	0.245
-544.281	282.195	-0.063	0.113
-543.266	-91.252	0.214	-0.061
-542.252	278.430	-0.083	0.149
-541.237	800.000	0.056	0.199
-540.223	-100.762	0.195	-0.048
-539.208	176.469	0.039	-0.057
-538.193	-200.000	0.009	-0.156
-537.179	-118.298	-0.090	0.016
-536.164	-200.000	0.043	0.369
-535.150	50.937	-0.035	-0.034
-534.135	-180.798	-0.051	-0.001
-533.121	-200.000	-0.014	-0.171
-532.106	380.141	-0.018	-0.038
-531.091	800.000	-0.050	-0.152
-530.077	-27.065	0.211	0.123
-529.062	2.307	-0.073	0.053
-528.048	-81.455	0.363	0.120
-527.033	-200.000	0.012	0.206
-526.018	657.150	0.051	-0.131
-525.004	-57.841	-0.262	-0.115
-523.989	-200.000	0.020	-0.606
-522.975	-200.000	0.011	-0.251
-521.960	-99.764	0.393	0.098
-520.945	750.577	0.108	-0.292
-519.931	-73.831	-0.259	-0.094
-518.916	-200.000	-0.064	0.281
-517.902	535.113	-0.014	0.033
-516.887	169.807	0.266	-0.381
-515.872	-27.674	-0.179	-0.104
-514.858	-36.513	-0.211	-0.114
-513.843	-134.771	-0.048	-0.006
-512.829	-4.859	-0.028	0.019
-511.814	-79.690	-0.076	-0.026
-510.799	-200.000	-0.054	-0.248
-509.785	21.531	-0.100	-0.082
-508.770	-161.254	-0.201	-0.010
-507.756	349.042	0.047	-0.092
-506.741	93.889	0.160	0.181
-505.726	-200.000	-0.032	0.352
-504.712	800.000	-0.121	-0.350
-503.697	-143.091	-0.017	-0.002
-502.683	368.255	0.069	0.139
-501.668	-200.000	-0.016	-0.123
-500.653	-200.000	0.028	0.134
-499.639	-2.703	-0.215	-0.150
-498.624	800.000	0.182	-0.542
-497.610	406.371	-0.096	-0.203
-496.595	55.915	0.130	0.126
-495.581	-200.000	0.051	0.295
-494.566	295.575	0.108	-0.198
-493.551	800.000	-0.058	-0.191
-492.537	800.000	0.074	-0.207
-491.522	1.475	-0.067	-0.048
-490.508	-168.786	0.198	0.007
-489.493	87.348	0.033	0.036
-488.478	144.939	0.080	0.107
-487.464	-200.000	-0.040	-0.185
-486.449	-9.928	-0.051	-0.034
-485.435	60.139	-0.114	-0.113
-484.420	-1.539	-0.341	0.241
-483.405	388.747	-0.189	0.391
-482.391	265.180	-0.176	0.307
-481.376	12.869	0.325	-0.251
-480.362	-116.629	-0.167	0.031
-479.347	800.000	-0.090	0.271
-478.332	598.442	0.136	0.337
-477.318	-4.450	-0.168	0.116
-476.303	212.106	-0.276	0.435
-475.289	88.927	0.156	-0.174
-474.274	-125.361	-0.361	0.055
-473.259	245.936	-0.097	0.164
-472.245	-200.000	-0.002	-0.187
-471.230	-200.000	0.031	0.391
-470.216	15.110	-0.103	-0.080
-469.201	637.281	0.038	-0.097
-468.186	500.014	-0.077	-0.178
-467.172	800.000	-0.041	-0.152
-466.157	-58.383	-0.262	-0.114
-465.143	-200.000	0.005	-0.021
-464.128	416.570	0.089	0.190
-463.113	-200.000	0.000	-0.280
-462.099	20.802	-0.202	0.164
-461.084	22.374	0.208	0.170
-460.070	-200.000	0.063	0.371
-459.055	-55.657	-0.104	0.047
-458.040	105.337	-0.125	-0.147
-457.026	-81.632	0.144	-0.047
-456.011	14.785	0.320	0.250
-454.997	-101.119	0.091	0.022
-453.982	58.267	0.321	0.314
-452.968	-200.000	-0.001	0.161
-451.953	61.754	0.244	0.242
-450.938	-200.000	0.027	-0.128
-449.924	-200.000	0.009	-0.190
-448.909	-107.907	-0.313	0.068
-447.895	-78.542	0.255	-0.087
-446.880	-67.794	-0.166	-0.065
-445.865	-49.583	0.013	-0.006
-444.851	-33.045	0.305	0.169
-443.836	91.601	-0.167	-0.188
-442.822	368.863	-0.035	-0.071
-441.807	-200.000	0.011	0.290
-440.792	-40.350	0.322	-0.167
-439.778	800.000	-0.025	-0.102
-438.763	69.007	-0.261	0.268
-437.749	-104.312	-0.184	0.042
-436.734	5.247	-0.337	-0.248
-435.719	-67.408	-0.157	0.062
-434.705	-16.322	-0.225	-0.143
-433.690	-200.000	-0.005	0.457
-432.676	-80.009	-0.043	0.014
-431.661	-98.899	-0.118	0.030
-430.646	226.479	0.212	-0.343
-429.632	-29.931	0.315	-0.179
-428.617	309.949	0.172	-0.322
-427.603	-200.000	0.016	-0.127
-426.588	-152.671	-0.065	-0.005
-425.573	800.000	0.042	0.132
-424.559	114.950	0.095	-0.115
-423.544	800.000	0.059	0.177
-422.530	-127.021	-0.247	0.036
-421.515	-200.000	-0.035	0.189
-420.500	-20.024	0.269	0.166
-419.486	351.646	-0.064	0.127
-418.471	-121.131	0.214	-0.036
-417.457	-167.663	-0.152	-0.006
-416.442	64.993	0.194	-0.196
-415.428	-19.915	-0.250	0.154
-414.413	-128.293	-0.324	-0.046
-413.398	-200.000	0.100	0.441
-412.384	31.432	0.208	-0.178
-411.369	-136.755	-0.322	-0.037
-410.355	-108.245	-0.241	-0.052
-409.340	299.415	0.101	0.186
-408.325	13.009	-0.227	0.175
-407.311	-0.544	-0.223	-0.158
-406.296	219.699	-0.146	0.233
-405.282	-121.929	0.431	-0.071
-404.267	-100.457	0.166	0.041
-403.252	61.040	0.196	-0.194
-402.238	88.160	-0.144	-0.160
-401.223	-64.191	-0.355	0.144
-400.209	31.197	0.306	-0.262
-399.194	69.415	-0.096	0.099
-398.179	106.289	-0.244	-0.289
-397.165	-172.194	0.063	-0.002
-396.150	371.090	0.120	0.243
-395.136	-52.685	0.015	-0.007
-394.121	21.313	0.206	-0.167
-393.106	13.776	-0.201	0.156
-392.092	180.634	-0.127	0.186
-391.077	190.196	-0.092	0.138
-390.063	54.367	0.170	0.163
-389.048	547.215	-0.084	0.200
-388.033	800.000	0.066	-0.188
-387.019	211.475	-0.218	-0.341
-386.004	800.000	0.139	-0.399
-384.990	-5.011	-0.198	0.136
-383.975	-200.000	0.075	-0.436
-382.960	-32.319	0.352	-0.196
-381.946	71.349	0.091	0.094
-380.931	-55.342	0.075	-0.033
-379.917	-110.800	0.221	0.045
-378.902	-124.249	0.175	0.027
-377.888	-30.643	-0.097	0.055
-376.873	121.970	-0.032	0.039
-375.858	-194.898	-0.347	-0.003
-374.844	85.230	-0.090	-0.098
-373.829	206.535	0.138	-0.213
-372.815	-93.018	0.164	-0.045
-371.800	126.591	-0.186	0.234
-370.785	-104.760	-0.318	0.073
-369.771	-145.566	0.321	-0.029
-368.756	-200.000	0.014	-0.201
-367.742	-137.592	-0.116	0.013
-366.727	-53.073	0.149	-0.068
-365.712	-99.157	-0.380	0.096
-364.698	-200.000	-0.043	0.220
-363.683	473.993	-0.140	-0.315
-362.669	45.758	-0.203	0.186
-361.654	69.972	0.097	-0.100
-360.639	-60.201	-0.182	0.077
-359.625	223.633	0.120	-0.193
-358.610	-44.234	0.096	-0.048
-357.596	501.483	0.105	-0.241
-356.581	-200.000	0.010	0.054
-355.566	-151.245	-0.245	-0.018
-354.552	-71.540	-0.235	0.087
-353.537	-113.614	0.033	0.006
-352.523	-84.448	0.462	-0.145
-351.508	800.000	-0.054	0.163
-350.493	139.045	-0.070	0.091
-349.479	737.777	-0.068	0.181
-348.464	800.000	0.096	-0.380
-347.450	-138.715	-0.157	-0.017
-346.435	321.495	0.054	-0.102
-345.420	25.146	0.073	0.061
-344.406	-144.387	0.086	0.008
-343.391	-142.124	-0.123	0.012
-342.377	390.823	0.078	0.161
-341.362	170.067	0.305	0.434
-340.348	623.425	0.029	-0.072
-339.333	-116.976	0.222	0.040
-338.318	54.931	-0.093	-0.089
-337.304	244.126	-0.031	-0.052
-336.289	-66.961	0.417	-0.164
-335.275	60.946	0.223	0.220
-334.260	18.170	0.086	-0.068
-333.245	84.998	0.062	0.068
-332.231	-102.079	0.055	0.013
-331.216	-80.800	-0.255	0.084
-330.202	138.261	-0.172	-0.224
-329.187	-144.617	-0.163	0.015
-328.172	107.678	0.056	0.066
-327.158	-119.767	-0.059	-0.010
-326.143	-140.462	0.111	0.011
-325.129	-87.056	-0.135	-0.041
-324.114	800.000	0.117	-0.348
-323.099	800.000	-0.010	0.042
-322.085	-5.163	-0.262	0.179
-321.070	-200.000	-0.034	0.219
-320.056	-200.000	-0.004	-0.080
-319.041	-55.657	-0.215	-0.096
-318.026	-172.039	-0.228	-0.007
-317.012	-4.959	-0.139	0.095
-315.997	-65.892	0.359	-0.143
-314.983	-105.846	-0.368	-0.082
-313.968	362.860	-0.046	-0.092
-312.953	-15.668	0.249	0.157
-311.939	78.392	-0.082	0.087
-310.924	-25.167	-0.269	-0.158
-309.910	-200.000	0.019	0.099
-308.895	95.169	-0.081	0.091
-307.880	-107.540	0.380	-0.083
-306.866	-100.957	0.206	0.050
-305.851	-57.327	0.187	0.081
-304.837	23.411	-0.194	-0.158
-303.822	-9.813	-0.077	0.051
-302.807	479.198	0.023	-0.052
-301.793	-133.231	0.094	0.012
-300.778	-142.601	0.227	-0.022
-299.764	796.473	-0.008	-0.022
-298.749	70.136	0.016	-0.016
-297.735	192.465	-0.184	0.275
-296.720	57.265	0.278	-0.269
-295.705	693.025	-0.067	0.173
-294.691	800.000	0.015	-0.049
-293.676	-96.420	0.383	0.100
-292.662	-200.000	-0.001	-0.110
-291.647	140.609	-0.184	0.241
-290.632	-120.148	-0.361	-0.061
-289.618	-82.179	-0.197	0.064
-288.603	42.285	0.333	0.300
-287.589	-22.854	0.409	0.245
-286.574	205.817	-0.226	0.349
-285.559	760.250	0.116	-0.311
-284.545	-200.000	0.043	-0.233
-283.530	182.540	-0.058	0.085
-282.516	-4.340	-0.231	-0.158
-281.501	-135.992	0.102	0.012
-280.486	73.057	-0.106	0.110
-279.472	157.768	-0.118	0.163
-278.457	-200.000	0.036	0.356
-277.443	-59.944	0.412	0.175
-276.428	217.852	-0.058	0.092
-275.413	-22.962	-0.220	0.131
-274.399	797.060	0.033	-0.091
-273.384	42.884	0.080	0.073
-272.370	800.000	-0.010	0.037
-271.355	-123.186	0.338	-0.054
-270.340	-200.000	0.019	0.109
-269.326	-68.974	-0.381	0.146
-268.311	-38.941	0.102	-0.053
-267.297	58.124	-0.079	0.076
-266.282	210.907	0.185	0.288
-265.267	214.251	-0.164	-0.257
-264.253	229.482	0.078	-0.126
-263.238	-200.000	0.017	0.240
-262.224	122.602	-0.203	0.252
-261.209	-32.339	-0.166	0.092
-260.195	-200.000	0.028	0.146
-259.180	-52.068	-0.150	-0.069
-258.165	-33.167	-0.103	0.057
-257.151	77.788	0.222	0.235
-256.136	53.772	0.090	0.086
-255.122	58.727	-0.080	0.077
-254.107	75.636	0.122	-0.128
-253.092	-134.209	-0.274	0.033
-252.078	200.890	0.055	0.083
-251.063	-200.000	-0.005	-0.287
-250.049	-96.906	0.033	0.008
-249.034	190.154	-0.238	-0.354
-248.019	-116.627	-0.217	0.040
-247.005	46.780	-0.034	-0.031
-245.990	-20.769	0.096	0.058
-244.976	800.000	-0.078	0.265
-243.961	-200.000	-0.063	0.353
-242.946	89.658	0.083	0.092
-241.932	353.650	0.118	0.233
-240.917	-200.000	0.041	-0.198
-239.903	39.346	0.074	-0.066
-238.888	800.000	0.049	0.150
-237.873	-13.521	0.397	0.255
-236.859	-117.553	-0.114	0.020
-235.844	131.284	-0.055	0.070
-234.830	297.873	-0.040	-0.073
-233.815	233.084	-0.045	0.074
-232.800	-81.252	0.237	0.078
-231.786	-200.000	-0.015	-0.114
-230.771	-71.869	0.235	0.087
-229.757	739.317	-0.033	0.089
-228.742	-164.020	0.218	-0.010
-227.727	-33.249	-0.339	0.186
-226.713	-200.000	0.048	0.319
-225.698	-115.506	-0.330	0.062
-224.684	-10.879	0.111	0.073
-223.669	266.081	-0.152	-0.262
-222.655	434.496	-0.111	0.239
-221.640	-4.536	0.070	0.048
-220.625	43.893	-0.168	-0.153
-219.611	800.000	-0.084	0.260
-218.596	-200.000	-0.012	-0.186
-217.582	62.595	-0.268	-0.265
-216.567	-200.000	0.027	-0.125
-215.552	-0.580	-0.168	0.118
-214.538	108.133	0.209	-0.247
-213.523	637.942	-0.089	0.223
-212.509	-1.642	-0.239	0.167
-211.494	229.157	0.079	-0.128
-210.479	-179.313	-0.166	-0.004
-209.465	13.162	0.055	0.042
-208.450	-20.657	0.213	0.129
-207.436	-200.000	0.005	0.075
-206.421	800.000	-0.054	-0.150
-205.406	-200.000	0.014	0.114
-204.392	-57.847	-0.278	-0.120
-203.377	-70.521	0.282	-0.106
-202.363	-179.067	-0.298	-0.007
-201.348	-179.270	-0.068	0.001
-200.333	-75.736	-0.175	-0.061
-199.319	800.000	-0.015	0.057
-198.304	-200.000	0.062	-0.366
-197.290	-92.993	0.396	-0.109
-196.275	-158.451	0.123	0.007
-195.260	-122.533	0.108	0.017
-194.246	-58.910	0.181	0.077
-193.231	-160.838	0.173	0.009
-192.217	-50.143	0.428	-0.200
-191.202	-200.000	0.011	-0.065
-190.187	104.750	0.283	0.330
-189.173	-200.000	-0.002	0.177
-188.158	-200.000	0.018	-0.195
-187.144	-124.846	0.272	0.042
-186.129	269.969	-0.099	-0.172
-185.114	5.691	-0.224	0.164
-184.100	330.007	0.146	-0.278
-183.085	800.000	0.037	-0.137
-182.071	-111.704	-0.123	-0.025
-181.056	-170.006	0.202	0.007
-180.042	58.191	-0.184	0.178
-179.027	179.979	0.088	0.127
-178.012	-154.916	0.224	-0.015
-176.998	180.542	0.131	0.190
-175.983	132.848	0.026	0.033
-174.969	-134.317	-0.084	0.010
-173.954	800.000	0.026	0.077
-172.939	255.737	0.029	-0.050
-171.925	340.077	-0.085	0.164
-170.910	4.970	0.359	0.261
-169.896	581.434	0.057	-0.138
-168.881	243.469	0.084	0.140
-167.866	508.023	0.114	-0.262
-166.852	-79.174	0.100	0.034
-165.837	342.660	-0.117	0.226
-164.823	151.630	0.282	-0.380
-163.808	409.208	-0.096	0.202
-162.793	68.631	0.098	0.100
-161.779	-200.000	-0.014	-0.349
-160.764	800.000	0.067	-0.281
-159.750	800.000	-0.068	-0.228
-158.735	338.095	0.231	-0.443
-157.720	-87.435	0.250	-0.075
-156.706	316.039	0.095	-0.178
-155.691	-147.016	0.180	0.015
-154.677	800.000	0.126	0.352
-153.662	43.519	0.146	0.132
-152.647	-56.779	0.250	0.109
-151.633	18.286	-0.113	-0.089
-150.618	-42.356	0.150	-0.076
-149.604	-200.000	-0.047	-0.318
-148.589	800.000	0.044	-0.180
-147.574	219.748	-0.103	-0.163
-146.560	-35.767	0.149	-0.080
-145.545	116.893	-0.072	-0.087
-144.531	42.432	-0.156	-0.140
-143.516	-129.670	0.249	0.034
-142.502	-200.000	0.066	0.425
-141.487	-200.000	0.006	0.224
-140.472	196.532	0.192	-0.289
-139.458	-11.986	-0.230	-0.149
-138.443	685.834	-0.102	-0.264
-137.429	-53.190	-0.245	-0.111
-136.414	564.536	0.019	0.045
-135.399	-54.436	0.302	-0.135
-134.385	-29.613	0.299	-0.168
-133.370	30.396	0.129	0.109
-132.356	104.970	0.072	-0.084
-131.341	547.160	-0.150	-0.355
-130.326	90.019	-0.258	0.284
-129.312	800.000	-0.034	0.104
-128.297	-200.000	-0.071	0.346
-127.283	-71.937	-0.122	0.045
-126.268	-113.997	0.295	-0.056
-125.253	-111.833	0.260	-0.052
-124.239	-14.659	0.101	-0.064
-123.224	5.499	0.318	-0.232
-122.210	0.715	0.109	0.077
-121.195	-200.000	-0.031	0.240
