DTS Sentinel unit serial number:	SN413079Multiplexer serial number:	ORYXHardware model number:	OX4-SRSoftware version number:	ORYX F/W v4.00 Oryx Data Collector v3.7.2.0data status	okinstallation	princeton_trtdifferential loss correction	single-endedforward channel	channel 3reverse channel	N/Adate	2019/09/18time	12:32:34forward acquisition time	60.00reverse acquisition time	0.00gamma	496.2192k internal	0.2319k external	0.2319temperature offset calibration	0.9963default loss term (dB/km)	0.3790temperature slope calibration	1.0000multiplexer offset coefficient	1.0000multiplexer slope coefficient	1.0000fibre end	0.00T internal ref (°C)	32.31T ext. ref 1 (°C)	0.52T ext. ref 2 (°C)	29.97length (m)	temperature (°C)	Stokes	anti-Stokes-747.200	-200.000	-0.038	0.408
-746.185	800.000	-0.107	0.324
-745.171	800.000	-0.061	-0.205
-744.156	-200.000	-0.030	0.149
-743.142	25.041	-0.142	-0.119
-742.127	101.089	-0.231	0.272
-741.112	-200.000	0.004	0.107
-740.098	185.258	-0.190	0.285
-739.083	-49.984	0.217	0.104
-738.069	-200.000	0.097	0.463
-737.054	-86.179	-0.228	-0.071
-736.039	89.771	-0.135	0.153
-735.025	151.106	0.160	0.220
-734.010	-63.116	-0.085	-0.036
-732.996	-144.997	-0.271	-0.025
-731.981	-90.336	0.405	-0.119
-730.966	-169.793	-0.103	-0.004
-729.952	318.996	-0.087	0.167
-728.937	4.003	-0.037	0.027
-727.923	800.000	-0.063	0.179
-726.908	-48.052	-0.355	-0.174
-725.894	-155.274	-0.176	0.012
-724.879	800.000	0.110	-0.418
-723.864	248.751	-0.029	0.049
-722.850	56.626	-0.013	0.013
-721.835	593.334	0.146	0.364
-720.821	-85.317	0.382	-0.120
-719.806	-23.214	0.186	-0.113
-718.791	-40.320	-0.137	0.072
-717.777	-133.442	0.135	0.017
-716.762	800.000	0.024	0.087
-715.748	-71.440	0.282	-0.107
-714.733	111.570	-0.149	-0.181
-713.718	800.000	-0.122	-0.388
-712.704	-200.000	-0.092	-0.511
-711.689	108.617	-0.009	-0.011
-710.675	38.077	-0.231	0.207
-709.660	-200.000	-0.019	-0.311
-708.645	32.010	0.166	-0.144
-707.631	800.000	-0.046	-0.159
-706.616	-72.652	-0.232	0.086
-705.602	-34.687	0.197	-0.109
-704.587	94.809	0.252	0.289
-703.572	-80.326	-0.079	-0.027
-702.558	-6.508	-0.256	-0.176
-701.543	-104.424	0.099	0.023
-700.529	-48.833	-0.080	0.039
-699.514	-119.624	0.305	-0.053
-698.499	85.126	-0.135	0.149
-697.485	-65.393	-0.146	0.059
-696.470	-105.621	-0.274	-0.063
-695.456	-16.222	0.238	0.153
-694.441	635.026	-0.031	-0.081
-693.426	133.025	-0.160	-0.208
-692.412	800.000	-0.050	0.211
-691.397	-158.287	-0.032	-0.002
-690.383	-87.345	-0.091	0.028
-689.368	-2.504	-0.112	0.079
-688.354	272.120	-0.235	-0.418
-687.339	-200.000	-0.028	0.272
-686.324	-200.000	0.039	0.208
-685.310	-98.317	0.600	-0.155
-684.295	-122.200	-0.154	-0.025
-683.281	-123.641	0.341	-0.055
-682.266	-134.362	-0.057	-0.007
-681.251	541.796	-0.120	0.288
-680.237	406.819	0.199	0.424
-679.222	800.000	0.039	-0.165
-678.208	-51.400	-0.128	0.060
-677.193	395.510	-0.152	-0.320
-676.178	129.568	-0.165	-0.212
-675.164	221.877	-0.169	0.275
-674.149	280.406	-0.273	-0.492
-673.135	-200.000	-0.034	-0.347
-672.120	800.000	0.054	-0.215
-671.105	-103.746	0.178	-0.042
-670.091	-200.000	-0.039	-0.291
-669.076	5.145	-0.190	-0.142
-668.062	12.713	0.041	0.032
-667.047	471.213	0.025	0.057
-666.032	-188.197	-0.061	-0.001
-665.018	5.983	-0.051	0.038
-664.003	59.174	-0.117	-0.117
-662.989	-58.241	-0.436	0.191
-661.974	800.000	-0.024	-0.094
-660.959	141.521	0.141	0.188
-659.945	-84.647	-0.313	0.099
-658.930	-4.486	0.274	-0.191
-657.916	-15.351	-0.275	0.177
-656.901	800.000	-0.049	-0.191
-655.886	-18.752	0.072	-0.045
-654.872	-47.475	0.280	-0.137
-653.857	-141.031	0.285	0.029
-652.843	-128.812	0.196	-0.028
-651.828	124.248	-0.123	-0.156
-650.814	-87.517	-0.127	-0.039
-649.799	-50.159	0.209	0.100
-648.784	429.876	0.041	-0.090
-647.770	-200.000	0.035	0.212
-646.755	-200.000	-0.008	0.062
-645.741	800.000	-0.064	0.199
-644.726	-132.331	0.040	-0.005
-643.711	453.886	0.048	0.107
-642.697	96.246	-0.172	0.198
-641.682	298.637	0.111	-0.206
-640.668	800.000	-0.151	0.438
-639.653	638.063	-0.027	-0.069
-638.638	395.179	0.116	-0.244
-637.624	133.138	0.181	-0.235
-636.609	800.000	-0.054	0.231
-635.595	-61.171	-0.303	-0.129
-634.580	6.292	-0.341	0.255
-633.565	-200.000	0.059	0.424
-632.551	274.993	0.055	0.098
-631.536	217.868	0.178	-0.287
-630.522	-80.381	0.103	0.035
-629.507	-200.000	-0.001	-0.009
-628.492	220.972	-0.037	0.060
-627.478	607.934	-0.041	0.104
-626.463	-86.246	-0.146	0.045
-625.449	168.560	-0.246	0.353
-624.434	324.163	0.151	-0.290
-623.419	800.000	0.039	-0.116
-622.405	-185.766	-0.175	-0.003
-621.390	-200.000	-0.023	0.133
-620.376	-126.573	0.241	0.036
-619.361	-47.902	-0.189	-0.092
-618.346	-75.561	-0.076	-0.027
-617.332	149.673	-0.145	0.197
-616.317	-98.865	-0.251	-0.064
-615.303	-95.166	-0.226	0.061
-614.288	-64.025	0.156	0.064
-613.273	-83.826	-0.059	0.019
-612.259	-200.000	0.010	0.181
-611.244	-158.075	0.205	0.012
-610.230	89.372	-0.236	0.264
-609.215	41.414	0.111	0.101
-608.201	-106.534	-0.166	0.037
-607.186	184.296	0.061	-0.090
-606.171	-143.649	-0.175	-0.017
-605.157	-116.211	-0.175	0.033
-604.142	508.667	0.058	-0.136
-603.128	75.472	-0.238	-0.252
-602.113	643.615	-0.063	-0.161
-601.098	605.240	0.080	0.200
-600.084	-189.536	0.168	0.002
-599.069	100.711	-0.163	0.191
-598.055	217.521	-0.043	0.070
-597.040	-123.106	-0.033	0.005
-596.025	-30.409	-0.165	0.094
-595.011	143.227	-0.115	-0.154
-593.996	296.124	0.072	-0.132
-592.982	-110.691	-0.422	0.088
-591.967	-89.722	-0.249	0.073
-590.952	-95.524	-0.231	0.062
-589.938	-200.000	-0.021	0.114
-588.923	-200.000	0.092	0.447
-587.909	800.000	-0.051	-0.148
-586.894	-161.087	0.170	-0.009
-585.879	-57.672	-0.071	-0.031
-584.865	287.158	-0.036	-0.066
-583.850	-114.663	-0.127	0.025
-582.836	-140.028	-0.033	-0.003
-581.821	-200.000	0.019	-0.314
-580.806	218.963	0.089	-0.143
-579.792	-116.028	-0.303	-0.057
-578.777	115.595	0.200	-0.246
-577.763	478.079	-0.037	-0.085
-576.748	-71.802	-0.314	-0.118
-575.733	-200.000	-0.004	0.201
-574.719	-109.358	-0.093	0.020
-573.704	57.291	0.159	-0.156
-572.690	-134.749	-0.334	0.041
-571.675	77.786	0.094	0.101
-570.661	-123.511	0.236	0.038
-569.646	-79.305	-0.147	0.050
-568.631	-57.508	0.104	0.046
-567.617	-115.237	0.309	0.059
-566.602	208.334	0.115	-0.180
-565.588	164.344	-0.163	0.231
-564.573	28.507	0.017	-0.015
-563.558	289.899	-0.121	-0.221
-562.544	676.616	-0.059	-0.155
-561.529	88.339	0.092	0.103
-560.515	27.967	0.234	0.198
-559.500	-186.466	0.153	-0.002
-558.485	-130.993	-0.131	-0.018
-557.471	-120.891	-0.210	0.035
-556.456	-200.000	0.005	0.164
-555.442	-191.627	-0.211	0.002
-554.427	800.000	-0.103	0.292
-553.412	-132.286	-0.365	0.047
-552.398	-178.161	-0.230	0.005
-551.383	-200.000	-0.004	0.469
-550.369	-151.933	0.150	-0.011
-549.354	-67.705	0.286	0.112
-548.339	622.470	-0.033	-0.083
-547.325	137.726	0.174	0.229
-546.310	-200.000	0.002	0.017
-545.296	-28.371	-0.073	-0.042
-544.281	-113.064	0.270	0.054
-543.266	-76.260	-0.089	0.032
-542.252	-105.154	-0.197	-0.045
-541.237	145.669	-0.449	0.603
-540.223	800.000	0.056	-0.180
-539.208	6.792	0.148	-0.111
-538.193	180.004	0.134	0.196
-537.179	-122.435	0.466	-0.076
-536.164	-17.863	0.080	-0.050
-535.150	67.650	-0.137	-0.140
-534.135	-18.184	-0.078	0.049
-533.121	-27.979	0.050	0.029
-532.106	-27.603	0.364	-0.212
-531.091	-108.858	-0.247	0.053
-530.077	0.277	-0.227	0.162
-529.062	651.442	-0.035	-0.091
-528.048	800.000	-0.105	-0.335
-527.033	-200.000	-0.014	-0.248
-526.018	-200.000	0.044	-0.202
-525.004	-101.016	-0.405	-0.100
-523.989	-186.904	0.390	0.005
-522.975	800.000	-0.044	-0.139
-521.960	-38.977	-0.434	-0.229
-520.945	19.624	0.250	0.202
-519.931	-105.606	-0.182	0.041
-518.916	273.414	-0.238	0.422
-517.902	-200.000	-0.031	-0.167
-516.887	-200.000	-0.005	-0.025
-515.872	58.450	0.215	-0.212
-514.858	141.856	-0.169	-0.224
-513.843	20.212	0.152	-0.123
-512.829	406.865	-0.304	0.644
-511.814	197.479	-0.154	0.236
-510.799	88.598	0.231	-0.257
-509.785	-137.717	0.284	0.032
-508.770	-200.000	-0.010	0.056
-507.756	228.828	-0.176	-0.288
-506.741	91.498	0.250	-0.281
-505.726	800.000	0.063	0.216
-504.712	-55.452	0.220	0.099
-503.697	250.318	0.162	0.275
-502.683	-121.255	0.129	0.022
-501.668	4.244	-0.166	-0.122
-500.653	-98.614	0.213	-0.054
-499.639	183.331	0.171	-0.253
-498.624	-49.536	0.351	-0.168
-497.610	-43.617	0.038	-0.019
-496.595	-15.941	-0.210	-0.134
-495.581	67.258	-0.086	0.088
-494.566	35.557	0.298	-0.262
-493.551	-43.506	0.083	0.042
-492.537	-102.991	0.157	0.037
-491.522	-25.943	0.155	-0.092
-490.508	-114.726	-0.294	-0.056
-489.493	-51.211	-0.338	-0.159
-488.478	-200.000	0.170	0.001
-487.464	-116.300	0.637	-0.118
-486.449	139.331	-0.387	-0.510
-485.435	-108.293	0.169	0.036
-484.420	107.946	-0.102	-0.122
-483.405	-59.275	-0.199	-0.086
-482.391	800.000	-0.080	0.326
-481.376	-200.000	0.020	-0.095
-480.362	800.000	-0.046	-0.191
-479.347	5.720	0.139	-0.103
-478.332	-200.000	0.017	0.166
-477.318	-21.156	-0.216	-0.133
-476.303	660.653	-0.047	0.122
-475.289	-91.726	0.267	0.076
-474.274	402.827	-0.064	-0.135
-473.259	-45.632	0.256	-0.127
-472.245	-5.423	-0.082	-0.056
-471.230	343.099	-0.077	0.150
-470.216	349.500	-0.140	0.276
-469.201	107.688	-0.277	-0.331
-468.186	414.390	0.088	-0.187
-467.172	-200.000	-0.005	0.339
-466.157	800.000	0.098	-0.334
-465.143	800.000	-0.035	0.125
-464.128	-30.554	0.137	-0.077
-463.113	-200.000	0.023	-0.453
-462.099	634.904	0.067	0.171
-461.084	-51.366	0.188	-0.088
-460.070	30.529	0.180	0.154
-459.055	-151.368	-0.242	0.018
-458.040	-104.615	-0.125	0.029
-457.026	-21.238	-0.218	-0.133
-456.011	-200.000	-0.028	-0.223
-454.997	-64.306	-0.211	-0.086
-453.982	-90.023	-0.203	-0.059
-452.968	800.000	-0.099	0.320
-451.953	132.085	-0.032	0.041
-450.938	-131.519	-0.166	0.022
-449.924	-15.984	0.256	-0.163
-448.909	-200.000	0.030	0.182
-447.895	-200.000	0.009	-0.136
-446.880	-200.000	0.015	0.150
-445.865	800.000	0.022	-0.065
-444.851	68.829	-0.102	-0.104
-443.836	457.122	0.031	-0.069
-442.822	-109.709	-0.270	-0.057
-441.807	-52.281	0.125	0.058
-440.792	-78.284	0.140	-0.048
-439.778	-9.551	-0.082	-0.055
-438.763	2.972	0.284	0.206
-437.749	-200.000	0.018	0.271
-436.734	-200.000	-0.022	-0.249
-435.719	-169.120	-0.479	-0.018
-434.705	-178.699	-0.138	-0.003
-433.690	-65.460	0.254	-0.102
-432.676	502.954	0.072	-0.166
-431.661	-64.621	0.293	-0.119
-430.646	-22.715	-0.138	0.083
-429.632	-13.761	-0.248	0.160
-428.617	-31.843	-0.109	0.061
-427.603	82.330	0.133	-0.144
-426.588	-200.000	0.258	0.001
-425.573	88.411	-0.324	0.360
-424.559	-37.065	-0.196	-0.105
-423.544	-54.687	-0.121	-0.055
-422.530	-96.556	0.071	0.019
-421.515	-150.668	-0.107	-0.008
-420.500	-57.239	0.096	0.042
-419.486	-104.467	-0.024	-0.006
-418.471	-6.622	0.373	0.254
-417.457	49.543	-0.125	0.118
-416.442	-200.000	0.030	0.159
-415.428	800.000	-0.099	0.316
-414.413	138.260	0.180	0.236
-413.398	800.000	0.091	0.302
-412.384	800.000	-0.073	-0.261
-411.369	800.000	-0.074	0.310
-410.355	57.982	-0.204	-0.199
-409.340	-96.367	-0.263	-0.069
-408.325	-43.666	-0.273	0.137
-407.311	-53.230	0.076	-0.035
-406.296	75.117	-0.205	-0.216
-405.282	3.337	-0.276	0.201
-404.267	572.940	-0.019	0.046
-403.252	-144.452	0.295	0.027
-402.238	800.000	-0.068	0.199
-401.223	-24.758	-0.154	-0.091
-400.209	-200.000	0.008	-0.074
-399.194	-57.641	0.406	-0.177
-398.179	-139.880	0.272	0.029
-397.165	-9.252	0.251	-0.167
-396.150	-147.528	-0.039	-0.003
-395.136	159.614	0.138	0.191
-394.121	402.336	0.027	-0.056
-393.106	-200.000	-0.008	-0.426
-392.092	-0.340	-0.108	-0.077
-391.077	186.902	0.141	-0.210
-390.063	-50.387	0.117	0.055
-389.048	71.238	-0.227	-0.234
-388.033	800.000	-0.055	-0.210
-387.019	-96.391	0.206	-0.054
-386.004	98.033	-0.050	-0.058
-384.990	-73.670	0.328	0.119
-383.975	800.000	0.052	-0.147
-382.960	-36.739	-0.118	-0.063
-381.946	-200.000	0.003	-0.113
-380.931	-10.347	0.161	-0.107
-379.917	800.000	-0.053	0.187
-378.902	-107.970	0.195	0.042
-377.888	112.953	0.156	0.188
-376.873	-52.892	-0.100	-0.046
-375.858	800.000	0.022	0.086
-374.844	800.000	-0.129	0.403
-373.829	-200.000	-0.007	0.114
-372.815	-154.087	-0.152	0.010
-371.800	-107.986	-0.175	-0.038
-370.785	-200.000	0.011	-0.312
-369.771	-77.687	-0.306	-0.106
-368.756	-137.316	-0.524	-0.059
-367.742	-123.446	0.221	0.035
-366.727	562.153	0.150	-0.363
-365.712	412.138	-0.175	-0.370
-364.698	-166.601	-0.218	-0.009
-363.683	-200.000	-0.080	0.363
-362.669	-9.272	0.248	-0.165
-361.654	800.000	-0.144	-0.510
-360.639	115.204	-0.102	0.125
-359.625	-151.825	0.119	0.009
-358.610	40.657	0.259	-0.232
-357.596	162.906	0.098	-0.137
-356.581	-116.205	0.417	0.077
-355.566	-200.000	0.157	0.000
-354.552	123.813	-0.100	-0.124
-353.537	-115.629	-0.086	0.016
-352.523	-138.454	0.268	0.029
-351.508	-84.256	0.122	-0.039
-350.493	114.894	-0.165	0.201
-349.479	-150.336	-0.094	0.007
-348.464	-145.599	-0.138	0.012
-347.450	93.100	-0.094	0.106
-346.435	198.674	0.126	-0.192
-345.420	-200.000	-0.009	-0.050
-344.406	184.671	0.130	0.191
-343.391	-175.100	-0.240	0.007
-342.377	-200.000	-0.029	-0.204
-341.362	-200.000	0.012	-0.231
-340.348	-59.347	0.181	0.078
-339.333	-9.105	0.081	0.054
-338.318	78.352	0.118	-0.126
-337.304	-122.969	-0.235	-0.038
-336.289	-200.000	0.000	0.102
-335.275	-77.058	0.178	0.062
-334.260	-200.000	0.037	-0.374
-333.245	-200.000	0.038	-0.228
-332.231	-57.236	0.030	0.013
-331.216	-200.000	0.052	0.241
-330.202	-87.404	-0.056	-0.017
-329.187	-101.734	-0.027	0.006
-328.172	-87.447	0.130	0.039
-327.158	-200.000	-0.007	0.078
-326.143	-70.206	-0.210	0.079
-325.129	-51.084	-0.142	-0.066
-324.114	61.231	0.176	-0.174
-323.099	-163.734	-0.427	0.020
-322.085	77.258	-0.170	0.180
-321.070	-74.574	0.179	0.064
-320.056	-104.382	0.245	-0.056
-319.041	-79.040	-0.222	0.075
-318.026	18.598	0.147	0.117
-317.012	-200.000	0.016	0.091
-315.997	-112.520	-0.230	-0.046
-314.983	10.191	-0.127	-0.096
-313.968	-145.126	-0.214	0.019
-312.953	-98.017	0.315	0.081
-311.939	204.143	0.118	0.183
-310.924	-104.972	0.419	-0.095
-309.910	76.281	-0.251	-0.264
-308.895	357.715	-0.143	-0.283
-307.880	30.319	0.244	-0.207
-306.866	91.113	-0.098	0.109
-305.851	-181.811	0.157	0.003
-304.837	551.798	0.063	-0.149
-303.822	-8.285	-0.200	-0.134
-302.807	800.000	0.083	-0.287
-301.793	-116.810	-0.349	-0.064
-300.778	-200.000	0.021	0.138
-299.764	-155.276	0.452	0.029
-298.749	142.972	0.054	0.072
-297.735	-138.224	0.151	-0.017
-296.720	16.899	0.153	0.120
-295.705	800.000	0.054	0.203
-294.691	761.932	0.129	0.347
-293.676	-160.433	-0.127	-0.007
-292.662	193.580	-0.076	0.114
-291.647	-98.102	-0.149	0.038
-290.632	360.060	0.042	0.083
-289.618	490.829	-0.017	-0.039
-288.603	-90.176	-0.192	-0.055
-287.589	-200.000	-0.011	0.330
-286.574	-147.698	-0.203	-0.017
-285.559	176.861	0.119	0.172
-284.545	17.830	-0.220	0.174
-283.530	-200.000	0.018	-0.323
-282.516	202.807	0.183	0.281
-281.501	-108.756	0.432	0.092
-280.486	-62.300	-0.308	-0.127
-279.472	-97.332	-0.227	0.059
-278.457	-106.962	-0.218	-0.048
-277.443	0.022	-0.090	0.063
-276.428	312.913	0.223	-0.415
-275.413	-101.203	-0.265	0.064
-274.399	54.022	0.084	-0.080
-273.384	-115.123	0.344	-0.065
-272.370	107.911	-0.084	0.099
-271.355	-113.376	0.316	0.062
-270.340	76.168	-0.176	0.185
-269.326	800.000	-0.077	-0.303
-268.311	-96.612	-0.198	0.052
-267.297	-107.117	0.353	-0.077
-266.282	-105.369	0.171	-0.039
-265.267	-106.737	0.157	0.035
-264.253	-73.413	0.436	-0.158
-263.238	5.161	-0.094	0.069
-262.224	119.043	0.243	-0.298
-261.209	480.147	-0.106	0.239
-260.195	35.590	0.248	0.216
-259.180	-200.000	0.015	-0.089
-258.165	124.488	-0.033	-0.041
-257.151	462.554	0.039	-0.087
-256.136	338.699	-0.055	-0.106
-255.122	-85.065	-0.313	-0.097
-254.107	-5.804	-0.080	-0.054
-253.092	800.000	0.008	0.027
-252.078	48.453	0.141	0.131
-251.063	87.494	0.032	0.035
-250.049	107.075	-0.077	-0.091
-249.034	-48.675	-0.160	0.076
-248.019	-200.000	-0.018	0.460
-247.005	-74.252	-0.271	0.097
-245.990	-200.000	0.049	0.374
-244.976	-42.056	-0.103	0.052
-243.961	199.217	0.150	-0.227
-242.946	220.437	-0.091	-0.146
-241.932	61.445	0.061	-0.060
-240.917	-14.947	-0.061	0.039
-239.903	-40.399	-0.045	0.023
-238.888	-6.200	-0.089	-0.060
-237.873	800.000	0.130	-0.456
-236.859	182.159	0.098	-0.144
-235.844	-156.339	0.182	-0.011
-234.830	18.513	-0.361	0.286
-233.815	-200.000	0.027	-0.397
-232.800	-145.965	0.301	0.026
-231.786	608.892	-0.135	0.335
-230.771	145.630	0.119	-0.158
-229.757	44.366	-0.127	-0.116
-228.742	39.044	0.388	0.344
-227.727	-200.000	-0.000	-0.156
-226.713	54.699	-0.184	0.176
-225.698	181.267	-0.041	-0.060
-224.684	103.154	0.159	0.184
-223.669	108.832	-0.088	0.104
-222.655	-200.000	0.002	0.073
-221.640	-200.000	0.046	0.335
-220.625	305.420	-0.067	-0.124
-219.611	83.118	0.141	0.152
-218.596	-138.897	0.030	-0.003
-217.582	800.000	-0.085	0.307
-216.567	51.238	0.085	0.080
-215.552	800.000	-0.084	0.361
-214.538	40.395	-0.083	0.074
-213.523	-200.000	0.005	-0.104
-212.509	-112.135	0.189	0.038
-211.494	195.402	0.258	-0.389
-210.479	692.797	0.063	-0.163
-209.465	-13.689	0.169	-0.108
-208.450	-74.756	0.108	0.038
-207.436	-11.193	-0.270	0.177
-206.421	-64.353	-0.113	-0.045
-205.406	-200.000	0.008	0.245
-204.392	-31.408	-0.209	-0.116
-203.377	-140.393	0.188	0.019
-202.363	30.979	0.163	-0.138
-201.348	60.900	0.047	-0.046
-200.333	9.615	-0.075	0.056
-199.319	-200.000	-0.007	-0.162
-198.304	-50.960	-0.268	0.125
-197.290	-200.000	0.017	0.134
-196.275	-12.364	0.213	-0.138
-195.260	6.386	-0.058	-0.042
-194.246	70.074	0.060	0.061
-193.231	-33.979	0.185	0.101
-192.217	133.070	0.064	-0.082
-191.202	-136.750	-0.105	0.012
-190.187	107.053	0.099	-0.116
-189.173	-79.451	0.366	-0.122
-188.158	88.436	-0.106	-0.117
-187.144	-38.326	0.112	0.059
-186.129	-18.816	-0.047	-0.029
-185.114	192.912	-0.160	0.239
-184.100	-67.885	0.271	-0.105
-183.085	522.137	0.062	-0.144
-182.071	141.607	0.124	-0.163
-181.056	-69.783	0.069	-0.026
-180.042	800.000	0.041	-0.150
-179.027	-200.000	0.016	-0.220
-178.012	31.652	0.121	-0.103
-176.998	-2.837	0.208	0.144
-175.983	-102.631	0.379	0.089
-174.969	800.000	0.054	0.152
-173.954	-200.000	-0.020	0.205
-172.939	-85.904	-0.203	-0.062
-171.925	-48.139	0.133	0.064
-170.910	387.406	-0.141	0.287
-169.896	190.967	-0.059	0.088
-168.881	800.000	0.193	0.639
-167.866	800.000	-0.070	0.286
-166.852	67.075	0.308	-0.310
-165.837	-200.000	0.075	-0.510
-164.823	-200.000	0.017	-0.212
-163.808	209.171	-0.048	0.074
-162.793	-39.350	0.226	0.117
-161.779	33.002	0.016	-0.014
-160.764	800.000	0.015	-0.044
-159.750	-68.171	0.147	0.057
-158.735	-4.187	-0.250	0.171
-157.720	-200.000	0.022	-0.254
-156.706	49.196	-0.070	0.065
-155.691	-147.387	-0.533	0.045
-154.677	71.330	-0.157	-0.161
-153.662	-200.000	0.029	-0.163
-152.647	800.000	0.025	-0.073
-151.633	29.112	0.334	0.280
-150.618	-56.672	0.194	-0.085
-149.604	467.258	0.022	0.048
-148.589	129.220	-0.138	0.174
-147.574	-45.394	0.276	-0.135
-146.560	-200.000	-0.015	-0.311
-145.545	108.103	0.094	0.111
-144.531	800.000	-0.024	0.098
-143.516	27.244	0.148	0.123
-142.502	444.970	0.057	-0.123
-141.487	-147.591	0.250	0.021
-140.472	-200.000	0.028	0.338
-139.458	81.425	-0.166	-0.177
-138.443	-19.694	0.131	0.080
-137.429	34.645	0.275	0.237
-136.414	14.656	0.330	-0.255
-135.399	-200.000	-0.003	0.377
-134.385	-43.614	0.178	-0.088
-133.370	11.632	0.262	0.198
-132.356	-6.449	0.195	0.132
-131.341	-70.083	-0.124	0.047
-130.326	302.028	0.208	-0.380
-129.312	-108.102	0.183	0.039
-128.297	800.000	0.096	-0.312
-127.283	-42.411	-0.074	0.037
-126.268	-149.343	0.136	-0.011
-125.253	-200.000	-0.001	-0.365
-124.239	-200.000	0.016	0.274
-123.224	-7.820	0.097	0.065
-122.210	-125.735	-0.327	-0.049
