DTS Sentinel unit serial number:	SN413079Multiplexer serial number:	ORYXHardware model number:	OX4-SRSoftware version number:	ORYX F/W v4.00 Oryx Data Collector v3.7.2.0data status	okinstallation	princeton_trtdifferential loss correction	single-endedforward channel	channel 3reverse channel	N/Adate	2019/09/18time	15:56:34forward acquisition time	60.00reverse acquisition time	0.00gamma	496.2192k internal	0.2294k external	0.2294temperature offset calibration	0.9978default loss term (dB/km)	0.3790temperature slope calibration	1.0000multiplexer offset coefficient	1.0000multiplexer slope coefficient	1.0000fibre end	0.00T internal ref (°C)	37.03T ext. ref 1 (°C)	0.80T ext. ref 2 (°C)	36.28length (m)	temperature (°C)	Stokes	anti-Stokes-747.200	46.532	0.019	-0.018
-746.185	108.025	-0.237	0.289
-745.171	13.587	-0.137	0.109
-744.156	-200.000	0.001	-0.034
-743.142	-200.000	0.045	0.246
-742.127	20.191	-0.132	0.109
-741.112	114.695	0.156	0.195
-740.098	-46.627	0.343	0.172
-739.083	-92.439	-0.315	0.090
-738.069	-111.285	-0.414	-0.086
-737.054	278.165	0.077	0.139
-736.039	-101.330	-0.268	0.067
-735.025	800.000	0.091	-0.338
-734.010	-200.000	-0.003	-0.110
-732.996	114.125	-0.032	-0.040
-731.981	304.805	0.022	0.043
-730.966	-120.787	-0.156	0.027
-729.952	71.102	-0.108	-0.114
-728.937	800.000	0.038	-0.128
-727.923	-127.995	-0.124	0.018
-726.908	-119.046	-0.142	-0.025
-725.894	54.047	0.206	0.203
-724.879	-165.412	0.148	0.007
-723.864	56.308	-0.100	-0.100
-722.850	-81.296	-0.082	-0.028
-721.835	63.570	0.131	-0.134
-720.821	-200.000	-0.012	-0.110
-719.806	59.956	0.219	-0.221
-718.791	16.521	-0.170	0.137
-717.777	-95.872	-0.385	0.105
-716.762	308.991	-0.166	0.317
-715.748	-52.361	0.132	0.062
-714.733	-160.396	0.288	-0.016
-713.718	95.625	-0.145	0.169
-712.704	-91.641	-0.294	-0.085
-711.689	-177.535	-0.167	0.004
-710.675	319.861	0.178	-0.346
-709.660	-200.000	-0.015	-0.129
-708.645	-200.000	-0.002	-0.133
-707.631	613.765	0.074	-0.190
-706.616	-27.684	0.152	0.090
-705.602	800.000	0.074	0.250
-704.587	209.171	-0.071	-0.113
-703.572	-200.000	-0.023	-0.116
-702.558	18.449	0.045	0.037
-701.543	-133.942	-0.047	-0.006
-700.529	-74.788	-0.305	0.112
-699.514	-45.921	0.148	-0.075
-698.499	48.799	-0.139	-0.133
-697.485	-114.638	0.244	0.048
-696.470	-200.000	0.070	-0.437
-695.456	-38.633	0.278	0.150
-694.441	-115.139	0.259	0.050
-693.426	-28.037	-0.242	-0.143
-692.412	1.363	-0.251	0.184
-691.397	-71.360	0.094	0.036
-690.383	-79.430	-0.210	-0.073
-689.368	278.244	0.214	0.389
-688.354	-146.306	0.047	0.004
-687.339	-8.535	-0.103	-0.071
-686.324	336.594	-0.116	-0.229
-685.310	-78.336	0.134	0.047
-684.295	-6.816	0.183	0.127
-683.281	482.336	-0.093	0.215
-682.266	-24.728	0.185	0.112
-681.251	31.843	0.314	0.276
-680.237	220.852	-0.087	0.142
-679.222	27.909	-0.196	0.169
-678.208	-85.967	-0.321	0.101
-677.193	-126.058	0.123	-0.019
-676.178	-21.573	-0.124	0.077
-675.164	313.403	0.157	0.302
-674.149	-63.901	0.097	0.041
-673.135	-200.000	0.007	0.064
-672.120	-200.000	0.023	0.111
-671.105	-200.000	-0.063	0.508
-670.091	69.164	-0.146	0.153
-669.076	397.462	-0.063	0.134
-668.062	-118.242	-0.223	0.040
-667.047	77.476	0.194	0.210
-666.032	0.597	0.082	0.060
-665.018	800.000	-0.024	-0.105
-664.003	-56.796	0.199	-0.090
-662.989	417.570	-0.142	-0.308
-661.974	-200.000	0.005	-0.164
-660.959	-58.102	-0.119	-0.053
-659.945	-46.088	-0.061	-0.031
-658.930	-5.554	0.297	0.208
-657.916	-1.627	0.267	-0.191
-656.901	-84.813	0.201	0.064
-655.886	58.073	-0.133	-0.133
-654.872	232.525	0.172	-0.287
-653.857	-4.107	-0.267	-0.188
-652.843	84.135	-0.266	0.297
-651.828	147.606	0.120	0.165
-650.814	-83.405	-0.089	-0.029
-649.799	-38.008	0.040	0.022
-648.784	16.416	-0.470	0.378
-647.770	50.861	0.031	0.030
-646.755	124.060	0.149	-0.191
-645.741	-174.387	-0.448	0.013
-644.726	-33.999	0.207	-0.116
-643.711	-133.386	0.270	0.035
-642.697	800.000	-0.099	-0.356
-641.682	-40.814	0.267	0.141
-640.668	69.890	0.194	0.204
-639.653	-137.707	0.278	-0.032
-638.638	-39.374	-0.197	-0.105
-637.624	223.500	0.055	-0.091
-636.609	-24.020	-0.105	-0.064
-635.595	-151.672	-0.228	0.017
-634.580	800.000	0.026	-0.082
-633.565	118.048	0.168	-0.211
-632.551	800.000	0.081	0.252
-631.536	-53.910	-0.232	0.108
-630.522	20.873	0.239	-0.197
-629.507	-49.412	0.385	-0.187
-628.492	-200.000	-0.001	-0.115
-627.478	89.147	-0.232	-0.263
-626.463	-136.356	-0.173	-0.020
-625.449	-191.377	0.365	-0.004
-624.434	-200.000	-0.046	-0.228
-623.419	-101.200	-0.383	0.095
-622.405	-172.030	-0.382	-0.013
-621.390	121.061	0.049	0.062
-620.376	-85.869	-0.115	0.036
-619.361	800.000	-0.015	0.048
-618.346	-31.852	0.170	0.097
-617.332	800.000	0.052	0.222
-616.317	346.443	-0.077	0.154
-615.303	-82.727	0.204	0.067
-614.288	2.569	-0.194	0.143
-613.273	-200.000	0.015	-0.248
-612.259	241.928	-0.055	-0.093
-611.244	-169.676	0.272	0.010
-610.230	388.674	0.048	-0.101
-609.215	-78.272	-0.047	-0.016
-608.201	-200.000	-0.044	0.322
-607.186	109.615	0.197	-0.241
-606.171	-80.146	0.115	-0.039
-605.157	87.117	-0.103	-0.116
-604.142	-160.385	-0.287	-0.016
-603.128	322.673	0.082	-0.159
-602.113	72.712	0.217	-0.230
-601.098	241.415	-0.123	0.209
-600.084	-78.760	-0.184	0.064
-599.069	-152.530	-0.133	-0.010
-598.055	-57.165	0.120	-0.054
-597.040	526.657	-0.107	0.257
-596.025	222.422	-0.038	-0.062
-595.011	-130.658	0.236	-0.032
-593.996	-12.936	0.167	-0.110
-592.982	-200.000	0.043	0.376
-591.967	-68.953	-0.119	0.046
-590.952	166.324	-0.078	0.112
-589.938	-115.444	-0.171	0.033
-588.923	185.132	-0.224	-0.337
-587.909	-200.000	0.028	0.139
-586.894	-6.536	0.025	0.017
-585.879	800.000	-0.153	0.452
-584.865	-200.000	0.045	0.318
-583.850	-81.067	0.156	-0.053
-582.836	-48.180	0.069	0.034
-581.821	-163.159	0.237	0.012
-580.806	1.872	-0.180	0.132
-579.792	324.158	-0.077	0.149
-578.777	1.753	-0.317	0.232
-577.763	800.000	0.079	0.312
-576.748	46.490	-0.151	0.142
-575.733	156.173	-0.154	-0.215
-574.719	-12.277	-0.424	0.281
-573.704	-200.000	-0.003	0.208
-572.690	-153.629	0.080	0.006
-571.675	-52.590	0.331	-0.155
-570.661	32.069	-0.107	0.093
-569.646	388.392	-0.101	-0.213
-568.631	800.000	0.047	0.142
-567.617	36.044	-0.193	-0.173
-566.602	-200.000	0.020	-0.381
-565.588	-140.796	-0.134	-0.014
-564.573	-47.841	0.255	-0.126
-563.558	-67.033	0.202	0.081
-562.544	423.573	0.123	0.267
-561.529	21.918	-0.112	0.093
-560.515	-12.501	0.075	-0.049
-559.500	22.805	-0.091	0.076
-558.485	643.251	0.083	0.214
-557.471	-45.683	0.339	-0.170
-556.456	-200.000	0.025	-0.171
-555.442	-17.190	-0.272	-0.174
-554.427	-137.575	-0.588	-0.067
-553.412	-65.049	-0.144	0.059
-552.398	383.601	0.068	0.142
-551.383	-91.948	-0.120	-0.035
-550.369	71.931	0.038	-0.041
-549.354	20.042	0.094	0.077
-548.339	9.611	0.258	0.199
-547.325	-70.141	0.241	0.093
-546.310	130.031	0.108	0.140
-545.296	-10.010	-0.139	0.094
-544.281	-26.392	0.096	0.057
-543.266	-200.000	0.000	0.025
-542.252	272.550	-0.117	0.210
-541.237	-200.000	0.020	-0.146
-540.223	-48.366	0.191	0.093
-539.208	0.910	0.221	-0.161
-538.193	99.553	-0.104	-0.122
-537.179	326.320	-0.130	-0.253
-536.164	295.043	0.166	-0.308
-535.150	-75.546	-0.485	0.175
-534.135	-111.806	0.357	-0.073
-533.121	231.459	0.275	-0.458
-532.106	-94.524	0.175	-0.048
-531.091	58.819	-0.069	0.068
-530.077	-69.394	-0.424	-0.165
-529.062	-104.035	-0.271	-0.064
-528.048	800.000	-0.026	-0.074
-527.033	800.000	-0.063	-0.244
-526.018	-123.474	-0.170	0.027
-525.004	-47.033	0.293	0.145
-523.989	-100.146	0.218	-0.055
-522.975	33.678	0.122	-0.108
-521.960	-98.506	-0.378	0.098
-520.945	-33.102	0.342	-0.192
-519.931	-200.000	-0.018	-0.108
-518.916	-18.214	0.178	0.113
-517.902	53.783	0.472	0.459
-516.887	800.000	0.033	0.143
-515.872	9.901	-0.108	0.083
-514.858	61.077	0.238	0.240
-513.843	-72.160	-0.051	0.019
-512.829	172.986	0.036	-0.052
-511.814	-188.784	0.283	0.004
-510.799	-134.105	0.171	-0.021
-509.785	800.000	0.096	0.341
-508.770	-25.475	-0.159	-0.095
-507.756	-200.000	-0.037	-0.237
-506.741	178.919	0.050	0.073
-505.726	16.535	-0.055	0.044
-504.712	109.387	0.065	0.079
-503.697	-68.588	0.376	-0.148
-502.683	-64.450	-0.174	-0.072
-501.668	-200.000	0.000	0.047
-500.653	690.739	-0.117	0.311
-499.639	-74.729	-0.256	0.093
-498.624	354.474	0.154	-0.309
-497.610	-112.155	-0.195	0.040
-496.595	-114.476	-0.149	-0.029
-495.581	-19.177	-0.262	-0.165
-494.566	-200.000	0.020	0.224
-493.551	-2.417	0.241	-0.171
-492.537	-200.000	-0.017	0.110
-491.522	-45.707	-0.200	-0.100
-490.508	800.000	0.076	-0.293
-489.493	-90.720	-0.080	-0.024
-488.478	-143.140	-0.425	-0.042
-487.464	224.176	-0.205	-0.335
-486.449	-25.781	0.349	-0.208
-485.435	-127.214	0.117	0.017
-484.420	-7.346	-0.127	0.087
-483.405	800.000	0.134	0.412
-482.391	519.615	-0.140	-0.333
-481.376	800.000	0.107	0.390
-480.362	329.935	0.048	-0.093
-479.347	-200.000	-0.004	0.214
-478.332	195.050	-0.046	-0.071
-477.318	-51.401	0.207	-0.098
-476.303	-200.000	0.046	-0.237
-475.289	800.000	0.103	0.297
-474.274	528.442	0.020	-0.047
-473.259	800.000	-0.052	0.218
-472.245	687.258	-0.071	0.189
-471.230	-200.000	0.016	0.171
-470.216	-114.600	0.121	-0.023
-469.201	152.365	-0.097	-0.135
-468.186	-200.000	0.019	0.121
-467.172	800.000	0.081	-0.341
-466.157	-0.582	-0.102	0.073
-465.143	800.000	0.073	-0.276
-464.128	-200.000	-0.002	-0.280
-463.113	-99.570	-0.445	0.113
-462.099	-101.938	0.340	0.083
-461.084	518.777	-0.045	0.106
-460.070	-45.101	-0.152	-0.076
-459.055	-200.000	-0.016	-0.332
-458.040	124.262	0.161	0.205
-457.026	-200.000	-0.018	0.220
-456.011	8.869	-0.122	-0.093
-454.997	-32.930	-0.110	0.062
-453.982	87.646	0.173	0.194
-452.968	-45.277	-0.180	-0.090
-451.953	355.807	0.015	-0.030
-450.938	91.732	-0.289	-0.328
-449.924	-93.688	-0.095	0.026
-448.909	-61.948	-0.101	-0.043
-447.895	-200.000	0.036	-0.254
-446.880	118.425	0.135	-0.169
-445.865	22.807	-0.230	-0.191
-444.851	-200.000	-0.005	-0.388
-443.836	-91.304	0.107	0.031
-442.822	143.807	-0.062	-0.083
-441.807	131.946	0.065	0.085
-440.792	-200.000	0.001	0.185
-439.778	130.175	-0.285	0.369
-438.763	36.410	0.197	-0.176
-437.749	-46.293	0.369	0.183
-436.734	-200.000	-0.053	-0.310
-435.719	-95.499	0.108	-0.029
-434.705	2.983	0.199	0.146
-433.690	270.281	-0.029	0.052
-432.676	33.589	-0.048	0.042
-431.661	-200.000	-0.007	-0.205
-430.646	91.916	-0.086	-0.098
-429.632	-107.513	0.195	0.043
-428.617	-106.763	-0.181	-0.041
-427.603	-103.845	-0.096	0.023
-426.588	-113.434	-0.132	0.026
-425.573	140.517	0.244	-0.325
-424.559	-111.668	0.018	-0.004
-423.544	-120.568	0.261	-0.045
-422.530	800.000	-0.021	0.087
-421.515	-31.722	0.179	-0.101
-420.500	-200.000	-0.010	0.043
-419.486	57.120	-0.083	0.082
-418.471	-59.746	0.111	0.048
-417.457	-10.517	-0.123	0.083
-416.442	-28.617	0.054	0.031
-415.428	-3.081	-0.050	0.035
-414.413	-96.950	-0.070	-0.018
-413.398	41.156	0.042	0.039
-412.384	583.366	-0.018	-0.045
-411.369	-47.751	0.004	-0.002
-410.355	193.688	-0.037	-0.056
-409.340	166.150	-0.250	-0.357
-408.325	-200.000	-0.052	0.368
-407.311	228.238	0.073	0.120
-406.296	800.000	0.061	-0.173
-405.282	-165.102	-0.232	0.010
-404.267	-200.000	-0.051	0.371
-403.252	361.127	-0.071	-0.143
-402.238	-90.770	0.404	-0.118
-401.223	-27.581	-0.341	0.200
-400.209	-52.574	0.208	-0.097
-399.194	-42.455	-0.055	0.028
-398.179	170.075	-0.095	-0.137
-397.165	41.559	-0.229	-0.209
-396.150	-200.000	0.002	0.414
-395.136	464.671	-0.039	-0.087
-394.121	245.167	-0.083	0.141
-393.106	-103.432	0.219	-0.052
-392.092	161.402	-0.138	-0.195
-391.077	77.516	0.145	0.156
-390.063	-141.949	-0.183	-0.018
-389.048	800.000	0.091	0.291
-388.033	-46.901	-0.201	-0.099
-387.019	-200.000	0.017	0.120
-386.004	751.963	-0.149	-0.405
-384.990	-133.007	-0.133	-0.017
-383.975	-200.000	-0.027	0.132
-382.960	399.100	-0.102	-0.215
-381.946	5.647	0.213	-0.159
-380.931	-88.680	0.155	0.046
-379.917	-55.574	-0.251	0.113
-378.902	-19.477	-0.056	0.035
-377.888	759.268	0.032	0.088
-376.873	-200.000	-0.037	0.228
-375.858	-200.000	0.021	-0.113
-374.844	59.361	-0.018	-0.018
-373.829	306.815	-0.090	-0.169
-372.815	-155.918	-0.174	0.011
-371.800	36.462	-0.163	-0.145
-370.785	122.937	-0.183	-0.231
-369.771	41.517	-0.141	-0.129
-368.756	-161.968	-0.269	0.014
-367.742	-200.000	0.002	-0.084
-366.727	-86.005	0.298	-0.093
-365.712	136.660	0.063	0.083
-364.698	-13.925	0.142	-0.092
-363.683	-133.030	0.051	0.006
-362.669	-129.118	-0.069	0.010
-361.654	-76.222	-0.158	-0.056
-360.639	299.832	0.176	0.327
-359.625	-54.548	-0.242	-0.110
-358.610	-200.000	0.052	-0.335
-357.596	221.331	0.113	-0.183
-356.581	-200.000	-0.036	0.231
-355.566	-46.251	0.044	0.022
-354.552	-5.756	0.083	-0.057
-353.537	800.000	-0.064	-0.213
-352.523	-86.133	0.279	-0.087
-351.508	556.731	-0.122	-0.295
-350.493	658.291	0.181	-0.469
-349.479	-200.000	-0.026	0.245
-348.464	-200.000	0.066	0.313
-347.450	-107.708	0.300	0.066
-346.435	-124.022	-0.150	0.024
-345.420	-176.273	0.269	0.007
-344.406	-123.552	0.236	-0.038
-343.391	800.000	0.055	-0.159
-342.377	141.021	-0.113	0.151
-341.362	-31.311	-0.275	0.156
-340.348	-200.000	0.046	0.243
-339.333	-14.112	-0.213	0.138
-338.318	-23.140	0.322	0.195
-337.304	-200.000	0.027	-0.143
-336.289	-200.000	0.051	-0.282
-335.275	494.669	0.143	0.331
-334.260	-91.923	-0.156	-0.045
-333.245	296.924	0.034	0.063
-332.231	15.506	-0.046	0.036
-331.216	-166.557	0.108	0.005
-330.202	7.934	-0.273	0.206
-329.187	219.631	0.108	0.174
-328.172	31.921	-0.178	0.154
-327.158	84.253	0.187	-0.205
-326.143	380.909	0.052	0.108
-325.129	-10.730	0.132	-0.088
-324.114	104.118	0.326	0.385
-323.099	111.472	0.085	0.103
-322.085	-200.000	-0.063	-0.295
-321.070	-48.241	0.260	0.126
-320.056	2.016	-0.138	0.100
-319.041	-106.673	-0.108	-0.024
-318.026	800.000	-0.092	-0.268
-317.012	800.000	-0.045	-0.159
-315.997	-36.347	-0.210	-0.114
-314.983	96.781	-0.114	-0.131
-313.968	793.762	0.100	0.276
-312.953	-200.000	-0.001	0.133
-311.939	-5.967	-0.075	0.052
-310.924	-114.553	0.078	0.015
-309.910	-55.927	0.397	0.178
-308.895	800.000	-0.057	0.206
-307.880	402.355	-0.178	0.377
-306.866	342.732	-0.137	-0.269
-305.851	-116.801	-0.213	0.039
-304.837	-200.000	0.025	-0.242
-303.822	-67.129	0.033	-0.013
-302.807	428.294	0.096	-0.208
-301.793	26.071	-0.071	0.060
-300.778	-200.000	0.026	-0.129
-299.764	84.460	0.171	-0.188
-298.749	-200.000	-0.073	-0.418
-297.735	-153.608	-0.126	-0.009
-296.720	-114.582	-0.233	-0.045
-295.705	-149.773	0.202	0.016
-294.691	154.468	0.046	0.063
-293.676	-200.000	0.015	0.174
-292.662	-200.000	0.046	0.272
-291.647	-200.000	0.031	-0.174
-290.632	-200.000	-0.057	0.286
-289.618	29.481	-0.120	-0.102
-288.603	-126.457	0.348	0.052
-287.589	205.455	0.160	0.249
-286.574	-125.033	0.341	0.053
-285.559	-114.502	-0.260	0.050
-284.545	-91.930	0.286	-0.082
-283.530	173.701	0.064	-0.092
-282.516	-48.811	-0.156	-0.075
-281.501	297.141	0.163	0.301
-280.486	276.504	-0.056	-0.100
-279.472	23.636	0.249	-0.205
-278.457	-200.000	0.050	-0.322
-277.443	-160.227	0.104	0.006
-276.428	59.705	0.280	-0.278
-275.413	-86.031	0.211	-0.066
-274.399	800.000	0.111	-0.370
-273.384	-53.787	0.196	0.090
-272.370	-44.388	-0.133	-0.067
-271.355	21.961	-0.039	-0.032
-270.340	-11.855	-0.128	0.084
-269.326	-200.000	0.232	0.000
-268.311	-200.000	-0.014	0.152
-267.297	-200.000	0.022	-0.262
-266.282	-14.474	0.114	0.074
-265.267	448.413	-0.079	-0.175
-264.253	-200.000	-0.033	-0.290
-263.238	133.865	-0.087	-0.113
-262.224	-200.000	-0.026	-0.260
-261.209	-43.749	0.208	-0.105
-260.195	-200.000	-0.015	0.201
-259.180	23.888	-0.038	0.032
-258.165	-144.348	0.435	-0.041
-257.151	139.064	-0.067	-0.088
-256.136	621.095	-0.124	-0.312
-255.122	-103.841	-0.487	-0.114
-254.107	43.048	0.116	-0.106
-253.092	-200.000	0.023	-0.105
-252.078	95.426	-0.154	-0.176
-251.063	167.348	0.219	0.312
-250.049	60.629	0.270	0.269
-249.034	-100.601	0.096	-0.024
-248.019	208.951	0.049	0.077
-247.005	-200.000	-0.002	-0.301
-245.990	21.537	0.168	0.137
-244.976	-100.986	-0.278	-0.069
-243.961	729.245	0.052	0.139
-242.946	800.000	-0.057	0.197
-241.932	62.680	0.156	0.156
-240.917	-102.354	-0.381	0.092
-239.903	800.000	0.123	-0.401
-238.888	800.000	-0.069	-0.230
-237.873	800.000	-0.029	-0.096
-236.859	-70.218	0.305	0.116
-235.844	-61.123	-0.239	-0.101
-234.830	87.471	0.112	0.125
-233.815	-41.349	0.362	-0.187
-232.800	-200.000	-0.005	0.059
-231.786	72.061	0.111	-0.116
-230.771	-200.000	-0.031	0.148
-229.757	800.000	0.067	0.211
-228.742	79.381	-0.159	-0.171
-227.727	91.444	-0.212	0.238
-226.713	-200.000	-0.031	0.476
-225.698	-200.000	-0.090	-0.434
-224.684	127.951	-0.090	-0.115
-223.669	-156.962	-0.217	0.013
-222.655	-35.319	-0.360	-0.196
-221.640	-86.111	-0.365	0.113
-220.625	-96.185	0.073	0.019
-219.611	-98.151	-0.129	0.033
-218.596	800.000	-0.060	-0.170
-217.582	56.316	-0.160	-0.155
-216.567	2.113	0.155	0.112
-215.552	413.962	-0.034	0.073
-214.538	-200.000	-0.025	-0.353
-213.523	800.000	-0.061	-0.250
-212.509	184.500	-0.252	0.375
-211.494	-77.587	-0.178	-0.062
-210.479	-200.000	0.001	-0.020
-209.465	268.866	-0.041	0.072
-208.450	-121.606	0.085	-0.014
-207.436	233.162	-0.080	0.131
-206.421	-85.654	0.088	-0.027
-205.406	75.340	0.097	0.102
-204.392	-200.000	-0.001	0.143
-203.377	-99.735	0.242	-0.061
-202.363	-25.337	-0.017	0.010
-201.348	60.835	0.110	0.109
-200.333	800.000	-0.082	-0.310
-199.319	34.339	0.113	-0.099
-198.304	676.592	0.064	-0.166
-197.290	31.713	-0.159	0.137
-196.275	-63.865	-0.222	0.091
-195.260	-104.384	-0.123	0.029
-194.246	614.784	0.132	0.330
-193.231	1.639	-0.184	0.133
-192.217	18.745	0.072	0.057
-191.202	327.049	-0.197	0.377
-190.187	-39.098	0.243	0.128
-189.173	-200.000	-0.037	0.179
-188.158	-107.098	0.348	0.077
-187.144	-200.000	-0.028	-0.137
-186.129	-15.042	-0.114	0.073
-185.114	-200.000	0.008	0.222
-184.100	-19.375	-0.237	-0.147
-183.085	11.020	-0.250	0.191
-182.071	549.432	0.012	0.028
-181.056	40.614	-0.040	0.036
-180.042	11.112	-0.242	0.185
-179.027	186.059	-0.076	0.113
-178.012	-200.000	-0.052	0.238
-176.998	-98.714	-0.057	0.014
-175.983	216.390	0.119	-0.189
-174.969	-55.502	-0.101	0.045
-173.954	449.471	0.114	0.251
-172.939	67.060	0.153	0.156
-171.925	800.000	-0.060	-0.230
-170.910	-48.246	0.172	0.083
-169.896	200.632	0.097	0.149
-168.881	-116.417	0.255	-0.047
-167.866	-80.490	0.190	-0.063
-166.852	800.000	0.024	0.102
-165.837	-200.000	-0.035	0.162
-164.823	-46.838	0.105	0.052
-163.808	-200.000	0.041	-0.191
-162.793	-161.613	-0.140	-0.007
-161.779	326.452	0.044	0.084
-160.764	57.599	-0.061	0.059
-159.750	-132.638	-0.269	0.034
-158.735	186.605	0.249	0.370
-157.720	5.951	-0.110	-0.081
-156.706	-95.466	-0.431	-0.115
-155.691	-92.318	-0.094	0.026
-154.677	-120.586	0.228	0.039
-153.662	-200.000	-0.006	0.055
-152.647	-200.000	0.003	0.229
-151.633	-90.942	0.326	-0.094
-150.618	-27.312	0.348	0.203
-149.604	-200.000	-0.007	0.270
-148.589	55.417	0.274	0.265
-147.574	-200.000	0.043	0.216
-146.560	800.000	-0.023	0.094
-145.545	632.247	-0.094	-0.238
-144.531	781.032	0.144	-0.393
-143.516	-17.081	0.257	-0.162
-142.502	190.213	-0.098	-0.147
-141.487	2.327	0.053	-0.038
-140.472	60.348	-0.043	0.043
-139.458	134.821	-0.321	-0.416
-138.443	-112.670	-0.157	0.031
-137.429	-200.000	0.007	0.222
-136.414	-19.447	0.183	0.113
-135.399	523.403	0.016	0.038
-134.385	80.713	0.118	0.127
-133.370	139.164	0.204	-0.268
-132.356	553.487	-0.116	-0.279
-131.341	51.136	0.110	0.104
-130.326	56.966	-0.097	-0.094
-129.312	-49.411	0.195	0.093
-128.297	789.388	0.028	0.078
-127.283	82.872	0.046	-0.050
-126.268	-58.712	-0.210	-0.091
-125.253	-130.009	0.549	-0.075
-124.239	174.629	-0.251	0.362
-123.224	-18.291	-0.352	-0.220
-122.210	-182.194	-0.116	0.002
-121.195	-184.328	0.047	0.001
-120.180	238.681	0.018	0.030
