DTS Sentinel unit serial number:	SN413079Multiplexer serial number:	ORYXHardware model number:	OX4-SRSoftware version number:	ORYX F/W v4.00 Oryx Data Collector v3.7.2.0data status	okinstallation	princeton_trtdifferential loss correction	single-endedforward channel	channel 3reverse channel	N/Adate	2019/09/14time	07:48:35forward acquisition time	60.00reverse acquisition time	0.00gamma	496.2192k internal	0.2338k external	0.2338temperature offset calibration	1.0053default loss term (dB/km)	0.3790temperature slope calibration	1.0000multiplexer offset coefficient	1.0000multiplexer slope coefficient	1.0000fibre end	0.00T internal ref (°C)	26.45T ext. ref 1 (°C)	3.49T ext. ref 2 (°C)	22.91length (m)	temperature (°C)	Stokes	anti-Stokes-747.200	-200.000	-0.017	-0.087
-746.185	-187.398	0.176	0.002
-745.171	281.895	0.066	-0.118
-744.156	-94.054	0.142	-0.039
-743.142	800.000	-0.016	-0.046
-742.127	-200.000	-0.024	0.139
-741.112	257.315	0.268	-0.462
-740.098	-200.000	-0.015	0.285
-739.083	-42.806	0.397	0.202
-738.069	8.799	-0.277	0.210
-737.054	305.567	-0.056	0.105
-736.039	-67.623	-0.297	-0.117
-735.025	-200.000	0.050	0.233
-734.010	-79.228	0.075	0.025
-732.996	-125.267	-0.490	0.075
-731.981	-191.096	-0.386	0.004
-730.966	35.442	0.346	0.304
-729.952	-200.000	0.057	0.333
-728.937	-200.000	0.016	0.213
-727.923	-74.994	-0.104	0.037
-726.908	-32.146	0.038	0.022
-725.894	-200.000	-0.001	0.026
-724.879	-123.165	-0.388	0.062
-723.864	-97.650	-0.195	-0.051
-722.850	-118.884	0.053	0.009
-721.835	207.528	0.257	0.403
-720.821	-200.000	-0.005	0.137
-719.806	-73.454	0.118	0.043
-718.791	-84.841	0.136	-0.043
-717.777	88.005	-0.181	0.201
-716.762	-92.271	-0.312	0.088
-715.748	-200.000	0.047	0.398
-714.733	800.000	-0.092	0.270
-713.718	-200.000	0.003	-0.067
-712.704	241.692	0.035	-0.058
-711.689	-107.110	-0.144	0.032
-710.675	54.019	0.119	-0.114
-709.660	-102.053	0.323	-0.078
-708.645	-82.501	0.512	-0.166
-707.631	69.702	0.082	-0.085
-706.616	-115.575	0.222	0.042
-705.602	-99.818	-0.214	-0.054
-704.587	-108.846	0.530	0.114
-703.572	-32.012	0.185	0.104
-702.558	-200.000	0.012	0.191
-701.543	-25.121	0.688	0.408
-700.529	519.071	0.097	-0.228
-699.514	118.246	-0.201	0.249
-698.499	-24.824	-0.069	-0.041
-697.485	800.000	-0.080	-0.244
-696.470	322.268	-0.057	-0.109
-695.456	-112.071	0.141	0.028
-694.441	-30.126	0.041	0.023
-693.426	-14.035	-0.159	-0.103
-692.412	187.622	-0.080	-0.120
-691.397	-200.000	-0.004	0.029
-690.383	-2.930	-0.104	-0.073
-689.368	-33.408	0.114	0.063
-688.354	563.545	-0.025	-0.061
-687.339	-186.208	-0.275	-0.004
-686.324	235.097	-0.109	-0.180
-685.310	800.000	0.051	-0.223
-684.295	162.945	0.116	-0.163
-683.281	151.369	0.151	0.206
-682.266	-121.430	-0.356	0.059
-681.251	-200.000	-0.039	0.182
-680.237	72.452	-0.072	-0.075
-679.222	219.650	0.058	0.092
-678.208	-95.772	-0.256	-0.068
-677.193	196.649	-0.140	-0.214
-676.178	-63.988	-0.216	0.088
-675.164	-200.000	0.096	-0.560
-674.149	-78.822	0.258	0.088
-673.135	610.752	-0.087	-0.217
-672.120	800.000	0.107	0.301
-671.105	-141.375	0.114	0.012
-670.091	268.027	-0.137	-0.240
-669.076	-102.134	-0.072	0.017
-668.062	-27.458	0.121	0.070
-667.047	-102.375	-0.062	-0.015
-666.032	-97.913	0.131	0.034
-665.018	-96.090	0.199	-0.053
-664.003	27.073	0.177	-0.148
-662.989	-65.027	0.464	-0.187
-661.974	800.000	-0.033	-0.136
-660.959	82.278	-0.051	0.055
-659.945	-200.000	0.057	0.351
-658.930	688.733	0.071	0.185
-657.916	6.538	0.062	0.046
-656.901	-156.766	-0.611	0.038
-655.886	400.174	0.072	-0.150
-654.872	800.000	0.018	-0.078
-653.857	-156.903	0.296	0.018
-652.843	-200.000	0.007	-0.145
-651.828	-200.000	0.012	-0.222
-650.814	25.217	-0.103	0.086
-649.799	-112.097	-0.231	0.046
-648.784	-5.578	-0.155	0.106
-647.770	-200.000	-0.003	-0.036
-646.755	-117.694	0.161	0.029
-645.741	-82.622	-0.262	-0.085
-644.726	-16.180	-0.206	0.131
-643.711	-93.751	-0.063	-0.017
-642.697	-75.967	-0.122	-0.043
-641.682	3.876	0.046	0.033
-640.668	17.188	0.146	0.116
-639.653	-90.752	0.328	-0.094
-638.638	17.761	-0.234	0.186
-637.624	-31.390	0.073	-0.041
-636.609	48.063	-0.229	-0.214
-635.595	800.000	0.036	0.129
-634.580	-39.032	0.093	-0.049
-633.565	66.808	-0.250	0.254
-632.551	-120.362	-0.201	-0.034
-631.536	187.490	0.068	-0.102
-630.522	-200.000	-0.089	-0.428
-629.507	-200.000	0.067	-0.392
-628.492	361.104	0.020	0.039
-627.478	-140.690	0.258	-0.027
-626.463	800.000	-0.087	0.258
-625.449	-97.787	-0.117	-0.030
-624.434	59.009	0.208	0.204
-623.419	-200.000	0.006	-0.167
-622.405	-38.914	0.312	0.164
-621.390	43.213	0.263	0.240
-620.376	-200.000	0.042	0.236
-619.361	800.000	0.040	0.152
-618.346	-40.180	0.232	-0.120
-617.332	-200.000	-0.034	-0.181
-616.317	-157.642	-0.072	-0.004
-615.303	-64.505	0.037	0.015
-614.288	124.397	-0.076	0.095
-613.273	-122.887	-0.247	-0.040
-612.259	-38.000	0.116	-0.061
-611.244	-46.434	0.102	0.050
-610.230	-69.765	0.125	-0.048
-609.215	-120.031	-0.231	-0.040
-608.201	35.116	0.160	0.140
-607.186	110.267	0.053	0.064
-606.171	-35.151	0.106	0.058
-605.157	-92.115	0.200	-0.056
-604.142	121.906	0.080	-0.100
-603.128	321.043	-0.164	0.311
-602.113	800.000	0.096	-0.374
-601.098	118.814	0.063	-0.078
-600.084	-170.415	0.217	-0.008
-599.069	-55.911	-0.030	-0.013
-598.055	166.955	0.168	0.238
-597.040	800.000	-0.050	-0.216
-596.025	-190.508	-0.454	0.005
-595.011	800.000	-0.092	-0.399
-593.996	304.669	-0.161	0.298
-592.982	800.000	0.039	0.131
-591.967	-174.930	-0.175	0.005
-590.952	-151.889	0.256	-0.019
-589.938	-87.823	-0.192	0.058
-588.923	-178.015	-0.192	-0.005
-587.909	232.286	-0.037	-0.061
-586.894	147.250	-0.170	-0.228
-585.879	410.371	0.046	0.097
-584.865	56.967	-0.069	-0.067
-583.850	27.542	0.167	0.140
-582.836	399.144	-0.027	-0.056
-581.821	-184.178	-0.368	-0.006
-580.806	-200.000	0.055	0.245
-579.792	-95.004	0.143	-0.038
-578.777	-200.000	-0.044	-0.279
-577.763	800.000	-0.049	-0.142
-576.748	68.502	-0.114	-0.117
-575.733	-53.672	0.144	-0.066
-574.719	14.304	0.283	-0.220
-573.704	185.449	0.136	-0.201
-572.690	-79.405	-0.200	-0.067
-571.675	-61.727	0.048	0.020
-570.661	-2.224	0.263	0.184
-569.646	-200.000	-0.087	-0.472
-568.631	-39.626	-0.137	-0.071
-567.617	-200.000	0.005	-0.207
-566.602	151.871	-0.210	-0.285
-565.588	-68.250	0.306	-0.119
-564.573	14.131	-0.272	0.211
-563.558	-200.000	-0.054	0.308
-562.544	-185.343	0.263	0.004
-561.529	101.686	0.164	0.190
-560.515	-200.000	-0.048	-0.334
-559.500	800.000	-0.025	-0.081
-558.485	140.418	-0.015	0.020
-557.471	-35.661	-0.272	-0.147
-556.456	-142.946	-0.418	0.040
-555.442	1.091	-0.038	-0.027
-554.427	-86.268	-0.160	0.049
-553.412	107.160	-0.120	0.143
-552.398	-7.160	0.169	-0.114
-551.383	65.953	-0.240	-0.242
-550.369	-200.000	-0.031	0.187
-549.354	-125.985	0.104	-0.016
-548.339	467.581	-0.160	-0.358
-547.325	-21.563	-0.136	-0.082
-546.310	-119.040	-0.115	0.020
-545.296	2.714	0.230	0.166
-544.281	53.757	-0.169	-0.161
-543.266	53.577	-0.129	0.123
-542.252	-66.186	0.021	-0.008
-541.237	-43.026	0.370	-0.187
-540.223	-75.635	0.138	0.049
-539.208	-200.000	-0.029	0.144
-538.193	125.004	0.079	-0.099
-537.179	57.923	0.143	0.139
-536.164	800.000	-0.088	0.331
-535.150	-200.000	-0.086	0.429
-534.135	-10.500	-0.158	0.104
-533.121	-126.305	0.219	-0.032
-532.106	-200.000	-0.072	0.368
-531.091	395.164	-0.085	-0.176
-530.077	40.758	0.166	-0.149
-529.062	56.442	0.163	0.157
-528.048	800.000	-0.037	0.123
-527.033	-111.788	-0.118	0.024
-526.018	-200.000	-0.007	-0.081
-525.004	800.000	-0.078	-0.287
-523.989	-42.863	0.161	0.081
-522.975	-71.740	-0.167	-0.062
-521.960	-119.148	-0.034	-0.006
-520.945	-46.958	-0.179	-0.087
-519.931	800.000	0.096	-0.364
-518.916	-200.000	-0.051	-0.303
-517.902	-200.000	0.073	-0.318
-516.887	-110.778	-0.333	0.068
-515.872	0.670	0.097	0.069
-514.858	-200.000	0.045	-0.271
-513.843	621.289	0.042	0.104
-512.829	63.236	-0.212	0.211
-511.814	-90.354	0.367	0.106
-510.799	-200.000	-0.026	0.283
-509.785	-200.000	-0.024	-0.239
-508.770	34.676	0.127	-0.110
-507.756	-200.000	0.005	0.256
-506.741	1.873	-0.286	-0.205
-505.726	174.851	-0.271	0.390
-504.712	-165.208	-0.149	0.007
-503.697	-200.000	0.029	-0.278
-502.683	-200.000	0.022	0.152
-501.668	-39.657	-0.144	-0.075
-500.653	-200.000	0.002	-0.201
-499.639	-136.920	0.186	-0.021
-498.624	-173.807	-0.166	-0.005
-497.610	43.202	-0.247	0.224
-496.595	-200.000	0.033	0.311
-495.581	145.903	0.094	-0.125
-494.566	428.929	-0.056	0.121
-493.551	343.774	0.072	-0.140
-492.537	631.586	-0.115	-0.290
-491.522	37.128	-0.289	-0.254
-490.508	800.000	0.150	-0.502
-489.493	70.186	0.191	0.196
-488.478	3.179	-0.188	-0.136
-487.464	800.000	0.054	0.208
-486.449	-104.620	0.448	0.103
-485.435	-159.577	0.296	-0.016
-484.420	-110.337	0.222	-0.046
-483.405	-161.719	0.244	0.012
-482.391	321.623	0.219	0.414
-481.376	20.386	0.251	0.202
-480.362	800.000	0.031	0.102
-479.347	-8.053	0.114	-0.076
-478.332	-5.648	-0.151	-0.103
-477.318	800.000	-0.119	-0.352
-476.303	800.000	0.062	-0.202
-475.289	-36.992	-0.124	-0.066
-474.274	-175.538	0.149	0.004
-473.259	86.008	0.059	-0.064
-472.245	244.814	-0.114	-0.191
-471.230	27.417	-0.135	-0.113
-470.216	240.000	-0.296	-0.490
-469.201	-26.775	0.284	0.165
-468.186	-200.000	0.070	-0.321
-467.172	800.000	0.055	-0.201
-466.157	190.321	-0.159	-0.237
-465.143	75.336	-0.166	0.173
-464.128	-200.000	0.057	0.296
-463.113	-182.342	-0.413	0.008
-462.099	413.892	-0.117	-0.247
-461.084	-57.296	-0.101	0.044
-460.070	-200.000	0.027	-0.411
-459.055	-104.418	0.064	-0.015
-458.040	149.793	0.213	-0.286
-457.026	338.180	-0.080	0.154
-456.011	1.589	-0.217	0.155
-454.997	71.940	0.135	0.140
-453.982	-200.000	-0.021	0.219
-452.968	-200.000	0.031	0.299
-451.953	63.565	0.165	-0.165
-450.938	1.434	0.178	0.127
-449.924	-200.000	-0.010	0.115
-448.909	19.714	0.094	0.075
-447.895	-117.405	-0.102	0.018
-446.880	800.000	-0.043	0.180
-445.865	-88.149	-0.251	0.074
-444.851	-107.231	-0.333	-0.073
-443.836	-200.000	0.075	0.381
-442.822	-67.215	0.180	-0.070
-441.807	71.286	0.245	0.252
-440.792	-138.906	0.165	-0.018
-439.778	-34.926	0.013	0.007
-438.763	89.702	-0.028	-0.031
-437.749	-50.155	0.140	-0.066
-436.734	-61.047	-0.295	-0.124
-435.719	137.471	-0.059	0.076
-434.705	-53.113	0.252	-0.115
-433.690	-91.570	0.293	-0.083
-432.676	-112.536	0.145	-0.029
-431.661	-85.671	-0.273	0.084
-430.646	-162.935	0.081	0.004
-429.632	-26.197	0.244	0.142
-428.617	443.733	0.045	0.099
-427.603	800.000	-0.088	0.295
-426.588	-9.228	0.368	-0.244
-425.573	454.658	0.034	0.074
-424.559	-75.729	0.120	-0.042
-423.544	-170.744	0.057	0.002
-422.530	-49.344	-0.369	-0.174
-421.515	-200.000	0.042	-0.428
-420.500	19.020	-0.265	-0.211
-419.486	74.716	-0.154	-0.160
-418.471	443.171	-0.200	0.434
-417.457	738.928	0.061	-0.161
-416.442	35.313	0.181	0.157
-415.428	549.088	-0.090	0.213
-414.413	800.000	-0.037	0.135
-413.398	-200.000	-0.008	0.157
-412.384	108.672	0.122	0.144
-411.369	94.176	-0.126	-0.141
-410.355	800.000	0.096	-0.322
-409.340	276.144	0.151	0.265
-408.325	-4.881	-0.220	0.150
-407.311	-200.000	-0.016	-0.121
-406.296	-200.000	-0.010	0.126
-405.282	-76.515	-0.068	-0.024
-404.267	120.611	0.140	-0.172
-403.252	-127.559	-0.290	-0.042
-402.238	-142.759	-0.149	-0.014
-401.223	-48.921	-0.046	0.022
-400.209	229.218	-0.182	0.294
-399.194	-112.657	-0.287	-0.057
-398.179	38.221	-0.268	0.236
-397.165	239.633	-0.037	0.061
-396.150	447.859	0.155	0.338
-395.136	-81.959	-0.228	-0.074
-394.121	-200.000	0.011	-0.079
-393.106	-177.546	-0.159	-0.004
-392.092	219.429	-0.091	-0.144
-391.077	-200.000	0.001	-0.235
-390.063	-32.063	-0.213	0.118
-389.048	135.188	0.126	0.162
-388.033	-200.000	0.020	-0.120
-387.019	800.000	0.153	0.523
-386.004	572.194	0.058	0.139
-384.990	63.206	0.103	-0.102
-383.975	-133.252	0.151	-0.019
-382.960	-79.024	0.082	-0.027
-381.946	-28.675	0.060	0.034
-380.931	-82.307	-0.336	-0.108
-379.917	-200.000	-0.043	-0.285
-378.902	-169.128	-0.404	-0.015
-377.888	-36.722	0.055	-0.029
-376.873	-137.125	-0.183	0.021
-375.858	164.818	0.216	0.301
-374.844	20.072	-0.039	0.031
-373.829	79.852	-0.110	0.117
-372.815	340.851	0.066	0.128
-371.800	-59.483	-0.266	-0.113
-370.785	-100.070	-0.125	-0.031
-369.771	-200.000	0.023	0.252
-368.756	57.641	-0.208	-0.201
-367.742	-23.331	-0.280	-0.166
-366.727	0.631	0.152	0.107
-365.712	97.961	-0.075	0.085
-364.698	800.000	0.143	0.436
-363.683	800.000	0.011	0.033
-362.669	-181.937	0.316	-0.006
-361.654	-187.274	-0.075	-0.001
-360.639	405.626	0.158	0.329
-359.625	67.284	-0.256	-0.258
-358.610	-193.901	0.322	-0.003
-357.596	2.172	-0.353	0.252
-356.581	-200.000	0.145	-0.000
-355.566	-107.723	0.371	-0.080
-354.552	52.906	0.135	0.127
-353.537	-124.914	0.248	-0.038
-352.523	-200.000	-0.189	-0.000
-351.508	280.194	-0.061	-0.108
-350.493	-6.509	-0.286	-0.193
-349.479	-60.249	-0.121	-0.051
-348.464	-74.993	-0.490	-0.173
-347.450	-178.437	-0.357	0.008
-346.435	-164.841	0.338	0.015
-345.420	-63.384	-0.053	0.022
-344.406	-42.429	0.082	0.041
-343.391	800.000	0.053	-0.192
-342.377	451.905	-0.156	-0.340
-341.362	202.606	0.033	-0.051
-340.348	-200.000	0.038	0.339
-339.333	499.693	-0.089	-0.203
-338.318	109.044	0.089	0.105
-337.304	-24.603	-0.264	0.155
-336.289	84.250	-0.129	-0.139
-335.275	-182.751	-0.243	0.004
-334.260	-118.609	0.141	0.025
-333.245	-200.000	-0.015	0.220
-332.231	-20.247	0.127	0.077
-331.216	-157.954	0.394	-0.023
-330.202	-123.970	-0.114	0.018
-329.187	128.526	-0.078	0.098
-328.172	-75.815	-0.422	0.148
-327.158	186.349	-0.086	0.126
-326.143	800.000	-0.018	-0.068
-325.129	86.591	-0.286	-0.311
-324.114	224.665	-0.092	-0.147
-323.099	800.000	0.145	-0.436
-322.085	-200.000	-0.020	-0.252
-321.070	291.739	0.055	0.098
-320.056	514.719	0.014	0.032
-319.041	215.597	-0.150	0.234
-318.026	-7.287	0.277	0.185
-317.012	-21.400	0.171	0.103
-315.997	800.000	-0.042	0.125
-314.983	137.416	0.026	-0.033
-313.968	247.916	0.147	0.246
-312.953	218.893	0.240	0.378
-311.939	150.498	0.086	-0.116
-310.924	-200.000	-0.027	0.185
-309.910	800.000	0.037	0.103
-308.895	-125.397	0.040	-0.006
-307.880	101.168	0.131	-0.151
-306.866	-65.372	0.259	0.103
-305.851	174.110	-0.155	0.221
-304.837	517.062	0.034	-0.078
-303.822	21.833	0.181	0.146
-302.807	800.000	0.083	-0.314
-301.793	-200.000	0.006	0.045
-300.778	-28.804	0.208	0.118
-299.764	448.355	0.067	-0.145
-298.749	-156.618	0.026	-0.002
-297.735	-187.938	0.221	0.003
-296.720	-82.569	0.277	-0.089
-295.705	437.465	-0.038	0.081
-294.691	-6.448	0.255	0.171
-293.676	-28.314	0.173	-0.098
-292.662	442.989	0.019	0.042
-291.647	24.653	0.143	-0.116
-290.632	-200.000	-0.032	0.152
-289.618	800.000	-0.048	0.189
-288.603	61.611	-0.147	-0.144
-287.589	-31.047	-0.246	0.137
-286.574	-68.157	-0.252	0.097
-285.559	-3.345	0.250	0.172
-284.545	56.290	0.111	0.106
-283.530	265.830	-0.139	0.238
-282.516	-155.351	-0.360	0.023
-281.501	126.104	0.205	-0.256
-280.486	-58.468	0.219	-0.094
-279.472	11.155	0.107	0.080
-278.457	160.817	0.111	0.153
-277.443	-200.000	0.021	0.297
-276.428	-113.799	-0.205	-0.039
-275.413	-200.000	-0.292	0.001
-274.399	800.000	0.054	0.184
-273.384	-25.058	0.210	0.123
-272.370	-103.204	0.106	0.025
-271.355	405.723	-0.210	0.436
-270.340	84.766	-0.302	-0.325
-269.326	-185.449	-0.246	-0.004
-268.311	-68.523	-0.062	-0.024
-267.297	-89.062	0.309	-0.090
-266.282	-118.874	0.127	-0.022
-265.267	-56.686	0.175	-0.076
-264.253	-200.000	0.026	0.119
-263.238	-36.592	-0.191	0.101
-262.224	7.792	0.352	0.260
-261.209	-171.615	-0.237	-0.008
-260.195	-32.835	0.079	-0.043
-259.180	189.580	0.120	-0.177
-258.165	800.000	0.074	0.211
-257.151	-107.984	-0.250	0.053
-256.136	-200.000	-0.012	0.386
-255.122	-200.000	0.036	0.296
-254.107	800.000	-0.006	-0.022
-253.092	135.635	0.166	-0.212
-252.078	-200.000	-0.029	0.275
-251.063	-111.737	0.251	0.050
-250.049	246.466	0.049	-0.081
-249.034	86.825	0.179	-0.194
-248.019	-200.000	0.016	0.191
-247.005	-72.211	-0.127	-0.046
-245.990	118.628	0.110	-0.134
-244.976	214.886	-0.112	-0.174
-243.961	495.676	-0.129	-0.292
-242.946	40.752	-0.187	-0.166
-241.932	205.377	-0.234	0.358
-240.917	61.292	-0.211	0.206
-239.903	-155.944	0.255	0.016
-238.888	-6.186	-0.260	-0.175
-237.873	10.317	-0.212	-0.159
-236.859	597.532	-0.143	0.350
-235.844	-115.844	0.450	0.083
-234.830	265.831	-0.086	0.147
-233.815	172.524	0.154	-0.218
-232.800	204.716	0.071	0.108
-231.786	800.000	-0.073	-0.278
-230.771	5.628	0.369	-0.268
-229.757	-127.664	-0.008	0.001
-228.742	4.299	-0.232	-0.167
-227.727	-200.000	-0.031	0.158
-226.713	-1.002	-0.102	0.071
-225.698	317.788	-0.042	-0.079
-224.684	800.000	-0.028	0.084
-223.669	-35.976	0.132	-0.070
-222.655	-74.741	0.266	-0.094
-221.640	-200.000	0.008	-0.070
-220.625	122.364	0.207	-0.255
-219.611	-67.445	0.258	-0.100
-218.596	210.026	0.092	-0.142
-217.582	-120.492	0.148	0.025
-216.567	-116.159	-0.211	0.038
-215.552	-200.000	-0.026	-0.302
-214.538	-30.011	-0.169	0.094
-213.523	25.475	-0.110	-0.090
-212.509	-52.832	-0.157	0.071
-211.494	284.074	0.124	0.219
-210.479	60.292	0.105	0.103
-209.465	157.521	0.051	-0.070
-208.450	800.000	0.024	0.091
-207.436	-31.690	-0.145	0.080
-206.421	8.202	-0.068	-0.050
-205.406	9.762	0.211	0.157
-204.392	-118.838	-0.185	0.032
-203.377	-127.501	0.338	0.048
-202.363	35.980	0.068	-0.059
-201.348	-50.457	0.302	0.140
-200.333	553.787	0.211	-0.498
-199.319	-169.155	-0.386	-0.014
-198.304	77.100	0.143	-0.150
-197.290	-200.000	0.026	-0.175
-196.275	-200.000	-0.047	-0.246
-195.260	800.000	0.041	0.113
-194.246	-200.000	0.041	0.182
-193.231	-106.125	0.273	-0.060
-192.217	603.534	-0.106	0.259
-191.202	23.731	0.215	0.174
-190.187	243.686	-0.150	0.248
-189.173	-200.000	0.010	-0.307
-188.158	-200.000	-0.021	-0.277
-187.144	-100.437	0.157	-0.038
-186.129	-51.824	0.100	0.046
-185.114	179.180	-0.168	-0.241
-184.100	-88.989	0.140	0.041
-183.085	396.190	0.120	-0.245
-182.071	320.902	0.078	-0.146
-181.056	-81.874	0.020	-0.006
-180.042	168.799	0.085	-0.119
-179.027	8.113	-0.221	0.162
-178.012	-112.648	0.416	0.081
-176.998	-124.325	-0.164	-0.025
-175.983	-200.000	-0.044	-0.271
-174.969	168.280	-0.176	-0.246
-173.954	42.849	-0.158	0.142
-172.939	-200.000	-0.009	-0.102
-171.925	-200.000	-0.017	-0.270
-170.910	-173.705	-0.166	-0.005
-169.896	-2.132	0.279	-0.192
-168.881	-128.355	0.016	0.002
-167.866	-65.531	0.254	-0.100
-166.852	539.715	-0.146	-0.341
-165.837	-200.000	-0.007	-0.312
-164.823	-47.190	0.178	0.085
-163.808	-20.311	0.305	0.184
-162.793	-200.000	-0.005	-0.084
-161.779	66.829	0.167	0.167
-160.764	-200.000	-0.049	0.660
-159.750	-2.557	0.181	-0.124
-158.735	187.404	-0.146	-0.213
-157.720	395.553	0.069	0.141
-156.706	75.651	-0.143	0.148
-155.691	-21.018	-0.083	-0.050
-154.677	353.128	-0.128	0.249
-153.662	800.000	0.037	0.157
-152.647	-200.000	-0.004	-0.067
-151.633	348.664	-0.088	0.169
-150.618	-13.191	0.350	0.223
-149.604	800.000	-0.082	0.234
-148.589	800.000	0.068	-0.211
-147.574	800.000	0.064	0.241
-146.560	-53.361	0.395	-0.177
-145.545	-155.369	-0.196	-0.012
-144.531	800.000	0.086	-0.321
-143.516	-200.000	0.066	-0.306
-142.502	-139.762	-0.193	0.020
-141.487	-200.000	-0.023	-0.236
-140.472	-134.519	0.199	0.024
-139.458	-123.784	0.208	-0.032
-138.443	-200.000	-0.023	0.219
-137.429	-200.000	-0.023	0.301
-136.414	178.472	0.298	0.427
-135.399	675.953	-0.079	0.202
-134.385	-51.416	-0.013	0.006
-133.370	-34.512	0.309	0.166
-132.356	156.189	0.053	0.072
-131.341	-147.133	0.406	-0.034
-130.326	30.270	-0.353	-0.295
-129.312	110.344	-0.055	-0.065
-128.297	-96.272	-0.090	-0.023
-127.283	-170.318	0.086	-0.003
-126.268	-84.418	-0.103	-0.032
-125.253	-200.000	-0.001	0.244
-124.239	454.688	-0.127	0.276
-123.224	-200.000	-0.026	0.271
-122.210	-91.181	-0.207	-0.058
-121.195	6.697	0.094	0.068
