DTS Sentinel unit serial number:	SN413079Multiplexer serial number:	ORYXHardware model number:	OX4-SRSoftware version number:	ORYX F/W v4.00 Oryx Data Collector v3.7.2.0data status	okinstallation	princeton_trtdifferential loss correction	single-endedforward channel	channel 3reverse channel	N/Adate	2019/09/16time	16:32:35forward acquisition time	60.00reverse acquisition time	0.00gamma	496.2192k internal	0.2294k external	0.2294temperature offset calibration	0.9944default loss term (dB/km)	0.3790temperature slope calibration	1.0000multiplexer offset coefficient	1.0000multiplexer slope coefficient	1.0000fibre end	0.00T internal ref (°C)	40.12T ext. ref 1 (°C)	15.09T ext. ref 2 (°C)	33.81length (m)	temperature (°C)	Stokes	anti-Stokes-747.200	12.161	0.072	-0.057
-746.185	317.460	-0.082	0.158
-745.171	800.000	0.020	0.071
-744.156	800.000	-0.057	0.251
-743.142	800.000	0.058	0.164
-742.127	11.352	-0.254	0.199
-741.112	-25.076	0.273	0.165
-740.098	64.501	0.119	0.122
-739.083	-19.914	0.237	0.150
-738.069	204.258	0.036	-0.057
-737.054	-7.781	-0.287	0.198
-736.039	241.391	-0.159	0.272
-735.025	-74.938	0.090	-0.033
-734.010	-97.891	-0.269	0.071
-732.996	-200.000	0.012	-0.059
-731.981	82.665	-0.147	-0.163
-730.966	138.578	0.048	0.064
-729.952	-7.770	0.166	0.114
-728.937	-55.129	-0.150	0.069
-727.923	118.170	0.207	-0.261
-726.908	-200.000	0.004	0.327
-725.894	-200.000	0.076	-0.386
-724.879	-200.000	-0.052	-0.262
-723.864	120.453	-0.188	0.238
-722.850	-85.195	0.120	-0.038
-721.835	9.662	-0.115	0.089
-720.821	-54.978	-0.153	-0.070
-719.806	525.179	-0.143	-0.344
-718.791	-44.217	0.038	-0.020
-717.777	-200.000	-0.002	-0.052
-716.762	447.204	0.063	0.142
-715.748	-106.809	-0.154	0.035
-714.733	-43.477	-0.172	0.089
-713.718	-120.355	0.297	0.052
-712.704	270.818	-0.173	0.312
-711.689	-91.442	0.399	-0.116
-710.675	800.000	0.023	0.094
-709.660	185.628	-0.047	-0.071
-708.645	-200.000	0.033	-0.186
-707.631	-73.757	0.136	0.051
-706.616	20.447	-0.062	0.051
-705.602	-200.000	0.018	0.269
-704.587	800.000	-0.046	0.146
-703.572	431.441	0.041	0.090
-702.558	-105.889	0.308	0.071
-701.543	800.000	0.036	-0.148
-700.529	800.000	0.072	0.290
-699.514	-20.158	0.132	-0.083
-698.499	800.000	-0.041	-0.164
-697.485	-123.650	0.318	-0.051
-696.470	-200.000	0.043	0.196
-695.456	331.770	0.076	0.149
-694.441	800.000	0.021	0.064
-693.426	-200.000	-0.017	-0.181
-692.412	-119.270	-0.044	0.008
-691.397	-22.982	-0.396	-0.244
-690.383	112.516	0.155	0.191
-689.368	383.548	-0.042	-0.087
-688.354	-200.000	0.023	-0.197
-687.339	-200.000	0.048	0.235
-686.324	-133.610	-0.057	-0.007
-685.310	209.087	0.049	0.078
-684.295	-21.040	-0.395	-0.247
-683.281	-46.718	-0.364	-0.182
-682.266	-200.000	0.033	-0.244
-681.251	96.249	0.111	-0.130
-680.237	145.393	0.072	-0.098
-679.222	49.966	0.121	0.116
-678.208	-139.696	0.276	-0.030
-677.193	800.000	0.051	0.167
-676.178	78.046	-0.218	-0.237
-675.164	55.753	-0.104	-0.103
-674.149	800.000	-0.102	0.330
-673.135	555.606	0.138	-0.338
-672.120	-31.620	0.253	-0.145
-671.105	-200.000	-0.018	0.176
-670.091	49.896	-0.102	0.098
-669.076	203.896	-0.112	0.176
-668.062	3.345	-0.034	0.025
-667.047	-21.679	-0.257	-0.160
-666.032	-50.033	-0.157	-0.076
-665.018	148.285	-0.099	-0.137
-664.003	-84.738	-0.344	-0.110
-662.989	136.236	-0.181	0.240
-661.974	47.554	-0.154	0.146
-660.959	-51.977	0.068	-0.032
-659.945	-15.738	-0.243	0.158
-658.930	137.670	-0.141	0.188
-657.916	-18.033	0.152	0.097
-656.901	800.000	-0.052	0.154
-655.886	-86.217	-0.263	-0.083
-654.872	800.000	0.049	-0.178
-653.857	107.021	0.139	0.168
-652.843	-200.000	0.041	-0.232
-651.828	-148.582	-0.531	-0.044
-650.814	-109.857	-0.227	-0.049
-649.799	-200.000	-0.022	-0.323
-648.784	-140.815	0.145	0.015
-647.770	-116.932	-0.002	0.000
-646.755	-200.000	0.000	0.005
-645.741	22.841	0.175	0.146
-644.726	508.725	-0.102	-0.242
-643.711	28.099	-0.138	-0.118
-642.697	652.006	0.059	0.155
-641.682	478.284	0.129	0.297
-640.668	-200.000	-0.024	0.270
-639.653	178.110	0.221	0.329
-638.638	-140.031	-0.452	0.048
-637.624	207.012	0.165	-0.262
-636.609	-29.661	-0.263	-0.153
-635.595	34.533	-0.176	0.157
-634.580	708.537	0.048	-0.129
-633.565	-69.913	0.266	0.103
-632.551	214.951	-0.217	-0.350
-631.536	-86.113	-0.371	-0.117
-630.522	222.733	0.062	0.101
-629.507	603.419	-0.027	0.069
-628.492	-51.497	0.133	-0.063
-627.478	-200.000	-0.006	-0.408
-626.463	4.103	-0.147	0.110
-625.449	29.342	-0.053	-0.046
-624.434	178.733	-0.157	-0.234
-623.419	-16.727	-0.311	-0.200
-622.405	12.388	0.130	-0.102
-621.390	264.245	-0.095	0.167
-620.376	34.637	0.111	0.099
-619.361	800.000	-0.038	-0.142
-618.346	-97.421	-0.355	0.094
-617.332	272.999	0.110	-0.197
-616.317	758.484	-0.095	0.263
-615.303	-200.000	-0.018	-0.182
-614.288	-68.159	0.260	-0.103
-613.273	-127.793	-0.182	-0.027
-612.259	-200.000	0.025	-0.381
-611.244	-127.529	-0.518	-0.076
-610.230	150.644	0.228	0.314
-609.215	800.000	0.017	-0.056
-608.201	-92.110	0.113	0.033
-607.186	-73.068	0.311	-0.116
-606.171	26.008	-0.225	0.191
-605.157	-200.000	-0.023	-0.184
-604.142	800.000	-0.146	-0.519
-603.128	67.458	0.095	-0.099
-602.113	-98.821	0.049	0.013
-601.098	800.000	-0.078	0.288
-600.084	100.120	-0.092	0.108
-599.069	603.406	0.097	-0.246
-598.055	86.696	0.149	-0.167
-597.040	-200.000	0.009	0.374
-596.025	82.857	-0.255	0.282
-595.011	-87.784	0.325	0.100
-593.996	169.864	-0.141	-0.205
-592.982	-168.644	-0.216	0.008
-591.967	-115.498	0.107	0.020
-590.952	-200.000	0.006	0.065
-589.938	-180.501	0.109	0.002
-588.923	-66.667	-0.075	-0.030
-587.909	-200.000	-0.055	-0.385
-586.894	-200.000	-0.019	0.300
-585.879	159.329	-0.099	0.140
-584.865	-131.793	-0.104	0.014
-583.850	-149.368	-0.220	-0.018
-582.836	-127.258	0.107	0.016
-581.821	-200.000	-0.038	0.228
-580.806	151.349	0.234	0.324
-579.792	-32.895	0.309	0.174
-578.777	303.269	0.049	0.092
-577.763	-47.667	-0.089	-0.044
-576.748	-26.703	0.259	-0.154
-575.733	-147.751	-0.161	0.014
-574.719	45.603	0.122	-0.114
-573.704	-26.383	-0.179	0.107
-572.690	-78.637	0.087	-0.030
-571.675	800.000	-0.026	-0.087
-570.661	539.337	0.084	-0.203
-569.646	10.369	-0.151	0.117
-568.631	-63.403	-0.169	-0.071
-567.617	-4.835	-0.115	0.081
-566.602	75.117	-0.052	0.056
-565.588	-200.000	0.001	0.089
-564.573	-82.426	0.181	-0.060
-563.558	-97.014	0.108	-0.029
-562.544	-200.000	0.002	-0.177
-561.529	-105.077	0.464	-0.108
-560.515	-152.780	0.074	-0.005
-559.500	-200.000	-0.001	0.385
-558.485	800.000	0.104	0.328
-557.471	385.622	-0.098	-0.205
-556.456	234.272	0.210	-0.351
-555.442	-200.000	0.014	-0.093
-554.427	-64.664	-0.262	-0.108
-553.412	37.762	-0.091	0.082
-552.398	39.120	0.011	-0.010
-551.383	-163.407	-0.226	-0.011
-550.369	-180.339	0.021	-0.000
-549.354	800.000	-0.039	-0.175
-548.339	800.000	-0.072	-0.213
-547.325	155.876	-0.070	-0.097
-546.310	17.627	0.141	-0.114
-545.296	-19.173	0.429	-0.271
-544.281	-82.722	0.124	-0.041
-543.266	25.921	0.215	-0.182
-542.252	-77.860	-0.118	-0.041
-541.237	-6.796	-0.404	-0.279
-540.223	530.516	0.012	0.029
-539.208	-73.621	0.116	-0.043
-538.193	-112.860	-0.288	-0.058
-537.179	562.188	-0.041	0.099
-536.164	-16.278	0.202	0.130
-535.150	800.000	-0.045	-0.128
-534.135	-140.508	0.140	0.015
-533.121	800.000	0.033	-0.113
-532.106	392.864	0.116	0.244
-531.091	-21.845	0.261	-0.161
-530.077	-112.827	-0.112	-0.023
-529.062	-179.620	0.132	-0.003
-528.048	63.145	0.202	-0.205
-527.033	92.874	-0.078	0.090
-526.018	95.131	-0.163	0.188
-525.004	276.541	0.073	0.132
-523.989	244.482	-0.173	0.294
-522.975	-200.000	0.006	0.161
-521.960	-200.000	0.082	0.377
-520.945	-15.861	0.181	-0.117
-519.931	57.090	-0.058	-0.057
-518.916	-171.630	0.185	-0.006
-517.902	123.739	-0.027	0.034
-516.887	800.000	0.120	-0.426
-515.872	800.000	-0.008	0.028
-514.858	-94.060	0.295	-0.082
-513.843	23.461	0.230	-0.191
-512.829	-63.836	0.142	0.059
-511.814	-127.264	0.137	-0.020
-510.799	352.528	0.022	-0.044
-509.785	-200.000	0.048	0.248
-508.770	56.492	-0.135	0.133
-507.756	401.523	0.096	0.203
-506.741	-7.047	-0.029	-0.020
-505.726	800.000	-0.036	-0.138
-504.712	167.923	-0.112	-0.162
-503.697	-51.455	0.216	-0.102
-502.683	-200.000	0.007	0.281
-501.668	22.336	0.213	-0.177
-500.653	-48.744	0.104	0.051
-499.639	-200.000	0.041	0.198
-498.624	-200.000	0.004	-0.031
-497.610	-200.000	0.031	-0.251
-496.595	-93.142	0.210	-0.059
-495.581	800.000	-0.018	-0.061
-494.566	-200.000	0.016	0.258
-493.551	-131.146	0.099	0.013
-492.537	-74.144	-0.133	-0.049
-491.522	-1.692	-0.133	0.095
-490.508	12.655	0.239	0.187
-489.493	800.000	0.084	-0.339
-488.478	233.912	0.053	0.088
-487.464	-200.000	0.019	-0.161
-486.449	-135.431	-0.393	0.047
-485.435	-120.477	-0.274	-0.047
-484.420	-93.215	0.154	-0.043
-483.405	-143.058	0.134	0.013
-482.391	671.761	-0.158	-0.414
-481.376	-194.938	0.228	-0.002
-480.362	-106.172	-0.234	0.053
-479.347	-200.000	-0.024	-0.212
-478.332	18.214	-0.110	0.089
-477.318	-145.742	0.310	0.028
-476.303	-138.573	0.280	0.031
-475.289	-145.216	-0.353	-0.032
-474.274	-65.262	-0.309	0.126
-473.259	-97.026	-0.184	0.049
-472.245	300.870	-0.165	-0.307
-471.230	150.962	-0.152	-0.209
-470.216	-63.145	-0.162	-0.068
-469.201	5.167	0.073	0.055
-468.186	289.892	0.057	-0.104
-467.172	79.020	-0.296	0.321
-466.157	87.466	-0.129	0.144
-465.143	-23.058	0.156	-0.095
-464.128	-200.000	-0.007	0.227
-463.113	-67.144	0.092	0.037
-462.099	27.379	0.300	0.255
-461.084	-102.358	-0.176	-0.043
-460.070	-113.883	0.136	-0.027
-459.055	-180.346	0.154	-0.003
-458.040	-51.798	-0.082	0.038
-457.026	-158.993	0.200	0.011
-456.011	-200.000	0.068	-0.331
-454.997	-98.332	-0.086	-0.022
-453.982	-80.573	-0.320	-0.108
-452.968	-126.367	0.346	-0.052
-451.953	-64.526	-0.142	0.058
-450.938	-157.975	-0.132	0.008
-449.924	106.296	-0.203	-0.244
-448.909	37.000	-0.168	-0.150
-447.895	-200.000	-0.002	-0.029
-446.880	85.186	-0.236	0.261
-445.865	-105.195	0.119	0.027
-444.851	-180.723	0.022	0.000
-443.836	-200.000	-0.009	0.315
-442.822	-39.848	-0.208	0.110
-441.807	-72.291	-0.043	-0.016
-440.792	-113.836	-0.169	-0.033
-439.778	-32.536	0.361	-0.203
-438.763	123.729	0.264	0.335
-437.749	-200.000	0.026	0.360
-436.734	-92.768	-0.159	0.045
-435.719	800.000	0.025	0.100
-434.705	-200.000	-0.003	0.085
-433.690	764.629	-0.105	0.288
-432.676	94.745	-0.206	-0.237
-431.661	-200.000	-0.033	-0.317
-430.646	-200.000	-0.029	-0.261
-429.632	-79.137	-0.400	0.137
-428.617	-96.260	-0.489	0.131
-427.603	-200.000	0.010	0.281
-426.588	-200.000	0.026	0.193
-425.573	-41.637	-0.071	0.037
-424.559	508.760	-0.118	0.276
-423.544	-200.000	-0.024	-0.113
-422.530	-200.000	0.049	-0.441
-421.515	800.000	0.093	-0.360
-420.500	10.847	-0.234	-0.181
-419.486	329.029	0.100	0.193
-418.471	-36.800	-0.180	0.098
-417.457	-200.000	-0.046	0.423
-416.442	375.178	-0.091	-0.187
-415.428	-33.445	-0.236	-0.132
-414.413	-86.250	-0.200	-0.062
-413.398	652.983	0.085	-0.219
-412.384	49.619	-0.229	0.218
-411.369	-79.565	0.181	0.062
-410.355	-150.991	-0.160	-0.012
-409.340	39.181	0.055	0.049
-408.325	68.018	0.144	0.149
-407.311	365.400	0.041	0.084
-406.296	264.879	-0.118	0.207
-405.282	-88.904	-0.316	-0.094
-404.267	-78.736	0.203	-0.070
-403.252	-17.749	-0.024	-0.015
-402.238	-3.410	0.050	0.035
-401.223	-13.930	0.233	0.152
-400.209	154.749	-0.141	0.195
-399.194	162.663	-0.122	-0.173
-398.179	566.012	-0.144	-0.353
-397.165	800.000	0.151	0.451
-396.150	-200.000	0.037	0.333
-395.136	178.879	-0.141	0.208
-394.121	-87.757	0.148	0.045
-393.106	67.887	-0.046	-0.048
-392.092	800.000	0.019	0.060
-391.077	-133.563	-0.115	-0.014
-390.063	-74.375	0.058	0.021
-389.048	800.000	0.021	0.071
-388.033	-135.165	-0.364	0.044
-387.019	71.133	-0.173	-0.181
-386.004	-78.020	-0.140	0.049
-384.990	-67.716	-0.246	0.097
-383.975	-183.541	0.401	-0.007
-382.960	-200.000	0.205	0.000
-381.946	-93.650	0.200	-0.056
-380.931	-200.000	0.003	-0.322
-379.917	-200.000	-0.045	-0.241
-378.902	800.000	-0.159	-0.463
-377.888	256.714	-0.073	0.126
-376.873	-129.993	0.305	-0.042
-375.858	219.025	0.145	0.234
-374.844	-59.716	0.119	0.051
-373.829	-200.000	-0.011	-0.060
-372.815	45.324	0.170	-0.158
-371.800	34.954	-0.143	0.126
-370.785	-69.201	0.222	-0.086
-369.771	-137.575	0.371	-0.042
-368.756	214.935	0.080	0.127
-367.742	94.305	0.216	0.247
-366.727	34.776	-0.142	0.125
-365.712	-6.297	0.147	-0.101
-364.698	-200.000	-0.000	-0.060
-363.683	-113.841	-0.464	-0.091
-362.669	-59.053	-0.183	0.080
-361.654	400.003	0.133	-0.280
-360.639	212.324	0.080	0.128
-359.625	-200.000	0.022	-0.194
-358.610	800.000	0.067	0.279
-357.596	24.199	-0.130	-0.108
-356.581	-200.000	0.028	-0.135
-355.566	-59.570	0.276	-0.119
-354.552	9.767	0.203	-0.155
-353.537	800.000	0.069	-0.213
-352.523	-129.665	0.074	-0.010
-351.508	-83.315	0.176	0.057
-350.493	-92.882	-0.229	0.064
-349.479	42.131	0.089	-0.082
-348.464	-30.509	-0.201	-0.115
-347.450	800.000	0.075	-0.260
-346.435	155.811	0.098	0.136
-345.420	6.571	0.096	0.072
-344.406	-5.490	0.313	-0.216
-343.391	800.000	0.021	0.083
-342.377	800.000	-0.072	-0.230
-341.362	345.834	0.083	-0.164
-340.348	77.848	0.099	-0.106
-339.333	-200.000	-0.005	-0.154
-338.318	36.042	0.343	-0.304
-337.304	-200.000	0.006	0.190
-336.289	-3.573	-0.276	0.193
-335.275	-200.000	-0.037	-0.219
-334.260	-4.165	-0.414	-0.288
-333.245	-86.709	0.417	0.128
-332.231	10.434	0.305	0.234
-331.216	-30.780	-0.186	-0.106
-330.202	-21.156	-0.217	0.134
-329.187	33.786	-0.026	-0.022
-328.172	-55.825	-0.222	-0.100
-327.158	89.724	-0.073	0.082
-326.143	-46.378	-0.102	0.051
-325.129	-78.852	-0.149	-0.051
-324.114	338.556	0.134	-0.262
-323.099	-68.269	0.129	0.050
-322.085	87.576	-0.091	0.101
-321.070	-81.332	-0.388	-0.129
-320.056	85.658	-0.070	0.077
-319.041	-200.000	0.019	-0.118
-318.026	-200.000	0.009	0.044
-317.012	-188.691	0.083	-0.001
-315.997	-81.359	-0.180	-0.060
-314.983	800.000	-0.053	0.215
-313.968	800.000	-0.027	0.090
-312.953	-200.000	0.022	0.140
-311.939	537.549	-0.033	-0.079
-310.924	-39.484	-0.498	0.262
-309.910	-200.000	0.209	0.001
-308.895	-23.488	-0.347	-0.210
-307.880	-90.452	0.418	0.122
-306.866	-23.497	0.182	-0.110
-305.851	800.000	-0.153	-0.457
-304.837	-87.211	0.152	-0.046
-303.822	72.482	-0.064	0.067
-302.807	614.048	0.129	0.324
-301.793	187.457	0.187	0.281
-300.778	-200.000	-0.191	0.001
-299.764	245.045	-0.175	0.296
-298.749	-200.000	-0.017	0.346
-297.735	457.186	-0.010	-0.023
-296.720	108.300	-0.140	-0.168
-295.705	-200.000	-0.064	-0.312
-294.691	800.000	0.072	-0.214
-293.676	8.787	-0.234	-0.178
-292.662	316.492	0.080	0.151
-291.647	-98.498	0.191	-0.049
-290.632	-13.276	-0.106	-0.069
-289.618	-47.446	0.115	-0.056
-288.603	68.302	0.428	-0.440
-287.589	351.650	0.053	0.105
-286.574	259.170	-0.159	0.275
-285.559	-200.000	-0.001	-0.026
-284.545	-20.690	-0.277	0.171
-283.530	268.254	-0.158	-0.277
-282.516	182.048	0.067	-0.099
-281.501	-3.223	-0.290	0.203
-280.486	129.013	0.234	0.300
-279.472	27.288	-0.203	0.171
-278.457	800.000	0.107	-0.384
-277.443	-102.171	0.164	0.040
-276.428	595.895	-0.111	0.275
-275.413	-200.000	-0.007	-0.122
-274.399	298.005	0.212	0.391
-273.384	13.329	0.231	-0.180
-272.370	800.000	0.024	0.072
-271.355	-75.217	0.156	0.056
-270.340	-145.463	0.079	0.007
-269.326	-37.903	0.049	-0.026
-268.311	-200.000	-0.023	0.337
-267.297	800.000	0.029	0.117
-266.282	-100.654	0.209	0.052
-265.267	108.993	0.021	-0.025
-264.253	-142.751	0.460	-0.045
-263.238	2.974	0.292	-0.213
-262.224	-200.000	0.033	0.252
-261.209	-170.901	0.163	-0.006
-260.195	331.951	-0.139	0.269
-259.180	800.000	0.020	0.060
-258.165	38.393	-0.210	0.188
-257.151	467.982	0.010	0.021
-256.136	-71.606	0.147	-0.055
-255.122	-200.000	-0.067	-0.332
-254.107	-118.000	0.424	0.076
-253.092	-58.372	0.168	0.073
-252.078	214.207	0.033	0.053
-251.063	29.770	0.183	-0.156
-250.049	450.728	-0.184	-0.407
-249.034	800.000	-0.051	0.190
-248.019	231.410	-0.132	0.217
-247.005	87.750	0.018	0.020
-245.990	31.501	0.226	-0.195
-244.976	360.806	-0.188	0.378
-243.961	49.873	-0.012	0.011
-242.946	-200.000	-0.008	-0.191
-241.932	248.928	-0.144	-0.245
-240.917	-85.852	-0.171	0.053
-239.903	-40.623	-0.147	-0.076
-238.888	254.752	0.102	-0.175
-237.873	-133.754	0.295	0.037
-236.859	-178.284	0.130	-0.003
-235.844	800.000	0.024	0.092
-234.830	-188.314	-0.274	0.003
-233.815	-116.018	0.282	0.053
-232.800	800.000	-0.092	0.258
-231.786	-200.000	-0.006	-0.089
-230.771	-111.568	0.318	-0.065
-229.757	-13.475	0.194	0.126
-228.742	800.000	-0.111	0.328
-227.727	135.755	-0.022	0.028
-226.713	800.000	-0.151	0.445
-225.698	52.735	-0.359	-0.344
-224.684	800.000	0.052	-0.181
-223.669	-37.444	0.110	0.059
-222.655	-100.031	-0.230	0.057
-221.640	15.642	-0.200	-0.158
-220.625	-33.224	0.193	0.107
-219.611	800.000	0.070	0.208
-218.596	800.000	0.033	-0.115
-217.582	-5.680	-0.027	-0.019
-216.567	323.763	-0.046	0.087
-215.552	-91.770	0.230	0.065
-214.538	-174.719	0.186	-0.005
-213.523	-55.277	0.106	-0.048
-212.509	-69.055	-0.185	0.071
-211.494	-200.000	-0.022	0.334
-210.479	-200.000	-0.024	0.236
-209.465	-14.258	0.146	0.094
-208.450	800.000	-0.125	-0.498
-207.436	-88.390	-0.079	-0.024
-206.421	57.387	-0.129	0.126
-205.406	800.000	0.032	0.120
-204.392	-48.461	-0.218	0.105
-203.377	-109.823	-0.143	-0.030
-202.363	25.871	-0.221	-0.184
-201.348	55.694	0.195	0.189
-200.333	93.873	0.178	0.202
-199.319	-3.183	0.070	0.049
-198.304	25.256	0.080	-0.066
-197.290	-165.128	-0.191	0.008
-196.275	-200.000	0.016	-0.212
-195.260	800.000	0.026	0.096
-194.246	129.732	-0.038	-0.049
-193.231	-122.639	-0.195	0.032
-192.217	-200.000	-0.059	0.420
-191.202	-75.162	-0.064	-0.023
-190.187	-95.048	0.297	0.080
-189.173	414.191	-0.094	-0.200
-188.158	125.614	0.116	-0.147
-187.144	-200.000	-0.014	-0.244
-186.129	-159.967	0.085	0.005
-185.114	167.479	0.029	-0.041
-184.100	800.000	0.111	0.332
-183.085	-58.182	-0.310	0.135
-182.071	-97.116	0.159	-0.042
-181.056	152.070	-0.030	-0.041
-180.042	65.678	0.163	-0.166
-179.027	81.469	-0.264	0.285
-178.012	-200.000	0.072	0.338
-176.998	-200.000	-0.046	-0.301
-175.983	-23.669	0.035	0.021
-174.969	-106.731	-0.558	0.124
-173.954	-65.849	0.202	-0.081
-172.939	-200.000	0.003	0.315
-171.925	150.837	0.158	0.215
-170.910	-163.246	0.223	-0.011
-169.896	-157.372	-0.117	-0.007
-168.881	-37.624	0.171	-0.091
-167.866	800.000	0.093	0.256
-166.852	-200.000	-0.009	0.051
-165.837	-148.393	0.229	-0.019
-164.823	203.259	0.139	-0.215
-163.808	-92.891	0.366	0.102
-162.793	474.883	-0.189	-0.426
-161.779	-121.179	-0.255	-0.043
-160.764	-40.385	-0.351	0.182
-159.750	307.456	-0.048	0.089
-158.735	1.778	0.142	-0.102
-157.720	36.856	0.068	0.060
-156.706	1.828	-0.136	0.098
-155.691	-50.204	-0.044	0.021
-154.677	-8.757	0.280	-0.188
-153.662	-111.051	-0.096	-0.020
-152.647	56.959	-0.121	-0.118
-151.633	-21.852	-0.138	-0.084
-150.618	-96.347	0.186	-0.049
-149.604	9.065	0.121	0.091
-148.589	230.353	0.040	0.065
-147.574	-200.000	-0.013	-0.214
-146.560	-28.456	0.225	-0.130
-145.545	-118.945	0.342	0.060
-144.531	-200.000	-0.026	-0.205
-143.516	-160.724	0.226	-0.012
-142.502	800.000	-0.076	0.213
-141.487	-200.000	0.043	0.339
-140.472	-103.446	-0.159	0.037
-139.458	47.137	-0.171	-0.159
-138.443	-75.406	0.098	-0.035
-137.429	-106.906	-0.048	-0.011
-136.414	-80.849	0.268	-0.089
-135.399	63.834	0.201	-0.201
-134.385	-41.807	0.118	-0.061
-133.370	-200.000	0.016	0.241
-132.356	15.053	0.253	-0.198
-131.341	18.356	-0.132	-0.105
-130.326	800.000	0.077	-0.316
-129.312	-112.327	-0.267	0.053
-128.297	800.000	0.134	0.375
-127.283	800.000	0.098	-0.273
-126.268	102.371	0.232	-0.271
-125.253	461.140	-0.131	0.291
-124.239	374.660	-0.064	-0.129
-123.224	-200.000	-0.082	-0.482
-122.210	88.965	0.149	-0.166
-121.195	-200.000	-0.040	-0.363
