DTS Sentinel unit serial number:	SN413079Multiplexer serial number:	ORYXHardware model number:	OX4-SRSoftware version number:	ORYX F/W v4.00 Oryx Data Collector v3.7.2.0data status	okinstallation	princeton_trtdifferential loss correction	single-endedforward channel	channel 3reverse channel	N/Adate	2019/09/15time	22:44:35forward acquisition time	60.00reverse acquisition time	0.00gamma	496.2192k internal	0.2333k external	0.2333temperature offset calibration	0.9943default loss term (dB/km)	0.3790temperature slope calibration	1.0000multiplexer offset coefficient	1.0000multiplexer slope coefficient	1.0000fibre end	0.00T internal ref (°C)	28.87T ext. ref 1 (°C)	8.85T ext. ref 2 (°C)	22.35length (m)	temperature (°C)	Stokes	anti-Stokes-747.200	-200.000	0.003	-0.070
-746.185	122.192	-0.351	0.441
-745.171	-200.000	0.019	0.453
-744.156	-164.050	0.033	-0.002
-743.142	-200.000	-0.066	0.462
-742.127	-200.000	-0.049	0.323
-741.112	367.567	-0.146	0.296
-740.098	-200.000	-0.025	0.139
-739.083	-61.726	-0.450	-0.189
-738.069	248.888	-0.181	0.308
-737.054	96.415	-0.245	0.282
-736.039	7.912	-0.125	0.094
-735.025	35.239	0.454	0.400
-734.010	-48.589	-0.157	0.076
-732.996	129.186	-0.214	-0.274
-731.981	52.929	-0.183	-0.176
-730.966	-95.977	0.126	-0.034
-729.952	8.583	-0.206	-0.156
-728.937	12.043	-0.398	0.307
-727.923	-57.130	-0.265	0.117
-726.908	166.190	-0.066	-0.095
-725.894	166.878	0.088	0.125
-724.879	-101.259	0.126	-0.031
-723.864	-200.000	-0.046	0.320
-722.850	-200.000	0.006	0.244
-721.835	545.453	-0.077	-0.184
-720.821	-118.232	-0.248	-0.044
-719.806	48.203	0.124	0.117
-718.791	-130.667	0.121	0.016
-717.777	-30.715	0.083	-0.047
-716.762	587.274	0.082	-0.203
-715.748	49.556	-0.151	0.142
-714.733	-91.149	0.195	-0.056
-713.718	-20.672	-0.091	0.056
-712.704	-154.556	0.246	0.017
-711.689	-150.063	0.277	0.022
-710.675	114.354	-0.259	-0.316
-709.660	262.105	-0.082	-0.142
-708.645	169.760	0.132	-0.190
-707.631	415.475	0.163	-0.348
-706.616	1.468	0.101	-0.073
-705.602	-19.865	0.174	0.108
-704.587	144.688	-0.136	0.183
-703.572	-131.075	-0.306	-0.041
-702.558	216.977	-0.064	0.102
-701.543	-200.000	0.007	-0.194
-700.529	78.948	-0.097	-0.104
-699.514	-200.000	0.034	-0.179
-698.499	115.065	0.191	-0.234
-697.485	800.000	-0.100	-0.288
-696.470	-200.000	0.012	-0.129
-695.456	-71.086	-0.256	-0.097
-694.441	-200.000	0.020	-0.121
-693.426	107.508	-0.022	0.026
-692.412	800.000	-0.085	0.238
-691.397	297.955	-0.077	-0.143
-690.383	252.270	-0.069	0.119
-689.368	-90.058	-0.174	-0.051
-688.354	25.734	-0.111	0.093
-687.339	-98.518	0.018	-0.004
-686.324	-147.966	-0.141	-0.012
-685.310	-173.186	0.037	0.001
-684.295	61.932	0.213	-0.213
-683.281	-85.835	0.279	0.087
-682.266	355.508	0.089	-0.178
-681.251	-28.055	-0.217	-0.126
-680.237	277.654	0.167	-0.298
-679.222	532.207	0.122	0.289
-678.208	24.288	-0.177	0.147
-677.193	-200.000	0.026	-0.223
-676.178	-169.764	0.366	0.013
-675.164	-160.908	0.069	0.004
-674.149	-200.000	-0.018	0.119
-673.135	-117.671	-0.137	0.025
-672.120	-7.863	-0.111	-0.075
-671.105	-55.069	-0.169	0.076
-670.091	16.396	-0.212	-0.168
-669.076	786.992	0.099	-0.273
-668.062	-91.135	-0.197	0.057
-667.047	-154.068	0.123	-0.008
-666.032	-200.000	0.035	0.307
-665.018	-46.150	0.125	0.062
-664.003	-4.119	-0.325	-0.226
-662.989	-200.000	-0.025	0.217
-661.974	277.537	-0.033	-0.059
-660.959	6.537	-0.203	0.151
-659.945	688.878	0.108	-0.283
-658.930	-200.000	0.015	-0.126
-657.916	800.000	-0.030	-0.117
-656.901	-37.677	-0.229	0.122
-655.886	555.810	-0.163	-0.394
-654.872	-27.202	0.212	-0.124
-653.857	434.296	-0.115	-0.251
-652.843	-183.545	-0.192	-0.003
-651.828	78.867	-0.146	0.157
-650.814	367.128	-0.156	-0.316
-649.799	-132.979	0.151	-0.019
-648.784	64.604	0.177	-0.179
-647.770	77.680	0.134	0.143
-646.755	-17.884	0.104	-0.065
-645.741	590.765	-0.066	0.163
-644.726	-137.567	-0.188	-0.021
-643.711	-145.811	-0.053	-0.005
-642.697	-38.981	0.129	-0.068
-641.682	107.030	-0.153	0.182
-640.668	-57.416	0.413	0.182
-639.653	408.801	0.131	0.277
-638.638	2.855	-0.241	-0.175
-637.624	375.467	0.148	-0.303
-636.609	-22.636	0.161	-0.098
-635.595	30.388	-0.262	-0.224
-634.580	157.753	0.297	0.412
-633.565	797.364	-0.091	-0.251
-632.551	771.540	-0.066	0.181
-631.536	-75.787	0.043	-0.015
-630.522	-95.601	0.168	-0.045
-629.507	-72.963	-0.191	0.070
-628.492	-200.000	0.014	-0.169
-627.478	193.230	0.199	-0.301
-626.463	-124.963	0.067	0.010
-625.449	366.175	-0.035	0.070
-624.434	277.344	0.051	-0.090
-623.419	-103.870	0.205	-0.048
-622.405	800.000	0.066	-0.213
-621.390	146.539	-0.292	-0.393
-620.376	370.437	-0.309	-0.626
-619.361	225.674	-0.121	0.195
-618.346	-175.830	0.181	0.005
-617.332	23.053	0.293	-0.240
-616.317	240.374	-0.134	-0.223
-615.303	-118.033	0.445	-0.080
-614.288	-137.517	-0.107	-0.012
-613.273	-200.000	-0.020	0.208
-612.259	-62.523	-0.059	-0.025
-611.244	-94.170	0.344	-0.094
-610.230	-200.000	-0.009	0.265
-609.215	-31.633	0.124	-0.070
-608.201	141.561	-0.229	-0.303
-607.186	273.189	0.036	-0.064
-606.171	-146.169	-0.193	-0.017
-605.157	-200.000	0.001	0.019
-604.142	-200.000	0.007	0.265
-603.128	-54.277	0.439	0.199
-602.113	-200.000	0.018	0.278
-601.098	152.403	0.211	0.288
-600.084	236.715	-0.134	-0.221
-599.069	60.996	-0.298	-0.295
-598.055	-158.038	-0.113	0.007
-597.040	141.111	-0.150	-0.198
-596.025	134.655	0.198	0.257
-595.011	800.000	-0.074	0.288
-593.996	34.591	0.450	0.393
-592.982	71.522	0.252	-0.261
-591.967	591.715	-0.082	0.202
-590.952	-50.567	-0.033	-0.016
-589.938	-69.897	-0.311	-0.119
-588.923	-200.000	0.029	0.338
-587.909	-200.000	-0.050	-0.373
-586.894	-88.812	0.042	0.012
-585.879	800.000	0.070	-0.250
-584.865	78.863	-0.394	-0.422
-583.850	-200.000	-0.027	0.216
-582.836	-50.417	0.308	0.146
-581.821	-140.024	0.089	-0.009
-580.806	3.301	-0.090	0.065
-579.792	-16.332	0.293	0.186
-578.777	800.000	0.024	0.078
-577.763	800.000	-0.042	0.119
-576.748	-69.985	-0.287	-0.109
-575.733	-88.389	0.072	0.022
-574.719	800.000	0.042	-0.150
-573.704	420.684	0.069	-0.149
-572.690	568.981	0.132	0.320
-571.675	-23.447	0.336	-0.201
-570.661	262.932	-0.153	-0.265
-569.646	26.959	-0.258	-0.216
-568.631	-25.414	-0.187	0.111
-567.617	800.000	-0.052	-0.143
-566.602	341.819	0.110	-0.215
-565.588	800.000	-0.099	-0.287
-564.573	472.862	-0.133	-0.300
-563.558	204.541	0.232	-0.359
-562.544	800.000	0.044	0.139
-561.529	606.274	-0.036	0.088
-560.515	-92.632	0.171	-0.048
-559.500	-200.000	-0.013	0.245
-558.485	-200.000	-0.062	0.280
-557.471	-48.122	0.257	0.124
-556.456	363.722	0.082	-0.165
-555.442	-12.833	0.225	0.146
-554.427	-200.000	0.005	0.053
-553.412	449.659	-0.090	-0.199
-552.398	230.260	-0.092	-0.150
-551.383	-200.000	0.003	-0.225
-550.369	-200.000	-0.004	-0.377
-549.354	-28.161	-0.170	-0.098
-548.339	800.000	0.032	-0.129
-547.325	-53.347	-0.317	-0.145
-546.310	-200.000	0.023	-0.119
-545.296	101.655	0.115	-0.134
-544.281	800.000	0.047	-0.161
-543.266	800.000	-0.082	0.255
-542.252	-97.078	0.153	0.040
-541.237	395.270	0.107	0.223
-540.223	-200.000	-0.017	-0.169
-539.208	-200.000	-0.052	-0.310
-538.193	-101.680	0.385	-0.093
-537.179	-124.369	-0.286	-0.045
-536.164	106.904	-0.149	0.176
-535.150	70.529	-0.083	-0.085
-534.135	203.274	0.076	-0.118
-533.121	164.058	0.102	0.143
-532.106	-192.322	-0.278	-0.003
-531.091	283.250	0.081	-0.145
-530.077	-200.000	-0.043	-0.298
-529.062	-200.000	-0.004	0.258
-528.048	-200.000	0.023	0.132
-527.033	26.535	-0.291	0.243
-526.018	-102.943	0.241	0.057
-525.004	-200.000	0.065	0.428
-523.989	-200.000	0.007	0.071
-522.975	800.000	0.069	0.296
-521.960	800.000	-0.046	0.147
-520.945	50.522	-0.122	0.115
-519.931	800.000	0.060	0.171
-518.916	163.707	-0.023	-0.033
-517.902	-26.008	-0.119	0.070
-516.887	-200.000	-0.034	-0.198
-515.872	-40.252	0.106	0.055
-514.858	56.820	0.070	-0.068
-513.843	-66.248	0.112	0.045
-512.829	-200.000	-0.009	0.101
-511.814	-157.176	-0.200	-0.012
-510.799	-128.504	-0.207	0.029
-509.785	-27.124	-0.143	-0.083
-508.770	7.813	-0.198	0.148
-507.756	-68.900	-0.244	0.094
-506.741	-41.718	-0.307	0.157
-505.726	128.498	-0.190	-0.241
-504.712	-200.000	0.000	-0.091
-503.697	122.671	0.031	0.039
-502.683	49.656	0.097	0.091
-501.668	111.561	0.221	0.265
-500.653	74.360	-0.068	-0.072
-499.639	-153.746	0.420	-0.029
-498.624	44.417	0.241	-0.221
-497.610	69.469	0.265	0.272
-496.595	-156.763	-0.150	-0.009
-495.581	373.080	0.153	0.309
-494.566	-200.000	-0.017	-0.230
-493.551	124.347	0.168	0.211
-492.537	328.312	0.112	0.215
-491.522	-85.915	-0.100	-0.031
-490.508	800.000	-0.065	0.243
-489.493	-42.973	0.161	-0.081
-488.478	31.911	0.071	0.061
-487.464	-200.000	0.004	-0.204
-486.449	-200.000	0.021	-0.110
-485.435	39.362	-0.045	0.040
-484.420	-56.353	0.080	-0.035
-483.405	-110.342	0.209	-0.043
-482.391	-113.246	0.027	0.005
-481.376	138.531	-0.091	0.118
-480.362	72.905	0.165	-0.172
-479.347	-200.000	0.026	-0.169
-478.332	-174.253	-0.158	0.005
-477.318	50.875	-0.028	0.026
-476.303	47.518	-0.124	-0.115
-475.289	100.549	-0.133	-0.154
-474.274	92.938	-0.035	0.039
-473.259	-64.977	-0.364	0.146
-472.245	-189.364	0.385	-0.004
-471.230	-38.499	-0.275	0.145
-470.216	-37.996	-0.188	-0.099
-469.201	-97.146	0.080	-0.021
-468.186	-178.396	-0.145	0.003
-467.172	148.515	0.116	-0.156
-466.157	-7.134	0.064	0.043
-465.143	91.133	0.144	-0.161
-464.128	-200.000	-0.017	0.101
-463.113	74.926	-0.217	-0.228
-462.099	-200.000	0.014	0.115
-461.084	-200.000	0.005	-0.071
-460.070	356.210	-0.040	-0.080
-459.055	172.919	-0.167	-0.239
-458.040	105.367	0.150	0.176
-457.026	800.000	-0.068	0.262
-456.011	-116.768	-0.087	0.016
-454.997	479.979	0.086	0.194
-453.982	-129.351	0.197	0.027
-452.968	140.105	-0.314	-0.412
-451.953	800.000	-0.035	-0.152
-450.938	460.971	-0.025	0.055
-449.924	190.262	-0.112	-0.167
-448.909	-70.238	0.225	0.085
-447.895	-47.878	0.082	0.040
-446.880	292.138	-0.130	-0.236
-445.865	70.581	0.111	-0.115
-444.851	49.423	-0.100	0.093
-443.836	195.898	0.081	-0.123
-442.822	-200.000	0.005	-0.105
-441.807	-200.000	-0.007	-0.130
-440.792	87.286	0.074	0.081
-439.778	65.994	0.095	-0.096
-438.763	800.000	0.044	0.172
-437.749	800.000	-0.096	-0.280
-436.734	436.178	-0.068	0.146
-435.719	14.303	-0.182	0.141
-434.705	563.933	0.069	-0.167
-433.690	-156.054	0.074	-0.005
-432.676	56.754	0.092	-0.089
-431.661	385.837	-0.130	-0.266
-430.646	-48.174	-0.177	-0.085
-429.632	-200.000	-0.008	0.492
-428.617	235.472	-0.061	0.100
-427.603	-148.726	0.374	0.030
-426.588	242.587	-0.115	-0.192
-425.573	-59.684	0.113	-0.048
-424.559	-200.000	-0.011	-0.278
-423.544	-41.122	-0.050	0.026
-422.530	-141.200	-0.245	0.025
-421.515	-200.000	0.103	0.456
-420.500	355.240	0.123	0.243
-419.486	243.487	-0.090	-0.149
-418.471	412.804	-0.071	-0.149
-417.457	350.024	-0.063	-0.124
-416.442	-43.404	0.331	0.166
-415.428	228.364	0.217	-0.351
-414.413	139.024	-0.192	-0.251
-413.398	-154.744	-0.276	0.018
-412.384	800.000	-0.012	-0.039
-411.369	-200.000	0.017	0.140
-410.355	-68.419	-0.462	0.178
-409.340	369.949	0.070	-0.141
-408.325	327.929	-0.156	-0.298
-407.311	27.043	-0.239	0.199
-406.296	-200.000	0.029	0.346
-405.282	149.913	0.166	0.224
-404.267	-200.000	0.075	0.423
-403.252	-46.045	-0.231	-0.113
-402.238	747.323	0.120	0.321
-401.223	88.077	-0.104	-0.114
-400.209	112.428	0.182	0.219
-399.194	-80.075	-0.064	-0.021
-398.179	76.141	0.250	0.263
-397.165	193.694	0.143	-0.214
-396.150	-200.000	0.083	-0.392
-395.136	-94.329	-0.148	0.040
-394.121	-74.186	0.344	-0.123
-393.106	-47.379	-0.082	-0.039
-392.092	26.671	0.311	0.258
-391.077	-80.138	0.203	-0.067
-390.063	159.391	-0.195	0.268
-389.048	-200.000	-0.010	0.287
-388.033	53.458	-0.172	0.163
-387.019	-46.868	-0.241	-0.117
-386.004	100.756	-0.075	-0.087
-384.990	-14.581	0.379	0.242
-383.975	32.961	-0.246	-0.212
-382.960	-32.655	0.278	-0.153
-381.946	800.000	-0.062	-0.228
-380.931	21.930	-0.044	-0.036
-379.917	25.945	0.274	0.227
-378.902	-77.757	-0.212	-0.073
-377.888	800.000	-0.051	0.178
-376.873	-22.645	0.077	0.046
-375.858	-200.000	-0.075	0.376
-374.844	650.477	0.013	-0.033
-373.829	-175.751	0.281	0.007
-372.815	-200.000	0.002	-0.129
-371.800	-200.000	0.012	-0.150
-370.785	-76.165	-0.378	-0.132
-369.771	265.202	-0.100	0.173
-368.756	-200.000	-0.005	-0.129
-367.742	-96.812	0.252	0.066
-366.727	-64.851	-0.286	0.115
-365.712	-89.277	-0.080	0.023
-364.698	-200.000	-0.061	-0.378
-363.683	6.609	0.023	0.017
-362.669	148.318	-0.180	-0.241
-361.654	85.606	0.188	0.205
-360.639	-200.000	0.371	-0.000
-359.625	131.325	0.119	-0.151
-358.610	189.674	-0.137	-0.203
-357.596	335.888	0.082	0.158
-356.581	122.191	-0.133	-0.164
-355.566	-16.241	-0.346	-0.218
-354.552	-13.038	-0.310	0.199
-353.537	-83.036	-0.336	0.107
-352.523	434.499	0.092	-0.197
-351.508	133.196	0.208	0.266
-350.493	72.202	0.200	-0.206
-349.479	-184.892	0.186	-0.003
-348.464	200.974	0.085	0.129
-347.450	-172.004	-0.137	-0.004
-346.435	-200.000	-0.026	0.228
-345.420	-200.000	-0.006	-0.291
-344.406	-129.468	-0.402	0.055
-343.391	238.082	-0.047	-0.077
-342.377	-49.116	-0.238	-0.113
-341.362	-200.000	-0.002	-0.144
-340.348	800.000	0.080	-0.238
-339.333	-186.697	0.156	-0.002
-338.318	-200.000	-0.011	0.149
-337.304	-156.886	-0.267	0.016
-336.289	99.605	0.117	-0.134
-335.275	-51.319	-0.251	0.116
-334.260	-132.823	0.191	0.024
-333.245	800.000	-0.044	0.133
-332.231	89.799	-0.199	0.220
-331.216	93.450	0.076	0.085
-330.202	-127.135	-0.360	0.052
-329.187	-200.000	0.133	-0.000
-328.172	53.104	0.137	-0.130
-327.158	39.716	0.395	0.350
-326.143	-111.240	0.266	-0.054
-325.129	-200.000	0.048	0.276
-324.114	-19.005	0.121	0.075
-323.099	-200.000	-0.012	-0.103
-322.085	433.901	0.055	-0.118
-321.070	-51.944	-0.199	-0.092
-320.056	800.000	0.080	0.261
-319.041	-58.068	0.290	-0.125
-318.026	177.446	-0.097	-0.140
-317.012	30.652	0.099	-0.083
-315.997	494.519	0.136	0.308
-314.983	-160.209	-0.231	0.012
-313.968	-144.685	0.030	-0.003
-312.953	140.484	-0.276	-0.360
-311.939	186.699	-0.043	0.064
-310.924	-97.703	-0.075	0.019
-309.910	-117.577	-0.417	0.074
-308.895	-82.651	0.206	0.066
-307.880	172.046	-0.195	0.277
-306.866	-97.158	0.320	-0.083
-305.851	372.383	0.072	-0.144
-304.837	-200.000	0.040	0.211
-303.822	778.944	0.072	-0.196
-302.807	-41.863	-0.167	-0.085
-301.793	-10.193	0.194	0.127
-300.778	-200.000	0.011	0.265
-299.764	800.000	-0.022	-0.061
-298.749	159.846	-0.258	0.356
-297.735	-200.000	-0.004	-0.022
-296.720	133.536	-0.243	-0.311
-295.705	-84.631	-0.216	0.067
-294.691	-7.181	0.288	0.193
-293.676	0.147	0.173	0.122
-292.662	154.311	-0.026	-0.035
-291.647	474.019	-0.079	0.175
-290.632	-69.323	-0.267	-0.101
-289.618	42.209	0.111	-0.100
-288.603	624.801	0.028	-0.069
-287.589	-195.140	0.172	0.001
-286.574	-14.307	0.254	0.162
-285.559	-200.000	0.043	-0.265
-284.545	-103.728	0.370	-0.086
-283.530	182.769	0.216	0.314
-282.516	15.601	-0.194	-0.151
-281.501	199.147	-0.069	-0.104
-280.486	15.855	-0.197	-0.153
-279.472	-131.506	0.217	0.028
-278.457	-111.814	-0.332	0.066
-277.443	-117.627	-0.131	0.023
-276.428	-57.954	-0.180	0.078
-275.413	-168.714	0.152	-0.006
-274.399	275.702	-0.122	-0.214
-273.384	-70.191	-0.116	-0.043
-272.370	-200.000	-0.009	-0.145
-271.355	-129.676	0.285	0.039
-270.340	800.000	0.018	-0.062
-269.326	66.956	0.167	-0.168
-268.311	523.724	0.017	0.040
-267.297	389.059	0.088	0.180
-266.282	-200.000	-0.032	-0.199
-265.267	-84.103	-0.436	0.137
-264.253	-150.082	-0.175	0.013
-263.238	3.748	0.186	-0.134
-262.224	-185.073	-0.246	-0.004
-261.209	764.501	0.005	0.014
-260.195	-18.506	0.104	0.064
-259.180	312.497	-0.092	0.170
-258.165	473.869	-0.139	-0.309
-257.151	800.000	-0.046	0.164
-256.136	-41.073	0.115	0.058
-255.122	392.651	-0.083	-0.170
-254.107	49.534	0.047	0.044
-253.092	-33.470	-0.253	0.138
-252.078	-65.093	-0.394	0.157
-251.063	13.544	0.047	-0.036
-250.049	89.850	0.247	0.273
-249.034	800.000	-0.094	-0.278
-248.019	800.000	0.015	-0.050
-247.005	-146.252	-0.237	-0.021
-245.990	-27.528	-0.094	0.054
-244.976	308.495	0.175	-0.321
-243.961	-72.237	-0.290	-0.106
-242.946	800.000	-0.058	0.240
-241.932	279.426	-0.211	-0.371
-240.917	-106.125	-0.268	-0.059
-239.903	38.081	0.239	-0.210
-238.888	623.578	0.082	0.203
-237.873	315.648	0.050	0.093
-236.859	-200.000	0.054	0.422
-235.844	-50.823	-0.216	0.100
-234.830	-30.693	-0.302	0.168
-233.815	413.302	0.086	-0.180
-232.800	-121.978	0.147	0.024
-231.786	-5.828	-0.181	-0.122
-230.771	-95.697	-0.393	0.104
-229.757	35.441	0.133	-0.115
-228.742	52.224	0.085	0.080
-227.727	236.405	-0.094	-0.153
-226.713	-200.000	-0.041	-0.361
-225.698	-101.168	0.089	-0.021
-224.684	800.000	-0.071	-0.249
-223.669	-200.000	0.036	-0.207
-222.655	-200.000	-0.071	0.373
-221.640	788.869	0.050	0.136
-220.625	-1.205	0.056	0.039
-219.611	-179.847	0.108	0.002
-218.596	-200.000	-0.003	0.314
-217.582	-200.000	-0.007	0.367
-216.567	-200.000	0.022	-0.242
-215.552	-113.669	-0.184	0.035
-214.538	800.000	-0.025	0.087
-213.523	-30.687	0.266	-0.148
-212.509	43.462	0.190	-0.171
-211.494	-9.548	-0.202	-0.133
-210.479	-127.102	0.108	0.016
-209.465	800.000	0.098	0.320
-208.450	279.455	0.044	0.077
-207.436	-200.000	-0.016	-0.187
-206.421	-147.143	0.250	0.021
-205.406	800.000	0.086	0.235
-204.392	800.000	-0.071	-0.210
-203.377	800.000	0.128	-0.362
-202.363	-200.000	-0.022	-0.293
-201.348	14.225	-0.250	0.192
-200.333	-200.000	0.035	0.455
-199.319	-18.125	-0.181	-0.111
-198.304	-28.952	0.145	0.082
-197.290	-128.596	0.276	-0.038
-196.275	800.000	0.069	-0.279
-195.260	505.296	-0.130	-0.295
-194.246	1.859	0.400	0.284
-193.231	-139.710	0.209	-0.022
-192.217	800.000	-0.083	-0.249
-191.202	-43.841	-0.430	0.213
-190.187	222.938	-0.077	0.122
-189.173	107.473	-0.128	0.150
-188.158	-9.396	0.190	0.125
-187.144	111.626	0.097	0.115
-186.129	-74.805	-0.288	-0.102
-185.114	-60.633	0.046	0.019
-184.100	-200.000	-0.038	-0.337
-183.085	-135.179	0.097	-0.012
-182.071	-200.000	0.014	-0.127
-181.056	800.000	0.094	-0.268
-180.042	-190.734	0.350	0.004
-179.027	-65.191	0.272	-0.108
-178.012	-26.680	-0.194	0.112
-176.998	800.000	0.138	0.395
-175.983	-200.000	-0.056	0.293
-174.969	-200.000	-0.004	-0.220
-173.954	176.805	0.088	-0.126
-172.939	-200.000	-0.112	0.000
-171.925	800.000	-0.091	-0.272
-170.910	584.752	0.112	-0.270
-169.896	-200.000	0.042	0.200
-168.881	179.285	-0.352	0.507
-167.866	-200.000	0.022	0.096
-166.852	50.595	-0.201	0.187
-165.837	335.165	0.203	0.387
-164.823	328.418	0.198	0.373
-163.808	-200.000	-0.059	0.286
-162.793	800.000	0.036	0.148
-161.779	-200.000	0.034	0.200
-160.764	-19.874	-0.213	-0.129
-159.750	17.124	0.223	0.174
-158.735	-200.000	0.002	0.184
-157.720	204.912	0.059	-0.090
-156.706	-200.000	0.004	0.066
-155.691	800.000	-0.083	0.346
-154.677	526.180	-0.063	0.147
-153.662	-200.000	-0.031	0.241
-152.647	-72.082	0.410	-0.150
-151.633	-200.000	-0.006	-0.372
-150.618	-120.865	0.152	-0.025
-149.604	420.176	0.094	-0.197
-148.589	-180.878	-0.077	0.002
-147.574	-46.844	0.150	-0.072
-146.560	80.893	-0.093	-0.099
-145.545	-183.257	-0.367	0.006
-144.531	402.031	0.118	-0.243
-143.516	-113.179	0.053	-0.010
-142.502	-92.948	0.216	-0.059
-141.487	245.641	0.124	0.206
-140.472	-125.807	0.243	-0.036
-139.458	-200.000	0.004	0.127
-138.443	-20.056	0.276	-0.167
-137.429	-200.000	-0.018	0.130
-136.414	107.995	-0.184	-0.216
-135.399	800.000	-0.022	0.087
-134.385	-200.000	-0.006	-0.345
-133.370	109.839	0.160	-0.188
-132.356	494.478	0.029	-0.065
-131.341	800.000	-0.099	-0.374
-130.326	107.385	-0.140	-0.164
-129.312	-94.606	0.190	0.051
-128.297	266.674	0.020	0.034
-127.283	-54.908	-0.152	0.067
-126.268	770.918	-0.052	0.140
-125.253	402.012	-0.107	0.221
-124.239	-144.057	0.059	-0.005
-123.224	-60.470	-0.036	0.015
-122.210	-90.310	0.247	0.070
