DTS Sentinel unit serial number:	SN413079Multiplexer serial number:	ORYXHardware model number:	OX4-SRSoftware version number:	ORYX F/W v4.00 Oryx Data Collector v3.7.2.0data status	okinstallation	princeton_trtdifferential loss correction	single-endedforward channel	channel 3reverse channel	N/Adate	2019/09/16time	20:48:34forward acquisition time	60.00reverse acquisition time	0.00gamma	496.2192k internal	0.2324k external	0.2324temperature offset calibration	0.9941default loss term (dB/km)	0.3790temperature slope calibration	1.0000multiplexer offset coefficient	1.0000multiplexer slope coefficient	1.0000fibre end	0.00T internal ref (°C)	32.28T ext. ref 1 (°C)	0.08T ext. ref 2 (°C)	25.85length (m)	temperature (°C)	Stokes	anti-Stokes-747.200	81.148	0.115	0.126
-746.185	-79.141	-0.383	-0.131
-745.171	800.000	-0.016	0.050
-744.156	-62.116	0.193	-0.081
-743.142	-200.000	0.019	0.126
-742.127	536.924	-0.151	0.362
-741.112	-137.046	0.227	-0.026
-740.098	167.902	0.110	-0.158
-739.083	186.524	0.128	0.193
-738.069	-200.000	0.007	-0.211
-737.054	-136.321	-0.309	0.036
-736.039	-39.066	-0.118	-0.063
-735.025	-200.000	-0.077	-0.423
-734.010	-146.180	-0.305	-0.027
-732.996	-200.000	0.055	-0.331
-731.981	94.938	-0.186	-0.213
-730.966	-200.000	0.017	-0.188
-729.952	-91.050	-0.190	-0.055
-728.937	-200.000	0.023	0.117
-727.923	-111.195	0.231	0.048
-726.908	323.281	-0.238	-0.459
-725.894	-58.152	0.106	0.046
-724.879	189.898	-0.060	0.091
-723.864	-132.938	-0.248	-0.032
-722.850	-200.000	-0.017	0.168
-721.835	512.486	-0.135	-0.316
-720.821	-172.731	-0.499	0.016
-719.806	-129.603	-0.055	0.008
-718.791	226.607	-0.104	-0.170
-717.777	800.000	0.142	-0.528
-716.762	424.002	0.104	-0.224
-715.748	-200.000	0.000	-0.161
-714.733	-200.000	-0.001	0.109
-713.718	-200.000	0.026	0.149
-712.704	-96.498	-0.279	-0.074
-711.689	-200.000	0.027	-0.129
-710.675	205.723	0.031	0.049
-709.660	800.000	-0.023	-0.077
-708.645	592.130	-0.128	0.319
-707.631	132.487	-0.113	0.146
-706.616	191.748	0.237	0.360
-705.602	800.000	0.040	0.140
-704.587	-20.323	-0.185	0.115
-703.572	-48.731	-0.041	-0.020
-702.558	751.508	0.069	-0.187
-701.543	-144.993	0.154	0.014
-700.529	-115.571	0.172	0.033
-699.514	-51.456	0.115	0.054
-698.499	-109.797	0.212	-0.045
-697.485	357.525	-0.141	-0.284
-696.470	-19.983	-0.070	0.044
-695.456	162.800	0.160	-0.226
-694.441	-200.000	0.044	-0.212
-693.426	-95.226	0.515	-0.140
-692.412	-200.000	0.024	-0.189
-691.397	-48.874	-0.240	0.116
-690.383	-200.000	-0.017	-0.310
-689.368	-41.093	0.049	-0.025
-688.354	397.640	-0.057	-0.121
-687.339	-100.936	-0.217	0.054
-686.324	-200.000	0.003	-0.043
-685.310	91.002	-0.100	-0.113
-684.295	598.399	-0.070	0.175
-683.281	128.204	0.242	0.310
-682.266	28.811	0.153	0.131
-681.251	800.000	-0.074	0.251
-680.237	-200.000	0.019	-0.377
-679.222	-200.000	-0.008	0.052
-678.208	-159.510	-0.244	0.014
-677.193	-92.187	-0.088	0.025
-676.178	216.603	0.110	0.177
-675.164	-200.000	0.045	0.228
-674.149	-43.485	0.182	0.092
-673.135	-129.528	0.144	0.020
-672.120	800.000	0.064	-0.187
-671.105	-150.887	0.219	-0.017
-670.091	17.859	-0.117	0.094
-669.076	170.873	-0.084	0.121
-668.062	110.775	0.022	-0.026
-667.047	-200.000	-0.027	-0.270
-666.032	527.175	-0.182	-0.431
-665.018	-128.885	-0.492	0.070
-664.003	70.391	0.056	0.058
-662.989	-58.934	-0.261	-0.114
-661.974	-200.000	-0.011	0.231
-660.959	-50.299	0.115	-0.055
-659.945	221.295	-0.081	-0.131
-658.930	-63.255	0.233	-0.097
-657.916	-200.000	-0.091	0.577
-656.901	-115.230	-0.403	-0.077
-655.886	-200.000	0.018	0.235
-654.872	-0.044	-0.063	-0.045
-653.857	-187.650	0.137	0.002
-652.843	-200.000	-0.017	-0.322
-651.828	800.000	0.035	-0.148
-650.814	386.105	-0.144	-0.298
-649.799	-98.302	0.138	-0.036
-648.784	-200.000	0.007	-0.054
-647.770	-200.000	0.012	-0.106
-646.755	450.136	-0.154	-0.341
-645.741	-102.601	0.301	-0.072
-644.726	14.637	-0.029	0.023
-643.711	-200.000	-0.016	-0.200
-642.697	98.810	0.120	0.139
-641.682	-21.844	-0.339	0.207
-640.668	328.377	0.055	0.105
-639.653	800.000	0.084	0.304
-638.638	-181.798	-0.249	0.005
-637.624	-200.000	0.050	-0.291
-636.609	-16.636	-0.093	0.059
-635.595	-139.643	0.251	0.027
-634.580	-82.015	0.037	0.012
-633.565	-87.754	0.054	-0.016
-632.551	366.854	-0.029	-0.060
-631.536	-120.862	0.217	-0.037
-630.522	800.000	0.050	-0.153
-629.507	-200.000	0.045	-0.323
-628.492	42.414	-0.106	-0.096
-627.478	-107.558	0.258	-0.057
-626.463	-27.266	-0.096	-0.056
-625.449	-22.095	-0.110	0.067
-624.434	-149.538	0.283	0.022
-623.419	75.559	-0.179	0.190
-622.405	285.822	-0.025	-0.045
-621.390	-200.000	0.001	0.040
-620.376	-41.372	-0.069	-0.036
-619.361	-200.000	0.002	-0.356
-618.346	-37.116	-0.310	0.167
-617.332	-125.616	0.319	-0.049
-616.317	412.792	-0.025	0.053
-615.303	-64.009	0.163	-0.067
-614.288	-176.430	0.328	-0.009
-613.273	-34.075	-0.213	0.117
-612.259	-200.000	-0.032	-0.144
-611.244	-142.106	-0.223	-0.022
-610.230	-73.932	-0.232	0.085
-609.215	78.856	-0.111	-0.119
-608.201	32.606	-0.152	0.132
-607.186	20.779	-0.137	0.111
-606.171	-112.727	-0.185	0.037
-605.157	247.268	0.122	-0.207
-604.142	-100.900	-0.505	-0.125
-603.128	-200.000	-0.019	0.205
-602.113	-48.734	0.406	-0.196
-601.098	-61.820	0.210	-0.088
-600.084	-69.359	-0.298	0.115
-599.069	800.000	0.060	0.241
-598.055	-84.370	-0.100	-0.032
-597.040	-121.488	0.190	-0.032
-596.025	195.648	0.181	0.276
-595.011	374.192	0.188	-0.384
-593.996	21.538	0.282	-0.230
-592.982	-200.000	0.027	-0.232
-591.967	241.911	-0.162	0.272
-590.952	-117.443	0.188	-0.034
-589.938	-51.644	-0.187	-0.087
-588.923	102.614	-0.065	0.077
-587.909	-200.000	0.011	0.168
-586.894	245.148	-0.079	0.134
-585.879	-90.426	-0.232	0.068
-584.865	13.688	-0.105	0.081
-583.850	62.956	0.308	-0.309
-582.836	84.245	-0.089	-0.098
-581.821	-200.000	-0.002	0.017
-580.806	-200.000	-0.005	-0.029
-579.792	-120.808	-0.243	-0.041
-578.777	-104.677	0.116	-0.027
-577.763	-130.513	-0.032	0.004
-576.748	385.159	0.070	0.145
-575.733	-49.227	0.226	-0.108
-574.719	-60.075	0.226	0.097
-573.704	-69.632	0.083	-0.032
-572.690	-144.582	-0.256	-0.024
-571.675	-1.271	-0.111	0.079
-570.661	22.596	0.116	-0.095
-569.646	-200.000	-0.023	-0.353
-568.631	-93.404	-0.118	0.033
-567.617	800.000	-0.094	0.340
-566.602	95.523	0.056	0.064
-565.588	-161.657	0.152	-0.008
-564.573	-200.000	0.025	0.203
-563.558	19.256	0.399	-0.321
-562.544	168.270	0.120	0.171
-561.529	800.000	-0.068	-0.213
-560.515	-156.048	0.295	0.019
-559.500	-43.279	-0.071	0.036
-558.485	219.954	-0.112	0.180
-557.471	-39.925	-0.225	0.118
-556.456	93.654	-0.121	0.138
-555.442	-102.117	-0.041	-0.010
-554.427	33.266	-0.270	0.234
-553.412	-104.689	-0.259	0.060
-552.398	-49.126	0.162	0.078
-551.383	800.000	0.040	-0.117
-550.369	-149.944	0.368	0.029
-549.354	800.000	0.029	0.125
-548.339	461.429	0.151	0.338
-547.325	455.606	-0.036	0.079
-546.310	332.565	-0.190	-0.368
-545.296	292.998	0.177	-0.323
-544.281	138.185	0.128	0.168
-543.266	-44.682	-0.185	-0.093
-542.252	800.000	-0.070	-0.222
-541.237	94.183	-0.107	-0.122
-540.223	-200.000	-0.003	0.278
-539.208	60.745	-0.274	0.272
-538.193	36.484	-0.243	0.214
-537.179	-108.352	-0.120	0.026
-536.164	-58.819	0.561	0.243
-535.150	-117.616	-0.300	-0.054
-534.135	53.146	-0.189	0.181
-533.121	690.914	-0.020	-0.053
-532.106	800.000	-0.004	0.015
-531.091	-56.890	-0.106	-0.047
-530.077	-200.000	0.027	0.312
-529.062	-31.641	0.058	0.033
-528.048	-86.105	0.094	0.029
-527.033	308.557	-0.100	0.187
-526.018	230.085	0.065	-0.106
-525.004	-200.000	-0.004	0.064
-523.989	-16.166	0.053	-0.034
-522.975	275.241	0.080	0.142
-521.960	-50.834	0.080	-0.037
-520.945	184.434	-0.163	-0.242
-519.931	-139.531	0.577	-0.062
-518.916	800.000	0.046	-0.128
-517.902	-106.702	-0.160	-0.036
-516.887	-96.103	0.097	-0.026
-515.872	-200.000	0.060	-0.428
-514.858	-67.107	0.283	0.112
-513.843	800.000	0.048	0.165
-512.829	-200.000	0.004	-0.146
-511.814	3.943	-0.255	-0.187
-510.799	199.371	0.179	0.275
-509.785	-78.877	-0.260	0.089
-508.770	800.000	0.093	-0.378
-507.756	800.000	0.002	-0.009
-506.741	-131.080	0.212	-0.028
-505.726	555.125	-0.089	0.214
-504.712	-65.241	0.075	0.030
-503.697	412.332	0.067	-0.143
-502.683	-21.770	0.215	-0.131
-501.668	457.483	0.038	-0.084
-500.653	800.000	0.042	-0.117
-499.639	42.268	0.066	0.060
-498.624	-89.776	0.099	-0.029
-497.610	-51.040	-0.248	-0.116
-496.595	-200.000	0.048	0.272
-495.581	-101.508	-0.395	0.096
-494.566	-200.000	-0.015	-0.381
-493.551	-60.914	-0.082	0.035
-492.537	-119.004	0.188	-0.033
-491.522	-103.049	-0.350	-0.083
-490.508	46.091	-0.240	0.222
-489.493	-13.169	-0.363	-0.236
-488.478	249.220	-0.075	-0.127
-487.464	-133.790	0.112	-0.014
-486.449	-80.277	-0.187	0.063
-485.435	98.323	0.081	-0.093
-484.420	800.000	-0.083	0.317
-483.405	208.284	-0.236	-0.368
-482.391	407.161	-0.065	0.136
-481.376	-79.472	-0.150	-0.051
-480.362	750.803	-0.132	-0.355
-479.347	177.733	-0.197	0.287
-478.332	54.740	0.071	-0.068
-477.318	500.008	-0.067	-0.154
-476.303	800.000	0.043	-0.125
-475.289	92.559	-0.269	0.304
-474.274	312.834	0.056	0.105
-473.259	30.440	0.254	-0.216
-472.245	-64.124	0.247	0.101
-471.230	-105.577	0.342	0.077
-470.216	-200.000	-0.026	-0.457
-469.201	44.944	0.032	-0.029
-468.186	-177.964	0.502	-0.012
-467.172	225.210	0.066	0.106
-466.157	-5.414	0.171	0.117
-465.143	-200.000	0.014	-0.288
-464.128	-112.471	0.145	0.029
-463.113	477.150	0.113	0.256
-462.099	800.000	0.042	0.174
-461.084	475.290	0.035	-0.080
-460.070	426.502	0.168	0.362
-459.055	481.110	-0.143	0.323
-458.040	-102.315	-0.338	0.081
-457.026	5.614	0.357	-0.263
-456.011	-6.042	0.081	-0.056
-454.997	-95.318	0.042	0.011
-453.982	39.452	-0.264	-0.236
-452.968	-28.447	-0.044	-0.025
-451.953	-200.000	0.026	-0.402
-450.938	532.592	-0.031	-0.074
-449.924	-46.466	0.456	-0.224
-448.909	291.413	0.045	-0.082
-447.895	360.655	-0.137	0.274
-446.880	-23.765	0.169	0.101
-445.865	-180.333	-0.339	-0.007
-444.851	214.924	-0.213	0.337
-443.836	-130.227	-0.233	0.032
-442.822	-200.000	0.041	0.250
-441.807	-137.742	0.104	-0.012
-440.792	-84.623	0.276	-0.087
-439.778	-200.000	0.083	-0.562
-438.763	654.743	-0.022	-0.057
-437.749	-55.550	-0.214	0.095
-436.734	285.429	0.055	0.099
-435.719	-82.276	0.078	0.025
-434.705	31.435	-0.094	0.080
-433.690	177.831	-0.094	0.136
-432.676	418.637	-0.041	-0.088
-431.661	800.000	0.017	-0.068
-430.646	-200.000	0.055	0.245
-429.632	-108.943	0.097	-0.021
-428.617	-158.604	-0.068	0.004
-427.603	-117.364	0.091	0.016
-426.588	212.031	0.046	0.073
-425.573	-124.941	-0.289	0.044
-424.559	278.103	-0.175	-0.311
-423.544	-200.000	0.002	-0.074
-422.530	140.751	0.186	0.245
-421.515	49.673	-0.108	-0.101
-420.500	800.000	-0.093	-0.384
-419.486	249.696	-0.147	-0.248
-418.471	-51.828	0.053	0.024
-417.457	-24.063	0.284	0.169
-416.442	-149.898	-0.142	-0.011
-415.428	652.951	0.090	-0.231
-414.413	-108.695	-0.141	-0.030
-413.398	800.000	0.078	0.273
-412.384	-200.000	-0.009	-0.332
-411.369	-200.000	0.018	-0.153
-410.355	-186.733	0.257	0.004
-409.340	276.284	0.177	0.313
-408.325	-138.690	-0.270	0.029
-407.311	800.000	0.070	0.287
-406.296	-56.808	0.137	0.061
-405.282	-200.000	-0.011	0.252
-404.267	800.000	0.101	-0.361
-403.252	469.743	0.020	-0.044
-402.238	-200.000	0.021	-0.205
-401.223	538.725	-0.050	0.118
-400.209	151.070	-0.100	0.136
-399.194	-44.046	-0.230	0.115
-398.179	-132.073	0.211	0.027
-397.165	-96.500	-0.170	-0.045
-396.150	328.735	-0.079	-0.150
-395.136	-63.659	0.159	-0.065
-394.121	-128.539	0.206	-0.029
-393.106	-63.247	-0.127	-0.052
-392.092	43.849	0.194	-0.177
-391.077	-109.684	-0.090	-0.019
-390.063	-200.000	0.019	-0.211
-389.048	68.604	-0.088	-0.090
-388.033	-200.000	-0.005	0.220
-387.019	24.138	0.086	0.071
-386.004	-101.801	0.083	-0.020
-384.990	-79.810	-0.209	-0.070
-383.975	108.271	-0.074	-0.088
-382.960	-124.571	-0.383	0.059
-381.946	-116.649	0.118	-0.022
-380.931	14.119	0.357	-0.277
-379.917	116.027	-0.191	0.233
-378.902	122.046	0.230	-0.286
-377.888	71.690	-0.037	0.038
-376.873	495.081	-0.115	0.263
-375.858	341.485	-0.175	0.341
-374.844	-200.000	0.031	0.241
-373.829	-104.661	-0.481	0.110
-372.815	800.000	-0.105	0.318
-371.800	132.778	-0.193	0.248
-370.785	88.024	-0.144	-0.159
-369.771	-200.000	-0.011	-0.194
-368.756	162.037	-0.184	-0.257
-367.742	800.000	0.027	0.114
-366.727	-107.102	0.383	0.084
-365.712	121.943	-0.061	-0.075
-364.698	-70.357	-0.157	-0.059
-363.683	539.185	-0.090	0.213
-362.669	57.569	-0.177	0.172
-361.654	-149.423	0.115	0.009
-360.639	-14.082	-0.132	0.085
-359.625	800.000	-0.083	-0.228
-358.610	-200.000	0.022	0.183
-357.596	409.293	-0.044	0.093
-356.581	235.643	0.172	0.283
-355.566	-4.498	0.248	0.170
-354.552	45.726	0.169	0.155
-353.537	800.000	0.074	-0.205
-352.523	-28.663	0.256	0.147
-351.508	800.000	0.024	-0.104
-350.493	-179.619	0.244	-0.005
-349.479	800.000	0.031	0.093
-348.464	-200.000	-0.039	-0.202
-347.450	800.000	-0.140	0.396
-346.435	88.873	-0.107	-0.119
-345.420	-76.539	-0.189	0.066
-344.406	800.000	0.065	-0.201
-343.391	29.670	-0.171	-0.145
-342.377	26.562	0.293	0.244
-341.362	-200.000	-0.035	-0.342
-340.348	-119.699	-0.068	0.012
-339.333	-31.216	-0.381	-0.213
-338.318	81.422	-0.157	0.169
-337.304	-64.140	0.223	-0.090
-336.289	-1.874	0.208	0.145
-335.275	-93.996	-0.041	-0.011
-334.260	-151.844	0.178	-0.013
-333.245	-54.309	0.102	0.046
-332.231	195.109	-0.151	0.227
-331.216	-92.720	-0.103	0.029
-330.202	-67.507	0.267	-0.104
-329.187	800.000	0.056	-0.205
-328.172	187.200	0.205	0.304
-327.158	-200.000	0.034	0.295
-326.143	14.993	0.175	0.136
-325.129	444.539	0.151	-0.329
-324.114	-76.270	0.147	0.051
-323.099	12.400	0.104	0.079
-322.085	-185.057	-0.109	0.002
-321.070	19.175	0.197	-0.157
-320.056	142.401	-0.094	-0.124
-319.041	499.241	0.064	0.147
-318.026	89.928	-0.242	-0.268
-317.012	800.000	-0.064	-0.209
-315.997	38.033	-0.152	-0.135
-314.983	-200.000	-0.082	-0.409
-313.968	6.786	-0.195	-0.144
-312.953	-66.227	-0.316	0.125
-311.939	411.872	0.074	-0.156
-310.924	-55.728	-0.148	-0.066
-309.910	698.659	0.041	0.108
-308.895	-170.850	-0.128	0.004
-307.880	-142.279	-0.131	0.013
-306.866	-21.073	0.251	0.152
-305.851	4.500	0.501	0.364
-304.837	800.000	-0.076	-0.230
-303.822	290.801	0.168	-0.304
-302.807	-130.284	-0.316	0.043
-301.793	-66.602	-0.175	0.069
-300.778	37.017	0.064	0.056
-299.764	-31.191	-0.244	-0.136
-298.749	305.177	0.096	-0.177
-297.735	-147.932	0.067	-0.006
-296.720	-124.563	-0.374	-0.058
-295.705	-112.801	-0.168	0.033
-294.691	177.490	0.036	0.052
-293.676	-200.000	-0.069	0.336
-292.662	-156.000	0.108	-0.007
-291.647	48.490	0.112	0.104
-290.632	-44.204	-0.184	-0.091
-289.618	29.363	0.079	-0.067
-288.603	800.000	-0.054	-0.199
-287.589	223.135	0.035	0.056
-286.574	-144.042	0.363	-0.034
-285.559	72.848	-0.048	0.050
-284.545	-11.718	0.184	0.120
-283.530	-67.659	0.071	-0.028
-282.516	7.212	0.126	0.093
-281.501	-6.143	-0.128	0.086
-280.486	178.263	0.262	0.379
-279.472	315.542	-0.034	0.063
-278.457	-63.899	-0.098	-0.040
-277.443	-27.941	0.272	0.156
-276.428	-200.000	-0.007	0.195
-275.413	-59.502	-0.117	0.050
-274.399	-108.051	0.268	-0.058
-273.384	-53.380	0.147	0.067
-272.370	800.000	0.022	-0.083
-271.355	182.281	-0.132	0.192
-270.340	-44.486	-0.059	-0.029
-269.326	-180.806	0.100	-0.002
-268.311	392.346	-0.079	-0.164
-267.297	-72.375	-0.209	-0.077
-266.282	-200.000	0.050	-0.561
-265.267	505.207	-0.053	-0.121
-264.253	-84.778	-0.038	-0.012
-263.238	-110.382	-0.198	-0.041
-262.224	800.000	-0.063	-0.177
-261.209	54.114	0.086	-0.082
-260.195	-76.740	-0.135	-0.047
-259.180	-114.069	-0.288	0.055
-258.165	367.395	-0.054	-0.108
-257.151	171.691	0.210	-0.298
-256.136	17.598	0.224	0.176
-255.122	-73.746	0.030	0.011
-254.107	275.760	-0.111	0.196
-253.092	800.000	-0.111	0.370
-252.078	89.268	-0.130	0.143
-251.063	-99.106	0.242	-0.061
-250.049	188.515	-0.097	0.144
-249.034	-200.000	0.031	-0.148
-248.019	-181.155	0.239	-0.005
-247.005	-200.000	-0.003	0.403
-245.990	128.081	-0.070	-0.088
-244.976	-200.000	-0.015	-0.181
-243.961	72.715	-0.172	0.178
-242.946	-72.044	0.093	-0.034
-241.932	41.163	0.304	0.272
-240.917	-39.833	0.328	-0.170
-239.903	-27.183	0.218	-0.126
-238.888	274.009	0.063	-0.111
-237.873	-200.000	-0.045	-0.229
-236.859	-200.000	-0.009	-0.194
-235.844	249.711	-0.111	0.187
-234.830	-200.000	-0.041	0.209
-233.815	-149.138	0.507	0.040
-232.800	-11.364	-0.378	-0.246
-231.786	800.000	-0.007	-0.028
-230.771	-200.000	-0.057	0.399
-229.757	198.412	0.117	0.178
-228.742	-37.145	0.085	0.045
-227.727	777.315	0.080	0.216
-226.713	-16.448	0.271	-0.170
-225.698	68.122	-0.147	0.148
-224.684	-2.908	-0.276	0.190
-223.669	-59.435	0.026	-0.011
-222.655	-128.437	-0.153	0.022
-221.640	-5.934	-0.075	0.051
-220.625	51.143	0.303	-0.284
-219.611	-18.518	0.200	-0.123
-218.596	187.461	0.145	0.214
-217.582	107.455	-0.100	-0.118
-216.567	-200.000	-0.021	0.115
-215.552	-84.357	-0.447	-0.140
-214.538	216.777	-0.216	0.340
-213.523	-68.400	-0.120	-0.046
-212.509	-101.084	0.268	0.065
-211.494	206.030	-0.072	0.111
-210.479	215.131	-0.087	-0.136
-209.465	233.279	0.106	0.173
-208.450	-91.474	-0.169	-0.048
-207.436	-200.000	-0.068	-0.301
-206.421	800.000	-0.023	0.065
-205.406	-137.169	-0.351	0.039
-204.392	353.814	0.184	0.361
-203.377	520.670	0.063	0.145
-202.363	800.000	-0.051	-0.172
-201.348	-200.000	-0.006	-0.148
-200.333	232.690	0.047	-0.076
-199.319	200.494	-0.186	-0.283
-198.304	198.372	-0.170	-0.257
-197.290	424.535	-0.111	-0.235
-196.275	46.323	-0.168	-0.154
-195.260	800.000	0.013	0.057
-194.246	-97.938	0.367	0.094
-193.231	-200.000	0.018	-0.134
-192.217	-67.941	-0.283	-0.109
-191.202	72.479	-0.143	-0.147
-190.187	-53.770	0.301	-0.136
-189.173	-75.052	-0.086	0.030
-188.158	-200.000	-0.000	-0.188
-187.144	749.384	0.079	-0.210
-186.129	57.171	0.108	0.104
-185.114	67.648	-0.340	0.343
-184.100	-200.000	-0.070	0.345
-183.085	338.498	-0.114	0.218
-182.071	-132.155	0.293	-0.038
-181.056	12.719	-0.315	0.240
-180.042	235.326	0.093	-0.151
-179.027	46.517	0.127	0.116
-178.012	-95.706	0.229	-0.060
-176.998	-48.659	0.340	-0.161
-175.983	-26.804	-0.075	-0.043
-174.969	262.222	-0.187	-0.321
-173.954	176.426	0.151	-0.217
-172.939	-200.000	-0.068	-0.347
-171.925	71.352	0.071	-0.073
-170.910	-200.000	0.020	0.182
-169.896	-78.341	-0.470	0.159
-168.881	-105.096	0.214	0.048
-167.866	-83.603	-0.498	0.157
-166.852	-200.000	0.049	0.262
-165.837	800.000	0.042	-0.146
-164.823	800.000	-0.116	0.479
-163.808	-76.337	0.281	0.098
-162.793	683.024	0.093	0.240
-161.779	-94.023	-0.204	0.055
-160.764	256.106	-0.031	0.053
-159.750	-180.378	0.040	-0.001
-158.735	-200.000	0.008	0.231
-157.720	800.000	-0.061	0.189
-156.706	-81.715	0.345	-0.111
-155.691	800.000	0.058	-0.243
-154.677	77.589	-0.108	0.113
-153.662	-54.338	0.230	-0.103
-152.647	1.849	-0.078	-0.056
-151.633	-76.391	0.051	0.018
-150.618	15.814	0.138	-0.107
-149.604	368.234	-0.036	0.073
-148.589	-200.000	-0.008	-0.170
-147.574	-113.523	0.140	-0.027
-146.560	-107.769	0.244	-0.052
-145.545	-17.827	-0.239	-0.148
-144.531	312.103	0.145	0.268
-143.516	41.266	-0.106	-0.094
-142.502	-135.658	0.246	-0.029
-141.487	-193.611	-0.169	-0.001
-140.472	547.480	0.079	0.187
-139.458	11.307	0.213	-0.160
-138.443	36.667	0.219	-0.191
-137.429	43.896	-0.131	0.118
-136.414	-47.508	-0.184	0.088
-135.399	-200.000	0.005	0.088
-134.385	-56.527	0.160	-0.070
-133.370	332.586	0.044	-0.083
-132.356	-147.577	-0.164	-0.014
-131.341	-200.000	0.045	0.380
-130.326	368.418	-0.137	-0.272
-129.312	-162.356	-0.301	0.015
-128.297	320.489	0.209	0.391
-127.283	63.138	0.041	0.041
-126.268	-138.818	-0.276	-0.030
-125.253	-30.112	0.287	0.161
-124.239	130.017	0.059	-0.075
-123.224	-59.226	0.122	0.052
-122.210	-200.000	0.013	0.071
