DTS Sentinel unit serial number:	SN413079Multiplexer serial number:	ORYXHardware model number:	OX4-SRSoftware version number:	ORYX F/W v4.00 Oryx Data Collector v3.7.2.0data status	okinstallation	princeton_trtdifferential loss correction	single-endedforward channel	channel 3reverse channel	N/Adate	2019/09/14time	23:56:34forward acquisition time	60.00reverse acquisition time	0.00gamma	496.2192k internal	0.2320k external	0.2320temperature offset calibration	0.9979default loss term (dB/km)	0.3790temperature slope calibration	1.0000multiplexer offset coefficient	1.0000multiplexer slope coefficient	1.0000fibre end	0.00T internal ref (°C)	32.25T ext. ref 1 (°C)	4.62T ext. ref 2 (°C)	27.11length (m)	temperature (°C)	Stokes	anti-Stokes-747.200	-200.000	0.009	-0.126
-746.185	635.007	-0.065	-0.167
-745.171	565.716	0.024	-0.060
-744.156	5.113	-0.226	0.168
-743.142	6.036	0.220	-0.165
-742.127	557.496	0.029	0.070
-741.112	-31.628	-0.121	-0.069
-740.098	33.810	-0.257	0.226
-739.083	-104.227	-0.236	0.055
-738.069	800.000	-0.103	0.296
-737.054	-123.108	-0.237	0.038
-736.039	-40.393	-0.163	0.086
-735.025	-129.940	0.335	0.046
-734.010	-32.467	-0.215	0.121
-732.996	-160.088	-0.333	0.018
-731.981	-32.639	0.132	0.074
-730.966	-200.000	-0.047	-0.292
-729.952	800.000	-0.077	-0.219
-728.937	119.583	0.176	0.220
-727.923	-89.738	-0.288	0.085
-726.908	31.320	-0.192	0.167
-725.894	-200.000	-0.018	0.179
-724.879	800.000	0.049	0.193
-723.864	362.675	-0.184	0.373
-722.850	233.833	0.100	0.166
-721.835	30.870	0.152	0.132
-720.821	329.366	-0.188	0.366
-719.806	-107.305	0.198	-0.044
-718.791	-104.045	-0.246	-0.058
-717.777	-127.126	0.159	0.024
-716.762	94.777	0.161	0.185
-715.748	349.938	0.152	-0.303
-714.733	44.755	0.163	-0.151
-713.718	-133.605	-0.045	-0.006
-712.704	-200.000	0.089	-0.569
-711.689	800.000	0.062	-0.229
-710.675	-200.000	0.012	0.308
-709.660	-200.000	-0.234	-0.001
-708.645	-86.413	-0.387	-0.120
-707.631	38.167	0.317	-0.285
-706.616	86.687	0.139	-0.155
-705.602	-78.145	-0.342	-0.119
-704.587	193.627	0.099	-0.151
-703.572	-46.118	-0.164	-0.082
-702.558	-100.051	0.191	-0.048
-701.543	-200.000	0.032	0.227
-700.529	204.087	-0.177	-0.277
-699.514	800.000	-0.044	0.165
-698.499	-55.817	-0.219	0.099
-697.485	-29.943	0.193	-0.111
-696.470	-86.111	-0.094	-0.029
-695.456	57.900	-0.172	-0.170
-694.441	-176.573	-0.369	0.010
-693.426	-74.197	-0.285	0.104
-692.412	-200.000	-0.024	0.179
-691.397	-200.000	0.015	-0.266
-690.383	-151.309	-0.058	-0.004
-689.368	-115.546	-0.292	-0.055
-688.354	-146.731	0.402	-0.035
-687.339	29.288	0.063	0.054
-686.324	32.460	0.218	-0.190
-685.310	-42.084	0.236	0.122
-684.295	30.303	-0.184	-0.158
-683.281	105.816	-0.145	0.173
-682.266	-200.000	-0.055	0.402
-681.251	800.000	-0.127	-0.445
-680.237	-154.564	0.125	0.008
-679.222	37.085	-0.026	0.024
-678.208	395.157	0.086	0.182
-677.193	-16.176	-0.156	0.100
-676.178	800.000	0.073	-0.244
-675.164	800.000	-0.037	-0.134
-674.149	742.609	-0.072	0.195
-673.135	800.000	-0.049	0.204
-672.120	-200.000	0.022	-0.110
-671.105	213.897	-0.025	-0.040
-670.091	155.605	-0.058	0.080
-669.076	800.000	0.058	-0.164
-668.062	-200.000	0.030	-0.298
-667.047	190.895	-0.032	-0.048
-666.032	64.654	-0.199	0.202
-665.018	286.963	-0.016	0.029
-664.003	-67.188	0.195	0.077
-662.989	-59.246	-0.276	-0.120
-661.974	-81.773	0.143	0.047
-660.959	473.103	-0.055	-0.124
-659.945	-1.130	0.149	0.106
-658.930	150.093	-0.105	0.144
-657.916	105.626	0.047	-0.056
-656.901	-126.275	-0.173	-0.026
-655.886	35.245	0.186	-0.164
-654.872	800.000	-0.040	-0.127
-653.857	-60.915	0.188	-0.080
-652.843	800.000	-0.080	0.259
-651.828	188.865	0.148	0.223
-650.814	355.232	0.069	-0.138
-649.799	88.847	0.136	-0.153
-648.784	-28.099	-0.104	0.060
-647.770	212.085	0.120	-0.190
-646.755	-200.000	-0.001	-0.439
-645.741	-200.000	-0.007	-0.264
-644.726	632.038	-0.076	-0.195
-643.711	613.568	-0.085	0.213
-642.697	-57.476	-0.363	-0.160
-641.682	329.247	0.039	0.075
-640.668	-29.825	0.125	0.072
-639.653	-69.080	-0.469	0.182
-638.638	480.670	0.143	-0.326
-637.624	-11.701	-0.221	-0.146
-636.609	-163.779	-0.151	-0.007
-635.595	208.924	0.039	0.061
-634.580	-49.059	-0.181	0.087
-633.565	-132.405	-0.380	-0.049
-632.551	-76.329	-0.491	-0.174
-631.536	-49.754	0.167	-0.080
-630.522	-200.000	0.009	-0.128
-629.507	800.000	-0.054	-0.177
-628.492	28.036	-0.186	-0.158
-627.478	-53.624	0.115	0.053
-626.463	-200.000	-0.024	0.117
-625.449	-120.874	0.185	-0.031
-624.434	-129.589	-0.404	0.056
-623.419	275.647	0.101	0.181
-622.405	148.843	-0.214	0.291
-621.390	-200.000	-0.012	-0.062
-620.376	35.907	-0.159	0.141
-619.361	-200.000	0.061	-0.344
-618.346	-89.367	-0.165	0.049
-617.332	800.000	0.077	0.309
-616.317	-0.745	-0.247	-0.176
-615.303	-53.302	-0.153	0.071
-614.288	18.444	0.098	-0.078
-613.273	71.886	-0.158	-0.165
-612.259	44.181	0.033	0.030
-611.244	-64.384	-0.413	0.169
-610.230	-41.463	0.184	0.095
-609.215	31.052	-0.198	0.171
-608.201	25.307	0.231	-0.193
-607.186	77.791	-0.150	-0.160
-606.171	88.998	-0.204	0.229
-605.157	11.167	-0.164	0.126
-604.142	225.228	-0.067	0.110
-603.128	-96.625	0.128	0.034
-602.113	-200.000	-0.017	-0.088
-601.098	-103.963	-0.270	-0.063
-600.084	66.683	-0.128	0.130
-599.069	-91.244	-0.254	-0.073
-598.055	321.968	-0.205	0.393
-597.040	-144.335	0.270	0.025
-596.025	-105.036	0.254	-0.059
-595.011	-168.224	-0.333	-0.013
-593.996	-200.000	-0.035	0.254
-592.982	106.169	0.094	-0.112
-591.967	-34.931	-0.190	0.104
-590.952	304.361	0.085	-0.158
-589.938	-29.067	0.189	0.109
-588.923	-95.323	-0.472	-0.128
-587.909	-63.354	0.372	0.154
-586.894	-200.000	0.016	-0.232
-585.879	309.691	0.085	0.160
-584.865	-200.000	-0.007	0.188
-583.850	800.000	-0.091	0.303
-582.836	217.448	0.109	-0.174
-581.821	800.000	-0.072	-0.258
-580.806	521.363	-0.142	-0.336
-579.792	316.699	0.125	-0.238
-578.777	800.000	0.017	0.052
-577.763	-111.399	-0.210	-0.043
-576.748	-173.992	0.524	-0.015
-575.733	-200.000	0.010	-0.202
-574.719	800.000	-0.039	0.155
-573.704	352.909	-0.141	-0.281
-572.690	228.827	0.093	-0.153
-571.675	51.310	0.208	0.199
-570.661	25.533	-0.194	-0.162
-569.646	-200.000	-0.004	-0.155
-568.631	33.707	-0.125	0.109
-567.617	800.000	-0.117	-0.380
-566.602	-54.604	0.241	-0.110
-565.588	-200.000	0.054	0.403
-564.573	-173.557	0.303	0.009
-563.558	800.000	-0.079	-0.300
-562.544	-22.092	0.223	0.136
-561.529	800.000	-0.026	-0.110
-560.515	28.181	-0.201	-0.170
-559.500	-62.007	-0.175	-0.073
-558.485	800.000	0.146	-0.460
-557.471	-64.369	0.340	-0.139
-556.456	800.000	-0.105	-0.294
-555.442	-35.326	-0.108	-0.059
-554.427	-117.607	-0.208	0.038
-553.412	-105.048	0.178	-0.041
-552.398	-57.518	0.321	-0.142
-551.383	-200.000	0.066	-0.336
-550.369	336.330	0.180	-0.351
-549.354	-17.648	-0.444	-0.280
-548.339	306.447	0.079	-0.149
-547.325	-200.000	0.009	-0.105
-546.310	34.930	-0.176	0.155
-545.296	400.511	0.079	0.166
-544.281	-51.392	0.293	0.138
-543.266	111.636	-0.191	0.232
-542.252	128.392	0.062	-0.079
-541.237	-108.287	-0.431	-0.093
-540.223	800.000	0.071	0.250
-539.208	-109.524	0.291	-0.062
-538.193	-100.851	0.221	-0.055
-537.179	-46.266	0.346	-0.171
-536.164	-71.598	-0.197	-0.074
-535.150	-50.607	-0.168	-0.080
-534.135	-9.263	0.056	-0.037
-533.121	-156.694	0.005	-0.000
-532.106	271.533	0.074	-0.130
-531.091	-200.000	-0.047	-0.348
-530.077	-73.118	-0.244	0.090
-529.062	800.000	0.052	-0.206
-528.048	40.025	-0.200	-0.180
-527.033	116.673	0.227	0.279
-526.018	-100.933	-0.298	0.073
-525.004	2.355	0.194	-0.141
-523.989	756.470	-0.099	-0.270
-522.975	501.935	-0.052	-0.120
-521.960	800.000	0.038	-0.122
-520.945	60.450	0.098	-0.098
-519.931	-148.248	0.175	0.014
-518.916	-55.496	-0.082	0.037
-517.902	56.711	0.139	-0.136
-516.887	-90.775	0.375	0.109
-515.872	-61.709	0.145	0.061
-514.858	-200.000	-0.040	0.346
-513.843	-77.552	0.197	-0.069
-512.829	-200.000	-0.008	-0.393
-511.814	345.466	0.061	-0.119
-510.799	183.413	0.234	-0.347
-509.785	200.073	0.131	-0.202
-508.770	-81.218	0.207	0.069
-507.756	-200.000	0.073	0.445
-506.741	-200.000	-0.027	0.249
-505.726	-8.376	-0.163	0.110
-504.712	-67.845	-0.122	-0.048
-503.697	-200.000	0.003	0.040
-502.683	-66.630	-0.262	0.104
-501.668	-200.000	0.008	0.090
-500.653	-200.000	0.015	-0.201
-499.639	-72.992	0.263	0.097
-498.624	800.000	-0.082	-0.256
-497.610	-45.834	-0.262	0.130
-496.595	661.218	0.012	0.031
-495.581	303.571	-0.024	-0.045
-494.566	-17.645	-0.162	0.102
-493.551	72.446	0.035	0.037
-492.537	108.255	-0.280	0.334
-491.522	-109.491	0.099	0.021
-490.508	34.684	-0.125	-0.109
-489.493	206.486	-0.040	0.063
-488.478	-36.292	0.067	-0.036
-487.464	-131.892	0.065	0.009
-486.449	-200.000	0.018	-0.134
-485.435	74.844	-0.037	-0.039
-484.420	239.181	-0.073	-0.122
-483.405	157.671	0.103	-0.143
-482.391	327.929	0.175	0.336
-481.376	19.451	-0.286	0.230
-480.362	17.196	0.080	0.063
-479.347	800.000	0.042	-0.136
-478.332	167.721	-0.092	-0.130
-477.318	-139.117	0.164	-0.018
-476.303	-175.412	0.309	0.008
-475.289	33.223	0.127	0.110
-474.274	223.701	-0.114	0.185
-473.259	101.649	-0.167	-0.195
-472.245	-200.000	0.027	-0.191
-471.230	-200.000	0.022	0.155
-470.216	-200.000	-0.070	0.326
-469.201	-106.026	0.131	0.029
-468.186	-3.845	-0.119	0.083
-467.172	-62.259	-0.077	0.032
-466.157	-59.334	-0.285	-0.122
-465.143	800.000	0.065	-0.272
-464.128	-172.825	0.081	0.003
-463.113	800.000	0.086	0.313
-462.099	-53.153	-0.193	-0.089
-461.084	-176.525	0.147	0.004
-460.070	-79.155	-0.161	-0.055
-459.055	19.493	0.189	-0.152
-458.040	-88.033	0.192	0.058
-457.026	-200.000	0.035	0.225
-456.011	-75.622	-0.202	-0.072
-454.997	61.725	0.157	-0.156
-453.982	800.000	-0.111	0.311
-452.968	-40.995	0.080	0.041
-451.953	-200.000	0.031	-0.301
-450.938	-194.607	0.311	0.002
-449.924	24.670	0.124	-0.103
-448.909	-21.393	-0.150	0.092
-447.895	70.718	0.064	0.066
-446.880	3.226	-0.129	0.094
-445.865	800.000	-0.090	0.294
-444.851	427.674	0.031	0.068
-443.836	-50.769	-0.392	-0.184
-442.822	4.027	0.347	-0.253
-441.807	-200.000	-0.016	-0.112
-440.792	-85.888	0.261	0.081
-439.778	-69.091	-0.475	-0.183
-438.763	800.000	-0.003	-0.011
-437.749	362.264	0.167	0.335
-436.734	-134.492	-0.162	-0.020
-435.719	-200.000	0.018	-0.236
-434.705	146.725	-0.346	-0.464
-433.690	254.120	0.088	0.150
-432.676	87.555	-0.202	-0.223
-431.661	164.962	0.081	-0.114
-430.646	47.085	0.087	0.081
-429.632	515.391	0.128	0.298
-428.617	130.810	0.128	0.164
-427.603	42.970	0.090	0.082
-426.588	-93.176	0.260	-0.072
-425.573	-121.041	-0.109	-0.018
-424.559	-200.000	-0.031	0.196
-423.544	-109.466	-0.296	0.062
-422.530	-200.000	-0.025	-0.226
-421.515	-61.431	0.172	0.072
-420.500	278.103	0.031	-0.056
-419.486	46.408	-0.096	-0.089
-418.471	246.833	-0.082	0.137
-417.457	257.203	-0.113	-0.194
-416.442	-59.651	-0.374	-0.160
-415.428	558.202	0.072	-0.173
-414.413	-130.074	0.046	0.006
-413.398	-100.785	-0.153	0.038
-412.384	-200.000	-0.036	-0.192
-411.369	54.548	0.294	0.283
-410.355	-200.000	-0.051	0.332
-409.340	314.548	-0.192	-0.360
-408.325	-83.603	0.248	0.079
-407.311	119.151	0.101	0.124
-406.296	-200.000	0.005	-0.082
-405.282	-166.469	0.220	-0.009
-404.267	17.567	-0.155	-0.123
-403.252	-147.787	0.179	0.015
-402.238	161.504	-0.067	0.093
-401.223	88.773	-0.223	0.247
-400.209	-98.348	0.223	-0.057
-399.194	-42.356	0.137	-0.070
-398.179	-69.470	-0.264	0.101
-397.165	800.000	-0.064	-0.230
-396.150	87.036	-0.166	-0.183
-395.136	800.000	0.065	-0.225
-394.121	-118.718	0.192	0.034
-393.106	-200.000	-0.038	-0.209
-392.092	60.925	-0.091	0.090
-391.077	-15.645	-0.280	0.178
-390.063	-149.615	-0.165	-0.013
-389.048	-200.000	-0.003	0.246
-388.033	241.748	-0.083	-0.138
-387.019	544.878	-0.071	-0.170
-386.004	49.247	-0.300	0.282
-384.990	-200.000	0.001	-0.131
-383.975	-159.103	0.378	-0.021
-382.960	800.000	-0.034	0.113
-381.946	-200.000	-0.003	0.350
-380.931	-47.531	0.161	-0.078
-379.917	-24.585	-0.081	0.048
-378.902	-182.758	-0.254	0.005
-377.888	-63.399	0.121	-0.049
-376.873	0.764	0.220	-0.157
-375.858	-97.253	-0.216	-0.056
-374.844	-184.699	0.491	0.008
-373.829	25.689	-0.146	0.121
-372.815	677.839	-0.140	-0.364
-371.800	-57.120	0.195	-0.086
-370.785	-109.104	-0.225	0.048
-369.771	-152.013	0.089	-0.006
-368.756	399.630	0.109	-0.228
-367.742	-72.196	-0.310	0.115
-366.727	-123.061	0.195	0.031
-365.712	76.316	0.239	0.252
-364.698	-105.639	0.196	0.044
-363.683	471.792	0.097	-0.218
-362.669	320.912	0.107	0.203
-361.654	-125.348	-0.074	0.011
-360.639	-32.048	-0.328	0.183
-359.625	-115.534	0.169	-0.032
-358.610	-40.366	0.228	0.118
-357.596	8.475	-0.110	0.082
-356.581	-64.053	0.188	0.077
-355.566	800.000	-0.065	0.192
-354.552	-200.000	0.005	-0.124
-353.537	-82.796	0.090	-0.029
-352.523	-71.393	0.031	0.012
-351.508	-200.000	0.016	-0.074
-350.493	42.413	-0.080	-0.073
-349.479	-80.048	0.314	0.105
-348.464	239.721	0.082	0.135
-347.450	-137.321	-0.326	0.037
-346.435	628.081	-0.019	-0.047
-345.420	-200.000	-0.013	-0.370
-344.406	-104.643	0.060	0.014
-343.391	-200.000	-0.011	0.238
-342.377	-89.133	-0.254	-0.075
-341.362	-78.132	0.225	0.077
-340.348	-86.835	0.306	0.093
-339.333	-147.748	-0.145	0.012
-338.318	0.539	-0.193	0.138
-337.304	-200.000	0.054	0.278
-336.289	50.584	-0.145	-0.137
-335.275	59.234	-0.085	-0.084
-334.260	-71.788	-0.335	-0.124
-333.245	114.226	0.028	-0.034
-332.231	690.858	-0.089	0.233
-331.216	-19.264	0.298	0.184
-330.202	774.971	-0.039	-0.106
-329.187	231.367	-0.190	0.310
-328.172	91.817	-0.143	-0.160
-327.158	59.178	-0.213	-0.209
-326.143	12.413	-0.150	0.115
-325.129	238.923	0.276	0.456
-324.114	64.042	0.236	-0.236
-323.099	-200.000	-0.046	0.249
-322.085	-145.943	-0.252	0.022
-321.070	-86.831	0.429	0.130
-320.056	-200.000	0.004	0.147
-319.041	-147.656	-0.379	-0.032
-318.026	-34.242	0.248	0.135
-317.012	-69.621	0.024	-0.009
-315.997	-200.000	0.011	0.336
-314.983	4.318	0.263	0.192
-313.968	113.315	0.097	0.117
-312.953	-14.870	-0.176	0.112
-311.939	-200.000	-0.024	0.120
-310.924	-107.612	-0.344	-0.075
-309.910	-200.000	0.016	-0.185
-308.895	22.702	0.191	0.156
-307.880	1.184	-0.106	0.075
-306.866	-152.214	-0.135	0.010
-305.851	15.487	-0.185	0.144
-304.837	800.000	0.062	-0.206
-303.822	131.214	0.113	-0.144
-302.807	295.702	0.123	0.224
-301.793	3.624	0.262	0.190
-300.778	-113.570	0.141	-0.027
-299.764	102.611	-0.066	0.076
-298.749	-200.000	0.328	-0.001
-297.735	207.833	0.057	0.088
-296.720	471.336	-0.052	-0.116
-295.705	-72.595	0.050	0.018
-294.691	38.710	0.221	-0.196
-293.676	-200.000	0.031	-0.395
-292.662	54.604	-0.270	-0.259
-291.647	-200.000	0.011	0.194
-290.632	-31.077	-0.104	-0.058
-289.618	-102.399	-0.083	-0.020
-288.603	-24.843	-0.347	0.205
-287.589	-38.780	-0.155	0.081
-286.574	-170.963	0.226	0.008
-285.559	-10.165	-0.205	0.135
-284.545	-94.885	0.221	-0.060
-283.530	800.000	0.059	-0.227
-282.516	-73.645	0.309	-0.112
-281.501	7.626	-0.110	-0.082
-280.486	-72.653	-0.451	0.165
-279.472	-61.032	0.327	-0.137
-278.457	-64.225	-0.494	-0.200
-277.443	214.016	0.191	-0.299
-276.428	-200.000	0.032	0.154
-275.413	-19.213	0.151	0.093
-274.399	-129.115	0.142	0.020
-273.384	-114.280	0.138	-0.026
-272.370	94.883	-0.197	-0.223
-271.355	-25.655	-0.264	0.155
-270.340	-53.822	0.322	0.146
-269.326	64.715	-0.095	0.095
-268.311	32.917	0.144	0.124
-267.297	-198.471	0.185	-0.001
-266.282	800.000	0.087	-0.336
-265.267	-200.000	-0.044	0.234
-264.253	346.212	0.214	0.418
-263.238	290.932	0.267	-0.481
-262.224	-15.783	0.198	-0.125
-261.209	-200.000	0.001	-0.042
-260.195	800.000	-0.039	0.147
-259.180	-182.521	0.204	-0.004
-258.165	-200.000	0.065	0.419
-257.151	-85.776	-0.292	0.090
-256.136	800.000	-0.063	-0.194
-255.122	641.103	-0.125	0.317
-254.107	137.135	0.224	0.291
-253.092	-123.108	0.219	0.035
-252.078	48.085	0.232	0.215
-251.063	29.384	-0.159	-0.134
-250.049	108.374	0.240	0.284
-249.034	3.236	0.084	0.061
-248.019	-154.882	-0.117	-0.008
-247.005	174.341	0.123	0.177
-245.990	-127.521	-0.252	-0.036
-244.976	-80.257	0.763	0.253
-243.961	-200.000	0.018	0.394
-242.946	-200.000	-0.010	0.044
-241.932	50.978	0.133	-0.125
-240.917	-48.211	-0.253	0.121
-239.903	158.059	-0.102	-0.141
-238.888	153.359	0.225	0.305
-237.873	-47.818	-0.150	0.072
-236.859	-200.000	0.033	0.318
-235.844	398.278	0.019	0.039
-234.830	-32.106	-0.316	-0.175
-233.815	-2.055	-0.234	-0.163
-232.800	-38.137	-0.086	0.045
-231.786	-200.000	-0.024	-0.204
-230.771	45.843	0.139	0.127
-229.757	-30.705	0.350	0.197
-228.742	-76.828	-0.352	0.122
-227.727	-0.368	-0.128	-0.090
-226.713	116.819	0.149	-0.182
-225.698	-200.000	-0.006	0.127
-224.684	-36.717	0.279	0.149
-223.669	-53.556	-0.439	-0.199
-222.655	800.000	-0.049	0.177
-221.640	-88.817	-0.292	0.086
-220.625	-200.000	-0.038	0.283
-219.611	-200.000	0.043	-0.384
-218.596	-200.000	0.001	-0.054
-217.582	800.000	0.097	0.271
-216.567	-200.000	-0.004	0.084
-215.552	-200.000	0.019	0.083
-214.538	-107.376	0.128	0.028
-213.523	315.250	0.081	0.152
-212.509	751.459	-0.057	0.153
-211.494	164.623	0.175	-0.245
-210.479	42.492	-0.166	-0.150
-209.465	37.375	0.139	0.122
-208.450	-82.332	0.319	0.103
-207.436	-124.639	0.460	0.071
-206.421	-62.457	0.242	-0.100
-205.406	16.386	-0.176	0.137
-204.392	800.000	-0.062	0.221
-203.377	-157.416	0.173	-0.010
-202.363	-200.000	0.074	-0.441
-201.348	28.574	-0.131	-0.110
-200.333	800.000	-0.069	0.204
-199.319	-104.207	-0.532	-0.122
-198.304	-200.000	-0.011	0.145
-197.290	800.000	-0.038	-0.106
-196.275	-102.173	0.288	0.069
-195.260	49.956	0.219	-0.204
-194.246	800.000	0.071	-0.275
-193.231	701.044	-0.073	0.190
-192.217	414.754	0.180	0.379
-191.202	800.000	-0.037	0.143
-190.187	-200.000	0.016	0.167
-189.173	-40.674	-0.435	0.223
-188.158	121.679	0.055	-0.067
-187.144	-1.558	0.325	-0.227
-186.129	-116.601	0.176	-0.032
-185.114	-200.000	0.029	0.143
-184.100	-129.163	-0.125	-0.017
-183.085	-109.997	0.210	-0.044
-182.071	32.912	-0.205	0.176
-181.056	800.000	-0.024	-0.067
-180.042	518.759	-0.009	-0.021
-179.027	-161.362	0.349	-0.018
-178.012	-89.694	0.156	0.045
-176.998	800.000	-0.102	0.282
-175.983	-200.000	-0.004	0.049
-174.969	-200.000	-0.163	0.000
-173.954	-142.255	0.208	0.020
-172.939	56.608	-0.195	-0.187
-171.925	-21.456	-0.062	-0.038
-170.910	800.000	-0.078	-0.293
-169.896	-139.618	0.215	0.023
-168.881	-200.000	-0.024	-0.273
-167.866	114.204	-0.067	0.081
-166.852	-124.726	-0.219	0.033
-165.837	800.000	0.094	-0.337
-164.823	5.451	0.285	-0.208
-163.808	800.000	0.128	0.372
-162.793	-200.000	-0.050	-0.216
-161.779	-23.460	0.297	0.176
-160.764	56.516	-0.232	0.223
-159.750	178.773	0.258	-0.373
-158.735	44.255	0.124	0.112
-157.720	-147.718	0.345	0.029
-156.706	-200.000	-0.008	0.058
-155.691	17.177	-0.202	-0.159
-154.677	-106.033	-0.355	0.079
-153.662	-200.000	-0.031	-0.287
-152.647	27.050	-0.202	0.167
-151.633	-56.978	-0.168	0.073
-150.618	722.788	-0.016	0.042
-149.604	-98.305	0.185	-0.047
-148.589	-0.419	-0.079	-0.056
-147.574	800.000	0.111	0.405
-146.560	-200.000	0.024	-0.134
-145.545	455.646	-0.082	0.180
-144.531	-1.861	0.121	0.084
-143.516	800.000	-0.015	-0.047
-142.502	-43.811	-0.106	0.053
-141.487	-98.439	-0.147	-0.037
-140.472	-200.000	-0.002	-0.135
-139.458	103.645	0.110	0.127
-138.443	-200.000	0.031	0.146
-137.429	324.502	-0.191	-0.360
-136.414	166.338	-0.009	-0.013
-135.399	125.840	0.093	0.117
-134.385	-200.000	0.041	-0.235
-133.370	-200.000	0.014	0.145
-132.356	40.861	0.148	0.131
-131.341	800.000	0.050	-0.141
-130.326	-128.244	-0.238	0.034
-129.312	68.370	-0.125	0.127
-128.297	-60.062	-0.243	0.103
-127.283	62.141	0.224	0.220
-126.268	199.812	0.262	0.398
-125.253	-63.353	-0.204	-0.083
-124.239	354.329	0.049	-0.096
-123.224	56.879	-0.104	-0.100
-122.210	800.000	-0.152	-0.485
-121.195	284.737	-0.098	-0.174
