DTS Sentinel unit serial number:	SN413079Multiplexer serial number:	ORYXHardware model number:	OX4-SRSoftware version number:	ORYX F/W v4.00 Oryx Data Collector v3.7.2.0data status	okinstallation	princeton_trtdifferential loss correction	single-endedforward channel	channel 3reverse channel	N/Adate	2019/09/17time	01:04:35forward acquisition time	60.00reverse acquisition time	0.00gamma	496.2192k internal	0.2325k external	0.2325temperature offset calibration	0.9941default loss term (dB/km)	0.3790temperature slope calibration	1.0000multiplexer offset coefficient	1.0000multiplexer slope coefficient	1.0000fibre end	0.00T internal ref (°C)	29.47T ext. ref 1 (°C)	0.10T ext. ref 2 (°C)	24.12length (m)	temperature (°C)	Stokes	anti-Stokes-747.200	-73.072	0.179	0.066
-746.185	58.584	0.167	0.166
-745.171	800.000	0.023	0.101
-744.156	101.286	0.090	0.105
-743.142	-200.000	-0.017	-0.166
-742.127	-184.695	-0.371	0.006
-741.112	800.000	0.117	-0.344
-740.098	-187.753	-0.319	0.004
-739.083	-94.717	-0.010	-0.003
-738.069	-200.000	-0.006	0.328
-737.054	-115.415	-0.133	0.025
-736.039	-29.322	0.121	0.070
-735.025	-102.808	0.390	0.094
-734.010	108.415	-0.172	-0.207
-732.996	-112.262	-0.315	0.064
-731.981	12.473	-0.089	-0.069
-730.966	-115.202	0.171	-0.033
-729.952	-200.000	-0.023	-0.327
-728.937	-139.408	-0.250	-0.027
-727.923	-120.630	0.482	-0.082
-726.908	-61.240	-0.381	-0.162
-725.894	112.033	0.206	-0.252
-724.879	-92.509	-0.392	0.111
-723.864	-5.721	-0.276	-0.191
-722.850	257.584	-0.039	0.067
-721.835	158.533	0.079	0.110
-720.821	-118.528	0.188	0.034
-719.806	122.158	0.088	-0.111
-718.791	-108.315	-0.088	0.019
-717.777	-134.326	-0.105	0.013
-716.762	-200.000	-0.026	0.236
-715.748	-200.000	0.027	-0.304
-714.733	-52.642	0.057	-0.026
-713.718	-122.884	0.086	-0.014
-712.704	241.022	-0.151	-0.254
-711.689	-96.119	-0.343	-0.092
-710.675	34.425	0.161	0.141
-709.660	515.079	-0.050	0.117
-708.645	110.015	-0.125	-0.152
-707.631	-200.000	0.013	-0.087
-706.616	-159.368	-0.215	0.012
-705.602	65.849	-0.036	0.037
-704.587	173.452	-0.036	-0.052
-703.572	94.448	-0.205	-0.234
-702.558	76.547	0.231	-0.246
-701.543	-24.893	0.200	-0.120
-700.529	0.782	0.041	-0.030
-699.514	211.918	-0.137	-0.217
-698.499	-99.264	-0.029	-0.007
-697.485	-16.321	-0.103	-0.066
-696.470	-166.252	0.190	0.008
-695.456	698.235	-0.133	-0.353
-694.441	800.000	0.029	-0.088
-693.426	-71.184	-0.098	0.037
-692.412	327.122	0.205	0.395
-691.397	222.381	-0.226	-0.367
-690.383	-200.000	-0.064	0.296
-689.368	-200.000	-0.035	-0.196
-688.354	-63.072	-0.325	-0.135
-687.339	146.141	0.223	-0.301
-686.324	450.654	0.054	-0.121
-685.310	-93.514	-0.123	-0.034
-684.295	5.641	0.066	0.049
-683.281	277.731	0.091	-0.162
-682.266	510.716	0.021	0.049
-681.251	-200.000	-0.028	0.314
-680.237	-72.395	-0.348	0.130
-679.222	102.926	0.154	-0.182
-678.208	356.217	0.075	-0.150
-677.193	199.561	0.171	-0.264
-676.178	680.727	-0.049	-0.129
-675.164	-112.698	-0.120	-0.024
-674.149	-95.941	-0.192	0.051
-673.135	-120.068	0.062	-0.011
-672.120	-49.609	0.344	0.165
-671.105	-42.271	-0.359	0.185
-670.091	-200.000	0.018	0.140
-669.076	800.000	-0.037	0.145
-668.062	-120.979	0.333	0.056
-667.047	13.552	0.134	0.104
-666.032	29.716	-0.296	0.253
-665.018	-170.636	-0.343	-0.012
-664.003	-46.898	-0.301	-0.148
-662.989	-24.769	0.275	0.164
-661.974	39.179	-0.067	-0.060
-660.959	-111.212	-0.062	0.013
-659.945	-200.000	0.059	0.284
-658.930	-112.131	-0.034	-0.007
-657.916	-38.033	-0.235	0.125
-656.901	-35.509	0.096	-0.052
-655.886	800.000	-0.071	0.289
-654.872	-72.519	-0.303	-0.112
-653.857	-130.249	0.067	-0.009
-652.843	506.311	0.128	-0.299
-651.828	-200.000	0.138	0.000
-650.814	4.147	-0.052	-0.038
-649.799	-89.330	-0.211	-0.062
-648.784	237.323	0.166	0.277
-647.770	-21.042	-0.056	0.035
-646.755	-166.391	0.283	-0.012
-645.741	-124.643	0.265	-0.041
-644.726	546.664	0.143	0.344
-643.711	90.056	0.069	0.077
-642.697	648.366	0.081	0.209
-641.682	-200.000	0.035	-0.519
-640.668	-89.378	0.072	0.021
-639.653	-25.318	0.201	-0.120
-638.638	-98.770	0.115	0.029
-637.624	800.000	-0.082	-0.297
-636.609	-72.065	-0.156	-0.058
-635.595	-200.000	0.004	0.258
-634.580	116.753	-0.040	-0.049
-633.565	-200.000	0.016	-0.175
-632.551	-10.895	0.252	0.167
-631.536	-94.762	-0.405	-0.111
-630.522	-200.000	0.002	-0.081
-629.507	89.565	0.077	0.087
-628.492	128.458	-0.065	-0.084
-627.478	-23.533	0.141	0.085
-626.463	-130.212	0.346	0.047
-625.449	800.000	0.087	-0.346
-624.434	170.787	0.034	-0.050
-623.419	-27.033	-0.270	0.158
-622.405	678.027	0.002	-0.006
-621.390	-172.218	-0.104	0.003
-620.376	-168.480	-0.130	-0.005
-619.361	68.031	-0.151	-0.155
-618.346	-150.109	0.275	-0.021
-617.332	99.046	-0.123	-0.142
-616.317	95.243	-0.143	-0.163
-615.303	-106.998	-0.200	-0.044
-614.288	-75.068	-0.338	0.121
-613.273	-200.000	0.011	0.101
-612.259	473.723	0.145	-0.328
-611.244	-87.608	0.224	0.068
-610.230	-54.627	0.142	0.064
-609.215	78.570	0.124	0.133
-608.201	-52.074	-0.274	-0.128
-607.186	-173.378	0.124	0.004
-606.171	96.016	-0.130	0.149
-605.157	-191.788	-0.428	-0.004
-604.142	-6.806	-0.153	0.104
-603.128	174.792	0.032	0.047
-602.113	327.264	0.168	-0.324
-601.098	-200.000	0.010	-0.154
-600.084	-174.346	0.484	0.014
-599.069	23.907	-0.314	-0.260
-598.055	-89.772	-0.121	0.036
-597.040	508.455	-0.027	-0.063
-596.025	-46.697	0.307	-0.151
-595.011	-200.000	-0.030	-0.359
-593.996	-157.860	0.134	0.008
-592.982	-112.271	0.237	0.048
-591.967	-200.000	-0.046	0.211
-590.952	-200.000	-0.037	-0.254
-589.938	95.210	0.033	-0.038
-588.923	-77.918	0.070	0.024
-587.909	255.299	-0.078	0.133
-586.894	192.949	0.193	-0.292
-585.879	162.568	0.191	-0.269
-584.865	-41.462	0.150	0.077
-583.850	-101.911	0.191	-0.046
-582.836	-44.214	-0.214	-0.108
-581.821	-119.388	0.324	0.056
-580.806	-64.554	-0.128	0.052
-579.792	-59.496	-0.062	-0.027
-578.777	378.171	-0.095	-0.195
-577.763	-200.000	0.005	-0.286
-576.748	84.795	0.127	-0.139
-575.733	-35.473	0.197	-0.107
-574.719	-200.000	-0.015	0.176
-573.704	70.801	0.187	-0.194
-572.690	-76.222	-0.074	-0.026
-571.675	-57.465	-0.187	0.082
-570.661	-5.757	-0.220	-0.151
-569.646	4.364	-0.242	0.177
-568.631	-89.811	-0.211	-0.062
-567.617	87.448	0.038	-0.042
-566.602	125.402	0.200	-0.253
-565.588	-117.458	-0.450	-0.082
-564.573	562.740	-0.063	0.152
-563.558	474.518	0.047	0.107
-562.544	-132.623	0.160	-0.021
-561.529	-167.675	-0.237	0.009
-560.515	507.296	-0.123	0.286
-559.500	22.953	0.348	0.286
-558.485	-105.621	-0.153	-0.035
-557.471	-74.865	-0.089	0.032
-556.456	121.850	0.100	0.126
-555.442	158.879	-0.222	0.309
-554.427	800.000	0.081	0.241
-553.412	-120.060	-0.372	-0.064
-552.398	154.502	0.204	-0.281
-551.383	74.614	-0.087	-0.092
-550.369	348.751	-0.040	0.078
-549.354	253.409	0.076	0.130
-548.339	237.795	-0.083	0.139
-547.325	-47.950	0.133	-0.064
-546.310	-44.432	-0.221	0.111
-545.296	84.725	-0.131	0.144
-544.281	127.505	0.092	-0.117
-543.266	74.264	-0.058	-0.061
-542.252	150.316	0.133	0.181
-541.237	-49.322	0.288	0.138
-540.223	48.923	0.040	-0.037
-539.208	-32.618	-0.231	0.129
-538.193	227.401	-0.140	0.229
-537.179	47.825	0.135	-0.126
-536.164	-200.000	-0.030	-0.248
-535.150	-163.898	-0.154	-0.007
-534.135	16.617	0.087	0.069
-533.121	-79.950	-0.211	0.071
-532.106	-60.775	-0.122	-0.052
-531.091	-200.000	0.005	0.216
-530.077	-192.574	0.248	0.002
-529.062	10.421	0.077	-0.059
-528.048	800.000	0.102	0.331
-527.033	523.395	-0.027	-0.064
-526.018	-154.641	0.302	-0.020
-525.004	-152.269	0.362	0.026
-523.989	-13.915	0.114	-0.074
-522.975	6.720	0.020	-0.015
-521.960	27.754	-0.271	-0.228
-520.945	155.198	0.089	-0.123
-519.931	-200.000	0.064	0.296
-518.916	25.808	-0.062	0.052
-517.902	483.846	-0.030	0.069
-516.887	800.000	0.008	0.023
-515.872	181.371	-0.103	-0.152
-514.858	-86.850	-0.187	-0.057
-513.843	-150.122	-0.192	-0.015
-512.829	23.521	0.232	-0.191
-511.814	159.623	-0.094	-0.131
-510.799	176.603	-0.091	-0.132
-509.785	-76.493	-0.335	0.118
-508.770	740.542	-0.075	0.202
-507.756	-200.000	0.005	-0.282
-506.741	266.404	0.230	-0.402
-505.726	-93.655	-0.112	0.031
-504.712	-14.809	0.307	-0.197
-503.697	800.000	0.020	0.082
-502.683	-109.551	-0.115	-0.024
-501.668	-200.000	-0.021	0.000
-500.653	-200.000	-0.051	-0.456
-499.639	-89.058	-0.208	-0.061
-498.624	-99.180	0.244	0.062
-497.610	-117.636	-0.322	-0.058
-496.595	800.000	-0.019	-0.057
-495.581	800.000	0.086	0.252
-494.566	-138.462	-0.033	-0.004
-493.551	-171.384	-0.322	-0.011
-492.537	-91.643	-0.477	0.136
-491.522	758.423	0.116	-0.314
-490.508	-200.000	0.019	-0.199
-489.493	123.287	-0.166	0.208
-488.478	-6.992	0.112	0.076
-487.464	145.112	-0.163	0.218
-486.449	-200.000	0.056	0.289
-485.435	-104.078	-0.201	-0.047
-484.420	-8.533	-0.192	-0.129
-483.405	-200.000	0.038	0.173
-482.391	-106.704	0.129	-0.029
-481.376	800.000	-0.076	0.247
-480.362	-200.000	0.014	0.113
-479.347	211.023	0.146	0.229
-478.332	-1.464	0.322	-0.227
-477.318	-57.383	0.215	0.094
-476.303	-162.753	-0.053	-0.003
-475.289	-69.957	0.102	0.039
-474.274	800.000	-0.056	-0.237
-473.259	422.833	-0.056	0.120
-472.245	311.160	0.045	0.084
-471.230	281.464	0.198	0.354
-470.216	-51.939	0.261	-0.121
-469.201	-93.413	-0.146	0.040
-468.186	200.057	-0.324	-0.497
-467.172	-29.931	0.156	0.089
-466.157	-7.866	-0.096	0.065
-465.143	215.136	0.110	0.174
-464.128	-57.957	0.323	-0.141
-463.113	-19.048	0.064	0.040
-462.099	-92.913	0.164	0.046
-461.084	-139.928	-0.509	0.054
-460.070	-200.000	-0.033	-0.306
-459.055	-174.808	0.034	0.001
-458.040	484.562	0.102	-0.232
-457.026	99.077	-0.123	0.142
-456.011	800.000	-0.034	-0.110
-454.997	39.542	0.250	0.224
-453.982	-200.000	-0.014	-0.242
-452.968	151.553	0.118	0.161
-451.953	-19.690	0.138	-0.085
-450.938	244.580	-0.103	0.173
-449.924	-105.599	-0.384	-0.087
-448.909	-200.000	-0.214	-0.001
-447.895	-200.000	-0.057	0.268
-446.880	244.463	0.179	-0.300
-445.865	800.000	0.020	0.077
-444.851	-73.928	0.067	-0.024
-443.836	-55.978	0.180	-0.080
-442.822	-51.402	0.333	-0.155
-441.807	-3.145	-0.103	-0.072
-440.792	800.000	-0.036	-0.116
-439.778	800.000	0.035	0.150
-438.763	-172.465	-0.547	0.017
-437.749	800.000	0.030	0.087
-436.734	-77.875	0.292	-0.100
-435.719	-161.198	-0.385	-0.020
-434.705	-99.334	-0.289	-0.073
-433.690	517.126	-0.080	-0.186
-432.676	-140.915	0.369	-0.038
-431.661	682.704	-0.170	0.443
-430.646	-44.837	0.112	0.056
-429.632	-154.549	0.095	0.006
-428.617	-71.892	0.290	0.108
-427.603	3.204	0.126	0.091
-426.588	230.664	0.108	0.177
-425.573	-21.712	0.145	-0.088
-424.559	-129.776	-0.317	0.043
-423.544	-9.946	-0.117	0.077
-422.530	227.071	0.268	-0.435
-421.515	-30.072	-0.279	0.158
-420.500	53.588	-0.549	-0.525
-419.486	800.000	0.022	0.067
-418.471	132.072	0.068	-0.087
-417.457	4.246	-0.292	-0.213
-416.442	-119.783	-0.442	0.076
-415.428	45.277	0.275	0.253
-414.413	-108.571	0.291	-0.062
-413.398	-200.000	-0.004	0.307
-412.384	22.855	0.301	0.246
-411.369	800.000	-0.027	0.090
-410.355	76.642	0.052	-0.055
-409.340	-73.219	0.130	0.047
-408.325	-200.000	-0.033	-0.239
-407.311	248.324	-0.147	-0.247
-406.296	-200.000	0.013	0.161
-405.282	365.163	-0.137	-0.274
-404.267	-200.000	-0.031	-0.162
-403.252	-200.000	0.024	0.126
-402.238	3.830	-0.207	0.150
-401.223	-1.176	-0.163	-0.115
-400.209	163.940	0.028	0.040
-399.194	106.957	0.023	0.027
-398.179	-200.000	0.011	-0.091
-397.165	-132.408	0.322	-0.041
-396.150	800.000	0.130	-0.504
-395.136	67.196	-0.260	-0.264
-394.121	-59.341	0.281	0.120
-393.106	-122.456	-0.318	-0.052
-392.092	-99.766	-0.174	0.043
-391.077	-200.000	-0.059	0.363
-390.063	-200.000	-0.019	-0.102
-389.048	-122.950	0.190	-0.031
-388.033	-200.000	-0.015	0.088
-387.019	-32.313	-0.196	-0.109
-386.004	593.407	0.052	-0.129
-384.990	-104.077	-0.090	0.021
-383.975	329.415	0.018	-0.035
-382.960	430.087	-0.018	-0.038
-381.946	-191.182	-0.384	0.004
-380.931	-133.684	-0.255	0.032
-379.917	-200.000	0.031	-0.279
-378.902	734.231	0.092	0.245
-377.888	-18.658	0.198	0.123
-376.873	-200.000	-0.009	-0.075
-375.858	-74.943	0.158	0.056
-374.844	-123.812	-0.399	-0.063
-373.829	114.703	-0.047	-0.057
-372.815	150.563	0.122	-0.164
-371.800	-108.760	0.222	0.047
-370.785	193.443	0.163	-0.245
-369.771	20.798	-0.190	-0.153
-368.756	-200.000	0.006	-0.132
-367.742	-177.676	-0.268	-0.006
-366.727	569.531	-0.158	0.381
-365.712	-200.000	0.073	0.354
-364.698	800.000	-0.038	0.160
-363.683	-200.000	0.022	-0.120
-362.669	-200.000	0.010	0.245
-361.654	138.243	0.147	0.192
-360.639	-134.842	0.252	-0.030
-359.625	86.349	0.157	0.172
-358.610	398.305	0.104	0.215
-357.596	-128.850	0.370	0.052
-356.581	-200.000	0.004	0.081
-355.566	800.000	-0.025	0.094
-354.552	800.000	-0.041	-0.169
-353.537	-200.000	0.039	0.389
-352.523	-95.504	0.383	0.102
-351.508	501.760	-0.094	0.217
-350.493	-84.957	-0.169	0.053
-349.479	12.789	-0.284	0.218
-348.464	-48.268	0.067	-0.032
-347.450	34.512	-0.162	0.140
-346.435	-32.586	-0.354	0.196
-345.420	642.263	0.099	0.251
-344.406	-200.000	0.009	0.259
-343.391	800.000	0.075	0.291
-342.377	642.006	-0.045	-0.115
-341.362	-200.000	0.085	-0.000
-340.348	-4.105	0.069	-0.048
-339.333	159.008	-0.144	0.199
-338.318	231.058	0.190	0.309
-337.304	63.493	-0.129	0.128
-336.289	800.000	0.066	-0.205
-335.275	-63.597	0.138	-0.056
-334.260	267.551	-0.099	0.172
-333.245	-200.000	0.042	-0.289
-332.231	-153.946	-0.113	-0.008
-331.216	-8.762	-0.322	0.215
-330.202	51.546	0.104	0.098
-329.187	-51.919	0.248	-0.114
-328.172	800.000	0.109	-0.412
-327.158	-29.489	0.228	-0.129
-326.143	393.241	-0.097	0.200
-325.129	-18.217	-0.092	-0.057
-324.114	-180.843	0.247	0.005
-323.099	-116.998	0.060	0.011
-322.085	-123.705	-0.231	0.036
-321.070	-200.000	0.046	-0.321
-320.056	-34.474	0.349	0.190
-319.041	192.585	-0.217	-0.325
-318.026	-35.519	-0.221	-0.119
-317.012	-200.000	-0.050	-0.317
-315.997	565.232	-0.161	-0.387
-314.983	10.611	-0.371	-0.280
-313.968	800.000	-0.087	0.270
-312.953	103.525	-0.050	-0.058
-311.939	800.000	0.074	-0.221
-310.924	93.099	-0.050	-0.056
-309.910	-130.466	0.343	0.046
-308.895	181.803	0.242	-0.354
-307.880	-106.247	-0.240	-0.053
-306.866	800.000	0.102	0.321
-305.851	-10.131	-0.172	0.113
-304.837	55.331	0.118	-0.113
-303.822	-171.986	-0.422	-0.014
-302.807	-74.766	0.129	0.046
-301.793	-200.000	-0.013	0.265
-300.778	504.259	0.015	-0.034
-299.764	-3.608	-0.052	-0.036
-298.749	64.621	-0.204	-0.204
-297.735	-179.868	0.346	-0.007
-296.720	800.000	0.042	0.182
-295.705	158.395	-0.055	-0.076
-294.691	-49.810	0.119	-0.056
-293.676	208.191	0.227	0.351
-292.662	-200.000	0.003	0.114
-291.647	-197.047	-0.361	-0.002
-290.632	421.050	-0.131	0.278
-289.618	84.636	0.161	0.175
-288.603	364.306	0.093	0.185
-287.589	603.350	0.154	0.380
-286.574	-137.386	0.106	-0.012
-285.559	384.906	0.107	-0.218
-284.545	-43.001	0.379	-0.191
-283.530	-200.000	0.025	0.228
-282.516	-151.142	-0.201	0.015
-281.501	-127.814	0.244	-0.035
-280.486	-75.495	0.381	0.134
-279.472	-34.215	-0.275	0.150
-278.457	140.903	0.081	-0.107
-277.443	163.319	-0.019	0.026
-276.428	-200.000	0.057	-0.294
-275.413	60.834	-0.236	-0.232
-274.399	75.478	0.210	0.220
-273.384	-35.690	-0.172	-0.092
-272.370	-200.000	-0.455	0.002
-271.355	484.687	-0.022	-0.049
-270.340	-200.000	0.009	0.131
-269.326	800.000	-0.018	-0.056
-268.311	-200.000	-0.037	0.583
-267.297	-59.863	-0.130	0.055
-266.282	-125.878	-0.186	-0.028
-265.267	-110.566	0.303	-0.062
-264.253	761.490	0.089	-0.238
-263.238	205.341	0.143	-0.220
-262.224	70.813	-0.269	-0.276
-261.209	23.816	-0.244	-0.199
-260.195	-149.341	-0.210	0.017
-259.180	362.614	0.111	0.221
-258.165	-142.661	0.128	-0.012
-257.151	800.000	0.075	0.208
-256.136	-200.000	-0.013	-0.092
-255.122	-200.000	0.002	0.221
-254.107	81.088	0.103	-0.111
-253.092	-44.021	-0.210	0.105
-252.078	27.161	0.376	0.313
-251.063	462.524	0.119	0.263
-250.049	328.517	0.163	0.310
-249.034	-200.000	0.049	0.280
-248.019	-59.269	-0.088	-0.037
-247.005	-114.427	-0.087	-0.017
-245.990	-200.000	0.007	0.067
-244.976	195.785	0.200	0.301
-243.961	110.989	-0.074	-0.089
-242.946	-7.645	-0.220	-0.147
-241.932	-181.111	-0.139	0.003
-240.917	366.910	0.051	0.102
-239.903	-122.578	0.289	-0.046
-238.888	-83.714	-0.391	-0.123
-237.873	-69.217	0.145	-0.055
-236.859	39.986	0.196	-0.174
-235.844	269.130	0.124	0.215
-234.830	117.761	-0.226	-0.276
-233.815	227.399	0.100	-0.160
-232.800	-200.000	-0.034	-0.264
-231.786	143.198	0.071	-0.093
-230.771	-200.000	0.009	-0.150
-229.757	-88.598	0.116	-0.034
-228.742	54.019	-0.084	0.080
-227.727	800.000	0.133	-0.389
-226.713	450.685	-0.126	0.274
-225.698	500.998	-0.044	0.101
-224.684	800.000	0.026	-0.074
-223.669	-200.000	-0.010	-0.057
-222.655	-111.630	0.415	0.083
-221.640	-115.794	0.083	0.015
-220.625	27.623	0.168	0.140
-219.611	85.054	0.097	-0.105
-218.596	-200.000	0.059	-0.287
-217.582	800.000	-0.077	-0.283
-216.567	98.791	-0.137	-0.157
-215.552	10.875	-0.105	0.079
-214.538	-200.000	-0.059	-0.342
-213.523	72.822	-0.033	0.034
-212.509	308.712	0.038	-0.069
-211.494	800.000	-0.011	-0.034
-210.479	35.615	-0.170	0.147
-209.465	-200.000	0.027	0.339
-208.450	-0.796	-0.276	0.193
-207.436	800.000	0.057	-0.158
-206.421	25.793	-0.165	-0.136
-205.406	-178.840	-0.228	-0.005
-204.392	-58.957	0.405	-0.173
-203.377	1.424	0.111	0.079
-202.363	-96.689	0.090	-0.023
-201.348	-138.274	0.336	-0.037
-200.333	-152.098	-0.175	0.013
-199.319	-200.000	-0.035	0.168
-198.304	147.283	-0.278	0.370
-197.290	-74.746	-0.147	0.052
-196.275	104.332	0.148	-0.172
-195.260	-98.077	0.316	0.080
-194.246	-113.808	0.071	0.014
-193.231	-146.175	0.216	-0.019
-192.217	-85.521	0.168	-0.052
-191.202	-200.000	-0.017	0.262
-190.187	-200.000	-0.060	0.415
-189.173	33.559	-0.105	-0.090
-188.158	-140.759	0.181	0.018
-187.144	-200.000	0.021	-0.314
-186.129	800.000	-0.056	-0.210
-185.114	193.848	-0.182	0.272
-184.100	313.119	0.166	0.307
-183.085	-200.000	-0.014	-0.082
-182.071	-98.364	-0.399	-0.101
-181.056	66.701	0.166	-0.167
-180.042	800.000	-0.043	-0.132
-179.027	308.559	-0.097	-0.178
-178.012	-134.765	0.240	-0.029
-176.998	-145.758	0.160	0.014
-175.983	-46.126	-0.118	-0.057
-174.969	-8.882	-0.359	0.237
-173.954	-13.143	0.195	0.125
-172.939	242.768	0.142	0.234
-171.925	-143.065	0.458	0.044
-170.910	65.818	-0.042	0.042
-169.896	253.928	-0.199	-0.335
-168.881	800.000	0.047	0.202
-167.866	350.043	-0.062	0.121
-166.852	418.249	0.032	-0.067
-165.837	28.643	-0.150	-0.125
-164.823	63.432	0.273	0.270
-163.808	-45.829	0.255	0.124
-162.793	-94.447	0.295	-0.079
-161.779	120.147	-0.206	-0.253
-160.764	800.000	-0.064	0.201
-159.750	-200.000	0.036	0.420
-158.735	63.226	-0.116	0.114
-157.720	-200.000	-0.032	-0.363
-156.706	-138.416	-0.236	0.026
-155.691	-17.515	-0.148	-0.092
-154.677	307.247	-0.096	-0.176
-153.662	-110.222	-0.140	0.029
-152.647	321.272	-0.104	-0.195
-151.633	-145.518	0.168	0.015
-150.618	6.970	-0.395	-0.290
-149.604	-140.595	-0.120	0.012
-148.589	0.913	-0.101	-0.071
-147.574	-47.962	-0.116	-0.055
-146.560	-111.109	0.446	0.090
-145.545	51.834	-0.360	0.338
-144.531	73.044	-0.158	0.162
-143.516	-113.183	0.209	-0.041
-142.502	800.000	-0.066	0.278
-141.487	-32.346	0.276	0.152
-140.472	17.972	0.296	-0.233
-139.458	-22.501	-0.045	0.027
-138.443	-126.010	0.245	0.036
-137.429	-200.000	0.012	0.055
-136.414	-163.607	0.142	-0.007
-135.399	-151.929	-0.143	0.010
-134.385	800.000	0.104	-0.330
-133.370	239.609	-0.159	-0.261
-132.356	179.139	0.171	-0.247
-131.341	-81.060	0.173	0.056
-130.326	-127.284	0.250	0.036
-129.312	-200.000	-0.017	0.144
-128.297	190.761	0.042	0.062
-127.283	-200.000	0.066	-0.291
-126.268	201.163	-0.063	0.095
-125.253	178.421	-0.137	0.197
-124.239	-53.774	-0.225	0.101
-123.224	384.076	-0.074	-0.149
-122.210	-200.000	-0.024	-0.116
