DTS Sentinel unit serial number:	SN413079Multiplexer serial number:	ORYXHardware model number:	OX4-SRSoftware version number:	ORYX F/W v4.00 Oryx Data Collector v3.7.2.0data status	okinstallation	princeton_trtdifferential loss correction	single-endedforward channel	channel 3reverse channel	N/Adate	2019/09/16time	01:28:35forward acquisition time	60.00reverse acquisition time	0.00gamma	496.2192k internal	0.2338k external	0.2338temperature offset calibration	0.9949default loss term (dB/km)	0.3790temperature slope calibration	1.0000multiplexer offset coefficient	1.0000multiplexer slope coefficient	1.0000fibre end	0.00T internal ref (°C)	27.30T ext. ref 1 (°C)	9.91T ext. ref 2 (°C)	21.95length (m)	temperature (°C)	Stokes	anti-Stokes-747.200	-64.715	-0.226	0.092
-746.185	-104.754	-0.360	0.083
-745.171	-87.445	0.337	0.102
-744.156	4.709	0.057	0.042
-743.142	247.756	-0.082	0.139
-742.127	-31.461	-0.295	0.166
-741.112	398.305	0.113	0.238
-740.098	-54.960	0.078	0.035
-739.083	-200.000	-0.005	-0.138
-738.069	-5.181	-0.050	0.034
-737.054	800.000	-0.158	-0.549
-736.039	663.414	-0.113	-0.291
-735.025	-200.000	0.011	-0.166
-734.010	800.000	-0.046	-0.159
-732.996	-43.047	-0.180	-0.092
-731.981	130.997	0.216	-0.278
-730.966	89.439	0.076	-0.085
-729.952	-31.138	0.079	-0.044
-728.937	187.839	0.193	-0.289
-727.923	17.264	-0.462	-0.367
-726.908	800.000	0.030	0.086
-725.894	48.959	0.091	-0.086
-724.879	476.848	-0.079	-0.179
-723.864	7.396	0.033	0.025
-722.850	-83.851	-0.124	0.040
-721.835	191.772	-0.059	-0.089
-720.821	380.056	0.050	-0.104
-719.806	90.773	-0.104	-0.117
-718.791	76.241	0.206	-0.218
-717.777	-200.000	-0.421	0.001
-716.762	174.778	-0.111	-0.161
-715.748	800.000	-0.077	-0.221
-714.733	-200.000	0.010	0.234
-713.718	206.745	-0.245	0.383
-712.704	59.145	-0.138	0.136
-711.689	-74.010	0.294	0.107
-710.675	24.556	-0.166	0.138
-709.660	149.335	-0.205	-0.278
-708.645	307.952	-0.088	-0.164
-707.631	-200.000	-0.047	-0.244
-706.616	125.946	0.132	-0.167
-705.602	24.482	0.080	-0.066
-704.587	79.432	-0.097	-0.104
-703.572	-200.000	0.000	0.144
-702.558	-77.036	-0.310	0.108
-701.543	-37.003	-0.164	0.088
-700.529	-200.000	-0.067	0.428
-699.514	200.012	0.059	0.090
-698.499	-12.064	-0.475	-0.312
-697.485	138.596	0.170	-0.224
-696.470	-200.000	0.046	-0.221
-695.456	-128.027	-0.120	0.017
-694.441	26.132	0.231	0.193
-693.426	506.165	0.113	0.262
-692.412	-200.000	0.040	-0.377
-691.397	281.484	0.042	0.076
-690.383	-76.979	-0.169	0.059
-689.368	-54.687	0.481	0.218
-688.354	-43.628	-0.034	0.017
-687.339	-33.041	0.146	-0.081
-686.324	-24.369	-0.285	-0.170
-685.310	-200.000	-0.017	-0.262
-684.295	-152.714	-0.012	0.001
-683.281	800.000	0.087	0.245
-682.266	-167.657	-0.355	-0.014
-681.251	23.333	-0.051	-0.042
-680.237	-104.253	0.274	0.064
-679.222	-2.841	-0.158	0.111
-678.208	34.456	0.272	-0.238
-677.193	118.012	0.066	0.081
-676.178	-137.121	-0.194	0.022
-675.164	-200.000	0.091	-0.466
-674.149	-69.855	-0.404	0.154
-673.135	-112.157	-0.148	0.030
-672.120	216.351	0.096	-0.153
-671.105	-110.614	-0.170	0.035
-670.091	-32.585	-0.180	-0.100
-669.076	-200.000	0.012	-0.072
-668.062	800.000	0.065	0.221
-667.047	-200.000	0.000	-0.062
-666.032	258.163	-0.221	-0.380
-665.018	102.961	-0.139	0.163
-664.003	191.225	-0.058	-0.087
-662.989	31.055	-0.261	0.224
-661.974	130.924	-0.225	0.289
-660.959	-131.214	0.161	0.021
-659.945	-37.918	-0.167	-0.089
-658.930	-128.314	0.220	-0.031
-657.916	-200.000	-0.013	0.061
-656.901	-35.581	0.106	0.057
-655.886	492.113	-0.044	0.102
-654.872	-99.611	-0.332	-0.083
-653.857	-200.000	-0.004	0.326
-652.843	-16.122	-0.279	-0.177
-651.828	24.544	0.134	-0.111
-650.814	260.211	0.088	0.152
-649.799	56.655	-0.102	0.099
-648.784	1.340	0.235	0.169
-647.770	-20.978	0.159	-0.097
-646.755	-17.761	-0.160	-0.100
-645.741	-50.862	0.136	0.064
-644.726	-200.000	-0.068	0.549
-643.711	728.722	0.038	-0.102
-642.697	-200.000	-0.043	0.280
-641.682	21.204	-0.102	0.083
-640.668	-200.000	0.091	0.636
-639.653	227.064	-0.049	0.079
-638.638	347.937	-0.113	-0.222
-637.624	-21.965	-0.178	-0.108
-636.609	-36.964	0.247	0.132
-635.595	437.360	-0.218	-0.475
-634.580	-141.350	0.128	-0.013
-633.565	25.065	-0.119	0.098
-632.551	-23.637	-0.462	0.277
-631.536	-104.806	-0.112	0.026
-630.522	313.477	0.118	-0.222
-629.507	-89.604	-0.389	-0.114
-628.492	-200.000	-0.032	-0.177
-627.478	51.623	-0.152	0.145
-626.463	422.098	0.045	-0.096
-625.449	194.980	-0.228	-0.345
-624.434	800.000	-0.048	0.158
-623.419	73.804	-0.121	0.127
-622.405	67.404	0.184	-0.188
-621.390	18.563	-0.027	0.021
-620.376	46.722	-0.035	-0.033
-619.361	653.222	-0.021	-0.053
-618.346	448.614	-0.072	-0.158
-617.332	16.866	-0.127	-0.100
-616.317	-128.529	-0.070	0.010
-615.303	-114.252	0.370	0.071
-614.288	-141.602	-0.313	0.032
-613.273	-200.000	-0.005	-0.166
-612.259	800.000	-0.035	0.134
-611.244	-81.879	0.236	0.077
-610.230	-80.546	-0.060	0.020
-609.215	-176.333	-0.167	-0.004
-608.201	445.798	-0.074	-0.163
-607.186	-125.128	-0.218	0.033
-606.171	-135.128	-0.044	-0.005
-605.157	-200.000	0.011	0.097
-604.142	-200.000	-0.017	0.431
-603.128	601.947	0.026	0.065
-602.113	-107.743	0.048	0.010
-601.098	734.302	-0.109	0.290
-600.084	-200.000	0.016	0.125
-599.069	-131.551	-0.314	-0.041
-598.055	-200.000	-0.022	-0.323
-597.040	-62.637	0.148	-0.061
-596.025	135.539	0.215	-0.279
-595.011	-91.090	-0.089	-0.026
-593.996	-6.435	-0.280	-0.191
-592.982	-112.909	0.181	0.036
-591.967	480.512	0.136	0.308
-590.952	39.212	0.067	-0.060
-589.938	148.778	-0.097	-0.131
-588.923	41.164	-0.097	0.087
-587.909	283.206	-0.093	-0.167
-586.894	-200.000	-0.016	-0.229
-585.879	621.524	-0.118	-0.295
-584.865	-93.107	-0.211	-0.059
-583.850	-64.167	-0.212	0.086
-582.836	196.355	0.085	-0.129
-581.821	-69.222	0.150	-0.057
-580.806	-160.176	-0.091	-0.005
-579.792	-103.865	-0.092	0.021
-578.777	-29.032	0.016	-0.009
-577.763	800.000	-0.114	-0.352
-576.748	-200.000	-0.017	0.077
-575.733	37.563	0.155	-0.138
-574.719	97.597	0.105	-0.121
-573.704	-200.000	-0.020	-0.143
-572.690	-185.540	-0.096	0.001
-571.675	564.753	0.207	-0.500
-570.661	213.926	-0.194	-0.306
-569.646	-82.545	-0.078	0.025
-568.631	-104.005	-0.129	-0.030
-567.617	181.119	0.073	0.108
-566.602	-97.869	-0.241	-0.062
-565.588	520.125	0.048	-0.112
-564.573	-200.000	0.007	0.061
-563.558	-7.102	-0.080	0.054
-562.544	65.681	-0.077	-0.078
-561.529	-14.797	0.343	-0.220
-560.515	-200.000	-0.006	-0.214
-559.500	691.176	-0.026	0.069
-558.485	-48.992	-0.353	-0.168
-557.471	-37.023	0.189	0.101
-556.456	682.998	-0.054	-0.140
-555.442	-87.178	0.174	0.053
-554.427	137.563	0.191	-0.248
-553.412	-118.123	-0.098	0.017
-552.398	-69.716	0.099	-0.038
-551.383	173.177	0.091	0.131
-550.369	651.738	-0.067	-0.170
-549.354	-200.000	0.029	-0.345
-548.339	-146.156	-0.086	0.008
-547.325	-4.495	0.102	-0.070
-546.310	800.000	-0.129	-0.441
-545.296	314.053	0.143	-0.268
-544.281	6.130	0.223	-0.165
-543.266	-105.214	0.228	-0.052
-542.252	-200.000	0.031	0.163
-541.237	7.445	-0.171	-0.127
-540.223	73.984	0.128	-0.134
-539.208	-34.781	0.232	0.126
-538.193	-130.867	0.170	-0.023
-537.179	466.511	0.087	-0.194
-536.164	144.304	-0.222	0.295
-535.150	395.827	0.215	0.446
-534.135	800.000	0.071	-0.221
-533.121	-79.418	0.366	-0.123
-532.106	-64.971	0.283	-0.114
-531.091	800.000	0.038	0.138
-530.077	96.376	-0.079	-0.090
-529.062	-200.000	-0.011	0.405
-528.048	-0.448	-0.039	0.028
-527.033	-40.450	-0.233	-0.120
-526.018	95.440	0.082	0.093
-525.004	-89.140	-0.234	-0.069
-523.989	267.061	-0.056	-0.098
-522.975	800.000	0.227	-0.626
-521.960	-129.239	0.228	0.032
-520.945	-183.132	0.351	0.006
-519.931	561.921	-0.051	-0.122
-518.916	-46.888	-0.089	0.043
-517.902	-12.494	-0.205	0.133
-516.887	-57.466	-0.087	0.038
-515.872	-37.389	0.159	0.084
-514.858	-124.215	0.405	0.063
-513.843	-33.171	0.145	-0.080
-512.829	-200.000	-0.024	0.172
-511.814	403.795	-0.143	0.299
-510.799	686.439	-0.118	-0.305
-509.785	266.499	-0.141	-0.245
-508.770	258.825	0.080	0.137
-507.756	54.155	0.314	0.301
-506.741	-178.563	-0.114	0.003
-505.726	-31.920	0.165	0.092
-504.712	800.000	-0.063	-0.187
-503.697	-102.051	0.340	-0.081
-502.683	-38.972	0.066	0.035
-501.668	42.244	0.044	0.040
-500.653	-60.531	0.213	-0.090
-499.639	446.104	0.066	0.144
-498.624	77.392	0.192	0.203
-497.610	-40.472	0.159	-0.082
-496.595	-88.421	-0.273	0.081
-495.581	394.051	-0.102	0.211
-494.566	141.784	0.362	0.476
-493.551	8.752	-0.075	-0.056
-492.537	29.873	-0.358	-0.303
-491.522	-139.539	-0.255	-0.027
-490.508	-65.218	0.190	0.076
-489.493	-200.000	-0.001	-0.136
-488.478	-64.309	-0.149	0.060
-487.464	-116.888	0.135	0.025
-486.449	144.881	-0.106	0.140
-485.435	59.969	-0.169	-0.166
-484.420	83.635	-0.156	-0.169
-483.405	332.640	0.154	-0.295
-482.391	-148.840	-0.080	0.006
-481.376	-8.774	-0.221	0.148
-480.362	224.038	0.078	-0.125
-479.347	74.160	-0.221	-0.231
-478.332	-59.965	-0.211	-0.089
-477.318	-91.825	-0.219	0.062
-476.303	266.262	-0.123	0.214
-475.289	-200.000	-0.044	0.369
-474.274	800.000	0.050	0.192
-473.259	-114.569	-0.146	-0.028
-472.245	244.429	-0.165	0.275
-471.230	-200.000	0.049	-0.230
-470.216	-135.628	-0.114	-0.013
-469.201	-134.444	0.087	-0.011
-468.186	-200.000	0.000	0.219
-467.172	-96.643	-0.114	-0.030
-466.157	63.125	0.128	0.127
-465.143	-54.506	0.093	-0.042
-464.128	-43.449	-0.282	0.141
-463.113	-27.349	-0.069	-0.040
-462.099	-200.000	0.042	-0.274
-461.084	407.850	-0.228	-0.478
-460.070	800.000	-0.054	-0.191
-459.055	11.253	0.168	-0.128
-458.040	-83.223	0.261	-0.083
-457.026	800.000	-0.085	0.287
-456.011	91.966	-0.084	0.093
-454.997	764.256	-0.161	-0.435
-453.982	308.349	0.118	0.219
-452.968	-78.354	0.119	-0.041
-451.953	-15.024	0.213	-0.135
-450.938	-200.000	-0.008	-0.391
-449.924	713.428	0.081	0.213
-448.909	-15.796	0.112	0.071
-447.895	-200.000	-0.030	-0.330
-446.880	-200.000	0.024	-0.120
-445.865	-153.167	0.346	-0.024
-444.851	-1.382	0.243	0.170
-443.836	12.353	0.219	0.167
-442.822	-65.242	0.146	-0.058
-441.807	800.000	0.017	0.058
-440.792	-147.053	-0.251	0.021
-439.778	225.255	0.145	0.232
-438.763	-92.965	-0.066	-0.018
-437.749	-82.742	-0.212	0.068
-436.734	26.741	-0.179	-0.149
-435.719	-200.000	-0.059	-0.315
-434.705	492.846	-0.091	-0.206
-433.690	800.000	-0.056	0.186
-432.676	-200.000	0.009	0.092
-431.661	-78.968	0.265	0.089
-430.646	220.714	-0.078	0.125
-429.632	-67.673	-0.267	0.104
-428.617	800.000	-0.042	-0.156
-427.603	-114.421	0.093	-0.018
-426.588	713.555	-0.083	0.217
-425.573	-150.220	-0.368	-0.028
-424.559	-200.000	0.041	0.296
-423.544	131.786	-0.113	-0.143
-422.530	38.511	-0.216	0.191
-421.515	269.834	-0.059	0.102
-420.500	-134.669	0.196	-0.024
-419.486	110.199	0.147	0.175
-418.471	-45.408	0.105	-0.052
-417.457	-136.214	0.335	0.039
-416.442	56.518	0.220	0.212
-415.428	382.057	-0.042	-0.085
-414.413	-39.661	0.165	-0.085
-413.398	-194.985	-0.047	-0.000
-412.384	-122.319	0.100	0.016
-411.369	589.329	-0.128	-0.312
-410.355	-200.000	0.006	-0.150
-409.340	15.091	-0.139	-0.108
-408.325	9.824	-0.157	0.118
-407.311	100.357	0.115	-0.132
-406.296	630.669	0.060	0.152
-405.282	-55.691	-0.187	-0.083
-404.267	85.634	-0.115	0.125
-403.252	274.241	0.152	-0.266
-402.238	-200.000	-0.006	0.127
-401.223	87.765	-0.234	0.256
-400.209	-200.000	-0.037	0.183
-399.194	118.509	0.144	0.176
-398.179	-84.360	0.271	0.085
-397.165	800.000	-0.092	-0.318
-396.150	-95.221	-0.086	0.023
-395.136	-145.749	0.285	-0.025
-394.121	-157.182	0.366	-0.022
-393.106	-18.877	-0.055	0.034
-392.092	-200.000	0.008	0.102
-391.077	-125.920	-0.183	-0.027
-390.063	-200.000	-0.003	0.278
-389.048	-200.000	-0.018	0.140
-388.033	-128.608	0.062	-0.009
-387.019	-106.901	-0.430	0.094
-386.004	-81.247	0.320	-0.105
-384.990	-71.443	0.364	-0.135
-383.975	-114.265	-0.442	-0.084
-382.960	-200.000	0.042	0.213
-381.946	-200.000	-0.009	0.508
-380.931	-200.000	0.004	-0.022
-379.917	405.550	-0.107	-0.223
-378.902	-44.196	-0.048	0.024
-377.888	157.607	0.117	0.160
-376.873	126.053	0.169	0.212
-375.858	800.000	-0.117	0.326
-374.844	800.000	-0.154	0.498
-373.829	800.000	-0.052	0.220
-372.815	42.465	0.056	-0.050
-371.800	-200.000	-0.069	0.422
-370.785	78.850	-0.058	0.062
-369.771	79.531	0.285	-0.302
-368.756	800.000	0.136	-0.450
-367.742	-56.464	-0.149	0.065
-366.727	-138.010	0.368	0.041
-365.712	195.341	0.142	0.213
-364.698	-200.000	-0.009	0.146
-363.683	79.421	0.165	0.175
-362.669	-18.333	0.293	0.181
-361.654	452.868	-0.083	0.182
-360.639	-42.021	-0.242	-0.123
-359.625	35.878	-0.192	-0.167
-358.610	-86.616	-0.248	-0.075
-357.596	504.348	0.050	0.114
-356.581	14.462	-0.267	-0.206
-355.566	800.000	0.076	0.294
-354.552	52.444	-0.142	0.134
-353.537	70.432	0.219	0.224
-352.523	-200.000	0.063	-0.556
-351.508	-200.000	0.023	0.270
-350.493	-106.684	0.220	0.048
-349.479	-200.000	0.042	-0.239
-348.464	696.013	0.043	0.111
-347.450	800.000	0.086	-0.248
-346.435	20.846	0.084	0.067
-345.420	-200.000	-0.061	-0.289
-344.406	489.901	0.181	-0.408
-343.391	-200.000	0.002	-0.147
-342.377	-70.858	-0.152	0.057
-341.362	-78.205	0.053	0.018
-340.348	79.360	-0.079	-0.084
-339.333	-41.626	-0.091	0.046
-338.318	-75.644	-0.231	0.081
-337.304	-13.853	-0.223	0.143
-336.289	-127.967	0.151	0.021
-335.275	-200.000	0.050	0.246
-334.260	-200.000	-0.093	0.463
-333.245	-200.000	-0.044	0.419
-332.231	200.302	0.053	0.080
-331.216	-185.527	0.284	0.004
-330.202	800.000	-0.045	0.187
-329.187	244.152	-0.113	0.187
-328.172	-59.672	-0.101	-0.043
-327.158	-59.071	-0.095	0.040
-326.143	-200.000	0.028	0.330
-325.129	460.994	-0.092	0.202
-324.114	371.425	0.125	-0.250
-323.099	800.000	-0.114	0.379
-322.085	-78.360	-0.127	-0.043
-321.070	800.000	0.079	0.249
-320.056	19.340	0.084	0.067
-319.041	-87.976	0.035	-0.010
-318.026	-200.000	-0.010	-0.197
-317.012	158.646	0.246	-0.338
-315.997	757.357	-0.067	-0.179
-314.983	-83.779	0.123	0.039
-313.968	61.525	0.119	0.117
-312.953	524.434	0.054	0.126
-311.939	30.575	-0.099	0.083
-310.924	-41.317	0.209	0.106
-309.910	-109.275	0.273	-0.057
-308.895	-112.244	0.210	0.041
-307.880	-163.797	0.197	-0.009
-306.866	-40.706	0.117	-0.060
-305.851	19.956	-0.028	0.022
-304.837	-29.040	-0.130	0.074
-303.822	-200.000	0.025	0.155
-302.807	87.510	0.069	-0.075
-301.793	-101.546	0.105	-0.025
-300.778	-200.000	-0.018	-0.280
-299.764	-145.722	-0.217	0.019
-298.749	9.800	0.206	-0.154
-297.735	800.000	0.025	-0.081
-296.720	48.323	0.060	0.055
-295.705	146.124	-0.070	-0.092
-294.691	800.000	-0.019	-0.082
-293.676	585.324	0.088	0.214
-292.662	78.320	-0.173	0.182
-291.647	218.751	0.093	0.146
-290.632	-166.841	0.209	-0.008
-289.618	-109.123	-0.129	-0.027
-288.603	-34.772	0.137	-0.074
-287.589	-131.782	-0.114	-0.015
-286.574	174.854	0.131	0.187
-285.559	-94.488	-0.330	-0.089
-284.545	-200.000	0.039	0.225
-283.530	75.505	0.261	0.271
-282.516	236.541	0.109	0.178
-281.501	-35.368	-0.240	-0.129
-280.486	-200.000	0.048	-0.210
-279.472	800.000	-0.019	0.055
-278.457	800.000	0.085	0.353
-277.443	604.376	-0.140	0.344
-276.428	-30.943	0.157	-0.087
-275.413	150.284	0.185	0.247
-274.399	-200.000	-0.054	0.326
-273.384	-38.652	0.425	0.221
-272.370	449.568	0.075	-0.162
-271.355	182.252	-0.084	-0.121
-270.340	597.125	-0.072	0.177
-269.326	90.132	0.045	-0.050
-268.311	727.038	0.134	0.351
-267.297	-59.480	0.287	-0.122
-266.282	98.926	0.192	-0.218
-265.267	-200.000	-0.014	-0.141
-264.253	-175.287	-0.362	-0.010
-263.238	-51.746	-0.249	0.114
-262.224	-102.566	0.497	-0.117
-261.209	330.598	0.147	-0.279
-260.195	338.149	-0.085	0.162
-259.180	800.000	-0.045	-0.146
-258.165	-167.902	0.047	-0.002
-257.151	171.760	0.238	0.336
-256.136	302.081	0.094	-0.171
-255.122	28.675	0.332	-0.277
-254.107	233.280	-0.190	-0.307
-253.092	-200.000	0.020	-0.214
-252.078	-122.163	-0.295	0.048
-251.063	-36.067	-0.324	0.173
-250.049	307.757	0.137	-0.251
-249.034	251.198	-0.205	-0.343
-248.019	800.000	0.054	-0.202
-247.005	5.692	0.226	-0.164
-245.990	5.156	-0.124	-0.090
-244.976	800.000	-0.049	-0.209
-243.961	123.300	-0.133	-0.164
-242.946	39.409	0.255	0.225
-241.932	-128.200	0.095	-0.013
-240.917	156.575	-0.111	0.151
-239.903	397.625	-0.020	-0.040
-238.888	-200.000	-0.051	-0.288
-237.873	-26.251	-0.349	0.202
-236.859	-200.000	0.005	-0.125
-235.844	-73.606	-0.122	-0.044
-234.830	800.000	0.051	-0.156
-233.815	800.000	-0.074	0.262
-232.800	19.054	-0.174	0.137
-231.786	230.985	-0.038	-0.061
-230.771	-131.487	-0.067	0.009
-229.757	800.000	0.051	0.213
-228.742	-200.000	-0.032	-0.507
-227.727	2.188	0.079	-0.056
-226.713	800.000	0.089	0.287
-225.698	64.067	0.090	-0.089
-224.684	800.000	0.035	0.101
-223.669	164.005	0.072	-0.100
-222.655	-120.148	0.177	-0.030
-221.640	-200.000	0.031	-0.248
-220.625	1.691	-0.190	0.134
-219.611	-200.000	0.019	-0.304
-218.596	337.757	0.108	-0.207
-217.582	-30.128	0.078	0.043
-216.567	800.000	-0.066	-0.277
-215.552	-6.202	0.098	-0.066
-214.538	268.553	-0.163	0.281
-213.523	99.959	0.099	-0.112
-212.509	94.907	-0.051	-0.057
-211.494	571.001	0.105	0.251
-210.479	-113.234	-0.188	0.036
-209.465	-56.222	0.318	-0.139
-208.450	671.133	0.011	-0.029
-207.436	-127.811	-0.248	-0.035
-206.421	-10.476	-0.144	0.094
-205.406	-149.087	-0.241	-0.019
-204.392	-119.776	-0.231	-0.039
-203.377	-63.917	0.303	0.122
-202.363	-200.000	-0.017	0.076
-201.348	-157.034	0.134	-0.008
-200.333	-57.444	0.162	-0.070
-199.319	629.653	0.125	-0.309
-198.304	-200.000	0.015	-0.147
-197.290	-157.566	-0.393	0.023
-196.275	-113.085	-0.028	-0.005
-195.260	87.687	0.078	0.084
-194.246	-122.981	0.200	0.032
-193.231	-83.046	0.283	-0.090
-192.217	-114.552	-0.270	-0.051
-191.202	-200.000	0.027	0.163
-190.187	800.000	-0.072	0.272
-189.173	24.210	0.041	0.033
-188.158	-60.748	-0.234	0.098
-187.144	26.030	0.157	0.129
-186.129	-71.453	-0.079	-0.029
-185.114	27.839	0.146	-0.121
-184.100	-177.301	-0.473	-0.011
-183.085	-24.230	0.100	-0.058
-182.071	-28.982	-0.104	-0.058
-181.056	90.947	0.192	-0.211
-180.042	46.675	-0.161	-0.147
-179.027	-147.485	0.096	0.008
-178.012	-43.821	0.242	0.120
-176.998	-95.684	-0.082	0.022
-175.983	54.925	-0.111	-0.105
-174.969	125.769	-0.058	0.072
-173.954	-200.000	0.008	0.299
-172.939	800.000	-0.107	0.428
-171.925	-63.553	-0.046	-0.018
-170.910	-74.541	0.146	0.052
-169.896	-185.090	0.178	-0.003
-168.881	-104.442	-0.229	0.052
-167.866	-176.338	0.300	0.008
-166.852	312.595	0.028	-0.051
-165.837	-43.787	0.070	-0.034
-164.823	409.346	-0.219	-0.454
-163.808	-200.000	0.030	-0.195
-162.793	800.000	-0.025	-0.081
-161.779	800.000	0.060	-0.232
-160.764	-108.462	-0.044	0.009
-159.750	-155.550	-0.346	0.022
-158.735	27.890	-0.168	0.139
-157.720	250.737	-0.308	0.514
-156.706	-120.863	-0.138	-0.023
-155.691	419.797	-0.085	0.179
-154.677	-66.534	-0.144	0.056
-153.662	87.726	0.201	0.219
-152.647	-94.367	-0.289	-0.077
-151.633	329.308	-0.181	-0.342
-150.618	800.000	0.043	-0.162
-149.604	800.000	-0.018	-0.053
-148.589	-133.194	-0.153	-0.019
-147.574	-132.330	0.360	0.046
-146.560	215.068	0.108	-0.167
-145.545	800.000	0.085	0.359
-144.531	-200.000	-0.004	0.121
-143.516	-77.671	0.296	0.100
-142.502	800.000	0.013	-0.053
-141.487	89.947	-0.115	-0.126
-140.472	69.002	-0.061	-0.061
-139.458	220.309	0.128	-0.201
-138.443	-100.909	-0.057	0.014
-137.429	-200.000	0.010	0.356
-136.414	-173.052	-0.294	0.009
-135.399	40.636	0.311	-0.275
-134.385	800.000	-0.049	-0.203
-133.370	213.059	0.125	-0.193
-132.356	57.003	-0.086	-0.082
-131.341	1.888	0.078	-0.055
-130.326	344.237	0.100	0.192
-129.312	-188.195	-0.302	-0.004
-128.297	25.050	0.184	-0.150
-127.283	205.055	0.113	-0.172
-126.268	-82.597	-0.165	0.052
-125.253	560.713	0.018	0.043
-124.239	-118.889	0.395	0.068
-123.224	-105.618	-0.122	-0.027
-122.210	-200.000	-0.017	0.224
-121.195	383.834	0.114	-0.231
