DTS Sentinel unit serial number:	SN413079Multiplexer serial number:	ORYXHardware model number:	OX4-SRSoftware version number:	ORYX F/W v4.00 Oryx Data Collector v3.7.2.0data status	okinstallation	princeton_trtdifferential loss correction	single-endedforward channel	channel 3reverse channel	N/Adate	2019/09/13time	09:52:34forward acquisition time	60.00reverse acquisition time	0.00gamma	496.2192k internal	0.2325k external	0.2325temperature offset calibration	1.0136default loss term (dB/km)	0.3790temperature slope calibration	1.0000multiplexer offset coefficient	1.0000multiplexer slope coefficient	1.0000fibre end	0.00T internal ref (°C)	30.02T ext. ref 1 (°C)	4.45T ext. ref 2 (°C)	27.14length (m)	temperature (°C)	Stokes	anti-Stokes-747.200	-200.000	-0.007	-0.121
-746.185	277.445	-0.132	0.236
-745.171	394.502	0.019	0.039
-744.156	-139.640	-0.448	-0.048
-743.142	88.891	0.211	-0.237
-742.127	-66.627	-0.526	-0.210
-741.112	-8.977	-0.059	-0.040
-740.098	-159.932	-0.314	0.017
-739.083	21.166	-0.115	0.094
-738.069	-31.116	-0.260	0.148
-737.054	-0.349	-0.160	0.115
-736.039	-94.794	-0.438	0.120
-735.025	-101.268	0.232	-0.057
-734.010	97.743	-0.119	-0.138
-732.996	3.138	0.159	-0.116
-731.981	323.581	0.029	-0.055
-730.966	19.139	0.171	-0.138
-729.952	104.666	-0.262	-0.311
-728.937	-84.479	-0.151	-0.048
-727.923	247.331	-0.253	-0.431
-726.908	-200.000	-0.021	-0.234
-725.894	464.052	-0.114	-0.258
-724.879	-200.000	0.066	-0.321
-723.864	17.696	0.365	-0.292
-722.850	55.559	-0.149	0.146
-721.835	-180.524	0.385	-0.008
-720.821	115.563	-0.117	-0.144
-719.806	800.000	-0.032	-0.097
-718.791	-173.799	-0.470	-0.014
-717.777	-92.158	-0.149	-0.042
-716.762	162.452	-0.032	0.046
-715.748	-200.000	0.034	-0.188
-714.733	3.246	0.130	0.095
-713.718	27.568	-0.104	-0.088
-712.704	-98.066	0.258	0.067
-711.689	239.126	0.083	0.139
-710.675	94.859	-0.072	-0.082
-709.660	-200.000	-0.049	-0.304
-708.645	-200.000	0.067	0.310
-707.631	-200.000	0.050	0.317
-706.616	49.207	-0.213	-0.202
-705.602	-57.671	-0.290	-0.128
-704.587	275.461	0.134	-0.239
-703.572	270.442	-0.049	0.087
-702.558	-80.238	-0.141	-0.047
-701.543	163.823	0.174	-0.247
-700.529	116.515	-0.190	0.235
-699.514	800.000	-0.070	-0.295
-698.499	-79.474	-0.127	0.043
-697.485	-105.657	-0.219	-0.050
-696.470	-78.382	-0.174	0.060
-695.456	800.000	-0.093	-0.261
-694.441	-86.757	0.265	0.082
-693.426	-123.559	0.333	-0.053
-692.412	-142.947	0.312	0.030
-691.397	14.534	-0.174	-0.137
-690.383	-155.633	-0.236	0.015
-689.368	-200.000	0.007	0.326
-688.354	67.254	-0.122	0.125
-687.339	-124.716	-0.257	-0.040
-686.324	-28.955	-0.322	0.186
-685.310	322.858	-0.200	0.383
-684.295	656.817	0.070	0.182
-683.281	-63.213	-0.356	-0.148
-682.266	800.000	0.049	0.168
-681.251	665.437	-0.111	-0.288
-680.237	-129.250	0.129	-0.018
-679.222	674.169	-0.087	-0.228
-678.208	230.290	-0.164	-0.270
-677.193	537.176	-0.081	-0.193
-676.178	-94.046	0.291	-0.080
-675.164	-136.129	0.233	-0.027
-674.149	800.000	0.053	-0.176
-673.135	-85.947	0.201	0.063
-672.120	222.858	-0.124	0.201
-671.105	-83.114	-0.306	0.099
-670.091	533.397	0.027	0.064
-669.076	62.477	0.283	-0.284
-668.062	-200.000	0.034	-0.204
-667.047	111.282	-0.124	-0.150
-666.032	81.409	0.325	-0.353
-665.018	-90.378	0.349	0.102
-664.003	-108.787	0.198	-0.043
-662.989	-84.759	-0.186	-0.059
-661.974	800.000	-0.124	-0.543
-660.959	28.055	0.226	-0.192
-659.945	-155.243	0.116	0.008
-658.930	121.887	-0.113	-0.142
-657.916	-66.148	-0.121	0.049
-656.901	-200.000	0.003	0.197
-655.886	-200.000	-0.033	-0.190
-654.872	55.587	0.297	-0.289
-653.857	447.162	-0.048	-0.107
-652.843	-200.000	-0.007	-0.214
-651.828	800.000	0.075	0.326
-650.814	21.530	-0.204	0.167
-649.799	-34.620	0.296	0.163
-648.784	-200.000	-0.021	-0.163
-647.770	-31.754	-0.111	-0.063
-646.755	-200.000	0.056	0.343
-645.741	-200.000	-0.010	0.148
-644.726	491.586	-0.083	0.192
-643.711	-96.272	-0.255	-0.068
-642.697	243.024	-0.143	0.241
-641.682	-159.918	0.097	-0.005
-640.668	-34.501	0.129	-0.071
-639.653	214.022	0.094	0.149
-638.638	-200.000	-0.022	-0.144
-637.624	-24.054	-0.216	0.130
-636.609	-200.000	-0.023	0.207
-635.595	84.503	-0.210	-0.231
-634.580	800.000	-0.024	0.101
-633.565	-200.000	0.058	-0.334
-632.551	-78.507	-0.063	-0.022
-631.536	63.319	0.117	-0.118
-630.522	144.647	0.132	-0.177
-629.507	184.539	-0.271	0.403
-628.492	800.000	-0.034	-0.106
-627.478	-200.000	0.007	-0.302
-626.463	-150.044	-0.277	-0.022
-625.449	-91.235	0.114	0.033
-624.434	-200.000	0.011	-0.057
-623.419	-165.218	0.509	0.023
-622.405	19.342	0.063	0.051
-621.390	-149.797	-0.273	0.022
-620.376	-153.047	0.237	0.017
-619.361	27.941	-0.202	0.171
-618.346	379.540	-0.061	0.126
-617.332	231.077	0.116	0.191
-616.317	-199.329	0.198	-0.001
-615.303	21.906	0.118	0.096
-614.288	-60.850	-0.130	-0.055
-613.273	154.989	0.021	0.029
-612.259	11.916	-0.159	-0.123
-611.244	800.000	-0.050	0.190
-610.230	-200.000	-0.023	0.123
-609.215	271.270	-0.116	-0.206
-608.201	-51.883	-0.215	0.101
-607.186	399.001	0.178	-0.375
-606.171	-200.000	-0.073	-0.396
-605.157	344.607	0.084	-0.166
-604.142	-200.000	0.010	-0.139
-603.128	-165.122	-0.276	-0.012
-602.113	-28.225	0.144	0.084
-601.098	-129.365	-0.048	-0.007
-600.084	530.697	-0.150	0.355
-599.069	67.993	-0.111	-0.114
-598.055	152.478	0.124	0.170
-597.040	-30.565	0.137	-0.078
-596.025	269.675	0.115	-0.203
-595.011	123.253	-0.200	0.252
-593.996	-200.000	0.002	0.079
-592.982	246.400	-0.172	-0.292
-591.967	233.357	-0.057	-0.095
-590.952	-23.046	-0.241	-0.145
-589.938	-104.695	0.273	0.063
-588.923	800.000	0.043	-0.180
-587.909	445.651	-0.103	0.227
-586.894	800.000	-0.007	-0.027
-585.879	-59.371	-0.294	-0.127
-584.865	14.336	0.124	-0.097
-583.850	-23.171	0.177	0.107
-582.836	-23.759	0.089	0.054
-581.821	162.535	-0.062	0.087
-580.806	-146.211	-0.262	-0.023
-579.792	-33.786	-0.136	-0.075
-578.777	-61.918	-0.088	-0.037
-577.763	202.053	-0.091	0.141
-576.748	-68.247	-0.222	-0.087
-575.733	800.000	-0.119	-0.384
-574.719	62.647	0.125	-0.125
-573.704	800.000	0.125	-0.390
-572.690	800.000	0.063	-0.267
-571.675	800.000	0.059	-0.166
-570.661	-8.763	-0.388	-0.261
-569.646	-113.635	-0.113	-0.022
-568.631	338.117	0.247	-0.482
-567.617	-27.730	-0.106	0.062
-566.602	800.000	-0.065	-0.188
-565.588	731.438	0.123	-0.330
-564.573	800.000	0.124	-0.410
-563.558	-129.840	-0.382	0.053
-562.544	-125.240	0.073	-0.011
-561.529	-200.000	0.017	0.093
-560.515	36.144	-0.158	-0.139
-559.500	-200.000	-0.001	-0.110
-558.485	-74.866	-0.262	0.094
-557.471	-140.940	-0.444	0.046
-556.456	122.444	0.127	0.158
-555.442	-107.629	-0.278	-0.061
-554.427	-77.426	-0.101	0.035
-553.412	170.718	0.071	0.102
-552.398	-200.000	0.011	0.274
-551.383	6.506	0.043	-0.032
-550.369	-36.188	0.212	0.115
-549.354	-5.813	-0.087	0.059
-548.339	-49.744	-0.192	-0.091
-547.325	-128.540	-0.470	0.067
-546.310	18.749	0.307	-0.246
-545.296	-200.000	-0.005	-0.231
-544.281	-110.203	-0.198	-0.041
-543.266	-200.000	-0.012	0.301
-542.252	-79.316	0.079	0.027
-541.237	800.000	-0.102	0.371
-540.223	-142.545	0.106	0.010
-539.208	183.532	0.150	-0.222
-538.193	800.000	-0.098	0.303
-537.179	299.540	0.048	-0.089
-536.164	-200.000	0.004	0.158
-535.150	102.056	0.233	0.272
-534.135	800.000	0.014	-0.052
-533.121	-141.358	0.304	-0.031
-532.106	-200.000	-0.025	0.408
-531.091	-67.228	0.021	-0.008
-530.077	35.042	0.086	0.076
-529.062	800.000	0.104	0.381
-528.048	-100.179	0.322	0.080
-527.033	479.556	-0.171	0.388
-526.018	21.812	-0.082	0.067
-525.004	-200.000	-0.012	0.116
-523.989	-68.831	0.225	-0.087
-522.975	-124.552	0.246	0.038
-521.960	-153.011	-0.349	-0.025
-520.945	-40.813	0.205	0.106
-519.931	100.122	-0.078	-0.090
-518.916	118.735	0.193	-0.238
-517.902	-116.041	-0.107	-0.020
-516.887	70.683	-0.196	-0.203
-515.872	800.000	-0.086	0.330
-514.858	491.688	-0.008	0.018
-513.843	-178.496	-0.161	0.004
-512.829	269.070	0.082	0.144
-511.814	-181.251	0.201	-0.004
-510.799	190.060	-0.084	-0.127
-509.785	-27.119	0.146	-0.085
-508.770	-0.345	0.081	0.058
-507.756	-200.000	0.029	-0.171
-506.741	-42.291	-0.235	-0.120
-505.726	-6.748	0.177	0.120
-504.712	458.947	0.143	-0.317
-503.697	115.161	0.007	-0.009
-502.683	-67.067	-0.098	-0.039
-501.668	297.152	0.077	-0.142
-500.653	-77.401	0.211	-0.073
-499.639	-179.962	0.444	-0.009
-498.624	-104.795	0.093	0.021
-497.610	-32.606	-0.108	0.060
-496.595	-74.183	-0.174	-0.063
-495.581	248.930	0.175	-0.297
-494.566	450.791	-0.099	-0.218
-493.551	279.868	0.093	-0.167
-492.537	-113.163	0.084	0.016
-491.522	357.841	0.082	-0.164
-490.508	-200.000	-0.008	-0.078
-489.493	-146.842	0.157	0.014
-488.478	-200.000	0.074	-0.365
-487.464	453.875	0.041	0.091
-486.449	-193.079	-0.317	-0.003
-485.435	47.472	-0.131	0.122
-484.420	105.892	0.357	0.421
-483.405	-4.762	-0.235	-0.162
-482.391	800.000	0.063	0.255
-481.376	125.911	-0.331	-0.418
-480.362	-27.664	0.046	-0.027
-479.347	223.177	-0.093	-0.149
-478.332	800.000	-0.021	-0.080
-477.318	42.170	-0.167	0.152
-476.303	-40.483	0.242	0.125
-475.289	126.312	0.289	0.365
-474.274	550.038	-0.047	-0.111
-473.259	406.924	0.076	0.160
-472.245	-133.451	-0.218	0.027
-471.230	-200.000	0.010	0.171
-470.216	-6.564	-0.101	0.069
-469.201	1.227	0.148	0.106
-468.186	-139.712	0.179	0.019
-467.172	-61.551	-0.262	0.110
-466.157	78.213	0.201	0.214
-465.143	391.905	-0.064	-0.133
-464.128	-200.000	0.015	0.100
-463.113	-200.000	-0.037	-0.167
-462.099	146.107	-0.232	-0.311
-461.084	-200.000	-0.058	-0.264
-460.070	-143.171	-0.123	0.012
-459.055	-59.114	-0.185	0.080
-458.040	234.187	-0.077	-0.127
-457.026	-9.149	0.165	-0.110
-456.011	-75.880	-0.328	0.116
-454.997	-200.000	-0.022	0.150
-453.982	-62.914	-0.420	0.173
-452.968	-98.956	0.190	-0.048
-451.953	-97.860	0.165	0.042
-450.938	214.349	-0.103	0.163
-449.924	-19.579	0.023	0.014
-448.909	-14.680	0.197	-0.126
-447.895	-61.953	-0.124	-0.052
-446.880	84.137	-0.113	0.123
-445.865	-181.644	0.193	-0.004
-444.851	596.815	0.081	0.199
-443.836	1.329	-0.203	0.145
-442.822	-113.086	0.136	0.027
-441.807	310.706	0.032	-0.060
-440.792	800.000	0.055	0.191
-439.778	-200.000	0.023	0.109
-438.763	-165.519	0.324	-0.014
-437.749	-51.877	0.163	0.076
-436.734	37.172	-0.196	0.173
-435.719	-200.000	0.007	0.139
-434.705	-53.473	0.362	0.165
-433.690	168.151	-0.080	0.113
-432.676	90.873	0.207	0.231
-431.661	-68.573	0.290	-0.112
-430.646	10.548	0.081	0.062
-429.632	-82.284	-0.047	-0.015
-428.617	269.600	-0.077	-0.134
-427.603	83.750	-0.135	-0.147
-426.588	-200.000	0.002	0.162
-425.573	-18.750	0.372	0.231
-424.559	574.126	-0.050	0.121
-423.544	-130.196	-0.285	0.039
-422.530	-91.510	0.142	-0.040
-421.515	-200.000	-0.029	0.156
-420.500	-41.928	0.047	-0.024
-419.486	-200.000	0.015	-0.392
-418.471	738.070	0.059	-0.158
-417.457	130.029	0.209	0.266
-416.442	2.940	-0.145	0.105
-415.428	-112.294	0.334	-0.067
-414.413	89.118	0.135	-0.150
-413.398	-200.000	-0.030	-0.326
-412.384	-200.000	0.051	-0.273
-411.369	-126.604	-0.091	0.013
-410.355	271.743	0.153	0.269
-409.340	212.154	-0.113	-0.177
-408.325	800.000	0.026	0.086
-407.311	-121.400	-0.312	-0.052
-406.296	-200.000	-0.007	-0.149
-405.282	57.293	-0.167	-0.163
-404.267	-155.149	0.036	-0.002
-403.252	-7.168	-0.214	-0.145
-402.238	-181.224	-0.316	0.006
-401.223	-28.728	0.280	0.161
-400.209	-13.486	-0.166	0.107
-399.194	283.416	0.163	-0.292
-398.179	-155.432	0.232	-0.015
-397.165	-6.025	-0.102	-0.069
-396.150	21.323	0.179	-0.145
-395.136	-200.000	0.001	0.021
-394.121	-184.350	-0.471	-0.008
-393.106	-97.319	0.510	0.132
-392.092	-87.133	-0.088	0.027
-391.077	-62.767	0.320	0.132
-390.063	151.321	0.093	-0.126
-389.048	-53.998	0.162	0.073
-388.033	-104.072	0.088	0.020
-387.019	800.000	0.050	-0.203
-386.004	181.960	0.163	0.239
-384.990	800.000	-0.065	-0.269
-383.975	-31.737	0.098	-0.055
-382.960	-116.648	0.432	0.079
-381.946	35.948	-0.152	-0.133
-380.931	-200.000	0.028	-0.171
-379.917	-127.423	0.065	0.009
-378.902	13.421	0.270	0.208
-377.888	800.000	-0.031	-0.109
-376.873	-64.963	0.116	-0.047
-375.858	71.882	-0.100	0.103
-374.844	800.000	0.031	-0.114
-373.829	-7.480	0.316	-0.213
-372.815	178.693	-0.030	-0.043
-371.800	-160.827	-0.330	-0.017
-370.785	-6.430	0.263	-0.178
-369.771	-37.302	0.095	0.050
-368.756	-200.000	-0.006	-0.028
-367.742	-200.000	-0.004	-0.065
-366.727	-200.000	-0.009	-0.304
-365.712	-200.000	-0.005	0.190
-364.698	-200.000	-0.005	0.282
-363.683	-59.127	0.200	0.086
-362.669	90.003	-0.083	-0.093
-361.654	351.761	-0.194	0.383
-360.639	-69.301	-0.223	0.085
-359.625	-156.188	0.211	-0.013
-358.610	-143.186	-0.350	-0.034
-357.596	-70.948	-0.178	-0.067
-356.581	19.076	-0.166	0.133
-355.566	-69.255	-0.139	-0.053
-354.552	-105.749	0.144	0.032
-353.537	144.289	0.071	0.095
-352.523	-2.721	0.252	-0.175
-351.508	-147.239	0.201	-0.017
-350.493	-0.407	-0.189	0.134
-349.479	94.333	-0.231	-0.261
-348.464	-103.170	-0.274	0.064
-347.450	27.990	-0.134	0.113
-346.435	182.980	0.078	-0.114
-345.420	419.826	-0.286	0.608
-344.406	354.982	0.101	-0.199
-343.391	800.000	0.120	-0.395
-342.377	60.362	0.170	0.167
-341.362	167.584	0.091	0.128
-340.348	-59.524	0.128	-0.055
-339.333	-144.583	-0.063	-0.006
-338.318	525.840	-0.042	-0.098
-337.304	-48.394	0.240	0.115
-336.289	643.190	0.035	0.089
-335.275	-163.204	-0.296	0.014
-334.260	-112.998	0.208	0.041
-333.245	-119.607	0.073	-0.013
-332.231	-47.009	0.213	0.103
-331.216	359.904	0.067	0.134
-330.202	324.354	-0.063	0.120
-329.187	129.188	0.148	0.187
-328.172	-83.100	-0.149	-0.048
-327.158	-72.325	0.227	0.083
-326.143	800.000	0.009	0.034
-325.129	249.712	-0.034	0.057
-324.114	-200.000	0.014	-0.230
-323.099	-6.616	0.126	-0.085
-322.085	800.000	-0.128	0.374
-321.070	-182.374	0.138	0.003
-320.056	-87.949	-0.076	-0.023
-319.041	426.738	0.054	-0.115
-318.026	-127.987	-0.294	0.042
-317.012	-150.559	0.133	-0.010
-315.997	35.510	0.257	0.224
-314.983	316.991	0.070	0.132
-313.968	318.312	0.083	-0.156
-312.953	-128.823	-0.459	0.064
-311.939	-2.294	-0.236	-0.164
-310.924	-58.342	-0.080	0.034
-309.910	-200.000	-0.048	-0.284
-308.895	140.468	-0.119	-0.156
-307.880	-200.000	0.020	-0.176
-306.866	-12.898	-0.214	-0.138
-305.851	800.000	0.027	-0.096
-304.837	-30.970	-0.230	0.129
-303.822	-127.797	0.250	0.036
-302.807	-56.539	-0.090	-0.040
-301.793	84.742	-0.357	-0.388
-300.778	33.544	-0.150	-0.129
-299.764	378.075	0.054	0.110
-298.749	155.480	-0.054	-0.074
-297.735	129.850	-0.152	0.193
-296.720	206.236	-0.083	0.128
-295.705	-84.441	-0.194	-0.061
-294.691	-162.222	0.143	-0.007
-293.676	-200.000	0.063	0.407
-292.662	-161.650	0.459	0.023
-291.647	34.032	-0.298	0.257
-290.632	800.000	0.056	0.172
-289.618	169.081	-0.054	0.076
-288.603	-200.000	0.008	0.250
-287.589	-111.903	-0.210	0.042
-286.574	306.716	0.105	-0.194
-285.559	-85.024	0.351	-0.109
-284.545	360.436	0.136	-0.270
-283.530	-85.286	0.217	0.067
-282.516	83.846	-0.237	0.256
-281.501	800.000	0.076	0.247
-280.486	209.051	0.138	0.214
-279.472	-117.964	-0.232	-0.041
-278.457	-177.864	-0.269	0.006
-277.443	32.874	0.290	0.248
-276.428	2.240	-0.059	-0.042
-275.413	-49.326	-0.231	-0.109
-274.399	-73.689	0.187	-0.067
-273.384	654.765	0.059	0.150
-272.370	43.256	0.284	0.257
-271.355	0.361	-0.360	-0.254
-270.340	276.431	-0.139	0.245
-269.326	177.008	0.151	0.217
-268.311	-200.000	0.017	0.083
-267.297	-158.430	-0.212	-0.012
-266.282	-51.539	0.480	-0.222
-265.267	-172.929	0.038	0.001
-264.253	-4.113	0.188	0.129
-263.238	800.000	-0.061	0.224
-262.224	800.000	-0.036	0.124
-261.209	-141.598	-0.270	0.027
-260.195	-8.867	0.111	0.073
-259.180	-200.000	0.031	-0.266
-258.165	-75.751	-0.454	0.159
-257.151	-200.000	-0.045	0.503
-256.136	1.857	0.366	-0.261
-255.122	-133.708	-0.205	0.025
-254.107	244.503	0.010	-0.016
-253.092	261.697	-0.105	0.181
-252.078	-129.594	-0.285	-0.039
-251.063	16.022	0.278	-0.217
-250.049	112.376	0.186	-0.222
-249.034	800.000	-0.025	0.074
-248.019	26.722	-0.189	0.156
-247.005	-25.542	-0.100	0.059
-245.990	800.000	0.079	-0.262
-244.976	-200.000	-0.004	0.323
-243.961	96.242	0.072	-0.081
-242.946	314.803	-0.128	0.239
-241.932	800.000	0.083	0.226
-240.917	-200.000	-0.038	0.197
-239.903	-200.000	0.012	0.057
-238.888	11.880	0.143	-0.109
-237.873	268.637	-0.041	0.071
-236.859	59.238	0.220	0.214
-235.844	-27.126	-0.481	0.278
-234.830	-118.124	0.307	0.054
-233.815	-27.543	0.029	0.017
-232.800	-41.618	0.025	-0.013
-231.786	800.000	0.063	-0.222
-230.771	-7.707	-0.324	-0.216
-229.757	-96.337	-0.134	-0.035
-228.742	800.000	0.056	-0.231
-227.727	-200.000	-0.001	-0.044
-226.713	800.000	0.087	-0.277
-225.698	800.000	0.065	-0.269
-224.684	800.000	-0.114	0.383
-223.669	568.256	0.130	0.312
-222.655	-106.745	0.177	-0.039
-221.640	298.764	0.049	0.090
-220.625	54.732	0.283	-0.270
-219.611	-68.276	-0.470	-0.181
-218.596	5.641	0.226	-0.165
-217.582	-200.000	0.036	-0.218
-216.567	-141.397	-0.207	-0.021
-215.552	-67.316	0.112	-0.044
-214.538	341.252	0.109	-0.211
-213.523	800.000	0.059	-0.181
-212.509	-17.858	0.075	-0.046
-211.494	-82.911	-0.167	0.053
-210.479	-164.794	-0.270	0.012
-209.465	-18.631	0.277	0.171
-208.450	-200.000	0.100	-0.449
-207.436	524.741	-0.079	-0.185
-206.421	412.944	0.120	-0.252
-205.406	-200.000	0.033	0.429
-204.392	14.730	-0.234	-0.181
-203.377	-40.455	0.524	0.269
-202.363	116.467	-0.162	0.196
-201.348	352.412	0.214	-0.419
-200.333	-200.000	-0.058	0.340
-199.319	689.009	0.054	0.138
-198.304	494.891	0.085	-0.194
-197.290	127.328	-0.284	0.356
-196.275	-99.184	0.520	0.130
-195.260	-70.073	-0.195	-0.073
-194.246	184.991	-0.265	0.389
-193.231	-4.053	0.219	0.150
-192.217	800.000	0.065	-0.230
-191.202	159.357	-0.109	-0.149
-190.187	-173.746	-0.207	0.006
-189.173	-36.728	-0.109	-0.058
-188.158	-200.000	0.017	-0.085
-187.144	-200.000	-0.035	0.386
-186.129	0.197	0.124	-0.088
-185.114	-112.362	-0.350	0.069
-184.100	-131.047	-0.199	-0.026
-183.085	10.198	-0.293	-0.220
-182.071	119.379	-0.162	-0.198
-181.056	85.633	-0.102	0.110
-180.042	-200.000	-0.070	0.587
-179.027	227.370	-0.094	0.150
-178.012	-78.828	0.203	-0.068
-176.998	-200.000	0.014	-0.164
-175.983	-200.000	-0.008	-0.134
-174.969	2.667	-0.156	-0.112
-173.954	-55.523	0.139	-0.061
-172.939	19.453	-0.144	0.114
-171.925	618.523	0.071	0.177
-170.910	-200.000	-0.021	-0.345
-169.896	234.971	-0.150	-0.245
-168.881	186.129	0.161	-0.236
-167.866	-59.124	0.051	0.022
-166.852	75.313	0.138	-0.143
-165.837	166.220	0.343	-0.479
-164.823	800.000	-0.095	-0.383
-163.808	-104.863	0.202	-0.046
-162.793	-106.631	0.278	-0.061
-161.779	-133.716	-0.125	-0.015
-160.764	100.292	0.089	-0.102
-159.750	609.893	-0.110	0.270
-158.735	-101.933	0.134	-0.032
-157.720	40.634	-0.238	-0.212
-156.706	-56.527	-0.409	0.179
-155.691	215.754	0.114	-0.178
-154.677	303.940	-0.074	-0.134
-153.662	19.291	0.238	0.189
-152.647	-200.000	0.053	0.239
-151.633	-61.233	0.262	0.109
-150.618	-160.280	-0.237	0.013
-149.604	-113.765	0.182	-0.035
-148.589	-139.148	0.071	0.008
-147.574	549.261	-0.059	0.140
-146.560	184.733	0.072	-0.105
-145.545	-158.918	-0.288	-0.016
-144.531	43.147	0.297	-0.267
-143.516	-23.439	0.214	0.127
-142.502	-121.565	-0.204	-0.033
-141.487	-100.761	-0.295	-0.072
-140.472	-200.000	0.044	0.229
-139.458	-81.014	-0.300	-0.098
-138.443	-158.523	-0.370	-0.021
-137.429	800.000	0.092	-0.290
-136.414	80.376	-0.281	0.298
-135.399	-18.323	0.207	-0.128
-134.385	-200.000	-0.047	-0.239
-133.370	-7.044	-0.232	0.155
-132.356	146.810	-0.097	0.128
-131.341	337.944	0.035	0.067
-130.326	44.034	-0.230	-0.207
-129.312	-163.627	-0.095	0.004
-128.297	-39.172	0.384	-0.199
-127.283	34.114	0.103	-0.088
-126.268	800.000	-0.051	0.160
-125.253	102.399	-0.256	0.295
-124.239	56.772	0.272	0.260
-123.224	-200.000	-0.010	0.107
-122.210	33.267	0.340	0.291
