DTS Sentinel unit serial number:	SN413079Multiplexer serial number:	ORYXHardware model number:	OX4-SRSoftware version number:	ORYX F/W v4.00 Oryx Data Collector v3.7.2.0data status	okinstallation	princeton_trtdifferential loss correction	single-endedforward channel	channel 3reverse channel	N/Adate	2019/09/10time	23:34:10forward acquisition time	60.00reverse acquisition time	0.00gamma	496.2192k internal	0.2330k external	0.2330temperature offset calibration	0.9922default loss term (dB/km)	0.3790temperature slope calibration	1.0000multiplexer offset coefficient	1.0000multiplexer slope coefficient	1.0000fibre end	0.00T internal ref (°C)	29.64T ext. ref 1 (°C)	-0.31T ext. ref 2 (°C)	23.11length (m)	temperature (°C)	Stokes	anti-Stokes-747.200	-200.000	-0.026	0.201
-746.185	-106.978	-0.167	0.037
-745.171	-200.000	-0.027	0.285
-744.156	-200.000	-0.048	0.216
-743.142	-200.000	0.077	0.429
-742.127	-149.741	-0.282	-0.022
-741.112	24.251	-0.111	-0.092
-740.098	-200.000	0.001	0.057
-739.083	216.390	0.078	0.124
-738.069	-200.000	0.021	0.289
-737.054	-158.491	0.342	-0.020
-736.039	-29.259	-0.136	-0.078
-735.025	-111.055	-0.142	-0.029
-734.010	-64.822	-0.388	-0.158
-732.996	-54.338	-0.193	0.088
-731.981	148.863	-0.192	-0.261
-730.966	-48.059	-0.181	-0.088
-729.952	285.779	-0.041	-0.073
-728.937	-57.902	-0.444	-0.195
-727.923	-48.379	-0.257	-0.125
-726.908	386.246	-0.164	0.340
-725.894	-200.000	0.051	-0.240
-724.879	-105.111	-0.360	-0.083
-723.864	-123.370	0.312	0.050
-722.850	-15.624	-0.260	0.167
-721.835	-200.000	0.020	-0.223
-720.821	-19.578	-0.167	-0.104
-719.806	387.310	0.056	-0.116
-718.791	-61.969	0.183	-0.077
-717.777	-45.177	-0.344	-0.172
-716.762	-135.237	0.261	-0.031
-715.748	246.327	0.093	-0.157
-714.733	252.860	-0.205	0.352
-713.718	615.414	-0.045	-0.114
-712.704	150.442	0.188	0.257
-711.689	149.994	0.202	0.276
-710.675	-159.626	-0.054	-0.003
-709.660	-200.000	0.028	-0.139
-708.645	-50.482	-0.328	0.155
-707.631	44.033	-0.237	-0.219
-706.616	-125.476	0.152	0.023
-705.602	800.000	0.048	-0.202
-704.587	-200.000	0.004	-0.212
-703.572	-195.161	0.145	0.001
-702.558	-126.997	-0.223	0.033
-701.543	-26.710	-0.146	0.086
-700.529	-123.585	0.502	0.080
-699.514	800.000	0.016	0.060
-698.499	-39.838	0.189	0.099
-697.485	90.422	-0.080	-0.090
-696.470	-200.000	0.005	-0.140
-695.456	800.000	0.096	0.266
-694.441	-200.000	-0.009	-0.241
-693.426	-127.124	-0.181	0.027
-692.412	58.182	-0.103	-0.101
-691.397	-200.000	-0.020	-0.254
-690.383	544.251	0.030	-0.072
-689.368	-200.000	-0.062	0.437
-688.354	587.775	-0.033	0.081
-687.339	167.528	0.173	0.247
-686.324	77.397	-0.242	0.259
-685.310	-200.000	-0.002	0.078
-684.295	60.223	-0.046	0.046
-683.281	169.973	-0.039	-0.055
-682.266	540.653	-0.135	-0.324
-681.251	-163.846	-0.327	0.015
-680.237	-170.349	-0.222	0.008
-679.222	800.000	0.068	-0.235
-678.208	-175.918	-0.262	-0.007
-677.193	800.000	0.032	0.093
-676.178	-68.190	0.374	-0.146
-675.164	118.106	0.143	-0.177
-674.149	-200.000	-0.014	0.444
-673.135	12.202	-0.100	-0.077
-672.120	368.939	0.108	0.220
-671.105	-119.600	0.259	0.045
-670.091	499.952	-0.034	0.080
-669.076	19.876	-0.096	-0.077
-668.062	-155.487	-0.229	-0.015
-667.047	17.105	0.088	-0.070
-666.032	251.440	-0.193	-0.330
-665.018	800.000	-0.054	0.170
-664.003	800.000	-0.097	-0.332
-662.989	-63.692	-0.113	-0.047
-661.974	-63.293	-0.083	0.034
-660.959	-32.079	0.157	0.088
-659.945	-53.718	0.068	0.031
-658.930	282.861	0.074	0.133
-657.916	108.488	-0.059	0.071
-656.901	32.649	-0.094	0.081
-655.886	-38.855	0.417	0.220
-654.872	-131.791	0.208	-0.027
-653.857	194.264	-0.018	0.027
-652.843	-200.000	-0.030	0.241
-651.828	105.334	0.292	-0.346
-650.814	684.781	0.091	-0.238
-649.799	-54.616	0.088	-0.040
-648.784	-148.939	-0.237	0.019
-647.770	800.000	-0.035	-0.138
-646.755	-120.603	0.021	0.004
-645.741	126.341	0.062	0.079
-644.726	-200.000	-0.017	-0.226
-643.711	-79.793	-0.044	-0.015
-642.697	-155.405	-0.257	-0.017
-641.682	107.722	0.194	-0.231
-640.668	-84.699	0.040	-0.013
-639.653	141.374	-0.235	-0.311
-638.638	97.198	0.219	0.252
-637.624	800.000	-0.051	-0.187
-636.609	-200.000	0.013	-0.068
-635.595	-109.975	-0.450	-0.094
-634.580	-62.234	-0.053	0.022
-633.565	-132.834	-0.087	0.011
-632.551	-200.000	-0.003	-0.020
-631.536	-71.236	0.357	-0.134
-630.522	274.543	-0.076	-0.134
-629.507	72.037	0.082	0.085
-628.492	-78.556	0.098	-0.033
-627.478	-47.774	-0.142	-0.069
-626.463	-200.000	0.021	-0.247
-625.449	240.829	0.084	-0.141
-624.434	106.778	0.155	0.184
-623.419	216.361	-0.013	0.021
-622.405	-200.000	-0.017	-0.281
-621.390	193.402	0.131	0.198
-620.376	-94.914	0.187	0.051
-619.361	-119.398	0.142	0.025
-618.346	-200.000	-0.021	0.227
-617.332	-70.992	0.489	-0.185
-616.317	-91.169	-0.226	-0.065
-615.303	-116.463	0.081	0.015
-614.288	800.000	0.020	-0.058
-613.273	-100.797	0.166	-0.041
-612.259	-147.193	-0.188	0.016
-611.244	-186.106	-0.170	0.002
-610.230	380.037	-0.186	-0.383
-609.215	534.634	0.091	-0.217
-608.201	-200.000	0.002	-0.188
-607.186	317.167	-0.023	-0.043
-606.171	-78.814	-0.093	0.032
-605.157	90.676	-0.146	0.164
-604.142	-187.635	0.342	-0.005
-603.128	800.000	-0.092	0.386
-602.113	-49.719	0.141	-0.067
-601.098	601.828	0.092	-0.228
-600.084	800.000	0.023	-0.076
-599.069	76.282	0.128	0.135
-598.055	-145.868	-0.089	0.008
-597.040	-200.000	-0.007	-0.314
-596.025	-200.000	0.004	0.187
-595.011	24.704	0.134	-0.111
-593.996	-139.618	-0.183	-0.020
-592.982	-162.494	-0.240	-0.012
-591.967	22.415	0.195	-0.160
-590.952	17.974	0.338	0.269
-589.938	-91.705	0.239	-0.068
-588.923	-121.893	-0.332	0.055
-587.909	121.696	-0.242	-0.301
-586.894	-136.730	-0.229	0.026
-585.879	-200.000	0.017	-0.085
-584.865	532.053	-0.081	-0.193
-583.850	800.000	-0.058	-0.190
-582.836	22.066	0.259	-0.211
-581.821	-10.209	-0.167	0.111
-580.806	81.054	0.171	-0.185
-579.792	327.659	0.158	-0.302
-578.777	-128.153	0.055	0.008
-577.763	-112.896	-0.148	-0.029
-576.748	-0.805	0.142	-0.101
-575.733	355.492	-0.102	0.202
-574.719	164.925	0.074	0.105
-573.704	105.953	0.140	-0.165
-572.690	-192.651	0.068	-0.001
-571.675	-50.297	-0.288	-0.136
-570.661	101.858	-0.167	0.195
-569.646	-80.176	-0.084	-0.028
-568.631	380.191	-0.051	0.104
-567.617	43.810	0.083	0.076
-566.602	-200.000	-0.008	0.124
-565.588	-72.339	-0.174	0.064
-564.573	-71.412	0.108	0.040
-563.558	-200.000	-0.009	0.307
-562.544	54.078	-0.083	-0.080
-561.529	291.269	-0.234	-0.425
-560.515	103.159	0.197	-0.231
-559.500	-56.392	0.063	0.028
-558.485	-58.530	0.323	0.140
-557.471	64.451	-0.155	0.156
-556.456	112.419	0.120	-0.145
-555.442	277.159	-0.026	-0.047
-554.427	-133.853	-0.319	-0.040
-553.412	249.293	0.095	0.162
-552.398	87.963	0.189	0.210
-551.383	-105.383	-0.243	0.055
-550.369	77.918	0.074	0.079
-549.354	68.666	-0.097	-0.100
-548.339	-36.045	-0.282	-0.152
-547.325	-200.000	-0.064	0.347
-546.310	67.209	0.061	0.062
-545.296	-200.000	-0.010	-0.134
-544.281	277.854	0.108	-0.193
-543.266	201.088	0.169	-0.260
-542.252	207.083	-0.150	-0.233
-541.237	-114.440	0.472	0.091
-540.223	-200.000	-0.034	0.167
-539.208	-98.035	0.142	0.037
-538.193	285.506	0.022	-0.039
-537.179	-200.000	0.015	-0.153
-536.164	-137.719	-0.293	0.033
-535.150	-39.299	-0.307	0.161
-534.135	-106.158	0.279	0.063
-533.121	-70.933	0.034	0.013
-532.106	23.200	0.095	0.078
-531.091	527.441	-0.084	0.198
-530.077	-30.360	-0.439	0.249
-529.062	-63.739	0.305	-0.125
-528.048	80.228	-0.246	0.264
-527.033	-200.000	-0.017	0.117
-526.018	-59.281	-0.218	-0.094
-525.004	320.927	-0.165	-0.313
-523.989	-47.070	0.261	0.127
-522.975	-70.248	0.138	0.052
-521.960	-200.000	-0.039	0.258
-520.945	-104.023	-0.169	0.039
-519.931	-200.000	0.023	0.208
-518.916	800.000	0.049	-0.167
-517.902	-196.989	-0.028	-0.000
-516.887	-200.000	-0.056	0.302
-515.872	15.236	-0.115	-0.090
-514.858	-11.849	-0.154	0.101
-513.843	-35.632	0.238	-0.129
-512.829	38.379	-0.026	0.023
-511.814	-200.000	-0.083	0.443
-510.799	-8.513	-0.089	-0.060
-509.785	120.878	-0.155	0.192
-508.770	49.125	-0.252	0.236
-507.756	130.479	0.117	-0.150
-506.741	-200.000	-0.017	0.245
-505.726	-176.627	-0.111	-0.003
-504.712	800.000	-0.013	0.053
-503.697	-125.891	-0.309	0.046
-502.683	-118.698	-0.041	-0.007
-501.668	-24.231	0.378	0.225
-500.653	169.922	0.071	-0.102
-499.639	-121.889	-0.514	0.085
-498.624	67.858	-0.193	-0.197
-497.610	800.000	0.086	-0.259
-496.595	15.724	0.214	-0.168
-495.581	135.752	0.063	-0.081
-494.566	800.000	-0.011	-0.033
-493.551	-19.436	-0.072	-0.045
-492.537	127.905	0.076	-0.097
-491.522	6.901	0.037	-0.028
-490.508	-108.516	-0.256	0.055
-489.493	-66.046	0.164	0.065
-488.478	-81.854	-0.386	0.126
-487.464	-200.000	-0.009	-0.205
-486.449	6.028	-0.181	-0.134
-485.435	-98.136	-0.330	0.085
-484.420	800.000	-0.022	-0.085
-483.405	-71.698	0.099	0.037
-482.391	370.614	0.102	0.206
-481.376	249.373	0.161	0.272
-480.362	338.850	0.073	0.142
-479.347	717.192	-0.050	0.131
-478.332	94.828	0.181	0.205
-477.318	-163.637	-0.042	-0.002
-476.303	-102.116	-0.257	0.062
-475.289	-37.400	-0.273	-0.145
-474.274	-106.059	-0.214	-0.048
-473.259	-143.346	0.146	-0.014
-472.245	-72.311	-0.045	-0.017
-471.230	143.524	0.056	-0.075
-470.216	-44.462	0.223	0.111
-469.201	-137.126	0.174	-0.020
-468.186	800.000	0.047	0.188
-467.172	46.809	-0.350	0.324
-466.157	390.207	0.043	-0.088
-465.143	-23.220	-0.408	0.245
-464.128	61.473	0.066	-0.065
-463.113	717.729	-0.043	-0.113
-462.099	-171.934	0.492	0.016
-461.084	-200.000	-0.068	-0.455
-460.070	150.694	0.197	0.266
-459.055	800.000	-0.130	-0.362
-458.040	76.767	0.057	0.060
-457.026	-153.435	-0.049	0.003
-456.011	115.590	-0.011	-0.013
-454.997	-200.000	-0.028	0.236
-453.982	-200.000	-0.040	-0.211
-452.968	291.562	0.090	0.163
-451.953	-9.173	-0.087	0.058
-450.938	-141.790	0.069	-0.007
-449.924	-75.508	-0.329	-0.117
-448.909	279.517	-0.070	0.124
-447.895	-121.421	0.255	-0.042
-446.880	254.584	-0.139	0.236
-445.865	-63.045	0.111	-0.046
-444.851	800.000	0.069	0.273
-443.836	-73.949	-0.238	-0.086
-442.822	-95.162	0.028	-0.007
-441.807	-194.437	-0.362	0.003
-440.792	186.011	0.225	-0.332
-439.778	-81.920	-0.148	0.048
-438.763	-164.304	-0.124	-0.006
-437.749	-163.389	0.180	-0.009
-436.734	26.214	0.250	0.208
-435.719	274.301	-0.095	0.167
-434.705	-21.926	-0.047	0.029
-433.690	-30.382	-0.427	0.241
-432.676	39.527	-0.252	-0.225
-431.661	69.241	-0.178	-0.182
-430.646	88.955	0.270	0.299
-429.632	112.687	-0.102	-0.123
-428.617	-73.712	0.112	-0.040
-427.603	291.444	0.063	0.114
-426.588	-70.308	-0.285	0.107
-425.573	-77.858	0.117	0.040
-424.559	-32.468	0.301	-0.167
-423.544	55.156	-0.094	0.090
-422.530	-200.000	0.036	0.226
-421.515	521.963	-0.099	0.232
-420.500	-83.073	-0.072	-0.023
-419.486	256.795	0.140	-0.238
-418.471	245.810	-0.096	-0.161
-417.457	-45.222	-0.133	0.066
-416.442	-18.556	0.164	-0.102
-415.428	-22.376	0.092	-0.055
-414.413	-42.645	0.108	0.055
-413.398	1.306	-0.199	0.142
-412.384	-110.530	0.295	0.061
-411.369	13.558	0.179	-0.138
-410.355	-7.710	-0.121	0.081
-409.340	-139.930	-0.138	-0.014
-408.325	116.497	-0.217	0.264
-407.311	-112.706	0.092	0.018
-406.296	-200.000	0.006	0.091
-405.282	-38.611	-0.264	-0.138
-404.267	293.295	-0.031	-0.055
-403.252	401.913	0.034	-0.071
-402.238	-1.186	0.190	-0.133
-401.223	-200.000	-0.051	-0.421
-400.209	-42.806	0.131	0.066
-399.194	-200.000	-0.013	-0.257
-398.179	541.638	0.103	-0.244
-397.165	-38.738	0.242	-0.127
-396.150	-200.000	0.022	0.242
-395.136	297.655	-0.107	0.195
-394.121	-191.934	-0.150	0.001
-393.106	-144.694	0.175	-0.016
-392.092	-56.283	0.202	0.089
-391.077	18.073	0.141	-0.112
-390.063	800.000	-0.140	-0.433
-389.048	-3.093	-0.144	-0.099
-388.033	59.280	0.259	-0.253
-387.019	800.000	0.042	0.130
-386.004	-200.000	-0.003	-0.131
-384.990	800.000	0.059	-0.256
-383.975	7.664	-0.114	0.085
-382.960	-58.666	-0.100	-0.043
-381.946	-114.141	0.286	-0.055
-380.931	78.367	0.226	0.240
-379.917	206.486	0.136	-0.210
-378.902	369.754	0.011	0.021
-377.888	800.000	-0.181	-0.495
-376.873	341.735	-0.076	-0.147
-375.858	-200.000	-0.025	-0.152
-374.844	148.982	0.302	0.405
-373.829	-129.784	-0.051	0.007
-372.815	389.181	0.077	0.158
-371.800	-86.302	-0.310	-0.095
-370.785	-127.520	-0.516	0.074
-369.771	-200.000	-0.056	-0.283
-368.756	800.000	-0.056	0.243
-367.742	-167.136	0.172	0.007
-366.727	800.000	-0.049	-0.172
-365.712	179.165	0.145	-0.210
-364.698	42.023	-0.039	-0.036
-363.683	-14.311	0.080	-0.051
-362.669	-138.837	0.470	-0.051
-361.654	800.000	0.066	0.181
-360.639	800.000	0.074	0.299
-359.625	475.519	0.061	-0.136
-358.610	-137.588	-0.176	0.020
-357.596	-163.737	-0.169	-0.008
-356.581	551.946	-0.040	-0.096
-355.566	75.878	0.054	0.057
-354.552	185.051	0.256	-0.377
-353.537	115.814	0.218	-0.264
-352.523	-31.663	0.269	0.150
-351.508	222.808	-0.043	-0.068
-350.493	-200.000	0.024	0.201
-349.479	-59.853	0.075	0.032
-348.464	-51.515	0.276	0.128
-347.450	-162.535	-0.186	-0.009
-346.435	-200.000	-0.011	0.308
-345.420	56.316	-0.177	0.171
-344.406	-102.961	0.113	0.027
-343.391	279.445	-0.070	0.124
-342.377	-47.998	-0.114	-0.055
-341.362	34.501	-0.234	-0.203
-340.348	-139.183	-0.409	-0.044
-339.333	224.043	0.097	-0.155
-338.318	-200.000	0.067	-0.415
-337.304	23.384	0.159	-0.129
-336.289	787.843	0.066	-0.180
-335.275	65.585	0.171	0.172
-334.260	-38.693	0.053	-0.028
-333.245	138.828	-0.177	0.231
-332.231	603.058	-0.153	0.376
-331.216	-175.843	0.201	0.005
-330.202	17.274	0.238	-0.187
-329.187	31.615	-0.055	0.047
-328.172	8.496	0.100	0.075
-327.158	22.715	-0.119	-0.097
-326.143	800.000	-0.036	-0.107
-325.129	-200.000	0.004	-0.022
-324.114	148.369	-0.243	-0.325
-323.099	-35.017	-0.383	0.207
-322.085	-123.689	0.076	0.012
-321.070	30.562	-0.104	-0.088
-320.056	-200.000	-0.024	-0.254
-319.041	-198.867	-0.033	-0.000
-318.026	19.010	0.171	0.136
-317.012	-200.000	0.004	-0.032
-315.997	329.903	-0.042	-0.079
-314.983	-19.197	0.258	-0.159
-313.968	-200.000	-0.015	0.089
-312.953	260.957	-0.300	0.513
-311.939	-116.297	0.305	-0.056
-310.924	31.840	0.157	0.134
-309.910	687.673	-0.054	-0.139
-308.895	482.678	0.206	0.464
-307.880	148.805	-0.042	0.057
-306.866	-200.000	0.006	-0.085
-305.851	-200.000	0.083	0.406
-304.837	-200.000	-0.007	0.091
-303.822	-114.419	-0.309	-0.059
-302.807	-200.000	-0.062	-0.424
-301.793	-77.195	-0.155	0.053
-300.778	-89.889	0.284	0.082
-299.764	-70.734	0.178	-0.067
-298.749	-55.583	-0.287	0.127
-297.735	800.000	-0.035	0.100
-296.720	335.932	-0.163	-0.312
-295.705	-200.000	-0.003	0.022
-294.691	99.575	-0.151	0.172
-293.676	-200.000	0.003	0.268
-292.662	-200.000	-0.013	0.264
-291.647	599.577	0.062	-0.152
-290.632	-43.666	-0.184	-0.092
-289.618	-112.971	0.427	-0.084
-288.603	-5.159	-0.167	-0.114
-287.589	-49.953	-0.257	-0.120
-286.574	-170.496	0.078	-0.003
-285.559	289.440	0.084	0.151
-284.545	-126.749	-0.146	-0.021
-283.530	364.350	-0.093	0.185
-282.516	800.000	-0.082	-0.271
-281.501	-200.000	0.006	-0.109
-280.486	800.000	0.094	-0.394
-279.472	-164.094	0.073	-0.003
-278.457	394.948	0.162	0.334
-277.443	109.753	-0.158	-0.187
-276.428	-146.107	-0.381	0.033
-275.413	23.692	0.215	0.175
-274.399	2.835	-0.261	-0.187
-273.384	-161.092	0.268	0.014
-272.370	126.947	0.096	-0.120
-271.355	138.481	0.216	-0.281
-270.340	117.269	-0.063	0.077
-269.326	48.956	0.101	0.094
-268.311	-200.000	0.015	0.195
-267.297	-7.074	0.082	0.055
-266.282	-133.206	0.256	0.032
-265.267	-3.466	-0.127	-0.087
-264.253	-66.575	0.183	0.072
-263.238	150.732	0.159	0.213
-262.224	70.403	0.029	-0.029
-261.209	-99.532	-0.245	-0.061
-260.195	-39.591	0.236	0.122
-259.180	120.199	0.089	-0.109
-258.165	591.883	0.060	0.147
-257.151	-155.670	-0.158	-0.010
-256.136	66.386	0.046	-0.046
-255.122	-200.000	-0.025	0.205
-254.107	37.161	-0.151	-0.132
-253.092	218.451	-0.076	0.119
-252.078	226.001	0.107	-0.171
-251.063	-62.449	-0.196	-0.080
-250.049	-200.000	0.017	-0.170
-249.034	-200.000	-0.045	-0.234
-248.019	491.741	0.112	0.254
-247.005	-200.000	0.301	0.001
-245.990	-85.705	0.452	-0.138
-244.976	384.148	0.164	0.333
-243.961	580.642	0.023	-0.056
-242.946	36.245	-0.184	-0.160
-241.932	181.018	0.152	-0.221
-240.917	-200.000	-0.020	-0.113
-239.903	44.879	0.129	0.117
-238.888	-116.179	0.069	-0.013
-237.873	-62.920	-0.099	-0.040
-236.859	800.000	-0.054	-0.157
-235.844	-143.723	-0.041	0.004
-234.830	386.066	0.084	-0.170
-233.815	-47.674	-0.370	0.177
-232.800	13.533	-0.202	0.155
-231.786	141.081	-0.247	-0.322
-230.771	-2.491	0.329	-0.227
-229.757	-155.750	-0.261	-0.016
-228.742	32.447	-0.295	0.251
-227.727	29.489	-0.206	-0.173
-226.713	-142.616	0.187	-0.018
-225.698	-200.000	-0.012	0.092
-224.684	-94.446	0.304	0.082
-223.669	-22.699	0.076	0.045
-222.655	18.709	0.295	-0.233
-221.640	-52.307	0.244	-0.111
-220.625	685.945	-0.091	-0.235
-219.611	-133.618	0.320	-0.039
-218.596	800.000	-0.040	-0.131
-217.582	209.271	0.219	-0.338
-216.567	-55.056	0.150	0.067
-215.552	156.974	-0.077	-0.104
-214.538	486.816	-0.078	0.174
-213.523	-47.917	-0.089	0.042
-212.509	-72.074	0.285	-0.104
-211.494	307.784	0.190	0.349
-210.479	800.000	0.177	0.541
-209.465	-143.366	0.130	0.012
-208.450	800.000	-0.041	0.168
-207.436	-31.048	0.360	-0.200
-206.421	-16.347	0.123	0.077
-205.406	246.472	0.131	0.217
-204.392	800.000	0.223	0.625
-203.377	-33.188	-0.208	-0.114
-202.363	-200.000	0.027	0.289
-201.348	16.996	0.174	0.136
-200.333	-73.612	-0.350	-0.126
-199.319	129.430	0.119	-0.149
-198.304	-200.000	-0.037	0.254
-197.290	-33.165	0.112	0.061
-196.275	-0.330	0.107	-0.075
-195.260	786.151	0.053	0.144
-194.246	101.205	0.157	-0.180
-193.231	-27.379	-0.284	0.163
-192.217	102.105	0.078	0.090
-191.202	236.716	-0.082	0.134
-190.187	-57.795	-0.290	-0.125
-189.173	-200.000	-0.021	0.243
-188.158	-65.173	-0.290	-0.115
-187.144	800.000	-0.041	-0.141
-186.129	7.709	-0.206	0.152
-185.114	36.667	-0.352	-0.306
-184.100	-200.000	-0.023	-0.186
-183.085	137.818	-0.138	0.179
-182.071	19.908	-0.022	-0.017
-181.056	-121.205	0.229	0.038
-180.042	271.247	-0.037	-0.064
-179.027	-102.716	-0.057	0.013
-178.012	-125.065	0.279	0.042
-176.998	-200.000	0.009	0.102
-175.983	-191.558	0.114	-0.001
-174.969	-200.000	-0.002	-0.209
-173.954	-200.000	-0.019	0.221
-172.939	236.165	-0.215	0.349
-171.925	42.024	0.270	-0.242
-170.910	-149.973	0.037	-0.003
-169.896	69.653	0.049	-0.050
-168.881	-35.044	0.303	0.162
-167.866	800.000	0.084	0.361
-166.852	800.000	-0.070	0.247
-165.837	74.907	-0.132	-0.137
-164.823	-136.007	-0.130	0.015
-163.808	541.334	-0.117	-0.274
-162.793	-200.000	0.008	0.192
-161.779	685.239	0.134	-0.344
-160.764	-52.816	-0.127	-0.057
-159.750	104.718	-0.202	0.234
-158.735	-200.000	-0.037	0.285
-157.720	-82.401	0.220	0.070
-156.706	-0.709	-0.197	0.137
-155.691	-19.051	0.047	-0.029
-154.677	301.155	-0.080	0.145
-153.662	171.249	-0.198	0.280
-152.647	-57.511	0.230	-0.099
-151.633	258.655	0.126	0.214
-150.618	-137.266	-0.116	-0.013
-149.604	767.374	-0.040	-0.106
-148.589	-74.647	-0.122	-0.043
-147.574	128.401	-0.146	0.183
-146.560	-17.092	0.145	0.090
-145.545	-115.068	0.360	0.067
-144.531	56.041	-0.127	0.121
-143.516	238.075	0.113	-0.184
-142.502	-22.508	0.191	0.114
-141.487	-115.233	0.087	-0.016
-140.472	-88.388	-0.220	0.065
-139.458	-18.756	0.339	-0.208
-138.443	30.751	0.109	-0.092
-137.429	-200.000	-0.007	-0.118
-136.414	-168.273	0.227	-0.009
-135.399	-116.677	0.138	-0.025
-134.385	-90.358	0.169	-0.048
-133.370	-198.357	-0.119	-0.001
-132.356	67.801	0.034	-0.034
-131.341	-1.391	0.260	0.180
-130.326	-49.103	0.302	0.142
-129.312	227.132	0.169	0.270
-128.297	117.572	0.149	0.180
-127.283	126.171	-0.203	0.252
-126.268	-87.761	-0.209	-0.062
-125.253	97.443	-0.166	-0.187
-124.239	800.000	0.051	0.196
-123.224	418.427	0.144	0.302
-122.210	754.196	-0.066	-0.176
