DTS Sentinel unit serial number:	SN413079Multiplexer serial number:	ORYXHardware model number:	OX4-SRSoftware version number:	ORYX F/W v4.00 Oryx Data Collector v3.7.2.0data status	okinstallation	princeton_trtdifferential loss correction	single-endedforward channel	channel 3reverse channel	N/Adate	2019/09/12time	14:54:11forward acquisition time	60.00reverse acquisition time	0.00gamma	496.2192k internal	0.2293k external	0.2293temperature offset calibration	1.0053default loss term (dB/km)	0.3790temperature slope calibration	1.0000multiplexer offset coefficient	1.0000multiplexer slope coefficient	1.0000fibre end	0.00T internal ref (°C)	40.31T ext. ref 1 (°C)	2.32T ext. ref 2 (°C)	37.22length (m)	temperature (°C)	Stokes	anti-Stokes-747.200	-102.137	0.101	0.025
-746.185	-200.000	0.009	0.062
-745.171	800.000	0.105	0.308
-744.156	286.878	-0.142	0.263
-743.142	558.679	-0.143	0.353
-742.127	-200.000	0.052	0.474
-741.112	800.000	0.136	0.406
-740.098	292.964	-0.183	0.341
-739.083	-105.785	0.231	-0.053
-738.069	-200.000	0.005	0.430
-737.054	-53.480	0.289	0.135
-736.039	-200.000	0.029	0.189
-735.025	100.650	0.109	0.130
-734.010	-31.550	-0.020	-0.012
-732.996	74.291	0.091	-0.098
-731.981	209.113	-0.121	0.193
-730.966	-110.442	-0.430	-0.091
-729.952	-60.502	-0.344	0.149
-728.937	-111.457	0.152	-0.032
-727.923	-173.031	0.094	0.003
-726.908	45.608	-0.111	-0.105
-725.894	238.293	0.111	0.188
-724.879	-71.656	-0.185	0.071
-723.864	-94.011	-0.119	-0.033
-722.850	-100.153	0.270	0.069
-721.835	-156.094	-0.197	-0.013
-720.821	66.761	-0.086	-0.089
-719.806	69.660	0.046	0.048
-718.791	46.642	0.114	0.108
-717.777	-200.000	-0.004	-0.175
-716.762	219.954	-0.123	-0.201
-715.748	-200.000	0.033	-0.185
-714.733	-127.419	-0.239	0.036
-713.718	24.209	-0.216	-0.182
-712.704	-1.483	0.096	-0.069
-711.689	800.000	0.143	0.440
-710.675	-117.773	-0.168	-0.031
-709.660	308.445	0.108	-0.206
-708.645	100.775	0.317	-0.376
-707.631	412.855	0.177	-0.384
-706.616	716.046	0.021	0.058
-705.602	114.360	-0.158	-0.196
-704.587	-67.385	-0.294	0.118
-703.572	-24.802	0.097	-0.059
-702.558	-200.000	0.011	-0.130
-701.543	457.902	-0.155	0.352
-700.529	22.980	-0.274	-0.229
-699.514	-48.462	0.301	-0.148
-698.499	-67.598	-0.151	-0.060
-697.485	-103.327	-0.096	-0.023
-696.470	-200.000	-0.027	0.206
-695.456	-18.167	-0.245	0.156
-694.441	-200.000	-0.020	0.109
-693.426	160.678	0.055	0.078
-692.412	800.000	0.081	0.273
-691.397	-161.208	0.103	-0.005
-690.383	79.728	-0.185	-0.203
-689.368	243.685	-0.020	0.034
-688.354	-115.457	0.181	-0.035
-687.339	14.959	-0.065	0.052
-686.324	-179.095	-0.120	-0.003
-685.310	800.000	0.041	0.144
-684.295	-102.587	-0.455	-0.111
-683.281	-115.724	0.082	0.016
-682.266	19.439	-0.098	-0.080
-681.251	723.282	0.078	0.213
-680.237	800.000	-0.075	-0.243
-679.222	41.888	0.079	0.073
-678.208	60.583	0.106	-0.107
-677.193	800.000	0.048	-0.158
-676.178	-19.546	-0.235	0.148
-675.164	-200.000	0.002	0.056
-674.149	35.529	0.244	0.219
-673.135	347.031	0.115	-0.232
-672.120	14.159	-0.142	0.112
-671.105	-61.465	-0.037	-0.016
-670.091	-27.014	0.230	0.137
-669.076	-200.000	0.060	0.344
-668.062	-152.057	0.133	0.010
-667.047	21.882	0.151	0.125
-666.032	28.389	0.105	-0.090
-665.018	-200.000	0.011	0.081
-664.003	-8.098	0.053	-0.037
-662.989	370.401	0.019	-0.039
-661.974	-68.114	0.051	-0.020
-660.959	415.314	-0.026	0.057
-659.945	73.377	-0.151	0.161
-658.930	800.000	-0.083	-0.371
-657.916	567.314	-0.089	0.221
-656.901	-135.832	0.227	0.027
-655.886	-4.737	-0.124	-0.087
-654.872	32.963	-0.228	0.201
-653.857	-78.654	0.305	0.106
-652.843	545.744	-0.128	-0.312
-651.828	-52.324	-0.283	-0.133
-650.814	446.465	0.112	-0.252
-649.799	-122.031	0.463	0.077
-648.784	800.000	0.010	0.041
-647.770	430.906	0.043	-0.095
-646.755	-183.638	-0.245	-0.004
-645.741	-97.220	0.106	0.028
-644.726	-106.547	-0.067	0.015
-643.711	-40.704	-0.158	-0.083
-642.697	-44.789	0.118	-0.060
-641.682	-117.877	0.251	-0.046
-640.668	136.989	-0.100	-0.134
-639.653	800.000	0.109	0.382
-638.638	-200.000	-0.006	-0.095
-637.624	753.193	0.063	-0.173
-636.609	410.765	-0.184	0.397
-635.595	694.141	0.152	0.405
-634.580	-36.374	-0.201	-0.110
-633.565	800.000	0.106	-0.452
-632.551	5.578	-0.115	-0.086
-631.536	-163.348	-0.173	-0.008
-630.522	-200.000	0.420	-0.001
-629.507	200.092	0.059	0.092
-628.492	179.485	-0.115	0.171
-627.478	-200.000	0.021	0.000
-626.463	-22.013	0.303	0.187
-625.449	-88.148	0.120	-0.037
-624.434	-113.771	-0.247	0.049
-623.419	-140.751	-0.174	-0.018
-622.405	561.512	-0.129	-0.317
-621.390	85.128	0.071	-0.079
-620.376	-60.677	-0.118	-0.051
-619.361	-88.588	-0.211	-0.064
-618.346	58.804	-0.167	-0.167
-617.332	-200.000	-0.029	0.179
-616.317	66.537	-0.096	0.100
-615.303	-77.529	0.218	0.077
-614.288	118.686	0.120	0.151
-613.273	670.518	-0.016	-0.043
-612.259	-50.048	-0.322	-0.155
-611.244	-71.612	-0.074	0.028
-610.230	321.789	-0.088	-0.171
-609.215	247.241	0.129	0.222
-608.201	-158.820	0.054	0.003
-607.186	-61.379	-0.295	0.126
-606.171	503.885	-0.024	-0.057
-605.157	-120.046	0.114	-0.020
-604.142	-96.253	-0.189	-0.051
-603.128	-187.922	0.276	-0.004
-602.113	-200.000	0.007	-0.034
-601.098	-81.037	-0.278	-0.094
-600.084	-114.775	0.031	-0.006
-599.069	800.000	-0.036	-0.157
-598.055	-115.886	-0.058	-0.011
-597.040	-200.000	-0.010	-0.180
-596.025	544.390	0.051	-0.123
-595.011	567.522	0.094	0.231
-593.996	-200.000	-0.003	-0.087
-592.982	94.766	0.315	-0.364
-591.967	-82.088	0.172	-0.057
-590.952	58.545	-0.142	-0.142
-589.938	11.831	0.091	-0.071
-588.923	-200.000	-0.089	-0.484
-587.909	-70.759	0.230	-0.088
-586.894	800.000	0.027	0.118
-585.879	19.242	-0.281	-0.230
-584.865	-200.000	-0.003	0.041
-583.850	82.450	-0.083	0.091
-582.836	800.000	0.065	-0.242
-581.821	351.279	0.021	0.043
-580.806	154.575	-0.138	-0.193
-579.792	86.789	-0.249	0.279
-578.777	-65.178	0.238	-0.098
-577.763	-200.000	0.044	-0.455
-576.748	114.984	-0.207	-0.257
-575.733	259.815	0.071	-0.124
-574.719	179.670	-0.256	-0.382
-573.704	-35.175	-0.145	-0.080
-572.690	-65.680	0.270	0.110
-571.675	-0.007	-0.097	-0.070
-570.661	-134.355	-0.172	-0.021
-569.646	-93.780	0.281	-0.079
-568.631	-200.000	0.004	0.142
-567.617	709.952	0.101	-0.270
-566.602	290.301	0.056	0.103
-565.588	707.320	-0.074	0.199
-564.573	-187.322	0.210	0.003
-563.558	478.076	-0.071	-0.163
-562.544	-89.865	0.304	-0.090
-561.529	-200.000	-0.071	-0.406
-560.515	-24.215	0.082	-0.050
-559.500	-13.583	-0.178	0.117
-558.485	692.871	-0.139	-0.369
-557.471	-127.598	0.181	-0.027
-556.456	443.930	0.178	0.396
-555.442	-72.840	-0.160	0.060
-554.427	800.000	-0.081	-0.230
-553.412	-33.178	-0.143	0.080
-552.398	64.307	-0.034	0.035
-551.383	484.076	-0.133	-0.307
-550.369	800.000	-0.083	-0.267
-549.354	360.263	0.086	0.174
-548.339	800.000	0.021	-0.089
-547.325	67.141	-0.173	0.179
-546.310	-200.000	0.007	0.084
-545.296	-68.731	-0.060	-0.024
-544.281	-108.387	-0.144	-0.032
-543.266	800.000	-0.065	-0.229
-542.252	800.000	0.096	0.301
-541.237	-200.000	0.023	-0.267
-540.223	-192.440	-0.303	0.003
-539.208	149.085	0.113	-0.156
-538.193	-32.955	0.003	-0.002
-537.179	-200.000	-0.005	-0.149
-536.164	4.478	-0.101	-0.075
-535.150	213.957	0.061	0.097
-534.135	-84.413	-0.132	-0.042
-533.121	-115.942	-0.125	0.024
-532.106	-200.000	-0.009	0.112
-531.091	-121.880	0.212	0.035
-530.077	-48.938	-0.273	-0.133
-529.062	512.035	0.078	0.184
-528.048	654.564	-0.113	0.294
-527.033	-200.000	-0.006	0.384
-526.018	-178.185	0.071	0.002
-525.004	31.913	0.185	0.162
-523.989	800.000	0.036	-0.122
-522.975	-78.086	-0.236	-0.082
-521.960	-38.405	-0.099	-0.053
-520.945	-200.000	0.095	-0.441
-519.931	-68.652	0.090	0.035
-518.916	607.257	-0.057	0.145
-517.902	-12.858	0.465	0.307
-516.887	234.762	0.156	0.262
-515.872	-200.000	-0.026	0.141
-514.858	642.110	0.047	-0.121
-513.843	-29.459	-0.179	0.104
-512.829	800.000	0.100	0.435
-511.814	-14.881	0.095	0.062
-510.799	2.958	-0.164	-0.121
-509.785	-193.551	-0.231	-0.002
-508.770	800.000	-0.065	0.207
-507.756	-200.000	-0.000	0.194
-506.741	-48.096	0.372	0.182
-505.726	-95.628	-0.336	0.091
-504.712	-96.730	0.338	0.090
-503.697	48.853	-0.272	-0.258
-502.683	643.936	-0.089	-0.230
-501.668	316.520	-0.002	-0.003
-500.653	-75.742	-0.155	-0.056
-499.639	-48.252	-0.076	0.037
-498.624	324.758	0.163	0.316
-497.610	-20.206	0.458	0.286
-496.595	-124.745	0.113	-0.018
-495.581	157.318	-0.099	-0.139
-494.566	-200.000	0.025	-0.274
-493.551	-23.570	0.118	-0.072
-492.537	-83.998	0.327	0.105
-491.522	-43.998	-0.143	0.073
-490.508	-145.086	-0.249	-0.023
-489.493	336.612	-0.202	-0.397
-488.478	-200.000	0.025	0.458
-487.464	-200.000	-0.037	0.391
-486.449	3.547	-0.099	0.073
-485.435	700.574	-0.037	0.097
-484.420	-160.326	-0.489	-0.027
-483.405	342.824	0.172	-0.341
-482.391	-146.284	-0.072	-0.006
-481.376	343.759	0.021	0.042
-480.362	47.405	0.065	-0.061
-479.347	96.990	-0.140	0.163
-478.332	316.879	-0.052	0.100
-477.318	-161.167	0.541	0.029
-476.303	-83.791	-0.416	-0.134
-475.289	-123.348	-0.524	0.085
-474.274	-12.163	-0.035	-0.023
-473.259	-80.892	0.121	-0.041
-472.245	97.728	0.122	0.142
-471.230	-70.189	0.230	0.088
-470.216	-48.988	0.160	-0.077
-469.201	-124.753	0.101	0.016
-468.186	117.047	0.188	0.234
-467.172	800.000	-0.047	-0.148
-466.157	-45.853	0.384	0.192
-465.143	74.485	-0.177	0.188
-464.128	181.741	-0.093	-0.139
-463.113	-74.587	-0.217	0.079
-462.099	800.000	-0.054	0.156
-461.084	18.066	-0.089	0.072
-460.070	800.000	0.077	-0.308
-459.055	-98.669	0.207	-0.053
-458.040	-130.184	-0.239	0.033
-457.026	-138.613	0.256	-0.028
-456.011	-41.442	0.004	-0.002
-454.997	-200.000	0.035	0.244
-453.982	-54.030	-0.070	-0.032
-452.968	163.770	-0.018	0.026
-451.953	800.000	0.075	0.278
-450.938	135.795	0.177	-0.233
-449.924	-9.819	-0.376	-0.253
-448.909	-16.139	-0.108	0.069
-447.895	-168.065	-0.045	0.002
-446.880	-200.000	0.058	-0.273
-445.865	638.366	-0.058	-0.148
-444.851	-200.000	-0.015	0.167
-443.836	-49.762	-0.021	-0.010
-442.822	540.287	-0.083	-0.200
-441.807	-200.000	-0.013	-0.299
-440.792	-200.000	-0.039	-0.206
-439.778	210.279	0.156	-0.247
-438.763	800.000	0.016	-0.047
-437.749	-65.122	-0.262	0.107
-436.734	150.225	0.025	0.034
-435.719	63.586	0.166	0.168
-434.705	-200.000	-0.010	-0.317
-433.690	-29.673	0.319	-0.184
-432.676	-32.346	0.049	-0.028
-431.661	111.741	0.173	-0.212
-430.646	584.031	0.007	-0.018
-429.632	276.755	0.025	-0.045
-428.617	365.057	-0.085	0.173
-427.603	-200.000	-0.018	0.104
-426.588	55.562	0.196	0.191
-425.573	-98.434	0.279	-0.072
-424.559	139.886	-0.119	-0.159
-423.544	-97.264	0.144	0.038
-422.530	-200.000	-0.015	-0.140
-421.515	63.896	-0.265	0.269
-420.500	-111.465	-0.129	-0.026
-419.486	-94.636	-0.277	-0.076
-418.471	287.464	0.138	-0.251
-417.457	2.142	0.100	0.073
-416.442	-149.983	-0.424	0.033
-415.428	329.214	-0.099	-0.192
-414.413	-54.932	-0.055	0.025
-413.398	-8.408	-0.211	-0.144
-412.384	-125.075	0.278	0.043
-411.369	156.026	0.145	-0.202
-410.355	-70.885	0.074	-0.028
-409.340	-138.629	0.147	-0.016
-408.325	310.711	-0.279	-0.528
-407.311	44.714	0.172	0.159
-406.296	800.000	-0.022	0.070
-405.282	800.000	-0.070	-0.202
-404.267	369.846	0.153	-0.312
-403.252	-200.000	-0.045	-0.372
-402.238	-200.000	0.035	0.295
-401.223	-68.099	-0.175	0.069
-400.209	-94.683	0.323	-0.089
-399.194	-128.214	-0.316	0.046
-398.179	-200.000	0.012	-0.317
-397.165	-200.000	-0.012	0.200
-396.150	-117.567	0.216	-0.039
-395.136	-6.922	0.184	0.126
-394.121	332.322	0.150	0.292
-393.106	-30.791	0.260	0.148
-392.092	-105.509	0.206	0.047
-391.077	-95.289	-0.093	-0.025
-390.063	261.125	-0.064	0.111
-389.048	198.843	-0.166	0.257
-388.033	-61.073	-0.352	0.150
-387.019	5.466	0.118	0.088
-386.004	-27.146	0.260	-0.153
-384.990	-186.054	0.019	-0.000
-383.975	-7.375	0.206	-0.141
-382.960	1.042	-0.276	-0.200
-381.946	-77.421	-0.026	0.009
-380.931	-200.000	0.000	0.144
-379.917	-22.505	-0.308	0.188
-378.902	-166.938	0.330	-0.014
-377.888	322.127	-0.174	0.335
-376.873	207.557	0.051	0.081
-375.858	-200.000	-0.000	-0.074
-374.844	362.581	-0.130	0.263
-373.829	-200.000	0.001	0.014
-372.815	494.195	-0.118	-0.273
-371.800	800.000	-0.065	-0.249
-370.785	6.171	-0.042	0.032
-369.771	113.786	-0.044	0.054
-368.756	-42.711	0.105	-0.054
-367.742	-71.796	-0.244	0.092
-366.727	800.000	-0.041	0.123
-365.712	73.829	-0.050	0.053
-364.698	-200.000	-0.037	0.219
-363.683	275.233	-0.198	0.353
-362.669	-200.000	0.001	0.021
-361.654	2.128	0.248	0.181
-360.639	34.285	0.186	-0.164
-359.625	-200.000	0.007	0.134
-358.610	800.000	-0.035	-0.127
-357.596	50.516	-0.122	-0.117
-356.581	197.318	0.279	0.428
-355.566	-200.000	-0.030	-0.221
-354.552	-90.866	0.096	0.028
-353.537	-200.000	0.046	0.389
-352.523	4.877	0.379	0.281
-351.508	-97.257	0.020	0.005
-350.493	192.346	-0.120	-0.183
-349.479	29.613	0.398	0.341
-348.464	377.008	0.040	-0.083
-347.450	-72.711	-0.084	-0.031
-346.435	-170.089	0.153	-0.005
-345.420	-5.669	0.081	0.056
-344.406	-95.645	-0.124	-0.033
-343.391	-200.000	-0.031	0.142
-342.377	-66.952	0.154	-0.061
-341.362	800.000	-0.038	0.112
-340.348	-74.825	0.048	0.018
-339.333	4.820	-0.097	-0.072
-338.318	-177.673	0.104	0.003
-337.304	-106.278	0.320	0.072
-336.289	-147.701	-0.298	-0.025
-335.275	-20.642	0.069	-0.043
-334.260	96.027	0.079	0.091
-333.245	303.397	0.028	0.052
-332.231	-13.470	0.081	0.053
-331.216	500.346	0.109	0.253
-330.202	-200.000	0.012	0.349
-329.187	-117.940	-0.151	0.027
-328.172	24.857	0.253	-0.211
-327.158	-143.070	-0.131	-0.013
-326.143	148.478	-0.089	0.121
-325.129	516.138	-0.073	-0.171
-324.114	-116.412	-0.118	-0.022
-323.099	-200.000	-0.030	-0.260
-322.085	-200.000	0.026	0.205
-321.070	178.636	-0.101	-0.148
-320.056	-200.000	-0.027	0.163
-319.041	-44.734	-0.235	-0.118
-318.026	-25.540	0.117	0.069
-317.012	434.942	-0.146	0.320
-315.997	800.000	-0.021	0.070
-314.983	-200.000	-0.012	0.332
-313.968	-200.000	0.017	0.223
-312.953	-135.832	0.453	-0.054
-311.939	131.602	-0.064	0.082
-310.924	66.423	0.332	-0.339
-309.910	-86.937	-0.161	-0.050
-308.895	285.189	0.118	0.213
-307.880	452.566	-0.194	-0.431
-306.866	79.925	-0.184	-0.199
-305.851	-200.000	-0.035	-0.203
-304.837	609.236	-0.113	-0.285
-303.822	-200.000	0.009	-0.350
-302.807	800.000	-0.088	-0.323
-301.793	-46.059	-0.136	0.067
-300.778	-200.000	-0.024	0.132
-299.764	-29.938	-0.267	-0.153
-298.749	-114.508	0.067	-0.013
-297.735	-20.608	0.231	0.143
-296.720	204.129	0.071	-0.110
-295.705	-124.397	-0.092	-0.014
-294.691	-167.300	0.094	-0.004
-293.676	800.000	-0.044	0.165
-292.662	800.000	0.165	0.568
-291.647	800.000	0.071	0.286
-290.632	-200.000	-0.028	-0.456
-289.618	357.694	0.097	-0.195
-288.603	-200.000	0.014	0.230
-287.589	800.000	0.135	0.398
-286.574	8.452	0.183	0.138
-285.559	-105.071	-0.083	-0.019
-284.545	-53.952	-0.104	0.048
-283.530	-22.302	0.255	0.155
-282.516	76.654	-0.097	0.104
-281.501	-78.819	-0.064	0.022
-280.486	743.231	-0.063	-0.171
-279.472	-200.000	0.016	0.291
-278.457	-161.787	-0.042	-0.002
-277.443	303.704	0.127	-0.237
-276.428	40.527	0.164	-0.148
-275.413	52.966	0.139	0.134
-274.399	127.577	-0.028	0.036
-273.384	171.158	-0.105	0.151
-272.370	2.287	0.250	0.182
-271.355	228.109	0.295	0.482
-270.340	-91.543	0.294	0.084
-269.326	265.886	0.071	-0.124
-268.311	-200.000	-0.004	0.214
-267.297	149.221	0.064	-0.087
-266.282	24.089	-0.105	0.087
-265.267	192.452	0.130	0.196
-264.253	-138.613	0.154	0.017
-263.238	-64.610	0.363	-0.148
-262.224	87.059	-0.102	0.113
-261.209	800.000	0.074	0.290
-260.195	70.228	0.163	0.169
-259.180	-86.355	0.089	0.028
-258.165	141.603	-0.191	0.254
-257.151	28.591	-0.205	-0.174
-256.136	104.971	-0.106	0.125
-255.122	-73.020	0.098	0.036
-254.107	88.313	-0.043	0.048
-253.092	-200.000	-0.000	-0.093
-252.078	-126.681	0.101	0.015
-251.063	-200.000	0.030	0.211
-250.049	36.416	0.370	-0.327
-249.034	-200.000	-0.023	0.232
-248.019	-62.231	0.066	0.028
-247.005	800.000	-0.040	0.150
-245.990	71.907	0.074	-0.077
-244.976	-78.060	0.137	0.047
-243.961	-4.755	0.059	-0.041
-242.946	-200.000	-0.044	-0.370
-241.932	-149.274	-0.253	-0.020
-240.917	13.424	0.377	0.293
-239.903	800.000	-0.039	0.135
-238.888	-67.025	0.141	0.056
-237.873	136.919	0.059	-0.077
-236.859	-1.081	0.191	0.136
-235.844	-31.679	-0.047	-0.026
-234.830	151.576	-0.089	0.121
-233.815	-186.922	0.377	0.005
-232.800	8.341	-0.310	0.234
-231.786	28.980	-0.243	0.206
-230.771	415.375	0.080	0.170
-229.757	-9.503	-0.367	-0.246
-228.742	158.419	0.079	-0.110
-227.727	-117.415	-0.240	0.044
-226.713	-131.144	-0.192	0.026
-225.698	-200.000	-0.012	0.208
-224.684	4.086	0.216	-0.159
-223.669	465.279	-0.117	0.263
-222.655	6.933	0.032	0.024
-221.640	-200.000	0.006	-0.291
-220.625	274.037	-0.049	0.087
-219.611	-200.000	0.073	-0.424
-218.596	-111.252	0.223	0.046
-217.582	-76.962	-0.445	-0.156
-216.567	201.109	0.119	-0.183
-215.552	796.548	-0.004	0.011
-214.538	800.000	0.010	-0.040
-213.523	-141.144	-0.169	-0.017
-212.509	50.902	-0.298	-0.283
-211.494	-138.228	0.200	-0.022
-210.479	-200.000	-0.041	-0.192
-209.465	-115.765	0.219	-0.041
-208.450	157.423	-0.166	0.230
-207.436	-99.702	0.049	-0.012
-206.421	15.708	-0.400	-0.315
-205.406	-79.774	0.119	0.040
-204.392	-94.830	0.163	0.044
-203.377	219.930	0.168	0.270
-202.363	280.145	-0.195	-0.349
-201.348	691.251	0.083	0.219
-200.333	-53.623	-0.399	0.183
-199.319	-32.101	0.152	0.085
-198.304	-44.729	0.233	0.116
-197.290	469.612	-0.047	0.107
-196.275	-141.836	-0.256	0.026
-195.260	-15.745	-0.118	-0.075
-194.246	530.900	0.113	-0.268
-193.231	-62.857	-0.158	0.065
-192.217	-79.244	0.295	0.100
-191.202	101.739	0.151	-0.176
-190.187	116.374	-0.080	0.098
-189.173	547.766	-0.050	0.121
-188.158	2.696	0.561	-0.408
-187.144	800.000	-0.022	-0.066
-186.129	515.733	-0.133	-0.311
-185.114	44.892	-0.147	0.135
-184.100	-53.651	0.239	0.109
-183.085	-60.161	-0.162	-0.069
-182.071	449.632	-0.073	-0.161
-181.056	-34.916	-0.240	0.131
-180.042	-58.665	0.051	-0.022
-179.027	-102.495	-0.241	-0.058
-178.012	-112.305	0.057	-0.011
-176.998	671.005	-0.156	0.404
-175.983	-109.745	-0.328	0.069
-174.969	2.621	-0.142	-0.103
-173.954	-200.000	-0.045	0.289
-172.939	195.752	-0.097	0.148
-171.925	-30.484	-0.328	-0.186
-170.910	127.904	-0.156	-0.198
-169.896	-96.991	-0.221	0.058
-168.881	-40.492	0.065	0.034
-167.866	-56.063	-0.337	-0.150
-166.852	800.000	0.130	-0.439
-165.837	328.845	0.109	-0.210
-164.823	-84.018	-0.121	0.039
-163.808	800.000	0.047	0.168
-162.793	-112.593	-0.218	-0.043
-161.779	-187.945	0.218	0.003
-160.764	77.706	-0.126	-0.134
-159.750	-119.670	-0.429	-0.074
-158.735	-71.900	-0.174	0.065
-157.720	-41.921	0.378	-0.194
-156.706	-182.488	0.247	-0.005
-155.691	-77.878	-0.363	-0.125
-154.677	-44.445	0.084	-0.042
-153.662	57.222	0.112	0.110
-152.647	113.138	0.087	-0.106
-151.633	-27.497	0.220	-0.128
-150.618	800.000	-0.015	0.049
-149.604	159.772	0.113	0.158
-148.589	-200.000	-0.042	0.264
-147.574	17.626	0.236	-0.188
-146.560	-79.765	-0.171	0.057
-145.545	-200.000	0.002	0.188
-144.531	-84.123	0.549	0.174
-143.516	-20.766	-0.206	-0.126
-142.502	800.000	0.119	-0.441
-141.487	90.837	0.111	-0.125
-140.472	135.126	0.064	-0.084
-139.458	-41.524	0.332	-0.170
-138.443	130.277	0.083	-0.106
-137.429	-40.051	0.201	0.105
-136.414	-128.459	-0.047	0.007
-135.399	558.421	-0.096	0.232
-134.385	114.729	-0.134	-0.163
-133.370	106.347	-0.271	-0.321
-132.356	-200.000	0.042	0.353
-131.341	197.250	0.179	0.273
-130.326	-108.596	0.068	0.015
-129.312	-200.000	-0.062	0.286
-128.297	568.779	0.089	0.216
-127.283	800.000	0.090	0.263
-126.268	800.000	-0.031	0.093
-125.253	333.847	-0.150	-0.290
-124.239	138.805	-0.192	-0.252
-123.224	258.299	-0.175	0.301
-122.210	82.022	0.121	0.130
-121.195	-35.183	0.379	0.206
