DTS Sentinel unit serial number:	SN413079Multiplexer serial number:	ORYXHardware model number:	OX4-SRSoftware version number:	ORYX F/W v4.00 Oryx Data Collector v3.7.2.0data status	okinstallation	princeton_trtdifferential loss correction	single-endedforward channel	channel 3reverse channel	N/Adate	2019/09/12time	15:46:11forward acquisition time	60.00reverse acquisition time	0.00gamma	496.2192k internal	0.2296k external	0.2296temperature offset calibration	1.0067default loss term (dB/km)	0.3790temperature slope calibration	1.0000multiplexer offset coefficient	1.0000multiplexer slope coefficient	1.0000fibre end	0.00T internal ref (°C)	39.81T ext. ref 1 (°C)	2.46T ext. ref 2 (°C)	32.46length (m)	temperature (°C)	Stokes	anti-Stokes-747.200	-200.000	0.002	-0.071
-746.185	53.373	0.162	-0.159
-745.171	209.039	-0.109	-0.174
-744.156	-143.867	-0.111	0.011
-743.142	-122.182	0.306	-0.051
-742.127	800.000	-0.028	0.097
-741.112	6.299	0.058	0.044
-740.098	90.596	-0.212	-0.243
-739.083	-33.846	-0.244	0.137
-738.069	-200.000	-0.102	0.491
-737.054	5.610	0.159	-0.120
-736.039	4.405	0.199	-0.149
-735.025	172.143	-0.151	0.222
-734.010	-200.000	-0.052	-0.317
-732.996	-200.000	-0.004	0.068
-731.981	50.536	0.151	0.146
-730.966	-130.921	0.278	-0.038
-729.952	43.796	-0.246	-0.230
-728.937	531.251	0.008	0.018
-727.923	-200.000	0.008	0.047
-726.908	-200.000	0.001	0.049
-725.894	273.195	0.055	0.099
-724.879	41.412	0.195	-0.181
-723.864	-11.864	-0.196	0.131
-722.850	188.799	-0.106	-0.161
-721.835	-155.418	0.381	0.025
-720.821	-164.327	-0.160	-0.007
-719.806	-200.000	0.041	-0.189
-718.791	125.323	-0.136	0.175
-717.777	45.667	0.087	-0.082
-716.762	-15.880	-0.077	0.050
-715.748	-13.365	-0.191	-0.127
-714.733	15.834	-0.170	-0.137
-713.718	218.641	0.067	-0.110
-712.704	25.430	0.142	0.121
-711.689	-90.420	0.129	-0.038
-710.675	-200.000	-0.028	0.128
-709.660	-200.000	-0.056	0.299
-708.645	-109.290	0.475	0.103
-707.631	126.708	0.086	-0.111
-706.616	800.000	-0.044	0.189
-705.602	515.147	0.069	0.165
-704.587	-200.000	0.031	0.425
-703.572	-200.000	-0.014	0.156
-702.558	192.893	0.080	0.124
-701.543	214.387	-0.053	-0.086
-700.529	-200.000	0.007	0.110
-699.514	-197.273	-0.135	0.001
-698.499	-159.084	0.104	-0.006
-697.485	-143.711	0.238	-0.023
-696.470	-87.685	-0.112	-0.034
-695.456	25.185	-0.232	-0.197
-694.441	32.344	0.293	-0.258
-693.426	-200.000	0.010	0.222
-692.412	-127.500	-0.095	0.014
-691.397	-200.000	-0.012	-0.153
-690.383	-148.641	-0.462	0.038
-689.368	-101.885	-0.257	-0.063
-688.354	-200.000	-0.031	-0.222
-687.339	-126.013	0.193	0.030
-686.324	-200.000	0.021	-0.348
-685.310	-83.351	0.036	0.012
-684.295	340.595	0.166	0.331
-683.281	800.000	-0.089	0.339
-682.266	-80.020	-0.187	-0.064
-681.251	-29.320	0.068	0.040
-680.237	-133.778	-0.475	-0.060
-679.222	-158.389	0.175	0.010
-678.208	-109.015	-0.110	-0.024
-677.193	-146.270	0.173	-0.015
-676.178	-20.153	-0.235	-0.148
-675.164	-200.000	0.017	-0.191
-674.149	-16.762	-0.249	0.161
-673.135	-40.031	0.373	-0.198
-672.120	676.649	-0.095	-0.251
-671.105	-200.000	-0.015	-0.152
-670.091	73.703	-0.025	0.026
-669.076	-127.479	0.253	0.037
-668.062	263.042	0.137	0.242
-667.047	-134.562	0.272	0.034
-666.032	-94.751	0.244	0.067
-665.018	184.869	-0.207	-0.313
-664.003	-141.429	0.186	-0.019
-662.989	-200.000	-0.029	0.211
-661.974	-200.000	-0.015	-0.083
-660.959	800.000	-0.130	-0.404
-659.945	-134.942	-0.158	0.020
-658.930	5.201	-0.219	-0.164
-657.916	-200.000	-0.028	-0.228
-656.901	664.631	0.090	-0.237
-655.886	-104.806	-0.271	0.063
-654.872	28.725	-0.155	-0.133
-653.857	170.181	0.061	-0.088
-652.843	367.280	0.083	0.171
-651.828	-181.708	0.276	-0.005
-650.814	533.814	-0.063	0.152
-649.799	-84.586	0.250	0.080
-648.784	-200.000	0.076	0.000
-647.770	-65.015	-0.426	0.175
-646.755	-71.880	0.129	-0.049
-645.741	47.031	0.174	0.165
-644.726	-200.000	0.017	-0.409
-643.711	-200.000	-0.037	0.508
-642.697	800.000	0.039	0.142
-641.682	105.112	-0.179	-0.215
-640.668	1.659	0.158	-0.116
-639.653	93.916	-0.152	0.176
-638.638	-143.155	-0.180	-0.018
-637.624	-200.000	0.033	-0.165
-636.609	277.543	0.084	-0.153
-635.595	25.003	0.221	0.186
-634.580	-103.748	-0.206	-0.049
-633.565	-14.251	-0.196	-0.129
-632.551	81.409	0.015	-0.016
-631.536	1.368	-0.236	0.172
-630.522	236.746	-0.081	0.136
-629.507	-162.497	-0.205	-0.010
-628.492	289.687	-0.102	-0.189
-627.478	712.484	0.130	-0.351
-626.463	800.000	-0.032	0.133
-625.449	-16.086	-0.215	0.139
-624.434	800.000	-0.040	-0.131
-623.419	-200.000	-0.009	-0.046
-622.405	-40.163	-0.282	0.150
-621.390	449.369	-0.205	-0.460
-620.376	556.643	-0.075	-0.184
-619.361	49.058	-0.105	0.100
-618.346	-18.913	-0.350	-0.222
-617.332	-131.197	0.096	0.013
-616.317	-190.614	-0.355	-0.004
-615.303	-200.000	-0.026	-0.161
-614.288	213.010	0.235	-0.377
-613.273	-87.195	-0.123	0.038
-612.259	80.711	-0.033	0.036
-611.244	31.552	0.046	-0.040
-610.230	-181.873	0.427	0.008
-609.215	-24.295	0.172	-0.104
-608.201	157.452	0.088	0.123
-607.186	-200.000	0.001	-0.209
-606.171	-57.484	-0.188	-0.084
-605.157	-200.000	0.005	0.183
-604.142	178.511	0.131	-0.194
-603.128	73.120	-0.214	0.228
-602.113	76.155	-0.141	0.152
-601.098	348.227	0.168	0.337
-600.084	81.997	0.083	0.091
-599.069	537.574	-0.099	-0.239
-598.055	-151.545	-0.284	0.021
-597.040	-200.000	-0.019	-0.171
-596.025	-200.000	0.123	-0.621
-595.011	66.134	-0.139	-0.143
-593.996	43.984	-0.092	-0.085
-592.982	-135.419	-0.097	-0.012
-591.967	-200.000	-0.122	-0.000
-590.952	-168.209	0.239	0.009
-589.938	370.910	0.080	0.165
-588.923	565.768	0.094	0.233
-587.909	268.954	0.124	0.221
-586.894	-151.690	-0.324	0.024
-585.879	800.000	-0.072	-0.251
-584.865	74.676	0.077	-0.083
-583.850	-42.085	0.316	0.164
-582.836	-159.786	0.468	0.026
-581.821	-72.609	-0.137	-0.051
-580.806	-69.086	0.417	-0.163
-579.792	-18.039	0.320	-0.204
-578.777	-22.509	-0.237	0.146
-577.763	800.000	-0.060	0.183
-576.748	-17.767	0.136	0.087
-575.733	375.152	-0.059	0.122
-574.719	370.569	-0.033	0.069
-573.704	90.814	-0.077	0.087
-572.690	-157.133	-0.426	-0.026
-571.675	-200.000	0.004	-0.343
-570.661	733.322	0.033	-0.091
-569.646	800.000	-0.107	-0.460
-568.631	-21.978	0.149	-0.092
-567.617	-98.496	-0.070	0.018
-566.602	-157.176	0.153	0.009
-565.588	-31.691	-0.095	0.054
-564.573	149.341	0.158	-0.217
-563.558	8.184	-0.047	-0.036
-562.544	-138.656	0.242	-0.027
-561.529	315.206	-0.121	-0.232
-560.515	256.990	0.099	-0.172
-559.500	81.498	0.238	-0.261
-558.485	-39.357	0.200	-0.107
-557.471	1.002	-0.113	-0.082
-556.456	800.000	0.002	-0.007
-555.442	50.112	-0.236	-0.226
-554.427	136.322	-0.144	0.191
-553.412	-23.213	-0.245	-0.149
-552.398	167.325	-0.218	-0.314
-551.383	225.447	-0.054	-0.089
-550.369	-81.533	-0.098	0.033
-549.354	-200.000	-0.054	-0.291
-548.339	240.762	-0.139	-0.235
-547.325	-162.279	0.085	0.004
-546.310	381.959	-0.103	0.215
-545.296	303.854	0.148	0.278
-544.281	-159.192	-0.082	0.005
-543.266	114.210	0.215	-0.265
-542.252	-106.869	0.445	-0.100
-541.237	-123.090	-0.209	0.034
-540.223	-114.174	0.305	-0.060
-539.208	-99.608	0.214	0.055
-538.193	-72.497	0.321	-0.120
-537.179	239.734	-0.165	-0.278
-536.164	-153.606	-0.393	0.028
-535.150	-154.620	0.178	0.012
-534.135	-35.665	0.084	-0.046
-533.121	419.717	-0.086	0.187
-532.106	-142.799	-0.073	-0.007
-531.091	51.733	0.245	0.236
-530.077	-200.000	-0.041	0.404
-529.062	-200.000	-0.078	-0.370
-528.048	-25.791	0.017	0.010
-527.033	145.857	0.074	0.100
-526.018	800.000	-0.022	-0.079
-525.004	60.198	-0.091	0.091
-523.989	105.568	0.249	-0.298
-522.975	360.952	-0.093	-0.189
-521.960	288.161	-0.074	0.136
-520.945	-30.994	-0.110	0.063
-519.931	-149.001	0.203	0.017
-518.916	693.816	-0.042	-0.111
-517.902	118.109	-0.056	0.070
-516.887	-6.070	-0.117	-0.081
-515.872	-200.000	0.002	0.129
-514.858	-42.570	0.042	-0.022
-513.843	-103.988	0.256	0.060
-512.829	14.212	0.224	0.177
-511.814	800.000	-0.063	-0.192
-510.799	25.681	0.433	0.365
-509.785	-101.114	-0.149	0.037
-508.770	44.905	0.080	0.074
-507.756	284.857	0.225	-0.410
-506.741	148.033	0.084	-0.115
-505.726	-200.000	-0.025	0.377
-504.712	-82.211	-0.142	0.047
-503.697	-200.000	-0.018	0.171
-502.683	-200.000	-0.026	0.316
-501.668	800.000	0.092	0.271
-500.653	800.000	0.047	0.160
-499.639	29.484	-0.176	-0.152
-498.624	209.517	0.164	-0.261
-497.610	11.553	0.268	0.208
-496.595	-127.159	0.120	0.018
-495.581	-200.000	0.005	-0.062
-494.566	-200.000	0.030	-0.272
-493.551	-200.000	0.013	0.153
-492.537	681.746	-0.090	-0.238
-491.522	800.000	0.097	0.399
-490.508	-88.446	-0.208	0.063
-489.493	123.911	-0.217	0.275
-488.478	-148.599	-0.155	-0.013
-487.464	-124.571	-0.109	0.017
-486.449	25.273	-0.228	0.191
-485.435	104.560	0.098	-0.117
-484.420	769.387	-0.086	0.238
-483.405	199.904	0.076	0.118
-482.391	508.394	-0.123	0.289
-481.376	800.000	0.123	-0.403
-480.362	415.635	-0.228	-0.493
-479.347	116.540	-0.232	-0.287
-478.332	-200.000	-0.032	-0.238
-477.318	-99.829	-0.232	0.059
-476.303	77.743	0.168	0.181
-475.289	600.594	0.118	0.295
-474.274	51.288	-0.099	0.095
-473.259	-200.000	-0.004	-0.037
-472.245	409.472	0.140	-0.300
-471.230	-88.686	-0.243	0.073
-470.216	-200.000	0.012	-0.241
-469.201	152.019	-0.171	0.236
-468.186	163.653	0.051	-0.073
-467.172	-200.000	0.077	0.360
-466.157	-53.477	-0.141	0.065
-465.143	-200.000	-0.030	0.379
-464.128	-78.809	-0.157	0.054
-463.113	-200.000	-0.369	0.001
-462.099	70.099	-0.326	-0.341
-461.084	252.199	0.118	0.203
-460.070	800.000	-0.010	0.030
-459.055	800.000	-0.108	-0.471
-458.040	161.142	-0.080	0.113
-457.026	-45.723	-0.054	-0.027
-456.011	-183.400	-0.168	0.003
-454.997	218.091	-0.091	0.146
-453.982	-64.783	0.172	0.070
-452.968	800.000	0.071	0.278
-451.953	326.708	-0.047	-0.091
-450.938	-135.543	-0.337	0.041
-449.924	5.932	0.130	0.097
-448.909	800.000	0.160	-0.459
-447.895	147.417	-0.104	-0.141
-446.880	-200.000	0.002	0.156
-445.865	-18.569	0.188	0.119
-444.851	17.027	0.053	0.042
-443.836	-22.257	-0.169	0.103
-442.822	106.048	-0.301	0.360
-441.807	61.476	-0.209	0.210
-440.792	4.023	-0.278	-0.206
-439.778	307.444	0.030	0.056
-438.763	-21.253	-0.251	-0.155
-437.749	11.056	0.332	-0.257
-436.734	228.518	0.169	0.279
-435.719	122.912	-0.045	-0.057
-434.705	207.362	-0.159	-0.251
-433.690	209.854	-0.153	0.242
-432.676	309.067	-0.052	-0.099
-431.661	-65.370	0.265	-0.108
-430.646	-73.460	0.043	0.016
-429.632	-79.586	-0.322	0.110
-428.617	-50.944	-0.195	0.092
-427.603	-29.544	0.241	0.139
-426.588	-171.519	0.255	0.009
-425.573	-200.000	0.056	-0.275
-424.559	349.052	-0.073	0.145
-423.544	-20.476	-0.186	-0.116
-422.530	-200.000	-0.271	-0.000
-421.515	-200.000	-0.318	-0.000
-420.500	-200.000	0.069	0.327
-419.486	-200.000	-0.075	-0.363
-418.471	-127.207	0.438	-0.065
-417.457	-82.019	0.237	-0.078
-416.442	228.614	0.069	-0.114
-415.428	29.339	0.186	0.160
-414.413	48.296	-0.023	-0.022
-413.398	-57.894	0.037	0.016
-412.384	-142.473	-0.218	-0.022
-411.369	-200.000	-0.068	0.359
-410.355	-157.423	0.429	-0.026
-409.340	505.500	0.109	-0.254
-408.325	-91.210	0.135	-0.039
-407.311	-200.000	0.012	0.138
-406.296	736.125	-0.075	0.202
-405.282	-200.000	0.010	0.064
-404.267	362.647	-0.127	-0.256
-403.252	-42.614	0.127	-0.065
-402.238	-143.849	0.308	-0.029
-401.223	-78.755	0.205	0.070
-400.209	-89.156	-0.098	0.029
-399.194	-45.040	-0.090	0.045
-398.179	-200.000	0.022	0.209
-397.165	-119.936	0.201	-0.035
-396.150	187.824	0.052	-0.078
-395.136	-163.050	-0.463	-0.023
-394.121	203.232	0.103	-0.161
-393.106	50.738	0.206	0.197
-392.092	-11.567	0.287	0.190
-391.077	552.542	0.138	-0.334
-390.063	-150.621	-0.240	0.018
-389.048	-14.111	-0.208	-0.135
-388.033	174.108	0.083	0.121
-387.019	521.362	-0.114	0.269
-386.004	-123.425	-0.312	0.050
-384.990	-101.203	0.204	-0.050
-383.975	179.559	-0.092	0.136
-382.960	-101.802	0.339	0.083
-381.946	193.992	-0.166	-0.253
-380.931	58.164	0.144	0.142
-379.917	-200.000	-0.018	-0.168
-378.902	-121.296	-0.116	-0.019
-377.888	-200.000	0.014	0.181
-376.873	-55.115	0.217	0.098
-375.858	168.301	-0.191	0.274
-374.844	312.538	0.191	0.361
-373.829	-107.452	0.386	-0.085
-372.815	79.067	-0.227	0.244
-371.800	-19.309	-0.396	0.247
-370.785	-48.846	0.135	-0.065
-369.771	800.000	0.063	-0.200
-368.756	-200.000	-0.292	-0.001
-367.742	-1.399	-0.421	-0.299
-366.727	514.240	-0.126	0.296
-365.712	-52.533	-0.157	-0.073
-364.698	5.988	0.099	-0.074
-363.683	-62.178	0.201	-0.085
-362.669	800.000	-0.069	0.240
-361.654	-200.000	-0.002	0.202
-360.639	104.432	0.073	0.086
-359.625	205.297	0.210	-0.328
-358.610	-37.592	0.183	0.098
-357.596	82.197	-0.039	0.043
-356.581	-189.893	-0.246	0.003
-355.566	114.961	0.166	0.204
-354.552	91.605	-0.110	0.124
-353.537	-69.008	0.434	0.169
-352.523	392.837	0.031	0.064
-351.508	-17.114	0.012	0.008
-350.493	138.771	-0.268	0.355
-349.479	-200.000	-0.051	-0.301
-348.464	4.237	-0.118	-0.087
-347.450	800.000	0.053	0.198
-346.435	-200.000	-0.005	0.210
-345.420	471.773	0.047	-0.105
-344.406	-110.925	0.343	0.071
-343.391	322.527	0.140	-0.268
-342.377	177.008	0.139	-0.203
-341.362	69.625	0.109	-0.113
-340.348	21.790	-0.267	-0.218
-339.333	50.899	-0.236	-0.225
-338.318	-159.584	-0.157	0.009
-337.304	-39.663	-0.104	0.055
-336.289	800.000	0.063	0.209
-335.275	5.924	-0.140	0.104
-334.260	46.763	0.093	0.087
-333.245	-99.524	0.239	0.060
-332.231	149.675	0.134	-0.182
-331.216	-200.000	-0.062	0.300
-330.202	26.930	0.101	0.086
-329.187	256.511	0.099	-0.171
-328.172	49.375	-0.134	0.126
-327.158	152.084	0.158	-0.216
-326.143	-108.013	0.077	0.017
-325.129	285.033	-0.036	-0.065
-324.114	90.305	-0.051	0.058
-323.099	-200.000	-0.031	0.185
-322.085	598.042	-0.079	0.197
-321.070	-105.597	0.122	-0.028
-320.056	-24.926	-0.221	-0.132
-319.041	-13.523	-0.116	-0.076
-318.026	-57.872	0.576	0.253
-317.012	77.071	0.420	-0.448
-315.997	119.163	-0.222	-0.276
-314.983	454.091	0.070	0.157
-313.968	-52.576	0.296	-0.138
-312.953	-144.003	-0.433	0.041
-311.939	-200.000	0.026	0.187
-310.924	213.213	-0.164	0.260
-309.910	-85.995	0.504	-0.157
-308.895	-187.014	0.123	-0.002
-307.880	-84.581	-0.075	0.024
-306.866	-200.000	0.106	-0.515
-305.851	154.324	0.119	-0.164
-304.837	101.985	0.092	-0.108
-303.822	-1.110	0.219	0.156
-302.807	30.627	0.042	0.036
-301.793	-64.710	0.244	-0.099
-300.778	98.643	-0.074	0.086
-299.764	-200.000	-0.021	-0.379
-298.749	-145.109	0.111	0.010
-297.735	577.023	0.011	0.027
-296.720	-21.398	-0.254	0.156
-295.705	-104.149	0.222	0.052
-294.691	-160.504	0.037	0.002
-293.676	-184.624	-0.313	-0.005
-292.662	5.856	0.080	0.059
-291.647	-200.000	0.033	0.159
-290.632	-117.122	0.176	-0.032
-289.618	117.142	0.032	-0.039
-288.603	-32.562	0.174	-0.097
-287.589	-82.056	-0.036	0.012
-286.574	-70.204	0.142	0.054
-285.559	109.600	-0.064	0.078
-284.545	-54.481	0.109	0.050
-283.530	212.421	0.238	0.377
-282.516	-79.035	-0.466	-0.159
-281.501	101.421	-0.139	-0.162
-280.486	49.361	-0.087	0.082
-279.472	-200.000	-0.111	0.819
-278.457	15.983	0.075	-0.059
-277.443	800.000	0.039	-0.118
-276.428	-162.561	0.358	-0.018
-275.413	245.469	-0.168	-0.283
-274.399	-57.787	-0.242	-0.106
-273.384	51.832	0.284	0.271
-272.370	216.323	0.210	-0.335
-271.355	-110.490	0.289	-0.060
-270.340	-200.000	-0.028	-0.262
-269.326	517.229	-0.080	-0.187
-268.311	-33.187	-0.118	0.066
-267.297	-149.792	-0.236	-0.019
-266.282	-200.000	-0.036	0.321
-265.267	-13.431	0.169	0.110
-264.253	-200.000	-0.012	-0.425
-263.238	582.610	-0.079	0.194
-262.224	800.000	0.060	-0.171
-261.209	-51.122	-0.298	0.140
-260.195	-200.000	0.078	0.413
-259.180	-200.000	0.042	0.216
-258.165	137.042	-0.215	-0.282
-257.151	4.102	0.103	0.075
-256.136	-200.000	-0.033	-0.245
-255.122	-200.000	0.022	-0.100
-254.107	-113.557	-0.080	0.016
-253.092	-134.201	-0.099	-0.012
-252.078	800.000	-0.083	0.257
-251.063	-56.034	-0.283	-0.127
-250.049	-200.000	0.012	-0.060
-249.034	-139.696	0.228	0.024
-248.019	219.427	-0.107	-0.172
-247.005	761.649	-0.075	-0.203
-245.990	451.460	-0.061	0.135
-244.976	-157.859	-0.035	-0.002
-243.961	387.802	0.068	0.140
-242.946	-44.459	-0.162	0.081
-241.932	-200.000	-0.031	-0.305
-240.917	430.828	0.056	0.122
-239.903	298.655	0.098	-0.181
-238.888	-129.327	-0.132	-0.018
-237.873	-200.000	-0.029	-0.145
-236.859	-32.922	-0.343	-0.191
-235.844	137.030	-0.165	0.216
-234.830	62.384	-0.211	-0.211
-233.815	641.573	0.109	0.277
-232.800	-200.000	-0.011	0.099
-231.786	182.097	0.137	0.202
-230.771	-200.000	0.016	0.176
-229.757	-200.000	0.026	-0.148
-228.742	8.920	-0.169	0.128
-227.727	86.976	0.191	-0.211
-226.713	100.883	0.212	0.246
-225.698	-146.593	-0.412	-0.036
-224.684	-37.284	-0.119	-0.064
-223.669	-200.000	-0.006	-0.048
-222.655	-61.007	-0.346	0.146
-221.640	-119.561	-0.189	-0.033
-220.625	800.000	-0.073	-0.247
-219.611	-122.303	0.397	-0.065
-218.596	207.997	-0.106	0.166
-217.582	-7.122	-0.066	-0.045
-216.567	85.655	-0.252	0.277
-215.552	-91.773	-0.189	0.054
-214.538	86.878	-0.040	-0.044
-213.523	800.000	0.023	0.069
-212.509	800.000	0.046	0.143
-211.494	-107.224	0.349	0.077
-210.479	-22.074	-0.114	0.069
-209.465	470.296	-0.018	0.040
-208.450	155.097	0.093	-0.128
-207.436	238.446	0.170	-0.282
-206.421	1.135	0.317	0.228
-205.406	-177.822	-0.237	-0.006
-204.392	61.222	0.280	0.278
-203.377	-200.000	0.043	0.228
-202.363	26.773	0.238	-0.200
-201.348	-55.469	-0.329	-0.148
-200.333	-96.214	0.222	-0.059
-199.319	-200.000	-0.073	0.376
-198.304	146.330	0.224	-0.301
-197.290	669.149	0.124	0.322
-196.275	-83.185	-0.191	-0.061
-195.260	133.495	0.171	-0.221
-194.246	-158.100	0.291	-0.017
-193.231	-59.154	-0.348	-0.150
-192.217	-81.290	0.232	-0.077
-191.202	-170.490	-0.270	-0.009
-190.187	73.538	0.166	-0.174
-189.173	120.706	-0.180	0.223
-188.158	-144.007	0.256	0.024
-187.144	-78.168	0.272	-0.093
-186.129	92.275	0.175	0.197
-185.114	-125.987	-0.054	-0.008
-184.100	800.000	-0.139	0.400
-183.085	800.000	-0.053	0.197
-182.071	421.951	-0.110	-0.236
-181.056	-200.000	-0.018	-0.317
-180.042	124.414	-0.139	-0.174
-179.027	-200.000	-0.007	-0.047
-178.012	-46.712	0.474	0.232
-176.998	800.000	-0.029	0.086
-175.983	712.517	0.038	-0.100
-174.969	800.000	0.128	-0.467
-173.954	364.255	-0.050	0.100
-172.939	17.016	0.137	-0.108
-171.925	-41.324	0.117	0.060
-170.910	345.309	-0.064	-0.125
-169.896	-11.472	0.162	0.107
-168.881	105.023	-0.138	0.163
-167.866	708.198	-0.083	0.218
-166.852	-179.014	-0.155	0.003
-165.837	-72.504	-0.101	0.037
-164.823	474.966	0.121	-0.273
-163.808	84.047	0.332	-0.362
-162.793	-200.000	0.017	0.388
-161.779	523.946	-0.107	0.250
-160.764	-200.000	-0.043	0.380
-159.750	-31.730	-0.208	0.116
-158.735	-200.000	0.440	0.002
-157.720	-30.235	-0.253	0.144
-156.706	49.013	0.246	0.231
-155.691	-200.000	0.012	-0.343
-154.677	-77.884	0.344	-0.118
-153.662	60.649	0.031	-0.030
-152.647	-171.435	0.064	-0.002
-151.633	-95.927	-0.327	-0.087
-150.618	800.000	0.052	0.159
-149.604	50.558	-0.251	0.237
-148.589	-200.000	0.007	0.372
-147.574	-200.000	0.029	-0.316
-146.560	511.699	0.037	-0.087
-145.545	188.109	-0.053	-0.078
-144.531	-165.070	0.276	0.012
-143.516	-200.000	-0.068	0.466
-142.502	-200.000	0.008	-0.048
-141.487	-44.133	-0.083	0.042
-140.472	530.550	-0.080	0.188
-139.458	-105.106	0.221	-0.050
-138.443	-200.000	-0.000	0.268
-137.429	800.000	0.050	0.195
-136.414	31.369	0.068	-0.058
-135.399	-106.798	0.344	-0.076
-134.385	45.737	-0.410	-0.378
-133.370	-200.000	0.027	0.128
-132.356	486.512	-0.186	0.422
-131.341	-48.476	0.345	-0.166
-130.326	24.804	-0.295	-0.244
-129.312	-200.000	-0.002	-0.098
-128.297	287.872	0.121	0.218
-127.283	-200.000	-0.020	-0.127
-126.268	-200.000	-0.021	-0.422
-125.253	6.778	0.051	-0.038
-124.239	-30.657	-0.263	-0.149
-123.224	-17.785	0.244	-0.152
-122.210	8.242	0.066	-0.049
