DTS Sentinel unit serial number:	SN413079Multiplexer serial number:	ORYXHardware model number:	OX4-SRSoftware version number:	ORYX F/W v4.00 Oryx Data Collector v3.7.2.0data status	okinstallation	princeton_trtdifferential loss correction	single-endedforward channel	channel 3reverse channel	N/Adate	2019/09/13time	18:00:35forward acquisition time	60.00reverse acquisition time	0.00gamma	496.2192k internal	0.2307k external	0.2307temperature offset calibration	1.0125default loss term (dB/km)	0.3790temperature slope calibration	1.0000multiplexer offset coefficient	1.0000multiplexer slope coefficient	1.0000fibre end	0.00T internal ref (°C)	34.98T ext. ref 1 (°C)	4.73T ext. ref 2 (°C)	27.78length (m)	temperature (°C)	Stokes	anti-Stokes-747.200	25.490	0.211	-0.178
-746.185	53.854	-0.186	0.182
-745.171	-120.614	-0.138	0.024
-744.156	88.056	-0.024	-0.027
-743.142	-108.124	-0.037	-0.008
-742.127	-200.000	0.031	0.198
-741.112	-27.479	0.175	-0.103
-740.098	-69.869	-0.261	0.101
-739.083	-23.425	-0.227	0.139
-738.069	-200.000	0.025	0.218
-737.054	3.807	0.100	0.074
-736.039	-107.633	-0.161	-0.036
-735.025	-70.923	0.094	-0.036
-734.010	33.992	-0.283	-0.250
-732.996	696.851	0.046	-0.122
-731.981	-58.324	0.112	-0.049
-730.966	-200.000	0.043	-0.508
-729.952	-200.000	-0.030	-0.355
-728.937	-30.580	-0.392	-0.225
-727.923	-140.650	-0.077	0.008
-726.908	797.527	0.074	-0.206
-725.894	-170.417	-0.091	0.003
-724.879	134.288	0.410	-0.540
-723.864	7.247	-0.123	0.094
-722.850	-158.787	-0.378	-0.022
-721.835	-200.000	-0.002	0.131
-720.821	800.000	-0.127	-0.415
-719.806	-139.780	0.093	0.010
-718.791	182.680	0.150	-0.225
-717.777	370.642	-0.093	-0.192
-716.762	-116.288	-0.151	0.028
-715.748	574.310	-0.144	0.356
-714.733	-200.000	-0.008	-0.132
-713.718	-54.724	-0.116	-0.053
-712.704	-113.456	-0.391	-0.078
-711.689	228.980	0.090	-0.150
-710.675	134.044	-0.216	0.284
-709.660	-33.508	0.117	-0.066
-708.645	-142.532	-0.100	0.010
-707.631	-200.000	-0.004	-0.239
-706.616	-149.455	-0.231	-0.019
-705.602	418.072	0.113	0.245
-704.587	-186.234	0.152	-0.002
-703.572	-113.669	0.332	0.066
-702.558	16.205	0.294	-0.235
-701.543	-152.571	0.139	-0.010
-700.529	-200.000	0.035	-0.217
-699.514	176.326	-0.109	-0.160
-698.499	-200.000	0.018	-0.177
-697.485	22.994	-0.054	0.045
-696.470	2.382	0.351	0.258
-695.456	-64.594	-0.067	0.028
-694.441	50.057	0.106	0.101
-693.426	-112.700	-0.190	-0.038
-692.412	-105.206	0.124	0.029
-691.397	-200.000	-0.016	-0.189
-690.383	-200.000	-0.029	-0.211
-689.368	-200.000	0.012	0.079
-688.354	403.044	-0.050	-0.108
-687.339	264.700	0.168	-0.298
-686.324	-24.933	-0.263	0.159
-685.310	-200.000	0.040	-0.240
-684.295	-121.316	0.065	-0.011
-683.281	-11.905	0.127	-0.084
-682.266	-90.622	0.429	0.126
-681.251	-52.574	-0.187	-0.088
-680.237	-200.000	-0.004	-0.023
-679.222	-79.853	-0.088	0.030
-678.208	-125.020	-0.168	0.026
-677.193	84.525	0.100	0.111
-676.178	-200.000	0.027	0.163
-675.164	-45.617	-0.347	0.174
-674.149	-23.360	-0.177	-0.108
-673.135	-200.000	0.021	-0.293
-672.120	6.446	-0.314	0.237
-671.105	800.000	0.024	0.069
-670.091	-200.000	0.003	-0.128
-669.076	-99.524	-0.378	0.096
-668.062	126.832	0.190	-0.244
-667.047	-87.146	-0.176	-0.054
-666.032	-200.000	-0.040	-0.192
-665.018	184.581	0.024	0.036
-664.003	800.000	-0.086	0.277
-662.989	-92.295	0.187	-0.053
-661.974	49.888	0.148	0.142
-660.959	145.139	-0.147	-0.199
-659.945	-124.927	0.249	0.039
-658.930	661.994	0.031	0.082
-657.916	-200.000	0.007	0.269
-656.901	705.923	0.010	0.026
-655.886	-97.730	-0.238	0.062
-654.872	-200.000	-0.030	-0.168
-653.857	-79.790	0.240	0.082
-652.843	-29.561	0.357	0.207
-651.828	82.484	-0.236	-0.259
-650.814	-142.951	-0.172	0.017
-649.799	-45.234	0.088	0.045
-648.784	-200.000	0.031	-0.360
-647.770	16.050	-0.208	-0.166
-646.755	5.695	-0.258	0.193
-645.741	133.134	0.149	0.194
-644.726	14.681	0.251	-0.199
-643.711	35.046	0.133	-0.118
-642.697	-81.108	0.286	0.096
-641.682	-137.185	-0.414	-0.048
-640.668	10.896	0.071	0.055
-639.653	223.122	-0.056	-0.092
-638.638	-200.000	0.016	0.301
-637.624	-200.000	0.028	-0.143
-636.609	-97.829	0.052	0.014
-635.595	80.828	-0.262	0.286
-634.580	-200.000	0.005	0.460
-633.565	-109.867	0.192	0.041
-632.551	-200.000	0.017	-0.213
-631.536	-200.000	-0.038	0.171
-630.522	-37.583	-0.344	0.186
-629.507	-174.505	-0.139	-0.004
-628.492	67.026	-0.065	-0.067
-627.478	315.040	-0.125	-0.238
-626.463	213.415	-0.167	-0.267
-625.449	250.557	-0.183	-0.315
-624.434	1.526	0.144	-0.105
-623.419	263.934	-0.176	-0.309
-622.405	-64.900	0.260	0.107
-621.390	-200.000	-0.023	0.198
-620.376	-7.697	0.238	0.163
-619.361	-128.266	-0.100	0.014
-618.346	-90.664	-0.290	0.085
-617.332	-84.681	0.274	0.087
-616.317	-56.392	-0.173	-0.078
-615.303	-27.136	0.153	0.091
-614.288	472.388	-0.120	0.274
-613.273	-58.079	-0.312	-0.138
-612.259	58.885	-0.089	-0.089
-611.244	275.404	-0.046	0.082
-610.230	-200.000	-0.039	-0.223
-609.215	-74.252	-0.228	-0.083
-608.201	146.836	0.108	-0.147
-607.186	-122.317	0.084	-0.014
-606.171	245.576	-0.136	-0.232
-605.157	127.107	-0.344	-0.441
-604.142	-90.319	0.102	-0.030
-603.128	-1.584	0.150	0.107
-602.113	531.794	0.047	0.113
-601.098	-33.046	0.180	0.101
-600.084	-84.093	-0.158	0.051
-599.069	800.000	0.043	-0.191
-598.055	-101.041	-0.153	-0.038
-597.040	242.960	0.182	0.308
-596.025	800.000	-0.015	0.066
-595.011	-200.000	-0.088	0.393
-593.996	-56.986	0.163	0.073
-592.982	-173.849	-0.199	-0.006
-591.967	48.463	0.174	-0.165
-590.952	60.706	-0.294	-0.295
-589.938	489.410	0.051	-0.118
-588.923	88.498	0.105	0.118
-587.909	127.497	0.187	0.240
-586.894	-200.000	-0.001	0.174
-585.879	474.119	0.092	-0.209
-584.865	333.100	0.098	0.192
-583.850	800.000	0.024	0.095
-582.836	-45.740	-0.154	-0.077
-581.821	-62.039	0.164	-0.069
-580.806	189.094	0.051	0.077
-579.792	-91.288	0.137	-0.040
-578.777	-200.000	-0.144	-0.001
-577.763	-64.562	-0.236	0.097
-576.748	-13.544	0.207	-0.136
-575.733	99.125	-0.148	-0.173
-574.719	-39.632	0.184	-0.098
-573.704	-124.696	-0.131	-0.021
-572.690	800.000	-0.050	0.177
-571.675	122.376	-0.125	-0.158
-570.661	-200.000	-0.025	-0.305
-569.646	47.407	-0.040	0.037
-568.631	-200.000	0.008	-0.082
-567.617	-100.816	0.325	0.081
-566.602	-80.877	0.358	-0.120
-565.588	-20.067	-0.167	0.104
-564.573	26.071	0.083	-0.070
-563.558	-84.815	0.169	0.054
-562.544	204.676	0.183	-0.287
-561.529	800.000	-0.109	-0.449
-560.515	-52.091	-0.239	0.112
-559.500	-110.959	-0.313	-0.065
-558.485	-118.660	-0.227	-0.040
-557.471	455.034	-0.095	-0.213
-556.456	354.100	-0.042	0.085
-555.442	-174.261	-0.250	-0.007
-554.427	-200.000	-0.012	0.091
-553.412	-0.968	-0.049	0.035
-552.398	261.071	0.118	0.207
-551.383	-52.905	-0.044	-0.021
-550.369	-79.128	0.097	-0.033
-549.354	-136.913	-0.166	0.019
-548.339	-200.000	-0.000	0.018
-547.325	-94.898	-0.267	0.073
-546.310	1.366	-0.090	0.066
-545.296	-86.465	0.144	0.045
-544.281	691.596	0.125	-0.331
-543.266	334.561	0.100	-0.195
-542.252	1.927	0.099	0.072
-541.237	800.000	-0.015	-0.064
-540.223	208.229	0.080	0.127
-539.208	-130.689	0.352	-0.048
-538.193	92.779	0.527	0.601
-537.179	-63.861	-0.191	-0.079
-536.164	-102.273	-0.185	0.045
-535.150	800.000	-0.022	-0.087
-534.135	800.000	0.041	-0.171
-533.121	39.198	0.198	-0.179
-532.106	-200.000	0.006	-0.066
-531.091	-55.653	-0.159	-0.072
-530.077	-200.000	0.011	0.124
-529.062	294.289	-0.099	-0.182
-528.048	55.543	-0.134	0.131
-527.033	-84.397	-0.181	0.058
-526.018	639.717	-0.079	0.203
-525.004	37.287	-0.090	0.080
-523.989	800.000	-0.139	0.425
-522.975	348.373	-0.064	0.127
-521.960	-54.534	0.489	-0.223
-520.945	-42.547	0.131	0.067
-519.931	-200.000	-0.023	-0.148
-518.916	21.100	0.207	-0.170
-517.902	-200.000	0.004	-0.052
-516.887	596.060	-0.026	0.065
-515.872	-28.767	-0.179	0.104
-514.858	-34.022	0.207	-0.115
-513.843	-200.000	0.021	0.207
-512.829	21.059	0.136	0.111
-511.814	82.256	0.125	-0.136
-510.799	57.808	-0.260	0.256
-509.785	-200.000	0.024	-0.143
-508.770	11.854	-0.204	-0.158
-507.756	57.736	0.171	-0.169
-506.741	-200.000	-0.012	0.101
-505.726	800.000	0.072	0.218
-504.712	-75.515	0.094	0.034
-503.697	-31.668	0.378	0.214
-502.683	171.536	-0.142	-0.205
-501.668	800.000	0.040	0.137
-500.653	-96.619	-0.203	0.054
-499.639	43.082	0.163	0.150
-498.624	107.130	-0.135	0.162
-497.610	119.169	0.204	-0.254
-496.595	-36.639	0.095	0.051
-495.581	70.259	-0.026	-0.027
-494.566	-63.332	-0.188	-0.078
-493.551	800.000	0.034	0.103
-492.537	-200.000	-0.009	-0.311
-491.522	-200.000	0.013	0.103
-490.508	-91.554	-0.237	-0.068
-489.493	-84.228	0.077	0.025
-488.478	114.916	0.097	0.119
-487.464	17.390	0.345	-0.276
-486.449	-32.234	-0.288	-0.162
-485.435	-54.957	-0.141	-0.064
-484.420	484.618	0.043	-0.099
-483.405	457.406	0.142	-0.318
-482.391	210.089	-0.157	0.248
-481.376	177.757	0.109	0.160
-480.362	83.435	0.191	-0.210
-479.347	800.000	-0.066	0.198
-478.332	-165.038	0.115	0.005
-477.318	-110.017	0.075	0.016
-476.303	249.387	-0.048	0.082
-475.289	57.729	-0.040	0.040
-474.274	-43.327	0.033	0.017
-473.259	310.057	0.057	0.107
-472.245	45.335	0.231	0.215
-471.230	145.666	-0.093	0.125
-470.216	-116.100	-0.353	-0.066
-469.201	-67.781	0.224	-0.088
-468.186	98.951	0.129	0.149
-467.172	-90.276	-0.177	0.052
-466.157	-152.364	0.469	0.034
-465.143	-200.000	-0.075	-0.461
-464.128	177.260	0.148	-0.216
-463.113	-126.199	-0.228	-0.034
-462.099	117.066	0.295	0.364
-461.084	-200.000	-0.012	-0.085
-460.070	-135.480	0.162	-0.019
-459.055	-200.000	0.013	-0.075
-458.040	-200.000	0.063	-0.283
-457.026	51.219	0.243	-0.232
-456.011	-117.677	0.147	-0.027
-454.997	139.478	-0.171	-0.226
-453.982	-200.000	-0.058	-0.666
-452.968	-10.960	0.283	0.188
-451.953	661.697	0.159	0.411
-450.938	-200.000	0.017	0.147
-449.924	175.593	-0.148	-0.215
-448.909	-67.743	0.233	-0.092
-447.895	-116.081	0.240	0.045
-446.880	54.351	0.269	0.260
-445.865	483.778	0.125	-0.287
-444.851	313.406	0.136	0.257
-443.836	178.721	-0.116	0.170
-442.822	-186.934	-0.137	0.002
-441.807	-200.000	-0.047	0.208
-440.792	2.751	0.131	-0.095
-439.778	-180.455	0.305	0.006
-438.763	760.679	-0.097	0.265
-437.749	-69.998	0.162	-0.062
-436.734	800.000	0.044	0.158
-435.719	127.614	-0.065	0.082
-434.705	-104.150	0.343	-0.080
-433.690	569.293	0.077	-0.188
-432.676	-200.000	0.004	0.277
-431.661	-134.870	0.590	-0.072
-430.646	445.574	-0.194	0.428
-429.632	-164.524	-0.407	-0.019
-428.617	206.317	-0.095	-0.149
-427.603	-200.000	-0.003	-0.292
-426.588	-188.622	0.145	-0.002
-425.573	-65.244	-0.151	-0.061
-424.559	-83.956	0.363	-0.116
-423.544	236.369	0.153	-0.254
-422.530	280.491	0.154	-0.277
-421.515	26.083	0.158	-0.132
-420.500	-104.550	-0.329	-0.076
-419.486	-200.000	-0.055	-0.243
-418.471	17.687	0.070	-0.056
-417.457	800.000	0.059	0.167
-416.442	-41.463	-0.182	-0.094
-415.428	-97.153	-0.245	-0.064
-414.413	-75.008	0.121	0.043
-413.398	-200.000	0.002	0.044
-412.384	-151.879	-0.125	-0.009
-411.369	371.870	-0.078	0.159
-410.355	-200.000	-0.015	0.181
-409.340	-20.523	-0.161	-0.099
-408.325	-200.000	0.002	-0.020
-407.311	-200.000	-0.020	0.094
-406.296	-200.000	-0.018	-0.135
-405.282	15.592	-0.093	0.073
-404.267	3.588	-0.109	0.080
-403.252	26.681	0.135	0.113
-402.238	114.313	0.162	-0.198
-401.223	-79.506	-0.358	-0.121
-400.209	-200.000	0.048	-0.259
-399.194	-61.597	-0.128	0.054
-398.179	-200.000	0.069	0.318
-397.165	19.991	0.122	-0.099
-396.150	-103.348	0.166	-0.039
-395.136	91.549	-0.250	-0.282
-394.121	800.000	-0.085	-0.256
-393.106	318.146	-0.060	-0.113
-392.092	-200.000	0.015	-0.102
-391.077	48.809	-0.251	0.236
-390.063	800.000	-0.124	0.434
-389.048	800.000	0.020	0.065
-388.033	-200.000	0.038	0.310
-387.019	74.520	0.024	-0.025
-386.004	21.153	-0.209	0.170
-384.990	151.764	0.098	-0.134
-383.975	-200.000	0.023	-0.406
-382.960	110.097	-0.123	0.149
-381.946	-72.910	-0.449	0.166
-380.931	438.148	0.028	0.062
-379.917	800.000	0.047	-0.182
-378.902	800.000	-0.164	0.454
-377.888	-98.383	-0.154	-0.040
-376.873	-32.357	-0.297	0.166
-375.858	25.493	0.329	0.274
-374.844	-66.508	0.219	0.087
-373.829	165.650	0.138	0.195
-372.815	107.843	-0.153	0.182
-371.800	-139.888	-0.124	0.013
-370.785	119.091	0.188	0.233
-369.771	-16.796	0.048	0.031
-368.756	-77.094	-0.073	0.026
-367.742	-63.984	-0.144	0.059
-366.727	2.838	-0.104	-0.075
-365.712	-29.719	0.266	0.152
-364.698	196.345	0.114	0.175
-363.683	343.999	-0.060	-0.118
-362.669	43.872	-0.138	0.127
-361.654	-103.902	-0.011	-0.003
-360.639	-200.000	0.006	0.114
-359.625	135.416	-0.324	-0.422
-358.610	-70.066	0.210	-0.080
-357.596	229.227	-0.124	-0.203
-356.581	-98.323	-0.252	0.065
-355.566	109.320	-0.095	-0.113
-354.552	158.960	0.144	0.201
-353.537	377.292	-0.054	-0.110
-352.523	166.624	-0.083	0.118
-351.508	-146.405	0.258	0.023
-350.493	124.952	-0.181	0.229
-349.479	308.055	-0.024	-0.045
-348.464	25.349	-0.162	-0.135
-347.450	126.781	-0.084	-0.107
-346.435	-121.079	0.174	-0.029
-345.420	-196.528	-0.398	-0.003
-344.406	20.208	-0.127	-0.103
-343.391	10.419	-0.141	-0.107
-342.377	-139.193	0.352	0.038
-341.362	800.000	0.035	-0.121
-340.348	447.701	0.028	0.062
-339.333	-146.228	-0.353	-0.031
-338.318	176.140	-0.170	0.248
-337.304	529.071	0.100	-0.236
-336.289	215.881	-0.133	0.212
-335.275	-95.780	0.214	0.057
-334.260	-127.277	0.157	-0.023
-333.245	-75.325	0.272	0.097
-332.231	7.008	0.296	-0.221
-331.216	-82.552	0.029	0.009
-330.202	-154.639	-0.120	0.008
-329.187	-129.423	0.035	0.005
-328.172	-69.929	0.388	-0.148
-327.158	-36.887	-0.121	-0.065
-326.143	101.608	-0.089	0.103
-325.129	454.237	0.197	0.436
-324.114	423.148	-0.049	-0.105
-323.099	800.000	-0.006	0.023
-322.085	233.650	-0.058	0.096
-321.070	683.593	-0.125	0.326
-320.056	-200.000	-0.001	-0.057
-319.041	-69.716	-0.100	-0.038
-318.026	-97.086	0.120	0.031
-317.012	-200.000	-0.005	-0.118
-315.997	800.000	0.036	-0.104
-314.983	-200.000	0.050	0.590
-313.968	20.491	0.216	-0.175
-312.953	-200.000	0.031	-0.172
-311.939	-13.564	0.414	0.268
-310.924	-110.053	0.107	-0.022
-309.910	-70.702	-0.112	0.042
-308.895	182.442	-0.406	-0.599
-307.880	800.000	-0.046	0.165
-306.866	-200.000	0.063	0.411
-305.851	-200.000	-0.077	0.575
-304.837	-135.652	0.218	-0.026
-303.822	695.918	-0.067	0.177
-302.807	800.000	0.033	-0.108
-301.793	483.899	-0.033	0.075
-300.778	187.594	0.169	0.252
-299.764	800.000	0.083	-0.243
-298.749	-67.508	-0.192	0.075
-297.735	33.708	0.067	-0.059
-296.720	-200.000	0.056	-0.248
-295.705	-88.207	-0.440	-0.132
-294.691	-200.000	-0.065	-0.414
-293.676	-15.109	-0.182	-0.116
-292.662	-79.349	-0.211	-0.071
-291.647	207.030	-0.374	0.582
-290.632	-200.000	0.048	-0.357
-289.618	-92.491	0.569	-0.160
-288.603	-49.610	0.273	0.130
-287.589	-108.662	0.138	-0.030
-286.574	2.416	-0.300	0.217
-285.559	-137.100	-0.204	0.023
-284.545	800.000	-0.068	0.188
-283.530	743.962	-0.115	0.308
-282.516	-8.327	0.335	0.225
-281.501	377.112	0.153	0.313
-280.486	800.000	0.071	0.228
-279.472	588.128	-0.106	0.260
-278.457	-49.087	0.281	0.134
-277.443	372.679	0.033	0.068
-276.428	62.389	0.205	0.205
-275.413	81.106	-0.114	-0.122
-274.399	19.004	-0.238	0.191
-273.384	-93.796	0.296	0.081
-272.370	-53.407	0.102	-0.047
-271.355	17.097	-0.128	-0.101
-270.340	553.076	0.106	-0.255
-269.326	-113.126	0.166	-0.033
-268.311	-90.010	-0.240	0.070
-267.297	7.314	0.382	-0.285
-266.282	-146.100	-0.435	-0.038
-265.267	-39.763	0.205	0.107
-264.253	-30.655	0.059	-0.033
-263.238	51.196	-0.159	0.150
-262.224	218.039	0.071	0.113
-261.209	-42.281	0.045	-0.023
-260.195	-105.437	-0.088	-0.020
-259.180	-153.906	0.060	0.004
-258.165	-106.197	-0.151	0.034
-257.151	480.204	0.014	-0.031
-256.136	-132.093	-0.122	0.016
-255.122	-73.404	-0.276	-0.101
-254.107	-200.000	-0.008	0.109
-253.092	33.712	-0.235	-0.204
-252.078	-200.000	-0.038	0.240
-251.063	-151.458	-0.206	0.015
-250.049	-104.577	0.042	-0.010
-249.034	-147.727	0.430	-0.036
-248.019	-59.703	0.127	-0.054
-247.005	-60.645	0.212	-0.090
-245.990	294.657	-0.039	-0.071
-244.976	-165.558	0.203	-0.009
-243.961	800.000	-0.047	-0.190
-242.946	110.758	-0.090	0.108
-241.932	-200.000	-0.049	-0.237
-240.917	800.000	0.071	-0.205
-239.903	707.128	-0.040	0.105
-238.888	551.048	-0.046	0.110
-237.873	-200.000	-0.017	-0.092
-236.859	18.685	-0.011	0.009
-235.844	0.759	0.284	0.202
-234.830	-200.000	0.008	0.401
-233.815	-81.678	0.202	0.066
-232.800	79.463	-0.132	-0.141
-231.786	23.913	-0.187	0.154
-230.771	-200.000	0.012	0.245
-229.757	-94.230	0.202	0.055
-228.742	-84.464	0.214	-0.067
-227.727	-158.909	-0.155	-0.009
-226.713	-7.899	0.170	0.114
-225.698	161.359	-0.103	0.144
-224.684	-77.217	-0.248	-0.086
-223.669	-112.050	0.268	-0.054
-222.655	-200.000	-0.030	0.198
-221.640	-57.654	-0.318	0.139
-220.625	263.285	0.148	0.256
-219.611	-200.000	0.011	-0.276
-218.596	129.375	0.096	-0.122
-217.582	57.034	-0.062	-0.060
-216.567	260.488	-0.200	0.344
-215.552	-73.888	0.203	0.073
-214.538	800.000	0.076	-0.210
-213.523	230.864	0.144	0.235
-212.509	163.888	0.079	-0.111
-211.494	-74.168	-0.282	0.102
-210.479	-156.627	-0.322	0.020
-209.465	-107.410	-0.178	-0.039
-208.450	300.995	-0.083	0.152
-207.436	-60.167	-0.233	0.099
-206.421	195.521	0.086	-0.130
-205.406	-94.151	0.278	-0.076
-204.392	365.076	-0.157	-0.315
-203.377	89.161	-0.120	-0.133
-202.363	-145.540	0.359	0.032
-201.348	-111.790	0.137	-0.028
-200.333	-93.384	0.283	0.078
-199.319	678.181	-0.107	-0.276
-198.304	-21.867	0.175	0.106
-197.290	95.066	-0.078	-0.088
-196.275	-90.642	-0.205	-0.059
-195.260	-172.487	0.259	-0.008
-194.246	-15.664	-0.048	-0.031
-193.231	241.445	-0.065	0.108
-192.217	-98.353	-0.304	0.077
-191.202	405.502	-0.051	-0.106
-190.187	179.575	0.225	-0.327
-189.173	-104.471	-0.190	-0.044
-188.158	-200.000	-0.001	0.104
-187.144	9.711	0.033	-0.025
-186.129	-74.616	-0.144	-0.052
-185.114	602.297	-0.046	-0.115
-184.100	104.852	0.274	-0.322
-183.085	800.000	-0.097	-0.350
-182.071	-64.513	-0.203	0.082
-181.056	42.696	-0.076	0.069
-180.042	317.547	0.158	-0.297
-179.027	-200.000	-0.019	-0.171
-178.012	-86.520	-0.556	-0.170
-176.998	-200.000	-0.047	-0.251
-175.983	-73.159	0.093	0.034
-174.969	-150.422	0.342	0.026
-173.954	797.155	-0.170	-0.467
-172.939	800.000	0.064	0.218
-171.925	-109.228	0.332	-0.070
-170.910	-121.909	-0.232	0.038
-169.896	800.000	0.115	0.372
-168.881	160.317	-0.105	0.146
-167.866	-144.531	-0.217	-0.020
-166.852	8.160	-0.097	0.073
-165.837	-192.966	-0.236	-0.002
-164.823	-78.567	-0.106	0.036
-163.808	800.000	0.047	0.185
-162.793	473.792	-0.067	-0.150
-161.779	-140.480	0.317	-0.033
-160.764	-174.238	-0.025	0.001
-159.750	188.724	-0.135	-0.201
-158.735	800.000	-0.068	-0.242
-157.720	350.512	0.086	-0.168
-156.706	-63.326	-0.243	-0.100
-155.691	-103.123	0.152	0.036
-154.677	800.000	-0.064	-0.234
-153.662	-56.660	-0.189	-0.083
-152.647	800.000	0.041	-0.168
-151.633	272.769	-0.051	0.090
-150.618	-12.117	0.191	0.124
-149.604	-124.798	-0.143	-0.022
-148.589	-200.000	-0.007	0.090
-147.574	-19.675	-0.066	0.041
-146.560	-125.562	-0.092	-0.014
-145.545	-67.076	-0.364	0.143
-144.531	800.000	-0.100	-0.299
-143.516	281.188	-0.076	-0.135
-142.502	490.229	-0.201	0.457
-141.487	-118.259	-0.356	0.063
-140.472	-124.547	0.246	0.038
-139.458	167.378	0.038	0.053
-138.443	-200.000	0.000	-0.104
-137.429	90.770	-0.123	-0.137
-136.414	800.000	0.057	-0.214
-135.399	800.000	-0.065	0.268
-134.385	-2.761	0.061	0.042
-133.370	525.989	-0.037	-0.086
-132.356	800.000	-0.095	0.274
-131.341	800.000	0.105	0.369
-130.326	-0.926	-0.239	0.168
-129.312	479.868	-0.160	0.361
-128.297	-167.882	-0.110	0.004
-127.283	-200.000	0.043	0.279
-126.268	-8.134	-0.164	-0.109
-125.253	334.959	-0.099	0.190
-124.239	-142.653	0.338	0.033
-123.224	-200.000	0.055	0.335
-122.210	-86.178	-0.133	0.041
