DTS Sentinel unit serial number:	SN413079Multiplexer serial number:	ORYXHardware model number:	OX4-SRSoftware version number:	ORYX F/W v4.00 Oryx Data Collector v3.7.2.0data status	okinstallation	princeton_trtdifferential loss correction	single-endedforward channel	channel 3reverse channel	N/Adate	2019/09/14time	02:56:34forward acquisition time	60.00reverse acquisition time	0.00gamma	496.2192k internal	0.2339k external	0.2339temperature offset calibration	1.0054default loss term (dB/km)	0.3790temperature slope calibration	1.0000multiplexer offset coefficient	1.0000multiplexer slope coefficient	1.0000fibre end	0.00T internal ref (°C)	26.56T ext. ref 1 (°C)	3.26T ext. ref 2 (°C)	21.62length (m)	temperature (°C)	Stokes	anti-Stokes-747.200	-29.514	0.087	0.050
-746.185	-112.126	-0.097	0.019
-745.171	130.712	-0.178	-0.229
-744.156	-185.900	-0.143	0.002
-743.142	-153.438	-0.135	0.009
-742.127	-200.000	-0.000	0.038
-741.112	-24.962	0.110	0.066
-740.098	800.000	-0.036	-0.100
-739.083	666.410	0.118	-0.305
-738.069	-90.952	0.229	-0.066
-737.054	800.000	0.036	-0.112
-736.039	153.972	-0.099	0.136
-735.025	682.963	0.117	0.307
-734.010	-112.285	0.324	0.065
-732.996	134.781	0.147	-0.191
-731.981	23.756	0.118	-0.098
-730.966	-200.000	-0.033	-0.150
-729.952	33.233	0.067	-0.058
-728.937	-28.929	-0.241	-0.139
-727.923	-133.851	-0.415	0.052
-726.908	3.191	-0.123	-0.090
-725.894	568.239	0.098	-0.240
-724.879	800.000	-0.036	-0.151
-723.864	-123.489	-0.384	-0.061
-722.850	255.616	0.151	-0.260
-721.835	-200.000	0.066	-0.386
-720.821	-200.000	-0.014	-0.064
-719.806	27.244	0.206	-0.173
-718.791	465.486	0.110	0.246
-717.777	-52.195	0.192	-0.089
-716.762	-200.000	-0.037	-0.332
-715.748	49.968	0.268	0.253
-714.733	728.967	-0.103	0.276
-713.718	509.376	0.123	-0.286
-712.704	570.218	0.105	0.255
-711.689	257.389	0.098	-0.168
-710.675	-11.112	0.298	-0.197
-709.660	282.273	0.128	0.231
-708.645	-154.959	0.163	-0.011
-707.631	786.573	0.173	0.475
-706.616	-37.909	-0.265	-0.141
-705.602	-111.517	-0.140	-0.029
-704.587	-200.000	-0.007	0.065
-703.572	-87.007	-0.185	-0.057
-702.558	-200.000	-0.020	-0.100
-701.543	100.203	0.128	0.149
-700.529	-177.164	0.205	-0.005
-699.514	-94.703	-0.236	0.064
-698.499	-35.350	-0.168	0.091
-697.485	209.064	0.137	0.215
-696.470	-53.053	-0.268	0.123
-695.456	-30.412	-0.127	-0.072
-694.441	-200.000	0.064	-0.300
-693.426	-110.632	-0.196	-0.041
-692.412	582.728	-0.091	0.223
-691.397	12.268	0.177	-0.137
-690.383	158.750	-0.253	-0.351
-689.368	-53.070	-0.118	-0.054
-688.354	-10.681	-0.102	-0.067
-687.339	524.740	0.187	0.440
-686.324	-74.024	0.017	0.006
-685.310	-110.849	-0.065	0.013
-684.295	-179.678	-0.421	-0.009
-683.281	185.083	-0.197	0.293
-682.266	800.000	0.110	0.305
-681.251	95.544	0.170	0.194
-680.237	123.305	-0.125	0.157
-679.222	-125.033	-0.341	-0.052
-678.208	-16.243	0.058	0.037
-677.193	800.000	-0.097	-0.354
-676.178	105.338	0.168	-0.199
-675.164	-81.206	-0.365	-0.121
-674.149	471.731	-0.073	-0.165
-673.135	-200.000	0.022	0.134
-672.120	-200.000	-0.045	0.208
-671.105	-96.212	-0.385	0.102
-670.091	-52.117	0.347	0.161
-669.076	-200.000	-0.026	0.189
-668.062	240.407	-0.155	-0.259
-667.047	72.492	-0.118	0.123
-666.032	180.262	0.072	-0.106
-665.018	574.839	-0.050	-0.123
-664.003	800.000	-0.052	-0.203
-662.989	-200.000	0.010	0.050
-661.974	-21.867	-0.331	0.201
-660.959	-177.575	0.039	0.001
-659.945	-151.261	0.138	0.010
-658.930	563.552	0.069	-0.168
-657.916	63.372	-0.296	-0.297
-656.901	139.500	-0.231	-0.303
-655.886	406.115	0.164	0.347
-654.872	-200.000	-0.021	0.172
-653.857	282.371	-0.137	0.246
-652.843	8.770	0.056	-0.042
-651.828	398.066	0.100	0.210
-650.814	15.469	-0.380	0.298
-649.799	-148.739	-0.336	-0.027
-648.784	-101.498	-0.168	-0.041
-647.770	198.841	-0.297	-0.454
-646.755	48.672	-0.132	0.123
-645.741	800.000	-0.037	0.140
-644.726	192.786	0.063	-0.095
-643.711	-200.000	0.002	0.179
-642.697	-46.404	0.137	-0.067
-641.682	-200.000	0.021	0.123
-640.668	-200.000	0.018	0.272
-639.653	-15.704	-0.207	0.132
-638.638	62.039	-0.114	0.113
-637.624	800.000	-0.078	-0.326
-636.609	-86.925	-0.319	-0.097
-635.595	-172.122	-0.173	-0.006
-634.580	800.000	0.044	-0.178
-633.565	148.417	0.163	0.220
-632.551	-24.466	-0.308	-0.183
-631.536	-139.615	-0.285	0.030
-630.522	-71.292	-0.188	0.071
-629.507	-58.657	-0.177	-0.077
-628.492	-44.087	-0.120	0.060
-627.478	330.420	0.089	-0.172
-626.463	212.559	-0.269	-0.423
-625.449	533.870	-0.080	0.190
-624.434	-200.000	-0.063	-0.288
-623.419	-59.914	-0.045	-0.019
-622.405	-12.298	-0.226	0.148
-621.390	-86.747	0.220	-0.067
-620.376	7.928	-0.070	0.053
-619.361	-43.956	-0.105	-0.053
-618.346	-199.341	-0.158	-0.001
-617.332	51.778	0.091	0.087
-616.317	-45.638	0.063	-0.031
-615.303	-180.934	0.357	0.007
-614.288	0.476	0.200	-0.143
-613.273	760.741	0.079	-0.214
-612.259	-97.609	-0.180	-0.047
-611.244	92.672	-0.160	-0.180
-610.230	-3.317	0.177	-0.123
-609.215	-200.000	0.056	-0.245
-608.201	-27.569	0.153	0.089
-607.186	-88.783	0.558	-0.165
-606.171	361.331	0.140	-0.280
-605.157	-200.000	-0.032	0.257
-604.142	-138.876	-0.334	-0.036
-603.128	-32.861	0.184	-0.102
-602.113	-131.474	-0.230	0.030
-601.098	274.771	-0.177	0.312
-600.084	27.237	0.131	0.110
-599.069	-88.900	-0.300	0.089
-598.055	-81.137	0.254	-0.084
-597.040	800.000	-0.052	0.149
-596.025	512.804	-0.130	0.302
-595.011	394.246	-0.043	0.089
-593.996	-114.180	0.389	-0.075
-592.982	-128.230	-0.256	0.036
-591.967	160.007	0.060	-0.083
-590.952	-2.017	0.155	0.108
-589.938	-97.393	-0.164	0.042
-588.923	-135.996	-0.510	0.060
-587.909	45.049	0.214	-0.197
-586.894	343.270	-0.134	-0.261
-585.879	-200.000	0.009	-0.244
-584.865	-200.000	0.020	-0.270
-583.850	11.570	-0.105	-0.080
-582.836	-200.000	0.025	-0.613
-581.821	-29.955	-0.027	-0.015
-580.806	-131.409	-0.137	-0.018
-579.792	107.768	0.070	0.083
-578.777	-59.536	0.126	0.054
-577.763	10.129	-0.104	0.079
-576.748	800.000	0.106	-0.320
-575.733	416.393	-0.169	-0.359
-574.719	800.000	0.063	-0.240
-573.704	-154.795	-0.089	-0.006
-572.690	-200.000	0.001	-0.088
-571.675	39.298	-0.163	0.146
-570.661	-200.000	-0.015	-0.123
-569.646	42.228	-0.278	-0.251
-568.631	-167.122	-0.214	-0.009
-567.617	-33.491	0.246	0.135
-566.602	620.846	-0.075	0.188
-565.588	0.781	-0.066	-0.047
-564.573	117.347	-0.105	0.128
-563.558	-115.900	0.314	0.058
-562.544	287.503	-0.077	-0.139
-561.529	-162.528	-0.194	0.010
-560.515	-200.000	0.000	-0.036
-559.500	-125.235	0.169	-0.026
-558.485	800.000	-0.011	0.034
-557.471	-101.594	0.073	0.018
-556.456	-100.768	-0.161	0.040
-555.442	447.426	0.094	-0.207
-554.427	608.279	0.045	-0.112
-553.412	-154.151	-0.351	0.024
-552.398	-81.374	-0.102	-0.033
-551.383	-149.573	-0.285	0.022
-550.369	182.296	0.089	0.131
-549.354	248.527	0.201	-0.338
-548.339	-200.000	0.086	-0.392
-547.325	800.000	0.051	-0.221
-546.310	-10.531	0.373	0.246
-545.296	416.687	-0.078	0.166
-544.281	244.928	-0.192	0.321
-543.266	-0.683	0.135	-0.096
-542.252	-164.839	0.154	0.007
-541.237	212.000	0.197	0.309
-540.223	15.342	0.133	0.104
-539.208	-200.000	0.010	0.170
-538.193	283.709	-0.114	-0.204
-537.179	46.304	-0.046	-0.042
-536.164	-8.309	-0.119	-0.080
-535.150	-53.973	0.432	-0.196
-534.135	-60.602	0.324	0.137
-533.121	-108.333	-0.334	-0.072
-532.106	-87.293	0.373	0.112
-531.091	362.391	0.022	0.045
-530.077	-150.263	-0.069	-0.005
-529.062	84.699	-0.218	0.237
-528.048	-83.663	0.202	0.064
-527.033	-0.879	-0.080	0.057
-526.018	-118.542	-0.142	0.025
-525.004	352.614	0.160	0.316
-523.989	-64.116	0.287	-0.117
-522.975	800.000	0.037	0.151
-521.960	152.092	-0.174	0.236
-520.945	570.300	0.069	-0.167
-519.931	3.129	-0.194	-0.140
-518.916	-200.000	-0.004	-0.210
-517.902	140.481	0.193	-0.254
-516.887	800.000	-0.098	0.274
-515.872	800.000	0.066	0.204
-514.858	-199.004	0.121	0.001
-513.843	-34.457	0.037	0.020
-512.829	-178.081	0.369	-0.009
-511.814	262.169	0.155	0.268
-510.799	318.448	0.133	0.251
-509.785	57.537	-0.041	-0.040
-508.770	690.528	0.027	-0.070
-507.756	185.975	-0.078	0.115
-506.741	297.412	0.088	-0.161
-505.726	800.000	-0.060	0.168
-504.712	293.156	0.134	0.243
-503.697	800.000	-0.044	-0.167
-502.683	-200.000	0.010	-0.358
-501.668	-53.044	-0.337	0.154
-500.653	15.689	0.036	0.028
-499.639	-100.182	0.362	-0.090
-498.624	-79.204	-0.306	0.103
-497.610	800.000	-0.022	0.088
-496.595	-10.280	-0.223	-0.147
-495.581	-158.826	-0.276	0.016
-494.566	-140.723	-0.244	-0.025
-493.551	-9.860	0.168	-0.111
-492.537	-89.250	0.053	-0.016
-491.522	630.381	0.113	0.284
-490.508	-79.137	0.163	0.055
-489.493	800.000	0.091	0.294
-488.478	70.879	-0.093	0.096
-487.464	112.743	0.251	0.302
-486.449	-200.000	-0.054	0.404
-485.435	14.032	0.114	0.088
-484.420	800.000	-0.093	0.290
-483.405	-142.511	-0.176	0.017
-482.391	-174.139	0.089	0.003
-481.376	-50.026	0.208	0.098
-480.362	29.561	-0.115	0.097
-479.347	-179.460	-0.418	0.009
-478.332	-66.991	-0.211	-0.083
-477.318	-176.664	0.102	-0.003
-476.303	490.549	0.112	0.254
-475.289	800.000	0.115	0.396
-474.274	-105.467	0.083	0.019
-473.259	800.000	0.070	-0.229
-472.245	-24.133	0.055	0.033
-471.230	-48.272	-0.307	0.147
-470.216	-174.806	-0.092	0.003
-469.201	-200.000	0.013	0.184
-468.186	-74.389	0.067	0.024
-467.172	800.000	-0.095	-0.299
-466.157	-62.405	0.198	0.082
-465.143	-112.297	0.270	-0.054
-464.128	-200.000	-0.079	-0.349
-463.113	-98.596	-0.220	0.056
-462.099	29.862	-0.292	-0.247
-461.084	-112.579	0.261	0.052
-460.070	204.074	0.069	-0.105
-459.055	76.804	0.090	0.095
-458.040	-200.000	0.017	-0.218
-457.026	47.035	0.142	-0.131
-456.011	-188.701	-0.345	0.004
-454.997	78.449	-0.124	0.132
-453.982	11.471	-0.176	-0.134
-452.968	-71.439	-0.141	0.052
-451.953	-193.221	-0.366	-0.003
-450.938	528.114	0.169	-0.396
-449.924	-114.817	-0.355	-0.067
-448.909	-200.000	0.027	0.168
-447.895	-171.607	-0.369	-0.012
-446.880	-200.000	-0.042	0.319
-445.865	800.000	0.094	0.345
-444.851	-200.000	0.022	-0.135
-443.836	35.425	0.338	-0.294
-442.822	739.081	0.034	-0.092
-441.807	-200.000	-0.008	-0.369
-440.792	185.747	-0.026	-0.038
-439.778	800.000	-0.135	-0.522
-438.763	-82.070	-0.339	0.110
-437.749	-200.000	-0.035	0.338
-436.734	319.158	0.068	0.128
-435.719	-200.000	0.020	-0.132
-434.705	-200.000	-0.003	0.023
-433.690	260.517	0.081	-0.139
-432.676	-29.376	0.246	0.139
-431.661	-33.841	0.412	0.225
-430.646	-68.939	-0.093	0.036
-429.632	104.490	-0.223	-0.260
-428.617	549.334	0.087	-0.205
-427.603	328.013	0.010	0.019
-426.588	-102.243	0.103	-0.025
-425.573	7.914	0.075	0.056
-424.559	49.443	-0.238	-0.222
-423.544	281.887	0.075	-0.134
-422.530	-61.072	-0.210	0.088
-421.515	-166.849	-0.352	-0.014
-420.500	-155.822	-0.252	0.016
-419.486	-54.300	0.319	-0.143
-418.471	366.819	-0.040	-0.080
-417.457	-148.797	0.352	-0.028
-416.442	64.390	-0.062	0.062
-415.428	-10.515	0.225	-0.147
-414.413	186.606	-0.112	0.165
-413.398	-200.000	0.013	0.092
-412.384	-18.178	0.171	0.106
-411.369	124.087	-0.226	-0.281
-410.355	-200.000	-0.004	0.112
-409.340	-28.413	0.320	0.182
-408.325	15.012	-0.110	-0.085
-407.311	-151.184	-0.015	-0.001
-406.296	-6.583	0.134	0.091
-405.282	-30.169	-0.143	-0.080
-404.267	-200.000	0.014	-0.199
-403.252	-149.787	0.328	-0.025
-402.238	800.000	-0.052	-0.194
-401.223	-200.000	0.026	-0.173
-400.209	186.415	-0.045	-0.066
-399.194	-200.000	0.036	-0.195
-398.179	87.593	0.130	0.143
-397.165	-88.875	-0.204	0.060
-396.150	127.248	0.241	-0.302
-395.136	-139.439	0.293	0.031
-394.121	246.076	-0.114	0.190
-393.106	136.709	0.123	-0.158
-392.092	-38.398	-0.109	-0.057
-391.077	-91.657	-0.228	-0.064
-390.063	-141.115	0.174	-0.018
-389.048	696.366	-0.145	0.378
-388.033	-131.562	-0.158	-0.021
-387.019	246.674	-0.033	-0.055
-386.004	5.586	0.235	0.172
-384.990	-176.600	0.231	-0.006
-383.975	-128.314	0.527	-0.074
-382.960	271.521	0.077	0.134
-381.946	-71.820	-0.269	0.099
-380.931	-66.574	0.336	0.132
-379.917	-99.637	0.095	0.023
-378.902	19.578	0.190	-0.151
-377.888	-94.657	-0.029	-0.008
-376.873	440.410	-0.092	-0.198
-375.858	800.000	0.070	0.212
-374.844	114.309	0.407	0.490
-373.829	-200.000	-0.017	-0.142
-372.815	48.930	-0.272	0.252
-371.800	800.000	0.095	-0.283
-370.785	126.831	-0.224	-0.280
-369.771	-89.333	0.074	0.022
-368.756	-108.729	0.135	-0.029
-367.742	-144.524	-0.066	0.006
-366.727	345.968	0.165	-0.320
-365.712	-200.000	0.036	-0.256
-364.698	32.403	0.105	0.090
-363.683	-72.510	-0.307	-0.112
-362.669	-200.000	-0.047	0.299
-361.654	774.100	-0.013	0.034
-360.639	-46.639	0.217	-0.105
-359.625	-159.307	0.087	-0.005
-358.610	-200.000	-0.056	0.327
-357.596	-79.767	0.137	-0.045
-356.581	-77.555	0.214	-0.073
-355.566	-69.351	0.200	-0.076
-354.552	-22.832	0.215	0.128
-353.537	261.452	0.176	0.301
-352.523	10.430	-0.050	0.037
-351.508	56.743	-0.170	0.164
-350.493	-200.000	-0.034	0.258
-349.479	-200.000	0.064	-0.418
-348.464	-111.674	-0.160	-0.032
-347.450	79.329	-0.182	-0.192
-346.435	-103.728	0.073	-0.017
-345.420	-136.744	0.161	0.018
-344.406	-101.553	-0.324	-0.078
-343.391	-98.514	-0.435	0.110
-342.377	-75.020	0.146	0.052
-341.362	673.865	-0.076	0.195
-340.348	-200.000	-0.008	-0.045
-339.333	-200.000	-0.013	0.268
-338.318	-200.000	0.003	-0.094
-337.304	-200.000	-0.024	-0.239
-336.289	-200.000	0.008	0.124
-335.275	-92.129	0.073	-0.020
-334.260	202.340	-0.205	0.313
-333.245	800.000	0.085	-0.271
-332.231	-55.182	0.126	-0.056
-331.216	335.656	0.218	0.418
-330.202	-200.000	0.018	-0.095
-329.187	-16.972	-0.146	0.091
-328.172	-179.287	-0.608	-0.013
-327.158	340.253	0.168	-0.324
-326.143	-67.841	-0.169	-0.065
-325.129	123.827	-0.081	0.100
-324.114	-200.000	-0.024	-0.274
-323.099	151.717	0.118	-0.158
-322.085	-94.467	-0.141	0.038
-321.070	92.488	-0.200	-0.223
-320.056	-52.426	0.291	0.133
-319.041	579.595	0.098	0.237
-318.026	-18.037	-0.370	0.229
-317.012	34.962	0.213	-0.184
-315.997	-200.000	-0.156	0.832
-314.983	-87.365	-0.256	-0.077
-313.968	-49.542	-0.199	-0.094
-312.953	-117.022	0.277	-0.050
-311.939	712.566	0.071	0.186
-310.924	55.880	0.255	-0.244
-309.910	82.738	0.158	-0.169
-308.895	-200.000	0.045	0.244
-307.880	537.274	0.053	-0.125
-306.866	-61.866	-0.241	0.099
-305.851	-159.450	0.190	-0.010
-304.837	-5.606	-0.149	0.101
-303.822	380.279	-0.120	0.242
-302.807	290.982	0.199	-0.357
-301.793	-200.000	0.001	-0.025
-300.778	-57.307	-0.231	0.100
-299.764	-200.000	0.029	-0.199
-298.749	-72.494	0.291	-0.106
-297.735	-200.000	0.029	-0.396
-296.720	37.842	0.116	-0.101
-295.705	800.000	0.038	0.127
-294.691	158.811	-0.121	-0.166
-293.676	370.821	-0.122	-0.243
-292.662	-79.851	-0.309	-0.103
-291.647	-117.546	-0.142	0.025
-290.632	800.000	0.119	0.431
-289.618	800.000	-0.069	0.220
-288.603	-200.000	-0.021	-0.305
-287.589	-200.000	0.042	0.247
-286.574	22.929	-0.314	-0.254
-285.559	-79.659	0.402	0.133
-284.545	162.437	0.161	-0.223
-283.530	275.711	0.247	-0.431
-282.516	-200.000	-0.007	0.216
-281.501	800.000	0.066	0.283
-280.486	454.930	-0.124	-0.271
-279.472	245.159	-0.054	-0.090
-278.457	-127.924	-0.124	0.018
-277.443	746.951	0.120	-0.320
-276.428	487.777	-0.168	-0.379
-275.413	-65.793	0.036	0.014
-274.399	341.134	0.127	-0.245
-273.384	-111.354	0.279	-0.056
-272.370	800.000	-0.081	0.243
-271.355	-69.935	0.197	0.074
-270.340	800.000	-0.067	-0.194
-269.326	800.000	0.066	0.182
-268.311	-25.717	-0.215	0.125
-267.297	41.169	0.273	-0.243
-266.282	156.574	-0.149	-0.203
-265.267	-62.957	-0.098	0.040
-264.253	24.775	-0.150	0.122
-263.238	47.398	0.167	0.153
-262.224	35.246	0.173	0.149
-261.209	193.256	0.055	0.081
-260.195	800.000	0.052	-0.197
-259.180	-32.915	-0.090	-0.049
-258.165	-62.848	-0.136	-0.056
-257.151	800.000	-0.128	0.413
-256.136	302.353	-0.024	0.044
-255.122	-200.000	-0.001	0.051
-254.107	-200.000	0.010	-0.053
-253.092	800.000	-0.105	0.313
-252.078	28.507	-0.075	0.063
-251.063	249.824	-0.230	0.384
-250.049	348.825	0.022	0.042
-249.034	61.120	-0.173	-0.169
-248.019	31.233	-0.147	0.124
-247.005	-200.000	0.046	0.302
-245.990	-84.600	0.296	0.092
-244.976	-74.764	-0.117	-0.041
-243.961	133.210	-0.134	-0.170
-242.946	-116.313	0.299	-0.055
-241.932	-98.880	-0.294	0.073
-240.917	316.557	0.141	-0.262
-239.903	299.761	0.044	-0.079
-238.888	-126.527	0.176	-0.026
-237.873	0.087	0.258	0.181
-236.859	-136.616	0.407	0.046
-235.844	397.107	0.055	0.114
-234.830	18.318	0.045	-0.036
-233.815	-186.925	-0.299	-0.004
-232.800	-98.189	0.404	-0.102
-231.786	-96.057	-0.333	-0.087
-230.771	800.000	-0.025	-0.091
-229.757	187.477	0.082	0.120
-228.742	-94.660	0.272	-0.073
-227.727	-43.396	-0.289	-0.143
-226.713	662.637	-0.067	0.170
-225.698	64.897	0.019	-0.018
-224.684	206.801	-0.159	-0.244
-223.669	-200.000	0.035	0.232
-222.655	151.788	0.032	-0.042
-221.640	61.220	0.150	0.147
-220.625	-62.596	-0.086	-0.035
-219.611	22.054	-0.360	-0.289
-218.596	196.056	0.088	0.132
-217.582	16.940	-0.232	-0.181
-216.567	-65.294	0.092	-0.037
-215.552	-200.000	0.006	-0.593
-214.538	158.118	-0.034	0.047
-213.523	-22.947	-0.120	-0.071
-212.509	624.879	0.054	0.133
-211.494	-60.262	0.403	0.169
-210.479	-200.000	0.026	0.180
-209.465	168.535	-0.110	0.153
-208.450	-45.490	-0.282	0.137
-207.436	166.983	0.144	0.201
-206.421	-200.000	0.002	-0.163
-205.406	657.403	-0.085	0.216
-204.392	4.342	0.132	-0.095
-203.377	-76.295	0.160	0.055
-202.363	-200.000	-0.041	0.193
-201.348	-68.988	-0.249	0.094
-200.333	40.355	-0.018	0.016
-199.319	395.052	-0.052	0.106
-198.304	-68.831	-0.116	0.044
-197.290	18.009	0.123	-0.096
-196.275	123.510	0.205	-0.253
-195.260	125.113	0.158	0.196
-194.246	-3.710	-0.015	-0.010
-193.231	382.309	0.063	0.128
-192.217	-200.000	-0.042	0.377
-191.202	-200.000	-0.018	0.247
-190.187	-190.563	0.244	0.003
-189.173	-134.410	-0.145	0.017
-188.158	86.276	0.173	0.187
-187.144	7.720	-0.139	0.102
-186.129	-200.000	-0.025	-0.356
-185.114	-55.917	0.060	0.026
-184.100	-84.778	-0.085	-0.026
-183.085	800.000	0.154	0.434
-182.071	642.666	-0.103	0.257
-181.056	800.000	0.046	0.165
-180.042	206.565	-0.157	0.239
-179.027	16.500	0.245	-0.190
-178.012	252.324	0.224	0.375
-176.998	211.862	0.030	0.047
-175.983	-26.294	-0.181	0.104
-174.969	-8.321	0.278	0.183
-173.954	175.260	-0.104	-0.148
-172.939	-52.098	0.329	-0.150
-171.925	257.324	-0.026	0.044
-170.910	-200.000	0.040	-0.428
-169.896	433.256	-0.094	-0.200
-168.881	-200.000	0.019	-0.233
-167.866	-200.000	0.027	-0.377
-166.852	749.821	-0.105	0.279
-165.837	800.000	-0.041	0.125
-164.823	187.467	-0.153	0.224
-163.808	308.934	-0.053	0.096
-162.793	-49.870	0.162	0.076
-161.779	501.033	-0.127	-0.288
-160.764	104.776	0.192	0.221
-159.750	172.998	-0.157	0.222
-158.735	44.110	0.296	-0.266
-157.720	-123.836	-0.282	-0.044
-156.706	-200.000	-0.019	0.339
-155.691	-88.255	0.019	0.006
-154.677	-71.174	0.169	-0.062
-153.662	545.226	-0.092	-0.216
-152.647	-99.280	0.383	0.095
-151.633	53.431	0.143	0.134
-150.618	800.000	-0.160	-0.470
-149.604	-164.501	0.101	0.005
-148.589	205.448	-0.147	0.223
-147.574	-103.815	-0.089	0.020
-146.560	286.932	-0.138	0.245
-145.545	-151.397	0.022	-0.002
-144.531	-10.623	0.180	-0.117
-143.516	55.422	-0.243	-0.230
-142.502	-68.107	-0.161	0.062
-141.487	-200.000	0.005	-0.244
-140.472	505.966	0.021	0.047
-139.458	-114.622	0.159	0.030
-138.443	800.000	0.039	-0.129
-137.429	-165.462	0.148	-0.006
-136.414	-52.474	-0.080	0.036
-135.399	4.861	0.149	0.107
-134.385	43.339	-0.242	-0.217
-133.370	-200.000	0.009	0.265
-132.356	65.882	0.231	0.229
-131.341	-71.507	-0.109	0.040
-130.326	800.000	0.104	0.339
-129.312	1.972	0.216	-0.153
-128.297	-200.000	-0.006	-0.442
-127.283	-15.490	0.032	-0.020
-126.268	-47.725	-0.348	-0.165
-125.253	-146.624	0.380	-0.032
-124.239	-93.410	0.192	0.052
-123.224	313.694	0.179	0.330
-122.210	-62.405	0.129	0.053
-121.195	107.042	-0.072	-0.084
