DTS Sentinel unit serial number:	SN413079Multiplexer serial number:	ORYXHardware model number:	OX4-SRSoftware version number:	ORYX F/W v4.00 Oryx Data Collector v3.7.2.0data status	okinstallation	princeton_trtdifferential loss correction	single-endedforward channel	channel 3reverse channel	N/Adate	2019/09/15time	12:48:35forward acquisition time	60.00reverse acquisition time	0.00gamma	496.2192k internal	0.2297k external	0.2297temperature offset calibration	0.9972default loss term (dB/km)	0.3790temperature slope calibration	1.0000multiplexer offset coefficient	1.0000multiplexer slope coefficient	1.0000fibre end	0.00T internal ref (°C)	35.94T ext. ref 1 (°C)	5.03T ext. ref 2 (°C)	33.67length (m)	temperature (°C)	Stokes	anti-Stokes-747.200	-146.237	0.007	-0.001
-746.185	-200.000	-0.002	0.044
-745.171	510.594	0.150	-0.356
-744.156	264.343	0.151	0.269
-743.142	248.256	-0.143	-0.247
-742.127	156.573	0.118	0.166
-741.112	54.274	-0.019	0.019
-740.098	-108.192	-0.324	0.072
-739.083	-12.346	-0.237	0.158
-738.069	-77.830	-0.122	-0.043
-737.054	-83.914	-0.214	0.070
-736.039	800.000	-0.026	-0.095
-735.025	-200.000	-0.019	-0.132
-734.010	-11.539	-0.512	-0.343
-732.996	46.673	-0.248	-0.235
-731.981	-73.127	-0.379	0.142
-730.966	-200.000	0.019	-0.171
-729.952	-20.968	0.051	0.032
-728.937	-68.135	0.134	-0.053
-727.923	133.798	0.095	0.125
-726.908	-112.767	-0.202	0.041
-725.894	-89.097	-0.298	-0.090
-724.879	-200.000	-0.387	0.000
-723.864	-43.817	-0.390	-0.200
-722.850	429.430	-0.107	0.236
-721.835	96.471	-0.310	0.362
-720.821	-9.410	0.281	-0.192
-719.806	-200.000	-0.009	0.202
-718.791	52.056	0.185	0.180
-717.777	-152.329	0.381	-0.028
-716.762	205.084	-0.086	-0.137
-715.748	325.596	-0.043	0.084
-714.733	-140.800	0.225	-0.024
-713.718	55.305	-0.193	-0.191
-712.704	-128.225	-0.411	-0.060
-711.689	-200.000	-0.047	0.283
-710.675	-200.000	0.010	0.056
-709.660	62.410	0.062	-0.063
-708.645	124.351	0.256	0.328
-707.631	-90.867	0.077	-0.023
-706.616	-200.000	-0.015	0.225
-705.602	-140.029	0.119	-0.013
-704.587	-173.433	0.358	-0.011
-703.572	641.917	0.050	-0.129
-702.558	-51.205	0.296	0.142
-701.543	-91.549	-0.211	0.061
-700.529	-31.651	-0.095	-0.054
-699.514	508.281	0.089	0.211
-698.499	-149.648	-0.176	-0.014
-697.485	41.956	0.143	-0.132
-696.470	104.979	0.051	-0.061
-695.456	-141.025	-0.209	-0.022
-694.441	45.525	-0.065	-0.061
-693.426	152.740	0.094	0.131
-692.412	-200.000	0.033	0.252
-691.397	-52.793	-0.298	0.140
-690.383	91.355	-0.037	-0.043
-689.368	0.384	0.013	-0.009
-688.354	757.163	0.084	0.233
-687.339	800.000	-0.091	-0.401
-686.324	800.000	0.059	0.179
-685.310	108.463	-0.255	-0.311
-684.295	-44.697	-0.192	-0.098
-683.281	-83.717	-0.096	0.031
-682.266	-200.000	0.003	-0.057
-681.251	24.450	0.135	-0.114
-680.237	288.252	-0.040	-0.075
-679.222	800.000	-0.057	0.175
-678.208	800.000	-0.012	0.040
-677.193	-83.723	-0.113	0.037
-676.178	252.801	0.063	-0.110
-675.164	33.195	0.315	0.278
-674.149	-200.000	0.024	0.329
-673.135	-200.000	0.041	0.227
-672.120	-22.285	0.166	0.103
-671.105	-13.511	0.323	0.214
-670.091	141.296	0.229	-0.308
-669.076	-57.323	0.224	-0.100
-668.062	23.850	-0.181	-0.152
-667.047	-54.701	-0.276	0.127
-666.032	-200.000	-0.014	-0.458
-665.018	-200.000	0.006	0.242
-664.003	141.855	-0.092	-0.125
-662.989	800.000	-0.024	-0.075
-661.974	-59.442	-0.165	0.072
-660.959	-139.883	-0.249	0.027
-659.945	122.425	-0.171	-0.218
-658.930	-200.000	-0.012	0.247
-657.916	174.467	0.123	0.182
-656.901	-4.304	-0.135	-0.095
-655.886	800.000	-0.066	-0.205
-654.872	68.868	-0.026	-0.027
-653.857	800.000	-0.010	0.043
-652.843	-200.000	0.102	-0.474
-651.828	-62.958	-0.247	0.104
-650.814	26.574	-0.071	0.060
-649.799	-27.491	-0.116	-0.069
-648.784	-180.575	-0.036	0.001
-647.770	292.932	0.103	-0.191
-646.755	-200.000	0.006	-0.035
-645.741	545.541	-0.080	0.194
-644.726	800.000	-0.067	-0.231
-643.711	228.763	-0.135	0.224
-642.697	49.616	-0.110	0.105
-641.682	535.580	0.004	-0.009
-640.668	14.964	-0.228	0.182
-639.653	-139.520	-0.160	-0.017
-638.638	81.707	0.225	-0.247
-637.624	45.273	0.124	0.116
-636.609	-35.301	0.061	-0.034
-635.595	800.000	-0.046	0.194
-634.580	-17.214	0.063	-0.040
-633.565	239.251	-0.161	-0.272
-632.551	588.538	-0.031	0.077
-631.536	-28.388	-0.230	-0.135
-630.522	673.013	-0.133	0.352
-629.507	-162.916	0.217	-0.011
-628.492	-200.000	-0.019	0.109
-627.478	-200.000	0.054	0.245
-626.463	-200.000	0.003	0.106
-625.449	-134.601	0.162	0.020
-624.434	-130.193	-0.209	0.029
-623.419	800.000	-0.034	0.142
-622.405	-116.492	0.243	-0.046
-621.390	-200.000	0.028	-0.262
-620.376	-170.342	0.217	0.008
-619.361	-158.738	-0.421	-0.025
-618.346	-134.647	-0.235	-0.029
-617.332	34.561	0.251	0.223
-616.317	92.117	-0.021	0.024
-615.303	-80.905	0.156	-0.053
-614.288	-88.094	-0.185	0.057
-613.273	-118.810	-0.019	-0.003
-612.259	202.793	0.139	0.219
-611.244	446.354	-0.065	0.146
-610.230	-47.430	-0.315	0.156
-609.215	44.192	-0.060	-0.056
-608.201	-66.791	0.196	-0.079
-607.186	-200.000	-0.027	-0.272
-606.171	800.000	-0.037	-0.131
-605.157	367.249	0.052	-0.107
-604.142	96.933	-0.255	-0.297
-603.128	-72.933	0.284	-0.106
-602.113	-165.443	-0.187	-0.008
-601.098	-12.174	-0.099	-0.066
-600.084	-85.870	-0.173	0.054
-599.069	16.718	-0.291	0.234
-598.055	-200.000	-0.012	-0.090
-597.040	-178.007	0.217	-0.005
-596.025	84.111	0.099	0.110
-595.011	-188.923	-0.390	-0.005
-593.996	-94.232	-0.341	0.095
-592.982	-200.000	-0.003	0.039
-591.967	800.000	0.090	0.254
-590.952	-200.000	0.054	0.290
-589.938	-88.207	-0.415	-0.126
-588.923	51.103	0.039	-0.038
-587.909	-185.524	-0.232	0.004
-586.894	-19.834	0.062	-0.039
-585.879	-200.000	0.016	0.263
-584.865	184.563	0.032	0.048
-583.850	73.103	-0.225	-0.239
-582.836	800.000	0.028	0.094
-581.821	412.354	0.055	0.119
-580.806	161.039	0.128	0.182
-579.792	529.425	0.177	0.424
-578.777	338.699	-0.082	0.161
-577.763	595.045	0.045	-0.114
-576.748	800.000	-0.099	-0.414
-575.733	-91.276	-0.199	0.058
-574.719	385.909	-0.243	-0.510
-573.704	-200.000	0.058	0.264
-572.690	140.828	-0.043	0.058
-571.675	800.000	0.096	-0.362
-570.661	-200.000	0.016	-0.329
-569.646	213.475	-0.165	-0.264
-568.631	-137.402	0.459	0.053
-567.617	-37.302	-0.183	-0.099
-566.602	-12.257	-0.231	-0.153
-565.588	269.917	-0.074	-0.131
-564.573	531.925	-0.071	0.170
-563.558	-77.295	0.059	0.021
-562.544	-176.133	0.221	0.006
-561.529	-200.000	0.068	-0.398
-560.515	-200.000	0.049	-0.320
-559.500	277.542	0.126	-0.228
-558.485	-200.000	0.159	-0.000
-557.471	800.000	0.055	0.219
-556.456	-87.440	-0.162	0.050
-555.442	82.214	0.138	-0.152
-554.427	-99.188	0.478	-0.123
-553.412	800.000	0.013	0.057
-552.398	-109.313	-0.101	0.022
-551.383	-200.000	-0.041	-0.225
-550.369	-200.000	-0.049	-0.279
-549.354	170.110	0.058	0.084
-548.339	186.073	0.145	0.219
-547.325	-200.000	0.010	-0.246
-546.310	-37.000	-0.099	0.054
-545.296	-200.000	0.036	0.221
-544.281	69.772	0.146	-0.153
-543.266	-5.893	0.212	-0.147
-542.252	-119.582	-0.367	0.064
-541.237	-119.124	0.420	0.074
-540.223	75.821	-0.284	-0.305
-539.208	-200.000	-0.027	0.187
-538.193	249.156	0.263	0.452
-537.179	128.541	0.095	-0.122
-536.164	50.253	0.255	0.244
-535.150	315.872	0.146	0.280
-534.135	-34.345	0.100	0.056
-533.121	-62.635	0.257	-0.108
-532.106	321.508	-0.028	0.055
-531.091	-30.497	0.387	0.222
-530.077	510.997	0.049	-0.115
-529.062	648.675	-0.165	-0.429
-528.048	-200.000	-0.035	0.258
-527.033	-200.000	0.039	-0.318
-526.018	-52.814	0.227	-0.106
-525.004	-111.305	0.262	-0.054
-523.989	-55.115	0.084	0.038
-522.975	800.000	0.070	0.204
-521.960	-88.463	0.162	-0.049
-520.945	-200.000	0.009	-0.302
-519.931	141.599	0.034	-0.045
-518.916	-75.630	-0.018	-0.007
-517.902	-48.788	-0.276	0.134
-516.887	-129.330	-0.218	0.031
-515.872	-200.000	-0.067	-0.308
-514.858	800.000	0.034	0.110
-513.843	-107.284	-0.252	-0.056
-512.829	154.943	0.089	-0.123
-511.814	-141.507	-0.189	-0.019
-510.799	800.000	0.067	0.262
-509.785	26.363	-0.150	0.127
-508.770	239.547	0.145	0.244
-507.756	640.217	-0.060	0.154
-506.741	800.000	-0.053	0.217
-505.726	-200.000	0.018	0.203
-504.712	639.927	-0.036	-0.094
-503.697	800.000	-0.038	-0.124
-502.683	196.371	-0.129	0.199
-501.668	-121.577	-0.169	0.028
-500.653	-200.000	0.475	0.001
-499.639	-78.153	-0.223	-0.078
-498.624	163.795	0.125	-0.178
-497.610	-46.487	-0.196	-0.097
-496.595	-72.792	0.191	0.071
-495.581	-107.577	0.142	-0.032
-494.566	800.000	0.024	0.094
-493.551	-3.494	0.254	-0.179
-492.537	146.633	0.127	0.173
-491.522	-163.212	0.242	-0.012
-490.508	800.000	0.063	0.242
-489.493	-90.233	-0.306	0.090
-488.478	-200.000	-0.004	0.376
-487.464	-106.898	0.134	-0.030
-486.449	89.518	0.062	-0.070
-485.435	300.296	-0.174	0.324
-484.420	152.919	-0.185	-0.255
-483.405	-56.092	0.508	-0.229
-482.391	-200.000	-0.040	-0.200
-481.376	-27.726	0.113	-0.066
-480.362	-200.000	0.023	-0.545
-479.347	56.904	0.094	0.093
-478.332	-200.000	0.006	0.422
-477.318	-41.298	-0.132	0.069
-476.303	-69.703	0.134	0.052
-475.289	64.662	-0.126	-0.128
-474.274	213.849	0.164	-0.263
-473.259	553.324	0.030	-0.072
-472.245	52.543	-0.124	-0.120
-471.230	-142.744	0.179	0.018
-470.216	799.723	-0.034	0.096
-469.201	588.616	-0.186	0.464
-468.186	-46.457	0.137	-0.068
-467.172	-33.671	0.230	-0.128
-466.157	-7.174	0.054	0.037
-465.143	101.329	-0.062	0.073
-464.128	-153.474	-0.195	0.014
-463.113	86.693	0.198	0.221
-462.099	349.465	0.150	0.299
-461.084	-99.025	0.249	-0.064
-460.070	-43.812	-0.145	-0.074
-459.055	-130.798	-0.173	-0.023
-458.040	-48.272	0.048	-0.023
-457.026	-200.000	-0.027	-0.129
-456.011	-200.000	0.025	0.157
-454.997	-200.000	-0.029	-0.138
-453.982	149.952	-0.084	0.114
-452.968	145.055	0.220	-0.297
-451.953	-94.358	-0.199	0.055
-450.938	35.158	-0.154	-0.136
-449.924	-136.887	-0.088	-0.010
-448.909	-123.280	0.288	-0.046
-447.895	-72.884	-0.131	-0.049
-446.880	-140.870	0.042	-0.004
-445.865	-143.481	-0.130	0.012
-444.851	800.000	0.132	-0.371
-443.836	193.599	0.307	0.469
-442.822	-200.000	-0.015	0.249
-441.807	-98.720	-0.147	-0.038
-440.792	382.946	-0.029	0.061
-439.778	-200.000	-0.039	0.183
-438.763	-10.034	-0.296	-0.198
-437.749	2.193	0.102	-0.074
-436.734	-96.538	-0.193	0.051
-435.719	-200.000	0.026	-0.232
-434.705	-2.285	0.035	-0.025
-433.690	272.060	-0.078	-0.139
-432.676	-175.454	-0.252	0.007
-431.661	45.229	-0.299	-0.278
-430.646	-80.597	-0.296	-0.100
-429.632	-37.488	0.204	-0.110
-428.617	40.181	-0.149	0.135
-427.603	383.404	0.081	-0.169
-426.588	-95.179	0.153	0.042
-425.573	-92.255	-0.402	0.114
-424.559	622.031	0.073	-0.186
-423.544	168.777	-0.036	-0.052
-422.530	-200.000	-0.035	0.384
-421.515	-133.323	-0.256	-0.032
-420.500	-28.907	0.142	0.082
-419.486	222.309	0.115	-0.186
-418.471	-101.016	0.149	0.037
-417.457	-57.787	-0.062	0.027
-416.442	210.016	-0.122	0.192
-415.428	69.644	0.133	-0.138
-414.413	-117.026	0.206	0.038
-413.398	-200.000	-0.181	0.000
-412.384	-62.406	-0.124	-0.052
-411.369	-21.270	-0.169	-0.104
-410.355	494.913	-0.124	0.288
-409.340	97.785	0.050	-0.058
-408.325	-85.496	-0.058	0.018
-407.311	-200.000	-0.004	0.458
-406.296	-200.000	-0.020	-0.255
-405.282	212.354	0.033	-0.052
-404.267	-108.456	0.145	0.031
-403.252	-97.171	0.174	-0.046
-402.238	170.573	-0.085	-0.123
-401.223	-14.578	0.060	-0.039
-400.209	-37.919	-0.427	0.229
-399.194	-118.953	-0.195	0.034
-398.179	-136.456	0.119	0.014
-397.165	-97.591	0.137	-0.036
-396.150	118.912	0.077	-0.096
-395.136	16.106	-0.279	-0.222
-394.121	-90.079	-0.117	-0.034
-393.106	73.716	-0.047	-0.050
-392.092	432.904	0.070	0.152
-391.077	-112.511	0.206	-0.041
-390.063	55.395	0.233	0.227
-389.048	-28.141	0.199	0.116
-388.033	596.314	0.101	0.251
-387.019	583.726	-0.238	0.588
-386.004	-43.280	0.379	-0.193
-384.990	14.653	-0.276	-0.217
-383.975	-80.887	0.051	-0.017
-382.960	-88.210	-0.201	0.061
-381.946	-25.297	0.112	0.067
-380.931	58.271	0.365	-0.361
-379.917	83.699	-0.284	-0.312
-378.902	125.557	0.268	-0.341
-377.888	-42.088	0.347	0.179
-376.873	84.452	-0.266	0.293
-375.858	-41.830	-0.139	-0.072
-374.844	607.468	0.047	0.118
-373.829	-48.948	0.162	-0.078
-372.815	-200.000	0.031	-0.229
-371.800	33.845	0.037	0.032
-370.785	-84.461	0.363	-0.115
-369.771	-200.000	0.036	0.191
-368.756	252.615	-0.128	0.219
-367.742	135.845	-0.135	0.178
-366.727	-30.366	-0.153	0.088
-365.712	-36.511	-0.309	0.167
-364.698	-88.457	-0.297	-0.089
-363.683	-25.516	-0.211	-0.125
-362.669	800.000	-0.142	-0.407
-361.654	70.474	0.211	0.219
-360.639	-26.485	0.168	-0.099
-359.625	401.549	0.046	0.098
-358.610	19.534	0.134	0.109
-357.596	-12.755	-0.274	-0.180
-356.581	-27.791	-0.099	-0.058
-355.566	-50.764	-0.046	0.022
-354.552	100.456	0.187	-0.219
-353.537	191.765	-0.115	0.174
-352.523	353.422	0.094	-0.188
-351.508	-200.000	-0.012	-0.092
-350.493	124.167	-0.166	0.210
-349.479	-200.000	0.026	0.352
-348.464	475.145	0.053	-0.119
-347.450	219.567	0.189	-0.304
-346.435	-17.222	-0.140	0.089
-345.420	25.958	-0.186	-0.156
-344.406	-56.737	-0.236	-0.105
-343.391	-127.703	-0.186	0.027
-342.377	-100.416	-0.544	0.135
-341.362	-80.403	-0.230	-0.077
-340.348	-175.390	-0.080	-0.002
-339.333	-73.693	-0.056	0.021
-338.318	-113.122	-0.150	-0.030
-337.304	-44.436	-0.042	-0.021
-336.289	-200.000	0.034	0.199
-335.275	-200.000	0.016	-0.116
-334.260	-9.776	-0.242	0.162
-333.245	-200.000	0.015	-0.189
-332.231	-200.000	0.002	0.237
-331.216	-71.440	-0.119	-0.045
-330.202	-25.207	0.209	-0.125
-329.187	393.733	0.093	-0.194
-328.172	333.384	0.050	-0.097
-327.158	171.027	0.061	-0.088
-326.143	182.176	-0.123	0.181
-325.129	800.000	0.061	0.209
-324.114	800.000	0.018	-0.073
-323.099	98.713	-0.219	-0.254
-322.085	-84.388	-0.195	0.062
-321.070	-98.754	-0.060	-0.015
-320.056	-81.178	-0.303	-0.101
-319.041	-80.215	0.048	0.016
-318.026	464.850	-0.071	-0.159
-317.012	-96.230	0.243	0.065
-315.997	-200.000	0.049	0.295
-314.983	-12.526	-0.134	-0.088
-313.968	-20.627	-0.145	-0.090
-312.953	-89.740	-0.062	-0.018
-311.939	-200.000	-0.054	0.425
-310.924	79.119	0.216	0.232
-309.910	-68.791	-0.366	0.142
-308.895	-200.000	-0.344	-0.000
-307.880	800.000	-0.086	0.286
-306.866	161.355	-0.195	-0.273
-305.851	-19.419	-0.108	-0.067
-304.837	-19.980	0.251	0.156
-303.822	800.000	0.073	0.229
-302.807	244.524	-0.041	-0.069
-301.793	10.820	0.297	-0.227
-300.778	82.746	-0.176	0.192
-299.764	800.000	-0.110	-0.368
-298.749	-15.693	0.237	-0.152
-297.735	-142.175	0.191	-0.019
-296.720	-119.592	0.143	0.025
-295.705	-99.789	0.303	-0.076
-294.691	-22.534	0.131	0.079
-293.676	-200.000	-0.048	0.315
-292.662	-114.132	-0.061	-0.012
-291.647	-43.056	0.269	0.137
-290.632	-105.848	0.331	0.075
-289.618	-176.403	0.166	0.004
-288.603	-38.234	-0.079	-0.042
-287.589	-40.341	-0.347	-0.181
-286.574	-22.795	0.160	-0.097
-285.559	-28.442	0.155	-0.090
-284.545	-200.000	0.015	0.167
-283.530	-49.355	-0.233	0.112
-282.516	-73.507	-0.138	0.050
-281.501	607.839	-0.062	0.155
-280.486	-16.813	-0.279	0.177
-279.472	-19.725	-0.147	-0.091
-278.457	535.742	0.077	-0.184
-277.443	120.044	-0.028	-0.035
-276.428	367.755	0.121	0.244
-275.413	-47.431	0.313	0.153
-274.399	-200.000	0.030	0.189
-273.384	-26.393	0.070	-0.041
-272.370	101.330	-0.103	-0.120
-271.355	277.003	0.200	-0.356
-270.340	-200.000	0.022	0.223
-269.326	-200.000	-0.038	0.182
-268.311	-152.756	-0.142	-0.010
-267.297	-4.779	0.187	-0.129
-266.282	33.131	-0.205	-0.178
-265.267	120.961	0.087	-0.108
-264.253	-26.371	0.245	-0.144
-263.238	-200.000	-0.003	-0.192
-262.224	156.721	0.064	0.088
-261.209	-138.669	-0.046	0.005
-260.195	111.020	0.146	0.176
-259.180	411.561	-0.137	0.292
-258.165	26.956	-0.076	0.063
-257.151	10.586	-0.171	0.131
-256.136	-66.561	0.083	-0.033
-255.122	529.145	0.085	-0.200
-254.107	800.000	-0.081	0.257
-253.092	108.790	0.095	-0.113
-252.078	-37.046	0.033	-0.018
-251.063	-119.427	0.078	-0.014
-250.049	-200.000	-0.004	0.295
-249.034	-113.207	-0.190	0.038
-248.019	-200.000	0.023	0.304
-247.005	23.995	-0.234	-0.194
-245.990	138.533	0.091	0.120
-244.976	48.131	0.158	-0.148
-243.961	430.116	0.058	0.125
-242.946	542.064	-0.099	0.237
-241.932	-94.435	-0.084	-0.023
-240.917	800.000	-0.063	0.176
-239.903	493.396	0.049	-0.114
-238.888	610.527	0.045	-0.111
-237.873	-156.872	0.115	0.007
-236.859	94.799	-0.184	0.209
-235.844	-139.561	0.248	0.027
-234.830	26.020	-0.332	0.277
-233.815	254.274	0.119	0.204
-232.800	-40.746	0.294	0.153
-231.786	-200.000	-0.041	-0.290
-230.771	395.154	-0.133	-0.278
-229.757	224.768	0.192	-0.311
-228.742	-101.844	-0.320	0.077
-227.727	800.000	-0.087	-0.333
-226.713	-162.004	0.218	0.011
-225.698	-64.575	-0.215	0.087
-224.684	13.789	0.106	-0.083
-223.669	-79.700	-0.313	0.105
-222.655	-200.000	0.023	-0.152
-221.640	90.467	0.265	-0.297
-220.625	-200.000	-0.040	-0.182
-219.611	-200.000	0.006	-0.505
-218.596	-67.222	0.317	0.125
-217.582	-38.515	0.110	0.058
-216.567	-104.459	-0.165	0.038
-215.552	214.801	-0.044	-0.070
-214.538	-200.000	0.042	-0.314
-213.523	-126.986	-0.134	-0.020
-212.509	-52.140	0.249	0.115
-211.494	27.302	0.090	0.075
-210.479	-58.093	0.334	-0.146
-209.465	-97.349	0.125	0.032
-208.450	-122.497	0.202	-0.033
-207.436	15.758	0.128	0.101
-206.421	-42.616	-0.370	0.188
-205.406	-49.585	0.402	0.191
-204.392	-200.000	0.021	0.127
-203.377	-109.368	0.280	0.059
-202.363	44.553	0.148	0.136
-201.348	13.083	0.098	-0.076
-200.333	48.826	-0.048	0.045
-199.319	238.247	-0.257	-0.427
-198.304	149.250	0.263	-0.356
-197.290	205.427	0.113	-0.175
-196.275	150.981	-0.158	-0.215
-195.260	-11.547	-0.178	0.117
-194.246	181.391	-0.073	-0.108
-193.231	-116.844	0.225	0.041
-192.217	-154.149	0.473	-0.032
-191.202	233.178	-0.033	-0.054
-190.187	419.292	-0.175	0.374
-189.173	-200.000	0.020	0.110
-188.158	-60.255	0.040	0.017
-187.144	180.087	-0.140	0.205
-186.129	-125.693	0.193	-0.029
-185.114	-200.000	0.058	-0.294
-184.100	800.000	-0.066	0.182
-183.085	115.208	-0.292	0.357
-182.071	-20.133	0.095	0.059
-181.056	800.000	0.023	-0.098
-180.042	-116.065	-0.257	-0.048
-179.027	-200.000	0.028	0.127
-178.012	516.293	-0.071	0.167
-176.998	800.000	0.041	-0.118
-175.983	27.423	0.423	-0.355
-174.969	-74.911	-0.134	0.048
-173.954	-123.224	0.145	-0.023
-172.939	9.150	-0.311	-0.235
-171.925	392.723	-0.041	0.084
-170.910	27.822	-0.202	-0.170
-169.896	39.857	0.161	0.144
-168.881	270.121	0.096	0.168
-167.866	-200.000	0.012	-0.110
-166.852	173.574	0.256	-0.370
-165.837	-200.000	0.032	0.235
-164.823	-60.711	0.291	0.123
-163.808	-77.399	-0.034	0.012
-162.793	-200.000	-0.406	0.001
-161.779	191.218	0.109	0.164
-160.764	-38.783	0.345	-0.182
-159.750	800.000	0.104	-0.353
-158.735	16.917	-0.159	0.126
-157.720	68.530	0.088	0.090
-156.706	179.383	-0.088	0.129
-155.691	29.555	0.141	0.119
-154.677	-145.608	-0.309	-0.028
-153.662	220.888	0.097	-0.155
-152.647	440.507	-0.020	0.043
-151.633	-59.821	0.166	-0.071
-150.618	742.354	-0.071	-0.191
-149.604	336.846	-0.189	-0.366
-148.589	-1.846	0.274	-0.192
-147.574	800.000	0.150	-0.516
-146.560	-36.455	-0.182	-0.098
-145.545	-1.165	0.034	0.024
-144.531	-177.971	0.177	-0.004
-143.516	84.845	-0.008	0.009
-142.502	44.841	0.094	-0.086
-141.487	281.610	-0.094	-0.168
-140.472	-200.000	-0.180	-0.001
-139.458	-2.843	0.339	0.236
-138.443	14.114	0.066	-0.051
-137.429	-200.000	0.050	-0.406
-136.414	-122.197	0.455	-0.074
-135.399	101.666	0.114	-0.132
-134.385	-200.000	-0.010	0.128
-133.370	-128.051	-0.371	-0.053
-132.356	32.816	0.039	-0.034
-131.341	800.000	-0.080	-0.244
-130.326	629.691	0.033	-0.083
-129.312	-66.341	0.039	0.016
-128.297	-200.000	0.008	-0.297
-127.283	-33.293	0.288	-0.159
-126.268	-65.030	-0.439	-0.177
-125.253	322.554	0.033	-0.062
-124.239	374.873	-0.074	-0.150
-123.224	-59.738	-0.234	0.100
-122.210	-101.367	0.355	-0.086
