DTS Sentinel unit serial number:	SN413079Multiplexer serial number:	ORYXHardware model number:	OX4-SRSoftware version number:	ORYX F/W v4.00 Oryx Data Collector v3.7.2.0data status	okinstallation	princeton_trtdifferential loss correction	single-endedforward channel	channel 3reverse channel	N/Adate	2019/09/14time	02:28:34forward acquisition time	60.00reverse acquisition time	0.00gamma	496.2192k internal	0.2340k external	0.2340temperature offset calibration	1.0051default loss term (dB/km)	0.3790temperature slope calibration	1.0000multiplexer offset coefficient	1.0000multiplexer slope coefficient	1.0000fibre end	0.00T internal ref (°C)	26.55T ext. ref 1 (°C)	3.23T ext. ref 2 (°C)	21.52length (m)	temperature (°C)	Stokes	anti-Stokes-747.200	302.163	0.033	0.062
-746.185	208.705	0.140	0.220
-745.171	-200.000	-0.024	0.269
-744.156	-200.000	0.026	0.127
-743.142	4.907	0.090	0.067
-742.127	247.503	0.057	0.097
-741.112	64.695	-0.077	0.078
-740.098	-100.389	-0.319	0.079
-739.083	-14.551	0.078	-0.051
-738.069	-200.000	-0.474	-0.001
-737.054	-102.914	0.171	0.041
-736.039	28.440	-0.032	-0.027
-735.025	471.856	0.056	0.126
-734.010	68.571	-0.174	-0.179
-732.996	-78.158	-0.065	0.022
-731.981	-47.213	0.242	0.118
-730.966	-200.000	0.004	0.089
-729.952	-59.447	0.206	0.089
-728.937	54.817	-0.149	0.144
-727.923	-200.000	-0.028	-0.414
-726.908	44.532	-0.148	0.136
-725.894	-162.133	0.248	0.012
-724.879	-200.000	0.027	0.196
-723.864	-200.000	-0.070	-0.321
-722.850	53.071	-0.178	-0.171
-721.835	162.929	-0.144	-0.202
-720.821	108.538	-0.388	-0.464
-719.806	-200.000	-0.011	-0.188
-718.791	736.689	-0.102	-0.275
-717.777	-99.859	0.174	0.044
-716.762	-98.555	-0.352	0.090
-715.748	-173.700	-0.109	0.003
-714.733	31.132	-0.071	-0.061
-713.718	7.363	0.185	0.138
-712.704	-81.469	0.092	-0.030
-711.689	800.000	0.031	-0.102
-710.675	800.000	0.032	-0.142
-709.660	-141.252	-0.346	-0.035
-708.645	-200.000	-0.012	0.118
-707.631	128.249	0.042	0.053
-706.616	-68.784	-0.584	-0.226
-705.602	-200.000	-0.016	-0.071
-704.587	56.543	0.186	0.181
-703.572	208.873	-0.052	-0.081
-702.558	-89.985	0.339	0.099
-701.543	-200.000	0.018	0.238
-700.529	167.808	-0.041	-0.059
-699.514	-127.364	0.105	-0.015
-698.499	123.179	0.036	0.046
-697.485	53.554	-0.146	0.140
-696.470	-66.851	-0.292	0.116
-695.456	764.703	0.040	0.110
-694.441	-53.780	-0.353	0.161
-693.426	248.847	-0.249	0.423
-692.412	-14.750	-0.215	-0.138
-691.397	437.636	-0.092	0.200
-690.383	-138.195	-0.406	-0.045
-689.368	-133.684	-0.131	-0.016
-688.354	154.137	-0.150	-0.206
-687.339	800.000	0.077	0.226
-686.324	-200.000	0.019	0.395
-685.310	-22.493	-0.132	0.080
-684.295	-56.598	0.427	0.189
-683.281	-148.164	-0.167	0.014
-682.266	800.000	0.031	-0.103
-681.251	-88.288	0.082	0.025
-680.237	-73.561	-0.265	-0.097
-679.222	30.589	0.223	0.190
-678.208	26.091	-0.144	-0.120
-677.193	164.251	-0.151	-0.213
-676.178	8.005	-0.264	-0.198
-675.164	377.385	0.075	0.154
-674.149	58.657	-0.117	-0.115
-673.135	-43.760	0.165	0.083
-672.120	800.000	-0.071	0.305
-671.105	-103.920	0.167	0.039
-670.091	287.622	-0.117	0.212
-669.076	338.829	-0.172	-0.334
-668.062	-109.169	0.471	0.100
-667.047	327.685	0.065	0.124
-666.032	-200.000	0.008	0.117
-665.018	30.077	-0.123	0.105
-664.003	151.797	0.015	0.020
-662.989	-69.490	0.141	0.054
-661.974	54.543	-0.231	0.223
-660.959	-200.000	-0.004	-0.107
-659.945	-116.047	0.245	-0.046
-658.930	-200.000	0.029	0.129
-657.916	-81.232	0.072	-0.024
-656.901	117.922	-0.244	-0.300
-655.886	-7.999	-0.129	0.087
-654.872	-200.000	0.009	-0.219
-653.857	-200.000	-0.022	0.281
-652.843	0.654	-0.093	-0.067
-651.828	-162.247	0.300	0.015
-650.814	47.661	0.372	-0.346
-649.799	45.135	0.164	-0.151
-648.784	-138.757	-0.189	-0.021
-647.770	-44.093	-0.228	0.114
-646.755	513.905	-0.048	0.112
-645.741	-45.502	-0.334	0.165
-644.726	249.044	0.105	0.178
-643.711	-200.000	-0.014	0.123
-642.697	423.455	-0.039	-0.084
-641.682	416.109	0.030	-0.064
-640.668	281.050	-0.103	-0.183
-639.653	-88.660	0.149	-0.044
-638.638	-200.000	0.003	0.161
-637.624	-87.821	0.284	-0.085
-636.609	33.535	-0.342	-0.296
-635.595	351.200	-0.033	-0.066
-634.580	22.103	-0.157	-0.128
-633.565	-81.918	0.094	0.031
-632.551	-32.600	0.113	-0.063
-631.536	800.000	0.051	-0.145
-630.522	174.547	-0.123	-0.178
-629.507	-146.352	-0.121	0.011
-628.492	-82.056	0.332	0.108
-627.478	-127.126	-0.230	-0.034
-626.463	-109.476	-0.411	-0.087
-625.449	-45.570	0.240	-0.119
-624.434	-23.441	-0.050	0.030
-623.419	-157.777	-0.470	0.028
-622.405	-35.060	0.246	0.134
-621.390	248.700	-0.117	-0.197
-620.376	-119.875	0.036	0.006
-619.361	800.000	-0.047	-0.143
-618.346	-82.612	-0.392	-0.127
-617.332	-109.343	-0.219	0.046
-616.317	800.000	-0.123	0.405
-615.303	103.039	-0.134	0.157
-614.288	8.780	-0.148	0.111
-613.273	-89.448	0.196	-0.057
-612.259	615.218	0.033	-0.083
-611.244	-200.000	0.055	0.292
-610.230	-44.626	0.315	-0.157
-609.215	-118.814	0.226	0.040
-608.201	-28.627	-0.090	-0.051
-607.186	139.294	-0.053	-0.070
-606.171	-11.113	0.156	-0.102
-605.157	-200.000	0.024	0.170
-604.142	-200.000	-0.001	0.188
-603.128	-56.004	0.221	-0.098
-602.113	-86.520	0.188	0.057
-601.098	233.965	-0.052	-0.086
-600.084	-200.000	0.011	0.053
-599.069	-53.719	-0.144	0.066
-598.055	800.000	0.040	-0.143
-597.040	-32.955	0.047	0.026
-596.025	-187.299	0.100	0.001
-595.011	-113.908	0.227	0.044
-593.996	242.551	-0.276	-0.460
-592.982	-56.081	0.140	0.062
-591.967	-200.000	0.064	-0.449
-590.952	14.271	-0.228	-0.177
-589.938	-200.000	-0.032	0.272
-588.923	-200.000	-0.035	0.155
-587.909	-200.000	-0.004	0.064
-586.894	328.758	0.064	-0.122
-585.879	-128.771	-0.355	-0.050
-584.865	-70.066	-0.294	0.111
-583.850	-200.000	-0.005	-0.030
-582.836	121.767	-0.126	0.157
-581.821	366.654	-0.116	0.232
-580.806	-147.142	0.082	0.007
-579.792	-37.025	0.316	0.169
-578.777	124.449	-0.119	-0.149
-577.763	501.911	-0.041	-0.094
-576.748	95.076	0.235	-0.267
-575.733	-111.618	-0.150	0.030
-574.719	-31.326	-0.069	-0.039
-573.704	-200.000	-0.016	0.243
-572.690	33.806	0.239	0.207
-571.675	-11.397	-0.156	-0.102
-570.661	76.550	-0.106	-0.112
-569.646	77.950	-0.124	-0.132
-568.631	800.000	-0.042	0.163
-567.617	388.740	0.101	-0.208
-566.602	-132.616	0.053	-0.007
-565.588	-32.600	-0.185	-0.102
-564.573	-200.000	0.012	-0.071
-563.558	292.198	0.110	0.199
-562.544	609.921	-0.074	-0.184
-561.529	70.331	0.114	0.117
-560.515	-145.660	0.205	-0.018
-559.500	-109.019	0.148	-0.031
-558.485	800.000	0.052	0.165
-557.471	-111.436	-0.167	-0.034
-556.456	-200.000	-0.003	0.038
-555.442	-200.000	-0.042	-0.249
-554.427	-23.314	0.158	0.095
-553.412	800.000	0.074	-0.246
-552.398	-200.000	0.030	-0.315
-551.383	-178.806	0.170	-0.004
-550.369	-200.000	-0.267	0.000
-549.354	105.508	-0.033	-0.039
-548.339	-16.519	0.219	0.138
-547.325	-151.143	0.143	0.011
-546.310	-45.093	0.100	-0.050
-545.296	-27.102	-0.319	0.185
-544.281	-80.992	-0.197	0.065
-543.266	36.913	-0.326	0.287
-542.252	800.000	-0.022	0.066
-541.237	512.237	0.129	-0.299
-540.223	-200.000	-0.012	-0.301
-539.208	-113.436	-0.153	0.030
-538.193	-80.425	0.145	-0.048
-537.179	414.349	0.067	0.142
-536.164	-15.698	0.177	0.113
-535.150	-125.233	0.338	-0.051
-534.135	-144.763	-0.138	-0.013
-533.121	-104.152	0.455	-0.105
-532.106	-166.982	-0.463	-0.019
-531.091	-80.525	-0.182	0.060
-530.077	109.663	0.073	0.087
-529.062	-167.519	0.280	-0.011
-528.048	-177.500	-0.220	0.005
-527.033	-49.744	0.040	0.019
-526.018	-200.000	-0.017	0.144
-525.004	32.784	-0.099	0.085
-523.989	-61.019	-0.346	0.145
-522.975	-44.463	0.110	0.055
-521.960	20.640	-0.063	0.051
-520.945	-143.054	0.276	-0.027
-519.931	-15.486	0.132	-0.083
-518.916	-95.800	0.374	0.099
-517.902	575.469	-0.066	0.159
-516.887	49.237	0.255	0.238
-515.872	125.460	-0.104	0.131
-514.858	-200.000	0.033	0.201
-513.843	-114.430	-0.099	0.019
-512.829	-148.489	0.089	-0.007
-511.814	-6.637	-0.033	-0.022
-510.799	292.444	-0.067	-0.122
-509.785	611.106	0.066	-0.163
-508.770	-135.912	0.059	-0.007
-507.756	150.315	-0.208	0.280
-506.741	-51.305	0.129	0.060
-505.726	-157.213	0.463	0.028
-504.712	-200.000	-0.014	-0.110
-503.697	320.037	-0.121	0.228
-502.683	57.368	0.324	0.314
-501.668	-23.300	-0.311	-0.186
-500.653	-117.798	0.089	0.016
-499.639	-148.169	0.296	0.024
-498.624	-133.359	0.263	0.033
-497.610	-16.751	-0.257	-0.161
-496.595	-114.025	0.109	0.021
-495.581	-200.000	-0.028	-0.145
-494.566	-57.044	-0.296	0.130
-493.551	18.798	0.176	0.140
-492.537	-48.466	0.094	0.045
-491.522	43.919	-0.150	0.136
-490.508	-200.000	-0.015	0.199
-489.493	-200.000	0.071	-0.317
-488.478	-78.840	0.178	0.060
-487.464	89.335	-0.104	0.115
-486.449	-200.000	0.042	0.327
-485.435	-60.514	-0.109	-0.046
-484.420	-65.779	-0.122	0.049
-483.405	-2.275	-0.094	-0.066
-482.391	193.313	0.078	-0.117
-481.376	800.000	0.049	-0.163
-480.362	253.719	0.086	-0.145
-479.347	232.231	-0.081	0.132
-478.332	-200.000	-0.010	0.140
-477.318	-200.000	0.025	-0.194
-476.303	-79.535	-0.113	0.038
-475.289	-200.000	-0.011	-0.160
-474.274	-200.000	0.004	-0.090
-473.259	-106.739	-0.312	-0.069
-472.245	28.543	-0.144	-0.121
-471.230	800.000	-0.055	-0.209
-470.216	-41.549	-0.314	-0.160
-469.201	800.000	-0.051	0.144
-468.186	49.285	0.163	0.152
-467.172	-200.000	-0.013	0.475
-466.157	228.552	-0.145	-0.234
-465.143	520.479	0.076	0.176
-464.128	-46.569	-0.240	-0.117
-463.113	-72.679	0.074	0.027
-462.099	-164.455	0.033	-0.001
-461.084	-40.707	0.262	-0.135
-460.070	51.656	-0.153	0.145
-459.055	-65.001	-0.213	0.085
-458.040	124.494	0.100	-0.124
-457.026	-200.000	-0.008	-0.040
-456.011	-157.376	-0.228	0.014
-454.997	800.000	-0.027	0.112
-453.982	-50.366	-0.185	0.087
-452.968	65.777	0.067	-0.067
-451.953	124.142	-0.195	-0.243
-450.938	-41.780	0.173	0.088
-449.924	59.017	-0.268	0.261
-448.909	-13.213	0.215	0.139
-447.895	-64.402	-0.159	-0.064
-446.880	225.260	0.129	0.207
-445.865	54.629	0.127	0.121
-444.851	-0.597	-0.148	-0.104
-443.836	-74.337	0.161	-0.058
-442.822	16.684	-0.203	0.159
-441.807	-200.000	-0.000	-0.048
-440.792	46.803	0.075	-0.069
-439.778	470.091	0.114	0.255
-438.763	-58.904	0.106	0.046
-437.749	800.000	-0.071	-0.206
-436.734	-80.248	-0.107	0.035
-435.719	-75.087	-0.103	0.037
-434.705	-3.796	0.143	0.099
-433.690	8.628	0.155	0.115
-432.676	-85.161	-0.499	0.155
-431.661	-181.761	0.249	-0.005
-430.646	80.094	-0.127	-0.135
-429.632	46.313	0.215	0.198
-428.617	-67.983	-0.325	-0.125
-427.603	-104.004	0.274	-0.063
-426.588	-200.000	0.011	0.059
-425.573	15.417	-0.321	-0.250
-424.559	38.080	0.071	-0.062
-423.544	800.000	0.028	-0.089
-422.530	-150.281	-0.039	-0.003
-421.515	-159.448	0.355	0.020
-420.500	213.490	-0.049	-0.076
-419.486	-97.115	-0.011	-0.003
-418.471	-200.000	0.014	-0.295
-417.457	800.000	0.035	0.123
-416.442	43.008	0.294	0.266
-415.428	303.747	0.039	0.071
-414.413	35.503	-0.066	-0.057
-413.398	31.310	0.293	-0.249
-412.384	329.833	0.161	0.307
-411.369	-110.580	-0.195	0.040
-410.355	800.000	-0.045	-0.179
-409.340	-73.401	0.149	0.054
-408.325	-200.000	0.008	0.192
-407.311	800.000	-0.038	-0.111
-406.296	-61.160	-0.208	0.087
-405.282	-98.454	-0.152	0.039
-404.267	458.952	0.146	-0.322
-403.252	-85.662	-0.203	0.062
-402.238	-200.000	0.001	-0.101
-401.223	-200.000	-0.019	-0.144
-400.209	24.892	-0.143	-0.117
-399.194	800.000	-0.142	0.418
-398.179	800.000	0.058	-0.178
-397.165	800.000	0.019	0.078
-396.150	652.706	0.043	-0.108
-395.136	-134.830	0.220	-0.026
-394.121	662.740	0.173	0.442
-393.106	-165.880	-0.440	-0.019
-392.092	334.637	-0.092	-0.176
-391.077	190.910	-0.106	0.158
-390.063	-81.741	0.027	-0.009
-389.048	800.000	0.024	-0.086
-388.033	359.836	-0.044	-0.086
-387.019	108.948	-0.189	-0.224
-386.004	800.000	-0.056	0.215
-384.990	418.325	0.089	0.188
-383.975	251.144	0.100	0.169
-382.960	-73.794	0.206	-0.074
-381.946	-200.000	-0.004	0.031
-380.931	92.411	-0.061	-0.068
-379.917	-123.586	-0.122	0.019
-378.902	-200.000	0.103	-0.515
-377.888	-140.169	0.286	0.030
-376.873	718.817	0.040	-0.105
-375.858	-200.000	-0.032	0.167
-374.844	-57.832	0.307	0.133
-373.829	-188.786	-0.369	0.004
-372.815	-200.000	-0.028	0.295
-371.800	58.667	-0.102	-0.099
-370.785	-0.017	-0.144	0.101
-369.771	78.823	-0.204	0.216
-368.756	-200.000	0.037	-0.374
-367.742	-168.042	0.138	-0.005
-366.727	-152.909	0.195	0.014
-365.712	-111.515	-0.206	-0.041
-364.698	93.441	0.114	-0.128
-363.683	-112.593	-0.583	0.115
-362.669	238.809	0.149	-0.244
-361.654	364.342	0.055	-0.110
-360.639	-90.097	0.140	0.040
-359.625	-48.136	0.361	0.172
-358.610	-134.937	-0.231	0.028
-357.596	-104.325	0.144	-0.033
-356.581	-13.711	0.131	-0.084
-355.566	800.000	-0.143	-0.465
-354.552	-180.268	-0.458	-0.009
-353.537	-200.000	0.009	-0.301
-352.523	-200.000	-0.033	-0.230
-351.508	-107.587	0.415	-0.090
-350.493	-193.650	0.300	0.003
-349.479	-126.354	0.197	-0.029
-348.464	44.244	0.186	0.168
-347.450	800.000	-0.074	0.264
-346.435	104.682	-0.027	-0.032
-345.420	-200.000	-0.014	-0.454
-344.406	800.000	-0.031	-0.099
-343.391	-200.000	0.038	0.186
-342.377	48.137	-0.062	0.057
-341.362	-24.274	0.339	0.199
-340.348	-118.364	-0.153	0.027
-339.333	-121.923	0.143	-0.023
-338.318	575.939	-0.128	0.308
-337.304	793.035	0.073	-0.197
-336.289	39.302	-0.099	-0.088
-335.275	-79.406	0.214	0.071
-334.260	549.710	-0.143	-0.338
-333.245	161.763	-0.016	0.022
-332.231	-200.000	-0.015	-0.167
-331.216	-58.451	-0.217	-0.093
-330.202	800.000	0.101	0.371
-329.187	16.686	-0.208	0.162
-328.172	500.645	0.181	-0.413
-327.158	-54.940	0.098	0.043
-326.143	-86.748	0.283	-0.085
-325.129	10.562	0.134	0.101
-324.114	-200.000	0.053	-0.238
-323.099	-51.671	0.018	0.008
-322.085	-200.000	-0.002	-0.205
-321.070	-126.541	-0.201	0.029
-320.056	-187.906	-0.313	0.004
-319.041	576.209	-0.072	0.173
-318.026	800.000	-0.035	0.133
-317.012	-97.020	-0.134	-0.035
-315.997	446.340	0.149	0.322
-314.983	-91.844	-0.191	0.054
-313.968	3.863	-0.453	0.326
-312.953	165.993	0.240	0.335
-311.939	137.061	-0.262	-0.338
-310.924	140.207	0.169	-0.220
-309.910	493.241	0.025	-0.057
-308.895	-17.476	0.416	-0.258
-307.880	626.805	-0.079	0.196
-306.866	800.000	-0.016	-0.069
-305.851	-147.305	-0.133	-0.011
-304.837	26.335	-0.203	-0.167
-303.822	591.572	0.169	-0.411
-302.807	-34.899	-0.121	0.065
-301.793	302.803	-0.104	0.190
-300.778	1.831	0.093	-0.066
-299.764	-17.104	-0.334	0.208
-298.749	-144.500	0.203	-0.019
-297.735	16.538	0.157	-0.122
-296.720	110.349	0.039	-0.046
-295.705	-35.014	-0.091	-0.049
-294.691	-38.765	0.257	-0.133
-293.676	-200.000	0.057	0.312
-292.662	128.154	0.239	0.300
-291.647	-168.258	-0.039	0.001
-290.632	121.611	0.311	-0.382
-289.618	-159.884	-0.272	0.015
-288.603	-40.404	-0.280	0.144
-287.589	800.000	0.067	0.214
-286.574	-200.000	-0.048	-0.287
-285.559	-75.574	-0.149	-0.052
-284.545	-200.000	-0.013	-0.149
-283.530	-164.096	-0.355	0.016
-282.516	186.158	0.124	-0.181
-281.501	474.919	-0.050	-0.111
-280.486	-148.503	0.169	-0.014
-279.472	87.913	0.136	-0.148
-278.457	100.562	0.094	-0.108
-277.443	272.727	0.156	0.271
-276.428	137.356	0.044	0.057
-275.413	233.058	-0.088	0.142
-274.399	414.119	-0.059	0.123
-273.384	121.070	-0.155	-0.190
-272.370	31.390	-0.172	0.145
-271.355	149.550	0.037	-0.050
-270.340	-200.000	0.011	0.225
-269.326	-29.735	0.125	-0.070
-268.311	-168.533	0.115	0.004
-267.297	-200.000	-0.058	0.273
-266.282	-131.023	0.185	0.024
-265.267	-167.222	-0.097	0.004
-264.253	16.125	-0.177	-0.137
-263.238	-82.992	-0.310	0.098
-262.224	-70.157	0.297	0.111
-261.209	-200.000	0.016	0.075
-260.195	214.037	0.074	-0.114
-259.180	582.291	0.117	-0.281
-258.165	-200.000	-0.014	-0.066
-257.151	-97.211	0.173	-0.044
-256.136	182.689	-0.071	-0.103
-255.122	26.768	0.299	-0.247
-254.107	110.263	-0.109	0.128
-253.092	490.474	0.107	-0.240
-252.078	-76.019	-0.150	-0.052
-251.063	-200.000	-0.017	-0.191
-250.049	66.552	0.234	-0.234
-249.034	33.334	0.074	0.063
-248.019	-200.000	-0.043	-0.254
-247.005	81.658	0.301	0.320
-245.990	-49.161	0.303	0.142
-244.976	-30.438	0.089	-0.049
-243.961	-153.524	-0.259	0.018
-242.946	711.713	0.066	0.173
-241.932	11.583	0.230	-0.173
-240.917	-200.000	-0.018	0.100
-239.903	-65.184	0.100	0.040
-238.888	214.914	-0.067	0.105
-237.873	187.434	0.017	0.024
-236.859	-200.000	0.012	0.198
-235.844	55.640	-0.333	0.317
-234.830	-125.129	0.238	-0.036
-233.815	800.000	0.064	-0.179
-232.800	-200.000	0.000	0.060
-231.786	174.045	-0.048	-0.068
-230.771	-83.041	0.262	0.083
-229.757	-200.000	0.002	-0.036
-228.742	-10.751	-0.247	-0.160
-227.727	63.774	0.079	0.078
-226.713	800.000	0.004	-0.015
-225.698	-200.000	0.023	0.361
-224.684	76.097	-0.242	0.252
-223.669	-62.371	0.159	0.065
-222.655	57.498	0.111	-0.106
-221.640	-83.539	0.387	-0.122
-220.625	194.216	-0.147	-0.219
-219.611	-94.533	-0.619	0.166
-218.596	800.000	-0.023	-0.088
-217.582	36.072	-0.217	0.188
-216.567	494.015	-0.059	-0.133
-215.552	-40.067	-0.376	-0.192
-214.538	800.000	-0.089	0.375
-213.523	509.406	-0.143	0.327
-212.509	-200.000	-0.014	0.214
-211.494	-23.045	0.078	-0.046
-210.479	304.485	0.083	0.151
-209.465	800.000	-0.046	0.140
-208.450	-200.000	0.009	-0.160
-207.436	-76.790	-0.257	0.088
-206.421	800.000	0.048	0.146
-205.406	13.895	-0.129	0.099
-204.392	214.118	-0.157	-0.244
-203.377	-133.812	-0.187	-0.023
-202.363	800.000	0.099	0.289
-201.348	-126.136	0.339	0.050
-200.333	-200.000	-0.498	-0.001
-199.319	207.035	0.116	-0.178
-198.304	-119.426	0.217	0.037
-197.290	-49.662	0.136	0.064
-196.275	-169.231	0.172	0.006
-195.260	45.274	0.333	-0.301
-194.246	800.000	0.027	0.082
-193.231	-9.332	-0.086	-0.056
-192.217	309.703	0.100	0.183
-191.202	48.748	0.132	0.121
-190.187	-200.000	0.017	-0.103
-189.173	119.477	0.142	-0.172
-188.158	800.000	0.087	-0.309
-187.144	-1.050	0.359	0.249
-186.129	800.000	0.105	0.356
-185.114	-92.452	0.283	0.078
-184.100	-132.090	-0.188	-0.024
-183.085	-100.946	-0.331	-0.080
-182.071	33.582	0.041	-0.035
-181.056	-200.000	-0.053	-0.231
-180.042	-26.255	-0.279	-0.161
-179.027	136.272	-0.236	0.302
-178.012	-133.367	-0.233	-0.029
-176.998	-47.584	0.199	0.095
-175.983	-200.000	-0.031	0.281
-174.969	-15.986	0.034	0.021
-173.954	-17.871	0.285	-0.175
-172.939	-113.358	0.111	-0.021
-171.925	97.889	0.183	-0.207
-170.910	-200.000	0.093	-0.521
-169.896	-107.578	0.170	0.036
-168.881	-200.000	0.007	0.071
-167.866	474.840	0.080	-0.178
-166.852	-108.902	0.335	-0.070
-165.837	800.000	0.025	0.097
-164.823	54.868	0.253	0.240
-163.808	243.831	0.060	0.099
-162.793	-200.000	0.034	-0.161
-161.779	-13.243	-0.161	-0.102
-160.764	50.978	-0.260	-0.241
-159.750	393.126	0.069	0.140
-158.735	-200.000	-0.027	0.129
-157.720	800.000	-0.061	0.183
-156.706	-85.397	-0.178	-0.054
-155.691	-102.219	-0.106	-0.025
-154.677	-69.667	-0.121	-0.046
-153.662	196.161	0.224	-0.334
-152.647	101.528	-0.103	0.118
-151.633	54.573	0.051	-0.048
-150.618	260.191	0.031	-0.053
-149.604	-70.291	-0.122	-0.045
-148.589	3.853	0.207	-0.148
-147.574	140.984	-0.058	0.075
-146.560	-200.000	0.066	0.369
-145.545	21.972	0.074	-0.059
-144.531	9.649	-0.042	-0.031
-143.516	257.985	0.218	0.367
-142.502	-200.000	-0.010	0.340
-141.487	27.911	0.244	0.201
-140.472	104.909	-0.189	0.218
-139.458	108.956	0.255	0.299
-138.443	800.000	-0.059	0.167
-137.429	-119.809	-0.190	-0.032
-136.414	-200.000	0.012	0.185
-135.399	800.000	-0.049	-0.176
-134.385	283.281	0.148	0.260
-133.370	-96.119	0.246	-0.064
-132.356	-81.023	0.322	0.104
-131.341	534.376	-0.055	-0.128
-130.326	12.527	0.358	0.270
-129.312	-56.505	-0.084	0.037
-128.297	-200.000	0.019	0.388
-127.283	135.709	0.109	0.139
-126.268	89.314	-0.153	0.167
-125.253	437.766	0.124	-0.265
-124.239	-20.978	-0.109	0.065
-123.224	-20.229	-0.272	0.164
-122.210	131.394	0.208	-0.261
-121.195	-23.695	0.125	0.073
