DTS Sentinel unit serial number:	SN413079Multiplexer serial number:	ORYXHardware model number:	OX4-SRSoftware version number:	ORYX F/W v4.00 Oryx Data Collector v3.7.2.0data status	okinstallation	princeton_trtdifferential loss correction	single-endedforward channel	channel 3reverse channel	N/Adate	2019/09/12time	15:58:10forward acquisition time	60.00reverse acquisition time	0.00gamma	496.2192k internal	0.2297k external	0.2297temperature offset calibration	1.0067default loss term (dB/km)	0.3790temperature slope calibration	1.0000multiplexer offset coefficient	1.0000multiplexer slope coefficient	1.0000fibre end	0.00T internal ref (°C)	39.14T ext. ref 1 (°C)	2.49T ext. ref 2 (°C)	32.11length (m)	temperature (°C)	Stokes	anti-Stokes-747.200	-29.358	-0.469	-0.274
-746.185	171.387	-0.260	0.380
-745.171	-200.000	0.025	0.309
-744.156	800.000	-0.029	-0.100
-743.142	-200.000	-0.031	0.263
-742.127	-200.000	-0.023	0.522
-741.112	11.825	0.255	0.200
-740.098	-155.103	-0.238	0.016
-739.083	-200.000	-0.037	0.186
-738.069	62.682	0.119	0.122
-737.054	481.996	0.067	0.155
-736.039	-200.000	-0.029	-0.147
-735.025	-75.462	-0.264	0.096
-734.010	800.000	-0.048	-0.171
-732.996	-28.975	-0.210	-0.123
-731.981	-101.842	0.222	0.055
-730.966	800.000	-0.013	0.038
-729.952	-81.627	-0.344	-0.115
-728.937	-35.061	0.083	0.046
-727.923	-132.148	0.247	-0.033
-726.908	-82.934	0.286	0.094
-725.894	251.110	-0.259	-0.449
-724.879	-73.108	-0.150	0.056
-723.864	149.256	-0.139	0.192
-722.850	106.929	0.288	0.349
-721.835	350.735	-0.122	-0.247
-720.821	-200.000	0.022	-0.289
-719.806	-14.530	0.165	-0.108
-718.791	-200.000	-0.008	0.125
-717.777	-71.935	-0.247	0.094
-716.762	193.748	0.076	0.118
-715.748	-36.553	-0.078	0.043
-714.733	-52.778	0.346	-0.163
-713.718	607.323	-0.070	0.179
-712.704	-106.397	0.200	0.046
-711.689	-46.138	0.167	0.084
-710.675	-200.000	0.035	0.533
-709.660	-105.994	0.170	-0.039
-708.645	-200.000	-0.061	-0.448
-707.631	33.823	-0.197	-0.175
-706.616	800.000	0.066	-0.198
-705.602	66.788	-0.146	-0.152
-704.587	276.019	0.095	0.172
-703.572	-111.443	-0.295	-0.061
-702.558	-23.600	0.122	0.074
-701.543	-134.365	-0.330	-0.041
-700.529	-11.195	0.098	0.066
-699.514	126.154	-0.046	-0.060
-698.499	800.000	-0.058	0.254
-697.485	-45.798	0.124	0.062
-696.470	-10.345	-0.228	-0.154
-695.456	800.000	-0.074	-0.217
-694.441	64.103	0.118	-0.121
-693.426	-95.457	-0.358	0.098
-692.412	635.336	-0.017	-0.045
-691.397	-34.893	0.212	-0.118
-690.383	56.673	0.160	-0.159
-689.368	218.667	0.088	0.143
-688.354	53.550	-0.054	-0.053
-687.339	-123.377	-0.190	0.031
-686.324	82.083	0.103	0.113
-685.310	-200.000	0.030	-0.315
-684.295	-34.479	-0.190	0.106
-683.281	-19.362	0.185	0.117
-682.266	-200.000	-0.053	-0.289
-681.251	-200.000	-0.002	-0.176
-680.237	-200.000	0.041	-0.309
-679.222	766.632	0.138	0.382
-678.208	-7.777	-0.230	-0.158
-677.193	-20.605	-0.366	0.229
-676.178	73.863	-0.205	0.219
-675.164	-200.000	-0.009	0.203
-674.149	800.000	-0.046	0.187
-673.135	-200.000	0.014	-0.185
-672.120	117.547	0.163	-0.204
-671.105	-35.056	-0.123	-0.068
-670.091	20.278	-0.051	0.042
-669.076	-143.698	-0.132	0.013
-668.062	800.000	0.055	0.219
-667.047	83.009	0.141	-0.156
-666.032	75.964	0.251	-0.271
-665.018	-91.372	-0.312	-0.091
-664.003	188.634	-0.105	-0.160
-662.989	157.475	-0.068	-0.096
-661.974	-200.000	-0.016	0.098
-660.959	9.970	-0.237	0.183
-659.945	466.659	-0.153	-0.349
-658.930	800.000	0.088	-0.319
-657.916	204.535	0.185	0.292
-656.901	-145.262	-0.217	-0.020
-655.886	800.000	0.057	-0.245
-654.872	-57.959	-0.125	0.056
-653.857	-200.000	-0.034	-0.252
-652.843	411.974	0.081	-0.175
-651.828	-28.233	-0.060	-0.035
-650.814	-85.467	0.060	0.019
-649.799	-200.000	0.072	-0.331
-648.784	-15.959	-0.279	-0.181
-647.770	-200.000	0.009	-0.176
-646.755	-97.000	-0.132	-0.035
-645.741	12.294	-0.196	0.154
-644.726	157.072	-0.097	0.137
-643.711	-17.410	-0.176	0.113
-642.697	-80.965	-0.425	-0.143
-641.682	-200.000	-0.027	-0.280
-640.668	-200.000	0.061	-0.401
-639.653	-109.712	0.198	-0.042
-638.638	229.249	0.212	-0.352
-637.624	-200.000	-0.023	-0.106
-636.609	21.805	-0.029	0.024
-635.595	800.000	0.029	-0.106
-634.580	-68.067	-0.118	0.047
-633.565	126.453	-0.286	-0.368
-632.551	-69.421	-0.110	-0.043
-631.536	307.958	0.060	0.113
-630.522	-153.987	-0.130	-0.009
-629.507	82.012	-0.182	-0.201
-628.492	-200.000	0.007	0.297
-627.478	263.568	-0.135	-0.239
-626.463	72.730	0.205	-0.218
-625.449	56.339	0.241	0.238
-624.434	-15.196	0.095	-0.062
-623.419	-12.735	0.171	0.113
-622.405	363.288	-0.033	0.068
-621.390	-59.261	0.331	-0.145
-620.376	-200.000	-0.010	0.067
-619.361	-161.401	-0.175	0.009
-618.346	-43.035	0.043	0.022
-617.332	-182.068	-0.070	-0.001
-616.317	19.377	-0.015	0.013
-615.303	-32.793	0.182	-0.103
-614.288	-30.727	-0.299	-0.172
-613.273	-200.000	0.080	-0.502
-612.259	32.106	0.238	0.209
-611.244	283.850	-0.041	0.075
-610.230	3.881	0.295	-0.219
-609.215	-200.000	-0.011	0.168
-608.201	66.704	0.202	0.209
-607.186	436.572	0.122	0.270
-606.171	233.737	-0.121	-0.203
-605.157	-200.000	-0.007	-0.067
-604.142	34.368	-0.219	-0.194
-603.128	-189.423	-0.125	0.001
-602.113	30.667	-0.141	-0.123
-601.098	-19.753	-0.002	0.001
-600.084	-75.922	-0.210	-0.075
-599.069	446.277	-0.105	0.233
-598.055	258.870	-0.125	-0.219
-597.040	-200.000	0.003	0.198
-596.025	-200.000	-0.093	0.000
-595.011	-116.744	-0.246	0.046
-593.996	304.928	0.256	0.482
-592.982	-141.886	-0.338	-0.034
-591.967	507.936	0.111	0.262
-590.952	800.000	-0.069	0.193
-589.938	-11.020	0.064	-0.043
-588.923	-46.832	0.101	-0.050
-587.909	800.000	-0.049	0.197
-586.894	800.000	-0.071	0.208
-585.879	-75.769	0.379	-0.136
-584.865	37.126	0.172	-0.155
-583.850	-122.963	-0.200	-0.033
-582.836	-200.000	-0.022	0.309
-581.821	-106.112	0.310	-0.071
-580.806	-113.378	0.098	-0.019
-579.792	-57.235	0.171	-0.076
-578.777	-25.038	-0.242	-0.146
-577.763	142.084	0.240	0.323
-576.748	-27.392	0.346	-0.204
-575.733	-182.001	0.237	-0.005
-574.719	240.788	-0.071	-0.120
-573.704	15.800	-0.345	-0.275
-572.690	86.524	0.119	0.133
-571.675	-200.000	-0.005	-0.194
-570.661	800.000	0.100	-0.302
-569.646	-200.000	-0.049	-0.306
-568.631	-200.000	-0.007	-0.201
-567.617	-200.000	-0.001	0.152
-566.602	-200.000	-0.066	0.309
-565.588	-33.740	-0.078	0.043
-564.573	800.000	-0.079	-0.229
-563.558	-160.372	-0.368	0.020
-562.544	305.280	-0.147	-0.278
-561.529	-37.907	0.164	-0.088
-560.515	-147.135	0.183	0.016
-559.500	518.935	-0.127	-0.302
-558.485	-17.140	-0.329	0.210
-557.471	-76.947	-0.041	0.015
-556.456	661.303	0.082	0.213
-555.442	358.678	0.131	0.265
-554.427	98.061	0.050	-0.058
-553.412	800.000	-0.073	-0.276
-552.398	447.156	0.086	-0.192
-551.383	800.000	0.030	-0.127
-550.369	56.418	-0.052	-0.051
-549.354	110.678	-0.143	-0.175
-548.339	800.000	0.114	-0.439
-547.325	294.822	-0.033	0.061
-546.310	74.658	0.095	0.101
-545.296	115.748	-0.354	-0.439
-544.281	-76.769	-0.191	0.068
-543.266	35.716	0.132	-0.118
-542.252	42.306	-0.257	-0.236
-541.237	386.891	0.080	0.167
-540.223	-200.000	0.024	0.252
-539.208	-104.032	0.322	0.076
-538.193	24.867	0.257	-0.216
-537.179	145.890	0.097	0.131
-536.164	303.765	-0.063	0.119
-535.150	5.296	0.266	-0.199
-534.135	84.842	0.195	-0.216
-533.121	-200.000	-0.078	0.641
-532.106	-110.653	-0.091	0.019
-531.091	-63.791	0.030	0.013
-530.077	2.793	0.241	-0.177
-529.062	207.034	-0.195	-0.308
-528.048	-61.894	-0.159	0.067
-527.033	-200.000	-0.078	0.358
-526.018	-0.454	0.008	-0.006
-525.004	-21.478	0.057	-0.035
-523.989	800.000	-0.045	0.166
-522.975	31.406	-0.053	0.046
-521.960	31.537	-0.268	-0.233
-520.945	800.000	-0.047	-0.154
-519.931	-83.108	-0.172	-0.056
-518.916	-200.000	0.004	0.220
-517.902	-200.000	0.034	0.340
-516.887	53.583	0.480	0.466
-515.872	-69.851	0.386	-0.149
-514.858	-129.560	-0.100	0.014
-513.843	59.800	-0.464	-0.464
-512.829	800.000	0.131	-0.387
-511.814	187.145	0.201	-0.303
-510.799	282.787	0.072	0.132
-509.785	800.000	-0.045	0.134
-508.770	-98.128	0.207	-0.054
-507.756	4.834	-0.237	-0.177
-506.741	-200.000	0.071	-0.418
-505.726	218.077	-0.178	-0.288
-504.712	-74.181	-0.289	0.106
-503.697	-200.000	0.007	-0.043
-502.683	185.856	0.058	0.088
-501.668	-86.054	0.336	0.105
-500.653	69.712	-0.162	-0.169
-499.639	186.964	-0.137	0.207
-498.624	-199.770	-0.354	0.002
-497.610	-86.085	-0.101	0.032
-496.595	800.000	-0.060	-0.253
-495.581	-200.000	-0.071	0.325
-494.566	238.417	-0.055	0.093
-493.551	-21.304	-0.187	0.116
-492.537	432.343	0.080	-0.175
-491.522	359.779	-0.108	-0.219
-490.508	-110.448	-0.135	0.028
-489.493	-146.006	0.144	-0.013
-488.478	800.000	-0.096	-0.343
-487.464	7.233	0.067	-0.051
-486.449	800.000	-0.038	-0.132
-485.435	390.419	0.097	0.203
-484.420	245.059	-0.059	-0.101
-483.405	-150.529	-0.232	0.018
-482.391	260.557	-0.052	-0.091
-481.376	-200.000	-0.019	0.187
-480.362	78.107	-0.155	0.167
-479.347	89.858	-0.220	0.248
-478.332	-13.067	-0.173	-0.114
-477.318	-121.198	0.064	-0.011
-476.303	626.390	0.039	-0.100
-475.289	172.372	-0.039	-0.057
-474.274	800.000	0.071	-0.291
-473.259	-45.353	-0.277	-0.139
-472.245	800.000	0.064	0.184
-471.230	142.115	-0.112	-0.150
-470.216	-72.140	-0.418	-0.157
-469.201	31.955	-0.045	0.039
-468.186	762.934	-0.045	-0.122
-467.172	282.363	-0.022	-0.039
-466.157	33.633	-0.209	0.184
-465.143	194.530	0.085	-0.130
-464.128	-200.000	0.024	-0.172
-463.113	-83.610	0.234	0.076
-462.099	-66.125	-0.114	0.046
-461.084	148.572	0.132	0.180
-460.070	800.000	-0.030	0.093
-459.055	515.940	0.027	0.064
-458.040	-76.382	0.072	0.026
-457.026	-158.945	0.096	0.005
-456.011	-10.749	-0.019	-0.012
-454.997	49.526	-0.120	0.114
-453.982	-102.557	0.122	-0.029
-452.968	29.157	0.243	-0.209
-451.953	158.794	-0.213	-0.299
-450.938	399.474	0.133	0.281
-449.924	-200.000	0.036	0.293
-448.909	-200.000	0.013	-0.322
-447.895	8.681	0.090	-0.069
-446.880	-150.017	0.196	-0.015
-445.865	363.316	0.165	0.334
-444.851	-150.868	-0.211	0.016
-443.836	-113.332	-0.113	-0.022
-442.822	85.326	-0.071	0.079
-441.807	181.923	-0.057	-0.085
-440.792	-94.625	0.311	-0.085
-439.778	110.505	-0.102	0.124
-438.763	-43.269	0.302	0.154
-437.749	800.000	0.083	0.251
-436.734	-200.000	-0.060	0.307
-435.719	-155.822	0.200	-0.013
-434.705	274.110	0.183	-0.327
-433.690	-91.518	-0.242	0.070
-432.676	800.000	-0.102	0.321
-431.661	14.382	-0.086	-0.068
-430.646	-125.110	0.126	-0.020
-429.632	-133.846	0.062	-0.008
-428.617	138.025	-0.270	0.357
-427.603	800.000	0.137	0.395
-426.588	-36.674	-0.106	0.057
-425.573	-200.000	-0.017	-0.133
-424.559	-200.000	0.038	0.193
-423.544	-14.882	0.201	0.130
-422.530	-143.069	0.291	-0.028
-421.515	97.679	0.320	-0.371
-420.500	-200.000	0.019	-0.127
-419.486	-200.000	-0.014	0.204
-418.471	136.051	-0.078	-0.102
-417.457	-100.600	-0.243	0.061
-416.442	-200.000	-0.028	-0.207
-415.428	-200.000	0.042	-0.280
-414.413	-30.367	0.142	-0.081
-413.398	-84.489	-0.213	0.068
-412.384	309.986	0.215	-0.406
-411.369	-165.874	0.229	-0.010
-410.355	-23.077	0.094	0.057
-409.340	37.240	0.364	0.325
-408.325	-200.000	-0.008	0.168
-407.311	78.559	-0.087	-0.094
-406.296	632.118	-0.105	0.268
-405.282	-8.477	0.054	0.037
-404.267	94.163	0.074	0.084
-403.252	-98.640	0.107	0.028
-402.238	-200.000	0.005	-0.370
-401.223	-124.338	0.296	-0.047
-400.209	11.390	0.171	-0.132
-399.194	-200.000	-0.015	0.173
-398.179	109.073	0.249	0.300
-397.165	33.781	0.185	0.162
-396.150	47.560	-0.172	-0.161
-395.136	383.512	0.033	0.068
-394.121	76.629	-0.197	-0.211
-393.106	82.821	-0.065	-0.071
-392.092	-116.974	-0.427	0.079
-391.077	-200.000	-0.130	0.000
-390.063	20.839	-0.223	-0.182
-389.048	-128.055	0.173	0.025
-388.033	100.350	-0.036	0.042
-387.019	-200.000	-0.006	-0.590
-386.004	-172.227	0.280	-0.009
-384.990	-200.000	0.025	0.235
-383.975	-200.000	0.024	-0.164
-382.960	800.000	0.104	0.440
-381.946	-46.140	-0.351	-0.174
-380.931	218.095	0.088	-0.142
-379.917	29.195	0.193	-0.165
-378.902	-142.863	-0.191	-0.019
-377.888	428.655	-0.120	0.261
-376.873	-200.000	-0.068	-0.453
-375.858	-11.726	-0.259	0.171
-374.844	-200.000	0.065	0.294
-373.829	37.774	0.186	0.166
-372.815	-51.708	-0.182	-0.085
-371.800	-200.000	-0.070	-0.348
-370.785	16.585	-0.019	-0.015
-369.771	40.988	0.162	-0.147
-368.756	157.174	-0.155	-0.216
-367.742	189.151	-0.036	0.055
-366.727	-200.000	0.045	0.209
-365.712	-118.746	0.038	-0.007
-364.698	800.000	0.088	0.249
-363.683	40.559	-0.148	-0.134
-362.669	-130.507	-0.118	-0.016
-361.654	279.159	0.102	-0.184
-360.639	81.221	-0.099	0.108
-359.625	138.913	0.205	0.271
-358.610	639.594	-0.082	0.210
-357.596	62.771	0.175	-0.176
-356.581	103.372	0.046	-0.055
-355.566	800.000	-0.018	-0.077
-354.552	-52.186	0.084	-0.039
-353.537	800.000	-0.028	-0.080
-352.523	437.160	0.101	0.221
-351.508	-103.640	-0.297	0.070
-350.493	-54.394	0.397	0.181
-349.479	-83.687	-0.121	-0.039
-348.464	-200.000	-0.006	-0.037
-347.450	-103.493	0.139	-0.033
-346.435	117.935	-0.105	-0.130
-345.420	9.801	-0.321	0.245
-344.406	-199.393	0.190	-0.001
-343.391	-113.372	-0.089	0.018
-342.377	-100.450	-0.254	-0.063
-341.362	66.924	-0.199	-0.204
-340.348	238.156	0.117	0.196
-339.333	800.000	-0.005	0.016
-338.318	104.110	0.198	-0.234
-337.304	652.550	0.089	0.230
-336.289	238.530	-0.224	0.374
-335.275	-200.000	-0.047	-0.240
-334.260	10.241	0.029	0.022
-333.245	39.082	0.364	-0.327
-332.231	780.088	0.033	0.092
-331.216	31.120	0.233	0.201
-330.202	66.110	-0.239	0.244
-329.187	-40.338	0.325	0.170
-328.172	83.782	-0.185	0.202
-327.158	-155.739	0.332	0.021
-326.143	363.564	0.063	0.127
-325.129	-200.000	-0.035	0.242
-324.114	72.480	-0.233	-0.244
-323.099	10.745	-0.256	-0.196
-322.085	148.045	-0.193	0.261
-321.070	-87.163	-0.101	0.031
-320.056	-116.781	0.189	0.035
-319.041	800.000	0.071	0.312
-318.026	-89.649	-0.460	0.136
-317.012	-200.000	0.034	0.400
-315.997	-200.000	-0.080	0.411
-314.983	-55.700	0.213	-0.096
-313.968	208.926	0.035	0.055
-312.953	-200.000	-0.024	0.286
-311.939	77.026	0.017	0.018
-310.924	29.061	-0.143	0.122
-309.910	-184.673	0.306	0.005
-308.895	800.000	0.050	-0.156
-307.880	149.881	-0.052	0.070
-306.866	-200.000	0.029	-0.210
-305.851	-114.408	0.367	-0.071
-304.837	-200.000	0.018	0.186
-303.822	5.712	0.144	-0.107
-302.807	47.495	0.115	0.108
-301.793	-200.000	0.023	0.245
-300.778	-64.995	-0.333	0.135
-299.764	-69.065	0.225	0.087
-298.749	-200.000	0.028	0.298
-297.735	-83.000	0.089	0.029
-296.720	800.000	-0.085	0.292
-295.705	-7.517	0.184	0.125
-294.691	-200.000	-0.000	-0.253
-293.676	-100.948	-0.107	-0.026
-292.662	523.069	0.071	0.167
-291.647	-43.965	-0.308	-0.155
-290.632	-124.637	0.140	-0.022
-289.618	2.314	0.010	-0.007
-288.603	-70.698	0.146	0.055
-287.589	-55.552	-0.057	-0.026
-286.574	60.406	0.203	-0.202
-285.559	-21.499	-0.230	0.140
-284.545	-200.000	-0.027	-0.231
-283.530	471.988	-0.162	-0.365
-282.516	-17.979	0.098	-0.062
-281.501	41.241	0.066	-0.060
-280.486	83.018	-0.104	-0.114
-279.472	-200.000	-0.041	0.297
-278.457	156.830	0.022	-0.031
-277.443	-200.000	-0.002	-0.276
-276.428	91.888	-0.070	-0.079
-275.413	134.362	-0.107	-0.140
-274.399	-107.322	-0.298	0.066
-273.384	-67.899	0.334	-0.131
-272.370	-12.253	-0.159	0.104
-271.355	574.650	-0.024	0.060
-270.340	203.424	-0.139	0.215
-269.326	-163.768	-0.196	0.009
-268.311	39.220	0.155	0.139
-267.297	62.145	-0.112	0.112
-266.282	431.577	-0.043	-0.093
-265.267	-68.992	-0.120	-0.046
-264.253	733.288	-0.083	0.223
-263.238	-61.475	-0.268	0.113
-262.224	-200.000	-0.011	0.278
-261.209	800.000	-0.056	0.170
-260.195	-36.982	0.293	0.157
-259.180	764.775	0.127	0.345
-258.165	-146.263	-0.167	0.015
-257.151	-152.582	0.272	0.019
-256.136	-120.770	0.053	0.009
-255.122	14.045	0.269	-0.210
-254.107	-200.000	-0.026	-0.391
-253.092	207.611	-0.126	-0.197
-252.078	-52.226	-0.223	0.104
-251.063	-114.079	0.038	-0.007
-250.049	-45.645	-0.169	-0.084
-249.034	-70.718	-0.166	0.063
-248.019	-102.584	0.375	-0.090
-247.005	-101.166	0.236	-0.058
-245.990	-149.201	0.378	-0.030
-244.976	140.039	-0.078	-0.103
-243.961	8.754	-0.194	-0.146
-242.946	800.000	-0.042	-0.145
-241.932	-200.000	0.018	-0.169
-240.917	719.973	0.044	-0.117
-239.903	-85.951	0.123	0.038
-238.888	272.376	-0.061	0.107
-237.873	-74.496	0.223	-0.081
-236.859	610.342	0.088	0.219
-235.844	-69.682	0.125	-0.048
-234.830	463.623	0.124	0.278
-233.815	800.000	-0.109	0.354
-232.800	-200.000	0.061	-0.330
-231.786	-200.000	-0.003	0.127
-230.771	800.000	-0.116	0.378
-229.757	-59.278	-0.501	0.216
-228.742	800.000	0.025	0.094
-227.727	64.243	-0.236	-0.238
-226.713	10.515	0.034	-0.026
-225.698	-8.493	-0.109	-0.073
-224.684	-124.132	0.122	0.019
-223.669	-160.004	0.095	-0.005
-222.655	-101.930	0.452	-0.109
-221.640	-113.009	0.170	-0.034
-220.625	353.734	0.091	-0.181
-219.611	48.427	-0.289	-0.271
-218.596	105.976	-0.190	-0.224
-217.582	5.665	0.176	0.130
-216.567	-200.000	-0.029	-0.187
-215.552	139.721	0.036	0.047
-214.538	271.330	0.089	0.157
-213.523	442.011	0.072	0.158
-212.509	-28.448	-0.125	-0.072
-211.494	288.286	-0.149	-0.270
-210.479	-81.997	0.308	0.101
-209.465	-50.130	0.131	-0.062
-208.450	-79.045	0.114	0.039
-207.436	-53.539	-0.241	-0.110
-206.421	-5.470	-0.282	0.193
-205.406	77.886	-0.218	-0.233
-204.392	-200.000	-0.016	-0.171
-203.377	243.982	-0.057	0.096
-202.363	-104.440	0.088	-0.020
-201.348	111.342	0.122	-0.147
-200.333	-143.138	-0.106	-0.010
-199.319	-200.000	-0.064	0.360
-198.304	-200.000	-0.014	0.095
-197.290	-4.452	-0.283	0.196
-196.275	132.714	0.130	0.168
-195.260	-111.807	0.167	0.034
-194.246	-17.749	-0.148	-0.093
-193.231	-200.000	0.021	0.108
-192.217	618.927	-0.072	-0.181
-191.202	87.928	-0.080	0.088
-190.187	63.854	0.059	0.059
-189.173	-105.553	-0.172	0.039
-188.158	-116.303	0.275	-0.051
-187.144	39.884	0.079	-0.071
-186.129	83.240	0.249	0.271
-185.114	112.527	0.153	0.185
-184.100	-161.795	0.096	-0.005
-183.085	-200.000	-0.062	0.495
-182.071	800.000	-0.050	-0.203
-181.056	-129.894	-0.299	0.041
-180.042	800.000	0.062	0.179
-179.027	-38.937	0.348	0.183
-178.012	159.580	0.182	0.253
-176.998	-116.553	-0.125	-0.023
-175.983	-66.050	-0.044	-0.017
-174.969	-14.361	0.554	-0.357
-173.954	36.662	-0.253	-0.223
-172.939	423.566	-0.076	0.162
-171.925	127.961	-0.172	0.218
-170.910	-200.000	-0.027	0.188
-169.896	17.959	-0.101	-0.080
-168.881	-200.000	0.008	0.082
-167.866	-11.684	-0.238	-0.156
-166.852	151.921	0.233	0.318
-165.837	89.533	0.028	-0.031
-164.823	-4.689	-0.182	-0.125
-163.808	-200.000	-0.059	-0.259
-162.793	222.614	0.111	-0.179
-161.779	695.139	0.060	-0.158
-160.764	638.098	-0.105	0.265
-159.750	-200.000	0.004	0.071
-158.735	126.983	0.227	-0.287
-157.720	13.050	0.124	-0.095
-156.706	-132.610	0.294	0.038
-155.691	138.668	0.109	0.143
-154.677	34.664	-0.073	-0.064
-153.662	-56.321	-0.166	0.074
-152.647	152.227	0.211	0.287
-151.633	19.255	0.128	-0.103
-150.618	-200.000	-0.008	-0.199
-149.604	57.218	-0.249	-0.243
-148.589	-89.738	-0.156	-0.046
-147.574	238.957	-0.062	-0.102
-146.560	-64.204	-0.084	-0.034
-145.545	-78.164	-0.298	0.102
-144.531	94.869	0.138	0.156
-143.516	-27.196	0.278	-0.161
-142.502	-22.632	-0.289	0.174
-141.487	-122.913	-0.158	-0.025
-140.472	800.000	0.102	-0.290
-139.458	-99.252	-0.051	0.013
-138.443	432.382	0.246	0.531
-137.429	800.000	0.105	0.326
-136.414	-43.030	-0.296	0.150
-135.399	196.192	-0.072	0.109
-134.385	-170.001	0.171	0.006
-133.370	16.963	-0.220	0.173
-132.356	-125.716	0.394	0.059
-131.341	209.806	-0.160	0.251
-130.326	-200.000	0.037	0.269
-129.312	52.329	0.210	0.199
-128.297	23.654	0.298	-0.244
-127.283	-32.494	0.191	0.106
-126.268	-200.000	-0.029	0.161
-125.253	268.461	0.178	0.311
-124.239	-200.000	0.042	0.274
-123.224	800.000	0.039	0.140
-122.210	345.962	-0.201	0.394
-121.195	560.222	0.082	0.197
