DTS Sentinel unit serial number:	SN413079Multiplexer serial number:	ORYXHardware model number:	OX4-SRSoftware version number:	ORYX F/W v4.00 Oryx Data Collector v3.7.2.0data status	okinstallation	princeton_trtdifferential loss correction	single-endedforward channel	channel 3reverse channel	N/Adate	2019/09/17time	07:48:34forward acquisition time	60.00reverse acquisition time	0.00gamma	496.2192k internal	0.2335k external	0.2335temperature offset calibration	0.9945default loss term (dB/km)	0.3790temperature slope calibration	1.0000multiplexer offset coefficient	1.0000multiplexer slope coefficient	1.0000fibre end	0.00T internal ref (°C)	27.19T ext. ref 1 (°C)	0.13T ext. ref 2 (°C)	22.12length (m)	temperature (°C)	Stokes	anti-Stokes-747.200	118.546	0.151	-0.187
-746.185	61.415	-0.100	0.100
-745.171	203.074	0.142	-0.220
-744.156	-200.000	0.050	0.483
-743.142	-139.678	-0.255	0.027
-742.127	318.565	-0.112	0.214
-741.112	-165.665	-0.265	0.012
-740.098	-200.000	-0.050	0.267
-739.083	35.582	0.098	0.087
-738.069	-50.541	-0.154	0.073
-737.054	-92.700	0.156	0.044
-736.039	-156.053	-0.221	-0.014
-735.025	432.835	0.080	0.175
-734.010	-200.000	-0.065	-0.316
-732.996	-200.000	0.044	0.212
-731.981	-58.483	-0.294	0.128
-730.966	-101.969	-0.217	0.053
-729.952	57.944	0.243	-0.239
-728.937	43.457	0.129	0.118
-727.923	-152.220	-0.445	-0.032
-726.908	-200.000	-0.057	-0.284
-725.894	-134.726	-0.234	-0.029
-724.879	-154.542	-0.298	0.020
-723.864	800.000	0.077	-0.272
-722.850	-85.835	0.228	0.071
-721.835	-200.000	-0.048	-0.303
-720.821	296.047	-0.194	-0.358
-719.806	42.679	-0.174	0.159
-718.791	471.877	0.032	-0.073
-717.777	-200.000	0.040	-0.275
-716.762	161.039	-0.148	0.207
-715.748	159.391	0.041	0.057
-714.733	346.818	0.030	0.059
-713.718	800.000	-0.041	0.136
-712.704	800.000	0.052	0.163
-711.689	-167.169	-0.379	0.015
-710.675	-78.299	0.239	-0.082
-709.660	137.182	0.112	-0.147
-708.645	297.029	-0.091	-0.167
-707.631	481.899	0.058	0.132
-706.616	-200.000	0.003	0.289
-705.602	-126.041	-0.032	-0.005
-704.587	-200.000	-0.033	0.484
-703.572	489.463	0.054	-0.123
-702.558	-200.000	-0.007	-0.330
-701.543	-200.000	0.018	-0.300
-700.529	-200.000	0.030	-0.217
-699.514	-14.464	-0.298	-0.192
-698.499	-107.586	0.131	0.029
-697.485	-145.591	0.112	0.010
-696.470	-21.866	0.094	-0.057
-695.456	-123.671	0.304	0.048
-694.441	800.000	0.118	-0.364
-693.426	-81.561	-0.172	-0.057
-692.412	-126.378	0.077	-0.011
-691.397	38.528	-0.263	-0.235
-690.383	360.951	-0.211	-0.423
-689.368	-24.332	-0.060	-0.036
-688.354	-19.943	0.250	0.154
-687.339	-120.247	-0.204	-0.035
-686.324	137.236	0.093	-0.121
-685.310	-9.917	-0.128	-0.085
-684.295	186.184	-0.086	-0.128
-683.281	-84.232	0.367	0.117
-682.266	88.432	-0.058	-0.064
-681.251	-61.427	-0.073	0.031
-680.237	-99.852	-0.313	0.078
-679.222	99.538	-0.061	0.070
-678.208	37.096	-0.294	-0.261
-677.193	-200.000	0.011	-0.207
-676.178	-200.000	-0.022	0.213
-675.164	-200.000	0.002	0.069
-674.149	-51.311	-0.305	-0.143
-673.135	800.000	0.032	-0.117
-672.120	-15.823	0.101	-0.065
-671.105	-200.000	-0.038	0.263
-670.091	800.000	0.040	0.147
-669.076	-27.319	0.057	0.033
-668.062	-92.648	-0.205	-0.058
-667.047	-200.000	0.027	-0.198
-666.032	800.000	0.044	-0.122
-665.018	-148.051	0.166	0.014
-664.003	74.618	0.118	0.125
-662.989	32.689	-0.077	0.067
-661.974	-127.020	0.339	-0.050
-660.959	-63.065	0.206	0.085
-659.945	-69.789	0.174	0.067
-658.930	-14.686	-0.081	0.052
-657.916	293.320	-0.156	-0.285
-656.901	-18.937	0.221	0.138
-655.886	72.979	0.085	-0.089
-654.872	-21.816	-0.122	-0.074
-653.857	-115.146	-0.170	0.032
-652.843	800.000	0.119	0.362
-651.828	-200.000	0.012	0.168
-650.814	41.537	0.129	-0.117
-649.799	222.166	0.118	-0.191
-648.784	800.000	-0.067	-0.198
-647.770	-140.203	0.186	0.020
-646.755	89.888	0.134	0.150
-645.741	-24.150	0.207	0.123
-644.726	-140.748	-0.237	-0.024
-643.711	-200.000	-0.054	-0.249
-642.697	-200.000	-0.094	-0.424
-641.682	75.882	-0.043	-0.046
-640.668	71.989	-0.188	-0.195
-639.653	-200.000	-0.014	-0.623
-638.638	800.000	0.088	0.373
-637.624	69.958	0.093	-0.096
-636.609	-30.926	0.148	-0.084
-635.595	93.112	-0.133	0.150
-634.580	-200.000	0.001	0.039
-633.565	297.063	0.061	0.111
-632.551	77.752	0.240	-0.255
-631.536	75.250	-0.070	-0.074
-630.522	800.000	0.036	0.124
-629.507	-12.790	-0.140	0.091
-628.492	-131.550	-0.320	-0.042
-627.478	-99.589	-0.260	-0.065
-626.463	142.844	-0.081	0.107
-625.449	-49.542	0.372	-0.177
-624.434	-55.657	-0.022	-0.010
-623.419	-200.000	0.015	0.415
-622.405	-39.930	-0.066	0.034
-621.390	70.020	0.081	-0.083
-620.376	-200.000	0.019	-0.301
-619.361	77.567	0.128	0.137
-618.346	-145.953	-0.228	-0.020
-617.332	-165.172	-0.237	0.010
-616.317	800.000	-0.067	-0.195
-615.303	190.869	-0.080	0.121
-614.288	72.314	-0.147	0.154
-613.273	-88.738	-0.408	0.121
-612.259	-15.900	0.055	0.035
-611.244	-22.906	-0.346	0.208
-610.230	796.402	0.021	0.059
-609.215	323.860	-0.043	0.082
-608.201	-200.000	-0.027	0.373
-607.186	187.723	-0.144	0.215
-606.171	523.934	0.051	0.120
-605.157	124.119	0.031	-0.039
-604.142	-75.562	-0.176	0.063
-603.128	104.888	-0.089	0.104
-602.113	-200.000	0.034	-0.161
-601.098	-200.000	0.053	0.238
-600.084	-140.043	0.177	-0.019
-599.069	33.689	0.291	0.253
-598.055	-121.416	-0.170	0.028
-597.040	-200.000	0.013	0.164
-596.025	405.351	0.042	-0.088
-595.011	-85.218	0.232	-0.073
-593.996	-200.000	0.395	0.001
-592.982	-87.152	-0.172	0.052
-591.967	-12.990	-0.322	-0.209
-590.952	-124.799	-0.318	-0.049
-589.938	239.786	-0.231	-0.383
-588.923	-200.000	0.003	0.192
-587.909	-200.000	-0.025	-0.140
-586.894	26.588	0.142	-0.119
-585.879	61.329	-0.091	0.090
-584.865	39.886	0.280	0.251
-583.850	-128.404	0.168	0.024
-582.836	-200.000	-0.035	-0.272
-581.821	782.578	-0.123	-0.337
-580.806	381.456	-0.053	-0.109
-579.792	-62.772	0.117	-0.048
-578.777	194.860	-0.107	0.162
-577.763	35.302	-0.294	-0.257
-576.748	-70.206	-0.233	-0.088
-575.733	-200.000	0.019	0.119
-574.719	10.205	0.067	-0.051
-573.704	800.000	0.030	0.115
-572.690	-82.078	0.106	-0.034
-571.675	-200.000	0.004	-0.126
-570.661	210.182	-0.027	-0.042
-569.646	502.465	0.094	-0.218
-568.631	54.414	0.286	-0.275
-567.617	672.719	0.168	-0.434
-566.602	-200.000	0.019	-0.105
-565.588	800.000	0.025	-0.069
-564.573	227.811	0.073	-0.119
-563.558	-140.743	0.373	-0.038
-562.544	39.075	0.095	0.085
-561.529	-200.000	0.031	-0.167
-560.515	30.249	-0.200	-0.170
-559.500	-13.071	-0.134	0.087
-558.485	-200.000	-0.028	-0.259
-557.471	92.302	0.299	-0.336
-556.456	-200.000	0.006	0.057
-555.442	-200.000	0.006	0.203
-554.427	-63.783	0.219	0.090
-553.412	61.285	-0.193	0.191
-552.398	800.000	0.006	-0.023
-551.383	-86.677	0.303	0.092
-550.369	-57.273	-0.358	0.157
-549.354	800.000	-0.090	0.258
-548.339	800.000	0.170	-0.508
-547.325	-200.000	-0.004	0.114
-546.310	117.576	0.336	-0.412
-545.296	-164.501	-0.170	-0.008
-544.281	-128.309	-0.333	-0.047
-543.266	172.131	-0.043	-0.062
-542.252	-54.387	0.321	-0.145
-541.237	-189.794	-0.301	0.003
-540.223	7.850	-0.161	0.120
-539.208	-200.000	-0.010	0.051
-538.193	724.917	0.134	-0.355
-537.179	224.010	-0.203	-0.326
-536.164	61.661	0.266	0.264
-535.150	800.000	-0.053	0.167
-534.135	-151.511	-0.714	0.053
-533.121	-200.000	-0.005	0.226
-532.106	324.383	0.080	0.152
-531.091	98.640	-0.342	-0.393
-530.077	-58.742	0.253	-0.109
-529.062	-152.365	-0.070	0.005
-528.048	404.246	-0.062	0.130
-527.033	-103.575	0.262	0.061
-526.018	-200.000	0.006	-0.188
-525.004	800.000	0.035	-0.140
-523.989	9.493	0.047	-0.036
-522.975	800.000	-0.075	0.302
-521.960	-200.000	0.018	-0.280
-520.945	352.008	-0.186	-0.368
-519.931	-63.797	-0.185	0.075
-518.916	-83.313	-0.270	0.086
-517.902	-200.000	-0.074	0.387
-516.887	438.976	0.045	0.098
-515.872	-87.533	-0.366	0.110
-514.858	-138.168	0.051	0.006
-513.843	-68.600	0.194	-0.075
-512.829	-3.460	-0.223	-0.154
-511.814	-200.000	0.008	-0.117
-510.799	-191.867	-0.351	0.003
-509.785	-88.292	0.234	-0.070
-508.770	-200.000	-0.038	0.244
-507.756	-117.490	0.272	0.049
-506.741	684.202	0.107	0.277
-505.726	-41.592	0.415	0.212
-504.712	-200.000	0.086	0.383
-503.697	128.518	-0.197	0.249
-502.683	800.000	-0.077	-0.275
-501.668	-71.296	-0.080	-0.030
-500.653	142.854	0.058	-0.076
-499.639	-195.779	-0.161	0.001
-498.624	800.000	-0.079	0.341
-497.610	116.164	0.080	0.098
-496.595	-87.043	-0.314	-0.095
-495.581	36.410	0.183	-0.160
-494.566	-122.596	-0.214	-0.035
-493.551	-200.000	0.016	0.412
-492.537	489.978	-0.054	0.122
-491.522	34.592	-0.204	-0.178
-490.508	-200.000	0.025	-0.129
-489.493	194.859	-0.223	0.336
-488.478	-200.000	0.021	0.141
-487.464	440.510	-0.181	0.394
-486.449	800.000	0.089	-0.288
-485.435	-122.632	-0.191	-0.031
-484.420	-137.670	-0.350	0.039
-483.405	800.000	-0.015	0.057
-482.391	123.520	-0.208	-0.259
-481.376	-200.000	0.044	-0.243
-480.362	65.374	-0.155	0.156
-479.347	557.865	0.084	0.201
-478.332	-200.000	-0.002	-0.097
-477.318	-59.955	-0.409	-0.174
-476.303	154.577	-0.064	0.087
-475.289	-111.069	0.327	0.067
-474.274	-181.906	0.063	0.001
-473.259	263.709	-0.174	0.300
-472.245	503.980	-0.039	0.090
-471.230	-200.000	0.057	-0.342
-470.216	45.497	-0.268	-0.246
-469.201	14.355	0.052	-0.040
-468.186	763.153	0.082	0.221
-467.172	584.492	0.059	-0.143
-466.157	-95.168	0.346	-0.093
-465.143	-71.011	-0.219	-0.082
-464.128	362.478	0.116	0.231
-463.113	443.461	-0.102	0.223
-462.099	-79.402	0.142	-0.048
-461.084	17.346	-0.126	-0.099
-460.070	260.390	0.291	0.499
-459.055	36.155	0.165	0.145
-458.040	800.000	-0.035	-0.143
-457.026	208.365	0.119	-0.185
-456.011	193.196	0.058	0.087
-454.997	32.044	-0.209	-0.179
-453.982	-200.000	0.005	0.192
-452.968	-181.737	0.305	-0.006
-451.953	-9.784	-0.127	-0.084
-450.938	141.387	-0.024	-0.032
-449.924	-95.568	0.120	-0.032
-448.909	-126.406	-0.050	0.007
-447.895	800.000	0.050	0.152
-446.880	-174.402	-0.281	-0.008
-445.865	152.484	-0.248	-0.336
-444.851	-200.000	-0.073	-0.331
-443.836	-2.292	0.074	-0.052
-442.822	800.000	0.026	-0.096
-441.807	425.564	0.157	-0.336
-440.792	-68.856	-0.423	0.162
-439.778	-37.215	0.077	-0.041
-438.763	298.329	0.028	-0.052
-437.749	-102.322	-0.200	0.048
-436.734	705.390	-0.033	-0.085
-435.719	-159.700	-0.062	0.003
-434.705	-40.594	0.161	0.083
-433.690	297.612	0.138	0.251
-432.676	-200.000	-0.002	-0.200
-431.661	-200.000	0.004	0.081
-430.646	50.749	0.167	-0.157
-429.632	707.604	0.102	-0.268
-428.617	-146.912	-0.237	-0.020
-427.603	-200.000	0.024	-0.150
-426.588	800.000	-0.041	0.179
-425.573	97.494	0.317	0.362
-424.559	262.885	-0.155	0.266
-423.544	171.750	-0.246	-0.351
-422.530	127.919	0.274	-0.346
-421.515	68.400	-0.230	-0.234
-420.500	30.447	-0.145	-0.123
-419.486	-7.296	-0.164	0.110
-418.471	75.163	0.072	-0.076
-417.457	800.000	-0.099	-0.314
-416.442	-34.788	0.170	-0.092
-415.428	-200.000	0.018	-0.512
-414.413	-85.275	0.249	0.077
-413.398	-200.000	-0.044	0.287
-412.384	-77.726	-0.059	-0.020
-411.369	54.664	-0.040	-0.038
-410.355	17.216	0.014	-0.011
-409.340	34.219	0.115	0.099
-408.325	-126.712	-0.483	-0.071
-407.311	-200.000	-0.026	0.234
-406.296	-83.133	0.361	-0.115
-405.282	-200.000	0.052	-0.399
-404.267	25.837	0.063	0.052
-403.252	-115.676	0.155	0.029
-402.238	-42.496	0.407	0.206
-401.223	310.291	-0.068	-0.126
-400.209	800.000	-0.049	0.177
-399.194	434.317	0.134	0.288
-398.179	-61.695	-0.218	-0.090
-397.165	116.653	0.116	0.141
-396.150	177.868	0.185	-0.268
-395.136	125.876	-0.075	-0.094
-394.121	694.740	-0.102	-0.266
-393.106	-68.211	0.090	0.035
-392.092	-200.000	-0.007	0.359
-391.077	511.137	0.107	0.248
-390.063	-113.149	-0.118	0.023
-389.048	-113.408	0.323	0.063
-388.033	89.445	0.016	-0.018
-387.019	-112.876	-0.166	0.033
-386.004	800.000	0.017	-0.053
-384.990	584.142	0.098	-0.238
-383.975	-200.000	-0.003	-0.176
-382.960	-88.052	-0.173	0.051
-381.946	554.073	-0.070	0.166
-380.931	-7.313	-0.071	-0.048
-379.917	800.000	-0.114	0.345
-378.902	800.000	0.041	0.112
-377.888	-200.000	0.047	-0.343
-376.873	-200.000	0.005	0.258
-375.858	146.292	-0.092	-0.122
-374.844	104.822	-0.057	0.067
-373.829	30.947	-0.209	-0.177
-372.815	-56.098	0.246	-0.109
-371.800	5.784	-0.010	0.007
-370.785	-200.000	0.025	0.197
-369.771	697.705	0.064	0.168
-368.756	-112.155	0.340	-0.068
-367.742	-14.332	0.013	0.008
-366.727	-200.000	0.068	0.353
-365.712	92.239	0.214	0.239
-364.698	-200.000	0.017	0.081
-363.683	68.573	-0.164	-0.166
-362.669	-116.533	-0.497	0.091
-361.654	-9.641	-0.030	0.020
-360.639	-26.097	0.241	0.140
-359.625	375.556	-0.099	0.201
-358.610	-60.086	0.252	0.106
-357.596	6.106	-0.092	-0.067
-356.581	-200.000	-0.090	0.448
-355.566	68.753	0.130	0.132
-354.552	3.242	-0.074	0.053
-353.537	-110.501	-0.035	-0.007
-352.523	-200.000	0.030	-0.229
-351.508	-114.805	0.085	0.016
-350.493	614.352	-0.147	-0.365
-349.479	-200.000	-0.044	-0.438
-348.464	77.938	-0.142	0.149
-347.450	554.364	0.041	0.097
-346.435	-107.073	-0.178	-0.039
-345.420	-139.066	0.164	0.018
-344.406	230.393	0.123	-0.200
-343.391	54.345	0.094	0.090
-342.377	247.109	-0.015	-0.025
-341.362	-11.298	0.119	0.077
-340.348	-200.000	0.040	0.186
-339.333	570.462	0.126	0.304
-338.318	-14.690	0.208	0.132
-337.304	51.114	-0.067	-0.063
-336.289	-56.613	-0.164	-0.072
-335.275	-200.000	-0.029	-0.673
-334.260	800.000	0.075	0.242
-333.245	-200.000	0.020	-0.170
-332.231	259.461	0.027	-0.046
-331.216	89.240	0.166	0.183
-330.202	308.215	-0.101	-0.186
-329.187	-102.291	-0.332	-0.079
-328.172	-200.000	-0.020	0.197
-327.158	-200.000	-0.017	0.076
-326.143	76.581	0.251	-0.263
-325.129	352.480	0.020	-0.039
-324.114	-200.000	-0.018	-0.134
-323.099	346.812	0.084	0.163
-322.085	541.215	-0.069	0.163
-321.070	-1.422	-0.159	0.111
-320.056	20.980	-0.144	0.115
-319.041	284.607	0.021	0.037
-318.026	-123.412	0.151	-0.024
-317.012	-200.000	-0.041	-0.201
-315.997	800.000	-0.136	-0.461
-314.983	-74.513	0.126	-0.045
-313.968	-85.954	0.095	0.029
-312.953	800.000	0.015	0.040
-311.939	-137.889	-0.152	-0.017
-310.924	-200.000	-0.427	0.000
-309.910	-78.698	-0.345	-0.116
-308.895	800.000	0.138	0.389
-307.880	-85.254	0.291	-0.090
-306.866	-23.981	0.148	0.087
-305.851	51.815	-0.212	-0.199
-304.837	-140.138	-0.370	-0.038
-303.822	255.912	-0.076	0.129
-302.807	606.287	0.038	0.093
-301.793	46.671	0.071	-0.065
-300.778	110.744	-0.211	0.251
-299.764	-0.298	-0.202	-0.142
-298.749	192.658	-0.161	-0.240
-297.735	800.000	0.109	-0.331
-296.720	-122.961	-0.098	-0.016
-295.705	-96.103	0.580	0.152
-294.691	-166.720	-0.224	0.009
-293.676	-200.000	-0.037	-0.338
-292.662	800.000	-0.038	-0.149
-291.647	-155.464	0.251	0.016
-290.632	469.773	0.124	0.275
-289.618	221.830	-0.135	-0.215
-288.603	208.329	0.122	0.188
-287.589	-118.550	-0.494	0.086
-286.574	-83.803	0.021	-0.007
-285.559	-200.000	-0.001	-0.140
-284.545	274.437	0.025	-0.045
-283.530	13.202	-0.185	-0.141
-282.516	157.385	0.136	-0.186
-281.501	-95.912	-0.221	0.058
-280.486	-28.992	-0.104	-0.059
-279.472	198.520	-0.144	0.218
-278.457	522.477	0.127	-0.294
-277.443	308.750	0.049	-0.090
-276.428	-27.124	0.151	-0.087
-275.413	131.586	-0.151	-0.191
-274.399	800.000	0.091	0.373
-273.384	-130.738	-0.271	0.036
-272.370	-200.000	-0.019	0.237
-271.355	-84.622	0.358	0.111
-270.340	112.417	-0.215	-0.256
-269.326	-200.000	0.021	-0.216
-268.311	-34.640	0.093	0.050
-267.297	800.000	-0.006	-0.022
-266.282	-34.422	-0.396	0.214
-265.267	-59.197	0.360	0.153
-264.253	57.621	-0.080	0.077
-263.238	-59.266	-0.308	0.131
-262.224	-60.099	-0.016	-0.007
-261.209	-77.860	0.204	-0.070
-260.195	-23.374	0.115	0.068
-259.180	601.132	0.061	0.151
-258.165	-56.881	-0.244	-0.106
-257.151	-127.718	0.054	0.008
-256.136	472.396	-0.051	0.113
-255.122	800.000	-0.031	0.107
-254.107	-200.000	0.055	0.258
-253.092	-114.739	0.147	-0.028
-252.078	800.000	0.117	0.366
-251.063	-35.562	0.273	0.146
-250.049	-123.188	-0.246	-0.039
-249.034	-135.617	0.684	0.080
-248.019	-200.000	0.005	0.170
-247.005	182.069	0.076	0.110
-245.990	-82.568	0.117	0.037
-244.976	-41.305	0.241	0.123
-243.961	455.824	0.059	-0.128
-242.946	-77.342	-0.374	-0.128
-241.932	618.830	0.116	0.287
-240.917	-200.000	-0.030	0.197
-239.903	800.000	-0.053	-0.146
-238.888	-200.000	0.073	0.337
-237.873	-200.000	0.052	0.285
-236.859	-119.364	-0.413	0.071
-235.844	-200.000	0.033	-0.342
-234.830	361.064	-0.126	-0.248
-233.815	-200.000	-0.034	-0.378
-232.800	32.730	0.266	0.227
-231.786	-6.522	-0.310	0.208
-230.771	-176.457	0.308	-0.008
-229.757	74.780	0.147	-0.153
-228.742	224.132	-0.035	-0.056
-227.727	8.623	-0.148	-0.110
-226.713	-124.851	0.209	0.032
-225.698	-51.180	0.112	0.052
-224.684	301.201	-0.157	0.285
-223.669	739.675	0.095	-0.251
-222.655	-48.956	-0.146	-0.069
-221.640	800.000	0.033	0.116
-220.625	516.132	0.038	-0.087
-219.611	-200.000	0.030	0.200
-218.596	-49.386	-0.221	0.104
-217.582	-146.647	0.258	-0.022
-216.567	800.000	-0.027	-0.114
-215.552	-59.297	0.399	-0.169
-214.538	104.375	-0.029	0.034
-213.523	57.686	0.170	0.164
-212.509	-54.854	0.282	0.125
-211.494	-200.000	-0.020	-0.167
-210.479	60.827	-0.053	-0.052
-209.465	800.000	0.047	0.130
-208.450	130.741	-0.159	-0.201
-207.436	46.037	0.159	-0.145
-206.421	156.679	-0.140	0.190
-205.406	244.239	0.141	0.232
-204.392	-28.927	0.218	0.123
-203.377	-1.091	0.060	0.042
-202.363	225.569	0.136	0.216
-201.348	800.000	-0.039	0.108
-200.333	-23.668	0.092	-0.054
-199.319	239.187	0.121	-0.198
-198.304	69.220	0.071	0.072
-197.290	408.894	-0.085	-0.176
-196.275	-3.840	-0.080	0.055
-195.260	383.858	0.051	-0.103
-194.246	245.757	0.199	0.329
-193.231	-200.000	-0.072	-0.374
-192.217	-119.112	0.164	0.028
-191.202	-41.463	0.203	0.103
-190.187	14.251	0.021	-0.016
-189.173	800.000	0.141	0.393
-188.158	-2.921	-0.427	0.293
-187.144	-95.230	0.145	0.038
-186.129	97.252	0.090	0.101
-185.114	-185.835	-0.169	0.002
-184.100	800.000	0.101	0.279
-183.085	745.339	-0.061	0.162
-182.071	-200.000	0.029	-0.197
-181.056	800.000	-0.050	0.159
-180.042	-35.038	0.206	0.110
-179.027	31.622	0.253	-0.214
-178.012	-55.661	-0.273	-0.120
-176.998	-107.774	-0.073	-0.016
-175.983	127.262	0.210	-0.262
-174.969	-29.917	-0.137	0.076
-173.954	795.131	0.072	-0.194
-172.939	-145.285	0.222	-0.020
-171.925	-0.572	0.184	0.129
-170.910	-186.091	-0.116	-0.002
-169.896	-42.284	0.436	0.219
-168.881	325.578	-0.156	-0.294
-167.866	212.669	0.134	-0.207
-166.852	800.000	0.040	-0.108
-165.837	668.403	0.104	-0.263
-164.823	-200.000	-0.008	0.264
-163.808	375.089	0.164	0.328
-162.793	800.000	0.047	0.131
-161.779	800.000	-0.099	-0.291
-160.764	14.501	0.176	-0.135
-159.750	-52.424	0.232	0.105
-158.735	-54.362	0.271	-0.121
-157.720	6.974	-0.153	0.112
-156.706	57.172	0.103	0.098
-155.691	3.264	0.424	0.303
-154.677	132.017	-0.078	-0.099
-153.662	-72.034	-0.202	-0.074
-152.647	129.694	0.096	0.121
-151.633	-149.551	-0.161	0.012
-150.618	276.711	-0.073	-0.128
-149.604	567.948	-0.017	0.039
-148.589	-200.000	0.072	0.341
-147.574	177.103	0.216	-0.309
-146.560	-23.277	-0.216	0.127
-145.545	800.000	-0.009	-0.028
-144.531	171.037	-0.107	0.150
-143.516	-77.717	-0.181	0.061
-142.502	-80.076	0.195	0.064
-141.487	-200.000	0.069	-0.306
-140.472	110.023	-0.063	-0.074
-139.458	-118.740	0.312	0.054
-138.443	-200.000	-0.017	-0.199
-137.429	-5.742	0.307	-0.207
-136.414	-14.117	0.255	0.162
-135.399	800.000	-0.060	0.189
-134.385	364.977	0.027	-0.053
-133.370	411.529	0.095	-0.198
-132.356	64.087	0.081	0.080
-131.341	398.431	0.109	-0.223
-130.326	-150.245	0.107	0.008
-129.312	-62.728	0.274	-0.111
-128.297	269.991	0.024	-0.041
-127.283	-200.000	0.077	0.371
-126.268	288.757	0.207	-0.368
-125.253	53.192	0.200	-0.188
-124.239	63.235	0.158	0.156
-123.224	-110.301	-0.012	0.003
-122.210	18.279	0.082	-0.064
-121.195	456.139	0.099	-0.216
-120.180	800.000	-0.114	-0.319
