DTS Sentinel unit serial number:	SN413079Multiplexer serial number:	ORYXHardware model number:	OX4-SRSoftware version number:	ORYX F/W v4.00 Oryx Data Collector v3.7.2.0data status	okinstallation	princeton_trtdifferential loss correction	single-endedforward channel	channel 3reverse channel	N/Adate	2019/09/17time	01:56:34forward acquisition time	60.00reverse acquisition time	0.00gamma	496.2192k internal	0.2324k external	0.2324temperature offset calibration	0.9944default loss term (dB/km)	0.3790temperature slope calibration	1.0000multiplexer offset coefficient	1.0000multiplexer slope coefficient	1.0000fibre end	0.00T internal ref (°C)	29.66T ext. ref 1 (°C)	0.13T ext. ref 2 (°C)	24.56length (m)	temperature (°C)	Stokes	anti-Stokes-747.200	-200.000	0.000	0.121
-746.185	-176.469	-0.213	-0.006
-745.171	185.055	0.087	-0.131
-744.156	-200.000	0.079	0.466
-743.142	62.469	0.118	-0.119
-742.127	60.090	0.215	0.215
-741.112	242.223	0.084	0.141
-740.098	-93.046	-0.256	0.072
-739.083	-0.612	0.297	0.213
-738.069	-200.000	0.007	0.230
-737.054	2.501	-0.186	-0.136
-736.039	-200.000	-0.006	-0.227
-735.025	0.871	0.292	-0.211
-734.010	-7.517	-0.238	-0.163
-732.996	-80.552	-0.294	-0.099
-731.981	125.215	-0.170	0.216
-730.966	13.559	0.214	-0.168
-729.952	13.222	-0.301	-0.235
-728.937	95.422	0.243	-0.279
-727.923	-13.182	0.150	0.098
-726.908	-44.852	-0.241	-0.121
-725.894	-5.005	0.133	-0.092
-724.879	47.457	-0.423	0.397
-723.864	-111.991	-0.181	0.037
-722.850	-35.163	0.080	-0.044
-721.835	-163.792	0.193	0.009
-720.821	800.000	0.078	-0.264
-719.806	-87.304	0.277	0.085
-718.791	474.285	0.047	0.106
-717.777	-21.473	-0.002	0.001
-716.762	-111.170	-0.206	0.043
-715.748	-46.814	0.207	-0.102
-714.733	99.724	0.182	0.212
-713.718	-108.488	-0.347	-0.075
-712.704	-99.839	-0.044	-0.011
-711.689	800.000	0.018	-0.062
-710.675	184.367	0.123	0.184
-709.660	-58.727	-0.169	0.074
-708.645	-122.670	-0.390	-0.064
-707.631	-200.000	0.064	0.379
-706.616	481.772	-0.159	0.365
-705.602	-82.291	-0.082	0.027
-704.587	-51.960	0.522	-0.245
-703.572	-184.059	-0.216	-0.004
-702.558	-20.974	0.098	0.060
-701.543	19.739	0.133	0.108
-700.529	-200.000	0.023	0.110
-699.514	101.438	0.290	-0.341
-698.499	517.685	0.094	-0.222
-697.485	133.943	-0.189	-0.246
-696.470	298.698	-0.216	-0.401
-695.456	-31.116	0.168	-0.095
-694.441	390.163	0.089	-0.186
-693.426	-144.084	-0.183	-0.017
-692.412	800.000	-0.062	-0.223
-691.397	147.554	0.055	-0.074
-690.383	259.983	-0.285	-0.496
-689.368	-74.876	0.135	0.049
-688.354	-73.394	-0.250	-0.092
-687.339	800.000	-0.017	-0.049
-686.324	156.937	0.060	-0.083
-685.310	800.000	0.048	0.162
-684.295	207.184	-0.072	-0.113
-683.281	223.517	0.179	-0.290
-682.266	12.642	0.102	0.080
-681.251	19.642	-0.053	-0.043
-680.237	-166.444	-0.156	0.007
-679.222	-79.624	-0.262	-0.089
-678.208	-98.861	0.266	0.068
-677.193	362.912	0.100	-0.203
-676.178	-76.377	-0.073	0.026
-675.164	157.939	-0.081	-0.113
-674.149	547.659	0.158	-0.382
-673.135	19.741	-0.174	-0.141
-672.120	-139.694	0.379	0.041
-671.105	-110.219	0.278	-0.058
-670.091	-200.000	-0.000	-0.156
-669.076	163.782	0.209	0.296
-668.062	201.570	-0.072	0.111
-667.047	45.062	-0.107	0.099
-666.032	573.389	0.025	-0.062
-665.018	-200.000	0.008	-0.166
-664.003	800.000	-0.080	-0.318
-662.989	271.175	-0.254	-0.450
-661.974	46.503	-0.155	-0.144
-660.959	-114.083	-0.129	0.025
-659.945	1.015	-0.228	0.165
-658.930	-92.329	0.338	0.096
-657.916	-200.000	-0.061	-0.352
-656.901	-14.335	-0.174	0.113
-655.886	15.628	0.069	-0.055
-654.872	10.674	0.193	-0.148
-653.857	-39.253	-0.101	-0.053
-652.843	-200.000	0.000	0.200
-651.828	29.615	0.254	-0.218
-650.814	800.000	0.079	-0.291
-649.799	-105.965	0.045	-0.010
-648.784	-110.790	0.080	-0.017
-647.770	-182.524	0.107	0.002
-646.755	-32.263	-0.025	-0.014
-645.741	254.874	-0.159	0.274
-644.726	-115.985	0.109	-0.020
-643.711	245.488	-0.125	-0.212
-642.697	-200.000	-0.027	0.313
-641.682	33.196	-0.090	-0.078
-640.668	61.060	0.099	-0.098
-639.653	227.095	0.065	-0.105
-638.638	-163.010	0.447	-0.022
-637.624	-175.765	0.350	-0.009
-636.609	225.396	-0.181	-0.294
-635.595	174.642	0.172	0.250
-634.580	-82.690	-0.234	0.076
-633.565	-46.773	-0.139	0.068
-632.551	-163.370	0.320	0.015
-631.536	146.727	0.131	-0.177
-630.522	517.126	0.137	0.321
-629.507	-136.897	0.223	-0.026
-628.492	-137.267	-0.194	-0.022
-627.478	-41.437	0.186	-0.096
-626.463	690.401	-0.097	0.254
-625.449	663.119	-0.156	0.404
-624.434	-84.498	-0.191	-0.061
-623.419	-200.000	0.041	0.251
-622.405	270.761	0.102	0.180
-621.390	-80.908	0.264	-0.088
-620.376	22.100	0.078	0.064
-619.361	-84.999	0.435	0.137
-618.346	12.782	-0.063	0.049
-617.332	88.171	0.116	-0.129
-616.317	199.767	-0.100	-0.155
-615.303	23.377	0.370	-0.306
-614.288	-175.990	-0.298	0.008
-613.273	-200.000	0.024	-0.188
-612.259	-200.000	0.018	-0.283
-611.244	-36.661	-0.287	0.155
-610.230	81.237	0.187	-0.203
-609.215	800.000	0.081	-0.349
-608.201	3.492	-0.298	-0.218
-607.186	-124.051	-0.177	0.028
-606.171	9.287	-0.064	-0.048
-605.157	19.101	0.234	0.189
-604.142	800.000	0.102	0.322
-603.128	-84.074	-0.163	0.052
-602.113	-5.969	0.178	0.122
-601.098	-200.000	-0.273	0.001
-600.084	-6.031	0.325	-0.223
-599.069	-25.268	-0.054	-0.032
-598.055	-84.809	0.264	-0.083
-597.040	-158.825	-0.257	0.015
-596.025	15.159	-0.132	0.104
-595.011	-116.657	0.332	0.061
-593.996	-68.997	0.172	-0.066
-592.982	87.569	-0.180	0.200
-591.967	800.000	0.108	0.401
-590.952	73.661	-0.157	0.165
-589.938	800.000	-0.099	-0.326
-588.923	-81.773	0.078	-0.026
-587.909	46.684	-0.045	-0.042
-586.894	-57.203	-0.066	-0.029
-585.879	-36.178	-0.102	-0.055
-584.865	-156.275	-0.164	-0.010
-583.850	119.627	-0.113	0.141
-582.836	800.000	0.023	0.067
-581.821	-200.000	-0.011	-0.119
-580.806	442.689	-0.102	-0.224
-579.792	-101.876	-0.162	-0.039
-578.777	144.652	0.164	0.220
-577.763	-200.000	-0.005	0.190
-576.748	36.596	-0.182	-0.161
-575.733	-113.326	0.377	-0.074
-574.719	800.000	-0.101	-0.386
-573.704	-115.346	0.278	-0.053
-572.690	-41.727	-0.079	0.041
-571.675	546.247	0.070	-0.169
-570.661	-200.000	0.008	0.368
-569.646	-81.910	0.234	-0.077
-568.631	-92.014	-0.115	-0.033
-567.617	283.716	-0.101	0.182
-566.602	-17.867	-0.064	0.040
-565.588	-200.000	0.047	0.226
-564.573	-94.571	-0.160	-0.044
-563.558	-194.510	0.326	-0.003
-562.544	-20.833	0.152	-0.093
-561.529	-7.676	-0.144	0.097
-560.515	-183.948	0.296	-0.005
-559.500	800.000	0.039	0.136
-558.485	800.000	0.083	-0.325
-557.471	-200.000	0.070	-0.396
-556.456	539.105	0.115	0.275
-555.442	800.000	-0.078	0.256
-554.427	586.113	0.087	-0.214
-553.412	1.916	0.233	-0.169
-552.398	-32.551	-0.146	-0.081
-551.383	28.834	0.218	0.185
-550.369	-200.000	0.008	-0.163
-549.354	-200.000	0.203	-0.000
-548.339	800.000	0.056	-0.238
-547.325	-81.952	0.251	0.082
-546.310	-135.627	-0.244	-0.029
-545.296	-95.899	-0.220	0.059
-544.281	-99.979	0.311	-0.078
-543.266	800.000	0.028	0.111
-542.252	121.392	-0.067	0.083
-541.237	800.000	-0.023	0.084
-540.223	-40.797	0.191	0.099
-539.208	23.617	0.087	-0.072
-538.193	-3.829	-0.383	-0.266
-537.179	265.378	0.110	0.193
-536.164	-109.147	0.129	-0.028
-535.150	800.000	0.030	0.091
-534.135	-95.610	-0.314	0.084
-533.121	800.000	-0.064	-0.230
-532.106	-64.168	-0.236	-0.096
-531.091	-148.104	-0.049	-0.004
-530.077	561.399	-0.083	0.200
-529.062	-200.000	-0.021	-0.102
-528.048	800.000	-0.032	0.117
-527.033	8.946	0.215	0.162
-526.018	-200.000	-0.027	0.161
-525.004	-200.000	0.024	0.393
-523.989	539.520	0.007	0.017
-522.975	138.239	-0.076	-0.099
-521.960	-200.000	-0.027	0.313
-520.945	800.000	0.083	-0.327
-519.931	140.939	-0.167	0.220
-518.916	800.000	0.041	0.151
-517.902	157.752	-0.157	-0.218
-516.887	-89.469	-0.035	0.010
-515.872	800.000	0.020	0.068
-514.858	577.126	-0.023	0.056
-513.843	114.988	0.110	0.135
-512.829	-200.000	-0.036	0.230
-511.814	307.200	-0.056	0.105
-510.799	800.000	-0.160	0.487
-509.785	349.350	0.103	-0.203
-508.770	-28.391	-0.320	-0.185
-507.756	-200.000	-0.023	-0.126
-506.741	149.277	-0.076	-0.102
-505.726	-130.609	0.149	-0.020
-504.712	-200.000	0.013	0.158
-503.697	-200.000	0.006	-0.034
-502.683	-181.385	-0.215	-0.004
-501.668	-200.000	0.041	0.239
-500.653	59.118	-0.173	0.170
-499.639	52.792	-0.317	-0.303
-498.624	-92.687	-0.078	-0.022
-497.610	-84.575	-0.093	0.029
-496.595	800.000	-0.028	-0.095
-495.581	-99.502	0.165	0.042
-494.566	-200.000	0.010	-0.048
-493.551	-200.000	0.062	-0.303
-492.537	200.967	0.154	-0.237
-491.522	269.250	-0.163	-0.286
-490.508	217.456	-0.056	0.089
-489.493	313.998	-0.055	0.104
-488.478	120.014	0.071	-0.088
-487.464	23.818	0.126	-0.104
-486.449	-152.569	-0.416	-0.030
-485.435	-110.940	-0.292	0.060
-484.420	-20.914	-0.213	0.131
-483.405	-112.182	0.365	-0.073
-482.391	316.314	-0.134	-0.253
-481.376	-64.882	-0.212	-0.086
-480.362	82.851	0.148	-0.160
-479.347	33.393	0.107	-0.092
-478.332	800.000	0.071	-0.275
-477.318	-150.157	-0.400	-0.031
-476.303	-73.296	-0.284	-0.104
-475.289	45.526	-0.172	-0.159
-474.274	21.827	-0.090	-0.074
-473.259	-8.453	0.074	0.050
-472.245	-78.093	0.050	0.017
-471.230	800.000	-0.125	0.375
-470.216	257.932	-0.153	0.263
-469.201	-95.249	0.111	-0.030
-468.186	469.046	0.075	0.169
-467.172	-93.481	-0.158	-0.044
-466.157	-115.389	-0.156	-0.029
-465.143	-200.000	-0.020	0.421
-464.128	-200.000	0.045	-0.302
-463.113	-59.490	-0.203	-0.087
-462.099	-129.133	0.202	-0.028
-461.084	148.712	0.034	-0.046
-460.070	38.294	0.093	-0.082
-459.055	-13.230	0.161	0.104
-458.040	86.455	-0.317	-0.348
-457.026	52.361	-0.248	0.236
-456.011	99.998	-0.164	0.190
-454.997	-200.000	0.027	-0.134
-453.982	-33.965	0.268	-0.147
-452.968	569.748	0.085	0.206
-451.953	-97.387	0.262	-0.068
-450.938	303.007	0.101	-0.186
-449.924	796.246	0.057	-0.158
-448.909	-157.886	-0.474	-0.028
-447.895	-33.242	0.255	0.141
-446.880	800.000	-0.064	-0.177
-445.865	800.000	-0.056	-0.221
-444.851	-51.335	-0.120	-0.056
-443.836	-31.772	-0.061	0.034
-442.822	-102.482	-0.215	0.051
-441.807	-1.928	-0.036	-0.025
-440.792	204.978	-0.091	-0.141
-439.778	-17.474	-0.281	-0.177
-438.763	-95.276	0.249	-0.067
-437.749	253.794	0.174	-0.297
-436.734	-40.081	0.192	-0.100
-435.719	-83.804	-0.226	-0.072
-434.705	-99.370	0.332	0.084
-433.690	800.000	-0.082	-0.329
-432.676	102.727	0.144	0.168
-431.661	31.462	-0.284	0.243
-430.646	691.604	0.065	0.169
-429.632	37.602	0.127	-0.112
-428.617	-124.456	-0.283	0.044
-427.603	-200.000	0.022	0.213
-426.588	474.663	-0.039	0.087
-425.573	-200.000	-0.066	0.355
-424.559	11.859	0.413	0.316
-423.544	563.433	0.051	-0.123
-422.530	164.031	-0.145	-0.203
-421.515	127.558	-0.152	-0.193
-420.500	800.000	-0.051	0.221
-419.486	298.709	-0.052	-0.096
-418.471	21.637	-0.090	0.073
-417.457	-33.252	-0.341	0.188
-416.442	-132.529	0.316	-0.040
-415.428	-200.000	0.006	-0.425
-414.413	-200.000	0.070	0.363
-413.398	-144.639	-0.167	-0.015
-412.384	206.729	-0.175	0.272
-411.369	-200.000	0.012	-0.128
-410.355	-171.568	-0.281	-0.009
-409.340	44.157	0.408	0.373
-408.325	-87.443	0.206	-0.062
-407.311	-102.988	-0.065	-0.015
-406.296	58.708	0.134	-0.131
-405.282	-200.000	0.002	-0.200
-404.267	186.569	-0.141	0.209
-403.252	-82.826	0.156	-0.050
-402.238	-114.988	0.151	0.029
-401.223	-200.000	0.002	-0.194
-400.209	800.000	0.081	0.332
-399.194	664.719	0.048	0.123
-398.179	235.572	0.223	-0.367
-397.165	19.268	0.112	-0.090
-396.150	-161.622	0.237	-0.012
-395.136	21.589	-0.308	-0.250
-394.121	-137.567	0.421	-0.047
-393.106	800.000	0.060	-0.219
-392.092	590.585	0.031	0.076
-391.077	-126.011	0.051	0.008
-390.063	800.000	0.105	0.345
-389.048	112.271	0.247	0.298
-388.033	99.329	-0.134	-0.154
-387.019	-200.000	0.005	-0.084
-386.004	66.812	-0.265	-0.269
-384.990	800.000	0.068	0.229
-383.975	494.234	0.074	0.168
-382.960	-192.724	-0.106	-0.001
-381.946	38.873	-0.130	0.116
-380.931	61.974	-0.359	-0.356
-379.917	-200.000	-0.053	0.302
-378.902	800.000	-0.005	0.019
-377.888	-199.875	0.286	-0.001
-376.873	62.909	-0.092	-0.092
-375.858	-200.000	0.071	0.511
-374.844	-200.000	0.018	-0.219
-373.829	183.061	0.070	0.103
-372.815	115.688	0.183	-0.222
-371.800	-92.602	-0.216	0.060
-370.785	518.820	-0.003	-0.008
-369.771	-200.000	-0.134	0.652
-368.756	-200.000	0.002	0.142
-367.742	-200.000	-0.007	0.091
-366.727	-63.825	0.272	0.111
-365.712	-200.000	0.021	0.130
-364.698	-187.384	-0.094	0.001
-363.683	617.181	0.066	-0.165
-362.669	800.000	0.070	0.298
-361.654	800.000	-0.046	-0.137
-360.639	-200.000	0.058	-0.267
-359.625	122.811	-0.067	-0.083
-358.610	-94.903	-0.279	0.075
-357.596	104.318	-0.145	-0.170
-356.581	-27.942	0.065	-0.037
-355.566	107.657	0.184	0.218
-354.552	55.006	-0.152	0.146
-353.537	-200.000	-0.116	0.000
-352.523	-141.861	-0.095	0.009
-351.508	-86.353	-0.193	0.059
-350.493	39.424	0.044	-0.039
-349.479	-200.000	-0.244	-0.001
-348.464	800.000	0.048	0.145
-347.450	-30.237	-0.086	0.048
-346.435	-36.528	-0.217	-0.116
-345.420	-83.376	-0.128	-0.041
-344.406	-200.000	0.055	-0.285
-343.391	85.590	0.038	-0.042
-342.377	42.816	-0.023	-0.021
-341.362	800.000	0.064	0.186
-340.348	35.401	-0.026	-0.023
-339.333	292.881	0.129	-0.233
-338.318	28.757	0.155	0.130
-337.304	-91.081	0.144	0.041
-336.289	155.142	-0.210	0.287
-335.275	-151.100	-0.430	-0.032
-334.260	-89.049	-0.051	-0.015
-333.245	-122.587	0.176	0.028
-332.231	154.907	-0.117	0.160
-331.216	301.414	-0.097	-0.178
-330.202	-2.649	0.132	-0.092
-329.187	-53.438	0.167	-0.076
-328.172	671.892	-0.093	0.238
-327.158	140.562	-0.195	0.256
-326.143	-200.000	-0.028	0.133
-325.129	800.000	-0.049	0.184
-324.114	-82.526	-0.065	0.021
-323.099	-200.000	-0.034	-0.333
-322.085	51.277	0.217	-0.205
-321.070	-135.200	-0.150	-0.018
-320.056	121.682	-0.066	-0.081
-319.041	-51.174	-0.096	0.045
-318.026	91.877	0.134	0.149
-317.012	-59.863	0.188	-0.080
-315.997	-123.804	-0.255	0.040
-314.983	-87.233	0.474	-0.143
-313.968	-124.907	0.129	-0.020
-312.953	800.000	0.110	0.315
-311.939	-52.550	0.224	0.103
-310.924	-77.580	-0.061	-0.021
-309.910	-6.990	-0.224	0.151
-308.895	-17.046	-0.301	-0.188
-307.880	10.329	0.080	0.060
-306.866	-44.251	0.127	0.063
-305.851	394.855	-0.029	-0.060
-304.837	82.974	-0.104	-0.113
-303.822	526.914	0.117	0.274
-302.807	-29.780	-0.093	-0.052
-301.793	800.000	-0.031	-0.099
-300.778	-89.391	0.449	0.131
-299.764	349.405	0.066	0.129
-298.749	-9.445	-0.141	-0.093
-297.735	34.277	0.152	0.132
-296.720	322.037	-0.036	-0.068
-295.705	-200.000	-0.004	0.028
-294.691	-123.912	0.447	-0.070
-293.676	629.950	-0.098	0.246
-292.662	352.788	0.176	-0.345
-291.647	13.702	0.191	-0.147
-290.632	-110.287	0.116	-0.024
-289.618	-23.504	-0.120	0.072
-288.603	-200.000	0.007	-0.066
-287.589	-61.735	0.139	-0.058
-286.574	500.565	0.206	0.471
-285.559	-2.950	0.224	0.155
-284.545	42.394	-0.277	-0.250
-283.530	-10.985	-0.269	-0.176
-282.516	-151.683	-0.344	-0.025
-281.501	-11.787	-0.433	0.282
-280.486	463.824	0.109	-0.242
-279.472	192.202	0.133	-0.198
-278.457	-51.488	0.222	-0.103
-277.443	101.197	0.157	0.181
-276.428	-200.000	-0.017	0.340
-275.413	-131.787	-0.221	-0.029
-274.399	-55.957	-0.164	0.073
-273.384	-149.512	0.364	0.029
-272.370	40.200	0.213	0.190
-271.355	-200.000	0.029	-0.308
-270.340	-66.479	0.422	-0.166
-269.326	46.715	0.114	-0.105
-268.311	-44.018	0.232	-0.115
-267.297	58.545	-0.176	0.171
-266.282	-162.004	0.158	0.008
-265.267	-117.767	0.310	-0.055
-264.253	-60.952	-0.336	-0.141
-263.238	-52.829	0.146	-0.067
-262.224	352.219	-0.105	-0.207
-261.209	-112.628	0.152	-0.030
-260.195	679.414	-0.194	-0.500
-259.180	699.688	0.051	0.132
-258.165	-200.000	-0.030	0.290
-257.151	-98.101	-0.341	0.087
-256.136	-78.627	-0.162	-0.055
-255.122	-85.326	0.216	-0.067
-254.107	601.167	0.078	0.192
-253.092	-110.892	-0.103	0.021
-252.078	183.783	-0.122	0.178
-251.063	-200.000	-0.004	0.200
-250.049	800.000	0.059	-0.204
-249.034	-70.311	-0.087	0.033
-248.019	530.495	-0.074	-0.172
-247.005	217.824	0.163	0.258
-245.990	-54.916	0.126	0.056
-244.976	800.000	0.031	-0.109
-243.961	15.419	0.130	-0.101
-242.946	800.000	0.039	0.124
-241.932	-70.326	0.176	-0.066
-240.917	-142.878	0.201	-0.019
-239.903	-200.000	-0.015	-0.116
-238.888	-33.915	0.124	0.068
-237.873	107.520	-0.157	-0.185
-236.859	66.376	-0.254	0.255
-235.844	-54.549	0.184	0.083
-234.830	66.221	-0.266	-0.267
-233.815	115.055	0.205	-0.247
-232.800	55.150	-0.331	0.317
-231.786	-99.405	0.074	-0.018
-230.771	31.312	0.203	-0.173
-229.757	-38.702	0.123	0.064
-228.742	800.000	-0.050	0.141
-227.727	800.000	-0.072	-0.235
-226.713	-39.915	0.077	0.040
-225.698	800.000	-0.040	-0.171
-224.684	-167.730	-0.108	0.004
-223.669	-23.796	-0.166	-0.099
-222.655	-118.011	0.153	-0.027
-221.640	-24.274	-0.201	0.118
-220.625	-130.121	0.082	0.011
-219.611	-183.523	0.336	-0.006
-218.596	-200.000	0.009	0.063
-217.582	145.018	-0.182	0.240
-216.567	-118.025	-0.305	-0.054
-215.552	-200.000	0.025	-0.248
-214.538	99.045	-0.033	-0.037
-213.523	-200.000	0.059	-0.305
-212.509	-11.270	-0.227	0.148
-211.494	38.726	-0.096	-0.085
-210.479	222.470	0.016	0.026
-209.465	514.913	0.148	-0.342
-208.450	8.141	-0.076	-0.057
-207.436	-200.000	0.014	-0.307
-206.421	-100.317	0.378	0.093
-205.406	-127.983	-0.056	-0.008
-204.392	302.063	-0.009	-0.017
-203.377	-109.356	0.079	0.017
-202.363	134.305	0.077	0.098
-201.348	8.937	-0.088	0.066
-200.333	800.000	-0.055	-0.158
-199.319	-74.563	-0.161	0.057
-198.304	-117.952	-0.161	-0.029
-197.290	126.035	-0.192	0.240
-196.275	-152.536	0.160	0.011
-195.260	-200.000	0.048	0.311
-194.246	-53.514	-0.190	0.086
-193.231	21.911	0.274	-0.220
-192.217	573.878	-0.032	-0.078
-191.202	256.536	0.060	0.102
-190.187	-186.470	-0.120	0.002
-189.173	115.131	0.150	-0.181
-188.158	-31.231	-0.100	0.055
-187.144	-200.000	-0.060	0.286
-186.129	-149.538	0.426	0.033
-185.114	50.049	-0.187	0.174
-184.100	215.400	-0.046	-0.072
-183.085	-11.713	0.165	0.107
-182.071	175.868	-0.012	-0.018
-181.056	224.514	0.143	-0.228
-180.042	-96.253	-0.139	-0.036
-179.027	-16.400	-0.180	0.112
-178.012	113.309	0.057	0.069
-176.998	-57.128	0.084	-0.037
-175.983	-10.538	-0.241	0.158
-174.969	-88.569	-0.358	0.105
-173.954	-200.000	0.008	-0.151
-172.939	119.508	0.261	-0.319
-171.925	800.000	0.081	-0.258
-170.910	-200.000	-0.013	0.189
-169.896	354.417	-0.160	-0.314
-168.881	-67.557	-0.272	0.105
-167.866	800.000	0.086	0.337
-166.852	161.443	-0.186	-0.256
-165.837	616.251	0.170	-0.420
-164.823	-200.000	-0.016	0.127
-163.808	-200.000	0.232	0.001
-162.793	-141.625	0.087	-0.009
-161.779	31.805	-0.117	0.099
-160.764	67.135	-0.217	0.218
-159.750	294.617	-0.119	-0.215
-158.735	-200.000	-0.020	-0.263
-157.720	97.933	-0.088	0.100
-156.706	52.801	-0.105	-0.099
-155.691	-200.000	0.012	-0.158
-154.677	58.836	0.066	0.064
-153.662	-21.969	-0.128	-0.076
-152.647	-149.279	0.050	0.004
-151.633	381.881	0.124	0.251
-150.618	209.308	-0.078	-0.121
-149.604	-49.159	0.304	0.143
-148.589	38.685	0.081	-0.071
-147.574	-200.000	-0.024	-0.166
-146.560	-82.242	0.190	0.061
-145.545	-200.000	-0.041	-0.251
-144.531	49.353	-0.183	0.170
-143.516	-200.000	-0.014	0.135
-142.502	120.860	0.274	-0.336
-141.487	5.962	-0.248	-0.181
-140.472	9.450	0.113	-0.084
-139.458	158.274	-0.178	0.244
-138.443	800.000	0.057	0.183
-137.429	800.000	0.055	0.233
-136.414	224.829	-0.155	0.248
-135.399	-200.000	-0.045	-0.372
-134.385	-153.387	0.399	0.027
-133.370	-54.698	-0.151	-0.067
-132.356	-143.814	0.249	-0.023
-131.341	52.486	0.174	-0.163
-130.326	62.903	-0.265	0.262
-129.312	-8.650	0.268	0.177
-128.297	221.480	-0.016	0.025
-127.283	-200.000	-0.052	-0.246
-126.268	168.163	0.106	0.148
-125.253	542.468	-0.131	-0.308
-124.239	-130.900	0.399	-0.053
-123.224	-9.347	0.286	-0.188
-122.210	105.176	0.045	0.052
-121.195	-113.398	0.288	0.056
