DTS Sentinel unit serial number:	SN413079Multiplexer serial number:	ORYXHardware model number:	OX4-SRSoftware version number:	ORYX F/W v4.00 Oryx Data Collector v3.7.2.0data status	okinstallation	princeton_trtdifferential loss correction	single-endedforward channel	channel 3reverse channel	N/Adate	2019/09/16time	00:56:34forward acquisition time	60.00reverse acquisition time	0.00gamma	496.2192k internal	0.2339k external	0.2339temperature offset calibration	0.9950default loss term (dB/km)	0.3790temperature slope calibration	1.0000multiplexer offset coefficient	1.0000multiplexer slope coefficient	1.0000fibre end	0.00T internal ref (°C)	27.37T ext. ref 1 (°C)	9.72T ext. ref 2 (°C)	21.33length (m)	temperature (°C)	Stokes	anti-Stokes-747.200	-87.369	-0.296	0.090
-746.185	156.400	-0.268	0.371
-745.171	-200.000	-0.033	0.162
-744.156	-200.000	-0.091	0.501
-743.142	-200.000	-0.137	0.001
-742.127	133.410	0.114	0.148
-741.112	-138.540	-0.265	0.029
-740.098	-146.241	0.115	-0.010
-739.083	-139.179	0.312	0.034
-738.069	-72.055	-0.353	0.132
-737.054	16.695	0.240	0.190
-736.039	183.383	-0.213	-0.315
-735.025	160.288	-0.047	0.065
-734.010	452.533	-0.102	-0.226
-732.996	-124.062	-0.309	0.049
-731.981	800.000	-0.072	-0.251
-730.966	-98.477	-0.317	-0.081
-729.952	-161.966	-0.589	-0.030
-728.937	800.000	-0.037	-0.111
-727.923	16.063	-0.070	-0.055
-726.908	7.349	-0.237	0.178
-725.894	-112.557	0.386	-0.077
-724.879	800.000	-0.103	-0.316
-723.864	-13.054	-0.129	0.084
-722.850	10.621	0.147	0.112
-721.835	76.602	-0.139	-0.147
-720.821	-27.774	0.039	0.023
-719.806	-200.000	-0.012	0.056
-718.791	-59.940	-0.143	-0.061
-717.777	800.000	0.026	0.106
-716.762	-40.807	-0.461	-0.239
-715.748	-200.000	-0.001	0.081
-714.733	-67.925	-0.536	-0.210
-713.718	800.000	0.063	-0.193
-712.704	-177.990	-0.124	0.003
-711.689	35.287	-0.066	0.058
-710.675	800.000	-0.037	0.115
-709.660	-126.344	0.041	-0.006
-708.645	135.417	-0.060	0.078
-707.631	-56.599	-0.183	0.081
-706.616	164.252	-0.124	-0.175
-705.602	152.494	-0.087	-0.120
-704.587	800.000	0.072	-0.276
-703.572	-159.709	-0.220	-0.012
-702.558	800.000	0.018	0.055
-701.543	68.680	-0.181	-0.186
-700.529	-136.785	0.068	0.008
-699.514	-200.000	-0.030	-0.294
-698.499	84.105	0.124	0.136
-697.485	21.591	-0.245	0.200
-696.470	800.000	0.052	-0.205
-695.456	-89.620	0.303	-0.089
-694.441	-28.135	-0.241	0.139
-693.426	-164.329	-0.123	-0.006
-692.412	-124.552	0.175	-0.027
-691.397	-107.457	-0.190	0.042
-690.383	19.829	0.103	0.083
-689.368	78.188	-0.234	-0.250
-688.354	-113.748	-0.512	-0.100
-687.339	-150.736	0.255	0.019
-686.324	-75.842	-0.225	-0.080
-685.310	-200.000	-0.025	-0.174
-684.295	-85.494	-0.250	0.078
-683.281	433.813	0.024	-0.051
-682.266	-13.048	0.302	-0.197
-681.251	-200.000	0.064	-0.300
-680.237	456.400	0.112	0.248
-679.222	50.724	0.163	-0.154
-678.208	-200.000	0.018	-0.288
-677.193	257.739	-0.076	0.131
-676.178	800.000	-0.059	-0.251
-675.164	800.000	0.063	-0.271
-674.149	-2.049	0.088	-0.062
-673.135	-200.000	-0.013	0.139
-672.120	-200.000	-0.024	0.149
-671.105	10.609	0.220	-0.168
-670.091	30.313	-0.109	0.093
-669.076	800.000	0.013	0.053
-668.062	472.475	0.183	0.412
-667.047	-200.000	-0.028	0.184
-666.032	-109.969	-0.061	-0.013
-665.018	47.003	-0.325	-0.303
-664.003	-200.000	0.022	0.329
-662.989	-61.312	0.160	-0.067
-661.974	800.000	0.064	-0.273
-660.959	115.455	-0.266	0.326
-659.945	800.000	-0.066	0.233
-658.930	-107.735	0.073	-0.016
-657.916	-200.000	-0.005	0.088
-656.901	-110.505	0.293	0.061
-655.886	-178.125	-0.101	-0.002
-654.872	394.537	0.056	-0.117
-653.857	-10.813	0.103	0.068
-652.843	-79.128	0.182	-0.062
-651.828	52.803	-0.143	-0.137
-650.814	68.095	0.195	-0.199
-649.799	70.406	-0.278	0.287
-648.784	-172.649	-0.052	0.002
-647.770	61.328	0.113	-0.112
-646.755	199.993	-0.120	-0.184
-645.741	-101.691	-0.319	-0.077
-644.726	-87.851	0.237	-0.071
-643.711	-75.140	-0.342	-0.122
-642.697	248.361	0.202	-0.342
-641.682	-200.000	-0.010	-0.105
-640.668	-200.000	-0.027	-0.217
-639.653	-43.453	0.248	0.125
-638.638	800.000	-0.059	-0.191
-637.624	233.548	0.032	-0.052
-636.609	1.671	0.306	-0.221
-635.595	-17.504	0.287	0.180
-634.580	358.224	-0.205	0.409
-633.565	-51.702	-0.269	0.125
-632.551	800.000	0.032	-0.090
-631.536	352.182	0.080	-0.159
-630.522	94.274	0.093	0.106
-629.507	100.937	-0.075	-0.087
-628.492	36.244	0.128	-0.113
-627.478	148.662	0.162	-0.218
-626.463	361.434	-0.046	-0.092
-625.449	0.491	-0.403	0.288
-624.434	16.763	0.229	-0.181
-623.419	102.404	0.080	0.093
-622.405	228.034	0.112	-0.182
-621.390	-54.705	0.221	-0.100
-620.376	21.326	-0.187	-0.152
-619.361	324.122	0.098	-0.187
-618.346	-200.000	-0.027	-0.158
-617.332	-84.336	-0.070	-0.022
-616.317	70.513	0.236	-0.244
-615.303	155.190	0.214	-0.294
-614.288	229.360	0.092	-0.149
-613.273	261.952	0.242	0.420
-612.259	135.279	-0.246	-0.319
-611.244	32.456	-0.090	0.078
-610.230	-28.532	-0.386	0.222
-609.215	-149.814	-0.214	-0.017
-608.201	127.941	-0.278	0.352
-607.186	302.709	0.070	-0.129
-606.171	-44.851	0.133	-0.066
-605.157	-89.118	0.200	0.059
-604.142	287.478	0.091	-0.164
-603.128	-110.774	-0.068	-0.014
-602.113	-26.253	0.179	0.105
-601.098	45.183	-0.286	0.263
-600.084	-180.507	0.101	-0.002
-599.069	-93.407	-0.174	0.048
-598.055	69.772	-0.141	-0.145
-597.040	-75.941	0.196	-0.069
-596.025	800.000	-0.096	0.385
-595.011	404.579	-0.046	0.096
-593.996	-200.000	-0.023	0.142
-592.982	500.967	0.189	0.434
-591.967	647.235	0.009	0.024
-590.952	250.392	-0.205	0.347
-589.938	15.518	0.147	0.115
-588.923	-62.368	-0.314	0.130
-587.909	-200.000	0.050	0.291
-586.894	-5.106	0.501	0.344
-585.879	26.225	-0.073	-0.061
-584.865	-14.984	0.234	0.149
-583.850	326.578	-0.076	-0.146
-582.836	-11.232	-0.227	0.149
-581.821	800.000	0.030	0.095
-580.806	122.189	-0.139	-0.174
-579.792	-140.068	0.179	0.019
-578.777	24.269	-0.099	0.082
-577.763	-200.000	0.032	0.234
-576.748	398.785	0.047	0.099
-575.733	25.544	-0.082	0.068
-574.719	-45.090	-0.391	-0.194
-573.704	-67.091	-0.206	-0.081
-572.690	613.724	0.041	-0.102
-571.675	-83.784	-0.166	0.053
-570.661	-126.043	-0.102	0.015
-569.646	28.145	-0.248	-0.209
-568.631	639.101	0.181	0.459
-567.617	-9.143	-0.256	-0.171
-566.602	-71.785	-0.117	0.043
-565.588	69.254	0.170	-0.174
-564.573	800.000	-0.101	-0.285
-563.558	63.416	0.153	0.153
-562.544	177.153	0.088	-0.128
-561.529	27.163	-0.198	-0.165
-560.515	-74.896	0.155	0.055
-559.500	-13.315	-0.154	-0.100
-558.485	-34.510	0.290	-0.158
-557.471	-102.145	-0.167	0.040
-556.456	120.076	-0.193	-0.238
-555.442	-119.796	-0.102	0.017
-554.427	-60.516	0.065	-0.027
-553.412	-78.047	0.265	-0.091
-552.398	800.000	0.042	0.123
-551.383	-100.158	0.033	0.008
-550.369	157.520	0.090	0.125
-549.354	-200.000	0.043	0.202
-548.339	-106.047	0.149	-0.033
-547.325	-28.238	0.101	0.058
-546.310	-121.299	-0.385	0.064
-545.296	-57.996	0.282	0.122
-544.281	-52.956	-0.261	-0.120
-543.266	-133.374	0.404	0.051
-542.252	800.000	-0.097	0.385
-541.237	122.407	0.208	-0.259
-540.223	246.825	-0.062	-0.105
-539.208	-200.000	0.074	0.374
-538.193	800.000	0.021	-0.071
-537.179	43.300	-0.323	0.293
-536.164	481.124	-0.098	0.222
-535.150	151.822	-0.024	-0.033
-534.135	-76.957	-0.043	-0.015
-533.121	800.000	-0.084	0.273
-532.106	118.043	-0.220	0.269
-531.091	-200.000	-0.018	-0.179
-530.077	176.389	-0.171	0.247
-529.062	800.000	-0.029	-0.112
-528.048	-87.803	-0.140	0.042
-527.033	-200.000	-0.035	0.320
-526.018	751.312	-0.204	-0.548
-525.004	-141.593	-0.290	-0.029
-523.989	204.431	0.022	0.034
-522.975	-150.726	0.215	0.016
-521.960	-200.000	0.030	-0.305
-520.945	-47.069	0.225	-0.109
-519.931	-96.234	0.137	0.036
-518.916	-1.956	0.196	-0.137
-517.902	-200.000	0.022	-0.207
-516.887	-200.000	-0.019	-0.346
-515.872	251.397	-0.249	-0.421
-514.858	-43.432	0.201	-0.101
-513.843	-144.067	0.355	0.033
-512.829	-69.004	-0.148	0.057
-511.814	549.947	-0.093	-0.222
-510.799	151.796	0.157	0.213
-509.785	149.123	-0.091	0.123
-508.770	253.856	0.049	0.084
-507.756	-40.493	-0.221	0.114
-506.741	-9.846	0.150	0.099
-505.726	800.000	-0.056	0.208
-504.712	-5.882	-0.100	0.068
-503.697	109.274	-0.271	0.322
-502.683	427.702	0.059	-0.126
-501.668	800.000	-0.052	-0.170
-500.653	39.092	-0.429	0.381
-499.639	-117.921	-0.248	-0.044
-498.624	-200.000	-0.084	-0.422
-497.610	-176.883	0.082	0.002
-496.595	-156.164	-0.222	0.014
-495.581	-174.370	-0.129	0.004
-494.566	800.000	-0.078	-0.263
-493.551	74.370	-0.170	-0.177
-492.537	-13.860	0.361	-0.232
-491.522	96.429	-0.172	0.195
-490.508	88.152	-0.107	0.118
-489.493	-200.000	0.070	-0.339
-488.478	-127.057	0.351	-0.051
-487.464	800.000	-0.044	0.188
-486.449	-64.350	0.363	-0.147
-485.435	90.265	-0.062	-0.069
-484.420	-149.594	-0.233	-0.018
-483.405	-166.375	-0.124	0.005
-482.391	-200.000	-0.004	0.091
-481.376	124.225	-0.157	-0.196
-480.362	16.619	-0.361	0.283
-479.347	-123.634	0.278	0.044
-478.332	-34.016	0.148	0.081
-477.318	82.940	0.055	0.060
-476.303	158.250	-0.194	-0.267
-475.289	-200.000	0.002	0.288
-474.274	-48.611	0.295	0.141
-473.259	-111.103	0.329	0.067
-472.245	-200.000	-0.005	-0.227
-471.230	-94.194	0.356	0.097
-470.216	800.000	-0.062	-0.197
-469.201	-101.229	0.127	0.031
-468.186	155.444	0.148	-0.202
-467.172	5.106	-0.111	-0.081
-466.157	66.769	0.183	-0.184
-465.143	-63.221	-0.127	-0.052
-464.128	-157.663	0.198	0.012
-463.113	462.622	0.084	0.186
-462.099	-46.283	0.195	0.095
-461.084	72.617	0.199	-0.206
-460.070	-18.692	0.249	0.154
-459.055	-94.813	0.380	-0.102
-458.040	259.968	-0.161	-0.276
-457.026	-52.996	0.082	0.037
-456.011	-200.000	-0.038	0.216
-454.997	-200.000	0.027	-0.352
-453.982	-200.000	-0.035	-0.360
-452.968	800.000	-0.012	-0.049
-451.953	-193.011	0.101	-0.001
-450.938	-74.977	0.126	-0.045
-449.924	-32.362	-0.219	0.121
-448.909	-175.941	0.298	0.008
-447.895	113.921	0.048	0.058
-446.880	77.573	0.314	0.331
-445.865	-139.148	-0.191	-0.020
-444.851	-57.972	-0.159	-0.069
-443.836	-132.102	0.226	-0.029
-442.822	-68.099	0.067	-0.026
-441.807	76.406	0.021	-0.023
-440.792	317.604	-0.026	-0.048
-439.778	-39.922	-0.156	0.081
-438.763	78.973	-0.044	-0.047
-437.749	-122.202	0.147	-0.024
-436.734	-62.662	-0.107	0.044
-435.719	315.910	0.097	0.181
-434.705	365.835	0.082	0.164
-433.690	67.969	0.087	0.089
-432.676	800.000	0.175	0.498
-431.661	241.789	-0.071	0.117
-430.646	193.873	0.216	-0.324
-429.632	768.388	0.024	-0.063
-428.617	800.000	0.063	0.173
-427.603	15.485	0.183	0.142
-426.588	91.704	0.281	0.314
-425.573	323.548	-0.219	0.414
-424.559	353.305	-0.113	0.221
-423.544	231.809	-0.167	0.271
-422.530	463.996	0.064	-0.142
-421.515	800.000	0.028	0.115
-420.500	-200.000	0.011	-0.392
-419.486	241.110	-0.217	-0.359
-418.471	-200.000	0.052	-0.296
-417.457	-123.895	-0.131	0.020
-416.442	800.000	-0.085	0.285
-415.428	-200.000	-0.027	-0.216
-414.413	-137.828	-0.318	0.035
-413.398	422.806	0.187	0.399
-412.384	-200.000	-0.029	0.179
-411.369	-200.000	0.037	-0.174
-410.355	800.000	0.078	0.260
-409.340	423.848	-0.121	0.258
-408.325	-200.000	-0.002	-0.275
-407.311	-38.607	-0.234	0.123
-406.296	-200.000	-0.046	0.206
-405.282	-175.011	0.236	-0.007
-404.267	-4.592	0.049	-0.034
-403.252	362.255	0.028	0.056
-402.238	-102.156	-0.454	-0.108
-401.223	-26.519	-0.103	-0.060
-400.209	85.973	-0.162	-0.176
-399.194	-40.694	0.139	-0.071
-398.179	800.000	-0.005	-0.017
-397.165	-170.467	-0.081	0.003
-396.150	34.059	-0.222	-0.191
-395.136	-132.410	-0.137	0.017
-394.121	-33.815	-0.161	-0.088
-393.106	-200.000	0.045	-0.341
-392.092	-142.132	-0.311	0.031
-391.077	-200.000	0.020	-0.171
-390.063	-1.519	0.167	-0.117
-389.048	-9.406	-0.255	0.169
-388.033	157.008	0.338	-0.462
-387.019	-37.898	0.032	0.017
-386.004	71.862	0.108	-0.111
-384.990	143.370	-0.209	-0.275
-383.975	111.866	-0.080	-0.096
-382.960	-200.000	0.030	-0.319
-381.946	-49.637	0.271	0.128
-380.931	-96.626	0.085	-0.022
-379.917	89.609	0.276	0.305
-378.902	-176.040	-0.289	0.008
-377.888	-200.000	0.069	-0.602
-376.873	78.389	-0.139	0.147
-375.858	37.108	0.136	-0.119
-374.844	113.230	0.251	-0.301
-373.829	115.654	-0.097	0.117
-372.815	-50.803	0.069	-0.032
-371.800	428.051	-0.126	-0.268
-370.785	-200.000	-0.004	-0.195
-369.771	160.323	-0.083	0.114
-368.756	105.082	0.129	-0.151
-367.742	404.566	-0.140	0.292
-366.727	78.157	-0.310	0.327
-365.712	50.991	0.064	-0.060
-364.698	-53.556	-0.269	-0.122
-363.683	-166.990	0.158	-0.006
-362.669	-126.059	-0.299	-0.044
-361.654	-3.414	0.127	0.087
-360.639	146.774	-0.230	0.305
-359.625	-200.000	-0.008	0.165
-358.610	-80.974	-0.167	-0.055
-357.596	181.769	0.089	0.129
-356.581	-200.000	0.022	-0.166
-355.566	-116.188	-0.243	-0.044
-354.552	-182.205	0.393	0.007
-353.537	-49.102	-0.168	0.079
-352.523	800.000	-0.049	0.151
-351.508	486.994	-0.101	-0.227
-350.493	-146.597	-0.332	0.028
-349.479	284.883	0.099	0.176
-348.464	-164.310	-0.327	0.015
-347.450	86.602	-0.268	0.292
-346.435	-21.111	0.202	-0.122
-345.420	-200.000	-0.010	0.300
-344.406	-98.909	0.152	-0.038
-343.391	800.000	0.058	-0.230
-342.377	67.190	0.068	0.069
-341.362	-200.000	0.029	0.141
-340.348	-9.229	0.349	-0.231
-339.333	-99.158	0.158	-0.039
-338.318	262.214	-0.071	-0.122
-337.304	714.051	-0.123	-0.323
-336.289	-200.000	0.036	0.307
-335.275	-69.353	0.357	-0.135
-334.260	189.120	0.209	-0.309
-333.245	25.287	-0.301	0.247
-332.231	-200.000	0.017	-0.284
-331.216	-50.330	-0.097	0.045
-330.202	800.000	-0.080	0.234
-329.187	-200.000	-0.069	0.416
-328.172	800.000	0.022	0.087
-327.158	-200.000	-0.003	-0.084
-326.143	72.535	-0.177	-0.182
-325.129	19.323	0.106	-0.084
-324.114	-36.279	-0.080	-0.043
-323.099	-75.923	-0.498	0.174
-322.085	-36.077	-0.042	0.022
-321.070	-123.404	0.316	-0.050
-320.056	-62.746	-0.074	0.030
-319.041	185.871	0.157	0.230
-318.026	572.630	0.112	-0.269
-317.012	415.391	-0.122	-0.256
-315.997	800.000	-0.026	0.108
-314.983	-175.790	0.252	0.007
-313.968	-200.000	-0.021	-0.112
-312.953	70.431	0.248	-0.253
-311.939	672.750	0.107	0.273
-310.924	50.699	-0.107	0.100
-309.910	800.000	-0.023	0.090
-308.895	-102.777	0.318	0.075
-307.880	282.724	0.016	0.028
-306.866	-179.857	-0.231	0.005
-305.851	70.819	0.079	0.080
-304.837	-19.898	0.135	-0.082
-303.822	323.697	0.091	0.171
-302.807	800.000	0.069	0.283
-301.793	129.628	-0.233	0.293
-300.778	-54.061	0.334	0.150
-299.764	-188.648	0.048	0.001
-298.749	450.729	-0.104	-0.226
-297.735	-126.117	-0.163	0.024
-296.720	-134.458	-0.313	0.038
-295.705	29.322	0.078	0.066
-294.691	-200.000	0.024	-0.287
-293.676	81.589	0.128	0.136
-292.662	69.888	0.080	-0.081
-291.647	-36.033	-0.251	-0.134
-290.632	-117.461	0.076	0.013
-289.618	-57.212	0.223	-0.097
-288.603	-27.939	-0.306	-0.175
-287.589	56.457	-0.441	0.422
-286.574	800.000	0.062	0.215
-285.559	-34.275	0.369	0.199
-284.545	73.122	-0.085	-0.087
-283.530	-60.681	0.269	0.113
-282.516	-64.716	0.423	0.169
-281.501	30.263	-0.161	-0.135
-280.486	-126.853	0.209	0.030
-279.472	-200.000	0.102	0.458
-278.457	18.026	0.149	-0.117
-277.443	91.922	0.021	0.023
-276.428	-200.000	0.019	0.146
-275.413	-159.505	-0.352	0.019
-274.399	-111.512	0.179	-0.036
-273.384	-200.000	0.034	0.167
-272.370	-200.000	0.018	-0.405
-271.355	800.000	-0.041	0.161
-270.340	506.169	-0.162	0.370
-269.326	703.022	0.135	0.349
-268.311	-200.000	0.025	0.000
-267.297	-78.416	0.279	-0.094
-266.282	289.856	-0.183	0.327
-265.267	41.530	0.136	0.121
-264.253	-97.301	-0.080	-0.020
-263.238	-128.520	-0.096	-0.013
-262.224	-200.000	0.051	-0.355
-261.209	-36.534	-0.194	0.103
-260.195	-22.932	0.150	-0.089
-259.180	-31.335	-0.200	-0.111
-258.165	-1.756	0.197	0.136
-257.151	800.000	-0.030	-0.086
-256.136	9.367	0.197	0.147
-255.122	-97.679	-0.174	0.044
-254.107	33.918	-0.225	0.192
-253.092	-200.000	0.001	0.237
-252.078	-9.477	0.228	-0.150
-251.063	-36.211	0.180	-0.096
-250.049	-200.000	-0.011	0.195
-249.034	-25.354	-0.041	0.024
-248.019	-16.356	-0.206	-0.129
-247.005	59.045	-0.043	0.042
-245.990	-200.000	-0.017	0.203
-244.976	-200.000	-0.066	0.295
-243.961	680.903	-0.047	-0.121
-242.946	-200.000	0.005	-0.050
-241.932	-176.208	-0.362	0.009
-240.917	-200.000	0.187	0.001
-239.903	-68.536	-0.112	0.043
-238.888	-31.545	-0.456	-0.252
-237.873	786.656	-0.049	-0.132
-236.859	-116.815	0.504	-0.091
-235.844	335.100	0.172	0.328
-234.830	-61.013	-0.419	0.174
-233.815	601.174	0.081	0.199
-232.800	-42.203	0.212	-0.106
-231.786	-13.975	-0.140	-0.089
-230.771	9.562	-0.213	0.159
-229.757	-200.000	0.040	-0.286
-228.742	85.955	-0.101	-0.109
-227.727	-200.000	-0.202	-0.001
-226.713	800.000	0.044	-0.128
-225.698	-64.373	0.237	0.095
-224.684	-40.467	-0.209	0.106
-223.669	-200.000	0.028	-0.223
-222.655	-1.646	0.257	0.178
-221.640	16.015	-0.222	0.172
-220.625	492.488	-0.046	-0.103
-219.611	178.133	-0.245	-0.351
-218.596	27.508	0.127	-0.105
-217.582	277.485	-0.134	-0.234
-216.567	-4.201	0.250	-0.170
-215.552	205.763	0.199	0.304
-214.538	123.966	-0.097	0.119
-213.523	-107.115	-0.070	0.015
-212.509	640.376	0.115	-0.288
-211.494	-168.855	-0.169	-0.006
-210.479	800.000	-0.075	0.207
-209.465	-200.000	-0.074	0.318
-208.450	-200.000	0.017	0.257
-207.436	379.313	-0.029	-0.058
-206.421	116.894	-0.021	0.025
-205.406	150.977	-0.165	0.220
-204.392	-100.459	-0.125	-0.030
-203.377	800.000	-0.066	-0.186
-202.363	66.670	-0.033	-0.033
-201.348	-6.130	-0.107	-0.072
-200.333	-172.685	0.356	0.011
-199.319	119.866	0.164	-0.200
-198.304	-200.000	-0.066	-0.338
-197.290	282.764	0.109	-0.193
-196.275	-86.100	0.264	-0.080
-195.260	-77.372	-0.147	-0.050
-194.246	800.000	-0.062	0.220
-193.231	62.494	0.226	0.222
-192.217	169.461	-0.156	-0.218
-191.202	-192.962	0.301	0.003
-190.187	124.507	-0.170	0.209
-189.173	81.906	0.276	-0.294
-188.158	298.188	-0.065	-0.117
-187.144	-101.402	-0.257	-0.061
-186.129	-166.775	-0.106	-0.004
-185.114	423.265	-0.188	-0.397
-184.100	800.000	-0.077	0.253
-183.085	27.843	0.356	0.294
-182.071	237.533	0.115	-0.187
-181.056	-200.000	-0.073	-0.415
-180.042	800.000	-0.151	-0.471
-179.027	-83.268	-0.203	-0.064
-178.012	56.462	-0.269	-0.256
-176.998	-145.448	0.218	0.019
-175.983	27.850	0.126	0.104
-174.969	-200.000	-0.001	0.051
-173.954	-200.000	0.021	0.379
-172.939	58.690	0.127	-0.122
-171.925	-88.095	0.010	0.003
-170.910	115.727	0.012	0.014
-169.896	211.464	0.183	-0.282
-168.881	-200.000	0.040	-0.216
-167.866	-48.441	-0.362	0.171
-166.852	800.000	0.049	0.133
-165.837	-124.223	0.183	0.028
-164.823	65.897	0.188	-0.187
-163.808	-200.000	-0.001	0.097
-162.793	50.404	0.141	0.130
-161.779	-80.125	0.278	-0.091
-160.764	-161.271	0.088	-0.004
-159.750	800.000	0.076	-0.325
-158.735	-35.141	0.174	-0.093
-157.720	-200.000	-0.046	0.260
-156.706	698.774	0.112	-0.289
-155.691	-134.199	0.341	-0.041
-154.677	116.999	-0.140	-0.168
-153.662	-9.574	0.349	0.228
-152.647	6.336	-0.102	0.074
-151.633	-62.920	-0.183	0.074
-150.618	426.692	0.190	0.402
-149.604	-89.327	0.049	0.014
-148.589	17.532	-0.033	-0.026
-147.574	-57.653	-0.173	-0.074
-146.560	93.070	-0.058	0.064
-145.545	-131.878	0.156	0.020
-144.531	410.523	-0.096	0.199
-143.516	-168.976	0.206	0.008
-142.502	-80.726	-0.020	0.006
-141.487	-101.341	-0.159	-0.038
-140.472	45.766	0.216	-0.195
-139.458	226.898	-0.108	0.172
-138.443	-54.425	-0.090	-0.040
-137.429	800.000	0.035	-0.094
-136.414	-45.962	-0.109	-0.053
-135.399	428.196	0.114	-0.241
-134.385	1.577	0.113	0.079
-133.370	46.818	-0.308	0.280
-132.356	234.673	0.056	-0.091
-131.341	-200.000	-0.035	0.267
-130.326	30.955	0.156	0.131
-129.312	33.079	0.335	0.285
-128.297	800.000	-0.034	0.128
-127.283	167.472	0.148	-0.206
-126.268	800.000	-0.023	-0.088
-125.253	-200.000	-0.008	-0.053
-124.239	217.096	0.066	0.102
-123.224	-147.376	0.127	0.011
-122.210	-143.075	-0.069	-0.007
-121.195	-99.245	0.158	-0.039
