DTS Sentinel unit serial number:	SN413079Multiplexer serial number:	ORYXHardware model number:	OX4-SRSoftware version number:	ORYX F/W v4.00 Oryx Data Collector v3.7.2.0data status	okinstallation	princeton_trtdifferential loss correction	single-endedforward channel	channel 3reverse channel	N/Adate	2019/09/14time	00:04:34forward acquisition time	60.00reverse acquisition time	0.00gamma	496.2192k internal	0.2340k external	0.2340temperature offset calibration	1.0056default loss term (dB/km)	0.3790temperature slope calibration	1.0000multiplexer offset coefficient	1.0000multiplexer slope coefficient	1.0000fibre end	0.00T internal ref (°C)	26.50T ext. ref 1 (°C)	3.18T ext. ref 2 (°C)	21.40length (m)	temperature (°C)	Stokes	anti-Stokes-747.200	-160.300	0.305	0.017
-746.185	-200.000	-0.014	-0.234
-745.171	214.473	-0.105	0.167
-744.156	170.913	0.099	0.142
-743.142	-2.507	-0.020	-0.014
-742.127	800.000	0.117	0.332
-741.112	262.917	-0.219	-0.381
-740.098	-157.369	0.185	-0.011
-739.083	-34.450	0.182	0.100
-738.069	-193.027	0.075	-0.001
-737.054	-132.764	-0.257	0.033
-736.039	626.536	-0.052	0.131
-735.025	800.000	0.080	0.223
-734.010	-70.192	-0.116	0.044
-732.996	145.421	-0.178	-0.238
-731.981	26.821	-0.221	0.185
-730.966	-110.196	-0.295	0.062
-729.952	-200.000	-0.025	-0.358
-728.937	62.468	-0.152	0.152
-727.923	800.000	-0.072	0.236
-726.908	-41.658	-0.243	-0.125
-725.894	800.000	-0.076	-0.219
-724.879	800.000	0.096	-0.313
-723.864	800.000	0.083	-0.310
-722.850	-32.034	0.113	0.063
-721.835	19.992	0.225	0.181
-720.821	54.292	-0.049	-0.047
-719.806	-85.214	-0.159	-0.050
-718.791	-143.775	0.157	0.015
-717.777	27.068	-0.199	0.167
-716.762	-200.000	-0.012	0.145
-715.748	-108.929	-0.080	0.017
-714.733	731.186	-0.155	-0.415
-713.718	-117.723	0.073	0.013
-712.704	-66.091	0.321	-0.128
-711.689	269.925	-0.071	-0.124
-710.675	-38.680	0.294	-0.155
-709.660	-2.341	-0.227	0.159
-708.645	-50.706	0.127	0.060
-707.631	609.275	-0.092	0.231
-706.616	-200.000	-0.023	-0.103
-705.602	-65.829	0.112	-0.045
-704.587	-85.626	-0.203	0.063
-703.572	-200.000	-0.023	0.295
-702.558	520.468	-0.070	-0.163
-701.543	800.000	-0.063	-0.275
-700.529	800.000	-0.069	-0.270
-699.514	492.821	-0.053	-0.121
-698.499	213.554	-0.360	-0.569
-697.485	322.096	-0.207	-0.394
-696.470	-147.074	-0.006	0.000
-695.456	800.000	0.144	-0.438
-694.441	-52.836	0.139	0.064
-693.426	-100.060	-0.129	0.032
-692.412	-95.993	0.186	0.049
-691.397	-101.654	0.396	0.096
-690.383	-200.000	-0.020	-0.243
-689.368	191.280	-0.050	-0.075
-688.354	-180.983	0.304	0.006
-687.339	192.340	0.334	-0.505
-686.324	29.027	0.077	0.066
-685.310	-60.188	-0.263	-0.112
-684.295	800.000	-0.035	-0.121
-683.281	-15.587	-0.156	-0.099
-682.266	-61.247	-0.208	-0.087
-681.251	227.699	0.181	-0.294
-680.237	-200.000	-0.061	-0.414
-679.222	-1.938	0.229	0.161
-678.208	189.190	0.073	0.109
-677.193	210.867	0.091	0.143
-676.178	800.000	-0.043	-0.127
-675.164	692.010	-0.078	-0.204
-674.149	444.145	0.091	0.199
-673.135	22.197	0.111	-0.091
-672.120	-99.327	-0.126	-0.032
-671.105	-125.896	-0.122	-0.018
-670.091	800.000	0.059	-0.203
-669.076	-39.757	-0.033	-0.017
-668.062	253.055	-0.151	-0.257
-667.047	800.000	0.139	0.502
-666.032	-35.746	0.114	0.062
-665.018	-22.327	0.243	-0.147
-664.003	800.000	-0.019	0.066
-662.989	276.228	0.096	0.170
-661.974	-200.000	-0.049	-0.407
-660.959	-107.988	0.402	-0.087
-659.945	179.965	-0.294	0.431
-658.930	125.263	-0.074	-0.093
-657.916	-200.000	-0.063	-0.338
-656.901	362.350	0.046	0.092
-655.886	-2.403	-0.268	0.187
-654.872	199.720	-0.052	-0.080
-653.857	316.294	0.152	-0.286
-652.843	-200.000	0.002	-0.092
-651.828	-19.411	-0.210	-0.130
-650.814	272.713	-0.094	-0.165
-649.799	206.918	0.180	0.281
-648.784	-200.000	-0.030	0.178
-647.770	7.511	0.159	0.119
-646.755	-23.949	0.226	0.135
-645.741	89.331	-0.244	0.271
-644.726	800.000	0.064	-0.188
-643.711	-200.000	0.029	-0.167
-642.697	-64.288	-0.144	0.058
-641.682	226.114	0.111	0.179
-640.668	406.270	-0.213	0.449
-639.653	285.961	-0.135	-0.243
-638.638	-40.777	0.126	0.065
-637.624	49.287	-0.041	-0.038
-636.609	-131.898	-0.470	0.061
-635.595	-142.180	0.361	-0.036
-634.580	-57.799	-0.102	0.045
-633.565	-13.159	0.290	0.188
-632.551	-107.567	-0.192	-0.042
-631.536	496.539	-0.098	0.224
-630.522	27.881	0.181	-0.152
-629.507	-85.742	0.235	-0.073
-628.492	-200.000	0.005	0.177
-627.478	306.852	-0.046	0.085
-626.463	5.782	-0.079	0.058
-625.449	447.613	-0.079	0.173
-624.434	330.381	-0.214	0.412
-623.419	-128.605	-0.157	-0.022
-622.405	800.000	0.028	0.103
-621.390	-110.773	0.041	-0.008
-620.376	-200.000	0.039	0.199
-619.361	-119.920	0.245	-0.042
-618.346	-200.000	-0.031	-0.365
-617.332	48.475	-0.164	-0.154
-616.317	85.727	-0.150	-0.164
-615.303	-5.274	0.282	0.193
-614.288	675.558	0.086	0.224
-613.273	-200.000	-0.069	0.365
-612.259	-107.146	-0.598	0.132
-611.244	137.232	0.110	-0.144
-610.230	-200.000	-0.020	0.095
-609.215	90.999	-0.172	-0.192
-608.201	253.735	-0.198	0.337
-607.186	-94.994	0.403	-0.109
-606.171	-14.453	-0.276	-0.177
-605.157	235.580	0.212	-0.350
-604.142	-200.000	-0.021	0.337
-603.128	-151.969	-0.392	0.029
-602.113	-176.171	0.303	0.008
-601.098	-200.000	0.442	0.002
-600.084	59.288	-0.102	-0.100
-599.069	124.418	-0.215	-0.269
-598.055	166.331	0.130	-0.183
-597.040	-50.876	-0.233	-0.109
-596.025	-86.929	0.138	0.042
-595.011	-200.000	0.023	0.173
-593.996	204.361	-0.079	0.122
-592.982	-96.390	-0.020	-0.005
-591.967	-13.866	-0.114	0.073
-590.952	101.527	-0.228	0.265
-589.938	-109.026	0.046	0.010
-588.923	-21.802	-0.269	0.163
-587.909	7.291	-0.178	0.132
-586.894	611.305	-0.048	0.118
-585.879	-166.971	0.056	0.002
-584.865	228.679	-0.204	-0.331
-583.850	135.934	-0.202	-0.263
-582.836	236.674	0.209	-0.344
-581.821	-82.947	-0.336	0.108
-580.806	387.604	-0.021	0.043
-579.792	-45.938	0.044	0.021
-578.777	-200.000	-0.015	0.144
-577.763	-123.221	0.045	0.007
-576.748	109.067	-0.183	-0.218
-575.733	-74.767	-0.224	-0.080
-574.719	48.746	0.157	-0.147
-573.704	-143.573	0.188	0.018
-572.690	49.637	0.457	0.429
-571.675	-152.601	-0.063	0.005
-570.661	-85.255	-0.243	-0.075
-569.646	-200.000	0.022	-0.112
-568.631	38.820	-0.074	0.066
-567.617	-10.020	0.107	0.071
-566.602	-103.776	-0.189	-0.044
-565.588	31.290	-0.161	-0.137
-564.573	-70.624	0.258	0.097
-563.558	202.448	-0.087	-0.134
-562.544	800.000	0.097	-0.269
-561.529	-124.356	-0.151	0.023
-560.515	-46.766	-0.121	-0.059
-559.500	3.296	-0.230	-0.166
-558.485	-154.848	0.053	-0.004
-557.471	42.441	0.294	-0.266
-556.456	71.877	-0.194	0.201
-555.442	213.567	-0.171	-0.270
-554.427	-134.321	0.042	0.005
-553.412	-200.000	-0.010	-0.420
-552.398	-45.046	0.393	0.195
-551.383	283.370	-0.098	-0.175
-550.369	-143.961	0.168	0.016
-549.354	417.350	0.055	-0.118
-548.339	-20.300	-0.086	0.053
-547.325	-106.520	0.171	0.038
-546.310	420.282	-0.119	0.254
-545.296	32.691	0.124	-0.106
-544.281	265.224	0.164	-0.285
-543.266	-200.000	-0.013	0.293
-542.252	100.976	-0.099	0.115
-541.237	-61.643	0.261	-0.109
-540.223	-200.000	-0.010	-0.210
-539.208	-200.000	-0.003	-0.215
-538.193	136.619	0.156	-0.202
-537.179	-105.125	-0.407	0.093
-536.164	382.292	-0.044	-0.089
-535.150	-200.000	0.012	0.256
-534.135	-200.000	-0.004	-0.386
-533.121	251.148	-0.087	-0.146
-532.106	71.216	-0.199	0.205
-531.091	247.211	0.093	0.157
-530.077	-30.096	-0.292	0.165
-529.062	-113.572	-0.193	0.038
-528.048	-200.000	0.213	0.000
-527.033	-73.218	-0.230	-0.084
-526.018	-200.000	0.023	0.117
-525.004	-82.818	0.359	-0.115
-523.989	67.109	-0.105	-0.107
-522.975	135.365	0.093	0.120
-521.960	-200.000	0.030	0.135
-520.945	29.163	0.071	0.060
-519.931	77.650	-0.171	-0.181
-518.916	-84.172	0.099	0.031
-517.902	-13.390	0.277	-0.179
-516.887	246.746	-0.113	0.190
-515.872	-200.000	-0.036	-0.181
-514.858	-52.488	0.281	-0.129
-513.843	289.207	-0.143	-0.258
-512.829	81.285	0.130	-0.140
-511.814	133.521	-0.200	-0.256
-510.799	-27.949	-0.165	0.095
-509.785	-200.000	-0.016	-0.138
-508.770	-113.362	0.203	-0.040
-507.756	-200.000	0.040	-0.181
-506.741	-45.073	0.202	0.100
-505.726	-200.000	0.016	0.195
-504.712	-74.201	0.371	-0.133
-503.697	800.000	0.134	-0.385
-502.683	-144.861	-0.365	-0.033
-501.668	-95.632	0.317	-0.084
-500.653	-195.104	-0.050	-0.000
-499.639	800.000	-0.116	-0.482
-498.624	-200.000	0.003	-0.086
-497.610	-200.000	0.010	-0.119
-496.595	151.280	-0.080	0.108
-495.581	63.562	0.035	-0.035
-494.566	179.422	0.115	-0.167
-493.551	60.517	-0.098	0.096
-492.537	-71.047	0.150	0.056
-491.522	-200.000	-0.048	0.267
-490.508	-200.000	0.011	-0.100
-489.493	-110.323	0.242	0.050
-488.478	41.270	0.158	0.142
-487.464	-200.000	0.198	0.001
-486.449	800.000	-0.091	0.333
-485.435	201.267	-0.032	-0.049
-484.420	-1.675	-0.088	-0.061
-483.405	479.819	-0.095	-0.214
-482.391	-30.734	-0.238	-0.134
-481.376	-200.000	-0.003	-0.142
-480.362	-56.446	0.255	0.112
-479.347	-112.097	-0.426	0.085
-478.332	-52.228	-0.074	-0.034
-477.318	-80.814	-0.209	0.069
-476.303	97.505	-0.128	-0.146
-475.289	384.959	-0.029	-0.059
-474.274	-7.807	-0.223	0.149
-473.259	-69.590	-0.230	-0.087
-472.245	419.955	0.034	-0.073
-471.230	800.000	0.061	-0.189
-470.216	-111.410	-0.197	0.040
-469.201	-196.999	0.168	0.001
-468.186	-73.927	0.333	-0.120
-467.172	800.000	-0.054	0.168
-466.157	38.785	0.243	0.215
-465.143	-38.222	-0.177	-0.093
-464.128	-200.000	0.042	-0.193
-463.113	-155.956	-0.298	-0.019
-462.099	25.096	0.169	-0.139
-461.084	800.000	0.112	0.346
-460.070	35.821	-0.068	0.059
-459.055	-200.000	-0.060	0.309
-458.040	-37.584	0.073	0.038
-457.026	-200.000	0.043	-0.387
-456.011	630.163	0.119	0.299
-454.997	-101.885	-0.186	0.045
-453.982	-46.171	-0.208	-0.102
-452.968	415.002	-0.067	0.141
-451.953	-62.428	0.039	-0.016
-450.938	-69.359	0.099	-0.038
-449.924	-200.000	-0.014	0.102
-448.909	-200.000	-0.032	-0.365
-447.895	-98.457	0.197	0.050
-446.880	-200.000	0.013	-0.226
-445.865	-158.816	0.287	0.016
-444.851	189.932	-0.067	-0.100
-443.836	-200.000	0.047	-0.213
-442.822	-27.801	-0.150	0.086
-441.807	-119.802	-0.136	-0.023
-440.792	800.000	0.034	0.096
-439.778	-200.000	0.069	-0.347
-438.763	220.059	0.027	-0.043
-437.749	-200.000	0.011	0.181
-436.734	-200.000	-0.022	0.127
-435.719	-79.277	-0.097	-0.033
-434.705	-200.000	0.047	0.349
-433.690	268.443	0.059	-0.103
-432.676	-200.000	-0.026	-0.169
-431.661	427.112	-0.103	0.219
-430.646	586.143	0.114	0.278
-429.632	-82.140	-0.199	0.064
-428.617	-113.556	-0.187	-0.036
-427.603	800.000	-0.069	0.222
-426.588	310.656	0.151	0.281
-425.573	52.691	0.155	-0.147
-424.559	-200.000	-0.065	-0.417
-423.544	71.921	-0.161	0.166
-422.530	43.705	0.228	-0.207
-421.515	386.170	0.033	-0.067
-420.500	-106.112	0.294	0.065
-419.486	-200.000	0.022	-0.141
-418.471	-82.428	-0.257	-0.083
-417.457	40.125	0.146	0.130
-416.442	117.739	0.221	-0.270
-415.428	-200.000	0.002	-0.255
-414.413	-176.728	-0.075	-0.002
-413.398	19.398	0.426	0.339
-412.384	21.139	-0.100	0.081
-411.369	-58.727	0.242	-0.104
-410.355	10.661	0.146	-0.110
-409.340	11.149	0.352	0.266
-408.325	-164.509	-0.400	0.018
-407.311	120.340	-0.122	-0.150
-406.296	-99.523	-0.289	-0.072
-405.282	24.752	-0.218	-0.179
-404.267	182.550	-0.122	0.179
-403.252	-200.000	-0.012	0.086
-402.238	-66.812	0.172	-0.067
-401.223	-200.000	-0.016	0.076
-400.209	158.998	-0.091	0.125
-399.194	-38.492	0.194	-0.102
-398.179	-37.829	-0.071	-0.037
-397.165	23.500	-0.183	-0.149
-396.150	132.095	-0.094	0.120
-395.136	163.697	0.212	-0.294
-394.121	357.203	0.078	0.154
-393.106	81.490	0.130	-0.139
-392.092	14.574	0.356	0.275
-391.077	800.000	-0.050	-0.171
-390.063	461.331	-0.037	0.081
-389.048	-200.000	-0.053	0.516
-388.033	41.050	0.108	-0.096
-387.019	-63.097	0.118	-0.048
-386.004	-200.000	-0.036	-0.344
-384.990	-26.740	0.019	-0.011
-383.975	359.509	-0.113	0.223
-382.960	-115.782	-0.097	-0.018
-381.946	-25.636	0.116	-0.067
-380.931	800.000	0.030	-0.111
-379.917	-124.779	0.153	0.023
-378.902	-101.314	0.020	-0.005
-377.888	-200.000	0.020	0.113
-376.873	90.251	0.212	-0.235
-375.858	139.328	-0.099	-0.129
-374.844	800.000	-0.032	0.108
-373.829	800.000	-0.109	0.362
-372.815	257.597	-0.023	0.038
-371.800	136.018	-0.330	-0.425
-370.785	163.878	0.109	-0.152
-369.771	-12.267	0.209	-0.135
-368.756	103.422	-0.025	0.029
-367.742	-39.005	-0.093	-0.048
-366.727	766.506	0.057	0.154
-365.712	88.995	0.030	-0.033
-364.698	58.426	0.227	-0.220
-363.683	-148.195	0.092	-0.008
-362.669	-78.804	0.367	-0.124
-361.654	-85.050	0.253	-0.078
-360.639	800.000	0.053	0.211
-359.625	800.000	-0.028	0.098
-358.610	395.567	0.216	0.445
-357.596	178.081	0.133	0.191
-356.581	-120.358	-0.254	-0.043
-355.566	452.078	-0.042	0.091
-354.552	177.187	0.028	0.041
-353.537	352.825	0.183	0.358
-352.523	-86.982	-0.257	0.077
-351.508	-2.971	-0.127	0.087
-350.493	800.000	0.034	-0.136
-349.479	30.292	-0.119	0.100
-348.464	174.324	0.245	0.350
-347.450	-130.132	0.179	-0.024
-346.435	747.171	-0.034	0.090
-345.420	-114.431	-0.422	0.080
-344.406	61.723	-0.124	-0.122
-343.391	481.094	0.064	0.143
-342.377	306.467	-0.049	0.090
-341.362	442.267	0.067	0.144
-340.348	129.815	0.069	-0.088
-339.333	503.628	-0.094	-0.215
-338.318	-200.000	0.011	0.302
-337.304	-119.825	0.282	0.048
-336.289	13.471	-0.173	-0.132
-335.275	-3.863	0.167	-0.115
-334.260	800.000	0.037	-0.141
-333.245	-136.003	-0.162	-0.019
-332.231	-200.000	-0.007	0.033
-331.216	14.310	0.456	0.350
-330.202	98.455	0.186	0.211
-329.187	-200.000	-0.005	0.027
-328.172	186.359	-0.325	-0.477
-327.158	-190.467	0.107	-0.001
-326.143	-9.753	-0.174	0.115
-325.129	431.100	0.105	-0.225
-324.114	31.054	-0.256	-0.216
-323.099	400.019	-0.080	0.165
-322.085	92.040	0.090	-0.099
-321.070	-70.592	0.178	-0.066
-320.056	800.000	0.127	0.437
-319.041	800.000	-0.101	0.288
-318.026	414.749	-0.130	-0.273
-317.012	-0.726	0.210	0.147
-315.997	44.109	-0.148	-0.133
-314.983	123.128	-0.181	0.224
-313.968	21.171	-0.147	0.117
-312.953	800.000	-0.039	-0.145
-311.939	-93.025	0.180	-0.049
-310.924	-145.116	0.145	0.013
-309.910	-200.000	0.350	0.001
-308.895	-80.256	-0.208	-0.069
-307.880	-106.980	-0.144	0.031
-306.866	101.566	-0.104	-0.119
-305.851	-61.238	0.107	-0.044
-304.837	475.798	-0.121	-0.269
-303.822	-200.000	-0.068	-0.303
-302.807	-25.455	-0.284	-0.165
-301.793	-200.000	0.063	-0.335
-300.778	172.552	-0.129	-0.183
-299.764	-29.999	-0.185	0.104
-298.749	146.264	0.162	-0.214
-297.735	-165.753	-0.337	-0.014
-296.720	98.333	-0.263	0.299
-295.705	-86.060	-0.186	0.057
-294.691	252.632	-0.121	0.203
-293.676	219.430	0.160	0.252
-292.662	800.000	-0.107	-0.450
-291.647	-200.000	-0.026	0.137
-290.632	83.103	-0.235	0.252
-289.618	-103.203	0.360	0.084
-288.603	-20.350	-0.236	0.143
-287.589	-74.311	-0.081	-0.029
-286.574	70.330	0.162	-0.165
-285.559	32.958	-0.122	0.104
-284.545	173.652	-0.083	-0.117
-283.530	21.208	-0.128	-0.102
-282.516	-34.310	0.125	-0.068
-281.501	616.592	-0.052	-0.128
-280.486	53.187	0.067	-0.063
-279.472	800.000	-0.021	0.081
-278.457	-58.775	-0.185	0.079
-277.443	191.603	0.150	-0.223
-276.428	-157.923	0.200	0.012
-275.413	-25.495	0.124	-0.072
-274.399	-115.039	-0.154	-0.029
-273.384	800.000	-0.079	0.247
-272.370	-68.189	-0.205	-0.079
-271.355	-82.260	-0.140	-0.045
-270.340	126.647	0.110	-0.137
-269.326	25.107	0.236	0.193
-268.311	-200.000	0.016	0.214
-267.297	-170.339	0.286	-0.010
-266.282	78.190	0.066	-0.069
-265.267	-200.000	0.014	0.218
-264.253	397.101	-0.102	0.209
-263.238	-114.960	0.156	0.029
-262.224	-200.000	0.001	0.099
-261.209	445.522	-0.044	0.094
-260.195	800.000	-0.007	-0.020
-259.180	41.559	-0.173	-0.154
-258.165	-156.566	-0.310	-0.019
-257.151	-108.084	-0.147	-0.031
-256.136	15.267	0.128	0.099
-255.122	800.000	-0.036	0.120
-254.107	-133.508	0.268	-0.033
-253.092	-60.800	0.150	-0.062
-252.078	-142.466	0.074	0.007
-251.063	138.115	-0.243	0.314
-250.049	-87.238	-0.059	0.018
-249.034	37.354	0.228	-0.199
-248.019	5.264	0.368	0.267
-247.005	328.305	-0.048	-0.091
-245.990	69.814	-0.079	-0.080
-244.976	-0.241	0.162	0.113
-243.961	-109.389	0.271	-0.056
-242.946	-76.036	-0.296	-0.103
-241.932	-189.317	0.355	-0.004
-240.917	108.873	0.046	-0.054
-239.903	43.530	0.131	0.117
-238.888	800.000	-0.108	-0.295
-237.873	-200.000	0.043	0.238
-236.859	-14.780	-0.221	-0.139
-235.844	-200.000	-0.027	0.277
-234.830	-42.948	-0.241	-0.120
-233.815	428.890	-0.069	-0.147
-232.800	-200.000	0.060	-0.546
-231.786	369.493	-0.050	0.099
-230.771	-148.089	-0.303	0.025
-229.757	-76.051	-0.109	-0.038
-228.742	90.722	0.132	-0.145
-227.727	-200.000	0.033	0.170
-226.713	-94.206	0.268	0.072
-225.698	-200.000	-0.009	0.082
-224.684	-61.950	-0.057	-0.024
-223.669	448.643	-0.038	-0.082
-222.655	-66.404	-0.266	-0.104
-221.640	-132.218	-0.302	0.038
-220.625	520.884	0.015	0.036
-219.611	568.587	0.084	0.202
-218.596	-108.559	0.081	0.017
-217.582	-200.000	0.022	0.149
-216.567	78.969	-0.117	-0.123
-215.552	-200.000	-0.013	-0.112
-214.538	-101.712	-0.339	0.081
-213.523	14.297	-0.163	-0.125
-212.509	-190.581	0.190	-0.002
-211.494	400.687	-0.118	-0.244
-210.479	-139.183	0.194	-0.021
-209.465	468.758	0.131	-0.288
-208.450	-200.000	0.016	-0.208
-207.436	142.342	0.155	0.202
-206.421	-81.354	0.216	0.070
-205.406	-70.680	0.579	-0.215
-204.392	-139.102	-0.110	-0.012
-203.377	-200.000	-0.013	0.311
-202.363	-35.680	-0.316	0.168
-201.348	-88.717	-0.323	-0.094
-200.333	255.326	0.080	-0.134
-199.319	454.526	0.201	0.437
-198.304	-200.000	-0.020	0.213
-197.290	466.931	0.081	0.177
-196.275	800.000	-0.045	0.185
-195.260	81.761	0.069	0.073
-194.246	-68.670	0.298	0.113
-193.231	-141.155	0.516	-0.052
-192.217	-35.498	0.066	0.035
-191.202	-200.000	-0.007	0.235
-190.187	82.254	0.233	-0.248
-189.173	-78.112	0.144	0.049
-188.158	121.600	0.080	0.098
-187.144	-9.171	-0.301	0.197
-186.129	141.668	0.242	0.314
-185.114	40.008	0.060	-0.053
-184.100	24.580	0.272	-0.221
-183.085	-200.000	-0.012	-0.115
-182.071	102.338	-0.183	-0.210
-181.056	800.000	-0.094	-0.401
-180.042	88.894	0.090	-0.099
-179.027	-76.937	-0.249	-0.085
-178.012	-105.233	0.100	-0.022
-176.998	138.297	-0.212	0.272
-175.983	-53.394	0.147	0.066
-174.969	-200.000	0.044	0.390
-173.954	800.000	-0.056	-0.173
-172.939	256.258	0.148	-0.249
-171.925	-71.111	-0.177	-0.065
-170.910	-142.876	0.107	-0.010
-169.896	-125.557	0.098	-0.015
-168.881	335.256	-0.103	-0.195
-167.866	323.496	-0.021	0.040
-166.852	-135.434	-0.243	0.028
-165.837	-200.000	0.031	-0.164
-164.823	800.000	0.075	0.208
-163.808	199.511	-0.148	0.223
-162.793	-157.818	-0.141	0.008
-161.779	-153.802	0.145	-0.010
-160.764	-69.131	0.058	0.022
-159.750	263.089	-0.120	0.204
-158.735	-200.000	-0.049	-0.312
-157.720	473.178	0.162	0.358
-156.706	0.285	-0.115	0.081
-155.691	-108.833	-0.319	0.067
-154.677	-200.000	0.026	-0.262
-153.662	244.305	-0.159	0.261
-152.647	-200.000	0.005	-0.041
-151.633	-43.725	0.308	-0.152
-150.618	-153.345	0.193	-0.013
-149.604	-37.654	0.228	-0.119
-148.589	-200.000	0.049	-0.297
-147.574	24.760	-0.347	-0.282
-146.560	-122.250	-0.352	-0.056
-145.545	-200.000	-0.007	0.171
-144.531	55.781	0.193	0.184
-143.516	-174.526	-0.177	0.005
-142.502	-125.743	0.192	-0.028
-141.487	-73.856	0.304	-0.108
-140.472	206.113	-0.039	0.059
-139.458	-17.171	-0.163	-0.101
-138.443	800.000	-0.046	0.147
-137.429	-200.000	0.042	-0.304
-136.414	6.074	0.246	-0.178
-135.399	-80.756	0.143	-0.046
-134.385	48.389	0.183	-0.167
-133.370	800.000	-0.095	0.323
-132.356	-135.033	0.133	-0.016
-131.341	126.210	0.141	0.174
-130.326	-98.489	0.421	-0.105
-129.312	-51.347	-0.369	-0.169
-128.297	-73.389	0.395	0.141
-127.283	38.944	0.032	0.028
-126.268	-200.000	-0.010	0.184
-125.253	449.912	0.035	0.076
-124.239	102.663	-0.184	-0.210
-123.224	240.804	0.060	0.098
-122.210	-80.075	0.267	-0.088
