DTS Sentinel unit serial number:	SN413079Multiplexer serial number:	ORYXHardware model number:	OX4-SRSoftware version number:	ORYX F/W v4.00 Oryx Data Collector v3.7.2.0data status	okinstallation	princeton_trtdifferential loss correction	single-endedforward channel	channel 3reverse channel	N/Adate	2019/09/16time	22:12:35forward acquisition time	60.00reverse acquisition time	0.00gamma	496.2192k internal	0.2324k external	0.2324temperature offset calibration	0.9937default loss term (dB/km)	0.3790temperature slope calibration	1.0000multiplexer offset coefficient	1.0000multiplexer slope coefficient	1.0000fibre end	0.00T internal ref (°C)	31.05T ext. ref 1 (°C)	0.07T ext. ref 2 (°C)	24.74length (m)	temperature (°C)	Stokes	anti-Stokes-747.200	-87.304	-0.387	-0.119
-746.185	-132.481	-0.177	-0.023
-745.171	86.782	0.068	-0.076
-744.156	-200.000	-0.008	0.313
-743.142	137.161	-0.085	0.112
-742.127	-200.000	0.043	0.281
-741.112	309.722	-0.132	0.248
-740.098	-109.130	-0.319	0.069
-739.083	-89.309	-0.246	-0.073
-738.069	71.504	0.080	-0.084
-737.054	800.000	0.122	0.431
-736.039	11.847	-0.337	0.261
-735.025	-18.138	0.265	-0.167
-734.010	-94.623	-0.114	-0.031
-732.996	137.821	-0.100	0.132
-731.981	-6.292	-0.221	-0.152
-730.966	-120.875	-0.266	0.045
-729.952	224.593	0.005	-0.008
-728.937	800.000	-0.061	-0.243
-727.923	-119.772	-0.375	0.065
-726.908	47.113	0.168	-0.158
-725.894	-142.545	-0.347	0.034
-724.879	-47.306	0.042	0.020
-723.864	291.997	-0.125	-0.230
-722.850	24.104	-0.214	-0.178
-721.835	302.648	0.076	0.141
-720.821	-200.000	0.017	-0.239
-719.806	117.735	-0.112	-0.139
-718.791	-136.830	-0.086	0.010
-717.777	-88.726	-0.269	-0.081
-716.762	-200.000	-0.009	0.060
-715.748	375.834	-0.048	-0.098
-714.733	-200.000	0.042	0.254
-713.718	91.722	-0.135	-0.153
-712.704	-200.000	0.044	0.287
-711.689	-200.000	0.020	-0.139
-710.675	-200.000	0.051	-0.486
-709.660	-0.858	-0.128	0.091
-708.645	-200.000	0.064	-0.351
-707.631	-38.220	0.226	-0.121
-706.616	67.705	-0.102	0.105
-705.602	-200.000	-0.066	-0.299
-704.587	25.626	0.060	-0.051
-703.572	800.000	-0.042	0.119
-702.558	137.389	0.106	0.140
-701.543	-23.220	0.180	-0.109
-700.529	-200.000	-0.089	-0.418
-699.514	147.577	-0.229	-0.310
-698.499	-9.081	0.132	0.089
-697.485	323.940	-0.098	-0.188
-696.470	-200.000	-0.070	-0.316
-695.456	800.000	-0.069	0.256
-694.441	105.472	-0.135	0.161
-693.426	800.000	0.031	0.125
-692.412	185.711	0.128	-0.192
-691.397	-200.000	0.036	-0.206
-690.383	316.403	-0.235	-0.448
-689.368	-144.668	0.230	0.021
-688.354	-200.000	-0.003	0.057
-687.339	378.071	0.080	0.164
-686.324	-200.000	0.008	-0.129
-685.310	800.000	0.094	-0.264
-684.295	-30.124	0.059	-0.034
-683.281	-192.728	-0.105	0.001
-682.266	-70.949	0.153	-0.058
-681.251	-200.000	-0.020	0.198
-680.237	258.583	-0.142	0.247
-679.222	-200.000	-0.016	0.209
-678.208	-85.014	0.170	0.054
-677.193	-88.666	0.125	-0.037
-676.178	800.000	-0.043	0.149
-675.164	-200.000	0.068	0.397
-674.149	-73.143	-0.274	0.101
-673.135	-200.000	-0.029	-0.341
-672.120	-50.758	-0.142	0.067
-671.105	-200.000	-0.010	0.074
-670.091	-137.600	-0.249	0.028
-669.076	109.541	0.050	-0.061
-668.062	-200.000	-0.240	-0.001
-667.047	-42.621	0.182	-0.093
-666.032	143.572	0.191	0.256
-665.018	800.000	-0.194	-0.588
-664.003	-65.297	0.318	0.129
-662.989	-137.607	-0.449	0.051
-661.974	-11.441	0.072	0.048
-660.959	-200.000	-0.012	0.146
-659.945	-126.231	0.174	0.026
-658.930	122.354	0.112	0.141
-657.916	-200.000	0.001	-0.150
-656.901	-200.000	-0.002	0.063
-655.886	-42.923	-0.049	-0.025
-654.872	-151.997	-0.254	-0.019
-653.857	-87.197	-0.041	0.012
-652.843	-98.217	0.090	0.023
-651.828	89.878	-0.010	0.012
-650.814	-128.129	0.095	0.014
-649.799	490.065	0.101	-0.232
-648.784	800.000	-0.118	-0.428
-647.770	-60.194	-0.292	-0.125
-646.755	-160.970	0.330	0.017
-645.741	145.672	-0.137	-0.184
-644.726	-90.635	-0.106	-0.031
-643.711	-116.877	-0.274	-0.051
-642.697	800.000	-0.022	-0.089
-641.682	-200.000	0.034	0.210
-640.668	-200.000	-0.082	0.428
-639.653	-200.000	0.008	0.126
-638.638	9.296	0.087	-0.066
-637.624	-43.718	-0.085	0.043
-636.609	82.870	0.275	-0.300
-635.595	-142.200	-0.305	0.030
-634.580	122.134	0.335	-0.420
-633.565	-7.192	-0.196	-0.134
-632.551	-200.000	-0.020	0.204
-631.536	10.525	0.087	-0.066
-630.522	-142.705	0.193	-0.019
-629.507	-35.965	0.290	-0.158
-628.492	-200.000	0.097	-0.694
-627.478	-200.000	0.057	0.298
-626.463	-101.079	-0.147	0.036
-625.449	-159.985	-0.254	0.014
-624.434	127.619	0.092	0.118
-623.419	267.884	0.178	0.313
-622.405	-63.252	-0.124	0.051
-621.390	-87.544	-0.133	0.041
-620.376	545.548	0.137	0.330
-619.361	263.344	0.164	-0.286
-618.346	-42.512	-0.118	0.060
-617.332	9.205	-0.155	-0.118
-616.317	-63.773	-0.398	0.164
-615.303	24.553	-0.077	-0.064
-614.288	397.942	-0.089	-0.187
-613.273	79.940	-0.127	-0.137
-612.259	476.832	0.185	-0.420
-611.244	-108.772	-0.200	0.043
-610.230	-20.974	-0.138	-0.085
-609.215	43.258	0.147	-0.135
-608.201	800.000	0.044	-0.191
-607.186	206.210	-0.212	0.331
-606.171	-154.652	0.139	0.009
-605.157	-200.000	-0.055	-0.316
-604.142	439.782	-0.085	-0.186
-603.128	58.765	0.053	0.052
-602.113	-200.000	0.042	-0.263
-601.098	56.095	-0.118	0.115
-600.084	108.353	0.229	-0.274
-599.069	74.078	-0.184	-0.193
-598.055	43.460	0.081	0.075
-597.040	220.812	0.074	0.120
-596.025	-200.000	0.056	0.251
-595.011	-10.584	0.185	-0.123
-593.996	-153.049	-0.104	0.007
-592.982	-23.614	-0.114	-0.068
-591.967	-130.145	-0.177	-0.024
-590.952	109.603	-0.264	0.317
-589.938	-37.601	-0.143	-0.076
-588.923	-200.000	-0.007	0.081
-587.909	-67.070	0.251	0.099
-586.894	701.447	-0.086	-0.228
-585.879	-57.087	0.254	-0.112
-584.865	-200.000	-0.002	0.207
-583.850	563.637	-0.109	0.266
-582.836	168.927	0.144	0.206
-581.821	-39.958	-0.200	0.105
-580.806	29.333	-0.216	-0.184
-579.792	-200.000	0.081	0.490
-578.777	-200.000	0.030	-0.220
-577.763	160.973	0.159	-0.223
-576.748	436.085	-0.041	0.089
-575.733	175.874	-0.044	0.064
-574.719	800.000	0.093	-0.305
-573.704	800.000	-0.064	-0.195
-572.690	-51.524	0.120	-0.056
-571.675	62.443	0.194	0.195
-570.661	41.090	-0.172	-0.155
-569.646	323.980	0.094	0.181
-568.631	-28.740	0.210	0.121
-567.617	-34.900	0.353	-0.193
-566.602	-93.179	0.099	0.028
-565.588	258.431	-0.146	0.251
-564.573	372.397	0.093	0.189
-563.558	76.053	0.103	0.109
-562.544	-164.871	0.373	0.017
-561.529	-200.000	-0.192	-0.000
-560.515	41.314	-0.211	-0.191
-559.500	-139.644	-0.271	0.029
-558.485	800.000	-0.077	-0.270
-557.471	210.955	-0.093	0.147
-556.456	-116.078	0.235	0.044
-555.442	-108.044	0.170	0.037
-554.427	-91.622	0.155	-0.044
-553.412	-200.000	-0.033	0.169
-552.398	-200.000	-0.011	-0.232
-551.383	-200.000	0.000	-0.073
-550.369	-153.995	0.064	-0.004
-549.354	260.294	0.148	-0.255
-548.339	-28.212	0.194	0.112
-547.325	-200.000	-0.062	-0.326
-546.310	475.921	0.080	0.181
-545.296	42.048	-0.195	-0.178
-544.281	-60.257	-0.297	0.127
-543.266	547.945	-0.110	0.264
-542.252	-98.334	0.309	-0.079
-541.237	468.185	0.087	-0.196
-540.223	513.994	-0.223	-0.521
-539.208	-113.571	0.030	-0.006
-538.193	-66.265	0.087	0.035
-537.179	132.548	-0.090	0.117
-536.164	-111.922	0.368	0.074
-535.150	-200.000	0.006	0.070
-534.135	633.465	-0.072	0.182
-533.121	55.501	0.164	-0.159
-532.106	346.785	0.111	0.219
-531.091	800.000	-0.059	-0.249
-530.077	-200.000	0.019	-0.101
-529.062	31.953	-0.161	0.139
-528.048	282.002	0.199	0.357
-527.033	52.428	0.233	0.222
-526.018	-117.432	0.103	0.019
-525.004	-200.000	-0.027	0.324
-523.989	800.000	-0.167	0.472
-522.975	800.000	-0.082	0.303
-521.960	-74.691	0.213	0.077
-520.945	30.686	0.075	-0.064
-519.931	-149.466	0.148	0.012
-518.916	-15.391	0.031	-0.020
-517.902	154.444	-0.179	-0.246
-516.887	-64.538	-0.383	0.156
-515.872	67.778	-0.268	0.274
-514.858	-99.857	-0.234	-0.058
-513.843	115.085	0.096	-0.118
-512.829	-200.000	0.002	-0.319
-511.814	-12.131	-0.333	0.218
-510.799	-200.000	0.071	-0.357
-509.785	800.000	-0.036	-0.102
-508.770	-109.135	-0.162	0.035
-507.756	-165.622	0.201	0.009
-506.741	-40.492	0.128	0.067
-505.726	-81.707	0.179	0.059
-504.712	-150.259	0.330	-0.025
-503.697	91.414	0.097	0.109
-502.683	-200.000	-0.030	0.229
-501.668	728.162	-0.074	-0.197
-500.653	-65.822	-0.263	-0.105
-499.639	257.327	0.146	-0.251
-498.624	-119.201	-0.206	0.036
-497.610	-200.000	-0.021	0.103
-496.595	242.275	-0.082	0.138
-495.581	-67.705	-0.069	0.027
-494.566	-82.215	-0.249	0.081
-493.551	-106.534	-0.270	-0.060
-492.537	-200.000	-0.011	-0.059
-491.522	214.489	-0.106	-0.168
-490.508	-84.503	0.106	-0.033
-489.493	150.417	0.300	0.407
-488.478	-111.026	0.091	-0.019
-487.464	-13.039	-0.153	0.099
-486.449	-200.000	-0.037	0.174
-485.435	39.122	-0.169	-0.151
-484.420	-44.694	-0.073	-0.037
-483.405	111.119	0.040	-0.049
-482.391	-28.268	-0.262	0.151
-481.376	35.148	0.306	-0.267
-480.362	85.879	-0.166	0.182
-479.347	800.000	0.017	0.056
-478.332	-76.367	0.159	-0.056
-477.318	88.863	-0.156	0.173
-476.303	283.481	0.047	-0.084
-475.289	-116.149	0.122	0.023
-474.274	-200.000	-0.014	-0.069
-473.259	585.656	-0.086	0.212
-472.245	-79.807	-0.115	0.039
-471.230	126.945	-0.098	0.124
-470.216	800.000	0.022	0.063
-469.201	-110.568	0.163	-0.034
-468.186	91.035	-0.122	0.136
-467.172	-16.359	0.478	0.303
-466.157	141.554	-0.160	0.212
-465.143	-142.452	0.305	0.030
-464.128	186.423	0.091	0.136
-463.113	82.580	0.096	0.104
-462.099	-28.896	0.113	0.065
-461.084	-65.910	-0.336	0.134
-460.070	-72.457	-0.150	0.055
-459.055	145.059	-0.209	0.279
-458.040	-40.845	0.077	-0.040
-457.026	800.000	0.030	-0.085
-456.011	40.472	-0.178	0.160
-454.997	22.232	0.323	0.264
-453.982	-200.000	0.037	-0.171
-452.968	-120.591	-0.233	0.039
-451.953	-108.178	-0.358	-0.077
-450.938	800.000	-0.023	0.082
-449.924	800.000	0.019	0.064
-448.909	-200.000	0.001	0.122
-447.895	71.872	-0.021	0.022
-446.880	-200.000	-0.103	0.460
-445.865	-99.580	-0.360	-0.090
-444.851	234.667	0.002	0.004
-443.836	-200.000	0.002	-0.070
-442.822	800.000	0.031	0.121
-441.807	-14.779	-0.041	-0.026
-440.792	-117.941	0.139	-0.025
-439.778	-200.000	-0.023	-0.248
-438.763	16.128	0.068	-0.054
-437.749	43.240	-0.124	0.113
-436.734	63.377	0.171	0.171
-435.719	149.633	0.132	0.178
-434.705	479.852	-0.070	0.158
-433.690	62.951	0.262	0.262
-432.676	-200.000	0.035	0.158
-431.661	42.614	0.159	0.145
-430.646	50.172	-0.003	-0.003
-429.632	-49.363	0.299	-0.142
-428.617	-145.005	-0.168	0.015
-427.603	-149.624	-0.328	-0.026
-426.588	372.822	-0.041	0.084
-425.573	-56.552	-0.129	-0.057
-424.559	-150.426	-0.318	-0.024
-423.544	-200.000	-0.005	-0.455
-422.530	-131.808	0.186	-0.024
-421.515	209.506	-0.138	0.216
-420.500	-200.000	0.039	0.305
-419.486	-126.127	-0.277	-0.041
-418.471	-127.981	0.043	-0.006
-417.457	119.725	0.338	-0.417
-416.442	-200.000	-0.052	0.228
-415.428	148.369	0.167	-0.225
-414.413	-71.750	-0.105	-0.039
-413.398	-70.754	0.237	-0.089
-412.384	-130.642	-0.157	-0.021
-411.369	183.805	-0.109	-0.160
-410.355	443.345	-0.119	0.260
-409.340	-137.772	0.267	0.030
-408.325	-48.309	0.177	0.085
-407.311	147.386	-0.214	-0.287
-406.296	431.756	0.112	-0.242
-405.282	42.598	-0.206	-0.187
-404.267	731.356	0.066	-0.175
-403.252	-200.000	0.047	0.221
-402.238	-85.098	0.145	0.045
-401.223	99.983	-0.341	-0.394
-400.209	-97.659	0.069	-0.018
-399.194	-200.000	-0.002	-0.200
-398.179	322.822	0.117	0.221
-397.165	390.377	0.086	0.178
-396.150	-200.000	0.025	-0.168
-395.136	13.351	-0.191	-0.148
-394.121	-32.032	-0.300	-0.167
-393.106	131.263	-0.182	-0.232
-392.092	-200.000	0.003	-0.092
-391.077	125.981	-0.124	-0.156
-390.063	766.139	-0.080	-0.217
-389.048	127.540	-0.047	0.060
-388.033	126.356	0.153	0.193
-387.019	144.499	0.056	-0.075
-386.004	800.000	-0.032	-0.110
-384.990	-32.435	0.100	-0.056
-383.975	-19.612	-0.201	-0.124
-382.960	-200.000	0.073	0.328
-381.946	800.000	-0.052	0.190
-380.931	-101.461	0.128	-0.031
-379.917	-200.000	0.050	0.294
-378.902	-14.880	0.236	-0.150
-377.888	-200.000	-0.037	-0.269
-376.873	-36.198	-0.052	0.028
-375.858	800.000	-0.053	0.160
-374.844	-200.000	0.018	0.336
-373.829	142.203	-0.061	0.081
-372.815	-136.813	0.318	0.036
-371.800	-91.013	0.073	0.021
-370.785	116.835	0.097	-0.119
-369.771	-140.977	-0.131	0.013
-368.756	-200.000	-0.013	-0.299
-367.742	-132.897	0.110	0.014
-366.727	-29.671	0.067	0.038
-365.712	-67.348	-0.315	0.123
-364.698	-73.050	-0.029	-0.010
-363.683	19.065	0.031	0.024
-362.669	19.382	-0.139	-0.111
-361.654	323.168	-0.104	0.196
-360.639	56.747	0.313	0.303
-359.625	-117.190	-0.261	-0.047
-358.610	69.652	-0.106	-0.108
-357.596	445.040	-0.028	0.061
-356.581	-62.071	-0.061	0.025
-355.566	240.979	0.138	-0.229
-354.552	-87.892	-0.358	0.107
-353.537	-200.000	-0.027	0.121
-352.523	-200.000	-0.005	-0.106
-351.508	652.336	-0.042	-0.107
-350.493	-200.000	-0.016	-0.249
-349.479	800.000	0.025	-0.081
-348.464	-154.681	-0.219	0.014
-347.450	-200.000	0.025	0.222
-346.435	-200.000	0.023	-0.268
-345.420	-200.000	-0.048	-0.361
-344.406	140.781	-0.163	0.214
-343.391	-99.037	0.222	-0.056
-342.377	-150.673	0.195	0.015
-341.362	-132.087	0.262	-0.034
-340.348	-200.000	-0.078	0.347
-339.333	75.190	0.124	-0.130
-338.318	800.000	-0.076	0.222
-337.304	79.054	-0.087	0.093
-336.289	800.000	-0.071	0.196
-335.275	4.853	-0.229	0.167
-334.260	800.000	0.047	0.167
-333.245	-1.775	-0.447	0.312
-332.231	-10.424	-0.240	-0.158
-331.216	-84.197	-0.208	0.066
-330.202	-63.413	-0.159	-0.065
-329.187	13.558	-0.262	-0.202
-328.172	-200.000	-0.019	-0.097
-327.158	-108.784	-0.392	-0.083
-326.143	17.444	-0.191	-0.151
-325.129	58.595	0.158	0.154
-324.114	-200.000	-0.033	0.314
-323.099	-141.164	-0.060	-0.006
-322.085	-200.000	0.001	0.024
-321.070	48.039	0.092	-0.085
-320.056	-200.000	-0.004	0.324
-319.041	22.877	0.409	-0.333
-318.026	577.900	0.120	-0.292
-317.012	164.679	-0.134	-0.187
-315.997	120.891	0.145	0.180
-314.983	-82.887	0.173	-0.055
-313.968	-56.026	-0.106	-0.047
-312.953	-174.914	-0.346	0.010
-311.939	33.293	-0.307	-0.264
-310.924	800.000	0.099	-0.328
-309.910	-117.000	0.067	-0.012
-308.895	-73.488	0.266	-0.096
-307.880	7.294	0.133	0.099
-306.866	-96.429	-0.103	0.027
-305.851	-175.852	0.126	0.003
-304.837	-90.672	-0.320	-0.092
-303.822	4.793	0.124	-0.090
-302.807	-200.000	-0.012	0.151
-301.793	-200.000	0.042	0.450
-300.778	-70.926	0.078	-0.029
-299.764	44.384	0.027	0.025
-298.749	800.000	-0.017	-0.064
-297.735	800.000	0.047	0.177
-296.720	20.506	0.104	-0.083
-295.705	-76.810	-0.113	0.039
-294.691	-200.000	0.024	0.218
-293.676	-90.494	-0.161	0.046
-292.662	103.211	0.217	-0.252
-291.647	335.728	-0.064	-0.122
-290.632	-76.371	-0.311	0.109
-289.618	-200.000	-0.025	-0.136
-288.603	78.875	0.064	-0.068
-287.589	800.000	-0.035	0.141
-286.574	-128.300	-0.636	-0.090
-285.559	800.000	0.090	0.323
-284.545	-148.653	0.364	0.029
-283.530	-1.430	-0.200	0.140
-282.516	154.790	-0.212	-0.289
-281.501	102.194	0.114	0.131
-280.486	800.000	-0.073	-0.222
-279.472	24.022	-0.311	-0.254
-278.457	31.670	-0.145	0.123
-277.443	-154.440	-0.231	-0.015
-276.428	51.314	0.105	0.099
-275.413	-200.000	0.001	-0.187
-274.399	146.295	-0.209	-0.278
-273.384	101.299	-0.093	0.107
-272.370	-200.000	0.012	-0.481
-271.355	-200.000	-0.043	-0.343
-270.340	-200.000	-0.027	-0.180
-269.326	389.191	-0.154	-0.316
-268.311	73.601	-0.298	0.309
-267.297	64.441	0.103	-0.103
-266.282	-200.000	-0.011	0.302
-265.267	-75.227	0.215	0.076
-264.253	-52.932	0.520	-0.237
-263.238	59.480	-0.130	-0.127
-262.224	-20.938	0.069	-0.042
-261.209	74.526	0.125	0.130
-260.195	-50.093	0.124	-0.058
-259.180	29.549	-0.141	-0.119
-258.165	-81.857	0.110	-0.036
-257.151	-145.863	0.134	-0.012
-256.136	165.234	0.130	-0.183
-255.122	263.555	0.220	-0.379
-254.107	-200.000	0.030	0.132
-253.092	-116.356	0.179	-0.033
-252.078	70.978	0.037	-0.038
-251.063	-200.000	0.037	-0.165
-250.049	245.071	-0.057	-0.095
-249.034	800.000	-0.114	0.336
-248.019	556.205	0.030	-0.071
-247.005	128.559	-0.097	0.123
-245.990	-200.000	-0.010	-0.078
-244.976	-146.503	0.259	-0.022
-243.961	584.889	0.031	-0.075
-242.946	28.557	-0.038	0.032
-241.932	-144.703	-0.251	0.023
-240.917	-80.218	0.287	0.095
-239.903	195.360	0.033	0.050
-238.888	-117.824	-0.202	0.036
-237.873	-31.639	-0.139	0.077
-236.859	-111.826	0.312	-0.062
-235.844	74.464	-0.113	0.118
-234.830	-160.255	-0.124	0.007
-233.815	-102.654	-0.175	0.041
-232.800	-151.616	0.149	0.011
-231.786	216.032	0.078	-0.122
-230.771	800.000	-0.077	-0.276
-229.757	90.075	-0.067	-0.074
-228.742	-200.000	-0.063	-0.526
-227.727	280.330	-0.151	-0.267
-226.713	-113.654	0.160	-0.031
-225.698	60.799	0.135	-0.132
-224.684	800.000	-0.127	0.374
-223.669	-38.837	0.393	-0.205
-222.655	79.600	-0.327	0.348
-221.640	-91.217	0.318	-0.090
-220.625	-79.714	0.088	-0.029
-219.611	286.052	-0.016	0.028
-218.596	94.674	0.425	0.478
-217.582	-200.000	0.006	-0.066
-216.567	186.200	0.201	0.296
-215.552	39.836	0.357	0.317
-214.538	-200.000	-0.011	-0.110
-213.523	306.704	-0.097	0.178
-212.509	-200.000	0.039	0.211
-211.494	-48.966	-0.075	0.035
-210.479	-84.068	-0.129	0.041
-209.465	658.541	-0.007	-0.017
-208.450	-141.649	0.225	0.022
-207.436	17.475	0.238	-0.187
-206.421	-61.554	0.273	-0.113
-205.406	418.988	0.126	-0.266
-204.392	66.213	0.075	-0.076
-203.377	-174.257	0.291	-0.008
-202.363	-61.966	-0.119	-0.049
-201.348	-200.000	0.000	-0.010
-200.333	-200.000	-0.006	-0.035
-199.319	800.000	-0.116	-0.398
-198.304	-47.039	-0.507	0.245
-197.290	-121.515	0.783	0.128
-196.275	244.561	0.121	0.200
-195.260	87.724	-0.306	0.335
-194.246	719.743	0.098	-0.257
-193.231	-103.988	-0.120	-0.028
-192.217	-165.654	0.234	0.010
-191.202	800.000	-0.036	0.121
-190.187	304.318	0.057	0.104
-189.173	64.254	-0.237	-0.235
-188.158	355.366	0.026	0.051
-187.144	-94.473	-0.068	0.018
-186.129	800.000	0.026	-0.097
-185.114	326.500	0.071	-0.135
-184.100	-140.037	0.229	-0.024
-183.085	800.000	0.087	-0.356
-182.071	422.347	-0.090	0.190
-181.056	800.000	0.060	0.182
-180.042	-54.948	0.405	0.180
-179.027	-28.222	-0.254	0.145
-178.012	-200.000	-0.036	-0.272
-176.998	14.251	0.212	0.163
-175.983	-200.000	0.028	0.289
-174.969	-200.000	-0.004	0.045
-173.954	-14.512	-0.075	0.047
-172.939	58.279	0.059	0.057
-171.925	34.857	0.227	0.196
-170.910	800.000	0.102	-0.414
-169.896	-69.313	-0.280	-0.106
-168.881	564.511	-0.085	0.204
-167.866	543.337	0.086	0.202
-166.852	250.237	0.046	-0.077
-165.837	-154.596	0.080	-0.005
-164.823	149.697	-0.150	0.201
-163.808	-95.145	0.263	0.070
-162.793	107.317	0.115	0.135
-161.779	800.000	-0.047	-0.147
-160.764	-200.000	0.033	0.256
-159.750	271.949	0.009	0.016
-158.735	-200.000	0.029	-0.143
-157.720	-131.775	-0.122	-0.016
-156.706	293.148	-0.131	-0.236
-155.691	341.158	-0.032	0.062
-154.677	-50.901	0.279	-0.129
-153.662	-178.729	0.267	-0.006
-152.647	42.277	0.231	0.207
-151.633	-8.605	0.275	0.182
-150.618	-11.467	0.283	0.184
-149.604	179.429	0.290	0.419
-148.589	-9.910	-0.388	0.255
-147.574	800.000	0.038	-0.145
-146.560	-146.044	-0.071	0.006
-145.545	78.143	0.205	-0.215
-144.531	-115.292	-0.231	-0.043
-143.516	13.231	-0.142	0.108
-142.502	10.213	0.235	0.176
-141.487	22.482	0.088	-0.071
-140.472	-108.776	-0.284	-0.060
-139.458	-28.281	-0.235	-0.134
-138.443	-18.506	0.253	0.156
-137.429	-43.742	-0.047	0.023
-136.414	-2.428	-0.039	-0.027
-135.399	-18.971	-0.048	-0.029
-134.385	-9.108	0.243	-0.160
-133.370	-132.903	-0.176	0.022
-132.356	18.606	-0.233	0.184
-131.341	-200.000	0.031	0.372
-130.326	-200.000	0.005	0.028
-129.312	133.519	-0.058	-0.074
-128.297	232.985	-0.101	-0.163
-127.283	532.090	-0.018	-0.042
-126.268	48.854	-0.270	-0.249
-125.253	800.000	-0.059	0.224
-124.239	90.799	0.057	0.063
-123.224	182.485	-0.137	-0.199
-122.210	-200.000	-0.023	0.104
