DTS Sentinel unit serial number:	SN413079Multiplexer serial number:	ORYXHardware model number:	OX4-SRSoftware version number:	ORYX F/W v4.00 Oryx Data Collector v3.7.2.0data status	okinstallation	princeton_trtdifferential loss correction	single-endedforward channel	channel 3reverse channel	N/Adate	2019/09/19time	03:52:34forward acquisition time	60.00reverse acquisition time	0.00gamma	496.2192k internal	0.2348k external	0.2348temperature offset calibration	0.9987default loss term (dB/km)	0.3790temperature slope calibration	1.0000multiplexer offset coefficient	1.0000multiplexer slope coefficient	1.0000fibre end	0.00T internal ref (°C)	20.50T ext. ref 1 (°C)	0.64T ext. ref 2 (°C)	14.39length (m)	temperature (°C)	Stokes	anti-Stokes-747.200	56.713	0.167	0.163
-746.185	17.672	-0.194	0.155
-745.171	-200.000	-0.021	0.193
-744.156	-200.000	-0.006	-0.058
-743.142	800.000	-0.037	-0.159
-742.127	-200.000	0.041	0.208
-741.112	15.562	-0.095	0.074
-740.098	-57.312	-0.473	0.208
-739.083	19.506	-0.162	0.130
-738.069	-200.000	0.002	0.351
-737.054	98.932	-0.321	0.371
-736.039	-88.015	-0.186	-0.056
-735.025	800.000	-0.025	0.079
-734.010	-106.918	-0.286	-0.063
-732.996	54.195	-0.170	-0.163
-731.981	475.279	0.051	-0.114
-730.966	800.000	0.066	-0.189
-729.952	-42.147	-0.389	0.199
-728.937	-76.728	0.116	0.040
-727.923	352.031	-0.058	0.115
-726.908	-105.517	0.183	-0.041
-725.894	-3.548	0.075	0.052
-724.879	-200.000	-0.015	0.143
-723.864	-136.592	0.119	0.014
-722.850	-192.950	-0.088	-0.001
-721.835	-68.604	0.163	0.063
-720.821	-46.656	-0.113	0.055
-719.806	241.430	0.203	-0.338
-718.791	224.115	-0.168	-0.271
-717.777	800.000	0.054	-0.166
-716.762	-200.000	-0.041	-0.186
-715.748	-200.000	0.019	-0.141
-714.733	800.000	-0.006	-0.017
-713.718	-124.792	0.080	-0.012
-712.704	272.380	-0.184	-0.325
-711.689	-87.847	-0.209	0.063
-710.675	-27.922	0.206	0.119
-709.660	-2.225	0.045	-0.031
-708.645	-102.929	-0.351	0.083
-707.631	236.332	0.241	-0.397
-706.616	-52.973	0.141	0.065
-705.602	-138.321	0.057	-0.006
-704.587	-145.592	0.150	0.013
-703.572	-54.639	0.372	0.168
-702.558	-200.000	-0.000	-0.103
-701.543	-200.000	-0.010	0.435
-700.529	58.581	-0.167	0.163
-699.514	8.109	-0.213	-0.159
-698.499	-150.860	0.122	-0.009
-697.485	800.000	-0.020	-0.065
-696.470	-109.617	-0.397	-0.083
-695.456	162.741	0.083	-0.116
-694.441	-54.469	0.233	0.105
-693.426	-200.000	0.059	-0.263
-692.412	-200.000	-0.000	0.002
-691.397	-30.910	-0.130	-0.073
-690.383	-65.976	-0.181	0.072
-689.368	800.000	-0.054	-0.153
-688.354	-200.000	0.049	-0.219
-687.339	-92.588	0.157	0.044
-686.324	-200.000	-0.048	-0.365
-685.310	-200.000	-0.001	-0.399
-684.295	211.317	-0.199	0.312
-683.281	-200.000	-0.004	0.237
-682.266	386.737	-0.070	0.145
-681.251	-200.000	-0.361	0.000
-680.237	-65.594	0.389	0.156
-679.222	-20.186	0.196	0.120
-678.208	-99.714	-0.311	-0.078
-677.193	-58.306	-0.039	-0.017
-676.178	-116.439	-0.092	0.017
-675.164	-79.367	0.142	0.048
-674.149	-106.008	0.174	-0.039
-673.135	800.000	0.065	-0.248
-672.120	17.469	-0.152	-0.120
-671.105	-200.000	0.042	-0.280
-670.091	-59.482	0.247	0.106
-669.076	-170.071	-0.255	-0.009
-668.062	-200.000	0.074	-0.381
-667.047	780.012	0.097	-0.263
-666.032	187.801	-0.100	-0.148
-665.018	234.379	0.130	0.213
-664.003	800.000	0.022	-0.087
-662.989	-163.961	0.202	-0.009
-661.974	-200.000	-0.031	-0.396
-660.959	1.057	-0.366	-0.261
-659.945	-31.705	-0.109	-0.061
-658.930	-131.200	-0.229	-0.030
-657.916	800.000	0.057	0.229
-656.901	-104.146	-0.174	-0.040
-655.886	225.235	-0.114	0.183
-654.872	-24.978	0.307	0.182
-653.857	-104.602	-0.295	0.068
-652.843	800.000	0.066	-0.229
-651.828	25.800	-0.241	-0.200
-650.814	-200.000	-0.044	-0.283
-649.799	57.166	-0.063	0.061
-648.784	-158.706	-0.112	-0.006
-647.770	-159.774	0.309	-0.017
-646.755	-65.297	-0.217	0.087
-645.741	297.182	-0.055	-0.101
-644.726	800.000	-0.061	-0.244
-643.711	510.306	0.131	-0.304
-642.697	-21.646	0.124	0.075
-641.682	-200.000	0.018	-0.412
-640.668	-200.000	-0.000	-0.121
-639.653	83.592	-0.150	0.162
-638.638	-173.638	0.165	-0.005
-637.624	685.693	-0.049	0.127
-636.609	316.316	-0.178	-0.335
-635.595	103.430	0.140	0.164
-634.580	-11.507	-0.062	0.041
-633.565	-110.006	0.183	-0.038
-632.551	-95.885	-0.110	0.029
-631.536	-200.000	0.030	-0.338
-630.522	-40.317	0.157	-0.081
-629.507	-11.273	-0.194	-0.127
-628.492	-54.336	-0.318	0.144
-627.478	-131.931	-0.433	0.056
-626.463	94.998	0.108	0.123
-625.449	16.293	-0.139	0.109
-624.434	800.000	0.078	0.241
-623.419	288.955	-0.207	0.372
-622.405	-118.173	-0.360	0.064
-621.390	-81.842	0.415	0.135
-620.376	-200.000	0.008	-0.069
-619.361	-105.416	-0.503	0.114
-618.346	-141.202	0.205	-0.021
-617.332	-73.320	0.211	-0.077
-616.317	19.268	-0.225	-0.179
-615.303	16.587	0.099	-0.078
-614.288	-200.000	-0.064	-0.426
-613.273	-200.000	0.030	-0.413
-612.259	-175.587	0.204	-0.005
-611.244	-102.444	0.077	-0.018
-610.230	377.247	0.064	0.129
-609.215	-31.899	0.088	-0.049
-608.201	-137.203	-0.507	0.057
-607.186	-200.000	0.009	-0.104
-606.171	-200.000	0.016	-0.131
-605.157	-120.534	-0.330	0.056
-604.142	299.613	0.312	-0.572
-603.128	-2.972	0.175	-0.122
-602.113	170.053	-0.179	-0.254
-601.098	-30.498	0.143	0.080
-600.084	-3.380	-0.128	0.089
-599.069	193.477	0.227	-0.341
-598.055	698.868	-0.135	-0.353
-597.040	415.541	0.155	0.328
-596.025	69.233	0.208	0.212
-595.011	-12.692	-0.132	0.086
-593.996	-200.000	-0.019	0.192
-592.982	222.546	0.079	-0.126
-591.967	96.510	0.240	0.273
-590.952	-149.695	-0.316	-0.025
-589.938	800.000	-0.077	0.279
-588.923	-115.132	-0.117	-0.022
-587.909	-167.507	-0.191	-0.008
-586.894	-94.966	0.388	-0.104
-585.879	-169.717	-0.318	0.011
-584.865	-87.365	0.193	-0.058
-583.850	-59.328	0.181	-0.077
-582.836	800.000	-0.042	-0.126
-581.821	-74.541	0.170	-0.061
-580.806	-200.000	-0.034	-0.166
-579.792	58.160	-0.097	-0.094
-578.777	800.000	0.037	-0.108
-577.763	-68.282	0.113	-0.044
-576.748	-82.694	0.322	-0.104
-575.733	356.220	-0.074	0.147
-574.719	751.094	0.085	0.228
-573.704	307.533	-0.143	0.265
-572.690	-104.027	0.293	0.068
-571.675	43.083	-0.059	-0.054
-570.661	-130.489	0.183	0.025
-569.646	252.670	0.016	0.027
-568.631	13.101	0.209	0.161
-567.617	-96.927	0.182	0.047
-566.602	54.142	0.136	0.130
-565.588	632.337	0.165	-0.415
-564.573	-24.384	-0.216	-0.128
-563.558	7.711	0.080	0.059
-562.544	-145.564	-0.151	-0.013
-561.529	-111.972	0.220	0.044
-560.515	800.000	0.023	0.093
-559.500	55.874	-0.175	0.168
-558.485	-200.000	-0.003	-0.434
-557.471	70.139	-0.167	0.171
-556.456	-200.000	0.034	0.173
-555.442	-2.437	0.030	-0.021
-554.427	609.889	0.092	-0.227
-553.412	80.473	-0.079	-0.084
-552.398	153.735	0.069	-0.094
-551.383	-98.253	0.328	-0.083
-550.369	11.617	0.154	-0.117
-549.354	573.949	-0.124	-0.299
-548.339	800.000	-0.022	-0.080
-547.325	126.415	-0.102	-0.128
-546.310	-200.000	-0.019	0.270
-545.296	338.845	-0.102	0.197
-544.281	-103.017	-0.419	0.098
-543.266	-200.000	-0.018	0.111
-542.252	-98.024	-0.242	-0.062
-541.237	120.523	0.098	-0.120
-540.223	-200.000	0.004	0.220
-539.208	16.936	0.271	0.213
-538.193	78.525	-0.334	0.354
-537.179	-200.000	0.085	-0.572
-536.164	38.162	0.071	0.063
-535.150	-200.000	-0.023	-0.155
-534.135	-28.004	-0.153	-0.088
-533.121	54.060	-0.037	0.035
-532.106	128.037	0.058	0.073
-531.091	800.000	-0.113	-0.330
-530.077	-79.264	0.361	0.121
-529.062	-132.754	0.302	0.038
-528.048	-132.765	-0.114	-0.014
-527.033	256.093	-0.100	0.170
-526.018	-139.380	0.378	-0.040
-525.004	800.000	-0.032	0.108
-523.989	-200.000	-0.040	0.201
-522.975	0.132	-0.225	0.159
-521.960	-83.292	0.066	0.021
-520.945	208.456	-0.086	0.133
-519.931	69.503	-0.182	-0.186
-518.916	-71.982	-0.312	0.115
-517.902	-200.000	0.023	-0.192
-516.887	-37.247	0.170	-0.090
-515.872	-50.025	0.282	0.132
-514.858	-200.000	0.015	-0.073
-513.843	800.000	-0.076	-0.276
-512.829	-80.830	-0.138	0.045
-511.814	-131.029	-0.273	0.036
-510.799	-108.019	-0.201	-0.043
-509.785	-180.409	-0.096	-0.002
-508.770	465.544	0.069	-0.153
-507.756	4.166	0.092	-0.066
-506.741	-33.795	-0.088	0.048
-505.726	-26.742	-0.232	0.134
-504.712	-102.855	-0.236	0.055
-503.697	-200.000	0.000	-0.281
-502.683	28.969	-0.035	0.029
-501.668	-200.000	0.006	0.044
-500.653	-53.419	-0.279	0.127
-499.639	-200.000	0.006	-0.456
-498.624	-3.929	-0.079	-0.054
-497.610	241.791	0.263	-0.435
-496.595	-106.207	0.176	0.039
-495.581	-200.000	0.120	-0.000
-494.566	800.000	0.025	-0.083
-493.551	-200.000	0.008	0.232
-492.537	121.759	-0.033	-0.041
-491.522	17.242	0.060	-0.047
-490.508	271.168	0.077	-0.135
-489.493	-7.473	-0.173	-0.116
-488.478	800.000	-0.106	-0.300
-487.464	225.200	0.077	-0.123
-486.449	-113.522	-0.152	0.030
-485.435	19.338	-0.071	0.056
-484.420	-200.000	0.002	0.105
-483.405	719.514	-0.132	-0.347
-482.391	800.000	0.025	-0.088
-481.376	800.000	-0.074	0.227
-480.362	137.237	-0.172	-0.222
-479.347	-51.146	0.294	-0.136
-478.332	-200.000	-0.003	-0.182
-477.318	2.759	0.403	0.289
-476.303	43.458	-0.234	0.212
-475.289	-54.259	-0.053	0.024
-474.274	262.346	0.064	0.110
-473.259	-200.000	-0.026	-0.523
-472.245	-169.052	-0.354	-0.013
-471.230	-90.947	0.208	-0.059
-470.216	-200.000	-0.003	-0.101
-469.201	-14.096	-0.151	0.096
-468.186	93.561	-0.173	0.194
-467.172	-200.000	-0.023	0.216
-466.157	-117.714	0.396	-0.070
-465.143	104.599	-0.091	-0.106
-464.128	-200.000	-0.010	-0.108
-463.113	46.890	-0.090	0.082
-462.099	800.000	-0.063	0.251
-461.084	275.417	0.101	0.176
-460.070	-139.596	-0.309	0.033
-459.055	13.402	-0.295	-0.226
-458.040	-200.000	-0.004	0.256
-457.026	129.473	-0.249	-0.314
-456.011	-31.643	-0.231	-0.128
-454.997	-98.277	0.150	0.038
-453.982	179.402	-0.106	0.153
-452.968	-13.513	0.267	0.171
-451.953	95.210	0.145	0.163
-450.938	104.896	-0.134	-0.157
-449.924	37.372	-0.102	-0.089
-448.909	-38.866	-0.196	0.102
-447.895	318.749	0.116	0.218
-446.880	192.669	0.026	-0.039
-445.865	-10.957	-0.161	0.105
-444.851	-116.740	0.040	-0.007
-443.836	352.193	-0.049	-0.097
-442.822	-110.514	-0.166	0.034
-441.807	-89.497	0.318	0.092
-440.792	-200.000	-0.038	0.346
-439.778	-109.237	0.373	-0.078
-438.763	375.046	-0.086	0.172
-437.749	-109.000	-0.260	0.055
-436.734	143.913	-0.064	-0.085
-435.719	-18.906	-0.236	0.145
-434.705	-18.685	-0.213	0.131
-433.690	-40.337	0.232	-0.119
-432.676	39.870	0.086	-0.076
-431.661	800.000	0.048	0.201
-430.646	800.000	0.065	0.261
-429.632	-2.925	0.248	0.171
-428.617	-38.789	0.174	0.090
-427.603	800.000	-0.010	-0.035
-426.588	100.752	-0.052	-0.060
-425.573	800.000	0.059	0.222
-424.559	-97.359	-0.294	0.076
-423.544	-139.775	0.273	0.029
-422.530	445.578	0.164	0.355
-421.515	614.148	0.072	0.179
-420.500	-169.362	-0.138	0.005
-419.486	-200.000	-0.034	0.208
-418.471	-71.639	-0.359	0.132
-417.457	305.028	-0.230	-0.421
-416.442	125.669	0.203	0.253
-415.428	-73.530	-0.124	-0.044
-414.413	-200.000	0.049	0.247
-413.398	-200.000	0.358	-0.001
-412.384	-200.000	-0.027	-0.151
-411.369	-200.000	-0.024	0.124
-410.355	800.000	0.138	0.478
-409.340	435.947	0.048	-0.103
-408.325	435.281	-0.056	0.121
-407.311	-21.206	-0.063	-0.038
-406.296	105.212	0.117	0.136
-405.282	462.257	-0.040	-0.087
-404.267	-200.000	0.012	-0.091
-403.252	149.951	-0.155	0.208
-402.238	165.269	0.076	-0.106
-401.223	-121.628	0.212	-0.035
-400.209	-26.454	-0.227	0.131
-399.194	800.000	-0.015	-0.053
-398.179	-200.000	-0.005	-0.334
-397.165	326.029	0.144	-0.272
-396.150	-73.658	-0.350	-0.126
-395.136	140.655	-0.129	-0.168
-394.121	46.764	0.100	0.091
-393.106	-43.096	0.411	-0.206
-392.092	-32.447	-0.209	-0.115
-391.077	-200.000	-0.012	0.119
-390.063	-200.000	-0.008	-0.083
-389.048	-81.618	-0.126	-0.041
-388.033	-34.490	-0.176	-0.095
-387.019	-1.284	-0.430	0.299
-386.004	-72.388	0.072	0.026
-384.990	97.861	0.333	0.378
-383.975	202.746	-0.068	0.103
-382.960	-200.000	-0.011	0.236
-381.946	67.150	0.139	-0.140
-380.931	-109.073	-0.214	-0.045
-379.917	61.506	0.447	0.438
-378.902	2.471	-0.321	0.229
-377.888	-15.871	0.177	0.111
-376.873	-196.481	-0.356	-0.002
-375.858	800.000	0.081	0.235
-374.844	-48.026	0.297	-0.141
-373.829	510.544	-0.112	0.257
-372.815	75.205	0.041	-0.043
-371.800	199.912	-0.190	0.287
-370.785	338.584	0.136	0.261
-369.771	-78.005	-0.216	-0.073
-368.756	-106.456	0.370	0.081
-367.742	800.000	0.104	0.339
-366.727	800.000	-0.107	-0.335
-365.712	412.905	0.093	0.194
-364.698	-200.000	0.034	0.328
-363.683	800.000	-0.030	-0.129
-362.669	-187.916	-0.082	-0.001
-361.654	-138.020	0.243	0.027
-360.639	-130.171	-0.221	0.030
-359.625	800.000	0.137	-0.438
-358.610	-200.000	0.037	-0.238
-357.596	10.388	-0.304	-0.228
-356.581	-102.790	-0.244	-0.057
-355.566	-8.125	0.103	-0.068
-354.552	-200.000	0.015	0.163
-353.537	212.093	-0.073	-0.114
-352.523	-91.783	0.227	0.063
-351.508	102.174	-0.010	-0.012
-350.493	512.387	-0.073	-0.168
-349.479	-77.049	-0.199	0.068
-348.464	718.878	0.107	-0.279
-347.450	-200.000	0.009	-0.245
-346.435	-156.217	0.120	0.007
-345.420	-200.000	-0.015	-0.301
-344.406	-64.386	-0.136	-0.055
-343.391	431.839	0.070	0.149
-342.377	-156.909	0.526	0.032
-341.362	-28.969	0.072	0.041
-340.348	25.623	-0.164	0.135
-339.333	-171.291	-0.329	-0.011
-338.318	276.200	0.182	0.317
-337.304	492.661	-0.055	-0.123
-336.289	-200.000	0.044	0.193
-335.275	710.163	-0.097	0.253
-334.260	-44.166	0.252	-0.124
-333.245	800.000	0.029	0.106
-332.231	-71.940	-0.183	0.067
-331.216	-200.000	0.008	0.062
-330.202	410.763	-0.086	0.180
-329.187	597.135	-0.116	-0.282
-328.172	74.533	0.279	-0.289
-327.158	243.048	0.301	-0.496
-326.143	-200.000	0.017	-0.270
-325.129	394.745	-0.063	-0.129
-324.114	-200.000	-0.032	-0.228
-323.099	240.147	0.140	0.230
-322.085	-25.693	-0.180	0.104
-321.070	117.909	0.209	0.252
-320.056	-76.022	-0.557	0.194
-319.041	123.756	-0.256	-0.315
-318.026	-200.000	0.011	-0.177
-317.012	95.417	-0.048	0.054
-315.997	93.330	0.193	-0.215
-314.983	-20.721	-0.182	-0.110
-313.968	120.133	-0.054	-0.066
-312.953	800.000	0.027	0.113
-311.939	-83.100	-0.217	0.069
-310.924	-200.000	0.044	0.221
-309.910	-21.012	-0.250	0.150
-308.895	228.734	0.120	0.192
-307.880	-93.805	-0.136	-0.037
-306.866	188.070	0.014	-0.020
-305.851	-39.008	-0.168	-0.087
-304.837	33.222	-0.176	0.150
-303.822	60.500	0.251	0.245
-302.807	96.111	0.232	0.260
-301.793	356.161	0.107	-0.209
-300.778	560.974	0.125	0.297
-299.764	44.255	0.236	-0.213
-298.749	356.621	0.193	-0.378
-297.735	11.183	-0.257	-0.193
-296.720	-108.564	-0.102	-0.022
-295.705	-6.039	0.333	0.223
-294.691	-200.000	0.004	-0.080
-293.676	121.898	-0.103	-0.126
-292.662	110.004	0.074	-0.087
-291.647	-200.000	-0.002	0.046
-290.632	357.086	-0.008	-0.015
-289.618	-123.510	-0.221	-0.035
-288.603	1.034	-0.175	0.123
-287.589	-8.653	0.214	0.141
-286.574	791.294	-0.060	-0.163
-285.559	-55.561	0.335	-0.147
-284.545	274.613	-0.059	0.103
-283.530	45.540	0.116	0.105
-282.516	-130.385	-0.242	-0.032
-281.501	54.109	0.218	0.206
-280.486	-114.386	-0.097	0.018
-279.472	800.000	0.106	0.345
-278.457	11.783	-0.182	0.137
-277.443	-115.663	0.272	-0.050
-276.428	47.441	-0.113	0.103
-275.413	-97.152	0.142	0.036
-274.399	377.784	-0.225	-0.451
-273.384	-40.835	0.177	0.090
-272.370	160.516	-0.118	0.161
-271.355	-38.977	-0.051	-0.027
-270.340	122.356	-0.169	0.207
-269.326	-200.000	0.014	0.075
-268.311	-200.000	0.045	0.196
-267.297	-74.717	0.269	0.095
-266.282	-23.832	0.137	-0.081
-265.267	-32.044	-0.226	-0.124
-264.253	-32.865	0.296	0.161
-263.238	-100.038	-0.435	-0.106
-262.224	307.134	0.165	-0.301
-261.209	-48.584	0.256	0.121
-260.195	-60.099	-0.198	0.083
-259.180	415.874	0.116	-0.244
-258.165	64.460	-0.088	0.087
-257.151	257.811	0.140	-0.237
-256.136	223.185	0.085	-0.134
-255.122	800.000	0.056	0.197
-254.107	-145.730	-0.189	0.017
-253.092	-200.000	0.008	0.056
-252.078	800.000	-0.047	0.189
-251.063	157.859	0.053	-0.072
-250.049	-200.000	0.017	0.219
-249.034	94.933	-0.151	-0.168
-248.019	469.754	0.122	-0.268
-247.005	-90.578	0.273	0.077
-245.990	-17.680	0.126	0.078
-244.976	37.688	0.123	0.107
-243.961	-76.307	-0.456	-0.158
-242.946	24.220	-0.266	-0.215
-241.932	275.194	-0.191	0.331
-240.917	72.249	-0.111	-0.113
-239.903	-200.000	0.030	0.216
-238.888	-112.446	-0.045	-0.009
-237.873	43.911	-0.181	-0.163
-236.859	55.339	-0.433	0.410
-235.844	194.469	0.195	0.290
-234.830	800.000	-0.037	0.152
-233.815	800.000	0.026	0.110
-232.800	-50.648	-0.048	0.022
-231.786	183.818	0.144	0.209
-230.771	7.997	0.109	0.080
-229.757	-51.906	0.160	0.073
-228.742	757.758	-0.167	-0.443
-227.727	-200.000	-0.018	0.263
-226.713	661.860	-0.040	-0.100
-225.698	329.105	-0.137	0.258
-224.684	-152.487	0.228	0.016
-223.669	800.000	0.091	0.254
-222.655	-26.270	-0.053	-0.030
-221.640	-124.687	0.527	-0.080
-220.625	-123.152	-0.060	-0.009
-219.611	92.783	0.089	-0.098
-218.596	148.063	0.133	-0.176
-217.582	768.458	-0.122	-0.325
-216.567	-39.496	0.033	-0.017
-215.552	-27.972	-0.102	-0.058
-214.538	59.570	-0.105	0.102
-213.523	-200.000	0.000	0.016
-212.509	70.960	-0.067	-0.068
-211.494	-184.838	0.111	0.002
-210.479	-34.576	0.396	-0.212
-209.465	44.560	-0.132	-0.119
-208.450	20.172	-0.116	0.092
-207.436	4.181	0.145	0.104
-206.421	289.032	-0.148	0.262
-205.406	800.000	-0.039	-0.118
-204.392	-92.373	0.047	0.013
-203.377	-25.086	-0.254	-0.147
-202.363	-200.000	0.038	0.280
-201.348	800.000	-0.019	0.054
-200.333	-45.032	0.211	0.103
-199.319	13.749	0.145	0.110
-198.304	67.431	0.127	0.127
-197.290	-74.732	0.166	-0.058
-196.275	262.766	0.148	-0.251
-195.260	-171.552	0.222	0.007
-194.246	-200.000	0.030	-0.206
-193.231	32.741	0.116	-0.098
-192.217	21.563	-0.135	0.108
-191.202	-129.955	0.209	0.028
-190.187	29.042	-0.096	-0.080
-189.173	-200.000	-0.010	-0.341
-188.158	-200.000	0.076	0.339
-187.144	-76.997	-0.130	0.044
-186.129	186.113	0.068	-0.099
-185.114	428.833	0.183	-0.386
-184.100	93.947	0.333	-0.369
-183.085	52.069	0.067	-0.062
-182.071	-92.624	0.248	0.068
-181.056	107.358	0.118	0.137
-180.042	-51.375	-0.226	-0.103
-179.027	-185.076	0.248	0.004
-178.012	141.403	-0.032	-0.041
-176.998	16.740	-0.174	-0.135
-175.983	443.309	0.072	-0.155
-174.969	-200.000	-0.007	-0.096
-173.954	-87.522	0.240	0.071
-172.939	101.625	0.048	-0.055
-171.925	-200.000	-0.039	0.381
-170.910	-60.268	-0.357	0.149
-169.896	-170.749	0.299	0.010
-168.881	-72.466	0.208	-0.075
-167.866	-200.000	0.004	-0.149
-166.852	143.981	0.040	-0.052
-165.837	800.000	0.010	-0.029
-164.823	-200.000	0.000	0.020
-163.808	-10.424	0.109	-0.071
-162.793	-14.085	-0.301	0.189
-161.779	430.200	0.089	-0.188
-160.764	-200.000	-0.020	-0.247
-159.750	-111.560	-0.247	-0.049
-158.735	34.198	-0.137	-0.117
-157.720	228.246	-0.280	0.445
-156.706	-107.920	0.208	-0.044
-155.691	-118.416	-0.042	0.007
-154.677	682.291	-0.093	-0.236
-153.662	-157.541	0.269	-0.016
-152.647	-200.000	0.017	0.126
-151.633	-200.000	0.006	0.177
-150.618	126.785	0.093	0.116
-149.604	-47.356	-0.115	0.055
-148.589	131.351	-0.172	0.216
-147.574	-137.045	-0.425	-0.047
-146.560	-174.501	0.152	0.004
-145.545	-70.175	-0.504	0.187
-144.531	-37.786	0.082	-0.043
-143.516	800.000	-0.016	-0.043
-142.502	-37.810	-0.279	0.145
-141.487	0.955	0.387	-0.271
-140.472	-137.180	-0.075	-0.008
-139.458	-79.304	-0.283	-0.094
-138.443	435.487	-0.091	0.192
-137.429	-86.307	0.326	0.098
-136.414	-125.787	0.135	0.020
-135.399	150.567	0.204	-0.270
-134.385	800.000	0.102	-0.357
-133.370	6.506	-0.144	-0.104
-132.356	-200.000	-0.004	0.212
-131.341	-200.000	0.007	-0.347
-130.326	800.000	-0.074	0.263
-129.312	800.000	-0.072	0.268
-128.297	323.868	0.003	0.006
-127.283	60.511	0.071	0.069
-126.268	-200.000	-0.039	0.179
-125.253	-200.000	0.008	-0.058
-124.239	-120.727	-0.091	0.015
-123.224	37.312	0.200	-0.173
-122.210	-22.455	0.440	0.260
-121.195	-37.712	0.221	0.115
