DTS Sentinel unit serial number:	SN413079Multiplexer serial number:	ORYXHardware model number:	OX4-SRSoftware version number:	ORYX F/W v4.00 Oryx Data Collector v3.7.2.0data status	okinstallation	princeton_trtdifferential loss correction	single-endedforward channel	channel 3reverse channel	N/Adate	2019/09/18time	07:48:35forward acquisition time	60.00reverse acquisition time	0.00gamma	496.2192k internal	0.2343k external	0.2343temperature offset calibration	0.9951default loss term (dB/km)	0.3790temperature slope calibration	1.0000multiplexer offset coefficient	1.0000multiplexer slope coefficient	1.0000fibre end	0.00T internal ref (°C)	23.36T ext. ref 1 (°C)	0.20T ext. ref 2 (°C)	18.91length (m)	temperature (°C)	Stokes	anti-Stokes-747.200	800.000	-0.086	-0.296
-746.185	29.609	-0.223	0.190
-745.171	-73.828	0.290	0.105
-744.156	-110.051	-0.607	0.127
-743.142	75.091	0.199	0.210
-742.127	261.430	-0.080	-0.139
-741.112	-22.783	0.333	-0.201
-740.098	-131.732	-0.508	-0.067
-739.083	133.489	0.239	0.310
-738.069	800.000	0.032	-0.106
-737.054	110.831	-0.047	0.056
-736.039	-99.991	-0.367	-0.092
-735.025	196.907	0.164	0.251
-734.010	800.000	-0.120	-0.364
-732.996	-8.371	-0.343	-0.231
-731.981	-133.831	-0.356	-0.044
-730.966	94.751	0.190	-0.216
-729.952	-67.978	-0.372	0.145
-728.937	267.567	-0.097	-0.169
-727.923	-26.075	0.164	-0.097
-726.908	800.000	0.116	-0.358
-725.894	496.134	-0.176	-0.405
-724.879	-2.192	-0.132	-0.092
-723.864	-113.294	0.374	0.073
-722.850	-167.472	0.103	-0.004
-721.835	800.000	0.066	-0.244
-720.821	-59.942	0.350	0.150
-719.806	-122.639	0.068	0.011
-718.791	800.000	0.110	-0.380
-717.777	-49.763	0.238	-0.113
-716.762	74.782	0.228	0.240
-715.748	163.261	0.045	-0.064
-714.733	81.859	0.152	0.164
-713.718	151.835	0.035	-0.048
-712.704	170.124	0.147	-0.211
-711.689	-42.044	0.090	0.046
-710.675	43.178	0.065	-0.060
-709.660	190.462	-0.046	0.069
-708.645	-200.000	0.025	0.123
-707.631	389.267	0.131	-0.271
-706.616	-65.116	-0.147	0.059
-705.602	186.908	0.083	-0.123
-704.587	306.518	0.125	-0.234
-703.572	98.907	0.115	0.133
-702.558	-123.263	0.384	0.061
-701.543	663.358	-0.078	0.202
-700.529	-86.106	0.131	-0.040
-699.514	-79.585	-0.300	0.101
-698.499	-161.857	0.261	0.013
-697.485	-200.000	0.052	-0.410
-696.470	-200.000	0.006	-0.121
-695.456	800.000	0.035	-0.121
-694.441	223.085	0.137	0.221
-693.426	-25.311	0.045	-0.026
-692.412	-200.000	-0.008	-0.313
-691.397	337.818	-0.147	-0.285
-690.383	92.416	-0.107	-0.120
-689.368	-65.179	0.179	-0.072
-688.354	70.503	-0.082	0.085
-687.339	-54.639	0.245	-0.111
-686.324	-200.000	-0.035	-0.212
-685.310	-200.000	0.030	-0.443
-684.295	280.334	-0.115	-0.205
-683.281	-85.542	-0.287	-0.089
-682.266	-200.000	0.021	-0.390
-681.251	-174.364	0.203	-0.006
-680.237	-113.131	-0.455	-0.090
-679.222	528.381	0.142	-0.334
-678.208	-200.000	-0.008	0.065
-677.193	69.036	-0.125	-0.129
-676.178	267.526	-0.101	-0.176
-675.164	119.697	-0.130	0.161
-674.149	30.469	-0.171	-0.146
-673.135	800.000	0.115	-0.493
-672.120	100.096	-0.236	-0.273
-671.105	-117.014	0.227	0.041
-670.091	47.058	0.261	-0.243
-669.076	-59.225	-0.148	-0.064
-668.062	-96.640	0.287	0.075
-667.047	44.161	0.076	-0.070
-666.032	800.000	0.074	-0.244
-665.018	-20.851	-0.315	-0.193
-664.003	40.438	-0.127	0.114
-662.989	23.535	-0.203	0.167
-661.974	689.914	-0.088	0.230
-660.959	800.000	-0.021	0.064
-659.945	800.000	0.029	-0.120
-658.930	-200.000	-0.034	0.173
-657.916	147.602	-0.063	-0.085
-656.901	-30.496	0.179	0.101
-655.886	-54.163	0.226	-0.102
-654.872	-200.000	0.001	-0.019
-653.857	134.391	-0.164	-0.212
-652.843	-87.996	-0.068	-0.020
-651.828	85.449	-0.189	-0.207
-650.814	705.790	0.085	0.223
-649.799	-41.686	0.135	-0.069
-648.784	-200.000	-0.069	-0.350
-647.770	-200.000	0.020	-0.089
-646.755	36.474	-0.420	-0.370
-645.741	53.527	0.187	-0.179
-644.726	-56.250	0.131	-0.058
-643.711	-99.941	-0.196	0.049
-642.697	568.123	-0.072	0.174
-641.682	-49.740	0.090	-0.043
-640.668	800.000	0.060	-0.235
-639.653	-123.226	0.169	-0.027
-638.638	-26.957	0.205	-0.119
-637.624	-200.000	0.007	-0.384
-636.609	206.446	0.063	0.098
-635.595	219.961	-0.135	-0.215
-634.580	306.227	-0.062	0.116
-633.565	-181.632	0.144	-0.003
-632.551	89.882	0.030	0.033
-631.536	164.359	-0.078	-0.110
-630.522	23.700	-0.088	-0.073
-629.507	-200.000	-0.017	-0.161
-628.492	23.539	-0.408	-0.334
-627.478	-115.430	0.186	-0.035
-626.463	716.133	0.118	-0.313
-625.449	-200.000	0.010	0.080
-624.434	800.000	-0.033	-0.115
-623.419	-200.000	-0.027	-0.195
-622.405	3.625	-0.238	-0.173
-621.390	60.987	0.272	-0.269
-620.376	-200.000	-0.029	-0.325
-619.361	-112.673	0.255	-0.051
-618.346	-200.000	-0.008	-0.142
-617.332	-120.010	-0.258	0.044
-616.317	11.726	0.168	0.128
-615.303	277.725	-0.182	-0.322
-614.288	-2.336	-0.157	0.110
-613.273	-73.814	-0.089	0.032
-612.259	-200.000	-0.013	0.101
-611.244	66.566	-0.012	-0.012
-610.230	679.683	-0.126	0.326
-609.215	-152.048	-0.039	0.003
-608.201	-87.298	-0.366	0.111
-607.186	-77.710	0.142	-0.049
-606.171	-155.138	-0.063	0.004
-605.157	-200.000	0.028	-0.153
-604.142	-6.542	0.203	0.137
-603.128	314.306	-0.217	0.407
-602.113	800.000	0.066	0.188
-601.098	358.207	0.119	-0.237
-600.084	-200.000	0.009	-0.097
-599.069	27.097	0.176	-0.147
-598.055	349.361	0.074	-0.146
-597.040	-200.000	0.023	0.289
-596.025	-6.706	0.290	0.197
-595.011	-200.000	0.029	0.182
-593.996	-200.000	0.035	-0.568
-592.982	574.932	-0.137	-0.333
-591.967	44.792	-0.221	0.203
-590.952	-99.532	-0.164	0.041
-589.938	-148.835	-0.268	0.022
-588.923	397.962	-0.084	-0.174
-587.909	-162.244	-0.202	0.010
-586.894	-200.000	0.010	0.078
-585.879	-87.878	-0.190	0.057
-584.865	800.000	0.091	-0.306
-583.850	-200.000	-0.023	-0.181
-582.836	-200.000	0.104	0.000
-581.821	-120.861	-0.295	-0.049
-580.806	-200.000	-0.012	-0.174
-579.792	5.974	-0.136	0.100
-578.777	352.111	-0.141	0.278
-577.763	-180.554	-0.213	-0.004
-576.748	23.768	0.247	-0.202
-575.733	800.000	0.121	-0.339
-574.719	-189.575	-0.144	0.002
-573.704	-24.851	0.182	-0.108
-572.690	-158.604	-0.186	-0.011
-571.675	-200.000	0.006	-0.139
-570.661	-200.000	-0.048	-0.284
-569.646	-72.145	0.196	-0.072
-568.631	-43.917	-0.402	-0.201
-567.617	114.279	0.075	-0.091
-566.602	-163.355	0.185	0.009
-565.588	75.107	-0.159	0.166
-564.573	-63.144	-0.229	-0.094
-563.558	485.004	0.075	0.169
-562.544	785.707	0.043	0.117
-561.529	-200.000	0.054	-0.394
-560.515	-110.021	-0.235	-0.049
-559.500	-200.000	0.001	-0.293
-558.485	595.237	0.102	0.251
-557.471	-144.158	-0.063	-0.006
-556.456	-82.474	0.049	0.016
-555.442	338.764	-0.028	-0.053
-554.427	-28.981	-0.102	0.058
-553.412	-200.000	-0.039	-0.214
-552.398	-200.000	-0.023	-0.185
-551.383	800.000	-0.094	-0.263
-550.369	-125.691	0.513	0.077
-549.354	-200.000	0.008	0.101
-548.339	156.862	-0.072	-0.099
-547.325	27.482	0.192	-0.160
-546.310	-13.131	0.042	-0.027
-545.296	104.232	0.314	0.367
-544.281	-109.610	-0.271	-0.057
-543.266	182.449	-0.153	0.224
-542.252	162.914	-0.097	0.136
-541.237	800.000	-0.022	-0.081
-540.223	-200.000	0.003	0.169
-539.208	650.141	-0.007	-0.017
-538.193	22.790	0.246	-0.200
-537.179	800.000	0.179	-0.588
-536.164	-81.025	0.382	-0.126
-535.150	429.937	0.231	0.496
-534.135	-43.841	-0.177	0.088
-533.121	67.010	0.174	0.176
-532.106	173.169	-0.080	0.114
-531.091	-68.793	-0.229	0.088
-530.077	150.198	-0.236	-0.317
-529.062	160.828	0.103	0.143
-528.048	33.415	0.322	0.277
-527.033	-73.634	0.028	0.010
-526.018	-158.083	-0.204	0.012
-525.004	401.631	-0.100	0.208
-523.989	800.000	-0.055	-0.167
-522.975	-200.000	-0.003	0.043
-521.960	11.700	0.152	-0.116
-520.945	800.000	-0.048	-0.150
-519.931	49.515	0.344	-0.321
-518.916	800.000	0.129	0.416
-517.902	487.354	0.074	0.167
-516.887	525.872	-0.102	0.238
-515.872	50.641	-0.088	-0.082
-514.858	-69.469	0.052	-0.020
-513.843	-200.000	-0.014	0.148
-512.829	-141.928	0.360	-0.036
-511.814	212.622	0.191	-0.298
-510.799	800.000	0.016	-0.062
-509.785	-200.000	0.021	-0.337
-508.770	800.000	0.121	-0.391
-507.756	800.000	-0.025	-0.100
-506.741	-200.000	0.013	-0.254
-505.726	-122.367	0.111	0.018
-504.712	-51.938	0.381	-0.176
-503.697	-59.178	-0.135	-0.058
-502.683	800.000	0.077	0.304
-501.668	22.713	0.153	0.124
-500.653	800.000	-0.020	-0.071
-499.639	-200.000	-0.001	0.210
-498.624	-40.380	0.298	-0.154
-497.610	534.162	-0.169	0.398
-496.595	35.207	0.127	0.111
-495.581	645.116	0.111	0.281
-494.566	222.555	0.066	0.105
-493.551	-10.524	0.163	-0.107
-492.537	-79.517	-0.169	0.056
-491.522	-22.158	0.102	0.061
-490.508	700.699	-0.043	0.111
-489.493	800.000	-0.035	-0.141
-488.478	-133.829	0.125	0.015
-487.464	23.110	0.362	-0.295
-486.449	800.000	-0.030	0.104
-485.435	406.069	-0.169	0.354
-484.420	-116.574	-0.223	-0.041
-483.405	114.964	-0.033	0.040
-482.391	-77.493	-0.062	-0.021
-481.376	-200.000	-0.001	0.080
-480.362	-135.371	0.321	-0.038
-479.347	800.000	0.049	-0.160
-478.332	-59.396	-0.354	0.151
-477.318	22.213	-0.168	-0.136
-476.303	2.188	-0.117	0.084
-475.289	-144.184	0.117	-0.011
-474.274	270.833	0.016	-0.027
-473.259	-199.790	-0.024	-0.000
-472.245	-56.518	-0.038	0.017
-471.230	12.598	0.139	0.106
-470.216	91.050	-0.190	-0.211
-469.201	330.456	-0.303	-0.578
-468.186	-100.144	-0.218	-0.054
-467.172	-34.157	-0.119	-0.065
-466.157	87.466	-0.107	0.117
-465.143	-73.081	0.246	0.089
-464.128	800.000	0.080	-0.324
-463.113	-79.365	-0.387	0.130
-462.099	-22.460	-0.241	-0.144
-461.084	-111.260	-0.077	-0.016
-460.070	-55.091	-0.218	-0.097
-459.055	55.671	-0.097	0.093
-458.040	14.234	-0.074	0.057
-457.026	-151.713	0.163	0.012
-456.011	140.839	-0.112	-0.147
-454.997	-104.020	-0.179	0.041
-453.982	-69.012	0.125	-0.048
-452.968	-122.476	-0.185	-0.030
-451.953	17.982	-0.059	0.046
-450.938	-137.359	0.270	0.030
-449.924	-174.933	0.244	0.007
-448.909	91.023	-0.134	0.148
-447.895	800.000	-0.068	-0.221
-446.880	-90.008	-0.255	0.074
-445.865	380.569	0.079	-0.160
-444.851	399.181	0.068	-0.141
-443.836	-125.456	-0.190	0.029
-442.822	-124.884	0.257	-0.039
-441.807	3.483	0.139	0.100
-440.792	-141.216	0.210	-0.021
-439.778	37.495	-0.108	-0.094
-438.763	800.000	-0.018	-0.057
-437.749	-37.176	0.276	0.146
-436.734	800.000	-0.093	0.279
-435.719	800.000	-0.084	0.296
-434.705	144.438	0.069	-0.091
-433.690	49.856	0.144	0.134
-432.676	767.212	0.019	-0.050
-431.661	0.669	-0.373	-0.264
-430.646	244.079	0.066	0.110
-429.632	-141.409	0.115	0.012
-428.617	510.415	0.088	0.203
-427.603	144.128	-0.140	-0.185
-426.588	-130.070	-0.290	0.039
-425.573	545.173	-0.042	0.100
-424.559	257.711	0.153	-0.260
-423.544	-117.197	-0.222	-0.040
-422.530	800.000	0.059	0.207
-421.515	-41.474	0.306	-0.155
-420.500	-140.448	-0.296	0.030
-419.486	-200.000	-0.008	0.246
-418.471	297.613	-0.157	0.284
-417.457	-200.000	-0.017	0.117
-416.442	-200.000	0.071	0.426
-415.428	-200.000	-0.016	0.089
-414.413	33.571	-0.273	0.234
-413.398	-200.000	-0.027	0.323
-412.384	2.387	0.268	-0.192
-411.369	36.754	-0.203	-0.178
-410.355	-137.841	-0.524	-0.058
-409.340	184.791	-0.168	-0.246
-408.325	-39.485	-0.153	-0.079
-407.311	790.115	-0.049	-0.132
-406.296	74.085	0.060	0.062
-405.282	255.908	-0.066	-0.111
-404.267	34.190	0.213	0.183
-403.252	-61.347	0.129	-0.053
-402.238	91.820	0.303	-0.336
-401.223	-23.051	0.082	-0.049
-400.209	-20.931	0.116	-0.070
-399.194	560.080	0.106	0.253
-398.179	8.743	-0.241	-0.179
-397.165	109.928	0.124	-0.147
-396.150	-200.000	0.054	0.414
-395.136	176.075	0.131	-0.188
-394.121	59.855	-0.147	0.143
-393.106	224.358	0.186	0.297
-392.092	252.591	-0.059	0.100
-391.077	-165.013	-0.062	-0.003
-390.063	559.318	-0.092	0.219
-389.048	-34.018	-0.039	-0.021
-388.033	394.613	0.061	0.125
-387.019	-67.466	0.212	0.082
-386.004	800.000	-0.031	-0.109
-384.990	-200.000	0.029	-0.555
-383.975	-132.812	-0.427	-0.054
-382.960	800.000	0.054	0.207
-381.946	502.772	-0.113	0.259
-380.931	236.283	-0.122	-0.199
-379.917	-110.311	-0.122	0.025
-378.902	8.630	0.073	0.054
-377.888	-200.000	0.055	0.373
-376.873	-165.179	-0.471	0.021
-375.858	800.000	-0.018	0.049
-374.844	800.000	0.086	0.365
-373.829	249.587	-0.091	0.152
-372.815	-89.291	-0.393	0.114
-371.800	-147.017	-0.392	-0.033
-370.785	-116.265	0.095	0.017
-369.771	-36.125	0.422	0.225
-368.756	35.254	-0.160	-0.139
-367.742	-34.240	0.352	0.191
-366.727	800.000	-0.056	0.167
-365.712	257.446	-0.020	-0.035
-364.698	800.000	0.085	0.309
-363.683	-60.328	0.195	-0.082
-362.669	-200.000	-0.052	-0.416
-361.654	307.555	-0.148	-0.272
-360.639	-160.177	0.101	0.005
-359.625	74.420	0.083	-0.086
-358.610	-200.000	0.044	0.258
-357.596	193.580	0.147	-0.219
-356.581	800.000	0.095	0.310
-355.566	9.719	0.152	-0.114
-354.552	-169.490	-0.076	0.003
-353.537	-152.507	0.266	-0.019
-352.523	43.044	0.235	-0.211
-351.508	-3.722	0.149	0.102
-350.493	-200.000	0.015	-0.189
-349.479	157.453	-0.406	-0.554
-348.464	-121.439	0.240	0.039
-347.450	-200.000	0.032	0.365
-346.435	71.309	-0.151	-0.154
-345.420	186.196	-0.022	-0.032
-344.406	-63.682	0.139	-0.056
-343.391	-200.000	0.043	-0.191
-342.377	-44.504	-0.191	0.094
-341.362	352.327	0.058	0.113
-340.348	-6.051	0.019	-0.013
-339.333	-58.449	0.142	-0.061
-338.318	800.000	0.008	-0.023
-337.304	592.888	0.056	-0.137
-336.289	800.000	-0.091	-0.271
-335.275	92.491	0.115	0.127
-334.260	166.772	0.027	-0.038
-333.245	395.460	-0.199	-0.408
-332.231	-27.513	0.035	-0.020
-331.216	205.006	-0.068	0.105
-330.202	-75.659	0.124	-0.043
-329.187	-94.340	-0.125	-0.034
-328.172	-34.305	0.137	-0.074
-327.158	-34.887	0.260	-0.140
-326.143	-115.819	0.495	-0.091
-325.129	-112.697	0.167	0.033
-324.114	-126.498	-0.375	-0.055
-323.099	16.929	0.071	-0.055
-322.085	-78.087	-0.047	0.016
-321.070	307.651	-0.151	0.277
-320.056	225.471	0.184	0.293
-319.041	307.574	-0.078	0.143
-318.026	194.014	0.187	0.279
-317.012	188.960	-0.190	-0.280
-315.997	374.944	-0.073	0.147
-314.983	740.338	-0.076	0.201
-313.968	36.598	-0.129	0.112
-312.953	-70.617	-0.188	-0.070
-311.939	-95.341	-0.167	-0.044
-310.924	-200.000	0.004	0.112
-309.910	800.000	0.135	-0.479
-308.895	-70.852	0.240	-0.089
-307.880	800.000	-0.079	0.253
-306.866	-70.757	-0.318	0.118
-305.851	-200.000	-0.035	0.180
-304.837	59.587	-0.187	-0.181
-303.822	-200.000	-0.007	0.128
-302.807	800.000	-0.066	0.251
-301.793	-104.452	0.187	-0.043
-300.778	800.000	0.036	0.147
-299.764	61.573	0.172	0.168
-298.749	-64.788	-0.330	-0.132
-297.735	-39.256	0.018	-0.009
-296.720	-200.000	0.025	0.258
-295.705	-200.000	0.274	0.000
-294.691	168.702	0.047	0.066
-293.676	-70.468	-0.056	0.021
-292.662	-47.930	-0.313	-0.149
-291.647	-67.892	0.047	0.018
-290.632	-200.000	-0.034	0.310
-289.618	359.596	0.173	-0.341
-288.603	-14.879	0.100	-0.063
-287.589	-200.000	0.016	0.106
-286.574	487.789	-0.054	0.122
-285.559	-200.000	0.011	0.216
-284.545	800.000	-0.064	-0.183
-283.530	-29.352	-0.074	-0.042
-282.516	800.000	0.018	0.076
-281.501	-200.000	-0.135	-0.001
-280.486	10.835	0.175	0.131
-279.472	800.000	-0.155	0.431
-278.457	-200.000	-0.007	-0.081
-277.443	800.000	-0.035	0.121
-276.428	81.051	-0.144	0.153
-275.413	363.266	0.102	0.201
-274.399	212.009	0.239	0.371
-273.384	-88.719	-0.471	0.138
-272.370	-111.747	-0.340	0.068
-271.355	240.786	0.227	-0.372
-270.340	-106.142	0.215	-0.047
-269.326	-90.469	0.209	0.059
-268.311	-110.323	-0.388	-0.079
-267.297	25.391	-0.140	-0.114
-266.282	332.538	-0.057	0.109
-265.267	-89.946	0.361	0.104
-264.253	-178.931	0.299	-0.007
-263.238	628.534	0.043	0.107
-262.224	800.000	0.038	0.162
-261.209	-95.771	-0.207	-0.054
-260.195	216.900	-0.108	0.169
-259.180	-200.000	-0.027	-0.290
-258.165	448.809	-0.072	0.155
-257.151	114.460	0.108	-0.129
-256.136	234.671	-0.269	0.435
-255.122	50.040	0.163	0.151
-254.107	286.268	-0.115	-0.204
-253.092	508.750	-0.044	0.100
-252.078	94.745	0.181	0.202
-251.063	10.312	0.187	0.140
-250.049	-200.000	0.024	-0.177
-249.034	-200.000	0.059	0.326
-248.019	-200.000	0.047	-0.392
-247.005	-117.976	-0.376	-0.066
-245.990	-80.965	0.308	0.100
-244.976	-167.537	0.241	0.009
-243.961	-27.407	-0.114	-0.065
-242.946	-150.441	0.253	0.019
-241.932	-11.256	-0.118	-0.076
-240.917	-91.726	0.111	-0.031
-239.903	503.672	0.097	0.221
-238.888	223.125	-0.136	0.215
-237.873	655.225	-0.137	-0.346
-236.859	-34.776	-0.134	-0.072
-235.844	205.938	0.033	-0.051
-234.830	-77.550	-0.194	-0.066
-233.815	378.552	0.103	0.206
-232.800	-27.077	-0.338	0.193
-231.786	59.372	-0.112	-0.108
-230.771	-108.452	-0.167	-0.035
-229.757	51.273	0.225	0.210
-228.742	-121.229	-0.139	0.023
-227.727	87.279	0.126	-0.137
-226.713	-200.000	-0.014	0.228
-225.698	800.000	0.085	-0.359
-224.684	-7.816	-0.091	0.060
-223.669	-46.926	-0.152	-0.073
-222.655	81.304	0.281	0.298
-221.640	52.655	-0.083	-0.078
-220.625	-200.000	-0.044	0.381
-219.611	-87.523	-0.312	0.093
-218.596	91.897	0.115	0.127
-217.582	-193.327	0.290	-0.002
-216.567	-164.196	-0.241	-0.011
-215.552	34.875	-0.300	0.257
-214.538	-130.149	0.333	0.045
-213.523	-200.000	0.014	-0.231
-212.509	-20.942	0.317	-0.190
-211.494	-200.000	0.006	0.086
-210.479	-200.000	-0.084	0.428
-209.465	59.851	0.196	0.189
-208.450	-166.954	-0.105	0.004
-207.436	-200.000	0.024	-0.125
-206.421	176.307	-0.162	0.231
-205.406	-151.185	0.197	-0.015
-204.392	259.336	-0.103	-0.175
-203.377	-55.483	-0.303	0.133
-202.363	800.000	-0.124	0.338
-201.348	193.041	0.085	0.126
-200.333	-56.420	0.219	-0.095
-199.319	-170.030	0.059	-0.002
-198.304	577.637	0.200	-0.480
-197.290	-41.907	-0.285	-0.143
-196.275	-84.335	0.233	-0.072
-195.260	800.000	0.049	-0.159
-194.246	-200.000	0.006	0.239
-193.231	-29.291	0.232	-0.130
-192.217	-200.000	0.007	-0.389
-191.202	173.367	0.119	-0.169
-190.187	800.000	0.123	0.375
-189.173	377.923	0.255	0.510
-188.158	93.227	-0.117	0.130
-187.144	55.302	-0.313	0.296
-186.129	-122.650	0.301	-0.048
-185.114	61.536	0.107	-0.104
-184.100	64.170	-0.217	-0.214
-183.085	206.111	0.110	0.168
-182.071	270.183	-0.068	0.116
-181.056	-200.000	-0.012	-0.343
-180.042	58.656	0.156	0.150
-179.027	130.617	0.272	-0.342
-178.012	39.433	-0.268	-0.235
-176.998	310.462	0.218	0.399
-175.983	-93.620	0.172	-0.046
-174.969	632.329	0.036	0.090
-173.954	42.818	0.149	0.133
-172.939	68.534	-0.269	0.270
-171.925	42.367	-0.070	-0.062
-170.910	541.958	0.019	0.043
-169.896	47.686	0.107	0.098
-168.881	134.326	-0.173	0.220
-167.866	-74.467	0.311	-0.110
-166.852	-200.000	-0.023	-0.677
-165.837	103.642	-0.183	-0.210
-164.823	-113.654	0.316	0.060
-163.808	77.573	-0.163	-0.170
-162.793	-33.150	0.185	0.101
-161.779	615.981	0.042	0.103
-160.764	800.000	-0.083	0.264
-159.750	341.767	-0.067	-0.128
-158.735	47.186	-0.100	-0.091
-157.720	-104.005	-0.203	0.046
-156.706	106.428	0.103	-0.119
-155.691	-13.622	-0.085	0.054
-154.677	-93.422	0.168	0.046
-153.662	-26.266	0.243	0.140
-152.647	61.475	0.181	0.177
-151.633	282.356	-0.070	0.123
-150.618	-53.408	-0.142	0.064
-149.604	-168.522	0.311	-0.012
-148.589	-157.997	0.428	0.025
-147.574	-156.908	-0.412	0.025
-146.560	48.589	0.069	0.064
-145.545	-162.895	-0.179	-0.009
-144.531	-81.146	0.324	-0.105
-143.516	-40.383	0.181	0.092
-142.502	-41.908	-0.098	0.049
-141.487	-200.000	-0.053	-0.314
-140.472	-17.096	0.083	-0.051
-139.458	-131.493	0.244	-0.032
-138.443	176.609	-0.175	-0.248
-137.429	264.178	0.086	0.147
-136.414	-51.205	-0.069	-0.032
-135.399	128.948	-0.068	-0.085
-134.385	-41.938	0.178	0.089
-133.370	-135.696	-0.152	0.018
-132.356	13.294	0.166	0.126
-131.341	-129.464	0.233	-0.032
-130.326	-42.452	0.172	-0.086
-129.312	-200.000	-0.019	0.581
-128.297	-200.000	0.044	0.207
-127.283	450.500	0.171	0.368
-126.268	653.410	0.029	-0.071
-125.253	-135.571	-0.232	-0.027
-124.239	131.918	-0.081	-0.102
-123.224	464.686	-0.118	0.259
-122.210	-36.952	-0.201	-0.105
-121.195	-200.000	-0.013	0.091
