DTS Sentinel unit serial number:	SN413079Multiplexer serial number:	ORYXHardware model number:	OX4-SRSoftware version number:	ORYX F/W v4.00 Oryx Data Collector v3.7.2.0data status	okinstallation	princeton_trtdifferential loss correction	single-endedforward channel	channel 3reverse channel	N/Adate	2019/09/14time	18:44:34forward acquisition time	60.00reverse acquisition time	0.00gamma	496.2192k internal	0.2305k external	0.2305temperature offset calibration	1.0020default loss term (dB/km)	0.3790temperature slope calibration	1.0000multiplexer offset coefficient	1.0000multiplexer slope coefficient	1.0000fibre end	0.00T internal ref (°C)	36.12T ext. ref 1 (°C)	4.91T ext. ref 2 (°C)	29.86length (m)	temperature (°C)	Stokes	anti-Stokes-747.200	-169.666	0.151	0.006
-746.185	-32.267	-0.166	0.094
-745.171	800.000	0.113	-0.426
-744.156	-43.309	-0.243	-0.125
-743.142	-122.714	-0.098	-0.016
-742.127	86.741	-0.276	0.310
-741.112	800.000	0.039	-0.123
-740.098	167.543	0.056	0.080
-739.083	-200.000	-0.041	0.210
-738.069	145.172	-0.152	0.207
-737.054	-152.750	-0.401	0.029
-736.039	-33.272	0.098	0.055
-735.025	410.520	-0.077	-0.166
-734.010	127.778	-0.211	-0.273
-732.996	-200.000	-0.016	-0.173
-731.981	-116.620	0.205	-0.038
-730.966	-74.748	-0.189	-0.069
-729.952	-5.820	-0.248	0.173
-728.937	-56.871	-0.140	0.063
-727.923	-200.000	-0.005	-0.162
-726.908	-176.391	-0.087	0.002
-725.894	-91.156	0.284	-0.083
-724.879	-200.000	0.003	-0.262
-723.864	-200.000	0.019	-0.131
-722.850	475.919	0.079	-0.182
-721.835	-200.000	-0.031	-0.269
-720.821	-95.829	0.347	-0.094
-719.806	800.000	-0.021	-0.089
-718.791	138.675	-0.275	-0.368
-717.777	-110.172	0.202	-0.043
-716.762	-115.352	-0.382	0.073
-715.748	103.338	-0.157	-0.187
-714.733	-68.207	-0.140	-0.055
-713.718	243.429	-0.219	-0.373
-712.704	-12.576	0.025	0.017
-711.689	-164.445	0.058	-0.003
-710.675	-49.810	0.289	0.139
-709.660	-200.000	0.003	0.073
-708.645	-168.860	0.208	0.008
-707.631	800.000	-0.089	-0.295
-706.616	-200.000	0.001	-0.284
-705.602	8.781	0.162	0.124
-704.587	-200.000	-0.093	-0.550
-703.572	289.985	0.164	-0.302
-702.558	292.969	-0.100	-0.186
-701.543	-200.000	0.076	-0.452
-700.529	96.004	-0.257	-0.298
-699.514	168.348	-0.084	0.122
-698.499	6.871	-0.179	-0.135
-697.485	-95.550	-0.064	0.017
-696.470	-151.918	-0.400	-0.030
-695.456	-151.244	0.361	0.027
-694.441	-142.014	-0.289	-0.029
-693.426	-76.780	-0.127	0.045
-692.412	-111.787	-0.165	-0.034
-691.397	-35.514	-0.129	0.071
-690.383	-9.100	-0.064	0.044
-689.368	202.921	0.076	-0.119
-688.354	800.000	0.105	-0.314
-687.339	87.017	0.070	0.078
-686.324	133.927	-0.097	0.128
-685.310	703.704	0.062	-0.166
-684.295	11.401	-0.023	0.018
-683.281	-93.853	0.177	-0.049
-682.266	-200.000	-0.012	0.285
-681.251	-175.846	-0.185	0.005
-680.237	-200.000	0.047	0.480
-679.222	89.693	0.075	0.085
-678.208	-40.270	-0.235	0.124
-677.193	343.061	0.106	-0.210
-676.178	-1.370	0.139	-0.099
-675.164	-63.189	-0.132	0.055
-674.149	44.869	-0.321	-0.300
-673.135	62.990	-0.279	-0.284
-672.120	0.576	-0.129	-0.094
-671.105	-25.519	-0.113	-0.068
-670.091	-200.000	-0.017	-0.080
-669.076	-200.000	0.000	-0.063
-668.062	800.000	0.060	-0.253
-667.047	-153.926	-0.026	-0.002
-666.032	141.477	0.167	-0.225
-665.018	-200.000	0.012	0.079
-664.003	196.911	0.191	0.295
-662.989	15.899	-0.134	0.107
-661.974	-60.830	-0.108	0.046
-660.959	-46.570	-0.405	0.202
-659.945	194.793	-0.103	-0.158
-658.930	-127.443	0.131	-0.019
-657.916	443.136	-0.115	0.255
-656.901	-190.268	-0.331	0.004
-655.886	473.783	0.058	0.133
-654.872	-73.601	0.424	0.157
-653.857	173.167	-0.169	-0.246
-652.843	-200.000	-0.019	-0.212
-651.828	37.648	-0.153	-0.138
-650.814	164.921	-0.161	-0.231
-649.799	100.242	0.070	0.082
-648.784	-102.868	-0.364	0.088
-647.770	118.782	0.143	-0.179
-646.755	-114.970	-0.528	0.102
-645.741	-200.000	0.037	-0.212
-644.726	64.899	0.109	-0.111
-643.711	-200.000	0.021	-0.232
-642.697	-144.222	0.348	0.033
-641.682	-68.297	-0.118	-0.046
-640.668	800.000	-0.060	0.202
-639.653	78.186	0.121	0.131
-638.638	-130.271	-0.125	-0.017
-637.624	178.532	0.152	0.225
-636.609	225.888	0.100	0.165
-635.595	-68.219	-0.198	-0.078
-634.580	-155.293	-0.333	0.022
-633.565	242.138	-0.011	-0.019
-632.551	-66.588	-0.133	-0.054
-631.536	11.595	0.248	0.193
-630.522	-24.284	0.177	0.107
-629.507	800.000	0.054	0.190
-628.492	-42.211	0.167	0.086
-627.478	-200.000	-0.004	0.164
-626.463	-200.000	-0.027	0.401
-625.449	15.805	0.096	-0.076
-624.434	129.600	0.250	0.323
-623.419	130.749	0.173	0.225
-622.405	-61.153	0.144	0.061
-621.390	242.150	0.181	-0.307
-620.376	800.000	0.065	0.275
-619.361	-105.569	0.189	0.044
-618.346	-50.035	-0.270	0.130
-617.332	-28.783	-0.046	0.027
-616.317	-200.000	0.066	-0.310
-615.303	800.000	-0.027	-0.087
-614.288	-112.257	0.191	0.039
-613.273	131.335	-0.109	-0.142
-612.259	140.231	-0.273	0.364
-611.244	800.000	0.034	-0.143
-610.230	-200.000	0.014	-0.120
-609.215	-200.000	-0.002	-0.072
-608.201	761.879	0.097	-0.267
-607.186	58.513	0.285	0.283
-606.171	-200.000	0.028	0.136
-605.157	3.562	-0.463	0.342
-604.142	-200.000	0.059	0.266
-603.128	-194.218	-0.098	-0.001
-602.113	800.000	-0.088	0.263
-601.098	-113.338	-0.116	0.023
-600.084	322.573	-0.138	-0.265
-599.069	800.000	-0.049	-0.151
-598.055	723.804	0.113	-0.304
-597.040	800.000	-0.014	0.041
-596.025	363.922	-0.129	-0.262
-595.011	64.055	-0.282	-0.287
-593.996	-96.256	-0.262	-0.070
-592.982	-172.736	0.100	-0.003
-591.967	-91.294	0.380	0.110
-590.952	119.934	-0.027	0.034
-589.938	-200.000	-0.026	-0.179
-588.923	71.398	-0.290	-0.305
-587.909	252.680	-0.232	0.400
-586.894	357.672	-0.078	0.158
-585.879	-3.473	-0.021	-0.015
-584.865	96.179	-0.114	-0.132
-583.850	-200.000	0.037	-0.203
-582.836	392.985	-0.101	-0.212
-581.821	-147.757	-0.159	0.013
-580.806	22.872	-0.041	-0.034
-579.792	549.821	-0.070	-0.169
-578.777	-10.613	-0.300	-0.201
-577.763	-174.564	0.190	0.005
-576.748	-100.679	0.192	-0.048
-575.733	-106.704	-0.265	-0.059
-574.719	6.988	0.323	0.244
-573.704	800.000	0.068	0.243
-572.690	49.598	0.118	-0.113
-571.675	718.659	-0.047	-0.127
-570.661	-100.024	0.195	-0.049
-569.646	48.305	-0.130	-0.123
-568.631	-90.752	0.219	0.064
-567.617	800.000	-0.041	-0.125
-566.602	595.719	0.060	-0.149
-565.588	-200.000	0.044	0.000
-564.573	-200.000	-0.004	0.205
-563.558	13.875	-0.189	-0.149
-562.544	-93.721	0.247	-0.069
-561.529	800.000	-0.041	-0.148
-560.515	-56.340	-0.331	-0.149
-559.500	95.091	0.217	-0.249
-558.485	-126.835	-0.142	0.021
-557.471	800.000	0.042	-0.147
-556.456	644.807	-0.015	0.040
-555.442	164.110	-0.059	0.084
-554.427	69.233	-0.220	0.229
-553.412	-80.977	-0.067	-0.022
-552.398	-155.469	-0.081	0.005
-551.383	-126.865	-0.327	-0.049
-550.369	-91.507	-0.147	0.042
-549.354	-156.365	-0.209	-0.013
-548.339	1.287	-0.077	-0.056
-547.325	276.618	0.129	0.231
-546.310	-21.572	0.134	0.082
-545.296	226.471	0.157	-0.258
-544.281	761.557	-0.120	0.330
-543.266	800.000	-0.016	-0.066
-542.252	416.518	-0.183	0.395
-541.237	-19.037	0.191	-0.120
-540.223	112.315	-0.072	0.088
-539.208	-13.923	0.370	0.242
-538.193	157.951	-0.103	0.143
-537.179	304.516	0.149	-0.279
-536.164	76.396	-0.026	-0.028
-535.150	-20.460	0.234	-0.145
-534.135	-200.000	0.014	-0.155
-533.121	800.000	-0.072	-0.205
-532.106	800.000	-0.121	0.346
-531.091	83.003	0.226	-0.248
-530.077	143.720	-0.080	0.108
-529.062	-9.167	0.279	0.188
-528.048	-200.000	0.014	-0.163
-527.033	800.000	-0.089	-0.276
-526.018	-140.684	0.157	0.016
-525.004	-51.323	-0.260	0.123
-523.989	26.283	-0.163	-0.138
-522.975	800.000	0.048	-0.211
-521.960	14.888	0.146	-0.115
-520.945	-200.000	0.025	0.175
-519.931	-159.021	-0.219	0.013
-518.916	0.430	-0.114	-0.082
-517.902	-42.766	-0.118	0.061
-516.887	518.567	0.070	-0.164
-515.872	161.320	0.165	-0.232
-514.858	266.621	0.117	-0.206
-513.843	-200.000	0.021	0.184
-512.829	244.768	0.199	-0.338
-511.814	-102.331	0.076	0.018
-510.799	-149.401	-0.059	0.005
-509.785	297.082	-0.130	-0.240
-508.770	557.740	0.076	0.185
-507.756	117.955	0.160	0.199
-506.741	-100.397	0.267	-0.067
-505.726	-32.246	-0.245	-0.138
-504.712	-200.000	-0.019	0.217
-503.697	75.424	-0.148	-0.158
-502.683	-114.851	0.265	-0.051
-501.668	800.000	0.069	-0.289
-500.653	-200.000	0.014	0.089
-499.639	83.647	0.044	-0.049
-498.624	800.000	0.031	0.126
-497.610	-120.803	0.197	-0.034
-496.595	800.000	0.068	-0.219
-495.581	13.568	0.102	0.080
-494.566	25.872	-0.078	0.066
-493.551	-115.784	-0.188	-0.036
-492.537	60.275	-0.123	0.122
-491.522	60.043	0.231	-0.231
-490.508	124.259	0.035	-0.044
-489.493	281.524	-0.066	0.120
-488.478	35.825	-0.093	0.082
-487.464	800.000	-0.086	-0.368
-486.449	-61.721	-0.248	0.105
-485.435	78.862	0.163	0.175
-484.420	-200.000	0.047	0.297
-483.405	-200.000	-0.020	-0.175
-482.391	800.000	-0.103	-0.308
-481.376	-100.472	0.230	-0.057
-480.362	77.417	-0.078	-0.084
-479.347	-200.000	-0.023	-0.274
-478.332	76.728	0.033	-0.035
-477.318	-187.001	-0.166	0.002
-476.303	800.000	-0.042	-0.119
-475.289	-16.384	-0.152	0.097
-474.274	-200.000	-0.045	0.252
-473.259	418.316	-0.059	-0.127
-472.245	-104.785	-0.109	-0.025
-471.230	-94.156	0.251	0.069
-470.216	-153.815	-0.084	-0.006
-469.201	-4.149	-0.221	-0.154
-468.186	-200.000	-0.014	-0.128
-467.172	-100.866	-0.273	-0.068
-466.157	-33.386	-0.131	-0.073
-465.143	-79.154	-0.217	-0.074
-464.128	-119.973	0.111	-0.019
-463.113	515.812	0.196	-0.461
-462.099	32.833	-0.168	0.146
-461.084	-137.680	-0.227	0.026
-460.070	-51.865	0.157	0.074
-459.055	-200.000	-0.032	0.185
-458.040	-8.565	-0.129	-0.087
-457.026	-200.000	-0.084	0.399
-456.011	800.000	-0.014	0.058
-454.997	-200.000	0.012	-0.145
-453.982	-25.645	0.080	0.047
-452.968	95.505	-0.154	-0.176
-451.953	54.724	0.074	-0.072
-450.938	557.748	-0.144	-0.351
-449.924	-125.325	0.475	-0.073
-448.909	-100.485	0.169	0.042
-447.895	321.574	-0.039	0.075
-446.880	-85.755	0.350	-0.109
-445.865	95.489	-0.217	0.249
-444.851	-38.066	0.217	0.116
-443.836	-200.000	-0.022	-0.101
-442.822	-20.288	0.247	-0.153
-441.807	-102.371	-0.082	0.020
-440.792	606.464	-0.174	-0.437
-439.778	-200.000	0.001	-0.058
-438.763	-10.305	0.363	-0.242
-437.749	-107.332	0.297	0.066
-436.734	24.920	0.373	0.311
-435.719	88.137	-0.111	0.124
-434.705	-200.000	-0.011	-0.148
-433.690	-11.528	-0.108	0.071
-432.676	800.000	-0.131	0.452
-431.661	698.912	-0.021	-0.055
-430.646	121.033	0.084	-0.105
-429.632	475.456	0.125	0.284
-428.617	-200.000	0.050	0.223
-427.603	57.368	0.063	0.062
-426.588	766.075	0.097	-0.264
-425.573	-40.154	-0.074	0.039
-424.559	-176.516	0.174	-0.005
-423.544	134.693	-0.173	-0.225
-422.530	562.407	-0.180	0.437
-421.515	473.910	0.076	0.173
-420.500	-38.723	0.220	-0.117
-419.486	5.298	-0.124	-0.092
-418.471	655.141	-0.080	-0.208
-417.457	-66.364	-0.229	0.092
-416.442	123.920	0.093	0.117
-415.428	-35.598	0.258	-0.141
-414.413	280.156	-0.054	0.097
-413.398	-59.145	0.215	0.093
-412.384	-184.058	-0.305	0.005
-411.369	-117.866	0.298	-0.054
-410.355	180.669	0.276	0.407
-409.340	-45.713	-0.193	0.096
-408.325	-77.048	0.183	-0.064
-407.311	-200.000	0.007	-0.054
-406.296	-174.387	0.105	0.003
-405.282	127.545	-0.207	0.265
-404.267	800.000	-0.018	0.065
-403.252	12.301	-0.053	0.041
-402.238	-200.000	-0.003	-0.223
-401.223	-105.412	-0.458	0.105
-400.209	23.508	-0.052	-0.043
-399.194	-200.000	0.044	-0.240
-398.179	540.614	0.029	-0.069
-397.165	85.798	0.111	-0.123
-396.150	800.000	-0.012	0.041
-395.136	-37.159	0.078	-0.042
-394.121	2.188	-0.146	-0.106
-393.106	99.299	0.133	-0.155
-392.092	-49.959	-0.147	0.070
-391.077	-200.000	-0.010	-0.186
-390.063	1.614	0.145	-0.104
-389.048	-200.000	0.022	0.101
-388.033	274.821	0.051	-0.091
-387.019	78.530	-0.114	-0.122
-386.004	-200.000	-0.047	-0.274
-384.990	638.776	0.209	-0.534
-383.975	-16.018	-0.158	0.101
-382.960	-57.959	0.154	0.067
-381.946	-57.834	0.143	-0.063
-380.931	-23.131	-0.192	0.116
-379.917	800.000	-0.086	-0.265
-378.902	-88.913	0.125	-0.037
-377.888	54.299	-0.174	-0.168
-376.873	-75.617	-0.191	-0.068
-375.858	-200.000	-0.072	-0.391
-374.844	-9.998	0.253	-0.169
-373.829	-16.779	-0.138	-0.087
-372.815	-43.650	0.082	-0.041
-371.800	137.500	-0.242	0.317
-370.785	-82.539	-0.402	0.131
-369.771	-113.406	-0.248	-0.049
-368.756	-37.533	-0.056	0.030
-367.742	800.000	-0.091	-0.298
-366.727	-33.943	0.186	-0.102
-365.712	800.000	-0.047	0.161
-364.698	-46.044	-0.236	-0.117
-363.683	170.670	0.151	-0.217
-362.669	-69.564	-0.141	-0.054
-361.654	38.536	0.009	0.008
-360.639	-200.000	0.000	0.131
-359.625	-200.000	-0.009	-0.366
-358.610	166.366	0.076	-0.107
-357.596	-200.000	0.008	0.176
-356.581	-153.071	-0.238	-0.017
-355.566	12.981	-0.184	-0.143
-354.552	73.587	0.143	-0.151
-353.537	-105.642	0.436	0.099
-352.523	-200.000	-0.009	-0.061
-351.508	800.000	-0.012	0.036
-350.493	24.431	-0.215	0.178
-349.479	-135.450	0.225	-0.027
-348.464	494.840	-0.051	-0.118
-347.450	-55.812	0.165	0.074
-346.435	8.067	-0.173	0.130
-345.420	331.300	-0.090	0.174
-344.406	-200.000	-0.036	-0.240
-343.391	28.535	0.201	0.170
-342.377	-200.000	-0.054	0.255
-341.362	-27.696	0.298	0.173
-340.348	-55.584	-0.117	-0.053
-339.333	56.017	-0.234	0.228
-338.318	415.007	-0.082	0.175
-337.304	262.451	-0.090	-0.156
-336.289	-200.000	-0.071	0.399
-335.275	800.000	-0.022	0.088
-334.260	285.107	-0.163	0.294
-333.245	147.095	0.073	0.098
-332.231	800.000	-0.118	0.367
-331.216	800.000	0.099	0.307
-330.202	-200.000	0.048	0.275
-329.187	189.751	-0.286	-0.430
-328.172	-62.872	-0.150	0.062
-327.158	-200.000	0.005	0.135
-326.143	-200.000	0.012	0.201
-325.129	65.396	0.100	0.102
-324.114	-118.193	0.441	-0.079
-323.099	-49.444	0.077	0.037
-322.085	-151.185	0.118	0.009
-321.070	446.727	0.096	-0.212
-320.056	-20.556	0.168	0.103
-319.041	-5.909	-0.351	-0.241
-318.026	-45.825	0.287	-0.142
-317.012	-109.006	-0.080	-0.017
-315.997	-34.848	0.247	-0.135
-314.983	12.161	-0.109	0.084
-313.968	423.434	0.077	-0.166
-312.953	318.303	0.151	-0.287
-311.939	-73.828	0.324	-0.118
-310.924	300.041	0.112	0.206
-309.910	-63.811	0.289	-0.118
-308.895	541.681	-0.058	0.139
-307.880	341.430	-0.092	-0.180
-306.866	800.000	-0.042	-0.147
-305.851	780.156	0.079	-0.216
-304.837	-132.157	0.255	0.033
-303.822	800.000	-0.042	0.156
-302.807	-40.552	-0.227	0.118
-301.793	44.496	0.056	-0.052
-300.778	-18.044	-0.305	-0.191
-299.764	-200.000	0.001	0.183
-298.749	800.000	-0.033	-0.139
-297.735	303.956	-0.136	0.252
-296.720	593.607	-0.139	0.344
-295.705	91.133	-0.131	-0.147
-294.691	139.436	-0.059	-0.077
-293.676	52.378	0.158	-0.151
-292.662	-46.126	0.156	-0.077
-291.647	-49.579	-0.280	-0.133
-290.632	800.000	0.061	-0.175
-289.618	-200.000	-0.004	-0.259
-288.603	-160.590	-0.043	0.002
-287.589	-200.000	-0.028	0.217
-286.574	-78.847	-0.200	-0.068
-285.559	60.426	0.197	-0.195
-284.545	-69.011	0.212	0.082
-283.530	-84.118	0.372	-0.118
-282.516	215.245	-0.033	-0.052
-281.501	-200.000	-0.020	0.394
-280.486	116.232	0.081	-0.099
-279.472	-68.639	0.300	0.116
-278.457	-9.286	-0.226	-0.151
-277.443	-29.357	0.123	-0.070
-276.428	-200.000	-0.047	-0.376
-275.413	-57.076	-0.264	0.116
-274.399	-200.000	-0.005	0.091
-273.384	100.979	-0.125	-0.145
-272.370	-200.000	-0.026	0.175
-271.355	9.514	0.134	-0.102
-270.340	-72.508	-0.326	-0.120
-269.326	-18.278	-0.095	-0.059
-268.311	-200.000	-0.012	0.260
-267.297	800.000	0.061	-0.221
-266.282	-58.390	-0.179	-0.078
-265.267	800.000	0.041	0.169
-264.253	-133.476	0.126	0.016
-263.238	-72.405	0.236	-0.087
-262.224	-70.768	0.209	0.079
-261.209	-103.488	-0.110	0.026
-260.195	800.000	0.008	-0.023
-259.180	-200.000	-0.031	0.189
-258.165	-73.653	0.206	0.075
-257.151	800.000	-0.071	0.233
-256.136	-151.357	0.117	-0.009
-255.122	800.000	-0.087	-0.313
-254.107	517.630	0.102	-0.239
-253.092	85.038	0.116	0.127
-252.078	172.365	0.118	0.169
-251.063	-164.429	-0.069	-0.003
-250.049	257.723	-0.146	0.251
-249.034	-87.741	0.296	-0.089
-248.019	301.133	-0.123	0.228
-247.005	-133.248	-0.162	0.020
-245.990	-105.007	-0.050	-0.011
-244.976	387.850	-0.111	-0.229
-243.961	-36.378	-0.048	0.026
-242.946	-200.000	0.061	0.320
-241.932	800.000	-0.034	-0.100
-240.917	-162.204	0.131	-0.007
-239.903	26.950	0.166	0.139
-238.888	-200.000	0.004	-0.041
-237.873	65.154	0.221	0.223
-236.859	-88.827	0.025	-0.007
-235.844	-80.962	0.228	-0.075
-234.830	-84.674	-0.364	0.114
-233.815	800.000	-0.047	-0.146
-232.800	185.368	-0.035	-0.052
-231.786	257.298	-0.243	0.417
-230.771	800.000	0.007	-0.022
-229.757	800.000	-0.028	0.124
-228.742	-200.000	-0.015	-0.273
-227.727	25.667	-0.158	0.131
-226.713	-108.054	0.101	-0.022
-225.698	47.601	0.128	-0.119
-224.684	-46.007	-0.245	-0.120
-223.669	-103.758	-0.188	-0.044
-222.655	-138.580	0.168	0.018
-221.640	11.761	0.240	-0.184
-220.625	194.096	-0.169	0.256
-219.611	-15.723	-0.235	0.150
-218.596	7.892	-0.093	0.070
-217.582	800.000	0.133	0.540
-216.567	-200.000	-0.044	0.246
-215.552	-75.456	0.230	0.082
-214.538	-58.272	0.289	0.126
-213.523	-6.001	-0.150	0.102
-212.509	129.342	-0.280	0.356
-211.494	30.035	0.342	-0.290
-210.479	-154.461	0.136	-0.009
-209.465	-200.000	-0.035	0.210
-208.450	-96.248	-0.161	-0.043
-207.436	800.000	0.063	0.219
-206.421	800.000	-0.100	0.366
-205.406	-200.000	0.019	-0.092
-204.392	-147.445	-0.190	0.016
-203.377	800.000	-0.059	0.211
-202.363	194.731	0.118	-0.178
-201.348	-156.317	0.210	0.013
-200.333	-49.797	0.016	0.008
-199.319	14.519	-0.215	0.167
-198.304	-200.000	0.012	-0.372
-197.290	604.848	-0.046	0.113
-196.275	5.969	0.362	-0.267
-195.260	-6.680	0.110	0.074
-194.246	-106.354	-0.135	-0.030
-193.231	800.000	-0.057	0.204
-192.217	428.488	0.043	0.091
-191.202	-200.000	0.020	-0.146
-190.187	122.529	-0.066	-0.083
-189.173	-200.000	0.006	0.300
-188.158	-200.000	-0.003	0.154
-187.144	-200.000	0.021	-0.132
-186.129	14.435	-0.050	0.039
-185.114	-200.000	0.011	0.302
-184.100	-126.689	0.304	-0.045
-183.085	-129.907	-0.297	-0.041
-182.071	154.314	0.058	0.079
-181.056	-105.628	0.212	0.048
-180.042	15.324	-0.165	-0.129
-179.027	-106.020	0.181	-0.041
-178.012	-200.000	0.004	0.264
-176.998	225.260	0.066	0.107
-175.983	319.139	-0.093	-0.175
-174.969	104.313	-0.131	0.153
-173.954	215.712	-0.101	0.160
-172.939	-37.774	-0.348	-0.184
-171.925	235.330	-0.116	0.190
-170.910	24.447	0.088	-0.073
-169.896	47.093	0.290	-0.269
-168.881	-100.501	0.205	-0.050
-167.866	50.721	-0.142	-0.134
-166.852	-200.000	0.007	0.179
-165.837	6.448	0.106	-0.078
-164.823	43.959	-0.139	-0.127
-163.808	-200.000	0.041	0.220
-162.793	-200.000	-0.020	-0.197
-161.779	-68.341	0.225	0.087
-160.764	12.928	0.132	-0.102
-159.750	66.992	-0.063	-0.064
-158.735	41.323	0.192	0.173
-157.720	-200.000	-0.040	-0.293
-156.706	319.577	0.237	0.448
-155.691	800.000	-0.071	0.226
-154.677	-186.419	-0.254	-0.004
-153.662	86.518	-0.283	0.310
-152.647	93.958	0.100	0.112
-151.633	-200.000	0.044	-0.219
-150.618	-68.505	0.086	0.033
-149.604	-82.430	-0.113	0.037
-148.589	-1.008	-0.041	-0.029
-147.574	51.989	0.120	0.114
-146.560	800.000	0.059	-0.214
-145.545	-57.922	-0.202	0.088
-144.531	149.527	-0.158	0.213
-143.516	-29.087	-0.157	0.089
-142.502	216.819	-0.153	0.242
-141.487	50.900	0.573	0.539
-140.472	207.566	-0.132	0.205
-139.458	-200.000	-0.036	0.272
-138.443	-17.864	0.294	-0.183
-137.429	-200.000	-0.057	0.331
-136.414	291.720	-0.073	-0.133
-135.399	-93.803	-0.144	0.039
-134.385	-132.259	-0.096	0.012
-133.370	800.000	0.038	-0.108
-132.356	150.717	0.191	-0.258
-131.341	-167.776	0.133	-0.005
-130.326	139.963	0.165	-0.217
-129.312	-61.143	-0.292	0.122
-128.297	-200.000	-0.020	0.258
-127.283	-89.904	-0.166	0.048
-126.268	800.000	-0.033	-0.142
-125.253	-9.086	-0.421	-0.280
-124.239	-200.000	-0.076	0.364
-123.224	-113.420	0.218	0.042
-122.210	0.967	0.286	-0.203
