DTS Sentinel unit serial number:	SN413079Multiplexer serial number:	ORYXHardware model number:	OX4-SRSoftware version number:	ORYX F/W v4.00 Oryx Data Collector v3.7.2.0data status	okinstallation	princeton_trtdifferential loss correction	single-endedforward channel	channel 3reverse channel	N/Adate	2019/09/12time	19:07:03forward acquisition time	15.00reverse acquisition time	0.00gamma	496.2192k internal	0.2319k external	0.2319temperature offset calibration	1.0103default loss term (dB/km)	0.3790temperature slope calibration	1.0000multiplexer offset coefficient	1.0000multiplexer slope coefficient	1.0000fibre end	0.00T internal ref (°C)	32.62T ext. ref 1 (°C)	3.10T ext. ref 2 (°C)	27.20length (m)	temperature (°C)	Stokes	anti-Stokes-747.200	134.844	0.376	0.494
-746.185	34.431	0.273	-0.241
-745.171	-56.007	0.686	0.309
-744.156	26.817	0.504	-0.427
-743.142	87.487	0.429	-0.480
-742.127	-200.000	-0.005	-0.479
-741.112	88.087	-0.271	0.304
-740.098	318.011	0.553	1.059
-739.083	-200.000	-0.097	-0.529
-738.069	-99.331	0.245	0.062
-737.054	-3.759	-0.354	-0.249
-736.039	21.033	-0.236	0.194
-735.025	-29.329	0.118	0.068
-734.010	563.441	-0.293	0.718
-732.996	481.131	-0.264	0.606
-731.981	-141.025	0.539	-0.056
-730.966	250.367	-0.617	-1.060
-729.952	-36.977	-0.443	0.240
-728.937	-89.271	0.907	0.270
-727.923	270.381	0.207	0.369
-726.908	26.298	1.048	0.885
-725.894	-120.881	-0.874	0.149
-724.879	-75.281	0.222	0.080
-723.864	-33.502	-0.171	0.096
-722.850	-101.359	-0.439	-0.108
-721.835	-0.685	-0.701	-0.503
-720.821	120.398	0.424	0.532
-719.806	-51.095	-1.008	0.478
-718.791	-85.446	-0.222	0.070
-717.777	461.516	0.273	0.615
-716.762	800.000	-0.111	0.386
-715.748	800.000	-0.088	-0.385
-714.733	22.970	0.566	-0.469
-713.718	800.000	0.110	0.397
-712.704	320.770	0.216	-0.415
-711.689	-96.960	0.454	0.120
-710.675	90.773	0.253	0.286
-709.660	169.258	0.385	0.555
-708.645	216.657	0.237	0.380
-707.631	-14.891	0.273	0.177
-706.616	-200.000	0.009	-0.224
-705.602	79.875	-0.294	-0.319
-704.587	146.626	-0.274	0.371
-703.572	-53.237	-0.513	0.238
-702.558	342.625	-0.213	-0.421
-701.543	38.349	0.345	-0.311
-700.529	-92.843	0.442	0.125
-699.514	-200.000	0.113	-0.545
-698.499	800.000	-0.176	0.707
-697.485	800.000	-0.038	0.146
-696.470	217.626	-0.274	-0.440
-695.456	-139.333	0.693	-0.075
-694.441	35.964	0.143	-0.127
-693.426	-200.000	0.035	0.737
-692.412	-53.282	0.265	-0.123
-691.397	20.469	0.545	0.445
-690.383	360.354	0.266	0.537
-689.368	77.034	0.639	0.686
-688.354	487.494	-0.358	-0.825
-687.339	769.617	0.216	-0.594
-686.324	-132.442	0.230	0.030
-685.310	-65.659	0.492	-0.199
-684.295	-79.639	-0.227	-0.077
-683.281	-55.861	-0.568	0.256
-682.266	-1.624	-0.657	-0.467
-681.251	-77.996	0.364	0.127
-680.237	400.909	0.147	0.311
-679.222	-95.428	0.833	0.226
-678.208	-85.803	0.236	-0.074
-677.193	-200.000	-0.008	0.198
-676.178	-52.610	1.299	0.605
-675.164	-73.110	-0.318	-0.118
-674.149	430.399	-0.152	-0.331
-673.135	96.226	0.280	0.323
-672.120	746.643	0.031	0.083
-671.105	-18.552	0.435	0.274
-670.091	76.639	-0.567	0.607
-669.076	214.386	0.238	-0.381
-668.062	-94.509	-0.610	0.168
-667.047	518.093	-0.160	-0.378
-666.032	-200.000	0.013	-0.183
-665.018	49.202	-0.388	-0.368
-664.003	-200.000	0.016	-0.174
-662.989	451.875	0.259	0.577
-661.974	-200.000	-0.035	-0.370
-660.959	-140.275	-0.895	0.094
-659.945	-131.550	-0.204	-0.027
-658.930	338.239	0.150	0.294
-657.916	-31.175	0.117	0.066
-656.901	-98.368	0.146	0.038
-655.886	-158.944	0.300	-0.017
-654.872	-109.751	0.404	0.086
-653.857	228.823	-0.260	-0.428
-652.843	158.740	-0.141	-0.198
-651.828	-84.887	-0.749	0.237
-650.814	-34.276	-0.186	0.103
-649.799	-200.000	0.074	-0.733
-648.784	540.833	-0.480	1.152
-647.770	98.819	0.447	0.519
-646.755	-29.497	0.602	-0.347
-645.741	115.950	0.267	0.329
-644.726	-200.000	-0.066	-0.842
-643.711	-200.000	0.008	0.294
-642.697	586.381	-0.235	0.581
-641.682	160.272	0.200	0.281
-640.668	-58.238	0.383	-0.168
-639.653	-102.168	-0.464	0.112
-638.638	-101.355	0.919	-0.226
-637.624	89.624	0.238	0.268
-636.609	800.000	-0.124	-0.427
-635.595	82.423	0.169	0.184
-634.580	-200.000	0.113	-0.740
-633.565	-109.803	0.764	0.162
-632.551	-30.895	0.567	0.323
-631.536	108.166	0.236	0.283
-630.522	152.291	-0.164	0.226
-629.507	56.086	0.443	0.433
-628.492	-34.282	-0.591	0.326
-627.478	-200.000	0.098	-0.829
-626.463	-200.000	-0.109	-0.927
-625.449	-65.231	-0.662	0.269
-624.434	379.181	0.311	-0.641
-623.419	202.729	-0.288	-0.449
-622.405	800.000	0.173	-0.692
-621.390	800.000	0.100	-0.408
-620.376	800.000	0.181	0.536
-619.361	0.142	0.524	-0.376
-618.346	-131.162	-0.090	-0.012
-617.332	295.272	0.483	0.889
-616.317	268.403	0.279	0.492
-615.303	-200.000	0.047	-1.129
-614.288	763.336	0.094	0.258
-613.273	274.600	-0.109	-0.194
-612.259	-178.373	0.223	-0.005
-611.244	-168.239	-0.270	-0.011
-610.230	-78.046	0.076	0.026
-609.215	-81.582	-0.194	0.064
-608.201	-200.000	-0.047	0.676
-607.186	338.101	-0.240	0.470
-606.171	125.507	-0.578	0.733
-605.157	-30.560	-0.584	-0.333
-604.142	436.863	0.291	0.637
-603.128	-200.000	0.153	-1.094
-602.113	142.464	-0.268	-0.358
-601.098	-79.725	0.621	-0.210
-600.084	682.262	-0.305	0.801
-599.069	-109.089	-0.566	0.121
-598.055	-116.043	0.967	-0.181
-597.040	109.705	0.336	-0.406
-596.025	35.065	0.280	0.246
-595.011	-88.697	0.597	-0.179
-593.996	-165.434	0.726	-0.032
-592.982	-200.000	0.099	-0.505
-591.967	-11.906	1.135	0.748
-590.952	-200.000	0.059	0.610
-589.938	-200.000	0.036	0.365
-588.923	-200.000	-0.074	-0.411
-587.909	108.084	-0.200	-0.239
-586.894	65.671	0.278	-0.283
-585.879	579.089	-0.197	-0.486
-584.865	-200.000	0.145	0.902
-583.850	-10.458	-0.657	-0.438
-582.836	-51.534	0.692	-0.325
-581.821	266.334	-0.171	-0.300
-580.806	460.609	-0.109	-0.243
-579.792	294.326	-0.127	-0.234
-578.777	-106.702	0.728	0.163
-577.763	-179.594	0.408	0.009
-576.748	166.829	-0.068	-0.097
-575.733	-99.106	0.377	0.096
-574.719	-200.000	0.020	-0.383
-573.704	453.434	0.063	0.139
-572.690	-73.994	0.554	0.202
-571.675	229.064	-0.243	0.398
-570.661	738.672	0.337	0.908
-569.646	800.000	0.021	-0.083
-568.631	32.630	-0.077	-0.067
-567.617	334.952	-0.364	-0.709
-566.602	-75.909	-0.247	-0.088
-565.588	-73.382	-0.548	-0.201
-564.573	800.000	0.079	-0.341
-563.558	74.633	-0.457	0.482
-562.544	-111.126	-0.203	-0.042
-561.529	800.000	-0.148	0.509
-560.515	516.351	0.171	0.400
-559.500	800.000	0.133	-0.431
-558.485	800.000	-0.236	-0.945
-557.471	97.852	0.671	0.775
-556.456	-161.488	-0.679	-0.035
-555.442	458.782	0.117	0.261
-554.427	131.781	-0.490	0.633
-553.412	-200.000	-0.047	-0.363
-552.398	-56.826	0.808	0.359
-551.383	-78.918	-0.241	0.082
-550.369	800.000	0.097	-0.381
-549.354	-77.295	0.676	0.236
-548.339	332.993	-0.121	-0.235
-547.325	-200.000	0.082	0.370
-546.310	40.746	0.498	-0.451
-545.296	7.864	-0.227	-0.170
-544.281	116.497	-0.578	0.712
-543.266	2.329	0.106	-0.077
-542.252	-0.058	0.378	-0.270
-541.237	-88.059	0.506	0.152
-540.223	-46.626	-0.222	-0.109
-539.208	-128.714	0.381	0.054
-538.193	-200.000	-0.093	-0.830
-537.179	800.000	0.124	-0.395
-536.164	-52.672	0.511	0.237
-535.150	-100.453	0.841	0.209
-534.135	153.573	0.187	-0.257
-533.121	-200.000	0.098	0.919
-532.106	247.175	0.334	0.566
-531.091	7.426	0.028	0.021
-530.077	47.082	-0.400	0.373
-529.062	-74.916	0.579	-0.208
-528.048	77.824	-0.354	-0.378
-527.033	311.359	-0.503	0.946
-526.018	-58.115	-0.173	0.076
-525.004	-74.252	0.562	0.204
-523.989	-5.849	0.249	-0.171
-522.975	-118.618	-0.592	-0.105
-521.960	22.474	-0.514	-0.422
-520.945	-124.647	0.864	-0.134
-519.931	-103.632	0.311	-0.073
-518.916	-56.299	-0.446	-0.199
-517.902	-200.000	-0.041	0.880
-516.887	-12.313	-0.378	0.248
-515.872	-200.000	0.208	-1.068
-514.858	59.001	-0.522	0.515
-513.843	736.682	-0.247	0.664
-512.829	-107.421	-0.068	-0.015
-511.814	-170.785	0.327	0.011
-510.799	-59.930	-0.812	0.348
-509.785	-68.260	0.393	0.153
-508.770	75.462	-0.656	-0.694
-507.756	800.000	0.207	-0.823
-506.741	-102.391	0.356	-0.085
-505.726	375.930	-0.282	0.577
-504.712	452.372	-0.218	-0.483
-503.697	-116.851	0.125	0.023
-502.683	267.571	-0.326	0.572
-501.668	-200.000	-0.164	-0.826
-500.653	-200.000	-0.051	-0.955
-499.639	56.519	0.364	0.355
-498.624	-200.000	-0.013	0.106
-497.610	-110.612	-0.688	-0.143
-496.595	-99.719	-0.827	0.208
-495.581	800.000	-0.079	-0.338
-494.566	-41.467	-0.508	0.262
-493.551	-200.000	-0.063	-0.567
-492.537	-113.481	1.460	0.286
-491.522	107.208	0.519	0.618
-490.508	800.000	-0.081	0.234
-489.493	-200.000	0.035	0.574
-488.478	-6.253	0.360	0.246
-487.464	382.453	0.223	0.460
-486.449	-138.905	0.307	0.033
-485.435	-95.281	-0.895	0.241
-484.420	22.478	-0.419	-0.343
-483.405	-20.555	0.594	-0.366
-482.391	-102.015	-0.864	0.209
-481.376	-141.832	0.751	-0.075
-480.362	221.817	-0.316	0.509
-479.347	405.547	0.198	0.419
-478.332	131.986	0.100	-0.128
-477.318	-199.369	-0.672	0.004
-476.303	-200.000	-0.083	0.534
-475.289	193.656	0.252	-0.382
-474.274	-50.694	0.420	-0.198
-473.259	481.110	-0.277	0.629
-472.245	14.248	0.136	0.106
-471.230	22.138	-0.265	-0.217
-470.216	-122.628	0.762	-0.124
-469.201	35.962	-0.299	-0.264
-468.186	-164.177	0.534	0.025
-467.172	800.000	0.117	0.430
-466.157	72.800	0.189	0.197
-465.143	-200.000	-0.067	0.414
-464.128	37.523	-0.262	-0.232
-463.113	-200.000	0.072	0.458
-462.099	-200.000	0.177	1.004
-461.084	-120.381	-0.720	0.123
-460.070	52.648	-0.549	0.525
-459.055	501.992	0.262	0.605
-458.040	-77.216	-0.133	-0.046
-457.026	-200.000	0.059	-0.486
-456.011	-109.507	-0.498	0.105
-454.997	226.523	-0.101	-0.164
-453.982	-200.000	0.027	0.327
-452.968	-200.000	0.020	-0.199
-451.953	-200.000	-0.011	-0.153
-450.938	50.705	0.328	-0.310
-449.924	419.449	-0.140	0.301
-448.909	-85.647	-0.942	0.292
-447.895	800.000	-0.225	0.650
-446.880	226.774	0.109	0.177
-445.865	-60.643	1.069	-0.453
-444.851	-200.000	0.032	-0.570
-443.836	-19.043	0.295	-0.183
-442.822	-45.047	-0.795	0.395
-441.807	198.256	0.456	0.697
-440.792	-87.109	-0.282	0.086
-439.778	-200.000	-0.018	-0.403
-438.763	-97.629	-1.090	0.282
-437.749	-3.493	0.726	-0.505
-436.734	800.000	0.068	0.256
-435.719	-85.064	-0.652	0.204
-434.705	229.690	-0.211	0.344
-433.690	-108.873	-0.869	0.186
-432.676	70.000	-0.349	0.360
-431.661	87.278	-0.341	-0.377
-430.646	-83.544	-0.991	0.317
-429.632	34.957	0.051	-0.045
-428.617	-51.407	-0.193	0.090
-427.603	3.447	-0.528	-0.385
-426.588	13.579	0.371	-0.288
-425.573	-93.344	-0.567	0.157
-424.559	-200.000	0.097	0.576
-423.544	561.863	-0.362	-0.875
-422.530	-200.000	-0.033	-0.612
-421.515	-200.000	0.096	0.564
-420.500	51.178	0.546	-0.517
-419.486	800.000	0.295	-1.207
-418.471	103.720	-0.346	-0.406
-417.457	28.796	-0.553	-0.468
-416.442	-200.000	-0.040	0.888
-415.428	-166.173	0.975	0.041
-414.413	-117.549	0.651	0.117
-413.398	800.000	0.061	-0.267
-412.384	313.237	0.244	0.458
-411.369	-31.273	-0.912	0.513
-410.355	-76.297	-0.291	-0.103
-409.340	-200.000	0.027	-0.879
-408.325	161.021	-0.522	0.728
-407.311	-116.059	0.505	-0.094
-406.296	52.683	-0.811	0.773
-405.282	-135.481	-0.339	-0.040
-404.267	-87.849	0.253	-0.076
-403.252	-70.161	-0.220	0.084
-402.238	-112.561	0.655	-0.130
-401.223	204.154	0.273	0.423
-400.209	-85.880	0.411	-0.127
-399.194	331.673	0.023	-0.045
-398.179	526.105	-0.049	-0.115
-397.165	-58.225	0.708	0.308
-396.150	-105.900	0.219	0.049
-395.136	-79.821	0.471	-0.158
-394.121	-200.000	0.027	-0.463
-393.106	-50.320	0.267	0.126
-392.092	742.300	0.137	-0.368
-391.077	756.054	0.127	0.344
-390.063	563.786	0.168	-0.406
-389.048	800.000	-0.217	0.662
-388.033	79.112	-0.790	-0.844
-387.019	-20.513	-0.527	-0.323
-386.004	-14.734	-0.216	-0.138
-384.990	-200.000	-0.118	-0.793
-383.975	800.000	-0.314	-0.891
-382.960	-200.000	0.056	-0.439
-381.946	-66.869	0.733	0.289
-380.931	-200.000	0.070	0.384
-379.917	85.569	-0.698	-0.765
-378.902	91.201	-0.678	0.759
-377.888	12.833	-0.365	0.282
-376.873	48.761	0.105	-0.098
-375.858	224.999	0.061	-0.098
-374.844	122.609	-0.272	0.340
-373.829	159.288	0.174	-0.242
-372.815	271.284	-0.224	-0.393
-371.800	800.000	-0.127	0.504
-370.785	130.816	0.472	0.603
-369.771	-148.503	-0.090	0.007
-368.756	2.649	-0.322	0.233
-367.742	800.000	-0.028	0.088
-366.727	483.094	0.073	0.166
-365.712	-200.000	-0.104	-1.000
-364.698	800.000	0.266	0.848
-363.683	13.034	-0.543	-0.419
-362.669	-200.000	0.088	-0.781
-361.654	235.704	0.157	0.259
-360.639	-200.000	0.135	-1.025
-359.625	800.000	-0.220	-0.894
-358.610	-146.464	0.395	0.034
-357.596	172.023	-0.721	-1.033
-356.581	6.147	-0.187	-0.138
-355.566	-59.486	-0.209	0.089
-354.552	-47.336	0.311	-0.151
-353.537	-105.143	-0.301	-0.068
-352.523	-103.108	0.301	-0.071
-351.508	-164.702	0.443	-0.020
-350.493	-39.894	-0.710	0.369
-349.479	-17.331	0.437	0.274
-348.464	-58.785	0.356	-0.153
-347.450	55.075	0.206	0.198
-346.435	792.034	-0.170	0.466
-345.420	52.075	0.866	-0.822
-344.406	173.206	-0.120	-0.172
-343.391	-94.113	0.389	-0.106
-342.377	-87.890	0.573	-0.172
-341.362	-200.000	0.045	-0.265
-340.348	287.216	0.174	0.313
-339.333	-148.491	-1.169	0.095
-338.318	66.224	0.424	-0.429
-337.304	-200.000	-0.055	-0.625
-336.289	189.779	0.278	0.416
-335.275	-200.000	-0.084	0.393
-334.260	0.261	0.489	0.348
-333.245	-200.000	0.020	-0.471
-332.231	800.000	-0.095	-0.408
-331.216	93.328	0.374	-0.421
-330.202	800.000	0.259	-0.750
-329.187	192.941	0.287	0.432
-328.172	740.137	-0.233	0.623
-327.158	237.034	-0.104	-0.171
-326.143	-200.000	0.021	0.224
-325.129	-200.000	-0.028	0.563
-324.114	-140.284	-0.364	-0.038
-323.099	250.818	-0.262	0.442
-322.085	-83.969	0.364	0.115
-321.070	-21.761	-0.524	0.317
-320.056	-200.000	0.006	0.125
-319.041	473.406	0.466	-1.045
-318.026	782.524	-0.125	-0.341
-317.012	-22.532	0.014	-0.008
-315.997	-200.000	-0.080	-0.813
-314.983	-111.733	-1.154	-0.233
-313.968	-76.274	-0.147	0.052
-312.953	792.929	-0.115	0.316
-311.939	-200.000	0.008	-0.154
-310.924	228.342	0.460	-0.745
-309.910	-72.798	-0.173	-0.063
-308.895	-18.703	0.804	0.498
-307.880	-72.491	0.477	-0.175
-306.866	800.000	-0.347	-1.041
-305.851	9.894	-0.490	0.370
-304.837	-124.117	0.480	0.075
-303.822	139.799	0.345	-0.452
-302.807	689.993	-0.327	0.850
-301.793	112.899	0.562	-0.677
-300.778	-200.000	0.013	0.246
-299.764	37.302	-0.660	-0.581
-298.749	444.614	0.442	0.963
-297.735	582.667	0.370	-0.902
-296.720	-13.780	0.484	-0.311
-295.705	-180.017	-0.915	0.019
-294.691	-79.287	-0.697	0.235
-293.676	800.000	-0.258	-0.808
-292.662	-45.317	-0.278	0.137
-291.647	-200.000	-0.051	-0.938
-290.632	-200.000	0.036	-0.650
-289.618	-200.000	0.020	-0.975
-288.603	-200.000	-0.077	0.644
-287.589	800.000	-0.060	0.245
-286.574	-33.724	0.299	-0.164
-285.559	13.030	-0.200	0.154
-284.545	-191.651	0.358	0.004
-283.530	-48.048	-0.693	0.333
-282.516	-17.529	-0.726	-0.454
-281.501	270.535	0.121	0.211
-280.486	513.616	-0.223	0.515
-279.472	118.051	0.287	0.352
-278.457	-110.579	1.017	0.209
-277.443	-59.688	-0.595	0.253
-276.428	-111.488	-1.321	-0.267
-275.413	800.000	-0.184	-0.514
-274.399	-117.806	-0.464	0.083
-273.384	103.127	0.227	-0.264
-272.370	143.995	0.167	-0.221
-271.355	118.991	-0.630	-0.774
-270.340	441.346	0.144	-0.312
-269.326	-107.573	0.400	-0.087
-268.311	-83.178	-0.548	0.175
-267.297	-182.608	0.712	0.013
-266.282	-117.955	-0.352	-0.063
-265.267	12.351	-0.352	-0.269
-264.253	144.517	-0.264	-0.350
-263.238	-150.323	-0.446	0.034
-262.224	-200.000	0.048	0.959
-261.209	240.110	0.460	0.761
-260.195	-176.281	0.213	0.006
-259.180	479.573	0.528	-1.187
-258.165	-200.000	0.034	-0.223
-257.151	783.105	-0.124	-0.337
-256.136	-93.117	-0.701	-0.194
-255.122	291.612	0.149	-0.269
-254.107	-189.949	0.386	0.004
-253.092	469.675	-0.241	0.537
-252.078	-139.291	-0.435	-0.046
-251.063	208.661	-0.170	-0.264
-250.049	38.062	0.130	-0.115
-249.034	91.352	0.219	-0.244
-248.019	-200.000	0.046	0.849
-247.005	169.019	-0.737	-1.043
-245.990	-100.348	0.588	-0.145
-244.976	-109.870	0.189	-0.039
-243.961	437.247	-0.406	0.877
-242.946	249.518	0.399	0.671
-241.932	95.094	-0.392	0.442
-240.917	117.476	0.162	0.198
-239.903	-87.480	-0.312	-0.094
-238.888	-200.000	-0.077	-0.780
-237.873	140.848	0.153	0.200
-236.859	-139.465	-0.816	0.087
-235.844	-36.305	0.223	0.119
-234.830	72.500	-0.040	0.041
-233.815	-200.000	0.050	0.320
-232.800	-200.000	-0.263	0.000
-231.786	86.735	-0.702	0.768
-230.771	224.629	-0.252	0.405
-229.757	54.356	-0.862	-0.823
-228.742	424.332	-0.101	-0.215
-227.727	-200.000	0.102	-0.464
-226.713	-200.000	0.002	0.039
-225.698	17.858	0.448	-0.353
-224.684	-127.534	0.505	0.073
-223.669	-80.028	1.149	0.382
-222.655	-114.108	-0.485	-0.093
-221.640	-89.175	0.421	0.123
-220.625	465.877	0.149	-0.330
-219.611	140.406	0.370	0.484
-218.596	-200.000	-0.147	-0.732
-217.582	-19.703	0.544	-0.333
-216.567	624.354	0.229	0.573
-215.552	125.134	-0.369	0.460
-214.538	238.606	0.426	0.700
-213.523	-32.551	0.948	0.523
-212.509	-200.000	0.062	-0.279
-211.494	800.000	-0.185	-0.713
-210.479	-200.000	-0.197	-0.932
-209.465	116.788	0.679	0.826
-208.450	-106.268	-0.359	-0.080
-207.436	624.689	-0.177	-0.441
-206.421	-113.463	0.914	0.177
-205.406	-96.913	0.560	-0.145
-204.392	142.004	0.164	0.216
-203.377	-114.273	0.747	0.143
-202.363	43.615	-0.333	-0.302
-201.348	-125.264	-0.476	-0.072
-200.333	800.000	-0.034	0.098
-199.319	-200.000	0.077	0.447
-198.304	-200.000	-0.151	0.965
-197.290	193.923	0.194	-0.290
-196.275	394.752	-0.243	0.502
-195.260	39.512	0.115	0.102
-194.246	-22.194	-0.760	0.456
-193.231	35.235	-0.637	0.552
-192.217	-200.000	-0.011	-0.357
-191.202	-73.499	0.602	-0.217
-190.187	-47.025	-0.509	0.246
-189.173	-200.000	-0.003	-0.214
-188.158	-40.942	-0.433	-0.222
-187.144	-156.675	-0.394	0.024
-186.129	800.000	0.105	-0.300
-185.114	5.058	0.425	0.309
-184.100	236.661	0.519	0.851
-183.085	-200.000	-0.077	-0.712
-182.071	-37.737	-0.757	-0.399
-181.056	-46.494	0.536	-0.260
-180.042	100.961	-0.438	-0.504
-179.027	107.535	0.540	-0.636
-178.012	-73.032	0.330	-0.120
-176.998	-200.000	0.267	1.421
-175.983	-53.410	0.429	-0.194
-174.969	503.995	0.093	0.214
-173.954	800.000	-0.163	0.478
-172.939	-128.534	0.235	-0.033
-171.925	-53.069	0.181	-0.082
-170.910	-78.083	0.696	0.237
-169.896	-200.000	-0.102	-0.532
-168.881	8.816	-0.511	0.381
-167.866	-200.000	0.026	0.144
-166.852	32.566	-0.661	-0.565
-165.837	-79.965	-0.574	0.191
-164.823	-47.038	-0.448	0.216
-163.808	132.512	-0.665	0.848
-162.793	-57.127	-0.449	0.196
-161.779	714.133	0.102	-0.267
-160.764	-6.248	-0.197	-0.133
-159.750	-200.000	-0.186	1.139
-158.735	109.730	0.358	0.424
-157.720	-168.191	0.383	0.015
-156.706	-170.243	-1.197	-0.042
-155.691	800.000	0.150	-0.431
-154.677	-46.023	0.322	0.157
-153.662	-200.000	0.186	0.808
-152.647	794.694	0.192	0.523
-151.633	218.504	0.254	0.401
-150.618	-200.000	-0.391	-0.002
-149.604	-52.955	1.260	0.573
-148.589	-114.632	-0.415	-0.078
-147.574	-84.035	0.574	0.180
-146.560	-38.498	0.350	0.183
-145.545	-57.446	0.518	0.225
-144.531	348.388	0.262	-0.511
-143.516	-168.066	-0.508	0.020
-142.502	231.234	-0.497	0.804
-141.487	28.177	0.258	0.215
-140.472	146.849	0.322	0.427
-139.458	-117.104	-0.310	0.056
-138.443	18.160	0.946	-0.746
-137.429	316.830	-0.139	0.260
-136.414	-200.000	-0.061	-0.271
-135.399	184.831	0.324	0.475
-134.385	284.592	0.179	0.319
-133.370	59.321	-0.412	-0.401
-132.356	-200.000	0.104	0.705
-131.341	-200.000	0.013	0.681
-130.326	-82.933	0.155	-0.049
-129.312	274.740	-0.075	-0.131
-128.297	39.268	-0.454	-0.402
-127.283	704.281	0.171	0.446
-126.268	-57.877	-0.668	0.288
-125.253	-200.000	0.221	-1.052
-124.239	21.624	-0.226	0.182
-123.224	188.721	0.327	-0.483
-122.210	-107.374	0.542	-0.117
-121.195	98.504	-0.303	-0.345
-120.180	21.248	0.703	0.564
