DTS Sentinel unit serial number:	SN413079Multiplexer serial number:	ORYXHardware model number:	OX4-SRSoftware version number:	ORYX F/W v4.00 Oryx Data Collector v3.7.2.0data status	okinstallation	princeton_trtdifferential loss correction	single-endedforward channel	channel 3reverse channel	N/Adate	2019/09/19time	03:16:35forward acquisition time	60.00reverse acquisition time	0.00gamma	496.2192k internal	0.2348k external	0.2348temperature offset calibration	0.9989default loss term (dB/km)	0.3790temperature slope calibration	1.0000multiplexer offset coefficient	1.0000multiplexer slope coefficient	1.0000fibre end	0.00T internal ref (°C)	20.75T ext. ref 1 (°C)	0.64T ext. ref 2 (°C)	14.20length (m)	temperature (°C)	Stokes	anti-Stokes-747.200	-76.469	0.563	0.198
-746.185	-104.583	-0.283	0.065
-745.171	437.882	0.135	-0.293
-744.156	489.833	-0.046	0.104
-743.142	-173.276	-0.398	-0.012
-742.127	-106.190	-0.466	0.104
-741.112	-147.904	0.147	-0.012
-740.098	280.965	0.045	0.081
-739.083	-200.000	0.014	0.299
-738.069	-200.000	0.003	-0.014
-737.054	-91.676	-0.070	-0.020
-736.039	-141.400	-0.455	-0.046
-735.025	77.501	0.219	0.233
-734.010	217.971	-0.294	-0.469
-732.996	36.197	0.217	-0.191
-731.981	-15.465	0.168	-0.107
-730.966	-175.655	-0.184	0.005
-729.952	-200.000	-0.019	-0.126
-728.937	91.063	0.199	-0.223
-727.923	7.862	-0.183	0.137
-726.908	800.000	0.064	0.261
-725.894	-72.672	-0.259	-0.095
-724.879	-138.788	-0.250	0.027
-723.864	216.108	0.040	-0.064
-722.850	-200.000	-0.044	0.229
-721.835	158.385	-0.204	-0.282
-720.821	-51.014	-0.232	-0.109
-719.806	335.584	-0.038	-0.073
-718.791	-21.427	-0.129	0.078
-717.777	122.090	-0.255	-0.317
-716.762	-200.000	0.013	-0.140
-715.748	-23.219	0.399	0.240
-714.733	793.402	0.069	0.190
-713.718	-178.167	-0.385	-0.009
-712.704	375.135	0.110	-0.224
-711.689	-73.625	0.150	0.054
-710.675	-35.484	-0.155	-0.084
-709.660	64.118	0.176	0.177
-708.645	230.205	-0.086	0.141
-707.631	36.905	0.071	0.063
-706.616	-15.764	0.253	0.161
-705.602	65.536	-0.421	-0.425
-704.587	271.687	-0.029	-0.051
-703.572	239.259	0.221	0.367
-702.558	52.841	-0.145	-0.138
-701.543	-3.662	-0.203	-0.140
-700.529	-128.824	-0.294	0.041
-699.514	-200.000	0.001	-0.079
-698.499	-59.006	0.099	0.043
-697.485	66.478	0.169	0.171
-696.470	29.344	-0.232	-0.197
-695.456	243.305	-0.151	0.253
-694.441	-200.000	-0.018	0.258
-693.426	199.262	0.034	0.052
-692.412	4.022	0.020	0.015
-691.397	-102.041	-0.234	-0.056
-690.383	187.352	0.107	-0.160
-689.368	-100.766	-0.124	0.030
-688.354	-146.195	-0.053	0.005
-687.339	17.444	-0.235	-0.186
-686.324	-183.196	0.054	0.001
-685.310	-10.035	0.068	0.045
-684.295	800.000	0.038	-0.145
-683.281	-32.063	-0.186	0.104
-682.266	11.894	-0.190	-0.145
-681.251	286.785	0.051	-0.092
-680.237	170.933	-0.181	-0.258
-679.222	-200.000	-0.015	0.125
-678.208	-130.356	0.580	0.078
-677.193	19.113	0.204	-0.163
-676.178	800.000	0.094	-0.320
-675.164	193.146	-0.022	0.033
-674.149	800.000	0.123	-0.368
-673.135	218.182	0.083	0.132
-672.120	800.000	-0.059	0.183
-671.105	-47.454	0.277	-0.134
-670.091	6.189	0.117	0.086
-669.076	-51.920	0.116	0.054
-668.062	-141.685	0.033	0.003
-667.047	800.000	0.087	-0.338
-666.032	19.842	-0.149	-0.119
-665.018	-120.898	-0.205	-0.034
-664.003	-200.000	0.010	-0.062
-662.989	19.448	-0.065	0.052
-661.974	48.843	0.251	-0.234
-660.959	179.743	0.200	0.292
-659.945	19.669	-0.066	-0.053
-658.930	484.893	-0.046	-0.105
-657.916	-154.946	0.194	-0.013
-656.901	-122.400	-0.162	0.026
-655.886	-62.967	-0.245	-0.101
-654.872	-2.316	-0.167	0.116
-653.857	137.051	-0.208	0.271
-652.843	400.407	-0.148	-0.308
-651.828	-189.681	0.190	-0.002
-650.814	32.036	0.117	-0.101
-649.799	-91.371	0.323	0.092
-648.784	-87.582	-0.175	0.053
-647.770	-116.533	0.165	0.030
-646.755	-50.013	-0.371	0.175
-645.741	-50.304	0.166	-0.078
-644.726	36.429	-0.082	0.072
-643.711	277.065	0.133	0.236
-642.697	-200.000	-0.080	0.353
-641.682	-62.852	0.084	-0.035
-640.668	-160.574	-0.221	-0.012
-639.653	-200.000	-0.037	-0.300
-638.638	1.994	-0.166	0.119
-637.624	581.671	0.099	-0.241
-636.609	-121.956	-0.055	-0.009
-635.595	-23.292	0.410	-0.245
-634.580	-200.000	0.036	-0.310
-633.565	-104.696	0.195	0.045
-632.551	-145.278	0.186	-0.017
-631.536	312.736	-0.123	-0.230
-630.522	41.648	0.104	-0.094
-629.507	160.689	-0.125	-0.174
-628.492	-132.885	-0.109	0.014
-627.478	800.000	-0.061	0.222
-626.463	84.773	0.134	-0.146
-625.449	216.407	0.210	0.332
-624.434	149.245	0.124	0.167
-623.419	56.331	0.069	-0.067
-622.405	124.495	0.284	0.356
-621.390	124.205	-0.218	0.272
-620.376	136.298	0.097	-0.126
-619.361	-63.664	0.068	-0.028
-618.346	590.005	-0.041	-0.100
-617.332	-31.030	-0.225	0.126
-616.317	59.776	-0.172	0.169
-615.303	-200.000	-0.012	-0.130
-614.288	278.321	0.124	0.219
-613.273	-101.732	-0.356	-0.086
-612.259	800.000	-0.066	-0.275
-611.244	496.779	-0.074	0.168
-610.230	185.972	-0.147	0.218
-609.215	18.510	0.211	0.168
-608.201	-200.000	-0.013	0.125
-607.186	-12.331	0.095	-0.062
-606.171	447.263	-0.086	0.189
-605.157	192.227	-0.162	-0.243
-604.142	-200.000	-0.031	0.186
-603.128	638.917	-0.081	-0.206
-602.113	47.694	0.156	0.144
-601.098	-200.000	0.029	-0.206
-600.084	-29.466	-0.062	-0.035
-599.069	-200.000	0.019	0.154
-598.055	-200.000	0.055	0.487
-597.040	-200.000	0.061	0.424
-596.025	13.889	0.169	-0.131
-595.011	188.799	-0.237	0.353
-593.996	769.387	0.067	-0.182
-592.982	800.000	-0.031	-0.110
-591.967	222.859	-0.047	-0.075
-590.952	-128.883	-0.164	-0.023
-589.938	100.053	-0.219	-0.252
-588.923	800.000	0.058	0.178
-587.909	-200.000	0.028	0.157
-586.894	120.381	0.037	-0.045
-585.879	-200.000	-0.061	0.320
-584.865	-200.000	0.004	-0.104
-583.850	-68.362	-0.210	0.081
-582.836	270.749	0.105	0.183
-581.821	12.010	-0.226	-0.173
-580.806	-200.000	0.024	-0.339
-579.792	45.782	0.199	-0.183
-578.777	-86.050	0.390	-0.120
-577.763	-74.910	0.188	0.067
-576.748	113.748	-0.165	0.199
-575.733	-45.294	-0.099	0.049
-574.719	-103.629	0.119	0.028
-573.704	800.000	-0.061	-0.176
-572.690	-200.000	-0.010	-0.302
-571.675	-87.943	0.061	-0.018
-570.661	-49.738	0.299	-0.141
-569.646	800.000	0.040	-0.110
-568.631	-125.018	-0.329	0.050
-567.617	-200.000	0.031	0.156
-566.602	21.859	0.038	-0.031
-565.588	800.000	-0.066	-0.243
-564.573	5.003	-0.373	0.272
-563.558	800.000	-0.074	-0.248
-562.544	97.759	0.190	-0.217
-561.529	83.464	-0.207	-0.224
-560.515	-53.071	-0.364	0.166
-559.500	267.039	0.008	0.013
-558.485	-82.131	0.329	0.106
-557.471	-161.273	0.343	0.018
-556.456	206.298	0.027	0.042
-555.442	800.000	-0.071	-0.270
-554.427	618.305	-0.051	-0.127
-553.412	800.000	-0.086	-0.312
-552.398	188.164	0.149	0.221
-551.383	-23.209	-0.119	0.071
-550.369	-200.000	0.052	-0.261
-549.354	50.029	-0.318	-0.297
-548.339	0.497	-0.233	-0.165
-547.325	-30.091	0.292	-0.165
-546.310	155.961	-0.327	-0.447
-545.296	-7.090	-0.173	0.117
-544.281	187.741	-0.091	0.135
-543.266	-135.181	0.271	-0.032
-542.252	287.352	-0.114	-0.205
-541.237	26.412	-0.079	0.065
-540.223	241.342	-0.322	0.534
-539.208	-200.000	0.028	0.309
-538.193	556.814	0.131	0.314
-537.179	-73.431	-0.354	0.128
-536.164	297.238	0.129	-0.234
-535.150	35.767	-0.110	-0.096
-534.135	-200.000	-0.065	-0.311
-533.121	-156.426	-0.266	-0.016
-532.106	-200.000	-0.051	-0.256
-531.091	-72.385	0.251	0.092
-530.077	89.961	-0.098	-0.109
-529.062	-200.000	-0.002	-0.235
-528.048	650.862	0.135	-0.344
-527.033	-162.208	-0.156	-0.008
-526.018	-43.054	0.079	0.040
-525.004	3.038	-0.146	0.105
-523.989	197.495	-0.073	-0.110
-522.975	13.585	0.039	-0.030
-521.960	155.586	-0.114	0.156
-520.945	396.468	-0.014	-0.030
-519.931	-3.153	-0.221	-0.153
-518.916	12.396	-0.342	-0.261
-517.902	-200.000	-0.056	0.291
-516.887	178.674	-0.041	-0.059
-515.872	-32.565	-0.387	0.213
-514.858	-80.944	0.215	-0.071
-513.843	-75.744	-0.442	0.155
-512.829	49.010	-0.069	-0.064
-511.814	-62.528	-0.186	-0.077
-510.799	-127.639	0.121	0.017
-509.785	-17.258	-0.048	0.030
-508.770	164.235	0.205	-0.287
-507.756	461.241	-0.121	0.267
-506.741	38.550	0.227	-0.200
-505.726	-200.000	-0.040	-0.292
-504.712	-153.642	-0.296	-0.020
-503.697	248.767	0.010	0.016
-502.683	67.905	0.191	-0.193
-501.668	-200.000	0.019	-0.241
-500.653	1.070	-0.209	-0.148
-499.639	1.601	-0.049	-0.035
-498.624	271.835	-0.134	0.234
-497.610	-105.365	0.298	0.067
-496.595	641.811	0.127	0.320
-495.581	-200.000	-0.023	0.128
-494.566	-200.000	-0.044	0.421
-493.551	-161.130	0.205	0.011
-492.537	-179.679	0.145	0.003
-491.522	27.969	0.043	-0.036
-490.508	-64.595	-0.236	0.095
-489.493	-95.094	-0.139	-0.037
-488.478	303.440	-0.046	-0.084
-487.464	182.836	0.167	-0.244
-486.449	-124.317	0.448	-0.069
-485.435	-110.131	-0.089	-0.018
-484.420	31.833	0.053	0.045
-483.405	-200.000	0.048	0.436
-482.391	800.000	0.076	-0.261
-481.376	-200.000	-0.010	0.250
-480.362	-200.000	-0.030	-0.143
-479.347	-35.733	0.306	-0.164
-478.332	800.000	-0.057	-0.222
-477.318	-86.602	-0.168	0.051
-476.303	247.621	-0.104	0.174
-475.289	800.000	-0.123	-0.400
-474.274	-46.060	-0.143	-0.070
-473.259	-110.250	-0.117	-0.024
-472.245	162.697	0.094	-0.131
-471.230	-180.583	0.151	-0.003
-470.216	-200.000	0.013	0.232
-469.201	3.020	0.028	0.020
-468.186	800.000	0.106	0.348
-467.172	75.300	-0.195	-0.203
-466.157	-200.000	0.021	0.092
-465.143	-200.000	-0.005	-0.233
-464.128	-200.000	-0.004	0.333
-463.113	756.042	-0.136	0.363
-462.099	-76.110	0.300	0.105
-461.084	800.000	0.028	-0.096
-460.070	-200.000	-0.001	0.044
-459.055	-200.000	0.001	-0.059
-458.040	-103.203	-0.198	0.046
-457.026	695.035	0.070	0.181
-456.011	304.295	0.174	-0.319
-454.997	800.000	-0.087	-0.301
-453.982	-49.752	0.313	0.147
-452.968	-158.012	-0.196	-0.011
-451.953	-200.000	-0.019	-0.112
-450.938	24.981	-0.163	0.134
-449.924	-200.000	0.074	-0.394
-448.909	421.046	-0.090	-0.190
-447.895	-200.000	-0.014	0.169
-446.880	-200.000	-0.008	-0.265
-445.865	-200.000	-0.004	-0.142
-444.851	-138.158	-0.260	-0.028
-443.836	800.000	0.068	-0.287
-442.822	-48.776	0.267	-0.127
-441.807	29.651	0.197	0.166
-440.792	-93.218	0.154	-0.042
-439.778	5.897	0.236	-0.172
-438.763	523.525	0.149	-0.346
-437.749	-164.084	-0.448	0.020
-436.734	47.401	0.201	-0.185
-435.719	800.000	0.033	-0.109
-434.705	238.488	0.126	0.206
-433.690	-102.028	-0.501	0.119
-432.676	-116.734	0.214	-0.039
-431.661	338.374	0.033	0.064
-430.646	-5.665	-0.164	0.111
-429.632	133.357	-0.208	-0.265
-428.617	110.530	-0.258	-0.306
-427.603	-68.665	0.216	0.083
-426.588	205.376	-0.111	-0.169
-425.573	190.868	0.092	0.137
-424.559	-95.149	-0.167	0.044
-423.544	-200.000	-0.056	0.285
-422.530	59.553	-0.342	0.332
-421.515	76.372	-0.208	-0.217
-420.500	137.900	-0.124	-0.161
-419.486	-8.067	0.073	-0.048
-418.471	221.490	0.119	-0.189
-417.457	-200.000	-0.034	-0.267
-416.442	-31.879	-0.176	0.097
-415.428	-200.000	0.063	-0.320
-414.413	800.000	-0.009	0.037
-413.398	-180.782	0.363	-0.007
-412.384	-98.067	-0.111	-0.028
-411.369	-40.260	-0.385	0.197
-410.355	-200.000	0.019	0.371
-409.340	-200.000	-0.029	-0.334
-408.325	-129.103	-0.133	-0.018
-407.311	47.485	0.080	0.073
-406.296	-95.462	0.205	0.054
-405.282	639.848	0.004	0.010
-404.267	274.172	-0.219	-0.383
-403.252	14.226	0.095	0.073
-402.238	-159.619	0.093	0.005
-401.223	-55.549	0.348	-0.153
-400.209	6.658	-0.152	0.112
-399.194	-121.524	0.128	-0.021
-398.179	37.488	-0.083	0.073
-397.165	-200.000	0.032	-0.183
-396.150	643.793	0.151	-0.379
-395.136	-50.687	0.331	-0.154
-394.121	-52.678	-0.012	0.005
-393.106	225.762	-0.089	-0.143
-392.092	-200.000	-0.004	0.286
-391.077	102.071	-0.064	-0.074
-390.063	463.385	0.076	0.167
-389.048	-161.306	-0.412	0.021
-388.033	-126.408	0.311	0.046
-387.019	22.764	-0.244	-0.197
-386.004	-7.363	0.100	-0.067
-384.990	-200.000	-0.019	0.403
-383.975	57.887	-0.013	-0.012
-382.960	-168.349	-0.337	-0.013
-381.946	648.381	-0.080	-0.200
-380.931	-47.103	-0.231	-0.111
-379.917	1.134	-0.168	0.119
-378.902	66.519	-0.137	0.137
-377.888	-29.658	0.024	0.014
-376.873	-200.000	-0.006	-0.101
-375.858	-149.950	0.218	-0.017
-374.844	47.205	-0.251	0.230
-373.829	-35.469	0.141	0.076
-372.815	-143.592	0.395	0.037
-371.800	44.558	-0.439	-0.397
-370.785	-160.187	-0.665	-0.035
-369.771	-25.420	0.182	0.106
-368.756	506.772	0.158	-0.362
-367.742	172.770	0.143	0.202
-366.727	140.864	-0.255	0.332
-365.712	183.650	-0.143	0.208
-364.698	352.752	0.213	0.415
-363.683	-200.000	0.010	-0.184
-362.669	226.852	-0.227	0.363
-361.654	-133.613	0.181	0.022
-360.639	-98.389	-0.269	-0.068
-359.625	-40.952	0.413	0.210
-358.610	324.527	0.171	-0.322
-357.596	54.424	-0.080	-0.076
-356.581	191.794	-0.124	0.183
-355.566	182.176	0.056	0.082
-354.552	-200.000	0.024	0.231
-353.537	79.124	-0.195	-0.205
-352.523	236.996	0.075	0.122
-351.508	403.579	0.128	0.264
-350.493	409.785	0.017	-0.034
-349.479	-148.086	-0.201	-0.016
-348.464	-200.000	0.062	-0.281
-347.450	-200.000	0.010	-0.215
-346.435	92.530	0.121	-0.135
-345.420	40.212	-0.063	-0.056
-344.406	-27.691	0.250	-0.143
-343.391	-200.000	0.049	0.250
-342.377	-200.000	-0.040	0.193
-341.362	-58.474	-0.407	0.174
-340.348	-200.000	-0.008	0.214
-339.333	373.075	-0.035	0.069
-338.318	-13.860	0.116	-0.074
-337.304	-200.000	-0.026	0.213
-336.289	800.000	-0.080	0.243
-335.275	86.833	-0.124	0.135
-334.260	-200.000	-0.032	-0.142
-333.245	-200.000	0.002	-0.177
-332.231	-200.000	0.011	-0.367
-331.216	800.000	0.035	-0.143
-330.202	3.803	0.411	0.295
-329.187	-200.000	-0.034	0.236
-328.172	800.000	-0.063	-0.223
-327.158	331.208	0.223	0.423
-326.143	800.000	0.069	0.270
-325.129	480.823	-0.056	-0.125
-324.114	312.308	-0.160	0.294
-323.099	-132.019	0.436	-0.056
-322.085	-200.000	-0.052	0.229
-321.070	299.224	0.020	0.037
-320.056	121.497	-0.122	-0.149
-319.041	65.453	0.338	-0.336
-318.026	-96.299	-0.120	-0.031
-317.012	35.274	-0.207	0.179
-315.997	-182.411	0.237	-0.004
-314.983	-131.299	-0.214	-0.028
-313.968	92.539	-0.074	-0.083
-312.953	575.531	0.059	0.142
-311.939	111.605	-0.015	0.017
-310.924	180.711	-0.215	-0.310
-309.910	175.089	0.022	0.031
-308.895	-23.507	-0.135	-0.080
-307.880	800.000	0.104	0.285
-306.866	-200.000	0.013	-0.084
-305.851	-200.000	0.049	0.303
-304.837	207.691	0.056	0.085
-303.822	124.181	0.175	-0.216
-302.807	13.558	0.311	-0.237
-301.793	-125.015	-0.139	0.021
-300.778	-200.000	0.035	0.312
-299.764	48.437	-0.090	0.083
-298.749	-149.678	0.285	-0.022
-297.735	800.000	0.044	0.188
-296.720	8.225	0.087	0.064
-295.705	503.469	-0.156	0.353
-294.691	501.471	0.104	0.236
-293.676	32.871	0.273	-0.232
-292.662	-200.000	0.034	-0.185
-291.647	-200.000	-0.022	0.134
-290.632	396.943	0.070	0.143
-289.618	-129.621	-0.217	0.029
-288.603	33.809	0.223	-0.191
-287.589	-127.925	-0.165	-0.023
-286.574	716.221	0.035	-0.091
-285.559	41.443	-0.209	-0.186
-284.545	-45.711	-0.251	0.122
-283.530	165.734	0.082	-0.114
-282.516	275.866	0.242	0.422
-281.501	-91.206	0.110	0.031
-280.486	-88.367	0.133	-0.039
-279.472	-200.000	0.004	0.274
-278.457	-62.019	0.287	0.118
-277.443	800.000	-0.033	-0.101
-276.428	-166.488	0.193	0.008
-275.413	183.423	0.134	-0.195
-274.399	-93.117	-0.318	-0.087
-273.384	-200.000	-0.006	0.160
-272.370	153.096	0.201	0.270
-271.355	194.972	-0.094	-0.140
-270.340	-22.845	-0.132	-0.078
-269.326	319.184	0.096	-0.178
-268.311	51.125	-0.184	0.171
-267.297	-35.425	0.146	0.078
-266.282	-200.000	-0.042	0.362
-265.267	251.672	0.147	0.245
-264.253	124.972	0.157	0.194
-263.238	23.304	0.151	0.121
-262.224	18.940	0.114	-0.090
-261.209	-75.087	-0.143	-0.050
-260.195	545.390	0.078	-0.183
-259.180	-92.918	-0.271	-0.074
-258.165	145.451	0.140	-0.183
-257.151	-113.119	0.345	0.067
-256.136	257.528	-0.075	0.126
-255.122	-107.006	-0.214	0.046
-254.107	92.164	-0.191	-0.211
-253.092	-124.259	0.202	0.031
-252.078	409.819	-0.062	0.128
-251.063	319.097	0.066	-0.123
-250.049	-47.190	-0.289	0.138
-249.034	4.185	0.310	0.223
-248.019	301.456	-0.229	-0.414
-247.005	-24.574	-0.268	-0.156
-245.990	-50.397	0.359	-0.166
-244.976	27.436	0.074	0.061
-243.961	-160.872	-0.154	-0.008
-242.946	-153.069	0.302	0.021
-241.932	-72.253	0.449	0.163
-240.917	8.167	-0.067	-0.049
-239.903	-123.777	0.120	-0.019
-238.888	-149.122	0.091	-0.007
-237.873	-141.622	-0.373	-0.037
-236.859	157.760	-0.230	0.312
-235.844	-200.000	0.001	0.164
-234.830	-85.232	-0.270	-0.083
-233.815	234.312	0.095	-0.154
-232.800	800.000	0.056	-0.199
-231.786	4.888	-0.335	-0.241
-230.771	297.678	0.076	0.138
-229.757	66.946	-0.250	0.249
-228.742	-200.000	0.027	0.142
-227.727	-91.337	0.141	0.040
-226.713	68.097	-0.155	0.155
-225.698	-128.295	0.287	0.040
-224.684	-51.722	-0.386	0.176
-223.669	78.245	0.229	-0.239
-222.655	68.285	0.299	-0.300
-221.640	-127.744	0.109	0.015
-220.625	-54.989	0.195	0.086
-219.611	-200.000	-0.001	-0.175
-218.596	-103.210	-0.065	-0.015
-217.582	-19.052	-0.302	0.184
-216.567	-64.712	0.094	0.037
-215.552	-3.837	-0.334	-0.227
-214.538	-147.590	0.139	0.011
-213.523	423.305	-0.121	-0.255
-212.509	-42.142	0.290	0.145
-211.494	72.692	0.157	-0.161
-210.479	-200.000	-0.010	-0.136
-209.465	614.782	0.110	0.270
-208.450	-108.873	0.133	0.028
-207.436	151.449	0.090	0.120
-206.421	800.000	0.020	-0.055
-205.406	-126.786	0.097	0.014
-204.392	68.159	0.158	0.158
-203.377	-19.423	0.094	0.057
-202.363	122.345	-0.100	0.122
-201.348	5.864	0.206	0.149
-200.333	-200.000	0.002	0.123
-199.319	-30.628	0.142	-0.079
-198.304	182.679	0.211	-0.305
-197.290	-5.880	0.210	-0.141
-196.275	171.084	0.062	0.087
-195.260	33.070	-0.188	0.160
-194.246	185.639	0.174	0.253
-193.231	-200.000	-0.030	0.273
-192.217	-200.000	0.026	-0.126
-191.202	760.981	0.136	0.361
-190.187	2.949	0.251	0.178
-189.173	-0.505	-0.212	0.147
-188.158	-200.000	-0.007	-0.131
-187.144	-200.000	0.052	0.431
-186.129	571.331	-0.102	-0.242
-185.114	-56.300	-0.101	-0.044
-184.100	22.317	-0.043	0.034
-183.085	44.733	0.345	0.311
-182.071	103.117	0.376	-0.431
-181.056	-141.955	0.065	-0.006
-180.042	-41.139	-0.089	-0.045
-179.027	243.168	0.123	-0.201
-178.012	800.000	0.031	-0.122
-176.998	800.000	0.034	0.097
-175.983	33.636	0.223	-0.190
-174.969	-50.545	-0.191	0.088
-173.954	-170.157	0.219	0.008
-172.939	800.000	0.026	-0.074
-171.925	-100.789	0.230	0.055
-170.910	-40.951	-0.181	-0.091
-169.896	96.944	-0.041	-0.046
-168.881	52.736	0.086	-0.081
-167.866	86.145	0.117	-0.126
-166.852	-89.939	-0.387	0.111
-165.837	-199.448	0.233	-0.001
-164.823	151.938	0.470	-0.626
-163.808	62.003	-0.212	0.207
-162.793	-200.000	0.056	0.319
-161.779	34.387	-0.059	0.050
-160.764	6.612	-0.305	-0.221
-159.750	800.000	-0.120	-0.378
-158.735	41.416	-0.138	0.122
-157.720	-54.645	0.134	-0.059
-156.706	-200.000	0.054	0.305
-155.691	-138.769	-0.141	0.015
-154.677	369.657	-0.070	-0.138
-153.662	-123.194	-0.225	0.035
-152.647	-124.825	0.390	-0.059
-151.633	-99.826	-0.301	-0.073
-150.618	105.055	0.177	0.204
-149.604	-184.558	-0.244	0.004
-148.589	251.703	0.111	0.184
-147.574	661.523	0.091	-0.229
-146.560	-43.522	0.077	0.038
-145.545	-200.000	-0.021	0.318
-144.531	-200.000	0.076	0.332
-143.516	-35.204	-0.143	0.076
-142.502	150.210	0.133	-0.176
-141.487	-200.000	0.067	-0.343
-140.472	-200.000	-0.005	0.041
-139.458	333.361	-0.021	0.041
-138.443	-148.077	0.096	0.008
-137.429	-200.000	0.044	0.207
-136.414	3.844	-0.303	-0.216
-135.399	160.964	0.113	-0.154
-134.385	478.704	-0.100	0.221
-133.370	-137.802	0.212	-0.023
-132.356	28.853	0.104	-0.086
-131.341	800.000	0.074	0.213
-130.326	-69.098	-0.116	0.044
-129.312	104.057	0.100	-0.114
-128.297	-63.110	-0.138	-0.056
-127.283	207.779	0.204	-0.311
-126.268	-142.092	-0.050	-0.005
-125.253	328.482	-0.044	0.082
-124.239	-200.000	-0.007	0.096
-123.224	-7.265	0.258	-0.170
-122.210	60.262	0.230	0.222
-121.195	-200.000	0.033	0.144
-120.180	-136.189	0.214	-0.024
