DTS Sentinel unit serial number:	SN413079Multiplexer serial number:	ORYXHardware model number:	OX4-SRSoftware version number:	ORYX F/W v4.00 Oryx Data Collector v3.7.2.0data status	okinstallation	princeton_trtdifferential loss correction	single-endedforward channel	channel 3reverse channel	N/Adate	2019/09/14time	09:48:35forward acquisition time	60.00reverse acquisition time	0.00gamma	496.2192k internal	0.2316k external	0.2316temperature offset calibration	1.0057default loss term (dB/km)	0.3790temperature slope calibration	1.0000multiplexer offset coefficient	1.0000multiplexer slope coefficient	1.0000fibre end	0.00T internal ref (°C)	32.39T ext. ref 1 (°C)	3.94T ext. ref 2 (°C)	30.56length (m)	temperature (°C)	Stokes	anti-Stokes-747.200	-105.807	0.362	0.083
-746.185	-164.260	-0.116	-0.005
-745.171	800.000	0.044	-0.140
-744.156	-200.000	0.027	0.132
-743.142	-98.865	0.052	0.013
-742.127	800.000	0.086	0.269
-741.112	83.222	0.219	-0.241
-740.098	237.732	0.067	0.112
-739.083	22.160	-0.059	-0.049
-738.069	800.000	-0.073	0.314
-737.054	-200.000	-0.003	0.083
-736.039	-54.337	-0.355	-0.163
-735.025	800.000	0.068	0.235
-734.010	513.879	-0.139	-0.329
-732.996	42.640	-0.313	0.288
-731.981	-200.000	0.009	0.120
-730.966	-20.736	0.152	-0.095
-729.952	4.598	-0.281	0.209
-728.937	-117.413	-0.265	-0.049
-727.923	-9.518	-0.086	-0.058
-726.908	-39.324	-0.318	-0.169
-725.894	800.000	0.044	-0.147
-724.879	151.732	-0.049	0.068
-723.864	104.822	0.133	-0.159
-722.850	132.347	0.050	-0.065
-721.835	-155.454	-0.250	0.016
-720.821	534.608	-0.080	-0.191
-719.806	364.405	0.086	-0.175
-718.791	-48.487	0.239	-0.117
-717.777	800.000	-0.083	0.346
-716.762	-57.899	-0.305	0.135
-715.748	-103.577	0.078	0.019
-714.733	-107.671	-0.355	-0.079
-713.718	61.169	-0.095	0.095
-712.704	-114.782	-0.282	-0.055
-711.689	235.857	-0.175	-0.293
-710.675	91.516	-0.271	0.308
-709.660	800.000	0.066	-0.279
-708.645	786.150	0.103	0.286
-707.631	-47.245	-0.291	-0.143
-706.616	-62.773	-0.206	0.087
-705.602	800.000	0.077	-0.297
-704.587	-13.532	0.035	-0.023
-703.572	-96.012	0.489	0.132
-702.558	-200.000	0.045	0.339
-701.543	435.166	-0.042	-0.092
-700.529	275.871	0.187	0.335
-699.514	-102.997	-0.339	0.081
-698.499	167.714	0.228	-0.328
-697.485	228.009	-0.118	0.195
-696.470	182.855	-0.156	-0.232
-695.456	185.894	0.092	-0.138
-694.441	-148.431	0.064	-0.005
-693.426	237.330	0.087	0.147
-692.412	14.797	-0.287	0.227
-691.397	-200.000	0.043	-0.406
-690.383	-200.000	-0.028	-0.212
-689.368	120.852	0.240	-0.302
-688.354	85.953	-0.223	-0.248
-687.339	-87.404	-0.141	0.043
-686.324	-200.000	0.035	-0.243
-685.310	-90.889	0.227	-0.066
-684.295	-137.490	-0.203	0.023
-683.281	154.554	0.295	-0.410
-682.266	-39.023	-0.304	0.162
-681.251	-128.529	-0.202	0.029
-680.237	-17.264	-0.404	0.257
-679.222	-73.827	0.091	0.033
-678.208	-28.249	0.157	0.091
-677.193	2.260	0.129	0.094
-676.178	148.124	-0.183	-0.249
-675.164	-14.283	0.193	-0.125
-674.149	-18.307	0.113	0.071
-673.135	-200.000	-0.071	-0.379
-672.120	-63.975	-0.260	0.107
-671.105	84.911	0.137	-0.151
-670.091	-1.267	-0.266	-0.190
-669.076	134.581	-0.147	0.193
-668.062	424.101	-0.172	0.374
-667.047	-200.000	-0.042	-0.191
-666.032	98.842	-0.276	0.321
-665.018	-83.763	0.037	0.012
-664.003	36.328	-0.145	-0.129
-662.989	81.126	-0.130	0.142
-661.974	-200.000	-0.047	-0.252
-660.959	-80.145	0.408	-0.138
-659.945	97.915	-0.201	-0.234
-658.930	-200.000	-0.009	0.099
-657.916	800.000	0.023	0.077
-656.901	96.615	-0.213	-0.246
-655.886	-200.000	0.034	0.246
-654.872	800.000	0.110	0.436
-653.857	640.947	-0.118	-0.303
-652.843	-200.000	0.030	0.165
-651.828	17.607	-0.128	0.103
-650.814	800.000	0.049	-0.177
-649.799	165.865	-0.278	-0.397
-648.784	260.079	-0.091	0.159
-647.770	651.179	-0.091	0.235
-646.755	-200.000	0.003	0.234
-645.741	-160.156	-0.170	-0.009
-644.726	-149.948	0.146	-0.012
-643.711	800.000	-0.101	0.290
-642.697	800.000	0.053	0.198
-641.682	-83.831	-0.218	0.070
-640.668	429.169	-0.168	-0.366
-639.653	-200.000	-0.006	0.244
-638.638	-123.781	-0.006	-0.001
-637.624	-18.071	0.163	-0.103
-636.609	-105.317	-0.100	0.023
-635.595	-105.885	-0.277	0.063
-634.580	-50.540	0.170	-0.081
-633.565	-56.677	0.097	0.044
-632.551	-200.000	-0.009	0.379
-631.536	-173.069	0.175	-0.005
-630.522	-4.913	0.202	0.141
-629.507	475.718	0.093	0.211
-628.492	6.309	-0.194	0.146
-627.478	-200.000	0.020	0.133
-626.463	201.734	-0.167	0.260
-625.449	-100.113	0.321	0.081
-624.434	688.702	0.126	-0.333
-623.419	800.000	0.047	-0.189
-622.405	-139.807	-0.186	0.020
-621.390	381.324	-0.065	-0.134
-620.376	-200.000	0.013	0.093
-619.361	687.007	-0.032	0.083
-618.346	-108.990	-0.158	0.034
-617.332	535.539	-0.045	0.107
-616.317	-200.000	-0.027	0.191
-615.303	-181.543	-0.186	-0.004
-614.288	-200.000	0.009	0.080
-613.273	-141.942	0.042	0.004
-612.259	-200.000	-0.007	-0.261
-611.244	160.442	-0.125	-0.176
-610.230	536.848	-0.094	-0.226
-609.215	-85.209	0.159	0.050
-608.201	-21.894	-0.264	-0.162
-607.186	398.728	0.090	-0.191
-606.171	-200.000	-0.012	-0.278
-605.157	-131.412	0.376	-0.050
-604.142	-200.000	0.027	0.215
-603.128	224.475	-0.041	0.066
-602.113	-92.876	-0.352	-0.099
-601.098	-200.000	-0.032	-0.173
-600.084	-22.868	0.113	0.069
-599.069	317.158	-0.113	0.215
-598.055	248.826	-0.060	-0.102
-597.040	97.640	-0.049	-0.056
-596.025	-104.914	0.110	0.025
-595.011	89.922	0.122	-0.137
-593.996	-200.000	-0.005	-0.193
-592.982	-33.548	0.128	0.071
-591.967	71.635	-0.088	-0.092
-590.952	256.357	-0.068	0.117
-589.938	151.377	0.074	0.101
-588.923	-68.178	-0.259	-0.101
-587.909	104.687	0.151	-0.179
-586.894	-52.417	-0.326	-0.152
-585.879	-50.484	0.180	-0.086
-584.865	800.000	-0.032	-0.096
-583.850	-48.549	0.186	-0.090
-582.836	342.066	-0.171	0.338
-581.821	48.725	0.115	0.108
-580.806	-116.294	-0.171	-0.032
-579.792	-200.000	-0.012	-0.184
-578.777	532.257	0.017	0.040
-577.763	-200.000	-0.031	0.203
-576.748	-44.225	-0.097	-0.049
-575.733	-57.822	-0.376	-0.165
-574.719	572.148	-0.061	0.149
-573.704	-35.049	-0.363	-0.199
-572.690	-200.000	0.016	-0.227
-571.675	-200.000	0.005	0.237
-570.661	-200.000	-0.030	-0.159
-569.646	-200.000	-0.004	-0.388
-568.631	-10.213	0.246	-0.164
-567.617	800.000	-0.099	0.318
-566.602	-200.000	-0.022	-0.309
-565.588	-200.000	-0.017	-0.189
-564.573	-144.519	0.050	0.005
-563.558	85.440	0.055	-0.061
-562.544	-117.757	0.097	-0.018
-561.529	409.476	-0.068	0.145
-560.515	-200.000	-0.020	-0.453
-559.500	470.676	0.071	-0.162
-558.485	-200.000	0.019	-0.402
-557.471	48.274	-0.183	-0.172
-556.456	-200.000	0.039	0.236
-555.442	435.215	0.115	0.251
-554.427	670.135	-0.175	-0.456
-553.412	159.074	0.265	-0.370
-552.398	131.671	0.087	-0.113
-551.383	-150.234	0.106	-0.008
-550.369	7.290	-0.189	0.142
-549.354	-200.000	0.070	0.326
-548.339	231.248	0.155	0.256
-547.325	37.813	-0.240	0.214
-546.310	-98.455	-0.099	0.026
-545.296	-190.987	-0.105	0.001
-544.281	-0.438	-0.113	0.081
-543.266	79.638	-0.156	0.169
-542.252	330.859	-0.112	0.217
-541.237	-200.000	-0.047	-0.209
-540.223	242.415	0.311	0.523
-539.208	-134.962	0.126	0.015
-538.193	85.403	0.234	0.259
-537.179	-57.165	-0.317	-0.140
-536.164	-86.230	0.436	-0.135
-535.150	555.904	0.122	-0.295
-534.135	-34.845	0.140	0.077
-533.121	-178.111	0.221	0.005
-532.106	-200.000	-0.005	0.029
-531.091	-58.026	-0.091	0.040
-530.077	-200.000	-0.052	-0.248
-529.062	-109.929	0.350	0.074
-528.048	800.000	0.033	0.104
-527.033	66.195	0.058	-0.060
-526.018	11.044	-0.244	-0.187
-525.004	-164.999	0.170	0.008
-523.989	52.798	-0.081	0.078
-522.975	-93.436	-0.103	0.029
-521.960	-31.290	-0.090	-0.051
-520.945	-200.000	0.003	0.233
-519.931	-87.802	0.039	-0.012
-518.916	389.907	-0.081	0.170
-517.902	-167.240	0.253	0.010
-516.887	-59.933	0.215	-0.092
-515.872	-30.582	-0.202	-0.115
-514.858	194.374	0.030	-0.045
-513.843	-55.500	0.157	-0.071
-512.829	-35.719	-0.110	0.060
-511.814	113.829	0.142	0.174
-510.799	-200.000	-0.038	0.339
-509.785	-29.616	0.199	0.114
-508.770	-106.459	-0.117	0.026
-507.756	46.352	-0.162	0.151
-506.741	136.841	-0.195	0.255
-505.726	-136.902	0.075	-0.009
-504.712	800.000	0.098	0.304
-503.697	30.804	0.214	-0.184
-502.683	80.930	-0.099	-0.107
-501.668	706.475	-0.065	0.173
-500.653	-104.052	-0.196	-0.046
-499.639	-200.000	0.003	0.235
-498.624	-59.195	-0.101	0.044
-497.610	-109.408	-0.129	0.027
-496.595	-106.725	-0.133	-0.030
-495.581	736.683	0.068	-0.184
-494.566	800.000	0.053	-0.154
-493.551	-176.515	0.095	-0.002
-492.537	40.153	0.150	0.135
-491.522	200.375	0.139	-0.214
-490.508	6.788	-0.151	-0.113
-489.493	627.603	0.089	0.225
-488.478	-83.077	0.334	-0.108
-487.464	-164.629	-0.409	0.019
-486.449	44.888	0.115	0.106
-485.435	339.435	-0.058	0.114
-484.420	800.000	-0.078	0.292
-483.405	-15.825	0.190	0.121
-482.391	92.404	0.075	0.084
-481.376	-20.097	-0.300	-0.185
-480.362	-14.511	-0.287	-0.185
-479.347	476.021	0.112	-0.253
-478.332	651.115	-0.085	0.217
-477.318	-200.000	0.015	0.099
-476.303	-66.286	-0.364	0.145
-475.289	117.416	0.081	-0.099
-474.274	213.639	-0.076	0.121
-473.259	479.741	0.087	0.197
-472.245	800.000	-0.058	-0.163
-471.230	19.179	-0.176	-0.142
-470.216	800.000	-0.074	0.284
-469.201	198.910	-0.090	0.138
-468.186	53.181	0.307	-0.295
-467.172	-6.606	-0.162	-0.111
-466.157	-37.209	-0.318	0.171
-465.143	-200.000	0.049	-0.248
-464.128	32.350	0.062	-0.053
-463.113	-63.544	-0.219	-0.090
-462.099	297.777	-0.022	-0.041
-461.084	123.004	0.138	-0.173
-460.070	-125.932	-0.092	-0.014
-459.055	-163.117	0.235	-0.011
-458.040	-73.428	0.133	0.049
-457.026	-200.000	0.005	0.252
-456.011	-28.939	-0.162	-0.093
-454.997	-200.000	-0.047	-0.235
-453.982	-200.000	0.026	-0.199
-452.968	-200.000	-0.015	-0.132
-451.953	260.781	-0.050	-0.086
-450.938	111.350	-0.084	-0.102
-449.924	565.384	-0.126	0.307
-448.909	-138.889	-0.346	0.038
-447.895	-128.748	-0.337	-0.048
-446.880	193.937	-0.063	-0.096
-445.865	-135.132	0.230	0.028
-444.851	-200.000	-0.065	-0.322
-443.836	183.869	0.111	-0.165
-442.822	-200.000	-0.054	-0.253
-441.807	168.450	-0.063	0.090
-440.792	-145.123	0.278	0.025
-439.778	-39.739	-0.351	-0.184
-438.763	472.059	-0.097	-0.219
-437.749	-43.228	-0.197	-0.100
-436.734	302.682	-0.045	0.084
-435.719	-200.000	-0.050	0.380
-434.705	-26.480	0.231	0.135
-433.690	-95.606	-0.199	-0.053
-432.676	49.642	0.077	0.072
-431.661	-71.097	0.130	-0.049
-430.646	-200.000	-0.017	0.239
-429.632	800.000	-0.019	0.079
-428.617	51.618	-0.444	-0.422
-427.603	-73.567	0.303	0.111
-426.588	-200.000	-0.003	0.013
-425.573	-28.965	0.095	0.054
-424.559	-3.320	-0.178	0.124
-423.544	-9.973	-0.096	-0.064
-422.530	-30.767	-0.216	-0.122
-421.515	213.313	-0.285	-0.450
-420.500	120.106	-0.153	0.190
-419.486	800.000	-0.057	-0.188
-418.471	800.000	-0.037	0.126
-417.457	-119.037	-0.281	-0.049
-416.442	800.000	0.040	-0.169
-415.428	-200.000	0.027	-0.271
-414.413	205.691	0.122	0.190
-413.398	-138.252	-0.081	-0.009
-412.384	33.756	-0.205	-0.178
-411.369	-200.000	0.002	0.224
-410.355	800.000	0.115	0.330
-409.340	-132.690	0.115	-0.015
-408.325	-133.003	-0.165	-0.021
-407.311	76.911	-0.121	0.128
-406.296	207.070	0.065	-0.101
-405.282	800.000	-0.066	0.275
-404.267	1.843	0.122	0.088
-403.252	26.074	-0.287	0.239
-402.238	19.172	-0.081	-0.065
-401.223	-110.321	0.091	0.019
-400.209	-149.421	-0.096	0.008
-399.194	-200.000	-0.003	0.054
-398.179	-200.000	-0.022	0.160
-397.165	76.613	0.225	0.238
-396.150	-74.489	0.090	-0.032
-395.136	-8.680	-0.282	0.189
-394.121	48.522	0.090	0.084
-393.106	-200.000	-0.040	-0.207
-392.092	-62.626	0.289	-0.120
-391.077	-200.000	0.025	-0.150
-390.063	-57.704	0.127	0.056
-389.048	254.527	-0.073	-0.126
-388.033	563.509	0.043	-0.105
-387.019	-79.678	-0.173	0.058
-386.004	800.000	-0.114	0.333
-384.990	354.167	-0.028	-0.055
-383.975	-87.031	0.328	0.100
-382.960	125.835	0.148	-0.187
-381.946	-157.613	-0.515	0.031
-380.931	395.910	0.090	-0.187
-379.917	-200.000	-0.011	0.224
-378.902	-25.622	0.316	-0.186
-377.888	-200.000	0.021	-0.212
-376.873	-200.000	-0.067	0.425
-375.858	-200.000	0.035	0.349
-374.844	-200.000	0.004	0.124
-373.829	-75.237	0.153	-0.055
-372.815	-25.932	0.194	-0.114
-371.800	-200.000	0.001	-0.084
-370.785	-72.473	0.294	-0.108
-369.771	-200.000	-0.026	-0.182
-368.756	351.417	0.038	0.076
-367.742	-200.000	-0.021	0.189
-366.727	-200.000	-0.014	0.259
-365.712	-103.990	-0.104	-0.024
-364.698	-200.000	0.031	0.391
-363.683	43.714	-0.176	-0.160
-362.669	-109.634	-0.180	-0.038
-361.654	-132.703	0.458	0.058
-360.639	-89.973	-0.177	0.052
-359.625	800.000	-0.096	0.334
-358.610	-27.415	0.313	0.181
-357.596	167.136	0.136	0.193
-356.581	800.000	-0.042	-0.136
-355.566	6.734	-0.137	0.102
-354.552	-144.175	0.222	0.021
-353.537	800.000	-0.049	0.153
-352.523	-200.000	-0.029	-0.255
-351.508	800.000	-0.010	0.028
-350.493	-182.133	-0.154	0.003
-349.479	-26.333	-0.029	0.017
-348.464	-145.793	-0.189	0.017
-347.450	-200.000	0.029	0.311
-346.435	-38.862	0.101	0.053
-345.420	-81.531	-0.196	-0.064
-344.406	-58.884	0.197	-0.085
-343.391	28.417	-0.098	-0.082
-342.377	-200.000	0.011	-0.053
-341.362	476.691	0.043	-0.097
-340.348	-9.225	-0.312	0.208
-339.333	-200.000	-0.036	-0.305
-338.318	26.087	0.218	0.181
-337.304	182.530	-0.086	0.127
-336.289	-161.674	-0.080	-0.004
-335.275	-125.570	-0.282	-0.043
-334.260	-24.353	0.179	-0.107
-333.245	659.650	-0.091	-0.233
-332.231	82.953	0.130	0.141
-331.216	-129.774	-0.273	0.037
-330.202	-46.450	-0.219	0.107
-329.187	-30.417	-0.248	-0.140
-328.172	-200.000	0.058	-0.338
-327.158	306.050	0.018	0.033
-326.143	800.000	-0.033	-0.102
-325.129	67.310	0.128	0.130
-324.114	274.533	-0.123	-0.217
-323.099	28.901	0.044	-0.037
-322.085	-84.547	0.149	-0.047
-321.070	-82.874	0.380	-0.122
-320.056	93.869	0.105	-0.119
-319.041	800.000	0.056	0.238
-318.026	81.082	-0.044	-0.047
-317.012	211.796	0.087	-0.137
-315.997	-38.927	0.130	-0.068
-314.983	65.107	0.054	0.054
-313.968	4.387	0.212	-0.155
-312.953	-38.883	-0.138	-0.072
-311.939	-118.843	-0.372	0.065
-310.924	-3.094	0.131	-0.091
-309.910	-200.000	-0.015	0.343
-308.895	-68.443	-0.182	-0.070
-307.880	-200.000	-0.011	0.255
-306.866	434.077	0.116	-0.251
-305.851	-52.000	0.268	-0.124
-304.837	-60.788	-0.098	0.041
-303.822	-200.000	-0.004	0.261
-302.807	-60.901	0.347	-0.146
-301.793	-200.000	0.000	0.013
-300.778	800.000	0.123	-0.436
-299.764	215.570	0.079	-0.125
-298.749	329.302	0.123	-0.236
-297.735	19.652	0.210	-0.168
-296.720	42.624	0.117	-0.106
-295.705	263.200	-0.119	-0.205
-294.691	-100.279	-0.127	0.031
-293.676	570.655	-0.048	-0.116
-292.662	-200.000	-0.009	0.105
-291.647	800.000	-0.020	0.068
-290.632	-200.000	0.024	-0.269
-289.618	-59.538	0.280	-0.120
-288.603	-50.408	-0.112	0.053
-287.589	-180.297	0.188	0.004
-286.574	-200.000	-0.009	0.052
-285.559	-200.000	0.012	0.100
-284.545	800.000	0.072	0.294
-283.530	-108.638	-0.054	0.012
-282.516	-101.865	0.226	-0.054
-281.501	-87.588	0.216	-0.065
-280.486	-121.448	-0.297	0.049
-279.472	305.298	0.091	0.169
-278.457	86.777	0.167	-0.184
-277.443	271.170	-0.106	-0.185
-276.428	800.000	-0.092	-0.324
-275.413	-2.930	0.430	0.298
-274.399	17.750	0.079	-0.063
-273.384	124.421	0.179	-0.224
-272.370	-126.029	0.205	0.031
-271.355	-97.923	-0.213	0.055
-270.340	176.689	0.194	0.280
-269.326	22.224	0.088	-0.071
-268.311	-165.766	0.528	-0.023
-267.297	-14.344	0.132	-0.084
-266.282	-38.955	0.372	-0.195
-265.267	196.149	0.221	-0.335
-264.253	-200.000	-0.019	0.165
-263.238	5.803	0.015	-0.011
-262.224	360.792	0.090	-0.179
-261.209	800.000	-0.115	0.316
-260.195	17.268	0.213	0.168
-259.180	-38.212	-0.157	-0.083
-258.165	131.114	-0.261	0.333
-257.151	3.466	-0.099	-0.072
-256.136	-200.000	0.003	0.311
-255.122	-103.440	-0.064	0.015
-254.107	40.465	-0.214	0.192
-253.092	800.000	0.094	0.351
-252.078	63.349	-0.147	-0.146
-251.063	-10.265	0.246	0.162
-250.049	699.303	0.152	-0.398
-249.034	21.815	0.259	-0.210
-248.019	95.955	0.046	-0.052
-247.005	-200.000	0.094	0.410
-245.990	-92.795	0.325	-0.090
-244.976	800.000	-0.053	0.206
-243.961	403.189	0.068	0.143
-242.946	-61.609	-0.466	-0.194
-241.932	53.445	-0.190	0.181
-240.917	-57.474	-0.171	0.075
-239.903	-21.903	0.336	-0.203
-238.888	-144.013	0.039	0.004
-237.873	-191.481	0.098	-0.001
-236.859	252.392	-0.169	0.285
-235.844	199.695	0.111	-0.169
-234.830	-85.325	0.186	-0.058
-233.815	485.157	-0.098	0.222
-232.800	608.746	-0.021	-0.052
-231.786	800.000	-0.229	-0.658
-230.771	-89.592	0.280	0.082
-229.757	-200.000	-0.065	0.307
-228.742	-200.000	0.086	0.519
-227.727	282.826	-0.123	0.219
-226.713	92.859	0.145	0.163
-225.698	-86.563	0.086	-0.026
-224.684	-88.112	0.133	-0.040
-223.669	-44.322	-0.134	-0.067
-222.655	88.683	0.136	-0.150
-221.640	-131.391	-0.392	0.052
-220.625	-100.125	0.210	-0.052
-219.611	-23.637	0.177	-0.105
-218.596	235.417	0.244	-0.400
-217.582	-138.393	-0.150	-0.016
-216.567	215.031	0.208	-0.327
-215.552	63.275	0.236	-0.235
-214.538	-151.012	0.092	-0.007
-213.523	-153.269	0.059	-0.004
-212.509	-115.862	0.140	0.026
-211.494	-38.953	0.176	-0.092
-210.479	-143.846	-0.172	-0.016
-209.465	39.350	-0.179	-0.159
-208.450	15.480	0.182	0.142
-207.436	366.342	0.113	0.225
-206.421	-200.000	0.023	0.106
-205.406	46.362	0.111	-0.102
-204.392	11.024	-0.039	-0.030
-203.377	48.932	0.100	-0.093
-202.363	-25.111	-0.172	0.101
-201.348	-151.322	-0.323	0.024
-200.333	-61.593	-0.100	0.041
-199.319	-153.336	0.072	0.005
-198.304	-87.294	0.156	0.047
-197.290	-200.000	-0.003	-0.070
-196.275	102.300	0.031	0.035
-195.260	-13.108	0.087	-0.056
-194.246	-200.000	-0.007	-0.167
-193.231	-200.000	-0.028	0.224
-192.217	109.657	-0.136	-0.162
-191.202	7.914	0.095	-0.071
-190.187	-103.228	0.107	-0.025
-189.173	106.647	-0.180	0.212
-188.158	117.393	-0.102	-0.124
-187.144	-200.000	-0.073	0.402
-186.129	-32.624	-0.071	-0.039
-185.114	800.000	0.091	-0.314
-184.100	-200.000	-0.054	-0.402
-183.085	120.791	0.243	0.299
-182.071	55.179	0.198	-0.190
-181.056	17.984	0.253	-0.200
-180.042	-90.098	-0.111	-0.032
-179.027	-132.404	-0.060	-0.008
-178.012	-139.280	0.175	-0.019
-176.998	-200.000	-0.048	0.465
-175.983	800.000	-0.078	0.281
-174.969	-200.000	-0.001	0.679
-173.954	105.177	0.092	0.107
-172.939	800.000	0.106	0.317
-171.925	-3.926	-0.096	0.066
-170.910	-200.000	-0.040	-0.187
-169.896	-11.430	0.036	-0.023
-168.881	53.967	0.103	-0.098
-167.866	-200.000	-0.021	-0.115
-166.852	-155.224	-0.440	-0.028
-165.837	58.293	0.099	0.096
-164.823	800.000	-0.158	0.443
-163.808	-53.375	-0.122	-0.055
-162.793	-47.220	-0.114	-0.055
-161.779	-200.000	-0.028	-0.291
-160.764	-38.632	-0.285	-0.149
-159.750	-48.630	-0.060	0.028
-158.735	147.187	-0.074	-0.099
-157.720	-200.000	0.024	-0.230
-156.706	800.000	0.049	-0.206
-155.691	-95.843	0.151	-0.040
-154.677	235.463	0.064	-0.104
-153.662	800.000	-0.056	-0.235
-152.647	-200.000	0.095	0.498
-151.633	174.466	-0.116	-0.166
-150.618	-104.421	0.312	-0.072
-149.604	-200.000	0.005	0.454
-148.589	50.867	-0.316	0.296
-147.574	269.669	0.222	0.385
-146.560	-33.235	-0.160	0.088
-145.545	800.000	-0.088	-0.331
-144.531	33.089	-0.132	-0.113
-143.516	-200.000	-0.016	0.217
-142.502	-89.235	0.206	0.060
-141.487	-37.200	0.074	-0.039
-140.472	-142.025	-0.347	-0.034
-139.458	-144.809	0.179	0.016
-138.443	-140.789	-0.428	-0.044
-137.429	-124.702	0.088	0.014
-136.414	-111.152	0.135	0.027
-135.399	140.758	-0.180	0.235
-134.385	394.605	-0.181	0.374
-133.370	-66.072	-0.341	-0.135
-132.356	394.451	-0.149	0.307
-131.341	93.850	-0.065	-0.073
-130.326	-200.000	0.044	-0.279
-129.312	-167.123	0.279	-0.011
-128.297	409.818	-0.043	-0.090
-127.283	230.542	0.097	-0.158
-126.268	-200.000	-0.018	0.340
-125.253	-92.911	0.140	0.039
-124.239	-200.000	-0.046	0.254
-123.224	-27.370	-0.163	0.094
-122.210	33.215	0.266	0.228
