DTS Sentinel unit serial number:	SN413079Multiplexer serial number:	ORYXHardware model number:	OX4-SRSoftware version number:	ORYX F/W v4.00 Oryx Data Collector v3.7.2.0data status	okinstallation	princeton_trtdifferential loss correction	single-endedforward channel	channel 3reverse channel	N/Adate	2019/09/12time	12:14:11forward acquisition time	60.00reverse acquisition time	0.00gamma	496.2192k internal	0.2292k external	0.2292temperature offset calibration	1.0047default loss term (dB/km)	0.3790temperature slope calibration	1.0000multiplexer offset coefficient	1.0000multiplexer slope coefficient	1.0000fibre end	0.00T internal ref (°C)	40.62T ext. ref 1 (°C)	2.04T ext. ref 2 (°C)	35.66length (m)	temperature (°C)	Stokes	anti-Stokes-747.200	-55.650	-0.170	0.078
-746.185	-200.000	-0.004	-0.308
-745.171	-35.379	0.394	-0.219
-744.156	-32.826	-0.086	0.049
-743.142	-90.041	0.133	-0.040
-742.127	-154.221	0.131	-0.009
-741.112	2.811	0.159	-0.118
-740.098	-152.888	-0.381	-0.028
-739.083	77.291	0.099	0.107
-738.069	800.000	-0.097	0.283
-737.054	352.929	0.152	0.308
-736.039	158.650	-0.202	-0.287
-735.025	338.802	0.017	0.033
-734.010	38.747	-0.116	-0.106
-732.996	8.838	-0.206	-0.159
-731.981	800.000	0.032	-0.102
-730.966	-39.686	-0.121	-0.065
-729.952	-200.000	0.021	0.135
-728.937	-200.000	-0.006	0.036
-727.923	-15.872	0.048	-0.031
-726.908	19.383	0.177	-0.145
-725.894	-200.000	0.029	0.291
-724.879	-54.716	-0.408	0.189
-723.864	-200.000	0.031	-0.155
-722.850	-200.000	-0.009	-0.059
-721.835	283.830	-0.221	-0.406
-720.821	146.130	0.270	-0.370
-719.806	-200.000	-0.010	-0.292
-718.791	258.702	-0.165	-0.291
-717.777	238.969	0.011	0.019
-716.762	-60.194	0.384	-0.167
-715.748	-87.562	-0.385	0.119
-714.733	406.826	0.098	-0.211
-713.718	614.608	0.157	-0.403
-712.704	-111.670	-0.272	-0.056
-711.689	57.830	-0.227	-0.227
-710.675	-10.776	-0.222	-0.150
-709.660	-200.000	-0.023	-0.330
-708.645	-200.000	-0.033	-0.189
-707.631	-141.333	0.144	-0.015
-706.616	-122.022	0.215	-0.036
-705.602	-200.000	-0.004	-0.063
-704.587	38.100	0.205	0.186
-703.572	148.683	0.113	0.156
-702.558	-139.364	0.250	0.027
-701.543	-112.706	0.175	-0.035
-700.529	-4.718	-0.104	0.073
-699.514	200.371	0.069	0.108
-698.499	-70.771	-0.233	-0.090
-697.485	393.967	0.080	-0.171
-696.470	800.000	-0.023	-0.070
-695.456	-99.127	-0.328	-0.085
-694.441	294.982	0.097	-0.182
-693.426	191.876	-0.130	-0.200
-692.412	-200.000	0.020	0.103
-691.397	800.000	0.030	0.130
-690.383	216.519	-0.122	0.198
-689.368	800.000	-0.019	-0.059
-688.354	503.641	0.045	-0.106
-687.339	-9.437	0.192	-0.131
-686.324	-26.071	-0.230	-0.138
-685.310	53.445	-0.305	-0.298
-684.295	-60.657	-0.179	-0.078
-683.281	636.940	0.046	-0.119
-682.266	32.088	0.268	-0.236
-681.251	800.000	-0.023	0.100
-680.237	176.667	-0.283	-0.420
-679.222	800.000	0.096	-0.334
-678.208	50.694	0.054	0.053
-677.193	-63.145	0.272	0.114
-676.178	-200.000	0.003	-0.142
-675.164	-200.000	0.054	-0.345
-674.149	-112.087	0.039	0.008
-673.135	-20.119	-0.287	0.180
-672.120	-200.000	0.029	0.186
-671.105	-200.000	-0.100	0.624
-670.091	649.401	-0.070	-0.183
-669.076	-106.260	0.126	0.029
-668.062	-200.000	-0.013	0.417
-667.047	-90.648	0.147	0.043
-666.032	-123.667	0.233	0.038
-665.018	94.505	-0.111	-0.129
-664.003	-34.117	-0.024	-0.013
-662.989	63.040	0.144	-0.147
-661.974	37.186	0.164	-0.148
-660.959	-200.000	0.061	-0.376
-659.945	66.838	-0.282	-0.293
-658.930	800.000	0.082	0.241
-657.916	25.498	-0.195	-0.166
-656.901	584.218	-0.131	-0.329
-655.886	107.463	-0.160	-0.194
-654.872	-200.000	0.015	0.085
-653.857	155.229	0.124	-0.174
-652.843	-78.117	0.113	-0.040
-651.828	433.752	-0.054	-0.121
-650.814	-200.000	0.067	-0.382
-649.799	-19.070	0.198	0.125
-648.784	-200.000	0.009	0.270
-647.770	-117.336	0.114	0.021
-646.755	-187.284	0.267	0.004
-645.741	160.195	-0.116	-0.165
-644.726	-82.625	-0.320	-0.106
-643.711	-200.000	-0.008	-0.068
-642.697	-107.616	-0.246	-0.055
-641.682	603.695	0.032	-0.080
-640.668	272.008	-0.045	-0.081
-639.653	-200.000	-0.025	0.208
-638.638	-6.966	-0.057	0.040
-637.624	-48.872	0.100	0.049
-636.609	233.648	0.212	0.356
-635.595	-120.266	-0.168	0.029
-634.580	-89.701	-0.234	0.070
-633.565	109.597	0.305	-0.372
-632.551	8.341	0.103	-0.079
-631.536	313.082	0.021	0.040
-630.522	-200.000	-0.031	-0.278
-629.507	-130.490	0.490	0.067
-628.492	-121.151	-0.299	0.051
-627.478	-35.478	0.270	-0.149
-626.463	624.685	-0.213	-0.546
-625.449	-200.000	-0.004	0.122
-624.434	212.489	0.045	-0.073
-623.419	-39.316	-0.096	0.051
-622.405	-105.066	0.139	-0.032
-621.390	16.514	-0.085	0.068
-620.376	-200.000	0.011	-0.286
-619.361	-49.765	0.168	0.081
-618.346	-50.664	0.218	-0.105
-617.332	77.596	0.087	-0.094
-616.317	16.723	0.151	0.122
-615.303	57.786	0.214	-0.213
-614.288	200.554	0.293	0.459
-613.273	-200.000	0.007	-0.103
-612.259	203.930	0.027	0.042
-611.244	-95.481	-0.260	-0.071
-610.230	-60.715	-0.126	0.054
-609.215	800.000	-0.051	0.152
-608.201	-161.947	0.207	0.011
-607.186	-120.545	-0.029	0.005
-606.171	-200.000	0.034	0.192
-605.157	-37.567	-0.187	0.101
-604.142	-72.310	-0.078	0.029
-603.128	-190.924	-0.182	0.002
-602.113	-130.213	0.171	0.024
-601.098	-13.663	-0.166	-0.110
-600.084	613.240	0.048	-0.123
-599.069	-200.000	-0.062	0.335
-598.055	800.000	0.060	0.172
-597.040	-120.761	-0.097	0.017
-596.025	-111.305	0.275	0.057
-595.011	-200.000	-0.003	-0.046
-593.996	257.400	-0.260	0.455
-592.982	217.914	-0.218	0.354
-591.967	53.109	-0.160	0.156
-590.952	59.477	0.139	0.139
-589.938	92.753	0.107	-0.123
-588.923	187.536	0.275	0.417
-587.909	-121.602	0.143	-0.024
-586.894	141.770	-0.223	-0.301
-585.879	25.496	0.308	0.261
-584.865	319.947	-0.042	0.082
-583.850	-15.865	0.140	-0.091
-582.836	-121.261	-0.124	0.021
-581.821	-38.719	-0.314	-0.169
-580.806	-85.361	-0.131	-0.042
-579.792	469.799	-0.137	0.314
-578.777	800.000	-0.076	0.335
-577.763	-194.375	-0.346	-0.003
-576.748	37.667	-0.126	0.113
-575.733	-106.521	0.288	-0.065
-574.719	-101.524	-0.270	-0.067
-573.704	-54.575	-0.223	0.103
-572.690	-200.000	0.046	-0.269
-571.675	32.832	-0.251	-0.220
-570.661	261.937	-0.138	-0.244
-569.646	-35.657	0.119	-0.066
-568.631	-113.147	0.400	0.080
-567.617	-68.986	-0.188	0.074
-566.602	175.716	0.100	-0.147
-565.588	294.507	0.212	-0.394
-564.573	800.000	0.068	0.196
-563.558	-13.599	0.247	0.162
-562.544	217.988	-0.146	0.237
-561.529	387.683	-0.013	-0.028
-560.515	140.158	-0.174	0.233
-559.500	-200.000	0.001	-0.298
-558.485	281.488	-0.144	-0.262
-557.471	800.000	0.056	0.164
-556.456	-113.980	-0.323	-0.064
-555.442	800.000	0.024	-0.071
-554.427	-200.000	0.002	0.090
-553.412	-58.323	-0.353	-0.156
-552.398	17.603	0.114	-0.092
-551.383	211.273	0.144	0.231
-550.369	800.000	-0.019	-0.080
-549.354	689.239	-0.161	0.428
-548.339	-5.078	-0.334	-0.234
-547.325	800.000	0.024	-0.102
-546.310	21.067	-0.090	-0.074
-545.296	-29.247	0.411	0.239
-544.281	230.338	-0.066	-0.109
-543.266	-164.162	-0.215	-0.010
-542.252	-200.000	0.012	-0.260
-541.237	309.950	-0.168	-0.319
-540.223	397.487	0.117	0.249
-539.208	9.635	-0.225	0.173
-538.193	-158.220	-0.203	0.012
-537.179	290.274	-0.162	-0.299
-536.164	800.000	-0.086	-0.310
-535.150	-142.239	0.028	0.003
-534.135	-120.169	0.222	-0.039
-533.121	800.000	-0.050	-0.216
-532.106	-200.000	0.006	0.086
-531.091	-200.000	0.048	0.240
-530.077	-200.000	0.009	0.131
-529.062	338.935	-0.088	-0.174
-528.048	-92.183	0.020	0.006
-527.033	106.931	-0.202	0.244
-526.018	-60.949	-0.274	0.117
-525.004	-200.000	0.003	0.103
-523.989	-143.631	-0.426	0.041
-522.975	-58.556	-0.101	-0.045
-521.960	-200.000	0.002	-0.228
-520.945	-30.806	-0.240	0.138
-519.931	800.000	-0.159	-0.449
-518.916	321.405	0.133	0.256
-517.902	-157.935	0.206	0.012
-516.887	-200.000	0.009	-0.111
-515.872	42.836	-0.252	-0.233
-514.858	509.944	-0.113	0.265
-513.843	730.503	-0.092	-0.248
-512.829	277.387	-0.155	0.279
-511.814	57.812	0.083	0.083
-510.799	143.945	-0.060	0.081
-509.785	72.410	0.106	0.112
-508.770	-36.561	-0.180	0.098
-507.756	89.683	0.015	0.017
-506.741	321.305	0.108	0.208
-505.726	800.000	0.053	-0.151
-504.712	-164.118	0.513	-0.024
-503.697	-142.150	0.040	0.004
-502.683	800.000	-0.055	-0.166
-501.668	29.925	0.144	0.125
-500.653	-20.654	-0.247	0.154
-499.639	-63.220	0.084	0.035
-498.624	-165.763	0.142	0.006
-497.610	-28.830	0.242	0.141
-496.595	28.635	-0.064	-0.055
-495.581	-14.661	0.034	0.022
-494.566	-200.000	0.022	-0.151
-493.551	800.000	0.078	-0.227
-492.537	-42.640	-0.099	-0.051
-491.522	5.025	-0.219	-0.164
-490.508	-54.021	0.303	0.140
-489.493	-98.170	-0.046	0.012
-488.478	-63.429	-0.131	0.055
-487.464	-200.000	0.080	0.364
-486.449	368.667	0.090	0.184
-485.435	223.869	-0.166	-0.272
-484.420	-7.880	-0.340	-0.232
-483.405	-170.178	-0.264	-0.009
-482.391	-200.000	-0.016	-0.129
-481.376	-38.797	0.130	0.069
-480.362	36.433	0.077	-0.068
-479.347	445.572	-0.176	-0.392
-478.332	-54.020	0.224	-0.103
-477.318	-95.895	-0.161	0.043
-476.303	44.599	0.154	-0.144
-475.289	58.361	0.079	-0.078
-474.274	48.800	0.113	0.108
-473.259	-200.000	0.044	-0.207
-472.245	-108.149	0.141	-0.031
-471.230	-115.148	0.143	0.027
-470.216	-109.577	-0.217	0.046
-469.201	338.636	0.108	0.213
-468.186	-14.274	-0.074	0.048
-467.172	153.631	0.203	0.282
-466.157	287.227	0.086	0.158
-465.143	-85.393	-0.350	0.110
-464.128	-175.771	0.153	-0.004
-463.113	-94.295	-0.405	0.112
-462.099	-137.633	-0.239	0.027
-461.084	701.224	-0.095	0.253
-460.070	-73.526	-0.386	0.143
-459.055	257.114	0.153	0.266
-458.040	800.000	0.061	-0.189
-457.026	4.142	0.075	-0.056
-456.011	316.409	0.110	-0.210
-454.997	-119.301	0.156	0.027
-453.982	392.433	-0.087	0.183
-452.968	-200.000	0.001	0.223
-451.953	-200.000	-0.022	-0.171
-450.938	60.868	0.185	-0.186
-449.924	113.837	0.051	-0.063
-448.909	41.973	-0.209	0.191
-447.895	-200.000	-0.005	0.215
-446.880	-71.183	0.185	0.070
-445.865	-46.493	-0.139	-0.069
-444.851	639.367	0.066	0.169
-443.836	-152.587	-0.055	0.004
-442.822	-135.541	-0.318	-0.038
-441.807	-200.000	0.000	-0.168
-440.792	-200.000	-0.068	-0.384
-439.778	-32.945	-0.390	0.219
-438.763	32.609	0.222	0.194
-437.749	349.671	-0.106	-0.211
-436.734	-5.618	0.023	0.016
-435.719	-200.000	-0.001	-0.146
-434.705	-77.291	-0.240	-0.084
-433.690	-200.000	0.030	0.159
-432.676	81.353	-0.168	-0.184
-431.661	-29.162	0.183	-0.106
-430.646	-101.384	0.239	-0.059
-429.632	426.100	0.046	-0.099
-428.617	32.125	0.279	0.243
-427.603	-121.480	-0.168	0.028
-426.588	196.428	0.043	0.066
-425.573	-28.864	0.264	0.153
-424.559	146.699	0.146	-0.199
-423.544	146.807	0.147	-0.199
-422.530	-65.995	-0.103	-0.041
-421.515	61.770	0.066	0.066
-420.500	800.000	0.062	0.242
-419.486	476.530	-0.067	0.154
-418.471	-200.000	0.032	-0.183
-417.457	-200.000	0.009	0.241
-416.442	727.734	-0.072	-0.193
-415.428	121.504	-0.113	-0.142
-414.413	-20.323	0.103	-0.064
-413.398	-200.000	-0.005	0.196
-412.384	-200.000	-0.009	0.061
-411.369	-63.873	0.114	-0.047
-410.355	-129.710	0.331	-0.046
-409.340	-200.000	0.004	-0.077
-408.325	-20.916	-0.163	0.101
-407.311	401.311	-0.165	0.349
-406.296	-200.000	0.006	-0.064
-405.282	-200.000	-0.010	-0.095
-404.267	288.048	0.105	0.192
-403.252	192.148	-0.300	0.457
-402.238	195.679	0.158	-0.242
-401.223	495.590	0.082	0.191
-400.209	-171.102	0.156	-0.005
-399.194	262.734	0.224	-0.393
-398.179	-36.820	-0.177	-0.096
-397.165	-200.000	-0.001	-0.235
-396.150	681.135	-0.098	0.259
-395.136	250.195	0.083	0.142
-394.121	-44.252	0.281	-0.142
-393.106	-77.607	0.147	0.051
-392.092	109.028	0.377	-0.455
-391.077	4.788	-0.198	0.147
-390.063	-200.000	0.004	-0.042
-389.048	-200.000	-0.034	0.204
-388.033	-150.997	0.183	0.014
-387.019	800.000	-0.062	0.243
-386.004	-200.000	0.003	0.022
-384.990	-94.319	-0.235	0.065
-383.975	129.208	0.111	-0.143
-382.960	152.100	-0.065	-0.089
-381.946	-65.038	0.210	-0.086
-380.931	-200.000	0.027	-0.127
-379.917	207.282	0.240	-0.378
-378.902	-200.000	-0.258	-0.001
-377.888	-149.809	-0.270	0.021
-376.873	156.205	0.117	0.163
-375.858	45.390	0.200	0.187
-374.844	-45.750	-0.090	-0.045
-373.829	-200.000	0.006	0.075
-372.815	149.073	-0.088	-0.120
-371.800	-129.893	-0.460	-0.064
-370.785	-167.972	0.038	-0.001
-369.771	-169.466	-0.133	0.005
-368.756	-117.999	0.130	0.023
-367.742	-52.558	0.028	-0.013
-366.727	-49.139	0.212	-0.102
-365.712	-200.000	0.009	-0.212
-364.698	800.000	-0.068	-0.240
-363.683	800.000	-0.049	-0.207
-362.669	-105.577	0.181	0.041
-361.654	800.000	0.074	-0.317
-360.639	-111.575	-0.156	0.032
-359.625	-165.812	0.315	0.014
-358.610	-61.453	-0.089	-0.038
-357.596	-59.883	0.097	-0.042
-356.581	736.225	0.072	-0.195
-355.566	91.449	-0.154	0.174
-354.552	-29.475	-0.101	0.058
-353.537	344.406	-0.059	0.116
-352.523	66.432	0.080	-0.082
-351.508	-152.751	0.312	-0.022
-350.493	-78.956	-0.091	0.031
-349.479	800.000	-0.063	-0.217
-348.464	13.973	-0.207	0.162
-347.450	-69.023	-0.439	-0.171
-346.435	-70.848	-0.083	-0.032
-345.420	130.811	-0.043	0.056
-344.406	-57.496	0.140	0.062
-343.391	187.598	0.095	0.143
-342.377	800.000	-0.010	0.036
-341.362	66.384	-0.090	-0.092
-340.348	-41.008	-0.404	-0.210
-339.333	-18.249	0.142	-0.090
-338.318	-43.651	0.142	-0.072
-337.304	356.958	-0.034	-0.068
-336.289	-0.842	0.104	0.074
-335.275	-108.900	0.176	-0.038
-334.260	-28.638	-0.116	0.067
-333.245	63.640	-0.074	0.075
-332.231	203.921	0.131	-0.204
-331.216	800.000	-0.032	-0.119
-330.202	-200.000	-0.007	-0.153
-329.187	355.068	-0.102	-0.204
-328.172	35.800	0.016	0.014
-327.158	9.640	-0.042	0.032
-326.143	800.000	-0.024	0.086
-325.129	-111.291	0.173	-0.036
-324.114	-11.457	-0.075	-0.049
-323.099	34.675	-0.163	-0.143
-322.085	413.796	0.063	0.136
-321.070	173.818	0.016	0.024
-320.056	-96.850	0.242	-0.064
-319.041	624.027	0.108	-0.273
-318.026	-83.270	0.273	-0.088
-317.012	265.808	0.049	-0.086
-315.997	76.932	0.166	-0.178
-314.983	103.546	-0.165	0.195
-313.968	21.811	0.268	-0.220
-312.953	364.777	-0.064	0.130
-311.939	13.981	0.073	0.057
-310.924	45.389	0.252	0.234
-309.910	167.770	-0.148	-0.212
-308.895	-167.505	-0.132	-0.005
-307.880	336.493	0.144	0.281
-306.866	687.271	0.117	-0.309
-305.851	-160.815	-0.320	0.017
-304.837	119.016	0.011	-0.013
-303.822	25.427	-0.220	-0.184
-302.807	83.921	-0.112	-0.123
-301.793	800.000	-0.049	-0.185
-300.778	240.077	-0.057	0.095
-299.764	82.323	-0.247	0.270
-298.749	-13.983	-0.275	-0.179
-297.735	784.535	0.096	0.264
-296.720	-72.808	0.136	-0.050
-295.705	159.637	0.162	-0.227
-294.691	38.350	-0.175	-0.156
-293.676	620.265	-0.079	0.199
-292.662	267.121	-0.108	-0.190
-291.647	-200.000	-0.016	-0.294
-290.632	56.697	-0.163	0.160
-289.618	-97.998	0.220	-0.057
-288.603	-105.362	-0.312	0.071
-287.589	214.558	0.165	-0.263
-286.574	-200.000	-0.040	-0.196
-285.559	-46.073	-0.233	-0.115
-284.545	-82.649	0.033	0.011
-283.530	800.000	-0.172	-0.493
-282.516	-133.411	-0.261	0.033
-281.501	-167.706	-0.168	-0.007
-280.486	315.335	0.021	0.040
-279.472	94.819	-0.135	0.155
-278.457	-131.485	0.211	-0.028
-277.443	-200.000	-0.007	0.051
-276.428	217.275	0.140	0.225
-275.413	27.710	0.178	-0.151
-274.399	259.533	0.109	0.190
-273.384	141.760	-0.113	-0.151
-272.370	-200.000	0.015	0.085
-271.355	-200.000	-0.008	0.057
-270.340	-10.996	0.177	0.117
-269.326	11.745	0.107	0.083
-268.311	58.363	-0.117	-0.115
-267.297	263.203	0.118	0.206
-266.282	615.436	-0.031	0.079
-265.267	35.308	0.163	0.144
-264.253	39.898	0.046	0.041
-263.238	-200.000	-0.039	-0.216
-262.224	800.000	0.049	0.158
-261.209	800.000	-0.056	-0.190
-260.195	800.000	-0.049	0.163
-259.180	-138.576	0.176	0.019
-258.165	-101.908	-0.191	-0.046
-257.151	615.050	0.152	-0.384
-256.136	295.040	-0.057	-0.104
-255.122	-164.481	-0.207	0.009
-254.107	-200.000	-0.024	0.162
-253.092	-30.685	-0.322	-0.183
-252.078	684.739	-0.015	-0.041
-251.063	-137.376	0.080	-0.009
-250.049	-193.833	-0.248	0.002
-249.034	-26.522	0.162	-0.095
-248.019	-135.486	-0.206	0.025
-247.005	330.279	0.059	-0.115
-245.990	-200.000	0.021	-0.253
-244.976	-151.213	-0.258	0.019
-243.961	-102.309	0.240	0.058
-242.946	-119.565	-0.435	0.076
-241.932	-86.826	-0.287	0.088
-240.917	10.802	-0.129	-0.099
-239.903	-200.000	0.008	-0.209
-238.888	168.659	0.128	0.182
-237.873	214.592	-0.177	0.281
-236.859	800.000	-0.021	0.088
-235.844	416.641	0.117	0.250
-234.830	-163.803	-0.119	0.006
-233.815	38.295	0.044	0.039
-232.800	2.075	-0.544	-0.394
-231.786	759.207	0.115	-0.314
-230.771	-138.398	-0.092	0.010
-229.757	-10.728	0.234	0.155
-228.742	-71.016	-0.087	0.033
-227.727	293.496	-0.151	0.276
-226.713	-88.299	0.128	0.038
-225.698	2.829	0.232	0.169
-224.684	487.439	0.069	-0.159
-223.669	183.411	0.023	-0.034
-222.655	-200.000	0.028	0.218
-221.640	-148.093	0.246	-0.020
-220.625	-3.231	0.125	0.087
-219.611	800.000	-0.092	0.279
-218.596	-79.374	0.268	0.091
-217.582	445.317	0.125	-0.276
-216.567	-199.604	-0.342	0.002
-215.552	-12.713	0.279	-0.182
-214.538	800.000	0.026	-0.075
-213.523	28.969	-0.181	-0.154
-212.509	-86.223	0.225	0.070
-211.494	-200.000	0.022	0.110
-210.479	3.721	0.223	-0.163
-209.465	-200.000	0.014	0.164
-208.450	206.795	0.125	-0.195
-207.436	432.802	0.115	0.250
-206.421	139.501	0.128	0.169
-205.406	89.146	0.109	-0.122
-204.392	62.677	0.162	-0.162
-203.377	277.060	0.102	0.181
-202.363	403.626	0.046	-0.098
-201.348	497.055	0.030	0.069
-200.333	-161.799	0.189	-0.010
-199.319	38.496	0.196	0.175
-198.304	-200.000	-0.033	-0.157
-197.290	800.000	0.065	0.283
-196.275	397.735	0.164	-0.344
-195.260	23.983	-0.126	-0.104
-194.246	-50.103	-0.212	0.101
-193.231	371.551	0.069	0.140
-192.217	781.178	0.017	0.046
-191.202	-40.970	-0.199	0.103
-190.187	800.000	0.073	-0.216
-189.173	-126.896	0.042	0.006
-188.158	-61.740	-0.182	0.076
-187.144	-162.003	-0.097	0.005
-186.129	278.052	0.059	0.105
-185.114	286.803	-0.151	0.273
-184.100	800.000	-0.101	-0.365
-183.085	-28.065	0.151	0.088
-182.071	452.726	0.189	0.418
-181.056	-145.356	0.084	-0.008
-180.042	-53.259	0.144	0.066
-179.027	-40.549	0.436	0.226
-178.012	252.264	0.203	0.346
-176.998	108.009	0.182	0.217
-175.983	-115.799	-0.185	0.035
-174.969	-200.000	-0.018	0.224
-173.954	-103.026	0.377	0.090
-172.939	-155.864	-0.167	-0.011
-171.925	-113.873	0.604	0.117
-170.910	-186.964	-0.063	-0.001
-169.896	247.884	-0.108	0.183
-168.881	800.000	0.077	-0.265
-167.866	-117.186	0.257	-0.047
-166.852	800.000	-0.066	0.185
-165.837	-24.657	0.071	-0.042
-164.823	-200.000	-0.016	-0.385
-163.808	345.677	0.149	0.294
-162.793	65.617	0.322	0.327
-161.779	-163.736	0.258	0.012
-160.764	91.821	-0.133	0.150
-159.750	-200.000	-0.020	0.166
-158.735	-200.000	0.084	-0.403
-157.720	-18.420	0.198	-0.124
-156.706	-48.767	-0.118	-0.057
-155.691	-95.002	-0.139	0.038
-154.677	-46.474	0.075	0.037
-153.662	-200.000	0.030	-0.149
-152.647	-66.322	-0.281	0.112
-151.633	-65.559	-0.056	0.023
-150.618	-200.000	-0.046	0.551
-149.604	-176.206	0.090	0.002
-148.589	-2.940	0.185	0.129
-147.574	-90.531	-0.207	-0.060
-146.560	63.152	0.055	0.055
-145.545	-25.289	0.383	0.227
-144.531	363.148	-0.051	-0.102
-143.516	-8.283	-0.136	0.091
-142.502	-177.267	0.107	-0.003
-141.487	-137.785	0.243	0.027
-140.472	-40.191	-0.133	0.069
-139.458	217.351	-0.130	-0.207
-138.443	-37.518	-0.219	0.117
-137.429	296.314	-0.043	0.079
-136.414	40.347	0.229	0.206
-135.399	-90.823	0.266	-0.077
-134.385	296.303	-0.214	-0.391
-133.370	102.072	-0.165	0.193
-132.356	57.081	0.054	0.053
-131.341	178.318	-0.124	0.181
-130.326	-77.929	0.272	-0.094
-129.312	-51.088	-0.158	0.074
-128.297	707.708	0.131	-0.347
-127.283	312.264	0.015	0.027
-126.268	-48.284	-0.084	-0.041
-125.253	-109.830	-0.154	-0.032
-124.239	51.867	0.149	0.142
-123.224	145.610	-0.090	0.120
-122.210	-75.762	0.022	-0.008
-121.195	100.323	-0.064	-0.075
