DTS Sentinel unit serial number:	SN413079Multiplexer serial number:	ORYXHardware model number:	OX4-SRSoftware version number:	ORYX F/W v4.00 Oryx Data Collector v3.7.2.0data status	okinstallation	princeton_trtdifferential loss correction	single-endedforward channel	channel 3reverse channel	N/Adate	2019/09/11time	02:22:10forward acquisition time	60.00reverse acquisition time	0.00gamma	496.2192k internal	0.2332k external	0.2332temperature offset calibration	0.9913default loss term (dB/km)	0.3790temperature slope calibration	1.0000multiplexer offset coefficient	1.0000multiplexer slope coefficient	1.0000fibre end	0.00T internal ref (°C)	29.19T ext. ref 1 (°C)	-0.30T ext. ref 2 (°C)	23.51length (m)	temperature (°C)	Stokes	anti-Stokes-747.200	38.765	0.170	-0.153
-746.185	-200.000	0.018	-0.163
-745.171	-185.794	-0.044	-0.001
-744.156	416.882	-0.178	0.383
-743.142	-200.000	-0.026	0.323
-742.127	97.662	0.021	0.024
-741.112	-200.000	0.021	0.172
-740.098	-200.000	-0.007	0.598
-739.083	-49.753	0.188	-0.090
-738.069	356.730	-0.203	0.407
-737.054	1.403	0.216	-0.156
-736.039	800.000	0.097	-0.298
-735.025	-106.333	0.224	0.051
-734.010	-200.000	-0.010	0.072
-732.996	35.762	-0.205	-0.181
-731.981	-189.336	-0.162	-0.002
-730.966	318.529	-0.209	-0.399
-729.952	800.000	0.030	0.131
-728.937	688.407	-0.086	0.225
-727.923	-102.233	-0.420	0.102
-726.908	95.033	-0.142	-0.163
-725.894	517.763	-0.041	-0.097
-724.879	406.415	-0.126	-0.267
-723.864	157.075	0.063	-0.088
-722.850	-74.127	-0.155	-0.057
-721.835	-126.207	-0.499	0.075
-720.821	-200.000	-0.067	-0.374
-719.806	381.945	-0.131	-0.270
-718.791	280.374	0.087	-0.156
-717.777	378.268	0.093	-0.192
-716.762	800.000	-0.075	-0.320
-715.748	228.509	0.180	-0.295
-714.733	-130.403	0.156	0.021
-713.718	-200.000	0.024	0.159
-712.704	-200.000	0.065	-0.328
-711.689	67.502	0.184	0.189
-710.675	-146.064	0.141	0.013
-709.660	800.000	0.091	-0.319
-708.645	800.000	-0.084	0.310
-707.631	577.259	0.100	0.245
-706.616	-163.319	0.153	-0.007
-705.602	-101.446	0.189	-0.046
-704.587	34.196	-0.218	0.191
-703.572	-189.328	-0.149	-0.002
-702.558	177.462	0.039	0.058
-701.543	-60.646	-0.215	-0.092
-700.529	-62.717	0.326	-0.136
-699.514	-0.422	-0.207	-0.148
-698.499	-200.000	0.008	0.049
-697.485	126.712	0.109	0.139
-696.470	148.009	-0.130	-0.177
-695.456	-200.000	-0.041	0.182
-694.441	-53.114	-0.086	-0.040
-693.426	-200.000	0.039	-0.189
-692.412	-200.000	-0.002	-0.179
-691.397	5.816	0.077	-0.057
-690.383	-41.205	-0.438	-0.227
-689.368	-200.000	-0.004	0.232
-688.354	-158.369	-0.195	0.011
-687.339	-200.000	-0.011	0.221
-686.324	-36.076	0.293	-0.159
-685.310	-91.747	-0.280	-0.080
-684.295	382.806	-0.180	-0.371
-683.281	-110.409	0.191	-0.040
-682.266	243.650	-0.158	0.267
-681.251	800.000	-0.023	-0.080
-680.237	3.368	0.351	0.256
-679.222	-68.795	-0.122	-0.047
-678.208	383.283	-0.086	-0.178
-677.193	-19.366	0.116	-0.072
-676.178	1.817	-0.231	0.167
-675.164	248.322	0.136	0.230
-674.149	-3.978	0.231	0.161
-673.135	-26.256	-0.299	0.176
-672.120	-102.469	-0.286	-0.069
-671.105	-153.747	-0.200	-0.014
-670.091	-200.000	-0.058	0.329
-669.076	97.934	0.161	0.186
-668.062	410.916	-0.089	-0.189
-667.047	-38.582	0.180	-0.096
-666.032	-55.478	0.306	-0.138
-665.018	241.805	-0.084	0.140
-664.003	800.000	0.119	0.363
-662.989	430.829	-0.027	0.059
-661.974	15.499	0.280	-0.220
-660.959	800.000	-0.111	-0.325
-659.945	-139.926	-0.302	0.032
-658.930	-30.314	-0.216	-0.123
-657.916	-200.000	-0.002	-0.291
-656.901	-136.865	-0.271	-0.031
-655.886	-20.065	0.293	-0.181
-654.872	571.298	-0.086	-0.210
-653.857	17.082	-0.286	-0.227
-652.843	-115.832	-0.214	0.040
-651.828	-21.925	0.250	-0.152
-650.814	-57.147	-0.192	0.085
-649.799	-99.902	-0.108	0.027
-648.784	47.893	0.071	0.067
-647.770	-60.307	-0.285	0.122
-646.755	-200.000	-0.009	-0.361
-645.741	-144.401	-0.084	0.008
-644.726	-200.000	0.001	-0.123
-643.711	753.012	0.029	-0.077
-642.697	-200.000	0.009	-0.142
-641.682	-200.000	-0.015	-0.322
-640.668	-200.000	0.019	-0.259
-639.653	276.671	0.082	-0.147
-638.638	-200.000	-0.034	-0.174
-637.624	46.729	0.117	-0.109
-636.609	-1.672	-0.265	0.187
-635.595	680.247	0.055	0.142
-634.580	800.000	-0.068	-0.284
-633.565	81.970	0.158	-0.172
-632.551	-200.000	-0.036	-0.282
-631.536	-177.200	-0.259	0.006
-630.522	1.455	0.200	-0.144
-629.507	800.000	-0.090	-0.268
-628.492	28.678	0.033	-0.028
-627.478	-117.858	-0.234	0.042
-626.463	116.235	-0.439	-0.539
-625.449	-105.484	0.221	0.050
-624.434	-200.000	-0.005	-0.199
-623.419	-86.568	-0.159	-0.049
-622.405	-78.246	-0.582	-0.200
-621.390	-106.311	-0.252	0.056
-620.376	150.784	0.138	0.187
-619.361	-200.000	0.064	-0.425
-618.346	800.000	-0.043	0.186
-617.332	41.005	-0.138	0.125
-616.317	800.000	-0.025	0.091
-615.303	-82.910	0.080	0.026
-614.288	33.186	0.299	0.260
-613.273	-119.321	-0.093	0.016
-612.259	-200.000	0.033	0.242
-611.244	-15.882	-0.234	0.149
-610.230	517.538	-0.091	-0.214
-609.215	-121.505	-0.359	-0.060
-608.201	-20.495	-0.354	-0.218
-607.186	-200.000	0.035	0.227
-606.171	-200.000	0.286	0.001
-605.157	105.495	-0.122	-0.144
-604.142	-66.219	0.250	0.100
-603.128	-93.110	-0.236	-0.066
-602.113	-64.463	-0.254	-0.103
-601.098	-200.000	0.021	0.094
-600.084	-84.159	-0.145	0.046
-599.069	69.939	-0.290	0.299
-598.055	-200.000	-0.040	0.261
-597.040	-200.000	0.054	0.331
-596.025	85.255	0.131	-0.143
-595.011	142.184	0.244	-0.323
-593.996	47.765	-0.005	-0.005
-592.982	783.959	0.008	0.022
-591.967	-142.090	-0.082	-0.008
-590.952	129.509	-0.167	-0.213
-589.938	281.553	0.043	-0.077
-588.923	800.000	0.051	0.186
-587.909	-144.778	0.313	-0.029
-586.894	89.559	0.056	0.062
-585.879	348.278	-0.129	-0.254
-584.865	-200.000	0.029	-0.379
-583.850	128.793	-0.357	-0.455
-582.836	-124.720	0.234	0.036
-581.821	-38.435	0.328	-0.173
-580.806	543.363	-0.039	0.093
-579.792	-83.537	0.180	-0.058
-578.777	-200.000	0.011	-0.251
-577.763	236.698	0.041	0.067
-576.748	-51.336	-0.180	0.084
-575.733	-64.484	0.159	-0.064
-574.719	-48.553	-0.130	0.062
-573.704	36.436	0.071	-0.063
-572.690	64.029	0.233	-0.235
-571.675	480.009	-0.034	-0.076
-570.661	55.785	-0.277	-0.268
-569.646	58.643	0.342	-0.335
-568.631	88.546	0.085	-0.094
-567.617	-200.000	0.001	-0.140
-566.602	-83.799	0.257	-0.082
-565.588	-102.365	-0.373	0.089
-564.573	140.163	0.243	0.320
-563.558	522.341	0.131	0.308
-562.544	-200.000	0.013	-0.225
-561.529	800.000	-0.153	0.452
-560.515	-119.159	-0.113	0.020
-559.500	-53.714	0.070	0.032
-558.485	-77.752	-0.403	0.139
-557.471	800.000	0.069	-0.297
-556.456	96.968	-0.207	-0.237
-555.442	-142.377	0.292	0.029
-554.427	800.000	0.046	0.194
-553.412	-161.933	0.176	-0.009
-552.398	-200.000	0.066	-0.402
-551.383	-200.000	0.106	0.630
-550.369	-200.000	-0.009	0.268
-549.354	-65.413	0.267	-0.107
-548.339	-200.000	-0.022	0.130
-547.325	-47.010	-0.149	0.073
-546.310	4.628	0.138	-0.101
-545.296	265.141	-0.151	-0.263
-544.281	321.831	-0.050	0.096
-543.266	69.312	-0.168	-0.172
-542.252	-200.000	0.329	0.001
-541.237	-62.259	0.181	-0.075
-540.223	388.552	0.061	0.126
-539.208	300.720	0.012	0.022
-538.193	393.707	0.143	-0.296
-537.179	-51.464	-0.462	0.216
-536.164	-132.648	-0.245	0.031
-535.150	-200.000	0.009	0.168
-534.135	-103.264	-0.246	0.058
-533.121	-200.000	-0.024	-0.274
-532.106	-4.091	-0.224	0.155
-531.091	290.238	-0.055	-0.099
-530.077	-200.000	0.018	0.111
-529.062	-200.000	0.018	0.118
-528.048	-72.854	-0.200	-0.073
-527.033	800.000	-0.105	0.445
-526.018	-200.000	0.024	-0.282
-525.004	383.691	0.092	-0.190
-523.989	-109.342	0.196	-0.041
-522.975	-33.169	0.177	-0.098
-521.960	-61.235	-0.238	0.100
-520.945	-182.951	-0.167	0.003
-519.931	11.990	-0.085	0.065
-518.916	117.824	-0.078	-0.095
-517.902	624.053	-0.054	-0.136
-516.887	-89.042	-0.120	-0.035
-515.872	-99.643	-0.136	-0.034
-514.858	58.319	0.165	0.162
-513.843	-200.000	-0.012	-0.238
-512.829	800.000	-0.123	0.429
-511.814	533.180	0.079	0.186
-510.799	-113.562	-0.317	-0.062
-509.785	-78.088	0.093	0.032
-508.770	-50.115	-0.270	-0.128
-507.756	125.946	-0.134	-0.169
-506.741	-200.000	-0.084	-0.386
-505.726	-200.000	-0.001	0.098
-504.712	-57.142	-0.136	-0.060
-503.697	71.904	0.050	0.052
-502.683	204.709	0.146	0.226
-501.668	-30.273	-0.120	0.068
-500.653	-83.315	0.121	-0.039
-499.639	-0.382	-0.086	-0.061
-498.624	-85.312	-0.077	-0.024
-497.610	-124.718	0.501	-0.077
-496.595	196.843	0.209	0.318
-495.581	800.000	0.094	0.259
-494.566	-129.683	-0.293	0.040
-493.551	800.000	-0.035	-0.112
-492.537	-38.442	-0.018	-0.009
-491.522	800.000	0.058	0.196
-490.508	-156.827	0.469	-0.029
-489.493	-200.000	0.000	-0.053
-488.478	-135.351	0.281	0.034
-487.464	268.681	0.132	-0.231
-486.449	-132.891	-0.347	0.044
-485.435	3.228	-0.189	-0.137
-484.420	239.347	-0.174	0.288
-483.405	-40.981	0.128	-0.066
-482.391	-102.720	-0.419	0.099
-481.376	-8.659	0.303	-0.203
-480.362	-6.311	0.176	0.119
-479.347	-185.034	-0.421	-0.007
-478.332	191.438	0.076	-0.114
-477.318	-200.000	0.024	0.167
-476.303	-130.679	0.175	0.023
-475.289	660.222	-0.088	-0.227
-474.274	-200.000	0.002	0.276
-473.259	-200.000	0.033	0.275
-472.245	176.620	0.127	-0.184
-471.230	28.722	0.076	-0.064
-470.216	40.754	0.142	0.127
-469.201	-178.778	0.180	0.004
-468.186	-33.947	-0.164	0.090
-467.172	800.000	0.082	0.313
-466.157	300.059	0.121	0.222
-465.143	173.420	-0.214	0.307
-464.128	154.912	-0.220	0.300
-463.113	168.167	-0.199	-0.281
-462.099	43.040	0.188	-0.171
-461.084	800.000	0.027	0.088
-460.070	-18.583	0.166	-0.103
-459.055	37.824	0.125	-0.111
-458.040	-123.647	-0.260	0.041
-457.026	-200.000	0.021	0.181
-456.011	-200.000	0.036	-0.162
-454.997	37.643	-0.043	0.038
-453.982	-90.074	0.077	0.022
-452.968	201.349	0.104	0.159
-451.953	-200.000	-0.008	0.144
-450.938	13.440	-0.158	0.122
-449.924	-91.968	0.430	-0.121
-448.909	595.582	-0.058	0.142
-447.895	124.580	-0.078	0.098
-446.880	800.000	-0.036	0.141
-445.865	-83.876	0.223	-0.071
-444.851	62.531	0.088	-0.088
-443.836	30.888	-0.180	-0.153
-442.822	-200.000	-0.008	-0.109
-441.807	147.999	0.181	-0.243
-440.792	74.771	-0.248	0.259
-439.778	-200.000	0.000	0.165
-438.763	-26.573	0.258	0.150
-437.749	160.270	0.074	-0.103
-436.734	748.590	0.028	-0.075
-435.719	254.736	0.056	-0.096
-434.705	168.561	0.193	0.273
-433.690	-45.673	0.418	-0.206
-432.676	71.151	-0.047	0.049
-431.661	173.024	-0.108	0.154
-430.646	-114.482	0.384	-0.073
-429.632	-38.988	0.228	0.120
-428.617	-184.645	-0.338	-0.005
-427.603	-60.514	-0.240	0.101
-426.588	-37.666	0.063	0.033
-425.573	10.204	0.144	-0.109
-424.559	38.910	0.141	0.125
-423.544	16.217	-0.242	0.190
-422.530	800.000	0.026	0.115
-421.515	-172.714	-0.296	0.009
-420.500	-110.303	-0.487	0.101
-419.486	800.000	0.041	-0.119
-418.471	-70.446	-0.176	0.066
-417.457	-200.000	0.005	0.022
-416.442	93.416	-0.181	0.204
-415.428	-44.821	-0.286	0.142
-414.413	-169.603	-0.363	-0.013
-413.398	-75.340	0.091	0.032
-412.384	224.732	0.087	-0.139
-411.369	-34.096	0.502	0.274
-410.355	336.826	0.115	0.221
-409.340	-70.655	-0.132	0.050
-408.325	120.511	0.227	-0.280
-407.311	-101.301	-0.169	-0.041
-406.296	463.086	-0.067	-0.148
-405.282	97.187	0.248	0.283
-404.267	-136.370	0.453	-0.052
-403.252	-150.720	-0.401	0.030
-402.238	-132.583	0.310	-0.040
-401.223	-47.588	-0.200	-0.096
-400.209	-86.520	0.109	0.033
-399.194	800.000	0.065	0.203
-398.179	-137.845	0.162	0.018
-397.165	141.118	0.054	-0.071
-396.150	171.948	0.165	0.235
-395.136	-200.000	-0.067	0.414
-394.121	-200.000	-0.037	-0.220
-393.106	-118.402	0.537	0.095
-392.092	73.332	0.059	0.062
-391.077	4.193	-0.216	-0.157
-390.063	800.000	-0.079	0.336
-389.048	-88.382	0.376	0.111
-388.033	-121.650	-0.152	-0.025
-387.019	-60.415	0.097	0.041
-386.004	50.796	-0.190	-0.179
-384.990	30.495	0.123	0.104
-383.975	534.309	0.046	-0.109
-382.960	365.189	-0.040	-0.080
-381.946	-142.310	-0.032	-0.003
-380.931	-109.945	-0.164	0.034
-379.917	-128.837	-0.128	0.018
-378.902	-200.000	0.013	0.135
-377.888	491.545	-0.126	-0.287
-376.873	204.004	0.181	-0.279
-375.858	-105.436	-0.089	0.020
-374.844	800.000	-0.054	-0.202
-373.829	47.170	-0.057	-0.052
-372.815	92.873	-0.127	-0.142
-371.800	88.236	0.089	-0.098
-370.785	313.394	0.133	-0.248
-369.771	-15.623	0.128	-0.081
-368.756	110.560	-0.160	0.191
-367.742	-36.618	-0.041	0.022
-366.727	-49.454	0.481	0.227
-365.712	240.701	-0.229	0.378
-364.698	217.849	0.061	-0.096
-363.683	22.714	0.201	0.163
-362.669	316.249	0.020	0.038
-361.654	-200.000	-0.019	0.148
-360.639	-63.583	-0.056	-0.023
-359.625	165.409	-0.078	0.109
-358.610	-64.475	0.064	0.026
-357.596	-3.108	-0.338	0.234
-356.581	-200.000	0.028	-0.142
-355.566	161.482	0.103	-0.143
-354.552	304.804	-0.034	0.062
-353.537	800.000	-0.094	0.342
-352.523	-49.319	-0.137	0.065
-351.508	418.315	-0.191	0.404
-350.493	53.494	-0.129	0.122
-349.479	57.369	-0.083	0.080
-348.464	418.032	-0.051	0.109
-347.450	-53.644	0.140	-0.063
-346.435	84.580	0.398	0.432
-345.420	-86.591	0.154	0.047
-344.406	-200.000	-0.003	0.183
-343.391	149.881	0.117	0.157
-342.377	-118.627	-0.349	0.061
-341.362	84.154	0.033	0.036
-340.348	800.000	0.030	-0.095
-339.333	171.008	-0.265	0.376
-338.318	-34.857	0.165	-0.089
-337.304	-109.110	0.129	0.027
-336.289	-154.306	-0.165	0.011
-335.275	-124.494	0.051	0.008
-334.260	443.436	-0.026	-0.057
-333.245	-117.674	0.341	0.061
-332.231	180.956	0.253	-0.367
-331.216	-46.276	0.209	0.102
-330.202	5.645	0.199	-0.146
-329.187	-90.045	0.208	0.060
-328.172	-200.000	0.002	0.078
-327.158	359.761	0.074	0.147
-326.143	-70.778	-0.300	0.112
-325.129	-200.000	0.041	-0.208
-324.114	-200.000	-0.014	0.117
-323.099	20.561	0.158	-0.126
-322.085	-125.313	0.344	0.052
-321.070	-2.711	0.088	0.061
-320.056	-91.891	0.083	0.023
-319.041	38.006	0.063	-0.055
-318.026	54.058	-0.206	0.196
-317.012	-25.838	-0.331	0.193
-315.997	-172.274	0.258	0.008
-314.983	-20.151	-0.266	0.162
-313.968	-76.486	-0.282	0.098
-312.953	-133.447	0.351	0.044
-311.939	-72.396	0.108	0.040
-310.924	-200.000	-0.015	0.107
-309.910	-49.861	-0.150	-0.071
-308.895	259.173	0.093	0.158
-307.880	-79.304	-0.153	-0.051
-306.866	65.285	0.125	-0.125
-305.851	-200.000	-0.047	-0.321
-304.837	564.628	0.060	0.144
-303.822	-171.859	0.206	-0.007
-302.807	-200.000	0.026	-0.169
-301.793	-200.000	0.030	-0.166
-300.778	-59.749	0.070	-0.030
-299.764	-74.767	-0.551	-0.196
-298.749	-138.307	-0.088	0.010
-297.735	225.373	-0.163	-0.262
-296.720	17.321	0.143	0.112
-295.705	-81.705	0.215	-0.070
-294.691	153.091	0.136	-0.185
-293.676	-122.435	-0.099	-0.016
-292.662	-97.229	-0.254	-0.066
-291.647	-46.375	0.241	0.117
-290.632	-200.000	0.031	-0.169
-289.618	-40.950	0.130	0.066
-288.603	-48.242	0.317	0.151
-287.589	158.684	-0.124	0.170
-286.574	83.519	-0.080	-0.086
-285.559	-200.000	0.033	0.209
-284.545	-200.000	-0.025	0.138
-283.530	-147.531	0.244	0.020
-282.516	540.069	-0.027	0.062
-281.501	-200.000	-0.025	0.137
-280.486	800.000	-0.047	0.138
-279.472	91.986	-0.149	0.166
-278.457	-103.256	0.323	-0.075
-277.443	-160.948	0.091	-0.005
-276.428	571.814	0.042	-0.101
-275.413	330.089	0.032	0.061
-274.399	-200.000	0.056	-0.269
-273.384	67.009	0.193	0.194
-272.370	-96.196	0.158	-0.041
-271.355	-152.605	0.088	0.006
-270.340	-116.766	-0.268	-0.049
-269.326	-119.519	-0.431	-0.074
-268.311	-200.000	0.014	-0.170
-267.297	-35.648	-0.065	0.035
-266.282	-140.455	0.369	0.038
-265.267	-200.000	0.017	0.182
-264.253	168.922	-0.145	0.204
-263.238	100.961	0.299	0.343
-262.224	800.000	-0.153	-0.441
-261.209	-94.210	0.192	0.052
-260.195	-57.908	-0.042	0.018
-259.180	-53.414	-0.178	0.081
-258.165	-200.000	-0.010	-0.361
-257.151	800.000	0.075	-0.266
-256.136	-75.840	-0.386	-0.135
-255.122	-141.187	-0.433	0.044
-254.107	-48.763	-0.132	0.063
-253.092	230.049	0.101	0.164
-252.078	780.969	-0.137	-0.370
-251.063	800.000	-0.068	-0.240
-250.049	-32.912	0.106	0.058
-249.034	347.335	-0.179	0.349
-248.019	-13.399	-0.175	-0.112
-247.005	682.777	0.151	0.388
-245.990	255.328	-0.157	-0.265
-244.976	-200.000	0.018	0.255
-243.961	-98.004	0.133	-0.034
-242.946	52.420	0.169	0.159
-241.932	-6.720	-0.161	0.108
-240.917	-200.000	-0.006	0.168
-239.903	326.462	-0.070	0.132
-238.888	800.000	-0.129	-0.359
-237.873	-55.954	0.075	-0.033
-236.859	125.111	-0.031	-0.038
-235.844	-79.451	-0.146	-0.049
-234.830	800.000	-0.104	0.313
-233.815	-169.235	-0.214	0.008
-232.800	-32.052	0.245	-0.135
-231.786	189.184	-0.218	-0.322
-230.771	412.471	-0.061	-0.128
-229.757	116.824	-0.018	-0.022
-228.742	126.602	0.071	0.088
-227.727	-72.979	0.168	-0.061
-226.713	-200.000	-0.002	-0.167
-225.698	11.569	0.064	0.049
-224.684	-200.000	-0.001	0.080
-223.669	286.892	0.059	-0.105
-222.655	800.000	0.077	0.220
-221.640	-14.601	0.270	0.171
-220.625	218.655	0.176	0.278
-219.611	800.000	0.040	0.116
-218.596	-30.087	0.118	0.066
-217.582	-200.000	-0.068	0.406
-216.567	800.000	-0.100	0.421
-215.552	413.645	0.129	-0.270
-214.538	-200.000	0.017	-0.171
-213.523	-28.272	0.187	0.107
-212.509	-26.318	0.141	-0.082
-211.494	-138.529	0.197	0.021
-210.479	800.000	-0.074	-0.239
-209.465	-117.970	0.146	-0.026
-208.450	-200.000	0.069	-0.309
-207.436	-54.183	0.111	-0.050
-206.421	99.534	-0.099	0.113
-205.406	-200.000	0.038	-0.225
-204.392	116.158	-0.156	0.189
-203.377	-86.500	-0.200	-0.061
-202.363	23.865	0.226	-0.184
-201.348	121.321	0.300	0.368
-200.333	628.947	-0.058	0.145
-199.319	-200.000	-0.035	-0.228
-198.304	-51.592	-0.203	-0.093
-197.290	309.513	-0.106	-0.195
-196.275	193.377	0.147	-0.218
-195.260	-200.000	-0.056	-0.268
-194.246	-200.000	-0.061	-0.302
-193.231	142.195	0.167	-0.218
-192.217	115.638	-0.045	-0.054
-191.202	-111.834	0.288	-0.057
-190.187	-200.000	-0.001	-0.146
-189.173	-108.111	0.120	-0.026
-188.158	-59.182	-0.445	-0.189
-187.144	5.708	-0.244	-0.177
-186.129	-200.000	0.049	0.240
-185.114	17.154	-0.115	-0.090
-184.100	767.939	-0.052	-0.139
-183.085	-36.232	-0.189	-0.100
-182.071	-200.000	0.003	-0.554
-181.056	800.000	-0.084	0.229
-180.042	-200.000	0.024	0.287
-179.027	-15.735	0.245	-0.154
-178.012	522.379	0.077	-0.178
-176.998	14.114	-0.031	0.024
-175.983	1.325	-0.216	-0.153
-174.969	-153.126	0.205	-0.014
-173.954	-97.225	0.085	0.022
-172.939	-87.516	0.241	-0.072
-171.925	602.853	0.036	0.087
-170.910	305.914	-0.045	0.083
-169.896	-19.481	-0.018	-0.011
-168.881	231.746	0.114	0.184
-167.866	-200.000	0.008	-0.361
-166.852	-133.388	-0.124	-0.015
-165.837	-8.043	0.360	-0.239
-164.823	-129.142	-0.481	-0.066
-163.808	153.419	-0.161	0.217
-162.793	-92.631	0.438	0.121
-161.779	27.179	-0.300	-0.248
-160.764	170.511	0.157	0.221
-159.750	800.000	0.101	0.298
-158.735	108.784	-0.066	0.077
-157.720	595.835	0.143	-0.349
-156.706	-200.000	0.028	-0.163
-155.691	-151.840	-0.376	-0.027
-154.677	-200.000	0.011	0.328
-153.662	245.715	-0.106	0.176
-152.647	47.891	0.223	-0.205
-151.633	111.144	-0.204	-0.242
-150.618	-116.118	0.415	0.076
-149.604	-84.328	0.236	-0.073
-148.589	-129.281	0.244	-0.033
-147.574	-67.130	-0.463	-0.179
-146.560	-73.876	0.092	-0.033
-145.545	-48.213	-0.303	0.144
-144.531	106.705	-0.072	0.084
-143.516	-27.431	-0.121	0.069
-142.502	169.338	0.102	0.143
-141.487	-13.820	0.139	-0.088
-140.472	-200.000	0.011	-0.229
-139.458	800.000	-0.067	-0.256
-138.443	145.506	-0.084	0.111
-137.429	-77.905	0.017	-0.006
-136.414	-75.674	0.099	-0.034
-135.399	800.000	0.090	-0.253
-134.385	-200.000	-0.004	0.198
-133.370	58.004	0.069	0.066
-132.356	-99.242	-0.505	-0.125
-131.341	-200.000	-0.035	-0.304
-130.326	211.872	0.113	-0.175
-129.312	40.289	-0.264	-0.234
-128.297	-18.311	-0.077	0.047
-127.283	-64.500	-0.087	0.035
-126.268	-118.338	0.380	-0.066
-125.253	392.209	-0.063	0.129
-124.239	-175.130	-0.341	0.009
-123.224	-200.000	0.010	-0.086
-122.210	-112.550	-0.163	0.032
