DTS Sentinel unit serial number:	SN413079Multiplexer serial number:	ORYXHardware model number:	OX4-SRSoftware version number:	ORYX F/W v4.00 Oryx Data Collector v3.7.2.0data status	okinstallation	princeton_trtdifferential loss correction	single-endedforward channel	channel 3reverse channel	N/Adate	2019/09/16time	06:08:34forward acquisition time	60.00reverse acquisition time	0.00gamma	496.2192k internal	0.2334k external	0.2334temperature offset calibration	0.9960default loss term (dB/km)	0.3790temperature slope calibration	1.0000multiplexer offset coefficient	1.0000multiplexer slope coefficient	1.0000fibre end	0.00T internal ref (°C)	27.44T ext. ref 1 (°C)	11.29T ext. ref 2 (°C)	21.86length (m)	temperature (°C)	Stokes	anti-Stokes-747.200	-200.000	-0.030	-0.324
-746.185	-143.581	-0.239	-0.023
-745.171	-15.351	0.230	-0.148
-744.156	355.057	-0.063	0.126
-743.142	-200.000	-0.019	0.555
-742.127	-170.828	-0.157	0.005
-741.112	800.000	-0.124	-0.407
-740.098	109.460	-0.213	0.256
-739.083	20.007	-0.093	-0.075
-738.069	303.629	-0.208	0.388
-737.054	-200.000	-0.020	-0.283
-736.039	-36.475	-0.117	0.063
-735.025	-46.889	0.064	-0.031
-734.010	74.029	0.343	-0.361
-732.996	-133.613	-0.285	-0.036
-731.981	-155.447	-0.247	-0.016
-730.966	-7.389	-0.122	0.083
-729.952	294.190	-0.041	0.075
-728.937	-22.116	-0.292	-0.178
-727.923	800.000	0.081	0.279
-726.908	-133.664	0.162	0.020
-725.894	-9.006	-0.139	-0.093
-724.879	313.315	0.120	0.226
-723.864	-200.000	-0.033	-0.155
-722.850	-28.224	0.192	-0.111
-721.835	3.015	-0.075	-0.054
-720.821	-200.000	0.003	0.160
-719.806	-76.693	-0.207	-0.073
-718.791	121.627	0.236	-0.296
-717.777	-129.724	0.056	0.008
-716.762	-92.661	-0.093	-0.026
-715.748	-200.000	0.229	0.001
-714.733	-173.326	-0.252	0.008
-713.718	-200.000	-0.024	-0.152
-712.704	-117.880	-0.383	0.069
-711.689	-200.000	-0.075	-0.343
-710.675	-200.000	0.015	-0.137
-709.660	526.220	-0.035	0.083
-708.645	-130.140	-0.362	0.049
-707.631	-36.125	0.070	-0.038
-706.616	-70.725	0.331	0.125
-705.602	-21.615	-0.221	0.135
-704.587	-200.000	-0.050	-0.245
-703.572	109.376	-0.068	-0.082
-702.558	-153.474	0.254	-0.018
-701.543	591.561	0.067	-0.166
-700.529	43.918	0.209	-0.192
-699.514	-200.000	-0.068	-0.323
-698.499	397.029	0.075	-0.158
-697.485	84.591	-0.142	-0.156
-696.470	74.869	-0.156	0.164
-695.456	-135.619	-0.121	-0.014
-694.441	126.275	-0.080	-0.102
-693.426	168.997	0.075	0.107
-692.412	-97.435	-0.181	0.047
-691.397	563.440	-0.047	0.115
-690.383	-127.189	0.190	-0.028
-689.368	800.000	0.043	-0.152
-688.354	-90.136	-0.213	0.062
-687.339	213.076	0.061	0.097
-686.324	64.579	0.083	-0.084
-685.310	-200.000	-0.043	0.191
-684.295	150.960	-0.333	0.455
-683.281	800.000	-0.079	-0.313
-682.266	-200.000	0.024	-0.304
-681.251	-3.173	-0.271	-0.189
-680.237	787.691	-0.071	-0.196
-679.222	800.000	-0.111	-0.414
-678.208	-200.000	-0.001	0.076
-677.193	4.060	-0.053	-0.039
-676.178	-200.000	0.061	-0.346
-675.164	517.513	-0.038	0.090
-674.149	250.554	-0.141	-0.241
-673.135	-200.000	-0.020	0.121
-672.120	372.600	0.084	0.170
-671.105	-83.923	-0.380	0.121
-670.091	81.322	-0.079	-0.086
-669.076	800.000	-0.095	-0.304
-668.062	88.314	0.042	-0.047
-667.047	758.337	0.033	-0.088
-666.032	-200.000	-0.012	0.403
-665.018	-113.087	-0.399	-0.079
-664.003	-200.000	-0.008	0.145
-662.989	117.377	0.066	-0.082
-661.974	-173.785	-0.283	0.008
-660.959	-66.078	-0.167	0.067
-659.945	-200.000	0.000	0.067
-658.930	-144.323	-0.413	-0.038
-657.916	43.286	0.132	-0.121
-656.901	-50.481	-0.267	-0.126
-655.886	236.911	0.146	0.243
-654.872	122.800	0.244	-0.305
-653.857	227.272	-0.032	-0.053
-652.843	-200.000	0.002	-0.084
-651.828	247.207	-0.167	0.282
-650.814	321.225	-0.147	0.281
-649.799	14.993	0.150	-0.118
-648.784	689.162	-0.092	-0.240
-647.770	800.000	-0.149	-0.422
-646.755	800.000	0.058	-0.180
-645.741	-89.340	0.224	-0.066
-644.726	-9.979	0.030	-0.020
-643.711	-3.171	-0.075	0.052
-642.697	800.000	-0.113	-0.360
-641.682	209.315	-0.093	-0.145
-640.668	-200.000	-0.033	-0.279
-639.653	254.493	-0.061	0.104
-638.638	134.449	-0.093	0.121
-637.624	33.255	-0.098	0.085
-636.609	-200.000	-0.008	0.108
-635.595	42.049	-0.118	0.107
-634.580	102.440	0.136	0.160
-633.565	114.147	0.185	0.225
-632.551	83.103	-0.120	0.131
-631.536	-5.009	-0.052	0.036
-630.522	-200.000	0.005	-0.080
-629.507	800.000	0.075	0.271
-628.492	740.709	0.073	-0.196
-627.478	-99.120	-0.118	0.030
-626.463	630.144	0.072	-0.183
-625.449	-93.854	-0.183	-0.050
-624.434	-124.366	-0.308	-0.048
-623.419	-12.527	0.180	0.117
-622.405	-136.604	0.165	-0.019
-621.390	397.526	0.136	0.284
-620.376	-200.000	-0.047	-0.251
-619.361	59.419	0.168	0.165
-618.346	-116.194	0.059	-0.011
-617.332	25.681	0.080	0.067
-616.317	449.761	-0.171	0.376
-615.303	70.917	0.249	-0.258
-614.288	698.351	-0.116	0.305
-613.273	-200.000	0.060	0.281
-612.259	-200.000	0.031	0.463
-611.244	-74.155	0.063	0.023
-610.230	-12.640	-0.341	-0.222
-609.215	89.506	-0.132	0.147
-608.201	-83.069	-0.222	-0.072
-607.186	-200.000	0.017	0.182
-606.171	-7.490	0.179	-0.121
-605.157	43.695	-0.111	0.102
-604.142	-3.673	0.227	0.158
-603.128	800.000	0.064	0.212
-602.113	9.810	0.229	-0.173
-601.098	29.990	0.110	0.093
-600.084	-48.043	-0.021	-0.010
-599.069	-117.934	0.139	-0.025
-598.055	-100.167	-0.057	0.014
-597.040	800.000	0.056	-0.188
-596.025	-77.033	0.083	-0.029
-595.011	236.093	0.089	-0.147
-593.996	-129.074	0.077	0.011
-592.982	198.715	0.152	-0.232
-591.967	-200.000	0.028	-0.152
-590.952	219.441	0.101	0.161
-589.938	-200.000	-0.015	0.163
-588.923	-200.000	-0.008	-0.218
-587.909	-200.000	-0.010	0.108
-586.894	-200.000	-0.033	-0.193
-585.879	800.000	0.038	0.118
-584.865	-107.014	0.081	-0.018
-583.850	254.474	-0.272	-0.465
-582.836	-24.818	0.287	-0.170
-581.821	28.095	0.028	0.024
-580.806	223.174	-0.150	0.241
-579.792	800.000	-0.049	0.183
-578.777	21.229	0.197	-0.159
-577.763	68.207	0.067	0.069
-576.748	800.000	0.036	-0.111
-575.733	610.515	-0.025	0.062
-574.719	800.000	-0.087	-0.275
-573.704	800.000	-0.022	-0.065
-572.690	-64.030	0.161	-0.066
-571.675	317.541	0.071	0.133
-570.661	-25.216	0.273	-0.161
-569.646	-147.508	0.334	0.028
-568.631	-162.047	0.126	0.006
-567.617	-54.449	-0.270	-0.122
-566.602	-61.588	-0.454	-0.190
-565.588	239.840	-0.084	-0.139
-564.573	-86.741	0.110	-0.034
-563.558	-200.000	0.010	0.452
-562.544	1.427	-0.147	-0.105
-561.529	-200.000	0.010	0.356
-560.515	-82.603	-0.184	-0.060
-559.500	-124.636	0.211	-0.033
-558.485	-21.119	0.300	0.183
-557.471	297.760	0.118	-0.215
-556.456	72.183	-0.223	-0.232
-555.442	-135.197	0.255	0.030
-554.427	800.000	-0.061	-0.179
-553.412	-200.000	0.003	-0.072
-552.398	75.765	0.114	0.120
-551.383	-22.102	0.151	-0.091
-550.369	-115.824	-0.319	0.059
-549.354	-200.000	0.005	-0.289
-548.339	-200.000	-0.029	0.249
-547.325	-4.260	-0.212	-0.146
-546.310	800.000	-0.027	-0.077
-545.296	-200.000	-0.006	-0.082
-544.281	-200.000	0.131	-0.001
-543.266	-26.928	-0.230	0.134
-542.252	25.129	0.341	0.282
-541.237	45.040	0.138	0.127
-540.223	25.990	-0.205	0.171
-539.208	-85.327	-0.082	0.025
-538.193	109.737	0.178	-0.213
-537.179	27.044	0.019	-0.016
-536.164	-41.772	0.157	-0.080
-535.150	10.506	-0.211	0.160
-534.135	-19.068	-0.267	0.165
-533.121	385.974	-0.045	0.093
-532.106	-82.458	0.293	-0.095
-531.091	-76.632	0.264	-0.092
-530.077	800.000	0.121	-0.339
-529.062	558.619	0.053	0.127
-528.048	-21.679	-0.138	0.084
-527.033	-72.260	-0.456	0.168
-526.018	-114.078	0.129	-0.025
-525.004	-182.836	0.177	-0.003
-523.989	-158.268	-0.130	0.008
-522.975	5.127	0.071	0.052
-521.960	-135.891	0.070	-0.008
-520.945	159.790	-0.239	-0.332
-519.931	800.000	-0.103	-0.292
-518.916	-200.000	-0.006	0.101
-517.902	32.746	-0.253	0.218
-516.887	-97.238	0.262	-0.068
-515.872	208.458	0.031	0.048
-514.858	67.778	0.246	-0.251
-513.843	-42.439	0.360	-0.183
-512.829	310.443	-0.044	0.083
-511.814	-108.011	-0.026	-0.006
-510.799	393.751	-0.041	-0.085
-509.785	800.000	0.048	-0.198
-508.770	-200.000	-0.023	-0.233
-507.756	-33.748	-0.278	0.153
-506.741	-12.513	0.208	0.135
-505.726	800.000	-0.024	-0.097
-504.712	-200.000	-0.023	-0.109
-503.697	285.327	-0.068	0.121
-502.683	105.901	0.285	-0.336
-501.668	261.258	0.066	0.113
-500.653	-138.033	-0.245	-0.027
-499.639	675.847	0.120	-0.311
-498.624	800.000	0.076	0.238
-497.610	-200.000	0.024	-0.238
-496.595	-200.000	0.043	0.339
-495.581	-31.399	-0.116	0.065
-494.566	-63.647	-0.285	0.116
-493.551	-133.347	0.212	-0.027
-492.537	-200.000	-0.027	0.237
-491.522	-200.000	0.026	0.158
-490.508	-73.840	-0.070	0.025
-489.493	-107.503	0.079	-0.017
-488.478	19.074	-0.107	-0.085
-487.464	0.159	-0.034	0.024
-486.449	800.000	-0.093	0.318
-485.435	-200.000	0.056	-0.311
-484.420	101.685	0.177	0.206
-483.405	28.456	-0.135	-0.113
-482.391	-70.915	0.163	0.061
-481.376	198.790	0.026	-0.039
-480.362	-200.000	0.003	-0.637
-479.347	-200.000	-0.011	0.238
-478.332	-178.095	0.111	0.003
-477.318	13.415	-0.297	-0.229
-476.303	611.455	0.046	-0.114
-475.289	-81.000	-0.337	-0.111
-474.274	-127.866	0.056	0.008
-473.259	-200.000	-0.012	0.151
-472.245	-89.825	0.338	0.098
-471.230	149.260	0.064	-0.086
-470.216	-24.358	-0.102	-0.061
-469.201	56.748	-0.188	-0.182
-468.186	346.354	0.047	0.092
-467.172	43.208	-0.122	0.111
-466.157	238.896	-0.071	0.118
-465.143	-200.000	-0.007	0.434
-464.128	3.343	-0.194	-0.140
-463.113	9.298	-0.234	-0.176
-462.099	-166.642	-0.311	0.013
-461.084	-200.000	0.011	0.158
-460.070	-37.157	0.448	-0.238
-459.055	-27.211	0.240	0.139
-458.040	295.588	-0.102	-0.185
-457.026	-200.000	0.084	0.397
-456.011	222.839	-0.097	-0.155
-454.997	-12.261	0.081	-0.053
-453.982	510.618	0.036	-0.082
-452.968	-84.293	-0.254	0.080
-451.953	52.294	0.198	0.187
-450.938	-75.264	0.254	-0.090
-449.924	800.000	-0.025	0.080
-448.909	-200.000	0.049	-0.310
-447.895	-146.760	0.091	-0.008
-446.880	-55.249	0.095	0.042
-445.865	-128.792	-0.233	0.033
-444.851	-200.000	0.036	-0.194
-443.836	483.632	0.028	-0.064
-442.822	144.496	-0.270	0.358
-441.807	90.035	-0.085	0.094
-440.792	-35.692	-0.102	-0.055
-439.778	-133.822	0.145	-0.018
-438.763	-53.179	-0.246	0.112
-437.749	149.719	-0.055	-0.074
-436.734	-46.047	-0.260	-0.127
-435.719	-89.315	-0.216	0.063
-434.705	350.752	0.039	0.077
-433.690	72.128	0.380	0.393
-432.676	-108.101	-0.093	-0.020
-431.661	231.140	0.117	0.190
-430.646	-26.070	-0.120	0.070
-429.632	-200.000	0.013	-0.171
-428.617	-109.719	-0.317	-0.066
-427.603	-200.000	0.045	-0.283
-426.588	-143.560	0.261	-0.025
-425.573	79.804	-0.159	0.170
-424.559	405.738	-0.063	0.133
-423.544	-165.443	0.040	0.002
-422.530	-200.000	-0.004	-0.178
-421.515	-176.572	0.252	-0.006
-420.500	573.180	0.117	0.282
-419.486	-84.208	0.194	0.061
-418.471	800.000	0.015	0.050
-417.457	-200.000	0.016	0.224
-416.442	-200.000	-0.009	-0.070
-415.428	-200.000	-0.046	0.249
-414.413	416.321	0.116	0.246
-413.398	-127.661	0.091	0.013
-412.384	-148.016	-0.094	-0.008
-411.369	-81.630	-0.449	0.146
-410.355	118.221	-0.329	-0.402
-409.340	-200.000	0.018	0.116
-408.325	800.000	0.034	-0.114
-407.311	-130.848	0.221	-0.029
-406.296	-109.044	0.082	-0.017
-405.282	32.984	0.183	-0.157
-404.267	695.098	0.076	-0.198
-403.252	-7.390	-0.252	-0.170
-402.238	-52.711	0.045	0.020
-401.223	-149.539	-0.222	-0.017
-400.209	-120.885	0.020	-0.003
-399.194	743.399	-0.095	-0.253
-398.179	-74.760	-0.245	-0.087
-397.165	724.549	0.079	-0.210
-396.150	-45.739	0.205	0.101
-395.136	-50.031	-0.222	0.104
-394.121	95.259	0.052	-0.058
-393.106	-63.389	0.012	0.005
-392.092	-106.228	0.302	0.067
-391.077	70.905	0.235	0.241
-390.063	-72.995	0.229	0.083
-389.048	-200.000	-0.014	-0.336
-388.033	-76.980	-0.246	0.085
-387.019	-48.327	-0.410	0.196
-386.004	-18.006	-0.243	0.151
-384.990	-200.000	-0.042	0.209
-383.975	-10.575	-0.192	0.126
-382.960	299.492	-0.136	0.249
-381.946	33.795	-0.170	0.146
-380.931	43.411	0.127	-0.115
-379.917	34.820	0.142	-0.123
-378.902	800.000	0.096	0.390
-377.888	-155.240	-0.276	-0.018
-376.873	-166.490	0.188	-0.008
-375.858	505.120	-0.080	0.184
-374.844	-164.368	-0.185	0.008
-373.829	225.383	-0.126	0.202
-372.815	135.994	-0.133	0.172
-371.800	242.434	-0.070	0.116
-370.785	-31.721	0.212	0.118
-369.771	230.229	0.077	0.124
-368.756	-30.574	0.019	0.011
-367.742	158.823	0.042	0.057
-366.727	-48.195	0.357	0.171
-365.712	-200.000	-0.009	-0.209
-364.698	-133.683	0.315	-0.039
-363.683	-87.604	-0.421	0.126
-362.669	-32.241	-0.290	-0.160
-361.654	347.601	0.114	-0.222
-360.639	-19.781	0.355	-0.217
-359.625	312.658	0.041	0.076
-358.610	552.211	-0.078	0.185
-357.596	-80.002	0.158	-0.052
-356.581	582.319	-0.097	0.235
-355.566	-200.000	0.014	0.158
-354.552	-200.000	-0.008	-0.326
-353.537	34.050	0.039	0.034
-352.523	310.948	-0.136	0.252
-351.508	-53.862	-0.204	0.092
-350.493	-200.000	-0.050	-0.411
-349.479	-50.594	0.319	-0.149
-348.464	-36.039	0.086	-0.046
-347.450	-71.561	-0.274	0.101
-346.435	-127.401	0.061	-0.009
-345.420	-93.579	-0.166	-0.045
-344.406	-200.000	0.078	0.425
-343.391	121.970	0.162	-0.200
-342.377	-154.602	-0.208	0.014
-341.362	800.000	0.059	-0.198
-340.348	250.592	-0.071	0.119
-339.333	-200.000	-0.040	0.312
-338.318	-200.000	0.075	-0.347
-337.304	800.000	0.031	-0.086
-336.289	-200.000	-0.014	0.283
-335.275	-89.111	-0.564	-0.165
-334.260	800.000	0.081	0.256
-333.245	282.823	-0.077	-0.137
-332.231	158.022	-0.218	0.299
-331.216	-200.000	0.087	0.382
-330.202	-164.079	0.229	0.010
-329.187	114.504	-0.150	0.181
-328.172	28.402	-0.118	-0.099
-327.158	-109.875	-0.282	-0.058
-326.143	-124.414	-0.222	0.034
-325.129	-200.000	-0.009	-0.099
-324.114	-7.163	-0.153	-0.102
-323.099	-200.000	0.014	0.319
-322.085	-110.058	0.252	-0.052
-321.070	-107.325	0.024	-0.005
-320.056	-72.932	-0.181	-0.066
-319.041	-200.000	0.061	-0.294
-318.026	271.420	-0.246	-0.428
-317.012	416.857	-0.064	-0.136
-315.997	104.679	-0.132	-0.154
-314.983	-104.935	-0.198	0.045
-313.968	393.196	-0.123	0.252
-312.953	539.912	0.087	-0.205
-311.939	61.267	-0.301	0.296
-310.924	-157.697	0.219	0.013
-309.910	186.978	-0.051	-0.075
-308.895	702.913	-0.023	0.060
-307.880	-200.000	-0.006	0.066
-306.866	-200.000	0.040	0.257
-305.851	-85.828	-0.131	-0.040
-304.837	478.007	-0.100	-0.224
-303.822	-200.000	-0.042	-0.204
-302.807	-117.746	0.258	0.046
-301.793	309.324	0.052	-0.095
-300.778	-41.514	-0.394	-0.200
-299.764	289.132	-0.020	-0.035
-298.749	216.690	-0.159	0.250
-297.735	-200.000	-0.107	-0.563
-296.720	-31.485	0.374	-0.208
-295.705	800.000	-0.035	0.124
-294.691	-200.000	-0.003	-0.041
-293.676	-159.931	-0.172	0.009
-292.662	-19.252	0.041	-0.025
-291.647	-53.941	-0.260	0.117
-290.632	-69.937	-0.105	0.040
-289.618	-134.552	0.147	-0.018
-288.603	-39.893	0.252	-0.130
-287.589	786.986	0.093	-0.252
-286.574	-37.572	0.196	0.103
-285.559	17.317	-0.161	0.126
-284.545	168.081	0.168	-0.236
-283.530	315.319	-0.141	0.263
-282.516	96.717	-0.200	0.226
-281.501	-200.000	-0.046	0.223
-280.486	-85.638	0.115	0.035
-279.472	-200.000	-0.028	-0.390
-278.457	-91.449	-0.214	0.060
-277.443	608.694	0.259	-0.639
-276.428	-200.000	-0.084	-0.377
-275.413	-200.000	0.040	-0.305
-274.399	-126.084	-0.191	-0.028
-273.384	800.000	0.102	0.352
-272.370	-149.031	-0.166	0.013
-271.355	-25.880	-0.302	0.175
-270.340	30.722	-0.276	0.233
-269.326	-78.937	-0.092	-0.031
-268.311	-100.475	-0.133	-0.032
-267.297	214.811	0.085	-0.133
-266.282	-107.714	0.072	-0.015
-265.267	372.272	0.161	-0.322
-264.253	-38.080	0.159	0.083
-263.238	-67.842	0.226	-0.087
-262.224	800.000	-0.077	-0.252
-261.209	-165.318	0.077	0.003
-260.195	800.000	-0.087	0.299
-259.180	245.124	0.145	-0.241
-258.165	-77.027	0.113	-0.039
-257.151	211.381	-0.071	0.111
-256.136	-103.163	0.040	-0.009
-255.122	-58.028	-0.096	0.041
-254.107	-40.325	0.084	-0.043
-253.092	235.584	-0.037	0.060
-252.078	19.622	-0.220	-0.175
-251.063	-25.349	0.030	0.018
-250.049	-17.876	-0.088	0.055
-249.034	-51.686	-0.059	0.027
-248.019	-105.250	-0.359	-0.081
-247.005	-37.153	0.031	-0.016
-245.990	-200.000	0.061	-0.306
-244.976	-120.665	0.089	0.015
-243.961	-178.529	0.311	0.007
-242.946	39.666	-0.268	-0.237
-241.932	108.075	0.267	-0.313
-240.917	191.123	0.096	-0.143
-239.903	209.835	0.223	0.344
-238.888	-108.119	0.206	0.044
-237.873	83.505	0.182	0.195
-236.859	-80.080	0.152	-0.050
-235.844	800.000	0.118	-0.324
-234.830	-121.774	-0.201	0.033
-233.815	-200.000	0.029	-0.167
-232.800	9.117	-0.140	0.104
-231.786	-71.178	0.157	0.058
-230.771	800.000	-0.097	-0.293
-229.757	-162.318	-0.175	0.009
-228.742	-35.583	0.071	0.038
-227.727	-200.000	0.030	-0.233
-226.713	800.000	-0.009	0.038
-225.698	-5.655	0.230	0.155
-224.684	-56.833	-0.461	0.200
-223.669	260.932	-0.173	-0.296
-222.655	-32.908	0.056	-0.031
-221.640	-113.501	-0.072	-0.014
-220.625	-19.884	-0.275	-0.167
-219.611	-200.000	-0.057	0.273
-218.596	-13.618	-0.206	0.131
-217.582	-200.000	0.008	-0.110
-216.567	-200.000	-0.023	-0.311
-215.552	-104.252	0.302	0.069
-214.538	326.016	0.060	0.114
-213.523	122.636	0.068	-0.084
-212.509	157.658	0.111	-0.151
-211.494	141.499	0.181	0.236
-210.479	-40.122	0.371	0.190
-209.465	-10.968	-0.334	0.217
-208.450	-31.355	0.201	0.111
-207.436	11.703	-0.150	-0.113
-206.421	266.093	0.166	0.285
-205.406	278.958	0.116	-0.203
-204.392	44.135	-0.129	0.117
-203.377	800.000	0.034	-0.118
-202.363	-200.000	0.023	0.110
-201.348	6.991	0.379	-0.278
-200.333	-200.000	0.023	0.260
-199.319	757.793	-0.040	0.108
-198.304	257.388	0.019	0.033
-197.290	800.000	0.057	0.187
-196.275	595.674	0.069	-0.169
-195.260	-110.452	0.171	0.035
-194.246	-91.784	-0.032	-0.009
-193.231	433.887	0.106	-0.226
-192.217	554.208	-0.121	-0.287
-191.202	-64.063	0.253	-0.102
-190.187	800.000	-0.085	0.305
-189.173	635.300	0.052	0.129
-188.158	93.865	-0.132	0.147
-187.144	65.527	0.238	0.237
-186.129	198.060	0.014	-0.021
-185.114	242.808	-0.032	0.052
-184.100	14.271	0.091	0.069
-183.085	-70.719	-0.535	0.199
-182.071	21.352	-0.112	0.090
-181.056	33.477	-0.037	0.031
-180.042	-200.000	-0.041	0.368
-179.027	-200.000	-0.025	-0.209
-178.012	-130.131	0.138	0.018
-176.998	-43.590	0.228	-0.113
-175.983	-149.687	0.212	0.016
-174.969	-200.000	-0.031	-0.233
-173.954	-90.418	0.137	-0.039
-172.939	46.229	0.072	0.066
-171.925	-200.000	0.016	-0.112
-170.910	-47.837	0.227	0.108
-169.896	100.655	0.108	-0.123
-168.881	-37.585	-0.061	0.032
-167.866	800.000	0.081	-0.229
-166.852	186.869	-0.137	0.201
-165.837	156.509	0.226	0.306
-164.823	194.175	-0.157	0.233
-163.808	612.504	-0.071	-0.174
-162.793	-200.000	0.033	0.423
-161.779	800.000	0.010	0.036
-160.764	188.577	-0.121	0.178
-159.750	-22.129	0.277	-0.165
-158.735	-184.286	0.360	-0.006
-157.720	-103.629	-0.271	0.063
-156.706	329.088	0.088	0.166
-155.691	-45.279	0.377	0.184
-154.677	-200.000	-0.038	-0.238
-153.662	87.446	0.258	-0.281
-152.647	800.000	0.091	0.249
-151.633	481.208	-0.038	0.084
-150.618	-33.631	-0.371	0.201
-149.604	-152.683	0.092	0.006
-148.589	-2.488	-0.220	-0.151
-147.574	-200.000	0.062	0.407
-146.560	-66.033	0.081	-0.032
-145.545	191.082	0.084	0.124
-144.531	-72.125	-0.094	-0.034
-143.516	800.000	0.042	-0.154
-142.502	-200.000	-0.005	-0.103
-141.487	-63.555	0.060	-0.024
-140.472	-200.000	0.022	-0.343
-139.458	34.792	0.347	-0.298
-138.443	23.006	-0.158	-0.127
-137.429	-188.237	0.040	-0.001
-136.414	423.897	-0.046	0.097
-135.399	-200.000	0.007	0.156
-134.385	-79.989	0.334	-0.110
-133.370	-200.000	-0.050	-0.234
-132.356	1.710	-0.124	-0.088
-131.341	486.831	0.175	-0.392
-130.326	-182.495	-0.195	0.004
-129.312	-62.781	0.290	-0.118
-128.297	46.182	-0.077	-0.070
-127.283	-200.000	-0.011	-0.373
-126.268	-26.951	0.256	0.147
-125.253	-118.178	-0.308	0.054
-124.239	-6.404	-0.247	-0.165
-123.224	236.669	0.062	-0.101
-122.210	41.652	0.275	-0.244
