DTS Sentinel unit serial number:	SN413079Multiplexer serial number:	ORYXHardware model number:	OX4-SRSoftware version number:	ORYX F/W v4.00 Oryx Data Collector v3.7.2.0data status	okinstallation	princeton_trtdifferential loss correction	single-endedforward channel	channel 3reverse channel	N/Adate	2019/09/15time	03:52:34forward acquisition time	60.00reverse acquisition time	0.00gamma	496.2192k internal	0.2323k external	0.2323temperature offset calibration	0.9967default loss term (dB/km)	0.3790temperature slope calibration	1.0000multiplexer offset coefficient	1.0000multiplexer slope coefficient	1.0000fibre end	0.00T internal ref (°C)	30.94T ext. ref 1 (°C)	4.61T ext. ref 2 (°C)	25.91length (m)	temperature (°C)	Stokes	anti-Stokes-747.200	60.119	0.071	0.071
-746.185	-52.569	-0.251	0.117
-745.171	36.345	0.345	0.307
-744.156	-13.764	-0.255	0.167
-743.142	-15.021	0.098	0.063
-742.127	418.390	-0.226	0.487
-741.112	-145.099	-0.136	0.012
-740.098	293.971	-0.215	0.397
-739.083	-142.267	-0.267	0.027
-738.069	-200.000	0.018	0.202
-737.054	-31.580	-0.225	0.127
-736.039	25.576	-0.352	0.296
-735.025	-178.646	0.230	-0.005
-734.010	27.217	0.104	-0.089
-732.996	-17.438	-0.134	-0.085
-731.981	-0.898	0.092	-0.066
-730.966	101.379	0.123	-0.145
-729.952	-112.735	-0.166	0.033
-728.937	-151.548	-0.161	0.012
-727.923	298.247	-0.164	-0.305
-726.908	176.532	-0.045	0.066
-725.894	55.749	0.225	-0.220
-724.879	800.000	-0.014	0.057
-723.864	800.000	-0.083	-0.268
-722.850	800.000	-0.055	0.217
-721.835	-131.401	0.045	0.006
-720.821	63.546	-0.031	-0.032
-719.806	-200.000	0.040	-0.192
-718.791	-103.801	-0.057	0.013
-717.777	-200.000	-0.012	-0.111
-716.762	276.459	0.056	-0.100
-715.748	22.602	-0.103	-0.085
-714.733	-91.257	-0.317	0.092
-713.718	-80.929	0.125	-0.042
-712.704	-58.784	-0.162	0.071
-711.689	800.000	-0.035	-0.128
-710.675	26.653	-0.123	-0.104
-709.660	97.827	-0.066	-0.076
-708.645	-200.000	-0.023	-0.169
-707.631	-26.774	0.199	0.117
-706.616	-34.092	-0.242	-0.134
-705.602	74.104	0.157	0.166
-704.587	-16.994	-0.224	-0.143
-703.572	800.000	0.114	-0.367
-702.558	-63.117	0.170	0.071
-701.543	94.178	-0.005	-0.006
-700.529	-200.000	0.035	0.313
-699.514	88.393	-0.164	0.183
-698.499	-98.618	-0.287	0.074
-697.485	-91.930	-0.292	0.083
-696.470	-186.858	0.295	0.004
-695.456	268.812	-0.155	-0.273
-694.441	383.682	0.114	-0.237
-693.426	179.225	0.022	-0.032
-692.412	629.419	0.010	0.026
-691.397	-92.390	-0.253	-0.072
-690.383	-90.425	0.305	-0.089
-689.368	28.226	0.238	0.203
-688.354	4.139	-0.239	-0.176
-687.339	169.345	0.079	-0.114
-686.324	31.449	0.117	-0.101
-685.310	400.289	-0.092	-0.194
-684.295	61.513	-0.236	-0.237
-683.281	-36.332	-0.083	0.045
-682.266	296.184	0.085	-0.158
-681.251	-69.477	-0.303	-0.117
-680.237	31.356	-0.116	0.100
-679.222	-97.211	-0.263	0.069
-678.208	242.121	-0.103	0.173
-677.193	-183.876	-0.401	-0.007
-676.178	800.000	0.090	0.344
-675.164	-106.788	-0.339	0.076
-674.149	296.606	-0.080	-0.148
-673.135	187.299	-0.107	-0.160
-672.120	577.034	-0.006	0.014
-671.105	-30.953	-0.198	-0.113
-670.091	-95.354	-0.267	0.072
-669.076	60.753	-0.257	0.257
-668.062	-200.000	0.045	-0.273
-667.047	260.778	0.132	-0.230
-666.032	-68.033	0.194	-0.076
-665.018	-45.374	-0.271	-0.136
-664.003	-16.206	0.262	0.167
-662.989	-29.784	0.320	0.184
-661.974	-200.000	-0.033	0.157
-660.959	-3.625	0.248	0.173
-659.945	-46.027	0.366	-0.181
-658.930	67.652	-0.188	0.194
-657.916	-91.211	0.031	-0.009
-656.901	-175.881	-0.348	-0.009
-655.886	-65.028	0.096	-0.039
-654.872	-200.000	0.004	0.122
-653.857	-200.000	0.040	0.188
-652.843	800.000	0.052	0.184
-651.828	800.000	-0.086	-0.299
-650.814	-200.000	0.042	-0.329
-649.799	2.218	0.195	0.142
-648.784	-200.000	0.015	0.306
-647.770	-8.275	-0.104	0.070
-646.755	800.000	-0.031	0.126
-645.741	-86.005	0.373	-0.116
-644.726	17.547	0.270	-0.216
-643.711	106.688	-0.179	-0.214
-642.697	21.466	-0.310	-0.253
-641.682	-66.236	0.025	0.010
-640.668	-145.863	0.222	-0.020
-639.653	800.000	-0.095	-0.292
-638.638	56.538	-0.151	-0.147
-637.624	-25.975	-0.353	-0.209
-636.609	105.204	0.038	0.045
-635.595	326.503	-0.096	-0.185
-634.580	800.000	0.041	-0.113
-633.565	-92.032	-0.103	-0.029
-632.551	328.247	0.065	0.125
-631.536	-200.000	-0.028	-0.323
-630.522	136.242	0.265	-0.348
-629.507	800.000	-0.066	-0.277
-628.492	-2.290	0.039	-0.028
-627.478	60.792	0.124	-0.124
-626.463	75.594	-0.199	-0.212
-625.449	-151.436	-0.220	-0.016
-624.434	-54.821	0.090	0.041
-623.419	670.360	-0.052	-0.135
-622.405	22.467	-0.315	-0.259
-621.390	-32.828	-0.088	-0.049
-620.376	106.826	-0.263	0.313
-619.361	-82.941	-0.204	0.066
-618.346	-4.520	-0.084	0.059
-617.332	739.696	0.080	0.216
-616.317	156.191	-0.151	-0.209
-615.303	281.351	0.051	0.092
-614.288	800.000	0.179	-0.588
-613.273	-63.184	-0.204	-0.084
-612.259	800.000	0.043	-0.134
-611.244	-25.389	0.340	0.202
-610.230	-60.187	0.077	0.033
-609.215	-200.000	-0.051	-0.362
-608.201	-200.000	-0.006	0.131
-607.186	-4.904	0.046	-0.032
-606.171	228.872	-0.053	0.086
-605.157	-87.588	0.249	0.075
-604.142	-183.879	-0.113	-0.002
-603.128	451.233	-0.078	0.174
-602.113	136.980	0.117	0.153
-601.098	-32.476	-0.121	0.068
-600.084	41.621	-0.317	0.288
-599.069	-132.258	-0.338	-0.044
-598.055	0.446	0.128	-0.092
-597.040	-158.256	-0.364	0.021
-596.025	800.000	0.046	0.132
-595.011	362.343	0.085	-0.172
-593.996	800.000	0.039	-0.128
-592.982	-153.534	-0.145	0.010
-591.967	118.889	-0.183	-0.227
-590.952	-68.479	0.285	0.111
-589.938	207.236	-0.077	-0.120
-588.923	-144.574	-0.349	0.032
-587.909	155.166	-0.093	-0.128
-586.894	-62.110	0.286	0.120
-585.879	32.713	-0.161	-0.140
-584.865	-145.002	-0.134	0.012
-583.850	-129.714	0.296	0.041
-582.836	141.632	0.082	-0.109
-581.821	-79.995	0.219	-0.074
-580.806	-76.641	0.184	-0.065
-579.792	-103.191	-0.130	0.031
-578.777	559.339	-0.069	0.167
-577.763	79.916	0.212	0.229
-576.748	42.724	0.020	0.018
-575.733	-107.663	-0.165	-0.036
-574.719	-136.835	0.089	0.010
-573.704	-97.856	-0.233	-0.060
-572.690	120.001	-0.274	-0.341
-571.675	-69.516	0.175	-0.067
-570.661	74.850	0.188	0.199
-569.646	690.841	0.174	-0.457
-568.631	800.000	0.097	-0.315
-567.617	-200.000	-0.028	0.188
-566.602	-125.921	0.082	-0.012
-565.588	-200.000	0.032	-0.468
-564.573	-200.000	0.012	0.196
-563.558	-82.093	0.245	0.080
-562.544	-1.793	0.208	-0.147
-561.529	-104.812	0.072	0.017
-560.515	40.014	-0.099	-0.089
-559.500	10.111	-0.236	-0.180
-558.485	-16.208	0.270	0.172
-557.471	33.824	-0.127	0.110
-556.456	800.000	-0.078	-0.323
-555.442	800.000	0.132	0.417
-554.427	-200.000	0.010	-0.101
-553.412	800.000	-0.049	0.179
-552.398	-43.877	-0.165	-0.083
-551.383	251.991	-0.028	-0.048
-550.369	8.608	0.108	0.082
-549.354	161.733	0.100	0.140
-548.339	-91.068	-0.077	-0.022
-547.325	800.000	0.079	0.238
-546.310	13.885	-0.291	0.227
-545.296	733.020	-0.098	0.263
-544.281	-200.000	0.054	-0.310
-543.266	-98.738	0.147	-0.038
-542.252	-139.075	-0.062	-0.007
-541.237	800.000	0.121	-0.362
-540.223	-24.641	0.251	0.150
-539.208	3.911	0.048	0.035
-538.193	-9.341	-0.124	-0.083
-537.179	800.000	0.110	-0.342
-536.164	-117.188	0.040	0.007
-535.150	-9.529	0.093	0.062
-534.135	-145.195	-0.278	-0.025
-533.121	107.960	0.030	0.036
-532.106	210.376	-0.163	-0.256
-531.091	91.730	0.120	0.135
-530.077	541.790	0.051	0.121
-529.062	191.668	-0.185	0.279
-528.048	-87.818	-0.130	-0.039
-527.033	800.000	0.034	-0.103
-526.018	126.605	0.069	-0.088
-525.004	-29.511	0.127	0.073
-523.989	-200.000	-0.079	-0.357
-522.975	-102.380	0.172	-0.041
-521.960	-200.000	-0.013	0.362
-520.945	229.952	-0.119	-0.195
-519.931	797.725	0.078	-0.215
-518.916	-124.954	-0.175	0.027
-517.902	717.531	0.101	0.269
-516.887	80.958	-0.106	0.114
-515.872	-1.611	0.324	0.228
-514.858	-133.767	0.093	-0.012
-513.843	-20.034	-0.315	-0.195
-512.829	-92.469	-0.015	-0.004
-511.814	92.053	-0.079	0.089
-510.799	274.492	-0.105	0.187
-509.785	-95.387	-0.148	-0.040
-508.770	-58.226	0.274	0.119
-507.756	64.414	0.098	-0.099
-506.741	172.118	-0.086	-0.123
-505.726	421.984	0.055	-0.118
-504.712	800.000	0.137	-0.388
-503.697	72.648	0.268	0.280
-502.683	49.870	-0.107	-0.101
-501.668	313.713	-0.114	0.215
-500.653	-95.244	0.213	-0.057
-499.639	45.942	0.043	0.040
-498.624	-200.000	-0.008	0.114
-497.610	-177.697	-0.239	-0.006
-496.595	-200.000	0.003	0.391
-495.581	-176.275	0.068	0.002
-494.566	200.818	0.156	-0.240
-493.551	-200.000	0.022	-0.131
-492.537	171.124	-0.120	0.172
-491.522	-130.159	0.302	-0.041
-490.508	-118.682	-0.270	0.048
-489.493	-141.921	0.370	-0.037
-488.478	-200.000	-0.013	-0.098
-487.464	800.000	0.078	-0.309
-486.449	137.058	0.081	0.105
-485.435	56.725	0.115	0.112
-484.420	800.000	0.067	-0.269
-483.405	606.483	0.177	-0.440
-482.391	-156.369	-0.185	0.012
-481.376	148.599	-0.084	0.114
-480.362	800.000	-0.016	0.052
-479.347	-142.619	-0.177	-0.017
-478.332	-200.000	0.011	-0.316
-477.318	-80.580	-0.174	0.058
-476.303	421.039	0.196	0.420
-475.289	-124.456	-0.281	0.044
-474.274	323.979	-0.077	-0.147
-473.259	-18.140	-0.180	-0.113
-472.245	73.764	0.178	0.186
-471.230	145.954	-0.174	-0.234
-470.216	800.000	-0.032	-0.129
-469.201	177.229	0.239	-0.348
-468.186	35.978	-0.070	-0.062
-467.172	633.177	-0.120	0.305
-466.157	-52.631	-0.233	0.108
-465.143	-119.615	-0.293	-0.051
-464.128	-122.538	-0.163	0.026
-463.113	298.003	0.038	-0.070
-462.099	471.203	0.053	-0.118
-461.084	-152.183	0.186	0.013
-460.070	-200.000	0.001	0.062
-459.055	-200.000	0.033	-0.306
-458.040	-200.000	-0.029	-0.255
-457.026	331.391	-0.053	-0.103
-456.011	53.417	0.014	-0.014
-454.997	-18.194	-0.201	-0.125
-453.982	-200.000	-0.022	0.112
-452.968	800.000	0.030	-0.083
-451.953	32.005	0.181	-0.156
-450.938	-27.943	-0.318	0.184
-449.924	86.907	-0.143	-0.158
-448.909	-22.889	-0.061	0.036
-447.895	800.000	0.062	-0.223
-446.880	-124.625	0.215	0.033
-445.865	-200.000	-0.029	0.308
-444.851	-200.000	-0.004	0.408
-443.836	-200.000	0.036	-0.235
-442.822	-91.532	-0.105	-0.030
-441.807	-200.000	0.014	0.108
-440.792	-24.998	-0.142	-0.084
-439.778	-178.587	0.348	0.008
-438.763	-82.202	0.297	0.097
-437.749	29.284	0.202	0.172
-436.734	-200.000	0.016	-0.109
-435.719	-200.000	0.001	-0.054
-434.705	479.196	-0.133	0.300
-433.690	283.210	-0.115	0.207
-432.676	184.547	0.176	-0.260
-431.661	-124.162	0.284	-0.044
-430.646	60.416	0.128	0.126
-429.632	-48.013	-0.349	0.168
-428.617	275.626	0.038	0.068
-427.603	800.000	0.058	0.239
-426.588	-116.014	0.290	-0.054
-425.573	-200.000	0.009	0.146
-424.559	-200.000	-0.017	-0.493
-423.544	800.000	0.054	-0.165
-422.530	-32.413	-0.173	0.096
-421.515	328.669	-0.085	-0.162
-420.500	-200.000	0.000	0.364
-419.486	7.117	0.122	0.091
-418.471	102.137	-0.039	-0.046
-417.457	198.036	-0.078	0.118
-416.442	31.272	-0.083	0.071
-415.428	-160.895	0.085	-0.004
-414.413	15.780	-0.154	-0.120
-413.398	-137.423	0.463	0.052
-412.384	-61.354	-0.194	0.081
-411.369	-31.641	-0.176	0.099
-410.355	-121.510	-0.145	-0.024
-409.340	-43.095	-0.296	-0.149
-408.325	241.884	0.075	-0.125
-407.311	-63.643	0.200	0.082
-406.296	-116.431	0.188	0.035
-405.282	223.920	-0.125	-0.201
-404.267	-200.000	-0.067	0.352
-403.252	-124.306	0.100	-0.016
-402.238	-117.195	-0.152	-0.028
-401.223	48.873	0.149	0.139
-400.209	530.724	-0.040	-0.094
-399.194	720.079	0.022	-0.059
-398.179	-179.025	-0.146	-0.003
-397.165	-16.438	0.231	0.146
-396.150	163.899	-0.147	0.206
-395.136	380.599	0.078	0.159
-394.121	66.777	0.321	0.325
-393.106	350.329	-0.150	0.295
-392.092	510.799	-0.101	0.234
-391.077	197.431	-0.123	-0.187
-390.063	69.008	0.028	-0.028
-389.048	800.000	0.082	0.256
-388.033	-42.749	0.188	-0.095
-387.019	-90.081	-0.044	0.013
-386.004	800.000	0.059	-0.205
-384.990	75.462	-0.093	-0.098
-383.975	10.564	-0.193	-0.147
-382.960	-200.000	0.047	-0.274
-381.946	-185.180	0.087	-0.001
-380.931	-152.269	0.235	0.017
-379.917	800.000	-0.024	-0.104
-378.902	800.000	0.103	0.404
-377.888	17.729	0.113	-0.089
-376.873	-200.000	-0.005	-0.085
-375.858	-45.268	0.269	-0.133
-374.844	-200.000	-0.006	-0.209
-373.829	-69.134	0.238	-0.091
-372.815	800.000	-0.052	-0.143
-371.800	248.588	-0.095	0.160
-370.785	800.000	0.122	0.362
-369.771	-105.898	0.372	-0.083
-368.756	365.009	0.142	-0.285
-367.742	26.322	0.149	-0.124
-366.727	-39.608	0.240	-0.125
-365.712	800.000	-0.067	-0.191
-364.698	17.665	-0.284	-0.225
-363.683	-200.000	-0.065	-0.312
-362.669	-117.727	0.495	-0.089
-361.654	633.300	0.152	0.382
-360.639	12.907	-0.080	0.061
-359.625	-132.561	0.132	0.017
-358.610	20.759	-0.219	-0.176
-357.596	800.000	-0.065	-0.204
-356.581	-159.633	0.399	0.022
-355.566	384.494	-0.135	0.277
-354.552	165.930	-0.089	-0.125
-353.537	90.897	-0.302	0.337
-352.523	158.445	0.176	-0.243
-351.508	-82.787	-0.424	-0.136
-350.493	-200.000	-0.040	-0.182
-349.479	-166.385	-0.110	0.005
-348.464	-49.462	-0.149	-0.070
-347.450	-32.545	-0.081	-0.045
-346.435	429.967	-0.119	0.256
-345.420	133.490	-0.459	-0.591
-344.406	-65.138	-0.099	0.040
-343.391	165.028	-0.082	-0.115
-342.377	210.171	-0.233	0.364
-341.362	103.261	0.177	0.206
-340.348	-2.863	-0.151	0.105
-339.333	-7.967	-0.245	0.164
-338.318	539.539	-0.115	0.273
-337.304	32.546	0.050	0.043
-336.289	564.100	0.074	-0.179
-335.275	89.397	-0.111	0.122
-334.260	222.176	-0.023	-0.036
-333.245	-4.627	0.114	-0.078
-332.231	-141.323	-0.129	0.013
-331.216	-200.000	0.004	-0.041
-330.202	107.158	-0.044	0.052
-329.187	15.070	0.154	-0.120
-328.172	-78.958	-0.339	0.115
-327.158	-200.000	0.036	0.507
-326.143	-200.000	-0.006	-0.332
-325.129	-134.730	-0.224	-0.027
-324.114	79.987	-0.229	-0.245
-323.099	40.217	-0.123	-0.110
-322.085	-33.863	-0.287	-0.157
-321.070	57.487	0.078	-0.076
-320.056	-69.319	0.204	-0.078
-319.041	-200.000	-0.016	-0.261
-318.026	447.919	0.069	-0.151
-317.012	-69.247	-0.407	0.155
-315.997	800.000	0.169	0.517
-314.983	-46.275	-0.194	-0.095
-313.968	-200.000	0.001	-0.186
-312.953	55.692	0.085	0.082
-311.939	-100.204	-0.045	0.011
-310.924	-77.803	0.139	-0.048
-309.910	-200.000	0.021	-0.211
-308.895	-183.320	0.188	-0.003
-307.880	-200.000	-0.059	-0.319
-306.866	-154.252	-0.374	-0.025
-305.851	346.548	-0.028	-0.055
-304.837	-200.000	0.008	-0.197
-303.822	-20.289	-0.225	0.138
-302.807	-200.000	0.051	0.297
-301.793	47.840	0.124	-0.115
-300.778	-41.663	-0.178	-0.091
-299.764	-172.783	-0.584	0.018
-298.749	78.149	0.139	0.147
-297.735	-144.872	0.449	-0.041
-296.720	240.943	-0.028	0.047
-295.705	290.835	-0.163	0.295
-294.691	800.000	-0.096	0.289
-293.676	-103.897	-0.181	-0.042
-292.662	800.000	-0.095	-0.272
-291.647	158.866	-0.065	-0.089
-290.632	-56.202	0.188	0.083
-289.618	-114.680	-0.148	0.028
-288.603	-97.655	-0.144	-0.037
-287.589	-6.493	-0.188	-0.127
-286.574	-68.130	0.091	0.035
-285.559	246.363	0.143	0.239
-284.545	-200.000	-0.042	0.264
-283.530	-59.703	0.079	0.034
-282.516	-200.000	0.053	0.466
-281.501	-71.537	0.245	0.091
-280.486	-200.000	0.019	0.111
-279.472	-135.658	-0.173	-0.020
-278.457	443.084	-0.127	0.275
-277.443	4.151	-0.029	0.021
-276.428	45.853	0.270	-0.247
-275.413	431.121	-0.042	-0.091
-274.399	-96.015	0.134	0.035
-273.384	-45.885	0.114	-0.056
-272.370	482.046	0.095	-0.214
-271.355	-10.320	0.039	0.025
-270.340	-137.577	0.143	-0.016
-269.326	59.226	0.056	0.055
-268.311	800.000	-0.073	-0.248
-267.297	800.000	0.109	-0.403
-266.282	-71.390	0.151	0.056
-265.267	-200.000	-0.046	-0.227
-264.253	-99.223	-0.356	0.089
-263.238	-26.529	-0.122	0.071
-262.224	-200.000	0.055	0.392
-261.209	95.415	-0.110	0.124
-260.195	-87.410	0.097	0.029
-259.180	675.126	0.047	0.122
-258.165	-47.840	0.236	0.113
-257.151	-7.079	-0.235	-0.158
-256.136	402.391	0.148	0.308
-255.122	-185.687	-0.338	0.005
-254.107	429.435	-0.126	0.270
-253.092	-37.690	-0.121	-0.064
-252.078	-200.000	-0.049	-0.237
-251.063	-90.414	0.436	-0.125
-250.049	234.907	0.163	-0.267
-249.034	-71.574	0.093	0.034
-248.019	-150.805	-0.182	-0.014
-247.005	-200.000	0.015	0.166
-245.990	-200.000	0.034	-0.343
-244.976	626.305	0.078	0.196
-243.961	-71.458	0.159	0.059
-242.946	-14.553	0.191	0.122
-241.932	-15.523	-0.385	0.244
-240.917	-57.986	-0.270	-0.117
-239.903	224.058	-0.054	0.086
-238.888	800.000	-0.030	0.097
-237.873	-200.000	-0.012	0.064
-236.859	-125.229	0.409	0.062
-235.844	-112.664	0.014	-0.003
-234.830	628.788	-0.074	0.185
-233.815	-192.260	-0.110	0.001
-232.800	-48.534	-0.299	0.143
-231.786	23.674	0.288	-0.234
-230.771	61.126	-0.226	-0.222
-229.757	800.000	0.039	-0.117
-228.742	-100.555	-0.175	-0.043
-227.727	507.424	0.136	0.312
-226.713	478.537	0.138	-0.310
-225.698	12.983	-0.131	-0.100
-224.684	-66.243	0.175	0.069
-223.669	49.211	-0.158	-0.147
-222.655	-200.000	0.004	0.194
-221.640	-200.000	-0.008	-0.092
-220.625	-39.785	0.203	-0.105
-219.611	-121.534	0.020	0.003
-218.596	-124.805	0.216	0.033
-217.582	135.655	0.109	0.141
-216.567	74.811	-0.190	0.198
-215.552	127.968	0.240	0.302
-214.538	800.000	0.077	0.272
-213.523	521.728	-0.131	0.305
-212.509	444.670	0.017	0.037
-211.494	-65.367	-0.124	0.050
-210.479	27.926	0.213	0.177
-209.465	-200.000	0.069	-0.503
-208.450	-124.422	0.425	0.066
-207.436	-46.639	0.226	0.109
-206.421	-200.000	-0.007	0.156
-205.406	24.406	0.132	-0.108
-204.392	163.229	0.170	-0.237
-203.377	532.518	0.109	-0.256
-202.363	443.820	-0.164	-0.355
-201.348	-57.194	0.065	0.028
-200.333	-200.000	0.004	-0.076
-199.319	800.000	-0.029	0.091
-198.304	-51.978	0.187	0.086
-197.290	-111.414	0.192	-0.039
-196.275	-16.146	0.207	-0.130
-195.260	672.577	-0.018	-0.046
-194.246	-200.000	0.017	-0.302
-193.231	-107.940	0.266	-0.057
-192.217	63.298	-0.098	-0.097
-191.202	-200.000	0.060	0.373
-190.187	179.470	-0.202	0.292
-189.173	517.613	0.104	0.240
-188.158	-144.549	0.164	-0.015
-187.144	202.802	0.067	-0.103
-186.129	-18.413	-0.109	0.067
-185.114	39.132	0.057	0.050
-184.100	-200.000	0.023	0.289
-183.085	656.467	0.111	0.281
-182.071	343.160	0.083	0.160
-181.056	-123.351	0.361	-0.057
-180.042	-125.001	-0.129	0.020
-179.027	53.526	-0.163	0.154
-178.012	-200.000	0.015	0.078
-176.998	-104.598	0.265	0.060
-175.983	-101.243	-0.308	0.074
-174.969	-18.892	-0.390	-0.240
-173.954	-200.000	-0.035	0.270
-172.939	-101.095	0.183	0.044
-171.925	-200.000	0.005	0.279
-170.910	-200.000	0.040	0.245
-169.896	-199.059	-0.165	-0.001
-168.881	37.856	-0.141	0.124
-167.866	-200.000	0.040	0.228
-166.852	-200.000	0.043	0.205
-165.837	-200.000	-0.004	0.103
-164.823	-100.246	0.218	-0.053
-163.808	-131.280	0.060	0.008
-162.793	-200.000	-0.016	0.238
-161.779	800.000	0.126	0.499
-160.764	-67.587	0.238	0.092
-159.750	800.000	-0.107	-0.366
-158.735	473.290	-0.083	-0.184
-157.720	105.803	-0.109	-0.127
-156.706	82.966	0.138	0.148
-155.691	19.505	-0.353	0.280
-154.677	31.356	-0.155	0.132
-153.662	156.259	-0.096	-0.131
-152.647	-25.520	0.369	0.215
-151.633	662.246	-0.073	0.187
-150.618	182.936	-0.156	-0.227
-149.604	-128.737	0.215	-0.030
-148.589	800.000	0.157	0.582
-147.574	-40.845	-0.175	0.089
-146.560	209.060	-0.061	-0.094
-145.545	50.109	-0.153	0.143
-144.531	800.000	-0.052	-0.155
-143.516	-139.605	-0.338	-0.036
-142.502	-200.000	0.025	-0.140
-141.487	723.860	0.094	0.248
-140.472	104.006	-0.139	0.161
-139.458	-80.504	0.343	0.113
-138.443	-200.000	-0.015	-0.218
-137.429	-200.000	-0.008	0.000
-136.414	86.197	0.179	0.195
-135.399	159.818	0.160	0.220
-134.385	34.750	-0.062	-0.053
-133.370	800.000	0.098	0.290
-132.356	-7.106	0.111	0.074
-131.341	125.796	0.444	0.554
-130.326	106.411	-0.230	0.269
-129.312	-200.000	0.028	0.177
-128.297	-49.338	-0.152	0.072
-127.283	-166.866	0.154	-0.006
-126.268	-200.000	-0.074	0.369
-125.253	110.690	-0.033	-0.039
-124.239	267.751	-0.022	-0.038
-123.224	-42.651	0.258	0.130
-122.210	-200.000	-0.002	0.431
-121.195	800.000	0.023	0.082
