DTS Sentinel unit serial number:	SN413079Multiplexer serial number:	ORYXHardware model number:	OX4-SRSoftware version number:	ORYX F/W v4.00 Oryx Data Collector v3.7.2.0data status	okinstallation	princeton_trtdifferential loss correction	single-endedforward channel	channel 3reverse channel	N/Adate	2019/09/12time	00:14:11forward acquisition time	60.00reverse acquisition time	0.00gamma	496.2192k internal	0.2317k external	0.2317temperature offset calibration	1.0062default loss term (dB/km)	0.3790temperature slope calibration	1.0000multiplexer offset coefficient	1.0000multiplexer slope coefficient	1.0000fibre end	0.00T internal ref (°C)	33.56T ext. ref 1 (°C)	2.01T ext. ref 2 (°C)	27.84length (m)	temperature (°C)	Stokes	anti-Stokes-747.200	-88.676	-0.336	0.101
-746.185	-200.000	-0.051	0.275
-745.171	-35.233	-0.171	-0.094
-744.156	409.487	-0.073	0.157
-743.142	-200.000	0.031	0.141
-742.127	-200.000	0.012	0.186
-741.112	-72.733	-0.242	0.090
-740.098	-24.317	0.352	0.212
-739.083	250.697	0.060	0.104
-738.069	800.000	0.029	-0.089
-737.054	800.000	0.064	0.193
-736.039	800.000	-0.065	-0.232
-735.025	-100.841	0.340	-0.085
-734.010	-101.848	-0.234	-0.057
-732.996	-57.144	-0.221	0.098
-731.981	74.230	0.080	-0.085
-730.966	-174.500	-0.272	-0.008
-729.952	78.682	-0.202	-0.219
-728.937	-200.000	0.046	-0.504
-727.923	14.006	0.402	0.316
-726.908	116.339	-0.208	-0.257
-725.894	-79.916	-0.221	0.075
-724.879	195.896	-0.235	0.361
-723.864	36.843	-0.218	0.195
-722.850	22.922	-0.333	-0.276
-721.835	-105.089	-0.281	0.065
-720.821	-176.624	-0.131	0.003
-719.806	-75.571	-0.200	-0.072
-718.791	-200.000	-0.013	-0.094
-717.777	320.469	-0.056	-0.109
-716.762	-75.478	-0.303	0.109
-715.748	-88.690	0.205	-0.062
-714.733	-101.252	-0.210	-0.052
-713.718	146.970	-0.143	0.194
-712.704	-111.914	0.499	0.102
-711.689	-55.218	0.068	0.031
-710.675	-200.000	0.005	-0.039
-709.660	-200.000	-0.006	-0.080
-708.645	-137.274	0.307	0.035
-707.631	-200.000	0.015	-0.081
-706.616	19.296	-0.082	0.067
-705.602	6.286	-0.281	0.210
-704.587	34.910	-0.134	0.119
-703.572	-200.000	0.007	-0.238
-702.558	-73.984	-0.481	-0.176
-701.543	177.429	0.050	0.074
-700.529	249.507	0.023	0.040
-699.514	-157.967	-0.446	0.027
-698.499	800.000	-0.061	-0.180
-697.485	-118.826	0.289	-0.051
-696.470	-200.000	-0.024	-0.233
-695.456	-200.000	-0.011	-0.124
-694.441	-74.027	-0.516	0.189
-693.426	-76.702	0.330	0.117
-692.412	23.000	-0.086	-0.071
-691.397	-154.339	-0.257	-0.017
-690.383	-172.028	-0.217	0.007
-689.368	76.820	-0.289	-0.310
-688.354	45.198	-0.123	-0.115
-687.339	-200.000	0.019	-0.174
-686.324	273.271	-0.059	0.105
-685.310	153.050	0.061	-0.084
-684.295	800.000	0.068	0.207
-683.281	469.598	0.160	0.364
-682.266	-17.585	-0.264	0.168
-681.251	-102.786	0.364	-0.087
-680.237	-43.862	-0.159	0.081
-679.222	566.929	0.128	0.313
-678.208	353.424	0.187	-0.375
-677.193	-117.221	-0.281	0.052
-676.178	153.505	0.255	0.352
-675.164	43.917	-0.144	0.133
-674.149	-152.158	-0.182	0.013
-673.135	-114.703	-0.193	-0.037
-672.120	-200.000	-0.041	-0.269
-671.105	-159.243	-0.259	0.015
-670.091	73.878	-0.195	-0.206
-669.076	-78.229	-0.390	0.135
-668.062	-17.325	-0.132	0.084
-667.047	-200.000	0.036	-0.222
-666.032	-26.057	-0.204	-0.121
-665.018	-28.256	-0.186	0.109
-664.003	-200.000	0.029	-0.163
-662.989	-42.704	0.025	-0.013
-661.974	-200.000	-0.001	-0.103
-660.959	69.475	-0.195	0.203
-659.945	259.250	-0.084	-0.146
-658.930	-200.000	0.014	-0.150
-657.916	-27.908	-0.150	0.087
-656.901	284.574	-0.199	0.361
-655.886	59.659	-0.255	-0.254
-654.872	800.000	-0.058	-0.229
-653.857	-45.807	-0.200	0.100
-652.843	800.000	-0.150	-0.502
-651.828	-132.976	0.504	-0.065
-650.814	800.000	0.115	0.373
-649.799	-89.810	-0.133	0.039
-648.784	-200.000	0.046	0.335
-647.770	-200.000	-0.061	0.343
-646.755	145.621	-0.077	0.104
-645.741	685.242	-0.072	-0.189
-644.726	-3.380	-0.055	-0.039
-643.711	-116.508	0.427	0.079
-642.697	-117.072	0.297	-0.055
-641.682	269.408	0.044	-0.078
-640.668	361.657	0.031	-0.063
-639.653	309.536	0.190	-0.358
-638.638	-200.000	-0.003	-0.047
-637.624	-200.000	-0.019	0.264
-636.609	297.539	-0.111	0.205
-635.595	-200.000	-0.036	-0.232
-634.580	-29.011	0.147	-0.085
-633.565	170.944	-0.155	0.223
-632.551	-153.494	0.214	-0.015
-631.536	-42.477	0.050	-0.026
-630.522	800.000	0.065	-0.269
-629.507	661.861	-0.156	0.405
-628.492	-135.347	-0.316	-0.038
-627.478	-123.061	-0.161	-0.026
-626.463	800.000	-0.048	-0.151
-625.449	-200.000	0.003	-0.112
-624.434	800.000	0.044	-0.144
-623.419	-200.000	0.003	0.368
-622.405	723.895	0.026	0.069
-621.390	-200.000	0.020	0.168
-620.376	-200.000	-0.011	-0.247
-619.361	-200.000	0.033	-0.251
-618.346	-27.360	-0.244	-0.143
-617.332	-137.129	-0.119	0.014
-616.317	800.000	-0.059	0.193
-615.303	44.134	0.091	-0.084
-614.288	-124.394	-0.086	-0.013
-613.273	-114.726	0.288	0.055
-612.259	-102.653	0.169	0.041
-611.244	-200.000	-0.059	0.296
-610.230	199.263	-0.156	0.240
-609.215	518.509	0.015	0.035
-608.201	143.958	-0.329	-0.442
-607.186	81.048	0.039	0.043
-606.171	-19.033	0.165	0.103
-605.157	-200.000	0.013	0.290
-604.142	232.698	0.051	0.084
-603.128	647.032	-0.042	0.108
-602.113	-137.732	-0.198	-0.022
-601.098	4.989	0.136	0.101
-600.084	-75.630	-0.100	-0.036
-599.069	-104.104	-0.060	-0.014
-598.055	-200.000	-0.028	-0.264
-597.040	-102.692	0.090	-0.022
-596.025	141.160	-0.056	0.074
-595.011	93.220	-0.056	-0.063
-593.996	81.069	-0.199	0.216
-592.982	-200.000	-0.014	0.335
-591.967	-200.000	-0.006	0.289
-590.952	32.570	-0.103	0.090
-589.938	-38.657	-0.233	0.124
-588.923	-120.677	0.237	-0.040
-587.909	-200.000	-0.028	0.359
-586.894	121.113	0.264	0.330
-585.879	-150.749	0.217	-0.017
-584.865	-39.176	0.202	-0.107
-583.850	85.368	-0.177	-0.196
-582.836	261.212	0.115	0.201
-581.821	89.940	-0.144	0.162
-580.806	800.000	0.051	-0.204
-579.792	-148.804	0.112	-0.009
-578.777	344.055	0.058	-0.113
-577.763	591.632	0.043	0.108
-576.748	229.037	0.141	-0.231
-575.733	-37.041	0.303	-0.163
-574.719	800.000	-0.183	-0.531
-573.704	-49.281	0.085	0.041
-572.690	800.000	0.110	-0.333
-571.675	216.741	0.044	-0.070
-570.661	2.197	-0.148	0.108
-569.646	13.984	0.323	0.253
-568.631	-130.241	0.199	-0.027
-567.617	-68.368	0.214	-0.083
-566.602	-114.637	-0.273	0.052
-565.588	-200.000	-0.016	0.127
-564.573	-167.379	-0.136	-0.006
-563.558	87.621	0.048	-0.054
-562.544	-105.469	-0.370	-0.085
-561.529	-161.024	-0.220	0.012
-560.515	-200.000	-0.256	-0.001
-559.500	-146.252	-0.179	0.016
-558.485	-94.502	-0.297	-0.081
-557.471	-78.594	0.149	-0.051
-556.456	4.547	0.286	-0.211
-555.442	800.000	0.052	0.197
-554.427	-2.249	0.073	-0.051
-553.412	-200.000	0.035	-0.199
-552.398	170.286	0.193	-0.278
-551.383	-168.807	-0.320	-0.012
-550.369	-90.831	0.240	-0.069
-549.354	-31.796	0.260	-0.147
-548.339	44.420	0.255	0.236
-547.325	356.988	-0.018	0.036
-546.310	-137.693	-0.195	-0.022
-545.296	-27.367	0.154	0.090
-544.281	81.717	-0.133	-0.144
-543.266	800.000	-0.089	0.389
-542.252	-150.390	-0.159	0.012
-541.237	-19.886	-0.250	-0.155
-540.223	800.000	-0.064	0.253
-539.208	-117.607	-0.087	-0.016
-538.193	543.884	0.127	-0.304
-537.179	-200.000	-0.290	-0.001
-536.164	21.546	-0.259	-0.212
-535.150	-200.000	0.031	0.296
-534.135	-200.000	0.015	-0.145
-533.121	800.000	-0.076	0.246
-532.106	161.579	-0.241	-0.338
-531.091	77.762	-0.025	-0.027
-530.077	800.000	0.128	0.474
-529.062	-114.031	-0.162	0.031
-528.048	800.000	0.051	0.185
-527.033	-200.000	-0.039	-0.231
-526.018	45.682	0.237	-0.220
-525.004	-200.000	-0.022	-0.119
-523.989	800.000	0.037	0.120
-522.975	-135.576	0.384	0.046
-521.960	124.671	0.044	0.056
-520.945	-21.785	0.165	0.101
-519.931	800.000	0.040	0.172
-518.916	9.612	-0.189	0.144
-517.902	-200.000	0.059	0.324
-516.887	-42.762	-0.230	-0.117
-515.872	-200.000	-0.014	-0.079
-514.858	-170.645	0.439	-0.015
-513.843	-200.000	-0.027	0.381
-512.829	-47.284	-0.087	-0.043
-511.814	800.000	-0.094	0.334
-510.799	-135.130	-0.164	0.020
-509.785	183.237	0.127	0.188
-508.770	-131.034	-0.246	-0.033
-507.756	483.250	-0.116	-0.265
-506.741	-85.795	0.347	-0.108
-505.726	-148.341	-0.263	-0.022
-504.712	38.521	0.253	-0.226
-503.697	-52.296	-0.088	-0.041
-502.683	274.469	-0.194	-0.344
-501.668	73.414	0.033	0.034
-500.653	-32.994	0.108	0.060
-499.639	-198.469	-0.497	-0.003
-498.624	410.281	-0.082	-0.175
-497.610	800.000	0.071	0.309
-496.595	40.889	0.131	0.118
-495.581	-23.797	0.205	0.123
-494.566	800.000	-0.055	-0.154
-493.551	118.277	0.137	-0.169
-492.537	-113.788	-0.148	-0.029
-491.522	800.000	-0.032	-0.124
-490.508	-61.208	-0.167	-0.071
-489.493	-141.328	0.362	0.037
-488.478	-200.000	-0.006	-0.118
-487.464	-200.000	0.029	-0.136
-486.449	-73.268	0.085	0.031
-485.435	-200.000	0.004	0.021
-484.420	-148.579	0.038	-0.003
-483.405	16.971	0.289	0.229
-482.391	425.879	-0.078	0.168
-481.376	-200.000	-0.010	0.167
-480.362	118.656	-0.035	0.043
-479.347	-108.798	0.026	-0.006
-478.332	211.305	-0.194	-0.306
-477.318	66.825	-0.236	0.240
-476.303	230.329	-0.193	-0.317
-475.289	-96.353	-0.377	0.100
-474.274	5.930	0.300	-0.222
-473.259	-200.000	-0.013	-0.192
-472.245	-143.445	0.280	-0.027
-471.230	55.179	-0.165	0.160
-470.216	26.841	0.166	0.139
-469.201	296.228	-0.053	-0.098
-468.186	-75.200	-0.088	0.032
-467.172	-87.957	0.098	0.030
-466.157	-12.473	0.060	0.039
-465.143	-69.319	0.281	-0.108
-464.128	-146.471	-0.152	0.013
-463.113	-200.000	0.008	-0.148
-462.099	-200.000	-0.052	0.249
-461.084	268.590	0.157	-0.276
-460.070	-104.176	0.152	-0.035
-459.055	-110.502	0.230	-0.048
-458.040	-166.063	-0.191	-0.008
-457.026	-133.664	0.070	-0.009
-456.011	318.036	-0.148	-0.281
-454.997	-154.403	-0.400	-0.027
-453.982	-200.000	-0.011	-0.246
-452.968	-49.289	0.204	-0.097
-451.953	59.492	-0.236	-0.233
-450.938	800.000	0.037	-0.114
-449.924	-52.099	-0.150	-0.070
-448.909	472.922	-0.107	0.241
-447.895	-108.510	0.136	0.029
-446.880	-125.304	0.315	-0.048
-445.865	800.000	-0.173	-0.493
-444.851	136.872	-0.202	-0.264
-443.836	53.693	0.363	-0.348
-442.822	209.855	-0.115	0.180
-441.807	-200.000	0.000	-0.013
-440.792	800.000	0.079	-0.276
-439.778	-200.000	0.106	-0.723
-438.763	39.439	-0.057	-0.051
-437.749	-118.044	-0.298	0.053
-436.734	227.884	-0.179	-0.292
-435.719	416.102	0.088	0.187
-434.705	-161.242	0.305	0.016
-433.690	800.000	0.064	0.200
-432.676	-64.542	-0.109	-0.044
-431.661	-13.922	-0.204	-0.132
-430.646	346.613	0.132	-0.259
-429.632	-200.000	-0.000	-0.216
-428.617	-200.000	0.001	0.012
-427.603	-200.000	-0.011	-0.202
-426.588	-140.194	-0.222	-0.023
-425.573	-167.284	-0.304	-0.012
-424.559	-53.081	-0.375	-0.172
-423.544	263.084	-0.084	0.146
-422.530	-200.000	0.008	-0.435
-421.515	-121.630	0.167	0.028
-420.500	7.407	0.054	0.040
-419.486	-18.520	0.338	-0.211
-418.471	-83.312	0.203	0.065
-417.457	800.000	0.048	-0.183
-416.442	35.655	-0.049	-0.043
-415.428	800.000	0.118	-0.425
-414.413	-52.382	-0.066	0.031
-413.398	187.136	0.064	-0.096
-412.384	6.468	0.040	0.030
-411.369	366.978	0.067	-0.135
-410.355	-200.000	-0.037	-0.363
-409.340	-87.069	-0.140	-0.043
-408.325	-79.554	-0.273	0.092
-407.311	254.190	-0.073	-0.124
-406.296	-41.207	-0.205	0.106
-405.282	444.298	0.056	0.122
-404.267	1.486	0.142	-0.102
-403.252	800.000	0.125	-0.389
-402.238	-110.968	-0.344	-0.071
-401.223	-144.382	-0.018	0.002
-400.209	98.010	0.063	-0.072
-399.194	98.854	0.200	0.230
-398.179	-53.579	0.142	0.065
-397.165	-98.139	-0.124	0.032
-396.150	91.506	0.132	0.148
-395.136	-200.000	0.059	-0.413
-394.121	-116.390	0.176	-0.032
-393.106	333.691	0.205	-0.395
-392.092	-9.268	0.190	-0.127
-391.077	-22.867	0.235	0.141
-390.063	65.368	-0.147	-0.148
-389.048	-83.781	0.173	0.055
-388.033	125.440	-0.125	-0.158
-387.019	-109.770	0.258	-0.054
-386.004	406.954	-0.138	0.292
-384.990	-113.272	-0.121	-0.024
-383.975	-28.043	-0.376	-0.217
-382.960	-121.250	-0.157	-0.026
-381.946	15.143	-0.162	0.127
-380.931	746.304	0.113	0.304
-379.917	-76.661	0.373	0.131
-378.902	-200.000	-0.003	-0.043
-377.888	-103.741	-0.193	0.045
-376.873	302.683	0.097	0.179
-375.858	-166.394	-0.344	-0.014
-374.844	89.726	0.125	-0.139
-373.829	156.199	0.054	-0.074
-372.815	97.444	0.134	0.154
-371.800	12.525	0.051	-0.039
-370.785	4.347	0.244	0.178
-369.771	-75.055	-0.261	-0.093
-368.756	91.439	-0.025	0.028
-367.742	-155.476	0.317	0.020
-366.727	-86.175	0.340	-0.105
-365.712	-5.580	-0.407	-0.279
-364.698	5.598	0.242	-0.178
-363.683	800.000	-0.034	-0.137
-362.669	264.512	0.062	-0.108
-361.654	-180.673	-0.161	-0.003
-360.639	-35.715	0.099	0.054
-359.625	800.000	-0.077	-0.273
-358.610	9.118	0.074	0.056
-357.596	407.019	-0.049	-0.102
-356.581	-162.417	-0.486	0.024
-355.566	59.679	0.257	0.253
-354.552	567.435	0.107	0.259
-353.537	800.000	0.035	0.149
-352.523	800.000	-0.114	0.346
-351.508	-146.621	0.075	0.007
-350.493	-110.312	0.076	0.016
-349.479	-53.752	0.218	0.099
-348.464	-29.710	0.217	-0.123
-347.450	-110.098	0.127	0.027
-346.435	-35.673	-0.179	-0.097
-345.420	-52.467	-0.267	0.123
-344.406	-32.637	0.033	-0.018
-343.391	-41.873	-0.055	-0.028
-342.377	-136.380	-0.303	-0.035
-341.362	280.613	-0.108	-0.193
-340.348	-200.000	-0.025	0.131
-339.333	95.316	0.154	0.175
-338.318	69.910	-0.079	-0.081
-337.304	558.250	0.061	0.146
-336.289	-131.674	-0.410	0.054
-335.275	-200.000	0.025	-0.249
-334.260	-200.000	0.005	0.201
-333.245	107.240	-0.073	0.086
-332.231	-132.692	-0.064	0.008
-331.216	540.355	0.058	0.138
-330.202	-160.899	-0.269	0.014
-329.187	-200.000	-0.031	-0.201
-328.172	-102.007	-0.103	0.025
-327.158	-76.824	-0.141	-0.049
-326.143	-200.000	0.023	-0.214
-325.129	88.189	0.027	-0.030
-324.114	1.922	0.026	0.019
-323.099	-11.892	-0.090	0.059
-322.085	-87.881	-0.203	0.061
-321.070	104.889	0.139	-0.163
-320.056	-20.114	0.187	0.115
-319.041	-113.374	-0.226	0.044
-318.026	-46.107	0.113	0.056
-317.012	-46.329	-0.121	0.059
-315.997	-162.378	0.091	0.004
-314.983	-66.586	0.112	0.044
-313.968	800.000	-0.024	-0.069
-312.953	127.947	0.203	0.257
-311.939	46.774	-0.110	0.102
-310.924	-200.000	-0.054	0.350
-309.910	-30.427	-0.287	0.162
-308.895	-82.063	0.174	-0.057
-307.880	5.684	0.167	0.123
-306.866	484.094	0.085	-0.193
-305.851	193.004	0.080	-0.120
-304.837	-38.230	0.374	-0.197
-303.822	55.781	0.066	0.064
-302.807	-37.642	0.127	0.067
-301.793	-49.766	0.078	-0.037
-300.778	71.772	-0.258	0.266
-299.764	-134.059	-0.315	0.039
-298.749	-106.675	-0.259	-0.057
-297.735	96.971	-0.363	-0.415
-296.720	-90.886	-0.110	-0.032
-295.705	-6.968	0.237	0.160
-294.691	110.800	0.197	0.236
-293.676	-11.363	-0.135	0.088
-292.662	298.875	0.273	-0.499
-291.647	551.229	-0.068	0.162
-290.632	-183.708	-0.473	-0.008
-289.618	432.828	-0.084	0.181
-288.603	18.042	-0.053	-0.042
-287.589	-200.000	-0.064	0.306
-286.574	11.407	-0.199	0.152
-285.559	-111.658	0.169	-0.034
-284.545	-105.542	0.084	-0.019
-283.530	551.479	0.052	0.124
-282.516	486.234	-0.032	0.073
-281.501	397.454	0.109	0.228
-280.486	-26.025	-0.295	0.172
-279.472	800.000	0.018	-0.051
-278.457	0.173	0.006	0.004
-277.443	-161.290	-0.106	-0.005
-276.428	800.000	-0.071	0.197
-275.413	129.190	-0.121	-0.153
-274.399	-20.219	-0.102	-0.062
-273.384	62.037	0.301	-0.299
-272.370	-126.856	-0.225	-0.033
-271.355	800.000	-0.078	-0.288
-270.340	-170.634	0.220	-0.008
-269.326	83.861	-0.069	0.075
-268.311	800.000	0.052	-0.160
-267.297	-53.511	-0.233	0.106
-266.282	146.028	0.096	0.128
-265.267	800.000	0.084	-0.283
-264.253	-17.761	0.144	0.090
-263.238	279.676	-0.145	-0.257
-262.224	374.686	-0.023	0.046
-261.209	-10.934	0.207	0.136
-260.195	4.051	0.059	-0.043
-259.180	148.138	-0.126	0.168
-258.165	-157.895	0.138	0.008
-257.151	-79.082	0.185	0.062
-256.136	98.532	0.096	0.110
-255.122	-52.332	0.294	0.135
-254.107	96.021	0.309	0.351
-253.092	80.037	0.132	0.140
-252.078	-200.000	-0.024	0.124
-251.063	-48.413	0.170	0.081
-250.049	601.682	0.054	0.134
-249.034	-200.000	0.019	0.183
-248.019	-200.000	0.012	-0.065
-247.005	-54.565	0.310	0.139
-245.990	-46.764	-0.314	0.153
-244.976	65.054	-0.208	0.209
-243.961	416.810	0.038	-0.080
-242.946	-34.148	-0.403	0.220
-241.932	-84.462	0.161	-0.051
-240.917	-200.000	0.042	-0.211
-239.903	89.994	-0.144	-0.160
-238.888	-200.000	-0.004	-0.160
-237.873	-51.079	0.056	0.026
-236.859	-109.832	0.176	-0.037
-235.844	-42.155	-0.233	0.118
-234.830	488.044	0.026	0.059
-233.815	800.000	-0.056	0.197
-232.800	-112.390	-0.419	-0.083
-231.786	-12.978	0.198	-0.128
-230.771	800.000	0.058	0.218
-229.757	-111.467	0.300	0.061
-228.742	-200.000	0.099	0.599
-227.727	-4.288	-0.289	0.198
-226.713	645.685	-0.089	-0.225
-225.698	77.200	-0.111	0.117
-224.684	-98.845	0.129	0.033
-223.669	-76.022	-0.157	-0.055
-222.655	-83.845	-0.112	0.035
-221.640	-123.697	0.229	0.036
-220.625	692.396	-0.094	0.245
-219.611	-140.048	-0.197	0.021
-218.596	-92.986	0.314	0.087
-217.582	-55.181	0.309	-0.138
-216.567	800.000	0.011	0.038
-215.552	50.825	0.158	-0.149
-214.538	340.900	0.064	-0.124
-213.523	-131.489	0.252	-0.033
-212.509	-50.606	0.171	-0.080
-211.494	-200.000	-0.012	0.255
-210.479	73.886	0.174	-0.181
-209.465	-89.759	-0.171	-0.050
-208.450	101.465	-0.036	-0.042
-207.436	57.554	0.181	0.175
-206.421	-48.118	0.079	0.038
-205.406	800.000	-0.042	-0.155
-204.392	800.000	-0.036	-0.116
-203.377	50.873	0.037	0.034
-202.363	113.747	-0.294	-0.354
-201.348	110.863	0.223	-0.266
-200.333	-70.073	0.127	-0.048
-199.319	707.681	0.128	-0.334
-198.304	108.808	0.110	-0.130
-197.290	132.790	-0.056	0.072
-196.275	-43.978	-0.256	0.128
-195.260	-55.757	0.092	-0.041
-194.246	-200.000	0.014	0.190
-193.231	593.363	-0.016	0.039
-192.217	-200.000	-0.006	-0.033
-191.202	562.050	-0.122	0.292
-190.187	154.639	0.226	0.308
-189.173	89.348	-0.246	-0.272
-188.158	233.900	0.166	0.271
-187.144	128.936	0.047	0.059
-186.129	312.728	-0.107	0.199
-185.114	3.749	0.185	0.134
-184.100	-200.000	-0.019	0.102
-183.085	-61.937	-0.208	0.086
-182.071	-144.207	-0.106	0.010
-181.056	-200.000	-0.001	0.090
-180.042	-103.773	0.055	-0.013
-179.027	-118.973	0.225	0.039
-178.012	-200.000	-0.048	-0.393
-176.998	56.569	-0.210	-0.202
-175.983	800.000	-0.058	0.221
-174.969	-200.000	0.275	0.001
-173.954	-155.382	-0.257	0.016
-172.939	218.552	0.043	-0.069
-171.925	-200.000	0.016	-0.230
-170.910	-3.068	-0.120	0.083
-169.896	800.000	-0.072	0.207
-168.881	-166.134	0.131	-0.006
-167.866	232.779	-0.094	0.152
-166.852	655.030	0.081	-0.206
-165.837	-157.694	0.128	-0.008
-164.823	-127.949	-0.139	-0.020
-163.808	2.727	-0.115	0.082
-162.793	97.407	-0.126	-0.143
-161.779	207.751	-0.077	0.118
-160.764	10.808	-0.138	0.105
-159.750	-200.000	-0.007	0.226
-158.735	87.285	0.163	0.179
-157.720	-200.000	-0.056	0.326
-156.706	182.651	0.312	-0.456
-155.691	-65.347	0.245	0.097
-154.677	-107.690	0.099	0.021
-153.662	-200.000	0.115	0.528
-152.647	476.385	-0.112	0.250
-151.633	-153.205	0.087	-0.006
-150.618	-71.525	0.256	-0.095
-149.604	233.117	-0.048	0.078
-148.589	111.645	0.294	0.351
-147.574	-147.380	0.056	-0.005
-146.560	-200.000	-0.003	-0.076
-145.545	-130.429	-0.492	0.066
-144.531	800.000	-0.124	-0.479
-143.516	-200.000	-0.010	-0.130
-142.502	800.000	0.023	0.089
-141.487	183.526	0.252	0.368
-140.472	254.293	0.172	0.291
-139.458	-7.713	0.178	-0.119
-138.443	-93.040	-0.111	-0.031
-137.429	-200.000	-0.027	0.409
-136.414	-200.000	-0.017	0.304
-135.399	-18.129	-0.229	-0.142
-134.385	-95.016	-0.098	0.026
-133.370	-155.412	0.267	0.017
-132.356	-200.000	-0.006	-0.296
-131.341	-53.375	-0.109	-0.049
-130.326	-99.758	-0.117	0.029
-129.312	62.719	0.381	0.377
-128.297	91.987	-0.100	-0.111
-127.283	-200.000	0.040	0.207
-126.268	209.079	-0.124	0.192
-125.253	-137.297	0.100	-0.011
-124.239	-126.139	-0.080	-0.012
-123.224	-151.708	-0.381	-0.028
-122.210	-166.344	0.495	0.021
