DTS Sentinel unit serial number:	SN413079Multiplexer serial number:	ORYXHardware model number:	OX4-SRSoftware version number:	ORYX F/W v4.00 Oryx Data Collector v3.7.2.0data status	okinstallation	princeton_trtdifferential loss correction	single-endedforward channel	channel 3reverse channel	N/Adate	2019/09/18time	13:32:35forward acquisition time	60.00reverse acquisition time	0.00gamma	496.2192k internal	0.2311k external	0.2311temperature offset calibration	0.9965default loss term (dB/km)	0.3790temperature slope calibration	1.0000multiplexer offset coefficient	1.0000multiplexer slope coefficient	1.0000fibre end	0.00T internal ref (°C)	34.31T ext. ref 1 (°C)	0.62T ext. ref 2 (°C)	30.87length (m)	temperature (°C)	Stokes	anti-Stokes-747.200	-200.000	-0.019	0.099
-746.185	-200.000	-0.065	0.386
-745.171	19.931	0.082	0.067
-744.156	734.420	0.147	0.399
-743.142	4.970	-0.211	0.158
-742.127	259.913	-0.077	-0.135
-741.112	76.259	-0.234	-0.252
-740.098	-200.000	0.005	-0.042
-739.083	-159.497	0.211	0.012
-738.069	-200.000	-0.002	0.023
-737.054	332.282	0.091	0.179
-736.039	800.000	0.083	-0.323
-735.025	-131.484	0.157	-0.021
-734.010	-83.168	-0.146	0.048
-732.996	160.428	-0.169	-0.239
-731.981	149.672	-0.136	0.187
-730.966	48.020	-0.289	-0.274
-729.952	-148.743	0.294	0.024
-728.937	104.272	-0.288	0.344
-727.923	-200.000	-0.029	0.291
-726.908	36.272	-0.286	-0.255
-725.894	-200.000	-0.011	0.292
-724.879	800.000	0.083	-0.234
-723.864	-200.000	0.022	-0.196
-722.850	-184.341	-0.174	-0.003
-721.835	72.992	-0.245	0.259
-720.821	-79.351	-0.362	-0.124
-719.806	-135.162	0.221	-0.027
-718.791	65.904	-0.162	0.167
-717.777	-158.652	0.065	-0.004
-716.762	-123.921	-0.091	-0.014
-715.748	-157.063	0.097	0.006
-714.733	6.992	-0.281	0.213
-713.718	-122.011	0.128	0.021
-712.704	601.827	-0.143	-0.360
-711.689	34.925	-0.118	-0.105
-710.675	-63.806	0.260	-0.108
-709.660	-22.221	0.228	-0.140
-708.645	-200.000	0.051	0.511
-707.631	100.128	0.214	-0.251
-706.616	-2.525	0.098	0.070
-705.602	-138.081	-0.042	-0.005
-704.587	800.000	-0.076	-0.258
-703.572	545.376	-0.082	-0.199
-702.558	-200.000	0.014	0.204
-701.543	-62.040	0.298	-0.126
-700.529	-26.960	-0.153	0.091
-699.514	-98.128	-0.130	-0.034
-698.499	40.689	-0.117	-0.106
-697.485	-200.000	-0.002	0.115
-696.470	-200.000	0.002	0.190
-695.456	800.000	-0.096	-0.395
-694.441	282.538	0.089	0.161
-693.426	120.702	0.177	0.223
-692.412	96.807	0.112	-0.130
-691.397	346.147	-0.069	0.137
-690.383	-178.896	-0.320	-0.007
-689.368	98.902	0.371	0.434
-688.354	94.872	0.155	0.179
-687.339	-20.162	-0.183	0.114
-686.324	-70.457	-0.320	-0.123
-685.310	-3.762	-0.067	-0.047
-684.295	66.065	-0.291	0.299
-683.281	68.046	-0.182	-0.189
-682.266	-117.091	0.076	-0.014
-681.251	82.161	0.112	0.123
-680.237	-89.156	-0.098	-0.029
-679.222	113.812	-0.156	0.192
-678.208	225.550	0.113	-0.186
-677.193	309.852	-0.145	0.275
-676.178	-123.491	0.105	0.017
-675.164	559.680	0.104	0.255
-674.149	151.798	-0.122	-0.168
-673.135	250.506	0.033	-0.057
-672.120	-94.973	-0.417	0.114
-671.105	-200.000	0.000	0.284
-670.091	-112.063	-0.113	-0.023
-669.076	-115.596	0.104	0.020
-668.062	-67.783	-0.035	0.014
-667.047	-63.193	0.217	-0.091
-666.032	-80.526	-0.071	0.024
-665.018	-200.000	0.035	-0.208
-664.003	-86.357	-0.199	-0.062
-662.989	-200.000	0.049	-0.478
-661.974	-100.119	0.232	-0.058
-660.959	-56.891	-0.193	0.086
-659.945	800.000	-0.196	0.546
-658.930	135.307	0.052	0.069
-657.916	-92.584	0.125	-0.035
-656.901	199.949	0.151	0.234
-655.886	-144.641	-0.284	0.026
-654.872	95.092	-0.026	0.030
-653.857	-122.901	-0.605	-0.099
-652.843	-169.676	-0.103	0.004
-651.828	-105.955	0.110	0.025
-650.814	45.996	-0.252	-0.235
-649.799	-21.309	-0.413	-0.255
-648.784	319.574	0.120	0.230
-647.770	36.536	0.131	-0.117
-646.755	-11.217	0.287	-0.191
-645.741	-200.000	0.011	0.067
-644.726	-30.900	0.140	-0.080
-643.711	427.916	0.154	0.336
-642.697	-46.977	-0.242	0.120
-641.682	-83.336	0.059	-0.019
-640.668	-7.746	0.171	-0.117
-639.653	-55.759	0.150	0.068
-638.638	-72.257	0.136	-0.051
-637.624	44.746	-0.140	-0.130
-636.609	26.090	-0.247	-0.208
-635.595	800.000	0.031	-0.108
-634.580	-175.660	-0.323	0.009
-633.565	-8.593	0.131	0.089
-632.551	-113.560	-0.166	-0.033
-631.536	-53.173	-0.203	-0.094
-630.522	-200.000	-0.039	-0.502
-629.507	286.268	-0.104	0.190
-628.492	238.230	-0.168	0.283
-627.478	800.000	-0.054	-0.206
-626.463	41.602	0.171	-0.157
-625.449	46.751	0.120	-0.113
-624.434	-96.682	-0.374	-0.099
-623.419	800.000	0.018	-0.077
-622.405	314.349	0.099	0.188
-621.390	37.635	-0.118	0.106
-620.376	142.779	0.167	-0.224
-619.361	-137.381	-0.449	-0.051
-618.346	-107.062	-0.115	-0.026
-617.332	2.528	-0.114	0.084
-616.317	72.202	0.234	-0.247
-615.303	11.441	0.149	-0.116
-614.288	800.000	0.041	0.173
-613.273	-200.000	0.024	0.211
-612.259	-200.000	0.023	0.147
-611.244	33.051	-0.040	-0.035
-610.230	230.150	-0.137	0.226
-609.215	-99.687	-0.089	-0.022
-608.201	-6.269	-0.303	-0.209
-607.186	102.258	-0.088	-0.104
-606.171	70.745	0.091	0.095
-605.157	800.000	-0.029	0.112
-604.142	-137.328	0.024	0.003
-603.128	-24.537	-0.088	-0.053
-602.113	-90.256	0.315	0.092
-601.098	800.000	-0.056	-0.229
-600.084	3.980	-0.331	0.244
-599.069	-95.507	0.209	0.056
-598.055	36.510	0.376	-0.335
-597.040	-96.235	0.195	0.052
-596.025	45.252	-0.219	-0.204
-595.011	-37.907	0.138	-0.074
-593.996	120.274	-0.276	-0.346
-592.982	-36.757	0.054	0.029
-591.967	-86.700	0.063	-0.019
-590.952	485.134	-0.064	0.147
-589.938	21.614	0.128	0.105
-588.923	44.855	-0.291	-0.270
-587.909	127.320	-0.181	0.232
-586.894	141.058	0.096	-0.128
-585.879	-63.088	0.135	0.056
-584.865	18.634	0.283	0.229
-583.850	-200.000	0.002	-0.408
-582.836	36.855	0.294	0.262
-581.821	-110.270	-0.299	-0.063
-580.806	66.422	0.281	-0.288
-579.792	210.734	-0.186	-0.295
-578.777	-64.856	-0.187	-0.076
-577.763	-200.000	-0.005	-0.024
-576.748	27.824	-0.230	0.195
-575.733	-117.062	0.212	-0.039
-574.719	-105.981	0.193	0.044
-573.704	-57.612	-0.193	-0.085
-572.690	97.618	0.124	-0.143
-571.675	-109.181	0.245	0.052
-570.661	800.000	-0.132	0.369
-569.646	20.153	0.214	0.174
-568.631	166.322	0.065	0.093
-567.617	244.635	-0.180	-0.304
-566.602	-34.773	0.077	0.042
-565.588	-97.675	-0.081	0.021
-564.573	144.927	0.155	0.209
-563.558	-200.000	-0.039	0.281
-562.544	36.992	-0.111	0.099
-561.529	-49.410	0.237	0.114
-560.515	107.201	-0.021	0.025
-559.500	800.000	-0.144	-0.450
-558.485	-30.686	-0.300	-0.171
-557.471	398.016	-0.095	0.201
-556.456	-18.504	0.196	0.123
-555.442	-77.853	-0.422	0.147
-554.427	645.702	0.053	0.137
-553.412	-97.928	-0.191	0.050
-552.398	-23.546	0.147	-0.089
-551.383	425.461	-0.085	-0.185
-550.369	25.319	-0.453	0.379
-549.354	370.055	0.116	0.237
-548.339	174.673	0.200	-0.291
-547.325	97.718	-0.232	0.269
-546.310	25.008	0.212	-0.177
-545.296	116.897	-0.301	-0.373
-544.281	658.548	0.057	-0.147
-543.266	-1.511	-0.202	-0.143
-542.252	231.848	-0.167	0.276
-541.237	-200.000	-0.032	0.156
-540.223	-39.518	-0.096	-0.051
-539.208	43.870	0.140	-0.129
-538.193	-14.583	-0.206	-0.133
-537.179	62.740	0.250	0.251
-536.164	205.301	-0.117	-0.183
-535.150	-167.326	-0.309	-0.013
-534.135	-6.650	-0.175	0.120
-533.121	-27.887	-0.249	-0.145
-532.106	492.557	0.111	-0.255
-531.091	-34.283	0.181	0.100
-530.077	50.651	0.025	0.024
-529.062	27.229	-0.273	-0.231
-528.048	206.802	0.179	-0.281
-527.033	-113.833	0.084	-0.016
-526.018	-62.791	-0.059	-0.025
-525.004	-146.010	0.317	0.028
-523.989	-200.000	0.015	-0.124
-522.975	-28.575	-0.235	-0.136
-521.960	800.000	0.071	0.237
-520.945	-70.767	-0.150	-0.057
-519.931	84.108	0.066	0.072
-518.916	-99.784	0.332	0.084
-517.902	-107.092	0.290	0.064
-516.887	-47.986	-0.281	-0.137
-515.872	83.911	0.278	0.306
-514.858	-10.525	-0.064	-0.043
-513.843	-200.000	-0.004	0.158
-512.829	786.504	0.106	0.293
-511.814	-166.318	-0.233	0.010
-510.799	-185.191	-0.327	0.005
-509.785	-141.547	0.295	-0.030
-508.770	-86.248	0.383	0.119
-507.756	-47.256	-0.247	0.121
-506.741	-100.557	0.158	0.039
-505.726	-16.530	0.292	-0.186
-504.712	92.416	-0.024	-0.027
-503.697	337.453	-0.028	-0.056
-502.683	800.000	0.089	-0.286
-501.668	366.414	-0.093	-0.188
-500.653	24.552	0.181	0.151
-499.639	-114.024	-0.108	-0.021
-498.624	-26.090	0.228	-0.135
-497.610	149.458	0.172	-0.234
-496.595	-200.000	0.038	-0.498
-495.581	75.817	0.105	0.111
-494.566	-135.985	-0.368	-0.044
-493.551	-200.000	0.030	0.344
-492.537	15.583	0.416	0.329
-491.522	-200.000	0.041	0.186
-490.508	800.000	0.052	-0.168
-489.493	-52.110	-0.134	-0.062
-488.478	-109.035	-0.361	-0.077
-487.464	164.904	0.218	0.309
-486.449	-91.953	0.139	0.040
-485.435	39.801	-0.112	-0.101
-484.420	-132.893	0.122	-0.016
-483.405	-130.180	-0.250	0.034
-482.391	310.044	0.072	0.135
-481.376	-74.620	-0.182	0.066
-480.362	314.824	0.072	-0.136
-479.347	-152.992	-0.269	-0.019
-478.332	122.141	-0.173	0.217
-477.318	-200.000	-0.032	0.278
-476.303	800.000	0.111	-0.345
-475.289	-77.360	0.132	0.046
-474.274	-200.000	0.041	-0.283
-473.259	-182.071	-0.161	-0.003
-472.245	-10.693	-0.168	0.111
-471.230	140.782	0.121	-0.160
-470.216	-101.722	0.144	-0.035
-469.201	800.000	0.078	-0.298
-468.186	-92.951	-0.193	0.054
-467.172	-200.000	-0.007	-0.043
-466.157	800.000	-0.025	0.085
-465.143	800.000	0.091	0.298
-464.128	-200.000	0.020	0.192
-463.113	672.610	0.159	0.413
-462.099	129.303	0.090	-0.115
-461.084	326.532	-0.172	-0.331
-460.070	390.852	-0.104	-0.217
-459.055	226.434	0.037	-0.060
-458.040	-25.969	0.161	0.095
-457.026	-200.000	-0.030	0.174
-456.011	364.974	0.071	-0.144
-454.997	-21.151	0.461	-0.283
-453.982	-200.000	0.010	-0.199
-452.968	74.347	0.115	-0.121
-451.953	201.168	0.119	0.184
-450.938	-200.000	0.029	-0.136
-449.924	-107.988	-0.425	-0.093
-448.909	140.679	-0.221	-0.293
-447.895	-200.000	0.006	0.160
-446.880	-118.295	-0.297	0.053
-445.865	-28.779	-0.093	-0.054
-444.851	252.335	-0.062	-0.105
-443.836	-66.721	-0.185	-0.074
-442.822	144.392	0.100	0.134
-441.807	-98.136	-0.123	0.032
-440.792	-179.619	0.357	0.008
-439.778	-57.160	0.239	-0.106
-438.763	44.814	0.169	-0.156
-437.749	800.000	-0.032	0.114
-436.734	-89.627	-0.405	-0.119
-435.719	800.000	-0.036	0.101
-434.705	9.333	0.167	-0.127
-433.690	-8.159	-0.147	0.099
-432.676	800.000	0.073	0.249
-431.661	-80.711	-0.212	0.071
-430.646	-70.310	0.106	-0.040
-429.632	-200.000	-0.034	0.361
-428.617	260.177	-0.094	0.163
-427.603	-85.608	0.441	0.137
-426.588	-92.231	0.219	-0.062
-425.573	-200.000	0.012	0.283
-424.559	585.754	-0.149	0.368
-423.544	415.872	0.068	-0.145
-422.530	-67.263	0.079	-0.031
-421.515	-47.817	-0.205	-0.100
-420.500	-117.882	-0.210	0.038
-419.486	-200.000	0.002	0.094
-418.471	-76.377	-0.225	-0.079
-417.457	-200.000	0.013	0.129
-416.442	-32.133	-0.253	0.142
-415.428	-80.796	-0.255	0.085
-414.413	389.906	-0.066	-0.137
-413.398	55.000	0.158	0.153
-412.384	-200.000	0.021	0.119
-411.369	-200.000	-0.039	0.176
-410.355	-175.938	0.287	-0.008
-409.340	186.051	0.111	-0.165
-408.325	800.000	0.049	-0.190
-407.311	-89.263	0.200	-0.059
-406.296	-13.128	-0.097	0.063
-405.282	59.306	0.247	0.244
-404.267	-200.000	0.040	0.354
-403.252	-200.000	0.038	0.176
-402.238	800.000	0.052	0.149
-401.223	-166.219	-0.289	0.012
-400.209	-55.445	0.292	-0.131
-399.194	800.000	-0.082	0.253
-398.179	57.715	0.270	-0.264
-397.165	-77.044	-0.227	-0.079
-396.150	-46.279	-0.269	0.133
-395.136	204.733	-0.171	0.265
-394.121	138.166	-0.085	0.111
-393.106	153.221	0.203	0.278
-392.092	287.371	-0.306	-0.553
-391.077	7.717	0.240	0.180
-390.063	-151.414	0.242	0.018
-389.048	-200.000	0.012	0.058
-388.033	-99.917	-0.106	0.026
-387.019	-200.000	-0.012	0.157
-386.004	-149.135	0.062	-0.005
-384.990	219.742	0.164	-0.263
-383.975	-121.801	-0.291	0.048
-382.960	800.000	-0.054	0.197
-381.946	377.246	-0.151	-0.309
-380.931	-115.471	0.081	0.015
-379.917	-138.277	0.203	-0.022
-378.902	795.450	0.036	0.099
-377.888	800.000	-0.101	0.400
-376.873	-200.000	-0.039	0.233
-375.858	-5.867	0.116	0.080
-374.844	-132.049	0.419	-0.055
-373.829	565.381	0.098	0.237
-372.815	-30.661	0.333	0.189
-371.800	-155.483	-0.279	0.018
-370.785	82.705	-0.192	-0.209
-369.771	800.000	-0.037	0.123
-368.756	-72.778	0.180	-0.066
-367.742	-76.104	0.144	0.051
-366.727	-33.759	0.044	-0.024
-365.712	219.995	-0.146	-0.235
-364.698	-200.000	-0.012	0.100
-363.683	111.828	-0.106	0.129
-362.669	267.858	0.151	0.264
-361.654	310.355	-0.215	-0.402
-360.639	800.000	-0.167	-0.540
-359.625	-90.714	0.069	0.020
-358.610	16.816	-0.219	0.174
-357.596	800.000	-0.012	-0.043
-356.581	-173.257	-0.115	-0.003
-355.566	800.000	0.030	-0.102
-354.552	-200.000	-0.031	0.181
-353.537	-33.813	-0.214	-0.118
-352.523	507.546	0.115	-0.267
-351.508	-200.000	0.008	0.094
-350.493	18.853	0.098	0.078
-349.479	-149.920	-0.128	0.010
-348.464	800.000	0.063	-0.225
-347.450	61.272	-0.213	-0.211
-346.435	215.164	0.208	-0.330
-345.420	709.012	-0.042	-0.112
-344.406	-149.126	-0.234	0.019
-343.391	800.000	-0.056	0.237
-342.377	198.276	-0.099	0.151
-341.362	-108.753	-0.172	-0.037
-340.348	-3.002	-0.328	0.229
-339.333	-200.000	-0.016	0.323
-338.318	-200.000	-0.003	0.121
-337.304	263.050	0.083	0.144
-336.289	395.694	-0.118	-0.247
-335.275	-200.000	0.030	-0.298
-334.260	340.325	0.140	-0.274
-333.245	800.000	-0.020	0.068
-332.231	-200.000	0.034	0.304
-331.216	800.000	-0.023	0.069
-330.202	-26.274	-0.038	0.022
-329.187	99.361	0.320	-0.370
-328.172	-200.000	0.095	-0.503
-327.158	-187.147	-0.157	0.002
-326.143	97.372	-0.122	-0.140
-325.129	-200.000	0.056	-0.380
-324.114	30.477	-0.126	-0.108
-323.099	-200.000	0.044	-0.347
-322.085	650.583	0.097	-0.249
-321.070	661.353	0.036	-0.093
-320.056	-44.387	-0.147	0.073
-319.041	225.115	0.033	0.053
-318.026	21.092	0.313	0.254
-317.012	52.423	0.043	-0.041
-315.997	89.505	-0.176	0.196
-314.983	-164.900	0.052	-0.002
-313.968	465.058	-0.179	-0.400
-312.953	-60.565	0.061	0.026
-311.939	-134.841	0.313	0.038
-310.924	-156.627	0.076	-0.005
-309.910	-169.105	-0.110	0.004
-308.895	-135.060	-0.313	-0.038
-307.880	-200.000	0.003	-0.363
-306.866	367.004	-0.110	0.221
-305.851	800.000	0.053	0.204
-304.837	-122.670	-0.349	-0.056
-303.822	600.902	-0.070	0.172
-302.807	129.608	0.064	-0.082
-301.793	-1.713	0.191	-0.134
-300.778	189.905	0.023	-0.035
-299.764	-129.554	-0.157	-0.022
-298.749	-6.244	-0.340	0.232
-297.735	-139.972	-0.333	-0.035
-296.720	-137.528	0.063	0.007
-295.705	74.232	0.102	-0.107
-294.691	-200.000	-0.015	-0.161
-293.676	-200.000	-0.038	-0.175
-292.662	122.252	0.175	-0.218
-291.647	-200.000	0.052	-0.631
-290.632	-173.315	-0.438	-0.013
-289.618	321.777	0.113	0.214
-288.603	800.000	0.033	-0.115
-287.589	-16.807	-0.122	0.077
-286.574	-67.683	0.064	-0.025
-285.559	379.129	0.100	-0.204
-284.545	-200.000	-0.033	-0.260
-283.530	250.866	0.011	0.018
-282.516	-10.479	-0.394	0.260
-281.501	-200.000	0.038	-0.177
-280.486	-0.010	0.467	-0.332
-279.472	-24.813	0.273	-0.162
-278.457	46.393	0.152	-0.141
-277.443	260.736	-0.144	0.248
-276.428	-109.690	-0.092	-0.019
-275.413	0.251	-0.148	0.105
-274.399	163.529	-0.035	0.050
-273.384	-54.591	0.050	0.022
-272.370	200.663	0.165	-0.253
-271.355	800.000	0.154	-0.564
-270.340	397.017	0.090	0.187
-269.326	100.446	0.099	0.115
-268.311	-200.000	-0.023	0.155
-267.297	-21.152	-0.134	0.081
-266.282	-42.133	0.255	0.130
-265.267	540.331	-0.067	-0.158
-264.253	15.817	-0.138	-0.108
-263.238	243.776	0.132	0.221
-262.224	104.630	0.154	0.181
-261.209	3.597	0.224	-0.162
-260.195	-39.460	0.177	0.092
-259.180	297.443	0.075	0.137
-258.165	77.886	0.143	-0.152
-257.151	-106.475	0.241	-0.054
-256.136	-72.398	0.235	-0.086
-255.122	139.717	-0.247	0.324
-254.107	-18.012	0.238	-0.149
-253.092	-176.718	-0.371	-0.009
-252.078	-19.092	0.313	0.194
-251.063	-172.142	-0.192	-0.006
-250.049	235.465	-0.115	0.188
-249.034	800.000	0.033	0.104
-248.019	-138.439	-0.118	0.013
-247.005	-89.259	0.332	-0.098
-245.990	634.429	0.010	-0.025
-244.976	-14.392	-0.188	0.120
-243.961	800.000	-0.096	-0.316
-242.946	60.917	0.250	-0.247
-241.932	-200.000	0.058	-0.378
-240.917	22.724	0.077	0.062
-239.903	-200.000	0.001	0.260
-238.888	-200.000	-0.012	0.194
-237.873	-160.444	-0.018	0.001
-236.859	-200.000	-0.020	0.130
-235.844	-4.430	0.276	-0.190
-234.830	87.202	-0.107	-0.118
-233.815	-125.365	0.099	0.015
-232.800	94.724	0.049	0.056
-231.786	470.264	-0.069	0.155
-230.771	400.940	-0.110	-0.230
-229.757	-129.104	0.170	0.024
-228.742	-200.000	0.061	-0.297
-227.727	-200.000	-0.014	0.413
-226.713	79.200	0.184	0.196
-225.698	185.871	-0.131	0.193
-224.684	69.110	0.136	0.140
-223.669	-177.862	0.376	0.009
-222.655	-100.802	-0.349	-0.085
-221.640	-96.358	-0.334	-0.088
-220.625	485.778	0.103	0.234
-219.611	-200.000	-0.227	0.001
-218.596	800.000	0.032	0.099
-217.582	-200.000	0.025	0.187
-216.567	800.000	0.106	0.303
-215.552	-37.523	0.222	0.118
-214.538	123.902	0.131	-0.164
-213.523	-38.173	0.247	0.130
-212.509	43.828	-0.282	0.257
-211.494	-171.683	0.206	-0.007
-210.479	-200.000	-0.067	-0.323
-209.465	-79.608	-0.098	-0.033
-208.450	-86.975	0.206	0.063
-207.436	-115.762	-0.287	-0.053
-206.421	-80.295	-0.229	0.076
-205.406	90.448	0.057	0.063
-204.392	1.188	0.109	0.078
-203.377	180.342	0.137	0.200
-202.363	12.921	0.167	-0.129
-201.348	67.982	0.054	0.055
-200.333	26.664	-0.056	-0.047
-199.319	800.000	-0.036	0.120
-198.304	-43.067	-0.080	-0.040
-197.290	-23.279	-0.178	-0.107
-196.275	-200.000	0.022	-0.141
-195.260	61.432	-0.124	0.122
-194.246	-83.284	0.238	-0.076
-193.231	68.025	-0.135	-0.137
-192.217	-200.000	-0.024	0.414
-191.202	-200.000	-0.039	-0.225
-190.187	-115.248	0.278	0.052
-189.173	-46.323	0.154	0.075
-188.158	-56.228	0.236	0.104
-187.144	-200.000	0.028	-0.276
-186.129	164.753	-0.238	0.334
-185.114	266.088	-0.094	0.163
-184.100	31.075	0.185	0.158
-183.085	155.994	-0.047	0.064
-182.071	-104.812	-0.491	0.112
-181.056	197.692	0.017	0.026
-180.042	425.849	0.042	-0.089
-179.027	-68.713	0.307	0.118
-178.012	-95.899	-0.055	0.014
-176.998	139.984	-0.159	0.207
-175.983	326.149	0.125	0.238
-174.969	35.259	-0.031	-0.027
-173.954	154.943	0.058	0.080
-172.939	184.673	-0.131	-0.192
-171.925	-6.801	-0.257	0.174
-170.910	197.254	0.138	0.210
-169.896	90.883	0.263	-0.293
-168.881	-13.994	0.127	0.082
-167.866	800.000	0.025	-0.097
-166.852	-127.118	-0.178	-0.026
-165.837	800.000	0.040	-0.170
-164.823	800.000	0.027	0.091
-163.808	-29.761	0.281	0.159
-162.793	-93.708	-0.241	0.066
-161.779	-20.776	0.259	-0.157
-160.764	-71.043	-0.124	-0.046
-159.750	38.134	-0.082	0.072
-158.735	-69.698	-0.161	-0.061
-157.720	-200.000	-0.025	0.484
-156.706	25.399	0.206	-0.170
-155.691	295.517	-0.009	0.016
-154.677	259.489	-0.083	0.143
-153.662	800.000	0.086	0.243
-152.647	-6.703	0.172	0.116
-151.633	8.696	0.120	-0.090
-150.618	-200.000	0.032	0.210
-149.604	330.971	0.077	0.147
-148.589	-101.408	0.207	0.050
-147.574	-118.158	0.043	0.008
-146.560	-200.000	-0.026	-0.184
-145.545	-46.732	0.488	0.237
-144.531	161.793	-0.113	0.156
-143.516	-127.397	0.162	0.023
-142.502	-118.239	0.232	-0.041
-141.487	27.225	0.324	0.269
-140.472	764.001	-0.028	0.076
-139.458	-112.065	-0.141	-0.028
-138.443	235.204	-0.035	-0.057
-137.429	-14.050	0.281	-0.180
-136.414	-200.000	0.038	-0.406
-135.399	-81.601	-0.319	0.104
-134.385	-121.928	-0.488	0.080
-133.370	-34.752	-0.229	0.124
-132.356	301.180	-0.160	0.294
-131.341	-26.678	-0.114	-0.066
-130.326	449.269	-0.077	-0.167
-129.312	-200.000	0.051	-0.247
-128.297	225.471	0.166	-0.266
-127.283	-172.897	-0.137	0.004
-126.268	-200.000	0.002	-0.325
-125.253	200.787	0.146	0.222
-124.239	-200.000	-0.017	-0.349
-123.224	-76.387	-0.205	0.071
-122.210	800.000	0.094	-0.304
-121.195	-128.097	0.518	-0.074
-120.180	201.928	-0.082	0.125
