DTS Sentinel unit serial number:	SN413079Multiplexer serial number:	ORYXHardware model number:	OX4-SRSoftware version number:	ORYX F/W v4.00 Oryx Data Collector v3.7.2.0data status	okinstallation	princeton_trtdifferential loss correction	single-endedforward channel	channel 3reverse channel	N/Adate	2019/09/16time	19:12:34forward acquisition time	60.00reverse acquisition time	0.00gamma	496.2192k internal	0.2312k external	0.2312temperature offset calibration	0.9932default loss term (dB/km)	0.3790temperature slope calibration	1.0000multiplexer offset coefficient	1.0000multiplexer slope coefficient	1.0000fibre end	0.00T internal ref (°C)	35.14T ext. ref 1 (°C)	0.08T ext. ref 2 (°C)	28.26length (m)	temperature (°C)	Stokes	anti-Stokes-747.200	236.797	-0.134	0.225
-746.185	-118.347	0.163	0.029
-745.171	-8.886	-0.448	-0.305
-744.156	-152.403	0.409	-0.030
-743.142	124.390	0.041	0.053
-742.127	494.701	-0.098	0.228
-741.112	-13.192	0.165	0.108
-740.098	-103.845	-0.160	0.038
-739.083	327.069	-0.066	-0.129
-738.069	-74.225	-0.158	-0.058
-737.054	-16.019	0.204	-0.132
-736.039	-134.848	0.133	0.016
-735.025	152.122	-0.151	0.210
-734.010	-151.593	0.023	-0.002
-732.996	156.913	-0.294	-0.412
-731.981	-81.253	-0.244	0.082
-730.966	-200.000	0.022	-0.155
-729.952	-165.201	-0.131	0.006
-728.937	-200.000	-0.059	-0.270
-727.923	20.956	0.210	0.173
-726.908	-200.000	-0.041	-0.289
-725.894	-71.284	0.026	-0.010
-724.879	-200.000	0.023	0.167
-723.864	692.726	-0.059	0.157
-722.850	-78.810	0.120	-0.041
-721.835	-112.269	-0.083	0.017
-720.821	-56.987	0.371	-0.166
-719.806	800.000	0.013	-0.045
-718.791	-200.000	-0.033	-0.225
-717.777	-165.326	-0.175	0.008
-716.762	37.823	-0.218	-0.196
-715.748	-200.000	-0.002	-0.194
-714.733	-142.833	-0.104	-0.010
-713.718	-200.000	0.031	0.168
-712.704	348.422	0.118	-0.235
-711.689	-145.366	0.076	0.007
-710.675	225.001	-0.181	0.297
-709.660	-69.029	0.192	0.075
-708.645	-200.000	-0.006	-0.200
-707.631	-97.014	-0.345	-0.092
-706.616	-200.000	-0.013	-0.160
-705.602	228.706	-0.136	0.224
-704.587	228.318	0.067	-0.110
-703.572	-200.000	0.042	-0.536
-702.558	-107.569	0.196	0.043
-701.543	536.229	-0.114	-0.273
-700.529	-39.221	-0.110	-0.058
-699.514	-37.476	0.130	-0.070
-698.499	-95.621	-0.086	-0.023
-697.485	192.151	-0.067	-0.102
-696.470	294.793	0.126	0.234
-695.456	-81.344	-0.082	0.028
-694.441	800.000	0.013	0.041
-693.426	39.766	0.198	0.180
-692.412	-199.548	0.260	0.001
-691.397	-200.000	0.005	-0.114
-690.383	197.394	-0.058	0.089
-689.368	-57.645	-0.163	0.072
-688.354	1.586	-0.368	0.268
-687.339	320.423	-0.122	-0.234
-686.324	22.390	-0.175	0.145
-685.310	-135.952	-0.105	0.013
-684.295	149.465	-0.012	-0.016
-683.281	800.000	-0.066	0.261
-682.266	-200.000	-0.001	-0.076
-681.251	-47.210	-0.133	-0.066
-680.237	352.232	0.107	0.216
-679.222	84.575	0.169	0.187
-678.208	-200.000	0.054	-0.329
-677.193	79.704	-0.169	-0.183
-676.178	-200.000	0.008	-0.232
-675.164	-114.902	-0.159	-0.031
-674.149	-200.000	-0.045	0.285
-673.135	-200.000	0.005	-0.117
-672.120	-94.630	0.308	-0.085
-671.105	-166.762	0.289	-0.012
-670.091	-78.224	-0.091	0.031
-669.076	800.000	-0.013	-0.056
-668.062	-200.000	-0.061	0.286
-667.047	-200.000	0.026	0.133
-666.032	-156.474	0.294	-0.019
-665.018	224.984	0.029	-0.048
-664.003	-64.050	-0.083	-0.034
-662.989	67.521	-0.143	-0.147
-661.974	-200.000	-0.004	0.153
-660.959	-200.000	-0.025	-0.266
-659.945	146.348	0.053	0.072
-658.930	-85.319	-0.058	-0.018
-657.916	24.216	-0.072	-0.060
-656.901	-200.000	0.055	0.455
-655.886	-90.728	-0.187	0.054
-654.872	-75.336	-0.145	0.052
-653.857	357.748	-0.174	0.351
-652.843	-180.248	-0.331	-0.007
-651.828	381.629	-0.161	0.334
-650.814	233.192	-0.081	0.135
-649.799	-156.641	-0.199	0.012
-648.784	-46.607	0.111	0.055
-647.770	-200.000	0.009	-0.066
-646.755	41.293	-0.114	0.104
-645.741	800.000	-0.090	-0.337
-644.726	-155.477	-0.365	0.024
-643.711	23.703	0.174	0.145
-642.697	704.778	0.039	-0.104
-641.682	-123.248	0.224	-0.036
-640.668	172.763	0.111	-0.161
-639.653	6.639	-0.091	0.068
-638.638	-200.000	0.013	0.139
-637.624	-200.000	0.010	-0.226
-636.609	341.000	0.120	-0.236
-635.595	-200.000	0.013	-0.247
-634.580	-97.835	0.206	-0.054
-633.565	-60.717	-0.279	0.119
-632.551	236.026	0.045	-0.076
-631.536	-90.221	-0.122	-0.036
-630.522	160.692	-0.032	-0.046
-629.507	662.269	-0.080	0.209
-628.492	479.971	0.218	0.499
-627.478	53.808	-0.085	0.083
-626.463	314.397	0.086	0.164
-625.449	130.703	0.122	-0.158
-624.434	485.771	0.083	0.190
-623.419	406.652	0.088	-0.188
-622.405	272.481	-0.083	-0.149
-621.390	-67.576	-0.210	-0.083
-620.376	15.196	-0.145	-0.115
-619.361	-200.000	0.017	0.108
-618.346	256.063	0.190	-0.329
-617.332	-165.111	0.192	-0.009
-616.317	-200.000	0.032	0.269
-615.303	-82.716	0.192	-0.063
-614.288	-129.964	-0.260	0.036
-613.273	-145.737	-0.188	0.017
-612.259	30.261	0.201	-0.173
-611.244	-200.000	0.003	0.086
-610.230	330.469	-0.135	0.263
-609.215	-136.930	0.209	-0.024
-608.201	-14.825	-0.105	0.068
-607.186	0.388	0.136	-0.098
-606.171	212.655	-0.134	0.213
-605.157	-13.606	-0.117	-0.076
-604.142	649.166	-0.038	0.099
-603.128	33.234	-0.127	0.112
-602.113	-112.055	0.172	0.035
-601.098	-200.000	0.008	0.202
-600.084	-119.813	0.355	-0.062
-599.069	-198.877	-0.263	-0.001
-598.055	-92.288	0.090	0.026
-597.040	-151.106	0.145	0.011
-596.025	-5.270	0.062	-0.043
-595.011	168.990	-0.124	-0.178
-593.996	54.386	0.147	0.143
-592.982	-59.690	-0.061	-0.026
-591.967	-200.000	0.044	-0.205
-590.952	-55.878	-0.159	0.072
-589.938	625.062	0.062	0.159
-588.923	547.842	-0.181	-0.437
-587.909	-200.000	-0.011	-0.185
-586.894	-200.000	-0.055	-0.257
-585.879	800.000	0.180	-0.530
-584.865	514.313	0.034	-0.081
-583.850	103.348	-0.135	-0.160
-582.836	691.129	-0.112	-0.297
-581.821	-200.000	-0.005	-0.213
-580.806	-101.653	-0.284	-0.069
-579.792	-61.441	-0.063	-0.027
-578.777	2.648	0.173	0.126
-577.763	-52.631	-0.170	-0.079
-576.748	42.563	0.177	-0.162
-575.733	-8.826	0.131	0.088
-574.719	-30.097	0.354	0.203
-573.704	-113.222	0.018	0.004
-572.690	800.000	0.041	0.151
-571.675	586.846	-0.106	-0.263
-570.661	-123.799	-0.194	0.031
-569.646	-200.000	0.022	-0.302
-568.631	-117.305	-0.274	0.050
-567.617	63.220	0.188	-0.190
-566.602	-200.000	-0.022	-0.263
-565.588	-66.570	0.082	-0.033
-564.573	7.457	-0.030	0.022
-563.558	-83.547	0.264	0.085
-562.544	700.736	0.123	-0.327
-561.529	800.000	-0.116	-0.404
-560.515	193.259	-0.228	0.348
-559.500	194.627	0.062	0.095
-558.485	-94.816	-0.505	0.138
-557.471	23.946	-0.074	0.061
-556.456	-190.321	0.172	-0.002
-555.442	-182.724	0.362	0.007
-554.427	104.461	-0.174	-0.207
-553.412	504.742	0.175	-0.408
-552.398	-40.322	-0.217	-0.114
-551.383	-101.563	-0.270	-0.066
-550.369	280.307	0.089	0.160
-549.354	-15.139	0.097	0.063
-548.339	-200.000	0.010	-0.063
-547.325	-200.000	0.017	0.250
-546.310	353.797	-0.088	0.176
-545.296	-177.904	-0.230	-0.006
-544.281	22.013	0.324	0.266
-543.266	-167.821	-0.237	-0.009
-542.252	-58.351	-0.252	-0.110
-541.237	-51.951	-0.186	-0.087
-540.223	221.465	-0.219	-0.354
-539.208	-1.872	-0.326	-0.231
-538.193	-200.000	-0.004	0.220
-537.179	-8.834	0.057	-0.039
-536.164	-78.879	0.145	0.050
-535.150	-200.000	-0.022	0.475
-534.135	-200.000	-0.015	-0.179
-533.121	-4.261	0.213	-0.149
-532.106	738.178	0.029	-0.077
-531.091	-30.689	-0.601	-0.342
-530.077	800.000	0.082	0.361
-529.062	339.907	-0.131	0.256
-528.048	383.579	0.059	0.122
-527.033	-200.000	0.048	-0.221
-526.018	344.923	0.100	0.198
-525.004	-157.227	-0.330	0.020
-523.989	298.432	0.133	-0.245
-522.975	-197.826	-0.748	0.005
-521.960	-103.948	0.276	0.065
-520.945	-52.508	-0.312	0.145
-519.931	140.783	0.173	0.230
-518.916	-200.000	-0.002	-0.119
-517.902	-165.964	0.141	-0.006
-516.887	39.360	0.035	-0.032
-515.872	-78.187	-0.221	-0.076
-514.858	299.370	0.097	0.180
-513.843	-164.775	-0.237	0.011
-512.829	800.000	0.040	0.130
-511.814	-110.425	-0.185	0.039
-510.799	-32.194	-0.195	0.109
-509.785	317.580	-0.056	-0.106
-508.770	800.000	-0.048	-0.138
-507.756	-9.445	-0.171	-0.115
-506.741	116.518	0.037	0.046
-505.726	257.050	0.053	0.092
-504.712	-42.673	-0.073	0.037
-503.697	-136.806	-0.427	0.049
-502.683	-200.000	0.010	0.200
-501.668	185.570	-0.046	-0.069
-500.653	103.886	0.076	-0.089
-499.639	-27.154	-0.296	0.173
-498.624	-200.000	0.059	0.351
-497.610	-38.505	0.151	0.080
-496.595	-34.437	0.212	-0.117
-495.581	-200.000	0.023	0.170
-494.566	52.551	0.039	-0.037
-493.551	-200.000	-0.006	-0.045
-492.537	-80.666	0.159	0.053
-491.522	-200.000	0.013	0.232
-490.508	-153.960	-0.285	-0.019
-489.493	711.283	-0.029	-0.077
-488.478	-55.567	0.056	0.025
-487.464	-100.907	0.243	0.060
-486.449	800.000	0.123	0.367
-485.435	348.266	0.045	0.089
-484.420	-200.000	0.044	-0.321
-483.405	29.938	0.101	-0.086
-482.391	-21.823	-0.081	-0.050
-481.376	-200.000	-0.008	0.281
-480.362	-200.000	-0.011	0.054
-479.347	125.134	-0.118	0.149
-478.332	337.138	-0.168	0.327
-477.318	-200.000	0.020	-0.255
-476.303	-167.071	-0.191	0.008
-475.289	419.499	0.097	0.208
-474.274	174.808	0.148	0.214
-473.259	-200.000	0.016	0.285
-472.245	-200.000	-0.050	0.222
-471.230	-32.307	-0.043	0.024
-470.216	728.003	0.075	0.201
-469.201	-145.211	0.432	0.039
-468.186	-200.000	0.033	-0.227
-467.172	-1.019	0.163	0.116
-466.157	-34.866	0.169	0.092
-465.143	800.000	0.078	0.341
-464.128	-200.000	0.018	-0.224
-463.113	-116.197	0.128	-0.024
-462.099	800.000	-0.034	0.119
-461.084	-58.871	-0.307	0.133
-460.070	-200.000	-0.032	0.457
-459.055	-200.000	-0.036	0.261
-458.040	-170.290	-0.250	0.009
-457.026	800.000	0.084	-0.327
-456.011	19.456	-0.193	-0.155
-454.997	-1.943	-0.024	-0.017
-453.982	-149.378	0.233	-0.019
-452.968	800.000	-0.028	-0.114
-451.953	224.554	0.080	-0.129
-450.938	156.441	-0.018	-0.025
-449.924	-7.165	-0.171	-0.117
-448.909	-75.547	-0.100	-0.036
-447.895	-47.021	0.294	-0.144
-446.880	-200.000	-0.031	0.186
-445.865	-187.743	-0.162	-0.002
-444.851	331.898	0.096	0.185
-443.836	-200.000	0.014	-0.287
-442.822	-33.703	-0.168	0.093
-441.807	401.709	0.129	-0.273
-440.792	-47.838	-0.225	-0.109
-439.778	800.000	-0.020	0.076
-438.763	-36.868	-0.263	0.141
-437.749	42.406	-0.091	-0.083
-436.734	103.769	0.096	-0.113
-435.719	-44.042	-0.079	-0.040
-434.705	37.488	-0.059	0.053
-433.690	800.000	-0.080	0.243
-432.676	34.298	-0.247	0.216
-431.661	7.269	0.274	0.205
-430.646	555.235	-0.015	-0.037
-429.632	79.481	0.137	-0.147
-428.617	72.228	-0.147	-0.154
-427.603	100.314	0.179	-0.208
-426.588	800.000	-0.079	0.239
-425.573	800.000	0.121	-0.423
-424.559	-94.009	0.156	-0.043
-423.544	-65.810	-0.158	-0.063
-422.530	-105.967	0.253	-0.057
-421.515	58.276	0.302	0.297
-420.500	653.919	-0.091	0.235
-419.486	-200.000	0.003	0.189
-418.471	-105.180	-0.294	0.067
-417.457	-79.795	0.037	0.012
-416.442	30.159	0.250	-0.214
-415.428	5.233	-0.260	0.192
-414.413	26.286	0.080	-0.067
-413.398	-32.920	-0.284	0.158
-412.384	593.110	-0.034	0.084
-411.369	-33.747	-0.182	0.101
-410.355	18.147	-0.081	-0.065
-409.340	-200.000	0.100	-0.483
-408.325	800.000	-0.035	-0.152
-407.311	-128.963	-0.298	0.042
-406.296	800.000	-0.079	0.291
-405.282	800.000	-0.077	-0.316
-404.267	-200.000	-0.037	-0.214
-403.252	-34.418	0.242	0.133
-402.238	-90.280	0.323	0.094
-401.223	800.000	0.105	-0.350
-400.209	-154.699	0.272	-0.018
-399.194	-72.235	-0.261	-0.097
-398.179	103.059	-0.157	-0.184
-397.165	-200.000	0.011	0.151
-396.150	-134.855	-0.104	0.013
-395.136	42.887	-0.116	-0.106
-394.121	-200.000	0.005	-0.155
-393.106	-154.086	0.318	-0.022
-392.092	-161.842	0.216	-0.011
-391.077	106.332	0.127	-0.151
-390.063	334.799	0.091	0.177
-389.048	50.744	0.122	0.116
-388.033	-54.752	0.119	-0.054
-387.019	-184.974	0.295	-0.005
-386.004	-73.173	-0.075	0.027
-384.990	92.490	0.155	-0.175
-383.975	-100.921	0.186	-0.046
-382.960	71.497	-0.220	-0.229
-381.946	224.802	0.132	0.214
-380.931	-103.730	0.206	-0.048
-379.917	-56.424	-0.275	-0.122
-378.902	-123.180	0.170	0.027
-377.888	-200.000	0.015	-0.269
-376.873	800.000	-0.050	0.180
-375.858	359.540	0.145	0.290
-374.844	-200.000	-0.029	0.206
-373.829	113.001	-0.086	-0.104
-372.815	-104.815	0.120	0.028
-371.800	-28.486	-0.132	-0.076
-370.785	-200.000	-0.029	0.244
-369.771	6.379	0.079	-0.059
-368.756	-109.964	0.218	-0.046
-367.742	-200.000	0.017	-0.312
-366.727	460.452	0.078	-0.174
-365.712	110.548	-0.115	-0.138
-364.698	271.926	-0.020	-0.035
-363.683	-71.948	-0.085	-0.032
-362.669	188.395	0.253	0.378
-361.654	41.048	-0.080	0.072
-360.639	-20.210	-0.038	-0.023
-359.625	225.441	-0.167	0.270
-358.610	134.173	0.047	-0.061
-357.596	-200.000	-0.002	0.227
-356.581	19.019	0.105	0.084
-355.566	-123.639	-0.239	0.038
-354.552	223.675	0.121	0.195
-353.537	-127.323	0.094	0.014
-352.523	800.000	0.070	0.230
-351.508	416.387	-0.061	0.131
-350.493	47.814	-0.427	-0.398
-349.479	-200.000	-0.016	0.148
-348.464	-102.981	-0.170	0.040
-347.450	401.904	-0.017	0.036
-346.435	154.445	-0.161	-0.221
-345.420	-158.571	0.193	-0.011
-344.406	-72.200	-0.282	-0.104
-343.391	800.000	0.085	0.357
-342.377	-200.000	-0.023	-0.361
-341.362	800.000	0.065	0.265
-340.348	276.184	0.118	0.209
-339.333	405.190	0.106	0.222
-338.318	262.625	0.151	0.261
-337.304	-53.975	-0.157	0.072
-336.289	-200.000	0.017	0.203
-335.275	287.699	-0.078	-0.141
-334.260	484.572	-0.042	0.095
-333.245	449.479	-0.010	0.022
-332.231	-141.749	0.303	-0.030
-331.216	100.249	0.130	0.151
-330.202	101.151	0.243	0.282
-329.187	-24.713	0.168	0.100
-328.172	-82.855	0.459	-0.148
-327.158	-200.000	0.002	-0.209
-326.143	800.000	0.046	0.138
-325.129	139.639	0.044	-0.058
-324.114	800.000	-0.019	-0.066
-323.099	800.000	-0.027	-0.117
-322.085	648.126	-0.052	0.133
-321.070	-4.369	0.287	0.198
-320.056	-149.108	-0.249	-0.020
-319.041	609.863	0.072	-0.178
-318.026	80.190	-0.068	0.073
-317.012	-170.164	0.135	0.005
-315.997	-200.000	0.062	0.383
-314.983	361.002	0.129	0.259
-313.968	800.000	0.052	0.157
-312.953	280.552	-0.128	-0.228
-311.939	-190.364	-0.400	-0.004
-310.924	-18.328	-0.285	-0.178
-309.910	23.375	0.146	-0.120
-308.895	800.000	0.047	-0.183
-307.880	-91.745	-0.205	0.058
-306.866	800.000	-0.151	-0.427
-305.851	49.769	0.063	-0.059
-304.837	-14.874	0.121	0.077
-303.822	67.899	0.042	0.043
-302.807	465.434	-0.119	0.265
-301.793	72.041	-0.010	0.011
-300.778	171.500	0.192	-0.275
-299.764	-200.000	-0.026	-0.571
-298.749	-200.000	0.022	-0.169
-297.735	9.911	-0.183	0.138
-296.720	-80.531	0.189	-0.063
-295.705	-54.246	0.347	-0.157
-294.691	56.713	-0.156	0.152
-293.676	-11.513	0.256	-0.167
-292.662	53.159	0.188	-0.180
-291.647	217.610	-0.122	-0.195
-290.632	13.087	-0.053	0.041
-289.618	402.224	-0.092	0.193
-288.603	-82.904	-0.194	0.062
-287.589	327.514	-0.065	-0.124
-286.574	-200.000	-0.006	0.081
-285.559	190.067	-0.049	0.074
-284.545	251.401	-0.165	0.279
-283.530	583.223	-0.103	-0.252
-282.516	-55.359	-0.364	-0.163
-281.501	128.542	-0.165	-0.209
-280.486	800.000	0.045	-0.178
-279.472	100.482	0.093	-0.108
-278.457	-200.000	0.050	0.280
-277.443	-200.000	-0.074	0.410
-276.428	-0.575	-0.504	-0.356
-275.413	-200.000	0.164	0.000
-274.399	800.000	-0.125	0.477
-273.384	-200.000	-0.100	0.456
-272.370	210.363	0.070	0.110
-271.355	800.000	-0.037	-0.120
-270.340	32.779	0.223	-0.192
-269.326	-65.644	0.083	-0.033
-268.311	642.953	0.040	-0.101
-267.297	43.108	-0.046	-0.042
-266.282	800.000	0.117	-0.355
-265.267	97.564	-0.140	-0.161
-264.253	1.706	-0.213	-0.153
-263.238	-200.000	0.008	-0.037
-262.224	170.924	0.148	-0.212
-261.209	103.434	-0.280	0.326
-260.195	216.543	0.108	-0.172
-259.180	-127.044	-0.468	-0.068
-258.165	7.518	-0.070	0.052
-257.151	273.244	-0.226	0.397
-256.136	-62.333	0.277	-0.115
-255.122	-200.000	0.002	0.373
-254.107	-76.224	-0.124	0.043
-253.092	-131.001	-0.021	0.003
-252.078	-142.205	0.291	0.029
-251.063	71.062	0.214	-0.221
-250.049	-104.193	-0.287	0.066
-249.034	513.887	-0.035	-0.082
-248.019	-147.203	-0.368	0.031
-247.005	32.913	0.208	0.180
-245.990	-26.594	0.020	0.012
-244.976	-18.765	-0.072	0.045
-243.961	311.962	0.097	-0.181
-242.946	-100.795	0.245	0.060
-241.932	800.000	-0.042	0.124
-240.917	-135.562	0.310	-0.037
-239.903	-200.000	0.002	0.331
-238.888	-135.453	0.257	0.030
-237.873	-48.801	-0.093	-0.045
-236.859	476.426	-0.078	-0.175
-235.844	89.265	0.139	0.154
-234.830	-101.663	0.215	0.052
-233.815	800.000	0.051	0.174
-232.800	-131.015	-0.218	-0.029
-231.786	11.864	0.124	-0.094
-230.771	800.000	0.096	-0.383
-229.757	-200.000	0.024	0.268
-228.742	-103.654	-0.199	-0.046
-227.727	-200.000	-0.041	0.186
-226.713	451.280	0.161	-0.353
-225.698	34.249	-0.151	-0.131
-224.684	241.215	0.207	0.344
-223.669	-51.539	0.356	0.165
-222.655	-0.248	-0.071	0.050
-221.640	800.000	-0.035	0.127
-220.625	-6.493	0.158	-0.107
-219.611	-200.000	0.033	-0.363
-218.596	-200.000	-0.021	0.276
-217.582	-124.110	-0.072	0.011
-216.567	-143.451	0.315	0.030
-215.552	109.154	0.206	0.245
-214.538	163.479	-0.127	0.178
-213.523	78.313	-0.145	-0.153
-212.509	-177.275	-0.201	-0.005
-211.494	244.829	0.265	-0.443
-210.479	198.219	0.107	-0.162
-209.465	-59.677	0.052	0.022
-208.450	14.418	-0.173	0.134
-207.436	1.992	0.305	0.218
-206.421	-108.349	-0.341	-0.073
-205.406	-200.000	0.010	-0.100
-204.392	72.403	-0.119	-0.123
-203.377	322.853	0.113	-0.213
-202.363	-36.868	-0.084	0.045
-201.348	-200.000	0.038	-0.314
-200.333	-106.786	0.216	0.048
-199.319	-200.000	-0.006	0.098
-198.304	58.562	0.073	0.071
-197.290	130.588	-0.128	-0.163
-196.275	-36.303	-0.090	-0.048
-195.260	109.461	-0.196	-0.233
-194.246	343.187	-0.144	-0.281
-193.231	-78.054	-0.122	0.042
-192.217	-200.000	0.060	0.310
-191.202	23.664	-0.065	0.053
-190.187	-116.403	-0.381	-0.070
-189.173	-19.059	0.242	0.149
-188.158	800.000	-0.079	-0.229
-187.144	800.000	0.116	-0.327
-186.129	-123.075	0.145	-0.023
-185.114	-200.000	-0.002	0.012
-184.100	-200.000	0.024	-0.172
-183.085	213.638	0.086	0.136
-182.071	800.000	-0.020	0.057
-181.056	-116.711	-0.173	0.032
-180.042	295.987	-0.040	-0.074
-179.027	-148.926	-0.274	0.022
-178.012	134.674	0.165	0.213
-176.998	-149.892	0.258	-0.020
-175.983	348.375	0.148	0.290
-174.969	800.000	0.097	-0.310
-173.954	-200.000	0.014	-0.072
-172.939	606.730	0.076	-0.187
-171.925	192.083	-0.042	-0.063
-170.910	-27.949	0.229	0.131
-169.896	49.214	0.100	-0.093
-168.881	25.549	-0.068	0.056
-167.866	97.323	0.340	-0.388
-166.852	45.378	-0.130	-0.119
-165.837	-200.000	0.001	-0.117
-164.823	200.210	0.107	0.163
-163.808	240.589	-0.177	0.293
-162.793	-8.211	0.245	-0.164
-161.779	252.046	0.264	0.445
-160.764	-38.303	-0.106	0.055
-159.750	-52.753	-0.381	0.174
-158.735	-119.546	0.370	0.063
-157.720	-18.737	0.117	0.072
-156.706	20.589	0.273	-0.219
-155.691	344.022	0.067	0.131
-154.677	800.000	0.035	0.107
-153.662	120.664	-0.051	0.063
-152.647	-106.791	0.376	0.083
-151.633	27.180	-0.108	-0.090
-150.618	79.032	0.293	0.311
-149.604	800.000	0.079	-0.228
-148.589	-7.548	-0.177	-0.119
-147.574	-112.383	-0.379	-0.075
-146.560	-71.903	-0.257	0.095
-145.545	74.369	0.188	-0.196
-144.531	800.000	-0.048	-0.200
-143.516	327.651	0.101	0.192
-142.502	-36.522	-0.221	-0.118
-141.487	-200.000	-0.090	0.392
-140.472	173.331	0.016	0.023
-139.458	-200.000	0.025	-0.295
-138.443	-38.473	0.183	-0.096
-137.429	-115.140	0.190	-0.036
-136.414	70.171	0.150	-0.153
-135.399	-22.319	0.090	-0.054
-134.385	71.163	-0.150	-0.154
-133.370	364.764	0.057	0.114
-132.356	800.000	-0.047	0.197
-131.341	245.465	-0.110	0.183
-130.326	150.296	-0.066	-0.089
-129.312	-5.817	0.073	0.049
-128.297	-143.358	-0.352	-0.033
-127.283	-103.751	-0.209	-0.049
-126.268	140.039	0.227	-0.296
-125.253	-200.000	0.008	-0.041
-124.239	362.788	0.170	-0.337
-123.224	-150.127	-0.124	-0.010
-122.210	14.981	0.124	0.096
