DTS Sentinel unit serial number:	SN413079Multiplexer serial number:	ORYXHardware model number:	OX4-SRSoftware version number:	ORYX F/W v4.00 Oryx Data Collector v3.7.2.0data status	okinstallation	princeton_trtdifferential loss correction	single-endedforward channel	channel 3reverse channel	N/Adate	2019/09/12time	03:10:11forward acquisition time	60.00reverse acquisition time	0.00gamma	496.2192k internal	0.2321k external	0.2321temperature offset calibration	1.0069default loss term (dB/km)	0.3790temperature slope calibration	1.0000multiplexer offset coefficient	1.0000multiplexer slope coefficient	1.0000fibre end	0.00T internal ref (°C)	32.27T ext. ref 1 (°C)	2.11T ext. ref 2 (°C)	27.14length (m)	temperature (°C)	Stokes	anti-Stokes-747.200	-200.000	0.056	0.327
-746.185	95.220	-0.132	-0.152
-745.171	-200.000	0.013	-0.098
-744.156	31.958	-0.177	-0.154
-743.142	-143.184	0.295	-0.029
-742.127	347.582	-0.083	0.166
-741.112	800.000	0.041	-0.129
-740.098	414.281	-0.112	0.241
-739.083	761.772	0.094	-0.258
-738.069	-12.010	0.062	0.041
-737.054	26.575	-0.119	-0.101
-736.039	-56.711	-0.215	0.096
-735.025	-83.475	0.298	0.097
-734.010	186.548	0.230	0.345
-732.996	-152.584	-0.294	-0.021
-731.981	154.677	-0.123	0.170
-730.966	-10.759	0.154	-0.103
-729.952	46.284	-0.095	-0.089
-728.937	-13.892	-0.116	0.076
-727.923	-13.961	-0.260	0.170
-726.908	40.579	-0.094	0.085
-725.894	4.540	-0.192	0.142
-724.879	-167.923	0.319	-0.013
-723.864	-22.147	-0.390	-0.239
-722.850	-5.591	-0.108	0.075
-721.835	-200.000	-0.009	0.384
-720.821	-200.000	-0.020	-0.332
-719.806	-36.359	0.192	-0.105
-718.791	677.447	-0.144	-0.378
-717.777	-200.000	0.030	0.287
-716.762	-48.945	0.078	-0.038
-715.748	107.499	-0.114	0.137
-714.733	-52.438	-0.211	-0.098
-713.718	200.586	0.192	0.297
-712.704	-116.129	0.077	-0.014
-711.689	370.851	-0.149	0.305
-710.675	194.117	-0.124	-0.190
-709.660	-58.329	0.204	0.090
-708.645	-200.000	0.033	0.334
-707.631	11.201	-0.182	0.140
-706.616	52.759	-0.255	-0.246
-705.602	177.310	0.021	-0.031
-704.587	-23.098	0.120	0.073
-703.572	560.694	0.035	-0.086
-702.558	-63.223	0.402	-0.167
-701.543	373.611	0.052	0.106
-700.529	321.462	-0.091	-0.174
-699.514	-200.000	0.039	0.218
-698.499	-26.674	-0.091	0.053
-697.485	41.275	0.152	-0.138
-696.470	303.001	-0.097	0.182
-695.456	96.846	-0.099	0.114
-694.441	-107.277	-0.070	-0.015
-693.426	225.715	-0.236	0.385
-692.412	84.025	0.228	0.251
-691.397	188.692	0.200	0.302
-690.383	-107.081	-0.164	0.037
-689.368	-119.422	0.073	0.013
-688.354	-34.503	-0.284	-0.157
-687.339	120.598	-0.120	-0.151
-686.324	-36.719	-0.061	0.033
-685.310	155.351	0.292	0.405
-684.295	-31.229	-0.228	0.130
-683.281	800.000	-0.024	0.067
-682.266	-158.594	0.286	-0.017
-681.251	65.673	-0.048	-0.049
-680.237	-200.000	0.009	-0.045
-679.222	-26.415	-0.380	0.224
-678.208	-26.117	0.062	-0.037
-677.193	800.000	-0.052	-0.152
-676.178	-52.487	0.097	-0.045
-675.164	-200.000	-0.027	-0.325
-674.149	72.700	0.108	0.114
-673.135	-88.265	0.071	-0.022
-672.120	-200.000	0.045	-0.239
-671.105	-17.647	0.128	0.081
-670.091	284.032	0.033	-0.059
-669.076	37.530	-0.039	0.035
-668.062	-200.000	0.022	0.317
-667.047	-200.000	0.034	0.400
-666.032	159.929	0.076	0.107
-665.018	-200.000	-0.010	0.255
-664.003	-76.795	0.079	-0.028
-662.989	-200.000	-0.017	-0.142
-661.974	-173.078	-0.632	0.020
-660.959	554.601	-0.042	0.103
-659.945	-64.449	0.194	0.079
-658.930	-37.719	-0.082	-0.044
-657.916	201.114	-0.258	-0.399
-656.901	-200.000	0.056	-0.266
-655.886	-200.000	0.011	-0.170
-654.872	800.000	-0.023	-0.089
-653.857	73.908	-0.212	0.224
-652.843	-200.000	-0.001	-0.080
-651.828	-157.778	-0.524	0.031
-650.814	399.299	-0.115	0.243
-649.799	-153.057	0.113	0.008
-648.784	248.499	0.168	-0.286
-647.770	142.098	-0.240	0.320
-646.755	-72.854	0.146	-0.054
-645.741	-10.617	0.045	-0.030
-644.726	-107.517	-0.081	0.018
-643.711	-94.488	-0.100	-0.027
-642.697	-23.624	0.498	0.301
-641.682	-200.000	-0.004	-0.092
-640.668	-94.539	-0.246	-0.068
-639.653	-42.554	0.151	-0.077
-638.638	-41.614	-0.129	-0.067
-637.624	-46.120	-0.319	-0.158
-636.609	229.652	-0.027	-0.044
-635.595	-118.176	-0.201	-0.036
-634.580	-200.000	0.032	-0.271
-633.565	-68.361	0.144	-0.056
-632.551	-163.747	-0.129	0.006
-631.536	323.180	-0.172	0.330
-630.522	-36.085	0.172	0.094
-629.507	-9.394	0.005	0.003
-628.492	143.989	-0.399	-0.536
-627.478	-200.000	0.038	-0.242
-626.463	400.131	0.139	-0.293
-625.449	434.644	0.102	-0.224
-624.434	-137.207	0.388	-0.044
-623.419	124.575	-0.073	0.093
-622.405	85.311	0.273	-0.301
-621.390	236.405	0.157	-0.261
-620.376	53.608	-0.307	0.296
-619.361	-200.000	0.037	0.226
-618.346	-127.636	0.289	0.042
-617.332	-12.095	-0.148	-0.098
-616.317	256.759	0.035	0.060
-615.303	-19.804	-0.105	0.065
-614.288	-118.036	0.023	-0.004
-613.273	-16.066	-0.170	0.108
-612.259	585.705	0.094	-0.232
-611.244	-200.000	0.001	0.163
-610.230	25.437	-0.182	0.152
-609.215	-151.898	-0.149	0.011
-608.201	-200.000	-0.012	0.139
-607.186	21.168	-0.227	0.185
-606.171	-11.400	-0.175	-0.116
-605.157	-200.000	0.002	0.252
-604.142	-200.000	0.012	0.253
-603.128	178.602	-0.087	0.128
-602.113	120.757	0.093	0.116
-601.098	800.000	0.091	0.296
-600.084	-200.000	0.038	0.297
-599.069	-200.000	-0.055	0.470
-598.055	38.420	-0.163	-0.146
-597.040	-200.000	0.004	0.100
-596.025	-26.903	-0.168	0.099
-595.011	-76.626	0.067	-0.024
-593.996	-101.728	0.257	0.063
-592.982	782.763	-0.200	-0.549
-591.967	111.747	-0.109	0.132
-590.952	548.892	0.094	-0.226
-589.938	193.793	0.098	0.148
-588.923	-40.457	-0.356	-0.186
-587.909	-59.861	-0.241	-0.103
-586.894	-120.925	0.160	-0.027
-585.879	-114.228	0.129	-0.025
-584.865	-36.821	0.045	0.024
-583.850	-8.199	-0.128	0.086
-582.836	-104.383	0.075	-0.017
-581.821	-46.283	0.177	-0.087
-580.806	416.539	0.146	-0.313
-579.792	0.977	0.134	0.097
-578.777	-51.519	-0.126	-0.059
-577.763	-32.120	0.139	0.078
-576.748	46.903	-0.182	0.170
-575.733	-122.743	-0.294	-0.048
-574.719	59.648	0.202	-0.200
-573.704	122.980	-0.056	0.070
-572.690	67.536	-0.203	-0.208
-571.675	32.373	-0.227	-0.197
-570.661	23.579	0.143	0.118
-569.646	7.595	-0.174	0.131
-568.631	800.000	-0.042	0.140
-567.617	-200.000	0.026	0.355
-566.602	-41.515	0.086	-0.045
-565.588	243.919	-0.024	0.040
-564.573	731.567	-0.035	-0.094
-563.558	72.798	-0.071	-0.075
-562.544	50.401	0.104	-0.099
-561.529	0.185	-0.313	-0.224
-560.515	-115.171	0.205	0.039
-559.500	403.149	-0.036	-0.076
-558.485	222.011	0.184	0.297
-557.471	-200.000	0.018	-0.132
-556.456	42.124	0.274	0.249
-555.442	-199.113	0.221	-0.001
-554.427	-200.000	0.004	-0.124
-553.412	60.589	0.302	-0.300
-552.398	800.000	-0.016	-0.059
-551.383	388.512	0.028	0.058
-550.369	13.563	0.171	-0.133
-549.354	356.485	0.141	-0.282
-548.339	155.469	0.088	-0.122
-547.325	-200.000	-0.001	-0.152
-546.310	118.792	-0.222	-0.275
-545.296	492.386	-0.051	-0.118
-544.281	129.251	-0.076	-0.098
-543.266	-34.813	0.233	-0.128
-542.252	-116.720	-0.033	-0.006
-541.237	242.251	0.054	-0.090
-540.223	106.772	-0.078	-0.093
-539.208	175.561	-0.097	-0.140
-538.193	-127.554	0.089	0.013
-537.179	-80.979	-0.243	-0.081
-536.164	-200.000	0.037	0.197
-535.150	584.601	-0.069	0.170
-534.135	32.696	-0.147	-0.128
-533.121	17.132	0.245	-0.195
-532.106	-94.757	0.304	-0.083
-531.091	80.919	0.017	0.018
-530.077	-0.860	0.121	-0.086
-529.062	60.684	0.040	-0.040
-528.048	245.215	-0.145	-0.245
-527.033	272.557	0.156	0.275
-526.018	800.000	-0.043	0.121
-525.004	511.950	-0.086	0.200
-523.989	107.146	-0.057	0.068
-522.975	-44.802	0.197	-0.098
-521.960	-200.000	0.015	0.473
-520.945	-8.092	-0.140	-0.094
-519.931	800.000	-0.045	-0.158
-518.916	432.104	0.128	0.278
-517.902	-77.396	-0.082	0.029
-516.887	19.390	-0.110	-0.088
-515.872	157.875	-0.317	0.441
-514.858	92.069	0.170	0.191
-513.843	-200.000	0.062	-0.317
-512.829	-200.000	-0.001	0.140
-511.814	-170.365	-0.279	-0.010
-510.799	-1.494	-0.409	-0.289
-509.785	116.620	-0.100	0.122
-508.770	800.000	-0.074	-0.277
-507.756	800.000	-0.065	-0.183
-506.741	-133.537	-0.297	0.037
-505.726	-200.000	0.488	0.001
-504.712	229.618	0.093	-0.151
-503.697	-107.748	-0.122	-0.027
-502.683	-0.020	-0.302	-0.215
-501.668	359.173	0.082	-0.163
-500.653	-111.334	0.083	0.017
-499.639	-35.203	0.109	-0.059
-498.624	-81.032	-0.026	-0.009
-497.610	339.970	0.132	-0.257
-496.595	-186.772	0.212	-0.003
-495.581	-36.057	0.016	0.009
-494.566	107.700	-0.031	0.037
-493.551	-11.239	-0.166	-0.110
-492.537	-95.281	-0.201	-0.054
-491.522	-98.646	-0.072	0.018
-490.508	115.097	-0.190	0.232
-489.493	-98.941	0.092	-0.023
-488.478	121.234	-0.093	0.116
-487.464	-200.000	0.033	0.300
-486.449	800.000	0.063	-0.234
-485.435	-200.000	0.010	-0.055
-484.420	91.392	-0.341	-0.383
-483.405	273.929	-0.075	-0.133
-482.391	-144.842	0.143	0.013
-481.376	800.000	-0.066	-0.234
-480.362	66.948	0.175	0.178
-479.347	-89.830	-0.394	0.115
-478.332	101.875	0.172	-0.200
-477.318	125.691	-0.136	0.171
-476.303	132.833	-0.237	-0.306
-475.289	800.000	0.100	-0.373
-474.274	-57.677	-0.201	0.088
-473.259	303.774	0.158	0.293
-472.245	97.146	0.432	0.496
-471.230	-142.159	0.124	-0.012
-470.216	-200.000	0.030	-0.145
-469.201	41.096	0.101	-0.092
-468.186	116.837	-0.227	-0.279
-467.172	9.224	-0.155	0.117
-466.157	562.584	-0.044	-0.105
-465.143	800.000	0.060	-0.182
-464.128	8.383	0.193	0.145
-463.113	800.000	0.050	-0.200
-462.099	-75.282	-0.112	0.040
-461.084	-31.961	0.294	-0.164
-460.070	-136.174	0.341	-0.040
-459.055	-117.935	-0.181	-0.032
-458.040	-200.000	0.006	0.035
-457.026	-200.000	0.036	0.166
-456.011	-200.000	0.063	0.294
-454.997	800.000	0.023	0.076
-453.982	-25.525	0.187	0.110
-452.968	-200.000	0.011	0.092
-451.953	-66.063	-0.161	0.064
-450.938	-200.000	-0.018	0.219
-449.924	170.854	-0.204	0.291
-448.909	16.051	0.048	-0.037
-447.895	-87.851	-0.237	0.071
-446.880	800.000	0.047	0.152
-445.865	-18.881	-0.132	-0.082
-444.851	-200.000	0.048	0.422
-443.836	800.000	0.128	0.372
-442.822	-124.283	0.132	0.021
-441.807	-57.443	0.334	0.147
-440.792	101.647	0.048	0.056
-439.778	58.355	-0.202	-0.198
-438.763	-200.000	0.003	-0.068
-437.749	111.934	0.071	0.086
-436.734	-200.000	-0.023	0.373
-435.719	-93.255	0.319	0.088
-434.705	306.665	0.146	-0.271
-433.690	-93.013	0.157	-0.044
-432.676	-54.997	-0.167	0.075
-431.661	183.965	0.093	-0.138
-430.646	-114.676	-0.322	-0.061
-429.632	338.939	-0.094	-0.183
-428.617	-200.000	-0.037	0.283
-427.603	9.694	0.342	-0.258
-426.588	136.593	0.079	-0.103
-425.573	-200.000	0.032	-0.256
-424.559	659.283	-0.107	0.276
-423.544	-200.000	0.025	0.152
-422.530	587.045	-0.106	-0.260
-421.515	-31.107	0.245	-0.138
-420.500	-63.463	0.267	0.110
-419.486	26.639	0.363	-0.303
-418.471	800.000	-0.034	-0.108
-417.457	-47.295	-0.163	0.079
-416.442	69.975	-0.128	-0.131
-415.428	800.000	-0.108	0.366
-414.413	-200.000	0.010	0.131
-413.398	-66.981	0.191	-0.075
-412.384	410.338	0.067	0.141
-411.369	0.867	-0.155	-0.110
-410.355	-37.878	-0.248	-0.131
-409.340	17.485	-0.221	0.175
-408.325	-140.753	-0.097	-0.010
-407.311	-200.000	-0.004	-0.219
-406.296	-89.783	0.182	-0.053
-405.282	-109.713	0.058	-0.012
-404.267	166.051	0.168	0.237
-403.252	-166.441	-0.142	-0.006
-402.238	-176.244	0.393	-0.010
-401.223	-48.425	-0.165	-0.079
-400.209	-200.000	0.069	0.416
-399.194	33.268	-0.121	0.105
-398.179	13.357	0.156	0.120
-397.165	419.085	-0.187	0.399
-396.150	-89.566	0.469	0.137
-395.136	-121.114	0.350	-0.059
-394.121	66.943	0.221	0.224
-393.106	-54.821	0.110	-0.049
-392.092	-34.461	-0.081	-0.044
-391.077	-42.597	0.394	0.200
-390.063	44.004	-0.238	-0.218
-389.048	527.532	-0.145	0.341
-388.033	-111.688	0.086	-0.017
-387.019	74.286	0.295	0.309
-386.004	98.422	-0.155	0.178
-384.990	42.459	0.176	0.159
-383.975	-52.151	0.249	-0.115
-382.960	9.728	0.232	-0.175
-381.946	548.555	0.152	-0.363
-380.931	29.504	-0.121	-0.102
-379.917	96.891	-0.172	0.196
-378.902	144.995	0.081	0.108
-377.888	122.008	0.276	-0.343
-376.873	800.000	0.072	-0.287
-375.858	-77.470	-0.213	0.074
-374.844	154.352	0.106	-0.145
-373.829	13.059	-0.060	-0.046
-372.815	800.000	0.066	-0.227
-371.800	45.098	-0.110	-0.101
-370.785	83.982	0.146	0.159
-369.771	-15.964	-0.123	0.078
-368.756	648.475	-0.036	0.090
-367.742	-109.341	0.259	0.055
-366.727	386.032	-0.128	0.264
-365.712	93.201	0.303	0.341
-364.698	-114.760	-0.333	-0.063
-363.683	247.515	-0.087	-0.147
-362.669	81.943	-0.151	0.163
-361.654	800.000	0.077	0.291
-360.639	169.748	0.079	0.113
-359.625	-3.957	-0.253	-0.175
-358.610	-158.025	-0.134	-0.008
-357.596	14.216	0.230	0.178
-356.581	379.462	-0.102	0.208
-355.566	800.000	0.054	-0.201
-354.552	417.810	0.042	0.090
-353.537	800.000	-0.105	-0.405
-352.523	-78.767	-0.167	-0.057
-351.508	668.035	0.032	-0.083
-350.493	56.959	0.113	0.109
-349.479	-7.473	-0.234	0.157
-348.464	23.437	-0.083	-0.068
-347.450	40.283	0.183	-0.164
-346.435	800.000	-0.057	-0.221
-345.420	800.000	0.018	0.070
-344.406	-200.000	0.018	0.255
-343.391	-103.704	-0.296	-0.069
-342.377	284.122	0.017	0.030
-341.362	36.737	-0.032	-0.028
-340.348	-35.050	-0.107	0.058
-339.333	-168.437	-0.261	-0.010
-338.318	15.765	-0.211	-0.165
-337.304	-133.064	-0.022	-0.003
-336.289	477.270	0.076	-0.172
-335.275	-112.731	-0.159	-0.031
-334.260	-131.114	-0.153	-0.020
-333.245	-200.000	0.010	0.195
-332.231	65.034	0.167	0.167
-331.216	-80.672	-0.075	0.025
-330.202	-77.157	-0.113	-0.039
-329.187	-108.316	0.360	-0.077
-328.172	87.005	-0.095	-0.104
-327.158	415.202	-0.109	0.232
-326.143	-120.222	0.135	0.023
-325.129	91.192	0.074	-0.083
-324.114	-200.000	-0.032	-0.272
-323.099	-39.623	-0.162	-0.084
-322.085	-100.108	0.284	-0.070
-321.070	250.408	-0.182	0.307
-320.056	-148.442	0.215	-0.018
-319.041	-16.624	-0.063	0.040
-318.026	-120.288	0.107	-0.018
-317.012	800.000	-0.052	-0.171
-315.997	800.000	0.037	0.118
-314.983	-21.135	-0.223	-0.135
-313.968	95.815	0.154	0.174
-312.953	-200.000	-0.054	0.483
-311.939	-77.647	-0.102	-0.035
-310.924	50.949	-0.048	0.045
-309.910	-28.585	0.178	-0.102
-308.895	152.004	-0.114	0.154
-307.880	160.419	0.144	0.200
-306.866	-43.826	-0.149	0.074
-305.851	412.673	-0.167	-0.352
-304.837	-200.000	0.045	-0.250
-303.822	-160.661	-0.323	0.017
-302.807	321.734	-0.043	-0.080
-301.793	-103.426	-0.157	0.037
-300.778	-12.322	0.200	-0.130
-299.764	-29.943	-0.130	-0.073
-298.749	-200.000	-0.047	-0.323
-297.735	-142.980	-0.191	0.018
-296.720	-200.000	0.002	-0.174
-295.705	-43.354	-0.069	-0.034
-294.691	-200.000	0.002	-0.024
-293.676	239.482	0.138	-0.229
-292.662	-200.000	0.025	0.146
-291.647	64.038	0.199	-0.199
-290.632	313.079	-0.077	-0.144
-289.618	35.199	-0.185	-0.161
-288.603	-200.000	-0.004	-0.215
-287.589	800.000	-0.108	0.384
-286.574	-148.106	0.195	0.016
-285.559	800.000	-0.080	0.227
-284.545	800.000	-0.052	-0.158
-283.530	-142.789	-0.364	-0.035
-282.516	-200.000	0.045	-0.489
-281.501	-108.485	-0.148	0.032
-280.486	296.503	0.065	0.118
-279.472	107.766	-0.255	0.301
-278.457	149.146	0.044	-0.059
-277.443	426.395	0.035	0.076
-276.428	186.883	0.167	-0.247
-275.413	215.394	0.057	0.090
-274.399	49.263	-0.092	0.086
-273.384	-115.232	0.198	0.037
-272.370	34.296	-0.073	-0.063
-271.355	-200.000	-0.037	-0.221
-270.340	-50.968	-0.080	0.037
-269.326	-93.007	0.304	0.084
-268.311	800.000	-0.052	0.224
-267.297	-200.000	-0.026	0.175
-266.282	-159.334	-0.241	-0.013
-265.267	-61.363	-0.376	0.157
-264.253	-103.094	0.182	0.043
-263.238	106.138	-0.048	-0.057
-262.224	-33.062	0.034	0.019
-261.209	-39.225	-0.067	-0.035
-260.195	116.952	-0.040	0.049
-259.180	591.313	-0.075	-0.184
-258.165	-28.306	-0.039	-0.022
-257.151	149.851	0.166	0.223
-256.136	-155.127	-0.346	0.022
-255.122	-200.000	0.008	-0.039
-254.107	-69.882	0.168	-0.063
-253.092	-123.234	0.172	0.027
-252.078	800.000	0.049	-0.191
-251.063	-87.160	-0.346	0.104
-250.049	774.527	0.049	0.131
-249.034	173.366	0.151	0.216
-248.019	-200.000	0.000	0.017
-247.005	-92.240	-0.122	-0.034
-245.990	774.741	-0.064	0.172
-244.976	6.001	-0.089	0.066
-243.961	46.069	0.200	0.184
-242.946	90.565	0.123	0.137
-241.932	-74.347	0.105	0.037
-240.917	-59.749	0.280	0.119
-239.903	800.000	-0.088	0.344
-238.888	541.105	0.079	-0.186
-237.873	293.217	-0.047	-0.084
-236.859	-200.000	-0.028	0.148
-235.844	-137.603	-0.302	0.034
-234.830	80.016	0.144	0.154
-233.815	507.643	-0.162	0.373
-232.800	-20.065	-0.083	0.051
-231.786	-200.000	-0.009	0.053
-230.771	280.898	0.190	-0.337
-229.757	373.478	0.098	-0.197
-228.742	-74.065	-0.224	0.080
-227.727	-200.000	-0.003	-0.077
-226.713	-200.000	-0.034	0.187
-225.698	317.948	0.051	0.096
-224.684	-135.690	-0.295	-0.035
-223.669	-90.561	-0.155	-0.044
-222.655	122.491	0.126	0.156
-221.640	-124.695	-0.098	-0.015
-220.625	74.908	-0.146	-0.152
-219.611	-107.240	0.155	-0.034
-218.596	-85.794	-0.197	-0.060
-217.582	-8.991	-0.297	0.197
-216.567	160.338	0.092	-0.128
-215.552	-183.412	0.431	0.007
-214.538	479.975	0.058	0.130
-213.523	236.566	-0.128	0.209
-212.509	800.000	-0.107	-0.304
-211.494	-12.976	-0.267	-0.172
-210.479	28.594	0.088	0.073
-209.465	-71.669	0.181	-0.067
-208.450	-108.767	-0.235	-0.050
-207.436	800.000	0.117	0.421
-206.421	-11.220	0.322	-0.210
-205.406	-136.387	-0.120	-0.014
-204.392	618.587	-0.063	-0.156
-203.377	185.724	0.223	-0.328
-202.363	182.576	0.130	-0.190
-201.348	-43.960	-0.163	-0.081
-200.333	-167.009	0.220	-0.009
-199.319	-8.833	0.104	-0.069
-198.304	-95.789	-0.086	0.023
-197.290	-200.000	0.010	0.150
-196.275	-200.000	-0.009	0.094
-195.260	-92.280	0.422	-0.118
-194.246	110.078	-0.145	-0.172
-193.231	-11.607	0.246	-0.160
-192.217	800.000	-0.013	0.054
-191.202	76.688	0.335	0.352
-190.187	112.545	0.088	-0.105
-189.173	591.228	0.111	-0.270
-188.158	800.000	-0.040	-0.117
-187.144	144.357	0.066	-0.087
-186.129	-85.872	-0.131	-0.040
-185.114	800.000	-0.094	-0.354
-184.100	179.594	0.228	-0.330
-183.085	-170.984	0.189	0.006
-182.071	-152.589	-0.271	-0.019
-181.056	324.823	0.168	-0.317
-180.042	159.320	0.076	0.105
-179.027	800.000	0.121	0.383
-178.012	18.726	0.072	-0.057
-176.998	-60.032	-0.204	0.086
-175.983	-197.297	0.096	-0.001
-174.969	-200.000	-0.050	-0.240
-173.954	-168.896	0.132	0.005
-172.939	638.668	0.087	-0.219
-171.925	-79.804	-0.140	0.046
-170.910	-99.259	0.436	0.109
-169.896	584.573	-0.100	0.243
-168.881	-113.447	-0.284	-0.055
-167.866	552.799	-0.027	0.064
-166.852	800.000	-0.072	0.218
-165.837	-58.064	-0.150	-0.064
-164.823	800.000	0.070	-0.194
-163.808	249.471	-0.098	0.165
-162.793	243.317	-0.075	0.123
-161.779	-80.617	0.275	0.091
-160.764	113.417	0.176	-0.211
-159.750	-200.000	0.008	0.183
-158.735	45.687	-0.221	0.202
-157.720	139.848	-0.148	-0.193
-156.706	-200.000	-0.033	0.317
-155.691	-200.000	0.039	0.489
-154.677	800.000	-0.069	0.231
-153.662	153.722	0.076	0.103
-152.647	374.449	-0.197	-0.397
-151.633	167.184	-0.051	-0.071
-150.618	-185.137	-0.087	0.001
-149.604	-76.693	0.203	0.070
-148.589	31.188	-0.240	-0.203
-147.574	81.425	-0.092	0.099
-146.560	54.965	-0.324	-0.309
-145.545	-133.437	-0.153	-0.019
-144.531	629.352	0.054	-0.135
-143.516	-200.000	0.035	-0.254
-142.502	-76.882	-0.181	0.063
-141.487	74.247	0.126	0.131
-140.472	-34.301	-0.095	0.051
-139.458	-90.381	-0.204	0.058
-138.443	-200.000	-0.017	0.368
-137.429	64.792	0.032	0.032
-136.414	-33.630	0.236	0.128
-135.399	324.893	-0.141	-0.265
-134.385	-19.349	0.060	0.037
-133.370	-130.233	-0.070	0.009
-132.356	-34.027	0.250	0.136
-131.341	-118.556	0.265	0.046
-130.326	-173.442	-0.134	0.004
-129.312	-200.000	0.006	-0.214
-128.297	-92.983	0.103	-0.028
-127.283	-45.214	-0.300	0.147
-126.268	-67.205	0.477	-0.185
-125.253	69.334	-0.247	0.250
-124.239	-97.764	0.077	-0.020
-123.224	126.591	0.259	-0.323
-122.210	208.950	0.063	-0.098
-121.195	233.826	0.075	0.121
