DTS Sentinel unit serial number:	SN413079Multiplexer serial number:	ORYXHardware model number:	OX4-SRSoftware version number:	ORYX F/W v4.00 Oryx Data Collector v3.7.2.0data status	okinstallation	princeton_trtdifferential loss correction	single-endedforward channel	channel 3reverse channel	N/Adate	2019/09/10time	17:34:11forward acquisition time	60.00reverse acquisition time	0.00gamma	496.2192k internal	0.2298k external	0.2298temperature offset calibration	0.9912default loss term (dB/km)	0.3790temperature slope calibration	1.0000multiplexer offset coefficient	1.0000multiplexer slope coefficient	1.0000fibre end	0.00T internal ref (°C)	37.67T ext. ref 1 (°C)	-0.32T ext. ref 2 (°C)	31.48length (m)	temperature (°C)	Stokes	anti-Stokes-747.200	-6.353	0.412	-0.287
-746.185	163.268	0.125	-0.180
-745.171	210.617	0.044	0.071
-744.156	-200.000	-0.019	0.676
-743.142	-80.514	-0.343	-0.117
-742.127	-83.757	-0.224	-0.073
-741.112	-131.185	0.097	0.013
-740.098	-175.430	0.072	-0.002
-739.083	92.986	-0.116	0.133
-738.069	-38.894	0.269	0.145
-737.054	-55.651	0.030	-0.014
-736.039	800.000	0.043	-0.160
-735.025	-200.000	-0.010	-0.153
-734.010	-173.136	-0.358	0.011
-732.996	214.742	-0.115	-0.187
-731.981	-39.938	0.308	-0.164
-730.966	12.498	-0.169	-0.133
-729.952	-89.016	-0.289	0.087
-728.937	-50.947	0.413	0.198
-727.923	59.313	0.097	0.097
-726.908	-200.000	-0.009	-0.088
-725.894	32.948	0.173	0.153
-724.879	18.689	0.242	-0.198
-723.864	-172.841	-0.325	-0.010
-722.850	-103.436	0.191	0.046
-721.835	35.451	-0.065	0.058
-720.821	181.903	-0.129	-0.193
-719.806	-106.934	-0.221	-0.050
-718.791	-172.603	0.171	-0.005
-717.777	211.523	0.092	0.148
-716.762	-200.000	-0.096	-0.438
-715.748	394.397	-0.061	0.130
-714.733	-200.000	-0.011	0.076
-713.718	684.252	-0.060	-0.160
-712.704	-36.427	0.023	-0.013
-711.689	800.000	-0.035	-0.108
-710.675	-81.470	0.337	0.113
-709.660	-78.675	-0.109	0.038
-708.645	-96.165	0.092	0.025
-707.631	-13.923	-0.145	0.096
-706.616	-26.615	-0.079	0.047
-705.602	-200.000	-0.006	0.132
-704.587	-200.000	0.045	-0.468
-703.572	534.669	-0.233	-0.563
-702.558	377.178	-0.099	-0.206
-701.543	-65.862	-0.122	-0.050
-700.529	176.584	-0.019	0.028
-699.514	-200.000	0.001	-0.081
-698.499	2.486	0.156	-0.115
-697.485	800.000	-0.023	0.096
-696.470	-81.057	-0.182	-0.061
-695.456	10.057	-0.076	-0.058
-694.441	12.595	0.143	-0.113
-693.426	-200.000	-0.022	-0.408
-692.412	800.000	0.049	-0.164
-691.397	-200.000	-0.002	-0.135
-690.383	155.212	0.146	0.204
-689.368	-200.000	0.025	0.239
-688.354	-16.281	0.130	-0.084
-687.339	800.000	0.099	-0.293
-686.324	542.156	0.091	-0.220
-685.310	446.943	0.058	-0.130
-684.295	-78.537	-0.106	0.037
-683.281	17.992	0.372	0.302
-682.266	-80.089	-0.273	0.093
-681.251	-142.309	0.097	0.010
-680.237	-49.043	-0.309	0.150
-679.222	-73.788	-0.249	-0.092
-678.208	15.588	0.140	0.112
-677.193	49.504	0.160	-0.153
-676.178	-28.575	0.344	0.202
-675.164	33.588	0.026	-0.023
-674.149	-8.326	0.220	-0.151
-673.135	-200.000	-0.082	-0.401
-672.120	-200.000	0.010	-0.211
-671.105	90.611	-0.121	0.138
-670.091	458.847	0.091	-0.206
-669.076	-114.100	0.125	-0.025
-668.062	73.738	-0.043	-0.046
-667.047	362.738	-0.141	-0.288
-666.032	-200.000	0.021	-0.403
-665.018	431.587	0.061	-0.135
-664.003	249.814	0.085	-0.148
-662.989	800.000	0.077	-0.305
-661.974	-150.501	-0.382	0.030
-660.959	-200.000	-0.006	-0.275
-659.945	-96.414	0.096	-0.026
-658.930	-200.000	-0.014	-0.109
-657.916	-25.123	0.132	-0.079
-656.901	-200.000	0.035	-0.447
-655.886	-110.523	0.338	-0.071
-654.872	-200.000	-0.010	-0.308
-653.857	134.394	-0.222	0.293
-652.843	40.693	0.087	-0.080
-651.828	-200.000	-0.035	-0.275
-650.814	118.030	-0.087	0.109
-649.799	61.627	-0.091	0.092
-648.784	210.369	0.041	-0.065
-647.770	800.000	-0.086	0.260
-646.755	-94.801	0.165	-0.045
-645.741	149.860	0.194	0.268
-644.726	-178.275	0.159	-0.004
-643.711	-200.000	0.007	0.225
-642.697	417.234	0.201	-0.436
-641.682	105.598	-0.138	0.166
-640.668	-62.883	-0.156	-0.065
-639.653	-96.131	-0.111	-0.030
-638.638	149.506	-0.081	0.111
-637.624	-54.867	-0.060	0.028
-636.609	448.222	-0.094	-0.210
-635.595	-141.991	-0.078	0.008
-634.580	800.000	0.110	-0.402
-633.565	-200.000	-0.021	-0.416
-632.551	78.250	-0.258	-0.280
-631.536	800.000	0.049	-0.208
-630.522	-67.171	0.176	-0.070
-629.507	10.054	-0.188	-0.145
-628.492	187.934	-0.130	0.197
-627.478	-22.843	0.013	-0.008
-626.463	-200.000	-0.004	-0.120
-625.449	141.016	-0.281	-0.377
-624.434	-51.925	0.335	-0.158
-623.419	347.838	-0.054	0.109
-622.405	-200.000	-0.002	-0.135
-621.390	-200.000	-0.060	0.319
-620.376	480.459	-0.093	-0.214
-619.361	4.674	-0.132	-0.098
-618.346	-200.000	-0.014	0.214
-617.332	-98.092	-0.150	-0.039
-616.317	800.000	0.034	-0.141
-615.303	-200.000	-0.007	0.178
-614.288	95.189	-0.140	0.162
-613.273	-200.000	0.024	-0.323
-612.259	52.990	-0.127	0.123
-611.244	-200.000	0.057	0.258
-610.230	-3.485	-0.365	0.258
-609.215	70.666	-0.048	0.050
-608.201	800.000	0.061	0.214
-607.186	800.000	-0.009	0.029
-606.171	709.754	0.085	-0.227
-605.157	-83.187	0.132	-0.043
-604.142	191.174	-0.222	0.339
-603.128	800.000	-0.062	0.195
-602.113	-200.000	0.009	0.094
-601.098	800.000	0.092	-0.317
-600.084	-122.538	0.174	0.029
-599.069	-0.268	0.134	-0.097
-598.055	-34.188	0.380	-0.212
-597.040	-200.000	-0.053	-0.298
-596.025	-61.051	-0.221	0.095
-595.011	30.674	0.056	-0.048
-593.996	-41.210	-0.125	-0.065
-592.982	-130.160	0.121	0.017
-591.967	76.354	-0.257	0.276
-590.952	74.701	-0.146	0.155
-589.938	-45.138	-0.191	0.096
-588.923	-60.088	0.027	-0.012
-587.909	-25.769	-0.145	-0.087
-586.894	-54.339	-0.135	0.062
-585.879	96.438	0.160	-0.185
-584.865	-161.647	-0.209	0.011
-583.850	-67.420	0.023	-0.009
-582.836	97.611	0.067	-0.078
-581.821	-14.151	0.204	-0.133
-580.806	-200.000	-0.009	0.222
-579.792	-39.057	-0.067	0.036
-578.777	71.637	-0.192	0.202
-577.763	-133.665	-0.367	-0.046
-576.748	-200.000	-0.051	0.330
-575.733	-158.212	0.124	-0.007
-574.719	-130.340	0.156	-0.021
-573.704	-177.837	-0.015	-0.000
-572.690	-119.227	0.171	-0.030
-571.675	54.751	0.209	0.205
-570.661	-183.518	0.160	-0.003
-569.646	33.931	-0.025	0.022
-568.631	-19.979	-0.139	0.087
-567.617	-200.000	-0.017	0.117
-566.602	128.403	-0.131	0.169
-565.588	800.000	-0.089	0.323
-564.573	-3.879	0.340	-0.239
-563.558	193.414	0.125	0.192
-562.544	-157.059	-0.394	0.024
-561.529	-125.633	-0.302	-0.046
-560.515	-200.000	0.012	-0.172
-559.500	263.813	0.104	0.183
-558.485	7.426	-0.125	-0.094
-557.471	357.167	0.120	-0.243
-556.456	9.690	0.230	-0.177
-555.442	-200.000	0.046	-0.473
-554.427	-105.827	-0.162	-0.037
-553.412	-23.774	-0.097	-0.059
-552.398	58.471	0.086	-0.086
-551.383	30.363	-0.088	-0.076
-550.369	-103.668	0.158	0.038
-549.354	77.475	0.268	0.289
-548.339	538.590	0.100	-0.240
-547.325	359.869	-0.063	0.127
-546.310	-2.240	-0.167	0.119
-545.296	-44.246	0.309	0.157
-544.281	429.990	-0.042	-0.091
-543.266	-24.187	-0.155	0.094
-542.252	-200.000	-0.064	0.304
-541.237	127.491	0.127	-0.163
-540.223	347.255	-0.233	-0.464
-539.208	273.634	0.172	0.308
-538.193	205.819	-0.086	0.135
-537.179	413.443	-0.110	-0.237
-536.164	97.953	0.031	0.036
-535.150	21.176	-0.320	-0.263
-534.135	-43.523	0.099	0.050
-533.121	140.866	-0.138	0.184
-532.106	12.090	0.238	0.186
-531.091	-132.790	-0.092	-0.012
-530.077	800.000	-0.048	-0.207
-529.062	-112.820	0.375	0.075
-528.048	-163.483	-0.419	-0.020
-527.033	-200.000	0.007	-0.302
-526.018	-63.400	-0.369	0.154
-525.004	-119.485	0.044	0.008
-523.989	-56.485	-0.095	-0.043
-522.975	800.000	0.086	0.278
-521.960	-200.000	-0.055	-0.362
-520.945	148.933	0.092	-0.126
-519.931	-171.656	0.142	-0.005
-518.916	128.649	-0.183	0.236
-517.902	-156.079	-0.213	-0.014
-516.887	-200.000	-0.002	0.129
-515.872	554.621	-0.052	-0.127
-514.858	16.669	-0.051	0.041
-513.843	161.097	-0.147	-0.208
-512.829	103.377	0.105	-0.125
-511.814	90.611	-0.205	-0.232
-510.799	-107.635	-0.302	-0.067
-509.785	-38.453	0.332	0.178
-508.770	-64.037	-0.171	0.071
-507.756	-57.748	-0.112	0.050
-506.741	67.579	-0.324	0.335
-505.726	344.941	0.119	-0.237
-504.712	-43.691	-0.202	-0.103
-503.697	-105.259	-0.303	0.070
-502.683	-123.152	-0.419	-0.068
-501.668	55.978	0.166	0.163
-500.653	-200.000	-0.146	0.000
-499.639	26.336	-0.269	-0.228
-498.624	800.000	0.072	-0.314
-497.610	96.692	0.157	-0.182
-496.595	-102.752	-0.208	-0.050
-495.581	800.000	-0.031	-0.101
-494.566	-101.324	0.260	-0.064
-493.551	-200.000	0.011	0.153
-492.537	239.563	-0.138	-0.232
-491.522	-77.731	-0.056	-0.019
-490.508	393.131	0.091	-0.190
-489.493	374.802	0.086	-0.177
-488.478	192.093	0.181	0.276
-487.464	-200.000	-0.042	0.294
-486.449	-14.612	-0.196	0.127
-485.435	-8.613	0.164	-0.112
-484.420	-193.536	-0.179	0.002
-483.405	-89.073	0.194	-0.058
-482.391	371.844	0.118	0.243
-481.376	89.451	0.052	-0.059
-480.362	-26.477	-0.243	-0.144
-479.347	800.000	-0.014	0.053
-478.332	379.921	0.214	-0.444
-477.318	127.224	0.015	0.019
-476.303	75.410	-0.256	-0.273
-475.289	6.468	-0.283	-0.212
-474.274	135.896	0.156	-0.205
-473.259	-191.854	0.151	0.001
-472.245	118.217	-0.145	0.181
-471.230	-156.414	-0.188	-0.012
-470.216	-200.000	0.001	0.114
-469.201	18.533	0.339	0.274
-468.186	-200.000	0.014	-0.110
-467.172	263.116	0.109	-0.192
-466.157	-200.000	-0.005	0.034
-465.143	137.845	-0.128	0.169
-464.128	-114.758	-0.166	-0.032
-463.113	364.835	0.098	0.199
-462.099	523.494	0.107	-0.253
-461.084	800.000	0.055	0.176
-460.070	-101.729	0.100	0.024
-459.055	-200.000	0.007	-0.162
-458.040	-69.384	0.284	-0.110
-457.026	7.756	0.187	0.142
-456.011	298.740	0.119	-0.220
-454.997	-200.000	0.022	-0.309
-453.982	38.609	0.038	-0.035
-452.968	800.000	-0.066	-0.234
-451.953	-200.000	0.010	-0.386
-450.938	-96.366	-0.185	-0.050
-449.924	-89.332	-0.174	0.052
-448.909	800.000	-0.103	-0.304
-447.895	-200.000	0.032	-0.291
-446.880	26.768	0.341	-0.289
-445.865	-143.095	-0.021	-0.002
-444.851	138.258	-0.259	-0.343
-443.836	480.122	0.183	-0.420
-442.822	-200.000	-0.024	0.289
-441.807	64.783	0.225	0.229
-440.792	383.433	0.099	0.204
-439.778	-80.905	0.260	-0.087
-438.763	-97.197	-0.234	0.062
-437.749	-200.000	0.079	0.482
-436.734	-200.000	0.011	0.165
-435.719	58.081	0.145	0.143
-434.705	-138.103	0.327	-0.037
-433.690	800.000	0.185	0.532
-432.676	236.364	-0.158	-0.264
-431.661	-180.628	-0.297	0.006
-430.646	33.152	0.055	0.048
-429.632	449.393	-0.092	0.204
-428.617	-48.243	-0.205	0.100
-427.603	-154.607	0.138	0.009
-426.588	800.000	0.053	0.170
-425.573	394.946	0.054	0.113
-424.559	-32.404	0.187	-0.105
-423.544	-80.207	-0.300	0.101
-422.530	-30.295	0.020	0.012
-421.515	-155.496	-0.218	-0.014
-420.500	128.778	0.159	0.204
-419.486	142.419	0.264	0.353
-418.471	-43.571	0.343	-0.175
-417.457	-7.364	0.402	0.274
-416.442	135.995	-0.136	-0.178
-415.428	800.000	0.096	-0.326
-414.413	-57.637	-0.178	0.079
-413.398	336.460	0.048	0.094
-412.384	-136.057	0.345	-0.041
-411.369	-156.640	-0.265	-0.017
-410.355	-200.000	0.000	-0.106
-409.340	-200.000	-0.088	0.503
-408.325	800.000	-0.066	-0.261
-407.311	-153.858	-0.171	-0.012
-406.296	-176.075	0.095	-0.003
-405.282	800.000	0.022	-0.081
-404.267	220.128	-0.035	-0.057
-403.252	-172.758	-0.243	-0.008
-402.238	195.447	-0.119	0.182
-401.223	-51.174	0.204	0.096
-400.209	-200.000	-0.174	0.000
-399.194	6.795	-0.354	-0.265
-398.179	56.987	0.163	0.160
-397.165	800.000	-0.042	-0.144
-396.150	-200.000	0.045	0.338
-395.136	-61.159	-0.447	0.190
-394.121	-41.684	0.264	0.136
-393.106	75.870	-0.179	-0.191
-392.092	-14.287	-0.285	-0.185
-391.077	732.088	0.024	0.064
-390.063	691.398	0.028	0.073
-389.048	517.102	0.121	0.286
-388.033	800.000	0.066	0.213
-387.019	588.438	-0.131	-0.325
-386.004	-200.000	0.006	-0.093
-384.990	800.000	0.018	0.059
-383.975	-49.309	0.192	-0.092
-382.960	-102.570	-0.162	-0.039
-381.946	-161.708	0.216	-0.011
-380.931	800.000	-0.063	-0.176
-379.917	163.047	-0.046	-0.066
-378.902	-51.765	0.077	-0.036
-377.888	-31.698	-0.217	0.123
-376.873	54.888	0.253	0.245
-375.858	-128.858	-0.114	0.016
-374.844	65.216	0.070	0.072
-373.829	-70.316	-0.207	0.079
-372.815	-130.067	-0.258	-0.036
-371.800	-24.732	0.042	0.025
-370.785	-200.000	0.026	0.135
-369.771	-11.345	-0.352	0.233
-368.756	183.531	-0.062	-0.092
-367.742	-148.098	0.258	-0.021
-366.727	-139.266	-0.325	-0.035
-365.712	-80.170	0.393	0.132
-364.698	520.155	0.053	0.125
-363.683	-193.445	0.067	-0.001
-362.669	15.836	-0.157	-0.124
-361.654	-121.033	0.185	0.031
-360.639	175.174	-0.041	-0.060
-359.625	-138.430	-0.242	0.027
-358.610	367.925	0.158	0.322
-357.596	-116.863	0.146	0.027
-356.581	-117.214	0.398	0.073
-355.566	-76.255	-0.076	-0.027
-354.552	79.594	0.092	-0.100
-353.537	-200.000	0.005	0.347
-352.523	11.183	0.087	0.067
-351.508	236.414	-0.133	0.221
-350.493	800.000	0.087	0.318
-349.479	226.003	0.188	0.307
-348.464	-93.847	0.159	-0.044
-347.450	800.000	0.048	-0.159
-346.435	-168.920	0.305	-0.011
-345.420	326.441	0.175	0.336
-344.406	-190.460	-0.156	0.002
-343.391	282.595	-0.127	0.228
-342.377	350.464	0.171	0.340
-341.362	-27.185	-0.324	-0.190
-340.348	-200.000	0.065	0.418
-339.333	-35.824	0.319	-0.174
-338.318	-73.657	-0.047	0.017
-337.304	-156.380	0.302	0.019
-336.289	-200.000	-0.019	-0.296
-335.275	-182.847	0.173	0.003
-334.260	-200.000	0.018	0.198
-333.245	-119.988	-0.300	0.052
-332.231	-200.000	0.003	-0.078
-331.216	-94.392	0.367	0.101
-330.202	159.248	0.213	-0.297
-329.187	-129.334	-0.193	0.027
-328.172	-200.000	0.034	-0.498
-327.158	143.425	-0.096	-0.129
-326.143	-35.127	-0.104	-0.057
-325.129	800.000	-0.092	-0.376
-324.114	244.157	-0.093	-0.157
-323.099	-108.983	-0.364	0.078
-322.085	-200.000	-0.034	0.417
-321.070	471.865	-0.027	0.062
-320.056	-63.243	0.203	-0.084
-319.041	-64.536	-0.075	-0.031
-318.026	30.932	-0.184	-0.158
-317.012	62.123	0.074	-0.074
-315.997	85.501	-0.104	-0.115
-314.983	-169.015	0.166	-0.006
-313.968	-54.205	0.127	-0.058
-312.953	-59.123	0.071	0.031
-311.939	173.912	-0.237	-0.343
-310.924	179.391	0.148	0.217
-309.910	350.683	-0.115	0.229
-308.895	-33.946	0.147	0.081
-307.880	-10.134	-0.199	0.133
-306.866	72.751	0.168	-0.176
-305.851	33.309	0.200	0.174
-304.837	-66.638	0.186	0.074
-303.822	141.224	0.183	0.243
-302.807	-71.812	-0.379	0.142
-301.793	800.000	0.031	0.113
-300.778	-91.419	0.327	0.094
-299.764	7.993	-0.138	0.104
-298.749	-83.391	-0.088	-0.028
-297.735	-28.381	0.247	0.143
-296.720	323.764	0.101	0.193
-295.705	-125.681	-0.187	0.028
-294.691	-200.000	0.006	-0.096
-293.676	-75.702	0.138	0.049
-292.662	-98.430	-0.240	0.062
-291.647	-79.392	0.158	-0.053
-290.632	90.934	0.222	-0.250
-289.618	229.092	-0.107	-0.175
-288.603	-95.753	-0.175	0.047
-287.589	159.033	-0.173	0.241
-286.574	360.796	0.077	0.155
-285.559	66.173	0.226	0.230
-284.545	-33.532	0.261	0.145
-283.530	-63.495	-0.105	-0.043
-282.516	68.972	-0.081	-0.083
-281.501	107.745	-0.025	0.030
-280.486	-111.376	0.244	-0.050
-279.472	587.676	-0.076	0.189
-278.457	-17.089	0.276	-0.174
-277.443	-159.404	-0.359	0.020
-276.428	348.940	0.099	-0.195
-275.413	75.678	-0.118	0.125
-274.399	588.942	-0.110	0.270
-273.384	-54.909	-0.191	0.086
-272.370	170.787	-0.071	-0.101
-271.355	-64.550	-0.322	-0.131
-270.340	291.580	0.001	0.003
-269.326	405.584	0.069	0.146
-268.311	228.060	0.275	0.449
-267.297	250.232	0.102	0.173
-266.282	283.049	-0.088	0.158
-265.267	385.345	0.103	-0.212
-264.253	-65.456	-0.369	-0.149
-263.238	-31.913	-0.226	-0.127
-262.224	-41.654	-0.276	-0.142
-261.209	82.964	0.135	0.147
-260.195	-200.000	-0.057	0.268
-259.180	15.576	0.206	-0.162
-258.165	173.114	0.050	0.072
-257.151	15.541	-0.145	-0.114
-256.136	238.079	-0.153	-0.255
-255.122	157.953	0.167	0.231
-254.107	353.304	0.134	0.266
-253.092	-14.478	-0.258	-0.166
-252.078	-18.392	0.216	0.135
-251.063	-12.168	0.292	-0.191
-250.049	56.934	-0.223	0.217
-249.034	346.117	0.091	0.178
-248.019	800.000	0.066	-0.237
-247.005	269.754	0.149	-0.262
-245.990	-24.421	-0.223	0.133
-244.976	346.997	-0.129	-0.255
-243.961	-200.000	-0.035	0.191
-242.946	-26.659	0.223	-0.130
-241.932	-0.108	0.058	-0.042
-240.917	242.907	0.204	0.342
-239.903	-80.988	0.197	0.065
-238.888	-78.228	0.043	0.015
-237.873	83.922	-0.082	0.090
-236.859	-57.258	0.241	-0.106
-235.844	107.821	-0.028	0.034
-234.830	800.000	-0.061	-0.194
-233.815	-136.479	-0.101	-0.012
-232.800	27.029	-0.221	-0.185
-231.786	553.100	-0.026	-0.062
-230.771	-168.611	-0.064	-0.002
-229.757	-56.495	0.275	-0.122
-228.742	148.194	-0.068	-0.092
-227.727	-64.786	0.050	0.020
-226.713	200.809	0.216	-0.332
-225.698	-200.000	0.005	-0.246
-224.684	-200.000	0.018	-0.117
-223.669	-200.000	0.013	-0.141
-222.655	34.208	0.192	-0.168
-221.640	166.206	-0.153	-0.216
-220.625	187.098	0.170	-0.254
-219.611	-200.000	0.004	-0.411
-218.596	-52.851	0.206	0.095
-217.582	-200.000	0.019	-0.184
-216.567	768.484	0.047	0.128
-215.552	319.722	-0.106	0.200
-214.538	-200.000	-0.025	-0.160
-213.523	79.441	-0.087	-0.093
-212.509	-91.613	0.175	0.050
-211.494	-145.174	0.177	-0.016
-210.479	800.000	-0.096	0.386
-209.465	-112.264	-0.107	0.022
-208.450	-200.000	0.053	0.283
-207.436	800.000	-0.061	0.251
-206.421	188.389	0.028	-0.042
-205.406	42.677	0.086	-0.079
-204.392	-167.771	-0.069	0.003
-203.377	124.817	-0.177	-0.223
-202.363	-200.000	0.018	0.154
-201.348	-17.735	-0.159	0.100
-200.333	-187.530	-0.117	-0.002
-199.319	-200.000	0.011	-0.495
-198.304	197.517	0.087	0.133
-197.290	800.000	0.061	0.256
-196.275	-104.436	0.158	0.037
-195.260	-200.000	0.002	-0.052
-194.246	-113.089	-0.137	-0.027
-193.231	-114.654	-0.081	-0.015
-192.217	-54.801	0.185	-0.084
-191.202	800.000	0.007	0.029
-190.187	48.741	-0.113	0.106
-189.173	763.787	0.050	0.137
-188.158	91.621	-0.092	-0.103
-187.144	-162.125	0.281	-0.014
-186.129	153.715	-0.121	0.166
-185.114	-113.305	-0.309	-0.061
-184.100	-200.000	-0.317	0.001
-183.085	-77.405	-0.057	0.020
-182.071	-24.259	-0.404	-0.241
-181.056	-57.862	-0.303	0.132
-180.042	401.475	0.012	0.025
-179.027	12.893	0.072	-0.056
-178.012	425.222	0.176	0.379
-176.998	48.066	0.252	0.235
-175.983	78.263	0.100	-0.106
-174.969	-200.000	0.015	-0.368
-173.954	-101.550	0.159	-0.038
-172.939	-127.870	-0.067	0.010
-171.925	406.922	0.117	-0.247
-170.910	-89.298	0.109	0.032
-169.896	-90.304	0.347	-0.100
-168.881	-200.000	-0.055	-0.269
-167.866	800.000	-0.042	-0.161
-166.852	-120.134	0.287	-0.049
-165.837	-80.814	-0.325	0.108
-164.823	67.800	-0.106	-0.108
-163.808	-123.689	0.452	-0.071
-162.793	800.000	0.067	0.236
-161.779	52.862	0.103	0.098
-160.764	46.220	0.244	0.225
-159.750	800.000	-0.030	-0.099
-158.735	800.000	0.057	-0.184
-157.720	-60.128	0.241	-0.103
-156.706	693.725	0.121	0.317
-155.691	235.512	0.158	0.260
-154.677	-200.000	0.007	-0.150
-153.662	23.278	-0.159	-0.130
-152.647	-200.000	0.098	0.000
-151.633	-72.179	0.196	0.072
-150.618	-3.720	-0.372	-0.257
-149.604	-57.024	-0.213	0.094
-148.589	-127.881	0.314	0.045
-147.574	93.775	0.227	-0.257
-146.560	-129.531	-0.396	-0.055
-145.545	-200.000	0.014	-0.423
-144.531	436.970	0.053	0.115
-143.516	139.654	0.188	0.247
-142.502	-103.946	0.178	-0.042
-141.487	-2.030	0.197	0.138
-140.472	-159.784	0.138	0.008
-139.458	650.157	-0.152	-0.389
-138.443	-95.746	0.207	-0.055
-137.429	46.085	0.083	0.076
-136.414	-64.552	0.095	-0.039
-135.399	-200.000	-0.013	0.149
-134.385	-68.007	-0.494	0.192
-133.370	-110.604	-0.080	0.017
-132.356	-39.268	-0.202	0.106
-131.341	-200.000	0.000	-0.144
-130.326	159.921	-0.114	-0.159
-129.312	-200.000	0.021	0.398
-128.297	-123.915	0.202	-0.032
-127.283	-50.838	-0.044	-0.021
-126.268	800.000	-0.116	0.416
-125.253	-23.990	0.096	0.057
-124.239	245.303	-0.321	-0.538
-123.224	-49.825	0.471	-0.223
-122.210	-66.481	-0.195	0.077
-121.195	47.153	-0.069	0.064
