DTS Sentinel unit serial number:	SN413079Multiplexer serial number:	ORYXHardware model number:	OX4-SRSoftware version number:	ORYX F/W v4.00 Oryx Data Collector v3.7.2.0data status	okinstallation	princeton_trtdifferential loss correction	single-endedforward channel	channel 3reverse channel	N/Adate	2019/09/14time	08:08:35forward acquisition time	60.00reverse acquisition time	0.00gamma	496.2192k internal	0.2334k external	0.2334temperature offset calibration	1.0052default loss term (dB/km)	0.3790temperature slope calibration	1.0000multiplexer offset coefficient	1.0000multiplexer slope coefficient	1.0000fibre end	0.00T internal ref (°C)	27.25T ext. ref 1 (°C)	3.57T ext. ref 2 (°C)	25.87length (m)	temperature (°C)	Stokes	anti-Stokes-747.200	-103.970	0.280	-0.066
-746.185	222.150	-0.092	0.149
-745.171	-200.000	-0.079	0.482
-744.156	-128.117	0.391	-0.056
-743.142	800.000	-0.031	0.120
-742.127	-200.000	-0.059	0.293
-741.112	77.494	-0.076	-0.081
-740.098	-200.000	0.006	0.240
-739.083	-59.559	0.205	0.088
-738.069	800.000	0.118	0.384
-737.054	-80.507	-0.197	0.066
-736.039	-174.153	-0.345	0.010
-735.025	-200.000	0.040	0.285
-734.010	14.024	0.283	-0.221
-732.996	-51.454	-0.444	-0.208
-731.981	-26.627	0.014	-0.008
-730.966	-25.371	0.048	-0.028
-729.952	-200.000	-0.024	-0.232
-728.937	-200.000	-0.007	-0.099
-727.923	230.969	-0.046	-0.075
-726.908	-200.000	0.006	-0.192
-725.894	-47.183	-0.078	-0.038
-724.879	-128.047	0.313	0.045
-723.864	-133.909	-0.283	0.035
-722.850	-47.390	0.100	0.049
-721.835	-36.782	0.195	-0.105
-720.821	508.382	-0.059	0.139
-719.806	-200.000	0.019	-0.450
-718.791	-47.444	0.054	-0.026
-717.777	214.115	-0.047	-0.074
-716.762	-200.000	-0.010	0.096
-715.748	800.000	-0.083	0.284
-714.733	416.151	0.156	-0.333
-713.718	800.000	0.090	-0.257
-712.704	-133.458	-0.235	-0.030
-711.689	480.134	-0.056	-0.127
-710.675	-53.005	-0.396	0.183
-709.660	-29.389	0.180	0.104
-708.645	-148.298	-0.083	0.007
-707.631	-38.118	-0.235	0.125
-706.616	85.378	0.239	0.263
-705.602	-168.187	-0.197	-0.008
-704.587	203.260	0.087	0.134
-703.572	17.220	-0.101	0.080
-702.558	308.653	-0.066	0.123
-701.543	-116.992	0.124	-0.023
-700.529	-24.501	0.169	-0.101
-699.514	-112.078	-0.267	-0.054
-698.499	-85.848	-0.313	0.097
-697.485	311.874	-0.091	-0.172
-696.470	-200.000	-0.025	-0.238
-695.456	-98.238	0.046	-0.012
-694.441	-200.000	0.010	0.051
-693.426	-200.000	0.030	-0.263
-692.412	284.994	0.095	-0.172
-691.397	-7.207	0.209	-0.142
-690.383	800.000	-0.014	-0.042
-689.368	800.000	0.075	0.230
-688.354	94.242	-0.171	-0.195
-687.339	-29.055	-0.355	-0.204
-686.324	-200.000	0.024	0.217
-685.310	237.557	0.074	-0.123
-684.295	138.064	-0.148	-0.195
-683.281	-200.000	0.019	-0.368
-682.266	-123.504	0.115	0.018
-681.251	314.400	-0.173	-0.326
-680.237	-200.000	-0.019	-0.201
-679.222	800.000	-0.031	0.113
-678.208	115.857	0.110	0.135
-677.193	-124.647	-0.214	0.033
-676.178	417.256	0.016	0.035
-675.164	-200.000	-0.026	0.305
-674.149	-200.000	-0.064	0.343
-673.135	-46.896	-0.282	0.138
-672.120	26.696	-0.201	-0.168
-671.105	405.399	-0.048	-0.101
-670.091	-116.110	-0.297	0.055
-669.076	800.000	-0.031	0.096
-668.062	-200.000	0.010	-0.216
-667.047	244.715	-0.122	-0.206
-666.032	-58.287	-0.118	-0.051
-665.018	92.631	0.112	0.127
-664.003	-69.950	-0.316	0.121
-662.989	131.926	-0.209	-0.270
-661.974	-200.000	0.042	0.332
-660.959	-42.979	-0.239	-0.121
-659.945	5.398	-0.290	0.214
-658.930	216.198	0.114	0.181
-657.916	450.861	-0.070	-0.154
-656.901	-111.212	-0.501	-0.103
-655.886	-8.471	0.209	0.141
-654.872	-200.000	-0.007	0.051
-653.857	800.000	0.086	0.266
-652.843	-200.000	0.018	-0.137
-651.828	-107.331	-0.203	-0.045
-650.814	-200.000	0.013	0.118
-649.799	27.296	-0.171	-0.144
-648.784	-131.971	-0.119	-0.016
-647.770	587.359	-0.059	-0.145
-646.755	-200.000	-0.025	0.225
-645.741	106.438	-0.126	0.150
-644.726	557.352	0.072	-0.173
-643.711	-200.000	0.009	-0.247
-642.697	48.848	-0.099	0.093
-641.682	-200.000	0.032	0.143
-640.668	-45.434	0.223	0.111
-639.653	-58.746	-0.146	-0.063
-638.638	-103.619	-0.230	-0.054
-637.624	-137.661	0.127	-0.014
-636.609	-73.112	-0.340	-0.125
-635.595	-147.405	-0.332	-0.028
-634.580	44.607	-0.168	0.154
-633.565	800.000	0.107	0.384
-632.551	497.664	-0.061	0.141
-631.536	-13.926	-0.146	0.094
-630.522	-148.668	-0.070	0.006
-629.507	-72.227	0.226	0.084
-628.492	-122.418	-0.154	-0.025
-627.478	-63.211	0.066	-0.027
-626.463	-178.607	-0.179	-0.004
-625.449	260.527	0.093	-0.161
-624.434	7.956	0.315	-0.236
-623.419	-134.308	-0.228	-0.028
-622.405	-200.000	0.002	0.233
-621.390	-42.838	0.129	-0.066
-620.376	585.472	0.018	-0.045
-619.361	-48.787	-0.125	-0.060
-618.346	800.000	-0.118	-0.435
-617.332	-1.759	-0.145	0.102
-616.317	393.201	0.180	-0.375
-615.303	315.746	-0.113	-0.214
-614.288	148.309	-0.285	0.385
-613.273	71.665	-0.124	-0.129
-612.259	-15.853	0.262	0.167
-611.244	-29.946	-0.171	-0.097
-610.230	63.773	-0.106	-0.106
-609.215	-88.714	0.180	0.053
-608.201	-118.367	-0.118	0.021
-607.186	-32.251	0.106	-0.059
-606.171	13.638	-0.154	-0.119
-605.157	800.000	0.065	0.189
-604.142	-47.209	0.139	0.068
-603.128	-200.000	-0.038	0.248
-602.113	101.797	0.053	0.062
-601.098	-115.563	0.263	-0.049
-600.084	121.420	-0.257	0.320
-599.069	-3.774	-0.287	-0.199
-598.055	-107.407	-0.122	-0.027
-597.040	-52.824	-0.197	-0.091
-596.025	31.873	0.127	0.109
-595.011	-195.617	-0.137	-0.001
-593.996	413.453	-0.147	0.312
-592.982	-40.559	0.130	-0.067
-591.967	307.153	-0.060	0.111
-590.952	11.828	-0.133	-0.102
-589.938	-114.456	-0.190	0.037
-588.923	-136.337	-0.035	-0.004
-587.909	-150.979	-0.159	-0.012
-586.894	-33.669	0.254	-0.140
-585.879	60.215	0.214	0.211
-584.865	-200.000	-0.265	0.000
-583.850	101.323	-0.212	0.247
-582.836	-135.610	0.154	0.018
-581.821	-95.290	0.257	0.069
-580.806	121.811	-0.121	-0.151
-579.792	20.390	-0.041	-0.033
-578.777	419.308	0.113	-0.242
-577.763	-200.000	0.049	-0.219
-576.748	-89.116	-0.258	0.076
-575.733	316.317	0.044	-0.084
-574.719	-65.045	0.110	-0.044
-573.704	-120.132	-0.253	0.043
-572.690	83.174	0.066	-0.072
-571.675	10.774	0.079	-0.060
-570.661	-200.000	0.012	-0.102
-569.646	41.689	0.101	-0.091
-568.631	63.710	-0.092	-0.092
-567.617	-121.795	-0.191	0.031
-566.602	-109.718	-0.395	-0.083
-565.588	283.090	-0.092	-0.164
-564.573	454.183	-0.053	-0.116
-563.558	6.289	-0.061	-0.045
-562.544	-33.426	-0.155	0.086
-561.529	34.877	-0.335	0.293
-560.515	12.566	-0.181	-0.139
-559.500	-61.109	0.459	0.193
-558.485	-41.984	0.264	-0.135
-557.471	-200.000	0.014	0.104
-556.456	-57.847	0.124	0.054
-555.442	-200.000	-0.018	0.168
-554.427	-200.000	-0.001	-0.054
-553.412	800.000	-0.037	-0.148
-552.398	800.000	0.048	0.192
-551.383	351.422	0.043	-0.085
-550.369	371.255	0.061	-0.123
-549.354	396.952	-0.174	0.363
-548.339	-72.483	0.378	-0.139
-547.325	88.496	0.236	-0.261
-546.310	513.068	0.051	-0.120
-545.296	-25.069	-0.187	-0.110
-544.281	-111.054	0.246	-0.050
-543.266	159.552	0.047	-0.065
-542.252	800.000	-0.119	-0.350
-541.237	-200.000	0.011	-0.203
-540.223	-34.766	0.182	-0.099
-539.208	342.623	0.086	0.167
-538.193	166.262	0.291	0.411
-537.179	8.553	0.092	0.069
-536.164	-200.000	0.007	0.127
-535.150	-7.386	-0.106	-0.071
-534.135	-200.000	0.072	-0.436
-533.121	64.004	0.186	-0.186
-532.106	100.829	0.311	-0.360
-531.091	158.980	-0.092	-0.128
-530.077	454.533	-0.084	-0.185
-529.062	256.444	0.195	0.334
-528.048	789.798	-0.129	-0.353
-527.033	-20.666	-0.166	-0.101
-526.018	-73.597	0.078	-0.028
-525.004	-148.550	0.164	0.013
-523.989	153.427	-0.070	-0.095
-522.975	6.881	0.180	-0.134
-521.960	-69.961	0.177	0.067
-520.945	-200.000	0.021	-0.245
-519.931	-170.016	-0.308	-0.011
-518.916	57.385	-0.226	0.220
-517.902	-86.386	0.261	-0.080
-516.887	130.973	0.028	0.035
-515.872	154.470	0.286	0.391
-514.858	-200.000	-0.008	0.200
-513.843	800.000	0.010	0.040
-512.829	-112.025	-0.342	0.069
-511.814	-69.979	-0.091	0.034
-510.799	77.448	-0.120	-0.127
-509.785	800.000	-0.080	0.269
-508.770	39.231	-0.070	0.062
-507.756	158.656	-0.109	0.151
-506.741	235.994	-0.012	0.019
-505.726	193.101	-0.074	-0.111
-504.712	-84.989	0.047	-0.015
-503.697	-3.261	-0.140	-0.097
-502.683	84.070	0.109	-0.118
-501.668	406.963	0.153	0.321
-500.653	573.764	0.118	-0.286
-499.639	-200.000	0.040	0.227
-498.624	3.148	-0.296	0.214
-497.610	-3.081	-0.207	-0.144
-496.595	80.699	-0.132	-0.142
-495.581	-146.336	-0.238	-0.021
-494.566	415.249	-0.192	-0.407
-493.551	-67.872	-0.303	0.118
-492.537	17.876	0.103	-0.082
-491.522	308.344	-0.048	0.089
-490.508	222.124	-0.076	0.122
-489.493	415.676	-0.132	0.279
-488.478	800.000	-0.051	-0.212
-487.464	-46.069	-0.204	0.100
-486.449	518.113	-0.091	-0.213
-485.435	-26.636	-0.291	-0.169
-484.420	277.046	-0.164	0.291
-483.405	-193.167	0.214	-0.002
-482.391	800.000	-0.036	0.099
-481.376	-200.000	0.041	0.304
-480.362	-51.124	-0.082	0.038
-479.347	-23.860	0.250	0.149
-478.332	-17.285	0.430	-0.269
-477.318	-133.499	0.203	-0.025
-476.303	-95.660	0.214	0.057
-475.289	-200.000	-0.021	-0.155
-474.274	800.000	0.059	-0.228
-473.259	-42.516	0.070	-0.035
-472.245	59.685	-0.145	0.142
-471.230	-200.000	0.071	0.357
-470.216	-70.670	-0.381	-0.143
-469.201	101.069	0.042	-0.049
-468.186	-54.690	-0.283	0.127
-467.172	-72.563	-0.416	-0.153
-466.157	19.850	-0.166	-0.133
-465.143	-37.781	0.075	-0.040
-464.128	14.671	0.072	0.056
-463.113	152.695	-0.096	0.130
-462.099	-190.478	0.410	-0.004
-461.084	23.512	-0.277	-0.227
-460.070	-111.924	-0.204	-0.041
-459.055	14.205	-0.208	0.161
-458.040	-108.972	0.112	-0.024
-457.026	54.424	0.330	0.316
-456.011	-139.447	0.172	0.018
-454.997	205.191	0.123	0.189
-453.982	38.257	0.093	0.082
-452.968	766.964	0.182	-0.491
-451.953	-8.709	-0.143	-0.095
-450.938	18.538	0.261	-0.207
-449.924	381.476	-0.041	0.085
-448.909	98.100	-0.113	0.129
-447.895	500.178	0.104	0.238
-446.880	-29.899	0.071	0.040
-445.865	4.940	0.295	0.216
-444.851	-141.482	0.058	0.006
-443.836	800.000	-0.014	0.043
-442.822	-127.569	-0.377	0.054
-441.807	179.058	-0.124	-0.180
-440.792	-35.899	0.165	-0.089
-439.778	800.000	0.050	-0.201
-438.763	-25.147	-0.208	0.123
-437.749	99.622	0.104	0.119
-436.734	47.521	-0.350	0.325
-435.719	33.584	0.214	0.185
-434.705	800.000	0.060	0.214
-433.690	24.048	-0.233	0.191
-432.676	-156.737	0.233	0.014
-431.661	-134.607	-0.186	-0.023
-430.646	-113.928	0.113	0.022
-429.632	800.000	-0.035	-0.114
-428.617	-19.838	-0.345	-0.211
-427.603	4.354	0.247	-0.179
-426.588	-69.915	0.182	-0.069
-425.573	800.000	0.038	-0.160
-424.559	-60.151	0.243	0.103
-423.544	-7.598	-0.242	0.163
-422.530	-153.158	-0.069	0.005
-421.515	-105.006	-0.170	0.039
-420.500	-101.896	0.521	-0.125
-419.486	-200.000	-0.031	-0.191
-418.471	-200.000	0.004	-0.030
-417.457	65.785	0.069	0.069
-416.442	-142.764	-0.286	0.028
-415.428	-200.000	0.008	0.133
-414.413	-86.056	-0.114	-0.035
-413.398	-67.896	0.184	-0.071
-412.384	-171.928	0.132	-0.004
-411.369	-200.000	0.028	0.210
-410.355	734.670	-0.089	0.238
-409.340	-59.954	0.190	0.081
-408.325	251.437	0.194	0.328
-407.311	-158.334	-0.159	-0.009
-406.296	14.335	0.077	-0.059
-405.282	-200.000	-0.005	-0.156
-404.267	97.159	-0.160	0.182
-403.252	-200.000	-0.023	0.260
-402.238	46.872	-0.272	-0.251
-401.223	-49.068	0.225	-0.107
-400.209	271.172	0.204	-0.357
-399.194	800.000	0.098	-0.391
-398.179	-151.443	-0.273	-0.020
-397.165	-200.000	0.009	0.296
-396.150	524.661	0.075	0.174
-395.136	178.767	-0.179	-0.259
-394.121	800.000	-0.153	-0.446
-393.106	-45.017	0.171	-0.084
-392.092	800.000	-0.157	-0.452
-391.077	55.008	0.209	-0.200
-390.063	68.216	0.159	0.161
-389.048	-165.914	-0.242	0.010
-388.033	800.000	-0.055	0.228
-387.019	79.887	-0.135	-0.144
-386.004	-200.000	-0.049	0.273
-384.990	438.905	0.131	-0.284
-383.975	-200.000	0.049	0.230
-382.960	800.000	0.033	-0.102
-381.946	-92.686	0.071	0.020
-380.931	-109.565	-0.319	0.067
-379.917	-52.967	0.392	-0.179
-378.902	-59.831	-0.307	-0.130
-377.888	-200.000	-0.009	0.225
-376.873	30.317	0.110	0.093
-375.858	-200.000	0.031	-0.371
-374.844	-108.656	-0.208	-0.044
-373.829	55.882	0.203	0.195
-372.815	-87.967	0.364	0.108
-371.800	30.240	-0.062	-0.052
-370.785	-152.167	0.384	-0.028
-369.771	800.000	-0.091	-0.335
-368.756	-73.445	0.033	-0.012
-367.742	800.000	-0.035	0.141
-366.727	220.559	0.037	-0.059
-365.712	155.873	-0.012	-0.017
-364.698	-200.000	0.038	-0.245
-363.683	496.133	-0.172	0.392
-362.669	800.000	0.043	-0.167
-361.654	-129.366	-0.245	-0.034
-360.639	-108.932	0.257	0.054
-359.625	-110.830	0.174	-0.035
-358.610	-151.590	0.094	0.007
-357.596	-200.000	0.018	0.105
-356.581	800.000	0.070	0.210
-355.566	-123.431	-0.298	-0.047
-354.552	116.419	-0.154	-0.187
-353.537	800.000	-0.095	0.299
-352.523	113.047	0.239	0.287
-351.508	202.637	0.054	0.082
-350.493	8.266	0.069	0.051
-349.479	-101.235	-0.436	-0.105
-348.464	-20.009	0.106	-0.065
-347.450	134.436	0.245	-0.315
-346.435	-88.642	-0.155	0.046
-345.420	228.883	0.085	0.137
-344.406	-114.118	-0.099	-0.019
-343.391	800.000	0.026	0.109
-342.377	-200.000	-0.023	0.228
-341.362	94.091	-0.036	-0.040
-340.348	-200.000	-0.003	-0.230
-339.333	133.583	-0.202	-0.258
-338.318	-200.000	-0.018	0.248
-337.304	-25.817	-0.258	0.150
-336.289	-200.000	0.018	-0.255
-335.275	-28.795	-0.217	0.123
-334.260	-75.314	0.131	-0.046
-333.245	-200.000	-0.024	0.117
-332.231	129.134	0.135	0.171
-331.216	-39.830	-0.215	-0.111
-330.202	164.943	-0.215	-0.300
-329.187	-114.456	0.144	-0.027
-328.172	800.000	-0.097	0.302
-327.158	-93.320	0.144	0.040
-326.143	45.433	0.219	-0.200
-325.129	-72.891	-0.255	-0.093
-324.114	112.538	-0.053	0.063
-323.099	-152.354	0.108	-0.008
-322.085	152.273	0.077	-0.104
-321.070	32.724	0.249	0.213
-320.056	-8.344	0.073	0.049
-319.041	37.650	0.057	-0.050
-318.026	-200.000	0.063	0.276
-317.012	42.944	0.109	-0.098
-315.997	-200.000	0.034	0.275
-314.983	-58.964	0.258	-0.110
-313.968	112.663	0.184	0.221
-312.953	-192.378	-0.387	0.004
-311.939	-53.718	0.166	-0.075
-310.924	293.748	-0.021	-0.037
-309.910	176.430	-0.093	0.133
-308.895	-85.169	0.044	-0.014
-307.880	-113.412	-0.223	-0.043
-306.866	197.392	0.157	-0.238
-305.851	-147.451	0.205	-0.017
-304.837	-177.896	-0.117	-0.003
-303.822	169.958	0.152	0.215
-302.807	-158.881	-0.110	-0.006
-301.793	-200.000	0.010	-0.186
-300.778	-22.613	0.080	-0.048
-299.764	-29.106	-0.288	-0.163
-298.749	800.000	0.066	-0.205
-297.735	-50.469	0.355	-0.165
-296.720	43.129	-0.100	0.091
-295.705	-96.150	0.177	0.046
-294.691	10.572	0.121	0.091
-293.676	122.970	-0.111	0.138
-292.662	-200.000	-0.024	0.182
-291.647	-112.028	0.286	0.057
-290.632	-200.000	0.005	-0.149
-289.618	479.419	0.117	-0.262
-288.603	-200.000	-0.023	0.183
-287.589	800.000	0.057	-0.169
-286.574	800.000	0.064	0.197
-285.559	-89.344	-0.043	-0.013
-284.545	87.605	0.171	0.187
-283.530	-82.587	-0.204	0.065
-282.516	-42.677	0.241	0.121
-281.501	183.191	-0.094	-0.137
-280.486	-200.000	0.082	-0.373
-279.472	-7.830	-0.138	-0.092
-278.457	-42.606	-0.044	0.022
-277.443	22.859	-0.192	-0.155
-276.428	800.000	-0.059	-0.198
-275.413	800.000	0.085	0.235
-274.399	-44.565	-0.183	0.090
-273.384	-124.443	0.336	-0.052
-272.370	-37.880	-0.062	0.032
-271.355	-99.102	-0.337	-0.084
-270.340	-110.047	0.181	-0.037
-269.326	-200.000	-0.046	-0.249
-268.311	-98.709	0.101	-0.025
-267.297	-200.000	-0.006	0.052
-266.282	-156.471	0.197	-0.012
-265.267	97.605	0.226	0.256
-264.253	798.416	-0.098	0.267
-263.238	-14.103	0.159	-0.101
-262.224	-138.372	-0.185	-0.020
-261.209	644.336	-0.085	0.215
-260.195	64.113	-0.152	0.150
-259.180	-67.798	-0.234	-0.090
-258.165	-18.890	0.335	0.206
-257.151	18.270	0.363	0.286
-256.136	-2.881	-0.445	-0.306
-255.122	-175.694	0.155	-0.004
-254.107	83.046	-0.105	-0.113
-253.092	800.000	0.134	-0.385
-252.078	240.936	0.166	-0.274
-251.063	24.148	-0.061	-0.050
-250.049	163.829	0.115	0.160
-249.034	-77.732	0.161	-0.055
-248.019	-46.939	0.156	-0.075
-247.005	75.573	0.044	-0.046
-245.990	-194.907	-0.053	-0.000
-244.976	-200.000	0.002	0.294
-243.961	95.571	-0.118	-0.132
-242.946	-33.802	0.077	0.042
-241.932	-30.770	0.371	0.207
-240.917	45.344	-0.231	0.210
-239.903	-24.722	-0.181	0.106
-238.888	-200.000	0.034	0.456
-237.873	258.835	-0.073	0.124
-236.859	-200.000	-0.009	0.139
-235.844	63.586	-0.161	0.159
-234.830	206.905	-0.151	0.232
-233.815	-33.355	0.121	0.066
-232.800	-200.000	0.008	-0.043
-231.786	-200.000	-0.003	0.139
-230.771	163.037	-0.224	0.309
-229.757	339.801	-0.040	-0.077
-228.742	-69.184	-0.364	0.138
-227.727	411.591	-0.187	0.392
-226.713	-83.337	0.188	0.060
-225.698	522.472	0.071	0.165
-224.684	509.697	0.117	0.267
-223.669	800.000	0.025	-0.083
-222.655	800.000	0.048	-0.162
-221.640	-4.388	0.111	-0.075
-220.625	22.110	0.214	0.172
-219.611	-74.321	0.066	0.023
-218.596	282.818	0.077	0.136
-217.582	398.089	-0.152	-0.313
-216.567	194.672	-0.224	-0.335
-215.552	-107.738	0.199	0.043
-214.538	-134.346	-0.084	0.010
-213.523	131.622	-0.097	0.122
-212.509	-17.509	0.280	0.173
-211.494	247.654	-0.038	0.063
-210.479	-130.621	0.116	0.015
-209.465	137.022	0.169	0.217
-208.450	416.184	-0.048	0.101
-207.436	-14.532	0.268	0.170
-206.421	-200.000	0.021	-0.151
-205.406	-64.782	-0.404	0.161
-204.392	-200.000	-0.018	0.132
-203.377	-121.597	0.615	0.100
-202.363	-200.000	0.005	-0.040
-201.348	-10.668	0.066	-0.043
-200.333	174.889	-0.122	-0.173
-199.319	-11.640	-0.192	0.124
-198.304	-6.866	-0.130	0.087
-197.290	-102.627	0.183	0.043
-196.275	48.355	0.086	-0.079
-195.260	23.833	0.314	0.255
-194.246	800.000	-0.057	0.182
-193.231	-78.636	0.312	-0.105
-192.217	800.000	-0.072	-0.210
-191.202	17.320	0.216	-0.169
-190.187	-200.000	0.021	0.142
-189.173	-82.253	0.257	-0.082
-188.158	158.847	-0.126	-0.172
-187.144	-21.429	-0.202	-0.121
-186.129	41.705	0.158	-0.141
-185.114	-200.000	0.015	-0.088
-184.100	568.810	-0.068	0.163
-183.085	-200.000	-0.033	0.354
-182.071	-33.555	0.084	-0.046
-181.056	-200.000	-0.044	-0.193
-180.042	32.495	0.208	-0.177
-179.027	37.724	0.207	-0.181
-178.012	-90.053	-0.058	-0.017
-176.998	-93.136	-0.184	-0.050
-175.983	-23.537	0.390	-0.230
-174.969	-80.764	-0.223	0.073
-173.954	-200.000	0.026	-0.196
-172.939	-190.654	0.334	-0.004
-171.925	50.996	0.281	0.262
-170.910	-118.207	-0.121	-0.021
-169.896	15.768	-0.051	-0.039
-168.881	-200.000	-0.019	-0.126
-167.866	-200.000	0.014	0.066
-166.852	8.196	-0.237	0.175
-165.837	-94.413	-0.441	-0.118
-164.823	-47.724	0.099	0.047
-163.808	-200.000	0.006	-0.168
-162.793	201.436	-0.113	-0.171
-161.779	784.029	0.047	0.126
-160.764	296.278	0.026	-0.046
-159.750	-119.993	-0.294	-0.050
-158.735	207.898	0.113	0.174
-157.720	51.764	-0.233	-0.218
-156.706	264.906	0.066	-0.114
-155.691	-63.407	-0.131	-0.053
-154.677	800.000	0.098	-0.347
-153.662	-173.147	0.149	0.004
-152.647	-95.939	-0.067	0.018
-151.633	178.178	0.238	-0.341
-150.618	167.695	0.130	0.181
-149.604	151.610	-0.062	0.083
-148.589	489.902	-0.149	0.334
-147.574	705.582	-0.071	0.185
-146.560	-95.711	-0.151	0.040
-145.545	-118.676	-0.106	-0.018
-144.531	-117.793	0.182	0.032
-143.516	800.000	0.032	0.105
-142.502	-141.093	0.215	0.022
-141.487	-200.000	-0.032	-0.145
-140.472	-200.000	-0.067	0.358
-139.458	-200.000	0.024	-0.375
-138.443	44.387	-0.131	0.118
-137.429	-169.681	0.216	-0.008
-136.414	265.385	-0.161	0.276
-135.399	-126.394	0.137	-0.020
-134.385	-57.932	0.252	-0.108
-133.370	-200.000	-0.033	-0.246
-132.356	-142.991	0.124	-0.012
-131.341	-24.280	0.262	-0.153
-130.326	-48.687	0.136	-0.064
-129.312	-132.741	0.176	-0.022
-128.297	91.538	-0.113	0.124
-127.283	108.118	0.028	0.032
-126.268	124.136	0.185	-0.228
-125.253	35.765	-0.239	-0.206
-124.239	800.000	0.126	-0.363
-123.224	212.964	0.167	0.258
-122.210	-112.168	0.087	0.017
