DTS Sentinel unit serial number:	SN413079Multiplexer serial number:	ORYXHardware model number:	OX4-SRSoftware version number:	ORYX F/W v4.00 Oryx Data Collector v3.7.2.0data status	okinstallation	princeton_trtdifferential loss correction	single-endedforward channel	channel 3reverse channel	N/Adate	2019/09/10time	15:46:10forward acquisition time	60.00reverse acquisition time	0.00gamma	496.2192k internal	0.2299k external	0.2299temperature offset calibration	0.9908default loss term (dB/km)	0.3790temperature slope calibration	1.0000multiplexer offset coefficient	1.0000multiplexer slope coefficient	1.0000fibre end	0.00T internal ref (°C)	38.06T ext. ref 1 (°C)	-0.28T ext. ref 2 (°C)	31.78length (m)	temperature (°C)	Stokes	anti-Stokes-747.200	297.727	-0.064	0.120
-746.185	-200.000	0.040	0.352
-745.171	-161.712	-0.368	0.019
-744.156	150.276	0.117	0.163
-743.142	-39.036	0.443	-0.238
-742.127	-63.540	0.418	0.175
-741.112	-86.788	-0.182	-0.057
-740.098	-82.671	-0.319	0.105
-739.083	800.000	-0.066	-0.196
-738.069	-200.000	0.048	-0.215
-737.054	31.752	-0.172	0.151
-736.039	-13.870	-0.082	0.054
-735.025	54.688	0.220	0.217
-734.010	130.551	-0.158	-0.206
-732.996	199.495	0.221	-0.346
-731.981	195.833	0.059	0.092
-730.966	-200.000	-0.022	-0.170
-729.952	-7.427	-0.293	0.202
-728.937	133.873	0.191	-0.253
-727.923	251.279	-0.010	-0.017
-726.908	344.914	-0.086	0.173
-725.894	55.552	-0.119	0.118
-724.879	-51.312	0.171	0.081
-723.864	-7.669	-0.238	0.164
-722.850	35.068	-0.187	0.167
-721.835	52.671	0.145	-0.141
-720.821	30.581	-0.138	-0.121
-719.806	112.873	0.056	-0.069
-718.791	192.237	-0.112	-0.172
-717.777	149.190	-0.154	-0.212
-716.762	-200.000	0.029	-0.282
-715.748	152.603	0.256	-0.356
-714.733	108.990	-0.350	-0.427
-713.718	800.000	0.018	-0.055
-712.704	-45.652	-0.287	0.145
-711.689	-17.814	-0.340	0.218
-710.675	543.586	-0.107	0.260
-709.660	42.009	0.233	-0.216
-708.645	592.692	-0.082	-0.205
-707.631	288.246	-0.239	-0.440
-706.616	108.314	0.186	-0.226
-705.602	31.980	0.066	0.058
-704.587	55.189	0.117	0.115
-703.572	296.645	-0.174	0.326
-702.558	-200.000	-0.035	-0.227
-701.543	40.551	-0.205	-0.188
-700.529	-68.492	-0.217	0.086
-699.514	65.159	-0.049	-0.050
-698.499	31.076	0.111	-0.097
-697.485	640.708	0.044	-0.113
-696.470	-20.824	-0.172	-0.107
-695.456	129.612	0.221	-0.288
-694.441	26.755	0.241	0.206
-693.426	-200.000	0.003	-0.177
-692.412	70.321	-0.361	-0.380
-691.397	31.772	-0.255	-0.224
-690.383	10.151	0.281	0.218
-689.368	-138.926	-0.345	0.038
-688.354	800.000	0.018	-0.062
-687.339	54.985	-0.182	-0.179
-686.324	-176.875	-0.215	0.006
-685.310	-133.246	0.397	-0.051
-684.295	-96.897	0.108	0.029
-683.281	201.777	0.015	0.024
-682.266	800.000	0.027	-0.097
-681.251	235.638	0.188	-0.316
-680.237	-200.000	0.026	-0.529
-679.222	-200.000	-0.083	-0.540
-678.208	215.109	-0.039	0.062
-677.193	-97.503	-0.473	0.125
-676.178	-200.000	0.017	0.104
-675.164	13.659	0.215	0.170
-674.149	-176.450	-0.145	-0.004
-673.135	27.350	-0.034	0.029
-672.120	20.342	-0.323	-0.266
-671.105	-130.131	0.223	-0.031
-670.091	86.511	-0.193	-0.216
-669.076	-31.844	-0.180	-0.103
-668.062	227.911	-0.155	-0.257
-667.047	-200.000	0.005	-0.088
-666.032	-200.000	0.059	-0.351
-665.018	104.216	-0.256	-0.306
-664.003	-39.369	0.172	-0.092
-662.989	72.898	0.150	0.159
-661.974	-91.322	0.147	-0.043
-660.959	624.904	-0.075	0.192
-659.945	-200.000	-0.041	-0.216
-658.930	-158.106	-0.433	0.026
-657.916	541.212	0.042	0.102
-656.901	-18.367	0.331	-0.211
-655.886	645.382	-0.086	0.223
-654.872	-200.000	-0.015	0.276
-653.857	657.979	0.085	0.223
-652.843	-40.302	-0.167	0.088
-651.828	255.421	0.248	-0.431
-650.814	-200.000	0.015	-0.135
-649.799	-127.921	-0.263	-0.039
-648.784	80.431	-0.127	0.139
-647.770	523.656	-0.096	0.229
-646.755	410.538	0.122	-0.262
-645.741	-80.520	0.293	-0.099
-644.726	-92.086	0.273	0.079
-643.711	-38.431	-0.127	0.068
-642.697	269.026	-0.080	0.143
-641.682	-103.557	-0.195	0.046
-640.668	436.260	-0.162	0.357
-639.653	-200.000	-0.030	-0.186
-638.638	-56.723	-0.302	0.136
-637.624	-200.000	0.011	-0.088
-636.609	43.299	0.062	0.057
-635.595	-169.593	0.356	-0.013
-634.580	-48.092	-0.200	-0.098
-633.565	-44.738	0.037	0.019
-632.551	-71.183	-0.107	-0.041
-631.536	-119.110	-0.050	-0.009
-630.522	160.287	0.206	-0.291
-629.507	-38.914	0.194	-0.104
-628.492	562.967	0.083	-0.205
-627.478	-138.456	-0.188	-0.021
-626.463	-200.000	-0.003	0.090
-625.449	-174.669	0.253	0.007
-624.434	-25.145	0.276	0.166
-623.419	-138.916	-0.467	-0.052
-622.405	91.288	-0.210	0.240
-621.390	91.136	0.211	0.241
-620.376	-200.000	0.031	0.191
-619.361	-60.615	0.215	0.093
-618.346	-76.119	-0.057	0.020
-617.332	180.915	0.062	-0.092
-616.317	-200.000	-0.003	0.054
-615.303	-123.904	0.177	0.028
-614.288	-70.522	0.259	0.100
-613.273	287.956	0.178	-0.328
-612.259	84.285	-0.232	-0.257
-611.244	15.202	0.268	0.213
-610.230	-49.588	0.223	-0.108
-609.215	188.642	-0.096	-0.145
-608.201	-200.000	-0.048	-0.241
-607.186	25.182	0.218	-0.183
-606.171	-200.000	-0.016	-0.357
-605.157	-50.579	-0.230	-0.110
-604.142	-38.507	0.560	-0.301
-603.128	90.171	-0.130	-0.148
-602.113	73.167	0.114	0.121
-601.098	-200.000	0.013	-0.197
-600.084	-200.000	0.012	0.200
-599.069	75.509	-0.046	0.050
-598.055	-94.158	0.410	-0.114
-597.040	167.772	-0.219	0.316
-596.025	58.143	-0.340	-0.338
-595.011	166.684	0.058	0.083
-593.996	157.326	0.053	0.074
-592.982	267.130	0.061	-0.109
-591.967	-200.000	0.002	-0.150
-590.952	105.800	0.104	0.125
-589.938	-120.916	-0.204	0.035
-588.923	-145.738	0.169	0.015
-587.909	325.014	-0.093	-0.180
-586.894	167.440	0.071	-0.103
-585.879	-35.567	-0.336	-0.185
-584.865	-40.662	-0.305	-0.161
-583.850	-25.855	-0.282	0.169
-582.836	150.777	0.174	-0.240
-581.821	-200.000	0.033	-0.173
-580.806	-40.571	0.216	-0.114
-579.792	-140.141	-0.329	0.035
-578.777	-33.590	-0.110	0.061
-577.763	104.562	-0.110	-0.131
-576.748	-89.791	0.131	0.039
-575.733	-68.820	-0.231	0.091
-574.719	545.539	0.089	0.217
-573.704	-7.126	0.290	0.199
-572.690	167.993	-0.087	0.125
-571.675	-78.583	0.199	-0.069
-570.661	-159.818	0.215	-0.012
-569.646	238.914	-0.219	0.369
-568.631	-86.825	0.119	-0.037
-567.617	-174.411	-0.183	-0.005
-566.602	-200.000	-0.013	-0.358
-565.588	-86.040	0.293	0.092
-564.573	-40.165	-0.271	0.143
-563.558	-200.000	0.014	-0.147
-562.544	-200.000	-0.007	0.343
-561.529	-68.495	-0.024	0.010
-560.515	800.000	-0.062	0.190
-559.500	-72.782	-0.136	-0.051
-558.485	26.212	-0.092	0.078
-557.471	158.439	-0.073	0.102
-556.456	81.249	0.241	-0.264
-555.442	14.028	-0.099	0.078
-554.427	623.941	-0.036	0.092
-553.412	-107.163	-0.069	0.015
-552.398	77.874	-0.289	0.312
-551.383	175.039	-0.110	0.161
-550.369	-108.645	0.259	0.056
-549.354	81.824	0.254	-0.279
-548.339	-200.000	-0.031	-0.175
-547.325	-108.195	0.330	-0.072
-546.310	800.000	-0.034	0.127
-545.296	776.191	-0.023	0.063
-544.281	-200.000	0.026	0.144
-543.266	-133.186	-0.071	0.009
-542.252	-5.285	0.230	-0.160
-541.237	-79.909	0.212	-0.072
-540.223	-10.449	0.034	-0.023
-539.208	48.877	-0.122	0.116
-538.193	315.779	-0.061	0.116
-537.179	123.263	-0.077	0.098
-536.164	10.090	-0.228	-0.175
-535.150	-200.000	0.017	0.209
-534.135	114.213	0.062	0.076
-533.121	-31.582	0.046	0.026
-532.106	-121.091	0.230	-0.039
-531.091	-200.000	0.009	0.156
-530.077	-93.410	-0.344	-0.096
-529.062	323.084	0.205	0.396
-528.048	-18.421	0.063	-0.040
-527.033	-200.000	-0.027	-0.138
-526.018	33.781	-0.271	-0.238
-525.004	-97.738	-0.140	0.037
-523.989	55.971	0.298	0.292
-522.975	96.206	-0.089	-0.103
-521.960	-116.436	-0.272	0.051
-520.945	-68.408	-0.163	-0.064
-519.931	106.067	0.150	-0.180
-518.916	-98.998	0.093	0.024
-517.902	800.000	-0.026	-0.075
-516.887	800.000	0.046	0.182
-515.872	136.961	-0.047	0.062
-514.858	-49.380	-0.146	-0.070
-513.843	-200.000	-0.012	-0.209
-512.829	-87.002	-0.054	-0.017
-511.814	-81.219	0.375	-0.125
-510.799	78.180	0.071	-0.077
-509.785	800.000	0.055	0.184
-508.770	-27.143	-0.073	-0.043
-507.756	800.000	-0.025	-0.090
-506.741	331.536	0.151	0.295
-505.726	-200.000	0.003	0.147
-504.712	-59.313	0.308	0.134
-503.697	30.115	-0.171	-0.147
-502.683	601.384	-0.034	-0.086
-501.668	8.600	0.177	-0.135
-500.653	-144.755	0.117	0.011
-499.639	713.555	-0.050	-0.134
-498.624	-200.000	0.041	0.243
-497.610	-24.235	-0.265	0.160
-496.595	37.077	-0.263	-0.236
-495.581	-138.240	0.188	-0.021
-494.566	123.936	-0.238	0.303
-493.551	-200.000	-0.013	0.068
-492.537	127.985	-0.053	0.067
-491.522	-200.000	-0.017	-0.171
-490.508	-200.000	0.065	0.392
-489.493	-51.667	0.243	0.114
-488.478	244.593	0.128	-0.218
-487.464	359.583	-0.104	-0.211
-486.449	-59.098	-0.181	-0.079
-485.435	800.000	-0.066	-0.259
-484.420	-200.000	0.003	-0.155
-483.405	115.755	-0.058	-0.071
-482.391	340.766	-0.081	0.161
-481.376	800.000	-0.052	-0.180
-480.362	-75.858	-0.285	-0.102
-479.347	-78.130	0.237	-0.082
-478.332	-137.842	0.126	0.014
-477.318	-160.773	-0.045	0.002
-476.303	397.770	0.149	-0.315
-475.289	-81.920	-0.117	0.039
-474.274	-70.944	0.163	0.062
-473.259	-21.626	0.295	-0.181
-472.245	12.024	-0.033	-0.025
-471.230	-122.519	0.109	0.018
-470.216	54.704	-0.143	-0.140
-469.201	-176.815	-0.091	-0.002
-468.186	-32.879	0.174	-0.098
-467.172	-83.397	0.332	-0.107
-466.157	66.704	-0.173	-0.178
-465.143	29.785	-0.218	-0.188
-464.128	661.923	-0.070	0.183
-463.113	-42.338	0.099	-0.051
-462.099	800.000	0.103	0.367
-461.084	-39.532	0.225	-0.119
-460.070	-188.704	0.276	0.003
-459.055	751.940	0.033	-0.089
-458.040	-5.811	-0.046	-0.032
-457.026	800.000	-0.056	0.192
-456.011	-50.857	0.325	-0.154
-454.997	87.069	0.250	0.279
-453.982	800.000	-0.038	0.128
-452.968	67.777	-0.093	-0.096
-451.953	90.459	-0.071	0.080
-450.938	-86.178	-0.260	0.081
-449.924	-200.000	0.016	0.162
-448.909	46.632	0.127	-0.119
-447.895	800.000	-0.094	0.366
-446.880	-183.637	0.243	0.004
-445.865	-200.000	-0.042	0.367
-444.851	-200.000	-0.001	-0.109
-443.836	-200.000	0.001	-0.276
-442.822	-76.961	-0.198	-0.070
-441.807	210.199	0.037	-0.058
-440.792	-173.456	-0.333	0.010
-439.778	583.008	-0.095	-0.235
-438.763	-200.000	-0.031	-0.251
-437.749	800.000	-0.188	-0.539
-436.734	-2.696	0.272	-0.192
-435.719	-200.000	-0.008	-0.072
-434.705	377.086	-0.165	-0.341
-433.690	-200.000	0.354	0.001
-432.676	-107.639	-0.212	-0.047
-431.661	-6.398	-0.215	0.148
-430.646	-23.730	0.060	0.036
-429.632	114.956	0.213	-0.262
-428.617	-200.000	0.021	-0.137
-427.603	-87.643	0.098	0.030
-426.588	186.118	-0.130	0.194
-425.573	-42.371	0.068	0.035
-424.559	-110.957	0.434	-0.090
-423.544	-17.001	-0.136	-0.087
-422.530	716.491	0.096	-0.258
-421.515	-24.310	0.250	-0.150
-420.500	-200.000	-0.006	0.135
-419.486	15.505	-0.272	-0.216
-418.471	298.953	-0.087	-0.161
-417.457	19.127	0.232	0.188
-416.442	-200.000	0.043	0.470
-415.428	284.142	-0.120	0.218
-414.413	188.566	-0.139	-0.210
-413.398	-200.000	-0.034	0.221
-412.384	-200.000	-0.017	0.081
-411.369	-68.487	0.389	0.152
-410.355	-200.000	0.063	-0.343
-409.340	625.762	0.064	0.162
-408.325	-135.102	-0.270	-0.033
-407.311	-24.365	-0.223	0.134
-406.296	164.849	0.244	-0.347
-405.282	-20.489	-0.178	-0.110
-404.267	264.617	0.087	0.152
-403.252	-37.487	-0.137	0.074
-402.238	489.037	-0.060	0.138
-401.223	220.030	-0.114	-0.183
-400.209	-200.000	0.066	0.551
-399.194	800.000	0.082	0.282
-398.179	49.479	0.081	0.077
-397.165	-13.208	0.154	0.101
-396.150	354.561	-0.049	0.098
-395.136	-95.240	0.269	-0.073
-394.121	289.369	-0.186	-0.339
-393.106	278.821	0.172	-0.309
-392.092	87.190	-0.068	-0.076
-391.077	-164.800	-0.128	-0.006
-390.063	42.717	-0.202	-0.185
-389.048	-49.325	-0.156	-0.075
-388.033	-95.966	-0.188	0.050
-387.019	112.086	-0.146	-0.177
-386.004	242.878	0.119	-0.200
-384.990	181.069	0.088	-0.130
-383.975	163.064	-0.092	-0.131
-382.960	675.688	-0.164	-0.429
-381.946	194.574	0.049	-0.075
-380.931	-200.000	-0.001	-0.009
-379.917	210.748	-0.246	0.388
-378.902	800.000	0.036	0.153
-377.888	-40.538	0.148	-0.077
-376.873	-13.815	-0.084	-0.055
-375.858	39.240	0.027	-0.025
-374.844	-200.000	-0.005	-0.467
-373.829	-80.284	0.081	-0.027
-372.815	-83.775	0.281	-0.090
-371.800	-41.244	-0.257	0.133
-370.785	800.000	0.160	0.471
-369.771	-200.000	0.030	0.157
-368.756	2.251	-0.468	-0.340
-367.742	-14.186	-0.101	-0.065
-366.727	-200.000	-0.006	0.156
-365.712	82.598	-0.271	0.296
-364.698	-111.955	-0.161	0.033
-363.683	-132.741	-0.147	-0.019
-362.669	-144.468	0.321	-0.030
-361.654	-129.147	0.296	0.042
-360.639	36.236	0.018	-0.016
-359.625	-41.696	-0.290	0.150
-358.610	-200.000	0.021	0.142
-357.596	-157.543	-0.151	0.009
-356.581	-200.000	-0.019	0.083
-355.566	11.456	0.157	0.121
-354.552	-32.608	-0.148	0.083
-353.537	43.631	0.128	-0.118
-352.523	-200.000	-0.044	-0.221
-351.508	110.469	-0.202	-0.244
-350.493	-5.247	0.116	-0.080
-349.479	55.900	-0.256	0.249
-348.464	147.335	0.293	-0.396
-347.450	224.658	0.038	-0.062
-346.435	385.146	0.048	0.099
-345.420	-166.345	-0.057	0.002
-344.406	-86.312	0.082	-0.025
-343.391	-149.865	-0.218	-0.017
-342.377	35.618	-0.207	0.183
-341.362	72.442	0.424	0.444
-340.348	-173.778	0.269	0.008
-339.333	-138.306	0.256	0.028
-338.318	-200.000	-0.015	0.068
-337.304	82.910	0.107	-0.117
-336.289	409.288	0.240	-0.511
-335.275	-200.000	-0.025	0.163
-334.260	-145.965	0.192	0.017
-333.245	7.590	-0.278	-0.209
-332.231	-200.000	-0.011	0.135
-331.216	-200.000	0.033	0.203
-330.202	-132.640	0.041	-0.005
-329.187	230.140	-0.075	0.123
-328.172	-153.115	-0.217	-0.015
-327.158	19.562	-0.190	-0.153
-326.143	25.316	0.069	0.057
-325.129	800.000	-0.037	-0.138
-324.114	-194.527	-0.262	0.002
-323.099	39.058	0.153	-0.137
-322.085	189.410	-0.094	0.142
-321.070	763.842	-0.120	-0.326
-320.056	4.114	0.119	0.087
-319.041	-200.000	0.027	-0.215
-318.026	90.807	-0.112	0.125
-317.012	-200.000	-0.041	0.192
-315.997	8.413	-0.180	-0.136
-314.983	-200.000	0.022	0.149
-313.968	107.720	-0.161	0.193
-312.953	67.027	0.199	0.204
-311.939	-106.511	0.177	-0.040
-310.924	800.000	-0.101	-0.379
-309.910	-200.000	0.010	0.215
-308.895	167.628	-0.099	-0.141
-307.880	-90.481	-0.242	-0.070
-306.866	800.000	0.100	0.397
-305.851	14.052	-0.235	0.184
-304.837	42.836	0.278	0.254
-303.822	137.739	0.112	-0.147
-302.807	648.032	-0.095	0.243
-301.793	111.451	-0.129	-0.156
-300.778	-104.999	0.191	-0.044
-299.764	78.585	0.421	-0.452
-298.749	74.796	0.164	-0.173
-297.735	27.524	0.233	-0.197
-296.720	-106.055	0.100	-0.023
-295.705	215.389	0.099	0.158
-294.691	87.921	-0.076	0.085
-293.676	-200.000	0.019	0.241
-292.662	228.564	0.087	-0.142
-291.647	-200.000	-0.005	0.225
-290.632	-200.000	-0.057	-0.254
-289.618	17.092	0.215	0.171
-288.603	-200.000	0.004	0.097
-287.589	-200.000	-0.057	-0.359
-286.574	154.716	-0.061	0.084
-285.559	-57.714	-0.148	0.065
-284.545	-145.146	-0.074	-0.007
-283.530	-3.333	0.315	-0.220
-282.516	-200.000	0.029	0.156
-281.501	-117.353	-0.163	0.030
-280.486	-29.827	-0.148	-0.084
-279.472	134.350	0.166	-0.216
-278.457	-92.238	0.127	0.036
-277.443	-200.000	0.031	0.366
-276.428	-7.068	0.186	-0.127
-275.413	-200.000	0.005	-0.152
-274.399	-42.968	-0.137	0.069
-273.384	147.243	-0.039	0.052
-272.370	212.575	-0.052	0.082
-271.355	-200.000	-0.045	0.250
-270.340	400.266	-0.149	0.313
-269.326	49.291	-0.177	0.166
-268.311	-94.220	0.182	-0.050
-267.297	11.241	0.281	0.215
-266.282	-103.276	0.190	-0.045
-265.267	800.000	-0.109	-0.417
-264.253	195.218	0.077	-0.118
-263.238	-72.287	-0.197	-0.073
-262.224	117.750	-0.228	0.281
-261.209	-181.268	-0.179	-0.004
-260.195	32.494	-0.170	-0.147
-259.180	-48.031	-0.141	-0.068
-258.165	-200.000	-0.030	-0.221
-257.151	-92.298	-0.231	-0.065
-256.136	-47.381	-0.066	0.032
-255.122	800.000	0.071	0.205
-254.107	-108.375	-0.184	0.040
-253.092	-56.907	0.107	0.047
-252.078	17.002	-0.411	0.326
-251.063	-110.874	-0.157	0.032
-250.049	-108.294	-0.239	0.052
-249.034	11.200	0.176	-0.135
-248.019	-7.034	0.259	0.176
-247.005	237.090	-0.025	0.041
-245.990	-52.253	-0.101	0.047
-244.976	-159.150	-0.079	0.004
-243.961	21.010	-0.311	-0.252
-242.946	800.000	0.042	-0.165
-241.932	200.706	-0.243	-0.375
-240.917	800.000	-0.108	-0.340
-239.903	12.725	0.348	-0.269
-238.888	-152.475	0.343	-0.025
-237.873	90.815	0.227	0.255
-236.859	-52.164	-0.027	-0.013
-235.844	55.206	0.216	0.209
-234.830	-179.413	-0.262	-0.006
-233.815	-200.000	0.013	0.153
-232.800	-200.000	0.082	0.415
-231.786	-28.146	-0.278	-0.161
-230.771	-158.423	0.319	-0.019
-229.757	-161.118	-0.124	-0.006
-228.742	-115.875	0.236	0.044
-227.727	-200.000	-0.021	0.424
-226.713	-126.459	-0.102	0.015
-225.698	-44.753	-0.281	-0.140
-224.684	127.068	-0.155	-0.196
-223.669	3.910	-0.149	-0.109
-222.655	140.223	-0.207	0.273
-221.640	-94.903	0.128	-0.035
-220.625	643.412	0.178	-0.453
-219.611	-49.568	0.194	0.092
-218.596	800.000	0.018	-0.073
-217.582	9.525	0.187	0.142
-216.567	-94.281	-0.296	-0.081
-215.552	-88.335	-0.274	-0.082
-214.538	800.000	-0.150	0.538
-213.523	800.000	-0.039	0.137
-212.509	-200.000	0.023	-0.157
-211.494	191.029	0.260	-0.390
-210.479	80.420	0.158	0.170
-209.465	-23.802	-0.222	0.133
-208.450	-200.000	-0.007	0.260
-207.436	-10.544	0.164	-0.108
-206.421	15.543	-0.095	-0.074
-205.406	-200.000	0.001	0.082
-204.392	-169.834	-0.182	0.007
-203.377	-87.717	-0.034	0.010
-202.363	67.772	-0.040	-0.041
-201.348	-2.693	-0.112	0.078
-200.333	-59.853	-0.211	-0.090
-199.319	53.795	0.080	0.077
-198.304	281.618	0.126	0.226
-197.290	40.600	-0.096	0.087
-196.275	-53.830	0.334	-0.152
-195.260	-92.522	-0.285	0.080
-194.246	800.000	-0.027	0.098
-193.231	-6.653	0.074	-0.051
-192.217	-47.614	0.243	0.118
-191.202	800.000	0.070	0.192
-190.187	-58.240	0.205	-0.089
-189.173	452.906	0.035	-0.078
-188.158	493.731	-0.095	-0.217
-187.144	800.000	-0.050	0.180
-186.129	138.510	-0.215	0.281
-185.114	-200.000	-0.033	-0.254
-184.100	59.274	-0.233	-0.229
-183.085	-86.904	0.054	0.016
-182.071	305.862	-0.085	0.158
-181.056	-129.978	0.021	-0.003
-180.042	-200.000	-0.270	-0.001
-179.027	-200.000	-0.012	0.067
-178.012	1.962	0.139	0.100
-176.998	251.518	-0.207	-0.351
-175.983	512.798	-0.072	0.167
-174.969	776.852	0.154	0.421
-173.954	-200.000	-0.016	0.103
-172.939	309.191	0.137	-0.255
-171.925	-53.712	0.300	-0.137
-170.910	169.758	0.204	0.290
-169.896	-10.019	-0.215	-0.143
-168.881	-200.000	0.037	0.259
-167.866	103.876	-0.075	-0.089
-166.852	-200.000	0.041	0.237
-165.837	-200.000	0.049	0.427
-164.823	46.100	0.227	0.210
-163.808	-106.403	0.096	-0.021
-162.793	800.000	0.002	0.006
-161.779	-97.969	0.165	0.042
-160.764	-38.053	-0.137	0.073
-159.750	-27.537	-0.065	0.038
-158.735	363.682	0.092	0.185
-157.720	-200.000	0.008	-0.129
-156.706	-116.244	0.135	0.025
-155.691	65.682	0.100	-0.101
-154.677	47.332	-0.204	0.190
-153.662	-96.061	-0.277	-0.074
-152.647	189.556	0.101	0.151
-151.633	8.251	0.245	-0.184
-150.618	-200.000	-0.084	-0.000
-149.604	-8.667	0.113	-0.075
-148.589	-67.046	-0.060	-0.024
-147.574	136.213	0.047	0.061
-146.560	-28.993	0.015	-0.008
-145.545	800.000	0.109	0.302
-144.531	-200.000	-0.002	0.055
-143.516	800.000	-0.054	-0.186
-142.502	-22.683	0.367	0.221
-141.487	-150.537	-0.113	0.009
-140.472	-74.040	0.256	0.092
-139.458	800.000	-0.092	0.277
-138.443	-53.076	-0.323	-0.148
-137.429	-112.066	0.225	-0.045
-136.414	-120.308	-0.207	-0.035
-135.399	175.355	-0.127	-0.184
-134.385	-123.740	-0.140	-0.022
-133.370	33.105	-0.236	0.204
-132.356	-200.000	-0.038	0.312
-131.341	-200.000	0.024	0.183
-130.326	-43.183	0.390	-0.197
-129.312	800.000	0.014	0.042
-128.297	28.807	0.124	0.105
-127.283	57.812	-0.006	0.006
-126.268	-200.000	0.063	-0.394
-125.253	-115.018	-0.273	-0.052
-124.239	580.382	-0.040	0.098
-123.224	-100.753	0.067	-0.016
-122.210	-30.531	0.230	0.130
-121.195	-26.378	-0.082	-0.048
