DTS Sentinel unit serial number:	SN413079Multiplexer serial number:	ORYXHardware model number:	OX4-SRSoftware version number:	ORYX F/W v4.00 Oryx Data Collector v3.7.2.0data status	okinstallation	princeton_trtdifferential loss correction	single-endedforward channel	channel 3reverse channel	N/Adate	2019/09/13time	07:32:35forward acquisition time	60.00reverse acquisition time	0.00gamma	496.2192k internal	0.2338k external	0.2338temperature offset calibration	1.0140default loss term (dB/km)	0.3790temperature slope calibration	1.0000multiplexer offset coefficient	1.0000multiplexer slope coefficient	1.0000fibre end	0.00T internal ref (°C)	26.25T ext. ref 1 (°C)	4.20T ext. ref 2 (°C)	22.07length (m)	temperature (°C)	Stokes	anti-Stokes-747.200	294.442	0.086	-0.157
-746.185	245.197	0.146	0.246
-745.171	-49.316	0.393	-0.188
-744.156	-52.999	-0.331	0.153
-743.142	-185.724	0.331	0.005
-742.127	-26.083	0.272	0.161
-741.112	96.869	-0.135	0.155
-740.098	415.953	-0.247	0.528
-739.083	-5.236	-0.185	-0.127
-738.069	800.000	-0.053	0.148
-737.054	800.000	-0.053	0.168
-736.039	53.339	-0.301	-0.289
-735.025	-200.000	0.061	0.493
-734.010	-47.356	0.209	0.102
-732.996	800.000	-0.099	-0.319
-731.981	-200.000	0.032	-0.419
-730.966	-83.322	0.223	-0.072
-729.952	-123.836	-0.319	0.050
-728.937	164.966	-0.137	0.194
-727.923	-200.000	-0.025	0.273
-726.908	506.641	-0.064	0.149
-725.894	-29.982	-0.252	0.144
-724.879	-89.678	-0.020	-0.006
-723.864	-77.506	0.127	-0.044
-722.850	334.119	0.024	-0.046
-721.835	-200.000	0.011	-0.189
-720.821	621.582	0.059	-0.148
-719.806	203.899	-0.052	-0.081
-718.791	55.450	0.146	0.142
-717.777	209.719	0.167	-0.262
-716.762	-22.772	-0.241	-0.146
-715.748	800.000	-0.102	0.363
-714.733	6.119	0.213	0.158
-713.718	-117.784	0.144	0.026
-712.704	-52.242	-0.303	0.141
-711.689	-117.883	0.183	0.033
-710.675	-141.746	-0.175	-0.018
-709.660	252.746	-0.127	0.217
-708.645	227.225	0.147	0.240
-707.631	-200.000	0.009	0.194
-706.616	116.774	-0.204	0.251
-705.602	-200.000	0.019	0.131
-704.587	-79.211	-0.143	0.049
-703.572	-14.873	0.227	-0.146
-702.558	-200.000	0.014	-0.326
-701.543	64.636	-0.128	-0.129
-700.529	156.936	0.117	0.162
-699.514	290.957	0.207	0.377
-698.499	264.546	-0.129	-0.225
-697.485	487.908	0.045	0.103
-696.470	45.465	0.050	-0.046
-695.456	22.290	-0.218	0.178
-694.441	-19.628	-0.075	-0.046
-693.426	-66.330	-0.291	-0.116
-692.412	-96.601	0.304	-0.080
-691.397	-150.681	0.366	0.028
-690.383	138.543	-0.086	-0.114
-689.368	217.477	0.230	0.368
-688.354	18.742	0.289	-0.231
-687.339	33.605	-0.208	0.181
-686.324	282.169	-0.134	-0.240
-685.310	-200.000	-0.001	-0.207
-684.295	-131.937	-0.103	-0.013
-683.281	-109.050	0.098	-0.021
-682.266	-104.451	0.310	0.072
-681.251	-136.036	-0.162	-0.019
-680.237	-137.590	0.123	-0.014
-679.222	-101.643	-0.141	0.034
-678.208	230.078	0.093	-0.152
-677.193	8.822	0.184	0.139
-676.178	-120.582	0.291	0.049
-675.164	185.776	0.120	-0.179
-674.149	21.793	-0.076	0.062
-673.135	-139.198	-0.321	-0.035
-672.120	-64.093	0.142	-0.058
-671.105	42.141	0.155	-0.141
-670.091	270.727	0.094	0.166
-669.076	536.177	0.093	-0.222
-668.062	-35.007	0.120	-0.065
-667.047	800.000	0.044	-0.135
-666.032	800.000	0.065	-0.213
-665.018	-24.755	0.005	0.003
-664.003	189.508	0.195	-0.293
-662.989	800.000	0.078	-0.236
-661.974	-200.000	-0.007	-0.280
-660.959	-35.194	0.112	-0.061
-659.945	-118.896	-0.239	0.042
-658.930	-46.483	0.061	-0.030
-657.916	399.594	-0.151	-0.316
-656.901	-59.795	0.284	-0.122
-655.886	247.075	-0.113	-0.192
-654.872	-46.439	-0.118	0.058
-653.857	-41.726	0.358	0.184
-652.843	50.317	0.186	-0.176
-651.828	-84.315	-0.049	-0.016
-650.814	-200.000	-0.053	-0.371
-649.799	32.690	-0.235	-0.204
-648.784	-113.034	0.093	0.018
-647.770	222.332	0.166	-0.267
-646.755	-7.588	-0.226	0.153
-645.741	-78.679	-0.273	0.093
-644.726	122.622	-0.414	0.517
-643.711	-44.512	-0.146	-0.073
-642.697	118.542	-0.165	-0.204
-641.682	-113.228	0.306	0.060
-640.668	213.428	0.226	-0.358
-639.653	-200.000	-0.012	0.079
-638.638	-158.406	-0.139	0.008
-637.624	-26.702	-0.091	-0.053
-636.609	-22.148	0.283	-0.171
-635.595	-200.000	-0.040	-0.340
-634.580	-115.589	0.333	0.062
-633.565	-18.442	-0.271	-0.169
-632.551	96.118	-0.207	-0.236
-631.536	-6.038	-0.250	0.171
-630.522	0.288	0.050	-0.036
-629.507	186.707	0.071	0.106
-628.492	-7.642	-0.303	0.205
-627.478	-200.000	0.017	-0.075
-626.463	-116.362	-0.285	-0.053
-625.449	-141.083	-0.314	0.032
-624.434	-200.000	-0.053	0.321
-623.419	800.000	-0.039	-0.118
-622.405	-200.000	-0.030	-0.187
-621.390	-71.259	0.309	0.116
-620.376	33.929	-0.374	0.326
-619.361	-9.290	-0.334	0.223
-618.346	-200.000	0.026	0.144
-617.332	800.000	0.045	-0.195
-616.317	-102.239	0.250	0.060
-615.303	168.938	0.254	0.361
-614.288	-56.514	0.410	-0.181
-613.273	15.843	0.090	-0.071
-612.259	800.000	-0.132	-0.384
-611.244	800.000	-0.044	-0.160
-610.230	800.000	-0.118	-0.344
-609.215	-26.201	-0.131	0.077
-608.201	41.327	0.159	-0.144
-607.186	-200.000	0.036	-0.312
-606.171	-200.000	-0.032	-0.223
-605.157	88.542	-0.126	0.140
-604.142	-118.891	-0.214	0.038
-603.128	-136.584	-0.274	-0.032
-602.113	-41.645	0.383	0.197
-601.098	-134.163	0.155	0.019
-600.084	52.339	-0.071	-0.068
-599.069	-8.879	-0.194	0.130
-598.055	118.240	0.206	-0.254
-597.040	-88.664	-0.318	-0.094
-596.025	-200.000	0.011	0.119
-595.011	-140.579	0.270	0.028
-593.996	-200.000	-0.055	0.410
-592.982	31.247	-0.125	-0.107
-591.967	-200.000	-0.008	-0.286
-590.952	187.761	-0.027	0.040
-589.938	-74.649	0.168	0.060
-588.923	150.801	0.139	0.189
-587.909	72.981	-0.165	-0.172
-586.894	-49.990	-0.244	-0.115
-585.879	-30.828	-0.251	-0.141
-584.865	-196.590	-0.275	-0.002
-583.850	-82.973	-0.074	-0.024
-582.836	-83.676	0.213	0.068
-581.821	-200.000	0.005	0.069
-580.806	-200.000	0.030	0.199
-579.792	-2.024	0.118	-0.083
-578.777	33.884	-0.187	0.162
-577.763	-68.734	0.255	-0.098
-576.748	159.164	-0.212	-0.294
-575.733	-39.188	0.129	0.068
-574.719	123.227	0.046	-0.058
-573.704	385.721	0.110	0.227
-572.690	31.262	-0.249	0.213
-571.675	35.829	-0.108	-0.095
-570.661	-115.731	0.150	-0.028
-569.646	40.155	0.012	-0.011
-568.631	31.836	-0.100	-0.086
-567.617	27.638	0.209	0.175
-566.602	-153.815	0.377	0.026
-565.588	-15.424	0.146	0.093
-564.573	-84.947	0.286	-0.089
-563.558	-22.575	0.315	-0.190
-562.544	-200.000	0.013	-0.067
-561.529	-57.218	-0.326	-0.143
-560.515	539.893	0.053	-0.126
-559.500	-74.001	-0.285	-0.103
-558.485	-169.264	0.340	-0.013
-557.471	112.370	0.096	0.115
-556.456	18.107	0.163	0.129
-555.442	230.986	-0.195	0.318
-554.427	76.711	0.231	-0.245
-553.412	382.580	0.052	-0.106
-552.398	-130.491	0.112	-0.015
-551.383	155.237	-0.172	0.235
-550.369	-6.390	-0.048	-0.033
-549.354	628.959	-0.098	0.247
-548.339	-28.551	-0.136	0.078
-547.325	-15.654	0.192	0.122
-546.310	79.368	0.183	-0.195
-545.296	-200.000	0.006	0.051
-544.281	15.440	0.116	-0.091
-543.266	-146.659	0.100	0.009
-542.252	657.186	-0.111	0.283
-541.237	-2.917	0.169	-0.118
-540.223	-200.000	0.043	0.233
-539.208	347.128	0.149	-0.292
-538.193	-32.829	0.241	-0.133
-537.179	231.268	-0.162	0.264
-536.164	-1.920	0.149	-0.104
-535.150	139.171	-0.212	-0.277
-534.135	-86.586	-0.224	-0.068
-533.121	60.669	0.057	-0.056
-532.106	79.756	-0.334	0.356
-531.091	112.899	0.173	0.209
-530.077	-132.312	0.107	0.014
-529.062	800.000	0.094	0.263
-528.048	41.293	-0.064	0.058
-527.033	-80.853	-0.238	0.078
-526.018	-4.321	-0.050	0.034
-525.004	-200.000	0.018	-0.346
-523.989	-200.000	0.026	-0.405
-522.975	-70.998	-0.175	-0.066
-521.960	384.638	-0.046	-0.093
-520.945	800.000	0.056	-0.168
-519.931	-200.000	-0.001	0.127
-518.916	90.586	0.151	-0.168
-517.902	-147.623	-0.492	-0.041
-516.887	-200.000	0.013	0.359
-515.872	-89.310	-0.118	0.035
-514.858	800.000	0.090	-0.259
-513.843	-200.000	0.004	0.249
-512.829	9.800	-0.259	0.195
-511.814	800.000	0.023	0.082
-510.799	-200.000	-0.033	0.361
-509.785	-200.000	-0.007	-0.093
-508.770	38.620	0.075	-0.067
-507.756	644.012	-0.009	-0.024
-506.741	664.342	0.077	0.197
-505.726	208.854	-0.100	0.155
-504.712	798.987	-0.024	-0.066
-503.697	345.676	0.142	-0.277
-502.683	-63.213	-0.335	-0.137
-501.668	800.000	0.010	0.036
-500.653	596.365	0.051	-0.126
-499.639	167.100	0.108	0.152
-498.624	485.750	-0.098	0.223
-497.610	800.000	0.055	0.193
-496.595	30.687	-0.157	0.134
-495.581	-180.033	0.143	-0.003
-494.566	41.824	-0.196	0.176
-493.551	-68.600	-0.257	0.099
-492.537	-35.011	0.118	-0.064
-491.522	141.424	0.246	0.324
-490.508	99.753	-0.117	0.134
-489.493	-41.481	-0.213	0.109
-488.478	-49.982	0.186	-0.088
-487.464	-75.357	-0.145	-0.051
-486.449	-103.814	-0.124	-0.029
-485.435	-23.672	-0.067	-0.040
-484.420	-79.526	0.039	0.013
-483.405	-72.661	-0.180	-0.066
-482.391	-35.354	-0.159	0.086
-481.376	84.887	0.147	-0.160
-480.362	-123.395	0.156	-0.025
-479.347	766.185	-0.084	0.226
-478.332	-200.000	-0.008	-0.040
-477.318	-24.045	0.203	-0.120
-476.303	-200.000	0.001	0.101
-475.289	800.000	0.088	0.338
-474.274	-33.671	-0.233	0.128
-473.259	-200.000	0.001	0.289
-472.245	800.000	-0.028	-0.109
-471.230	-37.878	-0.210	-0.111
-470.216	-200.000	-0.010	-0.181
-469.201	-2.737	0.038	-0.026
-468.186	-200.000	-0.072	0.409
-467.172	79.065	-0.161	0.171
-466.157	-200.000	0.032	-0.225
-465.143	-25.541	-0.084	-0.049
-464.128	298.447	-0.071	-0.129
-463.113	-54.814	-0.130	0.058
-462.099	-141.601	-0.262	-0.026
-461.084	-200.000	-0.243	-0.001
-460.070	-162.511	0.436	0.021
-459.055	-186.561	0.183	-0.003
-458.040	-42.472	0.043	0.022
-457.026	421.527	0.161	0.344
-456.011	176.741	-0.008	0.012
-454.997	360.487	0.072	-0.143
-453.982	45.785	0.172	0.158
-452.968	-75.604	-0.088	-0.031
-451.953	190.934	0.119	0.178
-450.938	-20.437	0.124	0.076
-449.924	-200.000	-0.032	-0.315
-448.909	-71.846	-0.325	0.120
-447.895	-110.861	0.401	-0.082
-446.880	-200.000	0.007	0.175
-445.865	-116.704	0.177	-0.032
-444.851	332.228	-0.081	-0.155
-443.836	202.167	0.036	0.054
-442.822	492.017	0.109	-0.247
-441.807	109.190	-0.149	-0.177
-440.792	800.000	0.036	-0.145
-439.778	4.463	0.147	-0.107
-438.763	800.000	0.072	0.224
-437.749	-134.441	0.378	0.046
-436.734	192.321	0.049	0.074
-435.719	-74.254	-0.242	0.087
-434.705	-17.720	0.247	-0.154
-433.690	-44.974	0.181	-0.089
-432.676	-200.000	0.016	0.161
-431.661	-13.999	0.104	-0.067
-430.646	-200.000	-0.066	-0.501
-429.632	-200.000	0.010	-0.244
-428.617	40.048	0.160	0.143
-427.603	-80.733	-0.204	0.067
-426.588	-200.000	0.011	-0.101
-425.573	-69.721	-0.243	-0.092
-424.559	-32.688	-0.070	-0.039
-423.544	800.000	-0.042	0.179
-422.530	800.000	0.039	0.121
-421.515	38.924	0.093	0.082
-420.500	-200.000	-0.035	0.157
-419.486	-200.000	0.231	0.000
-418.471	-75.636	0.103	0.036
-417.457	63.273	0.147	0.146
-416.442	13.545	-0.226	0.174
-415.428	475.670	-0.057	0.128
-414.413	-145.902	-0.158	0.014
-413.398	-200.000	-0.054	0.342
-412.384	-128.842	0.189	-0.026
-411.369	495.484	0.105	-0.238
-410.355	-200.000	-0.005	-0.216
-409.340	461.044	0.063	-0.138
-408.325	-83.009	0.147	0.047
-407.311	4.161	-0.087	-0.063
-406.296	-146.988	-0.343	0.029
-405.282	-63.475	0.124	0.050
-404.267	800.000	0.034	-0.141
-403.252	-200.000	0.019	0.268
-402.238	20.817	-0.153	-0.123
-401.223	-108.341	0.077	0.016
-400.209	-9.613	0.072	-0.048
-399.194	53.283	-0.279	0.265
-398.179	-80.022	-0.123	-0.041
-397.165	-1.720	-0.348	0.243
-396.150	242.572	-0.093	-0.154
-395.136	82.834	0.147	0.158
-394.121	112.471	0.186	-0.223
-393.106	-50.415	-0.144	-0.067
-392.092	-1.323	0.156	-0.109
-391.077	4.910	-0.248	0.181
-390.063	-172.017	0.243	0.008
-389.048	57.649	-0.238	-0.230
-388.033	285.334	0.028	-0.049
-387.019	-62.541	-0.112	0.046
-386.004	287.160	0.166	-0.296
-384.990	800.000	0.139	-0.403
-383.975	-65.810	0.196	0.078
-382.960	800.000	0.047	-0.133
-381.946	800.000	-0.109	0.300
-380.931	-200.000	0.007	-0.090
-379.917	800.000	0.081	-0.260
-378.902	-22.028	-0.303	0.182
-377.888	-55.572	0.132	-0.058
-376.873	800.000	-0.107	-0.352
-375.858	432.198	0.035	0.074
-374.844	172.904	-0.101	0.143
-373.829	276.288	0.221	0.387
-372.815	6.151	0.157	0.115
-371.800	800.000	-0.126	0.507
-370.785	166.409	-0.150	-0.211
-369.771	-20.453	-0.176	-0.107
-368.756	-130.734	0.352	0.047
-367.742	-77.547	-0.303	0.104
-366.727	-50.236	0.036	-0.017
-365.712	-117.268	0.451	-0.081
-364.698	87.101	0.063	0.069
-363.683	-200.000	-0.001	-0.085
-362.669	112.132	-0.097	-0.115
-361.654	-141.947	0.187	-0.018
-360.639	-138.685	-0.205	-0.022
-359.625	90.307	0.238	0.263
-358.610	118.958	-0.095	0.116
-357.596	-200.000	0.008	0.066
-356.581	-62.379	0.148	0.061
-355.566	107.244	0.167	-0.197
-354.552	-200.000	-0.039	-0.258
-353.537	-57.829	0.114	0.049
-352.523	-57.857	0.389	-0.168
-351.508	200.605	0.171	-0.260
-350.493	-43.164	-0.232	-0.116
-349.479	-26.719	-0.186	-0.108
-348.464	800.000	0.136	-0.387
-347.450	-24.409	0.271	-0.160
-346.435	800.000	-0.093	-0.254
-345.420	724.730	-0.050	-0.130
-344.406	303.768	-0.048	0.088
-343.391	800.000	0.063	-0.250
-342.377	106.497	0.334	0.391
-341.362	316.411	0.066	-0.122
-340.348	293.958	-0.227	-0.410
-339.333	-120.399	-0.083	0.014
-338.318	-78.514	0.148	-0.050
-337.304	-146.675	0.392	-0.034
-336.289	572.279	0.143	-0.345
-335.275	-200.000	-0.021	-0.159
-334.260	42.203	0.080	-0.071
-333.245	303.927	0.239	0.438
-332.231	-200.000	0.297	-0.001
-331.216	800.000	-0.026	-0.109
-330.202	-61.876	-0.215	-0.089
-329.187	692.598	-0.064	0.166
-328.172	-65.831	-0.361	-0.143
-327.158	800.000	-0.077	-0.248
-326.143	-200.000	-0.004	-0.116
-325.129	335.343	0.154	-0.294
-324.114	-75.792	-0.209	-0.073
-323.099	-122.203	0.305	0.049
-322.085	-101.642	-0.543	-0.130
-321.070	-93.386	-0.328	-0.090
-320.056	213.423	0.048	-0.074
-319.041	-77.395	0.434	0.149
-318.026	117.331	-0.175	0.212
-317.012	60.311	0.184	0.180
-315.997	-200.000	0.042	0.288
-314.983	22.707	-0.103	0.083
-313.968	-136.921	0.253	0.029
-312.953	800.000	-0.155	0.479
-311.939	-2.938	0.206	-0.142
-310.924	-200.000	-0.018	-0.329
-309.910	54.938	0.221	0.211
-308.895	-91.182	-0.049	0.014
-307.880	183.788	0.183	0.266
-306.866	-8.708	-0.044	0.029
-305.851	-109.635	0.267	-0.056
-304.837	800.000	-0.030	0.095
-303.822	585.300	0.053	0.128
-302.807	-200.000	-0.004	-0.229
-301.793	-200.000	0.015	-0.186
-300.778	-111.507	-0.381	0.076
-299.764	-38.877	0.164	0.085
-298.749	-77.966	-0.252	0.086
-297.735	392.566	0.070	-0.143
-296.720	150.395	0.018	0.024
-295.705	-200.000	-0.044	0.306
-294.691	284.321	-0.105	-0.186
-293.676	-17.572	-0.060	-0.037
-292.662	619.193	-0.144	-0.357
-291.647	-137.864	-0.445	0.049
-290.632	209.531	0.173	-0.267
-289.618	-100.553	0.065	0.016
-288.603	-200.000	-0.030	-0.435
-287.589	-2.889	-0.181	-0.125
-286.574	-67.871	0.204	0.079
-285.559	800.000	0.079	0.215
-284.545	129.346	-0.152	-0.192
-283.530	800.000	-0.123	0.423
-282.516	226.946	0.045	0.072
-281.501	-38.240	0.348	0.182
-280.486	-200.000	-0.009	-0.135
-279.472	63.054	-0.238	-0.235
-278.457	-78.438	-0.228	0.077
-277.443	102.189	0.102	-0.117
-276.428	-70.944	-0.102	-0.038
-275.413	50.987	0.067	0.062
-274.399	-30.968	0.309	0.172
-273.384	-13.153	-0.096	-0.062
-272.370	420.100	-0.145	0.306
-271.355	-111.313	0.084	0.017
-270.340	261.035	-0.187	-0.319
-269.326	-42.875	0.124	0.062
-268.311	87.112	-0.125	0.136
-267.297	-200.000	0.109	-0.510
-266.282	800.000	-0.080	0.244
-265.267	128.198	-0.152	-0.191
-264.253	24.836	0.333	-0.272
-263.238	-44.319	0.242	0.119
-262.224	-68.475	-0.293	-0.112
-261.209	800.000	-0.062	0.185
-260.195	-75.603	0.345	0.121
-259.180	-38.075	0.097	-0.051
-258.165	-83.403	0.204	0.064
-257.151	-152.125	0.312	0.022
-256.136	-200.000	0.006	0.120
-255.122	496.776	0.137	-0.310
-254.107	352.567	0.157	0.307
-253.092	92.273	0.084	0.094
-252.078	448.890	0.030	0.066
-251.063	755.534	0.026	-0.070
-250.049	-52.388	-0.260	0.118
-249.034	42.745	0.236	0.212
-248.019	100.301	-0.102	-0.116
-247.005	52.454	-0.157	-0.147
-245.990	-66.132	-0.190	0.075
-244.976	438.484	-0.048	-0.104
-243.961	192.438	0.180	-0.267
-242.946	-34.730	-0.089	0.048
-241.932	-1.066	-0.041	-0.028
-240.917	553.512	-0.087	0.206
-239.903	138.161	-0.134	-0.172
-238.888	726.570	-0.092	-0.241
-237.873	800.000	0.139	-0.444
-236.859	-118.385	0.213	0.037
-235.844	403.935	0.120	0.249
-234.830	-10.528	0.144	0.094
-233.815	-200.000	0.019	0.215
-232.800	-136.888	-0.132	-0.015
-231.786	548.072	-0.070	0.164
-230.771	-200.000	-0.056	0.386
-229.757	-11.741	-0.066	-0.042
-228.742	275.781	-0.033	-0.058
-227.727	1.570	0.143	-0.101
-226.713	-200.000	-0.039	-0.236
-225.698	266.484	0.120	0.206
-224.684	-85.138	-0.139	0.043
-223.669	60.344	-0.074	0.072
-222.655	800.000	0.020	-0.079
-221.640	-80.229	-0.048	0.016
-220.625	145.947	0.122	-0.161
-219.611	24.546	0.266	-0.216
-218.596	95.512	-0.030	-0.034
-217.582	-36.139	-0.129	-0.069
-216.567	28.397	-0.099	0.082
-215.552	-200.000	0.042	0.315
-214.538	109.671	0.145	-0.170
-213.523	-200.000	0.004	0.066
-212.509	45.315	0.217	0.197
-211.494	-164.922	0.211	-0.009
-210.479	-38.498	0.221	0.115
-209.465	-143.445	0.244	0.023
-208.450	88.016	0.129	0.141
-207.436	-168.751	0.209	-0.008
-206.421	-71.428	0.184	0.068
-205.406	-200.000	0.003	0.098
-204.392	225.037	-0.027	0.043
-203.377	28.266	-0.365	0.303
-202.363	-200.000	-0.005	0.032
-201.348	283.753	0.040	-0.070
-200.333	120.673	0.148	-0.181
-199.319	-200.000	0.003	0.239
-198.304	39.347	-0.035	0.031
-197.290	319.169	0.119	0.221
-196.275	-200.000	-0.016	0.175
-195.260	641.805	0.095	0.239
-194.246	-71.998	-0.105	-0.038
-193.231	-133.606	0.232	-0.029
-192.217	-83.464	-0.090	0.028
-191.202	-4.938	-0.197	-0.134
-190.187	-200.000	-0.001	0.112
-189.173	-104.214	0.151	0.034
-188.158	-34.910	-0.121	-0.065
-187.144	-200.000	-0.005	0.123
-186.129	10.969	-0.063	0.047
-185.114	-168.414	-0.219	0.008
-184.100	9.884	0.069	0.051
-183.085	85.112	-0.167	-0.180
-182.071	96.111	-0.310	-0.348
-181.056	-167.595	-0.109	0.004
-180.042	366.706	-0.054	-0.106
-179.027	-130.457	-0.214	-0.028
-178.012	-68.113	-0.162	0.062
-176.998	734.888	0.074	-0.196
-175.983	-104.889	0.101	-0.023
-174.969	-57.103	-0.261	0.113
-173.954	359.431	0.037	-0.072
-172.939	-200.000	0.031	-0.420
-171.925	-154.471	-0.459	0.030
-170.910	-71.176	-0.052	0.019
-169.896	-200.000	-0.002	-0.081
-168.881	-31.479	-0.244	-0.135
-167.866	800.000	-0.140	0.412
-166.852	-141.869	0.039	0.004
-165.837	-40.651	0.193	0.098
-164.823	147.718	-0.097	0.129
-163.808	4.157	-0.185	-0.133
-162.793	0.274	-0.081	0.057
-161.779	-23.265	-0.122	0.072
-160.764	-200.000	-0.066	-0.487
-159.750	164.876	0.016	-0.023
-158.735	555.449	0.095	-0.225
-157.720	800.000	0.074	-0.270
-156.706	-45.922	-0.146	0.071
-155.691	451.684	0.172	0.372
-154.677	117.142	0.105	0.126
-153.662	-200.000	0.024	0.150
-152.647	800.000	0.141	0.516
-151.633	146.268	-0.128	0.168
-150.618	136.982	-0.201	-0.257
-149.604	-101.343	-0.205	0.049
-148.589	106.914	0.058	0.068
-147.574	544.513	0.068	-0.159
-146.560	335.422	0.091	0.174
-145.545	205.200	0.142	0.216
-144.531	218.469	0.143	-0.224
-143.516	-93.823	0.261	-0.070
-142.502	-131.190	-0.239	0.031
-141.487	-200.000	-0.037	0.203
-140.472	-108.033	0.166	0.035
-139.458	438.403	-0.035	0.074
-138.443	142.831	0.092	-0.120
-137.429	275.417	0.056	-0.097
-136.414	341.689	0.115	-0.220
-135.399	-99.043	0.111	0.028
-134.385	69.634	-0.261	0.263
-133.370	-49.445	-0.434	-0.203
-132.356	-200.000	0.052	-0.363
-131.341	604.803	-0.122	-0.298
-130.326	-70.579	0.061	-0.023
-129.312	800.000	-0.053	0.152
-128.297	-168.780	0.026	-0.001
-127.283	-134.363	-0.616	0.074
-126.268	-132.366	0.205	0.026
-125.253	440.530	0.134	-0.287
-124.239	-200.000	0.003	0.185
-123.224	653.636	0.208	-0.523
-122.210	-149.258	-0.255	-0.020
-121.195	-24.008	-0.200	0.117
-120.180	174.765	0.117	0.166
