DTS Sentinel unit serial number:	SN413079Multiplexer serial number:	ORYXHardware model number:	OX4-SRSoftware version number:	ORYX F/W v4.00 Oryx Data Collector v3.7.2.0data status	okinstallation	princeton_trtdifferential loss correction	single-endedforward channel	channel 3reverse channel	N/Adate	2019/09/12time	12:46:10forward acquisition time	60.00reverse acquisition time	0.00gamma	496.2192k internal	0.2291k external	0.2291temperature offset calibration	1.0037default loss term (dB/km)	0.3790temperature slope calibration	1.0000multiplexer offset coefficient	1.0000multiplexer slope coefficient	1.0000fibre end	0.00T internal ref (°C)	40.58T ext. ref 1 (°C)	2.04T ext. ref 2 (°C)	37.76length (m)	temperature (°C)	Stokes	anti-Stokes-747.200	-200.000	-0.053	0.346
-746.185	441.889	0.073	-0.163
-745.171	140.627	0.221	0.300
-744.156	83.645	0.140	-0.156
-743.142	-200.000	0.002	0.160
-742.127	19.652	0.097	0.080
-741.112	63.238	0.211	-0.217
-740.098	782.003	0.054	0.151
-739.083	-0.950	0.403	-0.292
-738.069	-6.994	0.231	-0.160
-737.054	-200.000	-0.004	-0.105
-736.039	217.249	-0.046	0.076
-735.025	-19.847	0.171	0.108
-734.010	-200.000	0.006	0.294
-732.996	-200.000	-0.013	-0.415
-731.981	-200.000	-0.040	-0.219
-730.966	-132.471	0.107	0.014
-729.952	-77.780	0.254	0.090
-728.937	800.000	0.129	0.388
-727.923	-5.131	-0.143	-0.101
-726.908	-197.164	-0.131	-0.001
-725.894	493.270	0.045	0.105
-724.879	109.470	0.265	-0.325
-723.864	-108.992	0.258	-0.056
-722.850	-19.572	-0.225	0.142
-721.835	-81.792	-0.195	-0.065
-720.821	-112.461	-0.337	-0.069
-719.806	-192.285	-0.250	-0.002
-718.791	553.838	-0.022	0.054
-717.777	-122.652	0.065	-0.011
-716.762	-200.000	-0.036	0.203
-715.748	16.042	-0.227	-0.183
-714.733	-90.045	0.353	-0.105
-713.718	-68.851	-0.328	0.130
-712.704	-17.675	-0.186	0.120
-711.689	-58.420	-0.583	0.259
-710.675	-116.257	0.232	0.044
-709.660	26.008	-0.153	-0.131
-708.645	-59.964	-0.177	-0.077
-707.631	57.049	-0.281	0.280
-706.616	-116.072	0.257	-0.049
-705.602	800.000	-0.049	-0.159
-704.587	800.000	0.080	-0.236
-703.572	-20.021	0.045	0.029
-702.558	-14.543	-0.174	0.114
-701.543	-59.308	0.145	-0.064
-700.529	21.325	-0.106	0.088
-699.514	327.072	-0.115	0.225
-698.499	-103.933	0.362	0.086
-697.485	84.928	0.374	0.419
-696.470	-182.894	-0.314	-0.006
-695.456	164.468	-0.127	-0.182
-694.441	-70.746	0.313	0.121
-693.426	357.134	0.163	-0.333
-692.412	-200.000	0.021	-0.245
-691.397	181.556	-0.144	0.216
-690.383	800.000	-0.086	-0.310
-689.368	130.665	-0.164	-0.215
-688.354	389.621	-0.096	0.204
-687.339	800.000	0.031	-0.101
-686.324	582.335	-0.098	-0.246
-685.310	-13.297	0.193	0.128
-684.295	-99.322	0.157	-0.040
-683.281	277.705	0.080	0.146
-682.266	168.807	0.216	0.314
-681.251	-12.065	0.216	-0.145
-680.237	-32.774	-0.251	0.142
-679.222	-200.000	-0.057	-0.258
-678.208	315.868	0.243	-0.468
-677.193	277.687	-0.177	0.322
-676.178	-200.000	-0.007	0.136
-675.164	470.854	0.124	-0.284
-674.149	800.000	0.079	0.238
-673.135	-49.906	0.058	0.028
-672.120	321.679	0.072	0.140
-671.105	207.515	0.088	-0.141
-670.091	-16.036	0.219	-0.142
-669.076	44.201	-0.010	-0.009
-668.062	-50.690	0.038	-0.018
-667.047	-187.557	-0.168	-0.002
-666.032	800.000	0.086	0.255
-665.018	800.000	-0.064	-0.204
-664.003	800.000	-0.077	0.323
-662.989	432.619	-0.117	-0.259
-661.974	-55.905	0.097	-0.044
-660.959	332.172	0.067	-0.132
-659.945	248.282	-0.130	0.225
-658.930	-87.672	-0.222	-0.068
-657.916	-94.973	0.084	0.023
-656.901	259.148	-0.256	0.450
-655.886	-103.847	0.415	0.099
-654.872	-200.000	-0.011	0.151
-653.857	2.160	-0.045	0.033
-652.843	332.883	0.023	-0.046
-651.828	-173.705	0.186	0.006
-650.814	-116.666	-0.368	0.069
-649.799	800.000	0.020	0.083
-648.784	-59.179	0.071	-0.031
-647.770	-200.000	-0.015	-0.105
-646.755	-200.000	-0.044	0.259
-645.741	187.714	-0.052	0.079
-644.726	-118.278	-0.104	0.019
-643.711	-135.689	0.547	0.066
-642.697	99.132	0.151	-0.178
-641.682	-200.000	0.053	-0.240
-640.668	-153.472	0.183	-0.013
-639.653	-123.685	0.426	0.069
-638.638	-64.093	0.275	-0.114
-637.624	64.966	-0.266	-0.274
-636.609	800.000	-0.032	0.114
-635.595	72.504	0.102	0.109
-634.580	-200.000	-0.010	-0.152
-633.565	136.991	-0.013	0.017
-632.551	800.000	-0.058	-0.217
-631.536	-175.021	0.137	0.004
-630.522	-182.938	0.233	0.004
-629.507	-33.462	0.326	0.184
-628.492	-73.735	-0.328	0.122
-627.478	-1.550	0.162	0.117
-626.463	668.815	-0.029	0.078
-625.449	-134.218	0.380	-0.048
-624.434	34.295	0.261	0.232
-623.419	339.273	0.083	0.165
-622.405	800.000	0.050	-0.167
-621.390	-86.747	-0.080	0.025
-620.376	-48.637	-0.330	-0.162
-619.361	299.992	0.157	0.295
-618.346	46.145	0.239	0.226
-617.332	-35.007	-0.214	0.119
-616.317	380.254	0.156	-0.326
-615.303	116.013	0.128	-0.159
-614.288	-62.550	-0.213	-0.090
-613.273	-55.215	-0.259	0.119
-612.259	-14.292	0.230	0.151
-611.244	344.197	0.159	-0.317
-610.230	-1.725	0.204	0.147
-609.215	-137.857	0.193	0.022
-608.201	591.139	0.089	0.225
-607.186	128.381	0.064	0.083
-606.171	-122.984	-0.322	0.053
-605.157	65.496	0.155	-0.160
-604.142	-180.504	-0.319	-0.007
-603.128	800.000	0.009	0.033
-602.113	61.270	-0.064	0.065
-601.098	233.386	0.094	0.157
-600.084	-107.982	-0.478	-0.106
-599.069	-20.514	0.279	-0.174
-598.055	-200.000	-0.061	0.276
-597.040	-108.081	-0.152	-0.034
-596.025	37.638	0.085	-0.077
-595.011	201.219	-0.037	-0.057
-593.996	-15.082	0.196	-0.128
-592.982	126.046	-0.170	-0.219
-591.967	-54.608	0.088	-0.040
-590.952	-176.630	0.465	-0.012
-589.938	66.022	-0.242	0.250
-588.923	310.938	-0.085	-0.161
-587.909	800.000	-0.047	-0.153
-586.894	-85.663	0.106	-0.034
-585.879	169.339	0.173	-0.252
-584.865	245.217	-0.150	0.257
-583.850	-200.000	0.012	0.174
-582.836	800.000	0.064	0.230
-581.821	151.240	-0.045	-0.062
-580.806	480.236	-0.066	-0.152
-579.792	-16.595	0.080	0.051
-578.777	36.304	0.212	-0.190
-577.763	800.000	0.088	0.341
-576.748	-79.090	-0.197	-0.068
-575.733	-80.851	0.320	0.108
-574.719	-200.000	-0.022	0.194
-573.704	-25.286	-0.183	-0.110
-572.690	714.008	0.104	-0.279
-571.675	-45.213	0.069	0.035
-570.661	92.742	-0.221	-0.254
-569.646	685.600	0.087	-0.231
-568.631	-147.748	0.405	-0.035
-567.617	37.915	-0.173	-0.156
-566.602	-154.060	0.138	0.010
-565.588	210.927	-0.015	-0.024
-564.573	63.988	-0.180	-0.184
-563.558	-108.215	0.261	-0.057
-562.544	307.112	-0.121	-0.229
-561.529	50.343	0.203	0.195
-560.515	5.237	0.187	-0.140
-559.500	-200.000	-0.047	0.213
-558.485	-114.323	-0.296	-0.058
-557.471	29.982	0.280	-0.243
-556.456	20.648	0.213	0.176
-555.442	800.000	0.040	0.149
-554.427	67.662	-0.225	-0.234
-553.412	-82.589	0.347	-0.114
-552.398	-53.361	-0.322	0.150
-551.383	-81.474	-0.245	-0.082
-550.369	-137.208	0.056	-0.006
-549.354	-145.003	0.159	0.015
-548.339	159.836	0.145	-0.206
-547.325	-74.461	-0.167	0.061
-546.310	-176.729	0.076	0.002
-545.296	-200.000	0.041	-0.218
-544.281	-200.000	-0.026	0.154
-543.266	-143.680	0.090	-0.009
-542.252	167.966	0.062	0.090
-541.237	-81.631	-0.259	0.086
-540.223	800.000	-0.121	-0.339
-539.208	-71.734	-0.092	-0.035
-538.193	0.896	-0.268	-0.195
-537.179	1.413	-0.220	-0.161
-536.164	-152.377	-0.362	-0.026
-535.150	-89.743	0.227	-0.068
-534.135	-200.000	0.007	0.043
-533.121	431.829	-0.096	-0.211
-532.106	-13.635	-0.039	0.026
-531.091	28.647	-0.240	-0.206
-530.077	130.766	-0.218	-0.284
-529.062	-54.661	0.197	-0.090
-528.048	800.000	0.086	-0.270
-527.033	257.379	0.130	0.226
-526.018	214.266	-0.170	0.273
-525.004	1.598	-0.343	-0.250
-523.989	-200.000	0.014	0.081
-522.975	-130.443	0.272	-0.037
-521.960	201.602	-0.218	0.341
-520.945	-93.500	0.449	0.126
-519.931	117.201	-0.162	-0.202
-518.916	-122.279	-0.228	0.038
-517.902	800.000	0.050	0.163
-516.887	800.000	-0.185	0.628
-515.872	63.541	-0.214	0.218
-514.858	-151.402	-0.152	-0.011
-513.843	-200.000	-0.018	0.113
-512.829	800.000	-0.054	0.156
-511.814	48.056	0.133	0.126
-510.799	457.593	-0.138	0.312
-509.785	-103.280	-0.184	-0.044
-508.770	163.022	-0.127	0.181
-507.756	6.781	-0.024	0.018
-506.741	-144.311	-0.318	0.030
-505.726	157.922	0.297	0.417
-504.712	-71.370	-0.061	0.023
-503.697	-200.000	-0.020	-0.225
-502.683	-200.000	-0.004	0.077
-501.668	13.974	-0.199	0.157
-500.653	-200.000	0.028	-0.142
-499.639	-200.000	-0.071	-0.355
-498.624	-55.089	-0.111	0.051
-497.610	146.082	0.055	-0.075
-496.595	-160.000	-0.170	-0.009
-495.581	-87.011	-0.164	-0.051
-494.566	-25.736	0.207	-0.124
-493.551	551.541	0.101	0.247
-492.537	13.910	-0.199	0.157
-491.522	716.381	-0.037	0.099
-490.508	-155.116	-0.209	0.014
-489.493	-87.679	0.188	-0.057
-488.478	-200.000	0.026	-0.274
-487.464	94.522	-0.367	-0.423
-486.449	501.561	-0.074	-0.172
-485.435	-8.272	0.116	-0.079
-484.420	-200.000	0.006	0.192
-483.405	-200.000	0.008	0.074
-482.391	127.110	0.033	-0.042
-481.376	148.906	0.169	0.231
-480.362	-200.000	0.018	0.132
-479.347	800.000	-0.120	0.363
-478.332	-168.567	-0.239	-0.009
-477.318	31.259	0.069	-0.060
-476.303	800.000	-0.065	-0.229
-475.289	-200.000	-0.104	-0.597
-474.274	27.759	0.164	0.140
-473.259	12.886	-0.102	-0.080
-472.245	78.204	-0.109	-0.118
-471.230	213.453	0.022	-0.035
-470.216	70.890	0.215	0.225
-469.201	191.842	-0.053	0.080
-468.186	22.168	0.117	0.097
-467.172	261.797	-0.053	0.092
-466.157	-8.791	0.514	-0.349
-465.143	-73.771	0.299	0.110
-464.128	-200.000	-0.010	0.347
-463.113	-200.000	-0.037	0.191
-462.099	2.264	-0.181	0.133
-461.084	5.824	-0.153	-0.115
-460.070	-67.185	-0.221	0.088
-459.055	80.804	-0.246	0.269
-458.040	-95.487	0.236	-0.064
-457.026	-63.185	0.132	0.055
-456.011	33.771	0.129	0.114
-454.997	120.432	0.132	0.166
-453.982	-200.000	0.043	-0.456
-452.968	-34.352	-0.126	-0.070
-451.953	-13.947	-0.295	0.193
-450.938	-72.230	0.285	0.107
-449.924	-19.672	0.399	0.250
-448.909	800.000	-0.050	-0.146
-447.895	-200.000	0.006	-0.122
-446.880	800.000	0.115	-0.325
-445.865	103.002	0.069	-0.082
-444.851	168.399	0.063	0.091
-443.836	-64.667	-0.308	0.126
-442.822	-51.707	-0.065	-0.031
-441.807	-200.000	0.012	0.312
-440.792	-200.000	-0.024	0.171
-439.778	-200.000	-0.022	0.500
-438.763	775.386	-0.041	-0.113
-437.749	800.000	-0.094	-0.271
-436.734	-136.324	-0.168	-0.020
-435.719	13.929	0.124	0.098
-434.705	-34.769	0.296	-0.164
-433.690	800.000	0.078	0.256
-432.676	-200.000	0.045	0.361
-431.661	718.547	0.103	-0.276
-430.646	722.917	-0.020	0.055
-429.632	312.047	-0.199	-0.377
-428.617	265.211	-0.125	-0.221
-427.603	99.797	0.163	0.191
-426.588	-200.000	-0.014	0.140
-425.573	51.195	0.289	0.277
-424.559	-129.634	0.371	0.052
-423.544	-197.370	0.242	-0.002
-422.530	56.266	0.132	-0.129
-421.515	-22.672	-0.172	-0.105
-420.500	84.981	-0.121	-0.134
-419.486	-120.683	0.289	0.049
-418.471	-68.018	-0.238	-0.094
-417.457	-59.517	0.050	-0.022
-416.442	-200.000	0.172	0.000
-415.428	-99.087	0.191	-0.049
-414.413	-200.000	-0.039	0.449
-413.398	-200.000	0.031	0.392
-412.384	-200.000	-0.045	0.437
-411.369	-200.000	-0.002	0.122
-410.355	-43.092	0.079	-0.040
-409.340	-172.781	0.036	0.001
-408.325	-200.000	0.005	-0.093
-407.311	800.000	-0.064	-0.220
-406.296	-93.776	-0.066	0.018
-405.282	202.508	0.064	0.100
-404.267	22.660	0.100	-0.083
-403.252	47.395	0.031	-0.029
-402.238	-6.571	0.259	0.178
-401.223	262.828	-0.080	-0.140
-400.209	-200.000	0.003	0.188
-399.194	321.471	0.133	-0.256
-398.179	-122.213	-0.148	0.024
-397.165	763.208	-0.110	0.301
-396.150	-140.677	0.287	0.030
-395.136	-146.845	0.371	0.032
-394.121	-80.310	-0.091	-0.031
-393.106	-67.408	-0.357	-0.141
-392.092	8.912	-0.151	0.115
-391.077	-65.640	0.174	-0.070
-390.063	-80.372	0.226	0.076
-389.048	10.238	-0.132	-0.102
-388.033	-81.269	-0.038	-0.013
-387.019	-6.279	-0.114	-0.079
-386.004	-200.000	-0.019	-0.262
-384.990	-100.595	-0.073	-0.018
-383.975	187.952	-0.018	0.028
-382.960	-25.491	-0.375	0.224
-381.946	37.005	0.147	-0.131
-380.931	-126.454	-0.193	-0.029
-379.917	-128.527	0.187	-0.027
-378.902	396.922	0.145	-0.305
-377.888	-200.000	0.013	0.134
-376.873	43.802	-0.286	-0.264
-375.858	-138.833	-0.104	-0.011
-374.844	134.190	-0.040	0.052
-373.829	-100.012	0.200	0.050
-372.815	190.187	0.133	-0.202
-371.800	88.437	0.038	-0.043
-370.785	-87.431	0.183	-0.056
-369.771	800.000	-0.059	-0.175
-368.756	-102.020	0.473	-0.115
-367.742	86.492	0.131	-0.146
-366.727	800.000	0.030	-0.089
-365.712	800.000	0.055	0.220
-364.698	-58.496	0.272	0.119
-363.683	109.129	0.118	0.142
-362.669	15.471	-0.136	-0.108
-361.654	-200.000	-0.032	-0.180
-360.639	133.053	0.156	0.204
-359.625	5.498	-0.393	-0.293
-358.610	-102.650	-0.170	0.041
-357.596	-44.979	-0.141	-0.071
-356.581	-170.798	-0.242	0.008
-355.566	-103.485	-0.528	-0.125
-354.552	522.640	-0.178	-0.422
-353.537	13.297	-0.210	0.164
-352.523	-158.348	-0.201	-0.012
-351.508	279.378	-0.023	0.042
-350.493	-200.000	-0.003	-0.231
-349.479	800.000	-0.049	0.150
-348.464	101.888	0.101	0.119
-347.450	-25.867	-0.344	0.204
-346.435	-127.881	-0.066	0.010
-345.420	99.655	-0.068	0.079
-344.406	-144.163	0.103	0.010
-343.391	-140.321	0.087	-0.009
-342.377	14.095	-0.395	0.310
-341.362	-113.515	0.071	-0.014
-340.348	106.424	0.141	-0.169
-339.333	70.405	0.225	-0.234
-338.318	-69.963	0.073	-0.028
-337.304	-28.328	-0.147	-0.085
-336.289	-127.311	-0.046	0.007
-335.275	340.795	0.070	-0.138
-334.260	-200.000	-0.021	0.129
-333.245	403.620	-0.191	0.404
-332.231	21.263	0.183	-0.150
-331.216	37.829	0.220	-0.197
-330.202	-15.115	0.248	-0.160
-329.187	114.661	-0.170	0.209
-328.172	-200.000	-0.010	0.193
-327.158	277.325	-0.093	-0.167
-326.143	-200.000	-0.006	-0.159
-325.129	-22.433	-0.164	-0.100
-324.114	89.262	-0.112	0.125
-323.099	-200.000	-0.036	-0.178
-322.085	800.000	-0.051	0.172
-321.070	-200.000	0.000	-0.236
-320.056	-126.799	0.117	0.017
-319.041	-60.697	-0.137	-0.058
-318.026	5.213	-0.245	0.182
-317.012	22.538	-0.216	0.178
-315.997	-122.389	0.219	0.036
-314.983	7.945	0.256	-0.193
-313.968	-71.574	-0.074	-0.028
-312.953	-200.000	0.018	0.141
-311.939	-114.923	0.298	-0.057
-310.924	-58.642	0.059	-0.026
-309.910	-155.241	0.121	-0.008
-308.895	123.384	0.120	-0.151
-307.880	108.707	-0.284	-0.342
-306.866	204.698	-0.093	-0.146
-305.851	33.619	-0.241	-0.211
-304.837	308.648	-0.077	0.145
-303.822	-5.772	-0.041	0.028
-302.807	-200.000	-0.014	0.122
-301.793	55.077	-0.187	0.182
-300.778	800.000	-0.064	0.249
-299.764	109.765	-0.211	0.255
-298.749	129.436	0.080	-0.103
-297.735	28.458	0.381	-0.324
-296.720	210.110	-0.012	-0.020
-295.705	-200.000	-0.033	0.191
-294.691	53.473	0.151	-0.146
-293.676	111.931	-0.054	-0.065
-292.662	-89.645	0.192	-0.057
-291.647	-131.666	0.142	0.019
-290.632	390.623	-0.062	0.129
-289.618	800.000	0.023	-0.076
-288.603	-73.628	0.185	0.068
-287.589	-141.660	0.161	0.016
-286.574	24.013	-0.038	-0.032
-285.559	49.817	-0.069	-0.066
-284.545	104.215	-0.080	-0.095
-283.530	114.298	0.044	-0.054
-282.516	229.577	0.153	0.251
-281.501	457.490	0.080	0.178
-280.486	165.873	-0.101	0.143
-279.472	123.788	-0.128	0.161
-278.457	-166.239	0.070	0.003
-277.443	800.000	-0.093	-0.272
-276.428	-8.886	0.109	0.074
-275.413	-106.260	-0.353	0.080
-274.399	35.992	-0.103	0.091
-273.384	-200.000	0.013	0.183
-272.370	-134.419	-0.322	0.040
-271.355	-200.000	-0.010	-0.218
-270.340	10.312	-0.210	0.161
-269.326	-192.601	-0.149	-0.001
-268.311	-200.000	0.029	0.201
-267.297	117.466	0.147	-0.182
-266.282	-37.767	0.057	0.031
-265.267	-171.985	-0.126	0.004
-264.253	-25.502	-0.208	-0.124
-263.238	-200.000	0.030	0.204
-262.224	-200.000	-0.011	-0.072
-261.209	764.882	0.088	-0.239
-260.195	235.984	0.199	-0.331
-259.180	-48.421	0.150	-0.073
-258.165	-47.541	-0.118	0.058
-257.151	800.000	-0.082	0.299
-256.136	-200.000	0.021	-0.122
-255.122	-5.193	-0.282	-0.195
-254.107	-4.803	-0.302	0.209
-253.092	-115.319	-0.161	-0.031
-252.078	-48.300	-0.292	-0.141
-251.063	-74.246	0.238	-0.086
-250.049	90.243	-0.049	0.055
-249.034	-52.385	-0.457	-0.213
-248.019	256.062	0.064	0.110
-247.005	800.000	-0.092	0.303
-245.990	800.000	-0.058	0.238
-244.976	-200.000	-0.049	0.267
-243.961	355.149	0.118	-0.235
-242.946	-200.000	-0.084	-0.441
-241.932	9.805	0.046	-0.035
-240.917	-12.141	-0.131	0.086
-239.903	18.935	0.210	0.169
-238.888	0.001	-0.123	0.088
-237.873	800.000	-0.051	-0.174
-236.859	171.233	-0.048	-0.069
-235.844	800.000	-0.044	0.152
-234.830	-200.000	-0.008	0.119
-233.815	-15.518	-0.185	-0.118
-232.800	172.132	0.117	0.169
-231.786	-95.578	0.346	0.093
-230.771	-200.000	0.004	-0.297
-229.757	-200.000	-0.010	-0.057
-228.742	56.414	0.085	-0.083
-227.727	-200.000	-0.011	0.119
-226.713	-99.972	-0.172	0.043
-225.698	-200.000	0.054	0.274
-224.684	-118.175	0.317	0.057
-223.669	29.276	0.257	-0.219
-222.655	50.876	0.197	0.187
-221.640	-66.619	-0.168	0.067
-220.625	800.000	-0.122	-0.378
-219.611	253.224	-0.173	0.297
-218.596	-127.729	-0.166	0.024
-217.582	-107.879	0.298	0.065
-216.567	-200.000	-0.002	-0.062
-215.552	-200.000	0.003	-0.099
-214.538	757.107	0.016	0.043
-213.523	-97.638	-0.350	-0.091
-212.509	108.197	0.161	0.193
-211.494	-200.000	-0.034	0.299
-210.479	137.846	0.128	0.168
-209.465	-200.000	-0.041	-0.183
-208.450	-122.250	0.175	-0.029
-207.436	-56.983	-0.214	0.095
-206.421	715.087	0.104	-0.277
-205.406	387.066	0.059	-0.123
-204.392	-33.805	-0.200	0.111
-203.377	581.350	0.048	0.117
-202.363	800.000	0.054	0.218
-201.348	93.267	-0.141	-0.160
-200.333	-200.000	-0.036	-0.315
-199.319	800.000	-0.092	0.262
-198.304	-200.000	0.027	-0.287
-197.290	-151.323	0.131	0.010
-196.275	-120.186	0.073	-0.013
-195.260	-109.634	0.182	-0.038
-194.246	-200.000	-0.003	0.279
-193.231	136.930	-0.113	0.149
-192.217	-53.459	-0.192	-0.088
-191.202	-76.786	0.031	-0.011
-190.187	-71.493	0.154	-0.058
-189.173	-89.070	0.059	-0.017
-188.158	617.603	-0.133	-0.335
-187.144	140.279	0.111	-0.146
-186.129	-181.073	0.291	-0.006
-185.114	-200.000	0.018	0.126
-184.100	-99.217	-0.130	0.033
-183.085	214.924	0.079	-0.126
-182.071	800.000	0.053	-0.228
-181.056	261.949	-0.140	-0.243
-180.042	-200.000	0.030	-0.271
-179.027	800.000	0.060	-0.199
-178.012	-200.000	0.023	0.334
-176.998	165.718	-0.039	-0.055
-175.983	800.000	0.063	-0.235
-174.969	-121.832	0.404	-0.067
-173.954	800.000	0.099	0.386
-172.939	-118.676	-0.197	0.035
-171.925	800.000	-0.005	-0.016
-170.910	-67.924	-0.228	-0.089
-169.896	4.690	-0.051	0.037
-168.881	-200.000	-0.033	-0.190
-167.866	75.829	0.161	0.170
-166.852	-79.272	-0.301	0.102
-165.837	-100.768	-0.228	-0.056
-164.823	-33.459	0.150	-0.083
-163.808	-200.000	0.017	0.308
-162.793	29.331	0.073	-0.062
-161.779	18.152	0.082	0.066
-160.764	51.933	0.181	0.172
-159.750	217.104	0.132	0.211
-158.735	-200.000	0.035	-0.204
-157.720	181.445	-0.103	-0.152
-156.706	-41.770	-0.094	-0.048
-155.691	800.000	0.054	0.150
-154.677	-70.125	-0.081	0.031
-153.662	91.822	-0.105	-0.118
-152.647	143.430	0.261	0.348
-151.633	677.252	-0.058	-0.151
-150.618	76.602	0.128	0.136
-149.604	-200.000	0.058	-0.258
-148.589	192.216	0.164	-0.247
-147.574	-200.000	0.002	-0.018
-146.560	130.856	-0.016	0.021
-145.545	123.753	0.079	0.099
-144.531	267.701	0.101	-0.177
-143.516	561.708	-0.149	-0.362
-142.502	-200.000	0.020	0.156
-141.487	90.294	0.173	0.193
-140.472	-200.000	0.061	0.355
-139.458	-1.017	-0.288	-0.204
-138.443	-148.285	-0.126	-0.010
-137.429	137.206	-0.165	0.216
-136.414	78.315	0.212	0.226
-135.399	-200.000	-0.008	-0.072
-134.385	141.599	0.137	0.182
-133.370	88.911	-0.400	-0.445
-132.356	-2.929	0.115	-0.080
-131.341	-130.943	-0.261	-0.035
-130.326	-107.889	-0.187	-0.041
-129.312	-108.607	0.109	0.023
-128.297	-120.867	-0.242	0.041
-127.283	280.487	0.065	-0.116
-126.268	-3.844	0.419	0.291
-125.253	87.523	0.046	0.051
-124.239	-78.726	0.113	-0.039
-123.224	-89.446	-0.272	0.080
-122.210	503.387	0.038	-0.089
-121.195	-9.635	0.147	-0.098
