DTS Sentinel unit serial number:	SN413079Multiplexer serial number:	ORYXHardware model number:	OX4-SRSoftware version number:	ORYX F/W v4.00 Oryx Data Collector v3.7.2.0data status	okinstallation	princeton_trtdifferential loss correction	single-endedforward channel	channel 3reverse channel	N/Adate	2019/09/18time	17:04:35forward acquisition time	60.00reverse acquisition time	0.00gamma	496.2192k internal	0.2295k external	0.2295temperature offset calibration	0.9992default loss term (dB/km)	0.3790temperature slope calibration	1.0000multiplexer offset coefficient	1.0000multiplexer slope coefficient	1.0000fibre end	0.00T internal ref (°C)	40.00T ext. ref 1 (°C)	0.88T ext. ref 2 (°C)	32.81length (m)	temperature (°C)	Stokes	anti-Stokes-747.200	6.062	-0.153	-0.116
-746.185	-91.446	-0.319	0.093
-745.171	220.604	-0.155	0.254
-744.156	-200.000	0.003	0.171
-743.142	-81.627	0.191	0.064
-742.127	-29.115	0.242	0.142
-741.112	-7.931	-0.316	-0.218
-740.098	-92.926	0.062	0.018
-739.083	-200.000	0.047	0.260
-738.069	-100.263	0.125	0.032
-737.054	-47.738	0.189	-0.094
-736.039	3.430	0.108	-0.081
-735.025	-134.928	0.421	0.052
-734.010	-39.170	-0.374	-0.201
-732.996	-119.493	-0.308	-0.055
-731.981	302.714	0.099	0.188
-730.966	-156.598	-0.333	0.021
-729.952	800.000	-0.149	-0.444
-728.937	324.015	0.098	-0.191
-727.923	45.523	-0.172	0.162
-726.908	-200.000	-0.011	0.147
-725.894	-200.000	0.031	0.419
-724.879	-17.882	-0.315	-0.202
-723.864	-131.485	0.222	0.030
-722.850	-164.228	-0.351	0.017
-721.835	56.300	0.130	-0.129
-720.821	-107.731	-0.108	0.024
-719.806	37.111	-0.173	0.156
-718.791	98.993	0.069	-0.082
-717.777	-104.237	0.440	-0.104
-716.762	-104.128	0.179	-0.043
-715.748	-16.232	-0.229	0.149
-714.733	387.806	-0.060	0.128
-713.718	-77.665	0.232	-0.082
-712.704	-62.186	-0.194	-0.083
-711.689	-28.349	0.247	0.146
-710.675	-199.031	-0.286	-0.002
-709.660	101.157	-0.097	-0.115
-708.645	-27.194	-0.084	0.050
-707.631	-34.850	0.124	0.069
-706.616	-89.406	-0.219	-0.066
-705.602	-6.849	-0.325	-0.225
-704.587	41.589	0.047	-0.044
-703.572	800.000	0.018	0.069
-702.558	-200.000	0.009	0.121
-701.543	180.114	-0.066	-0.098
-700.529	418.723	0.105	0.230
-699.514	397.962	-0.057	0.122
-698.499	96.143	-0.184	-0.214
-697.485	-172.752	0.237	-0.008
-696.470	-35.376	0.112	-0.062
-695.456	-68.278	-0.189	0.075
-694.441	800.000	0.096	-0.309
-693.426	597.693	-0.054	0.138
-692.412	127.093	-0.144	-0.186
-691.397	-131.743	0.101	-0.013
-690.383	800.000	0.047	0.157
-689.368	263.270	0.029	-0.052
-688.354	-7.667	-0.027	-0.018
-687.339	800.000	-0.026	-0.111
-686.324	52.245	0.209	0.203
-685.310	800.000	-0.079	0.297
-684.295	2.166	0.210	-0.155
-683.281	101.206	-0.066	-0.078
-682.266	-60.133	0.113	-0.049
-681.251	-200.000	-0.041	-0.345
-680.237	245.382	-0.204	-0.350
-679.222	647.897	-0.170	-0.443
-678.208	256.359	-0.079	0.138
-677.193	-200.000	0.085	0.472
-676.178	-87.244	0.104	-0.032
-675.164	-62.763	-0.230	-0.097
-674.149	-73.008	-0.189	0.071
-673.135	470.245	0.012	0.028
-672.120	-95.162	0.141	-0.039
-671.105	-86.911	0.104	-0.032
-670.091	-200.000	-0.012	0.113
-669.076	59.898	0.165	-0.166
-668.062	-21.030	-0.026	-0.016
-667.047	-93.189	-0.337	0.096
-666.032	800.000	0.182	0.574
-665.018	-115.191	0.128	-0.025
-664.003	-42.930	-0.159	0.082
-662.989	800.000	-0.101	0.347
-661.974	112.852	-0.081	0.100
-660.959	177.632	0.180	0.267
-659.945	99.945	0.103	0.122
-658.930	-5.145	-0.120	0.084
-657.916	-168.057	0.114	-0.005
-656.901	216.149	0.024	0.038
-655.886	607.579	-0.183	0.464
-654.872	-8.947	-0.252	-0.172
-653.857	-131.475	-0.264	-0.036
-652.843	-91.996	0.157	-0.045
-651.828	-9.882	-0.134	0.091
-650.814	207.661	-0.202	0.321
-649.799	11.774	-0.209	0.164
-648.784	98.364	0.086	-0.101
-647.770	-62.833	0.133	-0.056
-646.755	63.289	0.090	0.091
-645.741	-189.422	-0.067	0.001
-644.726	-200.000	-0.027	-0.279
-643.711	-153.036	-0.295	-0.021
-642.697	-200.000	0.040	0.380
-641.682	112.919	0.165	0.203
-640.668	67.693	0.170	-0.177
-639.653	-26.758	-0.113	0.067
-638.638	314.278	-0.029	-0.056
-637.624	-200.000	0.027	0.315
-636.609	274.584	-0.121	0.219
-635.595	703.814	-0.029	-0.077
-634.580	-154.759	0.035	-0.002
-633.565	-200.000	-0.003	-0.183
-632.551	286.018	-0.240	-0.440
-631.536	-20.042	0.211	0.133
-630.522	-200.000	-0.012	0.278
-629.507	-156.377	-0.234	0.015
-628.492	-143.286	0.164	-0.016
-627.478	-200.000	0.044	-0.229
-626.463	-32.217	0.220	-0.125
-625.449	-15.703	-0.077	0.050
-624.434	-98.735	-0.205	0.053
-623.419	-86.539	-0.279	0.087
-622.405	30.319	-0.320	0.278
-621.390	635.932	0.089	-0.231
-620.376	800.000	-0.113	0.384
-619.361	-200.000	0.066	0.309
-618.346	-48.654	-0.139	-0.068
-617.332	56.748	0.130	0.129
-616.317	-21.703	-0.269	-0.167
-615.303	63.440	-0.210	0.214
-614.288	37.628	-0.230	-0.208
-613.273	-200.000	-0.017	0.416
-612.259	-59.789	0.362	-0.158
-611.244	-195.522	-0.365	0.003
-610.230	25.872	-0.201	0.171
-609.215	-36.196	0.171	0.094
-608.201	800.000	-0.025	0.088
-607.186	597.749	-0.064	-0.161
-606.171	-110.443	0.068	0.014
-605.157	94.580	-0.094	-0.108
-604.142	47.092	0.095	-0.090
-603.128	-200.000	-0.038	-0.182
-602.113	-20.270	-0.150	0.094
-601.098	-200.000	-0.020	-0.152
-600.084	-200.000	0.006	0.070
-599.069	-200.000	-0.009	-0.175
-598.055	-200.000	0.035	-0.167
-597.040	-104.500	0.336	0.079
-596.025	-200.000	-0.003	-0.271
-595.011	-200.000	0.001	0.237
-593.996	13.582	0.073	0.058
-592.982	-104.184	0.172	-0.041
-591.967	-200.000	-0.005	-0.305
-590.952	-200.000	0.054	0.304
-589.938	-200.000	-0.013	0.331
-588.923	214.384	0.039	-0.063
-587.909	231.740	-0.065	-0.108
-586.894	-45.839	0.207	0.104
-585.879	-84.343	-0.235	0.076
-584.865	86.531	0.099	0.111
-583.850	-200.000	0.007	0.166
-582.836	-60.293	-0.177	-0.077
-581.821	-96.412	-0.070	-0.019
-580.806	800.000	-0.091	0.261
-579.792	-3.403	-0.390	-0.276
-578.777	-103.544	-0.229	-0.055
-577.763	246.311	0.136	0.233
-576.748	790.468	-0.141	-0.394
-575.733	-149.179	-0.073	-0.006
-574.719	-12.605	0.052	0.035
-573.704	-62.099	0.163	-0.069
-572.690	-200.000	-0.047	-0.234
-571.675	-200.000	-0.008	0.222
-570.661	-8.750	0.207	0.141
-569.646	-50.586	-0.145	-0.070
-568.631	-121.056	0.170	-0.029
-567.617	-125.245	0.239	0.037
-566.602	138.827	-0.284	0.379
-565.588	70.542	0.111	-0.117
-564.573	800.000	-0.060	-0.214
-563.558	-165.178	0.351	0.016
-562.544	-61.518	-0.515	-0.220
-561.529	-200.000	0.021	-0.145
-560.515	-5.762	-0.341	-0.237
-559.500	800.000	-0.068	-0.199
-558.485	2.215	-0.194	0.143
-557.471	206.276	0.068	-0.108
-556.456	-118.121	-0.155	0.028
-555.442	-200.000	0.056	0.270
-554.427	800.000	0.113	0.341
-553.412	77.867	-0.155	0.168
-552.398	49.697	0.206	-0.197
-551.383	-94.682	0.264	-0.073
-550.369	-127.404	0.246	-0.036
-549.354	141.433	0.065	-0.088
-548.339	62.067	-0.106	-0.107
-547.325	-54.420	-0.237	0.109
-546.310	83.888	-0.077	0.086
-545.296	-200.000	0.034	-0.291
-544.281	247.546	0.146	0.251
-543.266	216.749	0.131	0.211
-542.252	714.287	0.026	-0.070
-541.237	-200.000	-0.047	-0.228
-540.223	266.368	-0.057	0.100
-539.208	143.225	-0.112	0.152
-538.193	719.625	0.066	0.177
-537.179	15.784	0.029	-0.023
-536.164	-200.000	-0.033	0.166
-535.150	800.000	0.100	-0.387
-534.135	-29.446	-0.060	-0.035
-533.121	-28.358	0.032	-0.019
-532.106	44.388	0.041	-0.038
-531.091	-200.000	0.015	0.138
-530.077	800.000	0.040	-0.130
-529.062	498.240	-0.085	-0.199
-528.048	-200.000	-0.016	-0.128
-527.033	-200.000	0.021	-0.466
-526.018	306.416	0.041	0.077
-525.004	183.101	-0.170	-0.255
-523.989	589.309	0.088	-0.220
-522.975	39.411	-0.214	-0.194
-521.960	169.846	-0.187	-0.270
-520.945	-200.000	0.022	0.201
-519.931	-200.000	-0.017	0.210
-518.916	-42.631	-0.323	-0.166
-517.902	-46.578	-0.326	0.162
-516.887	-200.000	0.008	0.322
-515.872	-200.000	-0.034	-0.164
-514.858	24.803	0.328	-0.275
-513.843	-200.000	-0.005	-0.082
-512.829	-200.000	-0.011	0.364
-511.814	-200.000	-0.036	-0.224
-510.799	800.000	-0.111	0.375
-509.785	-13.995	0.120	0.079
-508.770	-175.042	-0.116	0.003
-507.756	208.348	-0.055	0.087
-506.741	115.029	0.124	0.154
-505.726	-200.000	0.003	0.082
-504.712	-200.000	-0.066	0.476
-503.697	-200.000	0.006	0.197
-502.683	-171.465	-0.167	-0.006
-501.668	234.343	-0.046	-0.076
-500.653	-131.832	0.430	0.057
-499.639	41.685	-0.240	-0.221
-498.624	-86.772	0.291	-0.090
-497.610	60.267	0.150	0.150
-496.595	-81.461	-0.252	0.084
-495.581	-150.028	-0.108	0.009
-494.566	408.252	-0.016	-0.035
-493.551	-200.000	-0.041	0.268
-492.537	-170.431	0.230	-0.008
-491.522	5.390	0.056	0.042
-490.508	800.000	-0.013	0.049
-489.493	39.305	-0.047	-0.043
-488.478	-23.484	0.100	-0.061
-487.464	-16.523	-0.172	0.110
-486.449	-142.388	-0.510	0.051
-485.435	-67.189	-0.134	-0.053
-484.420	130.776	-0.134	0.173
-483.405	-200.000	-0.080	-0.424
-482.391	800.000	-0.121	-0.355
-481.376	127.313	-0.094	-0.121
-480.362	800.000	-0.065	-0.234
-479.347	49.494	-0.211	-0.201
-478.332	197.090	-0.163	-0.251
-477.318	-23.200	-0.239	0.146
-476.303	438.469	0.090	0.198
-475.289	-200.000	-0.014	-0.184
-474.274	49.982	0.191	-0.182
-473.259	54.019	0.109	-0.106
-472.245	80.934	0.180	0.196
-471.230	15.485	0.151	0.120
-470.216	67.572	-0.199	-0.205
-469.201	800.000	-0.048	-0.178
-468.186	-31.807	-0.089	-0.050
-467.172	93.024	-0.233	-0.266
-466.157	-200.000	0.029	-0.326
-465.143	-132.223	-0.225	-0.029
-464.128	-105.085	-0.217	-0.050
-463.113	-127.083	-0.148	0.022
-462.099	637.327	0.035	-0.090
-461.084	429.692	0.186	-0.407
-460.070	-70.933	0.251	0.096
-459.055	800.000	-0.033	0.146
-458.040	-79.967	-0.425	-0.144
-457.026	-62.666	0.195	-0.082
-456.011	-115.402	0.162	-0.031
-454.997	116.467	-0.194	-0.240
-453.982	46.253	-0.159	-0.149
-452.968	-70.216	-0.138	-0.053
-451.953	-200.000	0.011	0.154
-450.938	-184.801	-0.160	0.003
-449.924	240.983	0.313	0.528
-448.909	-95.655	0.147	-0.040
-447.895	-18.952	-0.276	-0.173
-446.880	-149.369	-0.073	0.006
-445.865	-200.000	0.015	0.157
-444.851	55.945	-0.163	-0.160
-443.836	-200.000	0.027	0.142
-442.822	135.032	-0.167	0.219
-441.807	65.213	0.308	-0.314
-440.792	-106.999	0.236	0.053
-439.778	800.000	0.070	0.231
-438.763	218.926	0.086	-0.139
-437.749	-43.012	0.220	0.113
-436.734	45.720	0.108	0.101
-435.719	-200.000	0.001	0.133
-434.705	-150.027	0.179	-0.014
-433.690	96.514	-0.052	-0.060
-432.676	-135.741	0.406	0.049
-431.661	78.751	0.178	-0.193
-430.646	-108.974	0.488	-0.105
-429.632	147.885	-0.229	-0.312
-428.617	-0.173	0.162	-0.116
-427.603	800.000	0.034	0.099
-426.588	800.000	-0.081	0.281
-425.573	-200.000	0.002	0.080
-424.559	800.000	-0.070	-0.287
-423.544	-49.521	0.287	-0.138
-422.530	-67.098	0.191	0.076
-421.515	190.189	0.117	0.177
-420.500	-48.287	0.182	-0.089
-419.486	14.651	0.151	0.119
-418.471	800.000	-0.074	-0.221
-417.457	176.364	-0.160	-0.234
-416.442	-82.240	-0.165	0.054
-415.428	-200.000	-0.018	0.323
-414.413	86.246	-0.109	-0.121
-413.398	-200.000	-0.025	-0.179
-412.384	-100.340	-0.240	-0.060
-411.369	334.667	0.111	-0.216
-410.355	238.676	0.085	0.142
-409.340	-107.360	-0.034	0.008
-408.325	-200.000	-0.027	0.131
-407.311	49.597	0.115	-0.109
-406.296	246.501	0.085	0.145
-405.282	-200.000	0.014	0.261
-404.267	28.812	-0.416	-0.356
-403.252	-158.791	-0.142	0.008
-402.238	-121.417	-0.109	-0.018
-401.223	-17.725	-0.263	-0.167
-400.209	-30.717	-0.205	0.117
-399.194	161.997	0.107	0.151
-398.179	-200.000	0.020	0.121
-397.165	-117.730	0.388	0.070
-396.150	46.415	0.184	0.172
-395.136	-66.971	0.300	0.119
-394.121	-200.000	-0.033	-0.241
-393.106	55.360	-0.192	0.187
-392.092	64.305	-0.317	0.322
-391.077	-91.990	-0.300	0.086
-390.063	-134.901	0.354	0.043
-389.048	43.986	-0.121	-0.111
-388.033	-55.520	0.271	0.122
-387.019	800.000	0.022	-0.085
-386.004	68.770	-0.145	0.150
-384.990	-135.333	0.083	0.010
-383.975	118.698	0.118	0.148
-382.960	-195.138	-0.158	0.001
-381.946	56.630	0.298	0.292
-380.931	-29.921	-0.110	0.063
-379.917	77.200	0.228	0.244
-378.902	-48.971	0.246	0.119
-377.888	-200.000	0.066	0.521
-376.873	-200.000	-0.021	0.253
-375.858	-150.704	-0.289	-0.022
-374.844	-57.942	-0.124	0.055
-373.829	453.402	0.104	-0.232
-372.815	155.487	0.265	0.368
-371.800	18.793	0.042	-0.034
-370.785	-200.000	0.036	-0.515
-369.771	-91.912	0.207	-0.059
-368.756	57.205	0.272	0.268
-367.742	800.000	0.108	0.354
-366.727	-53.843	-0.346	0.159
-365.712	-200.000	-0.018	0.126
-364.698	-78.214	0.097	-0.034
-363.683	800.000	-0.079	0.223
-362.669	800.000	-0.092	-0.391
-361.654	354.664	0.092	-0.183
-360.639	-200.000	-0.023	-0.294
-359.625	-16.702	0.355	0.226
-358.610	223.644	0.062	0.100
-357.596	162.479	0.183	0.258
-356.581	105.436	0.196	-0.233
-355.566	120.765	-0.155	-0.193
-354.552	13.226	0.125	-0.098
-353.537	311.725	-0.149	-0.282
-352.523	0.230	0.249	-0.179
-351.508	248.728	0.118	-0.201
-350.493	114.252	-0.073	-0.090
-349.479	-155.933	-0.108	-0.007
-348.464	-96.769	-0.267	0.071
-347.450	-0.793	0.288	-0.206
-346.435	132.906	-0.110	0.143
-345.420	440.053	0.093	0.205
-344.406	800.000	0.127	-0.406
-343.391	-37.668	0.153	-0.082
-342.377	800.000	-0.023	-0.065
-341.362	151.268	0.100	-0.136
-340.348	-103.632	-0.177	0.042
-339.333	-188.683	0.212	-0.003
-338.318	-46.981	0.171	-0.084
-337.304	-200.000	-0.025	-0.160
-336.289	-103.338	-0.263	-0.062
-335.275	-200.000	-0.007	-0.074
-334.260	-200.000	0.001	0.137
-333.245	75.952	-0.059	-0.062
-332.231	-200.000	-0.012	0.199
-331.216	-85.528	-0.213	-0.067
-330.202	23.442	0.171	0.142
-329.187	-200.000	0.005	-0.102
-328.172	-200.000	0.070	-0.505
-327.158	-200.000	0.085	-0.432
-326.143	333.759	0.120	-0.233
-325.129	360.485	0.057	-0.115
-324.114	-116.466	0.277	-0.051
-323.099	550.112	0.059	-0.142
-322.085	800.000	-0.012	-0.054
-321.070	-200.000	-0.014	0.241
-320.056	680.934	-0.038	0.100
-319.041	36.189	-0.135	0.120
-318.026	20.466	0.043	-0.035
-317.012	-10.577	0.166	-0.110
-315.997	5.330	0.121	0.090
-314.983	655.821	-0.048	-0.125
-313.968	-200.000	0.044	-0.375
-312.953	16.837	0.175	0.139
-311.939	571.370	0.107	0.262
-310.924	77.166	-0.055	-0.059
-309.910	800.000	0.079	0.306
-308.895	-119.132	-0.178	-0.031
-307.880	8.275	-0.160	0.121
-306.866	120.749	0.115	-0.144
-305.851	-73.401	-0.176	0.065
-304.837	-48.869	0.292	-0.141
-303.822	315.518	-0.050	-0.095
-302.807	-78.535	-0.083	-0.028
-301.793	-116.273	0.118	0.022
-300.778	157.441	-0.150	-0.209
-299.764	-148.180	0.323	-0.027
-298.749	-92.356	0.105	-0.030
-297.735	-130.055	-0.375	-0.051
-296.720	800.000	0.051	0.179
-295.705	800.000	-0.053	-0.182
-294.691	-17.971	0.195	-0.123
-293.676	-162.257	-0.204	-0.010
-292.662	-68.765	0.365	0.142
-291.647	6.814	0.219	0.164
-290.632	-2.336	-0.192	-0.135
-289.618	139.488	0.080	0.106
-288.603	-200.000	-0.035	0.248
-287.589	209.737	0.301	0.473
-286.574	-200.000	0.036	0.161
-285.559	392.627	0.085	0.177
-284.545	25.351	0.109	0.091
-283.530	-200.000	-0.013	-0.382
-282.516	-200.000	-0.006	0.112
-281.501	-200.000	0.021	-0.248
-280.486	639.381	0.045	-0.116
-279.472	-0.102	-0.172	-0.123
-278.457	-200.000	-0.003	0.256
-277.443	670.867	0.100	0.260
-276.428	-75.421	-0.262	-0.094
-275.413	-17.351	0.158	0.100
-274.399	237.075	-0.051	-0.084
-273.384	-56.802	0.184	0.081
-272.370	58.383	0.134	-0.132
-271.355	81.490	-0.148	-0.161
-270.340	-65.342	-0.172	0.069
-269.326	-200.000	-0.005	0.135
-268.311	236.955	0.094	0.156
-267.297	395.571	-0.074	-0.155
-266.282	-113.221	0.221	-0.044
-265.267	-200.000	-0.009	0.093
-264.253	92.841	-0.188	-0.213
-263.238	10.210	-0.221	-0.169
-262.224	340.464	-0.064	-0.125
-261.209	-34.580	-0.094	-0.051
-260.195	369.083	0.140	-0.285
-259.180	-43.593	0.041	-0.021
-258.165	619.014	-0.068	-0.172
-257.151	27.866	0.088	0.074
-256.136	38.287	-0.203	0.181
-255.122	-100.307	-0.182	0.045
-254.107	529.803	-0.139	0.328
-253.092	348.314	0.106	-0.209
-252.078	800.000	0.029	0.089
-251.063	167.247	-0.172	0.244
-250.049	-151.317	-0.092	0.007
-249.034	-3.618	0.167	0.116
-248.019	323.981	-0.035	0.067
-247.005	-200.000	0.018	-0.138
-245.990	-171.626	-0.167	0.006
-244.976	216.149	0.071	0.113
-243.961	-145.077	0.157	-0.014
-242.946	-32.224	0.171	-0.096
-241.932	-200.000	0.000	-0.005
-240.917	-51.535	-0.177	0.083
-239.903	15.691	-0.210	-0.165
-238.888	552.407	0.018	0.044
-237.873	289.699	0.094	-0.171
-236.859	115.525	0.163	0.200
-235.844	-62.706	-0.369	-0.153
-234.830	-150.165	-0.254	-0.020
-233.815	-50.876	-0.092	-0.043
-232.800	72.507	-0.163	-0.170
-231.786	115.655	-0.027	-0.033
-230.771	-185.902	-0.388	-0.006
-229.757	-0.597	0.038	0.027
-228.742	-3.785	-0.129	0.090
-227.727	-52.415	0.041	-0.019
-226.713	-83.618	-0.120	-0.039
-225.698	96.597	-0.108	0.124
-224.684	-200.000	-0.019	0.237
-223.669	69.718	-0.148	-0.152
-222.655	111.224	0.080	-0.096
-221.640	-200.000	-0.010	0.051
-220.625	4.259	0.204	0.150
-219.611	-200.000	-0.002	-0.066
-218.596	-2.372	-0.261	-0.183
-217.582	-113.888	0.237	0.046
-216.567	74.916	0.146	0.154
-215.552	-200.000	-0.026	0.136
-214.538	-76.851	-0.429	-0.150
-213.523	-19.413	-0.408	-0.253
-212.509	800.000	-0.066	-0.245
-211.494	800.000	0.113	-0.322
-210.479	119.632	0.365	-0.453
-209.465	-54.809	0.292	0.132
-208.450	50.631	-0.061	-0.058
-207.436	-132.579	-0.068	-0.009
-206.421	234.748	0.037	0.062
-205.406	-200.000	-0.008	-0.256
-204.392	175.084	-0.109	0.158
-203.377	-200.000	0.011	-0.085
-202.363	-136.863	0.402	-0.046
-201.348	-200.000	-0.017	0.099
-200.333	336.646	-0.185	0.359
-199.319	-106.177	-0.073	0.016
-198.304	-171.707	-0.136	0.004
-197.290	24.641	0.236	0.196
-196.275	-200.000	-0.031	0.274
-195.260	56.694	-0.069	0.067
-194.246	277.089	0.113	0.202
-193.231	61.109	0.252	-0.250
-192.217	-72.685	-0.208	-0.077
-191.202	-200.000	-0.008	-0.151
-190.187	418.313	0.221	-0.473
-189.173	429.619	0.134	0.290
-188.158	-30.259	-0.139	0.079
-187.144	152.742	0.177	0.241
-186.129	69.430	-0.071	-0.073
-185.114	60.201	0.238	0.235
-184.100	800.000	0.011	0.034
-183.085	-200.000	0.027	0.160
-182.071	-200.000	-0.041	0.253
-181.056	-151.024	-0.259	-0.020
-180.042	150.292	0.274	0.372
-179.027	-143.039	0.174	-0.017
-178.012	17.632	0.114	-0.091
-176.998	-200.000	-0.002	-0.227
-175.983	298.354	0.152	0.280
-174.969	-200.000	-0.040	0.283
-173.954	-44.682	-0.330	0.165
-172.939	-88.664	0.136	-0.040
-171.925	-154.827	0.238	0.016
-170.910	-99.432	0.211	-0.053
-169.896	307.585	0.038	-0.071
-168.881	-8.281	0.501	0.337
-167.866	244.498	-0.131	-0.219
-166.852	-93.672	0.174	0.048
-165.837	800.000	0.033	-0.122
-164.823	-120.668	-0.027	0.005
-163.808	147.340	-0.154	0.207
-162.793	-111.520	-0.221	0.045
-161.779	-200.000	-0.029	0.204
-160.764	139.937	0.192	0.253
-159.750	15.572	0.136	-0.107
-158.735	125.580	-0.068	0.085
-157.720	208.765	-0.139	0.218
-156.706	188.274	-0.085	0.127
-155.691	-200.000	-0.018	0.129
-154.677	-200.000	-0.058	-0.278
-153.662	781.959	0.044	-0.121
-152.647	-200.000	-0.017	-0.074
-151.633	-80.842	0.337	0.112
-150.618	-4.290	-0.460	-0.318
-149.604	-200.000	-0.031	-0.399
-148.589	-200.000	-0.045	-0.393
-147.574	-78.781	-0.065	0.022
-146.560	-68.588	0.090	0.035
-145.545	6.309	0.214	-0.158
-144.531	94.099	-0.111	-0.125
-143.516	238.246	-0.104	0.172
-142.502	656.469	-0.152	0.391
-141.487	800.000	-0.051	-0.184
-140.472	2.250	-0.172	-0.124
-139.458	-200.000	0.034	0.189
-138.443	-200.000	0.017	0.254
-137.429	800.000	0.072	-0.208
-136.414	-49.632	0.113	0.054
-135.399	187.360	0.154	-0.229
-134.385	-12.428	0.273	0.178
-133.370	-1.180	-0.394	0.278
-132.356	-200.000	0.020	0.201
-131.341	335.980	-0.066	0.127
-130.326	624.870	0.068	0.171
-129.312	-79.837	0.292	-0.098
-128.297	-40.319	0.288	0.150
-127.283	31.035	0.119	-0.102
-126.268	-200.000	-0.069	-0.311
-125.253	798.079	0.103	0.283
-124.239	33.442	-0.216	0.187
-123.224	-9.015	-0.359	0.240
-122.210	-200.000	-0.008	-0.068
-121.195	423.701	-0.142	-0.304
