DTS Sentinel unit serial number:	SN413079Multiplexer serial number:	ORYXHardware model number:	OX4-SRSoftware version number:	ORYX F/W v4.00 Oryx Data Collector v3.7.2.0data status	okinstallation	princeton_trtdifferential loss correction	single-endedforward channel	channel 3reverse channel	N/Adate	2019/09/17time	15:08:35forward acquisition time	60.00reverse acquisition time	0.00gamma	496.2192k internal	0.2295k external	0.2295temperature offset calibration	0.9954default loss term (dB/km)	0.3790temperature slope calibration	1.0000multiplexer offset coefficient	1.0000multiplexer slope coefficient	1.0000fibre end	0.00T internal ref (°C)	37.61T ext. ref 1 (°C)	0.38T ext. ref 2 (°C)	34.26length (m)	temperature (°C)	Stokes	anti-Stokes-747.200	58.642	0.192	0.193
-746.185	105.202	0.178	0.215
-745.171	118.503	0.167	-0.211
-744.156	-37.039	0.124	-0.068
-743.142	97.956	0.090	-0.106
-742.127	-83.783	0.047	-0.015
-741.112	-148.340	0.208	-0.017
-740.098	-40.737	-0.338	0.179
-739.083	214.558	0.043	0.070
-738.069	182.249	-0.124	0.187
-737.054	45.404	-0.123	-0.116
-736.039	129.172	-0.069	-0.090
-735.025	332.603	0.107	-0.212
-734.010	-19.171	-0.133	0.084
-732.996	-200.000	0.020	-0.147
-731.981	2.257	-0.352	0.260
-730.966	116.848	0.253	-0.317
-729.952	800.000	-0.094	-0.281
-728.937	-200.000	0.040	0.245
-727.923	-149.279	-0.156	0.013
-726.908	496.339	0.083	-0.195
-725.894	800.000	-0.088	0.286
-724.879	-200.000	-0.012	-0.118
-723.864	439.746	-0.071	0.158
-722.850	-3.287	-0.215	0.153
-721.835	-51.856	-0.122	-0.058
-720.821	777.339	0.077	0.215
-719.806	-200.000	-0.060	-0.270
-718.791	123.481	-0.220	-0.282
-717.777	-200.000	0.003	0.383
-716.762	-200.000	0.007	-0.096
-715.748	-25.647	-0.134	0.081
-714.733	43.891	0.105	0.098
-713.718	-65.243	0.268	-0.110
-712.704	-68.226	-0.353	0.140
-711.689	-110.973	0.050	-0.010
-710.675	-200.000	-0.053	-0.398
-709.660	-37.468	0.124	-0.067
-708.645	-200.000	0.013	-0.193
-707.631	800.000	0.019	-0.075
-706.616	-30.116	-0.232	-0.135
-705.602	-173.413	0.205	0.006
-704.587	-82.016	0.177	0.059
-703.572	-98.166	0.426	0.112
-702.558	-148.330	-0.211	0.018
-701.543	166.028	0.137	0.198
-700.529	9.879	-0.130	0.100
-699.514	-195.919	0.159	0.001
-698.499	85.146	0.045	-0.050
-697.485	-50.179	0.184	0.089
-696.470	-32.664	0.120	0.068
-695.456	-59.031	0.222	-0.098
-694.441	-200.000	-0.044	-0.232
-693.426	-10.304	-0.079	0.053
-692.412	-200.000	0.034	-0.205
-691.397	-126.631	0.214	-0.032
-690.383	-56.248	-0.059	-0.027
-689.368	800.000	0.116	-0.363
-688.354	-4.969	0.131	-0.092
-687.339	-146.941	0.210	-0.018
-686.324	2.777	-0.273	-0.202
-685.310	-131.469	0.101	-0.014
-684.295	800.000	0.018	0.071
-683.281	800.000	0.092	-0.405
-682.266	-124.217	0.332	0.053
-681.251	112.245	-0.205	0.253
-680.237	-174.849	-0.264	0.008
-679.222	-200.000	0.037	-0.212
-678.208	87.324	-0.185	-0.208
-677.193	82.098	-0.056	0.062
-676.178	123.852	0.272	0.348
-675.164	-200.000	0.037	-0.377
-674.149	302.943	-0.194	-0.366
-673.135	-64.152	-0.168	-0.070
-672.120	600.590	-0.108	0.274
-671.105	-116.929	-0.130	0.024
-670.091	156.432	0.119	-0.167
-669.076	233.707	-0.122	-0.205
-668.062	-60.071	0.187	0.081
-667.047	164.451	-0.124	0.178
-666.032	800.000	-0.113	0.419
-665.018	263.167	0.038	-0.068
-664.003	4.460	-0.173	-0.129
-662.989	51.822	0.091	-0.088
-661.974	38.095	-0.194	-0.176
-660.959	-70.609	-0.245	-0.095
-659.945	114.108	-0.062	0.077
-658.930	207.526	0.150	-0.238
-657.916	97.816	0.088	0.103
-656.901	394.501	0.142	-0.301
-655.886	392.104	0.070	-0.147
-654.872	162.378	0.065	0.093
-653.857	-200.000	0.016	0.166
-652.843	8.917	0.287	-0.220
-651.828	-75.950	-0.116	0.042
-650.814	5.167	-0.172	0.129
-649.799	172.128	0.085	-0.125
-648.784	327.941	0.174	-0.341
-647.770	-200.000	-0.085	0.407
-646.755	406.515	-0.040	0.086
-645.741	800.000	-0.023	-0.074
-644.726	655.669	0.093	-0.243
-643.711	-200.000	0.059	-0.276
-642.697	-22.585	-0.162	-0.100
-641.682	-22.316	-0.127	-0.078
-640.668	800.000	0.162	0.460
-639.653	366.103	-0.116	0.239
-638.638	-200.000	-0.007	0.373
-637.624	153.746	-0.241	0.335
-636.609	187.870	0.191	0.290
-635.595	31.130	0.088	-0.077
-634.580	-200.000	-0.001	0.034
-633.565	-35.387	-0.184	0.102
-632.551	273.929	-0.152	0.274
-631.536	-200.000	0.000	0.060
-630.522	60.116	-0.078	-0.078
-629.507	800.000	-0.201	-0.568
-628.492	800.000	-0.046	-0.180
-627.478	-108.480	0.350	0.077
-626.463	800.000	0.063	0.186
-625.449	168.649	0.089	-0.130
-624.434	-75.619	0.092	0.033
-623.419	5.037	0.118	-0.089
-622.405	233.096	0.023	0.039
-621.390	-84.214	0.260	-0.084
-620.376	-200.000	-0.033	-0.468
-619.361	-78.996	-0.306	0.106
-618.346	152.171	-0.186	0.258
-617.332	217.845	-0.204	0.331
-616.317	800.000	-0.019	-0.077
-615.303	-200.000	-0.008	-0.266
-614.288	109.038	0.086	0.104
-613.273	7.032	0.232	0.176
-612.259	4.866	-0.257	0.192
-611.244	206.644	0.118	0.186
-610.230	-200.000	0.016	-0.248
-609.215	-14.968	-0.193	0.126
-608.201	94.498	-0.287	0.332
-607.186	463.518	0.222	-0.505
-606.171	-81.119	0.162	0.054
-605.157	33.510	-0.211	-0.186
-604.142	-80.163	0.334	0.114
-603.128	-135.196	0.242	0.030
-602.113	-18.281	-0.194	0.124
-601.098	530.035	0.086	-0.206
-600.084	309.582	-0.124	-0.235
-599.069	-11.909	-0.068	-0.045
-598.055	-31.319	-0.231	-0.132
-597.040	-97.153	0.249	0.066
-596.025	152.837	0.192	-0.266
-595.011	-38.077	-0.349	0.188
-593.996	584.701	-0.073	-0.183
-592.982	-28.703	0.325	0.190
-591.967	-171.985	0.165	0.005
-590.952	-115.582	0.407	0.078
-589.938	213.348	0.081	0.130
-588.923	-93.045	-0.047	-0.013
-587.909	65.229	0.147	0.151
-586.894	-200.000	-0.031	0.270
-585.879	-125.841	-0.184	-0.028
-584.865	-200.000	0.062	-0.306
-583.850	-14.470	-0.097	-0.063
-582.836	92.931	0.221	-0.254
-581.821	-200.000	-0.088	0.467
-580.806	-153.469	0.133	0.009
-579.792	-200.000	-0.025	-0.182
-578.777	-6.963	-0.108	-0.075
-577.763	-62.551	-0.196	0.083
-576.748	-200.000	-0.007	-0.162
-575.733	-20.052	-0.289	-0.181
-574.719	-200.000	0.029	-0.357
-573.704	13.820	-0.110	-0.087
-572.690	-200.000	-0.019	0.173
-571.675	-72.240	0.073	0.027
-570.661	-200.000	0.025	-0.115
-569.646	-200.000	-0.041	-0.201
-568.631	294.344	0.126	0.234
-567.617	-24.790	0.028	0.017
-566.602	-200.000	0.008	0.226
-565.588	-1.586	-0.180	0.128
-564.573	-133.276	0.284	0.036
-563.558	-200.000	0.014	0.346
-562.544	-200.000	-0.033	0.376
-561.529	255.706	0.139	0.242
-560.515	34.077	-0.060	-0.053
-559.500	336.913	0.057	0.113
-558.485	26.782	0.136	-0.115
-557.471	800.000	0.078	-0.242
-556.456	1.989	0.056	0.041
-555.442	-7.214	-0.139	0.096
-554.427	336.389	0.117	0.230
-553.412	69.867	-0.178	0.186
-552.398	800.000	0.034	0.108
-551.383	-16.563	-0.152	-0.097
-550.369	-200.000	0.004	0.337
-549.354	-173.032	-0.139	-0.004
-548.339	261.261	0.164	-0.288
-547.325	281.468	0.042	-0.076
-546.310	-64.801	-0.172	0.070
-545.296	-68.845	0.176	0.069
-544.281	333.046	-0.101	-0.197
-543.266	729.880	0.016	0.044
-542.252	800.000	0.144	-0.419
-541.237	35.432	0.107	0.095
-540.223	51.927	-0.117	-0.113
-539.208	-200.000	-0.054	-0.478
-538.193	800.000	-0.023	0.095
-537.179	-37.556	0.344	-0.186
-536.164	-200.000	-0.020	0.166
-535.150	63.172	0.223	0.226
-534.135	310.965	0.143	0.272
-533.121	800.000	-0.038	-0.112
-532.106	-84.038	0.204	-0.066
-531.091	-200.000	0.005	-0.384
-530.077	113.049	-0.129	-0.158
-529.062	-124.853	0.020	-0.003
-528.048	-48.142	0.114	-0.056
-527.033	-24.073	-0.200	0.121
-526.018	192.504	0.120	0.183
-525.004	17.877	0.196	0.158
-523.989	-200.000	-0.026	-0.407
-522.975	22.562	0.095	0.079
-521.960	800.000	0.136	0.385
-520.945	-84.405	0.385	-0.123
-519.931	29.513	0.086	-0.074
-518.916	186.136	-0.075	0.114
-517.902	-131.936	0.214	-0.028
-516.887	743.405	-0.085	-0.232
-515.872	800.000	-0.100	-0.373
-514.858	-200.000	-0.034	0.155
-513.843	-56.580	0.110	0.049
-512.829	-96.979	-0.254	-0.068
-511.814	-102.883	0.142	-0.034
-510.799	0.129	-0.091	0.066
-509.785	-48.167	0.100	0.049
-508.770	-161.292	-0.212	-0.011
-507.756	-109.104	0.211	0.046
-506.741	-22.797	-0.173	0.106
-505.726	250.398	0.199	-0.342
-504.712	-37.503	-0.237	-0.128
-503.697	6.082	0.318	-0.238
-502.683	-131.510	0.209	-0.028
-501.668	-117.080	-0.388	-0.072
-500.653	537.210	0.168	-0.405
-499.639	276.840	0.194	-0.349
-498.624	-108.167	0.130	0.028
-497.610	800.000	0.031	0.125
-496.595	-101.240	-0.243	0.060
-495.581	451.400	-0.136	0.304
-494.566	-65.706	-0.043	-0.017
-493.551	18.015	-0.155	-0.125
-492.537	310.719	0.132	-0.250
-491.522	270.058	0.193	-0.344
-490.508	-105.404	0.215	-0.050
-489.493	116.576	-0.210	-0.261
-488.478	496.123	-0.050	-0.116
-487.464	189.858	0.080	-0.122
-486.449	800.000	0.044	0.166
-485.435	-119.494	-0.403	0.071
-484.420	-200.000	0.024	0.166
-483.405	-155.968	0.079	0.005
-482.391	-200.000	0.025	-0.177
-481.376	51.372	0.262	-0.251
-480.362	363.414	0.083	-0.169
-479.347	101.818	-0.226	-0.267
-478.332	16.363	0.096	0.077
-477.318	-105.563	0.241	0.055
-476.303	-113.978	-0.136	0.027
-475.289	304.380	-0.163	0.305
-474.274	564.752	0.105	0.257
-473.259	-200.000	0.002	-0.042
-472.245	-92.925	0.029	0.008
-471.230	96.569	-0.178	-0.206
-470.216	-65.123	0.156	-0.064
-469.201	-23.185	0.177	0.108
-468.186	44.833	0.106	-0.099
-467.172	543.396	0.088	0.213
-466.157	-118.915	-0.204	-0.036
-465.143	-159.657	-0.064	0.004
-464.128	-200.000	-0.009	-0.086
-463.113	-89.378	-0.177	0.053
-462.099	177.414	0.222	-0.327
-461.084	450.838	0.094	0.210
-460.070	32.398	-0.197	0.172
-459.055	-63.465	-0.076	-0.031
-458.040	-66.643	-0.264	0.106
-457.026	-81.691	-0.257	0.085
-456.011	25.892	-0.053	0.045
-454.997	31.791	0.209	-0.182
-453.982	583.505	-0.131	0.325
-452.968	800.000	0.030	-0.083
-451.953	-200.000	0.012	-0.118
-450.938	800.000	0.111	-0.327
-449.924	-200.000	-0.016	0.138
-448.909	-41.592	0.127	0.066
-447.895	-105.458	0.327	0.075
-446.880	-31.692	-0.393	-0.223
-445.865	-103.424	0.165	0.039
-444.851	800.000	0.029	-0.127
-443.836	233.919	0.093	-0.154
-442.822	-19.838	0.218	-0.136
-441.807	230.449	0.056	0.092
-440.792	309.850	0.067	0.127
-439.778	-43.721	0.096	-0.049
-438.763	-200.000	-0.002	-0.090
-437.749	800.000	-0.024	0.094
-436.734	113.185	-0.054	0.066
-435.719	-105.481	0.135	0.031
-434.705	103.565	0.141	-0.167
-433.690	-140.106	-0.107	-0.011
-432.676	55.803	0.156	-0.152
-431.661	394.535	-0.043	-0.090
-430.646	-90.282	0.220	-0.065
-429.632	-200.000	0.027	-0.371
-428.617	800.000	0.022	0.093
-427.603	-200.000	-0.067	0.479
-426.588	174.859	0.023	-0.034
-425.573	-115.444	-0.241	0.046
-424.559	-100.091	-0.061	0.015
-423.544	-35.438	0.142	-0.078
-422.530	144.325	-0.251	0.338
-421.515	-200.000	-0.005	-0.076
-420.500	-5.629	-0.169	0.117
-419.486	146.128	-0.153	-0.207
-418.471	800.000	-0.030	-0.100
-417.457	-200.000	-0.008	0.178
-416.442	4.618	0.116	-0.086
-415.428	547.373	0.165	0.399
-414.413	169.544	-0.153	0.220
-413.398	16.297	0.401	0.319
-412.384	-200.000	0.014	0.083
-411.369	77.155	0.232	0.248
-410.355	80.394	0.177	0.193
-409.340	314.530	-0.051	0.097
-408.325	-142.412	-0.066	0.007
-407.311	800.000	-0.093	-0.320
-406.296	240.897	0.092	0.155
-405.282	-107.914	-0.298	0.065
-404.267	-74.439	0.142	-0.052
-403.252	-200.000	-0.015	0.089
-402.238	-74.241	-0.127	-0.046
-401.223	-200.000	0.009	-0.151
-400.209	-72.397	-0.155	-0.058
-399.194	373.254	-0.073	-0.150
-398.179	155.853	0.153	0.212
-397.165	800.000	0.058	-0.171
-396.150	420.890	-0.143	0.310
-395.136	-36.563	0.237	0.129
-394.121	42.760	0.127	0.117
-393.106	-56.257	0.084	-0.038
-392.092	149.212	-0.091	0.124
-391.077	-21.018	-0.061	0.038
-390.063	-200.000	-0.011	-0.071
-389.048	-49.572	0.202	0.097
-388.033	800.000	0.072	0.211
-387.019	541.446	-0.112	-0.269
-386.004	-140.712	-0.293	-0.031
-384.990	73.409	-0.125	-0.131
-383.975	418.554	-0.083	-0.179
-382.960	-169.727	-0.144	-0.005
-381.946	-146.916	-0.231	0.020
-380.931	645.875	-0.057	0.146
-379.917	800.000	0.119	0.349
-378.902	-200.000	-0.032	0.372
-377.888	383.240	0.122	-0.252
-376.873	296.620	-0.073	-0.135
-375.858	-91.903	-0.229	0.065
-374.844	470.544	0.041	0.094
-373.829	177.563	-0.166	0.244
-372.815	-176.725	-0.258	0.007
-371.800	102.594	0.036	-0.043
-370.785	-139.586	0.382	0.041
-369.771	63.811	-0.084	-0.085
-368.756	-53.737	-0.267	0.123
-367.742	-200.000	-0.035	-0.377
-366.727	-53.542	-0.005	-0.002
-365.712	-50.140	0.062	-0.029
-364.698	19.205	-0.072	0.058
-363.683	-162.391	-0.116	0.006
-362.669	485.982	0.072	0.166
-361.654	-139.320	-0.292	-0.032
-360.639	289.888	-0.038	0.070
-359.625	-163.644	0.166	0.008
-358.610	-158.854	0.302	0.017
-357.596	-141.420	-0.274	0.028
-356.581	-200.000	-0.010	-0.247
-355.566	-126.150	0.043	-0.007
-354.552	21.352	-0.130	-0.106
-353.537	34.843	0.306	0.269
-352.523	23.210	-0.193	-0.160
-351.508	59.753	-0.201	0.200
-350.493	-13.549	0.068	-0.044
-349.479	-200.000	-0.034	-0.179
-348.464	-200.000	0.029	0.152
-347.450	-200.000	-0.008	0.197
-346.435	-124.168	-0.369	0.058
-345.420	-18.960	0.309	0.193
-344.406	-36.286	-0.246	0.133
-343.391	-200.000	0.008	0.115
-342.377	18.505	0.170	-0.136
-341.362	159.189	-0.083	0.116
-340.348	-99.441	0.079	0.020
-339.333	477.774	0.078	0.178
-338.318	121.836	-0.237	0.298
-337.304	-200.000	0.018	-0.237
-336.289	-118.653	0.101	-0.018
-335.275	84.756	-0.085	0.093
-334.260	385.020	-0.095	-0.196
-333.245	-90.477	0.160	0.047
-332.231	747.815	0.066	-0.179
-331.216	-146.893	0.266	0.023
-330.202	-133.044	0.050	0.006
-329.187	-133.548	-0.151	-0.019
-328.172	-102.079	-0.121	0.029
-327.158	23.822	-0.259	0.215
-326.143	491.027	0.148	-0.340
-325.129	-136.746	0.477	-0.055
-324.114	120.908	0.255	-0.319
-323.099	218.204	-0.109	-0.175
-322.085	280.872	0.144	0.259
-321.070	-129.692	0.322	-0.045
-320.056	16.933	0.081	-0.065
-319.041	39.681	0.070	-0.063
-318.026	57.155	0.276	0.271
-317.012	-51.750	0.099	-0.046
-315.997	79.449	-0.078	-0.084
-314.983	27.958	-0.145	-0.123
-313.968	800.000	-0.071	-0.216
-312.953	800.000	-0.035	-0.144
-311.939	13.675	-0.185	-0.144
-310.924	-31.008	-0.355	0.201
-309.910	-200.000	0.012	0.165
-308.895	-200.000	-0.005	0.209
-307.880	86.741	0.147	-0.164
-306.866	678.838	-0.142	-0.371
-305.851	-200.000	0.009	-0.290
-304.837	720.814	-0.021	0.056
-303.822	725.412	0.064	0.172
-302.807	362.533	-0.141	-0.284
-301.793	-200.000	-0.008	-0.084
-300.778	-102.047	0.354	0.086
-299.764	-200.000	0.006	0.136
-298.749	-167.807	-0.254	-0.010
-297.735	405.194	0.186	-0.393
-296.720	-200.000	-0.054	-0.361
-295.705	514.790	0.025	-0.058
-294.691	438.308	-0.194	0.424
-293.676	800.000	0.051	0.179
-292.662	800.000	0.123	0.441
-291.647	401.670	-0.109	0.231
-290.632	-200.000	-0.025	0.261
-289.618	111.123	0.012	-0.015
-288.603	-200.000	-0.008	-0.035
-287.589	592.111	0.140	-0.347
-286.574	800.000	-0.062	-0.183
-285.559	-118.586	-0.056	0.010
-284.545	800.000	-0.048	-0.139
-283.530	97.117	0.194	0.223
-282.516	-130.665	-0.046	-0.006
-281.501	-100.589	0.330	-0.082
-280.486	-189.614	-0.088	-0.001
-279.472	-200.000	0.014	-0.401
-278.457	72.283	-0.178	-0.187
-277.443	189.566	0.211	0.318
-276.428	172.031	-0.199	-0.287
-275.413	-166.604	-0.319	0.013
-274.399	-200.000	0.011	0.245
-273.384	254.472	-0.105	-0.180
-272.370	-200.000	-0.054	-0.366
-271.355	60.219	0.081	0.080
-270.340	63.906	0.118	-0.119
-269.326	4.414	0.261	0.192
-268.311	166.347	0.129	0.184
-267.297	644.005	-0.026	-0.067
-266.282	800.000	-0.067	0.227
-265.267	800.000	0.028	0.101
-264.253	-71.392	-0.250	0.094
-263.238	457.541	0.070	-0.155
-262.224	800.000	0.020	0.072
-261.209	-0.061	-0.192	-0.137
-260.195	162.970	-0.163	-0.230
-259.180	-150.326	-0.354	0.027
-258.165	171.459	0.163	0.234
-257.151	7.899	-0.116	0.087
-256.136	-101.820	-0.413	0.100
-255.122	288.635	-0.194	-0.353
-254.107	-200.000	0.046	0.206
-253.092	-90.072	-0.261	0.076
-252.078	800.000	0.069	-0.207
-251.063	72.946	-0.155	0.163
-250.049	-200.000	-0.005	0.098
-249.034	34.393	-0.114	0.100
-248.019	-137.657	0.080	-0.009
-247.005	252.872	0.127	-0.217
-245.990	-200.000	-0.015	-0.074
-244.976	17.905	-0.023	-0.018
-243.961	-100.552	-0.374	-0.093
-242.946	37.725	-0.144	-0.128
-241.932	133.927	-0.125	0.162
-240.917	-61.558	-0.066	0.028
-239.903	-200.000	-0.014	-0.231
-238.888	-79.472	0.181	-0.061
-237.873	800.000	-0.077	0.281
-236.859	78.163	0.096	0.103
-235.844	187.812	0.065	-0.097
-234.830	95.167	0.204	0.232
-233.815	156.869	-0.148	0.205
-232.800	-49.580	-0.086	-0.041
-231.786	-78.857	-0.124	0.042
-230.771	-34.396	0.103	-0.057
-229.757	234.632	0.123	-0.203
-228.742	53.067	-0.263	-0.252
-227.727	-200.000	-0.009	-0.067
-226.713	216.165	0.118	-0.188
-225.698	119.358	-0.264	-0.327
-224.684	-76.776	0.259	-0.091
-223.669	89.465	-0.105	0.118
-222.655	100.420	0.282	-0.328
-221.640	800.000	0.093	-0.256
-220.625	-115.155	-0.347	0.066
-219.611	-86.766	0.033	-0.010
-218.596	-26.889	0.203	0.119
-217.582	102.079	0.318	0.372
-216.567	-19.336	-0.270	-0.168
-215.552	-200.000	0.023	0.322
-214.538	-153.104	-0.372	-0.026
-213.523	800.000	0.087	-0.276
-212.509	123.246	-0.276	0.346
-211.494	271.551	0.049	0.086
-210.479	-16.398	-0.239	-0.152
-209.465	225.957	0.089	-0.144
-208.450	-200.000	0.014	-0.118
-207.436	-70.780	0.212	0.080
-206.421	-8.959	-0.134	0.090
-205.406	-56.452	-0.311	-0.138
-204.392	-131.290	0.164	0.022
-203.377	-40.248	0.195	-0.102
-202.363	14.308	0.157	-0.123
-201.348	29.544	0.033	0.028
-200.333	-130.335	0.343	-0.047
-199.319	-200.000	-0.068	-0.330
-198.304	96.653	0.297	0.340
-197.290	-200.000	-0.016	-0.227
-196.275	-12.145	-0.223	0.146
-195.260	251.256	0.129	0.219
-194.246	-26.801	-0.102	-0.060
-193.231	695.232	-0.078	-0.204
-192.217	271.841	0.129	0.228
-191.202	-200.000	0.017	0.113
-190.187	-40.472	0.143	0.074
-189.173	-200.000	-0.006	0.369
-188.158	-4.238	-0.223	0.155
-187.144	-106.053	-0.147	0.033
-186.129	-12.828	0.109	0.071
-185.114	800.000	-0.090	-0.294
-184.100	800.000	0.099	-0.425
-183.085	-54.255	-0.135	0.061
-182.071	233.499	-0.102	-0.167
-181.056	800.000	0.117	0.357
-180.042	121.976	-0.063	0.078
-179.027	-64.064	0.096	0.039
-178.012	55.029	-0.149	0.144
-176.998	800.000	-0.053	-0.153
-175.983	-200.000	0.016	0.139
-174.969	331.890	0.173	-0.335
-173.954	-84.120	0.231	-0.073
-172.939	253.174	0.138	0.236
-171.925	199.085	0.104	0.159
-170.910	-156.320	-0.232	-0.015
-169.896	-182.230	-0.165	0.003
-168.881	800.000	0.019	0.056
-167.866	-68.079	0.075	-0.029
-166.852	33.190	0.096	-0.083
-165.837	800.000	-0.077	-0.269
-164.823	-39.466	-0.193	-0.101
-163.808	-117.426	0.328	0.059
-162.793	-73.354	-0.276	0.101
-161.779	-14.933	-0.407	-0.261
-160.764	77.306	-0.147	0.157
-159.750	-200.000	-0.014	0.277
-158.735	59.410	-0.219	0.215
-157.720	-48.990	-0.026	-0.013
-156.706	-93.963	0.487	0.134
-155.691	800.000	-0.045	0.179
-154.677	-31.779	-0.286	0.160
-153.662	-13.141	0.316	0.205
-152.647	-200.000	0.022	0.200
-151.633	-79.444	0.123	-0.041
-150.618	509.441	-0.046	-0.106
-149.604	-79.375	-0.308	0.104
-148.589	69.035	-0.090	-0.092
-147.574	156.553	-0.154	0.213
-146.560	-200.000	-0.031	0.232
-145.545	-200.000	-0.009	0.093
-144.531	-200.000	0.054	-0.241
-143.516	800.000	0.039	0.143
-142.502	-200.000	-0.001	0.112
-141.487	150.776	-0.034	-0.046
-140.472	4.155	0.121	0.088
-139.458	329.538	-0.085	-0.164
-138.443	-200.000	0.046	-0.325
-137.429	-200.000	-0.024	-0.169
-136.414	-200.000	0.031	-0.291
-135.399	-93.930	-0.126	-0.035
-134.385	322.716	0.131	-0.250
-133.370	15.217	-0.168	-0.131
-132.356	337.398	0.183	-0.355
-131.341	-160.766	0.476	0.025
-130.326	800.000	0.022	0.084
-129.312	-101.719	0.292	-0.071
-128.297	-63.102	-0.174	-0.072
-127.283	729.789	0.016	-0.043
-126.268	42.414	0.226	-0.205
-125.253	-138.638	0.247	-0.027
-124.239	-200.000	-0.008	0.124
-123.224	-200.000	-0.024	0.224
-122.210	800.000	0.026	0.097
-121.195	26.748	0.177	0.148
