DTS Sentinel unit serial number:	SN413079Multiplexer serial number:	ORYXHardware model number:	OX4-SRSoftware version number:	ORYX F/W v4.00 Oryx Data Collector v3.7.2.0data status	okinstallation	princeton_trtdifferential loss correction	single-endedforward channel	channel 3reverse channel	N/Adate	2019/09/14time	01:16:34forward acquisition time	60.00reverse acquisition time	0.00gamma	496.2192k internal	0.2339k external	0.2339temperature offset calibration	1.0053default loss term (dB/km)	0.3790temperature slope calibration	1.0000multiplexer offset coefficient	1.0000multiplexer slope coefficient	1.0000fibre end	0.00T internal ref (°C)	26.37T ext. ref 1 (°C)	3.17T ext. ref 2 (°C)	21.44length (m)	temperature (°C)	Stokes	anti-Stokes-747.200	124.289	0.125	-0.157
-746.185	-150.808	0.253	-0.019
-745.171	169.618	-0.046	-0.066
-744.156	-164.110	-0.282	0.013
-743.142	-4.216	-0.138	0.096
-742.127	-91.387	-0.454	0.130
-741.112	484.010	-0.063	-0.144
-740.098	-96.604	-0.244	-0.064
-739.083	192.300	0.079	0.119
-738.069	648.874	-0.048	-0.124
-737.054	-169.310	0.173	-0.006
-736.039	123.135	-0.040	0.050
-735.025	39.790	0.165	0.148
-734.010	278.042	0.205	-0.366
-732.996	-47.834	-0.448	-0.218
-731.981	-118.777	0.405	0.072
-730.966	117.971	0.097	0.120
-729.952	546.023	0.046	0.111
-728.937	-95.108	-0.306	-0.083
-727.923	-200.000	0.022	0.114
-726.908	-63.618	-0.334	0.137
-725.894	800.000	-0.062	-0.243
-724.879	-200.000	-0.030	-0.218
-723.864	-200.000	-0.090	-0.417
-722.850	-107.991	-0.570	0.124
-721.835	-28.170	0.067	0.039
-720.821	800.000	-0.120	0.464
-719.806	-58.713	-0.307	-0.133
-718.791	-200.000	-0.054	-0.296
-717.777	-193.488	0.354	-0.003
-716.762	743.134	-0.069	-0.187
-715.748	-200.000	-0.015	-0.069
-714.733	-72.978	0.069	0.026
-713.718	-8.400	-0.225	0.152
-712.704	637.782	-0.042	-0.106
-711.689	35.703	-0.155	0.136
-710.675	-200.000	0.005	-0.186
-709.660	-179.220	0.142	0.003
-708.645	-197.656	0.339	-0.002
-707.631	88.789	-0.099	-0.111
-706.616	800.000	0.087	-0.297
-705.602	25.733	-0.034	0.028
-704.587	13.964	-0.204	0.159
-703.572	-93.302	0.357	0.099
-702.558	-200.000	-0.026	-0.128
-701.543	-184.457	0.131	0.002
-700.529	-38.547	-0.119	-0.063
-699.514	56.384	0.243	0.236
-698.499	-200.000	0.038	-0.290
-697.485	203.318	-0.179	-0.277
-696.470	800.000	-0.125	0.347
-695.456	82.863	0.215	0.234
-694.441	-0.211	-0.104	-0.074
-693.426	741.467	-0.059	0.158
-692.412	22.331	0.145	-0.119
-691.397	800.000	0.051	-0.141
-690.383	610.428	0.074	0.186
-689.368	800.000	-0.051	-0.176
-688.354	312.693	-0.091	-0.171
-687.339	69.562	0.253	-0.261
-686.324	35.712	-0.119	-0.104
-685.310	249.442	-0.040	-0.067
-684.295	800.000	-0.017	-0.048
-683.281	-200.000	-0.336	0.001
-682.266	82.874	-0.204	0.222
-681.251	618.367	0.176	0.442
-680.237	-200.000	-0.022	0.159
-679.222	248.065	0.112	0.189
-678.208	2.378	-0.088	0.064
-677.193	52.919	0.117	0.112
-676.178	-90.969	-0.462	-0.133
-675.164	36.167	0.174	-0.154
-674.149	26.368	0.044	0.037
-673.135	800.000	-0.093	0.272
-672.120	800.000	-0.029	-0.098
-671.105	-82.950	-0.227	-0.073
-670.091	-200.000	0.001	-0.098
-669.076	61.389	0.079	0.079
-668.062	-155.086	-0.156	-0.010
-667.047	800.000	0.018	0.072
-666.032	-100.302	-0.253	0.063
-665.018	-74.599	-0.081	0.029
-664.003	-191.084	-0.229	0.002
-662.989	-200.000	-0.039	-0.254
-661.974	-13.292	0.111	0.072
-660.959	-45.894	-0.213	-0.105
-659.945	-200.000	0.026	0.263
-658.930	-83.847	-0.174	-0.055
-657.916	-39.635	-0.288	-0.151
-656.901	-54.387	0.154	-0.070
-655.886	-58.767	0.165	0.071
-654.872	-65.897	-0.219	-0.087
-653.857	-200.000	0.076	-0.496
-652.843	800.000	-0.128	0.442
-651.828	12.104	-0.078	-0.060
-650.814	-9.109	-0.060	0.040
-649.799	-200.000	-0.007	-0.221
-648.784	543.626	-0.092	-0.219
-647.770	-82.026	0.130	0.043
-646.755	-200.000	0.092	0.408
-645.741	111.231	-0.230	0.277
-644.726	93.862	-0.228	-0.258
-643.711	800.000	-0.093	-0.354
-642.697	162.951	0.197	0.276
-641.682	571.962	-0.056	0.136
-640.668	95.973	-0.067	0.077
-639.653	769.545	-0.060	-0.164
-638.638	134.852	-0.135	-0.175
-637.624	220.233	0.068	0.108
-636.609	-83.641	0.406	0.130
-635.595	-120.645	0.026	0.004
-634.580	512.095	-0.026	0.061
-633.565	-172.835	-0.191	-0.006
-632.551	-116.779	-0.123	0.022
-631.536	-165.718	-0.481	0.021
-630.522	-49.995	-0.105	0.050
-629.507	-56.079	-0.207	0.092
-628.492	321.709	0.119	-0.225
-627.478	182.498	0.136	-0.201
-626.463	28.456	-0.216	0.182
-625.449	800.000	0.029	-0.128
-624.434	-97.422	-0.145	0.038
-623.419	17.656	-0.377	-0.299
-622.405	341.609	-0.098	0.192
-621.390	15.739	-0.304	0.238
-620.376	300.349	0.094	-0.172
-619.361	-66.169	0.076	-0.030
-618.346	-174.792	0.302	0.009
-617.332	-68.736	-0.332	0.128
-616.317	-59.237	-0.074	0.032
-615.303	333.884	-0.058	0.111
-614.288	-57.096	-0.196	-0.086
-613.273	-200.000	0.005	0.098
-612.259	-123.122	-0.333	-0.053
-611.244	328.717	-0.169	-0.324
-610.230	-200.000	-0.006	-0.306
-609.215	26.878	0.076	0.063
-608.201	-37.267	-0.363	-0.194
-607.186	-144.799	0.212	-0.019
-606.171	-200.000	0.007	0.034
-605.157	274.784	0.174	-0.307
-604.142	-125.105	-0.121	-0.018
-603.128	-102.918	0.377	0.089
-602.113	419.047	-0.180	0.385
-601.098	-70.610	-0.122	-0.046
-600.084	-65.021	-0.519	0.209
-599.069	-54.193	-0.141	0.064
-598.055	-63.052	-0.117	-0.048
-597.040	-8.376	-0.038	0.025
-596.025	269.223	-0.160	0.280
-595.011	96.146	0.058	-0.066
-593.996	800.000	0.059	-0.233
-592.982	437.848	-0.126	0.273
-591.967	-148.102	-0.216	0.018
-590.952	44.262	-0.114	-0.104
-589.938	30.499	0.143	-0.122
-588.923	520.486	-0.098	-0.228
-587.909	10.372	0.059	-0.045
-586.894	800.000	-0.056	-0.230
-585.879	-200.000	-0.044	-0.531
-584.865	387.568	0.042	-0.086
-583.850	-200.000	-0.379	0.001
-582.836	-82.889	0.244	-0.078
-581.821	233.724	-0.143	-0.235
-580.806	-200.000	-0.014	0.070
-579.792	-29.267	0.376	0.214
-578.777	-99.080	0.040	-0.010
-577.763	800.000	-0.040	-0.119
-576.748	5.865	0.147	0.108
-575.733	-11.350	0.238	0.156
-574.719	-111.621	-0.100	-0.020
-573.704	90.616	0.142	-0.159
-572.690	386.621	-0.046	-0.096
-571.675	-53.222	0.253	-0.116
-570.661	800.000	0.055	-0.190
-569.646	800.000	-0.042	0.138
-568.631	-171.930	-0.407	-0.013
-567.617	800.000	0.084	-0.267
-566.602	-136.457	0.503	0.058
-565.588	800.000	-0.034	-0.112
-564.573	-200.000	-0.002	0.021
-563.558	-70.020	0.197	-0.075
-562.544	125.094	-0.153	0.192
-561.529	266.896	0.132	0.230
-560.515	-41.329	0.317	-0.163
-559.500	75.140	-0.291	-0.306
-558.485	-85.533	0.131	0.041
-557.471	-111.421	0.371	-0.075
-556.456	75.109	-0.209	-0.220
-555.442	-110.970	-0.093	0.019
-554.427	40.559	0.147	-0.132
-553.412	-26.111	0.047	-0.027
-552.398	800.000	0.084	-0.247
-551.383	-39.942	0.031	0.016
-550.369	105.716	0.108	-0.127
-549.354	118.189	-0.054	-0.067
-548.339	-180.686	-0.313	0.006
-547.325	-104.754	-0.164	-0.037
-546.310	800.000	-0.018	0.051
-545.296	-156.079	0.234	0.015
-544.281	163.462	-0.166	0.232
-543.266	45.630	0.050	0.046
-542.252	-114.400	-0.263	0.050
-541.237	316.265	-0.188	0.354
-540.223	166.316	-0.033	-0.047
-539.208	695.765	0.050	-0.131
-538.193	606.175	-0.059	0.145
-537.179	23.569	0.185	0.151
-536.164	443.068	0.073	0.158
-535.150	-110.716	0.361	-0.074
-534.135	146.827	-0.066	-0.088
-533.121	379.235	0.071	-0.144
-532.106	-200.000	-0.019	0.094
-531.091	-104.662	-0.256	0.059
-530.077	280.098	-0.110	-0.196
-529.062	242.713	0.148	0.247
-528.048	1.181	0.069	-0.049
-527.033	-154.794	0.165	0.011
-526.018	-134.148	0.331	-0.041
-525.004	465.078	0.067	-0.149
-523.989	-200.000	-0.013	-0.058
-522.975	-106.787	0.338	-0.075
-521.960	-88.925	-0.076	-0.022
-520.945	-57.626	0.343	0.150
-519.931	800.000	-0.059	-0.161
-518.916	198.226	0.048	0.074
-517.902	279.581	0.105	0.186
-516.887	220.134	-0.096	0.152
-515.872	107.216	0.175	0.207
-514.858	474.800	0.018	-0.040
-513.843	-149.874	-0.141	0.011
-512.829	235.777	0.168	0.276
-511.814	109.959	0.138	0.165
-510.799	-89.357	0.099	0.029
-509.785	26.611	-0.259	-0.216
-508.770	171.605	-0.097	0.138
-507.756	162.620	-0.119	-0.166
-506.741	-200.000	0.003	0.266
-505.726	212.311	0.167	-0.262
-504.712	-0.841	0.107	-0.075
-503.697	-21.839	-0.218	-0.132
-502.683	-74.007	-0.276	-0.100
-501.668	115.901	0.146	0.178
-500.653	-90.183	0.126	-0.036
-499.639	-158.936	0.228	0.013
-498.624	-77.911	-0.384	-0.131
-497.610	-64.527	0.160	0.065
-496.595	-98.845	-0.148	0.037
-495.581	38.228	0.052	0.046
-494.566	-56.609	0.294	-0.129
-493.551	297.453	-0.105	-0.192
-492.537	14.490	-0.270	0.210
-491.522	800.000	0.140	0.386
-490.508	-200.000	-0.089	-0.403
-489.493	323.336	-0.071	-0.134
-488.478	-200.000	-0.033	-0.450
-487.464	172.755	0.270	0.386
-486.449	-38.703	-0.100	0.052
-485.435	27.029	0.290	-0.241
-484.420	800.000	0.012	0.042
-483.405	-146.320	-0.097	0.008
-482.391	799.737	-0.041	0.112
-481.376	45.006	-0.207	-0.189
-480.362	-125.685	-0.384	0.058
-479.347	176.804	-0.062	0.090
-478.332	7.648	0.324	-0.241
-477.318	-200.000	0.013	0.199
-476.303	-48.727	0.151	0.072
-475.289	-62.487	0.036	0.015
-474.274	-200.000	-0.054	0.262
-473.259	-200.000	0.024	-0.253
-472.245	800.000	0.052	-0.163
-471.230	221.533	0.088	-0.140
-470.216	179.457	-0.013	-0.018
-469.201	169.598	0.153	0.216
-468.186	800.000	-0.049	0.166
-467.172	-55.470	-0.146	0.065
-466.157	171.886	0.108	0.154
-465.143	67.646	-0.117	-0.118
-464.128	-156.631	-0.264	0.016
-463.113	-41.023	-0.187	0.096
-462.099	800.000	-0.070	0.213
-461.084	-68.559	0.134	0.052
-460.070	-57.522	0.295	0.128
-459.055	177.343	-0.124	0.180
-458.040	-52.855	0.055	0.025
-457.026	-200.000	0.009	0.167
-456.011	-133.029	-0.099	-0.012
-454.997	-77.610	-0.242	0.083
-453.982	-159.236	0.089	0.005
-452.968	21.836	-0.071	-0.058
-451.953	41.455	-0.103	0.092
-450.938	800.000	0.031	-0.087
-449.924	-127.156	0.009	-0.001
-448.909	800.000	-0.084	0.266
-447.895	-200.000	0.005	-0.155
-446.880	-190.356	0.301	-0.003
-445.865	145.615	-0.179	0.238
-444.851	2.734	-0.133	0.095
-443.836	-200.000	-0.037	0.291
-442.822	149.724	0.041	-0.055
-441.807	-8.147	0.265	-0.177
-440.792	-124.029	0.324	0.050
-439.778	398.219	0.080	-0.166
-438.763	-85.388	-0.125	0.039
-437.749	-14.826	0.209	0.133
-436.734	269.230	-0.120	0.209
-435.719	-200.000	-0.007	-0.089
-434.705	-200.000	-0.060	-0.396
-433.690	-46.159	0.065	0.032
-432.676	-165.588	0.341	-0.015
-431.661	562.881	-0.080	0.192
-430.646	800.000	-0.076	0.258
-429.632	800.000	-0.035	0.139
-428.617	20.682	0.217	0.174
-427.603	-36.135	-0.150	0.080
-426.588	101.515	-0.084	0.097
-425.573	-73.483	0.154	0.056
-424.559	-200.000	0.006	-0.086
-423.544	-200.000	0.016	-0.128
-422.530	-101.058	0.207	0.050
-421.515	212.822	0.145	-0.226
-420.500	244.143	0.122	-0.203
-419.486	201.451	0.128	0.195
-418.471	-47.200	-0.057	0.028
-417.457	-200.000	-0.010	0.135
-416.442	93.259	-0.162	-0.181
-415.428	800.000	-0.098	-0.333
-414.413	-175.863	-0.320	0.008
-413.398	63.173	-0.216	-0.214
-412.384	44.764	0.177	0.161
-411.369	-200.000	-0.022	-0.140
-410.355	-200.000	0.003	0.022
-409.340	-125.370	-0.167	0.025
-408.325	276.404	-0.250	-0.439
-407.311	800.000	-0.139	-0.460
-406.296	-136.255	-0.046	-0.005
-405.282	694.202	-0.053	0.137
-404.267	-74.811	-0.204	0.073
-403.252	184.150	-0.041	0.061
-402.238	-130.631	-0.210	0.028
-401.223	-159.809	0.351	-0.019
-400.209	-200.000	-0.001	-0.104
-399.194	-122.079	-0.340	0.055
-398.179	51.704	0.036	0.034
-397.165	389.605	-0.156	-0.320
-396.150	217.614	0.076	-0.119
-395.136	-41.393	-0.113	0.057
-394.121	14.087	-0.076	0.058
-393.106	-82.307	0.175	-0.056
-392.092	-51.555	-0.065	0.030
-391.077	-200.000	-0.297	0.001
-390.063	-6.408	-0.153	-0.103
-389.048	-77.718	-0.021	0.007
-388.033	204.685	0.224	0.344
-387.019	-159.299	0.247	0.014
-386.004	28.695	0.353	0.295
-384.990	239.506	0.087	-0.144
-383.975	80.884	0.257	-0.274
-382.960	-108.611	-0.269	-0.057
-381.946	800.000	0.016	0.044
-380.931	165.843	-0.086	0.121
-379.917	-200.000	0.022	0.461
-378.902	33.414	0.176	-0.151
-377.888	154.950	-0.058	-0.078
-376.873	93.325	0.191	-0.213
-375.858	-103.851	-0.458	0.106
-374.844	21.314	0.331	0.266
-373.829	-200.000	0.002	-0.065
-372.815	-110.008	-0.417	-0.086
-371.800	-200.000	0.029	0.145
-370.785	25.509	0.219	0.180
-369.771	-175.260	-0.087	0.002
-368.756	203.582	-0.217	-0.331
-367.742	800.000	-0.095	0.269
-366.727	684.200	-0.103	-0.266
-365.712	-154.220	0.078	-0.005
-364.698	514.373	0.106	0.244
-363.683	29.601	0.159	0.134
-362.669	800.000	0.114	-0.321
-361.654	-200.000	-0.011	0.086
-360.639	222.233	-0.091	0.145
-359.625	-140.849	0.297	-0.030
-358.610	136.118	-0.259	0.334
-357.596	-47.644	0.059	-0.028
-356.581	-52.239	-0.138	-0.063
-355.566	-46.699	-0.107	-0.052
-354.552	159.071	-0.155	-0.213
-353.537	-200.000	0.002	0.221
-352.523	60.520	0.123	0.120
-351.508	-200.000	0.066	0.319
-350.493	-186.713	-0.068	0.001
-349.479	17.133	0.380	-0.297
-348.464	199.073	-0.110	-0.167
-347.450	-107.686	0.569	0.123
-346.435	168.377	0.031	-0.044
-345.420	-34.121	-0.034	0.018
-344.406	-200.000	0.147	0.001
-343.391	-200.000	0.008	-0.263
-342.377	-129.777	-0.126	0.017
-341.362	-200.000	0.005	-0.237
-340.348	591.361	0.142	-0.347
-339.333	-75.510	-0.057	0.020
-338.318	41.419	0.204	-0.182
-337.304	-13.096	0.152	0.097
-336.289	-200.000	0.008	0.060
-335.275	800.000	-0.062	0.195
-334.260	-29.176	0.036	-0.020
-333.245	1.629	-0.178	-0.126
-332.231	-134.404	0.208	-0.025
-331.216	488.821	-0.150	-0.339
-330.202	-30.131	-0.097	-0.054
-329.187	-200.000	-0.047	-0.255
-328.172	-60.051	-0.324	0.137
-327.158	306.623	0.255	0.469
-326.143	436.828	-0.158	0.339
-325.129	-200.000	0.019	-0.243
-324.114	16.643	0.033	0.026
-323.099	-4.040	-0.145	0.099
-322.085	111.095	0.226	-0.268
-321.070	101.843	-0.054	-0.062
-320.056	-200.000	-0.049	0.275
-319.041	-127.051	0.311	-0.045
-318.026	-91.146	0.130	0.037
-317.012	-12.541	-0.148	-0.096
-315.997	-10.220	-0.216	0.141
-314.983	4.541	0.029	-0.021
-313.968	542.550	0.115	0.270
-312.953	-98.945	-0.192	-0.048
-311.939	133.547	-0.186	0.238
-310.924	-176.558	0.152	0.004
-309.910	-63.461	-0.180	0.073
-308.895	-200.000	0.017	-0.077
-307.880	-62.816	0.243	-0.099
-306.866	-200.000	-0.020	0.349
-305.851	-200.000	0.038	-0.259
-304.837	-200.000	-0.081	0.460
-303.822	-9.751	0.189	0.124
-302.807	-200.000	-0.008	0.046
-301.793	7.633	0.198	0.146
-300.778	25.614	-0.208	-0.171
-299.764	30.604	-0.041	0.034
-298.749	379.458	0.032	-0.065
-297.735	-116.474	0.210	-0.038
-296.720	-85.202	0.285	0.088
-295.705	-84.108	0.180	-0.056
-294.691	171.652	-0.061	0.086
-293.676	461.553	0.148	-0.325
-292.662	59.386	-0.231	-0.224
-291.647	-110.652	0.223	-0.045
-290.632	-200.000	-0.002	-0.046
-289.618	617.602	0.082	0.203
-288.603	800.000	-0.109	-0.331
-287.589	91.854	-0.311	0.344
-286.574	72.993	-0.267	0.275
-285.559	727.825	-0.056	0.146
-284.545	374.924	-0.130	-0.261
-283.530	-81.065	0.157	-0.051
-282.516	-151.158	0.289	-0.021
-281.501	85.682	0.241	0.260
-280.486	-1.957	-0.194	-0.135
-279.472	-200.000	0.033	0.438
-278.457	-46.882	0.145	-0.070
-277.443	709.523	-0.092	0.241
-276.428	800.000	-0.028	0.088
-275.413	-55.468	0.061	0.027
-274.399	-155.949	0.128	0.008
-273.384	-105.404	-0.152	-0.034
-272.370	187.440	-0.051	-0.075
-271.355	124.323	-0.081	0.100
-270.340	-41.044	0.091	0.046
-269.326	214.727	0.068	0.107
-268.311	33.645	0.235	0.201
-267.297	274.894	0.129	-0.226
-266.282	-124.118	-0.140	-0.022
-265.267	-200.000	0.023	-0.222
-264.253	-200.000	0.007	0.140
-263.238	-10.862	0.075	0.049
-262.224	252.235	-0.110	-0.184
-261.209	-4.542	0.052	-0.036
-260.195	81.189	0.164	0.175
-259.180	-58.128	0.369	0.158
-258.165	6.658	-0.142	0.104
-257.151	-200.000	-0.076	-0.331
-256.136	-143.878	0.075	0.007
-255.122	-200.000	0.039	-0.372
-254.107	-50.576	0.201	0.093
-253.092	-168.026	0.226	-0.009
-252.078	-117.240	0.220	0.039
-251.063	364.131	-0.052	0.102
-250.049	-124.866	-0.397	-0.060
-249.034	-97.953	0.118	0.030
-248.019	-103.688	-0.121	0.028
-247.005	-133.791	-0.457	0.056
-245.990	-118.559	0.148	-0.026
-244.976	194.142	-0.253	-0.377
-243.961	247.543	0.051	0.084
-242.946	180.232	0.231	-0.333
-241.932	109.988	-0.173	-0.204
-240.917	554.384	0.064	-0.150
-239.903	-200.000	-0.003	0.252
-238.888	-22.536	-0.393	-0.234
-237.873	54.549	-0.103	-0.098
-236.859	67.643	0.165	0.166
-235.844	-115.599	-0.142	0.026
-234.830	-65.925	-0.167	0.065
-233.815	350.310	0.052	-0.101
-232.800	800.000	-0.071	-0.227
-231.786	14.458	0.164	0.126
-230.771	-17.157	0.258	-0.160
-229.757	-18.777	0.310	0.190
-228.742	541.282	0.074	0.174
-227.727	800.000	0.084	0.269
-226.713	241.004	-0.083	0.136
-225.698	-46.232	-0.248	0.120
-224.684	112.275	0.251	-0.299
-223.669	19.518	-0.152	-0.120
-222.655	-200.000	-0.012	-0.139
-221.640	775.944	0.202	-0.543
-220.625	23.977	-0.264	0.214
-219.611	100.292	0.241	0.275
-218.596	-200.000	0.046	-0.221
-217.582	66.309	-0.103	0.103
-216.567	-25.952	-0.061	-0.036
-215.552	-108.374	-0.297	0.063
-214.538	-22.040	-0.116	0.069
-213.523	74.275	0.265	0.273
-212.509	139.507	-0.257	0.332
-211.494	575.382	-0.030	-0.072
-210.479	800.000	0.080	0.267
-209.465	57.295	-0.281	0.269
-208.450	-24.487	-0.075	-0.044
-207.436	-200.000	-0.026	0.117
-206.421	288.801	0.087	0.155
-205.406	-130.932	0.084	-0.011
-204.392	-200.000	-0.039	-0.244
-203.377	-90.979	0.092	0.026
-202.363	-200.000	0.003	0.259
-201.348	-90.034	-0.275	0.079
-200.333	223.514	-0.150	0.237
-199.319	103.576	0.073	-0.084
-198.304	-109.351	-0.179	-0.037
-197.290	-200.000	0.017	-0.258
-196.275	800.000	-0.038	0.126
-195.260	-46.823	0.173	0.083
-194.246	-138.598	0.060	-0.006
-193.231	554.823	-0.050	0.117
-192.217	-92.566	-0.253	-0.070
-191.202	-200.000	0.033	-0.200
-190.187	800.000	0.044	0.137
-189.173	103.234	-0.092	0.106
-188.158	-109.496	0.149	-0.031
-187.144	474.907	0.131	-0.291
-186.129	-141.271	0.185	-0.018
-185.114	-21.027	0.322	0.193
-184.100	135.890	0.095	0.122
-183.085	-78.906	-0.098	-0.033
-182.071	-151.617	0.345	0.025
-181.056	-89.547	-0.464	-0.134
-180.042	-161.133	-0.161	-0.008
-179.027	651.064	0.088	-0.221
-178.012	589.471	0.039	0.094
-176.998	-140.021	0.419	0.043
-175.983	-70.705	0.115	-0.043
-174.969	-200.000	-0.016	-0.244
-173.954	15.044	-0.027	0.021
-172.939	-200.000	-0.003	0.027
-171.925	-78.051	-0.255	-0.086
-170.910	-48.018	-0.064	-0.031
-169.896	-18.001	0.163	0.100
-168.881	-200.000	0.050	-0.291
-167.866	-198.011	0.118	-0.001
-166.852	164.711	0.175	0.242
-165.837	-6.127	0.188	0.126
-164.823	167.329	-0.119	-0.166
-163.808	474.754	0.038	0.084
-162.793	800.000	-0.040	-0.157
-161.779	76.459	-0.347	0.361
-160.764	143.852	0.148	0.193
-159.750	-200.000	-0.035	0.214
-158.735	-88.478	-0.083	-0.024
-157.720	-200.000	-0.022	-0.449
-156.706	-200.000	0.010	0.088
-155.691	-200.000	0.009	-0.251
-154.677	767.260	-0.004	0.011
-153.662	800.000	-0.059	0.226
-152.647	48.425	0.294	-0.270
-151.633	256.163	0.166	-0.280
-150.618	351.915	0.050	-0.097
-149.604	-145.238	-0.431	-0.038
-148.589	45.848	0.155	0.141
-147.574	531.599	-0.109	-0.253
-146.560	-5.107	0.127	0.086
-145.545	52.513	0.220	-0.205
-144.531	-50.725	0.317	0.146
-143.516	-117.719	0.063	0.011
-142.502	85.571	0.170	0.183
-141.487	143.919	0.191	0.249
-140.472	-64.277	-0.318	0.127
-139.458	356.239	0.287	0.561
-138.443	-200.000	0.022	-0.293
-137.429	-75.010	-0.045	0.016
-136.414	21.077	0.171	0.136
-135.399	3.091	0.294	0.210
-134.385	341.135	-0.044	0.085
-133.370	200.917	-0.160	0.241
-132.356	-135.437	0.140	0.016
-131.341	-105.854	-0.060	0.013
-130.326	-200.000	0.006	0.560
-129.312	-99.225	-0.265	-0.066
-128.297	-20.456	0.192	0.115
-127.283	-200.000	-0.009	0.162
-126.268	-84.772	-0.139	-0.043
-125.253	165.736	0.237	-0.328
-124.239	-200.000	0.050	-0.242
-123.224	-200.000	-0.000	0.109
-122.210	-59.511	-0.155	0.065
-121.195	-152.414	-0.124	-0.009
