DTS Sentinel unit serial number:	SN413079Multiplexer serial number:	ORYXHardware model number:	OX4-SRSoftware version number:	ORYX F/W v4.00 Oryx Data Collector v3.7.2.0data status	okinstallation	princeton_trtdifferential loss correction	single-endedforward channel	channel 3reverse channel	N/Adate	2019/09/19time	09:36:35forward acquisition time	60.00reverse acquisition time	0.00gamma	496.2192k internal	0.2344k external	0.2344temperature offset calibration	0.9974default loss term (dB/km)	0.3790temperature slope calibration	1.0000multiplexer offset coefficient	1.0000multiplexer slope coefficient	1.0000fibre end	0.00T internal ref (°C)	23.00T ext. ref 1 (°C)	0.64T ext. ref 2 (°C)	19.42length (m)	temperature (°C)	Stokes	anti-Stokes-747.200	715.915	0.168	-0.445
-746.185	-91.220	0.218	0.063
-745.171	800.000	0.023	0.081
-744.156	-76.699	-0.023	0.008
-743.142	-108.044	-0.219	0.048
-742.127	5.508	-0.318	0.235
-741.112	323.076	0.111	0.212
-740.098	-55.417	-0.210	0.095
-739.083	5.855	0.045	-0.033
-738.069	-34.269	-0.251	-0.138
-737.054	800.000	0.043	-0.135
-736.039	-120.222	-0.451	-0.077
-735.025	-200.000	0.017	0.151
-734.010	-127.059	-0.140	-0.020
-732.996	-86.109	0.052	-0.016
-731.981	83.541	0.103	0.112
-730.966	80.461	-0.134	-0.144
-729.952	561.601	-0.165	-0.399
-728.937	112.494	-0.163	-0.197
-727.923	-200.000	0.019	0.368
-726.908	699.055	-0.103	0.272
-725.894	-75.690	-0.217	-0.077
-724.879	360.957	0.079	0.159
-723.864	166.616	0.158	0.224
-722.850	-200.000	0.047	-0.270
-721.835	-62.839	-0.162	0.067
-720.821	800.000	-0.084	-0.303
-719.806	-36.361	-0.169	-0.091
-718.791	284.114	0.137	-0.246
-717.777	-200.000	0.010	0.301
-716.762	771.712	0.061	-0.165
-715.748	125.845	-0.071	-0.089
-714.733	9.896	-0.274	-0.208
-713.718	-144.427	-0.229	-0.021
-712.704	86.021	-0.187	0.206
-711.689	111.816	-0.173	-0.209
-710.675	800.000	-0.037	-0.141
-709.660	14.674	0.152	-0.119
-708.645	85.217	-0.151	0.166
-707.631	-50.135	0.115	0.054
-706.616	75.138	0.102	-0.107
-705.602	-62.794	0.271	0.112
-704.587	487.828	-0.131	-0.298
-703.572	-77.745	-0.402	0.139
-702.558	10.380	0.113	0.086
-701.543	-79.126	-0.125	0.042
-700.529	-33.801	-0.311	-0.171
-699.514	539.015	0.126	-0.300
-698.499	228.269	-0.087	0.142
-697.485	56.086	-0.244	-0.236
-696.470	22.516	-0.139	0.114
-695.456	9.086	0.211	-0.159
-694.441	-200.000	-0.025	0.276
-693.426	-60.989	-0.104	0.044
-692.412	-200.000	0.024	0.332
-691.397	-8.740	-0.293	-0.196
-690.383	-26.334	-0.054	0.032
-689.368	74.695	-0.363	-0.381
-688.354	-36.372	0.216	-0.116
-687.339	-91.484	0.256	-0.073
-686.324	178.910	-0.015	0.022
-685.310	-92.645	-0.318	0.089
-684.295	228.183	-0.097	0.158
-683.281	393.836	-0.153	0.318
-682.266	-82.693	-0.257	-0.083
-681.251	-152.409	-0.188	-0.014
-680.237	-23.232	-0.295	0.177
-679.222	-150.483	-0.290	0.022
-678.208	-72.431	0.400	-0.148
-677.193	111.949	-0.089	0.107
-676.178	176.043	0.143	0.207
-675.164	800.000	-0.054	0.161
-674.149	-105.281	0.159	-0.036
-673.135	-109.362	0.110	0.023
-672.120	-7.483	-0.129	0.087
-671.105	401.276	-0.138	-0.289
-670.091	-89.684	0.401	0.117
-669.076	800.000	0.039	0.163
-668.062	101.212	-0.107	-0.125
-667.047	-200.000	0.002	0.199
-666.032	33.242	-0.129	0.111
-665.018	-85.904	-0.265	0.082
-664.003	-66.569	-0.346	-0.137
-662.989	2.187	-0.094	0.068
-661.974	-147.943	-0.098	-0.008
-660.959	-200.000	-0.018	-0.134
-659.945	-32.640	0.175	0.097
-658.930	-111.893	0.066	0.013
-657.916	-168.891	-0.227	0.008
-656.901	-200.000	-0.008	-0.469
-655.886	13.499	0.196	-0.152
-654.872	292.078	-0.063	-0.115
-653.857	168.886	0.071	0.102
-652.843	-200.000	0.032	0.174
-651.828	18.021	0.036	0.029
-650.814	-156.890	-0.237	0.015
-649.799	-26.176	0.128	-0.075
-648.784	56.078	-0.211	-0.204
-647.770	-200.000	-0.057	-0.295
-646.755	-200.000	0.054	-0.268
-645.741	-85.374	-0.207	-0.064
-644.726	-200.000	0.052	0.305
-643.711	42.066	-0.081	-0.074
-642.697	-137.126	0.308	-0.035
-641.682	-120.965	-0.292	0.049
-640.668	-75.383	-0.184	-0.065
-639.653	-132.507	0.188	-0.024
-638.638	-104.862	-0.179	0.041
-637.624	-200.000	0.021	0.268
-636.609	161.773	0.063	-0.088
-635.595	46.842	-0.258	-0.239
-634.580	-34.286	-0.160	0.087
-633.565	143.637	0.189	0.251
-632.551	-45.481	-0.150	-0.074
-631.536	-131.104	-0.274	0.036
-630.522	114.310	-0.089	0.108
-629.507	-18.507	0.089	0.055
-628.492	800.000	0.052	-0.225
-627.478	72.677	-0.246	-0.256
-626.463	-44.457	0.108	-0.054
-625.449	123.923	0.156	0.195
-624.434	-130.801	-0.206	0.028
-623.419	43.218	0.201	-0.182
-622.405	-200.000	-0.045	0.349
-621.390	143.710	-0.145	0.193
-620.376	800.000	-0.135	-0.572
-619.361	75.781	0.102	0.107
-618.346	-82.607	-0.100	-0.032
-617.332	-200.000	0.006	-0.063
-616.317	8.842	0.091	-0.068
-615.303	-200.000	0.002	-0.282
-614.288	-200.000	-0.038	-0.250
-613.273	-200.000	0.066	-0.405
-612.259	-148.137	0.191	0.016
-611.244	800.000	0.110	0.422
-610.230	800.000	-0.031	0.128
-609.215	-36.414	-0.216	-0.116
-608.201	-119.046	-0.175	-0.030
-607.186	174.906	-0.051	0.073
-606.171	14.524	-0.153	-0.119
-605.157	800.000	-0.050	0.210
-604.142	45.905	-0.392	0.361
-603.128	-113.763	-0.176	-0.034
-602.113	59.057	-0.105	-0.102
-601.098	-61.777	0.352	-0.147
-600.084	-71.524	-0.090	0.034
-599.069	125.995	-0.012	-0.015
-598.055	-200.000	-0.022	-0.103
-597.040	10.487	-0.199	0.150
-596.025	-153.327	0.120	0.008
-595.011	118.764	0.112	-0.137
-593.996	-21.544	-0.277	-0.168
-592.982	800.000	0.098	-0.300
-591.967	-76.322	0.087	-0.030
-590.952	114.217	-0.047	0.057
-589.938	-97.520	-0.192	-0.050
-588.923	-104.976	0.161	-0.037
-587.909	-64.526	-0.068	0.027
-586.894	-200.000	-0.004	0.249
-585.879	-109.794	-0.217	-0.045
-584.865	114.652	-0.052	-0.063
-583.850	70.788	-0.081	0.083
-582.836	154.523	0.138	-0.189
-581.821	89.157	-0.222	0.246
-580.806	-200.000	0.066	-0.468
-579.792	121.872	-0.043	0.054
-578.777	800.000	-0.103	0.308
-577.763	379.608	0.128	0.262
-576.748	151.783	-0.320	0.434
-575.733	-200.000	-0.014	0.095
-574.719	-200.000	-0.043	0.237
-573.704	-76.753	0.263	-0.091
-572.690	228.435	0.030	0.049
-571.675	-99.848	-0.255	-0.063
-570.661	-105.545	-0.141	0.032
-569.646	240.243	-0.102	-0.169
-568.631	33.028	0.007	-0.006
-567.617	133.854	0.087	-0.112
-566.602	-200.000	0.018	-0.247
-565.588	242.925	0.113	0.188
-564.573	-57.421	0.231	-0.101
-563.558	-162.864	0.077	-0.004
-562.544	166.942	-0.147	0.207
-561.529	-38.669	-0.200	-0.105
-560.515	305.953	0.045	0.083
-559.500	-59.515	0.106	-0.045
-558.485	800.000	0.083	-0.283
-557.471	35.278	-0.217	-0.189
-556.456	6.997	-0.066	-0.049
-555.442	800.000	-0.069	-0.217
-554.427	-200.000	0.044	-0.220
-553.412	67.907	-0.113	0.115
-552.398	99.459	-0.147	-0.169
-551.383	-86.147	0.309	-0.095
-550.369	252.585	0.031	0.053
-549.354	-200.000	0.043	0.283
-548.339	-25.415	0.162	-0.095
-547.325	-74.364	-0.162	-0.058
-546.310	24.364	-0.083	0.068
-545.296	514.697	0.072	0.168
-544.281	208.059	0.157	-0.243
-543.266	-137.776	0.240	-0.027
-542.252	398.280	0.090	-0.188
-541.237	-142.820	0.264	0.026
-540.223	718.747	0.109	-0.287
-539.208	78.558	0.079	-0.084
-538.193	-130.892	-0.267	0.036
-537.179	-54.681	-0.303	0.136
-536.164	-200.000	0.027	0.165
-535.150	-72.819	0.232	-0.085
-534.135	-200.000	0.022	-0.107
-533.121	208.972	-0.132	0.204
-532.106	-200.000	0.019	-0.130
-531.091	273.852	-0.071	0.125
-530.077	-200.000	-0.012	0.057
-529.062	-50.417	0.093	0.044
-528.048	66.442	-0.092	0.093
-527.033	113.386	0.241	0.291
-526.018	108.410	-0.120	0.142
-525.004	-10.839	-0.127	-0.084
-523.989	43.906	-0.203	0.185
-522.975	-60.346	-0.092	-0.039
-521.960	-132.963	0.126	0.016
-520.945	-200.000	-0.025	0.364
-519.931	33.589	0.062	0.054
-518.916	-200.000	-0.046	0.307
-517.902	88.397	0.297	-0.327
-516.887	92.674	0.135	-0.151
-515.872	3.851	-0.142	0.103
-514.858	363.360	0.056	-0.111
-513.843	104.861	-0.296	-0.346
-512.829	-200.000	-0.052	0.339
-511.814	-200.000	0.008	0.149
-510.799	-200.000	0.015	0.318
-509.785	-77.966	-0.397	0.136
-508.770	-200.000	0.002	-0.084
-507.756	-200.000	-0.008	0.127
-506.741	-122.814	-0.084	0.013
-505.726	-200.000	0.023	0.109
-504.712	-200.000	0.010	-0.042
-503.697	-200.000	0.007	-0.311
-502.683	-200.000	-0.009	-0.111
-501.668	-200.000	-0.005	0.051
-500.653	77.239	-0.141	-0.149
-499.639	-41.449	0.184	0.094
-498.624	-200.000	-0.015	-0.197
-497.610	44.454	-0.206	-0.188
-496.595	94.914	-0.034	-0.038
-495.581	-200.000	-0.010	-0.076
-494.566	-168.665	0.253	-0.010
-493.551	-200.000	0.022	0.182
-492.537	121.481	-0.027	0.033
-491.522	-35.504	-0.281	0.151
-490.508	0.521	-0.257	-0.182
-489.493	-90.033	0.168	0.048
-488.478	-43.086	0.210	0.105
-487.464	-37.497	0.200	0.106
-486.449	800.000	0.038	-0.113
-485.435	800.000	0.023	0.097
-484.420	70.981	0.165	0.170
-483.405	63.857	-0.178	-0.177
-482.391	-200.000	0.000	-0.010
-481.376	-158.408	-0.157	-0.009
-480.362	-200.000	0.013	-0.147
-479.347	47.869	-0.121	-0.112
-478.332	-119.533	0.155	0.027
-477.318	389.140	-0.017	-0.035
-476.303	-14.523	-0.149	-0.095
-475.289	54.291	-0.110	0.105
-474.274	157.370	-0.192	-0.264
-473.259	-200.000	-0.007	0.232
-472.245	72.932	0.115	-0.119
-471.230	-19.968	0.378	0.231
-470.216	91.434	0.088	0.098
-469.201	127.937	-0.092	-0.116
-468.186	-200.000	0.006	0.077
-467.172	-93.041	-0.482	-0.133
-466.157	-137.202	-0.324	-0.037
-465.143	-200.000	0.020	-0.169
-464.128	-200.000	0.020	-0.218
-463.113	-200.000	0.057	-0.283
-462.099	86.810	0.030	-0.033
-461.084	-132.762	-0.085	-0.011
-460.070	385.968	0.060	-0.123
-459.055	99.286	-0.147	-0.168
-458.040	259.719	0.169	-0.289
-457.026	595.055	0.042	-0.103
-456.011	-102.736	0.110	-0.026
-454.997	30.799	-0.053	0.045
-453.982	32.890	-0.126	-0.108
-452.968	-200.000	0.010	0.336
-451.953	-200.000	-0.014	0.115
-450.938	169.801	0.068	-0.097
-449.924	-93.113	0.229	-0.063
-448.909	50.136	-0.236	0.220
-447.895	800.000	0.079	0.221
-446.880	-93.738	0.195	-0.053
-445.865	-128.816	0.429	-0.060
-444.851	-200.000	-0.053	0.305
-443.836	-7.063	0.125	0.084
-442.822	738.006	0.036	-0.096
-441.807	-195.197	0.380	-0.003
-440.792	-38.858	-0.208	0.109
-439.778	-200.000	-0.038	0.235
-438.763	800.000	-0.049	-0.165
-437.749	-200.000	0.011	0.121
-436.734	-200.000	0.033	-0.235
-435.719	50.730	-0.339	-0.317
-434.705	800.000	0.047	0.156
-433.690	-200.000	0.010	0.285
-432.676	-107.389	-0.225	-0.049
-431.661	-75.614	0.145	-0.051
-430.646	255.362	-0.071	0.120
-429.632	-200.000	0.039	0.293
-428.617	-96.644	-0.153	0.040
-427.603	-109.076	0.131	0.028
-426.588	-14.964	0.214	-0.135
-425.573	795.443	-0.048	0.131
-424.559	-57.274	-0.065	0.028
-423.544	-76.981	-0.071	0.025
-422.530	-34.271	-0.111	-0.060
-421.515	-152.150	0.234	-0.017
-420.500	-200.000	-0.013	0.313
-419.486	-136.726	0.131	0.015
-418.471	-108.595	-0.282	0.060
-417.457	-117.474	0.072	-0.013
-416.442	146.121	0.302	-0.400
-415.428	84.149	0.176	0.190
-414.413	271.343	-0.081	0.141
-413.398	-65.016	0.183	0.073
-412.384	-200.000	0.011	0.217
-411.369	800.000	0.091	0.281
-410.355	-200.000	-0.035	0.259
-409.340	800.000	0.020	0.058
-408.325	-27.610	0.099	0.057
-407.311	454.607	-0.113	-0.247
-406.296	-99.120	-0.120	-0.030
-405.282	121.705	0.132	-0.162
-404.267	19.148	0.150	0.119
-403.252	-84.723	0.184	0.057
-402.238	800.000	0.037	-0.110
-401.223	800.000	0.044	0.127
-400.209	-133.665	0.124	0.015
-399.194	-41.930	0.205	0.104
-398.179	11.140	0.166	-0.125
-397.165	748.915	-0.096	-0.256
-396.150	-11.232	0.280	-0.182
-395.136	-149.797	0.011	0.001
-394.121	115.381	-0.175	-0.211
-393.106	800.000	0.064	-0.184
-392.092	-62.202	0.146	0.060
-391.077	800.000	-0.099	-0.285
-390.063	49.599	-0.289	-0.269
-389.048	-137.787	-0.138	-0.015
-388.033	-152.469	-0.278	-0.020
-387.019	-74.509	-0.259	0.092
-386.004	800.000	0.056	-0.215
-384.990	-15.165	-0.139	0.088
-383.975	16.584	0.101	-0.079
-382.960	-36.363	0.209	0.111
-381.946	57.468	0.104	-0.101
-380.931	439.063	-0.025	0.053
-379.917	13.064	-0.039	0.030
-378.902	75.091	-0.101	0.105
-377.888	-21.571	-0.097	0.058
-376.873	74.369	0.160	0.166
-375.858	-200.000	0.007	0.362
-374.844	71.045	-0.095	-0.097
-373.829	-200.000	0.039	0.262
-372.815	77.160	0.097	-0.102
-371.800	61.055	0.256	0.250
-370.785	-73.187	0.341	0.123
-369.771	60.000	-0.164	-0.160
-368.756	-65.513	-0.330	0.131
-367.742	67.325	-0.261	-0.262
-366.727	689.954	-0.085	0.220
-365.712	15.776	0.125	0.097
-364.698	-16.239	0.076	-0.048
-363.683	800.000	0.016	0.059
-362.669	-110.706	-0.549	-0.112
-361.654	-58.561	0.183	0.078
-360.639	99.105	0.197	0.224
-359.625	126.449	-0.149	0.186
-358.610	-200.000	0.019	0.103
-357.596	25.283	-0.295	0.242
-356.581	-200.000	0.022	-0.335
-355.566	15.319	-0.117	-0.090
-354.552	800.000	-0.073	0.229
-353.537	197.798	-0.124	-0.187
-352.523	-34.204	0.095	-0.051
-351.508	800.000	0.019	0.065
-350.493	-1.269	-0.079	0.055
-349.479	64.999	0.208	-0.207
-348.464	-200.000	-0.008	-0.213
-347.450	71.305	-0.065	-0.067
-346.435	-93.533	-0.169	-0.046
-345.420	81.695	0.204	0.217
-344.406	-47.040	-0.093	0.045
-343.391	317.383	-0.081	0.151
-342.377	-77.165	0.169	-0.058
-341.362	200.690	0.085	-0.129
-340.348	427.436	0.064	-0.136
-339.333	105.954	0.197	-0.230
-338.318	800.000	-0.036	-0.152
-337.304	378.037	0.066	-0.133
-336.289	-47.582	-0.463	-0.222
-335.275	261.242	-0.044	0.075
-334.260	-38.848	-0.500	0.260
-333.245	60.108	0.092	-0.090
-332.231	584.482	0.099	0.241
-331.216	800.000	0.021	0.087
-330.202	430.234	0.228	-0.486
-329.187	-85.622	-0.132	-0.040
-328.172	193.673	0.133	0.198
-327.158	800.000	0.046	-0.155
-326.143	-131.502	-0.194	-0.025
-325.129	-200.000	-0.001	-0.356
-324.114	-68.714	0.104	-0.040
-323.099	-122.407	-0.258	0.041
-322.085	-200.000	-0.012	0.395
-321.070	-46.398	-0.182	-0.088
-320.056	-138.081	-0.069	-0.008
-319.041	-11.567	0.033	-0.021
-318.026	324.831	0.137	0.257
-317.012	-41.922	-0.163	0.082
-315.997	224.043	0.170	-0.270
-314.983	-82.347	-0.049	0.016
-313.968	114.234	-0.050	0.059
-312.953	-32.122	-0.197	0.109
-311.939	-34.328	0.148	0.080
-310.924	-2.608	-0.291	-0.201
-309.910	-81.149	0.132	0.043
-308.895	-55.629	-0.199	0.087
-307.880	159.112	0.086	-0.117
-306.866	800.000	-0.046	0.126
-305.851	-147.100	0.122	-0.010
-304.837	36.403	-0.034	-0.029
-303.822	-86.805	-0.207	0.062
-302.807	800.000	0.068	-0.235
-301.793	361.729	0.086	0.169
-300.778	490.503	-0.203	-0.456
-299.764	-69.512	0.309	0.117
-298.749	-8.223	0.146	-0.096
-297.735	-200.000	0.036	-0.187
-296.720	-90.725	0.254	0.072
-295.705	-89.376	0.309	-0.089
-294.691	539.356	-0.079	-0.184
-293.676	219.739	-0.118	-0.185
-292.662	-200.000	0.014	-0.262
-291.647	-118.889	0.222	0.038
-290.632	-30.129	0.118	-0.066
-289.618	761.924	-0.047	-0.125
-288.603	-9.466	0.146	-0.096
-287.589	-29.402	-0.172	0.097
-286.574	-168.208	0.151	-0.006
-285.559	-63.874	-0.121	-0.049
-284.545	-66.638	-0.127	0.050
-283.530	151.477	-0.152	-0.204
-282.516	72.282	0.223	0.229
-281.501	800.000	-0.077	0.224
-280.486	-117.379	0.502	-0.089
-279.472	-160.490	-0.203	-0.011
-278.457	87.179	-0.170	0.185
-277.443	-200.000	-0.033	-0.387
-276.428	-200.000	0.019	-0.323
-275.413	-134.581	-0.340	0.041
-274.399	86.718	0.222	0.240
-273.384	-200.000	-0.059	-0.266
-272.370	-75.992	0.114	0.040
-271.355	-129.762	0.266	-0.036
-270.340	-42.508	-0.067	0.034
-269.326	74.755	0.086	0.088
-268.311	397.533	0.140	0.287
-267.297	800.000	-0.043	0.169
-266.282	-200.000	0.004	0.038
-265.267	20.090	0.180	-0.143
-264.253	-16.528	0.129	-0.080
-263.238	368.487	0.093	0.184
-262.224	-147.780	0.316	0.026
-261.209	-200.000	-0.053	0.325
-260.195	187.433	-0.071	-0.104
-259.180	4.496	0.082	0.059
-258.165	-9.134	0.193	-0.127
-257.151	-200.000	0.014	-0.122
-256.136	54.819	-0.067	0.063
-255.122	-200.000	-0.031	-0.269
-254.107	719.277	0.030	0.079
-253.092	81.256	0.104	0.110
-252.078	752.272	-0.109	0.288
-251.063	-159.141	0.276	-0.015
-250.049	654.216	0.011	-0.028
-249.034	-101.414	0.034	-0.008
-248.019	96.938	-0.211	-0.237
-247.005	-8.176	-0.299	0.198
-245.990	-32.122	0.251	0.138
-244.976	-100.332	-0.116	-0.028
-243.961	19.064	-0.255	-0.201
-242.946	156.711	0.148	-0.201
-241.932	265.870	0.318	0.545
-240.917	25.789	-0.136	-0.111
-239.903	-34.936	-0.108	0.058
-238.888	49.007	-0.221	0.203
-237.873	-200.000	0.019	0.315
-236.859	17.025	-0.197	0.153
-235.844	-180.993	-0.303	0.006
-234.830	-74.704	-0.242	-0.085
-233.815	138.217	0.128	-0.164
-232.800	800.000	0.010	0.036
-231.786	5.681	0.134	-0.097
-230.771	70.648	0.105	0.106
-229.757	57.281	0.141	-0.135
-228.742	-18.874	-0.077	-0.047
-227.727	-106.459	0.288	-0.063
-226.713	152.463	-0.144	-0.193
-225.698	392.191	0.125	-0.255
-224.684	170.868	0.135	-0.190
-223.669	97.636	-0.239	0.269
-222.655	-29.584	0.059	0.033
-221.640	321.206	0.053	0.098
-220.625	-136.709	0.150	-0.017
-219.611	56.685	0.097	0.093
-218.596	-143.764	-0.117	-0.011
-217.582	-91.458	0.382	-0.107
-216.567	320.500	0.114	-0.212
-215.552	-141.332	-0.042	0.004
-214.538	-200.000	-0.033	-0.180
-213.523	29.538	0.291	0.242
-212.509	319.617	-0.146	0.272
-211.494	-179.468	-0.240	-0.005
-210.479	800.000	-0.086	-0.238
-209.465	-163.786	0.238	-0.011
-208.450	715.563	-0.131	0.341
-207.436	109.690	0.182	-0.214
-206.421	11.301	0.173	0.130
-205.406	12.179	0.132	-0.100
-204.392	-153.895	-0.127	-0.008
-203.377	61.346	-0.166	-0.162
-202.363	-195.091	0.460	-0.003
-201.348	-19.168	0.133	-0.081
-200.333	135.756	-0.114	0.146
-199.319	-41.162	-0.140	-0.071
-198.304	-28.425	0.228	-0.129
-197.290	-7.124	-0.253	0.168
-196.275	10.473	-0.056	-0.042
-195.260	-79.791	0.095	-0.031
-194.246	145.560	0.029	0.038
-193.231	-155.305	0.436	0.028
-192.217	-200.000	0.039	-0.254
-191.202	-200.000	0.019	0.240
-190.187	-123.476	0.183	-0.029
-189.173	-63.806	0.207	0.083
-188.158	-16.367	-0.315	0.196
-187.144	-200.000	-0.074	0.408
-186.129	-19.855	0.171	0.103
-185.114	205.974	0.161	0.245
-184.100	-51.734	-0.147	-0.067
-183.085	-11.813	0.375	-0.241
-182.071	93.090	0.137	-0.152
-181.056	65.711	0.118	-0.117
-180.042	539.383	-0.067	-0.156
-179.027	296.540	0.224	-0.403
-178.012	4.084	-0.053	0.038
-176.998	-200.000	0.006	-0.036
-175.983	119.751	0.184	0.223
-174.969	-65.102	-0.300	0.119
-173.954	192.212	-0.193	-0.284
-172.939	105.837	-0.319	0.369
-171.925	-200.000	0.069	0.352
-170.910	-200.000	0.026	0.395
-169.896	800.000	-0.054	0.180
-168.881	733.021	0.083	0.216
-167.866	-200.000	0.007	0.039
-166.852	-108.484	0.154	0.033
-165.837	-19.946	-0.309	-0.187
-164.823	-160.611	-0.174	0.009
-163.808	-16.892	0.265	-0.164
-162.793	-200.000	-0.009	0.195
-161.779	66.478	0.172	0.171
-160.764	-28.771	0.360	0.203
-159.750	369.415	-0.101	0.200
-158.735	-3.619	-0.230	0.156
-157.720	254.843	0.245	0.411
-156.706	-62.307	-0.270	0.110
-155.691	-16.929	0.259	-0.160
-154.677	287.493	-0.096	-0.169
-153.662	419.110	-0.073	-0.153
-152.647	-200.000	0.031	0.169
-151.633	800.000	-0.088	-0.331
-150.618	199.775	-0.120	0.180
-149.604	177.939	0.138	-0.197
-148.589	-200.000	-0.020	-0.122
-147.574	32.051	0.178	0.150
-146.560	229.418	-0.109	-0.175
-145.545	-200.000	-0.031	-0.231
-144.531	-155.128	0.288	0.018
-143.516	-200.000	-0.045	0.342
-142.502	800.000	-0.042	0.163
-141.487	-106.281	0.140	-0.031
-140.472	-8.984	-0.092	-0.060
-139.458	-8.424	-0.162	-0.107
-138.443	-98.619	0.202	0.050
-137.429	6.441	-0.258	-0.187
-136.414	-118.109	-0.545	0.095
-135.399	29.819	-0.086	0.071
-134.385	628.588	0.183	0.451
-133.370	-108.210	0.394	-0.083
-132.356	-114.934	-0.143	-0.027
-131.341	704.498	0.028	-0.073
-130.326	48.867	0.229	0.210
-129.312	28.683	-0.120	-0.099
-128.297	61.440	0.070	-0.068
-127.283	-200.000	0.010	0.118
-126.268	110.362	-0.122	-0.143
-125.253	-16.028	-0.374	-0.232
-124.239	383.607	0.138	0.278
-123.224	125.605	-0.128	-0.158
-122.210	-200.000	0.068	-0.290
-121.195	-189.843	-0.146	0.002
-120.180	38.714	-0.166	0.145
