DTS Sentinel unit serial number:	SN413079Multiplexer serial number:	ORYXHardware model number:	OX4-SRSoftware version number:	ORYX F/W v4.00 Oryx Data Collector v3.7.2.0data status	okinstallation	princeton_trtdifferential loss correction	single-endedforward channel	channel 3reverse channel	N/Adate	2019/09/18time	16:48:35forward acquisition time	60.00reverse acquisition time	0.00gamma	496.2192k internal	0.2292k external	0.2292temperature offset calibration	0.9993default loss term (dB/km)	0.3790temperature slope calibration	1.0000multiplexer offset coefficient	1.0000multiplexer slope coefficient	1.0000fibre end	0.00T internal ref (°C)	39.95T ext. ref 1 (°C)	0.88T ext. ref 2 (°C)	35.26length (m)	temperature (°C)	Stokes	anti-Stokes-747.200	312.259	-0.020	-0.038
-746.185	165.806	0.069	0.101
-745.171	66.401	-0.211	-0.219
-744.156	-200.000	-0.011	0.233
-743.142	-148.393	0.401	-0.034
-742.127	-83.296	-0.073	0.024
-741.112	-151.082	-0.132	-0.010
-740.098	273.464	-0.292	0.528
-739.083	85.429	0.140	0.158
-738.069	-50.310	-0.306	0.148
-737.054	-80.018	0.140	-0.048
-736.039	-200.000	0.001	0.085
-735.025	800.000	0.045	0.139
-734.010	601.670	-0.024	0.060
-732.996	58.937	-0.105	0.105
-731.981	-200.000	0.012	0.429
-730.966	-77.759	0.211	-0.074
-729.952	-100.710	-0.259	0.065
-728.937	-88.516	-0.308	0.094
-727.923	-61.966	0.035	-0.015
-726.908	407.948	-0.074	0.161
-725.894	800.000	-0.046	0.157
-724.879	-144.815	0.184	0.017
-723.864	-180.443	-0.109	-0.002
-722.850	441.157	-0.075	-0.167
-721.835	-200.000	-0.019	-0.104
-720.821	20.327	0.104	-0.086
-719.806	-70.981	-0.230	-0.089
-718.791	-155.013	-0.366	0.025
-717.777	38.825	-0.188	0.171
-716.762	139.154	-0.112	-0.151
-715.748	385.502	0.164	0.346
-714.733	321.238	0.012	0.023
-713.718	-53.925	-0.343	-0.160
-712.704	800.000	-0.105	-0.401
-711.689	141.350	-0.311	-0.420
-710.675	-200.000	-0.002	0.041
-709.660	-163.952	0.338	0.016
-708.645	-52.577	0.048	-0.022
-707.631	-200.000	-0.003	-0.182
-706.616	80.294	-0.037	0.041
-705.602	176.612	-0.121	-0.179
-704.587	-108.040	-0.085	-0.019
-703.572	-81.311	-0.136	-0.046
-702.558	-200.000	-0.049	-0.225
-701.543	-40.304	0.201	0.107
-700.529	-8.303	-0.193	-0.132
-699.514	800.000	-0.056	0.205
-698.499	54.093	0.222	0.218
-697.485	800.000	0.027	-0.081
-696.470	-173.147	0.489	-0.015
-695.456	-73.804	0.268	-0.099
-694.441	-21.994	-0.211	0.131
-693.426	-167.431	0.346	-0.014
-692.412	109.686	-0.164	-0.201
-691.397	194.444	-0.033	0.051
-690.383	555.623	0.093	-0.228
-689.368	-49.333	0.197	-0.096
-688.354	-200.000	0.048	0.224
-687.339	-200.000	-0.064	0.405
-686.324	-101.378	0.217	0.054
-685.310	-61.228	0.099	-0.043
-684.295	-69.064	-0.172	0.068
-683.281	-48.732	-0.124	-0.061
-682.266	-28.641	-0.083	0.049
-681.251	459.774	0.049	-0.112
-680.237	-200.000	0.034	-0.170
-679.222	310.199	-0.082	-0.157
-678.208	62.803	-0.265	-0.271
-677.193	-152.164	-0.225	-0.017
-676.178	-85.154	-0.206	0.066
-675.164	296.237	-0.110	-0.205
-674.149	-96.041	0.202	-0.055
-673.135	102.618	-0.147	0.175
-672.120	-154.304	-0.249	-0.017
-671.105	-144.638	-0.108	-0.010
-670.091	56.410	-0.169	-0.168
-669.076	382.542	0.125	0.262
-668.062	85.489	-0.211	-0.237
-667.047	459.640	-0.071	0.162
-666.032	152.856	0.053	-0.074
-665.018	-132.141	-0.428	0.057
-664.003	-88.184	0.164	0.050
-662.989	31.835	-0.204	0.179
-661.974	-200.000	0.027	0.184
-660.959	-81.953	-0.256	-0.085
-659.945	61.101	-0.195	-0.198
-658.930	-200.000	-0.020	-0.240
-657.916	18.909	0.018	-0.015
-656.901	1.755	0.123	0.091
-655.886	-200.000	-0.014	-0.196
-654.872	-200.000	-0.038	0.195
-653.857	42.699	0.102	0.095
-652.843	-108.528	-0.335	-0.073
-651.828	800.000	-0.049	0.176
-650.814	-11.641	0.170	0.114
-649.799	350.975	0.019	-0.038
-648.784	42.493	-0.188	-0.175
-647.770	7.006	-0.119	-0.090
-646.755	-134.186	-0.160	-0.020
-645.741	-60.327	0.298	-0.129
-644.726	-133.674	0.309	-0.039
-643.711	-200.000	-0.028	0.248
-642.697	-48.717	-0.123	-0.060
-641.682	-118.985	-0.171	0.031
-640.668	-157.462	0.076	0.005
-639.653	-110.843	0.120	-0.025
-638.638	-200.000	-0.002	0.076
-637.624	119.733	-0.041	-0.052
-636.609	54.654	-0.216	0.212
-635.595	-47.690	-0.198	0.098
-634.580	-132.526	-0.185	0.024
-633.565	-161.918	-0.151	-0.008
-632.551	37.892	0.123	0.111
-631.536	234.260	0.032	0.053
-630.522	15.803	-0.377	-0.303
-629.507	-65.459	-0.247	0.101
-628.492	34.222	0.110	0.098
-627.478	5.138	-0.176	0.132
-626.463	201.180	0.131	0.205
-625.449	-144.690	0.275	0.026
-624.434	-87.219	-0.109	-0.034
-623.419	800.000	-0.073	-0.208
-622.405	-43.059	0.200	0.103
-621.390	38.506	0.333	-0.302
-620.376	-23.897	-0.088	-0.053
-619.361	-87.822	-0.280	0.086
-618.346	22.450	0.174	0.145
-617.332	-21.663	0.211	-0.131
-616.317	-42.489	0.199	0.104
-615.303	-200.000	-0.022	-0.372
-614.288	357.436	-0.088	-0.179
-613.273	-47.187	0.047	0.023
-612.259	800.000	0.042	-0.137
-611.244	-154.010	-0.337	-0.023
-610.230	800.000	-0.044	-0.182
-609.215	800.000	0.095	-0.297
-608.201	-43.918	0.281	-0.144
-607.186	800.000	-0.037	0.119
-606.171	-58.518	0.315	0.139
-605.157	143.690	-0.087	-0.118
-604.142	261.357	0.089	0.157
-603.128	399.250	-0.303	0.645
-602.113	-77.193	-0.173	0.061
-601.098	153.702	0.188	0.262
-600.084	246.289	0.072	0.123
-599.069	-56.762	-0.174	0.078
-598.055	-59.072	-0.336	-0.148
-597.040	800.000	-0.115	-0.345
-596.025	-12.321	-0.158	0.105
-595.011	-112.854	0.353	0.071
-593.996	-60.466	0.222	-0.096
-592.982	137.460	-0.096	0.128
-591.967	102.712	0.200	-0.238
-590.952	-28.529	-0.370	-0.217
-589.938	31.796	0.184	-0.161
-588.923	74.651	0.107	-0.115
-587.909	-52.149	-0.239	-0.113
-586.894	800.000	-0.048	-0.209
-585.879	-67.898	-0.094	0.037
-584.865	-200.000	-0.015	-0.185
-583.850	-135.829	0.178	0.021
-582.836	-137.546	-0.205	0.024
-581.821	-126.813	-0.368	-0.055
-580.806	17.496	0.058	0.047
-579.792	-116.514	0.181	0.034
-578.777	238.770	0.212	0.359
-577.763	375.619	0.134	-0.278
-576.748	166.471	-0.205	0.295
-575.733	-68.166	-0.145	-0.057
-574.719	61.841	0.206	-0.209
-573.704	36.407	-0.184	0.165
-572.690	-28.838	0.154	-0.090
-571.675	800.000	-0.032	-0.110
-570.661	800.000	-0.128	-0.407
-569.646	134.091	0.119	-0.156
-568.631	-132.216	-0.422	0.056
-567.617	-200.000	0.034	-0.152
-566.602	-157.790	0.338	-0.020
-565.588	172.054	-0.060	-0.087
-564.573	800.000	-0.102	0.310
-563.558	-200.000	-0.004	0.093
-562.544	-36.355	-0.370	0.202
-561.529	-130.033	0.096	-0.013
-560.515	-60.087	-0.326	0.142
-559.500	564.051	-0.043	0.106
-558.485	-89.660	-0.451	-0.134
-557.471	236.358	-0.158	0.265
-556.456	-200.000	-0.003	0.274
-555.442	-179.394	0.122	0.003
-554.427	-200.000	0.006	-0.365
-553.412	800.000	-0.040	-0.169
-552.398	-187.633	-0.203	-0.003
-551.383	-101.240	0.369	0.092
-550.369	-200.000	-0.028	0.172
-549.354	-10.894	-0.167	0.112
-548.339	-144.279	0.203	0.019
-547.325	-200.000	0.015	-0.100
-546.310	0.945	0.064	0.047
-545.296	291.010	0.164	0.302
-544.281	132.702	0.216	-0.283
-543.266	258.675	-0.143	-0.250
-542.252	218.607	0.059	0.095
-541.237	514.952	0.037	-0.089
-540.223	-67.658	-0.288	0.115
-539.208	-147.642	-0.394	-0.034
-538.193	-200.000	0.048	-0.369
-537.179	637.048	-0.063	0.163
-536.164	344.476	-0.058	0.116
-535.150	-130.445	0.215	0.030
-534.135	-63.371	0.384	0.160
-533.121	79.404	-0.214	-0.233
-532.106	-99.036	0.295	0.076
-531.091	-75.306	0.062	0.022
-530.077	101.212	0.287	0.339
-529.062	407.302	-0.069	0.148
-528.048	-200.000	-0.065	-0.451
-527.033	76.709	0.110	0.119
-526.018	-13.081	0.129	-0.085
-525.004	-133.591	-0.462	-0.059
-523.989	59.095	-0.201	-0.201
-522.975	73.736	-0.131	0.139
-521.960	-69.023	0.269	-0.105
-520.945	-200.000	-0.062	0.298
-519.931	2.406	0.111	-0.082
-518.916	-85.835	-0.130	0.041
-517.902	-200.000	0.013	-0.113
-516.887	73.207	-0.110	-0.116
-515.872	-85.037	0.142	-0.045
-514.858	-169.798	-0.258	-0.009
-513.843	-128.508	0.105	0.015
-512.829	1.049	0.052	0.038
-511.814	502.214	0.024	0.056
-510.799	-93.769	0.142	0.040
-509.785	193.423	0.056	0.085
-508.770	-43.266	0.076	-0.039
-507.756	748.137	0.091	0.248
-506.741	800.000	-0.076	0.272
-505.726	-111.014	-0.198	0.041
-504.712	-133.030	-0.305	0.039
-503.697	-200.000	0.028	-0.179
-502.683	724.935	-0.052	0.141
-501.668	72.938	-0.198	-0.210
-500.653	-160.351	0.031	-0.002
-499.639	-105.152	0.301	0.070
-498.624	84.690	-0.168	0.187
-497.610	-200.000	0.009	-0.043
-496.595	-163.498	0.248	-0.012
-495.581	114.955	-0.181	-0.224
-494.566	-189.969	-0.189	-0.002
-493.551	-200.000	0.013	0.160
-492.537	744.099	0.113	0.307
-491.522	-69.301	-0.076	0.030
-490.508	-200.000	-0.005	-0.115
-489.493	800.000	0.087	-0.258
-488.478	462.645	0.053	0.121
-487.464	-21.365	-0.356	0.220
-486.449	-138.778	-0.215	0.024
-485.435	-200.000	-0.010	-0.315
-484.420	794.210	0.052	0.145
-483.405	-123.212	0.013	-0.002
-482.391	66.184	0.198	0.203
-481.376	-200.000	-0.037	0.283
-480.362	-81.629	0.158	0.053
-479.347	-200.000	0.050	0.409
-478.332	-119.482	0.232	-0.041
-477.318	-157.638	-0.253	-0.015
-476.303	425.360	0.095	0.208
-475.289	12.819	0.057	0.044
-474.274	-50.863	0.261	-0.124
-473.259	-200.000	-0.038	-0.227
-472.245	-85.013	0.189	-0.060
-471.230	-200.000	0.065	-0.000
-470.216	-122.462	-0.292	-0.048
-469.201	-200.000	0.043	-0.209
-468.186	75.252	-0.081	0.086
-467.172	-137.976	0.245	-0.028
-466.157	-118.834	0.128	-0.023
-465.143	-200.000	0.018	0.196
-464.128	-28.549	0.166	0.097
-463.113	-200.000	0.007	-0.103
-462.099	133.916	-0.100	0.131
-461.084	-48.202	0.364	0.178
-460.070	-200.000	0.032	-0.254
-459.055	-170.018	-0.237	0.009
-458.040	-18.007	0.404	0.256
-457.026	800.000	-0.115	-0.328
-456.011	511.309	-0.025	-0.058
-454.997	-78.102	-0.177	0.062
-453.982	-89.049	0.093	0.028
-452.968	254.687	-0.078	0.135
-451.953	95.280	-0.258	0.297
-450.938	134.351	-0.043	-0.056
-449.924	-47.614	0.180	0.089
-448.909	800.000	-0.104	0.298
-447.895	310.466	-0.048	-0.091
-446.880	800.000	0.051	0.164
-445.865	-29.352	0.075	-0.043
-444.851	180.302	0.233	-0.346
-443.836	-200.000	-0.032	-0.192
-442.822	-172.213	-0.285	-0.009
-441.807	-91.255	-0.315	-0.091
-440.792	23.329	0.137	0.114
-439.778	313.653	-0.203	0.386
-438.763	136.193	0.187	-0.246
-437.749	245.880	0.132	-0.225
-436.734	306.322	0.184	0.346
-435.719	711.253	0.079	-0.211
-434.705	-129.425	0.339	-0.047
-433.690	81.221	-0.156	-0.170
-432.676	-72.412	-0.315	0.118
-431.661	-200.000	0.043	0.333
-430.646	-11.226	-0.102	0.068
-429.632	-103.631	-0.358	0.085
-428.617	21.022	-0.211	0.173
-427.603	55.667	-0.173	0.169
-426.588	-200.000	0.054	-0.381
-425.573	-70.622	-0.080	-0.031
-424.559	-4.984	0.017	-0.012
-423.544	-200.000	-0.018	0.199
-422.530	-149.780	-0.130	-0.010
-421.515	-11.174	0.043	-0.028
-420.500	-200.000	0.007	0.146
-419.486	-200.000	-0.003	0.043
-418.471	-34.199	-0.236	-0.131
-417.457	24.026	0.091	0.076
-416.442	34.322	-0.238	0.209
-415.428	83.034	-0.253	-0.278
-414.413	173.694	0.327	-0.476
-413.398	-92.625	-0.289	-0.082
-412.384	-200.000	-0.009	0.270
-411.369	69.906	0.169	0.176
-410.355	269.267	-0.096	0.169
-409.340	800.000	0.107	0.388
-408.325	-30.971	-0.221	-0.126
-407.311	155.135	-0.106	0.148
-406.296	484.709	-0.106	0.245
-405.282	-200.000	0.067	0.300
-404.267	120.706	-0.175	0.220
-403.252	-200.000	-0.042	-0.471
-402.238	-200.000	0.007	0.171
-401.223	-94.281	-0.126	-0.035
-400.209	-58.377	-0.210	-0.092
-399.194	-29.570	-0.177	-0.102
-398.179	-200.000	-0.008	-0.287
-397.165	-166.057	-0.122	0.005
-396.150	-200.000	-0.028	0.336
-395.136	244.780	-0.075	-0.127
-394.121	-177.084	-0.197	0.005
-393.106	244.929	0.091	0.155
-392.092	-106.466	0.198	0.045
-391.077	138.020	-0.046	0.061
-390.063	-11.343	0.125	0.083
-389.048	800.000	-0.030	0.122
-388.033	244.814	0.123	0.209
-387.019	-200.000	0.032	-0.256
-386.004	-200.000	0.008	0.110
-384.990	-200.000	-0.040	-0.308
-383.975	178.128	0.093	0.137
-382.960	-80.051	-0.318	-0.108
-381.946	385.732	-0.121	0.251
-380.931	-134.535	0.298	0.037
-379.917	800.000	-0.136	0.547
-378.902	-46.088	-0.035	-0.018
-377.888	-20.908	-0.107	-0.066
-376.873	15.322	-0.148	0.117
-375.858	-91.712	0.408	-0.117
-374.844	-200.000	0.032	0.497
-373.829	-135.814	0.136	-0.016
-372.815	491.461	0.055	0.127
-371.800	-52.863	0.123	-0.057
-370.785	-13.374	-0.178	-0.116
-369.771	-200.000	-0.064	0.290
-368.756	316.065	0.088	-0.168
-367.742	-200.000	0.002	0.014
-366.727	49.914	0.127	-0.121
-365.712	-200.000	-0.045	-0.279
-364.698	481.233	0.089	-0.203
-363.683	-34.050	-0.111	-0.061
-362.669	163.373	0.066	-0.094
-361.654	797.155	-0.155	0.432
-360.639	-200.000	0.000	-0.249
-359.625	-82.569	-0.286	-0.094
-358.610	-6.736	0.042	0.029
-357.596	-3.956	0.225	-0.157
-356.581	-110.361	0.341	0.071
-355.566	-99.982	0.333	0.084
-354.552	-118.833	-0.215	0.038
-353.537	520.900	-0.104	-0.247
-352.523	525.701	-0.091	-0.217
-351.508	105.904	-0.112	-0.133
-350.493	-107.940	-0.142	-0.031
-349.479	-57.284	0.142	-0.063
-348.464	-200.000	-0.020	-0.161
-347.450	36.327	-0.166	0.147
-346.435	-4.940	0.046	-0.032
-345.420	-200.000	-0.036	0.432
-344.406	-200.000	-0.031	-0.203
-343.391	800.000	0.042	-0.136
-342.377	350.821	0.161	0.320
-341.362	-4.175	-0.233	-0.163
-340.348	800.000	0.049	0.206
-339.333	-56.846	-0.249	0.111
-338.318	3.423	0.084	-0.061
-337.304	-96.756	-0.408	-0.108
-336.289	165.964	-0.124	-0.177
-335.275	-200.000	0.019	-0.305
-334.260	-45.638	-0.205	0.102
-333.245	311.243	0.129	0.243
-332.231	-54.960	0.289	0.131
-331.216	-200.000	-0.024	-0.114
-330.202	1.570	0.357	0.259
-329.187	149.573	-0.071	0.097
-328.172	-50.640	-0.181	0.086
-327.158	14.953	-0.127	0.100
-326.143	463.566	0.110	-0.247
-325.129	32.404	-0.252	-0.219
-324.114	-139.665	0.304	0.033
-323.099	-49.574	0.165	-0.079
-322.085	-58.454	-0.186	0.081
-321.070	800.000	0.040	-0.129
-320.056	519.696	-0.095	0.224
-319.041	66.695	0.097	-0.099
-318.026	128.142	0.120	0.154
-317.012	-200.000	0.068	-0.377
-315.997	207.187	-0.191	-0.300
-314.983	-79.272	0.226	-0.077
-313.968	-79.376	-0.435	-0.148
-312.953	-175.717	0.248	-0.007
-311.939	800.000	0.039	0.119
-310.924	700.493	-0.036	-0.096
-309.910	-200.000	-0.011	-0.124
-308.895	13.083	-0.169	-0.132
-307.880	800.000	-0.028	0.120
-306.866	-135.807	0.366	0.044
-305.851	-200.000	-0.021	0.204
-304.837	4.071	0.167	-0.123
-303.822	-131.620	0.294	-0.039
-302.807	800.000	0.040	-0.121
-301.793	-3.447	0.332	0.232
-300.778	4.842	0.104	-0.077
-299.764	-200.000	-0.037	-0.573
-298.749	-84.988	-0.331	-0.104
-297.735	-122.173	-0.344	-0.057
-296.720	800.000	0.021	0.071
-295.705	-130.389	0.072	0.010
-294.691	-129.818	-0.287	0.040
-293.676	55.262	-0.107	-0.104
-292.662	-86.296	0.244	-0.076
-291.647	111.486	0.120	0.145
-290.632	-28.194	-0.052	-0.030
-289.618	-14.524	0.207	0.134
-288.603	-36.946	-0.118	-0.064
-287.589	-40.715	-0.076	-0.040
-286.574	-68.398	-0.061	-0.024
-285.559	-200.000	-0.005	-0.096
-284.545	-102.181	-0.176	-0.042
-283.530	640.575	-0.045	0.114
-282.516	-200.000	-0.024	-0.168
-281.501	676.090	0.198	-0.517
-280.486	56.662	-0.107	0.105
-279.472	-65.684	-0.184	0.074
-278.457	269.638	0.097	0.171
-277.443	-60.386	-0.254	0.109
-276.428	800.000	0.030	-0.100
-275.413	-166.717	0.201	0.008
-274.399	-200.000	0.013	-0.214
-273.384	-200.000	0.029	-0.143
-272.370	-128.091	0.099	0.014
-271.355	800.000	0.105	-0.309
-270.340	5.129	0.209	0.154
-269.326	800.000	-0.058	0.168
-268.311	435.634	0.078	-0.170
-267.297	604.495	-0.066	-0.165
-266.282	800.000	0.025	0.107
-265.267	-200.000	-0.033	-0.211
-264.253	-181.254	-0.204	-0.004
-263.238	-163.072	-0.096	0.005
-262.224	30.033	-0.126	-0.108
-261.209	120.594	0.309	-0.386
-260.195	-65.526	0.135	-0.055
-259.180	-200.000	0.015	-0.338
-258.165	10.735	-0.147	-0.113
-257.151	116.475	0.151	0.186
-256.136	-200.000	-0.013	0.118
-255.122	86.679	-0.060	0.067
-254.107	-157.581	0.169	0.010
-253.092	344.424	-0.115	-0.226
-252.078	410.329	-0.125	-0.267
-251.063	-200.000	-0.009	-0.094
-250.049	-68.781	0.237	0.092
-249.034	78.415	0.193	0.207
-248.019	-23.253	0.058	0.035
-247.005	96.776	0.094	-0.108
-245.990	-200.000	-0.031	0.155
-244.976	70.932	-0.191	-0.198
-243.961	-48.003	-0.309	0.150
-242.946	-200.000	0.003	-0.300
-241.932	148.627	0.277	-0.376
-240.917	293.163	-0.058	-0.107
-239.903	-200.000	0.004	-0.086
-238.888	52.785	0.240	0.231
-237.873	402.849	-0.099	-0.209
-236.859	365.857	0.057	-0.115
-235.844	598.647	0.017	0.041
-234.830	-139.299	0.274	0.030
-233.815	257.238	0.102	0.176
-232.800	800.000	0.080	-0.226
-231.786	-200.000	-0.016	0.239
-230.771	-100.490	-0.153	-0.038
-229.757	-187.440	0.261	0.004
-228.742	565.536	-0.080	0.196
-227.727	611.577	-0.029	0.072
-226.713	23.882	-0.295	-0.244
-225.698	-200.000	0.023	0.110
-224.684	-73.091	0.054	0.020
-223.669	-146.354	-0.241	-0.021
-222.655	125.521	-0.208	0.263
-221.640	95.903	0.293	-0.335
-220.625	-200.000	0.021	-0.383
-219.611	-63.487	0.118	0.049
-218.596	-200.000	0.041	0.306
-217.582	38.798	0.083	0.075
-216.567	183.943	0.042	-0.063
-215.552	16.863	0.260	-0.207
-214.538	454.542	0.118	0.261
-213.523	74.258	0.143	0.151
-212.509	-87.638	0.121	0.037
-211.494	93.106	0.256	-0.290
-210.479	-67.846	0.353	0.138
-209.465	-39.406	0.228	0.120
-208.450	-76.210	0.196	0.069
-207.436	490.730	0.064	-0.147
-206.421	-200.000	0.006	0.126
-205.406	-200.000	0.002	0.123
-204.392	487.088	-0.104	0.239
-203.377	124.938	-0.124	-0.157
-202.363	320.529	0.183	0.349
-201.348	580.778	-0.121	0.297
-200.333	-87.368	0.282	0.086
-199.319	-152.874	0.442	0.031
-198.304	118.296	-0.275	-0.340
-197.290	-111.024	0.325	-0.067
-196.275	37.336	0.151	0.134
-195.260	197.344	-0.211	0.323
-194.246	315.102	-0.211	0.399
-193.231	-55.155	0.180	-0.081
-192.217	598.364	-0.060	-0.149
-191.202	-30.816	-0.103	-0.058
-190.187	-200.000	0.016	-0.324
-189.173	-38.230	-0.315	0.167
-188.158	183.418	0.053	-0.079
-187.144	92.990	-0.074	-0.084
-186.129	6.024	-0.161	0.120
-185.114	-200.000	0.043	0.267
-184.100	800.000	0.069	0.202
-183.085	-62.930	0.114	0.047
-182.071	43.805	-0.235	-0.215
-181.056	796.193	0.041	-0.114
-180.042	-13.113	-0.292	-0.190
-179.027	-200.000	0.260	0.001
-178.012	-104.566	0.195	0.045
-176.998	-64.565	0.220	0.089
-175.983	13.390	0.276	-0.214
-174.969	183.601	0.099	-0.147
-173.954	-101.022	-0.334	0.082
-172.939	-200.000	0.007	0.103
-171.925	-74.588	0.214	0.077
-170.910	-142.556	-0.251	-0.025
-169.896	800.000	-0.042	0.151
-168.881	118.436	-0.172	-0.213
-167.866	-58.239	0.242	-0.106
-166.852	-200.000	-0.033	0.191
-165.837	576.144	-0.145	-0.355
-164.823	-16.135	0.114	0.073
-163.808	215.656	0.248	0.395
-162.793	-48.600	0.324	0.156
-161.779	137.645	0.034	-0.045
-160.764	37.803	-0.227	0.202
-159.750	250.953	0.049	0.084
-158.735	800.000	-0.058	-0.245
-157.720	-45.886	-0.054	0.027
-156.706	-5.009	0.134	-0.093
-155.691	652.451	-0.081	-0.207
-154.677	198.467	-0.098	0.150
-153.662	60.397	0.103	0.102
-152.647	60.159	0.237	0.234
-151.633	7.484	0.263	-0.196
-150.618	-200.000	0.053	-0.378
-149.604	-31.890	0.164	0.092
-148.589	-64.172	-0.111	-0.045
-147.574	9.478	0.151	0.114
-146.560	-127.690	-0.088	0.013
-145.545	-131.779	-0.208	-0.027
-144.531	328.442	0.212	0.407
-143.516	-200.000	0.008	0.234
-142.502	-30.294	0.305	0.173
-141.487	-86.059	-0.207	-0.064
-140.472	-200.000	0.001	0.036
-139.458	55.997	-0.196	-0.190
-138.443	800.000	0.097	-0.315
-137.429	-120.134	-0.352	-0.060
-136.414	-112.167	-0.565	0.114
-135.399	204.349	-0.113	-0.175
-134.385	13.605	-0.145	0.112
-133.370	-200.000	-0.066	0.366
-132.356	-200.000	-0.004	-0.159
-131.341	800.000	0.041	0.135
-130.326	51.944	-0.076	0.072
-129.312	-200.000	0.047	0.357
-128.297	284.580	0.103	0.186
-127.283	45.144	-0.024	-0.022
-126.268	667.866	-0.137	-0.355
-125.253	193.039	-0.162	0.244
-124.239	-195.858	-0.492	0.004
-123.224	-200.000	-0.031	-0.185
-122.210	-17.005	-0.199	-0.125
