DTS Sentinel unit serial number:	SN413079Multiplexer serial number:	ORYXHardware model number:	OX4-SRSoftware version number:	ORYX F/W v4.00 Oryx Data Collector v3.7.2.0data status	okinstallation	princeton_trtdifferential loss correction	single-endedforward channel	channel 3reverse channel	N/Adate	2019/09/16time	10:08:35forward acquisition time	60.00reverse acquisition time	0.00gamma	496.2192k internal	0.2313k external	0.2313temperature offset calibration	0.9943default loss term (dB/km)	0.3790temperature slope calibration	1.0000multiplexer offset coefficient	1.0000multiplexer slope coefficient	1.0000fibre end	0.00T internal ref (°C)	33.95T ext. ref 1 (°C)	12.43T ext. ref 2 (°C)	32.82length (m)	temperature (°C)	Stokes	anti-Stokes-747.200	800.000	-0.080	-0.258
-746.185	380.559	-0.061	0.127
-745.171	70.306	0.142	0.149
-744.156	-200.000	0.054	0.317
-743.142	-103.018	0.212	-0.051
-742.127	43.508	-0.080	-0.074
-741.112	386.101	0.135	0.282
-740.098	72.189	0.167	0.176
-739.083	-148.763	0.087	-0.007
-738.069	-144.802	-0.288	-0.027
-737.054	37.174	0.032	-0.029
-736.039	-83.489	-0.242	0.078
-735.025	-200.000	0.006	0.246
-734.010	19.442	-0.197	0.160
-732.996	-52.175	-0.430	-0.202
-731.981	492.233	-0.115	-0.267
-730.966	-21.563	-0.106	0.066
-729.952	153.411	-0.122	-0.170
-728.937	30.815	-0.571	-0.495
-727.923	58.913	-0.053	0.053
-726.908	12.202	-0.136	0.107
-725.894	-106.435	-0.005	0.001
-724.879	-80.015	0.204	0.069
-723.864	-28.001	-0.240	0.141
-722.850	-200.000	-0.045	0.202
-721.835	800.000	-0.052	-0.151
-720.821	-200.000	0.023	-0.476
-719.806	-128.117	-0.125	-0.018
-718.791	207.276	-0.282	-0.446
-717.777	93.170	-0.104	-0.119
-716.762	35.883	-0.083	-0.074
-715.748	127.299	-0.079	-0.101
-714.733	-105.214	-0.144	0.033
-713.718	-200.000	0.032	0.197
-712.704	-70.466	-0.252	-0.097
-711.689	-73.387	-0.309	-0.114
-710.675	214.511	0.108	0.173
-709.660	-200.000	0.011	-0.162
-708.645	258.486	0.193	-0.337
-707.631	-200.000	-0.016	-0.279
-706.616	104.120	-0.023	0.028
-705.602	800.000	0.076	-0.290
-704.587	-117.427	0.227	-0.042
-703.572	75.339	0.215	0.230
-702.558	-113.511	0.100	0.020
-701.543	0.487	0.295	-0.214
-700.529	800.000	-0.085	-0.319
-699.514	-141.582	-0.209	-0.021
-698.499	-88.853	-0.041	-0.012
-697.485	132.026	0.109	0.142
-696.470	78.370	-0.254	-0.275
-695.456	-200.000	0.010	0.238
-694.441	168.307	0.301	-0.434
-693.426	122.415	-0.080	0.101
-692.412	-200.000	0.072	-0.355
-691.397	89.561	-0.191	-0.216
-690.383	800.000	-0.060	-0.172
-689.368	17.880	-0.115	0.093
-688.354	110.834	-0.174	0.212
-687.339	-200.000	-0.016	0.543
-686.324	-123.973	0.460	0.073
-685.310	-30.101	-0.209	0.121
-684.295	113.000	-0.201	-0.246
-683.281	60.349	0.134	-0.134
-682.266	-38.368	-0.396	-0.212
-681.251	800.000	-0.139	-0.501
-680.237	47.315	-0.110	0.104
-679.222	24.232	-0.175	0.146
-678.208	120.946	-0.148	0.186
-677.193	-64.824	-0.279	0.114
-676.178	-31.478	-0.299	-0.170
-675.164	538.764	-0.136	-0.328
-674.149	-200.000	-0.007	-0.075
-673.135	-77.599	-0.198	-0.069
-672.120	567.988	-0.049	-0.120
-671.105	75.587	-0.052	0.055
-670.091	800.000	-0.089	-0.271
-669.076	14.757	0.172	0.136
-668.062	-200.000	0.009	0.075
-667.047	-200.000	-0.027	0.172
-666.032	-114.491	0.163	0.032
-665.018	11.594	0.199	0.155
-664.003	800.000	-0.041	0.179
-662.989	-142.097	-0.214	-0.021
-661.974	-81.884	0.268	-0.089
-660.959	309.303	-0.118	-0.223
-659.945	76.640	-0.173	-0.186
-658.930	71.279	-0.198	-0.208
-657.916	26.016	-0.141	0.119
-656.901	666.822	0.105	0.275
-655.886	-78.809	-0.119	0.041
-654.872	-100.578	0.286	-0.072
-653.857	-146.656	0.117	-0.010
-652.843	186.435	-0.112	-0.169
-651.828	343.156	0.198	0.391
-650.814	-125.700	0.375	0.057
-649.799	-200.000	-0.005	0.056
-648.784	-68.794	0.318	-0.124
-647.770	-93.379	-0.425	0.119
-646.755	329.954	0.218	-0.423
-645.741	167.752	-0.146	0.210
-644.726	-200.000	-0.077	-0.388
-643.711	499.199	0.051	-0.120
-642.697	-137.204	0.092	0.011
-641.682	-106.611	-0.104	-0.023
-640.668	-152.454	-0.218	0.016
-639.653	-33.679	-0.377	-0.210
-638.638	-72.505	0.335	-0.125
-637.624	-85.964	0.194	0.061
-636.609	-200.000	0.007	0.257
-635.595	259.339	0.082	0.142
-634.580	-200.000	0.024	-0.425
-633.565	220.218	-0.154	-0.249
-632.551	414.976	-0.229	-0.493
-631.536	-200.000	0.010	0.155
-630.522	41.430	-0.222	0.203
-629.507	-101.590	-0.269	-0.066
-628.492	488.856	-0.105	0.241
-627.478	-68.127	-0.349	-0.137
-626.463	800.000	0.076	-0.218
-625.449	463.112	0.079	0.177
-624.434	-130.613	0.239	-0.032
-623.419	-106.945	0.253	-0.057
-622.405	-99.305	-0.187	0.048
-621.390	-63.460	0.260	0.108
-620.376	800.000	-0.027	-0.102
-619.361	30.989	0.068	-0.059
-618.346	-35.808	-0.325	0.178
-617.332	-200.000	-0.003	0.079
-616.317	-200.000	-0.091	0.455
-615.303	95.631	-0.055	0.063
-614.288	293.103	0.056	-0.103
-613.273	26.848	-0.082	0.069
-612.259	-3.515	-0.066	0.046
-611.244	-200.000	0.010	0.068
-610.230	-180.048	-0.129	-0.003
-609.215	49.807	-0.033	-0.031
-608.201	-119.136	0.230	-0.040
-607.186	-200.000	-0.013	0.249
-606.171	-200.000	0.057	-0.268
-605.157	475.884	-0.143	0.326
-604.142	-200.000	0.033	-0.367
-603.128	800.000	0.040	0.161
-602.113	-26.802	-0.228	-0.135
-601.098	-37.388	0.042	-0.023
-600.084	-91.387	-0.165	0.048
-599.069	-2.829	-0.096	-0.068
-598.055	-112.350	0.227	0.046
-597.040	371.021	0.035	-0.072
-596.025	-154.600	0.072	-0.005
-595.011	-72.494	-0.089	0.033
-593.996	-30.253	0.237	-0.136
-592.982	-200.000	0.063	0.321
-591.967	106.680	0.183	0.219
-590.952	113.574	-0.301	0.369
-589.938	-110.745	-0.164	-0.034
-588.923	-28.301	0.116	-0.067
-587.909	-156.895	-0.066	-0.004
-586.894	161.053	0.104	0.146
-585.879	-200.000	-0.004	0.308
-584.865	-85.462	0.157	-0.049
-583.850	39.270	0.246	0.222
-582.836	152.727	-0.293	0.404
-581.821	147.539	0.147	-0.200
-580.806	-200.000	0.003	-0.080
-579.792	800.000	0.027	0.089
-578.777	139.969	-0.076	-0.102
-577.763	28.173	0.212	-0.180
-576.748	-89.239	0.077	0.023
-575.733	-38.378	0.152	0.081
-574.719	-200.000	-0.019	-0.186
-573.704	10.045	0.104	-0.079
-572.690	800.000	-0.084	0.290
-571.675	192.629	-0.086	-0.131
-570.661	156.757	0.086	0.120
-569.646	271.959	0.140	-0.248
-568.631	169.550	0.157	-0.226
-567.617	-200.000	0.031	-0.233
-566.602	800.000	-0.014	-0.048
-565.588	-200.000	0.044	-0.337
-564.573	-200.000	-0.012	0.219
-563.558	99.695	-0.206	0.241
-562.544	-13.242	-0.385	-0.252
-561.529	-79.233	0.106	-0.036
-560.515	-130.041	0.140	-0.019
-559.500	310.768	-0.151	-0.285
-558.485	800.000	0.078	-0.334
-557.471	-56.598	0.185	-0.083
-556.456	23.769	0.250	-0.207
-555.442	800.000	-0.054	0.212
-554.427	800.000	0.048	0.164
-553.412	-33.995	-0.337	-0.187
-552.398	-84.656	-0.082	-0.026
-551.383	51.712	-0.318	-0.305
-550.369	156.082	0.168	0.233
-549.354	119.736	-0.185	0.231
-548.339	-115.524	-0.159	-0.030
-547.325	227.017	-0.106	-0.173
-546.310	-200.000	-0.072	0.395
-545.296	-100.909	0.468	-0.116
-544.281	-124.714	-0.221	-0.034
-543.266	2.877	-0.121	-0.088
-542.252	-57.375	-0.293	-0.130
-541.237	123.884	-0.076	-0.096
-540.223	34.604	-0.096	-0.084
-539.208	-124.564	0.193	-0.030
-538.193	-8.793	-0.242	-0.163
-537.179	224.837	-0.215	0.350
-536.164	-99.814	-0.211	-0.053
-535.150	-88.983	0.125	0.037
-534.135	140.446	0.061	-0.081
-533.121	176.643	0.036	-0.052
-532.106	105.147	0.035	-0.041
-531.091	-43.076	-0.196	0.100
-530.077	74.072	0.227	0.239
-529.062	145.197	-0.263	0.354
-528.048	-200.000	0.025	-0.277
-527.033	375.077	-0.154	-0.316
-526.018	-200.000	-0.016	0.110
-525.004	44.346	0.192	0.177
-523.989	584.960	-0.102	0.251
-522.975	-90.122	-0.225	0.066
-521.960	-8.116	0.076	-0.052
-520.945	-156.576	-0.194	-0.012
-519.931	56.953	0.075	-0.073
-518.916	658.026	0.030	0.078
-517.902	91.404	-0.133	-0.151
-516.887	38.897	-0.066	0.059
-515.872	-172.566	0.342	0.011
-514.858	800.000	-0.099	0.305
-513.843	-76.362	-0.303	0.107
-512.829	-0.719	0.093	0.066
-511.814	119.318	0.135	0.168
-510.799	-200.000	-0.032	0.203
-509.785	-200.000	-0.031	0.172
-508.770	-129.600	0.064	-0.009
-507.756	728.521	0.105	-0.281
-506.741	800.000	0.016	0.048
-505.726	28.220	-0.068	-0.057
-504.712	193.751	0.039	-0.059
-503.697	-200.000	0.030	-0.266
-502.683	19.107	-0.039	-0.031
-501.668	-200.000	0.035	0.289
-500.653	347.683	-0.062	-0.122
-499.639	-200.000	0.039	-0.282
-498.624	5.492	-0.126	0.093
-497.610	93.731	-0.165	-0.187
-496.595	-65.104	-0.485	-0.196
-495.581	577.829	0.118	-0.289
-494.566	-101.547	-0.058	0.014
-493.551	-200.000	0.037	0.167
-492.537	-31.601	0.270	-0.152
-491.522	800.000	-0.085	-0.267
-490.508	-69.796	0.131	-0.050
-489.493	-200.000	-0.014	-0.256
-488.478	19.677	0.176	-0.142
-487.464	-105.921	0.198	-0.045
-486.449	-200.000	0.006	0.210
-485.435	38.480	0.230	0.205
-484.420	-200.000	0.005	0.197
-483.405	455.172	-0.109	-0.242
-482.391	-200.000	-0.002	0.200
-481.376	479.352	-0.133	-0.303
-480.362	-71.422	-0.244	-0.092
-479.347	139.585	-0.058	-0.077
-478.332	-75.382	0.172	0.061
-477.318	-160.321	-0.230	-0.012
-476.303	29.705	-0.188	-0.160
-475.289	-65.634	0.199	-0.080
-474.274	121.557	0.136	-0.170
-473.259	-93.692	0.323	0.089
-472.245	159.493	0.237	0.331
-471.230	167.815	-0.165	0.235
-470.216	-87.440	0.092	-0.028
-469.201	800.000	0.107	0.305
-468.186	78.847	-0.209	0.225
-467.172	136.085	0.208	-0.271
-466.157	-62.242	-0.092	-0.038
-465.143	-20.441	-0.074	0.046
-464.128	92.916	-0.255	0.289
-463.113	-117.894	-0.362	-0.065
-462.099	32.608	0.174	-0.151
-461.084	-200.000	-0.040	0.313
-460.070	399.751	-0.054	0.114
-459.055	-25.937	0.066	0.039
-458.040	-200.000	0.095	-0.528
-457.026	108.249	0.172	0.205
-456.011	-200.000	-0.004	-0.410
-454.997	-96.102	0.220	-0.059
-453.982	-147.680	0.202	-0.017
-452.968	-5.767	-0.282	-0.194
-451.953	-169.035	-0.156	0.006
-450.938	183.676	0.067	-0.099
-449.924	-200.000	-0.017	0.077
-448.909	-55.979	0.364	0.163
-447.895	23.715	0.133	0.110
-446.880	-116.717	0.306	-0.056
-445.865	24.175	0.040	0.033
-444.851	800.000	0.132	0.403
-443.836	438.318	0.074	0.161
-442.822	-61.937	0.085	-0.035
-441.807	-200.000	0.043	-0.306
-440.792	800.000	-0.048	0.171
-439.778	-140.213	0.301	-0.032
-438.763	-200.000	0.016	0.214
-437.749	-80.350	-0.348	0.117
-436.734	7.271	0.251	-0.188
-435.719	-81.580	0.140	0.046
-434.705	-51.962	-0.091	0.042
-433.690	395.533	0.085	0.177
-432.676	340.308	-0.089	-0.174
-431.661	43.604	0.176	-0.161
-430.646	-35.343	-0.333	-0.181
-429.632	753.359	-0.028	-0.077
-428.617	-47.341	0.037	-0.018
-427.603	-109.463	0.160	0.034
-426.588	-51.193	-0.177	-0.083
-425.573	60.819	-0.312	-0.310
-424.559	676.693	-0.054	-0.140
-423.544	-106.797	0.261	-0.058
-422.530	59.982	-0.311	-0.308
-421.515	800.000	-0.049	-0.182
-420.500	-118.901	-0.132	-0.023
-419.486	-126.965	0.111	-0.016
-418.471	185.842	-0.056	-0.083
-417.457	-122.217	0.230	0.038
-416.442	67.348	-0.172	-0.176
-415.428	429.227	-0.065	0.141
-414.413	-200.000	-0.006	0.247
-413.398	-20.041	0.365	-0.225
-412.384	-11.996	0.310	0.203
-411.369	163.417	0.159	-0.223
-410.355	80.941	0.348	-0.376
-409.340	-23.073	0.154	-0.093
-408.325	186.123	-0.131	0.195
-407.311	-121.536	-0.319	-0.053
-406.296	-63.346	-0.206	-0.085
-405.282	17.781	0.195	-0.155
-404.267	63.030	-0.137	-0.138
-403.252	-34.339	0.179	0.098
-402.238	-51.190	-0.508	-0.238
-401.223	423.474	-0.139	-0.300
-400.209	27.328	0.320	-0.269
-399.194	274.315	-0.206	-0.365
-398.179	-50.230	-0.128	-0.061
-397.165	-192.082	0.071	-0.001
-396.150	-102.410	0.448	0.107
-395.136	431.538	-0.052	0.114
-394.121	800.000	0.076	-0.219
-393.106	800.000	-0.089	-0.386
-392.092	41.761	-0.094	0.085
-391.077	114.572	-0.296	0.360
-390.063	421.574	-0.140	0.300
-389.048	-115.742	0.293	0.055
-388.033	476.628	-0.054	-0.121
-387.019	-104.413	-0.207	-0.048
-386.004	73.212	0.041	-0.043
-384.990	28.584	0.035	0.029
-383.975	-189.029	-0.248	0.003
-382.960	284.729	-0.123	0.221
-381.946	11.899	-0.031	-0.024
-380.931	-83.550	0.260	-0.083
-379.917	-73.553	-0.183	-0.067
-378.902	-131.445	-0.335	-0.044
-377.888	-185.304	-0.154	-0.002
-376.873	428.155	-0.050	0.107
-375.858	-145.302	-0.036	0.003
-374.844	-200.000	0.029	0.331
-373.829	19.680	-0.307	-0.247
-372.815	6.518	-0.032	0.024
-371.800	-113.604	0.408	-0.080
-370.785	341.814	-0.126	-0.245
-369.771	-200.000	0.003	-0.405
-368.756	20.603	0.205	0.166
-367.742	-48.219	0.152	-0.073
-366.727	800.000	-0.042	0.118
-365.712	-93.931	0.244	-0.067
-364.698	-66.791	0.194	0.077
-363.683	-35.729	0.261	-0.141
-362.669	-103.790	0.160	0.037
-361.654	-200.000	0.035	-0.209
-360.639	-200.000	0.022	0.119
-359.625	206.730	0.128	0.199
-358.610	-9.209	-0.103	-0.069
-357.596	85.732	0.010	0.011
-356.581	-17.818	0.263	-0.165
-355.566	90.548	-0.039	0.044
-354.552	11.457	-0.081	0.062
-353.537	-82.459	0.112	-0.036
-352.523	153.096	0.072	-0.099
-351.508	-137.809	0.066	0.007
-350.493	-200.000	-0.355	0.002
-349.479	320.065	-0.090	-0.170
-348.464	231.635	0.019	0.031
-347.450	205.871	0.147	0.228
-346.435	-11.200	0.127	0.084
-345.420	-66.650	0.182	0.072
-344.406	-16.110	-0.101	-0.064
-343.391	364.651	-0.097	-0.194
-342.377	-163.160	-0.225	-0.011
-341.362	245.183	0.085	-0.143
-340.348	-64.724	0.026	0.011
-339.333	-173.481	0.350	0.011
-338.318	-8.901	-0.148	-0.099
-337.304	-10.109	-0.265	-0.175
-336.289	-135.328	0.095	-0.011
-335.275	-57.721	-0.165	0.072
-334.260	800.000	-0.146	0.409
-333.245	800.000	0.091	0.273
-332.231	-200.000	0.055	0.388
-331.216	-200.000	0.043	-0.211
-330.202	-30.732	0.267	0.151
-329.187	113.266	-0.168	-0.203
-328.172	-9.231	-0.448	-0.299
-327.158	31.478	-0.122	-0.105
-326.143	-82.917	0.399	0.128
-325.129	97.500	-0.250	0.287
-324.114	-41.109	-0.202	0.104
-323.099	800.000	-0.085	0.238
-322.085	-107.549	0.262	0.057
-321.070	142.645	0.103	-0.136
-320.056	-30.152	0.362	0.205
-319.041	108.077	-0.115	-0.136
-318.026	384.151	0.027	-0.055
-317.012	-200.000	0.015	0.161
-315.997	360.986	-0.143	-0.286
-314.983	516.171	0.113	-0.263
-313.968	204.255	-0.052	0.081
-312.953	-200.000	0.059	0.412
-311.939	-127.364	0.227	-0.033
-310.924	656.144	0.076	-0.195
-309.910	-75.083	0.109	0.039
-308.895	-27.184	-0.334	-0.194
-307.880	22.204	0.289	-0.236
-306.866	-128.471	0.142	0.020
-305.851	800.000	0.019	0.061
-304.837	148.522	0.132	0.178
-303.822	40.405	-0.123	-0.110
-302.807	83.073	0.119	0.129
-301.793	-184.247	-0.175	0.003
-300.778	800.000	-0.110	0.472
-299.764	800.000	-0.020	-0.059
-298.749	-200.000	0.072	0.411
-297.735	-162.419	-0.053	-0.003
-296.720	-37.881	0.178	-0.094
-295.705	800.000	-0.055	-0.162
-294.691	800.000	0.068	0.260
-293.676	185.023	-0.196	0.290
-292.662	-200.000	-0.015	0.297
-291.647	-200.000	0.032	-0.468
-290.632	141.823	0.181	0.239
-289.618	-88.959	0.378	-0.112
-288.603	327.603	-0.103	0.198
-287.589	-150.747	-0.261	0.020
-286.574	192.426	-0.273	0.411
-285.559	-26.967	0.089	-0.052
-284.545	-200.000	0.004	0.049
-283.530	-89.154	0.138	0.041
-282.516	-10.450	-0.112	-0.074
-281.501	-27.570	-0.162	-0.094
-280.486	790.816	0.113	-0.309
-279.472	549.777	0.064	-0.153
-278.457	32.686	-0.066	-0.057
-277.443	124.756	0.202	0.253
-276.428	-35.077	0.256	-0.139
-275.413	-109.926	-0.284	0.059
-274.399	-57.254	0.191	-0.084
-273.384	-200.000	0.222	0.000
-272.370	800.000	-0.061	-0.208
-271.355	-63.916	0.165	0.067
-270.340	133.313	-0.182	0.234
-269.326	216.385	-0.131	0.208
-268.311	-32.250	0.065	-0.036
-267.297	-27.080	-0.141	-0.082
-266.282	26.018	-0.062	0.052
-265.267	-67.540	0.149	0.058
-264.253	800.000	-0.027	0.101
-263.238	-107.789	0.190	0.041
-262.224	-139.829	0.256	-0.027
-261.209	471.653	-0.099	0.222
-260.195	15.655	-0.241	0.188
-259.180	-20.249	0.228	0.140
-258.165	-200.000	0.009	-0.108
-257.151	-200.000	0.023	0.322
-256.136	800.000	-0.039	-0.142
-255.122	192.674	-0.113	0.169
-254.107	-149.854	0.271	-0.021
-253.092	-200.000	0.009	-0.206
-252.078	-67.245	0.097	-0.038
-251.063	-103.123	0.286	-0.067
-250.049	-200.000	0.009	-0.045
-249.034	-200.000	-0.037	0.183
-248.019	-200.000	0.005	0.146
-247.005	-66.516	-0.340	-0.134
-245.990	269.539	0.207	-0.361
-244.976	-200.000	0.016	0.164
-243.961	297.228	-0.069	-0.126
-242.946	443.163	-0.104	-0.226
-241.932	199.750	-0.013	0.019
-240.917	461.322	0.035	0.077
-239.903	-95.122	-0.222	-0.060
-238.888	-76.579	0.075	0.026
-237.873	-200.000	-0.015	0.249
-236.859	-200.000	0.037	0.167
-235.844	800.000	0.068	0.192
-234.830	-54.658	-0.247	0.111
-233.815	-56.190	-0.259	-0.115
-232.800	800.000	-0.076	0.269
-231.786	-110.429	0.102	0.021
-230.771	136.129	0.295	0.382
-229.757	-172.753	-0.163	0.005
-228.742	800.000	0.048	0.195
-227.727	141.829	0.119	0.157
-226.713	-60.848	-0.188	-0.079
-225.698	548.342	0.071	0.168
-224.684	-29.269	-0.185	0.105
-223.669	-200.000	0.014	0.304
-222.655	133.455	0.141	0.181
-221.640	34.595	0.079	0.069
-220.625	51.526	-0.219	-0.207
-219.611	-75.894	0.059	0.021
-218.596	600.372	0.085	-0.210
-217.582	249.346	0.128	0.216
-216.567	-16.914	0.087	-0.054
-215.552	-140.369	-0.127	-0.013
-214.538	-200.000	0.016	0.154
-213.523	21.284	-0.228	-0.184
-212.509	-200.000	-0.031	0.277
-211.494	-123.354	-0.122	-0.019
-210.479	277.746	0.066	-0.117
-209.465	-148.120	0.074	-0.006
-208.450	350.062	-0.155	0.305
-207.436	-200.000	-0.015	-0.182
-206.421	190.119	-0.041	0.061
-205.406	-103.819	0.293	0.068
-204.392	452.810	-0.122	0.267
-203.377	-116.792	0.250	-0.045
-202.363	92.904	0.234	0.263
-201.348	-112.144	0.226	-0.045
-200.333	-200.000	-0.035	-0.192
-199.319	-200.000	0.002	0.084
-198.304	800.000	-0.103	-0.354
-197.290	674.085	-0.075	-0.192
-196.275	-200.000	-0.041	0.196
-195.260	-43.584	0.154	-0.077
-194.246	-138.655	-0.096	0.010
-193.231	-82.763	-0.108	-0.035
-192.217	121.246	-0.191	-0.237
-191.202	-148.320	-0.202	-0.016
-190.187	58.499	-0.057	-0.055
-189.173	72.036	0.103	-0.106
-188.158	-200.000	0.042	0.196
-187.144	-58.582	-0.112	-0.048
-186.129	-200.000	-0.009	0.169
-185.114	672.152	0.102	-0.262
-184.100	18.580	0.108	-0.086
-183.085	70.282	0.112	0.115
-182.071	-164.228	0.024	0.001
-181.056	89.480	0.240	0.265
-180.042	698.040	-0.061	-0.160
-179.027	184.152	0.189	0.277
-178.012	134.305	-0.176	-0.226
-176.998	-69.708	-0.122	0.046
-175.983	397.030	0.133	0.277
-174.969	-43.150	-0.213	0.107
-173.954	88.849	-0.169	0.186
-172.939	-67.817	-0.034	-0.013
-171.925	-175.638	0.125	-0.003
-170.910	-200.000	0.033	-0.203
-169.896	-65.228	-0.266	-0.106
-168.881	-74.129	0.163	-0.059
-167.866	329.750	-0.138	0.264
-166.852	69.209	0.052	0.053
-165.837	107.200	-0.142	-0.168
-164.823	32.296	-0.058	-0.049
-163.808	141.155	0.067	0.088
-162.793	-200.000	0.028	-0.475
-161.779	-73.599	0.093	0.034
-160.764	379.539	0.066	0.134
-159.750	800.000	-0.009	-0.036
-158.735	30.652	0.135	-0.115
-157.720	800.000	-0.029	-0.080
-156.706	130.922	-0.217	0.277
-155.691	52.841	0.111	0.105
-154.677	95.625	-0.184	-0.208
-153.662	-106.022	-0.095	-0.021
-152.647	-169.838	0.321	0.011
-151.633	279.327	-0.076	0.135
-150.618	-7.969	0.194	0.130
-149.604	-65.075	-0.127	0.051
-148.589	800.000	-0.083	-0.317
-147.574	-200.000	-0.067	0.337
-146.560	155.038	0.157	0.214
-145.545	57.039	0.057	0.055
-144.531	800.000	0.074	-0.235
-143.516	-156.113	0.098	0.006
-142.502	-200.000	-0.064	0.279
-141.487	24.187	0.361	0.295
-140.472	800.000	0.048	0.149
-139.458	209.660	0.107	0.166
-138.443	800.000	-0.054	-0.190
-137.429	-200.000	0.013	0.138
-136.414	-200.000	0.018	0.140
-135.399	-82.202	-0.111	-0.036
-134.385	312.379	0.105	0.195
-133.370	-153.066	-0.067	0.005
-132.356	-125.320	-0.189	0.029
-131.341	-120.725	0.127	-0.021
-130.326	-21.771	0.164	0.099
-129.312	800.000	-0.041	0.119
-128.297	140.393	-0.070	0.091
-127.283	555.061	-0.162	-0.385
-126.268	137.804	-0.081	0.105
-125.253	-26.012	0.166	-0.097
-124.239	294.737	0.145	0.263
-123.224	-109.024	0.183	-0.039
-122.210	-75.654	0.236	0.083
