DTS Sentinel unit serial number:	SN413079Multiplexer serial number:	ORYXHardware model number:	OX4-SRSoftware version number:	ORYX F/W v4.00 Oryx Data Collector v3.7.2.0data status	okinstallation	princeton_trtdifferential loss correction	single-endedforward channel	channel 3reverse channel	N/Adate	2019/09/10time	22:58:11forward acquisition time	60.00reverse acquisition time	0.00gamma	496.2192k internal	0.2331k external	0.2331temperature offset calibration	0.9921default loss term (dB/km)	0.3790temperature slope calibration	1.0000multiplexer offset coefficient	1.0000multiplexer slope coefficient	1.0000fibre end	0.00T internal ref (°C)	30.06T ext. ref 1 (°C)	-0.31T ext. ref 2 (°C)	23.42length (m)	temperature (°C)	Stokes	anti-Stokes-747.200	99.511	-0.139	-0.162
-746.185	-51.408	-0.195	-0.092
-745.171	673.166	0.049	0.127
-744.156	-42.353	0.079	0.040
-743.142	167.905	0.082	0.117
-742.127	-6.410	-0.107	-0.074
-741.112	-60.661	0.256	-0.109
-740.098	42.082	-0.119	0.109
-739.083	63.528	0.311	-0.314
-738.069	-106.095	-0.203	-0.046
-737.054	-23.111	0.206	0.125
-736.039	-200.000	0.033	-0.183
-735.025	-200.000	-0.019	0.235
-734.010	6.931	0.126	-0.094
-732.996	-59.142	-0.236	-0.102
-731.981	45.060	-0.086	0.080
-730.966	-86.402	-0.520	-0.161
-729.952	477.185	-0.108	0.246
-728.937	-200.000	0.003	-0.445
-727.923	-176.040	-0.188	-0.005
-726.908	-200.000	-0.113	0.001
-725.894	-3.386	0.078	-0.055
-724.879	-200.000	-0.004	0.050
-723.864	170.154	0.216	-0.311
-722.850	-40.608	-0.282	0.147
-721.835	-64.271	-0.267	-0.109
-720.821	378.769	0.100	0.207
-719.806	399.906	-0.095	-0.200
-718.791	53.023	0.049	-0.047
-717.777	389.725	0.151	-0.315
-716.762	800.000	-0.048	-0.195
-715.748	-122.550	0.072	-0.012
-714.733	163.836	-0.089	-0.125
-713.718	800.000	-0.057	0.161
-712.704	85.635	-0.168	0.186
-711.689	-77.597	0.283	-0.098
-710.675	13.944	0.130	0.102
-709.660	155.588	-0.100	0.138
-708.645	-200.000	0.009	-0.111
-707.631	-130.326	-0.099	-0.013
-706.616	-49.807	0.233	0.111
-705.602	-159.466	0.443	0.025
-704.587	-91.920	-0.141	0.040
-703.572	-200.000	0.025	-0.350
-702.558	800.000	0.071	-0.273
-701.543	-123.204	0.151	0.024
-700.529	-198.779	0.202	-0.001
-699.514	-200.000	-0.014	-0.143
-698.499	-181.529	-0.368	-0.007
-697.485	-139.250	-0.250	-0.027
-696.470	-89.951	0.219	-0.064
-695.456	-153.407	-0.381	0.027
-694.441	41.106	-0.234	-0.213
-693.426	-97.459	-0.101	0.026
-692.412	-200.000	-0.052	-0.303
-691.397	53.522	-0.201	0.193
-690.383	-131.186	-0.158	0.021
-689.368	-200.000	0.065	0.291
-688.354	66.437	0.047	-0.048
-687.339	-18.083	-0.392	0.246
-686.324	-200.000	0.019	-0.268
-685.310	148.262	-0.058	-0.079
-684.295	100.160	0.132	0.154
-683.281	-26.493	-0.199	-0.117
-682.266	-42.405	0.245	-0.125
-681.251	1.124	-0.308	-0.222
-680.237	-91.762	-0.084	0.024
-679.222	-200.000	0.006	-0.049
-678.208	-90.926	-0.457	0.132
-677.193	-156.551	-0.082	0.005
-676.178	180.382	-0.196	-0.289
-675.164	-200.000	0.020	-0.131
-674.149	-200.000	-0.057	0.262
-673.135	-168.210	-0.138	0.005
-672.120	337.867	-0.208	-0.405
-671.105	-200.000	0.010	-0.212
-670.091	-200.000	-0.047	-0.320
-669.076	-38.151	-0.082	0.044
-668.062	317.863	0.108	-0.205
-667.047	44.781	0.085	0.078
-666.032	307.518	0.084	-0.158
-665.018	243.623	0.133	-0.224
-664.003	299.944	0.111	-0.205
-662.989	435.228	-0.110	-0.240
-661.974	-155.061	-0.225	-0.015
-660.959	25.064	-0.108	-0.090
-659.945	800.000	-0.088	0.257
-658.930	800.000	0.088	0.247
-657.916	-200.000	-0.011	-0.155
-656.901	-11.403	0.241	-0.159
-655.886	297.088	0.149	-0.275
-654.872	540.005	-0.134	-0.321
-653.857	-200.000	0.001	-0.231
-652.843	-200.000	-0.032	0.194
-651.828	-70.241	-0.212	-0.081
-650.814	-200.000	0.007	0.123
-649.799	-34.269	0.131	-0.072
-648.784	479.095	0.263	-0.596
-647.770	-48.154	-0.112	0.054
-646.755	71.868	-0.095	0.100
-645.741	-153.126	0.166	-0.012
-644.726	-10.909	-0.042	0.027
-643.711	-40.095	-0.322	-0.168
-642.697	-200.000	0.007	-0.040
-641.682	800.000	0.099	-0.309
-640.668	-63.313	-0.046	-0.019
-639.653	-42.006	-0.056	0.029
-638.638	-68.253	0.290	-0.113
-637.624	-82.151	0.245	-0.080
-636.609	-200.000	0.014	-0.236
-635.595	-67.332	-0.207	-0.082
-634.580	258.396	-0.141	-0.243
-633.565	138.226	-0.148	0.194
-632.551	-75.134	-0.316	0.113
-631.536	800.000	0.166	0.515
-630.522	104.195	0.150	-0.177
-629.507	233.511	-0.079	-0.130
-628.492	-90.719	0.195	-0.056
-627.478	-20.160	-0.237	-0.146
-626.463	-130.237	-0.354	-0.048
-625.449	-2.267	-0.168	-0.118
-624.434	-200.000	-0.001	0.077
-623.419	-200.000	0.010	0.124
-622.405	528.064	0.092	0.217
-621.390	6.545	0.119	-0.089
-620.376	-75.509	0.283	0.101
-619.361	800.000	0.092	-0.375
-618.346	565.937	0.028	-0.069
-617.332	-115.967	-0.440	0.082
-616.317	-110.229	0.063	0.013
-615.303	-69.516	-0.347	0.133
-614.288	-110.400	-0.492	-0.102
-613.273	-200.000	0.005	0.054
-612.259	-200.000	-0.005	-0.129
-611.244	-25.748	-0.164	-0.097
-610.230	-167.504	0.105	0.004
-609.215	-200.000	-0.005	-0.112
-608.201	-99.293	-0.200	0.050
-607.186	-64.573	0.017	-0.007
-606.171	-170.490	0.407	-0.014
-605.157	-200.000	0.062	0.321
-604.142	-156.568	0.091	0.006
-603.128	-70.517	-0.273	-0.104
-602.113	184.677	0.237	0.351
-601.098	445.952	0.172	-0.379
-600.084	800.000	0.053	0.186
-599.069	-200.000	0.039	-0.188
-598.055	-76.115	-0.018	-0.006
-597.040	36.474	-0.152	-0.134
-596.025	27.355	-0.291	-0.245
-595.011	423.004	-0.077	-0.166
-593.996	98.270	-0.155	-0.178
-592.982	800.000	0.103	-0.295
-591.967	-44.453	-0.090	0.045
-590.952	-200.000	0.008	0.044
-589.938	-52.715	0.151	0.070
-588.923	-200.000	-0.023	0.108
-587.909	215.874	0.120	-0.191
-586.894	-93.412	-0.158	0.044
-585.879	-105.769	0.463	0.105
-584.865	130.037	0.135	0.173
-583.850	108.211	-0.127	-0.151
-582.836	450.733	0.129	-0.286
-581.821	-200.000	-0.002	0.099
-580.806	68.464	-0.145	0.148
-579.792	-57.051	-0.098	-0.043
-578.777	-109.739	0.389	-0.082
-577.763	59.013	-0.163	-0.161
-576.748	800.000	-0.142	-0.424
-575.733	439.022	-0.061	0.132
-574.719	-64.890	0.137	0.055
-573.704	-1.874	-0.161	-0.114
-572.690	800.000	-0.079	-0.219
-571.675	296.345	-0.039	-0.071
-570.661	-22.183	0.111	0.067
-569.646	800.000	0.034	0.115
-568.631	-200.000	-0.042	-0.200
-567.617	27.368	-0.146	0.123
-566.602	326.680	-0.023	0.045
-565.588	178.338	-0.107	-0.156
-564.573	-107.204	-0.187	-0.041
-563.558	800.000	0.007	-0.024
-562.544	8.780	-0.288	0.217
-561.529	800.000	-0.072	0.246
-560.515	-6.900	-0.146	0.099
-559.500	725.764	-0.108	0.287
-558.485	-75.268	0.304	0.108
-557.471	47.720	-0.069	0.065
-556.456	-52.974	-0.409	-0.188
-555.442	-113.943	0.329	-0.064
-554.427	-87.862	0.131	0.040
-553.412	-17.381	0.070	0.044
-552.398	20.736	0.271	-0.219
-551.383	800.000	-0.075	-0.273
-550.369	-88.616	-0.277	0.082
-549.354	28.130	0.068	-0.058
-548.339	-41.207	0.250	-0.129
-547.325	756.370	0.107	0.288
-546.310	-200.000	-0.015	0.324
-545.296	-200.000	0.023	0.338
-544.281	-200.000	-0.051	-0.241
-543.266	-200.000	-0.008	-0.212
-542.252	19.381	0.088	-0.071
-541.237	-72.845	0.298	0.109
-540.223	190.822	-0.068	0.101
-539.208	481.139	0.065	-0.147
-538.193	-200.000	0.003	-0.019
-537.179	-80.074	-0.359	-0.120
-536.164	-37.469	-0.272	0.145
-535.150	249.212	0.074	-0.126
-534.135	188.088	0.139	-0.208
-533.121	301.912	0.209	-0.385
-532.106	752.967	0.068	-0.184
-531.091	261.866	-0.041	-0.070
-530.077	309.597	-0.038	0.071
-529.062	-65.136	0.147	-0.059
-528.048	134.923	-0.092	0.119
-527.033	110.957	0.038	0.045
-526.018	-156.230	-0.408	-0.026
-525.004	424.945	0.105	-0.225
-523.989	-17.640	0.162	0.101
-522.975	55.583	0.144	0.139
-521.960	44.482	0.102	-0.094
-520.945	-188.003	0.250	-0.003
-519.931	84.067	-0.166	0.181
-518.916	-29.921	-0.057	-0.032
-517.902	-147.189	-0.238	-0.020
-516.887	-183.757	0.137	-0.002
-515.872	370.460	0.023	-0.047
-514.858	-200.000	-0.015	0.136
-513.843	-68.712	-0.273	0.105
-512.829	-92.220	0.239	-0.067
-511.814	-75.058	0.112	0.040
-510.799	685.305	-0.043	-0.112
-509.785	-9.330	0.131	-0.087
-508.770	-200.000	0.024	-0.254
-507.756	280.262	-0.102	-0.182
-506.741	-147.304	0.193	0.016
-505.726	163.104	-0.145	-0.203
-504.712	119.040	0.309	0.380
-503.697	-200.000	-0.009	0.063
-502.683	-32.517	0.029	0.016
-501.668	800.000	0.071	-0.201
-500.653	-59.049	-0.313	0.135
-499.639	-127.997	-0.297	0.042
-498.624	800.000	0.066	-0.184
-497.610	566.171	0.059	-0.143
-496.595	800.000	-0.069	-0.236
-495.581	-200.000	0.006	-0.206
-494.566	730.523	-0.091	0.243
-493.551	-171.294	0.140	-0.005
-492.537	-162.267	0.029	-0.001
-491.522	463.916	0.113	0.252
-490.508	457.752	-0.056	-0.124
-489.493	403.828	0.046	-0.097
-488.478	-17.994	-0.201	-0.125
-487.464	-42.497	0.206	0.105
-486.449	-142.346	0.053	0.005
-485.435	493.718	0.051	-0.116
-484.420	115.272	0.160	-0.195
-483.405	-150.697	-0.275	-0.021
-482.391	516.797	-0.122	0.285
-481.376	-92.992	-0.326	-0.091
-480.362	-94.315	-0.133	0.036
-479.347	372.390	-0.190	-0.383
-478.332	-200.000	0.063	-0.357
-477.318	-33.613	0.118	-0.065
-476.303	352.658	-0.105	-0.208
-475.289	-106.900	0.124	0.027
-474.274	-82.988	-0.309	0.099
-473.259	-28.825	-0.355	-0.203
-472.245	-200.000	-0.023	-0.243
-471.230	82.754	0.011	0.012
-470.216	-200.000	0.045	0.211
-469.201	76.590	-0.135	-0.142
-468.186	-18.391	-0.387	-0.241
-467.172	-200.000	0.012	0.222
-466.157	800.000	0.098	-0.271
-465.143	726.731	-0.138	-0.366
-464.128	42.841	-0.303	0.274
-463.113	-155.775	0.300	-0.019
-462.099	-42.459	-0.263	-0.133
-461.084	55.922	0.114	-0.110
-460.070	-31.686	-0.126	-0.070
-459.055	-22.605	0.215	-0.129
-458.040	55.140	0.069	0.067
-457.026	-125.569	-0.167	-0.025
-456.011	-155.103	0.272	0.018
-454.997	-200.000	0.025	-0.271
-453.982	-103.553	-0.498	-0.116
-452.968	34.774	-0.060	-0.052
-451.953	17.074	-0.157	-0.123
-450.938	-160.138	-0.300	0.016
-449.924	-146.022	0.441	0.039
-448.909	-200.000	0.013	-0.137
-447.895	249.253	-0.059	-0.099
-446.880	-72.739	0.130	0.048
-445.865	243.819	-0.142	-0.237
-444.851	56.198	-0.033	0.032
-443.836	2.709	-0.130	-0.094
-442.822	-103.040	0.168	-0.040
-441.807	-149.990	-0.377	0.029
-440.792	-200.000	0.005	0.025
-439.778	800.000	0.049	-0.192
-438.763	-91.277	0.160	-0.045
-437.749	213.972	0.138	0.217
-436.734	192.769	0.101	0.151
-435.719	-178.802	0.260	-0.006
-434.705	346.309	0.046	0.090
-433.690	800.000	0.044	0.147
-432.676	250.780	-0.102	-0.172
-431.661	-200.000	0.039	0.399
-430.646	-200.000	-0.031	0.147
-429.632	800.000	0.073	-0.212
-428.617	-171.529	-0.060	0.002
-427.603	-44.895	-0.102	-0.051
-426.588	-76.373	-0.145	0.051
-425.573	639.051	-0.022	-0.055
-424.559	800.000	-0.082	0.230
-423.544	-60.285	0.550	-0.233
-422.530	137.894	0.131	-0.170
-421.515	45.835	-0.174	-0.160
-420.500	-62.095	-0.153	0.064
-419.486	-42.739	-0.258	-0.130
-418.471	8.205	0.046	0.034
-417.457	22.350	-0.092	-0.074
-416.442	45.372	-0.179	0.164
-415.428	-98.210	-0.326	-0.083
-414.413	-200.000	0.017	-0.349
-413.398	-50.894	0.285	0.133
-412.384	800.000	0.100	-0.278
-411.369	-200.000	0.028	-0.181
-410.355	617.058	-0.096	0.239
-409.340	800.000	-0.024	-0.087
-408.325	6.695	-0.368	0.272
-407.311	800.000	0.107	0.363
-406.296	202.625	0.094	0.144
-405.282	-200.000	-0.013	-0.150
-404.267	167.917	-0.272	-0.384
-403.252	-130.239	0.159	-0.021
-402.238	7.560	0.055	0.041
-401.223	-200.000	-0.011	-0.244
-400.209	-105.813	0.303	-0.068
-399.194	251.194	-0.139	-0.235
-398.179	-24.571	0.208	0.123
-397.165	-84.984	-0.162	0.050
-396.150	-10.220	-0.161	-0.106
-395.136	-29.534	-0.231	0.131
-394.121	76.747	-0.135	0.142
-393.106	800.000	-0.061	0.184
-392.092	800.000	0.031	-0.112
-391.077	230.420	0.174	0.282
-390.063	800.000	0.094	0.282
-389.048	-200.000	-0.003	0.237
-388.033	437.185	-0.127	-0.274
-387.019	-57.327	-0.135	0.059
-386.004	64.808	-0.068	-0.068
-384.990	-200.000	-0.003	0.066
-383.975	577.663	-0.097	0.234
-382.960	-188.431	-0.175	-0.002
-381.946	126.444	0.230	0.289
-380.931	-195.883	-0.195	0.001
-379.917	52.089	0.167	-0.158
-378.902	133.210	0.152	-0.195
-377.888	12.590	-0.125	-0.096
-376.873	-98.185	-0.190	0.048
-375.858	200.625	0.212	0.324
-374.844	-160.501	0.273	-0.014
-373.829	-200.000	0.000	-0.244
-372.815	-83.981	-0.077	-0.024
-371.800	-51.023	0.172	-0.080
-370.785	106.145	-0.098	-0.115
-369.771	-200.000	0.003	-0.121
-368.756	-94.362	0.050	0.014
-367.742	160.694	-0.153	-0.212
-366.727	-78.058	0.181	0.062
-365.712	162.588	0.053	-0.074
-364.698	72.488	0.277	0.286
-363.683	-151.108	0.214	0.016
-362.669	-91.722	-0.221	-0.062
-361.654	800.000	0.066	-0.239
-360.639	-31.396	0.238	0.133
-359.625	240.708	-0.208	0.344
-358.610	-28.632	-0.122	-0.070
-357.596	341.446	0.027	-0.053
-356.581	-17.444	0.186	0.116
-355.566	-147.683	0.115	-0.010
-354.552	-159.407	0.259	-0.014
-353.537	-91.707	0.226	-0.064
-352.523	14.400	0.132	-0.102
-351.508	92.341	-0.142	0.159
-350.493	800.000	0.099	0.336
-349.479	-200.000	-0.043	0.257
-348.464	-200.000	-0.027	-0.200
-347.450	21.138	0.336	-0.270
-346.435	190.000	0.131	0.195
-345.420	-200.000	0.002	0.392
-344.406	417.178	-0.226	-0.478
-343.391	187.971	0.012	-0.017
-342.377	-200.000	-0.001	-0.312
-341.362	800.000	0.152	0.554
-340.348	2.709	0.159	0.115
-339.333	800.000	-0.023	-0.073
-338.318	-200.000	-0.006	0.186
-337.304	-200.000	-0.012	-0.169
-336.289	-82.889	0.037	0.012
-335.275	-200.000	-0.015	-0.084
-334.260	-119.038	0.107	-0.018
-333.245	-200.000	-0.014	0.327
-332.231	40.307	0.167	0.149
-331.216	-146.227	-0.190	0.017
-330.202	132.242	0.158	0.201
-329.187	30.069	-0.236	0.199
-328.172	800.000	-0.119	0.407
-327.158	-200.000	-0.039	0.276
-326.143	116.639	-0.259	0.315
-325.129	-21.844	-0.043	-0.026
-324.114	501.329	0.053	-0.120
-323.099	66.231	-0.158	0.159
-322.085	-187.812	0.203	-0.003
-321.070	-73.308	-0.202	0.073
-320.056	-108.099	0.415	0.089
-319.041	-71.966	0.299	0.110
-318.026	-90.866	-0.150	-0.043
-317.012	-88.226	0.133	0.040
-315.997	42.240	-0.201	0.181
-314.983	-200.000	-0.011	0.244
-313.968	10.311	0.151	-0.114
-312.953	800.000	0.096	-0.272
-311.939	-148.555	-0.406	0.033
-310.924	-200.000	-0.001	-0.018
-309.910	454.918	-0.058	-0.128
-308.895	800.000	-0.088	0.357
-307.880	-200.000	-0.001	-0.068
-306.866	-36.810	0.255	0.135
-305.851	800.000	-0.130	-0.397
-304.837	-18.326	0.311	-0.193
-303.822	655.064	0.030	-0.075
-302.807	-68.767	-0.223	0.085
-301.793	-200.000	-0.019	-0.108
-300.778	58.437	0.038	0.037
-299.764	-168.259	0.302	-0.012
-298.749	-200.000	0.042	-0.261
-297.735	-200.000	-0.079	0.402
-296.720	111.012	-0.168	0.200
-295.705	-1.595	-0.082	0.057
-294.691	-24.206	-0.079	-0.047
-293.676	727.251	0.051	0.134
-292.662	30.900	0.100	-0.085
-291.647	-134.588	-0.201	0.024
-290.632	345.399	0.130	-0.252
-289.618	-11.977	-0.015	-0.010
-288.603	88.484	0.301	0.330
-287.589	800.000	-0.060	-0.173
-286.574	133.228	0.012	0.016
-285.559	800.000	-0.115	-0.338
-284.545	38.184	-0.070	0.061
-283.530	800.000	-0.073	-0.203
-282.516	292.816	-0.099	0.179
-281.501	-200.000	0.002	-0.031
-280.486	-200.000	-0.074	-0.321
-279.472	-110.487	0.368	0.075
-278.457	-200.000	0.074	0.366
-277.443	-74.759	0.185	-0.066
-276.428	145.402	0.032	-0.042
-275.413	-3.246	-0.197	-0.135
-274.399	-200.000	0.061	0.305
-273.384	-154.085	0.267	-0.018
-272.370	143.295	0.169	0.223
-271.355	187.237	0.025	-0.037
-270.340	-200.000	-0.009	-0.048
-269.326	-55.288	-0.074	-0.033
-268.311	-98.641	0.290	0.073
-267.297	-200.000	-0.005	0.115
-266.282	25.515	0.251	-0.206
-265.267	134.116	-0.137	-0.175
-264.253	-64.624	-0.195	0.078
-263.238	-200.000	0.001	-0.028
-262.224	800.000	-0.028	0.108
-261.209	-200.000	0.035	-0.215
-260.195	393.780	0.093	0.192
-259.180	345.670	0.102	0.198
-258.165	-36.110	0.302	0.161
-257.151	-200.000	0.003	-0.153
-256.136	399.845	-0.099	0.206
-255.122	61.381	-0.149	0.146
-254.107	-165.142	0.246	0.011
-253.092	-136.707	-0.507	-0.058
-252.078	-28.323	0.200	0.114
-251.063	-65.410	0.187	-0.074
-250.049	-10.006	0.243	-0.160
-249.034	-52.976	-0.397	0.180
-248.019	-26.162	0.236	0.137
-247.005	110.516	-0.251	0.298
-245.990	-111.538	0.271	0.054
-244.976	478.307	-0.139	-0.310
-243.961	157.010	-0.146	0.200
-242.946	-52.477	0.217	-0.099
-241.932	-189.755	0.192	-0.002
-240.917	-96.886	-0.248	-0.064
-239.903	800.000	-0.052	0.170
-238.888	56.888	0.317	0.305
-237.873	332.157	0.065	0.123
-236.859	-200.000	0.050	0.232
-235.844	-200.000	-0.012	-0.202
-234.830	-115.007	0.389	0.073
-233.815	761.406	0.075	0.200
-232.800	70.784	-0.073	0.074
-231.786	642.616	0.092	0.232
-230.771	-200.000	0.006	0.312
-229.757	-180.434	-0.206	0.004
-228.742	-22.217	0.095	-0.057
-227.727	-0.415	0.117	0.082
-226.713	123.439	0.128	0.158
-225.698	37.839	0.165	-0.144
-224.684	14.869	-0.067	0.051
-223.669	800.000	0.045	0.181
-222.655	-60.539	0.390	-0.163
-221.640	280.877	-0.030	0.053
-220.625	-169.941	0.346	0.012
-219.611	800.000	0.021	0.090
-218.596	-108.979	0.362	0.076
-217.582	59.415	-0.221	0.215
-216.567	-200.000	0.023	0.181
-215.552	643.255	0.052	0.131
-214.538	800.000	-0.081	-0.237
-213.523	800.000	0.018	0.067
-212.509	80.009	-0.108	0.115
-211.494	-111.265	-0.290	-0.059
-210.479	-200.000	-0.058	0.419
-209.465	-200.000	-0.009	-0.166
-208.450	-200.000	-0.004	-0.034
-207.436	-95.775	-0.369	-0.097
-206.421	-100.061	0.277	0.068
-205.406	121.116	0.063	-0.077
-204.392	-53.068	-0.199	0.090
-203.377	-78.629	-0.084	-0.028
-202.363	172.361	0.121	0.171
-201.348	-200.000	0.031	0.431
-200.333	256.090	0.040	0.068
-199.319	-126.292	0.242	0.036
-198.304	-71.197	-0.172	-0.064
-197.290	800.000	0.100	-0.318
-196.275	-109.632	0.182	0.038
-195.260	-72.948	-0.501	-0.181
-194.246	-200.000	-0.033	0.295
-193.231	800.000	0.118	0.377
-192.217	-81.166	0.220	-0.072
-191.202	-65.397	-0.375	0.149
-190.187	123.752	-0.099	-0.123
-189.173	48.593	-0.157	0.145
-188.158	4.920	0.119	0.086
-187.144	800.000	0.066	-0.193
-186.129	-86.622	0.207	0.062
-185.114	-94.569	0.151	-0.040
-184.100	-144.198	-0.277	-0.025
-183.085	-53.388	0.208	0.094
-182.071	-200.000	-0.046	0.380
-181.056	-200.000	-0.061	-0.357
-180.042	-157.500	-0.146	0.009
-179.027	-57.022	-0.062	-0.027
-178.012	-46.086	-0.396	-0.192
-176.998	417.764	-0.112	-0.235
-175.983	800.000	0.061	-0.170
-174.969	-200.000	0.027	-0.343
-173.954	73.501	-0.087	-0.090
-172.939	218.791	0.034	0.054
-171.925	488.835	-0.034	0.076
-170.910	119.397	0.249	0.303
-169.896	88.799	-0.159	0.174
-168.881	-175.753	0.177	-0.005
-167.866	162.117	-0.103	0.142
-166.852	16.188	0.184	0.143
-165.837	598.080	-0.035	-0.086
-164.823	-0.237	0.115	0.081
-163.808	800.000	-0.092	0.352
-162.793	-10.352	0.071	-0.046
-161.779	399.743	-0.117	0.241
-160.764	800.000	0.085	-0.245
-159.750	83.795	-0.125	-0.134
-158.735	-56.077	-0.179	0.078
-157.720	-60.394	-0.264	0.110
-156.706	-83.033	0.309	0.098
-155.691	14.596	-0.040	0.031
-154.677	-200.000	-0.018	-0.144
-153.662	191.543	0.094	-0.140
-152.647	450.382	-0.111	-0.242
-151.633	800.000	0.100	0.389
-150.618	-122.213	0.255	0.041
-149.604	-56.853	-0.231	-0.101
-148.589	27.182	0.012	0.010
-147.574	41.621	-0.396	0.353
-146.560	-200.000	0.045	-0.198
-145.545	-177.748	0.117	-0.003
-144.531	-200.000	0.045	0.363
-143.516	-200.000	0.015	0.142
-142.502	-179.222	-0.241	-0.005
-141.487	173.688	0.160	0.227
-140.472	-200.000	0.005	0.372
-139.458	138.096	-0.305	0.393
-138.443	-200.000	-0.023	0.268
-137.429	216.050	-0.141	-0.220
-136.414	54.269	-0.240	-0.227
-135.399	263.533	-0.133	0.228
-134.385	-200.000	-0.018	-0.208
-133.370	-200.000	-0.014	0.090
-132.356	-35.842	0.223	-0.119
-131.341	-200.000	-0.010	-0.287
-130.326	-200.000	-0.030	0.140
-129.312	50.944	0.046	-0.043
-128.297	-200.000	-0.034	0.291
-127.283	-200.000	0.025	-0.162
-126.268	244.693	0.079	0.131
-125.253	260.635	-0.009	0.015
-124.239	-200.000	-0.012	-0.054
-123.224	-112.967	-0.049	-0.009
