DTS Sentinel unit serial number:	SN413079Multiplexer serial number:	ORYXHardware model number:	OX4-SRSoftware version number:	ORYX F/W v4.00 Oryx Data Collector v3.7.2.0data status	okinstallation	princeton_trtdifferential loss correction	single-endedforward channel	channel 3reverse channel	N/Adate	2019/09/16time	04:04:35forward acquisition time	60.00reverse acquisition time	0.00gamma	496.2192k internal	0.2335k external	0.2335temperature offset calibration	0.9958default loss term (dB/km)	0.3790temperature slope calibration	1.0000multiplexer offset coefficient	1.0000multiplexer slope coefficient	1.0000fibre end	0.00T internal ref (°C)	27.44T ext. ref 1 (°C)	10.73T ext. ref 2 (°C)	21.46length (m)	temperature (°C)	Stokes	anti-Stokes-747.200	105.885	0.337	0.401
-746.185	15.965	0.336	0.266
-745.171	651.211	-0.064	0.165
-744.156	-149.330	0.197	0.016
-743.142	-114.182	-0.229	-0.044
-742.127	30.201	0.091	-0.078
-741.112	53.292	0.048	-0.047
-740.098	304.718	-0.082	0.154
-739.083	-106.324	0.258	0.058
-738.069	103.429	-0.186	-0.219
-737.054	-73.708	-0.157	0.057
-736.039	-69.141	0.178	0.069
-735.025	707.274	0.176	0.468
-734.010	-108.396	-0.357	0.077
-732.996	42.852	0.140	0.128
-731.981	-67.011	0.181	0.072
-730.966	-128.203	-0.107	-0.015
-729.952	5.265	-0.373	-0.276
-728.937	-11.792	0.062	-0.041
-727.923	-200.000	-0.016	0.245
-726.908	-129.868	0.227	-0.031
-725.894	42.478	-0.394	-0.360
-724.879	100.043	0.107	-0.124
-723.864	-112.811	-0.165	0.033
-722.850	86.722	0.179	-0.198
-721.835	-189.727	-0.149	-0.002
-720.821	-108.468	0.282	0.061
-719.806	-71.777	0.196	0.073
-718.791	78.966	0.074	0.080
-717.777	-200.000	0.013	0.100
-716.762	-58.649	-0.145	0.063
-715.748	478.674	0.105	-0.240
-714.733	-66.241	-0.162	0.065
-713.718	-76.980	-0.303	-0.106
-712.704	-147.778	0.279	-0.023
-711.689	-200.000	0.002	-0.178
-710.675	800.000	-0.081	0.272
-709.660	-76.094	-0.101	-0.036
-708.645	157.874	0.197	0.274
-707.631	-200.000	0.011	0.153
-706.616	418.006	-0.064	-0.138
-705.602	661.480	-0.035	0.091
-704.587	-200.000	-0.206	-0.001
-703.572	66.127	0.246	0.250
-702.558	-90.321	-0.117	0.034
-701.543	48.087	-0.289	-0.271
-700.529	800.000	0.066	0.188
-699.514	-200.000	0.031	0.221
-698.499	64.943	0.109	0.110
-697.485	-66.829	0.456	0.181
-696.470	-200.000	-0.058	0.289
-695.456	-200.000	-0.034	0.343
-694.441	-33.351	0.192	0.106
-693.426	-0.071	0.313	0.224
-692.412	-63.015	0.391	-0.162
-691.397	-70.735	-0.286	-0.108
-690.383	-89.396	0.303	-0.089
-689.368	14.513	-0.562	-0.440
-688.354	-200.000	-0.015	-0.091
-687.339	-165.118	-0.145	0.006
-686.324	-103.911	-0.093	0.022
-685.310	800.000	-0.059	-0.206
-684.295	-181.649	-0.113	-0.002
-683.281	-123.262	-0.260	0.042
-682.266	5.059	0.187	0.138
-681.251	104.917	-0.115	-0.136
-680.237	-134.585	-0.144	0.018
-679.222	-4.386	0.195	-0.135
-678.208	-88.287	0.100	-0.030
-677.193	-169.206	-0.178	0.007
-676.178	404.835	-0.070	0.148
-675.164	-143.390	0.197	0.019
-674.149	-200.000	-0.012	-0.115
-673.135	-175.325	-0.078	0.002
-672.120	334.166	-0.073	0.142
-671.105	-69.050	0.306	-0.118
-670.091	800.000	-0.038	-0.148
-669.076	-123.387	0.091	0.015
-668.062	129.726	-0.163	-0.208
-667.047	72.012	-0.132	-0.138
-666.032	-200.000	-0.002	0.076
-665.018	-62.421	0.343	0.143
-664.003	-200.000	-0.040	0.207
-662.989	192.502	-0.025	-0.038
-661.974	42.985	-0.110	-0.101
-660.959	-69.770	0.269	-0.103
-659.945	-181.961	-0.135	0.003
-658.930	-18.581	0.357	-0.223
-657.916	-172.223	-0.091	-0.003
-656.901	-56.794	0.367	-0.163
-655.886	-127.419	-0.232	-0.034
-654.872	592.940	-0.109	-0.270
-653.857	-11.564	0.204	0.134
-652.843	-200.000	0.009	-0.081
-651.828	-139.050	0.510	-0.055
-650.814	-45.201	0.242	0.120
-649.799	-128.898	-0.347	-0.049
-648.784	-130.526	-0.221	0.030
-647.770	91.039	-0.133	0.149
-646.755	43.719	0.279	-0.256
-645.741	33.637	-0.294	-0.256
-644.726	326.684	0.096	-0.183
-643.711	54.562	-0.027	-0.026
-642.697	-156.358	-0.191	0.012
-641.682	-154.051	0.186	0.013
-640.668	1.339	-0.148	-0.107
-639.653	56.207	0.069	-0.068
-638.638	114.331	-0.050	-0.060
-637.624	7.309	-0.213	0.159
-636.609	89.263	0.080	-0.090
-635.595	-127.348	0.093	0.014
-634.580	473.862	0.102	0.231
-633.565	-14.476	-0.246	-0.159
-632.551	476.796	-0.065	0.146
-631.536	51.126	0.226	0.214
-630.522	-92.241	0.168	-0.047
-629.507	-47.557	0.112	0.054
-628.492	48.722	0.136	-0.128
-627.478	50.322	0.110	0.104
-626.463	2.894	-0.043	-0.032
-625.449	214.221	0.064	-0.102
-624.434	-12.373	-0.282	-0.185
-623.419	-64.955	-0.167	-0.068
-622.405	-117.665	0.085	0.015
-621.390	163.341	0.078	0.110
-620.376	-200.000	-0.008	-0.260
-619.361	-103.759	0.223	0.052
-618.346	276.005	-0.150	0.266
-617.332	-200.000	-0.049	0.233
-616.317	-200.000	0.010	-0.211
-615.303	187.211	-0.087	0.130
-614.288	800.000	0.041	0.114
-613.273	-102.664	0.379	0.090
-612.259	168.505	-0.187	0.266
-611.244	284.048	0.153	-0.274
-610.230	-45.705	0.325	-0.161
-609.215	-87.521	0.113	-0.034
-608.201	466.879	-0.095	0.214
-607.186	-83.730	0.064	-0.020
-606.171	-200.000	0.019	-0.229
-605.157	-96.844	0.123	0.032
-604.142	-200.000	0.003	-0.265
-603.128	139.325	-0.126	-0.166
-602.113	-200.000	0.051	-0.388
-601.098	-95.902	0.173	0.046
-600.084	-138.852	-0.248	-0.027
-599.069	211.928	0.111	0.175
-598.055	-200.000	0.029	0.143
-597.040	165.529	-0.088	-0.124
-596.025	-200.000	-0.008	-0.209
-595.011	-119.596	0.166	-0.029
-593.996	-200.000	0.004	0.140
-592.982	107.622	-0.114	-0.135
-591.967	524.236	0.147	-0.346
-590.952	-9.543	0.202	0.135
-589.938	-55.016	-0.294	-0.133
-588.923	800.000	0.028	-0.095
-587.909	-7.850	-0.093	0.062
-586.894	134.227	-0.118	0.152
-585.879	69.693	-0.203	0.209
-584.865	800.000	0.029	-0.103
-583.850	-86.415	0.181	-0.055
-582.836	-74.061	-0.297	-0.107
-581.821	-200.000	0.008	-0.276
-580.806	110.694	0.298	0.358
-579.792	-4.760	0.250	0.172
-578.777	-200.000	0.013	0.331
-577.763	-51.392	-0.026	-0.012
-576.748	-65.811	-0.373	-0.149
-575.733	-200.000	-0.012	-0.260
-574.719	-15.969	0.071	0.045
-573.704	74.750	-0.326	-0.343
-572.690	137.658	0.191	-0.250
-571.675	167.643	0.111	0.158
-570.661	-51.033	0.491	-0.230
-569.646	-10.784	0.223	0.147
-568.631	-24.964	0.109	-0.065
-567.617	263.434	-0.138	0.240
-566.602	800.000	-0.058	0.252
-565.588	-113.767	0.220	0.043
-564.573	253.302	-0.064	0.108
-563.558	52.794	-0.158	0.151
-562.544	-178.994	-0.048	0.001
-561.529	-47.303	0.242	0.117
-560.515	-171.258	-0.258	0.009
-559.500	-200.000	0.030	-0.234
-558.485	28.364	-0.256	-0.216
-557.471	-31.376	0.151	0.085
-556.456	-103.460	0.075	-0.018
-555.442	-166.686	-0.052	-0.002
-554.427	2.029	-0.216	-0.156
-553.412	-48.983	0.130	-0.062
-552.398	800.000	-0.061	0.217
-551.383	3.229	-0.450	-0.327
-550.369	800.000	0.122	-0.439
-549.354	-53.703	-0.173	0.079
-548.339	55.460	-0.134	-0.129
-547.325	-51.599	-0.192	0.089
-546.310	175.519	0.029	0.042
-545.296	-200.000	0.027	0.167
-544.281	-200.000	0.006	0.159
-543.266	-72.627	-0.135	0.050
-542.252	-200.000	-0.038	-0.246
-541.237	-71.694	0.174	0.065
-540.223	52.854	-0.139	0.133
-539.208	-200.000	-0.013	0.097
-538.193	107.163	-0.206	-0.244
-537.179	-41.292	0.182	-0.094
-536.164	-113.421	-0.363	0.071
-535.150	307.519	-0.047	-0.087
-534.135	-200.000	0.005	-0.322
-533.121	-200.000	-0.005	0.055
-532.106	192.857	0.053	0.080
-531.091	552.324	-0.123	0.294
-530.077	113.113	-0.106	0.128
-529.062	443.764	-0.101	-0.221
-528.048	447.526	0.117	-0.256
-527.033	204.995	0.168	0.260
-526.018	-147.317	-0.338	-0.029
-525.004	-83.170	-0.165	0.053
-523.989	-60.909	-0.152	-0.064
-522.975	-9.909	-0.047	-0.031
-521.960	-200.000	0.039	0.282
-520.945	-6.851	0.231	0.156
-519.931	-200.000	-0.003	0.032
-518.916	348.739	-0.114	-0.224
-517.902	-4.053	-0.236	0.163
-516.887	114.984	-0.060	-0.073
-515.872	-200.000	0.030	0.167
-514.858	-200.000	-0.034	0.385
-513.843	65.308	0.133	0.134
-512.829	-64.619	-0.152	-0.061
-511.814	-200.000	-0.070	0.478
-510.799	-79.175	-0.217	-0.073
-509.785	-118.570	0.387	-0.068
-508.770	-41.037	-0.379	-0.195
-507.756	94.115	0.129	-0.146
-506.741	-200.000	-0.004	-0.130
-505.726	-0.868	-0.079	0.056
-504.712	580.570	0.068	-0.165
-503.697	174.863	0.100	0.145
-502.683	162.411	-0.126	0.175
-501.668	-200.000	0.009	-0.213
-500.653	-76.251	-0.257	0.090
-499.639	37.015	-0.367	-0.323
-498.624	-66.750	0.188	0.074
-497.610	-200.000	0.015	-0.096
-496.595	-166.224	-0.277	0.012
-495.581	-83.072	0.177	0.057
-494.566	-70.239	-0.096	-0.036
-493.551	-57.827	0.305	0.133
-492.537	-82.348	-0.306	0.099
-491.522	-156.332	-0.433	-0.027
-490.508	83.945	-0.144	0.157
-489.493	426.479	0.069	-0.147
-488.478	-141.071	0.190	-0.019
-487.464	151.694	0.106	-0.144
-486.449	129.003	0.135	0.172
-485.435	110.667	0.048	0.057
-484.420	67.002	-0.065	-0.066
-483.405	-35.314	0.206	-0.111
-482.391	800.000	-0.091	0.267
-481.376	-123.748	-0.129	0.020
-480.362	-200.000	0.007	-0.140
-479.347	-63.504	-0.130	-0.053
-478.332	-133.288	0.283	0.036
-477.318	-51.352	-0.203	0.095
-476.303	-173.097	0.449	-0.014
-475.289	-200.000	-0.002	-0.276
-474.274	-178.734	0.206	-0.005
-473.259	-73.850	0.330	-0.119
-472.245	-10.874	0.185	-0.122
-471.230	168.696	-0.053	0.076
-470.216	800.000	-0.089	-0.317
-469.201	-200.000	-0.047	-0.231
-468.186	73.976	-0.076	0.079
-467.172	122.520	0.123	0.153
-466.157	-98.972	0.246	0.062
-465.143	146.653	0.086	-0.115
-464.128	-58.494	-0.331	0.143
-463.113	-130.344	-0.265	-0.036
-462.099	-49.863	-0.160	-0.075
-461.084	-11.724	-0.363	-0.237
-460.070	29.428	-0.176	0.149
-459.055	-44.715	-0.327	-0.162
-458.040	128.798	-0.225	-0.285
-457.026	-88.954	-0.108	-0.032
-456.011	-200.000	-0.114	0.001
-454.997	-125.677	-0.183	0.028
-453.982	-85.311	0.174	-0.054
-452.968	-200.000	-0.042	0.332
-451.953	-200.000	-0.003	0.048
-450.938	11.987	0.017	0.013
-449.924	-101.410	-0.278	-0.067
-448.909	-99.889	-0.025	-0.006
-447.895	268.917	0.150	-0.261
-446.880	-200.000	0.033	0.291
-445.865	768.545	-0.022	-0.060
-444.851	-126.369	-0.260	0.038
-443.836	-200.000	-0.003	-0.025
-442.822	137.247	0.186	-0.241
-441.807	-35.020	-0.215	-0.117
-440.792	-200.000	-0.029	0.156
-439.778	-132.563	0.233	-0.030
-438.763	-66.322	0.062	0.024
-437.749	-200.000	-0.009	-0.208
-436.734	-1.155	0.205	-0.144
-435.719	800.000	-0.091	-0.258
-434.705	365.788	0.112	0.223
-433.690	67.036	0.093	0.094
-432.676	511.896	-0.029	-0.067
-431.661	-40.801	-0.306	-0.157
-430.646	-200.000	0.012	-0.275
-429.632	-200.000	0.034	0.159
-428.617	-200.000	0.116	0.503
-427.603	52.299	-0.217	0.206
-426.588	91.431	-0.084	0.094
-425.573	85.256	-0.163	-0.178
-424.559	-42.421	0.152	-0.077
-423.544	682.499	-0.075	-0.194
-422.530	141.509	-0.148	-0.194
-421.515	-200.000	0.071	-0.496
-420.500	-10.524	0.160	0.105
-419.486	36.825	-0.238	0.209
-418.471	-200.000	0.027	0.322
-417.457	38.336	0.284	0.251
-416.442	-200.000	-0.096	-0.432
-415.428	80.366	0.121	-0.129
-414.413	68.830	-0.202	0.206
-413.398	-200.000	-0.035	0.232
-412.384	-111.891	-0.151	-0.030
-411.369	-200.000	0.002	-0.254
-410.355	142.737	0.129	-0.170
-409.340	-183.605	-0.057	-0.001
-408.325	-200.000	0.017	0.326
-407.311	800.000	0.056	0.200
-406.296	-200.000	-0.036	0.310
-405.282	-200.000	-0.004	0.169
-404.267	191.914	-0.194	0.290
-403.252	201.736	0.093	-0.142
-402.238	51.879	-0.112	-0.106
-401.223	141.509	0.033	0.044
-400.209	560.653	-0.102	0.245
-399.194	283.103	0.085	-0.152
-398.179	-164.260	0.129	-0.006
-397.165	176.207	-0.118	0.170
-396.150	41.147	0.209	0.187
-395.136	189.330	-0.097	0.143
-394.121	-9.336	-0.150	-0.100
-393.106	-200.000	-0.018	0.291
-392.092	-200.000	0.007	0.168
-391.077	-80.264	0.338	-0.112
-390.063	-26.622	0.229	0.133
-389.048	-114.386	-0.250	0.048
-388.033	-200.000	0.006	-0.377
-387.019	-134.138	-0.198	0.024
-386.004	-149.037	0.273	-0.022
-384.990	-45.799	0.121	-0.059
-383.975	227.524	-0.159	0.256
-382.960	27.253	0.286	0.238
-381.946	-143.623	0.118	-0.011
-380.931	11.727	-0.102	0.078
-379.917	-1.714	0.064	0.045
-378.902	11.980	-0.135	-0.103
-377.888	27.393	0.171	-0.143
-376.873	235.453	-0.074	-0.121
-375.858	-116.438	-0.431	0.079
-374.844	-134.384	0.328	0.040
-373.829	522.378	-0.096	0.224
-372.815	-200.000	0.042	-0.247
-371.800	5.298	-0.055	0.040
-370.785	270.073	0.153	0.266
-369.771	-76.365	-0.352	-0.123
-368.756	-200.000	-0.002	0.013
-367.742	78.906	-0.130	0.137
-366.727	-200.000	0.017	-0.128
-365.712	57.105	-0.159	0.153
-364.698	51.785	0.076	-0.072
-363.683	232.267	-0.229	0.373
-362.669	598.502	-0.043	0.107
-361.654	-1.835	0.105	-0.073
-360.639	-200.000	-0.030	-0.205
-359.625	8.362	0.385	-0.286
-358.610	52.744	0.054	-0.051
-357.596	-58.957	0.319	0.136
-356.581	-46.554	0.133	-0.065
-355.566	-125.881	0.217	0.032
-354.552	-200.000	-0.016	0.265
-353.537	800.000	0.013	-0.053
-352.523	-200.000	-0.043	0.221
-351.508	-200.000	-0.010	-0.399
-350.493	800.000	0.048	-0.188
-349.479	800.000	0.080	0.334
-348.464	-140.888	0.288	0.029
-347.450	-102.488	-0.333	-0.079
-346.435	800.000	0.039	0.147
-345.420	-36.589	0.131	-0.070
-344.406	-99.522	0.395	0.098
-343.391	210.942	0.059	0.092
-342.377	-200.000	0.047	0.230
-341.362	173.158	-0.286	0.408
-340.348	27.161	0.402	0.334
-339.333	145.551	0.002	-0.002
-338.318	129.458	0.122	0.155
-337.304	381.959	-0.162	-0.329
-336.289	-74.048	0.024	-0.009
-335.275	569.967	-0.164	-0.394
-334.260	70.800	0.126	0.129
-333.245	257.780	0.046	0.078
-332.231	173.817	0.076	0.108
-331.216	-200.000	-0.022	0.206
-330.202	-114.594	0.177	0.034
-329.187	-12.840	-0.087	-0.056
-328.172	-57.720	-0.286	0.124
-327.158	9.400	0.124	0.093
-326.143	131.065	-0.305	0.387
-325.129	136.752	0.185	-0.239
-324.114	-90.481	0.347	0.099
-323.099	-114.026	0.194	-0.037
-322.085	202.290	-0.166	-0.253
-321.070	-45.687	0.253	0.124
-320.056	197.622	0.041	-0.063
-319.041	91.816	0.121	-0.134
-318.026	-200.000	-0.001	-0.361
-317.012	-126.313	-0.091	-0.013
-315.997	442.886	-0.184	-0.397
-314.983	-46.219	-0.073	-0.036
-313.968	-34.895	-0.263	-0.142
-312.953	-200.000	0.003	0.164
-311.939	-18.662	-0.108	0.067
-310.924	-147.303	-0.118	-0.010
-309.910	370.548	-0.072	-0.144
-308.895	-67.223	-0.359	-0.140
-307.880	800.000	0.013	0.053
-306.866	532.555	0.150	0.350
-305.851	-59.611	-0.313	0.133
-304.837	116.428	-0.137	-0.166
-303.822	800.000	-0.101	0.291
-302.807	154.373	0.098	0.133
-301.793	-200.000	-0.149	0.001
-300.778	-200.000	0.002	-0.155
-299.764	-57.278	0.350	-0.152
-298.749	-19.715	0.200	-0.122
-297.735	-34.888	-0.266	0.144
-296.720	14.762	-0.238	0.183
-295.705	-119.307	-0.171	0.029
-294.691	-138.185	-0.220	0.024
-293.676	91.347	-0.116	0.128
-292.662	-100.852	-0.233	-0.057
-291.647	-200.000	0.021	0.239
-290.632	800.000	-0.018	-0.069
-289.618	800.000	0.088	-0.255
-288.603	10.422	0.142	-0.107
-287.589	-5.206	-0.041	0.028
-286.574	114.814	-0.158	-0.190
-285.559	26.420	0.172	0.142
-284.545	280.745	-0.205	-0.362
-283.530	-45.252	0.271	-0.133
-282.516	-112.869	-0.198	-0.039
-281.501	340.845	-0.112	0.215
-280.486	-200.000	-0.071	-0.325
-279.472	-200.000	0.032	0.232
-278.457	-200.000	-0.001	-0.056
-277.443	114.672	-0.273	-0.328
-276.428	-73.679	0.128	0.046
-275.413	543.665	-0.080	0.189
-274.399	286.589	0.183	-0.325
-273.384	56.307	0.203	0.195
-272.370	73.538	0.200	0.206
-271.355	-34.468	-0.367	0.198
-270.340	177.852	-0.074	-0.107
-269.326	-200.000	-0.038	-0.261
-268.311	800.000	0.033	-0.099
-267.297	-65.385	-0.102	-0.041
-266.282	-200.000	0.003	-0.161
-265.267	-55.464	0.256	0.113
-264.253	104.402	-0.065	0.075
-263.238	403.337	0.101	-0.210
-262.224	49.005	0.091	0.085
-261.209	-175.528	0.324	0.009
-260.195	214.004	-0.069	0.108
-259.180	106.364	-0.260	-0.304
-258.165	111.907	-0.055	0.066
-257.151	-84.524	-0.263	-0.082
-256.136	146.676	0.067	0.089
-255.122	-31.746	0.081	-0.045
-254.107	72.977	0.131	0.135
-253.092	800.000	0.009	-0.035
-252.078	-167.872	0.154	0.006
-251.063	406.086	0.076	-0.158
-250.049	-71.985	0.321	0.118
-249.034	800.000	-0.085	0.249
-248.019	612.486	0.095	-0.235
-247.005	-94.393	0.154	0.041
-245.990	-200.000	0.019	0.147
-244.976	-148.263	0.127	0.010
-243.961	75.397	0.216	-0.225
-242.946	112.706	-0.094	0.113
-241.932	740.683	-0.071	0.187
-240.917	-200.000	0.012	-0.161
-239.903	-83.071	-0.136	0.043
-238.888	766.204	-0.057	0.153
-237.873	-140.230	0.218	-0.023
-236.859	-200.000	0.034	0.422
-235.844	-32.606	0.096	0.053
-234.830	30.377	0.050	-0.042
-233.815	-18.439	0.258	0.159
-232.800	-200.000	-0.030	0.239
-231.786	385.249	0.218	0.443
-230.771	-200.000	-0.027	0.237
-229.757	-20.612	0.080	-0.049
-228.742	284.539	0.126	0.223
-227.727	-118.033	-0.330	-0.058
-226.713	-40.195	-0.388	0.199
-225.698	3.588	0.293	0.210
-224.684	-119.879	0.233	0.039
-223.669	113.387	0.246	0.294
-222.655	-200.000	0.001	0.067
-221.640	-87.908	0.371	0.110
-220.625	310.049	0.021	0.038
-219.611	-184.764	0.167	-0.003
-218.596	71.019	0.053	0.054
-217.582	3.494	-0.200	-0.143
-216.567	-200.000	-0.005	0.120
-215.552	-92.214	0.130	-0.036
-214.538	113.877	0.178	-0.213
-213.523	-104.981	0.223	-0.050
-212.509	800.000	0.060	0.228
-211.494	-76.173	-0.086	-0.030
-210.479	99.448	-0.247	-0.281
-209.465	15.543	0.224	-0.173
-208.450	-33.875	0.261	-0.142
-207.436	-40.779	0.137	0.070
-206.421	20.754	0.137	0.109
-205.406	223.665	0.024	0.037
-204.392	186.376	-0.035	-0.051
-203.377	800.000	0.060	-0.228
-202.363	800.000	-0.078	0.215
-201.348	-200.000	-0.025	-0.456
-200.333	53.594	0.116	-0.109
-199.319	192.925	-0.177	-0.263
-198.304	-72.872	0.175	-0.063
-197.290	46.211	0.091	-0.083
-196.275	93.602	0.176	-0.196
-195.260	17.500	0.029	-0.022
-194.246	210.635	-0.104	-0.161
-193.231	10.310	-0.428	0.320
-192.217	-91.095	0.161	0.045
-191.202	-119.822	0.098	0.017
-190.187	-167.251	0.274	0.011
-189.173	146.980	0.035	0.046
-188.158	-121.353	0.591	-0.097
-187.144	800.000	0.020	0.067
-186.129	391.865	0.031	-0.063
-185.114	43.769	-0.228	-0.205
-184.100	-131.585	0.378	0.049
-183.085	-172.087	0.181	-0.006
-182.071	23.803	0.244	-0.197
-181.056	-200.000	0.006	0.095
-180.042	-200.000	-0.053	-0.409
-179.027	-74.469	-0.104	-0.037
-178.012	-169.053	0.120	-0.004
-176.998	-26.494	-0.237	0.136
-175.983	-123.665	-0.232	-0.036
-174.969	-45.702	0.018	-0.009
-173.954	-200.000	0.029	-0.141
-172.939	93.681	0.048	-0.054
-171.925	800.000	-0.153	-0.428
-170.910	-77.844	-0.042	-0.014
-169.896	142.643	-0.264	0.345
-168.881	-111.792	-0.108	-0.021
-167.866	-152.995	0.164	0.011
-166.852	800.000	0.062	-0.202
-165.837	158.107	-0.175	0.239
-164.823	-200.000	0.011	0.363
-163.808	-78.543	0.184	-0.062
-162.793	-200.000	-0.016	0.105
-161.779	-91.918	-0.152	0.042
-160.764	87.298	0.270	-0.293
-159.750	25.805	-0.251	-0.205
-158.735	68.981	0.122	0.123
-157.720	800.000	0.079	0.338
-156.706	176.087	-0.111	-0.158
-155.691	599.009	-0.131	-0.319
-154.677	80.375	0.108	0.114
-153.662	52.091	-0.067	0.063
-152.647	-9.650	-0.193	-0.126
-151.633	48.181	0.310	0.285
-150.618	-89.720	0.126	0.036
-149.604	-91.586	-0.176	0.049
-148.589	-12.684	-0.048	-0.031
-147.574	-154.761	-0.341	-0.022
-146.560	-13.970	0.080	-0.050
-145.545	-161.053	0.131	0.007
-144.531	-16.352	0.279	-0.174
-143.516	-200.000	-0.068	0.350
-142.502	68.642	0.126	-0.127
-141.487	66.796	-0.161	-0.161
-140.472	-58.005	-0.228	0.098
-139.458	-44.338	0.171	0.084
-138.443	-200.000	0.006	0.123
-137.429	-200.000	0.010	0.072
-136.414	325.724	-0.129	0.243
-135.399	800.000	-0.015	-0.041
-134.385	-98.986	-0.172	-0.043
-133.370	-52.607	0.413	-0.187
-132.356	675.113	-0.105	0.268
-131.341	-101.005	-0.153	-0.037
-130.326	-59.981	0.358	0.150
-129.312	536.714	-0.051	0.118
-128.297	303.206	0.172	0.313
-127.283	-94.207	0.146	-0.039
-126.268	126.059	-0.076	0.094
-125.253	673.385	0.169	0.430
-124.239	462.577	0.120	-0.263
-123.224	-200.000	0.012	0.314
-122.210	-122.160	0.203	0.033
-121.195	-200.000	-0.028	-0.250
