DTS Sentinel unit serial number:	SN413079Multiplexer serial number:	ORYXHardware model number:	OX4-SRSoftware version number:	ORYX F/W v4.00 Oryx Data Collector v3.7.2.0data status	okinstallation	princeton_trtdifferential loss correction	single-endedforward channel	channel 3reverse channel	N/Adate	2019/09/18time	07:12:35forward acquisition time	60.00reverse acquisition time	0.00gamma	496.2192k internal	0.2343k external	0.2343temperature offset calibration	0.9950default loss term (dB/km)	0.3790temperature slope calibration	1.0000multiplexer offset coefficient	1.0000multiplexer slope coefficient	1.0000fibre end	0.00T internal ref (°C)	23.19T ext. ref 1 (°C)	0.19T ext. ref 2 (°C)	17.32length (m)	temperature (°C)	Stokes	anti-Stokes-747.200	-200.000	-0.005	0.332
-746.185	-136.820	0.194	-0.022
-745.171	-70.842	-0.131	0.049
-744.156	-129.474	-0.167	0.023
-743.142	-200.000	-0.006	0.133
-742.127	800.000	0.079	0.331
-741.112	-47.013	-0.227	-0.111
-740.098	-6.752	-0.225	0.153
-739.083	-60.778	0.079	0.033
-738.069	11.146	-0.225	-0.172
-737.054	-200.000	0.007	-0.154
-736.039	-145.259	0.256	-0.023
-735.025	109.851	-0.136	0.164
-734.010	327.581	-0.111	-0.214
-732.996	49.727	0.106	-0.100
-731.981	147.215	-0.151	-0.203
-730.966	800.000	-0.077	-0.243
-729.952	-71.152	0.481	-0.181
-728.937	25.076	-0.168	0.140
-727.923	-46.322	0.132	0.065
-726.908	-2.322	-0.215	-0.151
-725.894	-18.700	0.349	-0.217
-724.879	257.618	0.143	0.247
-723.864	577.849	0.083	-0.202
-722.850	277.228	-0.201	-0.358
-721.835	-118.136	0.252	-0.045
-720.821	-36.676	-0.242	-0.130
-719.806	443.577	-0.078	-0.172
-718.791	-58.070	0.246	-0.107
-717.777	26.293	0.036	-0.030
-716.762	-118.778	-0.084	-0.015
-715.748	227.780	0.120	-0.195
-714.733	-113.684	-0.130	0.025
-713.718	90.940	0.120	-0.135
-712.704	-33.236	-0.141	0.078
-711.689	55.214	0.207	0.200
-710.675	800.000	-0.170	-0.490
-709.660	126.295	-0.093	0.118
-708.645	-121.838	0.269	-0.044
-707.631	-91.815	0.215	0.061
-706.616	-74.886	0.207	-0.074
-705.602	127.266	-0.288	-0.365
-704.587	-200.000	-0.005	-0.065
-703.572	-39.820	0.295	-0.154
-702.558	-23.324	-0.109	0.066
-701.543	-200.000	-0.034	-0.211
-700.529	-40.379	-0.139	-0.072
-699.514	196.669	-0.208	0.317
-698.499	46.488	-0.167	0.155
-697.485	13.467	0.244	-0.190
-696.470	-200.000	0.013	0.100
-695.456	556.046	-0.137	0.330
-694.441	-200.000	-0.030	0.330
-693.426	50.900	0.106	-0.100
-692.412	-105.704	0.225	-0.051
-691.397	-79.751	0.118	-0.040
-690.383	-200.000	0.008	-0.368
-689.368	491.411	0.068	-0.155
-688.354	-117.155	0.359	-0.065
-687.339	-105.895	-0.459	-0.103
-686.324	106.264	0.137	0.162
-685.310	-97.795	-0.295	-0.076
-684.295	101.042	0.064	0.075
-683.281	-200.000	-0.004	-0.020
-682.266	-13.068	-0.238	-0.155
-681.251	102.367	-0.213	0.249
-680.237	31.455	0.252	-0.216
-679.222	-73.589	-0.258	-0.094
-678.208	491.009	0.045	0.103
-677.193	-200.000	-0.023	-0.181
-676.178	54.101	-0.236	-0.227
-675.164	-50.235	0.281	-0.132
-674.149	-107.633	-0.204	0.045
-673.135	-37.543	0.301	-0.160
-672.120	-200.000	0.012	-0.067
-671.105	-200.000	-0.016	-0.125
-670.091	-112.467	-0.072	0.014
-669.076	98.647	0.126	0.145
-668.062	35.613	0.062	-0.055
-667.047	-200.000	-0.022	0.348
-666.032	-95.745	-0.308	-0.082
-665.018	172.495	-0.072	-0.103
-664.003	300.263	0.052	0.097
-662.989	-200.000	-0.001	-0.072
-661.974	-133.166	-0.371	-0.047
-660.959	-200.000	-0.349	-0.002
-659.945	800.000	-0.028	-0.114
-658.930	-149.524	-0.163	0.013
-657.916	-200.000	0.021	-0.096
-656.901	-200.000	-0.038	-0.414
-655.886	-200.000	0.028	-0.299
-654.872	-98.782	0.122	0.031
-653.857	-103.490	-0.186	0.044
-652.843	-200.000	-0.011	-0.056
-651.828	-6.599	0.164	-0.112
-650.814	12.262	0.290	-0.223
-649.799	-200.000	0.035	-0.189
-648.784	336.592	0.073	-0.142
-647.770	17.207	-0.359	-0.284
-646.755	-130.141	-0.137	-0.019
-645.741	-200.000	0.063	0.442
-644.726	194.441	0.166	0.252
-643.711	-77.929	0.176	0.061
-642.697	-143.350	-0.178	-0.017
-641.682	-200.000	0.059	-0.309
-640.668	411.647	-0.120	-0.255
-639.653	800.000	-0.044	0.166
-638.638	589.266	-0.102	-0.250
-637.624	-200.000	-0.051	-0.227
-636.609	-84.792	-0.131	0.041
-635.595	800.000	0.133	-0.463
-634.580	36.616	-0.203	-0.178
-633.565	-73.512	0.169	0.062
-632.551	-135.249	-0.224	-0.027
-631.536	556.838	0.142	0.342
-630.522	-200.000	-0.059	-0.355
-629.507	130.684	-0.128	-0.163
-628.492	-93.314	0.427	0.118
-627.478	-163.105	0.103	0.005
-626.463	-84.917	0.184	-0.058
-625.449	-145.927	0.046	0.004
-624.434	-200.000	0.066	0.361
-623.419	193.165	0.124	0.187
-622.405	-200.000	-0.046	-0.398
-621.390	12.525	0.090	-0.069
-620.376	-200.000	-0.020	-0.328
-619.361	-77.064	0.296	0.103
-618.346	-200.000	-0.000	0.071
-617.332	-94.678	-0.156	-0.042
-616.317	28.629	0.096	0.081
-615.303	-200.000	0.036	0.207
-614.288	-13.998	0.091	0.058
-613.273	800.000	-0.056	-0.182
-612.259	-102.393	0.086	0.020
-611.244	0.589	0.071	-0.050
-610.230	-36.598	-0.319	0.171
-609.215	800.000	-0.053	-0.191
-608.201	-200.000	0.020	-0.194
-607.186	155.049	0.099	0.135
-606.171	3.196	-0.229	-0.166
-605.157	-71.099	0.115	-0.043
-604.142	64.218	-0.267	0.267
-603.128	-200.000	0.014	0.101
-602.113	-103.353	-0.118	0.028
-601.098	621.319	-0.127	-0.318
-600.084	800.000	0.091	-0.385
-599.069	589.509	-0.071	0.174
-598.055	-132.221	-0.152	0.020
-597.040	322.058	0.125	-0.236
-596.025	220.505	-0.214	-0.342
-595.011	-101.787	-0.300	0.072
-593.996	-140.136	0.237	-0.025
-592.982	100.224	-0.235	-0.271
-591.967	800.000	0.064	0.232
-590.952	15.120	-0.084	-0.066
-589.938	-24.722	-0.202	-0.120
-588.923	341.429	-0.115	0.223
-587.909	-200.000	0.026	0.148
-586.894	-200.000	0.006	-0.050
-585.879	800.000	-0.054	0.160
-584.865	-6.014	-0.127	0.087
-583.850	474.216	0.043	0.097
-582.836	-18.250	-0.224	0.139
-581.821	28.183	-0.245	-0.206
-580.806	-14.236	-0.509	-0.326
-579.792	-50.647	0.042	0.020
-578.777	151.112	-0.262	-0.355
-577.763	179.528	-0.159	-0.232
-576.748	337.657	-0.116	-0.225
-575.733	-134.665	0.086	0.010
-574.719	-200.000	0.090	0.444
-573.704	-53.328	-0.145	-0.066
-572.690	5.440	-0.127	0.093
-571.675	316.958	-0.135	0.254
-570.661	778.276	0.118	0.321
-569.646	-91.252	0.377	-0.107
-568.631	-200.000	0.002	-0.307
-567.617	-34.686	-0.208	0.113
-566.602	-98.556	0.027	-0.007
-565.588	131.625	-0.232	-0.297
-564.573	-200.000	0.039	-0.294
-563.558	-72.385	0.405	-0.149
-562.544	-144.812	0.258	-0.024
-561.529	-130.778	-0.161	0.021
-560.515	-200.000	-0.054	-0.283
-559.500	-136.621	0.286	0.033
-558.485	136.651	-0.313	0.407
-557.471	-200.000	0.078	0.528
-556.456	800.000	0.042	-0.147
-555.442	-200.000	-0.073	0.403
-554.427	800.000	0.006	0.024
-553.412	-200.000	-0.019	-0.143
-552.398	766.987	-0.109	-0.295
-551.383	13.004	-0.180	0.139
-550.369	-59.849	-0.231	-0.098
-549.354	122.431	-0.085	0.105
-548.339	-148.147	-0.243	0.020
-547.325	-52.881	0.075	0.034
-546.310	-67.272	-0.157	-0.061
-545.296	-200.000	-0.021	-0.168
-544.281	5.810	-0.261	-0.192
-543.266	-58.313	0.179	-0.077
-542.252	-140.683	-0.116	0.012
-541.237	-143.656	-0.226	0.021
-540.223	-200.000	-0.003	0.457
-539.208	18.660	-0.219	-0.174
-538.193	-126.526	0.194	0.029
-537.179	17.853	-0.106	-0.084
-536.164	-28.341	-0.031	0.018
-535.150	-200.000	-0.012	-0.149
-534.135	263.989	-0.042	-0.073
-533.121	-200.000	0.000	-0.031
-532.106	-200.000	0.015	-0.103
-531.091	185.011	0.175	0.257
-530.077	-200.000	0.064	0.360
-529.062	89.679	-0.108	-0.120
-528.048	3.363	0.241	-0.174
-527.033	20.557	0.110	0.089
-526.018	-189.763	-0.165	-0.002
-525.004	10.145	0.395	0.298
-523.989	-200.000	-0.018	0.188
-522.975	-191.290	0.106	-0.001
-521.960	-14.946	-0.076	-0.048
-520.945	800.000	-0.046	-0.139
-519.931	-116.058	-0.211	-0.039
-518.916	-15.961	-0.169	0.107
-517.902	129.176	-0.138	0.175
-516.887	35.781	0.331	-0.289
-515.872	713.347	0.164	-0.430
-514.858	-200.000	-0.029	0.147
-513.843	-72.718	0.349	-0.128
-512.829	573.820	0.014	-0.035
-511.814	-121.422	0.161	-0.027
-510.799	-200.000	0.010	0.344
-509.785	-29.038	-0.044	0.025
-508.770	14.545	0.131	0.101
-507.756	-19.207	-0.264	-0.163
-506.741	-21.563	-0.196	-0.119
-505.726	-79.922	-0.238	0.079
-504.712	91.049	0.288	0.321
-503.697	-200.000	0.050	0.227
-502.683	-200.000	0.034	-0.172
-501.668	-113.956	-0.269	0.052
-500.653	-200.000	0.019	0.293
-499.639	25.699	0.338	-0.279
-498.624	-200.000	-0.025	0.251
-497.610	-108.987	0.098	0.021
-496.595	-200.000	-0.003	-0.340
-495.581	-200.000	-0.049	0.249
-494.566	134.783	0.149	0.192
-493.551	-122.690	-0.069	0.011
-492.537	-12.863	-0.171	0.111
-491.522	-94.727	0.361	0.097
-490.508	214.371	0.065	-0.102
-489.493	-200.000	0.028	-0.131
-488.478	-200.000	0.016	-0.173
-487.464	-29.948	-0.215	-0.121
-486.449	-81.690	0.149	-0.049
-485.435	-82.566	0.147	-0.047
-484.420	800.000	0.040	-0.121
-483.405	-73.078	0.136	0.049
-482.391	87.859	-0.175	0.192
-481.376	-149.823	-0.121	0.009
-480.362	258.137	-0.115	0.196
-479.347	-108.414	-0.096	0.020
-478.332	-48.640	-0.162	0.077
-477.318	-71.453	0.294	-0.109
-476.303	19.917	-0.043	0.034
-475.289	800.000	-0.075	-0.232
-474.274	717.708	-0.073	0.191
-473.259	-27.127	-0.267	-0.154
-472.245	-4.641	0.131	-0.090
-471.230	423.673	0.048	-0.102
-470.216	105.305	-0.126	-0.147
-469.201	800.000	0.055	-0.232
-468.186	246.445	-0.115	0.191
-467.172	503.855	-0.070	0.161
-466.157	22.855	0.153	0.124
-465.143	-52.181	-0.196	-0.090
-464.128	52.223	0.282	-0.266
-463.113	388.090	-0.072	-0.147
-462.099	577.620	-0.097	0.236
-461.084	-122.080	-0.077	0.013
-460.070	-5.329	0.226	0.154
-459.055	-200.000	0.015	-0.196
-458.040	38.856	-0.368	-0.325
-457.026	321.927	0.079	0.148
-456.011	787.186	-0.058	-0.158
-454.997	-200.000	0.046	-0.303
-453.982	689.272	-0.056	-0.145
-452.968	-200.000	0.001	0.300
-451.953	148.466	0.201	0.268
-450.938	695.842	-0.021	-0.055
-449.924	-47.547	0.226	-0.109
-448.909	-2.173	0.377	0.262
-447.895	676.659	0.079	0.204
-446.880	-98.883	0.333	-0.084
-445.865	-140.038	0.255	-0.027
-444.851	-159.313	-0.081	0.005
-443.836	-43.543	0.457	-0.228
-442.822	62.684	-0.056	-0.055
-441.807	13.558	0.296	-0.228
-440.792	9.044	0.181	-0.135
-439.778	333.815	-0.086	0.164
-438.763	103.264	-0.058	-0.067
-437.749	-70.090	-0.261	-0.098
-436.734	-143.791	0.352	0.033
-435.719	112.287	0.049	0.058
-434.705	-200.000	0.056	0.285
-433.690	-32.894	0.201	0.110
-432.676	437.558	-0.074	0.159
-431.661	-49.042	0.281	0.133
-430.646	-9.021	-0.096	0.063
-429.632	-174.310	0.095	-0.003
-428.617	-63.568	0.364	0.148
-427.603	153.319	0.116	-0.156
-426.588	-112.459	-0.090	0.018
-425.573	24.246	-0.097	0.079
-424.559	-200.000	0.020	0.264
-423.544	339.483	-0.029	-0.056
-422.530	-200.000	-0.030	0.459
-421.515	479.131	0.068	-0.152
-420.500	221.367	0.087	-0.138
-419.486	123.279	-0.165	0.204
-418.471	-34.372	0.107	0.058
-417.457	-200.000	0.086	0.000
-416.442	-18.140	0.236	-0.146
-415.428	-200.000	-0.045	-0.250
-414.413	52.307	-0.050	0.047
-413.398	-200.000	0.008	-0.115
-412.384	220.946	0.124	0.197
-411.369	-157.159	0.291	0.017
-410.355	9.393	-0.291	0.217
-409.340	-53.677	-0.184	0.083
-408.325	41.736	0.152	-0.136
-407.311	800.000	-0.003	0.012
-406.296	59.530	-0.064	0.062
-405.282	538.504	0.029	-0.069
-404.267	68.971	0.239	0.242
-403.252	-200.000	-0.107	0.475
-402.238	-200.000	0.061	-0.393
-401.223	-51.512	-0.212	-0.098
-400.209	-200.000	0.038	-0.242
-399.194	-81.244	0.282	-0.092
-398.179	-17.122	-0.453	0.282
-397.165	800.000	0.150	-0.468
-396.150	318.566	0.153	-0.286
-395.136	215.736	-0.104	-0.162
-394.121	-163.600	0.256	0.012
-393.106	-111.081	0.197	0.040
-392.092	-114.818	-0.004	-0.001
-391.077	19.225	0.160	0.127
-390.063	127.298	-0.083	0.104
-389.048	154.020	-0.195	0.264
-388.033	161.469	0.226	-0.312
-387.019	-118.700	-0.297	0.052
-386.004	800.000	0.042	0.147
-384.990	192.146	0.134	0.200
-383.975	-31.634	0.236	-0.131
-382.960	-200.000	0.063	-0.329
-381.946	-105.456	0.192	-0.043
-380.931	9.727	-0.029	0.022
-379.917	-200.000	0.016	-0.225
-378.902	296.849	0.028	-0.051
-377.888	-63.806	0.213	0.086
-376.873	-40.723	0.166	-0.085
-375.858	-159.040	-0.200	0.011
-374.844	365.906	-0.051	0.102
-373.829	22.729	-0.298	-0.241
-372.815	-105.001	0.132	0.030
-371.800	-84.771	-0.031	0.010
-370.785	-107.901	-0.125	-0.027
-369.771	-134.178	-0.145	0.018
-368.756	51.172	0.046	-0.043
-367.742	337.176	0.129	-0.248
-366.727	-200.000	0.008	-0.087
-365.712	-18.402	0.276	0.170
-364.698	128.082	0.224	-0.281
-363.683	407.074	-0.323	-0.674
-362.669	-81.616	0.274	0.089
-361.654	142.708	-0.299	-0.392
-360.639	44.457	0.159	-0.144
-359.625	412.042	-0.071	0.149
-358.610	5.299	-0.087	-0.063
-357.596	800.000	-0.092	0.373
-356.581	434.197	0.058	-0.125
-355.566	-50.096	-0.217	-0.102
-354.552	-35.239	-0.097	0.052
-353.537	-91.605	0.151	0.042
-352.523	-200.000	-0.009	-0.103
-351.508	-56.651	-0.099	-0.043
-350.493	339.601	-0.164	-0.316
-349.479	-44.255	0.135	0.067
-348.464	-200.000	-0.005	0.254
-347.450	-61.360	0.079	0.033
-346.435	783.820	0.082	0.222
-345.420	-52.440	0.184	-0.084
-344.406	324.687	-0.164	-0.309
-343.391	25.619	-0.318	0.261
-342.377	-68.233	0.130	0.050
-341.362	28.820	0.074	0.062
-340.348	800.000	-0.039	-0.152
-339.333	-14.800	-0.169	-0.107
-338.318	-69.984	0.025	0.009
-337.304	435.819	-0.050	0.107
-336.289	-200.000	-0.016	0.378
-335.275	-54.385	-0.041	-0.018
-334.260	341.749	0.077	-0.148
-333.245	58.357	0.312	0.301
-332.231	2.270	-0.123	0.088
-331.216	68.775	0.148	-0.150
-330.202	26.478	-0.377	-0.311
-329.187	-69.436	-0.202	-0.076
-328.172	169.859	-0.155	-0.218
-327.158	-43.190	-0.208	-0.104
-326.143	-200.000	-0.006	-0.263
-325.129	-51.158	0.088	0.041
-324.114	-153.976	0.219	0.015
-323.099	-200.000	0.009	0.186
-322.085	800.000	0.014	-0.049
-321.070	230.820	0.048	0.077
-320.056	98.650	-0.167	0.190
-319.041	-200.000	0.015	0.136
-318.026	71.840	0.172	0.176
-317.012	-200.000	-0.012	0.136
-315.997	-79.718	0.107	-0.035
-314.983	69.316	-0.275	0.278
-313.968	6.458	0.229	-0.168
-312.953	141.272	0.122	-0.159
-311.939	61.953	-0.172	0.169
-310.924	5.455	-0.170	-0.123
-309.910	-54.620	0.150	-0.067
-308.895	-123.229	-0.289	0.046
-307.880	-200.000	0.058	-0.377
-306.866	112.653	-0.153	0.182
-305.851	-200.000	-0.009	0.076
-304.837	-64.651	0.118	0.047
-303.822	125.616	0.063	-0.078
-302.807	501.260	-0.069	0.157
-301.793	-134.430	0.199	0.024
-300.778	19.361	0.144	0.114
-299.764	-46.637	-0.251	-0.121
-298.749	800.000	-0.024	0.071
-297.735	-93.548	0.180	-0.049
-296.720	-15.351	-0.222	-0.140
-295.705	-200.000	-0.007	-0.156
-294.691	600.646	-0.092	-0.224
-293.676	250.698	0.100	-0.168
-292.662	141.683	0.045	0.058
-291.647	-44.020	-0.310	0.153
-290.632	-200.000	-0.014	0.116
-289.618	-169.379	0.258	0.009
-288.603	17.186	0.090	-0.070
-287.589	-200.000	-0.029	-0.126
-286.574	-72.974	-0.166	0.060
-285.559	372.434	-0.050	0.100
-284.545	-200.000	0.004	-0.079
-283.530	373.205	-0.074	-0.148
-282.516	-137.658	0.244	0.027
-281.501	800.000	0.051	0.159
-280.486	48.509	0.084	-0.078
-279.472	-200.000	-0.069	-0.369
-278.457	-25.880	-0.237	0.137
-277.443	-84.437	-0.121	0.038
-276.428	404.661	0.093	0.193
-275.413	-14.205	-0.155	-0.098
-274.399	31.865	-0.148	-0.125
-273.384	86.469	-0.074	-0.080
-272.370	-37.871	0.169	0.088
-271.355	142.292	-0.202	0.264
-270.340	114.779	0.190	0.228
-269.326	800.000	0.123	0.404
-268.311	800.000	0.073	-0.213
-267.297	-54.049	-0.141	-0.063
-266.282	576.773	0.032	0.076
-265.267	485.849	-0.152	0.340
-264.253	4.109	0.332	0.239
-263.238	-200.000	-0.039	0.301
-262.224	-27.488	0.216	0.123
-261.209	-151.136	-0.207	0.015
-260.195	-190.465	-0.382	0.004
-259.180	-83.215	-0.185	-0.059
-258.165	-58.891	0.132	0.056
-257.151	287.237	0.017	0.030
-256.136	-14.825	0.133	0.084
-255.122	-200.000	0.000	-0.242
-254.107	-200.000	-0.056	0.266
-253.092	-200.000	0.015	0.309
-252.078	-102.057	-0.036	0.009
-251.063	-87.860	-0.234	0.069
-250.049	232.802	0.137	-0.222
-249.034	-129.957	0.187	-0.025
-248.019	323.091	-0.147	-0.275
-247.005	800.000	-0.097	-0.322
-245.990	545.284	-0.089	0.210
-244.976	763.638	0.061	0.163
-243.961	-137.849	0.240	-0.026
-242.946	62.358	-0.194	0.190
-241.932	-102.163	0.132	-0.031
-240.917	-144.759	-0.023	-0.002
-239.903	-200.000	-0.025	0.108
-238.888	800.000	0.095	0.294
-237.873	388.080	0.076	0.155
-236.859	16.331	0.197	0.153
-235.844	-155.568	0.205	0.013
-234.830	-198.366	-0.020	0.000
-233.815	-125.286	-0.294	-0.044
-232.800	-163.051	-0.059	0.003
-231.786	54.729	0.097	0.092
-230.771	61.064	0.157	0.153
-229.757	-200.000	0.014	0.153
-228.742	-200.000	0.055	0.270
-227.727	-22.411	0.142	0.084
-226.713	-34.348	-0.085	0.046
-225.698	-42.269	-0.085	0.043
-224.684	-29.126	0.288	-0.162
-223.669	-71.462	0.168	0.062
-222.655	800.000	-0.060	-0.241
-221.640	-200.000	0.010	-0.050
-220.625	-101.807	0.290	-0.069
-219.611	-200.000	-0.011	-0.248
-218.596	129.766	-0.290	-0.364
-217.582	209.898	0.096	0.148
-216.567	-200.000	-0.022	0.096
-215.552	-200.000	-0.080	-0.403
-214.538	-200.000	0.004	0.131
-213.523	58.257	-0.177	0.170
-212.509	800.000	-0.017	-0.062
-211.494	-102.128	0.244	0.058
-210.479	716.795	-0.012	-0.031
-209.465	764.770	-0.174	-0.463
-208.450	49.424	0.064	0.059
-207.436	-111.124	0.151	-0.030
-206.421	-200.000	0.006	0.460
-205.406	-8.105	0.181	0.120
-204.392	-100.939	0.177	0.043
-203.377	-122.304	-0.192	-0.031
-202.363	-32.848	-0.267	-0.146
-201.348	-82.103	0.315	0.101
-200.333	-65.562	-0.403	0.159
-199.319	-126.630	-0.201	-0.029
-198.304	35.496	-0.231	0.198
-197.290	-23.246	0.085	0.050
-196.275	800.000	-0.143	0.473
-195.260	-164.562	-0.162	0.007
-194.246	68.779	-0.165	-0.166
-193.231	800.000	0.036	-0.105
-192.217	244.348	-0.189	0.311
-191.202	-59.390	-0.148	-0.062
-190.187	-87.176	-0.193	0.057
-189.173	-200.000	0.047	0.202
-188.158	621.856	-0.059	0.145
-187.144	-200.000	-0.007	0.136
-186.129	-44.565	0.141	-0.069
-185.114	27.425	0.102	-0.084
-184.100	32.933	0.074	0.063
-183.085	498.455	-0.130	0.294
-182.071	-19.582	-0.075	-0.045
-181.056	221.094	-0.010	-0.015
-180.042	-158.562	-0.200	-0.011
-179.027	93.991	-0.055	-0.061
-178.012	50.445	0.147	0.136
-176.998	-5.188	-0.119	0.080
-175.983	673.562	0.118	-0.299
-174.969	-5.736	0.127	0.085
-173.954	-120.687	0.413	0.068
-172.939	-150.298	0.215	-0.016
-171.925	120.776	-0.108	-0.132
-170.910	-111.756	0.091	-0.018
-169.896	236.678	0.058	-0.095
-168.881	-32.579	0.333	0.181
-167.866	-47.301	0.167	0.080
-166.852	-200.000	0.017	-0.133
-165.837	-78.328	0.180	0.060
-164.823	604.723	0.051	0.123
-163.808	773.641	-0.065	-0.174
-162.793	12.740	-0.113	0.086
-161.779	-138.399	0.093	0.010
-160.764	800.000	-0.127	0.349
-159.750	-176.528	0.211	0.005
-158.735	-121.997	0.285	0.046
-157.720	-27.744	-0.402	-0.228
-156.706	800.000	-0.030	-0.089
-155.691	110.493	-0.128	0.151
-154.677	-171.875	-0.170	-0.005
-153.662	30.872	0.198	-0.166
-152.647	-16.816	-0.356	-0.220
-151.633	-200.000	0.029	0.239
-150.618	-74.517	-0.186	0.065
-149.604	-12.269	0.393	0.251
-148.589	-200.000	-0.043	0.386
-147.574	61.146	0.178	0.173
-146.560	302.270	0.103	-0.186
-145.545	-200.000	-0.027	0.388
-144.531	567.393	0.054	-0.129
-143.516	683.900	-0.034	0.087
-142.502	88.684	0.198	-0.215
-141.487	35.992	-0.216	0.186
-140.472	-86.678	-0.092	-0.027
-139.458	-13.264	0.127	0.081
-138.443	301.755	-0.107	-0.193
-137.429	456.286	0.135	0.293
-136.414	0.517	-0.250	0.175
-135.399	-200.000	0.065	0.365
-134.385	-109.168	0.290	0.060
-133.370	281.079	0.099	0.174
-132.356	-124.168	0.194	0.030
-131.341	-9.895	0.132	-0.086
-130.326	800.000	-0.051	0.205
-129.312	239.390	0.116	0.189
-128.297	214.937	0.120	0.186
-127.283	58.808	-0.028	-0.027
-126.268	-157.530	-0.169	-0.010
-125.253	295.372	0.084	-0.150
-124.239	800.000	0.116	-0.319
-123.224	800.000	0.040	-0.161
-122.210	78.532	-0.208	0.217
-121.195	-79.338	0.295	0.098
