DTS Sentinel unit serial number:	SN413079Multiplexer serial number:	ORYXHardware model number:	OX4-SRSoftware version number:	ORYX F/W v4.00 Oryx Data Collector v3.7.2.0data status	okinstallation	princeton_trtdifferential loss correction	single-endedforward channel	channel 3reverse channel	N/Adate	2019/09/11time	11:46:11forward acquisition time	60.00reverse acquisition time	0.00gamma	496.2192k internal	0.2293k external	0.2293temperature offset calibration	0.9935default loss term (dB/km)	0.3790temperature slope calibration	1.0000multiplexer offset coefficient	1.0000multiplexer slope coefficient	1.0000fibre end	0.00T internal ref (°C)	38.67T ext. ref 1 (°C)	0.18T ext. ref 2 (°C)	36.48length (m)	temperature (°C)	Stokes	anti-Stokes-747.200	-200.000	-0.004	0.146
-746.185	-67.319	-0.295	-0.119
-745.171	-76.412	0.213	-0.077
-744.156	-157.361	-0.271	-0.017
-743.142	440.356	0.095	-0.212
-742.127	800.000	-0.111	0.333
-741.112	609.305	0.028	0.071
-740.098	233.895	-0.149	0.250
-739.083	-96.357	-0.417	-0.113
-738.069	-200.000	-0.025	-0.151
-737.054	-88.814	-0.228	0.069
-736.039	-105.285	-0.387	-0.090
-735.025	-94.659	0.138	-0.038
-734.010	713.230	0.083	-0.226
-732.996	11.503	-0.128	-0.100
-731.981	-106.728	-0.278	0.063
-730.966	-18.050	-0.353	0.226
-729.952	-200.000	0.010	-0.196
-728.937	47.617	-0.098	-0.094
-727.923	-200.000	-0.052	-0.241
-726.908	800.000	-0.096	-0.323
-725.894	10.038	-0.333	0.259
-724.879	137.253	-0.171	0.228
-723.864	117.124	0.122	-0.153
-722.850	-43.382	0.089	0.046
-721.835	786.890	0.128	0.358
-720.821	734.508	-0.072	-0.197
-719.806	410.646	-0.072	0.155
-718.791	-200.000	0.014	0.167
-717.777	-152.339	-0.502	-0.037
-716.762	-200.000	-0.020	-0.211
-715.748	800.000	0.087	-0.291
-714.733	-10.327	-0.133	0.090
-713.718	-120.531	0.333	-0.058
-712.704	214.936	-0.063	-0.102
-711.689	-200.000	-0.008	0.157
-710.675	88.070	0.089	0.101
-709.660	72.000	-0.141	0.150
-708.645	-200.000	0.037	0.236
-707.631	116.474	0.174	0.218
-706.616	-156.986	-0.267	-0.017
-705.602	531.496	-0.109	-0.264
-704.587	-140.215	0.111	-0.012
-703.572	-49.289	0.252	0.123
-702.558	800.000	-0.028	0.089
-701.543	30.466	-0.176	0.154
-700.529	-200.000	-0.033	-0.173
-699.514	108.310	0.137	0.167
-698.499	-58.860	0.148	0.065
-697.485	-33.455	-0.193	0.109
-696.470	-200.000	0.043	0.250
-695.456	329.695	-0.104	-0.203
-694.441	-18.772	0.226	0.144
-693.426	-51.840	-0.457	-0.217
-692.412	-88.298	-0.315	-0.096
-691.397	-200.000	0.013	-0.113
-690.383	107.463	-0.137	-0.166
-689.368	-200.000	0.024	-0.274
-688.354	-59.144	0.318	0.140
-687.339	308.800	-0.042	-0.081
-686.324	800.000	-0.109	-0.416
-685.310	-142.348	0.220	-0.022
-684.295	188.242	0.026	-0.040
-683.281	37.751	-0.139	0.126
-682.266	-200.000	-0.020	-0.164
-681.251	210.649	-0.077	-0.123
-680.237	-122.948	0.204	-0.034
-679.222	-9.257	-0.200	-0.136
-678.208	800.000	-0.038	-0.158
-677.193	-39.547	0.160	0.086
-676.178	800.000	-0.047	0.173
-675.164	-143.080	-0.180	0.018
-674.149	-200.000	0.026	-0.151
-673.135	418.385	0.086	-0.188
-672.120	-63.855	-0.127	0.053
-671.105	-102.399	-0.165	-0.040
-670.091	-73.571	0.134	0.050
-669.076	-71.722	0.058	-0.022
-668.062	-86.478	0.264	0.083
-667.047	242.126	0.136	0.232
-666.032	-200.000	0.019	-0.351
-665.018	658.913	0.029	-0.076
-664.003	-6.036	0.194	-0.135
-662.989	123.093	0.118	0.150
-661.974	131.455	0.057	-0.074
-660.959	-80.571	-0.191	-0.065
-659.945	39.771	0.126	-0.115
-658.930	800.000	-0.024	0.082
-657.916	-174.717	0.094	-0.003
-656.901	-66.525	-0.344	-0.139
-655.886	-145.736	-0.413	-0.038
-654.872	52.993	0.278	-0.271
-653.857	95.127	0.028	-0.032
-652.843	-200.000	-0.012	0.112
-651.828	175.919	0.096	0.142
-650.814	-200.000	-0.001	-0.098
-649.799	-148.052	0.460	-0.039
-648.784	-118.491	0.093	-0.017
-647.770	-101.751	-0.252	-0.062
-646.755	-112.962	0.349	0.070
-645.741	-62.720	-0.319	0.135
-644.726	-129.186	-0.160	0.023
-643.711	11.289	0.109	-0.085
-642.697	207.748	0.129	-0.206
-641.682	11.019	-0.133	0.104
-640.668	155.612	-0.114	0.161
-639.653	-200.000	-0.014	-0.345
-638.638	-137.286	-0.039	0.005
-637.624	-17.079	-0.119	-0.076
-636.609	135.083	0.128	-0.169
-635.595	-147.104	0.076	-0.007
-634.580	800.000	-0.011	0.047
-633.565	-137.699	0.313	-0.036
-632.551	-200.000	-0.024	0.214
-631.536	425.184	0.014	-0.030
-630.522	-100.838	0.256	0.064
-629.507	-139.840	0.145	-0.016
-628.492	-138.734	0.094	-0.010
-627.478	-140.893	0.016	0.002
-626.463	800.000	-0.049	0.209
-625.449	23.311	-0.115	-0.096
-624.434	-139.821	-0.209	0.023
-623.419	565.633	0.022	-0.055
-622.405	157.005	-0.057	0.080
-621.390	55.997	-0.178	0.176
-620.376	182.447	-0.121	0.181
-619.361	-35.970	-0.272	-0.150
-618.346	-172.801	-0.134	-0.004
-617.332	17.884	0.070	-0.057
-616.317	-33.297	-0.049	0.027
-615.303	800.000	-0.091	-0.378
-614.288	25.682	-0.437	-0.370
-613.273	-190.443	0.357	0.004
-612.259	800.000	0.179	0.600
-611.244	84.040	0.118	-0.131
-610.230	395.288	0.174	-0.370
-609.215	-200.000	-0.050	-0.245
-608.201	781.424	0.139	0.387
-607.186	800.000	-0.074	0.258
-606.171	-200.000	0.001	0.136
-605.157	267.406	-0.238	-0.423
-604.142	-87.788	-0.186	-0.057
-603.128	-200.000	0.027	-0.119
-602.113	75.081	-0.104	-0.111
-601.098	449.816	0.055	-0.124
-600.084	106.609	-0.085	0.103
-599.069	434.557	0.063	0.140
-598.055	24.085	-0.300	0.252
-597.040	-200.000	-0.229	0.001
-596.025	-200.000	-0.055	0.419
-595.011	-51.136	0.008	-0.004
-593.996	-119.525	0.343	0.061
-592.982	388.421	0.041	0.087
-591.967	-93.113	0.355	0.100
-590.952	-200.000	0.061	-0.350
-589.938	-34.949	0.079	0.044
-588.923	-40.403	0.179	0.095
-587.909	512.477	-0.077	-0.182
-586.894	414.536	0.210	-0.455
-585.879	282.508	0.098	0.178
-584.865	-200.000	-0.001	-0.080
-583.850	255.406	-0.076	0.132
-582.836	77.255	-0.027	-0.029
-581.821	53.630	0.310	-0.302
-580.806	-15.182	-0.436	-0.284
-579.792	407.135	-0.078	-0.167
-578.777	-124.726	0.221	0.035
-577.763	64.293	0.192	-0.197
-576.748	-169.684	-0.175	-0.006
-575.733	-200.000	0.032	-0.773
-574.719	-200.000	0.020	0.127
-573.704	-141.015	-0.200	0.021
-572.690	1.577	-0.109	0.080
-571.675	188.369	-0.154	-0.234
-570.661	-7.866	-0.162	-0.111
-569.646	212.046	0.056	-0.090
-568.631	236.569	0.084	-0.140
-567.617	-200.000	-0.007	-0.113
-566.602	-165.796	0.168	0.007
-565.588	-200.000	0.061	0.372
-564.573	295.010	0.125	0.232
-563.558	-94.248	0.277	-0.077
-562.544	-163.631	-0.184	0.009
-561.529	-95.421	0.080	0.022
-560.515	20.740	0.120	-0.099
-559.500	483.967	0.152	-0.352
-558.485	92.890	-0.163	-0.187
-557.471	-61.522	-0.053	-0.023
-556.456	81.696	0.241	-0.264
-555.442	800.000	-0.144	-0.605
-554.427	-137.393	-0.080	-0.009
-553.412	69.673	0.276	-0.289
-552.398	-200.000	-0.015	-0.221
-551.383	800.000	-0.027	-0.099
-550.369	-200.000	-0.010	0.202
-549.354	-200.000	0.032	-0.333
-548.339	-51.540	0.153	-0.073
-547.325	-161.002	-0.227	-0.012
-546.310	-200.000	0.026	-0.127
-545.296	-46.642	0.049	-0.025
-544.281	-200.000	-0.003	0.181
-543.266	-12.692	0.041	-0.027
-542.252	800.000	0.065	0.226
-541.237	-200.000	0.015	-0.101
-540.223	221.279	0.172	0.281
-539.208	63.168	0.032	-0.033
-538.193	-1.379	0.105	0.075
-537.179	448.747	0.059	0.131
-536.164	34.520	-0.178	0.158
-535.150	-89.156	0.094	-0.028
-534.135	23.111	0.145	-0.120
-533.121	-200.000	0.014	0.072
-532.106	-139.907	-0.316	-0.034
-531.091	94.778	0.069	-0.080
-530.077	154.428	-0.126	-0.176
-529.062	428.052	0.113	-0.248
-528.048	-33.802	-0.222	0.124
-527.033	290.039	0.011	0.020
-526.018	208.418	-0.013	-0.021
-525.004	-30.331	-0.391	0.225
-523.989	449.113	0.040	0.090
-522.975	-44.049	-0.141	-0.072
-521.960	-200.000	-0.053	0.344
-520.945	-170.217	0.206	-0.007
-519.931	800.000	0.083	0.238
-518.916	800.000	0.041	0.148
-517.902	-26.492	0.196	-0.116
-516.887	106.877	0.138	-0.166
-515.872	63.609	0.053	0.054
-514.858	-200.000	-0.008	-0.343
-513.843	123.792	-0.212	-0.269
-512.829	-124.100	-0.179	-0.028
-511.814	-200.000	0.029	0.143
-510.799	-54.636	-0.423	-0.194
-509.785	33.704	0.239	-0.211
-508.770	-153.775	-0.187	-0.013
-507.756	457.200	-0.151	0.339
-506.741	-47.719	0.250	0.123
-505.726	-32.847	-0.199	0.112
-504.712	-177.273	-0.205	-0.005
-503.697	800.000	0.049	0.166
-502.683	52.109	-0.134	0.130
-501.668	-76.725	0.405	0.144
-500.653	522.057	0.044	0.105
-499.639	65.661	-0.203	-0.208
-498.624	-200.000	-0.018	0.098
-497.610	-36.303	-0.238	0.130
-496.595	-200.000	0.015	-0.158
-495.581	-117.716	0.313	0.057
-494.566	123.639	-0.080	-0.102
-493.551	104.737	-0.152	-0.181
-492.537	800.000	-0.052	-0.154
-491.522	123.680	0.233	-0.296
-490.508	-151.661	0.444	-0.033
-489.493	-121.191	-0.211	0.036
-488.478	-94.615	-0.275	-0.076
-487.464	-200.000	0.041	-0.267
-486.449	800.000	-0.021	-0.077
-485.435	-200.000	-0.041	0.285
-484.420	3.524	0.104	0.077
-483.405	-64.421	0.074	-0.030
-482.391	-126.818	-0.233	0.035
-481.376	31.558	0.193	-0.168
-480.362	-7.020	-0.082	-0.056
-479.347	595.175	0.061	-0.154
-478.332	800.000	-0.043	0.154
-477.318	77.581	0.048	0.052
-476.303	800.000	0.050	-0.159
-475.289	-200.000	0.042	0.250
-474.274	-84.882	-0.061	0.019
-473.259	-92.221	0.413	0.118
-472.245	91.885	-0.238	0.271
-471.230	-133.336	0.217	-0.028
-470.216	-66.573	0.214	-0.086
-469.201	-83.004	0.211	-0.069
-468.186	196.249	0.176	-0.271
-467.172	-200.000	-0.018	-0.088
-466.157	800.000	0.033	-0.120
-465.143	-200.000	-0.035	0.272
-464.128	-200.000	0.047	0.426
-463.113	-91.251	-0.082	-0.024
-462.099	-29.472	-0.082	-0.048
-461.084	-142.952	-0.212	-0.021
-460.070	-200.000	-0.024	-0.221
-459.055	599.580	-0.027	0.068
-458.040	-114.145	-0.172	0.034
-457.026	50.235	-0.319	0.305
-456.011	800.000	-0.053	-0.199
-454.997	15.118	-0.087	0.069
-453.982	-128.960	0.082	0.012
-452.968	-149.552	-0.240	-0.019
-451.953	517.790	0.080	0.189
-450.938	120.317	0.099	0.124
-449.924	800.000	-0.016	0.046
-448.909	-200.000	0.003	0.019
-447.895	800.000	0.036	-0.141
-446.880	-36.684	0.361	0.196
-445.865	681.703	0.053	-0.141
-444.851	-56.994	-0.041	0.018
-443.836	238.329	-0.083	0.139
-442.822	-15.848	0.336	-0.217
-441.807	-82.186	0.278	-0.092
-440.792	-187.630	0.406	0.005
-439.778	-200.000	-0.170	-0.001
-438.763	-73.423	0.363	0.134
-437.749	-200.000	-0.010	0.323
-436.734	-153.260	-0.377	-0.027
-435.719	-14.856	-0.251	-0.163
-434.705	-200.000	0.010	0.096
-433.690	-61.607	0.223	-0.095
-432.676	-200.000	-0.021	-0.165
-431.661	476.279	-0.012	0.026
-430.646	800.000	-0.044	-0.169
-429.632	4.213	0.095	-0.070
-428.617	-148.697	-0.365	-0.030
-427.603	68.185	-0.168	-0.174
-426.588	-21.800	0.140	0.086
-425.573	112.500	0.145	0.177
-424.559	227.609	-0.167	0.275
-423.544	-109.337	0.308	0.066
-422.530	27.611	0.293	0.249
-421.515	-56.873	-0.340	-0.152
-420.500	-180.304	-0.164	-0.003
-419.486	409.875	0.075	0.161
-418.471	68.389	0.203	0.210
-417.457	-200.000	0.041	0.255
-416.442	355.961	-0.064	0.129
-415.428	607.766	-0.192	0.485
-414.413	223.051	-0.072	-0.118
-413.398	332.717	0.020	0.039
-412.384	526.774	-0.030	0.071
-411.369	-200.000	-0.002	-0.182
-410.355	7.234	0.073	-0.055
-409.340	-98.090	-0.384	0.100
-408.325	373.101	-0.041	-0.084
-407.311	800.000	0.064	0.227
-406.296	-86.160	-0.113	-0.035
-405.282	-27.618	-0.164	0.096
-404.267	30.398	0.282	0.243
-403.252	-100.896	-0.070	-0.017
-402.238	571.655	-0.093	-0.229
-401.223	-11.834	0.138	-0.092
-400.209	-24.199	0.270	-0.163
-399.194	-130.926	0.105	0.014
-398.179	131.472	0.035	-0.046
-397.165	206.435	0.067	0.105
-396.150	-88.837	-0.246	0.074
-395.136	79.196	-0.220	0.238
-394.121	800.000	-0.067	0.208
-393.106	-74.785	-0.168	0.061
-392.092	593.683	0.183	0.456
-391.077	-100.710	0.017	0.004
-390.063	-200.000	0.001	-0.009
-389.048	-200.000	-0.044	-0.276
-388.033	94.838	-0.182	0.209
-387.019	-200.000	-0.013	0.241
-386.004	103.933	-0.197	-0.233
-384.990	-110.665	-0.170	-0.036
-383.975	-106.576	-0.061	-0.014
-382.960	-101.546	0.374	0.092
-381.946	14.949	-0.150	0.119
-380.931	-122.562	0.078	-0.013
-379.917	-20.836	0.154	-0.095
-378.902	-29.686	-0.185	-0.107
-377.888	-200.000	0.011	0.091
-376.873	351.529	-0.096	0.191
-375.858	-111.735	-0.302	-0.062
-374.844	-200.000	0.012	0.202
-373.829	-200.000	0.056	-0.351
-372.815	-96.379	0.285	0.076
-371.800	800.000	-0.059	0.211
-370.785	799.266	-0.056	0.157
-369.771	-69.956	-0.303	-0.116
-368.756	-200.000	-0.056	0.293
-367.742	212.851	0.085	0.135
-366.727	-68.684	0.257	0.100
-365.712	-113.040	0.249	0.050
-364.698	-200.000	-0.005	0.128
-363.683	130.627	-0.163	0.211
-362.669	800.000	0.050	0.200
-361.654	-53.725	0.174	-0.080
-360.639	71.552	0.154	-0.161
-359.625	9.856	0.178	-0.136
-358.610	-3.969	0.124	-0.087
-357.596	483.490	-0.140	0.320
-356.581	21.042	-0.032	-0.026
-355.566	800.000	-0.012	0.047
-354.552	-167.781	0.150	0.006
-353.537	-200.000	0.048	-0.294
-352.523	-147.630	0.142	0.012
-351.508	132.656	0.168	0.219
-350.493	-200.000	-0.007	0.139
-349.479	-147.317	-0.143	0.012
-348.464	-137.344	-0.381	-0.044
-347.450	-151.740	-0.249	0.018
-346.435	14.099	-0.057	0.045
-345.420	74.203	-0.370	-0.391
-344.406	87.145	-0.228	-0.254
-343.391	722.526	0.144	-0.387
-342.377	15.576	-0.219	-0.173
-341.362	-200.000	0.016	-0.142
-340.348	-88.236	0.199	-0.060
-339.333	-200.000	-0.012	0.316
-338.318	388.718	0.103	0.216
-337.304	-133.028	0.224	-0.029
-336.289	800.000	-0.066	-0.209
-335.275	-6.197	0.072	-0.050
-334.260	-34.974	-0.199	-0.109
-333.245	-33.886	0.204	0.113
-332.231	-200.000	0.016	-0.226
-331.216	12.548	0.293	-0.228
-330.202	-34.890	-0.088	-0.049
-329.187	-21.785	-0.048	0.030
-328.172	475.531	-0.061	-0.139
-327.158	80.538	0.227	0.246
-326.143	156.427	0.267	0.370
-325.129	-200.000	-0.013	-0.297
-324.114	-117.438	-0.149	-0.027
-323.099	91.295	0.037	-0.041
-322.085	191.949	-0.163	0.248
-321.070	800.000	0.055	0.193
-320.056	91.144	-0.239	-0.270
-319.041	136.997	0.018	-0.024
-318.026	14.946	0.110	-0.087
-317.012	800.000	-0.049	0.166
-315.997	-127.051	0.437	0.065
-314.983	-65.259	0.093	-0.038
-313.968	10.323	0.032	-0.025
-312.953	473.485	-0.093	-0.212
-311.939	351.930	-0.206	-0.410
-310.924	-36.072	0.145	0.079
-309.910	800.000	0.019	0.054
-308.895	-114.741	0.298	0.057
-307.880	-85.084	0.386	0.122
-306.866	611.915	0.172	0.434
-305.851	-200.000	0.071	0.314
-304.837	155.931	0.133	-0.185
-303.822	-95.197	-0.287	0.078
-302.807	800.000	-0.042	-0.150
-301.793	-37.278	0.082	0.044
-300.778	285.780	0.016	-0.029
-299.764	-158.227	-0.117	0.007
-298.749	312.352	0.090	-0.170
-297.735	-200.000	0.007	0.248
-296.720	282.418	-0.149	-0.269
-295.705	-200.000	-0.006	-0.101
-294.691	-200.000	0.048	0.461
-293.676	11.404	-0.063	-0.048
-292.662	91.994	-0.358	-0.405
-291.647	-153.184	0.011	0.001
-290.632	1.690	-0.164	-0.119
-289.618	356.402	0.154	-0.309
-288.603	-200.000	0.061	-0.494
-287.589	-32.960	0.122	0.068
-286.574	-108.685	0.359	0.077
-285.559	800.000	0.026	-0.103
-284.545	367.796	0.123	0.250
-283.530	-200.000	-0.031	-0.215
-282.516	-48.503	0.292	-0.141
-281.501	50.882	0.148	0.140
-280.486	-7.167	0.081	0.055
-279.472	-120.758	0.313	-0.053
-278.457	-200.000	0.010	0.078
-277.443	278.227	0.075	-0.134
-276.428	-121.685	0.139	-0.023
-275.413	227.491	-0.249	0.408
-274.399	800.000	-0.048	0.202
-273.384	-84.913	-0.176	-0.056
-272.370	-42.211	-0.423	0.217
-271.355	11.011	0.154	0.118
-270.340	159.656	-0.175	0.244
-269.326	-200.000	-0.006	-0.204
-268.311	-9.734	-0.092	-0.061
-267.297	-200.000	-0.083	-0.375
-266.282	-69.278	-0.155	-0.060
-265.267	-43.564	-0.242	-0.123
-264.253	312.798	0.020	-0.037
-263.238	-200.000	0.078	0.376
-262.224	106.852	0.159	0.189
-261.209	299.379	0.109	0.201
-260.195	800.000	-0.075	0.257
-259.180	-200.000	0.003	-0.188
-258.165	67.074	0.110	-0.112
-257.151	81.662	-0.057	0.062
-256.136	95.892	0.207	0.237
-255.122	-200.000	-0.010	-0.156
-254.107	-130.535	-0.263	0.036
-253.092	84.296	-0.055	0.061
-252.078	-105.655	0.408	0.093
-251.063	-132.392	0.156	0.020
-250.049	-200.000	-0.020	0.352
-249.034	-200.000	-0.010	-0.286
-248.019	-9.811	0.193	-0.129
-247.005	-50.134	0.093	0.044
-245.990	-152.331	0.044	0.003
-244.976	-200.000	-0.040	0.368
-243.961	-190.494	0.337	0.004
-242.946	-200.000	-0.009	-0.148
-241.932	800.000	-0.057	0.240
-240.917	-146.664	0.171	0.015
-239.903	-111.015	-0.069	-0.014
-238.888	198.169	0.159	0.244
-237.873	-77.556	0.230	-0.080
-236.859	-77.543	0.072	0.025
-235.844	-15.515	-0.185	-0.118
-234.830	103.674	0.184	-0.217
-233.815	-108.043	0.087	-0.019
-232.800	-156.993	0.122	-0.008
-231.786	12.996	-0.227	-0.176
-230.771	-163.425	-0.098	-0.005
-229.757	-3.976	-0.143	0.099
-228.742	-169.561	-0.068	-0.002
-227.727	306.691	0.128	0.239
-226.713	126.316	0.291	-0.369
-225.698	-90.195	-0.148	-0.043
-224.684	-200.000	-0.026	-0.179
-223.669	-44.665	0.113	0.056
-222.655	-105.932	-0.153	-0.035
-221.640	211.138	-0.103	-0.163
-220.625	-15.406	0.264	0.169
-219.611	-178.224	-0.273	-0.006
-218.596	-17.114	-0.087	-0.055
-217.582	-104.538	0.136	0.031
-216.567	-200.000	-0.005	0.106
-215.552	-200.000	0.036	-0.294
-214.538	-8.122	-0.062	-0.042
-213.523	164.095	0.169	0.239
-212.509	-152.109	-0.154	-0.011
-211.494	-103.018	-0.253	0.060
-210.479	-200.000	0.019	0.162
-209.465	-191.946	-0.234	-0.002
-208.450	-104.511	0.186	0.043
-207.436	215.828	0.018	0.028
-206.421	-200.000	0.006	0.257
-205.406	-107.967	-0.020	-0.004
-204.392	121.029	-0.199	-0.248
-203.377	82.316	0.207	-0.225
-202.363	800.000	-0.040	-0.135
-201.348	-164.981	-0.284	0.013
-200.333	-43.364	-0.213	0.108
-199.319	-2.582	0.245	-0.172
-198.304	-165.384	-0.278	0.012
-197.290	-120.667	0.053	-0.009
-196.275	18.752	-0.256	0.205
-195.260	29.228	-0.222	-0.188
-194.246	36.517	0.205	-0.181
-193.231	-200.000	-0.008	-0.119
-192.217	-104.660	-0.124	-0.029
-191.202	-104.508	-0.254	-0.059
-190.187	-200.000	0.036	-0.276
-189.173	800.000	-0.124	-0.401
-188.158	79.066	-0.332	0.357
-187.144	-145.331	-0.289	-0.026
-186.129	-116.362	0.216	-0.040
-185.114	-58.702	0.103	0.045
-184.100	653.820	-0.093	-0.240
-183.085	3.724	0.069	0.051
-182.071	84.493	0.254	0.279
-181.056	-43.931	0.352	0.177
-180.042	126.824	-0.223	0.283
-179.027	-60.753	-0.370	-0.157
-178.012	664.552	0.077	-0.199
-176.998	30.992	0.042	0.036
-175.983	281.431	0.298	0.534
-174.969	-141.633	-0.126	0.013
-173.954	800.000	0.039	-0.130
-172.939	-153.212	0.135	0.009
-171.925	264.287	0.193	-0.336
-170.910	67.995	-0.347	-0.355
-169.896	198.748	-0.208	0.319
-168.881	-200.000	-0.051	0.323
-167.866	13.259	-0.395	-0.306
-166.852	742.042	-0.137	0.368
-165.837	16.505	-0.220	0.174
-164.823	159.818	-0.128	0.178
-163.808	300.475	0.140	-0.259
-162.793	-111.324	-0.285	0.058
-161.779	71.481	0.160	-0.167
-160.764	-121.045	0.224	0.038
-159.750	-103.458	0.267	0.063
-158.735	800.000	-0.027	-0.109
-157.720	800.000	-0.121	0.492
-156.706	-124.082	-0.215	-0.034
-155.691	67.989	-0.265	0.271
-154.677	59.975	-0.211	0.208
-153.662	438.802	0.091	0.200
-152.647	-198.627	-0.300	-0.002
-151.633	696.769	0.089	-0.235
-150.618	-200.000	0.053	-0.459
-149.604	523.411	0.077	-0.181
-148.589	-141.037	0.199	0.020
-147.574	800.000	-0.047	-0.191
-146.560	-200.000	0.030	-0.451
-145.545	108.514	-0.056	-0.066
-144.531	83.496	0.201	0.219
-143.516	-153.667	-0.277	-0.019
-142.502	800.000	-0.021	-0.064
-141.487	-200.000	0.017	-0.155
-140.472	-58.579	0.243	-0.105
-139.458	-162.688	-0.099	-0.005
-138.443	-121.066	0.179	-0.030
-137.429	142.061	0.122	-0.161
-136.414	-28.721	0.184	0.106
-135.399	-91.138	-0.054	0.015
-134.385	-200.000	-0.009	-0.125
-133.370	-12.998	-0.157	-0.102
-132.356	116.025	0.017	0.021
-131.341	60.501	0.341	0.338
-130.326	223.653	0.091	-0.146
-129.312	-92.754	0.130	-0.036
-128.297	368.551	0.084	0.170
-127.283	-6.767	0.279	-0.189
-126.268	58.745	-0.185	0.181
-125.253	-76.053	-0.231	-0.082
-124.239	400.578	0.145	-0.303
-123.224	132.942	0.057	-0.074
