DTS Sentinel unit serial number:	SN413079Multiplexer serial number:	ORYXHardware model number:	OX4-SRSoftware version number:	ORYX F/W v4.00 Oryx Data Collector v3.7.2.0data status	okinstallation	princeton_trtdifferential loss correction	single-endedforward channel	channel 3reverse channel	N/Adate	2019/09/13time	02:20:35forward acquisition time	60.00reverse acquisition time	0.00gamma	496.2192k internal	0.2334k external	0.2334temperature offset calibration	1.0136default loss term (dB/km)	0.3790temperature slope calibration	1.0000multiplexer offset coefficient	1.0000multiplexer slope coefficient	1.0000fibre end	0.00T internal ref (°C)	27.52T ext. ref 1 (°C)	3.94T ext. ref 2 (°C)	22.30length (m)	temperature (°C)	Stokes	anti-Stokes-747.200	-15.803	-0.219	0.140
-746.185	-157.536	-0.229	0.014
-745.171	195.402	-0.189	-0.288
-744.156	-61.295	0.118	0.050
-743.142	-100.976	0.160	0.039
-742.127	-162.277	-0.290	-0.015
-741.112	-18.429	0.317	-0.199
-740.098	287.069	0.129	0.235
-739.083	4.672	0.163	-0.121
-738.069	-169.409	-0.576	-0.021
-737.054	-49.895	0.120	-0.057
-736.039	-53.601	-0.177	0.081
-735.025	4.081	0.292	0.215
-734.010	110.706	-0.139	-0.168
-732.996	377.672	0.046	0.095
-731.981	192.998	0.128	0.195
-730.966	-166.374	-0.015	-0.001
-729.952	-200.000	-0.021	-0.252
-728.937	-91.444	0.217	-0.062
-727.923	170.704	0.090	0.130
-726.908	-0.961	-0.145	0.103
-725.894	-33.892	-0.265	0.147
-724.879	-200.000	-0.024	0.182
-723.864	567.977	0.059	0.143
-722.850	8.963	0.046	0.035
-721.835	326.109	0.075	-0.145
-720.821	-176.487	0.150	-0.004
-719.806	800.000	-0.046	0.166
-718.791	789.767	0.078	0.214
-717.777	-76.420	-0.277	-0.098
-716.762	-43.927	0.231	0.117
-715.748	98.176	-0.192	0.222
-714.733	518.026	-0.046	0.108
-713.718	184.086	-0.082	0.122
-712.704	-143.751	0.257	0.024
-711.689	29.604	-0.096	-0.082
-710.675	56.503	-0.089	0.087
-709.660	800.000	-0.034	0.148
-708.645	-180.840	0.165	0.003
-707.631	-0.279	-0.387	0.276
-706.616	-200.000	-0.015	-0.095
-705.602	292.286	0.129	-0.236
-704.587	-159.306	0.123	0.007
-703.572	-109.533	0.102	-0.022
-702.558	-200.000	0.002	0.113
-701.543	-167.028	-0.315	-0.013
-700.529	-17.619	0.223	-0.141
-699.514	304.895	0.110	-0.205
-698.499	68.196	-0.177	0.182
-697.485	-23.444	0.348	-0.210
-696.470	161.121	0.090	-0.126
-695.456	-200.000	0.043	-0.349
-694.441	-103.878	-0.076	0.018
-693.426	-12.243	0.227	-0.149
-692.412	18.339	0.073	-0.058
-691.397	173.292	-0.275	-0.398
-690.383	405.000	0.156	-0.330
-689.368	-123.587	-0.365	0.058
-688.354	248.287	-0.164	-0.279
-687.339	-74.089	-0.182	0.066
-686.324	-14.903	0.196	-0.126
-685.310	117.460	-0.144	0.178
-684.295	28.253	0.093	0.079
-683.281	55.612	-0.128	-0.124
-682.266	-200.000	0.014	0.086
-681.251	-12.437	0.102	0.067
-680.237	-70.242	-0.289	-0.110
-679.222	-97.702	-0.223	-0.058
-678.208	85.058	0.166	-0.183
-677.193	141.800	0.150	-0.200
-676.178	-50.986	0.296	-0.139
-675.164	800.000	0.062	-0.229
-674.149	-200.000	0.019	0.113
-673.135	-91.153	-0.140	0.040
-672.120	87.774	0.124	-0.138
-671.105	-200.000	-0.015	0.220
-670.091	261.441	-0.164	0.285
-669.076	43.383	0.276	-0.253
-668.062	-200.000	0.013	-0.236
-667.047	-200.000	-0.031	-0.346
-666.032	179.573	-0.207	-0.304
-665.018	-21.005	-0.150	0.092
-664.003	-134.834	0.290	0.035
-662.989	-200.000	-0.019	-0.105
-661.974	175.611	0.177	-0.257
-660.959	-71.050	0.057	0.021
-659.945	-124.670	-0.114	0.018
-658.930	800.000	-0.091	-0.364
-657.916	37.714	-0.344	-0.306
-656.901	39.610	0.098	-0.088
-655.886	-168.139	-0.239	0.009
-654.872	-200.000	0.072	0.347
-653.857	-75.202	-0.045	0.016
-652.843	234.058	0.160	-0.264
-651.828	146.182	0.136	-0.182
-650.814	195.725	-0.034	0.052
-649.799	-200.000	0.023	0.195
-648.784	430.408	-0.187	0.406
-647.770	-200.000	-0.106	0.475
-646.755	-79.042	0.181	-0.062
-645.741	-100.446	-0.213	-0.053
-644.726	229.132	-0.169	0.275
-643.711	-154.657	-0.192	-0.013
-642.697	-174.303	-0.235	-0.007
-641.682	11.323	0.167	0.128
-640.668	-107.676	-0.220	0.048
-639.653	121.401	-0.128	0.159
-638.638	482.790	-0.102	-0.231
-637.624	132.178	-0.157	0.203
-636.609	256.483	0.087	-0.150
-635.595	-200.000	-0.019	-0.109
-634.580	230.957	-0.186	-0.304
-633.565	-146.182	-0.161	0.014
-632.551	-104.974	-0.411	0.094
-631.536	-200.000	-0.023	-0.277
-630.522	-200.000	0.020	0.158
-629.507	-10.319	0.350	-0.233
-628.492	-200.000	0.012	-0.109
-627.478	-130.040	0.220	0.030
-626.463	-168.898	0.209	0.008
-625.449	-101.599	0.208	0.051
-624.434	800.000	0.036	-0.119
-623.419	-109.842	0.418	-0.088
-622.405	-200.000	-0.004	0.120
-621.390	-200.000	-0.027	-0.195
-620.376	343.954	-0.052	0.103
-619.361	-123.139	0.149	0.024
-618.346	51.099	-0.106	0.101
-617.332	98.115	-0.175	0.201
-616.317	33.319	0.161	0.140
-615.303	137.843	-0.047	0.061
-614.288	19.164	-0.191	0.153
-613.273	-130.160	-0.075	0.010
-612.259	-132.928	0.195	0.025
-611.244	800.000	0.085	-0.245
-610.230	800.000	0.112	-0.344
-609.215	-79.767	-0.270	0.091
-608.201	301.684	0.086	-0.159
-607.186	-200.000	0.053	-0.371
-606.171	475.020	-0.108	-0.244
-605.157	46.309	-0.113	-0.104
-604.142	32.499	0.233	0.201
-603.128	800.000	-0.065	0.280
-602.113	72.016	0.214	0.222
-601.098	-90.210	-0.328	0.095
-600.084	-200.000	-0.064	-0.301
-599.069	441.924	-0.048	-0.104
-598.055	-65.790	-0.346	-0.138
-597.040	-200.000	-0.022	0.272
-596.025	800.000	-0.143	-0.543
-595.011	81.466	0.033	0.035
-593.996	-200.000	0.064	0.327
-592.982	-91.208	-0.150	-0.043
-591.967	-18.338	0.395	0.247
-590.952	-27.819	0.213	-0.123
-589.938	24.448	-0.174	-0.144
-588.923	69.117	0.048	0.049
-587.909	605.281	0.180	0.447
-586.894	-200.000	-0.052	0.320
-585.879	-200.000	0.005	-0.325
-584.865	-32.461	-0.070	-0.039
-583.850	156.135	0.144	-0.199
-582.836	156.712	0.208	-0.287
-581.821	248.857	-0.071	-0.121
-580.806	-31.838	0.093	-0.052
-579.792	25.023	0.287	-0.238
-578.777	-20.567	0.185	-0.114
-577.763	-125.079	-0.385	0.059
-576.748	-24.293	-0.059	-0.035
-575.733	-200.000	0.034	-0.203
-574.719	-16.025	0.131	0.083
-573.704	80.360	-0.185	0.198
-572.690	-41.889	-0.275	-0.141
-571.675	-35.107	0.269	-0.147
-570.661	65.929	0.231	-0.234
-569.646	236.494	-0.068	-0.113
-568.631	-113.792	-0.144	-0.028
-567.617	-100.909	-0.187	-0.046
-566.602	-181.346	-0.440	-0.009
-565.588	-103.641	0.276	0.065
-564.573	124.073	-0.209	-0.262
-563.558	103.739	-0.208	-0.244
-562.544	405.790	-0.189	-0.397
-561.529	-63.195	-0.382	-0.157
-560.515	-200.000	0.013	0.189
-559.500	-157.645	-0.286	0.017
-558.485	374.551	0.091	0.184
-557.471	-82.820	-0.321	0.103
-556.456	-162.917	0.044	-0.002
-555.442	-165.018	0.277	-0.012
-554.427	348.649	-0.057	0.113
-553.412	117.264	0.168	0.206
-552.398	-48.430	-0.301	0.145
-551.383	-50.698	0.235	0.110
-550.369	-90.948	0.259	0.074
-549.354	310.980	-0.150	-0.281
-548.339	-200.000	0.009	-0.335
-547.325	-119.963	0.139	0.024
-546.310	-178.561	-0.221	-0.005
-545.296	800.000	0.087	0.331
-544.281	-9.886	-0.112	-0.074
-543.266	-165.452	-0.286	-0.012
-542.252	-200.000	-0.026	0.161
-541.237	379.747	-0.083	0.170
-540.223	800.000	0.055	-0.239
-539.208	188.578	0.092	-0.137
-538.193	6.598	-0.257	0.191
-537.179	-100.817	0.186	-0.046
-536.164	800.000	0.018	0.051
-535.150	599.844	-0.090	0.222
-534.135	-70.525	0.163	-0.061
-533.121	-78.159	0.103	0.035
-532.106	-158.728	0.402	0.023
-531.091	-180.431	0.165	-0.003
-530.077	391.835	-0.179	0.372
-529.062	-99.681	0.162	-0.040
-528.048	-155.070	-0.433	0.028
-527.033	51.935	-0.191	0.182
-526.018	-31.552	0.294	0.164
-525.004	3.273	-0.127	0.092
-523.989	70.203	-0.228	0.234
-522.975	800.000	-0.059	0.223
-521.960	379.554	0.191	-0.391
-520.945	224.636	-0.182	0.293
-519.931	-200.000	-0.001	-0.081
-518.916	71.361	0.117	-0.121
-517.902	800.000	0.054	0.170
-516.887	34.985	0.310	-0.270
-515.872	-4.023	0.318	-0.220
-514.858	35.988	0.098	-0.086
-513.843	66.326	-0.096	0.097
-512.829	800.000	0.089	0.246
-511.814	-41.309	0.114	0.058
-510.799	-136.224	0.158	0.018
-509.785	-20.149	0.151	-0.093
-508.770	-57.584	0.056	-0.025
-507.756	-200.000	-0.023	0.139
-506.741	-200.000	0.045	0.460
-505.726	89.469	-0.020	0.022
-504.712	90.698	-0.258	-0.288
-503.697	37.593	-0.163	-0.144
-502.683	-23.949	-0.085	-0.050
-501.668	272.383	0.173	-0.304
-500.653	-53.974	-0.176	0.080
-499.639	-200.000	-0.039	-0.228
-498.624	743.182	0.148	-0.395
-497.610	-200.000	-0.002	-0.140
-496.595	-89.767	-0.042	0.012
-495.581	800.000	0.060	0.234
-494.566	-28.292	0.231	-0.133
-493.551	586.292	0.118	-0.289
-492.537	-126.073	0.152	0.023
-491.522	-55.813	-0.116	0.052
-490.508	-90.989	-0.363	0.104
-489.493	191.928	-0.132	0.198
-488.478	108.957	-0.050	0.060
-487.464	297.670	-0.123	0.224
-486.449	184.827	-0.128	-0.189
-485.435	-200.000	-0.026	0.149
-484.420	-70.863	0.162	-0.061
-483.405	70.173	0.085	0.087
-482.391	192.324	0.033	0.049
-481.376	380.995	0.015	-0.031
-480.362	295.683	0.105	0.192
-479.347	800.000	-0.031	-0.124
-478.332	486.033	0.144	-0.327
-477.318	-145.761	0.134	-0.012
-476.303	-70.889	-0.155	0.058
-475.289	399.497	-0.064	-0.134
-474.274	340.450	0.064	0.124
-473.259	-6.159	-0.168	0.114
-472.245	176.100	0.063	-0.091
-471.230	82.697	0.168	-0.182
-470.216	313.437	0.106	0.199
-469.201	-200.000	0.027	0.236
-468.186	-97.283	0.195	0.051
-467.172	-133.142	-0.244	-0.031
-466.157	-88.494	0.135	-0.040
-465.143	-42.222	-0.289	0.147
-464.128	-200.000	-0.017	-0.118
-463.113	800.000	0.097	0.328
-462.099	148.794	-0.017	-0.023
-461.084	-200.000	-0.069	-0.345
-460.070	501.573	0.073	0.168
-459.055	178.884	0.161	-0.235
-458.040	-200.000	-0.035	-0.232
-457.026	-152.689	-0.253	0.018
-456.011	-31.143	-0.171	-0.096
-454.997	-18.460	0.165	0.102
-453.982	85.732	0.242	0.264
-452.968	-48.144	0.076	0.036
-451.953	724.250	0.091	-0.240
-450.938	398.925	-0.075	0.156
-449.924	-93.381	-0.190	-0.052
-448.909	-200.000	-0.002	-0.174
-447.895	9.113	-0.280	0.210
-446.880	-200.000	0.035	-0.314
-445.865	-53.434	-0.131	0.060
-444.851	-200.000	-0.008	0.181
-443.836	204.347	0.158	-0.243
-442.822	-102.011	-0.185	-0.044
-441.807	-109.743	-0.134	0.028
-440.792	800.000	-0.028	-0.082
-439.778	-166.246	-0.216	0.009
-438.763	82.094	0.170	0.183
-437.749	-112.371	-0.207	-0.041
-436.734	-81.271	0.087	0.029
-435.719	-200.000	-0.002	-0.050
-434.705	-68.409	-0.426	-0.164
-433.690	80.113	-0.092	0.098
-432.676	-200.000	0.044	-0.352
-431.661	270.555	0.152	-0.265
-430.646	-138.263	-0.135	-0.015
-429.632	-100.190	-0.142	-0.035
-428.617	260.311	0.073	0.126
-427.603	54.306	0.135	-0.129
-426.588	-66.631	0.062	0.024
-425.573	-3.884	0.122	0.084
-424.559	78.998	0.249	-0.264
-423.544	800.000	0.006	-0.023
-422.530	-132.854	-0.348	-0.044
-421.515	-102.448	0.318	-0.076
-420.500	-2.867	0.100	0.069
-419.486	-1.308	-0.137	0.096
-418.471	800.000	0.091	0.271
-417.457	105.113	-0.108	-0.126
-416.442	458.306	0.054	0.120
-415.428	-57.583	-0.197	0.086
-414.413	207.614	-0.156	0.241
-413.398	-173.682	-0.085	0.003
-412.384	-16.832	0.152	-0.095
-411.369	234.156	-0.082	-0.134
-410.355	217.080	0.069	-0.110
-409.340	-200.000	-0.007	-0.075
-408.325	103.136	-0.115	0.133
-407.311	-200.000	0.045	0.227
-406.296	35.986	0.112	0.098
-405.282	177.285	0.242	0.349
-404.267	800.000	0.141	0.404
-403.252	77.464	-0.140	0.147
-402.238	-1.281	0.211	-0.148
-401.223	-109.330	-0.380	-0.080
-400.209	-200.000	-0.037	0.239
-399.194	111.583	-0.186	-0.222
-398.179	-47.760	-0.167	0.080
-397.165	-200.000	0.005	0.153
-396.150	-106.743	0.023	0.005
-395.136	-200.000	0.013	-0.259
-394.121	30.850	-0.094	0.080
-393.106	-200.000	-0.001	0.033
-392.092	25.519	-0.101	-0.084
-391.077	-200.000	0.027	-0.312
-390.063	20.133	-0.142	-0.114
-389.048	-110.412	0.232	-0.048
-388.033	-144.261	-0.172	-0.016
-387.019	-165.910	0.105	-0.004
-386.004	29.103	-0.182	0.153
-384.990	-139.579	0.386	-0.041
-383.975	-130.939	-0.119	0.016
-382.960	8.983	-0.082	0.061
-381.946	-200.000	-0.013	0.491
-380.931	-148.468	-0.101	-0.008
-379.917	29.384	-0.211	0.177
-378.902	240.538	-0.108	-0.179
-377.888	800.000	-0.080	0.227
-376.873	277.857	0.161	0.284
-375.858	-200.000	-0.033	0.183
-374.844	-154.370	-0.481	-0.032
-373.829	-70.749	0.417	-0.156
-372.815	197.172	0.096	0.145
-371.800	-105.758	0.187	0.042
-370.785	-76.874	-0.171	0.059
-369.771	-53.308	-0.240	-0.109
-368.756	-98.251	0.372	-0.094
-367.742	-77.563	0.110	0.038
-366.727	-200.000	-0.056	0.323
-365.712	138.774	-0.078	0.101
-364.698	-200.000	-0.003	-0.299
-363.683	148.336	0.029	0.039
-362.669	-200.000	0.005	0.079
-361.654	-200.000	-0.026	0.343
-360.639	-4.075	-0.313	0.215
-359.625	90.618	0.080	0.089
-358.610	-171.807	-0.064	0.002
-357.596	-57.533	0.082	-0.035
-356.581	53.309	-0.127	0.120
-355.566	-29.440	0.208	0.118
-354.552	360.971	-0.077	-0.153
-353.537	-56.860	0.197	0.086
-352.523	-75.658	0.377	0.132
-351.508	-39.772	0.258	0.134
-350.493	-123.866	-0.327	0.051
-349.479	-73.702	0.332	-0.120
-348.464	800.000	0.028	0.077
-347.450	-31.978	0.138	0.076
-346.435	180.236	0.167	-0.242
-345.420	132.053	-0.141	-0.180
-344.406	-115.782	0.163	0.030
-343.391	2.997	-0.050	0.036
-342.377	800.000	0.056	0.236
-341.362	-99.005	0.215	-0.054
-340.348	-37.707	0.276	-0.145
-339.333	-200.000	-0.014	-0.114
-338.318	94.867	0.147	0.166
-337.304	32.400	-0.138	0.118
-336.289	-165.260	0.262	-0.011
-335.275	468.128	0.078	0.174
-334.260	-101.409	-0.156	0.038
-333.245	-80.284	-0.345	-0.114
-332.231	-138.404	0.340	-0.037
-331.216	377.175	0.099	0.200
-330.202	-50.085	0.339	0.159
-329.187	-99.209	0.144	0.036
-328.172	-200.000	-0.012	-0.188
-327.158	59.942	0.047	0.045
-326.143	27.457	-0.109	0.091
-325.129	449.118	-0.215	-0.469
-324.114	-47.427	0.109	-0.052
-323.099	-200.000	0.002	-0.154
-322.085	59.959	-0.126	0.123
-321.070	-135.870	-0.028	0.003
-320.056	-200.000	-0.015	-0.234
-319.041	110.562	-0.138	-0.164
-318.026	800.000	-0.029	0.121
-317.012	-15.491	-0.183	0.115
-315.997	357.146	0.042	0.084
-314.983	-200.000	0.021	-0.242
-313.968	-57.174	-0.180	-0.078
-312.953	-60.361	-0.338	-0.142
-311.939	-200.000	0.003	0.041
-310.924	-75.718	0.387	-0.136
-309.910	-200.000	0.056	0.246
-308.895	-132.585	-0.294	-0.037
-307.880	9.854	-0.097	-0.073
-306.866	248.339	0.118	0.197
-305.851	-127.955	-0.467	-0.066
-304.837	0.511	-0.154	0.109
-303.822	-24.464	0.248	0.146
-302.807	197.063	-0.169	0.255
-301.793	85.599	0.040	-0.043
-300.778	128.808	-0.150	-0.189
-299.764	800.000	-0.138	0.389
-298.749	237.726	-0.134	-0.219
-297.735	-200.000	0.054	-0.427
-296.720	-127.354	0.202	-0.029
-295.705	-58.558	-0.245	0.105
-294.691	800.000	0.075	-0.319
-293.676	-1.087	0.155	0.109
-292.662	28.459	-0.094	0.078
-291.647	-200.000	0.008	0.120
-290.632	414.919	-0.144	-0.302
-289.618	800.000	0.051	-0.159
-288.603	-200.000	0.021	0.149
-287.589	-108.373	-0.363	-0.077
-286.574	-200.000	0.000	-0.069
-285.559	528.968	0.034	0.078
-284.545	-29.319	-0.120	0.068
-283.530	81.812	-0.104	0.111
-282.516	365.388	0.132	0.262
-281.501	27.352	0.097	-0.080
-280.486	202.035	-0.126	-0.192
-279.472	17.151	0.123	-0.096
-278.457	-73.072	0.216	-0.078
-277.443	-97.050	0.276	0.071
-276.428	-16.230	0.195	-0.122
-275.413	-31.971	0.323	0.179
-274.399	-33.848	0.421	-0.229
-273.384	-200.000	-0.005	0.184
-272.370	-103.760	0.204	-0.047
-271.355	221.254	-0.077	0.121
-270.340	800.000	0.030	-0.097
-269.326	-200.000	0.020	0.298
-268.311	245.088	-0.134	0.222
-267.297	-3.190	0.191	0.131
-266.282	-179.079	0.176	-0.004
-265.267	423.723	0.131	-0.278
-264.253	800.000	-0.117	-0.451
-263.238	-47.284	-0.275	-0.132
-262.224	-65.653	0.166	0.066
-261.209	-51.792	0.279	-0.128
-260.195	7.017	0.247	0.181
-259.180	800.000	0.067	-0.261
-258.165	47.378	0.184	-0.169
-257.151	-49.481	0.233	0.109
-256.136	15.916	-0.059	-0.046
-255.122	-200.000	0.053	-0.271
-254.107	155.033	0.145	0.196
-253.092	262.958	0.106	-0.181
-252.078	800.000	0.042	-0.115
-251.063	107.388	-0.138	0.161
-250.049	-179.072	0.264	-0.006
-249.034	84.465	-0.082	0.088
-248.019	-185.376	-0.209	-0.003
-247.005	65.864	-0.194	-0.194
-245.990	-113.842	-0.291	0.056
-244.976	138.928	-0.080	0.104
-243.961	5.357	0.325	0.236
-242.946	237.663	0.049	-0.081
-241.932	-200.000	0.022	-0.176
-240.917	-128.876	0.212	0.029
-239.903	178.452	-0.101	0.145
-238.888	430.380	0.058	0.123
-237.873	-137.591	-0.063	-0.007
-236.859	-9.245	0.211	-0.139
-235.844	324.280	-0.087	-0.164
-234.830	135.077	0.215	0.275
-233.815	-157.575	0.117	0.007
-232.800	-87.047	-0.188	0.057
-231.786	-130.869	0.368	-0.049
-230.771	-143.769	0.228	0.021
-229.757	-66.613	-0.313	-0.122
-228.742	-123.719	0.256	-0.040
-227.727	-26.573	0.128	0.074
-226.713	-0.907	-0.141	-0.098
-225.698	-81.744	0.148	-0.048
-224.684	-93.055	-0.172	-0.047
-223.669	238.357	0.069	-0.112
-222.655	800.000	0.081	-0.322
-221.640	-17.458	0.185	0.115
-220.625	-200.000	-0.042	-0.288
-219.611	746.757	-0.104	-0.277
-218.596	-164.331	0.237	-0.011
-217.582	-56.943	0.157	-0.068
-216.567	-140.430	-0.332	-0.034
-215.552	356.364	0.179	-0.350
-214.538	109.226	-0.353	0.416
-213.523	-87.855	-0.081	0.024
-212.509	-200.000	0.018	0.163
-211.494	193.075	-0.064	-0.095
-210.479	-153.577	-0.083	-0.006
-209.465	118.317	-0.146	0.177
-208.450	-128.332	0.450	-0.063
-207.436	-200.000	0.022	0.155
-206.421	527.968	-0.052	-0.121
-205.406	-200.000	0.035	0.477
-204.392	-200.000	0.023	-0.127
-203.377	324.321	0.118	0.222
-202.363	-145.607	-0.340	0.030
-201.348	800.000	-0.030	0.090
-200.333	800.000	-0.060	-0.192
-199.319	-34.796	-0.184	0.099
-198.304	-170.026	0.220	-0.008
-197.290	-200.000	0.034	-0.289
-196.275	19.482	0.233	0.184
-195.260	-139.599	0.097	-0.010
-194.246	-134.561	-0.162	-0.019
-193.231	800.000	0.066	-0.210
-192.217	14.650	-0.157	0.121
-191.202	-144.016	-0.471	0.044
-190.187	-145.097	0.148	0.013
-189.173	-114.850	-0.405	-0.076
-188.158	-21.581	0.027	-0.016
-187.144	-186.023	-0.269	-0.004
-186.129	-200.000	0.003	0.317
-185.114	-200.000	0.008	-0.081
-184.100	3.353	-0.155	-0.111
-183.085	-200.000	-0.033	-0.294
-182.071	-55.062	-0.052	-0.023
-181.056	-36.244	0.371	0.197
-180.042	-200.000	0.041	-0.503
-179.027	168.211	0.087	-0.121
-178.012	276.060	-0.122	-0.213
-176.998	-200.000	-0.015	-0.235
-175.983	800.000	0.066	0.188
-174.969	306.191	-0.040	-0.074
-173.954	-200.000	-0.031	-0.297
-172.939	-157.466	0.404	0.024
-171.925	-129.901	0.072	-0.010
-170.910	155.192	-0.201	0.271
-169.896	410.322	0.094	0.195
-168.881	800.000	0.024	0.067
-167.866	-164.409	-0.423	-0.019
-166.852	-200.000	-0.023	0.152
-165.837	40.721	0.228	0.202
-164.823	-200.000	0.043	-0.208
-163.808	41.844	-0.117	-0.104
-162.793	91.185	-0.016	-0.018
-161.779	-78.752	-0.338	-0.113
-160.764	76.244	-0.213	0.221
-159.750	159.205	0.191	0.261
-158.735	-26.943	-0.038	0.022
-157.720	223.117	0.105	0.167
-156.706	-56.501	0.368	-0.160
-155.691	-100.248	-0.322	0.079
-154.677	-200.000	-0.045	0.250
-153.662	-200.000	-0.000	0.059
-152.647	-42.663	0.145	-0.073
-151.633	-98.990	0.090	0.022
-150.618	-75.896	0.066	0.023
-149.604	-200.000	-0.011	-0.184
-148.589	-166.050	0.502	0.021
-147.574	800.000	0.049	-0.134
-146.560	-200.000	-0.020	-0.094
-145.545	70.126	0.139	-0.141
-144.531	148.159	0.127	0.168
-143.516	23.404	0.209	0.169
-142.502	53.810	-0.277	0.261
-141.487	272.107	0.197	0.340
-140.472	-60.973	-0.368	0.153
-139.458	151.738	0.105	-0.140
-138.443	-68.015	0.141	-0.054
-137.429	-200.000	-0.002	-0.108
-136.414	-66.566	0.171	0.067
-135.399	27.727	0.181	-0.149
-134.385	529.145	-0.122	0.283
-133.370	77.840	0.148	-0.155
-132.356	390.295	-0.073	-0.148
-131.341	14.647	-0.236	0.181
-130.326	-119.655	-0.251	-0.043
-129.312	257.120	-0.054	-0.092
-128.297	-55.478	-0.408	0.179
-127.283	46.381	-0.093	0.085
-126.268	-130.367	-0.086	-0.011
-125.253	-116.019	-0.151	0.028
-124.239	437.359	-0.048	-0.102
-123.224	-100.482	-0.169	0.041
-122.210	49.813	0.244	-0.225
-121.195	800.000	-0.086	0.241
