DTS Sentinel unit serial number:	SN413079Multiplexer serial number:	ORYXHardware model number:	OX4-SRSoftware version number:	ORYX F/W v4.00 Oryx Data Collector v3.7.2.0data status	okinstallation	princeton_trtdifferential loss correction	single-endedforward channel	channel 3reverse channel	N/Adate	2019/09/11time	01:14:10forward acquisition time	60.00reverse acquisition time	0.00gamma	496.2192k internal	0.2332k external	0.2332temperature offset calibration	0.9916default loss term (dB/km)	0.3790temperature slope calibration	1.0000multiplexer offset coefficient	1.0000multiplexer slope coefficient	1.0000fibre end	0.00T internal ref (°C)	29.12T ext. ref 1 (°C)	-0.30T ext. ref 2 (°C)	23.02length (m)	temperature (°C)	Stokes	anti-Stokes-747.200	-85.294	-0.061	-0.019
-746.185	-52.236	-0.323	0.150
-745.171	-200.000	0.031	0.299
-744.156	-200.000	0.021	0.320
-743.142	-200.000	0.384	-0.001
-742.127	506.359	-0.153	0.358
-741.112	66.009	0.087	-0.089
-740.098	-174.892	-0.212	0.006
-739.083	15.160	-0.287	-0.226
-738.069	-141.076	0.163	0.017
-737.054	-83.137	-0.050	0.016
-736.039	-53.573	-0.327	0.151
-735.025	230.513	-0.122	0.200
-734.010	-9.522	-0.316	-0.212
-732.996	135.360	-0.255	-0.333
-731.981	-77.922	-0.348	0.121
-730.966	3.431	-0.086	-0.063
-729.952	-114.845	0.120	-0.023
-728.937	-151.201	-0.333	-0.025
-727.923	-200.000	0.047	-0.219
-726.908	-19.716	-0.419	0.260
-725.894	136.366	0.152	-0.199
-724.879	-105.810	-0.155	-0.035
-723.864	-105.964	-0.092	-0.021
-722.850	5.408	-0.077	-0.057
-721.835	800.000	0.056	0.178
-720.821	-79.974	-0.476	-0.161
-719.806	-76.135	-0.087	-0.031
-718.791	-130.941	0.102	-0.014
-717.777	-60.729	-0.123	-0.052
-716.762	-175.753	-0.241	-0.007
-715.748	800.000	-0.036	-0.121
-714.733	416.151	-0.066	0.141
-713.718	800.000	0.137	-0.421
-712.704	-114.666	0.491	-0.094
-711.689	491.529	0.052	-0.120
-710.675	-134.360	-0.384	0.047
-709.660	-200.000	-0.036	0.157
-708.645	-70.879	-0.119	0.045
-707.631	-200.000	0.002	-0.033
-706.616	423.110	-0.175	-0.377
-705.602	-44.794	0.193	-0.097
-704.587	-200.000	-0.035	-0.320
-703.572	-200.000	0.015	0.415
-702.558	-22.573	0.380	0.231
-701.543	-73.381	-0.225	-0.083
-700.529	-112.672	0.445	-0.089
-699.514	31.568	0.119	-0.103
-698.499	306.847	-0.168	-0.314
-697.485	-22.766	-0.268	-0.163
-696.470	800.000	0.122	-0.420
-695.456	-200.000	0.019	0.145
-694.441	-200.000	0.007	-0.029
-693.426	-12.250	0.226	0.149
-692.412	31.175	-0.178	-0.153
-691.397	-156.316	-0.197	-0.012
-690.383	-200.000	0.007	-0.213
-689.368	94.350	0.283	-0.322
-688.354	-200.000	-0.042	-0.272
-687.339	65.496	0.104	-0.105
-686.324	-120.870	-0.163	-0.028
-685.310	-14.228	0.376	-0.244
-684.295	-12.676	-0.190	-0.125
-683.281	39.180	-0.134	-0.120
-682.266	-139.697	-0.064	0.007
-681.251	-86.190	0.245	-0.076
-680.237	38.996	-0.316	-0.283
-679.222	-35.737	0.282	0.153
-678.208	800.000	-0.042	0.174
-677.193	800.000	-0.138	0.501
-676.178	-102.652	-0.097	-0.023
-675.164	-200.000	-0.050	0.258
-674.149	641.926	0.081	-0.207
-673.135	-11.758	-0.146	-0.096
-672.120	800.000	0.026	-0.094
-671.105	-0.359	-0.200	0.142
-670.091	-49.333	-0.103	-0.049
-669.076	431.395	0.040	-0.087
-668.062	609.559	-0.048	0.120
-667.047	-194.826	0.180	0.001
-666.032	51.268	0.129	0.123
-665.018	-3.480	-0.291	-0.203
-664.003	-41.736	-0.592	-0.305
-662.989	302.049	0.095	0.176
-661.974	18.101	-0.189	-0.151
-660.959	-200.000	-0.006	-0.158
-659.945	-106.549	-0.125	0.028
-658.930	632.153	-0.064	-0.163
-657.916	-38.923	0.301	0.159
-656.901	30.582	-0.207	0.177
-655.886	-63.069	-0.217	0.090
-654.872	-79.065	0.201	0.068
-653.857	-43.376	0.238	-0.120
-652.843	-85.742	-0.069	-0.021
-651.828	130.542	-0.187	0.241
-650.814	-200.000	-0.036	-0.392
-649.799	800.000	-0.053	0.161
-648.784	28.149	-0.104	0.088
-647.770	263.295	0.133	0.231
-646.755	-38.915	0.222	-0.117
-645.741	214.734	-0.107	0.171
-644.726	96.062	0.137	-0.157
-643.711	99.647	-0.106	-0.123
-642.697	-145.035	0.379	-0.035
-641.682	800.000	0.058	-0.171
-640.668	0.662	-0.138	0.099
-639.653	800.000	-0.036	0.119
-638.638	109.590	-0.231	0.277
-637.624	305.451	-0.175	-0.326
-636.609	328.195	-0.140	-0.268
-635.595	-187.197	0.085	-0.001
-634.580	36.986	-0.125	-0.111
-633.565	-65.858	-0.494	0.198
-632.551	-95.345	-0.085	-0.023
-631.536	505.019	-0.108	-0.250
-630.522	-200.000	0.006	-0.173
-629.507	197.817	0.056	0.085
-628.492	82.202	-0.251	0.272
-627.478	705.615	0.085	-0.224
-626.463	39.307	-0.287	0.258
-625.449	53.483	-0.076	-0.073
-624.434	-3.122	-0.349	0.244
-623.419	800.000	0.048	0.196
-622.405	-94.632	0.091	0.025
-621.390	-200.000	0.002	0.205
-620.376	-108.540	-0.445	0.096
-619.361	298.248	0.101	-0.187
-618.346	800.000	0.098	-0.320
-617.332	210.192	0.072	-0.113
-616.317	-149.683	0.225	0.018
-615.303	-124.477	0.216	0.034
-614.288	-115.973	-0.012	0.002
-613.273	-192.658	0.067	0.001
-612.259	-46.584	-0.168	0.082
-611.244	800.000	0.042	-0.156
-610.230	743.212	0.091	-0.245
-609.215	800.000	0.050	-0.218
-608.201	-95.976	-0.228	-0.061
-607.186	-51.684	-0.082	0.038
-606.171	-179.225	0.070	-0.002
-605.157	-200.000	-0.079	-0.356
-604.142	87.402	0.132	0.146
-603.128	-129.844	-0.161	-0.022
-602.113	-29.208	0.171	-0.098
-601.098	-134.143	-0.109	0.014
-600.084	800.000	-0.072	0.209
-599.069	210.703	-0.130	-0.204
-598.055	-200.000	0.007	0.175
-597.040	-108.114	0.083	0.018
-596.025	-192.703	0.007	0.000
-595.011	-90.215	0.456	0.133
-593.996	40.787	-0.225	-0.203
-592.982	103.810	0.216	0.254
-591.967	222.871	-0.174	-0.281
-590.952	102.045	-0.300	-0.351
-589.938	-103.611	-0.129	0.030
-588.923	99.410	-0.079	-0.092
-587.909	-85.131	0.098	-0.031
-586.894	-148.128	-0.144	0.012
-585.879	767.015	-0.091	-0.248
-584.865	228.565	0.227	0.370
-583.850	31.696	-0.266	-0.228
-582.836	-200.000	0.012	0.174
-581.821	125.795	-0.216	0.273
-580.806	169.953	0.111	0.158
-579.792	800.000	0.101	0.411
-578.777	-110.158	-0.223	0.046
-577.763	30.004	-0.108	-0.092
-576.748	89.366	0.109	0.122
-575.733	4.104	0.196	-0.144
-574.719	-200.000	0.048	-0.247
-573.704	170.735	0.021	-0.031
-572.690	-200.000	-0.019	0.224
-571.675	800.000	0.111	0.376
-570.661	665.698	-0.092	0.237
-569.646	103.358	0.144	-0.169
-568.631	800.000	0.026	-0.088
-567.617	183.114	-0.128	-0.189
-566.602	-45.969	-0.314	-0.155
-565.588	-200.000	-0.065	-0.371
-564.573	-86.297	-0.220	0.068
-563.558	-64.858	0.238	0.096
-562.544	-69.291	-0.179	0.069
-561.529	-21.222	-0.223	0.136
-560.515	143.574	-0.076	0.101
-559.500	800.000	0.052	-0.181
-558.485	-94.932	0.091	0.024
-557.471	-33.254	-0.145	0.080
-556.456	64.870	0.127	-0.128
-555.442	256.259	0.110	-0.188
-554.427	-22.619	-0.116	-0.070
-553.412	48.612	-0.184	0.172
-552.398	124.047	-0.146	0.183
-551.383	-22.400	-0.184	-0.111
-550.369	-68.607	-0.282	-0.109
-549.354	93.457	0.172	0.195
-548.339	-77.087	0.262	0.091
-547.325	650.406	0.090	0.231
-546.310	-158.000	-0.254	-0.015
-545.296	62.845	0.368	-0.368
-544.281	-50.936	-0.083	0.039
-543.266	404.943	0.019	-0.039
-542.252	123.125	0.025	-0.032
-541.237	120.181	0.195	0.241
-540.223	-200.000	-0.008	-0.268
-539.208	-60.264	-0.185	0.079
-538.193	-37.116	-0.287	-0.153
-537.179	295.456	0.093	0.169
-536.164	76.958	-0.057	0.060
-535.150	-200.000	0.043	0.264
-534.135	-200.000	0.024	-0.191
-533.121	-200.000	0.007	0.186
-532.106	-97.519	0.196	-0.051
-531.091	-94.893	-0.393	-0.106
-530.077	-127.549	-0.054	0.008
-529.062	-54.607	0.432	0.195
-528.048	-57.928	0.147	0.064
-527.033	-200.000	0.029	0.380
-526.018	-51.390	0.302	0.141
-525.004	800.000	-0.071	0.256
-523.989	295.164	-0.053	0.096
-522.975	468.855	0.099	0.221
-521.960	800.000	-0.083	-0.294
-520.945	-130.357	-0.241	-0.033
-519.931	226.825	-0.015	-0.024
-518.916	-200.000	0.016	0.169
-517.902	-200.000	-0.008	0.106
-516.887	-200.000	0.012	-0.065
-515.872	31.589	-0.115	0.098
-514.858	287.329	-0.108	0.195
-513.843	-156.326	0.360	-0.023
-512.829	476.831	0.047	0.105
-511.814	800.000	-0.038	0.165
-510.799	-200.000	-0.101	0.636
-509.785	-89.289	0.063	-0.019
-508.770	-91.426	0.475	0.135
-507.756	-45.884	-0.060	-0.030
-506.741	-178.135	-0.173	-0.004
-505.726	-54.367	0.119	-0.054
-504.712	5.845	-0.176	-0.130
-503.697	800.000	0.076	-0.262
-502.683	-187.385	-0.283	-0.004
-501.668	98.127	0.199	0.229
-500.653	102.428	0.145	0.169
-499.639	800.000	0.038	0.116
-498.624	-143.647	0.137	-0.013
-497.610	-200.000	0.075	-0.386
-496.595	-90.839	0.407	-0.117
-495.581	152.931	0.043	-0.059
-494.566	-127.858	0.164	0.023
-493.551	-143.649	0.254	0.024
-492.537	-200.000	-0.009	0.224
-491.522	140.503	0.181	0.238
-490.508	18.264	0.162	-0.129
-489.493	-200.000	0.030	0.181
-488.478	116.980	-0.054	0.066
-487.464	-200.000	0.008	-0.051
-486.449	243.128	-0.032	0.053
-485.435	401.648	0.072	0.150
-484.420	10.754	-0.028	0.021
-483.405	-200.000	-0.056	-0.274
-482.391	800.000	0.097	-0.372
-481.376	-200.000	0.038	-0.246
-480.362	188.594	-0.087	-0.130
-479.347	-200.000	-0.010	0.473
-478.332	323.997	0.088	0.167
-477.318	-148.545	0.293	-0.024
-476.303	-200.000	-0.017	0.093
-475.289	-200.000	0.010	0.096
-474.274	-200.000	-0.020	0.271
-473.259	114.029	-0.086	-0.104
-472.245	52.889	0.213	-0.203
-471.230	-114.871	-0.294	-0.056
-470.216	2.530	0.141	-0.102
-469.201	48.188	-0.115	-0.107
-468.186	-105.379	-0.248	0.056
-467.172	-200.000	-0.015	0.067
-466.157	-55.734	-0.118	0.053
-465.143	-136.143	-0.106	0.012
-464.128	800.000	-0.107	0.364
-463.113	-51.285	0.313	0.146
-462.099	800.000	-0.100	0.313
-461.084	800.000	0.043	-0.162
-460.070	15.442	0.089	0.070
-459.055	-96.926	0.070	-0.018
-458.040	-148.828	0.060	-0.005
-457.026	215.382	-0.071	-0.112
-456.011	-200.000	-0.041	-0.212
-454.997	18.015	-0.232	-0.184
-453.982	-24.067	0.065	-0.039
-452.968	649.871	-0.063	-0.159
-451.953	88.429	0.277	0.306
-450.938	-200.000	-0.016	0.402
-449.924	235.992	-0.086	0.141
-448.909	-200.000	-0.002	0.330
-447.895	66.760	-0.144	-0.146
-446.880	800.000	0.027	0.088
-445.865	-115.446	0.285	-0.053
-444.851	7.660	0.183	0.136
-443.836	63.953	-0.134	-0.134
-442.822	618.048	-0.079	0.197
-441.807	-55.937	0.306	0.136
-440.792	26.373	0.125	0.104
-439.778	-139.865	-0.095	0.010
-438.763	-101.406	0.093	0.022
-437.749	-131.438	0.317	-0.042
-436.734	-58.109	-0.303	-0.132
-435.719	20.269	-0.105	-0.084
-434.705	-55.709	0.366	0.163
-433.690	211.721	0.074	-0.116
-432.676	-118.762	0.237	-0.042
-431.661	22.312	-0.245	-0.199
-430.646	-13.392	-0.168	-0.108
-429.632	800.000	-0.075	0.251
-428.617	-21.599	0.137	0.083
-427.603	-39.292	-0.012	-0.006
-426.588	-74.083	-0.280	0.101
-425.573	-62.496	0.036	0.015
-424.559	-60.948	-0.153	0.064
-423.544	-100.830	0.316	-0.077
-422.530	-54.301	-0.281	0.127
-421.515	157.232	0.088	0.122
-420.500	38.718	0.174	-0.154
-419.486	-174.282	0.456	-0.013
-418.471	-39.189	-0.160	-0.084
-417.457	-38.857	-0.137	-0.072
-416.442	-76.348	-0.206	0.072
-415.428	-126.816	0.038	-0.006
-414.413	386.091	-0.058	-0.118
-413.398	-53.366	-0.026	0.012
-412.384	45.609	0.111	-0.102
-411.369	190.880	0.157	-0.235
-410.355	800.000	0.090	0.279
-409.340	73.046	0.228	0.237
-408.325	-168.573	0.283	0.011
-407.311	-143.233	-0.291	0.028
-406.296	122.402	0.076	-0.095
-405.282	-200.000	0.006	-0.094
-404.267	94.972	-0.284	0.321
-403.252	-193.746	0.186	-0.002
-402.238	800.000	0.007	-0.031
-401.223	-200.000	0.003	-0.104
-400.209	800.000	0.077	-0.217
-399.194	-200.000	0.002	0.083
-398.179	-117.927	-0.258	0.046
-397.165	-119.261	0.169	-0.029
-396.150	-100.015	0.127	-0.031
-395.136	61.676	0.121	0.119
-394.121	-86.789	0.190	-0.058
-393.106	800.000	0.039	-0.158
-392.092	-29.577	-0.155	-0.088
-391.077	473.925	-0.130	-0.290
-390.063	0.600	0.165	-0.117
-389.048	-200.000	-0.023	0.105
-388.033	159.070	0.264	-0.364
-387.019	278.694	0.064	-0.112
-386.004	257.707	-0.121	0.206
-384.990	-162.489	-0.068	-0.003
-383.975	-56.009	0.208	0.092
-382.960	-37.250	0.097	-0.052
-381.946	-200.000	-0.039	0.227
-380.931	800.000	-0.050	-0.159
-379.917	-128.692	0.187	-0.026
-378.902	-200.000	0.010	-0.247
-377.888	92.304	-0.196	-0.219
-376.873	469.452	-0.094	-0.209
-375.858	800.000	0.066	-0.277
-374.844	-62.125	-0.181	-0.075
-373.829	-195.476	-0.206	0.002
-372.815	22.895	0.108	0.088
-371.800	-120.977	0.008	0.001
-370.785	800.000	0.048	0.154
-369.771	-200.000	0.006	-0.083
-368.756	-200.000	-0.033	-0.309
-367.742	-146.928	-0.023	0.002
-366.727	-106.181	-0.198	0.044
-365.712	105.154	-0.168	-0.197
-364.698	-200.000	-0.006	0.172
-363.683	-200.000	-0.011	-0.271
-362.669	2.436	-0.139	-0.100
-361.654	691.772	0.060	0.155
-360.639	-200.000	-0.032	0.222
-359.625	-50.066	-0.124	0.058
-358.610	413.416	0.129	-0.272
-357.596	-149.827	-0.322	-0.025
-356.581	800.000	0.010	0.042
-355.566	-200.000	0.011	-0.164
-354.552	-200.000	0.029	0.429
-353.537	224.647	-0.225	0.360
-352.523	-5.988	-0.243	0.164
-351.508	287.934	0.140	0.251
-350.493	-108.476	-0.067	-0.014
-349.479	-21.340	0.229	-0.139
-348.464	519.632	-0.118	-0.273
-347.450	216.687	-0.086	-0.135
-346.435	-95.686	0.304	0.080
-345.420	-168.407	-0.023	-0.001
-344.406	-175.579	0.257	0.007
-343.391	800.000	0.041	0.164
-342.377	103.955	0.419	0.487
-341.362	-84.668	0.234	0.073
-340.348	-33.036	0.303	-0.166
-339.333	800.000	-0.018	-0.059
-338.318	8.812	-0.125	0.094
-337.304	800.000	-0.043	-0.129
-336.289	-13.656	0.079	-0.051
-335.275	-121.668	0.206	-0.034
-334.260	381.422	-0.086	-0.175
-333.245	74.429	-0.116	-0.120
-332.231	-200.000	-0.006	-0.040
-331.216	-200.000	-0.030	-0.151
-330.202	800.000	-0.064	0.222
-329.187	-80.544	-0.068	0.022
-328.172	30.087	0.202	0.170
-327.158	800.000	0.029	-0.093
-326.143	-122.448	-0.105	-0.017
-325.129	-200.000	0.011	0.119
-324.114	131.125	0.219	-0.278
-323.099	36.313	0.175	0.153
-322.085	800.000	-0.032	-0.099
-321.070	540.019	0.097	0.228
-320.056	-179.318	0.125	0.003
-319.041	348.506	0.033	-0.065
-318.026	59.283	0.214	-0.208
-317.012	800.000	-0.059	0.213
-315.997	-200.000	0.363	-0.001
-314.983	212.190	-0.120	-0.187
-313.968	-31.434	0.143	-0.080
-312.953	-40.904	0.107	-0.055
-311.939	-122.327	-0.121	-0.020
-310.924	322.580	-0.093	-0.175
-309.910	-155.931	-0.159	0.010
-308.895	221.090	0.268	0.426
-307.880	800.000	0.072	0.245
-306.866	146.284	0.111	0.148
-305.851	125.740	0.282	-0.352
-304.837	-70.361	0.131	0.049
-303.822	800.000	0.046	0.148
-302.807	263.144	0.085	0.147
-301.793	-64.299	-0.284	-0.114
-300.778	-200.000	-0.022	0.118
-299.764	20.620	0.044	0.035
-298.749	-7.793	-0.191	0.128
-297.735	800.000	0.057	0.243
-296.720	-24.626	-0.056	-0.033
-295.705	721.027	-0.066	0.175
-294.691	134.120	0.117	0.150
-293.676	-3.482	-0.315	0.216
-292.662	-16.553	0.315	-0.197
-291.647	-200.000	0.009	0.092
-290.632	269.980	0.041	0.071
-289.618	800.000	0.109	-0.335
-288.603	-151.864	-0.074	0.005
-287.589	-12.600	-0.303	0.196
-286.574	426.712	0.191	-0.408
-285.559	-146.034	-0.271	0.024
-284.545	-171.974	-0.116	0.004
-283.530	800.000	0.042	-0.153
-282.516	285.321	0.046	0.081
-281.501	800.000	-0.017	0.054
-280.486	707.038	-0.144	-0.376
-279.472	41.869	-0.193	0.173
-278.457	117.462	0.320	0.389
-277.443	-64.088	-0.237	0.095
-276.428	800.000	-0.071	0.262
-275.413	-123.504	-0.220	0.035
-274.399	69.076	0.264	0.268
-273.384	-50.276	0.048	0.022
-272.370	-142.680	-0.490	0.047
-271.355	-58.958	-0.457	0.195
-270.340	800.000	-0.057	0.187
-269.326	-200.000	0.015	0.186
-268.311	535.589	-0.085	0.198
-267.297	-200.000	0.065	0.000
-266.282	138.110	-0.230	-0.298
-265.267	31.820	0.059	0.050
-264.253	-28.501	0.155	-0.088
-263.238	-27.191	-0.145	-0.083
-262.224	705.799	-0.076	-0.197
-261.209	-39.333	-0.148	0.077
-260.195	-136.397	-0.288	-0.033
-259.180	129.143	-0.188	-0.236
-258.165	-37.875	-0.100	-0.052
-257.151	-200.000	-0.023	-0.341
-256.136	-200.000	0.033	-0.278
-255.122	308.404	-0.167	-0.307
-254.107	42.999	-0.094	0.084
-253.092	433.978	0.088	-0.188
-252.078	-108.895	0.262	-0.055
-251.063	-200.000	-0.008	-0.084
-250.049	-16.455	0.131	0.082
-249.034	-176.481	0.381	0.010
-248.019	68.560	-0.119	-0.121
-247.005	-200.000	0.012	0.159
-245.990	648.730	-0.039	0.098
-244.976	11.325	-0.137	0.104
-243.961	-58.261	-0.224	0.096
-242.946	800.000	-0.117	-0.327
-241.932	-200.000	0.014	-0.367
-240.917	124.920	-0.219	0.272
-239.903	158.217	0.068	0.093
-238.888	-200.000	0.040	0.282
-237.873	440.801	0.100	0.215
-236.859	697.649	0.122	-0.316
-235.844	-99.381	0.112	0.028
-234.830	-200.000	0.003	0.079
-233.815	628.865	0.031	0.076
-232.800	39.559	0.152	0.134
-231.786	-200.000	-0.011	-0.055
-230.771	107.610	0.229	0.269
-229.757	208.147	0.084	-0.129
-228.742	-63.024	0.309	-0.126
-227.727	51.374	0.082	-0.076
-226.713	766.817	0.221	-0.592
-225.698	-12.697	0.205	-0.132
-224.684	93.795	0.166	-0.185
-223.669	86.241	0.018	0.019
-222.655	-200.000	-0.003	-0.127
-221.640	800.000	-0.016	0.049
-220.625	22.739	-0.124	-0.100
-219.611	-37.096	0.173	-0.091
-218.596	-107.693	-0.340	0.073
-217.582	-200.000	-0.051	-0.225
-216.567	-200.000	0.018	-0.301
-215.552	-15.896	0.111	0.070
-214.538	271.618	-0.144	-0.250
-213.523	225.202	-0.114	-0.181
-212.509	-200.000	0.026	-0.379
-211.494	800.000	-0.046	0.178
-210.479	-78.552	-0.190	0.064
-209.465	-9.563	-0.045	-0.030
-208.450	-95.306	-0.155	0.041
-207.436	65.098	-0.242	-0.241
-206.421	-84.504	-0.185	0.057
-205.406	-200.000	-0.017	-0.269
-204.392	49.238	-0.197	-0.182
-203.377	-77.609	0.130	-0.044
-202.363	19.789	-0.052	0.041
-201.348	-112.840	-0.111	0.022
-200.333	95.995	0.214	0.241
-199.319	-55.517	-0.102	-0.045
-198.304	270.481	-0.169	-0.293
-197.290	106.219	0.061	0.071
-196.275	129.775	0.123	-0.155
-195.260	167.861	-0.181	0.254
-194.246	202.214	0.403	0.612
-193.231	-162.076	0.108	0.005
-192.217	64.988	-0.085	-0.085
-191.202	-126.953	0.217	0.031
-190.187	445.593	0.086	-0.187
-189.173	9.688	-0.403	0.301
-188.158	-39.002	0.289	-0.150
-187.144	-82.727	-0.336	0.107
-186.129	-127.083	-0.370	-0.053
-185.114	658.076	0.068	0.173
-184.100	93.101	0.067	0.075
-183.085	-17.276	0.681	-0.422
-182.071	-200.000	0.026	-0.256
-181.056	-46.674	-0.043	-0.021
-180.042	800.000	-0.070	-0.265
-179.027	-166.743	-0.124	0.005
-178.012	-125.983	0.217	0.032
-176.998	10.197	0.112	-0.084
-175.983	-96.885	-0.104	0.027
-174.969	13.012	-0.138	-0.105
-173.954	-163.752	0.489	0.023
-172.939	282.797	0.240	-0.424
-171.925	406.546	0.138	-0.287
-170.910	-68.421	-0.158	0.060
-169.896	-148.507	0.099	0.008
-168.881	25.449	-0.284	0.232
-167.866	489.331	0.047	-0.106
-166.852	-27.243	-0.312	-0.179
-165.837	-111.532	-0.146	-0.029
-164.823	-49.425	0.374	-0.175
-163.808	22.534	-0.146	-0.117
-162.793	453.928	-0.152	0.332
-161.779	58.332	-0.218	0.210
-160.764	-112.963	-0.433	0.084
-159.750	1.467	-0.112	-0.079
-158.735	-80.651	0.117	0.038
-157.720	-107.588	-0.147	-0.032
-156.706	7.629	0.129	-0.095
-155.691	-128.765	-0.064	-0.009
-154.677	-114.374	0.314	0.059
-153.662	95.472	-0.138	0.155
-152.647	-200.000	-0.007	0.233
-151.633	185.053	-0.138	-0.201
-150.618	-28.518	-0.407	0.230
-149.604	521.825	0.092	0.213
-148.589	-163.404	0.266	-0.012
-147.574	74.630	-0.357	-0.369
-146.560	-200.000	-0.008	-0.254
-145.545	-129.354	-0.131	0.018
-144.531	49.207	0.113	-0.104
-143.516	47.393	-0.115	-0.105
-142.502	-78.909	0.327	-0.109
-141.487	-103.148	0.076	-0.018
-140.472	-47.694	0.175	-0.083
-139.458	-200.000	0.064	-0.443
-138.443	800.000	0.048	-0.205
-137.429	102.545	0.358	0.412
-136.414	-23.656	0.297	0.175
-135.399	-80.857	-0.347	0.113
-134.385	-6.434	0.059	0.040
-133.370	93.087	0.251	0.279
-132.356	-52.310	-0.098	-0.045
-131.341	56.792	-0.260	-0.249
-130.326	800.000	0.056	-0.175
-129.312	289.525	-0.216	-0.385
-128.297	-149.233	0.390	0.031
-127.283	-73.835	-0.146	-0.052
-126.268	14.718	0.038	-0.029
-125.253	87.127	-0.047	-0.051
-124.239	-200.000	-0.050	-0.456
-123.224	226.297	-0.029	0.046
-122.210	-100.992	-0.232	0.056
