DTS Sentinel unit serial number:	SN413079Multiplexer serial number:	ORYXHardware model number:	OX4-SRSoftware version number:	ORYX F/W v4.00 Oryx Data Collector v3.7.2.0data status	okinstallation	princeton_trtdifferential loss correction	single-endedforward channel	channel 3reverse channel	N/Adate	2019/09/19time	08:48:35forward acquisition time	60.00reverse acquisition time	0.00gamma	496.2192k internal	0.2347k external	0.2347temperature offset calibration	0.9979default loss term (dB/km)	0.3790temperature slope calibration	1.0000multiplexer offset coefficient	1.0000multiplexer slope coefficient	1.0000fibre end	0.00T internal ref (°C)	21.12T ext. ref 1 (°C)	0.57T ext. ref 2 (°C)	16.75length (m)	temperature (°C)	Stokes	anti-Stokes-747.200	18.533	0.155	-0.124
-746.185	-176.404	-0.104	-0.003
-745.171	330.426	0.058	-0.111
-744.156	-163.545	-0.294	0.014
-743.142	-146.886	-0.229	0.020
-742.127	-108.276	0.102	-0.022
-741.112	-200.000	0.069	0.366
-740.098	-152.047	-0.189	0.014
-739.083	207.070	0.115	-0.179
-738.069	172.250	-0.272	0.392
-737.054	-67.596	-0.372	-0.146
-736.039	-37.418	-0.277	-0.148
-735.025	275.174	0.145	-0.258
-734.010	-134.953	0.069	-0.008
-732.996	-35.682	-0.173	-0.094
-731.981	-129.660	0.292	-0.040
-730.966	169.609	0.034	-0.048
-729.952	-200.000	0.012	0.138
-728.937	493.724	0.136	-0.311
-727.923	708.190	0.074	-0.196
-726.908	660.461	-0.136	0.350
-725.894	-81.562	-0.124	0.041
-724.879	226.140	0.086	0.139
-723.864	-0.104	0.007	-0.005
-722.850	-128.256	-0.237	0.034
-721.835	772.409	-0.034	0.093
-720.821	-106.553	-0.115	-0.026
-719.806	77.134	-0.111	0.118
-718.791	-165.736	-0.224	-0.010
-717.777	-42.222	-0.132	-0.067
-716.762	800.000	-0.085	0.290
-715.748	14.521	-0.179	0.139
-714.733	800.000	-0.136	0.501
-713.718	27.704	-0.281	0.236
-712.704	-148.951	-0.309	0.025
-711.689	-92.927	-0.087	-0.024
-710.675	116.315	-0.101	0.123
-709.660	-69.251	-0.211	0.081
-708.645	116.568	-0.058	-0.071
-707.631	-200.000	0.037	-0.212
-706.616	800.000	0.069	-0.280
-705.602	-126.653	0.221	0.033
-704.587	2.991	-0.260	-0.188
-703.572	70.348	-0.077	-0.079
-702.558	295.450	0.085	-0.155
-701.543	-55.304	0.231	0.104
-700.529	488.327	0.144	-0.328
-699.514	98.042	-0.212	0.243
-698.499	-129.176	-0.194	-0.027
-697.485	-49.997	-0.009	0.004
-696.470	396.172	0.085	0.177
-695.456	49.807	-0.079	-0.075
-694.441	61.039	-0.155	0.153
-693.426	-200.000	-0.010	-0.071
-692.412	70.784	-0.284	0.294
-691.397	-200.000	0.023	-0.127
-690.383	800.000	-0.116	-0.339
-689.368	-200.000	0.004	-0.180
-688.354	-36.820	-0.160	-0.086
-687.339	800.000	-0.088	0.308
-686.324	-200.000	0.005	0.097
-685.310	619.804	-0.100	-0.252
-684.295	-17.666	-0.057	-0.036
-683.281	-105.683	0.166	0.038
-682.266	59.844	0.128	0.126
-681.251	-200.000	0.012	-0.236
-680.237	5.685	0.155	0.115
-679.222	-200.000	0.036	0.165
-678.208	-9.055	-0.121	0.081
-677.193	-161.451	-0.242	0.012
-676.178	-140.155	-0.399	0.042
-675.164	197.993	0.095	0.145
-674.149	-43.268	-0.090	-0.045
-673.135	-74.263	0.323	-0.116
-672.120	-15.865	-0.115	0.073
-671.105	559.037	0.130	-0.313
-670.091	352.882	-0.146	-0.288
-669.076	-131.801	0.375	-0.049
-668.062	-68.409	-0.250	-0.097
-667.047	528.715	0.072	-0.170
-666.032	-96.571	0.195	-0.051
-665.018	-80.735	0.274	-0.091
-664.003	-85.972	-0.178	-0.055
-662.989	-0.991	-0.146	0.103
-661.974	-176.775	-0.112	-0.003
-660.959	226.329	0.081	-0.131
-659.945	-42.319	-0.237	0.120
-658.930	167.611	-0.199	0.282
-657.916	-180.944	0.280	0.006
-656.901	42.199	-0.158	0.143
-655.886	-200.000	0.041	-0.221
-654.872	-39.867	0.225	-0.117
-653.857	-150.209	-0.517	0.040
-652.843	800.000	0.027	-0.104
-651.828	497.247	0.038	0.088
-650.814	485.170	-0.034	0.076
-649.799	-200.000	0.060	-0.266
-648.784	61.962	-0.103	0.103
-647.770	177.097	0.179	-0.260
-646.755	-45.730	-0.022	0.011
-645.741	-200.000	0.057	-0.432
-644.726	527.393	-0.177	-0.415
-643.711	-200.000	-0.003	0.291
-642.697	286.986	0.157	0.283
-641.682	473.323	0.117	-0.262
-640.668	508.319	0.048	0.111
-639.653	-48.430	0.182	0.087
-638.638	-9.279	-0.368	0.245
-637.624	377.561	0.071	0.145
-636.609	30.641	-0.120	0.102
-635.595	63.998	0.104	0.104
-634.580	17.946	-0.118	0.094
-633.565	-55.499	0.126	-0.056
-632.551	-20.571	0.209	-0.128
-631.536	215.906	-0.069	-0.110
-630.522	-200.000	-0.011	-0.253
-629.507	75.686	0.184	0.193
-628.492	-91.279	0.289	-0.082
-627.478	4.913	0.294	0.215
-626.463	88.267	0.186	-0.205
-625.449	-91.910	-0.418	0.118
-624.434	-159.757	-0.121	0.007
-623.419	-200.000	-0.026	-0.237
-622.405	-200.000	0.082	0.365
-621.390	-72.197	0.286	-0.106
-620.376	187.060	-0.072	-0.107
-619.361	-86.129	-0.038	-0.012
-618.346	-38.046	0.312	-0.165
-617.332	99.908	0.096	0.111
-616.317	156.190	0.087	0.120
-615.303	308.502	-0.097	0.181
-614.288	-200.000	0.014	-0.497
-613.273	37.878	-0.170	0.150
-612.259	-200.000	0.009	0.389
-611.244	-48.886	-0.345	0.165
-610.230	-74.594	-0.190	0.068
-609.215	-34.403	-0.191	-0.104
-608.201	221.220	-0.217	-0.347
-607.186	102.343	0.166	0.193
-606.171	800.000	-0.087	-0.337
-605.157	566.977	0.033	0.080
-604.142	-112.004	-0.106	0.021
-603.128	-97.643	-0.342	0.088
-602.113	6.770	-0.087	0.064
-601.098	800.000	0.017	-0.065
-600.084	-1.405	0.224	0.157
-599.069	402.027	0.107	-0.224
-598.055	-200.000	-0.039	0.332
-597.040	-69.195	0.304	-0.116
-596.025	413.195	0.104	0.221
-595.011	-115.852	-0.060	0.011
-593.996	-200.000	-0.013	-0.083
-592.982	800.000	-0.118	-0.373
-591.967	-38.049	0.276	0.146
-590.952	299.007	0.095	-0.173
-589.938	563.739	-0.034	-0.081
-588.923	217.847	0.163	-0.258
-587.909	-200.000	-0.031	0.296
-586.894	176.845	-0.063	-0.091
-585.879	22.409	-0.061	-0.049
-584.865	134.460	0.045	0.058
-583.850	68.587	-0.197	-0.201
-582.836	-67.060	-0.047	-0.018
-581.821	32.975	-0.203	-0.175
-580.806	-200.000	-0.026	0.174
-579.792	-54.976	0.172	0.077
-578.777	-54.976	0.156	-0.070
-577.763	-94.182	-0.242	0.066
-576.748	19.118	-0.061	-0.049
-575.733	-118.574	0.125	0.022
-574.719	-96.792	-0.241	0.063
-573.704	84.788	0.044	0.047
-572.690	349.469	0.058	0.114
-571.675	-50.478	0.381	0.178
-570.661	-11.451	-0.148	-0.097
-569.646	190.954	0.050	0.075
-568.631	398.903	-0.033	-0.068
-567.617	397.653	-0.205	0.425
-566.602	-200.000	-0.032	0.285
-565.588	-101.846	0.228	0.055
-564.573	144.188	0.202	-0.268
-563.558	800.000	-0.035	-0.106
-562.544	-200.000	0.033	0.445
-561.529	15.839	-0.292	0.228
-560.515	-200.000	0.025	0.183
-559.500	-133.186	-0.066	0.008
-558.485	16.519	0.302	-0.237
-557.471	223.569	-0.012	0.020
-556.456	-200.000	-0.006	-0.168
-555.442	443.957	-0.019	-0.041
-554.427	-66.002	0.196	0.078
-553.412	-124.125	0.328	0.051
-552.398	-54.299	-0.140	-0.063
-551.383	493.369	0.114	0.258
-550.369	124.494	-0.100	0.125
-549.354	-170.091	0.131	-0.005
-548.339	329.188	-0.166	0.317
-547.325	-56.955	-0.222	-0.097
-546.310	3.782	-0.117	-0.085
-545.296	59.496	-0.034	0.034
-544.281	-37.996	-0.189	-0.100
-543.266	648.537	-0.153	0.389
-542.252	-11.566	-0.125	0.082
-541.237	302.250	0.095	-0.174
-540.223	-200.000	0.006	-0.068
-539.208	3.512	0.066	-0.048
-538.193	-16.632	0.326	-0.205
-537.179	-25.496	-0.216	-0.127
-536.164	61.008	-0.122	0.120
-535.150	328.778	0.080	0.153
-534.135	-152.469	-0.215	-0.015
-533.121	-11.093	0.255	0.167
-532.106	173.902	-0.054	0.078
-531.091	-47.612	-0.658	0.317
-530.077	-151.219	0.312	0.023
-529.062	-85.458	-0.116	0.036
-528.048	-200.000	0.049	-0.411
-527.033	-100.078	0.375	0.093
-526.018	32.621	-0.103	0.088
-525.004	-200.000	0.012	-0.143
-523.989	-200.000	-0.017	-0.319
-522.975	189.210	-0.040	0.059
-521.960	-132.921	0.115	-0.015
-520.945	3.623	-0.178	-0.129
-519.931	800.000	0.054	0.218
-518.916	-167.477	0.276	0.011
-517.902	-200.000	0.006	0.565
-516.887	-71.089	-0.133	0.050
-515.872	-200.000	0.012	-0.274
-514.858	800.000	0.041	0.127
-513.843	-200.000	0.030	0.261
-512.829	-31.704	0.063	0.035
-511.814	-69.460	0.257	0.098
-510.799	-66.066	0.255	0.101
-509.785	175.807	0.126	-0.182
-508.770	79.059	-0.281	-0.298
-507.756	-200.000	0.004	-0.542
-506.741	-138.562	0.202	0.022
-505.726	-200.000	-0.044	0.202
-504.712	-147.996	-0.233	-0.019
-503.697	13.164	0.372	-0.286
-502.683	-148.364	-0.232	-0.019
-501.668	29.208	0.042	0.035
-500.653	-200.000	-0.025	-0.116
-499.639	-113.380	0.234	0.046
-498.624	-83.081	-0.389	-0.124
-497.610	-144.576	-0.157	0.014
-496.595	548.099	0.065	0.154
-495.581	-142.137	0.151	0.015
-494.566	752.175	0.060	0.160
-493.551	29.336	-0.234	-0.197
-492.537	260.570	-0.037	-0.063
-491.522	-0.196	0.053	-0.037
-490.508	-113.366	-0.202	0.039
-489.493	-111.180	-0.250	-0.051
-488.478	175.090	-0.181	0.259
-487.464	-109.542	-0.094	0.020
-486.449	510.395	-0.084	-0.193
-485.435	-200.000	-0.002	-0.150
-484.420	37.624	0.031	0.027
-483.405	-111.244	-0.115	-0.023
-482.391	800.000	-0.139	-0.478
-481.376	-52.633	0.055	-0.025
-480.362	229.964	0.071	-0.115
-479.347	243.920	0.111	0.184
-478.332	-67.009	0.090	0.035
-477.318	278.412	0.223	-0.393
-476.303	-200.000	0.002	0.249
-475.289	-200.000	-0.065	-0.312
-474.274	-103.664	0.213	-0.049
-473.259	-171.650	0.164	-0.005
-472.245	788.443	0.005	-0.014
-471.230	800.000	0.058	-0.183
-470.216	-90.235	0.375	-0.108
-469.201	-29.260	0.122	-0.069
-468.186	-23.459	-0.112	-0.067
-467.172	-16.769	0.180	-0.113
-466.157	-171.503	0.263	-0.009
-465.143	800.000	0.049	0.136
-464.128	-50.503	0.285	-0.133
-463.113	371.125	0.098	0.196
-462.099	-200.000	0.010	-0.150
-461.084	-106.714	-0.397	-0.087
-460.070	250.141	-0.050	0.084
-459.055	-104.063	0.296	0.068
-458.040	439.518	-0.152	0.328
-457.026	65.352	-0.153	0.153
-456.011	-200.000	0.037	0.212
-454.997	-190.282	-0.562	-0.006
-453.982	-88.437	-0.416	0.123
-452.968	-126.506	0.395	-0.058
-451.953	800.000	-0.011	-0.036
-450.938	-30.510	0.220	0.123
-449.924	-200.000	0.046	-0.456
-448.909	530.417	-0.035	-0.081
-447.895	383.338	0.155	0.315
-446.880	494.256	-0.136	-0.308
-445.865	154.493	-0.152	-0.206
-444.851	-79.948	-0.047	0.016
-443.836	467.894	-0.122	-0.271
-442.822	800.000	0.084	-0.333
-441.807	-84.891	0.059	-0.018
-440.792	16.224	0.107	0.083
-439.778	0.528	-0.327	-0.231
-438.763	330.345	0.086	-0.164
-437.749	800.000	0.037	0.113
-436.734	-106.991	-0.253	-0.055
-435.719	800.000	-0.018	-0.072
-434.705	800.000	-0.089	-0.347
-433.690	3.848	0.106	-0.076
-432.676	-200.000	-0.010	-0.134
-431.661	800.000	0.087	0.301
-430.646	-44.626	0.161	0.079
-429.632	134.658	0.141	-0.180
-428.617	-4.198	-0.086	0.059
-427.603	-200.000	0.070	0.539
-426.588	-85.335	0.307	0.095
-425.573	-200.000	-0.001	0.029
-424.559	800.000	0.056	0.182
-423.544	319.364	-0.043	0.081
-422.530	-144.264	-0.409	0.038
-421.515	-38.516	0.256	-0.133
-420.500	124.863	0.088	0.110
-419.486	85.904	0.052	0.056
-418.471	-200.000	0.026	0.117
-417.457	800.000	0.198	-0.616
-416.442	175.659	-0.225	0.322
-415.428	318.204	0.008	0.015
-414.413	-67.294	0.066	-0.026
-413.398	-184.796	-0.215	0.003
-412.384	800.000	0.079	0.233
-411.369	800.000	-0.013	0.044
-410.355	136.174	0.084	-0.108
-409.340	-67.191	0.411	-0.160
-408.325	-200.000	0.034	0.193
-407.311	-121.583	-0.189	-0.031
-406.296	-200.000	-0.009	-0.238
-405.282	-100.980	0.242	-0.059
-404.267	-22.525	0.319	0.191
-403.252	-108.526	0.410	-0.087
-402.238	-163.616	0.583	0.027
-401.223	543.752	-0.028	-0.065
-400.209	-13.801	-0.119	0.076
-399.194	-200.000	0.337	-0.001
-398.179	-101.501	0.195	0.047
-397.165	490.357	-0.062	-0.139
-396.150	220.381	0.088	0.140
-395.136	-123.508	0.478	-0.075
-394.121	-36.344	-0.315	0.168
-393.106	21.917	-0.193	-0.155
-392.092	386.268	0.021	-0.042
-391.077	-4.966	-0.034	0.023
-390.063	800.000	0.002	-0.006
-389.048	651.745	-0.048	0.121
-388.033	-143.755	0.113	0.011
-387.019	-52.823	-0.246	-0.112
-386.004	433.582	0.148	0.316
-384.990	-106.986	-0.084	-0.018
-383.975	800.000	-0.056	-0.187
-382.960	17.738	0.121	0.095
-381.946	-159.165	0.356	-0.020
-380.931	-200.000	-0.000	-0.223
-379.917	-139.973	-0.175	0.018
-378.902	-75.037	-0.490	-0.173
-377.888	527.705	-0.066	0.152
-376.873	-200.000	-0.016	-0.189
-375.858	-107.702	-0.114	0.025
-374.844	-200.000	-0.037	0.271
-373.829	-200.000	-0.003	0.074
-372.815	705.372	0.073	0.190
-371.800	-200.000	-0.048	0.239
-370.785	-151.904	0.228	0.016
-369.771	-106.491	-0.125	0.027
-368.756	224.706	-0.015	0.024
-367.742	-53.039	-0.085	0.039
-366.727	122.494	0.157	0.193
-365.712	-200.000	0.037	0.219
-364.698	800.000	0.097	0.290
-363.683	-191.033	-0.418	0.004
-362.669	607.115	0.134	-0.329
-361.654	-200.000	-0.013	0.112
-360.639	-99.275	0.181	0.045
-359.625	394.193	-0.160	-0.328
-358.610	800.000	0.064	0.246
-357.596	800.000	0.021	0.058
-356.581	800.000	-0.081	-0.263
-355.566	554.370	0.041	0.096
-354.552	-200.000	-0.005	0.068
-353.537	-50.397	0.351	-0.163
-352.523	-200.000	0.002	-0.231
-351.508	800.000	0.065	-0.254
-350.493	36.800	0.262	0.228
-349.479	-66.536	0.153	-0.060
-348.464	800.000	-0.025	0.092
-347.450	-151.486	0.088	-0.006
-346.435	-119.916	-0.059	-0.010
-345.420	143.288	-0.015	-0.020
-344.406	-41.938	-0.258	0.130
-343.391	800.000	-0.040	0.121
-342.377	262.558	-0.129	0.220
-341.362	-200.000	-0.026	0.209
-340.348	489.895	0.078	-0.176
-339.333	-92.531	-0.223	-0.062
-338.318	800.000	0.019	-0.071
-337.304	800.000	0.067	-0.219
-336.289	-122.126	0.359	0.058
-335.275	800.000	-0.010	-0.037
-334.260	800.000	0.094	-0.278
-333.245	303.817	0.168	0.306
-332.231	-152.732	0.464	0.032
-331.216	-45.441	0.368	0.179
-330.202	-109.011	0.245	-0.051
-329.187	-25.628	-0.192	0.112
-328.172	596.166	-0.099	0.240
-327.158	800.000	0.013	0.049
-326.143	-200.000	0.051	-0.251
-325.129	124.988	-0.183	-0.226
-324.114	19.394	-0.102	-0.081
-323.099	-0.687	0.222	-0.155
-322.085	800.000	-0.036	0.121
-321.070	159.604	-0.110	0.151
-320.056	-179.751	-0.232	-0.005
-319.041	-200.000	-0.002	-0.053
-318.026	-200.000	0.021	-0.131
-317.012	114.662	-0.290	0.347
-315.997	-82.897	-0.211	0.067
-314.983	62.570	0.078	0.077
-313.968	24.168	0.180	-0.146
-312.953	-139.069	-0.127	-0.014
-311.939	-200.000	0.012	-0.116
-310.924	800.000	0.111	-0.353
-309.910	471.384	-0.033	0.073
-308.895	-192.747	-0.658	0.006
-307.880	270.109	-0.159	-0.275
-306.866	-200.000	0.034	0.247
-305.851	-200.000	0.014	-0.614
-304.837	-19.271	-0.119	-0.072
-303.822	-144.010	0.142	-0.013
-302.807	-200.000	-0.009	-0.253
-301.793	210.234	0.157	0.243
-300.778	242.905	-0.092	0.152
-299.764	140.247	-0.202	0.262
-298.749	-110.668	-0.243	-0.049
-297.735	-33.522	-0.368	0.200
-296.720	800.000	0.041	0.127
-295.705	23.587	0.202	0.163
-294.691	-47.331	-0.405	-0.194
-293.676	570.781	-0.024	-0.057
-292.662	530.768	-0.111	0.258
-291.647	-200.000	0.039	0.548
-290.632	511.186	0.144	0.328
-289.618	-14.252	-0.093	0.059
-288.603	330.160	0.096	-0.182
-287.589	-192.088	-0.029	0.000
-286.574	321.469	0.058	0.108
-285.559	607.003	-0.102	0.250
-284.545	-151.675	-0.082	-0.006
-283.530	-75.734	0.182	-0.064
-282.516	800.000	-0.087	-0.362
-281.501	141.049	0.271	-0.352
-280.486	-200.000	0.009	-0.238
-279.472	36.170	0.125	-0.108
-278.457	-92.182	-0.300	0.083
-277.443	414.566	0.046	-0.096
-276.428	49.206	-0.217	0.200
-275.413	-182.251	-0.153	0.003
-274.399	-200.000	0.016	-0.252
-273.384	144.681	-0.194	0.255
-272.370	-200.000	-0.031	0.182
-271.355	-123.624	-0.326	-0.051
-270.340	-200.000	-0.007	0.082
-269.326	-124.515	-0.300	0.046
-268.311	722.444	-0.161	0.421
-267.297	64.174	0.318	-0.314
-266.282	-30.063	-0.402	-0.224
-265.267	-134.083	-0.095	0.012
-264.253	-7.931	-0.200	-0.132
-263.238	293.328	0.198	-0.354
-262.224	-200.000	0.016	-0.272
-261.209	144.189	-0.307	-0.401
-260.195	-59.024	0.222	0.094
-259.180	83.853	0.046	0.049
-258.165	290.099	0.123	-0.218
-257.151	84.301	-0.076	0.081
-256.136	-85.871	0.036	0.011
-255.122	-2.649	0.271	-0.186
-254.107	-28.641	0.123	-0.069
-253.092	5.326	-0.077	-0.055
-252.078	590.229	0.093	-0.225
-251.063	-109.998	0.137	0.028
-250.049	-200.000	0.057	-0.422
-249.034	-174.928	-0.433	-0.012
-248.019	-155.755	-0.111	0.007
-247.005	-137.750	-0.472	-0.052
-245.990	224.729	0.067	0.106
-244.976	-136.781	0.134	0.015
-243.961	-200.000	-0.020	0.093
-242.946	81.444	-0.154	-0.164
-241.932	8.945	-0.390	-0.289
-240.917	438.302	0.101	-0.216
-239.903	-9.561	0.455	-0.297
-238.888	109.585	-0.181	-0.213
-237.873	-82.586	-0.359	0.114
-236.859	800.000	-0.071	-0.205
-235.844	75.283	0.052	0.054
-234.830	-200.000	0.012	0.067
-233.815	51.861	-0.130	0.122
-232.800	-61.924	0.198	0.081
-231.786	691.394	-0.035	-0.091
-230.771	-127.080	0.124	0.018
-229.757	652.247	0.121	0.303
-228.742	-143.671	0.309	0.029
-227.727	-79.528	-0.314	-0.104
-226.713	-200.000	0.001	-0.069
-225.698	-27.468	-0.287	0.163
-224.684	-200.000	0.018	-0.248
-223.669	-67.249	-0.482	-0.186
-222.655	149.140	-0.150	-0.198
-221.640	-200.000	0.010	-0.247
-220.625	271.931	0.083	-0.142
-219.611	-47.894	0.282	0.134
-218.596	165.961	0.150	-0.208
-217.582	800.000	0.073	-0.212
-216.567	77.954	-0.151	0.158
-215.552	185.013	-0.168	0.243
-214.538	-200.000	0.064	0.275
-213.523	-200.000	0.077	0.339
-212.509	242.825	-0.141	0.230
-211.494	-141.920	0.165	0.016
-210.479	92.780	-0.069	0.076
-209.465	-91.377	-0.182	0.051
-208.450	-200.000	-0.011	-0.117
-207.436	-57.581	-0.138	0.059
-206.421	39.101	-0.101	0.089
-205.406	187.847	0.136	-0.198
-204.392	-123.880	-0.302	-0.047
-203.377	-53.691	0.110	0.049
-202.363	6.483	0.108	0.079
-201.348	-200.000	-0.045	-0.320
-200.333	35.368	0.151	0.130
-199.319	289.953	-0.068	-0.121
-198.304	14.303	0.136	-0.104
-197.290	-43.851	0.283	-0.139
-196.275	-44.423	0.184	0.090
-195.260	46.899	-0.147	-0.134
-194.246	-200.000	-0.091	0.483
-193.231	72.651	0.058	-0.059
-192.217	800.000	0.064	-0.201
-191.202	-9.422	-0.408	0.267
-190.187	176.384	0.092	0.131
-189.173	-82.272	-0.334	-0.106
-188.158	800.000	0.030	-0.087
-187.144	-19.612	0.164	0.100
-186.129	51.743	-0.166	-0.155
-185.114	769.177	-0.085	0.227
-184.100	-62.203	-0.184	-0.075
-183.085	13.638	-0.104	0.079
-182.071	34.697	-0.308	0.263
-181.056	257.978	0.086	0.145
-180.042	19.756	0.123	-0.097
-179.027	211.220	0.147	0.226
-178.012	105.639	-0.154	0.178
-176.998	-200.000	-0.007	0.275
-175.983	149.755	-0.171	0.226
-174.969	800.000	-0.043	0.138
-173.954	-15.333	0.158	0.099
-172.939	70.779	0.527	0.534
-171.925	-3.961	0.046	-0.031
-170.910	15.506	0.162	0.124
-169.896	-62.062	-0.256	0.105
-168.881	155.103	0.311	-0.418
-167.866	-19.376	-0.235	-0.143
-166.852	-73.271	-0.198	0.071
-165.837	-133.571	0.104	-0.013
-164.823	-154.915	0.103	0.007
-163.808	-200.000	0.020	0.155
-162.793	-26.115	-0.121	0.070
-161.779	55.986	-0.220	0.209
-160.764	800.000	-0.014	-0.048
-159.750	-200.000	0.047	0.205
-158.735	407.392	0.073	-0.151
-157.720	-146.378	0.302	0.026
-156.706	180.724	0.275	0.394
-155.691	40.953	0.058	0.051
-154.677	382.982	-0.022	-0.044
-153.662	-26.881	0.280	-0.160
-152.647	12.003	0.138	0.104
-151.633	-46.443	-0.300	-0.144
-150.618	5.761	-0.096	0.069
-149.604	341.690	0.123	0.235
-148.589	-106.938	-0.123	0.027
-147.574	-200.000	-0.034	0.163
-146.560	800.000	0.043	-0.184
-145.545	15.416	-0.082	0.063
-144.531	-200.000	-0.013	0.070
-143.516	-123.177	-0.336	0.053
-142.502	-103.991	-0.278	-0.063
-141.487	-133.268	0.318	-0.039
-140.472	-113.975	0.291	0.055
-139.458	800.000	-0.097	0.326
-138.443	262.700	-0.114	-0.193
-137.429	-68.388	-0.195	0.074
-136.414	44.608	-0.137	-0.123
-135.399	-29.695	0.287	0.160
-134.385	-200.000	-0.050	-0.588
-133.370	-200.000	0.024	-0.259
-132.356	31.264	-0.074	0.062
-131.341	318.873	0.144	0.267
-130.326	-75.483	0.388	-0.135
-129.312	-93.319	-0.149	-0.040
-128.297	-111.174	0.309	-0.062
-127.283	800.000	-0.038	0.105
-126.268	800.000	0.101	-0.381
-125.253	-200.000	0.003	0.232
-124.239	-101.902	-0.153	0.036
-123.224	-108.263	-0.547	-0.115
-122.210	-87.047	0.284	0.084
-121.195	390.402	-0.083	-0.168
