DTS Sentinel unit serial number:	SN413079Multiplexer serial number:	ORYXHardware model number:	OX4-SRSoftware version number:	ORYX F/W v4.00 Oryx Data Collector v3.7.2.0data status	okinstallation	princeton_trtdifferential loss correction	single-endedforward channel	channel 3reverse channel	N/Adate	2019/09/13time	16:40:35forward acquisition time	60.00reverse acquisition time	0.00gamma	496.2192k internal	0.2304k external	0.2304temperature offset calibration	1.0147default loss term (dB/km)	0.3790temperature slope calibration	1.0000multiplexer offset coefficient	1.0000multiplexer slope coefficient	1.0000fibre end	0.00T internal ref (°C)	35.05T ext. ref 1 (°C)	4.92T ext. ref 2 (°C)	29.61length (m)	temperature (°C)	Stokes	anti-Stokes-747.200	-106.014	0.362	0.083
-746.185	158.741	0.194	0.274
-745.171	-98.285	0.162	0.042
-744.156	-77.341	-0.283	0.100
-743.142	52.624	0.170	0.165
-742.127	-200.000	-0.050	0.388
-741.112	210.168	0.129	-0.206
-740.098	65.968	0.117	-0.121
-739.083	91.274	-0.022	-0.026
-738.069	153.591	-0.060	0.084
-737.054	-33.500	0.295	0.166
-736.039	631.101	-0.118	0.304
-735.025	-148.661	-0.109	0.009
-734.010	-85.321	0.369	0.117
-732.996	88.155	-0.311	-0.351
-731.981	34.366	-0.181	-0.161
-730.966	-146.274	-0.370	0.033
-729.952	785.390	0.031	0.086
-728.937	-11.038	-0.179	-0.120
-727.923	198.155	-0.106	-0.165
-726.908	-200.000	-0.007	0.179
-725.894	271.525	0.101	0.181
-724.879	-200.000	0.005	0.079
-723.864	-200.000	0.043	-0.196
-722.850	-200.000	0.004	0.160
-721.835	-200.000	0.032	-0.337
-720.821	-152.941	0.128	-0.009
-719.806	-78.848	-0.350	-0.121
-718.791	-120.499	0.167	0.029
-717.777	-200.000	-0.004	0.216
-716.762	387.894	0.066	0.139
-715.748	-200.000	-0.019	0.179
-714.733	130.386	0.146	0.190
-713.718	-61.952	-0.211	-0.090
-712.704	800.000	-0.080	0.262
-711.689	-94.861	0.100	-0.028
-710.675	-138.511	-0.201	-0.022
-709.660	-200.000	-0.018	0.165
-708.645	-94.646	0.177	0.049
-707.631	-177.740	-0.287	-0.007
-706.616	250.220	-0.039	0.067
-705.602	206.091	0.124	-0.196
-704.587	800.000	0.021	0.075
-703.572	-51.088	0.143	-0.068
-702.558	-183.168	-0.167	-0.003
-701.543	-101.643	0.164	0.041
-700.529	-200.000	-0.321	0.000
-699.514	800.000	-0.066	-0.216
-698.499	533.828	-0.112	-0.271
-697.485	168.223	0.099	0.144
-696.470	800.000	0.034	0.135
-695.456	248.490	0.047	0.081
-694.441	45.061	-0.041	0.039
-693.426	505.607	0.145	0.341
-692.412	-200.000	0.005	-0.274
-691.397	-84.319	-0.121	-0.039
-690.383	721.947	0.163	-0.440
-689.368	199.276	-0.211	-0.328
-688.354	-91.917	0.207	0.060
-687.339	-35.411	0.240	-0.132
-686.324	-71.244	-0.353	0.134
-685.310	-25.447	0.351	0.211
-684.295	-27.042	0.168	0.099
-683.281	-200.000	-0.012	0.088
-682.266	213.938	-0.151	0.242
-681.251	356.515	-0.045	-0.090
-680.237	-200.000	-0.013	-0.266
-679.222	-93.740	0.077	0.022
-678.208	-74.334	-0.226	-0.083
-677.193	-92.404	-0.228	0.065
-676.178	-125.554	0.185	0.029
-675.164	211.322	0.078	0.125
-674.149	-200.000	0.007	-0.300
-673.135	54.713	0.188	0.184
-672.120	-116.998	0.320	-0.059
-671.105	-200.000	-0.048	0.377
-670.091	131.184	-0.077	-0.100
-669.076	-20.446	-0.155	-0.097
-668.062	-29.832	0.119	-0.069
-667.047	21.678	-0.375	0.310
-666.032	-200.000	0.000	-0.280
-665.018	-90.837	-0.119	-0.035
-664.003	37.644	0.141	-0.127
-662.989	800.000	0.125	-0.392
-661.974	-50.662	0.083	0.040
-660.959	-61.264	-0.312	0.133
-659.945	39.141	0.134	0.122
-658.930	-51.961	-0.103	-0.049
-657.916	487.625	-0.028	-0.065
-656.901	175.291	0.370	-0.543
-655.886	-75.261	-0.329	-0.119
-654.872	106.155	0.073	0.088
-653.857	800.000	-0.070	-0.199
-652.843	-44.203	0.195	0.099
-651.828	53.538	0.112	-0.109
-650.814	-200.000	-0.015	0.411
-649.799	-200.000	0.087	0.428
-648.784	-200.000	0.010	-0.090
-647.770	53.091	-0.141	-0.136
-646.755	-150.026	-0.350	-0.028
-645.741	-126.021	0.181	0.028
-644.726	211.654	0.015	0.024
-643.711	-42.408	-0.204	-0.106
-642.697	18.002	-0.108	0.087
-641.682	-97.016	-0.234	-0.062
-640.668	75.889	0.069	-0.074
-639.653	-200.000	0.038	-0.260
-638.638	-87.249	-0.248	-0.076
-637.624	-15.579	-0.221	-0.143
-636.609	187.847	0.215	-0.325
-635.595	-200.000	-0.027	0.150
-634.580	58.873	-0.029	0.029
-633.565	230.127	-0.179	-0.297
-632.551	39.202	-0.159	0.144
-631.536	491.795	0.067	0.156
-630.522	-194.943	-0.066	-0.001
-629.507	-1.809	0.057	-0.041
-628.492	800.000	0.051	-0.220
-627.478	-200.000	-0.083	-0.378
-626.463	241.982	-0.061	0.104
-625.449	-200.000	0.003	0.197
-624.434	800.000	-0.052	0.154
-623.419	123.170	0.284	-0.360
-622.405	800.000	0.013	-0.053
-621.390	220.713	0.084	0.137
-620.376	410.019	0.074	-0.160
-619.361	431.577	-0.162	-0.355
-618.346	177.174	0.101	-0.150
-617.332	-16.132	-0.249	-0.160
-616.317	-111.067	0.224	0.047
-615.303	-172.688	0.121	0.004
-614.288	-89.462	0.388	0.115
-613.273	-122.879	-0.184	-0.030
-612.259	-25.711	-0.161	-0.096
-611.244	-167.871	0.258	-0.010
-610.230	101.428	0.145	-0.171
-609.215	344.483	0.087	-0.173
-608.201	-58.492	0.108	-0.048
-607.186	363.080	0.140	0.284
-606.171	167.871	0.126	-0.181
-605.157	800.000	0.030	0.108
-604.142	-19.342	0.095	0.059
-603.128	670.598	-0.083	-0.218
-602.113	637.054	-0.054	0.138
-601.098	76.872	-0.194	-0.208
-600.084	-82.926	-0.108	0.035
-599.069	-39.990	-0.312	0.165
-598.055	-184.660	-0.114	0.002
-597.040	248.635	-0.086	0.147
-596.025	-106.119	-0.266	-0.060
-595.011	-200.000	-0.024	0.291
-593.996	-200.000	0.033	0.198
-592.982	-200.000	-0.046	0.268
-591.967	128.722	0.221	0.285
-590.952	800.000	0.062	0.253
-589.938	182.030	0.247	0.368
-588.923	768.103	-0.163	-0.448
-587.909	-55.696	0.139	-0.063
-586.894	-82.348	-0.095	-0.031
-585.879	-200.000	-0.004	-0.149
-584.865	0.655	-0.101	0.073
-583.850	-135.557	-0.421	-0.051
-582.836	-95.182	-0.228	0.062
-581.821	-132.160	0.294	0.039
-580.806	344.043	-0.132	0.261
-579.792	-137.948	0.139	0.016
-578.777	94.567	0.260	0.299
-577.763	78.222	0.223	-0.241
-576.748	-200.000	0.001	-0.138
-575.733	-200.000	0.001	0.541
-574.719	282.881	0.119	-0.215
-573.704	239.933	0.147	-0.247
-572.690	-97.069	-0.289	0.076
-571.675	30.552	-0.160	0.138
-570.661	46.591	0.186	-0.175
-569.646	-60.210	0.079	-0.034
-568.631	-200.000	0.035	0.154
-567.617	-200.000	0.019	0.101
-566.602	118.078	-0.104	0.129
-565.588	118.736	0.084	0.105
-564.573	-143.708	-0.239	-0.023
-563.558	374.202	0.054	0.110
-562.544	41.584	-0.180	-0.165
-561.529	537.642	-0.055	0.132
-560.515	-200.000	-0.041	-0.195
-559.500	-200.000	0.040	-0.304
-558.485	800.000	-0.059	-0.256
-557.471	51.408	0.112	-0.108
-556.456	71.300	0.182	0.191
-555.442	140.921	0.179	-0.239
-554.427	-158.592	-0.242	-0.014
-553.412	-186.380	-0.035	-0.001
-552.398	-26.641	0.188	0.111
-551.383	-200.000	-0.016	0.084
-550.369	-89.806	0.033	0.010
-549.354	-75.275	0.152	0.055
-548.339	594.082	-0.095	0.238
-547.325	59.354	-0.213	-0.212
-546.310	-200.000	0.022	0.098
-545.296	-42.814	-0.265	0.136
-544.281	-158.051	0.253	-0.015
-543.266	-84.701	0.149	0.047
-542.252	-3.686	-0.169	0.119
-541.237	-82.395	-0.113	0.037
-540.223	41.583	0.115	-0.105
-539.208	-105.434	0.389	-0.089
-538.193	75.416	-0.109	-0.117
-537.179	800.000	0.125	0.370
-536.164	186.626	-0.015	0.023
-535.150	-200.000	-0.014	-0.133
-534.135	-104.034	0.284	0.067
-533.121	101.115	0.182	-0.214
-532.106	51.818	0.214	0.206
-531.091	72.452	0.163	0.172
-530.077	755.941	-0.077	0.210
-529.062	181.281	0.007	-0.010
-528.048	52.595	-0.077	-0.074
-527.033	519.718	-0.104	-0.247
-526.018	119.513	0.124	-0.155
-525.004	47.524	-0.067	0.063
-523.989	-21.772	-0.246	-0.151
-522.975	225.383	-0.062	-0.102
-521.960	-46.748	-0.054	-0.027
-520.945	-165.807	-0.131	-0.006
-519.931	46.986	-0.171	0.160
-518.916	800.000	-0.048	-0.146
-517.902	-53.514	0.108	0.050
-516.887	-108.331	-0.199	0.043
-515.872	800.000	-0.027	0.093
-514.858	106.849	0.071	0.085
-513.843	-31.791	0.046	-0.026
-512.829	303.178	-0.107	0.200
-511.814	-159.967	0.495	0.027
-510.799	800.000	0.052	-0.184
-509.785	-96.422	-0.215	-0.057
-508.770	10.896	-0.278	-0.214
-507.756	-46.823	0.312	0.154
-506.741	-30.175	0.347	-0.199
-505.726	-200.000	-0.025	-0.127
-504.712	-200.000	-0.086	-0.648
-503.697	-17.803	-0.252	-0.159
-502.683	-67.428	-0.315	0.125
-501.668	800.000	0.115	0.411
-500.653	-102.781	-0.173	-0.042
-499.639	-2.334	-0.152	-0.107
-498.624	99.622	0.031	0.036
-497.610	-129.077	0.266	0.038
-496.595	-67.187	0.132	0.052
-495.581	-48.596	0.102	-0.050
-494.566	-200.000	-0.019	-0.351
-493.551	143.971	-0.071	-0.096
-492.537	-63.871	-0.054	-0.022
-491.522	284.500	-0.039	0.070
-490.508	317.350	-0.136	0.259
-489.493	89.885	0.143	0.161
-488.478	103.497	-0.224	-0.265
-487.464	-53.846	-0.200	0.092
-486.449	-36.875	-0.253	0.137
-485.435	-12.140	-0.049	-0.032
-484.420	-29.712	0.256	0.147
-483.405	-200.000	-0.034	-0.350
-482.391	280.843	-0.090	0.163
-481.376	-16.455	-0.130	-0.083
-480.362	66.681	-0.244	0.250
-479.347	352.016	-0.135	0.269
-478.332	34.651	-0.093	0.082
-477.318	-112.778	0.335	-0.067
-476.303	-77.900	-0.318	-0.111
-475.289	800.000	0.066	-0.227
-474.274	-59.714	-0.272	-0.117
-473.259	-73.713	-0.205	0.075
-472.245	-167.772	0.177	0.007
-471.230	238.020	-0.031	-0.052
-470.216	-26.036	-0.207	-0.122
-469.201	-200.000	-0.028	-0.205
-468.186	34.134	-0.208	0.183
-467.172	-200.000	-0.022	-0.170
-466.157	8.636	-0.165	0.125
-465.143	165.529	0.173	0.247
-464.128	800.000	0.032	0.119
-463.113	-200.000	-0.046	0.256
-462.099	493.483	-0.110	-0.255
-461.084	161.372	0.139	-0.195
-460.070	-70.786	0.280	0.106
-459.055	-200.000	0.031	-0.138
-458.040	-167.828	-0.297	0.012
-457.026	-83.152	0.165	0.054
-456.011	-121.861	0.239	0.040
-454.997	40.982	0.217	0.197
-453.982	-69.311	0.241	0.093
-452.968	-161.903	-0.125	0.006
-451.953	91.998	-0.205	-0.233
-450.938	500.022	-0.102	-0.237
-449.924	507.613	-0.132	0.309
-448.909	174.740	0.122	-0.177
-447.895	-200.000	0.085	0.428
-446.880	-17.802	-0.163	0.103
-445.865	-200.000	0.005	0.196
-444.851	-54.655	-0.377	0.172
-443.836	-146.806	-0.178	-0.015
-442.822	-30.924	0.154	-0.088
-441.807	-173.993	0.173	0.005
-440.792	-173.408	-0.423	0.013
-439.778	-60.943	0.349	0.149
-438.763	800.000	0.019	-0.078
-437.749	-109.657	0.110	0.023
-436.734	-4.140	0.203	0.142
-435.719	-200.000	-0.035	-0.179
-434.705	403.581	0.100	0.212
-433.690	800.000	-0.140	0.452
-432.676	120.719	-0.033	0.042
-431.661	735.135	-0.064	0.171
-430.646	-114.209	-0.160	0.031
-429.632	-169.269	-0.234	-0.009
-428.617	127.196	-0.193	0.246
-427.603	-96.026	-0.328	0.088
-426.588	-200.000	0.028	-0.164
-425.573	-158.559	0.188	-0.011
-424.559	256.316	-0.134	-0.232
-423.544	800.000	-0.037	-0.153
-422.530	-125.889	-0.115	0.017
-421.515	-179.309	0.103	-0.002
-420.500	-200.000	-0.001	0.026
-419.486	95.565	0.041	0.047
-418.471	-181.882	0.210	-0.004
-417.457	-30.041	-0.226	-0.129
-416.442	37.744	0.143	-0.127
-415.428	60.208	-0.166	-0.165
-414.413	483.336	-0.060	-0.136
-413.398	-41.834	0.175	0.090
-412.384	-99.912	-0.412	-0.104
-411.369	51.557	0.325	0.311
-410.355	-16.645	-0.225	-0.143
-409.340	83.070	-0.175	-0.192
-408.325	-39.117	-0.159	-0.084
-407.311	800.000	-0.067	0.280
-406.296	429.614	-0.142	-0.309
-405.282	-55.416	0.084	-0.038
-404.267	-200.000	0.015	-0.367
-403.252	-53.276	0.422	-0.194
-402.238	64.212	-0.219	-0.222
-401.223	19.600	-0.183	0.148
-400.209	-200.000	0.002	-0.248
-399.194	800.000	0.089	-0.284
-398.179	-200.000	0.138	0.640
-397.165	-200.000	0.016	-0.179
-396.150	-60.554	-0.226	0.096
-395.136	-132.869	-0.179	0.023
-394.121	0.255	0.161	-0.116
-393.106	-0.475	-0.065	-0.046
-392.092	564.834	0.065	-0.159
-391.077	-168.460	-0.160	0.006
-390.063	-187.689	0.237	-0.003
-389.048	-44.163	0.258	0.130
-388.033	-26.946	0.140	0.082
-387.019	-200.000	0.005	0.237
-386.004	155.730	0.216	-0.298
-384.990	296.001	0.063	0.116
-383.975	29.782	0.068	0.058
-382.960	105.784	0.266	-0.316
-381.946	650.037	-0.067	-0.173
-380.931	52.472	0.203	0.194
-379.917	-128.737	-0.255	-0.036
-378.902	-200.000	-0.009	0.174
-377.888	112.665	-0.073	0.089
-376.873	110.114	-0.144	-0.174
-375.858	-200.000	-0.009	-0.204
-374.844	233.753	-0.110	-0.182
-373.829	166.237	0.143	0.204
-372.815	-11.782	-0.146	-0.096
-371.800	-107.641	-0.364	0.080
-370.785	-45.949	-0.122	-0.060
-369.771	-113.851	-0.153	0.030
-368.756	-65.123	-0.190	-0.077
-367.742	800.000	0.026	-0.108
-366.727	-125.555	-0.514	0.078
-365.712	-161.729	0.281	0.014
-364.698	-200.000	0.002	-0.430
-363.683	257.970	0.133	-0.230
-362.669	-200.000	-0.034	0.166
-361.654	800.000	-0.040	0.139
-360.639	754.155	0.067	0.182
-359.625	800.000	0.032	-0.117
-358.610	-9.922	-0.147	0.098
-357.596	240.758	0.059	-0.099
-356.581	138.784	-0.097	-0.128
-355.566	128.858	0.094	0.120
-354.552	-200.000	-0.005	0.297
-353.537	-139.129	0.391	0.042
-352.523	-8.055	0.085	-0.058
-351.508	-80.342	-0.174	-0.058
-350.493	-200.000	-0.006	-0.114
-349.479	11.802	0.092	0.071
-348.464	94.235	-0.074	-0.085
-347.450	-135.535	0.277	-0.033
-346.435	713.986	-0.125	0.332
-345.420	70.251	-0.120	-0.124
-344.406	800.000	0.108	0.311
-343.391	-124.043	0.082	0.013
-342.377	-43.543	0.332	-0.168
-341.362	-12.165	-0.330	-0.216
-340.348	-200.000	0.039	0.278
-339.333	-59.509	0.368	0.158
-338.318	22.984	-0.077	0.063
-337.304	91.008	-0.315	0.354
-336.289	200.293	0.162	-0.249
-335.275	-96.827	0.366	-0.096
-334.260	-67.583	0.229	0.090
-333.245	-115.568	-0.237	0.045
-332.231	-47.874	-0.106	-0.051
-331.216	44.208	0.027	0.024
-330.202	206.157	-0.100	-0.156
-329.187	-200.000	-0.016	0.216
-328.172	-200.000	-0.004	-0.118
-327.158	800.000	-0.094	0.325
-326.143	425.661	0.079	-0.170
-325.129	-60.132	-0.231	0.099
-324.114	-200.000	0.034	0.278
-323.099	-95.183	-0.080	-0.022
-322.085	28.940	0.206	0.175
-321.070	-185.003	0.121	0.002
-320.056	800.000	-0.099	-0.278
-319.041	-200.000	0.019	0.223
-318.026	-148.952	-0.231	-0.019
-317.012	-71.144	-0.112	0.042
-315.997	-154.119	0.200	0.014
-314.983	-81.809	0.054	0.018
-313.968	18.529	-0.134	-0.107
-312.953	224.148	-0.121	0.196
-311.939	-100.849	0.134	0.033
-310.924	-57.015	0.057	-0.025
-309.910	-132.549	-0.211	0.027
-308.895	36.813	-0.068	0.060
-307.880	800.000	-0.094	0.299
-306.866	-100.196	0.032	0.008
-305.851	-200.000	-0.003	-0.015
-304.837	-131.845	0.430	0.056
-303.822	25.433	0.126	-0.105
-302.807	291.123	0.053	0.096
-301.793	103.078	-0.144	0.169
-300.778	-98.354	0.455	0.117
-299.764	501.757	0.167	-0.387
-298.749	570.434	-0.037	-0.091
-297.735	-103.281	0.273	-0.064
-296.720	-94.674	-0.159	-0.043
-295.705	800.000	-0.085	0.324
-294.691	-98.056	0.117	0.030
-293.676	-122.202	0.243	-0.040
-292.662	-25.069	-0.221	-0.131
-291.647	-200.000	0.066	-0.305
-290.632	306.475	0.062	-0.115
-289.618	-50.343	0.275	0.130
-288.603	800.000	0.053	-0.178
-287.589	21.504	0.087	-0.071
-286.574	-54.139	0.081	0.037
-285.559	62.635	0.132	-0.132
-284.545	117.846	0.304	-0.374
-283.530	-200.000	-0.052	-0.345
-282.516	800.000	-0.044	-0.161
-281.501	-9.671	0.145	-0.097
-280.486	131.801	-0.133	0.171
-279.472	404.559	-0.112	0.235
-278.457	-95.663	-0.038	0.010
-277.443	-122.277	-0.297	0.049
-276.428	800.000	-0.062	-0.237
-275.413	-200.000	0.017	-0.120
-274.399	-78.717	0.239	0.081
-273.384	-200.000	0.005	-0.108
-272.370	-25.032	0.219	0.130
-271.355	-82.276	0.292	0.095
-270.340	800.000	0.062	0.232
-269.326	800.000	0.056	0.207
-268.311	-184.084	0.046	-0.001
-267.297	110.055	-0.070	0.084
-266.282	252.214	0.199	-0.339
-265.267	-200.000	0.003	0.062
-264.253	-173.689	0.397	0.012
-263.238	-106.230	0.229	0.051
-262.224	-121.725	-0.163	0.027
-261.209	-20.940	-0.060	0.036
-260.195	800.000	-0.048	-0.153
-259.180	-95.800	-0.264	0.070
-258.165	-138.553	0.168	0.018
-257.151	41.926	0.211	-0.191
-256.136	-200.000	-0.075	-0.370
-255.122	22.198	-0.188	-0.153
-254.107	115.539	-0.256	-0.313
-253.092	235.320	0.055	0.090
-252.078	94.333	0.022	0.024
-251.063	495.329	-0.091	-0.208
-250.049	800.000	-0.048	-0.185
-249.034	554.405	-0.123	-0.295
-248.019	-200.000	0.012	0.197
-247.005	-44.693	0.142	-0.071
-245.990	-200.000	0.005	-0.070
-244.976	610.095	0.014	-0.034
-243.961	800.000	0.042	-0.129
-242.946	-197.040	0.150	0.001
-241.932	-114.839	-0.199	0.038
-240.917	168.648	0.254	-0.362
-239.903	537.102	-0.045	0.107
-238.888	-200.000	-0.087	0.470
-237.873	-200.000	-0.049	0.411
-236.859	-200.000	0.078	0.390
-235.844	-196.354	0.235	0.002
-234.830	-200.000	-0.029	0.130
-233.815	800.000	-0.168	0.496
-232.800	-6.722	-0.176	-0.120
-231.786	58.011	-0.185	-0.181
-230.771	-200.000	0.008	0.097
-229.757	800.000	0.026	0.091
-228.742	112.456	-0.203	0.245
-227.727	800.000	-0.126	0.353
-226.713	-27.200	-0.097	-0.057
-225.698	-25.003	0.185	-0.109
-224.684	-200.000	0.056	-0.317
-223.669	-2.257	0.358	0.251
-222.655	-200.000	0.010	0.108
-221.640	-20.497	-0.222	0.136
-220.625	800.000	-0.096	0.320
-219.611	91.262	0.142	-0.159
-218.596	-42.990	0.324	0.164
-217.582	17.573	-0.270	-0.214
-216.567	308.768	-0.126	-0.235
-215.552	8.630	-0.054	0.041
-214.538	-200.000	0.046	-0.340
-213.523	4.258	0.133	-0.097
-212.509	37.641	-0.054	-0.048
-211.494	285.097	-0.068	-0.123
-210.479	291.852	0.178	0.324
-209.465	-0.061	-0.184	-0.131
-208.450	-31.980	0.116	-0.065
-207.436	-200.000	-0.001	-0.023
-206.421	-200.000	0.001	-0.243
-205.406	-151.997	-0.223	-0.016
-204.392	160.249	0.208	-0.289
-203.377	-62.131	0.106	0.044
-202.363	-96.467	0.276	-0.073
-201.348	116.893	0.005	-0.006
-200.333	-200.000	-0.013	-0.071
-199.319	18.018	-0.120	-0.095
-198.304	-200.000	-0.034	-0.262
-197.290	-111.253	0.211	-0.043
-196.275	-75.796	-0.384	-0.136
-195.260	800.000	-0.058	-0.227
-194.246	-21.795	-0.139	-0.084
-193.231	-123.498	-0.223	0.035
-192.217	-6.789	0.158	0.107
-191.202	-132.895	-0.195	0.025
-190.187	176.834	0.108	0.157
-189.173	-82.422	0.281	-0.091
-188.158	-77.558	0.176	-0.061
-187.144	224.980	0.203	0.328
-186.129	-200.000	-0.041	0.274
-185.114	-50.263	0.270	0.127
-184.100	-200.000	0.011	-0.087
-183.085	800.000	-0.010	-0.030
-182.071	45.963	0.214	0.197
-181.056	-200.000	-0.033	0.354
-180.042	-62.551	-0.308	-0.127
-179.027	532.996	0.126	0.296
-178.012	-200.000	-0.091	0.488
-176.998	225.677	-0.074	-0.120
-175.983	-168.266	0.203	0.008
-174.969	-120.687	0.272	0.046
-173.954	-121.052	-0.385	0.064
-172.939	-172.626	0.157	-0.005
-171.925	393.923	-0.130	-0.269
-170.910	392.789	-0.041	0.085
-169.896	-66.279	0.276	-0.110
-168.881	14.398	0.193	0.150
-167.866	45.970	-0.325	0.299
-166.852	800.000	0.122	0.462
-165.837	800.000	0.068	0.218
-164.823	-62.407	0.058	0.024
-163.808	22.578	0.221	-0.180
-162.793	-75.486	-0.378	-0.134
-161.779	-72.331	-0.321	0.118
-160.764	-0.348	0.272	0.192
-159.750	469.592	0.099	-0.222
-158.735	-5.679	0.044	-0.030
-157.720	-200.000	-0.060	-0.286
-156.706	48.612	-0.071	-0.067
-155.691	273.071	0.076	-0.133
-154.677	163.543	-0.202	-0.282
-153.662	-8.351	-0.216	-0.145
-152.647	-12.504	0.320	0.208
-151.633	202.833	0.329	0.505
-150.618	156.066	-0.032	-0.044
-149.604	800.000	-0.097	0.291
-148.589	227.690	-0.147	0.238
-147.574	-117.399	0.279	-0.050
-146.560	100.268	0.393	0.453
-145.545	5.086	0.196	0.143
-144.531	144.434	0.072	0.095
-143.516	-200.000	0.004	-0.297
-142.502	98.953	0.251	0.288
-141.487	154.824	0.220	-0.301
-140.472	131.422	-0.121	0.155
-139.458	27.763	-0.207	-0.173
-138.443	18.112	-0.062	-0.049
-137.429	-151.940	0.199	0.014
-136.414	262.166	-0.188	-0.323
-135.399	800.000	-0.155	-0.449
-134.385	195.791	-0.053	-0.080
-133.370	-8.420	0.232	-0.155
-132.356	682.327	-0.082	-0.211
-131.341	-123.246	0.282	0.045
-130.326	4.284	-0.072	-0.052
-129.312	6.244	0.267	-0.197
-128.297	-135.171	-0.444	-0.053
-127.283	244.071	0.161	-0.269
-126.268	-34.427	-0.103	0.056
-125.253	612.433	-0.021	0.053
-124.239	671.529	0.052	-0.134
-123.224	-35.276	0.117	0.063
-122.210	-200.000	-0.005	-0.059
-121.195	50.292	0.270	-0.253
