DTS Sentinel unit serial number:	SN413079Multiplexer serial number:	ORYXHardware model number:	OX4-SRSoftware version number:	ORYX F/W v4.00 Oryx Data Collector v3.7.2.0data status	okinstallation	princeton_trtdifferential loss correction	single-endedforward channel	channel 3reverse channel	N/Adate	2019/09/12time	19:21:04forward acquisition time	15.00reverse acquisition time	0.00gamma	496.2192k internal	0.2320k external	0.2320temperature offset calibration	1.0109default loss term (dB/km)	0.3790temperature slope calibration	1.0000multiplexer offset coefficient	1.0000multiplexer slope coefficient	1.0000fibre end	0.00T internal ref (°C)	32.37T ext. ref 1 (°C)	3.21T ext. ref 2 (°C)	26.97length (m)	temperature (°C)	Stokes	anti-Stokes-747.200	-103.761	-0.299	-0.071
-746.185	800.000	0.380	-1.292
-745.171	160.480	-0.350	0.494
-744.156	-101.550	-0.430	0.106
-743.142	197.075	0.297	-0.458
-742.127	800.000	0.191	0.709
-741.112	-133.772	0.328	-0.041
-740.098	800.000	-0.154	-0.492
-739.083	60.006	0.052	0.052
-738.069	117.629	0.511	0.635
-737.054	439.068	-0.359	-0.792
-736.039	269.041	0.302	0.536
-735.025	-147.818	-0.564	0.048
-734.010	200.070	0.320	0.497
-732.996	181.896	0.177	-0.263
-731.981	170.864	0.416	-0.603
-730.966	88.766	0.450	0.506
-729.952	-12.845	-0.810	0.533
-728.937	61.190	0.363	0.365
-727.923	-19.267	0.314	-0.197
-726.908	-95.466	0.214	0.058
-725.894	276.150	0.413	0.742
-724.879	-115.577	0.300	-0.057
-723.864	133.305	-0.528	0.690
-722.850	242.942	-0.360	-0.609
-721.835	125.985	-0.328	-0.418
-720.821	-23.208	0.346	0.210
-719.806	-39.281	-0.319	-0.169
-718.791	-53.675	0.405	0.187
-717.777	699.002	-0.246	0.654
-716.762	-49.402	-1.041	-0.502
-715.748	-200.000	-0.126	-0.881
-714.733	42.006	0.092	0.084
-713.718	-13.926	0.204	0.133
-712.704	104.533	-0.202	-0.241
-711.689	116.336	-0.443	0.548
-710.675	-90.835	-0.147	-0.043
-709.660	-100.006	-0.565	-0.142
-708.645	12.881	0.676	-0.528
-707.631	-200.000	-0.014	0.525
-706.616	-200.000	-0.032	-0.264
-705.602	-134.092	0.483	-0.060
-704.587	89.791	0.474	-0.535
-703.572	27.908	0.245	0.209
-702.558	800.000	0.112	0.479
-701.543	-82.444	-0.654	0.215
-700.529	-1.543	0.341	-0.243
-699.514	-81.524	-0.716	-0.238
-698.499	800.000	-0.082	-0.269
-697.485	-200.000	-0.078	-0.752
-696.470	800.000	-0.095	0.278
-695.456	-75.195	-0.293	0.106
-694.441	-200.000	-0.214	1.321
-693.426	-200.000	0.033	0.409
-692.412	140.598	0.002	-0.002
-691.397	-200.000	0.031	-0.334
-690.383	-200.000	0.213	-1.231
-689.368	154.145	-0.655	-0.907
-688.354	286.662	-0.330	-0.602
-687.339	-80.021	0.311	0.105
-686.324	800.000	-0.206	0.740
-685.310	800.000	0.347	-1.491
-684.295	38.920	-0.221	-0.200
-683.281	-200.000	0.015	0.102
-682.266	-137.568	0.878	-0.100
-681.251	-200.000	0.013	-0.061
-680.237	-26.164	0.291	-0.172
-679.222	-22.659	-0.934	0.570
-678.208	-98.490	-1.037	-0.267
-677.193	-184.854	0.316	0.005
-676.178	40.940	-0.240	0.219
-675.164	-13.191	-0.492	-0.322
-674.149	-48.526	0.223	-0.108
-673.135	5.423	0.539	0.401
-672.120	-19.074	-0.136	-0.085
-671.105	2.704	-0.465	0.340
-670.091	71.449	0.026	-0.027
-669.076	-99.935	-0.304	0.077
-668.062	97.887	0.526	0.611
-667.047	-103.398	0.515	-0.122
-666.032	18.241	-0.975	0.784
-665.018	194.725	0.109	-0.167
-664.003	-76.026	-0.278	-0.099
-662.989	105.082	-0.272	-0.323
-661.974	-78.419	0.258	-0.089
-660.959	64.054	-0.554	-0.562
-659.945	-131.807	0.398	0.052
-658.930	-82.689	0.280	-0.092
-657.916	104.912	0.230	-0.274
-656.901	-108.020	-0.349	-0.076
-655.886	590.706	-0.046	0.115
-654.872	62.677	-0.620	-0.625
-653.857	60.719	0.301	-0.301
-652.843	-200.000	0.064	0.428
-651.828	460.569	-0.179	-0.402
-650.814	116.153	0.325	-0.402
-649.799	-200.000	-0.117	-0.750
-648.784	194.286	0.320	-0.488
-647.770	66.457	0.092	-0.094
-646.755	-87.190	0.311	0.095
-645.741	-68.977	0.161	0.063
-644.726	2.533	0.286	-0.209
-643.711	-153.967	-0.724	-0.050
-642.697	746.105	-0.167	-0.453
-641.682	70.216	-0.292	0.304
-640.668	-200.000	-0.122	-0.799
-639.653	800.000	0.022	-0.080
-638.638	130.728	-0.538	0.695
-637.624	7.859	0.399	-0.301
-636.609	-16.250	0.367	-0.235
-635.595	-20.179	-0.131	-0.082
-634.580	118.714	0.462	-0.574
-633.565	-168.158	0.666	-0.026
-632.551	374.989	-0.290	-0.595
-631.536	0.462	-0.165	-0.119
-630.522	0.237	-0.428	0.307
-629.507	800.000	-0.068	-0.251
-628.492	-110.668	0.673	-0.140
-627.478	-200.000	0.047	0.314
-626.463	-82.119	0.309	0.102
-625.449	-200.000	-0.041	-0.441
-624.434	208.759	0.329	0.518
-623.419	-44.372	-0.901	0.454
-622.405	562.286	0.225	0.548
-621.390	37.585	-0.443	0.396
-620.376	222.864	0.312	-0.505
-619.361	124.004	0.442	0.558
-618.346	140.509	0.641	-0.852
-617.332	-200.000	-0.182	-0.895
-616.317	-75.552	-0.515	0.184
-615.303	31.618	-0.511	-0.442
-614.288	522.176	-0.387	0.915
-613.273	-200.000	0.018	-0.118
-612.259	800.000	-0.134	0.438
-611.244	-114.026	-0.240	0.047
-610.230	-74.957	-0.407	-0.147
-609.215	151.688	0.375	-0.513
-608.201	-31.339	-0.990	-0.561
-607.186	-48.472	0.596	-0.289
-606.171	800.000	0.072	0.310
-605.157	-200.000	0.059	-0.749
-604.142	222.335	-0.610	-0.988
-603.128	-26.506	-0.575	-0.339
-602.113	93.232	0.566	-0.644
-601.098	-134.203	-0.618	0.077
-600.084	-21.449	0.722	0.443
-599.069	35.174	0.477	-0.420
-598.055	243.855	-0.446	0.752
-597.040	-55.693	-0.116	-0.052
-596.025	349.725	-0.089	0.177
-595.011	-127.801	0.609	0.088
-593.996	96.405	0.413	-0.475
-592.982	-105.792	-0.324	-0.074
-591.967	-200.000	-0.045	-0.369
-590.952	-200.000	-0.016	0.841
-589.938	6.905	0.538	0.403
-588.923	485.306	-0.251	0.574
-587.909	-87.615	-0.605	0.184
-586.894	-145.588	-0.858	0.077
-585.879	-35.277	-0.355	-0.194
-584.865	567.782	0.581	-1.419
-583.850	-200.000	-0.090	0.645
-582.836	800.000	0.195	0.668
-581.821	76.175	0.467	-0.497
-580.806	-19.397	0.961	-0.599
-579.792	-18.240	0.389	0.245
-578.777	752.705	-0.292	0.793
-577.763	493.661	0.309	0.713
-576.748	-34.096	1.109	0.612
-575.733	150.482	0.519	-0.709
-574.719	-77.172	-0.377	0.132
-573.704	-60.411	0.274	0.117
-572.690	21.977	-0.413	0.339
-571.675	212.833	0.288	-0.456
-570.661	-29.843	-0.619	0.354
-569.646	-131.978	-0.307	0.040
-568.631	-152.649	-0.612	0.044
-567.617	800.000	-0.104	-0.343
-566.602	342.288	0.125	-0.246
-565.588	-10.303	-0.317	0.211
-564.573	-200.000	0.006	-0.084
-563.558	-42.696	-0.273	0.139
-562.544	800.000	-0.138	-0.602
-561.529	-74.765	-0.348	-0.125
-560.515	44.828	0.315	0.291
-559.500	-200.000	0.003	0.547
-558.485	-108.674	-0.608	-0.131
-557.471	52.362	-0.183	-0.175
-556.456	800.000	-0.185	-0.606
-555.442	-32.514	-0.668	-0.374
-554.427	297.987	0.344	0.634
-553.412	-16.658	-0.118	0.075
-552.398	800.000	0.152	-0.464
-551.383	-140.862	-0.936	0.097
-550.369	49.155	-0.374	0.353
-549.354	768.313	0.236	-0.645
-548.339	800.000	-0.008	-0.033
-547.325	-200.000	0.033	0.808
-546.310	23.691	-0.360	0.297
-545.296	-27.879	-0.599	0.348
-544.281	-58.865	-0.583	0.253
-543.266	-200.000	-0.033	0.342
-542.252	-200.000	0.094	1.316
-541.237	-200.000	-0.004	0.151
-540.223	195.068	0.229	-0.349
-539.208	-66.845	-0.732	0.291
-538.193	-77.366	-0.469	-0.163
-537.179	-30.340	-0.297	0.169
-536.164	299.448	-0.436	0.806
-535.150	800.000	0.196	-0.694
-534.135	-108.072	-0.560	0.122
-533.121	83.382	-0.403	0.441
-532.106	178.884	0.128	-0.187
-531.091	-47.828	0.226	0.110
-530.077	21.612	0.552	0.451
-529.062	134.598	0.575	-0.748
-528.048	-200.000	0.039	-0.278
-527.033	800.000	-0.202	-0.702
-526.018	-68.710	-0.231	0.090
-525.004	-200.000	0.053	-0.575
-523.989	120.938	0.603	-0.751
-522.975	55.336	0.225	0.218
-521.960	-199.969	-0.876	-0.004
-520.945	69.350	-0.388	0.400
-519.931	-20.762	0.466	-0.287
-518.916	-134.413	-0.928	0.114
-517.902	-153.730	0.080	-0.005
-516.887	800.000	0.191	-0.648
-515.872	-200.000	-0.193	1.145
-514.858	-127.356	-0.381	0.056
-513.843	20.987	0.608	0.494
-512.829	227.949	0.407	-0.664
-511.814	2.562	0.708	0.514
-510.799	99.280	0.452	0.524
-509.785	-200.000	-0.011	0.446
-508.770	-200.000	-0.089	-0.397
-507.756	-131.208	-0.180	-0.024
-506.741	-90.189	0.768	-0.224
-505.726	-30.997	-0.663	0.375
-504.712	-54.483	-0.179	-0.081
-503.697	-200.000	-0.050	0.372
-502.683	79.542	0.188	0.202
-501.668	-101.488	-0.506	-0.123
-500.653	56.993	0.309	-0.302
-499.639	226.993	0.121	-0.197
-498.624	-65.225	0.738	0.298
-497.610	-150.457	0.606	-0.047
-496.595	471.101	0.161	0.362
-495.581	-120.172	0.595	-0.102
-494.566	99.516	-0.620	-0.719
-493.551	185.473	0.151	-0.224
-492.537	16.449	0.541	-0.428
-491.522	22.243	-0.430	0.352
-490.508	-200.000	-0.014	0.087
-489.493	-110.529	0.627	0.130
-488.478	-200.000	0.146	0.888
-487.464	-42.191	-1.190	0.609
-486.449	-7.692	0.489	0.331
-485.435	-101.466	0.726	0.177
-484.420	390.168	-0.281	-0.584
-483.405	-59.786	-0.629	0.270
-482.391	308.114	-0.118	-0.220
-481.376	-200.000	0.011	0.185
-480.362	32.060	-0.646	0.557
-479.347	800.000	-0.132	-0.378
-478.332	62.970	-0.465	-0.466
-477.318	100.154	0.147	0.171
-476.303	-200.000	-0.000	0.546
-475.289	-158.646	-0.922	-0.053
-474.274	-198.723	0.353	-0.002
-473.259	-88.237	0.546	-0.164
-472.245	800.000	0.155	-0.509
-471.230	800.000	-0.075	0.227
-470.216	-5.295	-0.451	0.310
-469.201	-123.061	-0.279	-0.045
-468.186	22.541	-0.492	0.402
-467.172	130.493	0.567	-0.727
-466.157	85.605	0.209	-0.229
-465.143	142.672	-0.512	-0.681
-464.128	-140.020	0.502	0.053
-463.113	-134.728	-0.528	-0.064
-462.099	-44.368	-0.317	0.159
-461.084	342.257	0.218	0.427
-460.070	134.476	0.301	0.390
-459.055	156.503	0.473	0.653
-458.040	33.846	-0.608	0.529
-457.026	130.248	0.299	0.382
-456.011	5.662	-0.236	-0.174
-454.997	-200.000	-0.043	0.279
-453.982	-169.283	0.568	-0.021
-452.968	-81.567	0.998	0.328
-451.953	-200.000	-0.028	-0.146
-450.938	-57.555	-0.523	-0.229
-449.924	-200.000	0.139	-0.873
-448.909	800.000	0.081	-0.296
-447.895	-123.938	0.254	-0.040
-446.880	310.150	-0.145	-0.271
-445.865	-200.000	0.006	0.192
-444.851	800.000	0.174	0.549
-443.836	194.115	-0.584	0.884
-442.822	-46.993	-0.535	-0.261
-441.807	-200.000	-0.017	-1.177
-440.792	289.840	-0.388	-0.703
-439.778	-28.484	0.288	-0.166
-438.763	-13.237	-0.694	0.450
-437.749	-136.796	0.555	0.064
-436.734	2.383	0.252	0.182
-435.719	-200.000	-0.027	-0.310
-434.705	527.492	0.069	-0.162
-433.690	251.291	0.340	0.578
-432.676	-200.000	0.014	0.272
-431.661	756.282	0.089	-0.241
-430.646	-168.200	0.271	0.010
-429.632	683.848	0.229	0.597
-428.617	800.000	-0.374	-1.317
-427.603	-182.184	0.444	0.008
-426.588	111.087	0.624	0.751
-425.573	758.369	0.205	0.555
-424.559	-149.545	0.479	-0.038
-423.544	-120.342	0.507	0.086
-422.530	-93.980	-0.505	-0.139
-421.515	-166.284	0.635	-0.027
-420.500	234.201	0.198	0.326
-419.486	-200.000	-0.538	-0.002
-418.471	15.770	-0.329	-0.258
-417.457	51.889	0.123	-0.117
-416.442	107.528	0.465	0.552
-415.428	-60.017	-0.302	-0.129
-414.413	439.005	-0.068	-0.148
-413.398	-158.498	0.558	0.032
-412.384	55.245	-0.266	0.256
-411.369	-14.209	-0.511	0.329
-410.355	-163.363	0.619	-0.029
-409.340	-200.000	0.077	-0.886
-408.325	-200.000	0.089	0.813
-407.311	111.008	0.235	-0.282
-406.296	-78.921	-0.344	-0.117
-405.282	-133.284	0.761	0.096
-404.267	66.293	0.147	-0.149
-403.252	-152.961	-0.824	-0.058
-402.238	-131.554	-0.515	-0.068
-401.223	-121.422	-0.621	0.103
-400.209	-200.000	-0.029	-0.191
-399.194	559.370	-0.211	0.509
-398.179	277.999	-0.437	0.776
-397.165	212.104	0.384	0.603
-396.150	-70.948	0.703	-0.264
-395.136	1.147	0.513	0.367
-394.121	-200.000	0.083	-0.837
-393.106	-198.235	-0.738	0.004
-392.092	-200.000	0.052	-0.943
-391.077	101.457	-0.338	-0.392
-390.063	-80.013	0.251	0.084
-389.048	88.890	-0.794	0.882
-388.033	800.000	-0.253	1.011
-387.019	8.756	-0.236	0.177
-386.004	-134.386	0.778	0.095
-384.990	-200.000	-0.076	-0.393
-383.975	-156.302	-0.369	0.023
-382.960	-112.243	-0.537	0.107
-381.946	400.038	0.336	-0.701
-380.931	800.000	-0.182	0.730
-379.917	-44.650	-0.322	0.160
-378.902	753.431	0.229	0.618
-377.888	-78.386	-0.285	0.098
-376.873	-200.000	-0.065	0.562
-375.858	131.101	-0.091	-0.117
-374.844	-67.133	0.888	0.349
-373.829	-22.111	-0.169	-0.102
-372.815	-55.500	-1.266	0.565
-371.800	545.365	0.395	0.941
-370.785	-44.200	0.477	-0.238
-369.771	-200.000	0.156	-0.911
-368.756	60.353	0.401	0.395
-367.742	57.592	0.121	-0.118
-366.727	800.000	0.011	-0.033
-365.712	-107.528	0.132	-0.029
-364.698	-153.152	0.345	-0.024
-363.683	-200.000	0.113	-0.770
-362.669	306.049	-0.605	-1.121
-361.654	-10.254	1.214	0.802
-360.639	110.411	-0.278	-0.332
-359.625	180.038	-0.563	-0.822
-358.610	120.790	-0.352	-0.436
-357.596	-163.557	-0.685	-0.032
-356.581	12.554	0.296	-0.228
-355.566	-131.420	0.344	-0.045
-354.552	-51.075	-0.249	-0.116
-353.537	-116.592	0.254	0.047
-352.523	-200.000	-0.150	-0.855
-351.508	-17.099	-0.379	0.238
-350.493	800.000	0.057	-0.174
-349.479	639.022	0.170	-0.430
-348.464	-31.212	0.877	-0.492
-347.450	800.000	-0.116	-0.340
-346.435	90.916	0.300	-0.335
-345.420	58.618	0.389	-0.381
-344.406	14.651	0.251	0.195
-343.391	-98.972	-0.581	-0.147
-342.377	101.023	-0.169	-0.195
-341.362	-200.000	0.075	-0.328
-340.348	368.139	0.248	-0.498
-339.333	-200.000	0.083	-0.373
-338.318	-200.000	-0.024	0.610
-337.304	-111.251	0.467	-0.095
-336.289	800.000	0.160	0.523
-335.275	-38.532	0.894	-0.470
-334.260	-92.924	-0.550	-0.153
-333.245	-11.830	-0.612	-0.400
-332.231	-160.902	-0.576	0.030
-331.216	-61.687	-1.077	0.449
-330.202	240.121	-0.257	0.426
-329.187	-200.000	-0.001	0.664
-328.172	296.115	0.397	0.725
-327.158	-200.000	-0.072	0.442
-326.143	-200.000	-0.050	-0.525
-325.129	11.160	0.397	0.302
-324.114	612.855	0.128	-0.319
-323.099	-137.773	0.681	-0.076
-322.085	134.694	0.267	-0.345
-321.070	43.185	0.190	0.172
-320.056	-200.000	0.039	0.242
-319.041	-200.000	-0.083	0.692
-318.026	-132.759	-0.647	0.082
-317.012	800.000	0.282	0.863
-315.997	800.000	-0.177	0.730
-314.983	-117.026	-0.701	0.127
-313.968	242.798	-0.127	0.212
-312.953	612.638	-0.230	-0.573
-311.939	-35.300	-0.483	0.262
-310.924	-148.060	0.390	0.032
-309.910	-110.097	0.865	-0.180
-308.895	66.295	-0.280	-0.283
-307.880	-134.557	0.513	-0.062
-306.866	787.493	-0.175	0.477
-305.851	-135.561	0.333	0.039
-304.837	582.442	-0.071	0.174
-303.822	146.744	-0.190	0.254
-302.807	-38.182	0.655	-0.345
-301.793	-60.986	-0.887	0.372
-300.778	354.440	0.209	0.413
-299.764	-11.460	0.270	0.176
-298.749	67.226	0.473	-0.479
-297.735	-153.744	0.434	0.030
-296.720	468.240	0.245	-0.546
-295.705	-200.000	0.017	0.552
-294.691	-200.000	-0.014	0.633
-293.676	266.487	0.161	0.279
-292.662	-200.000	0.064	-0.408
-291.647	-31.047	-1.313	0.736
-290.632	-44.396	0.517	-0.257
-289.618	341.147	-0.288	-0.558
-288.603	-200.000	0.097	0.868
-287.589	329.477	-0.150	0.286
-286.574	201.155	-0.485	-0.741
-285.559	800.000	0.056	0.159
-284.545	-77.306	0.591	0.204
-283.530	108.438	-0.366	-0.434
-282.516	19.177	0.300	-0.239
-281.501	58.273	-0.700	0.681
-280.486	-47.632	-0.580	-0.279
-279.472	34.125	0.360	-0.311
-278.457	87.336	-0.355	-0.389
-277.443	-2.931	-0.443	0.307
-276.428	-200.000	-0.059	-0.395
-275.413	-66.168	0.386	0.153
-274.399	-65.913	0.355	0.141
-273.384	-13.919	-0.290	-0.186
-272.370	-164.948	-0.640	-0.028
-271.355	-58.127	0.697	-0.302
-270.340	-15.954	0.265	0.168
-269.326	305.481	0.553	-1.020
-268.311	66.291	0.350	0.353
-267.297	277.405	-0.092	-0.162
-266.282	800.000	0.153	-0.458
-265.267	800.000	0.154	0.592
-264.253	168.374	0.695	-0.983
-263.238	32.760	-0.428	0.367
-262.224	50.193	-0.337	0.316
-261.209	693.976	0.191	0.496
-260.195	-118.344	0.474	-0.084
-259.180	403.401	0.313	-0.652
-258.165	120.825	-0.610	-0.752
-257.151	-200.000	-0.063	0.697
-256.136	-200.000	-0.029	-0.129
-255.122	-200.000	-0.055	-0.559
-254.107	431.866	-0.078	0.169
-253.092	69.420	-0.031	-0.032
-252.078	-42.506	0.753	-0.381
-251.063	-84.110	0.734	-0.231
-250.049	-128.482	-0.754	-0.106
-249.034	-200.000	-0.087	0.832
-248.019	301.022	0.156	-0.285
-247.005	96.397	0.533	-0.605
-245.990	-73.327	0.886	-0.321
-244.976	-200.000	0.018	-0.218
-243.961	-200.000	0.031	-0.310
-242.946	-200.000	-0.144	-0.658
-241.932	-91.801	-0.419	-0.118
-240.917	800.000	-0.056	0.229
-239.903	-1.624	-0.817	0.571
-238.888	83.631	0.650	0.702
-237.873	800.000	0.321	-0.928
-236.859	-6.365	-0.590	-0.399
-235.844	67.766	0.175	-0.177
-234.830	-68.744	-0.560	0.215
-233.815	-200.000	-0.019	-0.356
-232.800	-9.778	0.338	0.223
-231.786	-156.961	1.006	0.061
-230.771	-147.666	-0.883	-0.074
-229.757	-31.556	0.173	0.096
-228.742	800.000	-0.067	-0.284
-227.727	-124.004	0.742	0.116
-226.713	156.686	0.208	0.285
-225.698	1.173	-0.488	-0.347
-224.684	-200.000	0.042	0.297
-223.669	-173.850	-0.266	0.008
-222.655	-41.515	-1.091	-0.556
-221.640	-72.129	0.343	0.126
-220.625	14.506	0.166	0.129
-219.611	76.384	0.256	-0.269
-218.596	-33.120	0.164	0.090
-217.582	-200.000	-0.031	-0.175
-216.567	-50.212	0.571	0.268
-215.552	528.009	-0.321	0.751
-214.538	800.000	0.094	-0.340
-213.523	-9.916	0.172	0.113
-212.509	-173.006	0.469	0.014
-211.494	352.369	0.265	0.520
-210.479	18.752	0.724	-0.574
-209.465	-71.369	-0.619	-0.230
-208.450	-139.766	0.628	0.066
-207.436	41.035	0.322	0.288
-206.421	-192.413	-0.320	-0.003
-205.406	47.447	0.400	0.369
-204.392	800.000	0.136	0.412
-203.377	-94.997	-0.307	0.082
-202.363	800.000	-0.263	0.935
-201.348	-106.534	0.222	0.049
-200.333	800.000	-0.167	0.598
-199.319	-81.251	0.570	0.186
-198.304	-200.000	0.082	-0.637
-197.290	-41.744	0.897	0.455
-196.275	-200.000	-0.110	0.702
-195.260	361.623	0.257	-0.511
-194.246	248.158	-0.124	0.207
-193.231	800.000	-0.096	-0.361
-192.217	327.656	-0.332	0.631
-191.202	49.770	-0.260	0.242
-190.187	-108.026	0.515	-0.111
-189.173	465.748	-0.100	-0.221
-188.158	-48.052	0.734	-0.351
-187.144	-93.818	0.881	-0.240
-186.129	54.163	-0.015	0.014
-185.114	-200.000	-0.067	0.347
-184.100	23.124	0.161	-0.131
-183.085	300.266	-0.027	0.049
-182.071	-145.218	0.426	0.038
-181.056	21.020	0.284	-0.228
-180.042	-43.746	0.296	-0.147
-179.027	523.188	-0.366	-0.851
-178.012	-200.000	0.034	-0.409
-176.998	103.702	-0.667	0.774
-175.983	126.924	-0.144	-0.180
-174.969	-150.890	-0.825	-0.062
-173.954	-102.583	0.579	-0.137
-172.939	-30.514	-0.517	0.290
-171.925	-24.083	0.502	-0.297
-170.910	-179.964	-0.599	-0.013
-169.896	-56.505	-0.395	-0.173
-168.881	-96.699	-0.381	-0.099
-167.866	-6.933	-0.417	0.280
-166.852	-18.487	-0.086	-0.053
-165.837	496.935	-0.073	-0.165
-164.823	-168.540	0.201	0.008
-163.808	-47.570	0.218	-0.105
-162.793	115.712	-0.422	-0.511
-161.779	-200.000	-0.133	-0.722
-160.764	-200.000	-0.108	0.640
-159.750	-136.648	-0.558	0.064
-158.735	-134.827	0.230	-0.028
-157.720	-128.828	-0.167	-0.023
-156.706	227.154	-0.735	1.180
-155.691	339.597	0.453	-0.873
-154.677	515.762	0.335	0.774
-153.662	-21.175	-0.136	0.082
-152.647	75.503	-0.286	-0.298
-151.633	0.171	-0.636	-0.448
-150.618	157.270	0.320	-0.437
-149.604	-200.000	0.056	-0.805
-148.589	54.023	0.818	-0.777
-147.574	17.250	-0.394	0.309
-146.560	22.434	0.379	0.306
-145.545	-169.458	-0.737	-0.027
-144.531	82.758	0.423	0.454
-143.516	411.239	0.308	0.645
-142.502	214.658	0.368	0.576
-141.487	-63.819	0.803	0.325
-140.472	800.000	-0.119	0.455
-139.458	-200.000	0.119	0.622
-138.443	-77.600	0.536	0.183
-137.429	-178.258	0.392	0.009
-136.414	-200.000	-0.109	0.522
-135.399	-200.000	0.132	-0.718
-134.385	-99.407	-1.162	-0.289
-133.370	278.436	-0.388	0.682
-132.356	800.000	-0.080	-0.260
-131.341	-191.379	-0.420	-0.004
-130.326	-41.216	0.766	0.390
-129.312	-117.238	-0.216	-0.039
-128.297	-200.000	-0.029	0.316
-127.283	-60.383	-0.334	0.140
-126.268	800.000	0.244	1.053
-125.253	329.776	0.294	-0.558
-124.239	-76.262	-0.471	-0.164
-123.224	-20.699	0.371	-0.225
-122.210	-200.000	0.071	-0.546
-121.195	341.753	0.510	0.984
