DTS Sentinel unit serial number:	SN413079Multiplexer serial number:	ORYXHardware model number:	OX4-SRSoftware version number:	ORYX F/W v4.00 Oryx Data Collector v3.7.2.0data status	okinstallation	princeton_trtdifferential loss correction	single-endedforward channel	channel 3reverse channel	N/Adate	2019/09/11time	01:54:11forward acquisition time	60.00reverse acquisition time	0.00gamma	496.2192k internal	0.2332k external	0.2332temperature offset calibration	0.9918default loss term (dB/km)	0.3790temperature slope calibration	1.0000multiplexer offset coefficient	1.0000multiplexer slope coefficient	1.0000fibre end	0.00T internal ref (°C)	29.19T ext. ref 1 (°C)	-0.31T ext. ref 2 (°C)	23.41length (m)	temperature (°C)	Stokes	anti-Stokes-747.200	800.000	0.039	-0.141
-746.185	-46.115	0.427	0.211
-745.171	-35.379	0.260	-0.142
-744.156	800.000	0.067	0.243
-743.142	-110.541	0.444	0.092
-742.127	53.365	-0.330	0.318
-741.112	-24.825	-0.072	-0.043
-740.098	-200.000	-0.024	0.227
-739.083	-7.968	0.300	-0.203
-738.069	800.000	-0.048	0.138
-737.054	97.460	0.183	0.211
-736.039	11.979	-0.268	-0.207
-735.025	-200.000	-0.006	0.281
-734.010	-64.098	-0.170	-0.070
-732.996	-3.517	-0.255	-0.178
-731.981	-200.000	-0.036	0.321
-730.966	229.866	0.136	-0.224
-729.952	3.483	-0.287	-0.210
-728.937	190.764	-0.161	-0.243
-727.923	16.293	-0.333	-0.264
-726.908	-32.682	0.426	-0.238
-725.894	-34.824	-0.327	-0.180
-724.879	-1.791	-0.102	0.072
-723.864	-1.140	0.118	-0.084
-722.850	-10.282	-0.172	0.114
-721.835	133.967	0.242	0.315
-720.821	157.968	-0.113	-0.158
-719.806	-200.000	-0.005	0.050
-718.791	-165.805	0.262	0.011
-717.777	-124.239	-0.190	-0.030
-716.762	3.436	-0.151	0.110
-715.748	136.581	0.059	-0.077
-714.733	764.955	0.121	-0.331
-713.718	767.039	-0.055	-0.150
-712.704	769.658	-0.124	0.339
-711.689	-136.852	-0.136	-0.016
-710.675	-200.000	0.012	-0.071
-709.660	800.000	0.011	0.029
-708.645	96.918	-0.346	-0.398
-707.631	-200.000	0.051	-0.258
-706.616	-25.765	0.116	0.069
-705.602	-29.608	0.309	0.177
-704.587	-85.995	-0.250	0.078
-703.572	398.295	-0.093	-0.196
-702.558	-200.000	0.019	-0.115
-701.543	-200.000	0.016	0.238
-700.529	172.957	0.283	0.409
-699.514	13.559	0.285	-0.222
-698.499	-94.364	-0.033	0.009
-697.485	513.490	-0.084	-0.196
-696.470	156.986	-0.047	0.065
-695.456	12.882	-0.053	-0.041
-694.441	800.000	0.026	0.111
-693.426	-70.946	0.113	-0.043
-692.412	-29.900	-0.057	0.033
-691.397	-200.000	0.002	-0.226
-690.383	277.076	-0.014	0.025
-689.368	31.163	0.090	-0.077
-688.354	-170.086	0.027	-0.001
-687.339	152.710	0.124	0.170
-686.324	-129.156	0.282	0.040
-685.310	-200.000	0.032	-0.287
-684.295	800.000	-0.050	-0.185
-683.281	-200.000	-0.034	-0.267
-682.266	800.000	-0.079	-0.309
-681.251	-200.000	-0.002	0.200
-680.237	800.000	-0.036	-0.117
-679.222	-200.000	0.001	0.264
-678.208	175.623	0.148	0.215
-677.193	-128.453	0.115	-0.016
-676.178	-69.241	-0.228	0.088
-675.164	10.324	0.099	0.075
-674.149	-200.000	0.062	-0.593
-673.135	-200.000	-0.032	-0.280
-672.120	-6.597	0.074	-0.050
-671.105	-97.308	0.300	0.079
-670.091	-200.000	-0.026	-0.126
-669.076	-171.578	0.519	-0.017
-668.062	-200.000	-0.016	-0.301
-667.047	193.984	0.116	-0.176
-666.032	-133.836	-0.114	0.014
-665.018	260.070	0.090	-0.157
-664.003	-43.743	-0.103	0.052
-662.989	-200.000	-0.007	-0.044
-661.974	544.198	-0.095	0.227
-660.959	-95.915	0.237	0.063
-659.945	-200.000	-0.016	-0.133
-658.930	-200.000	-0.002	0.269
-657.916	-18.858	-0.238	0.148
-656.901	15.031	-0.193	0.151
-655.886	-200.000	0.025	-0.211
-654.872	-200.000	-0.039	0.265
-653.857	-91.444	0.104	-0.030
-652.843	353.987	-0.070	0.140
-651.828	-22.259	0.203	-0.123
-650.814	-154.224	-0.441	-0.030
-649.799	373.548	-0.272	-0.555
-648.784	124.481	-0.073	-0.092
-647.770	-103.857	0.128	0.030
-646.755	-132.093	-0.099	-0.013
-645.741	-144.134	0.240	0.022
-644.726	-200.000	-0.016	0.306
-643.711	800.000	-0.028	-0.085
-642.697	800.000	-0.062	-0.205
-641.682	-48.184	0.111	0.053
-640.668	-200.000	-0.009	-0.128
-639.653	99.934	0.180	0.209
-638.638	4.668	0.122	0.090
-637.624	80.696	-0.022	-0.024
-636.609	-48.330	0.312	-0.151
-635.595	306.549	0.143	0.267
-634.580	-200.000	-0.011	0.132
-633.565	86.410	-0.142	-0.157
-632.551	155.904	0.141	-0.195
-631.536	-101.617	-0.283	0.069
-630.522	-171.299	0.332	-0.011
-629.507	-200.000	-0.006	-0.068
-628.492	-29.944	-0.495	0.282
-627.478	480.622	-0.043	0.098
-626.463	116.636	-0.130	0.159
-625.449	2.652	0.149	0.108
-624.434	-148.462	-0.168	0.014
-623.419	-68.790	-0.173	0.067
-622.405	41.761	0.034	0.031
-621.390	-27.690	-0.170	0.099
-620.376	-200.000	0.036	-0.184
-619.361	312.259	-0.164	0.308
-618.346	800.000	-0.033	-0.115
-617.332	-90.803	0.308	0.089
-616.317	-200.000	-0.041	-0.217
-615.303	800.000	0.037	-0.114
-614.288	138.068	-0.128	-0.168
-613.273	-170.657	-0.199	0.007
-612.259	109.397	-0.147	-0.176
-611.244	183.298	-0.302	-0.446
-610.230	1.622	-0.296	-0.213
-609.215	15.703	0.150	-0.118
-608.201	-21.755	-0.233	0.142
-607.186	-58.681	0.303	0.131
-606.171	396.384	0.085	-0.177
-605.157	-94.244	-0.218	0.060
-604.142	-66.925	-0.102	-0.041
-603.128	-21.570	-0.326	0.199
-602.113	-101.647	-0.235	-0.057
-601.098	-51.741	0.040	0.019
-600.084	-200.000	0.066	0.304
-599.069	26.014	0.123	-0.102
-598.055	800.000	-0.058	0.223
-597.040	-77.101	0.170	-0.059
-596.025	-29.983	0.273	-0.156
-595.011	-71.368	-0.114	-0.043
-593.996	-59.331	0.069	0.029
-592.982	23.600	0.148	-0.122
-591.967	-200.000	-0.009	-0.446
-590.952	116.246	0.151	-0.186
-589.938	231.371	-0.214	-0.351
-588.923	37.097	0.155	0.137
-587.909	99.434	0.105	-0.122
-586.894	29.077	-0.305	0.259
-585.879	156.689	0.241	0.333
-584.865	-63.535	-0.192	0.079
-583.850	-1.072	-0.285	-0.202
-582.836	-200.000	0.052	-0.263
-581.821	170.441	-0.094	-0.134
-580.806	218.273	-0.096	-0.154
-579.792	-75.418	0.116	-0.041
-578.777	-51.206	-0.177	0.083
-577.763	800.000	0.074	-0.213
-576.748	800.000	0.130	0.562
-575.733	-200.000	-0.048	-0.226
-574.719	-200.000	-0.062	-0.348
-573.704	304.600	-0.091	0.169
-572.690	-94.280	0.126	0.034
-571.675	578.350	0.063	-0.154
-570.661	-44.019	-0.526	-0.264
-569.646	-17.505	0.341	0.214
-568.631	56.566	0.084	-0.082
-567.617	800.000	-0.072	-0.278
-566.602	-200.000	0.038	0.195
-565.588	-38.004	-0.137	0.073
-564.573	7.626	-0.198	-0.148
-563.558	-76.354	-0.335	0.118
-562.544	11.909	-0.125	0.096
-561.529	-49.417	0.120	0.057
-560.515	229.642	-0.136	-0.223
-559.500	-77.152	0.328	0.114
-558.485	-200.000	-0.031	0.153
-557.471	-200.000	0.036	0.574
-556.456	-40.505	0.199	0.103
-555.442	800.000	0.044	-0.123
-554.427	25.066	0.063	-0.052
-553.412	800.000	0.005	0.015
-552.398	-199.814	-0.163	0.001
-551.383	44.685	-0.285	0.262
-550.369	340.264	0.046	0.090
-549.354	-200.000	-0.030	0.160
-548.339	34.530	-0.145	0.127
-547.325	-200.000	0.022	-0.374
-546.310	-79.758	-0.356	-0.120
-545.296	-69.712	-0.057	-0.022
-544.281	-116.168	-0.409	-0.076
-543.266	416.593	-0.136	-0.289
-542.252	-23.851	0.157	-0.094
-541.237	-27.431	-0.233	0.135
-540.223	370.793	0.105	-0.213
-539.208	-200.000	-0.049	-0.330
-538.193	800.000	-0.022	-0.070
-537.179	-71.461	0.300	0.112
-536.164	168.283	-0.122	-0.174
-535.150	110.161	0.288	-0.345
-534.135	95.735	-0.232	0.265
-533.121	225.901	0.134	-0.216
-532.106	-17.335	0.347	0.218
-531.091	320.015	0.063	-0.119
-530.077	-166.287	0.129	0.005
-529.062	206.918	0.149	0.232
-528.048	462.597	0.007	0.016
-527.033	-200.000	0.033	-0.224
-526.018	73.834	-0.183	0.192
-525.004	-53.419	0.268	-0.122
-523.989	-200.000	-0.067	-0.321
-522.975	77.350	0.064	-0.067
-521.960	-200.000	-0.029	-0.146
-520.945	-50.756	-0.031	-0.014
-519.931	-117.717	0.143	0.026
-518.916	629.386	0.091	0.229
-517.902	-11.106	0.194	0.128
-516.887	-66.243	0.339	-0.135
-515.872	-106.802	-0.098	0.022
-514.858	-200.000	-0.015	-0.573
-513.843	-28.451	0.487	-0.280
-512.829	416.133	-0.090	0.191
-511.814	-38.850	-0.338	0.178
-510.799	6.040	0.022	0.016
-509.785	-141.624	-0.197	0.020
-508.770	-28.187	0.419	-0.241
-507.756	720.407	-0.104	-0.277
-506.741	116.755	0.048	-0.059
-505.726	599.553	0.027	-0.066
-504.712	800.000	0.044	-0.133
-503.697	-5.892	0.194	-0.133
-502.683	-103.522	0.081	-0.019
-501.668	-200.000	0.047	0.277
-500.653	478.070	0.055	-0.124
-499.639	63.653	0.053	0.053
-498.624	-200.000	-0.000	0.164
-497.610	598.783	-0.038	0.093
-496.595	37.885	-0.167	0.148
-495.581	-54.451	0.088	0.040
-494.566	-200.000	-0.223	0.001
-493.551	84.587	0.092	0.100
-492.537	800.000	0.062	-0.214
-491.522	-98.557	0.163	0.042
-490.508	695.768	0.082	0.214
-489.493	-63.836	0.268	0.109
-488.478	-113.830	-0.287	-0.056
-487.464	34.637	0.189	0.164
-486.449	-200.000	-0.049	-0.343
-485.435	-200.000	0.024	0.148
-484.420	800.000	0.057	0.174
-483.405	-200.000	-0.005	-0.129
-482.391	427.099	0.108	-0.232
-481.376	-200.000	0.005	-0.183
-480.362	-67.003	0.199	0.078
-479.347	-89.211	-0.341	-0.100
-478.332	-116.548	-0.229	-0.042
-477.318	-109.541	-0.133	-0.028
-476.303	-60.223	0.237	0.101
-475.289	-128.063	-0.181	-0.026
-474.274	-32.063	-0.123	0.069
-473.259	-84.705	0.409	0.128
-472.245	800.000	-0.091	0.253
-471.230	-200.000	-0.047	-0.430
-470.216	352.742	-0.172	0.339
-469.201	554.138	-0.030	0.071
-468.186	-49.152	-0.282	-0.134
-467.172	298.944	0.104	0.191
-466.157	-22.102	0.236	0.143
-465.143	800.000	-0.129	0.367
-464.128	-32.911	-0.177	0.098
-463.113	800.000	-0.033	-0.095
-462.099	-171.867	0.250	0.008
-461.084	-62.473	0.133	0.055
-460.070	11.831	0.255	-0.195
-459.055	800.000	-0.146	-0.467
-458.040	-64.150	0.106	-0.043
-457.026	-200.000	-0.035	-0.183
-456.011	223.755	-0.109	-0.176
-454.997	-134.730	0.332	0.040
-453.982	375.688	-0.119	-0.242
-452.968	800.000	-0.062	0.218
-451.953	-54.369	0.213	0.096
-450.938	800.000	0.072	0.228
-449.924	-200.000	0.014	-0.146
-448.909	800.000	-0.061	0.188
-447.895	-146.647	0.148	-0.013
-446.880	-43.443	-0.402	-0.202
-445.865	-200.000	-0.044	-0.484
-444.851	-111.000	0.177	0.036
-443.836	-144.334	0.140	-0.013
-442.822	473.493	0.025	-0.056
-441.807	-86.972	-0.115	0.035
-440.792	42.539	0.067	-0.060
-439.778	-200.000	0.040	0.395
-438.763	257.313	-0.195	-0.333
-437.749	-200.000	-0.002	-0.312
-436.734	392.520	-0.080	-0.165
-435.719	56.720	-0.074	0.072
-434.705	34.955	0.225	0.196
-433.690	-5.977	-0.167	0.113
-432.676	221.855	0.121	-0.193
-431.661	-200.000	-0.004	0.153
-430.646	218.743	0.191	-0.304
-429.632	-56.256	-0.320	-0.141
-428.617	2.539	-0.181	-0.130
-427.603	-131.541	-0.397	-0.052
-426.588	-35.400	0.195	-0.106
-425.573	542.849	-0.009	0.021
-424.559	103.660	0.158	0.184
-423.544	-85.492	0.211	-0.065
-422.530	-200.000	0.004	-0.233
-421.515	-16.249	0.174	-0.109
-420.500	29.001	-0.228	0.192
-419.486	800.000	-0.128	0.430
-418.471	348.054	0.135	0.264
-417.457	-82.743	-0.121	0.039
-416.442	244.862	-0.116	-0.194
-415.428	-37.561	-0.134	0.071
-414.413	82.486	0.201	-0.217
-413.398	66.755	-0.190	0.192
-412.384	-200.000	0.051	-0.333
-411.369	-64.291	-0.223	0.090
-410.355	-65.299	-0.141	-0.056
-409.340	800.000	0.009	-0.030
-408.325	23.284	0.303	-0.248
-407.311	800.000	-0.035	-0.131
-406.296	-70.184	-0.498	0.188
-405.282	46.407	-0.150	0.138
-404.267	2.681	0.361	-0.260
-403.252	-42.158	0.259	0.131
-402.238	800.000	0.088	0.295
-401.223	-37.494	-0.157	0.083
-400.209	116.533	-0.208	-0.253
-399.194	64.497	0.283	0.284
-398.179	-111.181	0.084	-0.017
-397.165	-200.000	0.003	-0.185
-396.150	-159.402	0.189	0.010
-395.136	-27.336	-0.184	-0.106
-394.121	-160.039	0.673	-0.036
-393.106	-18.385	-0.139	-0.086
-392.092	-200.000	0.024	0.137
-391.077	-11.157	-0.277	-0.181
-390.063	-200.000	-0.026	-0.147
-389.048	-119.514	0.356	0.061
-388.033	46.769	-0.067	-0.062
-387.019	227.662	0.079	-0.128
-386.004	-147.525	0.210	-0.018
-384.990	-200.000	0.017	0.204
-383.975	-98.154	0.259	-0.066
-382.960	-88.951	-0.223	-0.065
-381.946	162.230	0.064	0.088
-380.931	-200.000	0.017	0.128
-379.917	-94.947	-0.228	-0.061
-378.902	16.496	-0.166	-0.130
-377.888	800.000	0.059	0.212
-376.873	-200.000	-0.015	-0.255
-375.858	71.672	0.166	-0.171
-374.844	261.341	-0.028	0.048
-373.829	-200.000	-0.022	0.132
-372.815	135.644	0.254	0.328
-371.800	-22.991	0.081	0.048
-370.785	-16.374	-0.309	0.195
-369.771	9.078	0.145	0.109
-368.756	800.000	-0.033	0.123
-367.742	-200.000	-0.020	0.146
-366.727	-200.000	-0.009	-0.134
-365.712	-12.095	0.391	-0.254
-364.698	-164.458	0.170	0.008
-363.683	-200.000	-0.031	0.255
-362.669	-98.202	0.163	-0.042
-361.654	-149.161	0.184	0.015
-360.639	-200.000	-0.008	-0.201
-359.625	800.000	-0.069	-0.217
-358.610	-144.279	-0.160	0.015
-357.596	116.899	0.119	-0.145
-356.581	-200.000	0.025	-0.128
-355.566	457.039	0.088	-0.193
-354.552	93.371	0.061	0.068
-353.537	800.000	0.081	-0.350
-352.523	27.047	0.222	0.184
-351.508	-16.488	-0.217	0.137
-350.493	64.509	-0.226	0.226
-349.479	-200.000	-0.028	0.139
-348.464	-61.154	0.247	-0.103
-347.450	-171.742	0.308	0.010
-346.435	27.003	-0.207	-0.172
-345.420	800.000	-0.028	0.083
-344.406	-200.000	-0.047	0.223
-343.391	-20.238	-0.265	-0.162
-342.377	-200.000	0.012	-0.057
-341.362	-12.677	-0.201	-0.130
-340.348	140.237	0.152	0.199
-339.333	111.994	0.141	0.169
-338.318	139.901	0.150	-0.196
-337.304	-12.803	-0.075	0.049
-336.289	-156.471	-0.183	-0.011
-335.275	-110.659	0.070	-0.014
-334.260	-78.053	0.268	0.091
-333.245	-77.609	-0.364	0.125
-332.231	-100.047	-0.213	-0.053
-331.216	-38.878	-0.083	-0.043
-330.202	421.026	0.027	-0.057
-329.187	-200.000	-0.010	0.047
-328.172	233.126	0.070	-0.115
-327.158	-200.000	-0.019	0.196
-326.143	220.044	0.031	0.049
-325.129	-60.260	0.125	0.053
-324.114	16.353	0.165	0.129
-323.099	48.065	-0.151	-0.140
-322.085	155.906	-0.099	-0.135
-321.070	-133.475	0.252	-0.031
-320.056	-18.028	0.173	-0.107
-319.041	-105.108	0.446	-0.101
-318.026	741.337	-0.082	0.217
-317.012	-37.290	-0.265	0.140
-315.997	84.690	-0.132	-0.143
-314.983	152.724	0.139	0.188
-313.968	-200.000	-0.020	-0.229
-312.953	60.486	-0.256	-0.251
-311.939	-55.818	0.228	-0.101
-310.924	-200.000	-0.121	0.000
-309.910	-45.602	-0.091	-0.044
-308.895	-98.666	-0.301	-0.076
-307.880	-15.651	0.215	0.136
-306.866	-117.895	0.092	0.016
-305.851	172.958	-0.063	-0.090
-304.837	-146.865	-0.131	0.011
-303.822	147.931	-0.089	0.119
-302.807	362.563	-0.049	0.098
-301.793	-200.000	0.003	-0.204
-300.778	759.564	0.034	-0.092
-299.764	2.549	0.179	0.128
-298.749	70.982	0.007	-0.007
-297.735	-18.349	-0.205	0.127
-296.720	217.301	-0.118	-0.186
-295.705	-200.000	0.007	0.105
-294.691	108.234	-0.087	0.102
-293.676	195.146	0.018	-0.027
-292.662	-196.158	0.527	-0.004
-291.647	-200.000	-0.043	0.559
-290.632	21.879	-0.230	0.185
-289.618	800.000	-0.037	0.153
-288.603	110.234	0.131	-0.155
-287.589	800.000	-0.058	0.242
-286.574	102.737	0.173	0.200
-285.559	-107.598	-0.202	0.044
-284.545	800.000	-0.030	-0.121
-283.530	399.510	0.136	0.282
-282.516	164.185	-0.195	0.271
-281.501	-200.000	0.029	0.261
-280.486	565.963	0.086	0.207
-279.472	48.836	0.234	0.217
-278.457	800.000	0.069	0.261
-277.443	-200.000	0.007	0.084
-276.428	157.758	0.079	0.109
-275.413	89.495	0.080	0.088
-274.399	127.069	-0.116	0.145
-273.384	-143.587	-0.126	-0.012
-272.370	-105.988	-0.082	-0.018
-271.355	-98.363	0.103	-0.026
-270.340	-195.357	-0.474	-0.003
-269.326	-106.057	-0.299	-0.066
-268.311	-200.000	0.037	-0.309
-267.297	-200.000	0.010	0.044
-266.282	-159.141	0.273	-0.015
-265.267	-82.996	-0.340	0.108
-264.253	-119.409	0.323	0.055
-263.238	793.168	-0.053	0.144
-262.224	-61.414	0.182	-0.076
-261.209	800.000	-0.045	-0.148
-260.195	-147.984	-0.073	0.006
-259.180	85.476	-0.268	-0.290
-258.165	-39.952	0.101	-0.052
-257.151	-81.783	0.224	-0.073
-256.136	25.144	0.209	-0.171
-255.122	-200.000	0.205	-0.000
-254.107	-107.297	-0.271	0.059
-253.092	107.285	-0.209	-0.245
-252.078	-200.000	-0.051	0.229
-251.063	102.775	-0.125	0.144
-250.049	40.232	-0.165	-0.147
-249.034	100.868	-0.093	0.107
-248.019	-200.000	-0.004	-0.019
-247.005	18.164	0.093	-0.073
-245.990	-200.000	-0.052	-0.241
-244.976	-200.000	-0.027	-0.305
-243.961	-88.910	-0.159	-0.046
-242.946	62.193	-0.103	-0.101
-241.932	587.868	-0.131	0.317
-240.917	-12.767	0.275	0.177
-239.903	135.296	-0.106	-0.136
-238.888	-88.065	0.272	0.081
-237.873	-200.000	-0.018	0.298
-236.859	187.396	0.092	0.135
-235.844	-77.309	0.144	-0.049
-234.830	-114.827	0.094	0.018
-233.815	405.458	-0.039	0.081
-232.800	-200.000	-0.001	0.082
-231.786	219.549	0.176	0.278
-230.771	-131.127	-0.234	-0.031
-229.757	-190.824	-0.078	-0.001
-228.742	800.000	0.087	0.336
-227.727	-200.000	-0.039	0.201
-226.713	800.000	0.097	0.351
-225.698	-200.000	-0.016	0.167
-224.684	800.000	0.026	0.090
-223.669	800.000	0.136	0.384
-222.655	-200.000	0.032	0.164
-221.640	-142.374	0.092	-0.009
-220.625	-100.674	0.112	0.027
-219.611	-200.000	-0.048	0.348
-218.596	-86.283	-0.211	0.064
-217.582	-200.000	-0.026	0.363
-216.567	-109.586	0.467	-0.097
-215.552	-68.776	0.343	-0.131
-214.538	-200.000	0.035	0.239
-213.523	49.167	0.032	0.029
-212.509	-128.110	0.522	-0.074
-211.494	201.791	-0.283	-0.430
-210.479	-79.030	-0.131	-0.044
-209.465	-116.164	0.075	-0.014
-208.450	-40.198	-0.238	0.122
-207.436	381.664	0.088	-0.178
-206.421	-31.605	0.239	0.132
-205.406	-6.717	-0.244	0.164
-204.392	-200.000	0.009	-0.339
-203.377	-200.000	-0.003	0.320
-202.363	-59.174	-0.217	-0.092
-201.348	147.148	0.109	0.145
-200.333	-115.894	-0.253	-0.047
-199.319	133.599	0.301	-0.384
-198.304	-108.578	-0.151	0.032
-197.290	-22.958	-0.153	-0.091
-196.275	800.000	0.027	0.103
-195.260	-23.300	-0.271	0.160
-194.246	800.000	0.116	-0.330
-193.231	-70.827	-0.101	0.038
-192.217	-200.000	0.062	-0.387
-191.202	800.000	0.056	-0.173
-190.187	-150.956	-0.097	0.007
-189.173	704.104	-0.032	-0.083
-188.158	303.786	0.122	0.223
-187.144	-68.005	0.347	0.133
-186.129	-109.178	-0.369	0.077
-185.114	-177.710	0.159	0.004
-184.100	800.000	0.032	-0.093
-183.085	108.534	-0.123	0.145
-182.071	-50.552	0.111	-0.051
-181.056	24.790	-0.152	-0.124
-180.042	-200.000	-0.028	-0.248
-179.027	-27.376	-0.276	-0.158
-178.012	800.000	-0.048	0.133
-176.998	-35.307	0.216	0.116
-175.983	153.147	-0.063	-0.085
-174.969	114.713	-0.125	-0.150
-173.954	-200.000	0.039	-0.174
-172.939	800.000	-0.059	0.220
-171.925	66.944	-0.129	0.129
-170.910	-162.653	-0.312	0.015
-169.896	-25.796	0.237	0.137
-168.881	17.584	0.242	-0.189
-167.866	149.297	0.186	0.248
-166.852	161.113	0.136	-0.187
-165.837	120.188	0.151	0.184
-164.823	60.949	0.153	0.149
-163.808	44.992	-0.211	0.191
-162.793	-200.000	-0.276	0.001
-161.779	-67.500	0.062	-0.024
-160.764	-138.388	-0.332	-0.036
-159.750	800.000	-0.053	0.173
-158.735	796.262	0.065	0.177
-157.720	-125.215	-0.216	-0.032
-156.706	-99.702	-0.477	-0.118
-155.691	-18.822	0.100	0.061
-154.677	-142.911	0.215	-0.021
-153.662	-120.013	0.111	-0.019
-152.647	191.130	-0.130	0.192
-151.633	-186.723	0.138	0.002
-150.618	185.854	0.084	-0.123
-149.604	-81.978	0.228	0.073
-148.589	-111.127	-0.055	-0.011
-147.574	70.530	0.118	-0.120
-146.560	-200.000	-0.022	-0.132
-145.545	11.710	0.138	0.104
-144.531	117.520	-0.088	0.107
-143.516	-34.834	0.283	-0.152
-142.502	-200.000	-0.000	-0.213
-141.487	800.000	0.092	-0.314
-140.472	-71.392	-0.215	-0.079
-139.458	-200.000	0.048	-0.257
-138.443	391.824	-0.111	0.227
-137.429	-119.643	0.439	-0.075
-136.414	-200.000	-0.009	0.070
-135.399	-200.000	0.021	-0.394
-134.385	139.234	0.102	-0.132
-133.370	-200.000	0.027	0.123
-132.356	452.467	0.128	-0.278
-131.341	536.957	0.041	0.097
-130.326	-34.313	0.378	0.204
-129.312	284.379	0.170	-0.301
-128.297	-107.707	-0.195	0.042
-127.283	17.661	-0.207	-0.162
-126.268	-200.000	0.055	0.000
-125.253	-120.629	0.196	-0.033
-124.239	57.419	0.307	-0.295
-123.224	125.830	-0.233	-0.289
-122.210	377.214	0.045	-0.091
