DTS Sentinel unit serial number:	SN413079Multiplexer serial number:	ORYXHardware model number:	OX4-SRSoftware version number:	ORYX F/W v4.00 Oryx Data Collector v3.7.2.0data status	okinstallation	princeton_trtdifferential loss correction	single-endedforward channel	channel 3reverse channel	N/Adate	2019/09/15time	22:00:35forward acquisition time	60.00reverse acquisition time	0.00gamma	496.2192k internal	0.2329k external	0.2329temperature offset calibration	0.9942default loss term (dB/km)	0.3790temperature slope calibration	1.0000multiplexer offset coefficient	1.0000multiplexer slope coefficient	1.0000fibre end	0.00T internal ref (°C)	29.84T ext. ref 1 (°C)	8.53T ext. ref 2 (°C)	23.00length (m)	temperature (°C)	Stokes	anti-Stokes-747.200	-106.636	-0.031	0.007
-746.185	107.445	-0.082	0.099
-745.171	-8.565	0.091	0.062
-744.156	-32.537	0.108	0.061
-743.142	-25.796	0.206	-0.122
-742.127	78.463	-0.271	0.292
-741.112	40.889	-0.021	0.019
-740.098	-7.636	0.081	-0.055
-739.083	-106.804	-0.064	0.014
-738.069	33.526	-0.131	0.115
-737.054	289.104	0.053	-0.096
-736.039	-158.117	-0.099	0.006
-735.025	47.360	0.076	0.071
-734.010	-200.000	0.017	-0.438
-732.996	-154.671	-0.251	0.017
-731.981	102.532	-0.061	-0.072
-730.966	196.220	-0.067	0.103
-729.952	-67.988	-0.039	0.015
-728.937	-110.307	-0.493	-0.103
-727.923	16.938	-0.142	0.113
-726.908	613.511	0.113	-0.286
-725.894	-200.000	-0.005	-0.174
-724.879	376.239	-0.191	-0.392
-723.864	-160.570	0.176	-0.009
-722.850	122.756	0.171	-0.215
-721.835	-200.000	-0.068	-0.560
-720.821	800.000	0.129	0.381
-719.806	154.033	-0.078	0.108
-718.791	-58.478	-0.133	0.058
-717.777	-200.000	-0.045	0.304
-716.762	126.683	-0.073	0.092
-715.748	-4.026	0.194	0.135
-714.733	-167.710	0.352	-0.014
-713.718	287.341	-0.126	0.229
-712.704	-64.054	-0.236	0.097
-711.689	453.019	0.063	-0.139
-710.675	-25.049	-0.190	0.113
-709.660	411.703	-0.058	-0.124
-708.645	-22.409	0.201	-0.122
-707.631	-146.025	0.183	-0.016
-706.616	-58.279	-0.204	0.089
-705.602	97.465	0.095	-0.110
-704.587	-23.836	0.092	-0.055
-703.572	800.000	-0.113	-0.426
-702.558	101.834	-0.123	0.144
-701.543	470.877	0.119	-0.268
-700.529	-200.000	-0.016	0.092
-699.514	-47.343	0.090	0.044
-698.499	241.004	0.071	-0.118
-697.485	53.644	-0.080	0.077
-696.470	3.415	-0.062	-0.046
-695.456	-81.387	0.187	-0.062
-694.441	170.446	-0.257	-0.370
-693.426	-200.000	0.033	-0.377
-692.412	-200.000	-0.014	-0.109
-691.397	-200.000	-0.019	0.094
-690.383	8.999	0.145	-0.110
-689.368	-124.145	-0.065	-0.010
-688.354	-59.826	0.381	-0.164
-687.339	-81.762	0.101	-0.033
-686.324	7.221	0.247	-0.185
-685.310	150.185	-0.195	-0.266
-684.295	800.000	-0.086	-0.245
-683.281	800.000	-0.043	-0.143
-682.266	-41.781	-0.507	0.262
-681.251	-200.000	0.074	0.523
-680.237	65.341	0.207	-0.211
-679.222	-177.081	-0.226	0.006
-678.208	-200.000	0.010	-0.057
-677.193	-73.315	0.210	-0.077
-676.178	-115.021	-0.454	0.087
-675.164	292.738	-0.070	0.129
-674.149	280.341	-0.031	-0.055
-673.135	44.018	0.325	-0.300
-672.120	-81.831	-0.171	0.056
-671.105	-139.487	-0.161	0.017
-670.091	-92.988	-0.227	0.064
-669.076	23.985	-0.079	0.066
-668.062	800.000	0.115	0.339
-667.047	-200.000	0.000	-0.273
-666.032	752.649	-0.162	-0.440
-665.018	43.680	0.115	-0.106
-664.003	123.806	0.198	0.250
-662.989	800.000	-0.114	-0.325
-661.974	-98.831	0.186	-0.048
-660.959	97.182	0.248	-0.285
-659.945	800.000	-0.042	-0.146
-658.930	57.007	0.148	0.144
-657.916	161.019	0.169	-0.238
-656.901	-106.328	0.185	-0.041
-655.886	-102.090	-0.011	-0.003
-654.872	131.878	0.152	0.196
-653.857	-83.750	0.210	-0.067
-652.843	493.486	-0.091	0.210
-651.828	220.200	0.250	0.402
-650.814	800.000	0.067	-0.290
-649.799	569.325	-0.095	0.231
-648.784	156.939	-0.258	0.358
-647.770	800.000	-0.036	-0.101
-646.755	-12.989	0.266	-0.173
-645.741	-200.000	-0.000	-0.237
-644.726	481.905	0.026	0.059
-643.711	-33.776	-0.236	0.130
-642.697	488.363	-0.046	-0.105
-641.682	448.473	-0.048	-0.107
-640.668	20.307	0.383	-0.310
-639.653	-104.288	0.285	-0.066
-638.638	-115.795	-0.287	-0.054
-637.624	314.687	-0.138	-0.260
-636.609	-200.000	-0.003	0.025
-635.595	800.000	0.046	0.142
-634.580	-149.902	0.177	-0.014
-633.565	766.111	-0.103	-0.280
-632.551	-110.671	-0.277	-0.057
-631.536	-200.000	0.044	0.239
-630.522	-155.452	-0.088	0.006
-629.507	-92.988	0.184	0.052
-628.492	14.044	-0.295	-0.230
-627.478	202.475	0.173	-0.269
-626.463	505.313	-0.039	0.092
-625.449	42.702	-0.324	-0.296
-624.434	-200.000	0.009	-0.146
-623.419	47.606	-0.070	0.066
-622.405	800.000	0.095	0.358
-621.390	-120.947	0.184	-0.031
-620.376	322.411	-0.073	-0.140
-619.361	-153.182	0.132	-0.009
-618.346	61.579	0.170	-0.170
-617.332	-65.952	0.405	0.162
-616.317	-6.074	-0.214	-0.146
-615.303	-200.000	-0.053	-0.442
-614.288	14.058	0.231	-0.180
-613.273	714.477	-0.034	-0.089
-612.259	-133.328	-0.280	0.035
-611.244	800.000	0.039	0.169
-610.230	-137.309	-0.324	0.037
-609.215	-103.051	-0.526	-0.125
-608.201	-118.788	-0.254	-0.045
-607.186	-21.335	0.375	-0.229
-606.171	242.625	-0.025	-0.042
-605.157	-200.000	0.025	-0.143
-604.142	-32.546	-0.027	0.015
-603.128	-152.782	-0.295	-0.021
-602.113	67.878	0.083	0.085
-601.098	382.001	0.043	-0.089
-600.084	-81.125	-0.047	0.016
-599.069	-200.000	-0.007	-0.075
-598.055	-50.118	0.258	-0.122
-597.040	-18.393	0.163	-0.102
-596.025	275.543	0.097	-0.172
-595.011	-200.000	0.011	-0.146
-593.996	148.587	-0.119	-0.161
-592.982	89.927	0.160	-0.179
-591.967	-92.280	0.101	-0.028
-590.952	-20.620	-0.200	-0.123
-589.938	-91.537	0.051	0.015
-588.923	19.745	-0.123	-0.099
-587.909	-50.939	-0.452	0.212
-586.894	218.487	-0.187	-0.299
-585.879	-13.446	-0.198	-0.129
-584.865	8.733	0.134	0.101
-583.850	800.000	-0.068	0.216
-582.836	721.142	0.074	0.197
-581.821	-200.000	-0.014	-0.081
-580.806	-14.462	-0.147	0.095
-579.792	800.000	0.022	0.089
-578.777	-131.178	0.165	-0.022
-577.763	-156.872	-0.238	-0.015
-576.748	-31.096	0.289	0.163
-575.733	-200.000	-0.055	-0.260
-574.719	176.371	0.146	0.212
-573.704	422.347	-0.124	0.267
-572.690	800.000	0.026	0.073
-571.675	-20.693	-0.159	-0.097
-570.661	-133.457	-0.334	0.042
-569.646	132.468	0.255	-0.329
-568.631	-200.000	0.100	0.534
-567.617	-200.000	-0.035	-0.200
-566.602	-200.000	-0.007	-0.300
-565.588	-200.000	-0.044	-0.200
-564.573	43.163	-0.187	0.171
-563.558	220.720	0.106	-0.171
-562.544	-77.826	0.258	-0.089
-561.529	38.230	0.142	0.127
-560.515	-200.000	0.013	-0.328
-559.500	36.894	-0.055	0.049
-558.485	41.541	0.292	-0.264
-557.471	348.965	0.127	-0.250
-556.456	-200.000	-0.003	-0.082
-555.442	255.279	0.029	0.050
-554.427	-75.778	0.424	0.150
-553.412	800.000	-0.105	-0.331
-552.398	-20.743	-0.011	-0.007
-551.383	144.083	0.108	0.144
-550.369	-162.814	-0.077	0.004
-549.354	469.394	0.054	-0.121
-548.339	800.000	-0.077	-0.255
-547.325	486.126	-0.089	0.204
-546.310	129.224	-0.152	-0.194
-545.296	234.144	-0.188	-0.310
-544.281	276.618	-0.069	-0.123
-543.266	200.920	0.085	0.130
-542.252	-101.420	-0.129	0.031
-541.237	-148.455	0.072	-0.006
-540.223	800.000	0.110	0.394
-539.208	155.426	0.033	-0.045
-538.193	-200.000	-0.037	-0.195
-537.179	129.104	0.003	-0.003
-536.164	-45.893	0.071	-0.035
-535.150	78.611	0.091	-0.098
-534.135	800.000	-0.007	0.023
-533.121	332.341	0.135	-0.260
-532.106	-141.304	0.234	0.024
-531.091	33.401	-0.057	0.049
-530.077	268.108	0.094	-0.165
-529.062	464.263	0.148	-0.330
-528.048	-176.152	-0.205	0.005
-527.033	238.938	-0.117	-0.195
-526.018	174.082	-0.131	-0.189
-525.004	48.027	0.156	-0.146
-523.989	-200.000	-0.021	-0.103
-522.975	-145.677	0.360	0.032
-521.960	-200.000	0.088	-0.404
-520.945	244.105	-0.239	-0.400
-519.931	446.678	0.037	0.081
-518.916	-57.447	0.140	0.061
-517.902	-26.852	-0.119	-0.070
-516.887	-200.000	-0.015	0.069
-515.872	-65.794	-0.178	0.071
-514.858	800.000	-0.056	-0.182
-513.843	-155.849	0.117	0.007
-512.829	26.753	-0.234	-0.196
-511.814	-112.171	-0.269	0.054
-510.799	-161.988	0.146	-0.007
-509.785	-42.042	-0.099	0.051
-508.770	-200.000	-0.007	-0.310
-507.756	100.850	0.193	0.224
-506.741	414.947	0.079	0.168
-505.726	-200.000	0.063	-0.288
-504.712	-111.721	0.195	-0.039
-503.697	-103.888	0.204	-0.048
-502.683	-65.136	-0.092	-0.037
-501.668	-185.587	-0.042	0.001
-500.653	-200.000	0.035	-0.196
-499.639	-178.223	-0.015	0.000
-498.624	-100.157	-0.265	0.066
-497.610	184.375	0.159	0.235
-496.595	-18.185	-0.155	-0.096
-495.581	444.818	0.022	-0.048
-494.566	-123.750	0.331	-0.052
-493.551	43.564	0.274	0.250
-492.537	229.051	-0.049	-0.080
-491.522	-33.394	0.257	0.142
-490.508	-149.944	-0.146	0.011
-489.493	78.273	0.288	0.306
-488.478	-200.000	0.047	-0.353
-487.464	-200.000	-0.063	-0.569
-486.449	-137.135	0.303	-0.034
-485.435	25.761	-0.315	-0.261
-484.420	178.885	0.068	-0.099
-483.405	-200.000	0.004	0.260
-482.391	-200.000	0.003	-0.374
-481.376	-69.086	0.274	-0.105
-480.362	800.000	-0.068	0.232
-479.347	-83.061	0.261	0.084
-478.332	-200.000	-0.048	-0.279
-477.318	-159.998	-0.201	-0.011
-476.303	30.017	-0.063	-0.053
-475.289	-59.534	-0.227	0.097
-474.274	272.067	0.051	0.090
-473.259	-148.168	-0.422	0.035
-472.245	-29.487	0.413	0.236
-471.230	62.556	0.044	-0.044
-470.216	46.784	0.207	0.191
-469.201	-73.188	-0.229	0.084
-468.186	89.751	-0.035	-0.039
-467.172	-170.995	-0.069	-0.002
-466.157	74.094	0.093	0.097
-465.143	366.182	0.059	0.118
-464.128	90.257	-0.191	0.213
-463.113	414.703	-0.057	0.122
-462.099	800.000	-0.029	-0.102
-461.084	77.455	0.169	0.179
-460.070	132.912	-0.063	-0.081
-459.055	-200.000	-0.023	-0.280
-458.040	-1.918	0.341	0.239
-457.026	-65.138	0.263	0.106
-456.011	-200.000	0.017	0.261
-454.997	152.024	0.260	-0.353
-453.982	768.407	-0.155	-0.421
-452.968	-111.788	-0.360	-0.073
-451.953	-103.554	-0.195	0.046
-450.938	6.626	-0.119	-0.088
-449.924	-153.307	0.355	0.025
-448.909	-84.429	-0.085	0.027
-447.895	48.066	0.184	-0.172
-446.880	1.493	0.217	0.155
-445.865	192.761	-0.088	-0.132
-444.851	24.497	0.230	-0.189
-443.836	-101.384	-0.207	-0.050
-442.822	-14.921	-0.151	0.096
-441.807	-200.000	-0.030	0.158
-440.792	786.409	0.023	-0.063
-439.778	59.983	-0.034	0.034
-438.763	-145.338	-0.198	-0.018
-437.749	10.231	-0.024	-0.018
-436.734	-123.001	-0.258	-0.041
-435.719	364.186	-0.092	-0.184
-434.705	100.215	0.121	0.139
-433.690	36.218	0.126	0.110
-432.676	-200.000	-0.002	-0.104
-431.661	311.395	-0.097	0.181
-430.646	4.584	0.291	0.212
-429.632	534.494	0.023	-0.055
-428.617	-107.131	-0.179	-0.039
-427.603	800.000	0.029	0.105
-426.588	136.246	0.072	-0.093
-425.573	-200.000	0.029	-0.519
-424.559	-51.569	0.335	0.155
-423.544	800.000	0.057	-0.198
-422.530	-200.000	0.051	0.300
-421.515	75.723	-0.106	-0.111
-420.500	134.429	-0.159	-0.206
-419.486	-200.000	0.051	0.222
-418.471	-28.766	-0.121	-0.069
-417.457	104.387	0.148	0.173
-416.442	81.890	-0.063	-0.068
-415.428	27.165	-0.402	0.336
-414.413	572.778	0.105	0.255
-413.398	49.358	-0.098	-0.091
-412.384	299.159	0.203	0.372
-411.369	-37.938	0.142	0.075
-410.355	-36.021	-0.276	-0.148
-409.340	-91.519	-0.258	0.073
-408.325	800.000	-0.073	-0.226
-407.311	-82.456	-0.080	0.026
-406.296	-36.294	0.028	0.015
-405.282	25.304	0.137	0.114
-404.267	-155.037	0.122	-0.008
-403.252	800.000	0.050	-0.149
-402.238	-200.000	-0.006	-0.192
-401.223	-0.493	0.167	-0.118
-400.209	124.314	-0.125	-0.156
-399.194	-34.468	0.172	0.093
-398.179	96.265	0.245	0.279
-397.165	218.279	-0.153	-0.242
-396.150	23.173	0.180	0.147
-395.136	184.970	0.137	0.201
-394.121	-23.983	0.048	-0.028
-393.106	46.574	-0.340	-0.314
-392.092	-200.000	0.054	0.285
-391.077	800.000	-0.067	0.188
-390.063	-200.000	0.006	0.107
-389.048	-3.267	0.213	0.147
-388.033	-200.000	0.029	0.207
-387.019	800.000	-0.111	-0.340
-386.004	19.819	0.070	0.056
-384.990	-19.557	0.057	-0.035
-383.975	-33.569	-0.161	-0.088
-382.960	-200.000	0.008	0.451
-381.946	-200.000	-0.019	-0.305
-380.931	273.644	0.151	0.264
-379.917	-124.057	-0.190	0.030
-378.902	416.197	-0.126	-0.266
-377.888	-138.534	-0.201	-0.022
-376.873	-176.972	-0.121	0.003
-375.858	800.000	-0.032	-0.111
-374.844	-52.201	-0.304	0.140
-373.829	-95.859	0.162	-0.043
-372.815	-200.000	-0.008	-0.204
-371.800	50.767	0.097	-0.091
-370.785	-10.494	-0.116	0.076
-369.771	-160.764	0.185	-0.010
-368.756	58.464	-0.232	0.226
-367.742	-101.466	0.240	-0.058
-366.727	34.924	-0.098	0.085
-365.712	238.695	0.090	-0.148
-364.698	800.000	-0.059	-0.248
-363.683	-10.563	-0.238	-0.156
-362.669	671.867	0.212	-0.546
-361.654	-32.700	-0.264	-0.146
-360.639	412.326	0.048	0.101
-359.625	-175.450	-0.194	0.005
-358.610	-57.381	0.406	0.177
-357.596	258.216	0.073	0.124
-356.581	-107.447	0.235	-0.051
-355.566	144.402	-0.120	-0.158
-354.552	64.868	-0.143	-0.143
-353.537	-49.320	0.189	-0.090
-352.523	3.327	0.136	-0.098
-351.508	-159.863	-0.386	-0.021
-350.493	88.120	-0.070	0.077
-349.479	396.850	0.096	-0.200
-348.464	50.309	-0.162	0.152
-347.450	74.297	-0.094	-0.098
-346.435	-200.000	-0.000	-0.075
-345.420	16.483	-0.099	0.078
-344.406	-75.720	0.077	-0.027
-343.391	-16.432	-0.148	0.093
-342.377	-71.815	-0.035	0.013
-341.362	800.000	-0.127	-0.381
-340.348	-200.000	-0.029	-0.218
-339.333	320.311	0.056	-0.105
-338.318	-200.000	-0.051	0.230
-337.304	233.943	0.092	-0.150
-336.289	126.903	-0.144	-0.180
-335.275	149.883	0.071	0.096
-334.260	433.497	-0.222	0.478
-333.245	-32.676	-0.044	0.024
-332.231	800.000	0.079	0.283
-331.216	49.724	-0.245	-0.229
-330.202	-136.433	-0.042	0.005
-329.187	14.454	0.204	-0.158
-328.172	-200.000	-0.001	0.236
-327.158	800.000	0.060	-0.212
-326.143	-200.000	0.071	0.000
-325.129	-162.982	0.039	-0.002
-324.114	175.930	0.094	0.135
-323.099	333.083	0.093	-0.177
-322.085	34.919	-0.128	0.111
-321.070	800.000	0.050	0.178
-320.056	-200.000	0.024	0.225
-319.041	9.101	-0.269	0.201
-318.026	40.249	-0.126	0.113
-317.012	74.743	0.145	0.151
-315.997	254.808	-0.089	0.150
-314.983	-95.517	0.435	0.116
-313.968	40.807	-0.165	-0.147
-312.953	568.421	-0.094	-0.225
-311.939	162.309	-0.234	-0.325
-310.924	-50.033	0.337	0.158
-309.910	-113.696	-0.282	-0.055
-308.895	-20.189	-0.278	0.170
-307.880	800.000	0.056	0.206
-306.866	-200.000	-0.214	0.001
-305.851	-108.396	-0.141	0.030
-304.837	49.967	0.140	-0.131
-303.822	-90.751	-0.081	-0.023
-302.807	-88.976	0.217	0.064
-301.793	-89.406	-0.174	0.051
-300.778	372.999	-0.121	0.244
-299.764	42.633	-0.142	-0.128
-298.749	-15.593	-0.232	0.146
-297.735	-200.000	0.046	-0.287
-296.720	-100.327	-0.225	0.055
-295.705	-85.702	-0.097	0.030
-294.691	800.000	-0.044	0.131
-293.676	62.580	-0.283	0.279
-292.662	293.475	-0.104	0.188
-291.647	-97.662	-0.315	-0.081
-290.632	-200.000	-0.039	-0.259
-289.618	118.776	0.115	0.141
-288.603	88.682	0.045	0.050
-287.589	-39.516	0.182	0.095
-286.574	-200.000	-0.016	-0.082
-285.559	-200.000	0.004	0.254
-284.545	199.815	-0.165	0.250
-283.530	458.382	0.154	0.338
-282.516	-200.000	0.062	-0.286
-281.501	-200.000	-0.080	0.421
-280.486	-79.486	-0.254	0.085
-279.472	504.734	-0.175	0.402
-278.457	-163.941	-0.395	-0.018
-277.443	-18.096	-0.108	0.067
-276.428	295.119	-0.135	0.244
-275.413	364.074	-0.226	-0.450
-274.399	-182.855	0.178	0.003
-273.384	800.000	-0.023	-0.076
-272.370	-60.594	0.139	0.058
-271.355	-200.000	-0.046	0.242
-270.340	177.526	0.038	0.054
-269.326	16.670	0.225	0.176
-268.311	800.000	-0.049	0.196
-267.297	-109.081	0.060	-0.013
-266.282	800.000	0.074	-0.271
-265.267	602.514	-0.141	0.347
-264.253	105.112	-0.283	0.331
-263.238	-140.531	0.358	-0.037
-262.224	228.725	-0.093	-0.150
-261.209	-94.645	0.160	0.043
-260.195	-156.964	0.123	0.007
-259.180	-83.190	0.562	0.179
-258.165	141.667	-0.195	-0.255
-257.151	-64.574	-0.224	-0.090
-256.136	143.713	0.181	0.238
-255.122	239.299	0.067	-0.111
-254.107	64.782	0.029	0.029
-253.092	306.054	0.034	0.062
-252.078	-130.474	-0.061	-0.008
-251.063	-3.322	0.481	0.331
-250.049	96.345	-0.197	0.223
-249.034	13.471	0.245	0.188
-248.019	-27.123	-0.275	0.158
-247.005	48.849	0.070	0.065
-245.990	800.000	-0.181	-0.513
-244.976	310.246	0.252	-0.466
-243.961	153.711	-0.026	-0.036
-242.946	-112.441	0.279	0.055
-241.932	-135.910	0.156	0.018
-240.917	-200.000	0.019	0.093
-239.903	-200.000	-0.035	-0.301
-238.888	800.000	0.077	-0.241
-237.873	-200.000	-0.025	0.431
-236.859	-102.150	-0.191	-0.045
-235.844	-112.755	0.196	-0.038
-234.830	31.018	0.177	-0.150
-233.815	-120.643	-0.157	0.026
-232.800	-200.000	-0.000	0.105
-231.786	-200.000	-0.032	-0.504
-230.771	-28.354	-0.042	0.024
-229.757	-200.000	-0.018	0.087
-228.742	31.871	0.152	-0.129
-227.727	800.000	0.015	-0.063
-226.713	-91.558	0.187	0.053
-225.698	128.140	-0.292	0.366
-224.684	613.698	0.074	-0.182
-223.669	90.745	0.104	0.115
-222.655	190.117	0.012	-0.018
-221.640	-153.155	0.242	-0.017
-220.625	-200.000	-0.015	-0.115
-219.611	-16.798	0.300	0.187
-218.596	-63.615	-0.318	0.129
-217.582	573.178	0.109	0.262
-216.567	-172.842	0.283	-0.009
-215.552	-58.349	-0.107	-0.046
-214.538	800.000	0.110	0.416
-213.523	270.968	0.072	0.125
-212.509	-51.291	-0.493	0.228
-211.494	-170.299	0.084	-0.003
-210.479	-178.162	-0.068	-0.002
-209.465	173.795	-0.240	0.341
-208.450	-200.000	0.064	0.325
-207.436	-102.957	-0.234	-0.055
-206.421	-130.870	-0.323	0.043
-205.406	800.000	0.090	0.274
-204.392	-112.271	-0.315	0.062
-203.377	-60.778	-0.267	-0.112
-202.363	-200.000	-0.024	-0.149
-201.348	263.619	0.126	0.217
-200.333	800.000	0.102	0.311
-199.319	-26.737	-0.197	0.113
-198.304	-122.563	0.069	0.011
-197.290	149.836	0.158	0.212
-196.275	-200.000	-0.041	0.370
-195.260	-111.369	0.130	0.026
-194.246	123.796	-0.215	-0.266
-193.231	-141.056	0.330	0.033
-192.217	-39.305	0.463	-0.239
-191.202	29.115	-0.206	0.173
-190.187	235.555	0.147	0.240
-189.173	90.187	0.110	0.121
-188.158	616.556	-0.049	-0.120
-187.144	-54.736	0.126	0.056
-186.129	-21.420	0.244	0.147
-185.114	-167.278	0.252	-0.010
-184.100	-135.944	0.153	-0.018
-183.085	-200.000	-0.005	-0.182
-182.071	-96.154	-0.282	-0.074
-181.056	800.000	0.069	0.291
-180.042	97.666	0.149	0.168
-179.027	-40.050	0.243	0.125
-178.012	-199.601	0.134	-0.001
-176.998	-200.000	-0.021	0.242
-175.983	-134.418	-0.069	0.008
-174.969	-150.181	-0.016	0.001
-173.954	-154.602	-0.080	-0.005
-172.939	11.286	-0.101	0.076
-171.925	-200.000	-0.033	0.341
-170.910	31.333	0.231	0.196
-169.896	-95.782	0.173	0.046
-168.881	800.000	0.014	-0.050
-167.866	39.330	-0.109	0.096
-166.852	424.414	-0.054	0.114
-165.837	-91.314	0.328	-0.092
-164.823	122.134	-0.194	0.239
-163.808	-84.492	0.058	0.018
-162.793	-71.350	0.197	-0.073
-161.779	30.655	-0.262	-0.221
-160.764	64.697	0.240	-0.238
-159.750	44.554	0.061	0.055
-158.735	-72.867	-0.332	-0.120
-157.720	175.628	0.052	0.074
-156.706	-200.000	0.019	0.088
-155.691	-58.055	-0.137	-0.059
-154.677	49.343	-0.131	0.122
-153.662	78.181	0.347	0.364
-152.647	800.000	0.024	0.085
-151.633	-52.055	0.314	0.144
-150.618	-33.318	-0.354	-0.193
-149.604	42.856	-0.300	-0.269
-148.589	-98.216	-0.303	-0.076
-147.574	800.000	-0.038	0.104
-146.560	-200.000	0.000	-0.046
-145.545	24.731	0.121	-0.099
-144.531	-69.630	-0.069	0.026
-143.516	-200.000	0.009	0.083
-142.502	-104.475	0.095	0.022
-141.487	-200.000	0.044	0.216
-140.472	27.061	-0.154	0.127
-139.458	-53.997	-0.040	-0.018
-138.443	192.694	0.145	-0.215
-137.429	381.399	0.137	0.278
-136.414	31.224	0.228	-0.192
-135.399	-9.827	0.155	-0.102
-134.385	-188.026	-0.449	0.006
-133.370	800.000	0.061	-0.244
-132.356	-135.784	-0.210	0.024
-131.341	-200.000	-0.043	-0.193
-130.326	777.619	0.073	-0.196
-129.312	-19.552	0.354	0.215
-128.297	173.212	-0.134	0.190
-127.283	-140.518	-0.329	0.034
-126.268	-41.513	-0.172	-0.087
-125.253	-17.100	-0.373	-0.231
-124.239	-119.827	0.160	0.027
-123.224	147.457	0.051	0.067
-122.210	-48.341	0.077	0.037
-121.195	-163.377	0.605	0.028
