DTS Sentinel unit serial number:	SN413079Multiplexer serial number:	ORYXHardware model number:	OX4-SRSoftware version number:	ORYX F/W v4.00 Oryx Data Collector v3.7.2.0data status	okinstallation	princeton_trtdifferential loss correction	single-endedforward channel	channel 3reverse channel	N/Adate	2019/09/19time	00:16:35forward acquisition time	60.00reverse acquisition time	0.00gamma	496.2192k internal	0.2346k external	0.2346temperature offset calibration	0.9991default loss term (dB/km)	0.3790temperature slope calibration	1.0000multiplexer offset coefficient	1.0000multiplexer slope coefficient	1.0000fibre end	0.00T internal ref (°C)	22.77T ext. ref 1 (°C)	0.75T ext. ref 2 (°C)	15.79length (m)	temperature (°C)	Stokes	anti-Stokes-747.200	148.791	0.126	-0.170
-746.185	800.000	-0.095	0.319
-745.171	-200.000	-0.040	-0.385
-744.156	311.123	0.046	0.085
-743.142	111.520	-0.112	-0.135
-742.127	255.936	-0.148	0.254
-741.112	-18.172	-0.244	0.153
-740.098	492.996	0.104	0.238
-739.083	31.649	0.251	-0.216
-738.069	-61.764	0.155	-0.065
-737.054	-200.000	0.003	-0.152
-736.039	-35.008	-0.167	0.091
-735.025	-200.000	-0.018	0.475
-734.010	-49.758	0.303	-0.144
-732.996	800.000	0.042	0.128
-731.981	374.936	0.172	-0.351
-730.966	-200.000	-0.062	-0.404
-729.952	800.000	-0.016	-0.062
-728.937	165.628	-0.191	-0.270
-727.923	-200.000	0.063	-0.451
-726.908	-200.000	-0.020	-0.124
-725.894	152.511	0.352	-0.481
-724.879	-112.852	-0.209	0.041
-723.864	-33.045	-0.165	-0.092
-722.850	800.000	0.048	-0.149
-721.835	800.000	-0.030	-0.131
-720.821	-186.057	-0.581	-0.009
-719.806	108.928	-0.133	-0.159
-718.791	-97.406	-0.112	0.029
-717.777	121.814	-0.052	-0.064
-716.762	800.000	0.039	-0.152
-715.748	282.640	-0.090	-0.162
-714.733	427.153	-0.080	0.172
-713.718	-136.477	-0.299	-0.035
-712.704	-73.044	-0.145	0.053
-711.689	-93.777	0.153	0.042
-710.675	107.209	-0.108	-0.128
-709.660	278.470	0.098	-0.174
-708.645	136.561	0.123	-0.160
-707.631	-8.471	-0.243	-0.163
-706.616	-17.698	-0.323	-0.203
-705.602	-7.529	-0.204	0.138
-704.587	-145.410	-0.077	-0.007
-703.572	338.022	-0.111	-0.216
-702.558	-200.000	0.041	-0.179
-701.543	101.352	-0.082	-0.095
-700.529	-52.788	0.235	0.108
-699.514	-84.568	0.186	0.059
-698.499	-26.882	0.171	-0.100
-697.485	508.296	0.063	-0.145
-696.470	-20.208	0.091	-0.056
-695.456	175.145	0.084	0.121
-694.441	338.280	-0.123	0.239
-693.426	45.343	-0.120	-0.111
-692.412	-62.916	0.281	0.116
-691.397	-16.946	0.296	0.187
-690.383	-200.000	0.064	-0.337
-689.368	-32.402	-0.304	-0.169
-688.354	100.513	0.160	-0.185
-687.339	24.138	-0.142	-0.117
-686.324	800.000	0.098	-0.366
-685.310	-97.618	0.109	0.028
-684.295	240.255	-0.101	0.167
-683.281	65.267	-0.197	-0.199
-682.266	71.055	0.210	0.218
-681.251	-66.344	0.321	-0.127
-680.237	414.997	0.149	-0.317
-679.222	-200.000	-0.004	0.215
-678.208	116.780	0.149	0.182
-677.193	54.814	-0.223	-0.214
-676.178	139.599	0.280	-0.368
-675.164	-129.301	-0.297	-0.041
-674.149	-51.112	0.346	-0.162
-673.135	-200.000	-0.024	-0.321
-672.120	-30.900	-0.352	-0.198
-671.105	-166.044	-0.309	0.013
-670.091	-109.382	-0.382	0.081
-669.076	243.651	0.071	-0.119
-668.062	-22.070	0.142	-0.086
-667.047	704.651	0.074	-0.193
-666.032	-200.000	-0.062	0.337
-665.018	83.772	-0.162	-0.176
-664.003	263.408	-0.054	0.093
-662.989	-63.920	-0.115	0.047
-661.974	440.317	0.148	0.322
-660.959	-200.000	-0.051	-0.237
-659.945	-20.635	0.147	-0.090
-658.930	161.175	0.210	-0.293
-657.916	149.025	-0.249	0.335
-656.901	572.528	0.121	-0.295
-655.886	16.791	-0.080	-0.063
-654.872	-72.602	0.376	0.138
-653.857	77.519	-0.259	0.275
-652.843	60.357	0.091	0.090
-651.828	800.000	-0.144	0.549
-650.814	45.175	-0.237	0.218
-649.799	-61.096	0.112	0.047
-648.784	-42.870	-0.273	-0.138
-647.770	-96.532	0.074	-0.020
-646.755	-200.000	-0.073	-0.354
-645.741	-53.984	-0.322	-0.146
-644.726	-200.000	0.011	-0.209
-643.711	729.248	-0.044	0.118
-642.697	788.925	-0.016	0.043
-641.682	-40.813	0.165	-0.085
-640.668	14.181	0.319	0.248
-639.653	32.485	0.119	-0.102
-638.638	-200.000	0.035	-0.153
-637.624	100.648	0.200	-0.231
-636.609	-73.012	0.218	0.080
-635.595	-200.000	0.075	-0.332
-634.580	800.000	-0.015	-0.057
-633.565	800.000	-0.071	0.309
-632.551	-80.972	0.163	-0.054
-631.536	-28.211	-0.360	-0.207
-630.522	-108.224	0.162	-0.035
-629.507	112.846	0.182	0.220
-628.492	-78.178	-0.309	-0.106
-627.478	12.857	-0.217	-0.167
-626.463	46.083	0.247	0.228
-625.449	331.063	-0.050	-0.097
-624.434	500.478	-0.244	0.560
-623.419	730.776	-0.036	0.096
-622.405	-84.318	0.172	0.054
-621.390	73.369	-0.179	-0.186
-620.376	12.168	0.135	-0.103
-619.361	51.253	-0.126	0.119
-618.346	41.521	0.032	-0.029
-617.332	285.874	0.238	-0.426
-616.317	-200.000	0.038	-0.330
-615.303	800.000	-0.043	0.151
-614.288	-155.780	0.192	0.012
-613.273	-200.000	-0.001	-0.052
-612.259	-200.000	-0.011	-0.146
-611.244	497.191	0.090	-0.205
-610.230	-8.758	0.044	-0.030
-609.215	78.937	0.255	-0.271
-608.201	-46.266	-0.198	-0.097
-607.186	116.063	0.045	0.055
-606.171	-200.000	-0.010	0.200
-605.157	-142.723	-0.146	0.014
-604.142	-43.355	-0.292	-0.147
-603.128	-146.703	-0.211	-0.018
-602.113	-141.630	-0.247	-0.025
-601.098	-200.000	0.023	-0.310
-600.084	69.505	-0.103	0.105
-599.069	-112.246	0.139	-0.028
-598.055	-0.341	0.296	0.209
-597.040	-31.925	-0.075	0.042
-596.025	800.000	0.076	0.246
-595.011	-200.000	0.035	-0.271
-593.996	623.444	0.012	-0.030
-592.982	247.696	-0.084	-0.141
-591.967	31.389	-0.099	0.084
-590.952	-200.000	0.026	0.274
-589.938	-50.231	-0.027	-0.013
-588.923	-155.731	-0.446	-0.028
-587.909	-102.839	-0.139	0.033
-586.894	-200.000	-0.013	-0.233
-585.879	-11.717	0.206	0.134
-584.865	800.000	0.087	0.269
-583.850	-73.300	-0.092	0.034
-582.836	-200.000	0.031	0.303
-581.821	-200.000	-0.006	-0.287
-580.806	-96.817	-0.271	-0.071
-579.792	800.000	-0.091	-0.252
-578.777	-200.000	-0.026	-0.225
-577.763	73.033	0.079	0.082
-576.748	-18.895	-0.189	0.117
-575.733	137.120	-0.135	-0.176
-574.719	-46.195	0.376	0.184
-573.704	-79.821	0.087	-0.029
-572.690	-107.821	-0.055	-0.012
-571.675	-51.422	0.428	0.198
-570.661	800.000	0.076	-0.231
-569.646	-187.553	-0.117	0.002
-568.631	-63.777	-0.368	0.150
-567.617	74.251	0.140	-0.146
-566.602	186.702	0.293	-0.433
-565.588	-200.000	-0.009	0.087
-564.573	-136.845	-0.327	0.037
-563.558	51.247	-0.320	0.302
-562.544	-86.794	-0.015	0.005
-561.529	62.336	-0.057	-0.056
-560.515	-167.067	-0.332	0.013
-559.500	800.000	-0.119	-0.342
-558.485	222.356	0.135	0.215
-557.471	40.577	-0.079	-0.071
-556.456	211.161	0.225	0.352
-555.442	331.331	-0.047	-0.090
-554.427	800.000	-0.069	-0.224
-553.412	-62.741	-0.217	0.089
-552.398	80.828	0.215	-0.230
-551.383	-55.689	0.338	0.150
-550.369	-15.042	-0.300	0.191
-549.354	-36.996	0.217	0.115
-548.339	-47.832	0.120	-0.058
-547.325	-100.428	0.237	-0.058
-546.310	-56.762	-0.164	-0.072
-545.296	241.866	-0.094	-0.157
-544.281	-15.438	-0.218	-0.138
-543.266	198.850	0.088	-0.134
-542.252	-34.778	-0.089	-0.048
-541.237	19.457	0.090	0.072
-540.223	-200.000	-0.022	0.324
-539.208	-184.485	-0.390	0.006
-538.193	111.972	0.116	0.139
-537.179	185.486	0.121	-0.179
-536.164	800.000	-0.097	-0.317
-535.150	167.110	-0.059	0.084
-534.135	564.905	0.050	-0.120
-533.121	296.166	-0.103	0.187
-532.106	-77.332	-0.320	0.110
-531.091	3.232	-0.138	-0.099
-530.077	-153.120	-0.538	0.037
-529.062	-28.294	-0.065	0.037
-528.048	-117.813	0.345	0.061
-527.033	-132.953	0.054	-0.007
-526.018	274.380	-0.125	0.219
-525.004	-200.000	0.010	0.514
-523.989	-69.830	-0.200	0.076
-522.975	-79.519	0.106	0.036
-521.960	307.412	-0.018	0.034
-520.945	-87.311	0.263	-0.079
-519.931	288.030	0.152	-0.273
-518.916	-200.000	-0.003	-0.031
-517.902	103.273	0.248	-0.288
-516.887	-167.412	-0.169	0.007
-515.872	800.000	0.055	0.213
-514.858	800.000	0.065	0.242
-513.843	127.069	0.046	-0.058
-512.829	289.273	-0.167	-0.299
-511.814	-28.584	-0.197	-0.113
-510.799	323.281	0.175	-0.331
-509.785	194.634	-0.151	0.227
-508.770	61.761	-0.227	0.224
-507.756	-90.615	0.230	0.066
-506.741	127.794	-0.216	-0.272
-505.726	393.772	-0.112	0.230
-504.712	-200.000	0.014	0.338
-503.697	800.000	0.078	0.299
-502.683	586.159	0.123	-0.298
-501.668	426.055	0.011	0.023
-500.653	642.445	0.033	-0.083
-499.639	-66.841	0.103	-0.040
-498.624	-82.606	-0.150	0.048
-497.610	-64.105	0.068	0.028
-496.595	0.931	-0.141	-0.100
-495.581	800.000	-0.041	0.143
-494.566	-25.859	0.154	-0.090
-493.551	-85.254	0.157	0.048
-492.537	800.000	0.075	-0.252
-491.522	85.668	0.103	-0.112
-490.508	-46.233	-0.246	-0.120
-489.493	-200.000	-0.025	0.186
-488.478	-200.000	0.021	-0.101
-487.464	-200.000	0.004	-0.163
-486.449	8.881	-0.085	-0.063
-485.435	199.930	0.214	-0.325
-484.420	-13.352	0.105	0.067
-483.405	800.000	-0.123	-0.361
-482.391	97.939	0.322	0.367
-481.376	-200.000	0.065	0.305
-480.362	77.488	-0.099	-0.104
-479.347	-200.000	0.015	-0.262
-478.332	800.000	-0.046	0.191
-477.318	200.845	0.144	0.219
-476.303	433.248	-0.152	0.327
-475.289	800.000	-0.045	0.146
-474.274	224.839	-0.165	-0.263
-473.259	12.662	0.101	0.077
-472.245	126.176	-0.100	0.125
-471.230	800.000	-0.025	0.068
-470.216	-200.000	-0.009	0.196
-469.201	24.213	-0.180	-0.147
-468.186	89.490	0.064	0.070
-467.172	-200.000	-0.010	0.064
-466.157	263.411	-0.186	-0.320
-465.143	800.000	0.037	-0.158
-464.128	-86.942	-0.192	-0.058
-463.113	46.618	0.201	-0.184
-462.099	-109.345	0.172	0.036
-461.084	158.780	-0.212	-0.292
-460.070	-41.992	-0.081	0.041
-459.055	142.320	0.087	-0.114
-458.040	-200.000	-0.012	0.085
-457.026	800.000	0.022	-0.087
-456.011	-37.308	0.321	0.170
-454.997	302.461	-0.149	-0.273
-453.982	-200.000	-0.001	-0.026
-452.968	395.657	-0.178	-0.367
-451.953	-200.000	-0.024	-0.357
-450.938	96.200	0.174	-0.197
-449.924	-200.000	0.013	0.194
-448.909	-88.147	0.267	-0.079
-447.895	279.276	-0.076	0.133
-446.880	-0.468	-0.471	-0.331
-445.865	61.420	-0.123	-0.121
-444.851	-80.236	-0.043	0.014
-443.836	-51.462	-0.244	0.113
-442.822	-12.628	0.310	0.200
-441.807	-200.000	0.001	-0.050
-440.792	-200.000	0.001	0.059
-439.778	41.614	-0.222	-0.199
-438.763	-104.864	0.304	-0.069
-437.749	660.507	0.108	-0.275
-436.734	265.960	0.228	-0.394
-435.719	33.471	-0.104	0.089
-434.705	-90.487	-0.198	0.057
-433.690	-200.000	-0.016	0.169
-432.676	800.000	0.071	0.270
-431.661	-91.401	0.166	-0.047
-430.646	-35.651	0.211	0.113
-429.632	800.000	-0.032	-0.091
-428.617	-200.000	-0.060	-0.376
-427.603	738.129	0.057	-0.151
-426.588	-91.076	0.209	0.059
-425.573	800.000	-0.110	-0.355
-424.559	254.646	0.160	0.271
-423.544	800.000	-0.073	0.271
-422.530	-76.954	-0.229	0.079
-421.515	-78.454	0.144	0.049
-420.500	642.675	-0.106	0.267
-419.486	43.462	0.340	0.307
-418.471	-200.000	-0.005	0.109
-417.457	-59.749	-0.139	0.059
-416.442	-21.336	0.207	0.125
-415.428	380.838	0.143	-0.289
-414.413	-62.336	-0.133	0.055
-413.398	-200.000	0.025	0.373
-412.384	-188.129	-0.300	-0.004
-411.369	0.916	-0.111	0.079
-410.355	47.555	0.128	-0.118
-409.340	198.228	0.062	0.094
-408.325	85.824	0.244	-0.264
-407.311	72.698	0.315	0.324
-406.296	-102.739	-0.400	0.094
-405.282	-200.000	0.011	0.130
-404.267	-104.660	0.471	-0.107
-403.252	-200.000	0.005	-0.086
-402.238	-54.958	-0.186	0.083
-401.223	-200.000	0.009	0.523
-400.209	3.236	0.036	-0.026
-399.194	-2.541	-0.300	-0.207
-398.179	52.928	-0.056	-0.052
-397.165	-180.622	0.180	-0.004
-396.150	54.322	0.280	-0.266
-395.136	-200.000	0.037	0.188
-394.121	516.914	0.136	-0.315
-393.106	107.570	0.279	-0.327
-392.092	-164.008	0.141	-0.006
-391.077	498.974	-0.087	-0.197
-390.063	131.574	0.043	0.055
-389.048	-70.288	-0.125	-0.047
-388.033	-116.456	0.066	0.012
-387.019	-110.576	0.104	-0.021
-386.004	-200.000	-0.013	0.273
-384.990	735.914	0.016	-0.042
-383.975	77.934	-0.055	-0.058
-382.960	-137.084	0.280	-0.032
-381.946	-164.905	0.328	-0.014
-380.931	-50.853	0.489	-0.227
-379.917	137.745	-0.182	-0.235
-378.902	-23.827	0.134	0.079
-377.888	-5.802	0.282	0.191
-376.873	-39.310	0.205	0.106
-375.858	126.428	0.088	0.109
-374.844	800.000	0.051	-0.214
-373.829	-200.000	-0.004	0.194
-372.815	-200.000	-0.027	-0.374
-371.800	125.610	0.257	0.320
-370.785	-30.002	-0.498	0.280
-369.771	-200.000	0.019	-0.177
-368.756	-104.706	-0.126	-0.029
-367.742	-128.344	0.355	0.050
-366.727	-0.943	-0.366	-0.255
-365.712	800.000	-0.108	0.318
-364.698	79.219	-0.060	0.063
-363.683	214.521	-0.108	-0.169
-362.669	391.705	-0.024	0.050
-361.654	-75.601	-0.212	-0.074
-360.639	-172.042	0.309	0.010
-359.625	-55.107	-0.171	-0.076
-358.610	-200.000	0.060	-0.322
-357.596	-200.000	-0.527	-0.002
-356.581	-132.074	-0.328	-0.042
-355.566	118.849	-0.068	-0.083
-354.552	-30.445	0.252	0.141
-353.537	-109.575	0.358	-0.074
-352.523	288.060	-0.093	-0.165
-351.508	-164.980	-0.157	0.007
-350.493	-70.037	0.097	0.036
-349.479	33.602	-0.110	-0.094
-348.464	800.000	-0.039	-0.127
-347.450	-200.000	0.027	0.000
-346.435	800.000	0.126	-0.451
-345.420	-36.236	0.188	-0.100
-344.406	599.541	0.043	0.106
-343.391	374.472	0.087	0.174
-342.377	-1.086	-0.125	0.087
-341.362	-135.919	0.121	0.014
-340.348	-91.344	-0.222	0.062
-339.333	60.833	0.222	-0.217
-338.318	-25.474	-0.070	0.041
-337.304	-107.073	0.193	0.042
-336.289	800.000	0.030	-0.090
-335.275	800.000	-0.055	0.176
-334.260	26.786	-0.395	-0.325
-333.245	-13.808	-0.117	0.075
-332.231	800.000	-0.008	0.030
-331.216	-200.000	0.012	0.148
-330.202	-200.000	0.075	0.387
-329.187	288.575	-0.096	-0.171
-328.172	-200.000	-0.010	-0.076
-327.158	-99.448	0.066	-0.016
-326.143	-22.066	0.043	0.026
-325.129	275.039	0.148	0.258
-324.114	34.100	-0.085	-0.072
-323.099	-31.666	-0.265	0.146
-322.085	331.237	0.100	0.189
-321.070	124.928	0.185	0.229
-320.056	-200.000	-0.018	0.301
-319.041	-133.511	0.420	0.052
-318.026	-200.000	-0.020	-0.119
-317.012	24.937	0.332	0.271
-315.997	-200.000	-0.055	0.646
-314.983	-200.000	-0.012	0.191
-313.968	-200.000	0.032	0.212
-312.953	800.000	-0.024	-0.090
-311.939	-74.033	0.470	0.167
-310.924	212.551	0.100	0.156
-309.910	104.883	0.074	-0.086
-308.895	-17.064	0.122	0.076
-307.880	17.111	0.161	0.126
-306.866	-200.000	-0.001	0.068
-305.851	-9.649	-0.249	-0.163
-304.837	-200.000	-0.043	0.259
-303.822	-200.000	-0.015	0.095
-302.807	38.139	-0.234	0.205
-301.793	-39.862	-0.274	0.141
-300.778	53.586	-0.170	0.160
-299.764	86.827	-0.019	-0.020
-298.749	-67.224	0.171	-0.066
-297.735	344.062	-0.082	-0.158
-296.720	106.415	-0.102	0.118
-295.705	800.000	0.060	0.201
-294.691	77.201	0.091	-0.095
-293.676	612.945	-0.118	-0.291
-292.662	-200.000	-0.035	-0.589
-291.647	155.918	0.155	0.209
-290.632	800.000	0.120	-0.357
-289.618	-1.165	0.253	-0.176
-288.603	18.064	0.200	-0.157
-287.589	4.766	0.073	0.053
-286.574	127.024	-0.178	-0.221
-285.559	-29.355	-0.301	0.169
-284.545	210.018	-0.098	0.151
-283.530	374.161	0.119	-0.238
-282.516	-50.025	0.282	-0.131
-281.501	-200.000	0.011	0.454
-280.486	-12.462	0.146	-0.094
-279.472	-200.000	-0.058	-0.290
-278.457	79.248	-0.090	0.095
-277.443	3.781	0.170	-0.122
-276.428	78.604	0.213	0.223
-275.413	-117.515	-0.162	-0.029
-274.399	78.485	0.164	0.172
-273.384	61.674	0.179	-0.175
-272.370	-3.036	-0.266	-0.182
-271.355	15.844	-0.112	0.087
-270.340	-179.739	-0.270	-0.006
-269.326	800.000	0.113	-0.327
-268.311	-199.222	-0.498	-0.003
-267.297	619.710	-0.172	0.424
-266.282	-29.819	-0.274	-0.154
-265.267	-6.006	-0.087	-0.058
-264.253	430.660	-0.057	-0.122
-263.238	-200.000	-0.335	0.000
-262.224	-28.189	-0.248	0.141
-261.209	800.000	0.036	-0.141
-260.195	359.378	-0.108	-0.212
-259.180	92.424	-0.207	-0.229
-258.165	800.000	0.161	0.517
-257.151	-60.832	0.272	0.113
-256.136	-200.000	-0.044	0.267
-255.122	-169.504	0.416	0.015
-254.107	26.725	0.207	-0.170
-253.092	-83.007	-0.160	0.050
-252.078	14.047	-0.182	0.139
-251.063	-54.516	0.327	-0.145
-250.049	445.261	-0.174	-0.374
-249.034	186.816	-0.093	-0.136
-248.019	-60.919	0.307	0.127
-247.005	-61.161	-0.283	-0.117
-245.990	-55.788	-0.081	-0.036
-244.976	-200.000	0.009	-0.262
-243.961	-87.494	0.170	-0.050
-242.946	-15.189	-0.298	-0.187
-241.932	543.264	-0.056	0.130
-240.917	-200.000	0.019	-0.158
-239.903	-200.000	-0.003	0.077
-238.888	800.000	0.118	0.382
-237.873	223.649	0.112	0.177
-236.859	499.401	-0.083	0.187
-235.844	48.493	-0.151	0.139
-234.830	-17.600	-0.213	0.131
-233.815	97.878	-0.072	-0.081
-232.800	26.348	-0.200	-0.164
-231.786	-72.684	-0.131	-0.047
-230.771	30.451	-0.250	-0.209
-229.757	573.398	0.186	0.446
-228.742	-67.173	-0.118	0.045
-227.727	68.381	-0.168	0.169
-226.713	30.280	-0.113	-0.095
-225.698	264.891	-0.064	0.109
-224.684	210.668	0.229	0.352
-223.669	-95.045	0.204	-0.054
-222.655	-8.632	0.281	0.185
-221.640	102.190	-0.138	0.158
-220.625	163.301	-0.131	0.180
-219.611	-200.000	-0.023	-0.326
-218.596	792.246	-0.082	-0.220
-217.582	112.164	-0.192	-0.227
-216.567	304.779	0.257	0.467
-215.552	-111.269	-0.303	0.061
-214.538	421.054	0.072	0.151
-213.523	-33.625	0.092	0.050
-212.509	700.559	-0.030	-0.077
-211.494	492.112	-0.073	-0.164
-210.479	6.070	0.181	-0.132
-209.465	176.270	0.165	0.235
-208.450	70.574	-0.157	-0.159
-207.436	-137.805	0.156	0.017
-206.421	-198.225	-0.324	0.002
-205.406	30.373	0.165	0.138
-204.392	-142.347	-0.084	0.008
-203.377	-112.147	0.206	-0.041
-202.363	-200.000	0.030	-0.150
-201.348	-137.850	0.362	-0.040
-200.333	-200.000	-0.033	-0.193
-199.319	-115.227	0.206	-0.038
-198.304	-70.292	-0.048	0.018
-197.290	69.066	0.079	-0.080
-196.275	-139.390	-0.293	0.031
-195.260	24.783	0.117	0.095
-194.246	100.255	-0.104	-0.118
-193.231	164.021	0.286	0.393
-192.217	-46.715	0.082	0.040
-191.202	-27.083	-0.429	0.245
-190.187	351.456	0.148	-0.286
-189.173	9.509	-0.180	0.133
-188.158	119.845	0.224	0.272
-187.144	301.212	-0.062	0.112
-186.129	-108.073	0.411	0.087
-185.114	-173.308	-0.087	-0.003
-184.100	-200.000	-0.016	0.147
-183.085	-200.000	-0.035	-0.199
-182.071	333.713	0.086	0.163
-181.056	-200.000	-0.034	0.274
-180.042	240.546	0.129	-0.211
-179.027	-103.733	-0.209	0.048
-178.012	-200.000	-0.008	0.231
-176.998	-81.731	-0.286	-0.092
-175.983	89.445	-0.165	-0.180
-174.969	87.733	0.171	0.185
-173.954	8.401	0.084	-0.062
-172.939	800.000	-0.166	-0.452
-171.925	328.359	0.071	-0.133
-170.910	-200.000	0.045	0.271
-169.896	152.007	0.046	0.061
-168.881	-104.646	0.184	-0.041
-167.866	-59.229	0.219	0.092
-166.852	800.000	0.036	0.145
-165.837	92.977	0.133	-0.146
-164.823	-200.000	-0.017	-0.166
-163.808	-29.143	0.552	0.309
-162.793	120.707	-0.250	0.304
-161.779	364.481	-0.135	0.266
-160.764	-47.591	-0.090	0.042
-159.750	800.000	-0.052	0.215
-158.735	-30.993	0.107	-0.059
-157.720	-107.359	-0.207	0.044
-156.706	363.769	-0.041	0.081
-155.691	800.000	0.048	0.199
-154.677	244.190	-0.153	-0.252
-153.662	120.972	-0.137	-0.167
-152.647	503.660	-0.044	0.099
-151.633	800.000	0.088	-0.259
-150.618	99.116	0.225	0.254
-149.604	222.993	0.071	0.112
-148.589	-75.245	-0.339	-0.118
-147.574	84.414	0.248	-0.265
-146.560	800.000	-0.084	0.345
-145.545	-117.296	-0.107	0.019
-144.531	188.166	0.131	-0.191
-143.516	-200.000	-0.045	-0.287
-142.502	-16.337	-0.368	0.228
-141.487	800.000	0.026	0.088
-140.472	476.977	-0.061	0.135
-139.458	-16.995	-0.242	0.149
-138.443	-200.000	-0.031	0.194
-137.429	28.146	-0.062	0.051
-136.414	-91.057	0.270	0.076
-135.399	800.000	-0.015	0.052
-134.385	248.207	-0.117	0.194
-133.370	-124.588	0.101	-0.015
-132.356	54.215	-0.223	-0.210
-131.341	-67.276	0.114	-0.044
-130.326	85.410	0.095	-0.102
-129.312	130.600	-0.032	0.040
-128.297	-106.520	-0.183	-0.040
-127.283	545.638	0.025	0.058
-126.268	-20.688	-0.237	-0.142
-125.253	-116.801	-0.074	0.013
-124.239	-200.000	0.008	-0.190
-123.224	-109.521	-0.106	-0.022
-122.210	345.557	0.017	0.032
-121.195	-122.453	0.369	-0.059
