DTS Sentinel unit serial number:	SN413079Multiplexer serial number:	ORYXHardware model number:	OX4-SRSoftware version number:	ORYX F/W v4.00 Oryx Data Collector v3.7.2.0data status	okinstallation	princeton_trtdifferential loss correction	single-endedforward channel	channel 3reverse channel	N/Adate	2019/09/16time	10:00:34forward acquisition time	60.00reverse acquisition time	0.00gamma	496.2192k internal	0.2315k external	0.2315temperature offset calibration	0.9948default loss term (dB/km)	0.3790temperature slope calibration	1.0000multiplexer offset coefficient	1.0000multiplexer slope coefficient	1.0000fibre end	0.00T internal ref (°C)	33.45T ext. ref 1 (°C)	12.38T ext. ref 2 (°C)	31.89length (m)	temperature (°C)	Stokes	anti-Stokes-747.200	-35.337	-0.125	0.069
-746.185	800.000	-0.038	0.154
-745.171	-107.165	0.246	0.055
-744.156	-169.744	0.298	0.011
-743.142	-48.177	0.214	0.105
-742.127	-169.355	0.296	-0.011
-741.112	-60.192	-0.249	-0.108
-740.098	-75.075	0.033	0.012
-739.083	190.431	0.129	-0.196
-738.069	-147.710	-0.385	0.033
-737.054	800.000	0.016	-0.056
-736.039	-155.136	0.080	0.005
-735.025	252.659	0.105	0.181
-734.010	122.798	0.225	0.285
-732.996	-83.952	-0.232	0.075
-731.981	187.949	0.104	0.157
-730.966	-10.471	0.050	0.033
-729.952	-107.337	0.134	-0.030
-728.937	345.619	-0.029	0.058
-727.923	197.053	0.173	0.267
-726.908	403.470	0.207	0.442
-725.894	-114.067	-0.096	0.019
-724.879	800.000	0.060	-0.229
-723.864	429.612	0.037	-0.080
-722.850	-108.928	-0.370	-0.080
-721.835	-200.000	-0.016	0.197
-720.821	-200.000	0.016	0.424
-719.806	174.638	-0.240	-0.352
-718.791	170.852	-0.034	0.050
-717.777	-85.775	0.407	0.128
-716.762	-200.000	0.033	0.177
-715.748	540.085	0.117	-0.282
-714.733	-155.950	0.170	-0.011
-713.718	-154.757	0.132	0.009
-712.704	510.777	-0.004	-0.009
-711.689	757.048	-0.127	0.349
-710.675	-104.102	-0.109	0.026
-709.660	-16.815	0.096	0.061
-708.645	-120.911	0.364	-0.062
-707.631	92.241	0.069	0.079
-706.616	-26.610	0.125	-0.074
-705.602	57.021	-0.089	0.088
-704.587	-200.000	0.018	-0.238
-703.572	800.000	-0.042	-0.129
-702.558	82.020	0.241	0.264
-701.543	261.413	-0.127	0.223
-700.529	-32.121	-0.218	0.124
-699.514	-49.804	-0.065	-0.031
-698.499	800.000	-0.039	0.157
-697.485	37.790	-0.272	0.245
-696.470	-32.777	-0.238	0.134
-695.456	-107.948	-0.186	-0.041
-694.441	-80.638	-0.249	-0.084
-693.426	800.000	-0.037	-0.147
-692.412	-200.000	-0.014	-0.091
-691.397	486.522	0.089	-0.204
-690.383	85.614	-0.138	-0.153
-689.368	-63.532	0.250	0.104
-688.354	-200.000	-0.025	0.143
-687.339	322.857	-0.165	-0.317
-686.324	800.000	0.073	-0.273
-685.310	129.899	-0.116	-0.150
-684.295	-10.287	-0.054	-0.036
-683.281	-177.427	-0.104	-0.003
-682.266	-74.897	-0.062	-0.022
-681.251	800.000	0.051	0.149
-680.237	-41.289	0.089	-0.047
-679.222	-200.000	-0.039	-0.187
-678.208	34.416	0.104	0.092
-677.193	-58.905	-0.139	0.061
-676.178	-38.003	-0.124	0.067
-675.164	-181.247	-0.277	-0.006
-674.149	318.115	-0.120	0.229
-673.135	-200.000	-0.195	0.000
-672.120	-200.000	0.008	-0.305
-671.105	-66.913	0.024	-0.010
-670.091	-200.000	0.000	-0.087
-669.076	37.782	-0.125	0.112
-668.062	487.913	0.161	0.371
-667.047	199.273	0.172	-0.266
-666.032	-47.386	-0.210	-0.103
-665.018	-34.541	0.150	-0.083
-664.003	-146.515	0.163	0.014
-662.989	187.636	-0.100	-0.151
-661.974	-42.268	-0.283	-0.146
-660.959	-43.731	0.090	0.046
-659.945	87.161	0.287	-0.321
-658.930	573.018	0.142	-0.351
-657.916	302.946	0.007	-0.013
-656.901	602.743	-0.132	-0.331
-655.886	135.977	0.247	-0.325
-654.872	-136.098	0.102	-0.012
-653.857	280.871	-0.033	-0.059
-652.843	-200.000	-0.150	0.000
-651.828	-27.220	0.300	-0.177
-650.814	800.000	0.025	0.092
-649.799	-155.973	-0.191	-0.012
-648.784	-16.247	0.302	0.194
-647.770	-93.101	-0.069	-0.020
-646.755	-141.680	0.152	-0.015
-645.741	86.599	0.193	0.214
-644.726	269.132	0.083	0.147
-643.711	-96.972	-0.082	-0.022
-642.697	93.118	0.126	0.144
-641.682	209.655	-0.026	-0.041
-640.668	-40.355	-0.357	-0.187
-639.653	171.873	-0.171	-0.249
-638.638	206.754	0.030	-0.046
-637.624	233.697	-0.064	-0.107
-636.609	739.047	-0.027	-0.073
-635.595	-78.677	-0.178	0.061
-634.580	320.402	0.077	-0.147
-633.565	800.000	0.043	-0.125
-632.551	-200.000	-0.239	0.000
-631.536	-60.894	0.051	-0.022
-630.522	-143.864	-0.521	-0.050
-629.507	146.639	0.141	-0.191
-628.492	12.001	-0.321	0.249
-627.478	34.524	-0.061	0.054
-626.463	-152.377	0.463	0.034
-625.449	129.246	0.237	0.306
-624.434	51.810	0.088	-0.085
-623.419	178.063	0.207	-0.304
-622.405	-200.000	0.026	-0.329
-621.390	-189.140	-0.155	-0.002
-620.376	-168.621	-0.106	-0.004
-619.361	-33.203	-0.291	-0.162
-618.346	102.416	-0.102	-0.120
-617.332	-158.643	0.259	0.015
-616.317	800.000	-0.059	0.221
-615.303	156.578	-0.094	0.131
-614.288	-22.442	-0.093	-0.057
-613.273	-11.019	-0.163	0.109
-612.259	45.827	-0.224	-0.209
-611.244	84.914	0.177	0.196
-610.230	800.000	-0.169	0.580
-609.215	-131.304	0.293	-0.039
-608.201	21.632	0.040	0.033
-607.186	116.084	0.251	0.310
-606.171	446.693	-0.047	-0.103
-605.157	-82.412	0.193	0.063
-604.142	-161.120	-0.336	-0.018
-603.128	800.000	0.074	-0.246
-602.113	-200.000	-0.008	0.246
-601.098	-131.312	-0.127	-0.017
-600.084	-120.973	-0.244	-0.041
-599.069	681.647	0.090	-0.235
-598.055	110.219	0.138	-0.167
-597.040	56.564	-0.117	-0.114
-596.025	800.000	-0.040	0.157
-595.011	-41.003	-0.333	-0.173
-593.996	-158.616	-0.321	-0.019
-592.982	-184.070	-0.127	0.002
-591.967	-114.036	0.174	0.034
-590.952	105.192	0.071	-0.085
-589.938	68.665	0.160	0.166
-588.923	-41.440	-0.115	0.060
-587.909	-2.366	0.327	-0.231
-586.894	207.894	0.024	-0.038
-585.879	168.691	0.223	0.320
-584.865	-200.000	0.036	0.310
-583.850	-200.000	-0.010	-0.136
-582.836	-184.376	-0.363	0.006
-581.821	-72.040	0.249	-0.093
-580.806	800.000	-0.012	0.049
-579.792	-46.671	0.068	0.033
-578.777	-200.000	-0.070	-0.381
-577.763	114.762	-0.170	-0.209
-576.748	-70.950	-0.306	-0.116
-575.733	800.000	-0.023	0.100
-574.719	46.514	-0.211	-0.197
-573.704	-124.292	0.241	-0.038
-572.690	-4.392	0.080	0.056
-571.675	-200.000	-0.017	-0.229
-570.661	-200.000	0.028	-0.207
-569.646	113.987	-0.079	-0.096
-568.631	279.532	0.045	0.080
-567.617	-60.961	0.310	-0.132
-566.602	-147.064	0.173	-0.015
-565.588	800.000	0.135	-0.523
-564.573	567.044	-0.115	-0.281
-563.558	123.598	0.122	0.154
-562.544	-95.492	0.133	0.036
-561.529	462.899	-0.076	-0.171
-560.515	432.453	-0.110	0.240
-559.500	-78.182	0.171	0.059
-558.485	274.530	-0.078	-0.139
-557.471	239.668	0.172	0.288
-556.456	-200.000	0.084	-0.442
-555.442	195.207	0.071	-0.109
-554.427	800.000	-0.079	-0.237
-553.412	-49.022	0.308	-0.148
-552.398	48.741	0.258	0.243
-551.383	-61.851	-0.104	-0.044
-550.369	-200.000	-0.038	0.344
-549.354	-107.101	0.064	-0.014
-548.339	-111.442	-0.176	0.036
-547.325	197.030	0.025	0.038
-546.310	-141.334	-0.152	-0.016
-545.296	55.097	0.276	0.268
-544.281	50.162	-0.105	0.100
-543.266	1.842	0.185	0.134
-542.252	27.349	-0.135	0.114
-541.237	800.000	-0.039	0.118
-540.223	-29.088	0.223	-0.128
-539.208	-200.000	-0.002	0.310
-538.193	-82.053	-0.111	-0.036
-537.179	-37.702	-0.145	-0.078
-536.164	74.438	-0.237	-0.250
-535.150	-4.043	0.270	0.188
-534.135	460.558	0.078	0.174
-533.121	800.000	-0.131	0.427
-532.106	272.747	-0.095	0.168
-531.091	391.950	0.034	0.070
-530.077	68.519	-0.089	0.091
-529.062	92.545	-0.149	0.168
-528.048	-200.000	0.001	0.270
-527.033	-101.886	0.219	0.053
-526.018	-57.318	0.200	0.088
-525.004	-92.355	-0.228	-0.065
-523.989	800.000	-0.075	-0.210
-522.975	-185.414	0.187	-0.003
-521.960	203.435	-0.099	0.154
-520.945	-200.000	0.030	0.192
-519.931	31.308	-0.182	0.157
-518.916	-199.208	-0.039	-0.000
-517.902	-126.740	0.203	0.030
-516.887	-127.903	-0.200	0.029
-515.872	214.849	-0.072	0.115
-514.858	382.893	-0.113	0.234
-513.843	-171.391	-0.135	-0.005
-512.829	385.540	-0.095	0.198
-511.814	623.797	0.173	0.438
-510.799	-131.502	-0.241	0.032
-509.785	-81.853	-0.380	0.125
-508.770	-200.000	-0.026	-0.205
-507.756	-66.080	-0.189	-0.076
-506.741	304.628	-0.091	0.170
-505.726	147.382	0.136	0.183
-504.712	-72.122	-0.140	0.052
-503.697	-121.932	0.383	0.063
-502.683	297.107	0.064	-0.118
-501.668	65.098	0.191	0.194
-500.653	-31.583	0.158	-0.089
-499.639	0.391	0.220	-0.157
-498.624	-167.556	0.346	-0.014
-497.610	800.000	0.039	-0.149
-496.595	37.059	0.020	-0.018
-495.581	-108.069	0.481	-0.105
-494.566	-200.000	0.013	-0.060
-493.551	-156.530	-0.089	0.006
-492.537	-59.966	0.159	-0.068
-491.522	-102.616	0.129	0.031
-490.508	-61.208	-0.254	0.107
-489.493	800.000	0.095	-0.393
-488.478	306.459	-0.036	-0.067
-487.464	425.199	-0.051	-0.111
-486.449	190.864	0.028	0.042
-485.435	-200.000	-0.067	-0.323
-484.420	179.739	0.166	-0.244
-483.405	54.549	-0.151	0.146
-482.391	-18.986	0.045	0.028
-481.376	-40.877	0.040	-0.021
-480.362	-50.710	-0.153	0.072
-479.347	-96.367	-0.082	-0.022
-478.332	-110.176	0.141	-0.029
-477.318	-200.000	0.011	0.131
-476.303	-135.460	-0.180	-0.022
-475.289	225.739	-0.104	0.170
-474.274	-78.165	0.148	0.051
-473.259	8.412	0.153	0.115
-472.245	-200.000	0.086	-0.435
-471.230	-22.561	0.231	0.140
-470.216	800.000	0.029	0.090
-469.201	230.190	0.189	0.309
-468.186	800.000	-0.038	-0.124
-467.172	-46.046	-0.080	0.040
-466.157	66.685	0.209	-0.213
-465.143	-58.275	-0.263	-0.115
-464.128	-133.670	0.315	0.039
-463.113	-95.073	-0.234	0.063
-462.099	191.245	0.239	-0.360
-461.084	-58.885	0.052	-0.022
-460.070	26.346	-0.200	-0.168
-459.055	11.712	-0.110	-0.084
-458.040	-91.282	0.125	0.036
-457.026	154.144	0.007	0.010
-456.011	173.701	-0.106	0.154
-454.997	24.043	0.165	-0.136
-453.982	-200.000	-0.063	0.326
-452.968	-200.000	0.018	0.168
-451.953	-11.774	0.046	-0.030
-450.938	-43.098	-0.092	0.046
-449.924	79.505	-0.102	-0.110
-448.909	-75.026	0.140	-0.050
-447.895	92.169	0.045	-0.051
-446.880	800.000	0.065	-0.183
-445.865	275.823	0.092	0.164
-444.851	-200.000	0.056	0.317
-443.836	-200.000	-0.008	-0.166
-442.822	-103.257	-0.134	-0.032
-441.807	-48.159	0.181	0.088
-440.792	-152.737	0.165	0.012
-439.778	-191.226	0.355	0.004
-438.763	300.742	0.032	-0.060
-437.749	-111.552	-0.514	-0.105
-436.734	17.932	0.109	-0.087
-435.719	681.174	-0.059	0.155
-434.705	116.442	0.206	-0.253
-433.690	-174.213	-0.043	-0.001
-432.676	-200.000	-0.056	0.385
-431.661	-176.432	-0.191	-0.005
-430.646	235.702	0.179	0.297
-429.632	50.245	-0.129	-0.122
-428.617	74.589	0.291	-0.307
-427.603	37.770	-0.170	-0.151
-426.588	-200.000	-0.004	-0.090
-425.573	424.181	-0.120	0.258
-424.559	-161.871	0.092	-0.005
-423.544	-53.478	0.235	-0.107
-422.530	-195.313	0.211	-0.002
-421.515	-40.512	0.364	0.189
-420.500	-200.000	-0.008	0.042
-419.486	699.075	-0.089	0.235
-418.471	-200.000	0.010	-0.373
-417.457	-64.964	-0.114	-0.046
-416.442	358.524	-0.072	-0.143
-415.428	538.711	-0.086	-0.204
-414.413	-200.000	0.001	0.011
-413.398	-133.080	-0.357	-0.045
-412.384	132.338	-0.182	0.235
-411.369	800.000	0.046	-0.189
-410.355	-67.303	-0.353	0.139
-409.340	-11.030	-0.324	-0.214
-408.325	-184.238	0.239	-0.004
-407.311	-200.000	-0.038	-0.446
-406.296	800.000	-0.089	0.302
-405.282	-111.319	0.438	-0.089
-404.267	-85.883	-0.177	0.055
-403.252	284.511	-0.030	-0.055
-402.238	-117.941	0.325	-0.058
-401.223	297.611	0.052	-0.095
-400.209	-33.427	-0.124	0.069
-399.194	-66.763	-0.441	0.174
-398.179	-75.544	-0.092	-0.033
-397.165	-129.151	-0.167	0.023
-396.150	-200.000	-0.031	-0.494
-395.136	243.960	0.069	-0.116
-394.121	433.761	-0.083	0.181
-393.106	-74.502	-0.425	-0.153
-392.092	201.355	0.141	-0.217
-391.077	-50.740	-0.200	-0.094
-390.063	-200.000	0.025	-0.170
-389.048	-25.663	0.242	-0.143
-388.033	800.000	0.049	0.211
-387.019	800.000	0.053	0.202
-386.004	-116.144	-0.087	0.016
-384.990	-30.822	0.254	-0.143
-383.975	109.184	-0.142	0.170
-382.960	45.571	0.234	0.216
-381.946	352.060	-0.094	0.187
-380.931	800.000	-0.063	0.184
-379.917	-200.000	-0.015	-0.086
-378.902	-169.581	-0.483	-0.018
-377.888	-69.563	0.156	-0.060
-376.873	16.925	0.155	0.123
-375.858	27.478	0.117	0.099
-374.844	370.769	-0.136	0.275
-373.829	-142.940	-0.344	-0.033
-372.815	217.014	0.047	0.075
-371.800	-102.143	0.074	0.018
-370.785	224.911	-0.103	-0.167
-369.771	-91.322	0.463	0.132
-368.756	-90.913	-0.217	-0.062
-367.742	800.000	-0.045	0.189
-366.727	-134.328	-0.251	0.031
-365.712	-65.955	0.213	-0.085
-364.698	-200.000	-0.034	-0.241
-363.683	-108.778	-0.274	0.058
-362.669	546.108	0.046	-0.110
-361.654	-200.000	0.017	0.146
-360.639	-26.494	0.240	0.141
-359.625	-126.057	0.109	-0.016
-358.610	-109.509	-0.064	0.013
-357.596	118.059	0.084	-0.104
-356.581	151.591	-0.145	-0.197
-355.566	-158.350	0.017	-0.001
-354.552	108.483	-0.170	0.203
-353.537	53.119	-0.222	-0.213
-352.523	-200.000	-0.012	0.099
-351.508	800.000	-0.073	0.211
-350.493	-14.776	-0.162	-0.104
-349.479	-63.728	0.176	-0.072
-348.464	14.704	0.073	-0.057
-347.450	35.662	0.087	-0.076
-346.435	248.065	-0.125	0.210
-345.420	61.313	0.287	-0.284
-344.406	800.000	0.024	-0.067
-343.391	477.966	0.064	-0.145
-342.377	800.000	-0.051	0.156
-341.362	588.261	0.051	0.125
-340.348	800.000	-0.052	-0.193
-339.333	-200.000	0.011	0.096
-338.318	296.652	-0.073	-0.134
-337.304	-49.562	-0.228	-0.108
-336.289	115.640	0.062	0.076
-335.275	9.591	-0.059	-0.045
-334.260	-200.000	0.056	-0.274
-333.245	-200.000	0.011	0.091
-332.231	70.093	-0.089	-0.092
-331.216	-43.171	0.180	-0.091
-330.202	-172.294	-0.249	0.008
-329.187	-6.511	-0.149	-0.101
-328.172	122.243	0.116	0.144
-327.158	-14.825	-0.298	0.190
-326.143	-147.905	0.251	-0.021
-325.129	47.445	0.221	0.205
-324.114	-200.000	0.013	-0.516
-323.099	-121.851	-0.301	-0.049
-322.085	-85.976	0.122	-0.038
-321.070	800.000	-0.135	0.403
-320.056	-53.768	-0.316	0.144
-319.041	800.000	-0.078	0.257
-318.026	356.464	-0.104	-0.206
-317.012	800.000	-0.082	0.271
-315.997	340.815	-0.107	0.208
-314.983	-200.000	0.005	0.069
-313.968	-200.000	0.004	-0.189
-312.953	-200.000	-0.027	-0.282
-311.939	-195.187	0.205	-0.002
-310.924	-19.126	0.113	-0.070
-309.910	-5.144	-0.068	-0.047
-308.895	-70.014	-0.169	0.064
-307.880	128.082	-0.141	-0.178
-306.866	-9.402	-0.168	0.112
-305.851	-171.084	0.379	-0.013
-304.837	-105.466	-0.180	-0.041
-303.822	-200.000	0.002	0.117
-302.807	-200.000	0.033	0.155
-301.793	-173.426	-0.175	0.005
-300.778	800.000	-0.053	0.217
-299.764	17.849	-0.222	0.176
-298.749	-191.264	0.140	-0.001
-297.735	-97.166	-0.254	-0.066
-296.720	-200.000	0.048	-0.352
-295.705	-179.965	0.283	0.006
-294.691	-90.113	-0.118	-0.034
-293.676	-47.073	0.264	0.128
-292.662	107.788	-0.048	-0.057
-291.647	-33.662	-0.185	0.102
-290.632	800.000	0.026	0.084
-289.618	-36.553	0.360	0.193
-288.603	8.275	0.229	0.171
-287.589	-200.000	0.038	0.200
-286.574	-200.000	0.026	-0.151
-285.559	-196.702	-0.282	0.002
-284.545	-200.000	-0.010	0.122
-283.530	-200.000	0.024	-0.237
-282.516	51.185	0.171	-0.162
-281.501	285.098	-0.192	-0.344
-280.486	113.449	0.218	0.263
-279.472	-16.500	0.179	-0.113
-278.457	-94.026	-0.119	0.033
-277.443	-200.000	-0.010	0.072
-276.428	53.012	-0.201	0.192
-275.413	-100.691	0.209	0.051
-274.399	-32.809	0.199	-0.110
-273.384	16.092	-0.160	0.126
-272.370	-117.362	-0.201	0.036
-271.355	-22.533	-0.204	-0.123
-270.340	-200.000	-0.023	-0.213
-269.326	-200.000	-0.014	-0.496
-268.311	-4.578	-0.162	-0.111
-267.297	321.793	0.128	-0.241
-266.282	-18.357	-0.076	-0.047
-265.267	-50.076	0.227	0.107
-264.253	53.051	-0.063	-0.060
-263.238	124.532	-0.110	0.137
-262.224	-200.000	-0.022	-0.337
-261.209	-9.132	0.188	-0.125
-260.195	704.727	-0.097	0.254
-259.180	800.000	0.050	-0.155
-258.165	-174.978	-0.007	0.000
-257.151	-105.288	0.025	0.006
-256.136	-27.865	0.234	0.135
-255.122	-72.219	-0.272	0.100
-254.107	-37.055	0.199	-0.106
-253.092	1.924	0.272	0.195
-252.078	423.358	-0.079	-0.168
-251.063	800.000	0.069	-0.249
-250.049	-200.000	0.033	-0.368
-249.034	-200.000	0.002	-0.155
-248.019	-113.152	0.086	-0.017
-247.005	-200.000	-0.008	0.253
-245.990	17.825	0.319	-0.252
-244.976	-200.000	0.050	0.314
-243.961	654.798	0.086	-0.219
-242.946	452.018	0.133	0.292
-241.932	10.441	0.250	-0.189
-240.917	-200.000	-0.054	-0.439
-239.903	-20.148	-0.063	0.039
-238.888	276.808	0.250	0.442
-237.873	-127.146	-0.037	0.005
-236.859	339.447	-0.051	0.099
-235.844	-200.000	-0.071	0.367
-234.830	800.000	0.131	0.443
-233.815	800.000	-0.061	0.246
-232.800	445.195	0.185	0.403
-231.786	-134.793	-0.345	0.042
-230.771	-73.595	0.136	-0.049
-229.757	-151.310	0.191	-0.014
-228.742	397.631	0.079	0.164
-227.727	268.978	-0.194	-0.338
-226.713	-29.599	0.189	0.107
-225.698	-50.717	-0.310	-0.145
-224.684	6.008	0.078	-0.057
-223.669	156.079	0.119	0.163
-222.655	-116.060	-0.243	-0.045
-221.640	-49.085	0.195	-0.093
-220.625	611.270	0.069	0.171
-219.611	407.504	-0.083	-0.175
-218.596	112.823	-0.161	-0.193
-217.582	-28.435	-0.227	-0.130
-216.567	800.000	0.019	0.069
-215.552	-141.112	0.134	-0.014
-214.538	-102.936	0.085	0.020
-213.523	233.449	-0.027	0.045
-212.509	71.196	0.209	0.215
-211.494	109.336	0.097	0.116
-210.479	-26.962	-0.111	-0.064
-209.465	-29.284	-0.146	0.083
-208.450	80.401	0.033	-0.035
-207.436	366.048	-0.065	-0.130
-206.421	217.614	0.138	-0.219
-205.406	379.365	0.096	-0.194
-204.392	-89.822	0.124	0.036
-203.377	-29.435	-0.327	0.185
-202.363	-200.000	0.002	0.214
-201.348	5.333	0.045	-0.033
-200.333	-21.079	-0.338	-0.205
-199.319	-200.000	0.049	-0.308
-198.304	145.103	-0.263	0.349
-197.290	-13.195	0.202	-0.130
-196.275	-66.749	0.197	-0.077
-195.260	-52.441	-0.158	0.072
-194.246	-50.215	0.163	-0.076
-193.231	223.322	-0.164	0.262
-192.217	-200.000	0.057	0.371
-191.202	-123.891	0.213	0.033
-190.187	-200.000	-0.016	0.150
-189.173	250.843	0.080	-0.135
-188.158	293.328	0.113	-0.205
-187.144	185.540	0.073	0.107
-186.129	92.335	0.352	0.393
-185.114	-119.110	0.336	-0.058
-184.100	-200.000	0.037	-0.264
-183.085	104.602	-0.246	-0.287
-182.071	-75.801	-0.232	0.082
-181.056	27.236	0.168	0.140
-180.042	321.196	0.054	-0.102
-179.027	243.932	0.105	-0.175
-178.012	800.000	-0.128	-0.373
-176.998	-114.741	0.226	-0.043
-175.983	86.212	0.100	-0.110
-174.969	-91.712	-0.315	0.089
-173.954	-200.000	-0.056	-0.248
-172.939	553.549	-0.029	-0.069
-171.925	-94.684	-0.485	-0.131
-170.910	-68.160	-0.103	-0.040
-169.896	-114.715	-0.083	0.016
-168.881	111.849	0.102	0.122
-167.866	51.531	0.177	0.167
-166.852	-65.777	0.317	0.126
-165.837	-180.109	0.132	0.003
-164.823	-10.030	-0.167	-0.110
-163.808	366.042	-0.107	-0.213
-162.793	-200.000	-0.035	0.303
-161.779	639.292	0.130	0.328
-160.764	-200.000	-0.016	-0.111
-159.750	-140.602	-0.220	-0.023
-158.735	-16.766	-0.220	-0.138
-157.720	-115.425	0.213	0.040
-156.706	800.000	0.080	0.235
-155.691	800.000	0.038	0.125
-154.677	-146.510	0.123	0.011
-153.662	-114.216	-0.225	0.043
-152.647	-200.000	-0.035	0.343
-151.633	-32.308	-0.281	-0.155
-150.618	345.410	-0.140	-0.272
-149.604	-144.553	-0.152	0.014
-148.589	-39.342	0.137	0.071
-147.574	268.531	0.125	-0.217
-146.560	406.090	-0.090	0.188
-145.545	399.096	-0.089	0.185
-144.531	-50.017	0.231	-0.108
-143.516	453.107	0.053	-0.116
-142.502	-42.353	-0.186	-0.094
-141.487	133.117	0.103	0.132
-140.472	155.151	0.154	0.210
-139.458	-57.156	0.193	0.084
-138.443	-38.343	-0.164	-0.086
-137.429	40.385	0.147	-0.131
-136.414	247.304	0.097	0.162
-135.399	-200.000	0.076	-0.364
-134.385	-159.668	0.202	0.011
-133.370	-146.363	-0.165	-0.014
-132.356	-78.446	0.499	0.169
-131.341	267.973	0.177	-0.306
-130.326	-86.411	-0.137	0.042
-129.312	-200.000	-0.029	-0.296
-128.297	91.101	-0.125	-0.138
-127.283	160.512	-0.107	-0.148
-126.268	322.147	-0.108	-0.203
-125.253	-92.717	0.299	0.083
-124.239	-200.000	0.014	0.087
-123.224	800.000	-0.077	0.218
-122.210	425.291	0.093	-0.197
