DTS Sentinel unit serial number:	SN413079Multiplexer serial number:	ORYXHardware model number:	OX4-SRSoftware version number:	ORYX F/W v4.00 Oryx Data Collector v3.7.2.0data status	okinstallation	princeton_trtdifferential loss correction	single-endedforward channel	channel 3reverse channel	N/Adate	2019/09/15time	04:00:35forward acquisition time	60.00reverse acquisition time	0.00gamma	496.2192k internal	0.2323k external	0.2323temperature offset calibration	0.9967default loss term (dB/km)	0.3790temperature slope calibration	1.0000multiplexer offset coefficient	1.0000multiplexer slope coefficient	1.0000fibre end	0.00T internal ref (°C)	30.94T ext. ref 1 (°C)	4.62T ext. ref 2 (°C)	25.86length (m)	temperature (°C)	Stokes	anti-Stokes-747.200	-200.000	0.003	0.057
-746.185	-94.592	-0.141	-0.039
-745.171	-93.546	-0.161	-0.045
-744.156	-54.932	0.119	0.054
-743.142	675.591	0.096	-0.253
-742.127	-200.000	-0.013	-0.078
-741.112	178.797	0.183	0.270
-740.098	-104.692	-0.062	0.014
-739.083	189.039	0.065	0.099
-738.069	189.735	-0.222	0.336
-737.054	-58.698	-0.060	0.026
-736.039	531.472	0.116	-0.278
-735.025	61.348	0.255	0.256
-734.010	74.302	-0.062	-0.065
-732.996	-200.000	-0.009	0.125
-731.981	250.274	-0.058	-0.099
-730.966	-200.000	-0.004	-0.057
-729.952	-200.000	0.003	-0.132
-728.937	69.582	0.131	0.136
-727.923	800.000	-0.080	-0.307
-726.908	707.257	0.071	0.190
-725.894	-156.956	-0.229	-0.014
-724.879	-23.172	-0.298	0.181
-723.864	-8.729	-0.231	0.156
-722.850	185.090	-0.181	-0.271
-721.835	-42.953	-0.213	0.109
-720.821	-104.500	-0.076	0.018
-719.806	-127.000	-0.195	-0.029
-718.791	285.894	-0.221	0.402
-717.777	-200.000	-0.022	-0.109
-716.762	-200.000	0.067	-0.419
-715.748	-103.522	0.310	0.073
-714.733	800.000	0.091	-0.266
-713.718	-200.000	0.014	0.316
-712.704	306.873	-0.025	0.047
-711.689	75.705	0.171	-0.182
-710.675	16.075	0.048	-0.038
-709.660	334.441	0.183	-0.357
-708.645	-39.916	0.259	-0.137
-707.631	-182.380	0.146	-0.003
-706.616	380.034	-0.096	0.198
-705.602	-80.946	-0.111	-0.037
-704.587	-200.000	-0.041	0.213
-703.572	-114.954	0.320	0.061
-702.558	16.033	-0.220	-0.175
-701.543	570.633	0.087	-0.212
-700.529	-87.120	0.032	-0.010
-699.514	437.509	-0.089	-0.196
-698.499	24.700	-0.081	-0.068
-697.485	800.000	0.027	-0.076
-696.470	-200.000	-0.006	0.089
-695.456	260.235	0.228	0.397
-694.441	182.320	-0.217	-0.323
-693.426	9.468	0.139	0.106
-692.412	-200.000	-0.001	-0.058
-691.397	78.383	0.300	-0.323
-690.383	-95.090	-0.279	0.076
-689.368	1.211	-0.140	0.101
-688.354	-108.727	0.143	-0.031
-687.339	-200.000	-0.023	0.256
-686.324	-200.000	-0.061	0.340
-685.310	800.000	0.045	-0.151
-684.295	-94.017	0.192	0.053
-683.281	-200.000	0.001	0.083
-682.266	-200.000	0.060	-0.338
-681.251	94.530	0.144	-0.165
-680.237	-25.932	-0.169	-0.100
-679.222	800.000	-0.051	0.202
-678.208	-85.250	-0.472	0.149
-677.193	-102.721	0.170	0.041
-676.178	160.357	-0.201	0.282
-675.164	-161.672	0.195	0.010
-674.149	-121.644	0.183	-0.030
-673.135	8.181	0.130	-0.099
-672.120	-147.629	0.017	0.001
-671.105	182.542	0.071	0.106
-670.091	-165.129	0.204	0.009
-669.076	800.000	-0.057	0.213
-668.062	800.000	-0.119	-0.342
-667.047	-174.829	0.196	0.006
-666.032	268.076	0.155	-0.274
-665.018	-146.824	0.142	-0.012
-664.003	800.000	-0.078	0.295
-662.989	35.599	-0.265	0.234
-661.974	-200.000	-0.004	-0.128
-660.959	-200.000	0.020	-0.138
-659.945	687.633	-0.120	-0.315
-658.930	-200.000	0.029	-0.157
-657.916	-90.354	-0.051	-0.015
-656.901	113.452	-0.130	-0.159
-655.886	-86.780	-0.214	-0.066
-654.872	620.333	-0.058	0.147
-653.857	-53.442	-0.120	0.055
-652.843	800.000	-0.137	-0.442
-651.828	50.341	-0.182	0.173
-650.814	-173.978	-0.078	0.002
-649.799	800.000	-0.075	0.268
-648.784	53.133	0.216	0.208
-647.770	-48.561	-0.104	-0.050
-646.755	45.729	-0.249	-0.232
-645.741	241.786	0.082	-0.138
-644.726	-90.846	-0.095	-0.028
-643.711	-200.000	-0.032	0.174
-642.697	346.172	0.015	-0.029
-641.682	226.927	-0.235	-0.384
-640.668	204.665	-0.298	0.464
-639.653	-200.000	-0.000	-0.118
-638.638	800.000	-0.029	0.093
-637.624	-45.397	-0.097	-0.048
-636.609	-148.131	-0.172	0.014
-635.595	-17.735	-0.116	0.073
-634.580	92.517	0.209	-0.237
-633.565	-87.088	0.317	0.097
-632.551	181.441	0.118	0.174
-631.536	53.180	0.228	0.220
-630.522	-112.806	0.307	0.061
-629.507	91.806	0.105	-0.119
-628.492	800.000	0.111	0.340
-627.478	184.318	0.177	0.263
-626.463	29.499	-0.131	0.112
-625.449	441.948	0.185	0.407
-624.434	360.571	-0.182	-0.366
-623.419	-55.063	-0.203	0.092
-622.405	800.000	0.044	-0.129
-621.390	800.000	-0.051	0.188
-620.376	-200.000	0.030	0.273
-619.361	113.363	0.122	0.148
-618.346	-161.369	-0.087	-0.005
-617.332	-200.000	0.026	0.273
-616.317	246.397	-0.050	-0.085
-615.303	169.237	0.141	-0.203
-614.288	-184.356	0.094	-0.002
-613.273	152.428	-0.117	-0.160
-612.259	800.000	0.013	0.054
-611.244	-64.818	0.158	0.064
-610.230	-19.542	-0.169	-0.105
-609.215	-200.000	0.005	0.135
-608.201	-14.706	0.098	-0.063
-607.186	-45.709	-0.464	-0.230
-606.171	138.781	-0.208	-0.274
-605.157	-200.000	0.001	-0.088
-604.142	70.031	0.052	0.054
-603.128	800.000	-0.116	0.388
-602.113	-200.000	0.001	-0.040
-601.098	-70.392	-0.121	0.046
-600.084	-100.866	0.006	0.001
-599.069	-43.929	-0.080	-0.040
-598.055	390.232	-0.109	-0.228
-597.040	-200.000	0.001	-0.106
-596.025	603.146	0.179	-0.447
-595.011	-71.400	0.086	0.032
-593.996	-88.893	-0.211	-0.063
-592.982	-200.000	0.009	-0.308
-591.967	-200.000	0.022	0.184
-590.952	433.564	-0.170	0.371
-589.938	-200.000	-0.027	-0.140
-588.923	39.706	0.094	0.084
-587.909	-51.889	0.180	-0.084
-586.894	263.801	-0.072	0.126
-585.879	45.108	0.141	0.130
-584.865	-134.567	-0.050	-0.006
-583.850	88.818	0.023	0.025
-582.836	-200.000	-0.038	-0.317
-581.821	156.179	-0.273	-0.378
-580.806	-21.734	0.337	0.206
-579.792	800.000	-0.057	-0.249
-578.777	-92.678	0.034	0.010
-577.763	78.154	-0.078	0.084
-576.748	34.207	0.309	0.271
-575.733	-98.421	-0.208	-0.053
-574.719	-9.320	-0.157	-0.105
-573.704	329.818	-0.087	-0.169
-572.690	267.935	0.068	-0.119
-571.675	-94.511	-0.117	-0.032
-570.661	-200.000	-0.011	-0.252
-569.646	389.226	0.107	0.221
-568.631	-86.516	-0.105	-0.032
-567.617	-200.000	-0.014	0.209
-566.602	130.443	-0.021	-0.027
-565.588	-95.636	-0.086	0.023
-564.573	-51.746	-0.139	0.065
-563.558	-133.530	0.310	0.039
-562.544	195.263	-0.173	-0.263
-561.529	-173.354	0.275	-0.008
-560.515	-40.592	0.354	-0.184
-559.500	28.557	0.092	0.078
-558.485	35.683	0.242	-0.213
-557.471	-51.855	-0.165	-0.077
-556.456	-115.661	0.097	-0.018
-555.442	-71.264	-0.287	-0.108
-554.427	-90.038	-0.185	0.054
-553.412	-200.000	-0.016	-0.278
-552.398	-48.547	0.418	-0.201
-551.383	116.907	-0.108	0.132
-550.369	-134.846	-0.203	-0.025
-549.354	30.521	-0.177	-0.152
-548.339	259.309	-0.097	-0.167
-547.325	63.898	0.116	0.117
-546.310	104.825	0.090	0.106
-545.296	186.750	-0.046	0.068
-544.281	-58.690	0.310	0.135
-543.266	800.000	0.014	0.046
-542.252	224.668	-0.120	0.194
-541.237	-63.220	0.387	0.160
-540.223	2.850	-0.297	-0.216
-539.208	-200.000	0.037	0.000
-538.193	66.273	-0.228	-0.232
-537.179	-200.000	0.025	0.238
-536.164	43.213	-0.016	0.014
-535.150	238.893	-0.112	-0.187
-534.135	19.597	-0.154	-0.124
-533.121	-34.816	-0.294	0.161
-532.106	46.875	-0.041	0.038
-531.091	-82.991	0.248	-0.080
-530.077	124.508	0.084	0.106
-529.062	-158.158	0.335	0.020
-528.048	-200.000	-0.069	0.386
-527.033	411.136	0.096	-0.204
-526.018	800.000	-0.027	-0.105
-525.004	393.456	0.049	0.103
-523.989	-20.324	-0.118	-0.072
-522.975	800.000	-0.025	-0.070
-521.960	-144.407	0.309	-0.029
-520.945	113.747	-0.080	0.097
-519.931	-200.000	0.015	-0.517
-518.916	157.067	0.042	0.059
-517.902	113.929	-0.192	-0.233
-516.887	-118.056	-0.340	0.061
-515.872	167.073	0.194	-0.276
-514.858	256.157	0.063	-0.107
-513.843	-8.344	0.160	-0.108
-512.829	800.000	-0.130	0.422
-511.814	-200.000	0.044	0.302
-510.799	-62.024	0.142	0.059
-509.785	-21.307	-0.110	0.067
-508.770	8.809	-0.391	-0.295
-507.756	-200.000	0.032	-0.183
-506.741	128.808	0.068	0.087
-505.726	176.404	-0.204	-0.296
-504.712	800.000	0.106	-0.422
-503.697	242.216	-0.130	-0.217
-502.683	-117.809	-0.090	0.016
-501.668	-81.132	-0.041	-0.013
-500.653	-133.710	-0.300	-0.037
-499.639	-200.000	0.003	0.098
-498.624	-109.667	-0.320	-0.067
-497.610	114.041	-0.134	0.163
-496.595	44.600	-0.244	-0.225
-495.581	383.072	-0.011	-0.023
-494.566	-138.340	0.382	0.042
-493.551	48.461	0.112	0.105
-492.537	-60.850	0.053	-0.022
-491.522	-56.294	-0.265	-0.118
-490.508	162.307	-0.199	0.279
-489.493	98.441	0.144	0.166
-488.478	800.000	0.061	-0.249
-487.464	-200.000	-0.002	0.032
-486.449	319.305	-0.087	-0.165
-485.435	-83.870	-0.162	0.052
-484.420	71.053	0.245	0.254
-483.405	-115.902	-0.416	-0.078
-482.391	-200.000	0.031	-0.198
-481.376	800.000	0.060	-0.176
-480.362	-41.233	0.125	-0.064
-479.347	-38.973	0.262	0.138
-478.332	199.727	-0.148	-0.228
-477.318	369.373	-0.170	-0.343
-476.303	-200.000	-0.021	0.156
-475.289	-81.473	0.110	0.036
-474.274	-78.058	-0.085	0.029
-473.259	-116.682	0.189	0.035
-472.245	-104.095	0.260	-0.060
-471.230	-48.648	0.166	-0.080
-470.216	-122.931	-0.210	-0.034
-469.201	-200.000	-0.014	0.315
-468.186	-10.166	-0.057	0.038
-467.172	800.000	-0.064	0.196
-466.157	800.000	0.061	0.261
-465.143	503.025	0.087	-0.202
-464.128	703.456	-0.101	0.266
-463.113	-66.962	-0.083	0.033
-462.099	3.035	0.276	-0.200
-461.084	-66.899	-0.233	-0.092
-460.070	-78.224	0.245	0.084
-459.055	-133.544	0.287	-0.036
-458.040	800.000	-0.037	0.150
-457.026	-55.269	-0.199	0.089
-456.011	-200.000	-0.016	0.087
-454.997	-104.097	0.353	-0.082
-453.982	-53.109	0.147	0.067
-452.968	-138.220	0.107	-0.012
-451.953	771.186	0.091	-0.248
-450.938	413.022	-0.011	-0.024
-449.924	29.685	0.149	-0.127
-448.909	-200.000	0.037	-0.196
-447.895	10.817	0.170	-0.129
-446.880	-83.634	0.079	0.025
-445.865	-100.320	0.089	0.022
-444.851	-29.372	0.195	-0.111
-443.836	-77.126	0.251	0.087
-442.822	46.579	0.197	-0.183
-441.807	800.000	-0.047	0.190
-440.792	178.309	-0.099	-0.145
-439.778	102.846	0.083	-0.097
-438.763	-80.626	0.261	-0.087
-437.749	310.187	-0.137	-0.255
-436.734	800.000	-0.031	0.131
-435.719	-200.000	-0.018	0.221
-434.705	800.000	-0.061	0.173
-433.690	-136.519	-0.075	0.009
-432.676	16.308	-0.151	-0.119
-431.661	-122.288	0.096	0.016
-430.646	-200.000	0.011	0.225
-429.632	9.344	-0.173	0.131
-428.617	-65.959	-0.251	0.100
-427.603	-41.656	-0.244	0.125
-426.588	-142.958	-0.188	0.018
-425.573	-113.745	0.245	-0.048
-424.559	120.672	-0.289	0.358
-423.544	-58.589	0.543	-0.235
-422.530	-200.000	0.054	0.367
-421.515	721.733	-0.158	-0.420
-420.500	22.373	-0.382	0.311
-419.486	-200.000	0.196	0.000
-418.471	-103.388	0.171	0.040
-417.457	-92.825	0.134	-0.037
-416.442	125.857	0.125	0.158
-415.428	-174.619	0.060	0.002
-414.413	83.229	-0.231	-0.250
-413.398	161.206	0.063	-0.088
-412.384	257.703	0.258	-0.443
-411.369	-29.219	-0.226	-0.129
-410.355	800.000	-0.083	-0.233
-409.340	57.855	0.056	-0.055
-408.325	16.516	-0.256	-0.202
-407.311	794.964	-0.072	-0.198
-406.296	-121.978	0.156	0.026
-405.282	-27.488	0.045	0.026
-404.267	0.515	0.313	0.223
-403.252	198.252	-0.125	0.190
-402.238	-90.234	-0.305	0.088
-401.223	-130.277	0.202	0.027
-400.209	267.966	0.224	0.391
-399.194	-68.133	0.268	0.104
-398.179	98.328	0.118	-0.136
-397.165	-108.607	0.305	-0.065
-396.150	-36.248	0.108	0.058
-395.136	-61.403	0.145	0.061
-394.121	-36.268	0.182	-0.098
-393.106	-142.220	0.336	0.033
-392.092	319.777	0.037	0.070
-391.077	-19.679	0.237	-0.146
-390.063	444.458	0.064	-0.141
-389.048	192.070	-0.127	0.191
-388.033	541.753	0.075	-0.178
-387.019	-200.000	-0.022	-0.210
-386.004	800.000	0.081	-0.290
-384.990	80.889	0.059	-0.064
-383.975	13.452	0.151	0.117
-382.960	84.024	0.052	0.057
-381.946	-11.718	0.164	-0.107
-380.931	-24.581	-0.341	-0.202
-379.917	-200.000	0.012	-0.502
-378.902	-200.000	0.020	-0.267
-377.888	-76.906	-0.105	0.036
-376.873	-115.410	0.169	0.032
-375.858	119.574	-0.060	-0.075
-374.844	68.409	-0.140	-0.143
-373.829	90.764	0.068	0.076
-372.815	19.772	-0.039	0.031
-371.800	-200.000	-0.008	0.045
-370.785	306.245	-0.153	0.284
-369.771	68.022	-0.217	0.221
-368.756	-62.516	-0.101	-0.042
-367.742	-118.135	0.133	0.024
-366.727	74.239	0.180	0.188
-365.712	147.430	0.329	-0.441
-364.698	50.223	0.270	-0.254
-363.683	-108.381	0.151	0.032
-362.669	134.092	-0.189	0.244
-361.654	-200.000	0.026	-0.207
-360.639	-200.000	-0.038	0.256
-359.625	74.350	0.164	0.171
-358.610	111.828	-0.215	0.258
-357.596	-200.000	0.014	0.156
-356.581	-200.000	0.013	-0.169
-355.566	-153.022	-0.308	0.022
-354.552	244.656	-0.086	0.144
-353.537	-136.132	0.055	0.006
-352.523	800.000	-0.053	0.184
-351.508	-200.000	-0.010	0.160
-350.493	156.811	0.132	0.181
-349.479	-200.000	-0.073	0.455
-348.464	27.887	-0.129	0.108
-347.450	222.461	0.154	0.247
-346.435	64.197	-0.063	0.063
-345.420	800.000	-0.047	-0.176
-344.406	55.244	-0.272	-0.262
-343.391	-66.065	0.158	-0.063
-342.377	190.914	-0.092	-0.138
-341.362	705.021	-0.086	-0.225
-340.348	57.040	-0.110	-0.106
-339.333	231.940	-0.058	0.095
-338.318	-121.667	-0.235	-0.039
-337.304	154.312	0.347	0.473
-336.289	28.641	0.180	0.151
-335.275	-4.883	-0.082	-0.056
-334.260	-22.832	-0.121	-0.072
-333.245	800.000	-0.036	0.100
-332.231	-90.600	0.392	-0.113
-331.216	-151.857	0.139	-0.010
-330.202	759.827	0.104	-0.280
-329.187	375.087	-0.079	0.161
-328.172	-44.076	-0.103	-0.051
-327.158	150.280	-0.108	0.145
-326.143	54.256	0.263	-0.251
-325.129	-127.850	0.275	0.039
-324.114	-200.000	0.031	-0.298
-323.099	-200.000	-0.031	-0.207
-322.085	-200.000	0.031	-0.144
-321.070	-82.782	0.316	0.102
-320.056	18.077	-0.142	0.112
-319.041	-145.511	0.225	0.020
-318.026	800.000	-0.013	0.037
-317.012	-110.818	0.209	0.043
-315.997	800.000	-0.066	-0.185
-314.983	162.154	0.163	-0.227
-313.968	-112.615	0.157	-0.031
-312.953	800.000	-0.041	-0.158
-311.939	56.084	-0.114	-0.110
-310.924	800.000	-0.042	-0.114
-309.910	-46.435	-0.139	-0.068
-308.895	239.497	-0.007	0.012
-307.880	-88.564	0.171	-0.050
-306.866	-200.000	-0.013	0.142
-305.851	123.321	-0.199	-0.248
-304.837	364.533	-0.039	-0.078
-303.822	-200.000	-0.014	0.253
-302.807	315.361	-0.065	-0.123
-301.793	124.685	-0.177	-0.221
-300.778	800.000	0.122	-0.398
-299.764	-200.000	0.003	-0.171
-298.749	128.953	0.127	-0.160
-297.735	800.000	0.022	0.085
-296.720	3.873	0.022	-0.016
-295.705	-119.792	0.214	-0.037
-294.691	800.000	-0.048	-0.171
-293.676	35.232	0.240	-0.209
-292.662	800.000	0.096	-0.365
-291.647	-114.400	0.139	-0.026
-290.632	48.382	0.213	-0.198
-289.618	-77.878	-0.325	-0.111
-288.603	-200.000	0.005	0.136
-287.589	-200.000	0.011	-0.184
-286.574	282.398	-0.081	-0.144
-285.559	-134.179	0.173	0.021
-284.545	-147.756	-0.160	0.013
-283.530	152.264	0.084	0.113
-282.516	-99.887	0.131	0.032
-281.501	800.000	0.117	0.369
-280.486	-40.371	0.155	-0.080
-279.472	800.000	-0.057	0.175
-278.457	-49.468	-0.238	0.112
-277.443	50.101	0.033	-0.031
-276.428	-74.676	-0.119	-0.042
-275.413	421.943	-0.030	-0.064
-274.399	69.765	-0.020	-0.020
-273.384	-200.000	-0.022	-0.239
-272.370	800.000	0.053	-0.219
-271.355	-5.676	-0.066	0.045
-270.340	-51.855	-0.076	-0.035
-269.326	-130.615	-0.203	0.027
-268.311	69.631	-0.181	0.185
-267.297	155.435	0.186	0.254
-266.282	800.000	-0.100	-0.425
-265.267	-75.740	0.089	0.031
-264.253	-200.000	0.051	-0.272
-263.238	525.135	-0.015	-0.035
-262.224	52.366	-0.213	0.201
-261.209	-51.530	-0.297	-0.138
-260.195	185.403	-0.043	0.063
-259.180	-172.548	0.438	-0.014
-258.165	-61.767	-0.257	-0.107
-257.151	-169.966	-0.370	-0.013
-256.136	800.000	-0.100	-0.275
-255.122	105.629	0.047	0.056
-254.107	135.591	-0.132	0.170
-253.092	114.390	0.181	-0.218
-252.078	172.440	0.208	0.297
-251.063	216.630	0.108	-0.170
-250.049	-41.022	0.247	0.127
-249.034	352.672	-0.137	-0.268
-248.019	-200.000	0.038	0.283
-247.005	55.889	-0.217	0.208
-245.990	598.460	-0.033	-0.082
-244.976	-174.084	0.156	-0.005
-243.961	-200.000	-0.010	-0.293
-242.946	246.905	-0.061	0.102
-241.932	-200.000	0.001	0.370
-240.917	-50.865	0.092	-0.043
-239.903	-105.653	0.262	-0.059
-238.888	-73.911	-0.325	-0.117
-237.873	177.350	-0.039	-0.057
-236.859	-200.000	-0.063	-0.387
-235.844	-182.812	0.162	0.003
-234.830	800.000	-0.108	0.330
-233.815	-119.750	-0.327	-0.056
-232.800	448.803	-0.079	0.173
-231.786	800.000	0.001	0.002
-230.771	-45.631	-0.226	0.111
-229.757	178.456	-0.092	0.133
-228.742	685.896	-0.167	0.433
-227.727	800.000	-0.068	-0.230
-226.713	800.000	0.053	-0.164
-225.698	531.078	-0.067	-0.156
-224.684	220.383	-0.072	-0.114
-223.669	-93.006	0.289	-0.080
-222.655	-98.326	-0.203	-0.052
-221.640	-6.604	0.059	-0.040
-220.625	91.963	-0.059	-0.066
-219.611	-10.280	0.012	-0.008
-218.596	-79.452	0.247	0.083
-217.582	-200.000	-0.012	-0.054
-216.567	88.492	-0.077	-0.084
-215.552	-200.000	0.027	0.205
-214.538	-200.000	0.060	0.318
-213.523	-152.240	-0.167	0.012
-212.509	-200.000	-0.027	0.538
-211.494	800.000	-0.104	0.301
-210.479	-200.000	0.031	0.152
-209.465	525.041	0.147	0.341
-208.450	-153.126	0.187	-0.013
-207.436	-200.000	0.004	0.316
-206.421	387.512	-0.034	0.069
-205.406	155.811	-0.100	-0.136
-204.392	-78.177	0.141	0.048
-203.377	-200.000	-0.077	0.355
-202.363	-170.184	0.150	-0.005
-201.348	-25.605	-0.153	-0.089
-200.333	98.307	0.057	-0.065
-199.319	301.161	0.045	0.083
-198.304	30.581	-0.209	-0.177
-197.290	-200.000	0.048	-0.286
-196.275	154.622	0.016	-0.022
-195.260	-14.887	-0.109	0.069
-194.246	9.744	0.177	0.132
-193.231	-89.835	-0.207	0.060
-192.217	33.638	0.227	0.195
-191.202	-44.115	0.104	0.052
-190.187	47.562	0.088	-0.081
-189.173	704.101	-0.071	0.185
-188.158	182.572	-0.350	0.510
-187.144	800.000	0.079	0.327
-186.129	-154.387	-0.155	-0.010
-185.114	-35.843	-0.247	0.132
-184.100	12.711	-0.278	0.212
-183.085	-123.406	-0.225	0.035
-182.071	-200.000	0.019	0.390
-181.056	245.448	-0.165	0.275
-180.042	136.510	-0.303	0.391
-179.027	-200.000	-0.035	0.220
-178.012	-200.000	-0.084	0.462
-176.998	-200.000	-0.013	0.263
-175.983	-200.000	0.006	0.226
-174.969	-200.000	0.010	0.052
-173.954	184.227	0.222	-0.325
-172.939	-95.171	0.103	-0.028
-171.925	310.225	-0.085	-0.157
-170.910	-200.000	-0.007	0.243
-169.896	-200.000	0.019	0.135
-168.881	800.000	0.096	0.367
-167.866	30.724	0.324	0.274
-166.852	255.917	-0.143	0.242
-165.837	129.686	0.059	0.074
-164.823	715.799	-0.113	-0.295
-163.808	-200.000	0.006	-0.428
-162.793	-200.000	-0.095	-0.425
-161.779	108.150	-0.199	0.234
-160.764	-169.825	-0.211	-0.007
-159.750	-156.382	-0.071	0.004
-158.735	-49.644	-0.459	-0.215
-157.720	177.838	-0.079	-0.114
-156.706	-140.973	0.235	-0.024
-155.691	-119.876	0.124	-0.021
-154.677	2.356	-0.111	-0.079
-153.662	727.880	0.031	0.082
-152.647	-52.865	-0.061	0.028
-151.633	-200.000	0.026	0.169
-150.618	50.755	0.070	0.065
-149.604	-59.560	0.325	-0.138
-148.589	-63.753	0.089	0.036
-147.574	-200.000	-0.001	0.079
-146.560	4.730	-0.236	-0.171
-145.545	-75.371	0.137	0.048
-144.531	-200.000	0.009	0.155
-143.516	-17.898	0.171	-0.106
-142.502	-200.000	-0.023	-0.295
-141.487	800.000	0.075	0.234
-140.472	90.747	-0.304	0.336
-139.458	115.333	0.154	0.186
-138.443	-200.000	0.052	-0.435
-137.429	-58.911	-0.015	0.006
-136.414	114.095	-0.093	0.111
-135.399	-200.000	-0.031	-0.561
-134.385	40.053	0.238	-0.211
-133.370	178.691	-0.081	0.116
-132.356	-73.627	-0.107	0.038
-131.341	-200.000	0.011	0.053
-130.326	-42.591	0.091	0.045
-129.312	-200.000	0.005	-0.587
-128.297	39.561	0.245	-0.216
-127.283	800.000	-0.092	0.278
-126.268	-64.011	0.114	-0.046
-125.253	-112.214	0.248	0.049
-124.239	-117.244	-0.064	-0.011
-123.224	800.000	0.045	0.130
-122.210	-200.000	-0.014	-0.203
-121.195	-200.000	0.012	0.155
