DTS Sentinel unit serial number:	SN413079Multiplexer serial number:	ORYXHardware model number:	OX4-SRSoftware version number:	ORYX F/W v4.00 Oryx Data Collector v3.7.2.0data status	okinstallation	princeton_trtdifferential loss correction	single-endedforward channel	channel 3reverse channel	N/Adate	2019/09/17time	04:24:35forward acquisition time	60.00reverse acquisition time	0.00gamma	496.2192k internal	0.2323k external	0.2323temperature offset calibration	0.9948default loss term (dB/km)	0.3790temperature slope calibration	1.0000multiplexer offset coefficient	1.0000multiplexer slope coefficient	1.0000fibre end	0.00T internal ref (°C)	29.75T ext. ref 1 (°C)	0.14T ext. ref 2 (°C)	24.20length (m)	temperature (°C)	Stokes	anti-Stokes-747.200	-25.678	-0.103	0.061
-746.185	-5.789	0.411	0.284
-745.171	56.498	0.133	-0.130
-744.156	-121.238	-0.188	0.032
-743.142	140.707	0.167	-0.223
-742.127	224.747	0.037	0.060
-741.112	365.429	-0.183	-0.373
-740.098	-87.130	-0.079	-0.024
-739.083	-117.599	-0.192	-0.035
-738.069	18.391	-0.371	0.299
-737.054	117.258	-0.162	0.202
-736.039	14.343	-0.276	0.217
-735.025	209.745	-0.068	0.107
-734.010	-200.000	-0.033	-0.152
-732.996	31.861	-0.077	0.067
-731.981	-161.228	-0.191	0.010
-730.966	-129.689	0.176	0.025
-729.952	108.071	0.156	-0.188
-728.937	800.000	0.040	-0.122
-727.923	-200.000	-0.028	0.243
-726.908	-36.634	0.155	0.084
-725.894	-200.000	-0.013	0.115
-724.879	-200.000	-0.038	-0.288
-723.864	22.365	-0.345	-0.285
-722.850	-89.062	-0.034	-0.010
-721.835	410.847	0.101	0.217
-720.821	10.740	0.063	-0.049
-719.806	-44.195	0.107	-0.054
-718.791	-95.712	-0.342	0.092
-717.777	800.000	0.025	-0.079
-716.762	60.118	0.160	-0.159
-715.748	800.000	-0.083	0.265
-714.733	-174.708	-0.053	0.002
-713.718	-200.000	-0.007	-0.097
-712.704	800.000	-0.061	0.196
-711.689	83.473	0.129	-0.142
-710.675	-17.987	-0.260	0.164
-709.660	-44.759	0.112	-0.056
-708.645	-43.506	0.127	-0.065
-707.631	31.537	0.056	0.048
-706.616	39.273	-0.111	0.100
-705.602	-200.000	0.029	-0.171
-704.587	-200.000	-0.002	-0.308
-703.572	29.248	-0.438	0.375
-702.558	-200.000	0.020	0.381
-701.543	-200.000	-0.028	0.184
-700.529	-89.815	0.317	-0.094
-699.514	-118.399	-0.378	-0.068
-698.499	-51.928	-0.346	-0.162
-697.485	-200.000	-0.011	-0.107
-696.470	-200.000	-0.010	0.189
-695.456	266.710	-0.126	-0.221
-694.441	59.204	0.154	-0.152
-693.426	203.864	0.165	-0.257
-692.412	-200.000	-0.019	0.160
-691.397	74.366	0.217	0.230
-690.383	-200.000	0.002	-0.079
-689.368	-200.000	0.014	-0.149
-688.354	702.346	-0.050	-0.134
-687.339	-200.000	0.005	0.223
-686.324	-33.129	0.038	0.021
-685.310	800.000	-0.075	-0.216
-684.295	-20.036	0.072	0.045
-683.281	-77.154	-0.153	0.054
-682.266	265.016	-0.081	0.143
-681.251	197.651	-0.098	0.150
-680.237	-143.002	0.195	0.019
-679.222	-200.000	-0.048	-0.256
-678.208	-88.154	-0.241	0.073
-677.193	254.414	0.031	-0.053
-676.178	-140.938	-0.193	-0.020
-675.164	-56.528	0.193	-0.086
-674.149	347.971	-0.092	0.182
-673.135	48.901	-0.282	-0.267
-672.120	-200.000	-0.038	0.209
-671.105	-34.386	-0.130	0.072
-670.091	65.222	0.198	-0.201
-669.076	611.972	-0.074	-0.185
-668.062	677.703	-0.018	0.046
-667.047	800.000	-0.097	-0.356
-666.032	73.468	-0.306	-0.323
-665.018	-100.006	-0.409	-0.103
-664.003	-200.000	-0.039	-0.244
-662.989	-77.438	0.188	-0.066
-661.974	-200.000	0.034	0.322
-660.959	-117.325	0.233	0.043
-659.945	-200.000	0.028	-0.124
-658.930	280.168	0.087	-0.156
-657.916	-144.065	-0.099	0.009
-656.901	800.000	0.062	0.190
-655.886	238.296	-0.149	-0.249
-654.872	100.304	-0.100	-0.116
-653.857	309.750	-0.243	-0.457
-652.843	-200.000	0.076	-0.395
-651.828	-200.000	-0.004	0.045
-650.814	-47.833	0.066	-0.032
-649.799	800.000	0.073	-0.221
-648.784	-128.688	0.120	-0.017
-647.770	-55.622	-0.611	0.275
-646.755	-72.123	-0.260	-0.097
-645.741	-55.780	-0.248	0.112
-644.726	-3.476	-0.383	-0.268
-643.711	-66.264	0.081	-0.033
-642.697	265.025	0.144	0.252
-641.682	800.000	0.055	0.194
-640.668	-200.000	0.014	-0.198
-639.653	-200.000	0.010	0.336
-638.638	-56.056	-0.187	0.084
-637.624	298.424	0.134	0.248
-636.609	317.099	-0.215	-0.410
-635.595	-200.000	-0.007	-0.182
-634.580	-200.000	0.020	-0.228
-633.565	83.612	0.134	-0.147
-632.551	-119.298	-0.232	0.041
-631.536	-200.000	-0.027	0.162
-630.522	-200.000	0.003	-0.125
-629.507	-72.317	-0.135	0.050
-628.492	339.129	0.212	-0.415
-627.478	-200.000	0.001	0.325
-626.463	84.731	0.219	0.241
-625.449	81.328	0.126	0.137
-624.434	-159.210	0.321	0.018
-623.419	532.468	0.040	-0.096
-622.405	-49.331	0.234	-0.112
-621.390	656.838	-0.043	-0.111
-620.376	-200.000	-0.005	-0.063
-619.361	-26.832	-0.061	-0.036
-618.346	-86.486	-0.212	0.065
-617.332	158.918	0.077	0.107
-616.317	-200.000	-0.010	0.071
-615.303	800.000	0.076	0.296
-614.288	-87.072	-0.170	0.052
-613.273	55.021	0.306	-0.297
-612.259	-131.224	-0.376	0.050
-611.244	54.297	-0.260	-0.251
-610.230	-67.524	0.149	-0.059
-609.215	-148.141	-0.089	-0.007
-608.201	269.368	0.202	-0.357
-607.186	133.421	-0.139	0.181
-606.171	800.000	0.050	-0.143
-605.157	-200.000	0.022	-0.226
-604.142	623.267	-0.070	-0.178
-603.128	61.264	0.209	-0.209
-602.113	-200.000	0.031	-0.299
-601.098	-7.262	-0.026	0.017
-600.084	-200.000	0.025	0.145
-599.069	36.416	-0.215	-0.190
-598.055	28.718	-0.297	-0.253
-597.040	76.878	0.113	-0.120
-596.025	266.300	-0.183	-0.321
-595.011	75.080	-0.061	0.065
-593.996	800.000	0.061	-0.259
-592.982	-200.000	-0.006	-0.303
-591.967	692.948	-0.183	-0.482
-590.952	392.888	0.017	0.035
-589.938	23.848	0.261	0.216
-588.923	-200.000	0.012	-0.493
-587.909	110.746	-0.142	0.171
-586.894	-166.836	-0.157	-0.006
-585.879	274.345	-0.139	-0.248
-584.865	-200.000	0.027	-0.177
-583.850	-122.040	0.450	0.074
-582.836	-181.737	0.210	0.004
-581.821	341.195	0.116	0.228
-580.806	800.000	0.041	0.169
-579.792	-24.002	0.107	-0.064
-578.777	-134.280	-0.276	0.034
-577.763	-78.083	0.186	-0.064
-576.748	800.000	-0.055	0.198
-575.733	48.198	-0.090	0.084
-574.719	387.330	-0.196	-0.406
-573.704	800.000	0.048	-0.201
-572.690	412.204	0.105	0.224
-571.675	-20.312	-0.109	0.067
-570.661	-117.902	0.332	-0.060
-569.646	68.292	0.153	-0.157
-568.631	-28.825	-0.196	0.113
-567.617	26.880	0.035	0.030
-566.602	71.799	0.261	-0.272
-565.588	-110.978	0.017	-0.003
-564.573	800.000	-0.105	-0.356
-563.558	-64.281	0.192	-0.078
-562.544	-11.856	0.134	-0.088
-561.529	-98.942	0.111	0.028
-560.515	22.540	0.132	0.109
-559.500	-200.000	-0.076	0.333
-558.485	800.000	0.104	-0.443
-557.471	-36.557	0.186	-0.100
-556.456	-200.000	-0.048	-0.240
-555.442	-200.000	0.012	0.184
-554.427	-200.000	-0.023	-0.145
-553.412	-40.709	-0.085	0.044
-552.398	-200.000	-0.006	0.296
-551.383	-200.000	0.033	-0.163
-550.369	-29.229	0.062	-0.035
-549.354	-115.349	0.180	-0.034
-548.339	-200.000	0.044	-0.378
-547.325	197.080	0.065	0.100
-546.310	96.647	-0.212	-0.243
-545.296	18.264	-0.234	-0.187
-544.281	-87.930	0.127	-0.038
-543.266	-144.257	0.463	0.043
-542.252	-34.688	0.204	-0.112
-541.237	37.726	0.146	0.130
-540.223	79.685	0.091	0.098
-539.208	-179.413	-0.232	0.005
-538.193	800.000	-0.004	0.013
-537.179	2.432	-0.134	0.097
-536.164	-121.193	-0.224	-0.037
-535.150	14.743	0.057	-0.044
-534.135	-156.967	-0.113	-0.007
-533.121	95.144	-0.158	-0.180
-532.106	-163.733	-0.212	0.010
-531.091	160.203	0.186	-0.259
-530.077	470.230	-0.062	0.139
-529.062	-6.489	-0.144	0.098
-528.048	-200.000	-0.045	-0.384
-527.033	-6.657	0.062	0.042
-526.018	-200.000	-0.060	0.349
-525.004	-59.482	-0.248	0.107
-523.989	800.000	-0.046	-0.169
-522.975	549.255	-0.151	-0.362
-521.960	13.636	-0.281	0.219
-520.945	9.047	-0.278	-0.210
-519.931	-137.422	-0.403	0.046
-518.916	-93.324	-0.176	0.049
-517.902	219.932	0.045	-0.072
-516.887	-148.582	-0.179	-0.015
-515.872	-200.000	-0.057	-0.319
-514.858	176.395	0.228	0.332
-513.843	48.461	-0.233	-0.219
-512.829	24.057	0.095	-0.079
-511.814	-99.753	0.405	0.102
-510.799	-151.878	0.422	0.031
-509.785	-97.542	-0.473	-0.123
-508.770	-106.310	0.259	0.058
-507.756	-37.319	-0.352	0.188
-506.741	2.695	-0.289	-0.209
-505.726	-69.952	-0.294	-0.112
-504.712	-180.165	-0.284	0.006
-503.697	169.984	0.249	-0.357
-502.683	24.109	-0.192	-0.159
-501.668	52.070	-0.199	0.190
-500.653	-25.516	-0.223	-0.132
-499.639	130.898	-0.099	0.128
-498.624	122.266	-0.103	-0.128
-497.610	-90.470	0.134	0.039
-496.595	84.025	0.216	0.236
-495.581	-89.391	0.165	0.049
-494.566	397.696	-0.034	-0.072
-493.551	49.062	-0.094	-0.088
-492.537	371.745	-0.005	0.010
-491.522	800.000	0.025	-0.094
-490.508	40.853	-0.069	0.062
-489.493	-116.531	0.180	0.033
-488.478	21.839	-0.030	-0.024
-487.464	217.951	0.139	-0.221
-486.449	191.855	-0.126	0.190
-485.435	800.000	0.106	-0.332
-484.420	57.577	-0.040	0.040
-483.405	-90.940	0.360	0.103
-482.391	-163.304	-0.209	0.010
-481.376	800.000	-0.080	0.268
-480.362	38.866	0.397	0.354
-479.347	800.000	-0.086	0.270
-478.332	-200.000	-0.022	-0.108
-477.318	481.619	0.073	-0.165
-476.303	-85.005	0.327	-0.102
-475.289	494.298	0.097	0.223
-474.274	-140.399	0.416	0.043
-473.259	-200.000	0.012	-0.093
-472.245	-161.532	-0.155	-0.008
-471.230	358.141	0.105	-0.209
-470.216	-74.766	-0.059	0.021
-469.201	-24.030	-0.092	0.055
-468.186	-66.337	-0.328	0.130
-467.172	48.417	-0.099	0.092
-466.157	-85.357	-0.239	-0.075
-465.143	-118.006	-0.192	0.034
-464.128	-22.646	0.131	0.079
-463.113	-200.000	-0.204	-0.000
-462.099	485.145	-0.060	0.138
-461.084	56.795	-0.076	0.074
-460.070	-97.910	-0.187	-0.048
-459.055	317.830	0.145	-0.274
-458.040	284.121	-0.052	-0.094
-457.026	-200.000	0.006	0.135
-456.011	-200.000	-0.007	0.130
-454.997	410.988	-0.173	0.366
-453.982	182.200	-0.073	-0.107
-452.968	351.846	-0.174	0.344
-451.953	638.717	0.088	0.222
-450.938	-116.706	0.056	0.010
-449.924	800.000	-0.016	0.053
-448.909	-200.000	0.014	0.405
-447.895	-153.857	-0.379	0.026
-446.880	31.676	0.194	-0.167
-445.865	173.150	0.173	-0.248
-444.851	800.000	-0.028	0.098
-443.836	-200.000	-0.021	0.325
-442.822	4.124	-0.151	0.110
-441.807	-105.562	-0.216	0.049
-440.792	-142.026	0.289	-0.029
-439.778	-19.639	-0.097	-0.060
-438.763	800.000	-0.040	0.132
-437.749	-0.980	-0.201	0.142
-436.734	800.000	0.019	0.053
-435.719	-51.043	0.341	0.159
-434.705	427.771	0.041	0.089
-433.690	183.789	0.192	0.283
-432.676	73.487	-0.220	0.230
-431.661	-200.000	0.007	0.126
-430.646	-5.471	-0.127	0.087
-429.632	-73.770	-0.293	-0.106
-428.617	-33.874	0.211	-0.116
-427.603	-7.775	-0.077	0.052
-426.588	-97.513	0.220	-0.057
-425.573	26.968	0.068	0.057
-424.559	-200.000	0.074	-0.380
-423.544	74.100	0.109	-0.114
-422.530	-57.502	-0.110	0.048
-421.515	800.000	-0.082	0.316
-420.500	-200.000	-0.032	-0.381
-419.486	-45.436	0.198	-0.098
-418.471	-92.270	-0.268	0.075
-417.457	-40.463	-0.101	-0.052
-416.442	30.047	-0.162	-0.138
-415.428	-91.666	-0.280	-0.079
-414.413	173.729	-0.235	-0.338
-413.398	126.532	0.122	-0.154
-412.384	79.452	0.286	0.306
-411.369	-200.000	-0.051	0.438
-410.355	263.686	-0.120	-0.208
-409.340	800.000	-0.029	0.096
-408.325	9.261	0.251	0.189
-407.311	156.441	-0.032	-0.044
-406.296	663.605	-0.098	-0.253
-405.282	374.379	-0.127	0.257
-404.267	-92.619	-0.118	-0.033
-403.252	-180.809	-0.230	0.005
-402.238	540.622	0.081	0.192
-401.223	-94.049	-0.174	0.048
-400.209	-200.000	0.007	-0.165
-399.194	266.413	0.065	0.113
-398.179	-200.000	0.011	-0.162
-397.165	22.409	0.239	0.194
-396.150	118.864	0.167	-0.205
-395.136	185.658	0.088	-0.130
-394.121	-179.358	0.342	-0.008
-393.106	-200.000	-0.021	0.244
-392.092	-106.412	-0.143	0.032
-391.077	800.000	-0.079	-0.298
-390.063	-8.585	-0.211	0.141
-389.048	-135.880	-0.060	-0.007
-388.033	800.000	0.046	0.200
-387.019	-200.000	-0.027	0.150
-386.004	101.839	0.099	-0.115
-384.990	-25.213	0.483	0.285
-383.975	800.000	0.147	0.484
-382.960	90.369	-0.322	0.359
-381.946	800.000	0.030	-0.094
-380.931	86.739	-0.130	0.143
-379.917	-59.627	0.219	0.093
-378.902	-35.320	0.218	0.118
-377.888	-65.308	-0.089	-0.036
-376.873	128.900	0.011	-0.014
-375.858	5.574	-0.284	0.209
-374.844	-164.873	0.388	-0.017
-373.829	22.068	0.114	-0.093
-372.815	274.549	-0.225	0.397
-371.800	383.904	-0.037	-0.075
-370.785	-98.298	-0.091	0.023
-369.771	-200.000	-0.007	0.102
-368.756	-70.371	-0.048	-0.018
-367.742	-200.000	-0.009	-0.352
-366.727	-135.723	-0.138	0.016
-365.712	-200.000	-0.023	0.117
-364.698	179.544	0.214	-0.312
-363.683	-200.000	0.005	-0.115
-362.669	-91.407	0.420	-0.119
-361.654	-200.000	0.046	-0.231
-360.639	-44.654	-0.252	-0.125
-359.625	-110.411	-0.509	-0.105
-358.610	-49.897	-0.201	-0.095
-357.596	-200.000	0.064	-0.288
-356.581	-85.258	-0.064	0.020
-355.566	-21.202	-0.116	0.071
-354.552	211.189	0.308	-0.482
-353.537	-130.017	0.164	0.022
-352.523	246.532	-0.079	0.132
-351.508	299.662	-0.215	-0.394
-350.493	182.559	-0.142	-0.209
-349.479	73.276	0.035	0.037
-348.464	800.000	-0.028	-0.086
-347.450	-7.121	-0.361	0.244
-346.435	800.000	-0.100	0.310
-345.420	56.161	0.058	0.056
-344.406	130.603	0.040	0.051
-343.391	267.924	0.149	-0.259
-342.377	660.313	-0.050	-0.128
-341.362	800.000	0.065	-0.212
-340.348	400.437	-0.068	-0.142
-339.333	-62.569	0.275	0.114
-338.318	23.638	0.178	0.145
-337.304	-200.000	0.003	0.119
-336.289	11.795	-0.130	0.100
-335.275	118.732	-0.123	-0.151
-334.260	462.659	0.110	0.244
-333.245	800.000	-0.062	0.220
-332.231	-151.345	-0.191	0.014
-331.216	42.592	-0.391	0.353
-330.202	-24.146	0.418	-0.248
-329.187	-117.302	0.203	0.037
-328.172	-41.275	0.054	-0.028
-327.158	-95.709	0.569	-0.151
-326.143	800.000	-0.078	-0.260
-325.129	800.000	0.069	-0.218
-324.114	47.277	0.099	0.091
-323.099	-168.785	-0.409	0.015
-322.085	28.557	0.094	0.079
-321.070	-21.804	-0.236	-0.143
-320.056	87.714	0.086	-0.095
-319.041	94.012	-0.128	-0.145
-318.026	430.883	-0.090	-0.193
-317.012	168.971	-0.212	0.300
-315.997	-17.054	0.097	0.061
-314.983	-119.678	0.104	-0.018
-313.968	-91.460	-0.240	-0.068
-312.953	5.489	-0.308	0.226
-311.939	30.766	0.134	-0.114
-310.924	42.233	0.337	0.304
-309.910	2.748	-0.302	0.218
-308.895	-105.681	-0.216	0.049
-307.880	-82.394	-0.164	0.053
-306.866	-200.000	0.006	-0.241
-305.851	-147.331	-0.249	0.021
-304.837	-105.831	-0.122	0.027
-303.822	-14.304	-0.166	0.106
-302.807	-23.252	0.383	0.228
-301.793	69.735	0.286	-0.292
-300.778	116.544	-0.093	-0.113
-299.764	5.824	0.119	-0.088
-298.749	-114.131	-0.224	0.043
-297.735	-70.780	0.187	-0.070
-296.720	4.907	-0.396	0.289
-295.705	24.674	0.174	0.143
-294.691	-86.682	0.152	0.046
-293.676	-78.418	0.353	0.120
-292.662	644.147	-0.091	0.231
-291.647	-200.000	0.016	-0.141
-290.632	-95.883	0.157	0.041
-289.618	526.246	-0.153	0.357
-288.603	0.487	0.097	-0.069
-287.589	351.989	-0.072	-0.142
-286.574	800.000	0.120	0.399
-285.559	-64.459	-0.168	0.068
-284.545	123.283	0.178	0.221
-283.530	338.209	0.119	-0.229
-282.516	-84.569	0.113	0.035
-281.501	-131.627	0.048	-0.006
-280.486	455.163	0.187	0.410
-279.472	-70.494	0.260	0.098
-278.457	45.910	0.433	-0.397
-277.443	-200.000	0.027	-0.192
-276.428	72.619	0.158	0.163
-275.413	-196.362	0.165	-0.001
-274.399	129.685	0.147	-0.186
-273.384	800.000	0.159	0.489
-272.370	-49.882	-0.098	-0.046
-271.355	-109.255	-0.251	0.053
-270.340	623.138	-0.047	-0.117
-269.326	-120.930	0.416	0.069
-268.311	-77.138	0.192	0.066
-267.297	800.000	-0.097	-0.278
-266.282	-56.295	-0.189	0.083
-265.267	83.176	0.298	-0.321
-264.253	-147.851	0.181	0.015
-263.238	-154.331	-0.290	-0.019
-262.224	103.563	0.144	0.168
-261.209	-167.275	-0.350	-0.014
-260.195	-200.000	-0.001	-0.220
-259.180	-120.683	0.450	0.075
-258.165	47.414	-0.087	0.080
-257.151	-200.000	0.021	0.097
-256.136	-200.000	0.026	0.175
-255.122	-200.000	-0.008	0.085
-254.107	106.476	-0.220	0.258
-253.092	-200.000	-0.018	0.364
-252.078	-72.873	0.137	0.050
-251.063	-90.435	-0.207	0.059
-250.049	222.963	0.081	-0.129
-249.034	-109.539	0.088	0.018
-248.019	31.026	0.040	-0.034
-247.005	455.898	0.114	-0.251
-245.990	21.353	0.135	-0.109
-244.976	531.357	0.044	0.104
-243.961	800.000	0.073	0.291
-242.946	-200.000	0.180	0.001
-241.932	800.000	-0.077	-0.241
-240.917	-31.087	0.230	0.128
-239.903	-200.000	-0.005	-0.232
-238.888	800.000	-0.074	-0.269
-237.873	697.118	0.030	-0.078
-236.859	-200.000	-0.033	-0.171
-235.844	-10.952	0.090	0.059
-234.830	45.928	-0.138	0.126
-233.815	-200.000	-0.041	-0.237
-232.800	-176.471	0.200	0.005
-231.786	-200.000	-0.004	0.062
-230.771	-49.841	0.075	-0.035
-229.757	69.409	-0.178	-0.181
-228.742	38.638	-0.128	-0.113
-227.727	-132.905	0.253	-0.032
-226.713	-39.204	-0.273	-0.142
-225.698	540.689	0.157	0.369
-224.684	800.000	-0.059	0.209
-223.669	270.473	-0.076	0.132
-222.655	-200.000	-0.020	0.248
-221.640	30.766	-0.265	0.224
-220.625	-81.341	0.039	-0.013
-219.611	-127.794	-0.146	-0.021
-218.596	224.270	-0.094	0.150
-217.582	-110.888	-0.206	0.042
-216.567	-98.884	0.409	-0.103
-215.552	372.138	-0.187	-0.376
-214.538	-134.758	0.248	-0.030
-213.523	-200.000	-0.049	0.313
-212.509	29.132	-0.204	-0.171
-211.494	800.000	-0.028	-0.114
-210.479	56.746	-0.197	-0.189
-209.465	87.834	0.228	0.250
-208.450	115.261	0.043	-0.052
-207.436	553.089	0.096	-0.229
-206.421	127.195	-0.079	-0.099
-205.406	-20.241	0.178	0.108
-204.392	178.102	-0.106	-0.153
-203.377	139.406	0.210	-0.274
-202.363	-56.514	-0.143	-0.063
-201.348	116.428	-0.207	0.251
-200.333	-40.989	0.207	0.106
-199.319	800.000	0.127	-0.434
-198.304	-158.258	-0.053	0.003
-197.290	-200.000	0.020	0.094
-196.275	-187.025	0.277	0.004
-195.260	133.517	0.084	-0.108
-194.246	800.000	-0.086	0.272
-193.231	65.955	0.286	0.286
-192.217	26.447	-0.200	0.165
-191.202	86.818	0.210	0.229
-190.187	-117.559	0.223	-0.040
-189.173	-200.000	-0.007	0.053
-188.158	111.852	-0.140	0.166
-187.144	-108.060	0.242	0.052
-186.129	-88.846	-0.212	0.062
-185.114	-87.391	-0.190	-0.057
-184.100	-200.000	0.010	0.536
-183.085	794.241	-0.057	0.155
-182.071	10.105	0.430	-0.323
-181.056	-200.000	0.042	0.260
-180.042	-77.258	0.159	-0.055
-179.027	-80.483	0.264	0.087
-178.012	-200.000	-0.041	0.209
-176.998	67.870	0.297	-0.300
-175.983	-200.000	-0.043	0.291
-174.969	392.097	-0.105	-0.216
-173.954	276.522	0.119	-0.209
-172.939	800.000	-0.026	-0.099
-171.925	-200.000	-0.070	-0.308
-170.910	202.908	0.111	0.169
-169.896	-143.259	0.092	-0.009
-168.881	-30.384	-0.038	0.022
-167.866	-73.149	-0.046	0.017
-166.852	46.158	-0.186	0.170
-165.837	800.000	-0.055	0.167
-164.823	-200.000	-0.055	0.312
-163.808	61.414	0.143	0.140
-162.793	-37.518	0.273	0.144
-161.779	-137.612	-0.362	0.040
-160.764	-43.181	0.126	0.063
-159.750	614.269	-0.058	-0.144
-158.735	-200.000	0.026	0.117
-157.720	163.575	0.117	-0.162
-156.706	-131.265	0.228	-0.030
-155.691	800.000	0.070	0.198
-154.677	153.505	-0.140	-0.189
-153.662	-200.000	-0.018	0.193
-152.647	-103.732	-0.122	-0.028
-151.633	-107.929	-0.181	0.039
-150.618	26.089	0.380	-0.313
-149.604	21.859	-0.071	-0.057
-148.589	62.906	0.035	-0.035
-147.574	-27.079	0.294	0.169
-146.560	630.142	0.069	-0.172
-145.545	800.000	-0.036	0.127
-144.531	571.290	-0.147	0.353
-143.516	73.296	0.187	0.193
-142.502	-31.018	-0.183	0.102
-141.487	-200.000	-0.035	0.181
-140.472	-200.000	0.001	-0.391
-139.458	-171.366	-0.101	0.003
-138.443	-200.000	-0.020	-0.195
-137.429	477.121	-0.072	-0.161
-136.414	326.919	-0.209	0.395
-135.399	-200.000	0.013	-0.149
-134.385	-94.735	0.059	0.016
-133.370	-200.000	0.050	0.301
-132.356	520.748	-0.039	-0.091
-131.341	-41.604	-0.258	-0.131
-130.326	800.000	-0.019	0.055
-129.312	-65.178	-0.299	0.119
-128.297	-92.477	-0.225	0.062
-127.283	50.770	0.073	0.068
-126.268	-97.838	0.112	0.029
-125.253	101.800	0.115	-0.132
-124.239	-200.000	0.020	-0.097
-123.224	138.783	-0.263	0.341
-122.210	355.607	0.137	-0.270
-121.195	126.316	0.085	-0.106
