DTS Sentinel unit serial number:	SN413079Multiplexer serial number:	ORYXHardware model number:	OX4-SRSoftware version number:	ORYX F/W v4.00 Oryx Data Collector v3.7.2.0data status	okinstallation	princeton_trtdifferential loss correction	single-endedforward channel	channel 3reverse channel	N/Adate	2019/09/15time	09:20:34forward acquisition time	60.00reverse acquisition time	0.00gamma	496.2192k internal	0.2311k external	0.2311temperature offset calibration	0.9967default loss term (dB/km)	0.3790temperature slope calibration	1.0000multiplexer offset coefficient	1.0000multiplexer slope coefficient	1.0000fibre end	0.00T internal ref (°C)	33.47T ext. ref 1 (°C)	4.96T ext. ref 2 (°C)	30.55length (m)	temperature (°C)	Stokes	anti-Stokes-747.200	167.461	0.095	0.137
-746.185	-200.000	-0.004	0.292
-745.171	-49.862	-0.093	-0.045
-744.156	-96.483	-0.127	-0.034
-743.142	8.072	0.229	-0.174
-742.127	-104.279	-0.248	0.058
-741.112	-200.000	0.015	0.169
-740.098	-200.000	-0.051	0.380
-739.083	-200.000	0.054	-0.275
-738.069	-200.000	-0.026	-0.172
-737.054	800.000	0.040	-0.166
-736.039	-64.320	-0.427	0.176
-735.025	281.008	-0.196	-0.355
-734.010	613.912	0.103	0.263
-732.996	0.699	-0.211	-0.153
-731.981	-200.000	0.012	-0.432
-730.966	-12.889	-0.430	0.284
-729.952	800.000	-0.043	-0.172
-728.937	-68.332	-0.256	-0.101
-727.923	55.735	-0.223	0.220
-726.908	118.875	-0.116	0.145
-725.894	-200.000	0.065	-0.436
-724.879	-185.771	-0.141	-0.002
-723.864	-173.369	-0.174	0.005
-722.850	-64.029	0.301	-0.125
-721.835	11.148	-0.237	-0.184
-720.821	56.670	-0.208	-0.205
-719.806	-81.578	0.079	0.026
-718.791	-94.436	-0.272	0.075
-717.777	-200.000	-0.004	0.100
-716.762	11.681	0.053	0.042
-715.748	-142.671	-0.296	-0.029
-714.733	87.798	0.140	0.158
-713.718	243.439	0.200	0.341
-712.704	-94.611	-0.243	0.067
-711.689	122.479	0.259	-0.328
-710.675	-67.334	0.237	-0.094
-709.660	-2.922	-0.302	0.214
-708.645	-200.000	0.359	-0.000
-707.631	-149.534	-0.204	0.016
-706.616	-200.000	0.028	-0.172
-705.602	-167.401	0.214	-0.009
-704.587	528.476	0.045	0.107
-703.572	-200.000	0.008	-0.185
-702.558	111.931	0.095	-0.116
-701.543	66.239	0.139	-0.143
-700.529	-200.000	0.024	-0.210
-699.514	-30.329	0.216	-0.124
-698.499	-74.297	-0.019	-0.007
-697.485	95.334	0.073	-0.084
-696.470	-97.499	0.125	-0.033
-695.456	-75.718	-0.147	0.053
-694.441	178.850	-0.189	-0.280
-693.426	-94.584	-0.419	-0.116
-692.412	-3.618	0.214	-0.151
-691.397	-200.000	-0.072	-0.489
-690.383	165.788	0.196	0.281
-689.368	-200.000	-0.032	0.148
-688.354	-90.697	0.283	0.083
-687.339	75.560	-0.089	0.095
-686.324	673.243	-0.053	-0.139
-685.310	-26.686	0.080	0.047
-684.295	215.109	-0.022	0.036
-683.281	365.082	-0.128	-0.261
-682.266	-115.857	0.341	-0.065
-681.251	-63.212	0.292	0.122
-680.237	-107.458	-0.423	-0.094
-679.222	800.000	-0.070	-0.259
-678.208	-200.000	-0.067	-0.382
-677.193	29.329	-0.297	0.256
-676.178	-109.182	-0.326	0.070
-675.164	-45.359	0.188	0.095
-674.149	-49.037	0.163	-0.079
-673.135	-74.395	-0.284	0.104
-672.120	578.385	0.079	0.195
-671.105	-200.000	0.010	0.253
-670.091	160.545	0.167	-0.236
-669.076	222.492	0.165	-0.268
-668.062	145.654	0.179	-0.243
-667.047	59.764	-0.182	0.182
-666.032	-200.000	-0.006	0.156
-665.018	20.893	0.154	-0.126
-664.003	416.822	-0.076	-0.165
-662.989	-135.097	-0.416	0.051
-661.974	55.224	0.233	0.228
-660.959	70.282	-0.130	0.136
-659.945	-90.090	0.062	-0.018
-658.930	-50.217	0.331	0.159
-657.916	-74.206	-0.120	0.044
-656.901	139.379	-0.109	-0.145
-655.886	-97.748	-0.063	0.016
-654.872	-116.599	0.273	0.051
-653.857	-200.000	-0.002	-0.121
-652.843	334.814	-0.184	-0.360
-651.828	372.129	-0.089	-0.183
-650.814	-39.389	-0.396	0.210
-649.799	90.811	-0.170	0.193
-648.784	81.681	-0.172	-0.188
-647.770	7.936	-0.295	-0.224
-646.755	625.632	0.088	0.224
-645.741	242.851	0.116	0.197
-644.726	-78.804	0.438	-0.151
-643.711	-25.908	-0.190	0.113
-642.697	19.609	0.303	0.247
-641.682	-103.540	0.072	0.017
-640.668	-43.188	-0.341	-0.174
-639.653	-166.901	0.267	0.011
-638.638	-200.000	-0.024	0.199
-637.624	161.033	0.190	0.269
-636.609	97.581	0.087	0.101
-635.595	264.435	0.138	0.243
-634.580	264.285	-0.122	0.214
-633.565	26.291	0.078	-0.066
-632.551	-81.505	0.296	-0.098
-631.536	-17.520	-0.169	-0.107
-630.522	-6.145	-0.259	-0.179
-629.507	-109.306	-0.249	0.053
-628.492	800.000	-0.066	0.216
-627.478	14.055	-0.392	-0.308
-626.463	-200.000	-0.005	0.112
-625.449	21.029	0.139	0.114
-624.434	623.984	-0.096	0.244
-623.419	-93.948	-0.430	-0.119
-622.405	-94.445	0.286	-0.079
-621.390	135.203	0.178	0.234
-620.376	32.825	0.162	0.142
-619.361	-45.797	0.226	-0.113
-618.346	156.312	0.086	-0.120
-617.332	-200.000	-0.001	0.176
-616.317	-200.000	0.036	0.322
-615.303	21.581	0.033	-0.027
-614.288	-80.110	0.152	-0.051
-613.273	-200.000	-0.020	0.111
-612.259	800.000	0.037	0.157
-611.244	-200.000	-0.012	-0.145
-610.230	-49.557	0.222	0.107
-609.215	800.000	-0.089	-0.249
-608.201	146.395	0.146	0.198
-607.186	16.759	-0.211	-0.169
-606.171	-79.747	-0.052	-0.018
-605.157	-200.000	0.054	-0.286
-604.142	-200.000	0.029	-0.238
-603.128	-200.000	0.022	-0.289
-602.113	224.232	0.205	-0.334
-601.098	800.000	-0.015	0.049
-600.084	562.514	-0.163	-0.399
-599.069	-200.000	-0.024	-0.174
-598.055	58.241	0.146	0.144
-597.040	-23.077	0.019	-0.012
-596.025	28.929	-0.174	-0.149
-595.011	-33.694	0.269	0.150
-593.996	800.000	0.119	-0.334
-592.982	8.907	0.131	-0.099
-591.967	-44.671	-0.286	-0.144
-590.952	-25.878	-0.064	0.038
-589.938	-101.118	-0.176	0.043
-588.923	27.039	0.173	-0.147
-587.909	800.000	-0.036	-0.140
-586.894	-55.091	-0.247	-0.112
-585.879	800.000	-0.070	0.269
-584.865	-200.000	-0.024	-0.242
-583.850	96.000	-0.162	-0.186
-582.836	-200.000	0.045	-0.276
-581.821	800.000	-0.109	-0.450
-580.806	-200.000	0.002	-0.069
-579.792	800.000	-0.067	-0.282
-578.777	-200.000	0.010	-0.091
-577.763	-98.202	0.151	0.039
-576.748	-200.000	-0.092	0.578
-575.733	-130.179	-0.255	-0.035
-574.719	2.122	-0.132	-0.096
-573.704	-122.280	-0.279	0.046
-572.690	-127.226	-0.301	-0.044
-571.675	-200.000	-0.013	0.076
-570.661	-12.474	-0.238	-0.157
-569.646	800.000	-0.074	0.246
-568.631	-200.000	-0.017	-0.247
-567.617	281.937	0.065	-0.118
-566.602	-200.000	-0.003	-0.426
-565.588	699.188	-0.043	-0.115
-564.573	-176.740	-0.171	0.004
-563.558	-200.000	0.003	-0.122
-562.544	118.073	-0.023	0.028
-561.529	-117.994	-0.117	-0.021
-560.515	800.000	-0.043	-0.170
-559.500	240.431	-0.148	-0.248
-558.485	-111.451	-0.325	-0.067
-557.471	-200.000	-0.184	-0.000
-556.456	-200.000	0.039	-0.265
-555.442	398.462	0.121	0.255
-554.427	599.476	-0.020	0.050
-553.412	800.000	-0.111	0.347
-552.398	98.603	0.103	0.120
-551.383	44.484	-0.092	0.085
-550.369	-200.000	0.006	-0.277
-549.354	232.146	-0.070	0.116
-548.339	800.000	-0.021	-0.077
-547.325	-34.535	0.039	-0.021
-546.310	103.972	0.140	0.166
-545.296	18.068	-0.259	-0.208
-544.281	202.329	0.197	-0.306
-543.266	-200.000	0.003	0.044
-542.252	-200.000	0.009	0.185
-541.237	-6.769	0.103	0.071
-540.223	-156.583	0.165	0.010
-539.208	297.026	-0.097	-0.179
-538.193	315.012	0.027	0.051
-537.179	-93.499	-0.090	-0.025
-536.164	155.653	-0.055	-0.076
-535.150	98.841	-0.057	-0.066
-534.135	-67.702	-0.121	0.048
-533.121	-92.213	-0.244	-0.069
-532.106	-162.127	0.122	0.006
-531.091	121.746	-0.127	-0.160
-530.077	-102.427	-0.242	0.058
-529.062	-1.040	-0.257	-0.183
-528.048	800.000	0.011	-0.031
-527.033	94.173	0.133	0.152
-526.018	-140.629	0.305	-0.032
-525.004	-127.114	-0.278	0.041
-523.989	-161.747	0.175	-0.009
-522.975	101.586	-0.057	-0.067
-521.960	-90.247	0.198	-0.058
-520.945	-79.145	-0.482	0.165
-519.931	92.378	-0.162	0.184
-518.916	-121.864	-0.276	0.046
-517.902	-140.329	0.191	-0.020
-516.887	-117.160	-0.166	-0.030
-515.872	331.779	0.084	0.164
-514.858	-140.027	-0.286	0.030
-513.843	-200.000	-0.024	-0.318
-512.829	-46.612	0.035	0.017
-511.814	-126.349	0.076	0.011
-510.799	-10.616	-0.255	0.170
-509.785	-72.795	0.146	0.054
-508.770	-200.000	0.019	-0.223
-507.756	109.765	0.106	-0.127
-506.741	-200.000	-0.206	-0.000
-505.726	-79.247	0.228	0.078
-504.712	-0.335	0.185	0.132
-503.697	-173.345	-0.143	-0.004
-502.683	647.496	0.098	-0.252
-501.668	138.411	-0.128	-0.168
-500.653	79.436	-0.046	-0.050
-499.639	-147.666	0.372	0.031
-498.624	154.341	0.124	-0.171
-497.610	-71.919	-0.422	-0.158
-496.595	-200.000	0.009	0.182
-495.581	-65.242	0.244	0.099
-494.566	800.000	-0.092	0.286
-493.551	345.075	-0.042	-0.084
-492.537	-35.449	-0.071	-0.039
-491.522	272.357	0.122	0.217
-490.508	270.812	0.078	-0.138
-489.493	-200.000	0.009	-0.257
-488.478	800.000	-0.058	0.199
-487.464	-200.000	-0.015	-0.409
-486.449	-99.179	0.205	-0.052
-485.435	-43.534	-0.120	0.061
-484.420	178.745	0.078	0.115
-483.405	41.515	-0.272	0.248
-482.391	658.285	-0.088	0.227
-481.376	-103.338	0.165	0.039
-480.362	800.000	0.027	-0.101
-479.347	-200.000	-0.002	-0.170
-478.332	104.925	0.104	-0.123
-477.318	-159.806	0.095	-0.005
-476.303	169.149	0.101	-0.145
-475.289	-145.071	-0.289	-0.026
-474.274	800.000	-0.088	0.261
-473.259	-200.000	0.024	0.110
-472.245	-116.390	-0.246	0.046
-471.230	178.427	0.131	-0.192
-470.216	800.000	0.030	0.127
-469.201	800.000	-0.075	-0.281
-468.186	171.053	0.031	0.045
-467.172	-111.561	0.250	-0.051
-466.157	4.160	-0.213	0.156
-465.143	-41.887	0.325	0.168
-464.128	387.640	0.154	0.319
-463.113	154.238	-0.164	0.226
-462.099	48.152	-0.122	0.115
-461.084	-96.214	-0.189	-0.050
-460.070	-200.000	0.008	0.078
-459.055	-200.000	-0.020	-0.314
-458.040	800.000	-0.032	-0.127
-457.026	800.000	-0.049	0.170
-456.011	-97.263	-0.226	0.059
-454.997	-64.584	0.313	0.128
-453.982	800.000	-0.004	0.013
-452.968	23.100	-0.230	0.190
-451.953	5.303	-0.163	0.121
-450.938	-74.150	-0.235	0.085
-449.924	-37.248	-0.142	-0.076
-448.909	-200.000	-0.007	-0.145
-447.895	-108.608	0.368	0.079
-446.880	-16.761	-0.324	0.205
-445.865	109.965	0.019	0.023
-444.851	129.539	0.176	0.226
-443.836	-200.000	0.004	0.303
-442.822	-79.247	0.634	0.216
-441.807	248.644	-0.056	0.096
-440.792	-124.406	0.125	0.020
-439.778	-80.138	0.107	-0.036
-438.763	188.159	-0.169	0.254
-437.749	-200.000	-0.005	-0.218
-436.734	800.000	0.030	0.129
-435.719	551.411	-0.017	0.041
-434.705	509.541	-0.097	0.226
-433.690	-166.518	-0.227	0.010
-432.676	-97.063	-0.215	-0.056
-431.661	281.495	0.068	0.123
-430.646	-10.772	-0.277	-0.184
-429.632	147.616	0.157	0.213
-428.617	-41.340	0.079	0.041
-427.603	-55.218	-0.229	0.103
-426.588	800.000	-0.064	-0.249
-425.573	-200.000	0.028	-0.253
-424.559	55.479	-0.332	-0.322
-423.544	-200.000	0.006	-0.211
-422.530	378.445	-0.051	-0.104
-421.515	800.000	0.136	-0.413
-420.500	-56.018	0.158	0.071
-419.486	190.320	-0.085	-0.128
-418.471	61.853	-0.203	-0.202
-417.457	44.765	0.083	0.076
-416.442	145.523	0.167	0.224
-415.428	230.758	0.113	0.185
-414.413	-113.398	-0.117	0.023
-413.398	68.977	0.117	-0.120
-412.384	-142.536	0.259	0.025
-411.369	157.197	0.018	-0.025
-410.355	74.142	0.322	-0.339
-409.340	-6.831	0.368	0.251
-408.325	-153.875	0.268	0.018
-407.311	-200.000	0.033	-0.195
-406.296	-16.378	-0.128	-0.081
-405.282	31.212	-0.393	-0.338
-404.267	226.519	-0.065	0.105
-403.252	-200.000	0.034	0.378
-402.238	120.412	0.137	0.170
-401.223	-83.958	-0.252	0.080
-400.209	800.000	-0.064	-0.237
-399.194	107.953	-0.156	0.186
-398.179	-200.000	0.014	0.118
-397.165	-200.000	-0.021	0.290
-396.150	-116.155	0.337	-0.063
-395.136	800.000	0.025	0.081
-394.121	800.000	0.039	0.157
-393.106	-54.090	0.120	0.055
-392.092	-133.509	0.106	0.013
-391.077	249.216	0.151	-0.256
-390.063	800.000	-0.059	-0.193
-389.048	36.639	0.318	-0.281
-388.033	-95.899	-0.116	0.031
-387.019	572.616	-0.039	-0.095
-386.004	779.031	-0.066	0.182
-384.990	255.774	-0.013	-0.023
-383.975	75.367	0.090	0.095
-382.960	603.860	-0.053	-0.131
-381.946	-43.720	0.346	-0.174
-380.931	-124.542	-0.445	0.069
-379.917	-46.564	-0.271	-0.133
-378.902	-200.000	0.050	-0.300
-377.888	411.349	0.104	-0.222
-376.873	-126.012	-0.265	0.040
-375.858	-30.672	0.234	0.133
-374.844	142.795	0.080	0.106
-373.829	158.729	0.203	0.281
-372.815	-143.874	-0.256	-0.024
-371.800	-30.171	0.147	-0.084
-370.785	-16.004	0.358	-0.228
-369.771	-79.716	-0.085	0.029
-368.756	341.532	-0.112	0.219
-367.742	35.133	0.163	0.143
-366.727	-144.670	0.388	0.036
-365.712	36.817	0.141	-0.125
-364.698	16.565	-0.254	-0.201
-363.683	-200.000	0.025	-0.123
-362.669	800.000	0.052	-0.191
-361.654	203.950	-0.127	-0.197
-360.639	138.661	0.159	-0.209
-359.625	-73.405	-0.170	0.062
-358.610	-16.954	0.084	-0.053
-357.596	149.199	-0.173	-0.234
-356.581	42.835	0.071	-0.065
-355.566	-146.548	-0.115	0.010
-354.552	-29.939	0.144	-0.082
-353.537	122.628	-0.046	-0.057
-352.523	-200.000	-0.006	-0.427
-351.508	-109.303	0.408	-0.087
-350.493	-200.000	-0.081	0.429
-349.479	36.914	-0.147	-0.130
-348.464	-200.000	0.018	-0.165
-347.450	228.803	-0.168	-0.274
-346.435	393.405	0.105	-0.218
-345.420	800.000	-0.018	-0.061
-344.406	-36.301	-0.156	0.084
-343.391	-97.177	-0.195	-0.051
-342.377	-22.471	-0.276	0.167
-341.362	-200.000	-0.000	0.093
-340.348	280.614	-0.051	0.092
-339.333	-188.372	0.205	-0.003
-338.318	-106.961	0.352	0.078
-337.304	92.425	0.136	0.153
-336.289	800.000	-0.026	-0.081
-335.275	-200.000	-0.014	0.223
-334.260	149.228	0.159	-0.215
-333.245	-200.000	-0.015	-0.263
-332.231	-200.000	0.030	0.288
-331.216	89.861	-0.226	-0.252
-330.202	800.000	-0.049	0.162
-329.187	222.618	-0.085	0.137
-328.172	-200.000	0.244	0.001
-327.158	-36.555	0.071	0.038
-326.143	800.000	0.141	-0.498
-325.129	-42.031	0.262	0.134
-324.114	-200.000	-0.024	0.203
-323.099	0.039	-0.110	-0.078
-322.085	-54.634	0.129	0.058
-321.070	-200.000	-0.015	0.137
-320.056	42.007	0.182	0.165
-319.041	800.000	-0.107	-0.356
-318.026	160.575	0.139	0.193
-317.012	-200.000	-0.054	0.395
-315.997	800.000	0.052	-0.185
-314.983	-200.000	0.004	0.044
-313.968	13.034	0.218	-0.168
-312.953	-61.205	-0.109	0.046
-311.939	-64.018	0.350	-0.143
-310.924	-32.173	-0.311	0.174
-309.910	69.100	-0.076	-0.078
-308.895	317.224	-0.073	-0.137
-307.880	-146.839	-0.264	0.023
-306.866	-74.437	-0.428	0.154
-305.851	-200.000	0.002	-0.215
-304.837	-200.000	-0.041	-0.214
-303.822	33.062	0.285	0.246
-302.807	56.530	-0.125	0.121
-301.793	-200.000	0.016	0.186
-300.778	-107.115	0.068	-0.015
-299.764	-116.737	0.182	-0.033
-298.749	-200.000	0.032	-0.149
-297.735	-42.212	-0.052	0.026
-296.720	249.360	-0.207	0.350
-295.705	515.862	-0.112	0.262
-294.691	255.052	-0.153	0.262
-293.676	275.981	-0.118	-0.209
-292.662	264.077	-0.047	0.081
-291.647	-66.690	0.252	-0.100
-290.632	149.677	0.038	-0.051
-289.618	-4.745	0.101	0.069
-288.603	230.458	-0.130	-0.212
-287.589	368.131	-0.204	0.412
-286.574	-76.432	-0.035	0.012
-285.559	-88.660	0.152	-0.045
-284.545	800.000	0.061	0.249
-283.530	237.327	-0.165	-0.273
-282.516	2.015	-0.096	-0.069
-281.501	-85.156	0.194	0.060
-280.486	-200.000	-0.057	0.590
-279.472	-19.525	-0.176	0.109
-278.457	-66.713	0.397	0.157
-277.443	79.015	-0.091	-0.097
-276.428	680.945	0.116	0.301
-275.413	-112.859	-0.052	-0.010
-274.399	-94.014	-0.066	0.018
-273.384	399.902	0.062	0.129
-272.370	-200.000	0.035	0.487
-271.355	478.318	0.198	0.447
-270.340	-34.358	0.221	0.121
-269.326	-72.888	0.227	-0.083
-268.311	800.000	0.041	0.178
-267.297	800.000	-0.026	-0.084
-266.282	180.573	-0.071	0.104
-265.267	36.400	-0.187	-0.164
-264.253	3.408	0.273	0.198
-263.238	-200.000	-0.004	-0.080
-262.224	625.164	-0.088	-0.220
-261.209	-24.750	-0.053	-0.032
-260.195	20.404	-0.330	0.266
-259.180	-72.219	-0.190	0.070
-258.165	431.980	-0.017	-0.037
-257.151	452.758	-0.147	-0.323
-256.136	161.181	-0.073	-0.101
-255.122	-78.876	-0.199	-0.068
-254.107	0.880	-0.082	0.059
-253.092	-55.038	-0.338	-0.152
-252.078	-99.690	-0.109	-0.027
-251.063	-200.000	0.049	-0.249
-250.049	-131.104	0.322	0.043
-249.034	-200.000	-0.019	0.202
-248.019	641.677	-0.090	0.229
-247.005	-190.011	0.348	0.004
-245.990	-128.417	-0.244	-0.034
-244.976	-97.945	0.037	-0.009
-243.961	800.000	0.049	0.203
-242.946	102.884	-0.053	0.062
-241.932	-200.000	-0.037	0.166
-240.917	719.496	0.061	-0.160
-239.903	-91.155	0.102	-0.029
-238.888	4.925	-0.013	-0.009
-237.873	-200.000	-0.005	-0.209
-236.859	-200.000	0.021	0.198
-235.844	-116.740	0.188	-0.034
-234.830	-48.863	0.209	0.100
-233.815	22.672	-0.114	0.092
-232.800	-70.811	-0.073	-0.027
-231.786	-38.513	-0.186	-0.098
-230.771	334.365	-0.038	0.073
-229.757	348.679	-0.093	0.182
-228.742	-86.234	0.120	-0.037
-227.727	-200.000	0.039	0.233
-226.713	4.111	0.245	-0.178
-225.698	59.855	-0.126	-0.123
-224.684	-200.000	-0.024	0.228
-223.669	-32.431	0.265	0.147
-222.655	-91.927	-0.174	-0.049
-221.640	800.000	0.029	0.121
-220.625	36.556	0.330	0.289
-219.611	30.684	-0.162	0.138
-218.596	-132.204	-0.500	-0.064
-217.582	-150.849	-0.200	-0.015
-216.567	51.315	0.079	-0.074
-215.552	-93.444	0.209	-0.057
-214.538	102.032	-0.137	-0.159
-213.523	-145.048	0.307	-0.028
-212.509	84.591	0.165	-0.180
-211.494	232.052	-0.103	0.168
-210.479	-141.028	-0.374	-0.038
-209.465	-93.552	0.199	0.055
-208.450	-75.894	0.376	-0.132
-207.436	-200.000	0.053	0.353
-206.421	-139.735	-0.246	0.026
-205.406	-91.506	-0.137	-0.039
-204.392	800.000	0.046	0.171
-203.377	20.272	0.142	0.114
-202.363	33.469	0.379	0.327
-201.348	-146.683	0.237	0.020
-200.333	-200.000	-0.031	-0.179
-199.319	2.079	0.414	-0.297
-198.304	-116.784	-0.131	-0.024
-197.290	-200.000	-0.025	-0.145
-196.275	-182.331	-0.066	0.001
-195.260	-87.254	-0.199	0.060
-194.246	219.710	0.042	-0.066
-193.231	-164.790	-0.300	-0.013
-192.217	92.640	0.298	0.334
-191.202	-125.761	-0.021	-0.003
-190.187	-197.516	0.116	-0.001
-189.173	799.008	0.199	-0.544
-188.158	-200.000	-0.032	0.141
-187.144	-32.030	0.096	0.054
-186.129	588.637	0.030	0.073
-185.114	8.907	-0.285	-0.214
-184.100	-200.000	0.053	-0.312
-183.085	193.989	0.096	0.145
-182.071	211.823	0.087	-0.136
-181.056	-73.196	0.290	-0.105
-180.042	-200.000	-0.044	-0.238
-179.027	37.588	-0.085	-0.075
-178.012	-172.635	0.156	-0.005
-176.998	507.096	-0.102	0.235
-175.983	-81.722	-0.032	-0.010
-174.969	800.000	0.150	0.493
-173.954	-105.914	-0.027	0.006
-172.939	103.314	-0.263	0.306
-171.925	-165.643	0.483	0.021
-170.910	-200.000	-0.003	-0.060
-169.896	108.865	0.056	0.067
-168.881	-92.952	0.229	-0.064
-167.866	800.000	0.070	0.241
-166.852	-200.000	0.032	-0.162
-165.837	13.777	-0.198	-0.152
-164.823	-38.916	0.200	-0.104
-163.808	800.000	0.093	0.316
-162.793	250.796	0.021	-0.035
-161.779	53.782	0.039	0.037
-160.764	-200.000	0.022	-0.397
-159.750	19.664	-0.052	-0.041
-158.735	720.282	0.080	-0.212
-157.720	-148.630	0.332	0.027
-156.706	-84.757	-0.236	0.074
-155.691	-6.647	0.287	0.194
-154.677	-200.000	0.054	0.328
-153.662	800.000	0.063	0.225
-152.647	800.000	-0.089	-0.275
-151.633	47.595	-0.100	-0.093
-150.618	-45.082	0.054	-0.026
-149.604	26.073	-0.102	0.084
-148.589	74.595	0.086	0.090
-147.574	-73.563	0.318	-0.115
-146.560	-21.838	0.230	-0.139
-145.545	-87.299	0.259	0.078
-144.531	-125.872	0.231	0.034
-143.516	-146.556	-0.173	-0.015
-142.502	-97.252	0.238	0.062
-141.487	-200.000	-0.057	-0.259
-140.472	800.000	-0.023	0.083
-139.458	-123.975	-0.048	0.007
-138.443	-156.608	-0.115	0.007
-137.429	-65.936	-0.239	0.095
-136.414	-176.891	0.282	0.007
-135.399	567.114	-0.081	0.194
-134.385	81.576	0.078	0.084
-133.370	800.000	0.134	0.386
-132.356	-200.000	-0.025	-0.183
-131.341	180.642	-0.188	0.273
-130.326	-200.000	-0.029	-0.262
-129.312	-29.005	-0.176	-0.100
-128.297	-74.978	0.231	0.082
-127.283	-92.288	-0.177	-0.049
-126.268	-11.360	0.383	-0.250
-125.253	-64.284	-0.100	0.040
-124.239	117.923	0.060	-0.073
-123.224	-10.426	-0.081	0.053
-122.210	107.893	0.251	0.296
