DTS Sentinel unit serial number:	SN413079Multiplexer serial number:	ORYXHardware model number:	OX4-SRSoftware version number:	ORYX F/W v4.00 Oryx Data Collector v3.7.2.0data status	okinstallation	princeton_trtdifferential loss correction	single-endedforward channel	channel 3reverse channel	N/Adate	2019/09/16time	00:44:35forward acquisition time	60.00reverse acquisition time	0.00gamma	496.2192k internal	0.2338k external	0.2338temperature offset calibration	0.9951default loss term (dB/km)	0.3790temperature slope calibration	1.0000multiplexer offset coefficient	1.0000multiplexer slope coefficient	1.0000fibre end	0.00T internal ref (°C)	27.44T ext. ref 1 (°C)	9.63T ext. ref 2 (°C)	21.41length (m)	temperature (°C)	Stokes	anti-Stokes-747.200	-62.892	-0.507	-0.211
-746.185	-124.129	-0.214	0.034
-745.171	-145.722	-0.257	0.023
-744.156	92.768	0.254	0.287
-743.142	800.000	-0.097	-0.342
-742.127	-0.374	-0.203	-0.145
-741.112	-41.033	-0.109	0.056
-740.098	200.753	0.016	0.025
-739.083	800.000	-0.076	-0.332
-738.069	-46.604	-0.208	0.102
-737.054	87.774	-0.137	0.152
-736.039	-156.565	-0.191	0.012
-735.025	-131.256	0.248	0.033
-734.010	800.000	-0.027	-0.077
-732.996	96.226	-0.264	-0.303
-731.981	91.548	0.187	0.211
-730.966	800.000	-0.073	0.224
-729.952	-53.821	-0.340	-0.155
-728.937	800.000	-0.071	-0.295
-727.923	800.000	0.054	-0.233
-726.908	46.330	-0.171	-0.159
-725.894	800.000	-0.008	-0.028
-724.879	-25.703	-0.097	-0.057
-723.864	-69.276	-0.060	-0.023
-722.850	-77.500	0.307	-0.107
-721.835	-108.048	0.173	0.038
-720.821	-27.499	-0.239	0.139
-719.806	-98.604	-0.231	-0.059
-718.791	-108.187	-0.353	0.077
-717.777	800.000	-0.050	0.139
-716.762	-122.086	0.306	-0.050
-715.748	-200.000	0.024	-0.112
-714.733	6.753	0.150	-0.112
-713.718	-200.000	-0.021	-0.528
-712.704	800.000	0.037	-0.128
-711.689	-93.752	-0.176	0.049
-710.675	-62.575	0.263	-0.110
-709.660	93.429	0.160	0.181
-708.645	56.748	-0.110	0.107
-707.631	7.775	-0.223	0.167
-706.616	102.975	0.135	-0.158
-705.602	800.000	-0.109	-0.321
-704.587	-200.000	-0.017	-0.114
-703.572	-200.000	0.006	0.237
-702.558	377.996	-0.110	0.225
-701.543	444.588	0.011	-0.024
-700.529	-16.078	-0.206	-0.131
-699.514	56.520	0.055	0.053
-698.499	-175.913	-0.645	0.017
-697.485	197.003	-0.015	0.022
-696.470	-200.000	-0.024	-0.158
-695.456	-200.000	0.070	-0.000
-694.441	-136.518	-0.180	-0.021
-693.426	-200.000	0.017	-0.082
-692.412	-50.912	0.219	-0.103
-691.397	304.472	-0.116	-0.216
-690.383	465.817	0.113	-0.254
-689.368	-88.266	0.137	-0.041
-688.354	800.000	-0.091	-0.322
-687.339	800.000	-0.102	-0.348
-686.324	-57.220	-0.084	0.037
-685.310	204.095	-0.053	-0.082
-684.295	77.726	-0.199	-0.212
-683.281	-99.610	0.140	0.035
-682.266	-131.645	-0.082	-0.011
-681.251	-12.821	-0.183	0.119
-680.237	-70.425	0.309	0.117
-679.222	-200.000	-0.035	-0.288
-678.208	800.000	-0.141	-0.591
-677.193	43.652	-0.224	0.205
-676.178	-124.257	-0.371	0.058
-675.164	800.000	-0.097	0.394
-674.149	26.178	-0.036	-0.030
-673.135	-119.284	0.068	-0.012
-672.120	246.469	-0.163	0.274
-671.105	115.194	0.091	-0.111
-670.091	0.789	0.320	-0.229
-669.076	-68.745	0.164	-0.063
-668.062	93.899	-0.102	0.115
-667.047	-27.932	0.552	0.320
-666.032	787.647	0.043	0.119
-665.018	36.113	-0.171	-0.151
-664.003	163.181	0.183	-0.258
-662.989	-147.250	-0.236	0.020
-661.974	1.060	-0.183	-0.131
-660.959	-200.000	0.011	0.139
-659.945	800.000	0.022	-0.088
-658.930	-0.823	-0.134	-0.095
-657.916	-26.640	0.279	-0.164
-656.901	800.000	0.035	-0.122
-655.886	-23.229	-0.332	0.200
-654.872	-33.642	-0.049	0.027
-653.857	-38.470	-0.100	-0.053
-652.843	77.258	-0.143	0.152
-651.828	34.427	-0.155	0.135
-650.814	139.221	-0.125	-0.165
-649.799	-24.893	-0.390	0.231
-648.784	-200.000	0.045	0.530
-647.770	-70.139	-0.147	0.056
-646.755	62.533	-0.214	-0.214
-645.741	408.795	-0.065	0.138
-644.726	-200.000	0.027	0.339
-643.711	-200.000	-0.013	-0.139
-642.697	-101.220	-0.200	0.049
-641.682	-107.579	0.182	-0.040
-640.668	436.586	-0.087	0.189
-639.653	439.303	-0.120	-0.261
-638.638	71.411	0.024	-0.025
-637.624	-200.000	0.006	0.177
-636.609	800.000	0.026	0.092
-635.595	-24.600	0.341	-0.203
-634.580	800.000	-0.023	-0.067
-633.565	800.000	-0.094	0.302
-632.551	415.180	-0.099	0.212
-631.536	16.287	-0.010	0.008
-630.522	229.388	-0.153	0.250
-629.507	-170.746	-0.267	0.009
-628.492	-115.219	0.103	-0.019
-627.478	-200.000	-0.032	0.185
-626.463	374.548	-0.168	-0.342
-625.449	-111.955	-0.303	-0.061
-624.434	303.205	-0.055	0.102
-623.419	-200.000	0.016	0.113
-622.405	-200.000	-0.011	0.105
-621.390	-63.209	-0.289	0.119
-620.376	-104.722	0.083	0.019
-619.361	63.008	0.197	0.197
-618.346	7.757	-0.308	0.230
-617.332	-131.099	-0.164	0.022
-616.317	-200.000	0.040	-0.242
-615.303	235.716	-0.079	-0.131
-614.288	641.271	0.089	-0.226
-613.273	0.969	-0.328	0.235
-612.259	-38.562	0.231	-0.122
-611.244	-161.333	-0.278	-0.014
-610.230	475.343	-0.099	-0.224
-609.215	-47.229	0.251	0.122
-608.201	373.578	-0.063	-0.129
-607.186	-200.000	-0.020	-0.114
-606.171	768.705	0.100	-0.273
-605.157	29.600	0.112	-0.095
-604.142	85.022	-0.167	0.182
-603.128	607.315	0.036	0.089
-602.113	55.307	-0.096	-0.093
-601.098	274.687	0.042	-0.073
-600.084	-100.587	0.180	0.044
-599.069	-146.499	0.309	0.027
-598.055	-200.000	-0.010	-0.183
-597.040	-70.453	0.204	-0.077
-596.025	-52.552	0.229	-0.105
-595.011	-33.317	-0.252	-0.139
-593.996	-39.936	-0.162	-0.084
-592.982	-1.005	0.137	0.097
-591.967	-200.000	-0.057	-0.264
-590.952	2.847	0.076	-0.055
-589.938	-146.276	-0.327	0.029
-588.923	-42.765	0.207	0.105
-587.909	-69.310	-0.026	-0.010
-586.894	18.429	-0.315	0.251
-585.879	-4.269	0.187	-0.129
-584.865	144.659	-0.288	-0.383
-583.850	-200.000	0.094	-0.439
-582.836	800.000	0.049	-0.194
-581.821	363.618	-0.071	-0.143
-580.806	-82.158	-0.295	-0.096
-579.792	-200.000	-0.010	-0.122
-578.777	800.000	0.068	0.274
-577.763	800.000	0.067	0.206
-576.748	36.523	-0.202	0.178
-575.733	-21.604	-0.266	-0.162
-574.719	-65.830	0.312	-0.125
-573.704	250.585	-0.134	-0.226
-572.690	-102.737	-0.154	0.037
-571.675	800.000	0.057	-0.159
-570.661	-4.120	-0.207	-0.143
-569.646	-173.880	0.246	-0.007
-568.631	-158.299	-0.143	-0.008
-567.617	98.126	-0.138	0.158
-566.602	-200.000	-0.001	0.007
-565.588	-112.797	0.198	-0.039
-564.573	-200.000	-0.007	-0.332
-563.558	-200.000	-0.013	0.121
-562.544	3.787	-0.119	0.087
-561.529	-200.000	-0.024	0.370
-560.515	-140.827	0.129	-0.013
-559.500	180.382	-0.049	-0.072
-558.485	800.000	-0.056	0.173
-557.471	14.263	-0.172	-0.133
-556.456	-51.670	-0.060	-0.028
-555.442	-162.206	0.264	-0.013
-554.427	-200.000	0.009	0.116
-553.412	524.100	0.172	0.404
-552.398	-200.000	-0.003	0.043
-551.383	-124.101	0.034	0.005
-550.369	11.954	-0.117	-0.090
-549.354	-46.480	0.101	0.049
-548.339	-39.089	-0.278	-0.146
-547.325	356.059	0.088	0.175
-546.310	-200.000	-0.030	0.158
-545.296	137.410	-0.060	-0.078
-544.281	651.046	-0.046	-0.118
-543.266	-80.068	0.144	-0.048
-542.252	-69.689	0.172	0.066
-541.237	-95.723	-0.341	0.091
-540.223	331.630	-0.095	0.182
-539.208	-62.479	-0.333	-0.138
-538.193	-200.000	0.026	-0.153
-537.179	-137.993	0.308	0.034
-536.164	-31.519	-0.281	-0.157
-535.150	-44.208	0.220	0.110
-534.135	789.353	-0.107	0.292
-533.121	-94.939	-0.233	-0.063
-532.106	-191.767	0.136	0.001
-531.091	21.180	0.282	-0.228
-530.077	-77.384	0.527	-0.182
-529.062	14.743	-0.320	-0.249
-528.048	-129.308	0.110	-0.015
-527.033	27.285	-0.189	-0.158
-526.018	800.000	0.125	-0.355
-525.004	-49.302	0.202	-0.096
-523.989	133.290	-0.067	-0.087
-522.975	-109.354	-0.253	-0.053
-521.960	-32.047	0.177	0.098
-520.945	-200.000	-0.001	-0.380
-519.931	4.917	-0.044	-0.032
-518.916	-200.000	0.056	0.252
-517.902	-200.000	0.026	-0.335
-516.887	-164.959	0.330	-0.015
-515.872	289.418	-0.094	-0.170
-514.858	333.727	-0.092	0.178
-513.843	541.993	0.097	0.230
-512.829	-118.468	0.245	0.043
-511.814	-101.129	-0.051	0.012
-510.799	-200.000	0.005	0.056
-509.785	421.946	0.168	-0.359
-508.770	-22.706	-0.124	0.074
-507.756	-200.000	0.044	-0.198
-506.741	464.447	-0.146	-0.325
-505.726	-56.474	0.287	0.127
-504.712	-58.834	0.147	0.063
-503.697	204.742	0.095	-0.146
-502.683	135.134	-0.100	-0.130
-501.668	-133.852	0.580	0.072
-500.653	-200.000	-0.008	-0.128
-499.639	-23.146	0.248	-0.148
-498.624	800.000	0.021	0.060
-497.610	8.368	-0.229	0.171
-496.595	800.000	0.099	0.293
-495.581	-17.735	-0.305	0.190
-494.566	-75.323	-0.038	0.014
-493.551	800.000	-0.040	-0.144
-492.537	-200.000	0.025	0.127
-491.522	-59.928	-0.084	0.036
-490.508	484.318	-0.081	0.184
-489.493	-119.908	-0.232	0.040
-488.478	287.589	0.104	-0.187
-487.464	59.647	0.097	0.095
-486.449	800.000	-0.019	0.054
-485.435	622.259	0.137	-0.343
-484.420	-56.253	0.213	0.094
-483.405	678.870	-0.062	-0.159
-482.391	-200.000	0.022	-0.144
-481.376	12.325	0.031	0.024
-480.362	136.580	0.039	0.050
-479.347	137.269	-0.034	0.044
-478.332	-89.460	0.051	-0.015
-477.318	53.082	-0.096	-0.091
-476.303	29.191	-0.227	-0.192
-475.289	-34.186	0.269	0.147
-474.274	-158.377	0.091	0.005
-473.259	-147.684	-0.146	-0.012
-472.245	69.334	0.185	-0.189
-471.230	-97.862	-0.262	0.067
-470.216	111.929	-0.033	0.040
-469.201	-85.185	-0.307	0.095
-468.186	146.014	-0.166	-0.221
-467.172	-85.065	0.263	-0.082
-466.157	-83.295	0.192	0.061
-465.143	800.000	0.076	-0.257
-464.128	260.825	-0.032	0.055
-463.113	-200.000	-0.003	0.442
-462.099	-200.000	-0.018	-0.317
-461.084	-53.013	-0.122	-0.056
-460.070	-67.371	0.346	-0.135
-459.055	20.145	0.132	-0.106
-458.040	-120.722	0.136	0.023
-457.026	9.384	-0.278	-0.209
-456.011	-44.719	-0.219	0.109
-454.997	36.161	0.025	-0.022
-453.982	-200.000	-0.003	0.070
-452.968	98.235	0.126	0.144
-451.953	-90.798	-0.056	-0.016
-450.938	-119.453	0.094	-0.016
-449.924	-200.000	0.039	-0.464
-448.909	312.058	0.048	-0.090
-447.895	7.956	0.054	-0.040
-446.880	-200.000	0.009	0.288
-445.865	25.110	-0.164	0.135
-444.851	-200.000	-0.000	0.080
-443.836	-50.382	-0.099	0.046
-442.822	-179.973	-0.316	-0.007
-441.807	-33.174	0.111	-0.061
-440.792	434.142	-0.055	-0.118
-439.778	22.119	-0.097	-0.078
-438.763	21.123	0.173	0.139
-437.749	54.649	0.184	0.176
-436.734	800.000	-0.047	-0.169
-435.719	-200.000	0.001	-0.160
-434.705	-200.000	0.028	-0.291
-433.690	759.143	-0.227	-0.610
-432.676	800.000	-0.033	0.105
-431.661	150.808	0.142	0.192
-430.646	-114.945	0.186	-0.035
-429.632	-160.195	0.126	-0.007
-428.617	-200.000	-0.013	-0.285
-427.603	-130.159	-0.226	0.031
-426.588	492.364	-0.235	0.533
-425.573	-200.000	0.009	0.133
-424.559	270.096	0.187	-0.326
-423.544	205.248	0.065	0.101
-422.530	-200.000	0.073	0.409
-421.515	189.976	-0.072	-0.107
-420.500	-67.469	-0.177	-0.069
-419.486	470.958	0.111	0.248
-418.471	-6.175	-0.074	-0.050
-417.457	-45.872	-0.339	-0.166
-416.442	-87.434	0.410	0.123
-415.428	212.192	-0.302	0.471
-414.413	129.084	-0.129	-0.163
-413.398	251.121	0.111	0.187
-412.384	143.580	0.122	-0.161
-411.369	-200.000	0.032	-0.403
-410.355	-150.887	0.057	-0.004
-409.340	-37.285	0.179	-0.095
-408.325	-182.885	-0.250	-0.004
-407.311	-68.083	0.024	-0.009
-406.296	405.023	-0.081	-0.170
-405.282	-169.817	0.182	-0.006
-404.267	1.582	-0.114	0.081
-403.252	77.169	-0.189	0.199
-402.238	-173.964	-0.173	-0.005
-401.223	241.355	0.100	-0.165
-400.209	-71.872	-0.308	0.113
-399.194	186.397	-0.312	-0.460
-398.179	-200.000	0.012	0.504
-397.165	-164.529	0.149	0.007
-396.150	152.564	0.261	-0.354
-395.136	-28.231	0.204	-0.117
-394.121	41.700	0.471	-0.422
-393.106	790.169	-0.108	0.293
-392.092	-113.939	-0.238	0.046
-391.077	154.643	0.284	0.386
-390.063	190.876	0.194	0.289
-389.048	-200.000	-0.005	-0.254
-388.033	-200.000	-0.044	0.201
-387.019	287.665	0.109	0.195
-386.004	82.752	-0.173	-0.186
-384.990	-43.819	0.164	-0.082
-383.975	-84.697	0.442	-0.138
-382.960	-200.000	0.002	0.133
-381.946	-200.000	0.028	0.370
-380.931	-200.000	0.033	0.565
-379.917	-96.867	0.195	-0.051
-378.902	-13.257	-0.284	0.183
-377.888	86.896	-0.213	0.233
-376.873	-200.000	0.045	-0.238
-375.858	-158.886	-0.205	0.012
-374.844	106.389	0.013	-0.015
-373.829	80.006	-0.077	0.082
-372.815	61.015	-0.276	0.271
-371.800	-52.344	0.127	0.058
-370.785	-21.397	0.097	0.059
-369.771	-136.080	0.056	0.007
-368.756	-55.799	-0.206	-0.091
-367.742	355.971	0.048	-0.095
-366.727	-200.000	-0.010	-0.097
-365.712	169.510	-0.095	0.135
-364.698	190.064	-0.228	0.338
-363.683	-119.185	-0.260	-0.045
-362.669	33.498	-0.267	0.229
-361.654	-111.920	-0.198	0.040
-360.639	77.887	0.160	-0.169
-359.625	-174.657	0.111	-0.003
-358.610	-157.293	0.262	-0.016
-357.596	149.544	-0.125	-0.168
-356.581	-200.000	-0.020	0.263
-355.566	63.836	0.288	0.286
-354.552	-200.000	-0.004	-0.026
-353.537	-200.000	0.036	0.222
-352.523	-110.926	-0.070	0.014
-351.508	-200.000	0.075	0.572
-350.493	92.759	-0.122	-0.137
-349.479	-200.000	-0.001	-0.175
-348.464	800.000	-0.031	-0.090
-347.450	-158.952	0.423	-0.024
-346.435	800.000	-0.029	-0.091
-345.420	220.584	0.166	-0.264
-344.406	-125.169	-0.095	-0.014
-343.391	136.194	-0.081	-0.105
-342.377	525.758	-0.112	0.260
-341.362	-108.739	0.252	0.053
-340.348	678.609	0.081	-0.208
-339.333	68.702	0.108	-0.110
-338.318	-74.634	-0.215	-0.076
-337.304	-46.788	0.071	-0.034
-336.289	-117.800	0.094	-0.017
-335.275	-200.000	0.020	-0.165
-334.260	-100.502	0.291	-0.071
-333.245	85.618	0.073	0.079
-332.231	-114.260	-0.197	0.038
-331.216	800.000	-0.038	-0.126
-330.202	-103.858	0.242	0.056
-329.187	191.103	0.089	0.132
-328.172	-56.164	-0.170	-0.075
-327.158	800.000	0.102	0.353
-326.143	-70.242	0.378	-0.142
-325.129	-15.041	0.129	-0.082
-324.114	215.138	0.047	-0.074
-323.099	303.771	-0.126	0.231
-322.085	566.719	0.053	0.127
-321.070	575.940	0.047	0.113
-320.056	286.885	0.082	0.146
-319.041	-116.637	0.446	0.081
-318.026	-151.613	0.497	0.036
-317.012	-200.000	-0.031	-0.197
-315.997	-57.148	0.319	-0.139
-314.983	-87.840	-0.046	0.014
-313.968	-200.000	-0.024	0.202
-312.953	-200.000	0.059	0.317
-311.939	99.567	-0.160	-0.183
-310.924	-51.429	-0.237	0.109
-309.910	41.481	0.011	-0.010
-308.895	385.677	-0.092	-0.188
-307.880	-200.000	-0.007	0.091
-306.866	-110.760	0.216	0.044
-305.851	-84.481	0.264	-0.082
-304.837	116.079	0.167	0.202
-303.822	84.734	-0.144	0.155
-302.807	-26.372	-0.289	0.167
-301.793	-200.000	0.019	-0.107
-300.778	16.873	0.158	-0.124
-299.764	-115.205	-0.113	-0.021
-298.749	800.000	-0.024	0.070
-297.735	359.131	0.086	-0.169
-296.720	-99.897	0.188	0.046
-295.705	-6.144	0.264	0.178
-294.691	-100.535	-0.245	-0.060
-293.676	452.655	-0.070	0.153
-292.662	-134.038	0.265	-0.032
-291.647	-100.636	0.117	0.028
-290.632	186.011	0.142	-0.208
-289.618	800.000	0.049	-0.156
-288.603	100.120	0.116	0.133
-287.589	121.160	0.208	0.255
-286.574	-143.826	-0.155	-0.014
-285.559	-200.000	-0.014	0.298
-284.545	19.254	-0.078	0.062
-283.530	143.382	-0.155	0.204
-282.516	-200.000	-0.051	0.226
-281.501	800.000	0.032	-0.120
-280.486	-190.191	-0.218	-0.002
-279.472	81.073	0.163	-0.173
-278.457	800.000	-0.030	-0.123
-277.443	-126.703	-0.277	0.040
-276.428	63.926	-0.125	-0.124
-275.413	800.000	0.069	0.210
-274.399	99.442	0.173	0.197
-273.384	453.596	-0.055	0.121
-272.370	-62.610	-0.211	-0.086
-271.355	-200.000	0.024	0.142
-270.340	80.491	-0.209	-0.222
-269.326	-200.000	-0.073	-0.487
-268.311	-200.000	-0.036	-0.185
-267.297	120.093	-0.157	-0.191
-266.282	30.867	0.138	-0.116
-265.267	434.531	0.176	-0.376
-264.253	117.371	-0.089	-0.108
-263.238	238.979	-0.037	0.061
-262.224	-200.000	-0.006	-0.080
-261.209	41.189	-0.049	0.043
-260.195	292.444	0.040	0.073
-259.180	-195.307	0.076	-0.001
-258.165	-200.000	0.015	-0.206
-257.151	-136.619	0.448	-0.051
-256.136	800.000	0.208	0.641
-255.122	-200.000	0.020	0.379
-254.107	800.000	-0.088	0.283
-253.092	236.396	0.095	0.155
-252.078	283.504	-0.072	0.127
-251.063	-200.000	0.014	0.116
-250.049	-94.692	-0.251	0.067
-249.034	-120.377	-0.111	0.019
-248.019	54.520	0.162	-0.153
-247.005	-172.079	0.120	-0.004
-245.990	161.832	0.062	0.085
-244.976	716.057	-0.135	0.351
-243.961	277.007	-0.184	-0.321
-242.946	509.300	0.091	-0.207
-241.932	-55.605	0.248	0.109
-240.917	-62.615	-0.154	0.063
-239.903	-200.000	0.022	-0.260
-238.888	181.457	0.161	-0.233
-237.873	166.491	-0.184	0.256
-236.859	-83.264	-0.315	0.100
-235.844	-76.416	0.194	0.067
-234.830	-94.712	-0.154	0.041
-233.815	210.982	0.063	-0.098
-232.800	-57.669	-0.205	0.088
-231.786	-46.550	-0.257	-0.124
-230.771	-200.000	0.015	0.267
-229.757	-63.210	-0.399	-0.162
-228.742	130.441	-0.167	0.211
-227.727	287.416	-0.087	0.156
-226.713	-54.285	0.112	-0.050
-225.698	-44.183	-0.133	-0.066
-224.684	99.988	-0.224	-0.256
-223.669	-1.924	0.153	-0.106
-222.655	-200.000	0.025	-0.173
-221.640	121.201	-0.130	-0.159
-220.625	15.243	0.151	-0.116
-219.611	-200.000	0.053	-0.366
-218.596	-80.209	0.166	-0.055
-217.582	-41.344	0.251	0.127
-216.567	-49.580	0.249	0.116
-215.552	765.044	0.069	-0.185
-214.538	153.081	0.259	-0.348
-213.523	-200.000	0.063	-0.317
-212.509	434.085	0.130	0.279
-211.494	109.122	0.077	-0.090
-210.479	-200.000	0.017	-0.143
-209.465	800.000	-0.081	-0.234
-208.450	-200.000	-0.033	-0.216
-207.436	-163.582	0.070	0.003
-206.421	800.000	0.076	-0.310
-205.406	30.651	-0.378	0.318
-204.392	-97.964	-0.211	0.054
-203.377	57.045	0.028	-0.027
-202.363	10.905	-0.104	-0.078
-201.348	125.713	0.267	0.332
-200.333	97.999	-0.226	0.255
-199.319	-11.086	0.098	-0.064
-198.304	-123.297	0.291	0.046
-197.290	524.053	-0.093	0.216
-196.275	800.000	-0.105	-0.342
-195.260	-3.594	0.347	-0.237
-194.246	-58.677	-0.355	0.151
-193.231	-59.664	-0.068	0.028
-192.217	-22.234	0.093	0.055
-191.202	-126.772	0.346	0.050
-190.187	13.722	-0.102	0.078
-189.173	-200.000	-0.041	0.357
-188.158	-200.000	0.015	0.151
-187.144	800.000	-0.065	0.249
-186.129	168.829	-0.093	0.130
-185.114	8.355	-0.177	-0.131
-184.100	427.627	0.042	0.089
-183.085	800.000	-0.065	-0.202
-182.071	85.289	0.166	0.179
-181.056	-200.000	0.007	-0.134
-180.042	-200.000	0.025	-0.136
-179.027	-85.450	-0.208	-0.064
-178.012	186.033	-0.203	0.296
-176.998	-200.000	0.007	0.239
-175.983	85.803	-0.169	-0.183
-174.969	203.977	-0.060	-0.092
-173.954	127.237	0.218	-0.272
-172.939	79.250	-0.249	-0.262
-171.925	-200.000	0.150	0.000
-170.910	403.509	-0.107	0.221
-169.896	199.013	0.176	0.265
-168.881	-200.000	0.013	-0.095
-167.866	260.946	0.042	0.071
-166.852	-69.732	0.261	-0.098
-165.837	-118.470	-0.252	0.044
-164.823	165.022	0.159	0.220
-163.808	-200.000	-0.002	-0.009
-162.793	-81.984	0.155	-0.050
-161.779	5.058	-0.214	0.154
-160.764	174.865	0.098	-0.139
-159.750	-56.108	-0.111	0.049
-158.735	800.000	-0.040	-0.116
-157.720	265.588	0.045	0.077
-156.706	470.124	0.109	-0.240
-155.691	647.752	-0.019	0.047
-154.677	800.000	0.033	0.125
-153.662	-52.616	-0.206	-0.093
-152.647	23.011	-0.035	0.028
-151.633	-41.936	-0.220	0.110
-150.618	-70.620	-0.447	-0.166
-149.604	547.243	-0.043	0.101
-148.589	-66.146	0.343	-0.134
-147.574	-33.778	-0.217	0.117
-146.560	-5.907	0.140	0.094
-145.545	-161.222	0.133	-0.007
-144.531	800.000	-0.171	-0.496
-143.516	646.431	0.059	0.147
-142.502	-200.000	0.033	0.267
-141.487	-200.000	-0.003	0.051
-140.472	800.000	0.054	0.156
-139.458	6.697	-0.194	-0.141
-138.443	27.128	0.148	-0.122
-137.429	-85.207	0.233	-0.071
-136.414	800.000	-0.028	-0.104
-135.399	-66.022	0.058	0.023
-134.385	-39.312	-0.182	0.093
-133.370	-153.166	-0.238	0.016
-132.356	20.502	0.090	0.071
-131.341	184.555	0.112	0.162
-130.326	-103.895	0.347	0.079
-129.312	-43.780	-0.333	-0.164
-128.297	-200.000	0.021	0.102
-127.283	39.269	-0.072	-0.063
-126.268	33.061	-0.238	-0.202
-125.253	-200.000	0.046	-0.488
-124.239	-200.000	0.035	0.361
-123.224	607.414	0.037	0.092
-122.210	58.814	0.174	-0.168
