DTS Sentinel unit serial number:	SN413079Multiplexer serial number:	ORYXHardware model number:	OX4-SRSoftware version number:	ORYX F/W v4.00 Oryx Data Collector v3.7.2.0data status	okinstallation	princeton_trtdifferential loss correction	single-endedforward channel	channel 3reverse channel	N/Adate	2019/09/17time	00:00:35forward acquisition time	60.00reverse acquisition time	0.00gamma	496.2192k internal	0.2325k external	0.2325temperature offset calibration	0.9943default loss term (dB/km)	0.3790temperature slope calibration	1.0000multiplexer offset coefficient	1.0000multiplexer slope coefficient	1.0000fibre end	0.00T internal ref (°C)	29.59T ext. ref 1 (°C)	0.09T ext. ref 2 (°C)	23.93length (m)	temperature (°C)	Stokes	anti-Stokes-747.200	-3.222	0.203	0.142
-746.185	800.000	0.068	0.198
-745.171	-200.000	-0.024	-0.154
-744.156	-200.000	-0.007	0.109
-743.142	-200.000	-0.037	0.257
-742.127	-61.980	0.179	0.075
-741.112	101.797	-0.069	-0.081
-740.098	571.217	0.106	0.260
-739.083	33.465	-0.320	-0.280
-738.069	-200.000	0.016	0.250
-737.054	-72.201	0.120	0.045
-736.039	-103.329	-0.239	-0.057
-735.025	18.713	0.082	-0.066
-734.010	-85.639	-0.276	-0.087
-732.996	-200.000	-0.015	-0.461
-731.981	-200.000	-0.012	-0.172
-730.966	-3.612	0.338	-0.237
-729.952	-200.000	0.001	0.156
-728.937	-200.000	-0.020	-0.207
-727.923	-200.000	-0.002	-0.126
-726.908	800.000	-0.039	-0.138
-725.894	106.946	-0.209	-0.251
-724.879	-118.451	0.417	-0.075
-723.864	88.311	0.094	0.105
-722.850	-150.485	-0.384	0.030
-721.835	-3.165	-0.111	0.078
-720.821	800.000	-0.102	-0.359
-719.806	800.000	-0.086	-0.374
-718.791	-72.425	0.305	0.114
-717.777	37.450	0.066	-0.059
-716.762	-129.798	-0.310	-0.043
-715.748	800.000	0.149	-0.419
-714.733	116.745	-0.167	-0.206
-713.718	-200.000	0.028	0.262
-712.704	-200.000	-0.026	-0.306
-711.689	477.946	0.045	-0.104
-710.675	42.120	0.049	-0.044
-709.660	142.712	0.095	0.127
-708.645	-200.000	-0.009	0.048
-707.631	17.451	-0.164	-0.131
-706.616	17.173	-0.395	0.316
-705.602	-75.327	0.206	0.074
-704.587	161.204	-0.175	-0.246
-703.572	-200.000	-0.027	0.144
-702.558	587.197	0.048	0.120
-701.543	53.806	0.234	0.226
-700.529	-72.664	-0.040	0.015
-699.514	-37.031	-0.441	-0.238
-698.499	135.870	0.118	0.155
-697.485	800.000	0.104	-0.319
-696.470	-47.021	-0.265	-0.130
-695.456	48.261	-0.125	-0.118
-694.441	160.465	-0.158	-0.222
-693.426	-68.280	0.193	-0.075
-692.412	-192.965	-0.099	-0.001
-691.397	-200.000	0.013	0.100
-690.383	39.961	-0.333	-0.301
-689.368	-77.293	0.193	-0.068
-688.354	571.559	0.150	0.368
-687.339	-200.000	0.004	0.057
-686.324	800.000	-0.101	0.280
-685.310	-200.000	-0.049	-0.222
-684.295	-87.112	0.240	-0.074
-683.281	-200.000	0.045	0.212
-682.266	-78.096	-0.243	-0.084
-681.251	800.000	-0.029	-0.104
-680.237	-200.000	0.005	0.344
-679.222	63.954	0.135	0.136
-678.208	267.483	-0.072	0.127
-677.193	21.790	-0.105	-0.086
-676.178	53.911	-0.028	0.027
-675.164	-120.090	-0.125	-0.022
-674.149	131.499	0.107	-0.138
-673.135	-77.982	0.187	0.065
-672.120	21.063	-0.217	-0.177
-671.105	-160.401	0.185	-0.010
-670.091	584.949	-0.060	0.148
-669.076	-72.793	-0.318	0.118
-668.062	-159.076	0.138	-0.008
-667.047	-39.565	0.295	-0.155
-666.032	220.667	-0.095	-0.153
-665.018	800.000	0.042	0.154
-664.003	-99.346	-0.274	0.069
-662.989	-151.155	-0.347	-0.026
-661.974	1.393	0.169	0.122
-660.959	39.137	0.133	-0.120
-659.945	18.834	-0.114	0.092
-658.930	-15.291	0.183	0.117
-657.916	-13.430	-0.162	-0.105
-656.901	43.434	0.123	0.113
-655.886	53.996	-0.218	0.211
-654.872	36.415	-0.245	-0.217
-653.857	-115.233	-0.296	0.056
-652.843	-72.677	-0.051	0.019
-651.828	-84.464	-0.262	-0.083
-650.814	215.335	0.078	-0.124
-649.799	-110.325	-0.263	0.055
-648.784	-70.018	0.057	0.022
-647.770	-124.733	-0.176	0.027
-646.755	22.088	0.177	-0.145
-645.741	-50.729	-0.278	-0.131
-644.726	-200.000	0.031	0.288
-643.711	-200.000	-0.019	-0.143
-642.697	-200.000	0.021	-0.118
-641.682	-200.000	-0.057	-0.406
-640.668	800.000	0.032	-0.091
-639.653	155.577	-0.158	0.218
-638.638	-200.000	0.009	0.331
-637.624	-47.762	0.301	-0.146
-636.609	274.534	0.061	0.108
-635.595	198.380	-0.204	-0.314
-634.580	155.186	-0.108	-0.149
-633.565	34.405	-0.158	-0.138
-632.551	-81.302	-0.290	-0.096
-631.536	134.379	0.046	0.060
-630.522	-200.000	-0.021	-0.134
-629.507	800.000	-0.056	-0.218
-628.492	-198.579	0.276	0.002
-627.478	-200.000	0.014	-0.066
-626.463	132.405	-0.102	-0.132
-625.449	164.378	0.119	-0.168
-624.434	295.747	-0.167	-0.307
-623.419	138.705	0.184	-0.243
-622.405	-172.612	-0.260	-0.008
-621.390	-200.000	-0.163	-0.000
-620.376	753.380	0.096	0.261
-619.361	273.877	-0.205	0.363
-618.346	-104.280	-0.256	0.060
-617.332	-30.040	0.176	0.100
-616.317	142.923	-0.113	-0.151
-615.303	-116.934	-0.477	0.088
-614.288	38.685	-0.283	-0.253
-613.273	-7.530	0.179	0.122
-612.259	800.000	0.023	-0.095
-611.244	800.000	0.069	-0.200
-610.230	-87.836	0.162	0.049
-609.215	-159.641	0.075	0.004
-608.201	-0.644	-0.104	-0.074
-607.186	21.434	-0.226	-0.184
-606.171	-189.545	-0.530	0.006
-605.157	-100.115	0.274	0.069
-604.142	-200.000	-0.048	0.220
-603.128	281.483	0.147	0.264
-602.113	800.000	0.050	0.196
-601.098	-29.589	-0.283	0.162
-600.084	800.000	0.021	-0.074
-599.069	-35.515	0.384	-0.209
-598.055	-13.629	0.035	0.023
-597.040	-120.854	-0.404	-0.068
-596.025	-200.000	-0.013	-0.140
-595.011	168.741	-0.108	0.154
-593.996	348.351	0.054	0.108
-592.982	800.000	-0.065	0.210
-591.967	-200.000	-0.019	-0.092
-590.952	-200.000	0.036	-0.169
-589.938	-140.874	0.212	0.022
-588.923	63.205	0.248	-0.249
-587.909	-89.957	-0.323	0.095
-586.894	74.669	-0.313	0.330
-585.879	273.130	-0.056	0.100
-584.865	-72.690	0.264	-0.098
-583.850	110.050	0.142	0.171
-582.836	-53.407	-0.218	-0.100
-581.821	-200.000	-0.027	0.285
-580.806	608.298	0.078	-0.196
-579.792	-200.000	-0.034	-0.266
-578.777	-78.744	-0.420	-0.144
-577.763	800.000	0.078	0.250
-576.748	474.861	0.052	-0.118
-575.733	-24.721	0.149	0.089
-574.719	800.000	-0.108	0.375
-573.704	-167.072	-0.282	0.012
-572.690	-133.500	0.432	0.054
-571.675	334.915	-0.096	0.186
-570.661	-127.088	0.123	0.018
-569.646	56.197	-0.285	-0.277
-568.631	-71.356	-0.094	0.035
-567.617	-146.627	0.305	-0.026
-566.602	208.881	0.035	-0.055
-565.588	143.742	0.121	0.162
-564.573	800.000	0.125	0.375
-563.558	-134.005	-0.211	0.026
-562.544	800.000	0.032	0.106
-561.529	62.914	0.040	0.040
-560.515	-200.000	-0.038	-0.199
-559.500	14.879	0.205	-0.161
-558.485	-200.000	-0.029	-0.228
-557.471	-88.457	-0.634	-0.189
-556.456	53.068	-0.169	0.162
-555.442	118.746	0.104	-0.128
-554.427	-200.000	0.017	0.323
-553.412	83.701	0.130	-0.142
-552.398	800.000	-0.126	-0.378
-551.383	-12.766	-0.274	0.178
-550.369	-200.000	0.015	0.360
-549.354	60.807	0.211	0.210
-548.339	47.083	-0.113	-0.105
-547.325	-111.824	0.225	-0.045
-546.310	-118.641	-0.316	0.056
-545.296	94.248	0.214	-0.243
-544.281	13.833	-0.159	0.124
-543.266	-200.000	0.002	0.072
-542.252	-200.000	0.020	-0.214
-541.237	542.204	0.088	-0.211
-540.223	0.362	0.243	-0.173
-539.208	-200.000	-0.014	0.403
-538.193	549.779	-0.072	-0.174
-537.179	800.000	0.043	-0.120
-536.164	5.642	-0.039	-0.029
-535.150	-2.442	-0.220	0.154
-534.135	-110.963	0.093	0.019
-533.121	-200.000	-0.033	-0.268
-532.106	-6.698	-0.162	0.111
-531.091	-200.000	-0.016	-0.114
-530.077	-24.700	-0.138	-0.082
-529.062	-23.778	0.133	-0.080
-528.048	-87.684	0.174	-0.053
-527.033	640.952	0.017	0.043
-526.018	-91.482	0.171	0.049
-525.004	-33.314	0.121	0.067
-523.989	-200.000	0.007	0.228
-522.975	-75.911	0.397	-0.141
-521.960	-17.847	0.145	-0.091
-520.945	-98.842	0.011	0.003
-519.931	800.000	0.031	-0.107
-518.916	800.000	0.103	0.386
-517.902	-200.000	-0.038	0.199
-516.887	535.419	-0.006	-0.013
-515.872	143.717	-0.108	-0.143
-514.858	1.540	0.104	0.075
-513.843	800.000	-0.069	0.279
-512.829	336.789	-0.132	0.256
-511.814	-57.691	0.222	-0.097
-510.799	-122.262	0.292	0.048
-509.785	-43.549	-0.198	-0.100
-508.770	173.110	-0.352	-0.507
-507.756	-2.764	0.159	-0.111
-506.741	-127.687	0.230	0.033
-505.726	122.679	-0.064	0.080
-504.712	-185.218	-0.244	0.004
-503.697	-200.000	0.013	0.106
-502.683	-113.061	0.135	0.027
-501.668	6.380	-0.136	0.101
-500.653	800.000	0.109	-0.382
-499.639	-200.000	-0.013	0.170
-498.624	-43.091	0.425	-0.215
-497.610	-90.298	-0.266	0.077
-496.595	-91.184	0.162	0.047
-495.581	-11.450	0.164	0.108
-494.566	33.960	-0.189	-0.164
-493.551	-200.000	0.003	-0.170
-492.537	3.646	0.325	-0.237
-491.522	-52.178	-0.249	0.116
-490.508	234.249	0.076	-0.126
-489.493	277.654	-0.031	0.055
-488.478	-133.708	-0.584	-0.073
-487.464	439.559	-0.168	0.366
-486.449	138.879	0.050	-0.065
-485.435	-200.000	-0.017	-0.226
-484.420	210.686	0.056	-0.088
-483.405	-27.700	-0.050	-0.029
-482.391	17.748	0.160	0.127
-481.376	25.795	0.200	0.167
-480.362	-64.970	-0.232	-0.094
-479.347	-200.000	0.017	-0.173
-478.332	155.611	0.051	-0.070
-477.318	108.020	-0.205	-0.244
-476.303	-160.617	-0.183	0.010
-475.289	1.732	0.131	-0.094
-474.274	-60.326	0.131	0.056
-473.259	-47.000	-0.066	0.032
-472.245	-177.556	0.271	-0.007
-471.230	-18.685	0.192	-0.119
-470.216	-134.990	-0.444	0.054
-469.201	-49.929	0.345	0.163
-468.186	-200.000	0.005	0.412
-467.172	24.253	0.106	-0.087
-466.157	800.000	0.027	-0.076
-465.143	235.667	0.055	0.091
-464.128	-115.110	0.511	-0.097
-463.113	12.485	0.084	0.064
-462.099	-70.438	0.175	0.066
-461.084	174.305	0.173	0.250
-460.070	-200.000	-0.008	-0.106
-459.055	-3.355	0.096	-0.066
-458.040	-41.532	-0.306	-0.157
-457.026	-134.537	0.056	0.007
-456.011	-69.307	0.202	0.078
-454.997	33.652	-0.126	-0.110
-453.982	123.473	0.072	-0.090
-452.968	800.000	0.063	0.221
-451.953	-81.041	-0.210	0.069
-450.938	155.519	0.069	-0.095
-449.924	94.848	0.071	-0.081
-448.909	-200.000	0.001	-0.132
-447.895	-200.000	0.017	0.101
-446.880	284.106	-0.024	-0.044
-445.865	-28.245	0.214	0.123
-444.851	-163.498	-0.320	-0.015
-443.836	-54.802	-0.252	-0.113
-442.822	-200.000	-0.007	0.261
-441.807	37.114	0.195	0.172
-440.792	-36.814	-0.030	-0.016
-439.778	-173.602	0.181	0.005
-438.763	-144.925	-0.109	-0.010
-437.749	800.000	-0.062	0.240
-436.734	293.568	-0.030	-0.054
-435.719	23.804	0.148	0.122
-434.705	-200.000	-0.009	-0.129
-433.690	-8.796	0.210	0.140
-432.676	800.000	0.039	-0.132
-431.661	10.268	-0.258	0.195
-430.646	-122.519	-0.219	0.035
-429.632	210.134	0.178	0.279
-428.617	-200.000	-0.074	0.364
-427.603	347.180	0.169	-0.331
-426.588	-173.081	-0.054	-0.002
-425.573	260.373	-0.133	-0.229
-424.559	689.137	0.092	-0.239
-423.544	156.180	-0.140	-0.193
-422.530	-200.000	0.016	-0.115
-421.515	800.000	0.049	-0.214
-420.500	434.832	-0.038	-0.081
-419.486	138.916	-0.064	-0.083
-418.471	-200.000	-0.024	-0.210
-417.457	-92.799	0.364	0.101
-416.442	107.005	0.036	0.043
-415.428	-200.000	-0.009	-0.128
-414.413	-34.650	-0.160	0.087
-413.398	-198.423	0.012	0.000
-412.384	-83.304	-0.281	-0.090
-411.369	248.847	0.164	0.276
-410.355	-40.796	-0.075	0.039
-409.340	521.421	0.070	-0.163
-408.325	244.905	-0.083	0.139
-407.311	681.605	0.075	0.196
-406.296	235.427	-0.111	-0.183
-405.282	-200.000	0.020	-0.153
-404.267	32.004	-0.155	-0.133
-403.252	31.756	-0.122	0.104
-402.238	-175.204	0.021	0.001
-401.223	-200.000	0.011	0.117
-400.209	-159.052	0.197	0.011
-399.194	-200.000	0.028	0.278
-398.179	43.474	0.211	0.192
-397.165	173.285	-0.033	-0.047
-396.150	98.280	-0.177	-0.203
-395.136	100.862	-0.090	-0.104
-394.121	143.169	0.087	-0.115
-393.106	-113.763	-0.036	0.007
-392.092	53.849	0.168	0.161
-391.077	-66.915	0.207	0.081
-390.063	102.664	0.283	0.329
-389.048	65.188	0.148	0.148
-388.033	81.638	-0.054	-0.058
-387.019	181.057	0.280	0.409
-386.004	82.125	0.216	0.233
-384.990	419.535	0.097	0.207
-383.975	800.000	-0.022	-0.080
-382.960	494.918	-0.058	-0.133
-381.946	40.786	0.112	0.101
-380.931	-57.012	-0.143	-0.063
-379.917	-23.527	-0.253	-0.151
-378.902	-25.218	0.337	0.198
-377.888	237.081	0.075	0.123
-376.873	-1.535	0.110	0.077
-375.858	-92.002	-0.136	-0.038
-374.844	70.770	0.069	-0.071
-373.829	-47.672	-0.156	-0.075
-372.815	42.423	-0.240	-0.217
-371.800	-68.292	0.148	0.057
-370.785	-70.207	0.200	0.076
-369.771	536.503	0.143	0.338
-368.756	380.726	-0.073	0.148
-367.742	-200.000	-0.045	0.254
-366.727	616.207	-0.062	-0.154
-365.712	-146.419	0.306	-0.027
-364.698	800.000	-0.088	-0.273
-363.683	22.750	-0.296	-0.241
-362.669	-200.000	0.030	-0.172
-361.654	306.049	-0.090	-0.167
-360.639	800.000	0.088	-0.315
-359.625	-200.000	0.008	0.142
-358.610	-38.250	-0.064	-0.033
-357.596	-200.000	-0.021	0.151
-356.581	-200.000	0.003	-0.516
-355.566	33.107	0.136	0.117
-354.552	800.000	-0.018	0.059
-353.537	75.781	-0.136	0.143
-352.523	9.532	0.118	0.089
-351.508	800.000	0.078	-0.323
-350.493	-107.881	-0.287	0.062
-349.479	17.066	0.209	0.165
-348.464	499.164	-0.087	0.199
-347.450	86.129	-0.057	-0.062
-346.435	-200.000	0.034	-0.278
-345.420	113.701	0.124	0.150
-344.406	-167.119	-0.314	-0.013
-343.391	388.925	-0.044	0.090
-342.377	1.753	0.138	-0.099
-341.362	-46.998	0.232	0.112
-340.348	779.661	0.074	0.201
-339.333	-52.247	0.222	-0.102
-338.318	-65.861	0.345	-0.137
-337.304	-116.862	-0.140	0.025
-336.289	-200.000	-0.019	-0.141
-335.275	-23.006	0.224	0.134
-334.260	-200.000	0.047	-0.304
-333.245	-83.269	-0.171	0.055
-332.231	-80.530	0.050	-0.017
-331.216	339.208	-0.174	0.337
-330.202	-112.805	0.266	0.052
-329.187	139.566	-0.093	0.121
-328.172	-77.508	0.170	-0.059
-327.158	573.162	0.080	0.194
-326.143	106.634	0.231	0.273
-325.129	70.289	-0.263	0.270
-324.114	-85.837	-0.193	-0.059
-323.099	-84.203	-0.269	-0.085
-322.085	-21.860	0.153	0.092
-321.070	-31.681	-0.244	-0.136
-320.056	57.762	0.067	0.065
-319.041	-99.072	-0.116	-0.029
-318.026	-9.791	-0.070	0.046
-317.012	48.075	0.237	0.220
-315.997	-133.566	-0.216	0.027
-314.983	134.908	0.129	-0.167
-313.968	-38.834	-0.015	-0.008
-312.953	56.162	-0.145	-0.140
-311.939	-200.000	0.015	-0.111
-310.924	-76.540	0.270	0.094
-309.910	-90.561	-0.324	-0.093
-308.895	-200.000	0.004	0.190
-307.880	105.440	-0.100	0.117
-306.866	209.167	0.120	0.187
-305.851	-200.000	-0.025	-0.184
-304.837	553.524	-0.047	0.112
-303.822	-95.927	0.370	-0.098
-302.807	800.000	-0.007	0.027
-301.793	-33.665	0.219	-0.120
-300.778	26.819	0.119	-0.099
-299.764	-97.200	-0.293	0.076
-298.749	-200.000	0.035	0.295
-297.735	87.760	-0.204	0.224
-296.720	-147.486	0.181	-0.015
-295.705	-95.448	-0.257	-0.068
-294.691	-24.861	0.187	-0.110
-293.676	226.009	0.290	-0.467
-292.662	-154.002	0.126	-0.008
-291.647	-18.407	-0.051	-0.032
-290.632	-46.304	0.396	0.193
-289.618	-53.274	-0.108	-0.049
-288.603	-137.795	0.188	0.021
-287.589	53.078	-0.262	0.248
-286.574	-200.000	0.177	0.000
-285.559	176.963	0.118	0.170
-284.545	211.361	0.188	-0.293
-283.530	-107.937	0.231	0.050
-282.516	180.663	0.207	0.302
-281.501	22.926	-0.286	-0.232
-280.486	36.716	-0.094	-0.082
-279.472	-99.695	-0.414	0.103
-278.457	-80.883	0.144	-0.047
-277.443	-200.000	-0.026	0.263
-276.428	-200.000	0.012	-0.273
-275.413	-158.681	0.134	-0.008
-274.399	4.807	-0.297	-0.217
-273.384	-94.314	-0.276	-0.075
-272.370	-200.000	0.014	0.084
-271.355	711.273	-0.172	0.450
-270.340	-21.652	0.315	0.190
-269.326	-62.199	0.149	-0.062
-268.311	-161.197	-0.138	-0.007
-267.297	-123.455	0.312	0.049
-266.282	-105.791	0.266	-0.060
-265.267	-66.521	-0.232	-0.091
-264.253	150.189	0.105	-0.141
-263.238	-126.400	0.384	0.057
-262.224	-29.533	-0.014	0.008
-261.209	-0.203	-0.206	0.145
-260.195	-5.491	0.355	0.241
-259.180	507.953	0.168	0.386
-258.165	-38.662	-0.187	-0.098
-257.151	-200.000	-0.010	0.201
-256.136	-21.346	-0.070	0.042
-255.122	-152.506	-0.269	0.019
-254.107	800.000	0.034	0.134
-253.092	359.356	0.156	-0.308
-252.078	27.336	0.045	-0.037
-251.063	203.260	0.198	-0.303
-250.049	-50.491	-0.166	0.078
-249.034	55.621	0.205	-0.196
-248.019	-2.347	-0.149	0.103
-247.005	151.020	-0.160	0.216
-245.990	4.091	0.234	-0.169
-244.976	584.391	0.061	0.148
-243.961	70.853	0.134	0.137
-242.946	-200.000	0.013	0.311
-241.932	800.000	0.038	-0.122
-240.917	147.793	-0.107	0.142
-239.903	156.433	0.049	-0.067
-238.888	-14.968	0.283	0.179
-237.873	-34.572	0.158	-0.085
-236.859	36.061	0.155	0.135
-235.844	-184.501	0.167	-0.003
-234.830	-39.605	0.312	0.161
-233.815	-74.075	-0.105	-0.038
-232.800	291.648	-0.059	0.106
-231.786	-84.266	-0.371	-0.116
-230.771	800.000	0.107	-0.325
-229.757	-200.000	0.022	-0.119
-228.742	-120.160	0.379	-0.064
-227.727	-58.920	-0.296	-0.126
-226.713	603.366	-0.101	0.249
-225.698	43.316	-0.068	0.061
-224.684	800.000	0.157	-0.576
-223.669	-200.000	-0.001	-0.017
-222.655	151.614	-0.090	0.121
-221.640	-19.205	-0.098	0.060
-220.625	-64.634	-0.359	-0.144
-219.611	-97.618	0.332	0.085
-218.596	-151.162	-0.187	0.014
-217.582	161.015	-0.262	-0.362
-216.567	800.000	0.028	0.080
-215.552	101.492	0.079	0.091
-214.538	-10.036	-0.023	0.015
-213.523	266.555	-0.122	-0.210
-212.509	114.473	-0.188	-0.227
-211.494	-138.662	0.214	0.023
-210.479	800.000	-0.127	0.349
-209.465	-178.747	0.191	-0.004
-208.450	-200.000	-0.008	0.443
-207.436	-200.000	0.032	0.313
-206.421	-63.628	-0.171	0.069
-205.406	165.034	0.111	0.155
-204.392	105.270	-0.141	-0.165
-203.377	-120.197	-0.147	0.025
-202.363	539.320	-0.165	-0.387
-201.348	-83.147	-0.295	0.094
-200.333	-91.812	-0.220	-0.062
-199.319	-40.706	0.336	-0.172
-198.304	-14.223	-0.156	0.099
-197.290	-200.000	-0.067	0.386
-196.275	506.853	0.107	-0.246
-195.260	-200.000	-0.029	-0.183
-194.246	-0.091	-0.054	0.038
-193.231	14.346	-0.090	0.069
-192.217	445.529	0.047	0.103
-191.202	-127.195	0.257	0.037
-190.187	-13.020	-0.094	-0.061
-189.173	2.635	-0.142	-0.102
-188.158	800.000	-0.045	0.165
-187.144	-125.288	-0.259	0.039
-186.129	-90.201	-0.162	0.047
-185.114	12.186	-0.093	0.070
-184.100	171.346	0.100	0.142
-183.085	61.277	-0.323	-0.316
-182.071	234.125	0.010	-0.016
-181.056	800.000	0.068	-0.292
-180.042	-200.000	0.001	0.220
-179.027	-200.000	-0.003	-0.254
-178.012	168.610	-0.119	-0.167
-176.998	-200.000	0.030	-0.212
-175.983	-86.963	-0.214	-0.064
-174.969	-21.745	-0.104	-0.062
-173.954	-200.000	-0.044	-0.301
-172.939	-200.000	0.032	-0.334
-171.925	-117.037	-0.397	0.071
-170.910	587.954	-0.076	-0.184
-169.896	430.399	-0.156	0.334
-168.881	-36.495	0.113	-0.060
-167.866	-30.456	0.298	-0.166
-166.852	-117.936	0.176	-0.031
-165.837	191.433	0.108	-0.161
-164.823	517.500	0.059	-0.135
-163.808	-200.000	-0.047	-0.325
-162.793	-137.930	-0.144	0.016
-161.779	-72.229	-0.212	-0.078
-160.764	-114.010	0.294	-0.056
-159.750	-135.420	0.258	-0.030
-158.735	-20.557	-0.329	0.199
-157.720	89.064	0.095	0.104
-156.706	50.431	-0.059	0.055
-155.691	109.537	-0.126	0.149
-154.677	-118.568	0.287	0.050
-153.662	-125.874	-0.145	0.022
-152.647	-200.000	-0.009	-0.173
-151.633	148.620	-0.190	0.253
-150.618	800.000	0.148	0.405
-149.604	800.000	-0.090	-0.347
-148.589	-200.000	0.044	-0.249
-147.574	-200.000	-0.014	-0.077
-146.560	91.272	-0.076	0.085
-145.545	62.345	-0.245	-0.242
-144.531	-76.954	-0.282	-0.097
-143.516	-27.755	0.127	-0.072
-142.502	-62.217	-0.167	0.069
-141.487	-149.784	-0.224	0.017
-140.472	-200.000	-0.029	0.338
-139.458	210.908	0.034	0.053
-138.443	-200.000	-0.072	-0.431
-137.429	-96.217	-0.368	0.096
-136.414	-54.947	0.152	-0.068
-135.399	-200.000	0.023	-0.224
-134.385	-113.101	0.185	0.036
-133.370	124.955	-0.109	0.135
-132.356	0.401	0.212	0.149
-131.341	-4.090	0.478	0.326
-130.326	231.559	-0.155	-0.250
-129.312	-29.089	-0.306	-0.173
-128.297	-200.000	0.028	-0.147
-127.283	-135.240	-0.212	-0.025
-126.268	182.782	0.036	-0.052
-125.253	762.079	-0.063	-0.168
-124.239	-200.000	0.055	-0.296
-123.224	-200.000	-0.046	-0.296
-122.210	-200.000	0.005	0.064
-121.195	-148.564	-0.245	0.020
