DTS Sentinel unit serial number:	SN413079Multiplexer serial number:	ORYXHardware model number:	OX4-SRSoftware version number:	ORYX F/W v4.00 Oryx Data Collector v3.7.2.0data status	okinstallation	princeton_trtdifferential loss correction	single-endedforward channel	channel 3reverse channel	N/Adate	2019/09/18time	20:40:35forward acquisition time	60.00reverse acquisition time	0.00gamma	496.2192k internal	0.2342k external	0.2342temperature offset calibration	1.0003default loss term (dB/km)	0.3790temperature slope calibration	1.0000multiplexer offset coefficient	1.0000multiplexer slope coefficient	1.0000fibre end	0.00T internal ref (°C)	27.64T ext. ref 1 (°C)	0.99T ext. ref 2 (°C)	18.72length (m)	temperature (°C)	Stokes	anti-Stokes-747.200	39.418	0.078	0.070
-746.185	-152.528	-0.175	-0.013
-745.171	31.404	0.153	0.132
-744.156	67.063	0.036	-0.037
-743.142	-200.000	-0.022	-0.131
-742.127	-170.473	-0.278	-0.010
-741.112	-27.983	-0.206	0.119
-740.098	-200.000	-0.017	0.212
-739.083	-95.120	0.051	0.014
-738.069	572.623	0.167	0.408
-737.054	228.758	-0.177	-0.289
-736.039	-97.798	-0.380	0.099
-735.025	-200.000	-0.020	0.105
-734.010	59.635	-0.108	-0.107
-732.996	-74.487	0.342	0.123
-731.981	-200.000	0.054	-0.268
-730.966	-200.000	0.001	-0.200
-729.952	645.817	0.096	-0.246
-728.937	-28.785	-0.141	-0.081
-727.923	-200.000	0.021	0.202
-726.908	-55.397	0.439	-0.197
-725.894	-70.599	0.151	0.057
-724.879	-35.856	0.271	-0.147
-723.864	-22.314	-0.324	-0.196
-722.850	-29.714	0.203	-0.116
-721.835	-176.558	0.216	0.006
-720.821	-106.647	-0.322	-0.072
-719.806	145.786	-0.156	-0.209
-718.791	-53.380	-0.283	-0.130
-717.777	-49.441	-0.458	-0.219
-716.762	-177.051	-0.385	-0.010
-715.748	396.980	0.089	-0.186
-714.733	251.827	0.052	0.089
-713.718	23.009	-0.194	0.160
-712.704	-143.848	-0.154	-0.015
-711.689	-144.161	0.459	-0.043
-710.675	-200.000	0.003	0.155
-709.660	181.578	-0.207	-0.305
-708.645	-200.000	0.054	-0.288
-707.631	-141.675	-0.486	-0.049
-706.616	150.444	-0.054	0.074
-705.602	-29.187	0.254	-0.146
-704.587	-80.328	0.103	0.034
-703.572	-200.000	-0.024	-0.302
-702.558	800.000	-0.063	0.247
-701.543	-86.739	0.305	0.093
-700.529	-200.000	0.053	0.309
-699.514	119.586	0.113	0.140
-698.499	199.711	0.185	0.283
-697.485	-200.000	-0.054	-0.422
-696.470	221.188	-0.094	0.151
-695.456	-32.805	0.398	0.221
-694.441	109.076	0.008	-0.010
-693.426	66.348	-0.076	-0.077
-692.412	-71.352	0.317	-0.119
-691.397	-200.000	0.017	0.119
-690.383	-84.259	0.085	-0.027
-689.368	140.259	-0.144	-0.190
-688.354	-2.644	0.232	0.162
-687.339	-133.315	-0.302	-0.038
-686.324	-200.000	0.015	0.368
-685.310	-47.572	-0.165	0.080
-684.295	227.952	-0.103	-0.168
-683.281	442.265	0.102	0.223
-682.266	-40.708	-0.161	0.083
-681.251	81.561	-0.194	0.210
-680.237	-200.000	-0.042	0.467
-679.222	277.420	-0.099	0.176
-678.208	-57.399	0.130	-0.057
-677.193	-200.000	0.056	-0.295
-676.178	-37.893	-0.100	-0.053
-675.164	-67.482	-0.134	0.053
-674.149	569.337	0.073	0.176
-673.135	-23.612	0.297	-0.178
-672.120	-200.000	-0.004	-0.309
-671.105	53.849	0.044	0.043
-670.091	-186.520	-0.261	-0.004
-669.076	119.307	0.132	0.163
-668.062	406.486	0.081	0.170
-667.047	-87.637	-0.167	0.050
-666.032	-200.000	0.054	-0.410
-665.018	-13.632	-0.225	-0.146
-664.003	-129.088	-0.150	0.021
-662.989	7.347	0.377	0.281
-661.974	-45.165	-0.306	0.152
-660.959	-54.025	0.307	-0.139
-659.945	-107.573	-0.312	0.068
-658.930	-175.114	-0.163	-0.005
-657.916	63.626	-0.120	-0.120
-656.901	69.226	0.132	0.136
-655.886	-75.676	0.196	0.070
-654.872	263.581	0.080	0.140
-653.857	-44.116	0.395	0.198
-652.843	-200.000	-0.011	0.139
-651.828	38.159	-0.040	0.036
-650.814	800.000	0.065	0.245
-649.799	61.235	-0.390	0.387
-648.784	-121.172	0.283	0.047
-647.770	68.700	-0.178	-0.182
-646.755	-200.000	-0.001	0.367
-645.741	26.229	0.133	-0.110
-644.726	800.000	0.024	-0.102
-643.711	4.834	0.052	0.038
-642.697	800.000	0.147	0.454
-641.682	-7.539	-0.258	0.174
-640.668	-42.657	0.242	0.123
-639.653	-200.000	-0.009	-0.278
-638.638	800.000	-0.057	0.235
-637.624	178.392	0.114	-0.166
-636.609	-104.969	0.156	0.036
-635.595	-134.221	-0.323	0.040
-634.580	535.826	0.222	-0.525
-633.565	-200.000	0.033	-0.263
-632.551	-148.709	-0.120	0.010
-631.536	72.644	-0.095	-0.099
-630.522	-200.000	0.015	0.430
-629.507	800.000	-0.064	0.181
-628.492	-200.000	-0.044	-0.279
-627.478	-155.341	-0.158	0.010
-626.463	212.273	0.051	0.080
-625.449	-31.589	0.370	-0.207
-624.434	-38.654	0.068	0.036
-623.419	195.071	-0.228	-0.346
-622.405	-101.771	0.238	0.057
-621.390	-200.000	0.036	0.208
-620.376	-159.239	0.147	-0.008
-619.361	26.110	-0.213	0.177
-618.346	800.000	0.131	-0.465
-617.332	-25.318	-0.410	-0.242
-616.317	19.166	-0.222	-0.178
-615.303	199.835	0.103	0.158
-614.288	684.136	-0.086	0.223
-613.273	530.742	0.048	-0.114
-612.259	492.734	-0.154	-0.351
-611.244	171.321	0.110	0.157
-610.230	42.083	0.047	0.042
-609.215	-10.929	-0.202	-0.133
-608.201	21.565	0.082	-0.067
-607.186	-200.000	-0.026	-0.116
-606.171	800.000	0.046	-0.154
-605.157	-200.000	0.019	-0.358
-604.142	-200.000	0.032	0.238
-603.128	-68.916	-0.250	-0.096
-602.113	-14.889	-0.107	0.068
-601.098	-200.000	-0.002	0.138
-600.084	-200.000	0.039	0.185
-599.069	265.927	-0.035	0.061
-598.055	42.412	-0.044	0.040
-597.040	110.272	0.110	0.132
-596.025	-200.000	0.000	-0.304
-595.011	290.341	0.216	-0.390
-593.996	-83.046	0.094	-0.030
-592.982	-3.095	0.184	-0.128
-591.967	411.104	0.029	0.062
-590.952	313.587	-0.028	-0.053
-589.938	543.410	-0.070	0.167
-588.923	800.000	-0.090	0.323
-587.909	-109.466	-0.151	-0.032
-586.894	-200.000	0.023	-0.145
-585.879	-134.042	-0.294	0.036
-584.865	113.736	0.148	0.179
-583.850	-67.549	-0.209	0.082
-582.836	-137.401	0.086	-0.010
-581.821	-200.000	0.004	0.188
-580.806	-200.000	-0.001	0.380
-579.792	96.024	-0.125	-0.143
-578.777	217.516	0.143	-0.227
-577.763	-119.114	0.145	-0.025
-576.748	-18.535	0.077	-0.048
-575.733	-200.000	0.007	-0.341
-574.719	44.069	-0.178	0.162
-573.704	232.007	0.137	-0.223
-572.690	-32.670	0.299	0.166
-571.675	-68.444	-0.415	-0.160
-570.661	272.581	-0.174	0.306
-569.646	800.000	-0.088	-0.324
-568.631	-183.790	-0.106	-0.002
-567.617	281.207	-0.088	-0.157
-566.602	-80.960	-0.202	-0.067
-565.588	-110.106	-0.155	0.032
-564.573	-139.979	0.133	-0.014
-563.558	379.484	0.151	0.308
-562.544	38.001	-0.013	-0.011
-561.529	346.866	-0.176	-0.345
-560.515	-29.216	0.413	0.236
-559.500	97.249	-0.165	-0.188
-558.485	-200.000	-0.015	0.211
-557.471	772.215	0.095	-0.257
-556.456	-43.309	-0.142	0.071
-555.442	15.299	-0.005	-0.004
-554.427	-173.642	-0.459	-0.014
-553.412	800.000	0.038	-0.112
-552.398	513.260	-0.096	-0.221
-551.383	-82.304	0.115	-0.037
-550.369	120.336	-0.037	0.046
-549.354	0.743	0.020	0.014
-548.339	-105.035	0.152	-0.035
-547.325	293.622	-0.231	-0.419
-546.310	-59.362	0.242	-0.104
-545.296	19.761	-0.178	0.142
-544.281	-84.211	-0.136	0.043
-543.266	42.953	-0.274	0.248
-542.252	-200.000	0.002	0.094
-541.237	-42.469	-0.248	0.126
-540.223	555.466	-0.152	-0.364
-539.208	-200.000	0.016	-0.523
-538.193	-162.453	-0.256	0.013
-537.179	454.628	0.041	0.091
-536.164	-12.259	-0.097	-0.063
-535.150	-62.476	-0.539	-0.223
-534.135	-111.242	0.183	-0.037
-533.121	190.301	-0.100	0.150
-532.106	800.000	-0.073	-0.281
-531.091	-118.460	0.169	0.030
-530.077	354.097	-0.045	-0.090
-529.062	68.004	-0.090	0.092
-528.048	333.907	0.077	-0.149
-527.033	800.000	-0.169	-0.481
-526.018	800.000	-0.042	-0.173
-525.004	243.032	0.174	-0.290
-523.989	-58.727	0.160	0.069
-522.975	-200.000	0.036	0.210
-521.960	-180.509	-0.427	-0.009
-520.945	-140.647	0.203	0.021
-519.931	-96.894	-0.143	0.037
-518.916	-200.000	0.016	-0.500
-517.902	38.673	0.091	-0.081
-516.887	57.870	-0.147	0.143
-515.872	-150.254	-0.626	-0.048
-514.858	-125.972	-0.314	0.047
-513.843	800.000	0.034	-0.130
-512.829	-200.000	-0.088	-0.423
-511.814	226.382	0.111	0.179
-510.799	800.000	0.050	0.176
-509.785	103.558	-0.171	0.200
-508.770	-200.000	0.005	-0.178
-507.756	-200.000	0.033	0.246
-506.741	-114.438	0.307	0.058
-505.726	272.299	0.243	-0.425
-504.712	723.530	-0.034	-0.090
-503.697	-85.788	0.314	-0.097
-502.683	-51.287	0.271	0.126
-501.668	322.375	0.187	0.353
-500.653	-57.332	0.084	0.037
-499.639	-98.638	-0.588	0.149
-498.624	-11.210	-0.137	-0.089
-497.610	-142.423	0.053	0.005
-496.595	-147.101	-0.057	0.005
-495.581	-200.000	0.113	0.497
-494.566	94.026	-0.244	-0.275
-493.551	-94.990	-0.409	-0.110
-492.537	-55.793	0.084	0.037
-491.522	188.811	0.091	0.134
-490.508	209.539	-0.196	-0.305
-489.493	-107.235	-0.149	-0.032
-488.478	-138.938	-0.144	-0.016
-487.464	251.585	0.129	0.217
-486.449	-82.863	0.364	0.116
-485.435	-24.680	-0.192	-0.113
-484.420	-93.266	-0.324	0.089
-483.405	-153.870	-0.201	0.014
-482.391	-80.150	-0.049	0.016
-481.376	10.206	0.206	-0.155
-480.362	-200.000	0.014	0.138
-479.347	-44.066	-0.109	-0.054
-478.332	207.611	-0.071	-0.110
-477.318	-42.012	0.158	-0.080
-476.303	-68.664	0.181	0.070
-475.289	135.613	0.146	-0.188
-474.274	-24.735	0.259	-0.153
-473.259	-1.421	-0.177	-0.124
-472.245	184.809	-0.052	-0.077
-471.230	-76.028	-0.087	-0.031
-470.216	-37.090	0.247	0.131
-469.201	800.000	-0.057	-0.207
-468.186	-12.031	0.211	-0.137
-467.172	-200.000	0.006	-0.073
-466.157	-200.000	-0.038	-0.298
-465.143	-96.891	-0.141	-0.037
-464.128	-200.000	0.020	-0.239
-463.113	-68.262	0.162	0.062
-462.099	-106.716	0.089	0.020
-461.084	172.825	-0.132	-0.188
-460.070	376.365	-0.071	-0.144
-459.055	175.536	-0.067	0.096
-458.040	134.795	-0.146	0.188
-457.026	220.003	-0.257	0.409
-456.011	90.479	0.203	-0.225
-454.997	-200.000	0.031	-0.172
-453.982	-54.457	-0.355	-0.160
-452.968	173.822	0.052	-0.075
-451.953	-21.053	-0.189	-0.115
-450.938	800.000	-0.083	0.249
-449.924	5.921	0.206	0.151
-448.909	-200.000	0.018	-0.132
-447.895	-106.581	0.121	-0.027
-446.880	-50.829	0.163	-0.076
-445.865	-200.000	-0.034	0.228
-444.851	630.597	0.256	0.640
-443.836	-200.000	-0.001	0.066
-442.822	-121.585	-0.317	0.052
-441.807	-6.387	-0.045	-0.030
-440.792	97.970	0.337	0.384
-439.778	-126.166	-0.398	0.059
-438.763	20.566	0.046	0.037
-437.749	167.472	-0.129	0.181
-436.734	800.000	0.038	0.127
-435.719	-78.485	0.266	-0.090
-434.705	-17.038	0.062	0.039
-433.690	800.000	0.051	0.189
-432.676	382.412	-0.060	-0.122
-431.661	-105.696	0.114	-0.026
-430.646	-114.535	0.109	0.021
-429.632	449.618	0.123	-0.269
-428.617	-111.626	0.118	-0.024
-427.603	-0.004	0.260	0.183
-426.588	-200.000	0.019	0.088
-425.573	95.130	-0.075	-0.084
-424.559	177.615	-0.189	0.272
-423.544	-21.190	-0.304	0.184
-422.530	-153.007	-0.213	0.015
-421.515	317.447	0.059	-0.111
-420.500	-200.000	0.048	-0.366
-419.486	178.262	0.040	-0.058
-418.471	-198.802	-0.164	-0.001
-417.457	-200.000	0.044	-0.281
-416.442	60.807	0.084	0.082
-415.428	-100.128	0.149	-0.037
-414.413	259.715	0.048	0.081
-413.398	800.000	-0.070	0.266
-412.384	131.907	0.099	-0.126
-411.369	451.234	0.091	-0.198
-410.355	-85.460	0.181	0.056
-409.340	-47.850	-0.236	-0.113
-408.325	-148.192	0.301	0.025
-407.311	-23.518	0.081	-0.048
-406.296	95.823	0.067	0.075
-405.282	-200.000	0.006	-0.483
-404.267	67.975	-0.104	-0.105
-403.252	113.400	0.426	0.511
-402.238	26.808	0.296	-0.245
-401.223	-51.574	-0.127	-0.059
-400.209	800.000	0.045	-0.185
-399.194	197.813	0.129	0.195
-398.179	-77.027	-0.221	0.076
-397.165	-68.490	0.230	0.088
-396.150	-5.144	-0.194	0.132
-395.136	-20.283	-0.181	0.110
-394.121	-107.575	-0.417	-0.090
-393.106	-200.000	-0.016	-0.104
-392.092	-165.108	-0.051	0.002
-391.077	800.000	0.020	-0.062
-390.063	-200.000	0.036	-0.329
-389.048	-200.000	0.040	-0.281
-388.033	-10.376	-0.315	0.206
-387.019	-200.000	0.047	0.315
-386.004	-51.911	0.239	-0.110
-384.990	-63.125	-0.021	0.008
-383.975	296.352	0.038	0.068
-382.960	-75.133	0.144	0.051
-381.946	-200.000	-0.034	0.174
-380.931	135.659	-0.054	-0.069
-379.917	109.116	-0.218	-0.258
-378.902	-200.000	-0.041	-0.220
-377.888	-47.074	-0.099	0.048
-376.873	-200.000	-0.010	-0.198
-375.858	-200.000	0.039	-0.266
-374.844	308.694	-0.124	0.229
-373.829	327.139	-0.115	-0.218
-372.815	58.593	-0.184	0.178
-371.800	645.373	-0.009	-0.024
-370.785	499.618	-0.127	0.289
-369.771	127.583	-0.125	0.157
-368.756	800.000	-0.052	0.182
-367.742	-200.000	0.025	-0.128
-366.727	146.832	-0.111	-0.147
-365.712	-200.000	-0.019	0.125
-364.698	16.371	-0.250	-0.195
-363.683	298.519	0.200	0.363
-362.669	188.559	-0.186	-0.274
-361.654	137.008	-0.083	0.108
-360.639	253.436	0.155	-0.262
-359.625	-200.000	-0.049	0.257
-358.610	-82.438	0.134	-0.043
-357.596	-200.000	0.010	0.083
-356.581	-126.652	-0.293	-0.043
-355.566	-200.000	0.036	-0.221
-354.552	-162.983	-0.308	0.015
-353.537	381.727	0.052	0.105
-352.523	71.116	0.033	-0.034
-351.508	68.161	0.370	0.374
-350.493	-3.765	0.227	0.155
-349.479	-200.000	-0.053	-0.281
-348.464	-126.269	0.582	0.086
-347.450	118.497	0.147	-0.179
-346.435	-144.124	0.238	0.022
-345.420	74.214	-0.228	-0.236
-344.406	-191.089	-0.181	0.002
-343.391	-200.000	-0.063	-0.334
-342.377	-110.207	0.083	0.017
-341.362	149.358	0.036	0.048
-340.348	-200.000	-0.014	-0.077
-339.333	-200.000	-0.011	0.294
-338.318	-200.000	-0.029	0.346
-337.304	-200.000	0.048	-0.277
-336.289	49.195	-0.257	0.238
-335.275	800.000	0.037	-0.126
-334.260	-200.000	-0.004	0.316
-333.245	-147.779	0.349	-0.029
-332.231	29.275	-0.278	0.233
-331.216	-86.953	0.243	-0.073
-330.202	-41.648	-0.214	0.108
-329.187	210.547	0.101	-0.156
-328.172	-84.888	0.164	0.051
-327.158	-200.000	-0.006	0.033
-326.143	800.000	0.097	-0.285
-325.129	-144.028	-0.261	-0.024
-324.114	420.981	-0.124	0.263
-323.099	479.477	0.064	0.144
-322.085	73.879	0.183	-0.189
-321.070	-142.008	0.293	-0.029
-320.056	398.909	-0.053	-0.109
-319.041	800.000	-0.095	0.401
-318.026	800.000	0.031	0.107
-317.012	-97.867	0.209	-0.053
-315.997	175.386	0.197	0.281
-314.983	41.402	-0.186	-0.165
-313.968	-78.167	0.240	-0.081
-312.953	-143.171	0.313	-0.030
-311.939	-175.302	-0.304	0.008
-310.924	333.814	0.034	-0.065
-309.910	800.000	-0.068	0.238
-308.895	-20.981	0.242	-0.146
-307.880	-72.450	0.138	0.050
-306.866	-129.355	0.263	-0.036
-305.851	518.262	-0.080	-0.183
-304.837	160.099	-0.112	-0.153
-303.822	96.395	0.081	0.091
-302.807	-37.300	-0.172	0.090
-301.793	67.342	0.259	0.260
-300.778	-10.156	0.196	0.128
-299.764	-110.612	0.267	-0.054
-298.749	63.197	-0.155	-0.153
-297.735	-121.496	0.163	-0.027
-296.720	-11.628	0.055	0.035
-295.705	600.765	-0.090	-0.220
-294.691	-76.499	-0.177	0.061
-293.676	446.696	0.028	-0.061
-292.662	137.852	0.258	-0.333
-291.647	128.486	-0.014	0.018
-290.632	-114.478	0.256	-0.048
-289.618	-68.912	-0.132	-0.050
-288.603	-44.416	0.130	0.064
-287.589	800.000	-0.057	-0.186
-286.574	19.319	-0.156	-0.124
-285.559	-200.000	-0.023	-0.117
-284.545	-67.686	-0.162	0.062
-283.530	-102.095	-0.291	-0.069
-282.516	410.975	-0.148	0.308
-281.501	12.803	0.045	0.034
-280.486	170.560	-0.218	-0.307
-279.472	3.948	-0.244	-0.175
-278.457	-65.950	0.654	0.257
-277.443	-134.054	-0.316	0.038
-276.428	350.567	-0.055	0.106
-275.413	800.000	-0.056	0.236
-274.399	-99.597	-0.325	0.080
-273.384	68.210	-0.144	0.145
-272.370	689.150	0.074	0.189
-271.355	-2.711	-0.197	0.135
-270.340	-134.264	-0.283	0.034
-269.326	-15.920	0.076	0.048
-268.311	-200.000	-0.012	0.055
-267.297	-23.448	-0.067	0.039
-266.282	-200.000	0.034	-0.251
-265.267	800.000	0.081	0.339
-264.253	748.408	-0.032	-0.086
-263.238	-88.655	0.186	-0.055
-262.224	-150.065	-0.281	0.021
-261.209	-200.000	-0.041	0.200
-260.195	684.098	-0.050	-0.128
-259.180	662.447	-0.049	-0.125
-258.165	-63.836	-0.173	0.070
-257.151	330.842	0.051	0.097
-256.136	198.760	0.130	0.195
-255.122	438.811	0.066	0.141
-254.107	-15.480	0.113	0.071
-253.092	-4.130	-0.250	0.170
-252.078	-39.511	-0.229	0.118
-251.063	-27.772	-0.283	0.161
-250.049	-38.174	0.465	0.242
-249.034	-200.000	-0.016	0.374
-248.019	-49.387	-0.230	-0.108
-247.005	558.088	-0.045	0.106
-245.990	800.000	-0.033	0.120
-244.976	656.778	-0.026	0.065
-243.961	-34.328	0.246	-0.133
-242.946	369.593	0.074	0.148
-241.932	-200.000	0.007	-0.088
-240.917	-200.000	0.032	0.268
-239.903	789.588	-0.151	0.407
-238.888	88.413	0.171	-0.187
-237.873	-124.581	0.292	0.044
-236.859	-200.000	0.018	0.327
-235.844	-127.583	-0.113	-0.016
-234.830	-200.000	0.014	-0.369
-233.815	-200.000	0.043	0.241
-232.800	800.000	-0.068	0.186
-231.786	-200.000	-0.032	-0.232
-230.771	-79.810	0.065	-0.021
-229.757	400.259	0.187	0.384
-228.742	-51.814	0.193	0.088
-227.727	-198.231	-0.183	-0.001
-226.713	7.664	0.185	0.136
-225.698	-200.000	0.039	0.207
-224.684	-68.878	0.051	-0.019
-223.669	-200.000	-0.016	-0.069
-222.655	-200.000	-0.001	0.006
-221.640	-200.000	0.003	0.046
-220.625	-104.158	-0.133	-0.030
-219.611	-200.000	0.001	-0.066
-218.596	342.891	0.024	0.046
-217.582	35.136	0.243	-0.209
-216.567	-117.142	-0.158	-0.028
-215.552	269.472	0.104	-0.180
-214.538	16.775	0.225	-0.175
-213.523	-76.729	0.251	0.086
-212.509	455.564	0.135	-0.294
-211.494	107.833	0.025	-0.029
-210.479	-200.000	0.030	0.361
-209.465	12.901	-0.168	0.128
-208.450	-80.141	0.446	0.147
-207.436	-140.072	0.085	-0.009
-206.421	177.812	-0.132	-0.189
-205.406	260.170	-0.123	0.208
-204.392	-36.207	0.279	0.148
-203.377	233.551	-0.116	0.187
-202.363	-200.000	0.133	-0.000
-201.348	-4.694	0.201	0.136
-200.333	135.274	-0.102	-0.130
-199.319	218.112	-0.083	-0.130
-198.304	800.000	-0.025	-0.089
-197.290	197.622	0.103	-0.155
-196.275	-26.689	0.054	-0.031
-195.260	800.000	0.063	0.206
-194.246	535.759	0.034	-0.080
-193.231	-200.000	-0.034	-0.268
-192.217	800.000	0.053	0.181
-191.202	232.080	-0.145	-0.234
-190.187	-33.311	0.150	0.082
-189.173	-80.710	0.392	-0.128
-188.158	-154.044	-0.460	-0.031
-187.144	355.380	-0.039	0.077
-186.129	72.857	0.100	0.103
-185.114	-181.488	0.131	0.003
-184.100	-200.000	0.011	0.090
-183.085	86.179	-0.078	-0.085
-182.071	119.266	0.291	-0.353
-181.056	-200.000	0.105	-0.000
-180.042	12.869	0.240	0.182
-179.027	241.867	0.173	0.283
-178.012	800.000	0.037	-0.137
-176.998	-130.002	0.210	0.028
-175.983	-94.631	0.057	0.015
-174.969	800.000	0.065	-0.230
-173.954	-200.000	-0.185	-0.001
-172.939	632.603	0.104	0.259
-171.925	110.186	0.114	0.134
-170.910	-60.919	0.091	-0.038
-169.896	-3.098	0.082	-0.056
-168.881	137.851	0.207	-0.266
-167.866	57.278	0.027	-0.026
-166.852	81.971	-0.170	-0.180
-165.837	196.250	0.185	-0.275
-164.823	-200.000	0.036	-0.213
-163.808	-200.000	-0.065	0.508
-162.793	-116.430	-0.510	0.092
-161.779	-84.532	-0.390	0.121
-160.764	-200.000	0.050	-0.430
-159.750	14.613	0.048	0.037
-158.735	231.333	0.101	0.162
-157.720	-163.096	0.243	0.011
-156.706	-62.682	0.281	-0.114
-155.691	-28.382	-0.165	-0.093
-154.677	800.000	0.093	0.316
-153.662	-200.000	-0.021	0.202
-152.647	95.483	0.183	0.204
-151.633	22.419	0.391	0.313
-150.618	-200.000	-0.009	0.109
-149.604	501.996	0.146	0.331
-148.589	-200.000	0.020	-0.195
-147.574	-200.000	-0.060	0.283
-146.560	-200.000	0.041	-0.247
-145.545	100.911	-0.098	0.111
-144.531	800.000	-0.043	0.162
-143.516	-200.000	0.007	-0.065
-142.502	292.838	0.014	0.024
-141.487	-42.319	0.063	-0.032
-140.472	93.891	-0.176	0.196
-139.458	444.905	-0.084	0.180
-138.443	-200.000	0.045	-0.194
-137.429	-200.000	-0.011	0.113
-136.414	-119.970	0.111	0.019
-135.399	-200.000	-0.006	-0.461
-134.385	-63.159	-0.228	0.092
-133.370	-200.000	-0.009	-0.438
-132.356	31.110	-0.132	-0.110
-131.341	-40.543	0.150	0.076
-130.326	162.353	0.132	0.181
-129.312	110.923	-0.033	0.039
-128.297	800.000	-0.025	0.076
-127.283	800.000	-0.062	0.236
-126.268	264.189	-0.139	0.237
-125.253	25.290	0.210	0.171
-124.239	169.641	-0.116	0.162
-123.224	-28.127	-0.398	0.225
-122.210	51.179	-0.158	0.147
-121.195	4.405	0.148	-0.106
