DTS Sentinel unit serial number:	SN413079Multiplexer serial number:	ORYXHardware model number:	OX4-SRSoftware version number:	ORYX F/W v4.00 Oryx Data Collector v3.7.2.0data status	okinstallation	princeton_trtdifferential loss correction	single-endedforward channel	channel 3reverse channel	N/Adate	2019/09/14time	10:40:35forward acquisition time	60.00reverse acquisition time	0.00gamma	496.2192k internal	0.2302k external	0.2302temperature offset calibration	1.0060default loss term (dB/km)	0.3790temperature slope calibration	1.0000multiplexer offset coefficient	1.0000multiplexer slope coefficient	1.0000fibre end	0.00T internal ref (°C)	35.25T ext. ref 1 (°C)	4.25T ext. ref 2 (°C)	33.00length (m)	temperature (°C)	Stokes	anti-Stokes-747.200	-200.000	-0.008	0.233
-746.185	44.590	0.132	0.124
-745.171	-0.999	0.098	-0.071
-744.156	-58.664	0.105	0.046
-743.142	-151.098	0.144	-0.011
-742.127	118.854	-0.248	0.313
-741.112	800.000	0.115	0.393
-740.098	8.802	-0.156	0.120
-739.083	-14.875	0.226	-0.148
-738.069	586.499	0.157	0.395
-737.054	800.000	-0.105	-0.352
-736.039	-197.691	-0.301	0.002
-735.025	-200.000	-0.021	0.184
-734.010	140.772	-0.234	0.316
-732.996	-200.000	0.030	-0.368
-731.981	-92.016	0.287	-0.083
-730.966	28.414	0.136	-0.117
-729.952	-21.740	0.030	-0.019
-728.937	800.000	-0.079	-0.321
-727.923	-121.418	-0.184	0.031
-726.908	785.007	-0.016	-0.044
-725.894	202.949	0.239	0.376
-724.879	-200.000	-0.026	-0.344
-723.864	96.041	0.194	-0.226
-722.850	-84.530	0.262	-0.084
-721.835	567.687	-0.048	-0.119
-720.821	-200.000	0.009	-0.096
-719.806	-92.657	-0.315	0.090
-718.791	55.224	-0.295	0.290
-717.777	19.531	-0.041	-0.033
-716.762	-200.000	-0.004	-0.368
-715.748	493.376	0.111	-0.259
-714.733	-132.625	0.316	0.041
-713.718	-200.000	0.003	-0.257
-712.704	738.983	-0.077	0.210
-711.689	-77.937	-0.487	-0.171
-710.675	115.376	0.245	0.305
-709.660	-138.378	-0.155	-0.017
-708.645	-200.000	-0.021	-0.119
-707.631	165.149	-0.090	-0.130
-706.616	48.886	0.358	-0.342
-705.602	417.389	0.115	-0.250
-704.587	210.603	-0.076	-0.122
-703.572	186.118	-0.131	-0.199
-702.558	-200.000	-0.012	-0.090
-701.543	347.077	-0.132	-0.264
-700.529	-77.678	0.331	-0.116
-699.514	249.623	-0.144	0.249
-698.499	-153.211	-0.395	0.028
-697.485	-83.301	0.305	-0.100
-696.470	11.896	-0.409	-0.320
-695.456	-28.509	0.216	0.127
-694.441	-111.635	-0.219	-0.045
-693.426	256.559	0.100	-0.174
-692.412	178.700	-0.143	-0.213
-691.397	90.680	-0.183	0.209
-690.383	-52.772	-0.125	0.059
-689.368	64.442	0.171	-0.175
-688.354	9.810	-0.055	0.042
-687.339	-53.962	0.047	0.022
-686.324	800.000	0.087	0.260
-685.310	800.000	0.034	0.119
-684.295	-200.000	-0.005	0.113
-683.281	800.000	-0.058	0.223
-682.266	-52.813	0.146	-0.068
-681.251	-200.000	0.052	-0.255
-680.237	-60.840	-0.300	-0.129
-679.222	800.000	0.119	0.350
-678.208	-54.096	0.220	0.102
-677.193	224.406	-0.128	-0.210
-676.178	-100.929	-0.267	0.067
-675.164	-65.945	0.296	-0.120
-674.149	-49.566	-0.080	0.039
-673.135	565.267	0.009	0.023
-672.120	-200.000	0.019	0.096
-671.105	-105.264	-0.146	0.034
-670.091	800.000	0.030	0.098
-669.076	149.961	0.180	0.247
-668.062	-106.503	-0.086	0.020
-667.047	130.090	0.164	0.213
-666.032	-155.423	0.285	0.019
-665.018	146.703	-0.126	-0.172
-664.003	69.561	-0.189	0.197
-662.989	61.431	-0.103	-0.104
-661.974	238.996	-0.173	0.292
-660.959	-90.526	0.747	-0.220
-659.945	-27.622	-0.089	-0.052
-658.930	-200.000	-0.007	0.215
-657.916	800.000	0.015	-0.058
-656.901	-200.000	-0.035	0.348
-655.886	35.430	-0.251	-0.224
-654.872	179.234	-0.180	-0.268
-653.857	99.911	0.069	-0.082
-652.843	450.709	-0.078	-0.176
-651.828	87.971	0.143	0.162
-650.814	16.958	-0.099	-0.080
-649.799	-140.272	-0.131	0.014
-648.784	-73.689	-0.191	0.071
-647.770	800.000	0.105	-0.329
-646.755	-128.543	-0.214	-0.031
-645.741	-200.000	-0.027	-0.150
-644.726	-200.000	-0.018	0.126
-643.711	415.536	-0.051	-0.111
-642.697	-63.849	0.241	0.100
-641.682	344.440	0.102	-0.204
-640.668	-131.108	-0.303	0.041
-639.653	244.510	0.236	-0.403
-638.638	-65.941	-0.187	-0.076
-637.624	67.422	0.120	0.124
-636.609	67.763	0.107	0.111
-635.595	790.618	-0.077	-0.216
-634.580	66.444	-0.132	-0.137
-633.565	87.604	0.079	0.089
-632.551	48.745	-0.258	-0.245
-631.536	59.915	-0.065	-0.065
-630.522	446.986	0.092	0.205
-629.507	-24.365	0.271	-0.164
-628.492	204.546	0.148	0.232
-627.478	-75.577	-0.260	-0.094
-626.463	-27.365	-0.369	-0.218
-625.449	-200.000	0.021	0.204
-624.434	-140.795	-0.107	-0.011
-623.419	800.000	-0.067	0.260
-622.405	591.516	-0.059	0.147
-621.390	32.842	-0.270	-0.237
-620.376	-80.074	0.184	-0.063
-619.361	91.482	0.123	-0.140
-618.346	-200.000	0.006	-0.415
-617.332	308.538	-0.211	0.399
-616.317	143.289	0.148	-0.200
-615.303	116.729	-0.084	-0.104
-614.288	224.118	0.129	-0.212
-613.273	-200.000	-0.009	0.146
-612.259	-66.559	-0.309	0.124
-611.244	227.109	0.048	-0.080
-610.230	-17.538	-0.079	-0.050
-609.215	-123.385	-0.010	-0.002
-608.201	-200.000	-0.009	-0.048
-607.186	-200.000	0.026	0.118
-606.171	-200.000	-0.049	0.322
-605.157	-187.962	0.391	0.005
-604.142	-81.040	-0.085	-0.029
-603.128	-188.482	-0.229	0.003
-602.113	103.948	-0.107	0.127
-601.098	800.000	-0.064	-0.212
-600.084	-30.390	0.315	-0.181
-599.069	-200.000	0.023	-0.160
-598.055	380.011	-0.125	0.260
-597.040	-200.000	-0.003	0.372
-596.025	800.000	-0.069	-0.283
-595.011	800.000	0.114	-0.333
-593.996	-44.233	0.329	-0.167
-592.982	112.261	-0.042	0.051
-591.967	354.235	0.147	-0.296
-590.952	-141.347	0.153	-0.016
-589.938	92.521	0.118	-0.135
-588.923	-23.897	0.196	-0.119
-587.909	30.986	-0.097	-0.084
-586.894	-151.398	0.170	-0.013
-585.879	286.580	0.052	-0.095
-584.865	-200.000	0.019	0.291
-583.850	-103.131	-0.240	0.057
-582.836	-200.000	0.033	-0.453
-581.821	-200.000	-0.017	-0.329
-580.806	468.473	-0.141	0.320
-579.792	21.963	0.094	-0.078
-578.777	-200.000	0.022	-0.197
-577.763	-28.577	-0.244	-0.142
-576.748	32.168	-0.136	0.119
-575.733	-115.373	0.199	-0.038
-574.719	247.629	0.099	-0.169
-573.704	-30.985	0.162	0.093
-572.690	-108.509	-0.237	0.052
-571.675	-200.000	0.050	-0.294
-570.661	-200.000	-0.006	-0.155
-569.646	263.183	0.084	-0.147
-568.631	-200.000	-0.040	-0.206
-567.617	-200.000	-0.025	0.121
-566.602	-87.379	0.326	-0.100
-565.588	251.777	-0.108	0.186
-564.573	792.883	-0.181	0.505
-563.558	211.281	-0.052	0.083
-562.544	-54.696	0.256	-0.117
-561.529	800.000	0.117	0.338
-560.515	-35.792	-0.346	-0.190
-559.500	-29.352	-0.127	-0.073
-558.485	366.793	-0.101	-0.207
-557.471	800.000	0.025	-0.090
-556.456	109.237	0.163	0.197
-555.442	-200.000	0.014	0.320
-554.427	-200.000	0.028	0.381
-553.412	-74.605	0.166	0.060
-552.398	-60.133	-0.178	-0.077
-551.383	-200.000	0.003	0.345
-550.369	-65.918	-0.311	0.126
-549.354	-200.000	-0.002	-0.126
-548.339	-152.067	-0.297	-0.022
-547.325	196.469	0.143	0.220
-546.310	-6.010	-0.102	-0.071
-545.296	-46.401	-0.057	-0.029
-544.281	117.536	0.324	-0.403
-543.266	-57.479	0.408	-0.181
-542.252	-79.484	-0.231	0.079
-541.237	-139.207	-0.324	-0.035
-540.223	9.330	0.078	-0.059
-539.208	230.575	0.067	0.111
-538.193	31.046	0.262	0.227
-537.179	-6.465	-0.172	0.119
-536.164	123.736	0.149	0.189
-535.150	136.876	0.019	-0.025
-534.135	-127.866	0.130	0.019
-533.121	-200.000	-0.028	-0.338
-532.106	-137.614	0.113	0.013
-531.091	15.548	0.217	0.172
-530.077	460.722	0.124	-0.278
-529.062	655.950	0.060	-0.156
-528.048	313.566	0.065	-0.124
-527.033	385.179	0.062	0.129
-526.018	800.000	0.112	0.328
-525.004	800.000	-0.107	-0.369
-523.989	-156.161	-0.046	0.003
-522.975	-24.580	-0.106	-0.064
-521.960	208.368	-0.136	0.214
-520.945	693.807	0.116	0.308
-519.931	800.000	0.134	0.527
-518.916	-136.891	-0.318	0.037
-517.902	18.719	-0.143	-0.116
-516.887	-200.000	0.017	0.247
-515.872	-50.376	0.216	0.103
-514.858	107.092	0.166	-0.200
-513.843	108.813	-0.107	0.130
-512.829	-144.199	-0.336	0.032
-511.814	-125.922	0.389	0.059
-510.799	570.224	-0.166	0.407
-509.785	-106.756	0.109	-0.025
-508.770	-105.478	0.022	-0.005
-507.756	-79.050	-0.246	0.084
-506.741	-200.000	0.000	0.067
-505.726	-200.000	-0.027	-0.133
-504.712	34.188	0.291	0.256
-503.697	232.444	0.146	-0.242
-502.683	-200.000	0.012	0.230
-501.668	-50.976	0.219	-0.104
-500.653	-14.853	-0.292	0.189
-499.639	519.688	-0.108	0.256
-498.624	559.310	-0.143	-0.349
-497.610	-128.212	0.217	-0.031
-496.595	88.614	0.330	-0.370
-495.581	41.377	0.174	0.159
-494.566	-200.000	-0.056	0.328
-493.551	-47.798	0.134	-0.065
-492.537	-9.863	-0.086	-0.058
-491.522	-200.000	0.063	0.320
-490.508	-79.236	-0.261	-0.089
-489.493	77.601	-0.231	0.249
-488.478	-17.833	-0.359	-0.227
-487.464	2.226	0.526	-0.383
-486.449	-200.000	0.059	0.308
-485.435	-200.000	-0.018	0.101
-484.420	-50.888	0.035	-0.016
-483.405	800.000	0.023	0.072
-482.391	-200.000	0.040	0.534
-481.376	-85.013	-0.265	0.084
-480.362	-72.630	-0.381	-0.142
-479.347	-135.149	0.189	0.023
-478.332	-14.389	0.280	-0.182
-477.318	-200.000	0.005	0.068
-476.303	12.599	-0.125	-0.097
-475.289	-1.368	0.174	0.124
-474.274	-33.164	0.096	-0.053
-473.259	63.359	0.233	-0.236
-472.245	454.011	-0.127	0.284
-471.230	-36.482	0.188	0.102
-470.216	86.064	0.169	-0.188
-469.201	-200.000	0.014	0.147
-468.186	-111.548	0.185	-0.038
-467.172	800.000	0.014	-0.056
-466.157	-112.959	0.087	0.017
-465.143	800.000	0.038	0.156
-464.128	20.374	0.154	0.126
-463.113	-15.078	0.193	0.124
-462.099	800.000	0.030	0.119
-461.084	376.623	-0.079	0.162
-460.070	550.259	0.071	0.173
-459.055	456.406	0.004	-0.009
-458.040	800.000	-0.066	0.197
-457.026	13.467	-0.163	-0.128
-456.011	-135.362	-0.228	-0.027
-454.997	-200.000	0.019	0.211
-453.982	489.218	-0.034	-0.078
-452.968	-93.097	-0.235	-0.066
-451.953	-76.227	0.457	0.162
-450.938	-23.336	-0.413	0.250
-449.924	-166.643	-0.161	-0.007
-448.909	-200.000	0.052	0.458
-447.895	24.136	0.182	0.151
-446.880	84.723	0.136	-0.150
-445.865	-131.056	-0.146	-0.020
-444.851	64.087	-0.165	-0.167
-443.836	-200.000	0.033	0.316
-442.822	-103.798	-0.101	0.024
-441.807	-69.056	0.354	-0.137
-440.792	112.369	0.069	-0.084
-439.778	-57.647	0.263	0.116
-438.763	180.910	0.150	0.222
-437.749	800.000	-0.021	-0.090
-436.734	-92.375	0.241	0.068
-435.719	-134.212	0.076	-0.009
-434.705	-80.222	-0.098	0.033
-433.690	275.637	0.040	0.072
-432.676	-63.800	0.260	-0.107
-431.661	-145.132	0.304	0.028
-430.646	-108.270	0.205	-0.045
-429.632	-109.285	0.141	0.030
-428.617	-47.400	-0.069	-0.034
-427.603	0.026	-0.212	-0.152
-426.588	-8.654	-0.276	-0.187
-425.573	18.576	-0.348	0.280
-424.559	224.553	-0.164	0.267
-423.544	-200.000	0.004	0.278
-422.530	-147.372	0.195	-0.017
-421.515	-48.204	-0.229	0.111
-420.500	-200.000	0.017	-0.296
-419.486	672.765	-0.037	0.097
-418.471	-200.000	-0.006	0.037
-417.457	-200.000	-0.006	0.062
-416.442	-200.000	-0.012	-0.063
-415.428	0.171	0.238	-0.170
-414.413	-31.165	-0.184	0.104
-413.398	440.979	0.087	-0.192
-412.384	-200.000	-0.015	-0.118
-411.369	-105.786	-0.341	0.078
-410.355	58.299	0.274	-0.270
-409.340	4.753	-0.114	-0.084
-408.325	-138.010	-0.091	-0.010
-407.311	398.437	0.166	-0.350
-406.296	76.331	0.167	-0.178
-405.282	44.167	0.267	-0.246
-404.267	-200.000	0.003	-0.256
-403.252	5.952	0.334	0.249
-402.238	-123.421	-0.065	0.010
-401.223	14.838	-0.164	0.129
-400.209	203.762	0.139	0.217
-399.194	-187.814	0.072	-0.001
-398.179	527.485	0.149	0.354
-397.165	84.886	0.141	-0.155
-396.150	-104.489	0.158	-0.037
-395.136	-117.879	-0.320	0.058
-394.121	-86.327	0.112	-0.035
-393.106	-200.000	-0.049	0.000
-392.092	-200.000	0.012	-0.079
-391.077	68.778	0.119	-0.123
-390.063	800.000	-0.080	0.279
-389.048	-200.000	-0.005	-0.082
-388.033	511.892	0.096	-0.224
-387.019	-180.534	-0.198	0.004
-386.004	-93.695	-0.508	-0.141
-384.990	-16.142	0.137	0.088
-383.975	-80.195	0.106	-0.036
-382.960	-136.666	-0.412	0.048
-381.946	-25.017	-0.167	0.099
-380.931	44.916	0.244	-0.226
-379.917	-113.356	-0.342	-0.067
-378.902	-200.000	-0.030	-0.237
-377.888	72.833	0.148	0.155
-376.873	800.000	-0.004	-0.011
-375.858	127.243	0.085	-0.109
-374.844	800.000	0.067	0.207
-373.829	-84.674	0.074	-0.023
-372.815	800.000	0.067	0.195
-371.800	-79.524	0.391	0.133
-370.785	-34.394	-0.281	-0.155
-369.771	-54.233	-0.232	0.106
-368.756	-162.950	0.092	-0.005
-367.742	-68.045	0.223	0.087
-366.727	94.479	-0.098	0.112
-365.712	-41.355	-0.348	-0.180
-364.698	-200.000	-0.066	-0.342
-363.683	-144.007	0.192	-0.018
-362.669	-5.726	-0.184	0.127
-361.654	-137.734	0.305	0.034
-360.639	-21.128	-0.129	0.079
-359.625	-168.142	-0.268	-0.010
-358.610	-9.890	0.091	0.061
-357.596	42.826	0.322	0.294
-356.581	-142.520	-0.199	-0.020
-355.566	-184.389	-0.448	0.007
-354.552	-98.022	0.286	0.074
-353.537	48.732	0.096	-0.091
-352.523	800.000	0.062	-0.173
-351.508	800.000	0.065	-0.238
-350.493	-22.327	0.306	-0.186
-349.479	-127.972	0.171	-0.025
-348.464	129.721	-0.038	-0.049
-347.450	-200.000	0.001	-0.074
-346.435	-17.071	-0.458	0.290
-345.420	-26.423	-0.121	0.071
-344.406	-87.528	0.321	-0.097
-343.391	-5.666	-0.279	0.192
-342.377	83.822	0.292	-0.319
-341.362	-119.591	0.159	-0.028
-340.348	-147.415	-0.088	0.008
-339.333	351.292	0.120	0.238
-338.318	-200.000	-0.037	0.240
-337.304	-200.000	-0.436	0.001
-336.289	-200.000	-0.057	0.323
-335.275	-75.419	0.224	-0.080
-334.260	679.093	0.007	0.018
-333.245	-200.000	0.024	-0.158
-332.231	-110.699	-0.190	0.039
-331.216	-144.559	0.266	-0.025
-330.202	-200.000	-0.022	-0.132
-329.187	86.640	-0.108	0.119
-328.172	654.847	-0.129	0.333
-327.158	-200.000	-0.035	-0.200
-326.143	491.565	0.123	-0.282
-325.129	-68.651	-0.277	0.108
-324.114	209.837	-0.057	0.089
-323.099	224.996	-0.297	-0.481
-322.085	7.776	0.199	-0.149
-321.070	-129.483	-0.387	0.054
-320.056	-48.364	0.260	0.126
-319.041	-178.482	-0.106	0.002
-318.026	-192.008	0.102	0.001
-317.012	-54.715	-0.067	0.030
-315.997	486.310	0.157	-0.358
-314.983	-61.941	0.104	-0.044
-313.968	353.649	-0.113	0.225
-312.953	580.950	-0.220	0.541
-311.939	-87.536	0.088	0.027
-310.924	163.107	0.120	0.169
-309.910	800.000	-0.107	-0.316
-308.895	-5.525	-0.120	-0.082
-307.880	-200.000	0.017	0.226
-306.866	-79.308	-0.133	0.045
-305.851	-200.000	-0.090	-0.503
-304.837	800.000	0.029	-0.083
-303.822	-5.345	0.070	-0.048
-302.807	-129.635	0.151	0.021
-301.793	-20.536	-0.393	0.242
-300.778	291.801	-0.110	-0.200
-299.764	-82.651	-0.218	0.071
-298.749	-197.634	-0.324	-0.002
-297.735	90.625	0.224	0.251
-296.720	-65.646	0.338	0.136
-295.705	766.823	0.012	-0.033
-294.691	597.167	0.043	-0.107
-293.676	-13.247	-0.279	0.181
-292.662	-200.000	0.041	-0.233
-291.647	-89.935	0.371	0.108
-290.632	-77.004	0.124	-0.043
-289.618	268.848	0.096	-0.169
-288.603	85.893	-0.167	0.184
-287.589	80.974	-0.306	-0.331
-286.574	86.453	-0.056	0.062
-285.559	28.103	0.110	0.093
-284.545	-108.908	0.181	0.039
-283.530	71.605	0.155	-0.161
-282.516	-126.006	-0.405	0.061
-281.501	85.163	0.201	0.221
-280.486	66.932	0.290	0.296
-279.472	295.446	-0.063	-0.115
-278.457	-200.000	-0.027	0.380
-277.443	473.304	-0.034	-0.077
-276.428	91.855	-0.157	0.176
-275.413	800.000	-0.043	-0.181
-274.399	800.000	-0.043	0.162
-273.384	67.673	-0.109	0.111
-272.370	-200.000	-0.047	-0.235
-271.355	24.288	0.026	0.021
-270.340	227.139	-0.059	0.096
-269.326	-200.000	0.024	0.172
-268.311	-162.178	0.131	-0.007
-267.297	67.573	0.239	0.244
-266.282	201.385	-0.152	0.234
-265.267	-33.450	-0.468	-0.259
-264.253	-55.973	0.127	0.057
-263.238	-34.422	-0.069	0.038
-262.224	651.038	-0.035	0.089
-261.209	234.857	-0.030	-0.050
-260.195	35.061	0.073	0.064
-259.180	361.752	0.075	-0.151
-258.165	-75.922	-0.144	0.051
-257.151	-169.095	0.229	-0.009
-256.136	86.824	-0.121	-0.134
-255.122	254.888	0.032	0.055
-254.107	159.727	0.123	-0.171
-253.092	-200.000	-0.060	-0.384
-252.078	-70.017	-0.026	-0.010
-251.063	203.593	-0.221	-0.341
-250.049	329.636	0.173	-0.333
-249.034	-50.276	0.221	0.104
-248.019	-142.645	0.161	-0.016
-247.005	-49.749	-0.079	-0.038
-245.990	125.056	-0.115	0.145
-244.976	29.664	0.157	0.134
-243.961	146.837	-0.026	-0.035
-242.946	28.792	0.225	-0.190
-241.932	-200.000	-0.013	-0.066
-240.917	-200.000	-0.011	0.118
-239.903	413.617	0.136	-0.289
-238.888	-54.660	0.253	0.114
-237.873	14.628	-0.188	-0.147
-236.859	-200.000	-0.049	-0.258
-235.844	-87.954	-0.253	-0.076
-234.830	-200.000	-0.015	-0.363
-233.815	-112.604	0.081	0.016
-232.800	-200.000	0.014	0.199
-231.786	-187.853	-0.210	-0.003
-230.771	-178.048	-0.173	0.004
-229.757	145.829	-0.197	0.264
-228.742	-133.989	0.177	-0.022
-227.727	38.048	-0.163	0.145
-226.713	-200.000	0.003	0.027
-225.698	-74.518	-0.069	0.025
-224.684	-58.435	-0.098	-0.043
-223.669	-200.000	-0.026	0.000
-222.655	-200.000	-0.021	0.221
-221.640	364.576	0.162	0.325
-220.625	120.453	-0.040	0.050
-219.611	-68.754	0.187	-0.072
-218.596	84.537	0.107	-0.116
-217.582	112.167	0.131	0.158
-216.567	800.000	0.076	0.293
-215.552	-200.000	-0.058	-0.408
-214.538	-200.000	0.043	-0.329
-213.523	159.452	0.016	0.023
-212.509	202.743	-0.097	-0.150
-211.494	6.933	-0.208	0.154
-210.479	-200.000	0.017	0.265
-209.465	-57.290	0.201	-0.088
-208.450	70.588	0.123	0.127
-207.436	272.886	-0.082	-0.145
-206.421	800.000	-0.070	0.246
-205.406	39.716	0.201	0.180
-204.392	659.770	0.150	-0.384
-203.377	205.736	-0.174	-0.270
-202.363	94.023	0.112	0.127
-201.348	-94.450	-0.208	-0.057
-200.333	-8.257	-0.206	-0.138
-199.319	165.283	-0.098	-0.138
-198.304	800.000	0.050	0.160
-197.290	355.901	0.105	-0.208
-196.275	-7.281	-0.154	0.104
-195.260	-127.636	-0.184	-0.027
-194.246	-152.114	0.261	-0.019
-193.231	-91.260	0.202	-0.058
-192.217	181.099	0.202	0.297
-191.202	-166.596	-0.234	-0.010
-190.187	59.575	-0.170	-0.168
-189.173	-200.000	-0.012	-0.412
-188.158	800.000	-0.078	-0.263
-187.144	-200.000	-0.001	0.149
-186.129	-17.987	-0.039	0.024
-185.114	765.869	-0.064	-0.175
-184.100	-104.529	-0.244	0.056
-183.085	62.199	0.320	-0.318
-182.071	12.834	-0.122	-0.094
-181.056	203.147	0.061	-0.095
-180.042	179.057	-0.082	0.120
-179.027	95.802	-0.243	-0.276
-178.012	171.429	-0.238	-0.340
-176.998	74.383	-0.047	0.049
-175.983	-107.707	-0.122	-0.027
-174.969	-69.971	-0.182	0.069
-173.954	-200.000	0.008	-0.099
-172.939	-4.165	0.161	-0.111
-171.925	-73.927	-0.125	-0.045
-170.910	540.853	0.085	0.203
-169.896	800.000	-0.056	0.171
-168.881	91.651	0.117	-0.131
-167.866	61.920	0.045	0.045
-166.852	-200.000	-0.045	0.243
-165.837	221.788	-0.086	-0.137
-164.823	51.824	-0.257	0.244
-163.808	-192.145	0.285	-0.003
-162.793	-62.286	0.240	-0.099
-161.779	-14.407	-0.197	0.126
-160.764	800.000	-0.050	-0.193
-159.750	-200.000	0.012	0.160
-158.735	43.886	0.071	0.065
-157.720	-68.059	0.334	-0.130
-156.706	-162.094	-0.271	-0.014
-155.691	11.439	0.208	0.159
-154.677	-200.000	-0.045	0.245
-153.662	-121.490	0.079	-0.013
-152.647	800.000	-0.057	-0.195
-151.633	526.470	0.072	0.170
-150.618	-200.000	0.025	0.129
-149.604	-200.000	0.018	0.366
-148.589	-15.199	0.139	-0.089
-147.574	-200.000	-0.027	0.284
-146.560	800.000	0.128	-0.482
-145.545	0.764	0.091	-0.065
-144.531	16.479	0.090	0.071
-143.516	11.484	0.377	-0.288
-142.502	-200.000	-0.009	-0.196
-141.487	726.036	0.073	-0.195
-140.472	-79.968	0.352	-0.118
-139.458	115.015	0.123	0.149
-138.443	369.061	-0.156	0.314
-137.429	203.448	-0.080	0.122
-136.414	-51.212	0.089	0.041
-135.399	-200.000	-0.069	-0.326
-134.385	-107.616	0.167	0.036
-133.370	35.999	-0.094	0.082
-132.356	345.814	0.110	-0.215
-131.341	-158.027	0.252	0.015
-130.326	-38.956	-0.212	-0.111
-129.312	800.000	0.084	-0.242
-128.297	800.000	-0.006	-0.018
-127.283	41.399	0.201	-0.181
-126.268	-182.802	-0.170	0.003
-125.253	-1.184	0.137	-0.096
-124.239	-170.638	0.329	-0.011
-123.224	-41.091	0.198	0.102
-122.210	-89.992	-0.197	-0.057
-121.195	240.536	-0.114	-0.190
