DTS Sentinel unit serial number:	SN413079Multiplexer serial number:	ORYXHardware model number:	OX4-SRSoftware version number:	ORYX F/W v4.00 Oryx Data Collector v3.7.2.0data status	okinstallation	princeton_trtdifferential loss correction	single-endedforward channel	channel 3reverse channel	N/Adate	2019/09/12time	21:56:34forward acquisition time	60.00reverse acquisition time	0.00gamma	496.2192k internal	0.2326k external	0.2326temperature offset calibration	1.0129default loss term (dB/km)	0.3790temperature slope calibration	1.0000multiplexer offset coefficient	1.0000multiplexer slope coefficient	1.0000fibre end	0.00T internal ref (°C)	30.12T ext. ref 1 (°C)	3.75T ext. ref 2 (°C)	24.74length (m)	temperature (°C)	Stokes	anti-Stokes-747.200	800.000	-0.084	0.283
-746.185	-200.000	0.016	0.095
-745.171	-47.627	0.308	0.151
-744.156	11.260	-0.207	-0.160
-743.142	-200.000	0.023	0.156
-742.127	-59.777	-0.079	-0.034
-741.112	716.812	-0.104	0.278
-740.098	-63.268	0.076	-0.031
-739.083	-122.802	-0.291	0.047
-738.069	-17.412	-0.143	0.091
-737.054	-200.000	0.001	-0.005
-736.039	47.939	-0.189	-0.178
-735.025	-200.000	0.001	0.269
-734.010	-11.058	0.173	-0.115
-732.996	176.122	-0.123	-0.180
-731.981	800.000	0.110	-0.403
-730.966	800.000	-0.069	0.273
-729.952	-75.866	-0.295	-0.105
-728.937	156.619	-0.145	-0.202
-727.923	800.000	0.068	-0.230
-726.908	-34.748	-0.388	0.214
-725.894	-200.000	-0.009	-0.172
-724.879	-200.000	0.009	-0.255
-723.864	-102.636	0.259	0.062
-722.850	96.792	0.225	-0.260
-721.835	133.209	0.124	0.161
-720.821	110.560	-0.150	0.182
-719.806	-62.468	0.167	0.070
-718.791	174.754	-0.085	-0.124
-717.777	47.959	-0.174	0.164
-716.762	575.399	-0.067	-0.164
-715.748	233.247	-0.127	0.211
-714.733	-79.951	0.206	0.070
-713.718	-60.026	0.173	-0.075
-712.704	-200.000	0.043	-0.200
-711.689	105.388	0.326	-0.388
-710.675	255.259	-0.230	-0.396
-709.660	-66.162	-0.515	-0.207
-708.645	-17.233	-0.224	-0.142
-707.631	-56.750	-0.123	-0.055
-706.616	-67.515	-0.106	0.042
-705.602	505.259	-0.131	0.305
-704.587	-106.026	0.468	-0.106
-703.572	219.258	-0.056	0.090
-702.558	-129.027	0.316	0.045
-701.543	72.291	-0.039	-0.041
-700.529	-5.446	-0.029	0.020
-699.514	297.328	-0.058	-0.107
-698.499	-200.000	-0.033	0.325
-697.485	55.015	0.074	0.072
-696.470	-109.204	0.088	0.019
-695.456	800.000	0.079	-0.260
-694.441	60.733	-0.196	0.195
-693.426	29.488	-0.031	-0.027
-692.412	124.162	0.043	0.054
-691.397	800.000	0.101	-0.314
-690.383	-27.956	-0.187	-0.109
-689.368	-158.940	0.046	-0.003
-688.354	380.529	0.161	-0.333
-687.339	227.186	0.146	0.239
-686.324	800.000	-0.097	-0.271
-685.310	-200.000	-0.027	0.226
-684.295	117.907	0.082	-0.102
-683.281	-158.021	-0.348	0.021
-682.266	-61.246	0.172	-0.073
-681.251	47.531	0.321	-0.301
-680.237	800.000	-0.047	-0.170
-679.222	635.307	-0.219	-0.560
-678.208	-200.000	-0.039	-0.242
-677.193	-76.773	-0.027	0.010
-676.178	-27.509	-0.061	-0.036
-675.164	-200.000	0.050	0.247
-674.149	-40.259	-0.383	0.200
-673.135	-200.000	0.001	0.101
-672.120	149.236	-0.131	-0.179
-671.105	394.510	0.012	-0.025
-670.091	-117.710	-0.189	0.034
-669.076	-111.787	-0.374	0.076
-668.062	-36.719	-0.167	0.090
-667.047	295.821	-0.091	0.167
-666.032	-7.771	-0.205	0.139
-665.018	-108.063	-0.318	-0.069
-664.003	-200.000	-0.096	0.489
-662.989	151.884	-0.208	0.285
-661.974	-132.667	0.168	0.022
-660.959	-200.000	0.010	-0.063
-659.945	-96.160	-0.012	0.003
-658.930	-0.732	0.332	-0.236
-657.916	-102.199	0.087	0.021
-656.901	-61.174	-0.156	-0.066
-655.886	800.000	-0.075	-0.215
-654.872	97.059	-0.244	-0.281
-653.857	526.866	0.125	0.295
-652.843	-52.933	-0.136	0.063
-651.828	-200.000	0.015	-0.126
-650.814	-200.000	-0.011	0.105
-649.799	-98.994	0.111	-0.028
-648.784	-200.000	-0.082	-0.448
-647.770	-25.265	0.229	-0.136
-646.755	800.000	-0.089	-0.370
-645.741	351.112	-0.068	0.134
-644.726	509.291	-0.106	0.249
-643.711	800.000	-0.121	-0.373
-642.697	-9.464	-0.048	-0.032
-641.682	90.121	-0.087	-0.098
-640.668	-61.330	0.136	0.058
-639.653	162.614	0.170	-0.239
-638.638	242.524	-0.132	-0.221
-637.624	-59.758	0.186	0.080
-636.609	-23.161	-0.100	-0.060
-635.595	139.198	0.098	0.129
-634.580	-37.950	-0.100	0.053
-633.565	800.000	0.065	0.205
-632.551	30.714	0.168	-0.144
-631.536	151.317	-0.116	-0.159
-630.522	-200.000	-0.016	0.136
-629.507	-200.000	0.003	0.255
-628.492	-133.867	-0.095	-0.012
-627.478	-103.909	0.315	-0.074
-626.463	226.163	-0.193	0.315
-625.449	421.187	0.102	-0.219
-624.434	-7.543	-0.218	-0.148
-623.419	250.579	-0.082	0.140
-622.405	214.738	0.121	-0.192
-621.390	13.081	-0.120	0.093
-620.376	-200.000	0.030	-0.547
-619.361	-171.928	0.080	-0.003
-618.346	147.840	-0.085	0.114
-617.332	694.164	0.078	0.205
-616.317	-166.363	0.284	-0.012
-615.303	-144.852	0.249	0.023
-614.288	-144.945	-0.193	0.018
-613.273	-200.000	-0.035	0.331
-612.259	-167.223	0.266	-0.011
-611.244	70.705	0.139	0.145
-610.230	-55.507	-0.119	0.053
-609.215	-178.370	-0.206	0.005
-608.201	325.623	-0.062	0.119
-607.186	-80.145	0.128	-0.043
-606.171	-200.000	0.038	0.232
-605.157	20.406	0.082	-0.067
-604.142	-200.000	-0.011	0.167
-603.128	-200.000	-0.012	0.132
-602.113	-171.672	0.310	0.010
-601.098	-34.750	0.184	0.101
-600.084	-17.517	0.111	0.070
-599.069	212.547	0.125	-0.197
-598.055	800.000	-0.025	0.097
-597.040	150.255	-0.173	-0.236
-596.025	68.566	-0.397	-0.408
-595.011	-28.885	-0.365	-0.210
-593.996	-200.000	-0.020	-0.094
-592.982	-180.893	0.597	-0.012
-591.967	-78.857	-0.098	0.034
-590.952	-53.056	-0.097	-0.045
-589.938	155.942	0.054	-0.074
-588.923	800.000	-0.122	-0.396
-587.909	-97.286	-0.217	-0.057
-586.894	309.913	-0.131	0.246
-585.879	29.983	-0.198	-0.169
-584.865	308.026	-0.111	0.208
-583.850	-200.000	-0.000	0.333
-582.836	164.045	-0.157	0.221
-581.821	28.363	-0.249	-0.211
-580.806	-116.645	0.244	0.045
-579.792	62.953	0.249	0.250
-578.777	337.551	-0.081	-0.158
-577.763	536.274	-0.047	-0.112
-576.748	-123.527	0.212	-0.034
-575.733	-60.494	-0.144	0.061
-574.719	202.072	0.287	-0.443
-573.704	451.295	0.162	0.358
-572.690	-115.697	-0.279	-0.052
-571.675	579.513	0.047	0.114
-570.661	-71.865	0.203	0.076
-569.646	207.055	0.140	0.219
-568.631	-163.218	0.143	0.007
-567.617	300.058	-0.215	-0.396
-566.602	-44.243	-0.223	0.112
-565.588	-153.998	0.185	0.013
-564.573	-52.506	-0.169	-0.078
-563.558	800.000	0.062	0.175
-562.544	228.846	-0.096	-0.157
-561.529	-33.231	-0.298	0.165
-560.515	20.503	-0.196	-0.158
-559.500	297.104	0.103	-0.190
-558.485	68.206	-0.147	-0.151
-557.471	270.846	-0.101	-0.178
-556.456	-34.760	0.234	-0.128
-555.442	17.746	0.264	-0.210
-554.427	100.007	0.252	0.292
-553.412	646.724	-0.060	0.153
-552.398	50.313	0.068	-0.065
-551.383	-41.449	0.297	-0.153
-550.369	800.000	-0.025	-0.111
-549.354	-125.959	0.155	-0.023
-548.339	-200.000	-0.006	-0.043
-547.325	90.827	-0.130	-0.146
-546.310	-117.649	-0.173	-0.031
-545.296	-26.563	-0.113	-0.066
-544.281	800.000	0.034	0.101
-543.266	0.774	-0.150	-0.107
-542.252	191.601	0.024	0.036
-541.237	-200.000	0.066	0.329
-540.223	-200.000	-0.050	0.279
-539.208	-43.093	-0.160	0.081
-538.193	800.000	0.067	0.193
-537.179	232.139	-0.070	0.115
-536.164	-200.000	-0.017	0.218
-535.150	236.717	0.199	-0.329
-534.135	-21.813	0.269	0.164
-533.121	-200.000	-0.000	0.209
-532.106	800.000	-0.053	0.156
-531.091	-200.000	-0.024	0.145
-530.077	-58.152	0.079	-0.034
-529.062	-200.000	-0.002	0.020
-528.048	9.895	-0.040	-0.030
-527.033	-200.000	-0.049	-0.225
-526.018	-80.520	-0.120	0.040
-525.004	-67.517	-0.192	0.076
-523.989	-145.702	-0.152	-0.014
-522.975	139.614	0.049	-0.064
-521.960	-200.000	-0.011	0.160
-520.945	-162.512	0.367	0.018
-519.931	-12.506	-0.315	-0.206
-518.916	-163.608	-0.478	0.023
-517.902	-36.010	0.104	0.056
-516.887	-172.637	0.207	-0.007
-515.872	-12.910	0.091	-0.059
-514.858	800.000	0.077	-0.225
-513.843	213.551	0.294	0.464
-512.829	77.911	0.158	-0.169
-511.814	-179.482	0.166	-0.004
-510.799	-99.546	-0.233	-0.059
-509.785	88.178	0.042	-0.047
-508.770	146.031	0.061	-0.081
-507.756	-200.000	0.005	0.374
-506.741	73.428	0.148	-0.155
-505.726	-200.000	-0.011	0.064
-504.712	208.893	0.222	-0.347
-503.697	85.215	-0.176	-0.193
-502.683	-140.021	-0.172	0.018
-501.668	-105.641	0.266	-0.060
-500.653	265.282	-0.225	-0.392
-499.639	151.745	-0.273	-0.372
-498.624	-200.000	-0.039	-0.190
-497.610	-142.569	0.157	-0.015
-496.595	-42.684	0.061	-0.031
-495.581	-200.000	0.003	0.109
-494.566	-85.715	0.231	-0.072
-493.551	237.588	-0.122	0.202
-492.537	-73.290	-0.288	-0.105
-491.522	-84.514	-0.245	-0.077
-490.508	131.136	-0.071	0.091
-489.493	729.380	0.019	0.051
-488.478	-200.000	0.046	0.238
-487.464	151.503	0.220	-0.299
-486.449	64.017	0.104	-0.104
-485.435	2.910	-0.200	0.145
-484.420	79.095	0.133	0.142
-483.405	286.744	0.219	0.396
-482.391	82.764	0.075	-0.081
-481.376	53.355	0.295	-0.282
-480.362	188.449	-0.033	-0.049
-479.347	248.529	0.113	0.191
-478.332	-157.727	-0.332	-0.020
-477.318	795.164	0.078	-0.215
-476.303	-200.000	-0.031	0.403
-475.289	-200.000	-0.015	-0.273
-474.274	677.516	-0.146	-0.379
-473.259	800.000	-0.048	-0.144
-472.245	62.114	0.128	-0.127
-471.230	-156.282	0.075	-0.005
-470.216	6.194	-0.233	0.172
-469.201	800.000	-0.035	-0.122
-468.186	135.297	-0.034	0.043
-467.172	62.723	-0.059	-0.059
-466.157	-72.642	0.086	0.032
-465.143	354.985	-0.059	0.117
-464.128	157.942	-0.240	0.332
-463.113	-200.000	0.032	0.244
-462.099	-175.104	0.140	0.004
-461.084	-200.000	-0.005	0.299
-460.070	214.582	0.235	0.371
-459.055	-200.000	0.008	0.213
-458.040	-7.305	0.128	-0.086
-457.026	-127.336	-0.058	0.008
-456.011	313.304	-0.118	0.222
-454.997	800.000	-0.038	0.117
-453.982	-200.000	-0.015	-0.150
-452.968	800.000	-0.111	-0.481
-451.953	-200.000	0.081	-0.000
-450.938	-200.000	0.001	0.173
-449.924	-59.601	-0.173	-0.074
-448.909	-200.000	0.020	0.259
-447.895	-200.000	0.003	-0.086
-446.880	-75.959	0.140	0.049
-445.865	-133.063	-0.049	-0.006
-444.851	-71.102	0.280	-0.105
-443.836	799.058	0.034	-0.093
-442.822	431.572	0.013	-0.029
-441.807	-175.853	0.302	0.008
-440.792	92.304	0.197	0.222
-439.778	-155.273	0.105	-0.007
-438.763	89.310	0.083	-0.092
-437.749	800.000	-0.120	-0.335
-436.734	62.523	-0.132	-0.131
-435.719	-200.000	0.037	-0.227
-434.705	-200.000	-0.021	-0.136
-433.690	-47.821	-0.147	-0.071
-432.676	-200.000	0.034	0.218
-431.661	34.007	-0.096	0.084
-430.646	-42.333	-0.169	0.086
-429.632	93.691	0.152	-0.172
-428.617	166.308	-0.054	0.076
-427.603	-200.000	-0.012	0.134
-426.588	-191.593	-0.172	-0.002
-425.573	359.131	-0.128	0.255
-424.559	-46.058	0.061	0.030
-423.544	-81.636	-0.090	-0.029
-422.530	-11.632	0.075	0.049
-421.515	-200.000	-0.011	-0.268
-420.500	-134.925	-0.173	0.021
-419.486	-200.000	-0.024	-0.232
-418.471	25.063	0.072	-0.059
-417.457	-200.000	0.069	0.432
-416.442	-200.000	0.042	0.318
-415.428	251.816	-0.209	-0.355
-414.413	68.610	0.098	-0.100
-413.398	-200.000	-0.028	-0.133
-412.384	-150.111	-0.043	-0.003
-411.369	-200.000	-0.034	-0.579
-410.355	100.263	-0.117	-0.135
-409.340	-67.502	0.092	0.036
-408.325	757.371	-0.072	0.195
-407.311	-200.000	0.074	0.413
-406.296	-200.000	0.008	0.047
-405.282	800.000	0.043	0.186
-404.267	-142.585	0.259	0.025
-403.252	-133.078	0.270	0.034
-402.238	-164.068	-0.172	0.008
-401.223	-200.000	-0.005	-0.129
-400.209	800.000	0.050	-0.209
-399.194	-200.000	-0.016	0.255
-398.179	93.072	-0.077	-0.087
-397.165	-110.764	-0.154	-0.032
-396.150	129.322	0.164	0.208
-395.136	-38.417	0.110	0.058
-394.121	-123.599	-0.406	-0.064
-393.106	-200.000	-0.025	-0.117
-392.092	-200.000	-0.021	0.418
-391.077	-161.405	0.355	0.018
-390.063	299.101	0.170	-0.311
-389.048	-68.537	-0.141	-0.054
-388.033	800.000	0.102	0.283
-387.019	800.000	0.046	-0.140
-386.004	41.815	-0.246	-0.221
-384.990	176.434	-0.262	0.379
-383.975	186.205	-0.180	-0.266
-382.960	-71.030	-0.194	0.072
-381.946	562.856	-0.036	0.087
-380.931	4.332	-0.139	0.101
-379.917	-200.000	-0.011	-0.396
-378.902	77.982	-0.166	0.176
-377.888	-200.000	-0.031	0.406
-376.873	670.627	0.091	0.233
-375.858	-70.207	0.100	-0.038
-374.844	-168.786	0.316	-0.012
-373.829	-200.000	-0.009	-0.075
-372.815	-25.777	0.275	-0.161
-371.800	-200.000	-0.004	-0.032
-370.785	-129.001	0.155	0.022
-369.771	-79.963	-0.253	-0.084
-368.756	-200.000	0.024	-0.122
-367.742	800.000	-0.088	0.256
-366.727	-93.173	-0.138	-0.038
-365.712	481.699	-0.070	0.157
-364.698	-200.000	0.003	0.126
-363.683	-156.822	0.217	0.013
-362.669	800.000	-0.082	-0.243
-361.654	800.000	-0.081	-0.293
-360.639	59.764	0.062	-0.061
-359.625	-108.577	0.152	0.032
-358.610	-127.690	0.109	-0.016
-357.596	-183.730	-0.092	0.002
-356.581	239.562	-0.024	-0.040
-355.566	49.826	0.138	0.129
-354.552	72.538	0.411	0.425
-353.537	-151.556	-0.419	0.031
-352.523	-152.955	0.247	-0.017
-351.508	-49.147	-0.131	-0.062
-350.493	-52.113	-0.381	0.176
-349.479	271.747	0.158	0.276
-348.464	134.521	0.184	0.237
-347.450	-23.096	-0.269	-0.161
-346.435	800.000	-0.056	-0.198
-345.420	-3.754	0.191	-0.132
-344.406	409.567	0.040	-0.084
-343.391	39.477	-0.130	-0.116
-342.377	-185.430	-0.155	-0.002
-341.362	800.000	-0.185	0.508
-340.348	-200.000	-0.020	-0.211
-339.333	398.479	0.075	-0.157
-338.318	-122.483	-0.214	0.035
-337.304	-200.000	0.001	0.095
-336.289	53.394	0.101	-0.097
-335.275	-200.000	-0.026	-0.126
-334.260	-200.000	0.007	0.238
-333.245	-10.842	-0.238	0.156
-332.231	-12.387	0.124	0.080
-331.216	145.731	-0.092	0.123
-330.202	-200.000	-0.067	0.342
-329.187	-115.291	0.233	-0.044
-328.172	-200.000	0.052	0.269
-327.158	424.188	-0.067	-0.143
-326.143	142.257	0.072	0.095
-325.129	-152.120	0.635	-0.046
-324.114	446.646	-0.066	0.145
-323.099	525.055	0.089	-0.209
-322.085	-6.296	0.286	-0.194
-321.070	40.079	-0.093	0.083
-320.056	-26.782	-0.050	-0.029
-319.041	219.627	0.007	0.011
-318.026	498.538	0.131	-0.300
-317.012	377.918	-0.040	-0.082
-315.997	-105.415	0.216	-0.049
-314.983	-200.000	-0.017	-0.137
-313.968	800.000	-0.054	-0.186
-312.953	-141.431	0.231	-0.023
-311.939	-200.000	0.018	-0.176
-310.924	-145.024	-0.324	0.029
-309.910	-200.000	-0.015	-0.200
-308.895	-38.608	0.061	0.032
-307.880	232.250	0.040	0.065
-306.866	-200.000	0.027	-0.243
-305.851	-200.000	0.012	0.110
-304.837	434.658	0.146	0.315
-303.822	242.520	0.017	-0.028
-302.807	-25.702	-0.191	0.112
-301.793	38.683	0.156	-0.138
-300.778	-4.262	-0.040	0.027
-299.764	110.912	0.073	0.087
-298.749	-86.427	-0.189	0.057
-297.735	800.000	0.050	-0.208
-296.720	800.000	0.100	-0.365
-295.705	273.233	-0.108	0.189
-294.691	28.048	0.137	-0.115
-293.676	552.501	-0.125	-0.297
-292.662	229.322	0.089	-0.144
-291.647	393.320	0.040	-0.083
-290.632	10.353	-0.031	0.024
-289.618	-104.086	-0.068	-0.016
-288.603	221.692	0.171	-0.273
-287.589	-90.122	-0.223	0.064
-286.574	-88.401	0.260	0.077
-285.559	58.218	0.281	-0.273
-284.545	-108.839	0.158	0.033
-283.530	-73.756	-0.111	0.040
-282.516	800.000	-0.035	-0.150
-281.501	-200.000	0.029	-0.265
-280.486	117.734	0.107	-0.130
-279.472	-73.991	-0.175	-0.063
-278.457	474.936	0.042	-0.094
-277.443	13.321	0.115	0.089
-276.428	357.732	0.102	-0.201
-275.413	558.244	-0.103	-0.245
-274.399	800.000	0.108	-0.352
-273.384	-0.919	0.165	0.116
-272.370	-110.247	-0.213	0.044
-271.355	-72.725	-0.287	-0.105
-270.340	-46.680	-0.248	-0.120
-269.326	55.869	0.044	0.042
-268.311	-14.451	0.180	0.115
-267.297	79.188	0.191	0.203
-266.282	-116.769	-0.289	0.052
-265.267	-170.742	-0.247	-0.008
-264.253	276.210	-0.129	0.226
-263.238	60.423	-0.240	0.235
-262.224	23.915	0.237	-0.193
-261.209	-143.133	0.283	-0.027
-260.195	-108.564	0.236	0.050
-259.180	118.007	-0.076	-0.092
-258.165	-123.401	0.029	-0.005
-257.151	207.893	-0.219	0.339
-256.136	143.451	-0.122	0.161
-255.122	-153.238	-0.210	-0.015
-254.107	-3.785	0.145	-0.100
-253.092	245.955	0.187	-0.312
-252.078	-64.076	-0.223	-0.090
-251.063	-200.000	0.012	0.227
-250.049	-133.740	0.325	-0.040
-249.034	-200.000	0.012	0.078
-248.019	75.444	0.148	0.155
-247.005	29.250	-0.246	-0.207
-245.990	-200.000	-0.006	-0.160
-244.976	-200.000	0.006	-0.203
-243.961	-168.945	0.162	0.006
-242.946	-47.654	-0.080	0.038
-241.932	-109.845	0.158	-0.033
-240.917	44.556	-0.060	-0.055
-239.903	-200.000	-0.004	-0.438
-238.888	800.000	0.089	0.296
-237.873	235.574	-0.194	0.317
-236.859	-19.016	-0.192	-0.118
-235.844	781.961	-0.059	0.160
-234.830	-195.413	0.423	-0.003
-233.815	-72.969	-0.184	0.067
-232.800	-200.000	0.020	-0.245
-231.786	-200.000	-0.025	0.187
-230.771	10.758	0.110	0.083
-229.757	-57.093	-0.381	0.166
-228.742	-200.000	0.037	0.378
-227.727	-27.804	0.021	-0.012
-226.713	-12.952	-0.173	-0.111
-225.698	-200.000	-0.026	-0.290
-224.684	213.481	-0.072	0.113
-223.669	-1.222	-0.230	0.161
-222.655	373.259	0.192	0.386
-221.640	-112.552	-0.218	-0.043
-220.625	83.159	-0.260	0.279
-219.611	-76.443	0.112	0.039
-218.596	-66.296	0.187	0.074
-217.582	15.864	-0.357	0.277
-216.567	800.000	-0.069	0.271
-215.552	403.624	0.089	0.185
-214.538	-36.548	0.023	-0.012
-213.523	67.875	0.162	-0.163
-212.509	43.338	-0.276	0.249
-211.494	-128.798	0.293	-0.041
-210.479	-200.000	0.035	0.261
-209.465	636.815	0.083	-0.208
-208.450	734.245	0.047	-0.125
-207.436	800.000	0.015	-0.052
-206.421	800.000	-0.054	-0.171
-205.406	44.581	-0.058	0.052
-204.392	-200.000	0.026	-0.281
-203.377	800.000	-0.125	-0.392
-202.363	800.000	-0.037	0.157
-201.348	90.253	-0.090	0.099
-200.333	131.044	0.164	0.207
-199.319	800.000	0.072	-0.310
-198.304	-180.063	-0.242	0.005
-197.290	-115.040	-0.175	-0.033
-196.275	183.783	0.085	0.124
-195.260	-200.000	0.109	-0.001
-194.246	-200.000	-0.006	-0.283
-193.231	-200.000	-0.038	0.216
-192.217	800.000	-0.052	0.143
-191.202	-97.234	0.121	-0.031
-190.187	1.820	0.323	0.230
-189.173	-18.943	0.229	0.141
-188.158	-142.698	-0.242	0.023
-187.144	-200.000	-0.017	-0.428
-186.129	-200.000	-0.023	0.175
-185.114	160.132	-0.125	0.172
-184.100	800.000	0.066	0.212
-183.085	-75.304	0.092	0.033
-182.071	-91.716	-0.191	0.054
-181.056	97.163	0.061	-0.069
-180.042	437.363	0.129	-0.278
-179.027	-52.354	-0.280	-0.128
-178.012	-70.382	0.386	0.144
-176.998	800.000	-0.094	0.300
-175.983	-200.000	0.014	0.236
-174.969	-31.565	-0.176	-0.098
-173.954	309.865	0.132	0.243
-172.939	-200.000	-0.035	0.188
-171.925	-200.000	0.003	-0.024
-170.910	-92.552	0.183	-0.051
-169.896	161.209	0.184	-0.254
-168.881	66.360	-0.337	-0.337
-167.866	-42.341	0.187	0.094
-166.852	112.328	-0.296	0.353
-165.837	473.035	0.159	0.353
-164.823	-103.401	-0.375	0.087
-163.808	-109.257	-0.156	-0.033
-162.793	81.971	0.142	-0.151
-161.779	-102.737	0.112	-0.026
-160.764	-33.851	-0.139	-0.075
-159.750	-200.000	0.028	-0.212
-158.735	800.000	0.085	-0.301
-157.720	-8.254	0.236	-0.157
-156.706	-113.797	-0.167	-0.032
-155.691	8.527	-0.185	0.137
-154.677	-200.000	0.033	0.185
-153.662	-200.000	0.008	0.187
-152.647	-200.000	-0.078	0.401
-151.633	-135.641	-0.272	0.032
-150.618	-200.000	-0.024	-0.159
-149.604	210.884	0.153	-0.237
-148.589	-200.000	0.007	-0.335
-147.574	-9.923	0.142	-0.093
-146.560	-200.000	0.023	0.323
-145.545	-127.651	-0.277	0.039
-144.531	-8.160	0.197	-0.130
-143.516	-200.000	-0.002	0.113
-142.502	-200.000	-0.005	0.093
-141.487	101.201	0.161	0.185
-140.472	279.482	-0.191	0.336
-139.458	165.982	-0.096	0.133
-138.443	-99.852	-0.254	-0.063
-137.429	-200.000	0.003	0.063
-136.414	-200.000	0.019	-0.155
-135.399	-78.488	0.057	0.019
-134.385	-188.220	-0.456	0.006
-133.370	-200.000	0.010	0.351
-132.356	-110.861	0.266	0.054
-131.341	125.082	0.039	-0.049
-130.326	173.754	-0.077	-0.110
-129.312	-45.958	-0.187	-0.091
-128.297	211.927	0.120	0.186
-127.283	-71.865	0.289	-0.106
-126.268	201.670	0.050	0.076
-125.253	-200.000	-0.015	-0.142
-124.239	145.603	-0.085	-0.112
-123.224	800.000	0.080	-0.223
