DTS Sentinel unit serial number:	SN413079Multiplexer serial number:	ORYXHardware model number:	OX4-SRSoftware version number:	ORYX F/W v4.00 Oryx Data Collector v3.7.2.0data status	okinstallation	princeton_trtdifferential loss correction	single-endedforward channel	channel 3reverse channel	N/Adate	2019/09/14time	11:56:35forward acquisition time	60.00reverse acquisition time	0.00gamma	496.2192k internal	0.2295k external	0.2295temperature offset calibration	1.0065default loss term (dB/km)	0.3790temperature slope calibration	1.0000multiplexer offset coefficient	1.0000multiplexer slope coefficient	1.0000fibre end	0.00T internal ref (°C)	37.28T ext. ref 1 (°C)	4.66T ext. ref 2 (°C)	35.08length (m)	temperature (°C)	Stokes	anti-Stokes-747.200	-117.791	-0.277	0.051
-746.185	800.000	0.060	0.189
-745.171	372.314	-0.072	-0.150
-744.156	152.925	-0.103	0.144
-743.142	-11.537	0.231	-0.155
-742.127	-87.087	-0.228	0.071
-741.112	800.000	-0.111	-0.402
-740.098	800.000	-0.121	0.342
-739.083	0.254	0.184	0.134
-738.069	800.000	0.095	0.403
-737.054	361.871	0.014	0.029
-736.039	-200.000	0.030	0.279
-735.025	99.854	0.128	0.152
-734.010	-91.794	-0.124	-0.036
-732.996	-98.280	0.336	0.088
-731.981	-166.030	-0.364	-0.016
-730.966	146.449	-0.015	-0.021
-729.952	-173.283	0.286	0.009
-728.937	800.000	-0.074	-0.268
-727.923	348.147	-0.193	-0.388
-726.908	-200.000	-0.017	-0.117
-725.894	-141.530	-0.239	0.025
-724.879	19.068	-0.182	0.149
-723.864	-191.878	-0.207	0.002
-722.850	264.577	0.126	0.224
-721.835	-112.278	-0.356	-0.073
-720.821	151.649	0.108	0.150
-719.806	-200.000	-0.049	-0.280
-718.791	-22.761	0.054	-0.033
-717.777	149.408	-0.109	-0.151
-716.762	-51.906	-0.198	0.094
-715.748	409.403	-0.049	0.106
-714.733	-24.530	-0.188	-0.114
-713.718	34.283	-0.138	-0.123
-712.704	377.768	-0.113	-0.236
-711.689	-200.000	0.020	-0.103
-710.675	-125.973	-0.112	-0.017
-709.660	800.000	0.073	0.280
-708.645	-35.074	-0.145	-0.080
-707.631	155.464	-0.028	-0.039
-706.616	-119.079	-0.341	-0.061
-705.602	760.063	-0.038	0.105
-704.587	47.115	0.219	0.208
-703.572	30.787	-0.105	-0.092
-702.558	393.047	0.113	0.240
-701.543	-200.000	0.010	0.399
-700.529	-200.000	-0.022	-0.109
-699.514	-64.829	-0.293	-0.121
-698.499	707.544	0.094	-0.255
-697.485	33.784	-0.034	0.030
-696.470	-4.875	-0.038	-0.027
-695.456	109.383	0.040	-0.049
-694.441	6.584	-0.126	-0.096
-693.426	800.000	-0.034	0.125
-692.412	-200.000	0.002	-0.176
-691.397	-96.863	-0.157	0.042
-690.383	427.704	0.098	0.215
-689.368	800.000	-0.069	0.219
-688.354	800.000	-0.020	0.083
-687.339	-128.518	0.247	0.036
-686.324	-200.000	0.023	-0.134
-685.310	177.682	0.083	0.123
-684.295	152.427	-0.029	0.041
-683.281	800.000	-0.069	-0.246
-682.266	-160.600	-0.307	0.017
-681.251	-78.493	0.164	0.057
-680.237	113.972	-0.170	-0.211
-679.222	260.107	0.097	0.171
-678.208	-134.702	0.166	0.021
-677.193	37.983	-0.123	0.112
-676.178	-2.668	-0.369	0.263
-675.164	-87.953	0.184	-0.056
-674.149	-200.000	0.030	-0.178
-673.135	256.785	-0.155	-0.271
-672.120	-2.100	-0.130	0.093
-671.105	119.348	-0.082	-0.103
-670.091	-200.000	0.008	-0.318
-669.076	59.719	-0.117	-0.117
-668.062	467.495	-0.105	0.239
-667.047	-89.394	0.189	0.057
-666.032	-200.000	0.042	0.559
-665.018	-200.000	-0.024	-0.126
-664.003	-73.532	-0.479	-0.178
-662.989	800.000	-0.122	-0.361
-661.974	117.290	-0.166	0.208
-660.959	-200.000	-0.033	0.160
-659.945	800.000	-0.131	-0.563
-658.930	-196.372	-0.172	-0.001
-657.916	49.165	-0.284	-0.271
-656.901	800.000	-0.068	-0.240
-655.886	200.964	-0.045	0.070
-654.872	-124.558	0.178	0.028
-653.857	84.583	-0.245	-0.273
-652.843	209.027	0.096	-0.153
-651.828	109.552	0.141	0.172
-650.814	-3.114	-0.312	0.221
-649.799	-45.682	0.350	-0.176
-648.784	86.585	0.332	-0.373
-647.770	-154.595	-0.167	-0.011
-646.755	-1.671	-0.096	0.069
-645.741	35.120	0.119	0.106
-644.726	15.637	-0.110	-0.088
-643.711	566.180	0.069	-0.171
-642.697	-162.676	-0.184	0.009
-641.682	701.371	0.069	0.186
-640.668	-46.161	-0.096	-0.048
-639.653	758.039	0.083	-0.228
-638.638	-20.903	-0.200	0.125
-637.624	800.000	0.063	-0.246
-636.609	329.419	0.027	0.053
-635.595	161.746	-0.118	-0.168
-634.580	-98.018	-0.073	0.019
-633.565	7.412	-0.184	0.140
-632.551	-200.000	-0.280	-0.001
-631.536	476.053	-0.046	0.105
-630.522	305.012	0.199	0.377
-629.507	470.862	-0.143	0.326
-628.492	-200.000	-0.049	-0.260
-627.478	133.338	0.136	-0.179
-626.463	-200.000	-0.033	-0.336
-625.449	296.383	0.170	-0.316
-624.434	2.025	-0.193	0.142
-623.419	-22.703	0.270	0.166
-622.405	-25.262	0.100	-0.060
-621.390	-200.000	-0.002	0.129
-620.376	177.271	-0.172	-0.254
-619.361	155.654	0.166	-0.232
-618.346	-200.000	-0.024	-0.277
-617.332	-62.023	0.172	0.073
-616.317	800.000	0.072	-0.215
-615.303	-119.406	-0.199	-0.035
-614.288	-200.000	-0.016	0.104
-613.273	88.019	-0.199	-0.224
-612.259	704.693	0.035	0.093
-611.244	59.639	0.329	-0.330
-610.230	-95.969	0.261	-0.071
-609.215	-200.000	-0.033	0.190
-608.201	670.916	0.121	-0.318
-607.186	-200.000	-0.004	0.064
-606.171	733.255	0.066	-0.181
-605.157	-200.000	-0.039	0.245
-604.142	160.181	0.026	0.037
-603.128	-83.562	-0.221	0.072
-602.113	-16.367	-0.175	-0.113
-601.098	-200.000	-0.003	0.260
-600.084	287.562	-0.135	-0.248
-599.069	-65.179	-0.148	-0.061
-598.055	-157.458	0.107	0.007
-597.040	53.260	0.092	0.090
-596.025	-200.000	-0.046	0.442
-595.011	-0.049	-0.218	-0.158
-593.996	58.603	-0.044	0.044
-592.982	-200.000	-0.011	0.051
-591.967	368.358	-0.134	-0.275
-590.952	-51.169	-0.385	-0.183
-589.938	-200.000	0.019	0.207
-588.923	699.906	-0.071	-0.190
-587.909	234.437	-0.129	0.215
-586.894	-200.000	0.047	0.273
-585.879	-21.373	0.032	0.020
-584.865	-200.000	0.028	-0.135
-583.850	-38.820	0.397	-0.212
-582.836	-152.316	-0.317	-0.023
-581.821	-11.066	0.242	-0.162
-580.806	220.692	-0.036	-0.059
-579.792	-200.000	0.006	-0.052
-578.777	-6.991	-0.215	0.149
-577.763	-13.468	-0.133	0.087
-576.748	-90.450	0.208	-0.061
-575.733	-200.000	-0.043	0.278
-574.719	-14.684	-0.310	-0.202
-573.704	-59.225	0.181	-0.079
-572.690	8.114	-0.311	0.237
-571.675	-179.167	0.379	0.009
-570.661	305.671	-0.068	0.129
-569.646	41.309	0.086	0.079
-568.631	-154.485	-0.267	0.018
-567.617	-73.582	-0.137	-0.051
-566.602	-200.000	-0.007	0.090
-565.588	-95.568	-0.246	0.067
-564.573	-200.000	0.019	0.208
-563.558	-167.684	0.343	0.014
-562.544	283.719	0.020	-0.036
-561.529	-122.980	-0.263	0.043
-560.515	-57.257	0.203	-0.091
-559.500	-101.785	0.070	-0.017
-558.485	16.841	-0.202	-0.163
-557.471	349.695	-0.092	0.185
-556.456	-94.064	0.257	0.071
-555.442	-200.000	0.011	-0.223
-554.427	-13.297	-0.381	-0.251
-553.412	-72.747	-0.321	0.120
-552.398	-76.755	-0.066	-0.024
-551.383	19.319	-0.208	0.169
-550.369	800.000	0.104	-0.292
-549.354	800.000	-0.088	-0.343
-548.339	800.000	0.047	0.192
-547.325	-171.869	-0.175	-0.006
-546.310	74.126	-0.109	0.116
-545.296	178.383	0.138	-0.205
-544.281	-200.000	-0.079	-0.502
-543.266	-25.886	0.134	0.080
-542.252	-200.000	-0.009	0.192
-541.237	-200.000	0.007	-0.045
-540.223	800.000	-0.033	-0.104
-539.208	-200.000	0.006	0.215
-538.193	186.690	-0.019	-0.029
-537.179	-200.000	0.040	-0.235
-536.164	-200.000	-0.013	-0.273
-535.150	-138.814	-0.298	-0.033
-534.135	800.000	-0.020	-0.081
-533.121	-157.991	-0.390	-0.023
-532.106	-200.000	-0.013	-0.159
-531.091	800.000	0.044	-0.144
-530.077	145.683	0.297	-0.403
-529.062	-150.047	0.340	0.027
-528.048	23.574	0.025	0.021
-527.033	-111.679	-0.265	0.054
-526.018	276.019	-0.102	-0.183
-525.004	28.453	-0.255	0.219
-523.989	241.396	-0.080	-0.135
-522.975	-39.416	-0.074	0.039
-521.960	-200.000	-0.041	0.388
-520.945	800.000	-0.055	-0.233
-519.931	242.600	-0.127	0.215
-518.916	-178.362	0.082	-0.002
-517.902	-62.402	0.288	0.121
-516.887	67.651	-0.138	-0.142
-515.872	-4.364	-0.169	-0.119
-514.858	109.256	-0.076	0.092
-513.843	-72.495	-0.323	-0.121
-512.829	800.000	0.025	0.100
-511.814	-200.000	-0.111	-0.524
-510.799	119.379	-0.156	-0.196
-509.785	800.000	-0.016	0.068
-508.770	-22.062	0.233	0.143
-507.756	611.575	-0.074	-0.187
-506.741	214.547	0.113	-0.182
-505.726	597.983	0.086	0.216
-504.712	55.218	0.158	0.155
-503.697	42.833	0.098	0.091
-502.683	-162.374	-0.136	-0.007
-501.668	-6.089	0.127	0.088
-500.653	31.585	-0.197	-0.171
-499.639	-0.285	-0.061	0.044
-498.624	-200.000	0.020	-0.198
-497.610	114.611	-0.069	-0.086
-496.595	-175.775	0.192	-0.005
-495.581	306.405	0.113	0.212
-494.566	382.205	-0.187	-0.389
-493.551	201.830	-0.070	0.109
-492.537	-42.473	0.329	-0.170
-491.522	346.249	0.034	0.067
-490.508	-16.913	-0.260	0.166
-489.493	-124.542	0.186	-0.029
-488.478	-95.997	0.224	-0.060
-487.464	196.702	-0.144	0.222
-486.449	-127.236	-0.242	0.036
-485.435	800.000	-0.098	-0.362
-484.420	-62.023	0.045	-0.019
-483.405	113.724	0.194	-0.238
-482.391	-125.241	0.224	-0.035
-481.376	-84.011	0.165	0.053
-480.362	731.723	-0.085	-0.230
-479.347	-145.397	-0.194	-0.018
-478.332	-167.517	-0.403	0.016
-477.318	800.000	0.025	-0.094
-476.303	-64.754	-0.162	-0.066
-475.289	-200.000	-0.010	0.289
-474.274	136.041	0.052	-0.069
-473.259	-200.000	-0.002	0.325
-472.245	-200.000	0.011	-0.237
-471.230	43.546	0.160	0.148
-470.216	428.340	0.142	0.310
-469.201	-200.000	0.001	0.007
-468.186	800.000	-0.066	-0.188
-467.172	-200.000	-0.019	0.130
-466.157	73.034	0.190	0.201
-465.143	7.720	0.177	-0.134
-464.128	-200.000	0.006	-0.269
-463.113	-98.200	-0.053	-0.014
-462.099	614.052	0.110	-0.279
-461.084	-45.595	0.028	0.014
-460.070	-104.391	0.108	0.025
-459.055	-94.212	-0.055	-0.015
-458.040	-138.328	-0.183	-0.020
-457.026	-200.000	-0.015	-0.248
-456.011	-200.000	0.026	0.245
-454.997	311.051	0.105	-0.199
-453.982	-51.474	-0.177	0.084
-452.968	-200.000	0.000	-0.298
-451.953	583.736	-0.135	-0.334
-450.938	-59.349	-0.146	0.063
-449.924	-83.332	-0.289	-0.094
-448.909	618.009	-0.025	0.063
-447.895	-90.764	-0.097	-0.028
-446.880	219.765	-0.386	0.625
-445.865	358.656	-0.112	-0.226
-444.851	-112.020	0.226	-0.046
-443.836	-87.009	0.341	-0.105
-442.822	37.090	-0.348	-0.311
-441.807	-200.000	0.026	-0.331
-440.792	-133.863	-0.131	0.016
-439.778	-28.096	-0.130	0.076
-438.763	170.007	-0.138	0.199
-437.749	-92.014	0.092	-0.026
-436.734	-132.293	-0.072	0.009
-435.719	-182.445	0.438	0.008
-434.705	579.923	-0.093	-0.230
-433.690	669.598	0.153	0.401
-432.676	98.128	-0.190	-0.221
-431.661	-47.532	-0.332	-0.163
-430.646	-200.000	0.054	-0.247
-429.632	154.285	-0.049	0.067
-428.617	132.537	-0.137	0.178
-427.603	-73.326	0.223	-0.082
-426.588	-87.026	-0.346	0.106
-425.573	235.008	0.152	-0.253
-424.559	800.000	-0.021	-0.087
-423.544	-200.000	0.014	0.227
-422.530	-200.000	0.023	-0.176
-421.515	635.469	-0.130	0.333
-420.500	-138.200	0.447	0.050
-419.486	-79.010	0.267	0.092
-418.471	163.511	-0.144	0.204
-417.457	-93.829	-0.236	0.066
-416.442	800.000	-0.060	0.252
-415.428	-20.583	0.253	-0.157
-414.413	-104.223	-0.029	0.007
-413.398	21.845	0.196	0.161
-412.384	-111.002	-0.252	-0.052
-411.369	-123.123	-0.306	0.050
-410.355	800.000	0.023	0.067
-409.340	493.735	-0.113	-0.261
-408.325	-200.000	0.016	0.245
-407.311	-97.968	-0.112	-0.029
-406.296	-200.000	-0.012	0.215
-405.282	98.386	0.251	0.292
-404.267	624.092	0.063	0.161
-403.252	-5.330	0.010	-0.007
-402.238	-200.000	0.028	0.135
-401.223	28.884	0.192	0.164
-400.209	121.018	-0.198	0.248
-399.194	800.000	0.061	-0.264
-398.179	-91.406	0.260	-0.075
-397.165	223.753	-0.103	0.167
-396.150	800.000	-0.024	-0.075
-395.136	191.386	-0.157	-0.238
-394.121	-200.000	0.042	-0.365
-393.106	-200.000	0.052	0.421
-392.092	138.458	-0.241	0.319
-391.077	800.000	-0.095	0.296
-390.063	-200.000	0.000	-0.046
-389.048	-200.000	0.040	0.389
-388.033	108.276	0.195	0.235
-387.019	-13.749	0.044	0.028
-386.004	-200.000	0.019	-0.131
-384.990	-167.149	0.149	-0.006
-383.975	205.415	0.176	0.275
-382.960	-78.177	0.208	0.072
-381.946	479.635	0.052	0.118
-380.931	111.090	-0.118	-0.144
-379.917	233.851	-0.028	-0.046
-378.902	742.789	0.081	-0.220
-377.888	25.239	-0.223	-0.187
-376.873	-69.353	-0.107	0.041
-375.858	-200.000	0.019	-0.313
-374.844	-113.858	0.256	0.050
-373.829	-200.000	0.006	0.324
-372.815	300.866	-0.084	-0.155
-371.800	-109.684	-0.274	0.058
-370.785	202.219	-0.161	0.250
-369.771	-60.168	0.380	0.163
-368.756	-13.659	-0.204	0.133
-367.742	800.000	-0.081	0.329
-366.727	-83.875	0.037	0.012
-365.712	-200.000	-0.011	-0.064
-364.698	510.943	-0.066	0.155
-363.683	-72.908	0.091	-0.034
-362.669	-200.000	-0.010	-0.098
-361.654	-200.000	0.012	-0.175
-360.639	-85.301	0.350	0.110
-359.625	-137.789	0.166	0.019
-358.610	193.535	0.044	0.067
-357.596	303.039	-0.104	-0.193
-356.581	800.000	0.096	-0.388
-355.566	-85.765	-0.161	0.050
-354.552	-111.361	0.373	0.077
-353.537	-136.470	0.062	0.007
-352.523	149.021	0.106	0.144
-351.508	-51.129	0.308	0.145
-350.493	202.465	0.138	0.215
-349.479	162.120	0.030	0.043
-348.464	-176.197	0.180	-0.005
-347.450	706.522	0.053	-0.141
-346.435	-39.793	0.271	0.143
-345.420	114.295	-0.017	-0.021
-344.406	33.399	-0.095	0.083
-343.391	474.950	-0.027	-0.062
-342.377	-200.000	0.016	0.281
-341.362	87.973	-0.262	0.292
-340.348	74.187	-0.109	0.115
-339.333	-153.829	0.333	-0.023
-338.318	800.000	-0.046	0.160
-337.304	-200.000	-0.016	-0.142
-336.289	800.000	-0.062	-0.242
-335.275	-138.953	0.378	0.041
-334.260	-128.464	0.292	-0.042
-333.245	-79.541	0.177	0.060
-332.231	-70.361	0.165	-0.063
-331.216	440.580	0.135	-0.297
-330.202	21.838	0.125	0.103
-329.187	-104.366	0.119	0.028
-328.172	275.146	-0.061	0.109
-327.158	688.053	0.143	-0.377
-326.143	-200.000	0.029	-0.213
-325.129	144.358	0.128	0.171
-324.114	74.092	-0.095	-0.100
-323.099	-200.000	0.020	0.165
-322.085	-8.934	0.250	-0.169
-321.070	89.674	-0.221	-0.247
-320.056	-200.000	0.037	0.358
-319.041	262.447	0.043	0.075
-318.026	371.977	-0.060	0.123
-317.012	19.360	0.103	0.084
-315.997	800.000	-0.082	-0.310
-314.983	-136.453	-0.185	-0.022
-313.968	536.267	0.081	0.193
-312.953	-98.681	-0.184	-0.047
-311.939	-36.982	-0.204	0.110
-310.924	800.000	-0.025	0.090
-309.910	-45.590	-0.245	-0.122
-308.895	65.463	-0.108	-0.110
-307.880	18.562	0.205	-0.165
-306.866	207.966	0.077	0.121
-305.851	-101.108	-0.239	-0.059
-304.837	800.000	-0.123	0.374
-303.822	117.881	-0.112	-0.139
-302.807	-200.000	0.034	-0.164
-301.793	800.000	0.090	0.384
-300.778	587.657	0.089	0.220
-299.764	408.379	0.126	0.268
-298.749	-166.836	0.131	-0.005
-297.735	300.424	0.142	-0.263
-296.720	-96.370	0.137	-0.036
-295.705	-162.208	0.375	-0.019
-294.691	150.966	-0.157	-0.215
-293.676	-25.431	0.151	0.090
-292.662	23.318	0.198	0.163
-291.647	-44.919	0.145	0.072
-290.632	705.734	0.043	0.114
-289.618	-200.000	0.012	-0.171
-288.603	-28.664	0.146	-0.084
-287.589	-166.056	0.153	-0.007
-286.574	800.000	-0.046	0.135
-285.559	23.359	-0.244	-0.201
-284.545	53.014	0.145	-0.139
-283.530	278.059	0.083	-0.148
-282.516	35.206	-0.107	0.094
-281.501	800.000	-0.053	0.162
-280.486	98.769	-0.112	-0.130
-279.472	26.620	-0.181	0.152
-278.457	249.022	0.227	0.386
-277.443	20.504	-0.202	-0.164
-276.428	800.000	0.049	0.206
-275.413	-200.000	0.003	-0.124
-274.399	393.710	0.143	-0.298
-273.384	242.485	0.097	-0.164
-272.370	461.454	-0.072	0.161
-271.355	-200.000	0.026	0.222
-270.340	800.000	-0.128	0.396
-269.326	-77.746	-0.301	-0.104
-268.311	351.714	-0.043	0.085
-267.297	625.654	-0.079	-0.201
-266.282	148.919	0.130	-0.177
-265.267	441.817	-0.057	0.126
-264.253	-32.503	-0.164	-0.092
-263.238	-103.627	0.091	-0.022
-262.224	-176.467	0.357	-0.009
-261.209	-108.786	-0.227	0.049
-260.195	426.347	0.143	-0.309
-259.180	-46.979	-0.142	-0.070
-258.165	-147.571	0.099	-0.008
-257.151	220.466	-0.297	0.478
-256.136	-86.881	-0.101	-0.031
-255.122	1.721	-0.180	0.130
-254.107	25.059	0.006	0.005
-253.092	61.202	0.089	0.088
-252.078	-200.000	0.021	-0.219
-251.063	13.253	-0.097	-0.076
-250.049	102.478	-0.080	0.093
-249.034	-200.000	-0.022	0.313
-248.019	532.936	-0.086	0.204
-247.005	38.569	0.212	-0.189
-245.990	-4.361	0.238	-0.165
-244.976	-109.008	-0.153	-0.033
-243.961	-91.389	-0.131	-0.038
-242.946	101.128	0.141	0.165
-241.932	-90.355	0.276	0.080
-240.917	800.000	-0.069	0.240
-239.903	-156.392	-0.188	0.012
-238.888	-200.000	-0.080	0.472
-237.873	-178.742	-0.010	0.000
-236.859	36.604	0.247	0.219
-235.844	311.624	-0.083	0.156
-234.830	-87.432	-0.178	0.054
-233.815	71.504	-0.152	-0.158
-232.800	-27.704	-0.193	0.112
-231.786	-157.364	-0.318	0.019
-230.771	-28.233	0.408	0.236
-229.757	316.371	0.050	-0.094
-228.742	50.557	-0.110	0.104
-227.727	78.332	-0.163	-0.174
-226.713	-131.196	0.380	0.051
-225.698	-141.368	-0.326	0.033
-224.684	5.742	-0.121	-0.090
-223.669	-81.555	-0.225	0.074
-222.655	694.897	-0.107	0.281
-221.640	-200.000	0.008	-0.313
-220.625	280.984	0.040	-0.072
-219.611	-31.683	0.175	-0.098
-218.596	-200.000	0.025	-0.186
-217.582	64.031	-0.218	-0.220
-216.567	-19.768	0.093	-0.057
-215.552	-151.838	0.195	-0.014
-214.538	-33.546	-0.272	-0.151
-213.523	702.501	0.018	0.046
-212.509	-200.000	-0.002	0.303
-211.494	178.228	-0.143	-0.209
-210.479	-137.165	-0.269	0.031
-209.465	-129.193	0.114	-0.016
-208.450	-200.000	0.009	0.095
-207.436	-200.000	0.015	0.141
-206.421	800.000	0.129	0.434
-205.406	9.313	-0.272	0.206
-204.392	-157.475	-0.084	0.005
-203.377	17.383	0.183	0.145
-202.363	-200.000	-0.005	-0.025
-201.348	800.000	-0.045	0.154
-200.333	-31.701	0.158	-0.089
-199.319	-79.665	-0.153	-0.052
-198.304	794.494	0.151	-0.416
-197.290	148.441	-0.042	0.056
-196.275	125.081	0.256	0.323
-195.260	-200.000	-0.038	0.316
-194.246	87.861	-0.125	-0.138
-193.231	-116.336	0.113	0.021
-192.217	-85.852	-0.155	-0.048
-191.202	-74.152	0.342	0.124
-190.187	-200.000	0.079	-0.370
-189.173	-91.866	0.163	-0.046
-188.158	-200.000	-0.007	0.119
-187.144	-171.572	-0.195	0.006
-186.129	58.049	-0.077	0.075
-185.114	133.125	0.105	-0.135
-184.100	461.438	-0.035	0.077
-183.085	-29.295	0.039	-0.022
-182.071	-68.484	0.287	0.111
-181.056	83.866	0.204	-0.223
-180.042	-48.247	0.198	-0.096
-179.027	-49.726	0.348	-0.165
-178.012	398.026	-0.053	0.111
-176.998	-89.199	0.237	-0.070
-175.983	-44.368	-0.148	0.074
-174.969	46.908	0.177	-0.164
-173.954	-200.000	0.009	-0.154
-172.939	107.474	0.174	0.207
-171.925	-170.255	0.240	-0.008
-170.910	-74.736	0.132	0.047
-169.896	-16.435	-0.086	-0.054
-168.881	384.001	-0.062	0.128
-167.866	-168.074	-0.370	-0.014
-166.852	368.592	0.027	-0.055
-165.837	-132.702	-0.299	0.038
-164.823	-51.736	-0.104	0.048
-163.808	64.459	0.256	-0.257
-162.793	177.931	0.125	-0.183
-161.779	-200.000	-0.042	0.317
-160.764	225.343	-0.158	0.255
-159.750	800.000	0.055	-0.192
-158.735	-67.578	0.305	0.119
-157.720	-128.277	-0.104	0.015
-156.706	800.000	-0.030	-0.104
-155.691	-130.082	0.223	-0.030
-154.677	-200.000	0.010	0.174
-153.662	-200.000	0.057	-0.330
-152.647	-137.208	0.289	0.033
-151.633	-49.247	-0.163	-0.078
-150.618	-59.181	-0.223	-0.096
-149.604	-144.955	0.301	-0.027
-148.589	-125.343	-0.061	-0.009
-147.574	39.293	0.169	-0.151
-146.560	-143.612	-0.152	0.014
-145.545	151.048	0.067	-0.092
-144.531	-85.186	0.188	0.059
-143.516	-200.000	-0.016	0.258
-142.502	456.992	-0.114	0.252
-141.487	146.292	-0.099	0.132
-140.472	152.945	-0.227	-0.310
-139.458	496.682	-0.122	0.279
-138.443	291.351	0.123	0.224
-137.429	369.605	-0.026	0.053
-136.414	172.654	-0.108	-0.156
-135.399	-35.668	-0.227	0.123
-134.385	357.150	-0.131	-0.260
-133.370	85.726	0.126	0.138
-132.356	-61.594	-0.357	-0.150
-131.341	-12.238	-0.179	0.117
-130.326	-101.813	-0.053	0.013
-129.312	143.932	0.247	0.328
-128.297	-13.633	-0.139	0.090
-127.283	-120.468	-0.215	-0.036
-126.268	-4.155	-0.210	0.145
-125.253	99.866	0.259	0.299
-124.239	-112.019	0.326	-0.065
-123.224	-200.000	-0.004	0.100
-122.210	28.266	-0.221	0.186
