DTS Sentinel unit serial number:	SN413079Multiplexer serial number:	ORYXHardware model number:	OX4-SRSoftware version number:	ORYX F/W v4.00 Oryx Data Collector v3.7.2.0data status	okinstallation	princeton_trtdifferential loss correction	single-endedforward channel	channel 3reverse channel	N/Adate	2019/09/16time	16:12:35forward acquisition time	60.00reverse acquisition time	0.00gamma	496.2192k internal	0.2293k external	0.2293temperature offset calibration	0.9943default loss term (dB/km)	0.3790temperature slope calibration	1.0000multiplexer offset coefficient	1.0000multiplexer slope coefficient	1.0000fibre end	0.00T internal ref (°C)	40.69T ext. ref 1 (°C)	14.97T ext. ref 2 (°C)	34.90length (m)	temperature (°C)	Stokes	anti-Stokes-747.200	206.081	0.113	0.180
-746.185	-91.491	-0.172	-0.050
-745.171	-200.000	0.032	0.339
-744.156	361.865	-0.194	0.399
-743.142	-67.721	-0.235	-0.094
-742.127	-200.000	-0.033	0.270
-741.112	402.909	-0.090	-0.194
-740.098	800.000	0.062	0.275
-739.083	-138.958	0.164	-0.018
-738.069	-200.000	-0.006	-0.048
-737.054	-94.055	0.265	0.074
-736.039	-99.601	-0.346	-0.089
-735.025	91.336	-0.128	-0.147
-734.010	800.000	-0.035	0.111
-732.996	-143.120	-0.283	0.028
-731.981	340.590	-0.091	-0.181
-730.966	800.000	-0.078	0.252
-729.952	-81.633	-0.119	0.040
-728.937	1.273	0.110	0.081
-727.923	213.357	0.082	0.133
-726.908	-128.762	-0.486	0.070
-725.894	-180.920	-0.084	0.002
-724.879	144.849	-0.200	-0.274
-723.864	800.000	0.090	-0.330
-722.850	192.700	0.111	-0.171
-721.835	-200.000	-0.042	-0.252
-720.821	513.679	-0.128	-0.304
-719.806	174.218	0.120	-0.178
-718.791	-126.433	-0.110	0.017
-717.777	-200.000	0.018	0.084
-716.762	-132.320	0.176	0.023
-715.748	-0.103	0.093	-0.068
-714.733	34.445	-0.215	-0.192
-713.718	627.770	0.063	0.164
-712.704	-82.458	0.264	0.087
-711.689	-114.298	-0.114	0.022
-710.675	800.000	-0.035	0.131
-709.660	800.000	0.013	-0.054
-708.645	65.545	-0.113	-0.117
-707.631	800.000	0.080	0.243
-706.616	-200.000	-0.016	-0.076
-705.602	-200.000	0.020	0.182
-704.587	326.210	0.183	-0.358
-703.572	-148.437	-0.078	0.006
-702.558	-200.000	-0.001	-0.171
-701.543	115.784	0.179	-0.224
-700.529	40.213	0.156	-0.143
-699.514	-200.000	-0.010	-0.238
-698.499	6.476	0.313	-0.237
-697.485	-151.992	0.236	-0.018
-696.470	-52.647	-0.200	0.094
-695.456	252.067	-0.098	-0.171
-694.441	-92.333	-0.099	-0.028
-693.426	326.658	0.183	0.358
-692.412	-7.133	0.039	-0.027
-691.397	212.882	-0.155	-0.251
-690.383	199.672	-0.239	-0.374
-689.368	587.952	0.082	-0.206
-688.354	-101.520	-0.039	-0.010
-687.339	342.775	0.093	0.185
-686.324	-193.914	-0.325	0.003
-685.310	800.000	0.042	0.174
-684.295	-65.817	0.404	-0.165
-683.281	23.143	-0.233	-0.195
-682.266	-200.000	-0.016	-0.136
-681.251	99.570	0.252	-0.298
-680.237	-200.000	0.005	-0.164
-679.222	-200.000	0.015	0.135
-678.208	100.765	0.140	0.167
-677.193	-200.000	0.004	-0.040
-676.178	101.890	-0.217	-0.258
-675.164	196.180	-0.135	-0.210
-674.149	-4.943	0.148	-0.104
-673.135	235.023	0.119	0.200
-672.120	76.224	0.097	-0.105
-671.105	85.847	-0.060	0.068
-670.091	-105.562	-0.438	-0.101
-669.076	95.611	-0.250	-0.291
-668.062	333.120	0.153	-0.303
-667.047	224.430	0.323	-0.532
-666.032	261.808	-0.168	0.296
-665.018	-93.216	-0.330	0.094
-664.003	-46.559	-0.182	-0.091
-662.989	-81.751	-0.120	-0.040
-661.974	-30.015	-0.223	-0.129
-660.959	-77.388	-0.101	-0.036
-659.945	-51.827	-0.291	0.138
-658.930	-57.867	-0.219	0.098
-657.916	121.170	-0.314	-0.399
-656.901	36.565	0.097	-0.088
-655.886	-200.000	-0.007	-0.046
-654.872	57.925	0.080	0.080
-653.857	-45.269	-0.137	-0.069
-652.843	-25.048	-0.260	-0.157
-651.828	-160.272	-0.160	-0.009
-650.814	123.905	0.216	0.276
-649.799	-200.000	-0.023	0.174
-648.784	-114.272	-0.319	0.063
-647.770	24.876	0.185	-0.157
-646.755	48.135	-0.198	0.189
-645.741	260.397	0.056	0.098
-644.726	-127.791	-0.311	-0.046
-643.711	-200.000	-0.087	0.453
-642.697	-132.954	0.189	0.024
-641.682	-200.000	0.008	0.114
-640.668	-87.167	-0.057	0.018
-639.653	-67.903	0.137	0.055
-638.638	-79.663	0.368	-0.127
-637.624	-105.413	0.098	-0.023
-636.609	156.810	-0.069	0.097
-635.595	262.029	0.059	0.104
-634.580	18.612	-0.123	0.100
-633.565	100.699	0.164	0.194
-632.551	-58.905	0.294	-0.130
-631.536	-74.935	-0.137	0.050
-630.522	181.257	0.088	-0.132
-629.507	115.353	0.160	0.200
-628.492	-71.648	-0.127	0.048
-627.478	-29.745	-0.435	-0.253
-626.463	162.741	0.092	-0.131
-625.449	800.000	0.039	0.161
-624.434	-200.000	-0.156	-0.001
-623.419	229.686	0.086	-0.143
-622.405	-175.882	0.064	0.002
-621.390	30.712	-0.126	0.109
-620.376	-20.149	-0.069	0.043
-619.361	56.017	-0.160	-0.158
-618.346	-200.000	-0.000	0.117
-617.332	-200.000	-0.021	0.102
-616.317	57.130	0.306	-0.304
-615.303	709.119	0.081	-0.218
-614.288	-196.729	-0.182	-0.001
-613.273	-101.553	-0.025	-0.006
-612.259	-87.934	-0.278	0.085
-611.244	8.282	0.197	-0.151
-610.230	2.513	0.217	-0.160
-609.215	382.151	0.076	-0.159
-608.201	-67.245	0.150	-0.060
-607.186	-0.483	0.300	-0.217
-606.171	-33.257	-0.121	-0.068
-605.157	-200.000	0.010	-0.101
-604.142	5.474	0.049	0.037
-603.128	-132.051	-0.231	0.031
-602.113	-200.000	0.009	0.167
-601.098	51.500	0.109	-0.106
-600.084	545.372	-0.069	0.168
-599.069	150.368	-0.161	-0.223
-598.055	-26.119	-0.289	0.173
-597.040	-45.832	0.261	0.131
-596.025	-200.000	0.003	0.210
-595.011	-99.788	-0.226	0.057
-593.996	-200.000	0.092	-0.540
-592.982	-151.720	-0.392	-0.029
-591.967	-147.401	0.158	0.014
-590.952	-200.000	-0.008	-0.142
-589.938	-200.000	0.015	0.098
-588.923	119.587	-0.165	0.207
-587.909	-4.971	-0.243	0.170
-586.894	-46.367	0.216	-0.108
-585.879	-200.000	-0.037	0.296
-584.865	78.231	-0.109	0.118
-583.850	315.571	0.057	-0.109
-582.836	-73.649	0.142	-0.053
-581.821	47.799	-0.047	-0.044
-580.806	-46.010	-0.184	0.092
-579.792	-42.844	0.183	0.095
-578.777	353.125	0.060	-0.120
-577.763	-93.691	0.177	-0.050
-576.748	-179.669	-0.110	-0.002
-575.733	112.258	-0.060	-0.074
-574.719	412.542	0.089	0.193
-573.704	217.584	0.123	0.200
-572.690	102.169	-0.136	0.162
-571.675	-200.000	-0.042	-0.209
-570.661	319.579	-0.024	0.047
-569.646	-38.987	0.104	-0.055
-568.631	-28.362	0.306	0.179
-567.617	105.413	0.053	-0.064
-566.602	800.000	-0.057	-0.174
-565.588	-153.061	-0.265	-0.019
-564.573	144.321	-0.180	-0.245
-563.558	-133.653	0.251	-0.032
-562.544	-97.429	-0.123	0.032
-561.529	-87.933	-0.197	0.060
-560.515	-106.383	-0.236	-0.054
-559.500	-88.968	0.253	0.076
-558.485	-6.335	0.138	-0.096
-557.471	-118.630	0.091	-0.016
-556.456	150.604	0.195	-0.269
-555.442	-93.006	-0.298	0.085
-554.427	-200.000	0.019	0.102
-553.412	234.467	0.072	-0.120
-552.398	317.762	0.191	0.367
-551.383	204.712	-0.232	-0.365
-550.369	46.813	0.085	0.080
-549.354	128.451	0.142	0.183
-548.339	75.178	-0.068	-0.073
-547.325	800.000	0.087	0.290
-546.310	-50.130	0.222	0.107
-545.296	-61.973	-0.255	-0.108
-544.281	270.291	-0.107	-0.191
-543.266	27.451	-0.207	0.176
-542.252	-160.499	-0.378	-0.021
-541.237	87.697	-0.165	0.186
-540.223	-118.302	0.257	0.046
-539.208	-89.771	-0.139	-0.041
-538.193	-51.363	0.231	0.109
-537.179	32.394	-0.285	0.249
-536.164	-102.740	0.051	-0.012
-535.150	59.171	0.074	-0.074
-534.135	-116.063	0.271	0.051
-533.121	800.000	0.032	-0.101
-532.106	-19.931	-0.232	-0.146
-531.091	31.436	0.231	-0.202
-530.077	-121.062	0.108	-0.018
-529.062	-142.083	0.252	0.025
-528.048	-10.850	-0.060	0.040
-527.033	-200.000	-0.000	-0.058
-526.018	12.294	0.077	0.060
-525.004	36.778	0.245	-0.219
-523.989	603.166	0.046	0.116
-522.975	144.688	-0.033	-0.045
-521.960	-1.941	-0.068	-0.048
-520.945	-200.000	-0.009	-0.181
-519.931	179.706	0.042	0.062
-518.916	-113.749	-0.284	-0.056
-517.902	2.288	0.118	0.087
-516.887	-200.000	-0.023	0.157
-515.872	25.276	-0.089	-0.075
-514.858	-117.368	0.503	-0.092
-513.843	-124.965	-0.345	0.054
-512.829	228.801	-0.104	-0.172
-511.814	-12.927	-0.171	-0.113
-510.799	77.351	-0.042	-0.045
-509.785	800.000	-0.055	-0.186
-508.770	-139.559	-0.142	0.015
-507.756	38.940	0.304	-0.275
-506.741	-200.000	0.001	0.108
-505.726	-190.076	-0.258	0.003
-504.712	-67.397	-0.119	-0.047
-503.697	301.473	0.105	-0.197
-502.683	227.044	-0.138	-0.227
-501.668	290.581	0.176	-0.323
-500.653	-200.000	-0.032	-0.320
-499.639	241.160	-0.119	0.201
-498.624	226.906	0.050	0.082
-497.610	800.000	0.042	0.159
-496.595	-200.000	0.035	0.210
-495.581	-58.159	-0.180	-0.079
-494.566	-4.051	0.145	-0.102
-493.551	-6.333	0.164	0.113
-492.537	3.669	0.064	0.047
-491.522	46.233	-0.336	0.316
-490.508	-200.000	0.001	-0.156
-489.493	179.062	0.165	0.245
-488.478	-53.065	0.189	-0.088
-487.464	214.303	-0.113	-0.182
-486.449	246.958	0.099	-0.170
-485.435	800.000	0.055	-0.192
-484.420	-80.042	-0.043	-0.015
-483.405	419.954	0.066	-0.143
-482.391	-200.000	0.013	0.209
-481.376	59.746	-0.231	-0.231
-480.362	-32.911	0.210	-0.118
-479.347	3.328	0.070	-0.051
-478.332	-200.000	-0.006	0.061
-477.318	193.015	-0.127	0.194
-476.303	148.382	0.107	-0.146
-475.289	667.100	0.008	0.022
-474.274	-200.000	-0.037	0.323
-473.259	-36.162	0.112	0.061
-472.245	-200.000	0.015	0.298
-471.230	-110.997	0.200	0.042
-470.216	-70.088	-0.395	-0.152
-469.201	-90.128	0.228	-0.067
-468.186	-106.945	-0.212	-0.047
-467.172	177.167	-0.170	-0.251
-466.157	-18.118	-0.208	-0.132
-465.143	-100.689	0.215	0.054
-464.128	-48.163	0.152	-0.074
-463.113	-20.016	-0.129	-0.081
-462.099	433.018	0.103	0.225
-461.084	800.000	-0.080	-0.313
-460.070	-13.350	-0.160	-0.105
-459.055	-69.540	-0.209	-0.081
-458.040	-120.106	-0.095	0.016
-457.026	29.343	-0.037	0.031
-456.011	-145.193	-0.046	-0.004
-454.997	-47.135	-0.201	0.099
-453.982	-85.123	0.367	-0.116
-452.968	72.251	0.074	-0.077
-451.953	-200.000	-0.005	0.242
-450.938	1.680	0.048	0.035
-449.924	-154.982	0.106	-0.007
-448.909	-200.000	-0.044	-0.495
-447.895	-39.768	-0.504	0.266
-446.880	28.889	0.190	-0.163
-445.865	-193.572	0.081	0.001
-444.851	247.380	0.078	-0.133
-443.836	60.618	-0.040	0.040
-442.822	-108.585	-0.347	0.075
-441.807	-94.587	-0.041	0.011
-440.792	118.999	-0.320	0.399
-439.778	-26.664	0.193	0.114
-438.763	-200.000	0.033	0.279
-437.749	223.230	0.183	-0.299
-436.734	8.298	0.145	0.111
-435.719	-139.088	0.144	-0.016
-434.705	316.355	0.034	0.065
-433.690	62.802	0.251	0.254
-432.676	191.101	0.119	-0.180
-431.661	-154.561	-0.073	-0.005
-430.646	-200.000	-0.028	0.139
-429.632	-26.015	-0.217	-0.129
-428.617	203.179	-0.051	-0.080
-427.603	-200.000	0.038	0.308
-426.588	462.771	-0.077	-0.173
-425.573	11.766	-0.332	0.258
-424.559	-200.000	-0.008	-0.062
-423.544	-200.000	-0.002	0.072
-422.530	533.904	-0.023	-0.054
-421.515	-51.950	0.153	0.072
-420.500	-88.226	0.329	-0.099
-419.486	-149.710	-0.162	0.013
-418.471	-200.000	0.038	0.000
-417.457	686.211	-0.113	0.299
-416.442	800.000	-0.067	-0.288
-415.428	800.000	0.112	-0.391
-414.413	226.147	-0.212	-0.348
-413.398	38.123	0.044	0.040
-412.384	64.543	0.218	-0.222
-411.369	97.047	0.155	-0.180
-410.355	715.493	-0.095	0.254
-409.340	59.641	-0.097	0.097
-408.325	-132.226	0.221	-0.029
-407.311	-131.346	0.199	0.027
-406.296	-7.252	-0.224	-0.153
-405.282	83.601	-0.100	-0.110
-404.267	639.992	0.047	-0.121
-403.252	6.032	0.044	0.033
-402.238	486.689	0.071	0.164
-401.223	-105.328	-0.184	-0.042
-400.209	-182.975	-0.162	0.003
-399.194	800.000	0.029	0.097
-398.179	-166.490	0.283	-0.012
-397.165	197.481	-0.041	-0.064
-396.150	800.000	0.035	0.128
-395.136	95.894	0.060	-0.069
-394.121	-20.011	-0.148	0.092
-393.106	800.000	-0.032	0.140
-392.092	209.553	-0.119	-0.188
-391.077	252.872	-0.148	-0.255
-390.063	213.191	-0.126	-0.201
-389.048	-200.000	0.015	-0.242
-388.033	434.690	0.196	0.430
-387.019	800.000	-0.059	-0.177
-386.004	293.411	0.068	0.126
-384.990	243.128	0.154	-0.261
-383.975	800.000	0.088	-0.254
-382.960	-42.705	-0.440	0.226
-381.946	31.359	0.070	0.061
-380.931	-191.812	-0.071	0.001
-379.917	-85.536	-0.278	-0.087
-378.902	79.416	0.246	-0.266
-377.888	55.733	0.047	0.046
-376.873	-200.000	0.025	0.178
-375.858	-67.872	0.380	0.150
-374.844	39.936	-0.085	-0.077
-373.829	-94.243	-0.475	0.131
-372.815	800.000	-0.040	0.164
-371.800	215.403	-0.110	0.176
-370.785	43.278	0.117	-0.108
-369.771	800.000	0.079	-0.226
-368.756	90.627	0.138	0.156
-367.742	35.928	-0.218	-0.194
-366.727	-21.004	0.139	-0.086
-365.712	800.000	0.031	-0.092
-364.698	56.218	0.214	0.210
-363.683	67.254	0.035	-0.036
-362.669	800.000	0.043	0.182
-361.654	-27.056	-0.195	-0.115
-360.639	51.826	-0.170	0.163
-359.625	184.996	0.123	0.184
-358.610	134.467	-0.056	0.074
-357.596	204.254	-0.114	0.178
-356.581	133.495	0.185	0.241
-355.566	-100.092	0.315	-0.079
-354.552	-16.932	-0.080	0.051
-353.537	28.379	-0.234	0.199
-352.523	-200.000	-0.010	0.077
-351.508	-29.493	0.153	0.088
-350.493	-51.191	-0.113	-0.054
-349.479	800.000	-0.028	0.113
-348.464	-200.000	0.041	-0.266
-347.450	236.804	-0.123	0.205
-346.435	655.046	-0.143	0.369
-345.420	-200.000	-0.050	-0.338
-344.406	81.723	-0.035	-0.038
-343.391	330.301	-0.061	-0.119
-342.377	-172.384	0.235	0.008
-341.362	-86.570	-0.380	-0.117
-340.348	158.947	-0.062	0.086
-339.333	800.000	-0.016	-0.052
-338.318	-19.891	0.117	0.073
-337.304	-47.760	-0.197	-0.096
-336.289	-112.708	-0.208	0.042
-335.275	-200.000	-0.005	0.183
-334.260	144.116	-0.106	0.143
-333.245	107.590	-0.130	0.156
-332.231	-132.614	-0.348	-0.045
-331.216	-155.482	-0.186	-0.012
-330.202	800.000	0.090	-0.274
-329.187	-99.586	0.152	0.038
-328.172	-169.685	-0.052	0.002
-327.158	109.475	0.195	-0.235
-326.143	355.689	-0.120	-0.241
-325.129	-200.000	-0.010	0.131
-324.114	107.644	0.151	-0.181
-323.099	51.032	-0.210	0.200
-322.085	-57.829	0.384	-0.169
-321.070	-60.557	0.374	0.160
-320.056	-161.394	-0.279	0.015
-319.041	-46.636	-0.227	0.112
-318.026	-106.974	0.221	-0.049
-317.012	-111.289	-0.182	0.037
-315.997	-90.671	-0.261	-0.076
-314.983	800.000	0.019	0.080
-313.968	-98.287	0.142	0.037
-312.953	13.316	0.400	-0.312
-311.939	1.745	-0.373	0.270
-310.924	-126.054	-0.130	-0.020
-309.910	58.644	-0.208	-0.205
-308.895	87.514	-0.114	-0.127
-307.880	-97.397	-0.357	0.094
-306.866	14.442	0.223	0.175
-305.851	800.000	0.031	-0.091
-304.837	101.890	-0.153	-0.180
-303.822	800.000	-0.024	-0.091
-302.807	737.981	0.141	-0.380
-301.793	90.868	-0.078	0.087
-300.778	-122.572	-0.250	0.041
-299.764	-46.505	0.060	0.030
-298.749	-40.876	0.227	-0.118
-297.735	-131.383	-0.347	0.046
-296.720	66.611	-0.113	-0.115
-295.705	-61.440	0.135	0.057
-294.691	-44.960	0.218	-0.109
-293.676	28.999	-0.103	-0.088
-292.662	-1.479	0.199	-0.141
-291.647	-97.576	-0.194	-0.051
-290.632	69.343	0.076	-0.079
-289.618	-63.231	-0.196	0.081
-288.603	-200.000	-0.014	0.078
-287.589	65.540	0.186	0.189
-286.574	-134.868	0.299	0.036
-285.559	-200.000	0.048	-0.335
-284.545	800.000	-0.069	0.207
-283.530	-200.000	-0.048	-0.264
-282.516	1.918	-0.147	-0.106
-281.501	-131.204	0.086	-0.011
-280.486	-41.226	-0.451	-0.234
-279.472	466.831	0.049	0.109
-278.457	122.241	-0.041	0.052
-277.443	-188.497	0.193	-0.002
-276.428	-167.007	-0.085	-0.003
-275.413	-102.104	-0.351	-0.085
-274.399	800.000	-0.128	0.378
-273.384	-200.000	-0.070	0.308
-272.370	-61.601	-0.304	0.128
-271.355	-200.000	-0.083	-0.398
-270.340	568.405	0.109	0.267
-269.326	43.773	-0.196	0.181
-268.311	-91.381	0.193	0.056
-267.297	322.530	0.089	-0.171
-266.282	-200.000	0.001	-0.106
-265.267	75.659	0.334	-0.354
-264.253	-115.000	0.026	-0.005
-263.238	-34.166	-0.104	0.057
-262.224	-200.000	0.019	0.488
-261.209	342.759	-0.128	0.252
-260.195	800.000	0.074	-0.213
-259.180	186.710	0.108	0.161
-258.165	1.865	0.161	0.117
-257.151	-200.000	0.021	0.325
-256.136	-61.651	0.203	-0.086
-255.122	-185.823	-0.186	0.003
-254.107	57.151	0.088	-0.086
-253.092	-125.549	-0.107	-0.016
-252.078	-78.856	0.224	-0.077
-251.063	-94.909	0.346	-0.094
-250.049	437.459	-0.133	-0.291
-249.034	2.836	-0.131	-0.096
-248.019	-119.432	-0.198	0.034
-247.005	-16.903	-0.322	-0.204
-245.990	800.000	0.085	0.324
-244.976	221.677	-0.068	-0.110
-243.961	316.825	-0.172	0.327
-242.946	-200.000	0.008	0.067
-241.932	-17.955	-0.072	0.045
-240.917	543.815	0.062	-0.148
-239.903	-24.418	0.232	-0.138
-238.888	-84.254	0.388	0.123
-237.873	-37.882	-0.213	-0.114
-236.859	-19.514	0.051	0.031
-235.844	-200.000	0.003	0.091
-234.830	-49.865	-0.202	0.096
-233.815	55.766	-0.190	0.184
-232.800	112.224	-0.088	0.107
-231.786	260.190	0.123	0.213
-230.771	159.302	0.198	-0.276
-229.757	-13.802	-0.208	-0.135
-228.742	-38.808	-0.353	-0.187
-227.727	800.000	-0.061	0.198
-226.713	-184.622	0.099	0.002
-225.698	-32.342	-0.393	0.220
-224.684	-84.774	0.058	-0.018
-223.669	155.317	-0.114	-0.157
-222.655	-11.243	0.208	-0.138
-221.640	-37.037	-0.045	-0.024
-220.625	175.797	0.107	-0.156
-219.611	-200.000	-0.016	-0.147
-218.596	-28.051	-0.102	0.059
-217.582	-200.000	0.036	0.375
-216.567	117.714	0.111	0.136
-215.552	-54.397	0.103	-0.047
-214.538	-200.000	0.008	0.166
-213.523	48.837	-0.196	-0.185
-212.509	-120.868	0.146	0.025
-211.494	568.168	-0.131	0.319
-210.479	-15.074	-0.055	0.035
-209.465	-141.088	0.137	-0.014
-208.450	151.376	0.093	0.127
-207.436	21.558	0.204	-0.166
-206.421	-200.000	-0.020	0.370
-205.406	185.392	-0.240	0.357
-204.392	-84.791	-0.084	0.026
-203.377	-200.000	0.004	0.177
-202.363	800.000	-0.074	-0.262
-201.348	-161.824	0.446	0.023
-200.333	7.377	0.192	-0.143
-199.319	-200.000	0.059	-0.278
-198.304	11.481	0.046	-0.035
-197.290	-49.470	0.123	0.059
-196.275	682.878	-0.054	0.142
-195.260	52.220	0.103	-0.099
-194.246	-15.366	0.020	-0.013
-193.231	693.340	-0.092	0.241
-192.217	-109.534	0.192	-0.041
-191.202	147.950	0.122	-0.165
-190.187	22.844	0.177	-0.145
-189.173	212.399	-0.107	0.169
-188.158	-56.115	-0.313	0.139
-187.144	-1.092	0.099	0.070
-186.129	83.395	-0.086	0.094
-185.114	-200.000	0.029	-0.162
-184.100	-136.343	0.209	0.024
-183.085	800.000	-0.043	0.146
-182.071	-8.204	0.070	-0.047
-181.056	-92.540	0.352	-0.099
-180.042	-82.168	0.208	0.068
-179.027	-51.836	0.480	0.223
-178.012	639.119	0.075	0.190
-176.998	734.053	-0.061	0.163
-175.983	248.596	0.266	0.451
-174.969	-113.591	-0.110	-0.021
-173.954	-52.191	0.112	-0.052
-172.939	0.119	0.094	-0.067
-171.925	-138.417	-0.340	-0.037
-170.910	-200.000	0.013	0.080
-169.896	-68.497	-0.239	0.093
-168.881	-126.289	0.303	0.045
-167.866	69.064	0.098	-0.100
-166.852	180.807	-0.101	-0.148
-165.837	-66.393	0.446	0.177
-164.823	-200.000	-0.025	0.208
-163.808	-105.455	0.330	-0.075
-162.793	411.828	-0.139	-0.296
-161.779	-109.883	0.158	0.033
-160.764	51.061	-0.137	0.130
-159.750	800.000	0.093	-0.278
-158.735	-170.664	0.338	0.012
-157.720	-111.897	0.395	-0.080
-156.706	351.327	0.095	-0.188
-155.691	-49.595	0.054	0.026
-154.677	24.119	-0.063	0.052
-153.662	76.270	0.080	-0.084
-152.647	-13.865	0.302	-0.195
-151.633	-131.561	0.021	-0.003
-150.618	15.250	-0.114	0.089
-149.604	-200.000	-0.041	0.186
-148.589	-200.000	0.055	0.268
-147.574	-27.309	0.500	0.291
-146.560	-44.683	-0.039	-0.019
-145.545	-200.000	-0.008	0.247
-144.531	517.421	0.072	-0.169
-143.516	83.973	-0.084	0.092
-142.502	-200.000	0.005	-0.234
-141.487	194.987	-0.117	-0.177
-140.472	-69.594	0.128	0.049
-139.458	6.237	-0.152	0.113
-138.443	270.179	0.158	-0.278
-137.429	-84.816	0.433	0.136
-136.414	800.000	0.045	0.192
-135.399	-200.000	-0.007	0.395
-134.385	-200.000	0.042	0.197
-133.370	23.122	0.324	-0.266
-132.356	-173.247	-0.169	0.005
-131.341	81.214	0.172	-0.186
-130.326	-200.000	0.029	-0.201
-129.312	16.069	0.091	0.071
-128.297	-200.000	0.033	0.255
-127.283	152.859	0.265	0.362
-126.268	545.021	-0.142	0.339
-125.253	-87.767	-0.258	0.078
-124.239	-51.450	0.055	0.026
-123.224	-152.970	0.323	-0.023
-122.210	-200.000	-0.007	-0.299
-121.195	168.475	-0.097	0.138
-120.180	43.746	0.213	0.194
