DTS Sentinel unit serial number:	SN413079Multiplexer serial number:	ORYXHardware model number:	OX4-SRSoftware version number:	ORYX F/W v4.00 Oryx Data Collector v3.7.2.0data status	okinstallation	princeton_trtdifferential loss correction	single-endedforward channel	channel 3reverse channel	N/Adate	2019/09/12time	00:50:11forward acquisition time	60.00reverse acquisition time	0.00gamma	496.2192k internal	0.2319k external	0.2319temperature offset calibration	1.0066default loss term (dB/km)	0.3790temperature slope calibration	1.0000multiplexer offset coefficient	1.0000multiplexer slope coefficient	1.0000fibre end	0.00T internal ref (°C)	33.25T ext. ref 1 (°C)	2.09T ext. ref 2 (°C)	27.93length (m)	temperature (°C)	Stokes	anti-Stokes-747.200	800.000	-0.076	0.282
-746.185	-200.000	-0.049	-0.280
-745.171	191.870	-0.141	0.215
-744.156	-95.082	-0.264	0.072
-743.142	-35.559	0.284	-0.156
-742.127	-154.939	0.007	0.000
-741.112	-138.926	-0.287	-0.032
-740.098	-200.000	-0.008	0.153
-739.083	172.072	0.120	0.174
-738.069	-116.194	-0.104	-0.020
-737.054	55.940	-0.273	-0.268
-736.039	-143.061	-0.372	-0.036
-735.025	157.931	-0.057	-0.081
-734.010	-129.562	-0.358	0.050
-732.996	6.977	0.315	-0.237
-731.981	-200.000	0.004	-0.112
-730.966	-200.000	0.001	-0.218
-729.952	151.092	0.197	-0.272
-728.937	-200.000	0.024	-0.310
-727.923	70.763	-0.069	-0.073
-726.908	800.000	-0.039	0.163
-725.894	-71.920	0.134	-0.050
-724.879	521.591	0.064	-0.151
-723.864	-53.692	-0.150	-0.069
-722.850	-200.000	-0.009	-0.176
-721.835	-193.558	0.167	-0.001
-720.821	-200.000	0.023	0.158
-719.806	73.414	-0.143	-0.151
-718.791	9.416	-0.315	0.241
-717.777	800.000	0.035	0.130
-716.762	800.000	0.169	0.476
-715.748	-125.984	-0.376	0.057
-714.733	-138.483	-0.156	0.017
-713.718	800.000	-0.068	0.198
-712.704	94.252	-0.235	-0.270
-711.689	-83.648	-0.181	-0.059
-710.675	279.176	-0.092	-0.166
-709.660	50.882	0.095	-0.091
-708.645	-200.000	0.003	0.143
-707.631	-96.095	-0.093	-0.025
-706.616	-200.000	0.006	-0.059
-705.602	-200.000	0.009	-0.146
-704.587	-153.145	-0.359	-0.025
-703.572	438.204	0.079	0.174
-702.558	-25.484	-0.158	0.094
-701.543	-200.000	-0.049	-0.339
-700.529	800.000	0.051	-0.190
-699.514	-200.000	0.010	-0.247
-698.499	-200.000	0.019	-0.158
-697.485	800.000	0.075	-0.226
-696.470	-95.809	-0.409	0.110
-695.456	8.981	-0.217	-0.166
-694.441	9.008	0.266	0.203
-693.426	118.662	0.261	-0.325
-692.412	-200.000	-0.046	0.331
-691.397	-104.051	-0.180	-0.042
-690.383	-73.326	0.314	0.116
-689.368	800.000	-0.117	0.355
-688.354	-200.000	0.000	-0.417
-687.339	-70.162	-0.099	0.038
-686.324	-200.000	0.039	-0.343
-685.310	759.177	0.053	0.144
-684.295	-200.000	-0.009	0.165
-683.281	-84.617	-0.301	0.096
-682.266	146.299	-0.125	0.169
-681.251	71.700	0.298	0.312
-680.237	-200.000	0.003	-0.121
-679.222	-61.274	-0.266	0.113
-678.208	73.739	0.081	-0.086
-677.193	-200.000	-0.027	-0.143
-676.178	206.339	-0.217	0.340
-675.164	-174.729	0.121	0.003
-674.149	37.323	-0.113	-0.101
-673.135	-101.826	-0.089	0.022
-672.120	-118.014	0.253	0.046
-671.105	-200.000	0.026	0.187
-670.091	365.122	-0.035	-0.071
-669.076	-79.076	0.383	-0.131
-668.062	-87.232	0.164	-0.050
-667.047	-41.987	-0.400	0.206
-666.032	106.174	0.070	-0.084
-665.018	-129.353	-0.178	-0.025
-664.003	27.182	0.197	-0.167
-662.989	-58.718	-0.413	-0.180
-661.974	800.000	-0.007	0.021
-660.959	-120.485	-0.305	-0.052
-659.945	-91.573	-0.413	-0.119
-658.930	-200.000	-0.018	0.137
-657.916	-66.559	0.245	0.098
-656.901	-155.490	0.389	-0.025
-655.886	78.321	-0.036	-0.039
-654.872	59.050	0.238	0.236
-653.857	800.000	0.053	0.235
-652.843	166.734	-0.020	0.029
-651.828	-112.913	0.125	0.025
-650.814	-11.988	-0.142	0.094
-649.799	-3.973	-0.393	-0.275
-648.784	198.966	-0.127	0.197
-647.770	-31.652	0.255	0.144
-646.755	75.489	0.148	-0.157
-645.741	-89.239	0.107	-0.032
-644.726	-165.416	0.135	0.006
-643.711	-131.406	-0.173	0.023
-642.697	800.000	-0.023	-0.073
-641.682	-56.211	-0.171	-0.077
-640.668	800.000	0.072	-0.269
-639.653	-124.224	0.390	-0.062
-638.638	765.992	-0.119	-0.327
-637.624	800.000	0.091	0.270
-636.609	-153.710	0.064	-0.004
-635.595	800.000	0.094	-0.380
-634.580	-200.000	0.010	-0.138
-633.565	332.616	-0.026	-0.051
-632.551	-19.887	0.060	-0.037
-631.536	39.399	-0.092	-0.083
-630.522	399.309	0.104	-0.221
-629.507	-200.000	0.044	0.265
-628.492	800.000	-0.041	0.128
-627.478	136.587	-0.274	-0.360
-626.463	-200.000	-0.007	-0.198
-625.449	-56.528	0.067	0.030
-624.434	375.737	-0.028	0.059
-623.419	-104.396	0.227	-0.053
-622.405	588.468	0.111	0.275
-621.390	120.863	-0.273	-0.342
-620.376	106.293	0.197	-0.234
-619.361	800.000	0.068	0.228
-618.346	208.447	0.209	0.328
-617.332	47.978	-0.112	-0.105
-616.317	-110.988	0.186	-0.039
-615.303	306.316	0.132	0.247
-614.288	-3.456	-0.443	0.310
-613.273	-64.635	0.216	-0.088
-612.259	-116.513	-0.083	0.015
-611.244	598.432	0.053	0.132
-610.230	-155.511	0.351	-0.023
-609.215	205.558	-0.118	0.185
-608.201	-81.403	-0.235	-0.078
-607.186	148.012	0.114	0.155
-606.171	-14.020	0.089	0.058
-605.157	800.000	-0.152	-0.436
-604.142	-54.715	-0.074	-0.034
-603.128	-17.562	0.388	0.245
-602.113	-120.383	-0.260	0.045
-601.098	-18.129	-0.303	0.191
-600.084	23.386	0.276	-0.228
-599.069	-200.000	-0.018	0.372
-598.055	-98.165	0.125	-0.032
-597.040	299.833	0.113	0.210
-596.025	-60.774	0.040	-0.017
-595.011	800.000	-0.042	0.140
-593.996	-84.303	0.235	-0.075
-592.982	-200.000	0.012	-0.086
-591.967	-200.000	0.045	-0.403
-590.952	-200.000	0.008	-0.137
-589.938	-200.000	-0.009	-0.166
-588.923	106.342	-0.174	-0.207
-587.909	-99.767	-0.198	0.050
-586.894	-56.797	-0.134	0.060
-585.879	800.000	-0.084	0.270
-584.865	-200.000	-0.061	-0.271
-583.850	32.805	-0.085	0.074
-582.836	-167.694	0.259	-0.010
-581.821	80.140	0.054	-0.059
-580.806	308.720	-0.077	0.145
-579.792	-8.924	0.199	0.134
-578.777	-45.774	-0.229	-0.114
-577.763	280.785	0.084	-0.151
-576.748	635.582	0.096	0.244
-575.733	-22.420	0.119	-0.073
-574.719	-26.014	-0.294	0.174
-573.704	-91.433	0.476	0.137
-572.690	-77.007	0.326	0.115
-571.675	55.381	-0.194	-0.189
-570.661	-107.305	0.366	0.081
-569.646	-90.178	-0.325	0.095
-568.631	800.000	-0.056	0.170
-567.617	-79.189	0.121	0.041
-566.602	771.020	0.076	-0.208
-565.588	-200.000	0.022	-0.234
-564.573	-104.488	0.127	0.030
-563.558	-42.585	0.161	0.082
-562.544	73.161	0.143	-0.150
-561.529	515.013	-0.144	-0.337
-560.515	-145.000	-0.143	0.013
-559.500	-126.194	-0.230	0.035
-558.485	296.631	-0.187	-0.344
-557.471	800.000	0.107	-0.299
-556.456	59.641	0.121	-0.120
-555.442	479.337	-0.022	0.051
-554.427	109.818	0.303	0.365
-553.412	421.123	-0.167	-0.359
-552.398	-10.380	-0.264	-0.176
-551.383	-21.486	0.335	0.205
-550.369	-86.210	-0.219	-0.068
-549.354	-200.000	0.031	-0.160
-548.339	190.994	-0.099	0.150
-547.325	-126.934	-0.384	0.057
-546.310	654.494	-0.085	-0.219
-545.296	-16.506	0.060	0.038
-544.281	-200.000	0.014	-0.074
-543.266	-72.444	-0.156	0.058
-542.252	-53.611	0.130	-0.060
-541.237	193.959	0.147	-0.224
-540.223	-200.000	0.027	-0.128
-539.208	470.071	-0.038	-0.085
-538.193	-200.000	0.000	-0.015
-537.179	-102.671	0.182	-0.043
-536.164	-200.000	0.023	0.162
-535.150	-53.560	-0.077	-0.035
-534.135	-129.296	-0.063	0.009
-533.121	-6.735	-0.227	0.155
-532.106	59.354	0.162	0.160
-531.091	313.948	0.177	-0.334
-530.077	-28.990	-0.213	-0.123
-529.062	51.290	-0.103	-0.099
-528.048	84.799	0.323	-0.355
-527.033	47.496	0.110	0.103
-526.018	-69.675	0.329	-0.126
-525.004	-74.985	0.071	-0.025
-523.989	568.338	-0.101	-0.245
-522.975	44.138	-0.065	-0.060
-521.960	-37.670	-0.197	0.105
-520.945	-26.069	-0.336	-0.198
-519.931	-12.801	0.378	-0.247
-518.916	-96.757	0.167	0.044
-517.902	800.000	-0.040	0.113
-516.887	-200.000	0.027	-0.317
-515.872	800.000	-0.025	-0.092
-514.858	178.145	0.159	-0.232
-513.843	-128.973	-0.167	-0.024
-512.829	12.647	0.284	-0.220
-511.814	-144.514	-0.140	-0.013
-510.799	800.000	0.128	-0.364
-509.785	670.046	-0.019	0.050
-508.770	-123.710	-0.078	-0.012
-507.756	-200.000	-0.016	0.212
-506.741	800.000	-0.039	-0.132
-505.726	-49.811	0.143	-0.068
-504.712	36.574	-0.162	0.143
-503.697	-16.284	-0.205	0.130
-502.683	6.714	0.310	0.232
-501.668	376.279	0.064	-0.131
-500.653	-55.811	-0.041	0.018
-499.639	92.983	-0.090	0.102
-498.624	-81.777	0.167	0.055
-497.610	13.822	-0.255	-0.199
-496.595	-164.725	-0.280	0.013
-495.581	800.000	-0.017	-0.066
-494.566	276.296	0.116	0.207
-493.551	509.307	0.064	-0.150
-492.537	-58.974	0.204	-0.088
-491.522	49.345	0.081	0.076
-490.508	19.712	-0.176	-0.142
-489.493	800.000	0.080	-0.245
-488.478	-95.471	0.153	0.041
-487.464	-59.500	-0.327	-0.140
-486.449	-113.089	0.296	-0.058
-485.435	-72.824	0.145	-0.054
-484.420	710.329	-0.114	-0.302
-483.405	-105.299	0.174	0.040
-482.391	-7.801	0.042	-0.029
-481.376	-114.251	-0.151	-0.029
-480.362	800.000	-0.072	0.209
-479.347	4.987	0.156	0.115
-478.332	-123.819	0.197	0.031
-477.318	155.573	0.024	-0.034
-476.303	-70.270	0.296	0.113
-475.289	456.172	0.069	-0.154
-474.274	-66.065	0.238	-0.095
-473.259	-36.612	-0.155	-0.083
-472.245	416.854	0.078	-0.166
-471.230	-200.000	-0.003	0.103
-470.216	-132.713	0.229	-0.029
-469.201	-19.649	0.231	-0.143
-468.186	800.000	-0.045	-0.145
-467.172	-103.335	0.207	-0.049
-466.157	-26.149	-0.213	-0.126
-465.143	-69.725	0.362	-0.138
-464.128	-120.291	-0.453	0.077
-463.113	-46.329	-0.165	-0.081
-462.099	-17.925	0.047	0.030
-461.084	92.516	-0.194	-0.219
-460.070	102.889	0.070	-0.082
-459.055	-200.000	-0.370	0.002
-458.040	800.000	-0.102	0.290
-457.026	-34.865	-0.189	0.103
-456.011	-200.000	0.015	-0.139
-454.997	-63.487	0.234	-0.096
-453.982	-130.315	0.153	0.021
-452.968	-141.664	0.207	-0.021
-451.953	181.020	-0.266	-0.391
-450.938	-171.381	0.051	-0.002
-449.924	398.126	0.182	-0.381
-448.909	-1.010	0.252	0.178
-447.895	95.090	-0.074	-0.084
-446.880	-35.347	-0.137	-0.075
-445.865	114.572	0.215	-0.262
-444.851	15.774	-0.208	-0.163
-443.836	-68.661	-0.188	0.073
-442.822	-99.765	0.259	-0.065
-441.807	-105.145	0.083	0.019
-440.792	-146.994	-0.106	0.009
-439.778	-200.000	0.014	0.067
-438.763	412.900	-0.150	-0.318
-437.749	-85.915	0.119	-0.037
-436.734	-16.505	0.061	-0.038
-435.719	280.291	-0.128	0.229
-434.705	-27.916	0.222	0.128
-433.690	-130.199	-0.366	-0.050
-432.676	-130.755	-0.370	0.050
-431.661	-141.771	-0.472	-0.047
-430.646	1.087	0.193	0.138
-429.632	150.537	0.123	-0.167
-428.617	-7.615	-0.149	-0.101
-427.603	-131.668	-0.206	-0.027
-426.588	-200.000	-0.022	-0.102
-425.573	72.046	0.077	-0.080
-424.559	-131.940	-0.152	0.020
-423.544	375.643	0.109	-0.222
-422.530	-200.000	0.001	0.103
-421.515	-9.592	0.174	-0.116
-420.500	714.223	-0.077	0.205
-419.486	-165.940	-0.305	-0.013
-418.471	14.612	-0.034	0.027
-417.457	-83.656	-0.206	0.066
-416.442	137.759	-0.331	0.434
-415.428	116.335	-0.115	0.140
-414.413	13.153	-0.112	-0.087
-413.398	415.504	0.079	0.169
-412.384	-118.541	0.331	0.058
-411.369	0.476	0.239	0.171
-410.355	618.029	0.109	0.273
-409.340	-93.335	-0.263	0.073
-408.325	196.930	-0.161	-0.245
-407.311	-181.007	-0.050	-0.001
-406.296	0.096	0.236	-0.168
-405.282	-90.603	0.251	0.072
-404.267	-122.527	-0.017	-0.003
-403.252	-21.936	-0.325	0.197
-402.238	-75.571	-0.216	0.077
-401.223	24.832	0.276	-0.229
-400.209	658.373	0.122	-0.312
-399.194	-200.000	0.015	-0.429
-398.179	800.000	-0.072	-0.199
-397.165	500.733	0.149	0.343
-396.150	800.000	-0.023	0.083
-395.136	-200.000	-0.039	0.204
-394.121	-16.758	0.205	0.129
-393.106	-200.000	-0.018	0.468
-392.092	640.440	-0.013	0.032
-391.077	-55.777	0.243	-0.108
-390.063	-171.994	-0.525	0.017
-389.048	800.000	0.065	0.195
-388.033	-135.276	0.034	0.004
-387.019	-183.310	0.338	-0.006
-386.004	70.938	0.166	0.171
-384.990	-116.341	0.493	0.091
-383.975	800.000	0.108	0.337
-382.960	-36.590	-0.060	-0.032
-381.946	800.000	-0.066	0.215
-380.931	-200.000	0.029	0.321
-379.917	145.272	-0.041	-0.054
-378.902	135.274	-0.033	-0.043
-377.888	-200.000	-0.071	-0.343
-376.873	-200.000	0.030	-0.195
-375.858	1.706	0.427	0.307
-374.844	320.799	-0.020	-0.038
-373.829	-102.529	-0.090	-0.021
-372.815	354.778	-0.048	0.095
-371.800	800.000	-0.022	0.092
-370.785	66.471	-0.266	0.269
-369.771	-200.000	0.031	0.154
-368.756	-30.411	0.198	0.112
-367.742	-200.000	0.028	0.179
-366.727	97.635	-0.316	0.362
-365.712	-40.430	-0.285	-0.148
-364.698	34.932	0.037	0.032
-363.683	69.256	0.044	-0.045
-362.669	329.779	-0.092	0.176
-361.654	47.888	0.178	0.165
-360.639	94.663	-0.326	0.369
-359.625	-111.021	-0.106	0.022
-358.610	800.000	-0.106	-0.296
-357.596	42.575	-0.286	-0.260
-356.581	-200.000	0.012	-0.321
-355.566	-85.182	0.266	0.083
-354.552	-120.297	-0.413	0.070
-353.537	-42.926	-0.139	-0.070
-352.523	-200.000	0.045	0.246
-351.508	242.183	-0.160	0.266
-350.493	-200.000	-0.001	-0.149
-349.479	-200.000	-0.059	-0.396
-348.464	-102.269	0.229	0.055
-347.450	604.715	0.094	-0.233
-346.435	0.213	0.115	0.082
-345.420	8.765	-0.089	-0.067
-344.406	-25.345	0.163	-0.096
-343.391	-127.122	0.128	0.019
-342.377	800.000	0.091	-0.304
-341.362	800.000	-0.101	0.395
-340.348	-23.818	-0.238	0.142
-339.333	650.883	-0.192	-0.490
-338.318	-128.585	0.479	0.068
-337.304	202.566	0.038	0.058
-336.289	-152.822	0.093	0.007
-335.275	237.014	-0.129	-0.213
-334.260	-77.321	0.255	-0.088
-333.245	39.108	0.144	-0.128
-332.231	-77.487	-0.191	0.066
-331.216	310.771	0.051	0.095
-330.202	3.199	0.084	-0.061
-329.187	800.000	-0.034	-0.098
-328.172	-116.255	-0.234	0.043
-327.158	-200.000	0.056	0.475
-326.143	0.645	-0.195	0.139
-325.129	259.207	-0.017	-0.029
-324.114	-200.000	0.008	0.085
-323.099	277.897	-0.043	-0.077
-322.085	27.940	-0.056	-0.047
-321.070	58.576	-0.249	-0.243
-320.056	-92.568	-0.077	-0.022
-319.041	-33.131	-0.272	-0.150
-318.026	-59.542	-0.189	0.081
-317.012	143.205	-0.204	0.270
-315.997	-94.574	-0.113	-0.031
-314.983	-175.022	0.308	0.009
-313.968	-18.018	-0.186	-0.116
-312.953	37.006	-0.203	0.178
-311.939	-61.388	-0.140	-0.058
-310.924	800.000	0.083	0.264
-309.910	80.787	-0.102	-0.109
-308.895	199.526	0.050	-0.076
-307.880	62.582	0.234	-0.232
-306.866	-54.857	-0.160	0.072
-305.851	-67.539	0.087	-0.034
-304.837	800.000	0.064	0.204
-303.822	-101.111	0.201	-0.049
-302.807	-130.591	0.191	-0.026
-301.793	92.710	0.097	0.109
-300.778	42.739	-0.098	-0.089
-299.764	-200.000	-0.002	0.042
-298.749	-43.939	-0.263	-0.132
-297.735	75.245	-0.094	-0.099
-296.720	137.763	0.176	0.229
-295.705	-82.238	0.217	-0.070
-294.691	-106.749	0.064	-0.014
-293.676	27.320	0.233	0.195
-292.662	122.019	-0.098	0.121
-291.647	-200.000	0.004	0.029
-290.632	-200.000	0.022	0.149
-289.618	-78.914	0.080	-0.027
-288.603	800.000	0.011	-0.032
-287.589	124.757	-0.124	-0.155
-286.574	54.128	0.073	0.069
-285.559	319.510	-0.032	-0.061
-284.545	800.000	-0.060	0.235
-283.530	295.721	0.045	-0.082
-282.516	47.284	0.234	0.216
-281.501	-200.000	0.000	-0.041
-280.486	-29.885	-0.485	-0.275
-279.472	-167.810	0.289	0.011
-278.457	-176.607	-0.265	0.007
-277.443	-107.206	-0.235	0.051
-276.428	18.332	0.322	0.255
-275.413	165.903	0.135	0.189
-274.399	-200.000	0.027	0.130
-273.384	-200.000	0.040	0.253
-272.370	55.322	0.203	0.195
-271.355	-39.607	-0.311	0.162
-270.340	-112.116	-0.162	0.032
-269.326	90.101	-0.135	0.150
-268.311	487.595	-0.138	0.314
-267.297	-145.222	0.325	0.029
-266.282	358.345	-0.058	0.114
-265.267	-82.094	0.148	-0.048
-264.253	-184.203	-0.149	0.002
-263.238	-200.000	0.020	0.150
-262.224	-92.750	0.105	-0.029
-261.209	-41.244	-0.097	-0.050
-260.195	-56.738	0.128	-0.056
-259.180	-200.000	0.023	0.106
-258.165	480.379	-0.067	0.151
-257.151	7.147	0.272	0.201
-256.136	-82.088	-0.204	0.066
-255.122	-49.991	-0.198	-0.093
-254.107	-200.000	-0.004	0.088
-253.092	206.706	-0.089	0.138
-252.078	239.875	0.100	-0.166
-251.063	270.962	0.071	0.124
-250.049	8.713	0.299	-0.224
-249.034	39.888	0.043	-0.038
-248.019	-200.000	0.006	0.077
-247.005	-131.835	-0.415	-0.054
-245.990	-39.408	0.113	0.059
-244.976	679.171	-0.050	0.128
-243.961	800.000	0.046	0.158
-242.946	-139.494	-0.225	0.024
-241.932	-67.260	-0.289	-0.113
-240.917	-200.000	0.013	0.069
-239.903	-200.000	0.007	0.102
-238.888	-200.000	-0.005	-0.035
-237.873	-200.000	0.000	0.004
-236.859	-38.772	0.101	-0.053
-235.844	378.023	0.107	-0.218
-234.830	14.311	-0.382	0.296
-233.815	-38.902	0.459	-0.240
-232.800	-200.000	0.037	0.192
-231.786	230.382	0.116	0.188
-230.771	-77.811	0.098	-0.034
-229.757	-126.476	0.159	-0.023
-228.742	-58.693	-0.217	-0.093
-227.727	35.380	0.091	-0.079
-226.713	268.750	-0.029	0.050
-225.698	-19.943	0.134	-0.082
-224.684	-200.000	-0.026	0.219
-223.669	-159.452	-0.144	-0.008
-222.655	123.626	-0.278	0.346
-221.640	-200.000	-0.001	0.150
-220.625	158.965	0.218	-0.300
-219.611	-200.000	0.003	-0.121
-218.596	800.000	0.008	-0.029
-217.582	-1.470	0.135	-0.094
-216.567	330.413	0.213	0.406
-215.552	72.979	-0.056	0.058
-214.538	-114.175	-0.233	0.045
-213.523	-5.332	0.047	0.032
-212.509	-69.094	-0.109	0.042
-211.494	-200.000	0.019	0.119
-210.479	-21.207	0.396	0.240
-209.465	-54.006	0.302	-0.136
-208.450	216.362	0.094	0.148
-207.436	-200.000	-0.017	-0.143
-206.421	-54.712	0.078	0.035
-205.406	-52.029	0.030	-0.014
-204.392	800.000	-0.048	-0.164
-203.377	-49.202	0.100	0.048
-202.363	-200.000	0.056	0.338
-201.348	800.000	0.087	-0.243
-200.333	-71.842	-0.333	-0.123
-199.319	-200.000	-0.068	-0.326
-198.304	474.771	-0.119	0.267
-197.290	-146.932	-0.083	0.007
-196.275	141.923	-0.240	-0.316
-195.260	-68.923	0.407	0.156
-194.246	278.735	-0.127	-0.225
-193.231	-169.662	-0.242	-0.009
-192.217	800.000	0.125	0.498
-191.202	-54.734	0.149	-0.067
-190.187	41.685	-0.188	0.169
-189.173	173.437	0.184	-0.262
-188.158	-200.000	-0.011	0.171
-187.144	-69.901	0.204	0.077
-186.129	800.000	0.039	-0.122
-185.114	51.492	-0.044	-0.041
-184.100	201.795	-0.126	-0.193
-183.085	159.889	-0.229	0.316
-182.071	-78.638	-0.125	-0.042
-181.056	-58.104	-0.223	-0.096
-180.042	560.459	-0.085	0.204
-179.027	304.898	0.039	0.071
-178.012	522.521	0.098	-0.228
-176.998	-200.000	0.001	-0.189
-175.983	800.000	-0.095	0.301
-174.969	-200.000	0.004	-0.097
-173.954	-44.243	-0.083	-0.041
-172.939	65.736	-0.086	0.086
-171.925	30.865	-0.068	-0.058
-170.910	-130.455	0.205	-0.027
-169.896	-200.000	-0.043	0.229
-168.881	114.286	0.288	0.347
-167.866	-0.471	-0.190	0.134
-166.852	183.297	-0.170	0.248
-165.837	23.902	0.053	0.043
-164.823	-120.721	-0.155	0.026
-163.808	-200.000	0.011	0.184
-162.793	800.000	-0.053	-0.224
-161.779	422.594	-0.134	-0.285
-160.764	-200.000	0.061	0.323
-159.750	-200.000	0.040	-0.313
-158.735	-185.557	0.114	-0.002
-157.720	-6.815	0.209	-0.141
-156.706	-148.604	-0.351	0.028
-155.691	-200.000	-0.053	0.369
-154.677	704.556	-0.157	0.410
-153.662	-33.770	-0.195	-0.107
-152.647	559.618	-0.149	-0.355
-151.633	-66.008	0.187	0.074
-150.618	-117.702	0.274	-0.049
-149.604	541.994	-0.118	0.278
-148.589	-119.641	0.222	-0.038
-147.574	340.114	-0.064	0.122
-146.560	177.580	-0.035	0.050
-145.545	64.218	-0.138	0.137
-144.531	-128.005	-0.177	-0.025
-143.516	49.450	0.142	0.132
-142.502	29.403	0.241	-0.203
-141.487	333.294	-0.131	-0.250
-140.472	6.815	-0.154	0.113
-139.458	-151.634	-0.118	0.009
-138.443	800.000	0.055	0.232
-137.429	35.478	-0.031	-0.027
-136.414	-200.000	-0.005	-0.043
-135.399	-81.668	-0.073	0.024
-134.385	-103.858	0.641	0.148
-133.370	-133.677	0.202	-0.025
-132.356	119.665	-0.115	-0.141
-131.341	-71.074	0.129	-0.048
-130.326	-47.389	-0.122	0.059
-129.312	30.157	0.263	0.222
-128.297	-162.076	-0.471	0.023
-127.283	-57.157	0.076	0.033
-126.268	-24.920	0.294	0.173
-125.253	-44.174	0.256	-0.127
-124.239	800.000	-0.080	-0.219
-123.224	-189.456	0.209	0.002
-122.210	428.229	0.137	-0.292
-121.195	156.403	-0.082	0.112
