DTS Sentinel unit serial number:	SN413079Multiplexer serial number:	ORYXHardware model number:	OX4-SRSoftware version number:	ORYX F/W v4.00 Oryx Data Collector v3.7.2.0data status	okinstallation	princeton_trtdifferential loss correction	single-endedforward channel	channel 3reverse channel	N/Adate	2019/09/17time	22:36:34forward acquisition time	60.00reverse acquisition time	0.00gamma	496.2192k internal	0.2344k external	0.2344temperature offset calibration	0.9952default loss term (dB/km)	0.3790temperature slope calibration	1.0000multiplexer offset coefficient	1.0000multiplexer slope coefficient	1.0000fibre end	0.00T internal ref (°C)	25.19T ext. ref 1 (°C)	0.18T ext. ref 2 (°C)	18.49length (m)	temperature (°C)	Stokes	anti-Stokes-747.200	-0.408	0.124	0.088
-746.185	800.000	-0.038	-0.128
-745.171	-138.770	0.336	0.037
-744.156	800.000	-0.123	0.364
-743.142	-59.754	0.133	0.057
-742.127	-19.824	-0.162	0.100
-741.112	800.000	0.015	0.045
-740.098	139.403	-0.126	0.166
-739.083	-200.000	-0.000	0.286
-738.069	514.942	-0.054	0.126
-737.054	4.816	0.259	-0.190
-736.039	630.452	0.039	0.098
-735.025	46.119	-0.152	0.141
-734.010	-89.225	-0.113	0.033
-732.996	-113.897	0.216	-0.042
-731.981	-200.000	0.001	-0.296
-730.966	185.451	0.180	-0.267
-729.952	-54.821	-0.146	-0.066
-728.937	486.671	0.047	-0.108
-727.923	-200.000	-0.006	-0.056
-726.908	692.293	-0.165	-0.432
-725.894	338.442	0.175	-0.340
-724.879	-44.936	-0.247	0.123
-723.864	-62.049	-0.280	0.117
-722.850	142.908	-0.179	-0.238
-721.835	800.000	-0.053	-0.156
-720.821	-200.000	0.006	-0.089
-719.806	451.081	-0.173	-0.382
-718.791	-200.000	-0.001	-0.304
-717.777	198.289	0.038	-0.059
-716.762	507.744	-0.020	0.046
-715.748	-51.364	-0.241	-0.113
-714.733	-160.090	-0.304	0.017
-713.718	-105.110	-0.245	-0.056
-712.704	-102.315	-0.430	0.103
-711.689	-20.238	0.282	-0.174
-710.675	63.064	-0.092	-0.092
-709.660	-200.000	0.002	-0.266
-708.645	234.144	0.254	-0.418
-707.631	-189.993	-0.301	-0.003
-706.616	-152.805	0.147	0.010
-705.602	245.323	-0.048	0.081
-704.587	18.980	-0.299	-0.240
-703.572	-160.347	0.315	0.017
-702.558	271.723	0.036	0.064
-701.543	132.888	-0.083	-0.107
-700.529	192.155	-0.117	0.176
-699.514	-200.000	0.013	0.410
-698.499	81.696	-0.134	-0.145
-697.485	105.224	-0.053	0.063
-696.470	233.402	0.233	0.383
-695.456	-155.259	-0.388	0.025
-694.441	-200.000	-0.042	-0.269
-693.426	532.399	0.239	-0.566
-692.412	-101.041	-0.111	0.027
-691.397	20.218	-0.134	0.108
-690.383	-200.000	-0.020	-0.092
-689.368	266.005	-0.153	-0.267
-688.354	-107.382	-0.217	-0.048
-687.339	270.566	0.042	0.073
-686.324	-200.000	0.042	-0.228
-685.310	227.443	0.029	-0.048
-684.295	46.121	-0.135	0.125
-683.281	-200.000	0.042	-0.241
-682.266	96.331	-0.200	-0.228
-681.251	-54.226	-0.131	-0.059
-680.237	-152.806	-0.231	0.016
-679.222	-200.000	0.036	-0.395
-678.208	800.000	-0.044	0.141
-677.193	-200.000	0.022	-0.141
-676.178	-200.000	-0.040	0.182
-675.164	-86.695	0.154	-0.047
-674.149	-200.000	0.003	0.153
-673.135	65.849	0.201	0.203
-672.120	-111.241	-0.337	0.069
-671.105	169.007	0.179	-0.255
-670.091	-68.255	0.186	-0.072
-669.076	55.644	-0.107	-0.103
-668.062	-3.446	-0.171	0.119
-667.047	-33.643	-0.198	0.109
-666.032	86.366	0.273	-0.300
-665.018	106.500	0.086	-0.102
-664.003	269.335	-0.076	-0.133
-662.989	-139.371	0.370	0.040
-661.974	295.645	0.108	-0.197
-660.959	-60.871	-0.039	0.017
-659.945	686.193	-0.056	-0.147
-658.930	95.800	0.037	0.043
-657.916	-39.784	-0.272	-0.142
-656.901	-82.290	0.340	-0.110
-655.886	26.610	0.084	-0.070
-654.872	103.387	-0.116	0.136
-653.857	-47.121	0.067	0.033
-652.843	-141.271	0.038	0.004
-651.828	-200.000	-0.052	0.363
-650.814	800.000	-0.047	0.133
-649.799	-160.946	0.448	0.023
-648.784	-119.297	-0.488	-0.085
-647.770	-37.919	0.242	0.128
-646.755	184.188	0.047	-0.069
-645.741	99.565	0.075	0.087
-644.726	5.187	0.137	0.101
-643.711	52.748	0.102	-0.098
-642.697	-86.662	0.153	-0.047
-641.682	800.000	0.092	0.284
-640.668	-21.773	0.251	-0.152
-639.653	215.137	-0.072	0.113
-638.638	800.000	0.051	0.172
-637.624	671.151	-0.078	-0.202
-636.609	-1.052	-0.138	-0.097
-635.595	169.445	0.094	-0.133
-634.580	-200.000	-0.021	-0.327
-633.565	134.911	0.057	0.074
-632.551	-97.853	0.253	-0.065
-631.536	-85.618	-0.089	0.028
-630.522	-124.994	-0.082	0.013
-629.507	-200.000	0.000	-0.318
-628.492	125.221	-0.178	-0.223
-627.478	-58.154	-0.304	-0.132
-626.463	-6.573	0.038	0.026
-625.449	-116.784	-0.249	-0.045
-624.434	800.000	-0.056	-0.162
-623.419	-200.000	0.025	-0.153
-622.405	105.839	0.025	0.029
-621.390	-61.407	-0.251	0.105
-620.376	-200.000	-0.033	-0.302
-619.361	-176.051	-0.183	0.005
-618.346	236.667	-0.043	-0.072
-617.332	11.961	-0.061	-0.047
-616.317	386.599	0.031	0.064
-615.303	-71.901	0.129	0.048
-614.288	44.137	-0.261	0.238
-613.273	414.649	-0.105	-0.224
-612.259	-200.000	0.085	-0.402
-611.244	800.000	-0.026	0.083
-610.230	-9.998	0.216	0.143
-609.215	47.468	0.111	0.103
-608.201	-35.422	0.042	0.023
-607.186	-159.754	0.220	0.012
-606.171	-87.638	0.256	0.077
-605.157	265.976	0.025	-0.043
-604.142	-92.810	-0.455	0.127
-603.128	259.314	-0.152	0.262
-602.113	9.526	0.200	0.151
-601.098	273.944	0.075	-0.133
-600.084	321.273	-0.038	-0.073
-599.069	-200.000	0.018	-0.444
-598.055	-67.894	-0.505	-0.196
-597.040	-23.648	0.048	-0.029
-596.025	-148.345	-0.116	0.010
-595.011	44.072	-0.116	-0.105
-593.996	700.780	-0.051	0.134
-592.982	-178.449	-0.125	0.003
-591.967	-200.000	-0.026	0.206
-590.952	-195.500	0.171	0.001
-589.938	-60.922	0.078	0.033
-588.923	165.696	-0.024	-0.033
-587.909	-2.861	0.110	0.076
-586.894	260.325	0.177	-0.305
-585.879	-200.000	0.007	0.214
-584.865	21.568	-0.370	0.299
-583.850	-96.376	-0.200	0.053
-582.836	571.044	0.154	0.372
-581.821	354.313	0.063	0.125
-580.806	345.143	-0.039	-0.075
-579.792	-200.000	-0.001	-0.276
-578.777	626.971	-0.053	-0.133
-577.763	-86.880	0.056	-0.017
-576.748	-200.000	-0.025	-0.215
-575.733	170.371	0.021	0.030
-574.719	-36.019	0.241	0.130
-573.704	-200.000	-0.013	-0.464
-572.690	150.491	-0.234	-0.317
-571.675	209.248	-0.077	-0.119
-570.661	201.294	0.120	0.184
-569.646	345.049	-0.052	-0.101
-568.631	-200.000	-0.037	-0.288
-567.617	-69.245	0.092	-0.035
-566.602	-38.997	-0.147	0.077
-565.588	236.982	0.050	0.082
-564.573	-200.000	0.016	0.076
-563.558	-55.490	-0.170	-0.076
-562.544	-99.946	0.155	-0.038
-561.529	10.474	-0.214	0.162
-560.515	-44.111	-0.048	-0.024
-559.500	188.414	-0.152	0.226
-558.485	-131.558	-0.232	0.030
-557.471	-176.769	0.101	0.003
-556.456	-30.902	0.210	-0.118
-555.442	-142.688	-0.114	-0.011
-554.427	-84.573	0.268	-0.084
-553.412	-2.385	0.175	0.122
-552.398	-82.668	-0.240	0.077
-551.383	800.000	-0.110	-0.359
-550.369	-200.000	0.027	-0.253
-549.354	-127.496	-0.314	-0.045
-548.339	1.842	-0.176	-0.126
-547.325	-200.000	-0.015	0.153
-546.310	27.064	-0.085	-0.071
-545.296	296.716	0.170	-0.310
-544.281	-104.439	-0.083	0.019
-543.266	-157.934	0.306	-0.018
-542.252	-21.812	-0.073	-0.044
-541.237	-200.000	0.037	-0.350
-540.223	-100.856	-0.157	-0.038
-539.208	236.835	-0.087	-0.144
-538.193	-16.143	-0.147	-0.093
-537.179	-200.000	-0.024	0.186
-536.164	61.251	0.190	-0.188
-535.150	-71.235	-0.263	-0.098
-534.135	-67.668	-0.057	0.022
-533.121	-200.000	-0.046	0.254
-532.106	-27.413	-0.148	0.085
-531.091	-87.301	-0.145	0.044
-530.077	800.000	-0.094	-0.305
-529.062	206.020	-0.110	0.169
-528.048	-9.546	0.167	0.110
-527.033	372.887	-0.010	-0.020
-526.018	451.514	-0.075	-0.164
-525.004	-80.938	0.209	0.069
-523.989	-65.216	-0.126	0.050
-522.975	800.000	-0.063	0.193
-521.960	46.696	-0.259	-0.239
-520.945	25.806	0.079	-0.065
-519.931	-46.650	-0.091	0.044
-518.916	487.751	-0.071	-0.161
-517.902	76.940	-0.046	0.048
-516.887	331.345	-0.048	0.092
-515.872	-30.770	-0.218	0.123
-514.858	305.203	-0.064	-0.118
-513.843	63.367	0.155	-0.154
-512.829	139.182	0.052	0.067
-511.814	800.000	-0.020	0.068
-510.799	-200.000	-0.017	0.145
-509.785	800.000	0.036	0.100
-508.770	-100.814	-0.179	-0.044
-507.756	142.282	-0.044	0.058
-506.741	-200.000	0.026	-0.315
-505.726	2.585	0.048	0.034
-504.712	-143.304	0.244	0.023
-503.697	260.856	0.131	-0.225
-502.683	182.890	-0.217	0.317
-501.668	-200.000	-0.029	-0.222
-500.653	120.041	-0.069	-0.085
-499.639	753.669	-0.046	-0.123
-498.624	800.000	0.013	-0.053
-497.610	-29.647	-0.147	0.083
-496.595	-200.000	-0.018	0.234
-495.581	-70.657	-0.216	-0.081
-494.566	-42.481	-0.208	-0.105
-493.551	162.737	-0.137	0.191
-492.537	-200.000	-0.000	0.369
-491.522	216.830	-0.043	0.068
-490.508	151.760	-0.133	0.179
-489.493	-200.000	-0.053	0.246
-488.478	104.547	-0.188	-0.220
-487.464	20.137	0.094	0.076
-486.449	-200.000	-0.108	0.479
-485.435	800.000	0.067	-0.244
-484.420	-114.114	-0.451	-0.086
-483.405	-200.000	0.000	-0.092
-482.391	131.317	0.128	0.163
-481.376	-23.607	0.130	0.077
-480.362	25.006	0.232	0.191
-479.347	40.781	0.119	-0.106
-478.332	41.464	0.086	0.077
-477.318	140.336	-0.127	0.166
-476.303	-17.405	0.342	0.213
-475.289	-65.420	0.257	-0.102
-474.274	-200.000	-0.016	-0.132
-473.259	265.154	0.193	0.333
-472.245	8.715	-0.325	0.242
-471.230	-200.000	0.018	0.251
-470.216	413.036	-0.164	-0.345
-469.201	-7.278	-0.222	-0.149
-468.186	149.120	0.148	0.199
-467.172	-108.436	-0.338	0.072
-466.157	800.000	0.063	-0.267
-465.143	-200.000	-0.005	-0.081
-464.128	369.912	0.013	-0.025
-463.113	-43.409	0.295	-0.148
-462.099	-200.000	-0.032	-0.342
-461.084	-200.000	0.017	0.177
-460.070	406.625	-0.060	0.126
-459.055	-18.637	0.265	0.163
-458.040	-200.000	0.000	0.106
-457.026	-200.000	-0.017	0.111
-456.011	84.914	0.149	0.162
-454.997	-90.932	0.264	0.075
-453.982	-62.143	-0.202	0.083
-452.968	173.805	-0.070	-0.100
-451.953	182.128	-0.095	0.139
-450.938	104.844	0.046	0.053
-449.924	194.357	0.082	0.124
-448.909	169.974	0.233	0.329
-447.895	-200.000	-0.025	0.237
-446.880	128.706	0.167	0.210
-445.865	-171.965	0.271	-0.009
-444.851	-66.780	-0.204	0.080
-443.836	800.000	-0.080	0.317
-442.822	-132.752	-0.112	-0.014
-441.807	314.233	-0.081	0.151
-440.792	579.515	0.119	-0.287
-439.778	-84.245	0.014	0.004
-438.763	51.658	0.203	0.191
-437.749	404.190	-0.094	0.196
-436.734	-39.033	-0.025	0.013
-435.719	800.000	0.050	0.187
-434.705	-112.253	-0.264	-0.052
-433.690	5.513	0.184	0.134
-432.676	-200.000	-0.055	-0.264
-431.661	23.125	0.042	0.034
-430.646	-151.081	-0.087	0.006
-429.632	800.000	0.024	-0.098
-428.617	449.377	-0.184	0.400
-427.603	32.512	0.173	-0.148
-426.588	474.084	-0.037	0.083
-425.573	451.824	0.124	-0.271
-424.559	18.507	-0.350	-0.277
-423.544	-139.894	-0.479	-0.050
-422.530	-200.000	-0.005	-0.094
-421.515	-84.507	-0.107	0.033
-420.500	-14.020	0.141	-0.090
-419.486	65.629	-0.235	0.235
-418.471	-27.461	0.159	0.091
-417.457	33.791	0.193	-0.166
-416.442	-127.455	-0.295	0.042
-415.428	-38.881	0.091	-0.048
-414.413	-40.012	0.033	0.017
-413.398	800.000	-0.056	-0.169
-412.384	163.516	-0.241	0.335
-411.369	-200.000	-0.005	-0.290
-410.355	-200.000	-0.058	-0.332
-409.340	-29.542	0.283	-0.160
-408.325	6.409	0.137	0.100
-407.311	362.190	0.070	-0.140
-406.296	-200.000	-0.323	-0.000
-405.282	-200.000	0.037	-0.291
-404.267	-8.769	-0.168	0.112
-403.252	-14.709	-0.230	0.146
-402.238	-200.000	-0.033	0.170
-401.223	-200.000	-0.013	-0.214
-400.209	298.455	0.143	-0.260
-399.194	-85.675	-0.316	-0.097
-398.179	-200.000	-0.023	0.382
-397.165	-95.562	0.350	-0.093
-396.150	-94.524	-0.186	0.050
-395.136	-76.230	0.138	-0.048
-394.121	-68.561	0.213	0.081
-393.106	-40.193	-0.056	0.029
-392.092	-86.240	0.089	-0.027
-391.077	61.550	0.045	-0.044
-390.063	185.297	-0.049	0.072
-389.048	194.026	-0.090	-0.134
-388.033	150.859	0.205	-0.275
-387.019	6.014	-0.289	-0.211
-386.004	117.491	0.245	0.297
-384.990	-47.252	-0.128	-0.062
-383.975	-110.401	-0.178	-0.037
-382.960	232.665	0.100	0.163
-381.946	-200.000	0.024	0.231
-380.931	190.418	0.092	-0.137
-379.917	-8.795	-0.212	0.140
-378.902	46.244	-0.095	-0.087
-377.888	-61.891	0.153	-0.063
-376.873	-200.000	0.000	0.142
-375.858	-131.125	0.259	-0.034
-374.844	-152.290	0.210	-0.015
-373.829	-127.392	0.328	0.047
-372.815	-33.596	0.063	0.035
-371.800	109.288	-0.318	0.375
-370.785	-200.000	0.094	0.576
-369.771	-148.481	0.313	-0.025
-368.756	-118.013	-0.397	0.070
-367.742	-200.000	-0.018	-0.128
-366.727	-133.165	0.048	0.006
-365.712	148.999	-0.015	-0.020
-364.698	-72.044	0.214	-0.078
-363.683	-124.942	0.176	-0.027
-362.669	73.766	-0.128	-0.132
-361.654	-200.000	-0.049	-0.329
-360.639	-200.000	-0.046	-0.329
-359.625	800.000	0.022	0.087
-358.610	-120.547	-0.243	0.041
-357.596	135.018	-0.154	-0.197
-356.581	-128.808	0.055	-0.008
-355.566	-200.000	-0.014	-0.352
-354.552	-200.000	-0.003	0.128
-353.537	59.460	0.289	-0.281
-352.523	-200.000	0.039	-0.199
-351.508	64.236	-0.218	0.217
-350.493	87.808	-0.138	-0.151
-349.479	-70.449	0.075	-0.028
-348.464	-47.154	-0.047	0.023
-347.450	-44.508	-0.143	-0.070
-346.435	133.957	-0.053	-0.067
-345.420	33.427	0.135	-0.116
-344.406	-106.491	-0.420	-0.092
-343.391	-46.942	0.097	0.047
-342.377	22.704	0.180	0.145
-341.362	162.260	0.183	0.253
-340.348	800.000	0.039	-0.162
-339.333	-53.952	-0.046	0.021
-338.318	-200.000	0.034	-0.361
-337.304	800.000	-0.032	-0.121
-336.289	57.281	0.119	0.114
-335.275	88.486	-0.167	0.183
-334.260	-200.000	-0.026	0.315
-333.245	-200.000	0.020	-0.134
-332.231	34.602	-0.073	-0.063
-331.216	391.532	0.144	0.295
-330.202	150.611	0.160	0.214
-329.187	34.680	0.014	0.012
-328.172	-34.267	-0.204	0.110
-327.158	344.619	0.131	-0.252
-326.143	-41.265	0.128	0.065
-325.129	-200.000	0.012	-0.146
-324.114	-180.011	-0.242	0.005
-323.099	142.134	-0.145	0.190
-322.085	-172.493	-0.142	-0.004
-321.070	-200.000	0.067	-0.344
-320.056	-200.000	-0.021	0.367
-319.041	176.222	0.139	0.198
-318.026	-106.918	0.178	-0.039
-317.012	-154.464	0.118	0.008
-315.997	-1.881	-0.173	0.120
-314.983	-127.621	-0.193	0.027
-313.968	34.062	-0.224	0.192
-312.953	-28.396	-0.172	-0.098
-311.939	590.138	-0.016	-0.038
-310.924	-147.604	0.096	-0.008
-309.910	-73.594	-0.069	-0.025
-308.895	-96.186	0.315	0.082
-307.880	211.302	-0.107	-0.165
-306.866	-70.403	0.073	0.027
-305.851	250.731	0.035	0.058
-304.837	800.000	-0.053	-0.200
-303.822	800.000	0.071	-0.221
-302.807	-67.757	-0.156	-0.060
-301.793	-184.811	0.087	0.001
-300.778	-200.000	0.001	0.154
-299.764	396.262	-0.095	0.196
-298.749	-173.141	-0.420	0.013
-297.735	-200.000	0.012	-0.325
-296.720	150.762	-0.162	-0.217
-295.705	-99.630	0.353	-0.087
-294.691	-123.737	-0.258	-0.040
-293.676	-86.464	-0.205	0.062
-292.662	232.451	-0.118	-0.190
-291.647	-170.909	0.085	0.003
-290.632	-200.000	-0.009	0.165
-289.618	-99.065	0.138	0.034
-288.603	800.000	-0.042	0.124
-287.589	-2.935	0.030	0.021
-286.574	79.619	0.205	-0.217
-285.559	800.000	0.048	0.203
-284.545	-46.258	0.212	0.103
-283.530	-45.566	0.249	-0.121
-282.516	-191.453	-0.260	0.003
-281.501	105.500	0.062	0.073
-280.486	-111.404	0.248	-0.050
-279.472	-159.470	-0.177	0.010
-278.457	0.309	-0.143	-0.100
-277.443	-115.605	0.148	-0.027
-276.428	800.000	0.092	0.320
-275.413	-200.000	-0.309	0.001
-274.399	168.678	-0.353	0.494
-273.384	-200.000	0.020	-0.095
-272.370	-200.000	0.041	-0.197
-271.355	43.227	-0.138	0.124
-270.340	-16.085	0.169	0.106
-269.326	33.460	-0.041	0.035
-268.311	-165.641	0.283	0.012
-267.297	-103.209	-0.155	-0.036
-266.282	-200.000	0.019	-0.084
-265.267	3.455	0.178	0.128
-264.253	800.000	-0.085	0.365
-263.238	-200.000	-0.055	0.297
-262.224	426.709	-0.051	-0.109
-261.209	394.918	-0.080	0.163
-260.195	-100.369	0.044	-0.011
-259.180	173.454	0.084	0.119
-258.165	-48.372	-0.195	-0.092
-257.151	-75.677	-0.386	0.135
-256.136	-200.000	-0.037	-0.168
-255.122	-155.995	0.131	-0.008
-254.107	-171.773	-0.191	0.006
-253.092	183.226	0.085	0.124
-252.078	258.846	-0.211	0.356
-251.063	64.720	0.108	0.107
-250.049	-57.322	-0.224	-0.097
-249.034	-101.773	-0.126	-0.030
-248.019	28.348	0.051	-0.042
-247.005	725.899	0.119	0.312
-245.990	-81.303	-0.166	-0.054
-244.976	-200.000	-0.057	-0.433
-243.961	-101.809	-0.353	-0.084
-242.946	-145.930	0.294	0.026
-241.932	800.000	0.102	0.299
-240.917	-46.888	0.050	0.024
-239.903	-104.593	0.044	-0.010
-238.888	-59.623	0.177	0.074
-237.873	114.760	0.046	-0.055
-236.859	245.538	0.140	-0.231
-235.844	233.165	0.113	0.183
-234.830	-82.997	-0.123	-0.039
-233.815	-89.060	-0.261	-0.076
-232.800	114.637	-0.115	0.137
-231.786	-188.537	0.224	0.003
-230.771	-39.514	0.363	0.187
-229.757	12.123	-0.197	-0.149
-228.742	-104.754	-0.143	0.032
-227.727	800.000	-0.067	0.287
-226.713	314.032	0.181	-0.333
-225.698	800.000	0.047	-0.148
-224.684	-200.000	-0.005	-0.058
-223.669	-87.476	0.053	-0.016
-222.655	222.717	0.089	-0.141
-221.640	33.134	-0.227	-0.193
-220.625	283.820	0.171	-0.301
-219.611	-64.335	0.199	0.079
-218.596	800.000	0.078	-0.224
-217.582	-200.000	-0.082	-0.409
-216.567	-116.352	0.327	0.059
-215.552	-96.092	-0.058	-0.015
-214.538	-200.000	-0.015	0.191
-213.523	388.469	-0.045	-0.091
-212.509	-143.399	0.189	0.018
-211.494	-200.000	-0.024	0.353
-210.479	-62.772	0.229	0.093
-209.465	-200.000	-0.051	0.219
-208.450	-73.389	0.275	0.099
-207.436	-200.000	-0.003	-0.276
-206.421	-200.000	0.027	-0.196
-205.406	160.633	0.126	-0.173
-204.392	-200.000	-0.062	0.457
-203.377	345.505	0.150	-0.289
-202.363	-172.209	-0.296	-0.009
-201.348	-154.713	-0.067	-0.004
-200.333	-176.205	0.192	0.005
-199.319	-139.290	0.330	0.035
-198.304	-163.067	0.264	0.012
-197.290	-16.672	0.140	-0.087
-196.275	-57.694	0.238	-0.102
-195.260	191.747	-0.140	0.206
-194.246	-66.421	-0.203	-0.079
-193.231	-45.932	0.316	0.153
-192.217	122.897	-0.138	0.169
-191.202	10.351	0.057	-0.043
-190.187	-67.299	0.145	0.056
-189.173	-200.000	-0.000	0.119
-188.158	54.961	0.138	-0.130
-187.144	-75.092	0.155	0.054
-186.129	-200.000	0.045	-0.247
-185.114	16.382	0.098	-0.076
-184.100	-200.000	0.012	-0.255
-183.085	-74.326	0.163	0.058
-182.071	800.000	-0.099	-0.391
-181.056	195.899	0.073	0.108
-180.042	-152.990	0.290	-0.020
-179.027	-30.261	0.205	-0.114
-178.012	-104.637	0.383	-0.086
-176.998	571.131	-0.070	0.166
-175.983	-8.856	0.294	-0.193
-174.969	800.000	0.086	-0.235
-173.954	-31.617	0.065	0.035
-172.939	332.120	0.210	0.396
-171.925	104.379	0.076	0.088
-170.910	-200.000	0.033	-0.161
-169.896	-35.809	-0.031	0.016
-168.881	270.788	-0.035	0.061
-167.866	70.209	-0.098	-0.099
-166.852	21.720	0.217	0.173
-165.837	-65.151	0.214	0.085
-164.823	-200.000	0.064	0.280
-163.808	-200.000	0.035	0.183
-162.793	-95.506	0.360	0.094
-161.779	374.130	0.202	-0.402
-160.764	240.255	-0.137	0.224
-159.750	22.939	-0.371	0.298
-158.735	57.864	0.227	-0.217
-157.720	12.571	-0.167	0.126
-156.706	800.000	-0.061	0.171
-155.691	-4.511	0.224	0.151
-154.677	309.606	0.210	-0.385
-153.662	-200.000	-0.050	-0.280
-152.647	322.291	-0.079	0.147
-151.633	-200.000	0.022	0.381
-150.618	-64.900	0.060	-0.024
-149.604	800.000	0.067	-0.235
-148.589	-78.357	-0.068	-0.023
-147.574	-60.754	0.083	-0.034
-146.560	318.298	0.064	0.118
-145.545	-200.000	-0.033	0.214
-144.531	330.504	0.096	0.181
-143.516	-143.284	-0.064	-0.006
-142.502	-78.210	-0.062	0.021
-141.487	-116.308	-0.406	-0.074
-140.472	126.845	-0.359	0.445
-139.458	-86.393	-0.268	-0.081
-138.443	800.000	-0.036	-0.151
-137.429	115.180	-0.062	0.074
-136.414	295.204	0.135	-0.242
-135.399	81.578	-0.187	-0.197
-134.385	105.513	-0.042	0.048
-133.370	89.055	0.157	0.170
-132.356	-18.174	-0.186	-0.114
-131.341	-200.000	0.003	-0.081
-130.326	484.936	0.147	0.326
-129.312	-38.378	0.114	-0.059
-128.297	179.179	-0.092	-0.131
-127.283	50.559	-0.123	0.113
-126.268	-114.560	-0.253	-0.047
-125.253	159.931	0.058	-0.079
-124.239	-200.000	-0.002	-0.246
-123.224	-143.872	0.367	-0.034
-122.210	138.109	0.016	-0.020
