DTS Sentinel unit serial number:	SN413079Multiplexer serial number:	ORYXHardware model number:	OX4-SRSoftware version number:	ORYX F/W v4.00 Oryx Data Collector v3.7.2.0data status	okinstallation	princeton_trtdifferential loss correction	single-endedforward channel	channel 3reverse channel	N/Adate	2019/09/16time	01:40:35forward acquisition time	60.00reverse acquisition time	0.00gamma	496.2192k internal	0.2337k external	0.2337temperature offset calibration	0.9950default loss term (dB/km)	0.3790temperature slope calibration	1.0000multiplexer offset coefficient	1.0000multiplexer slope coefficient	1.0000fibre end	0.00T internal ref (°C)	27.33T ext. ref 1 (°C)	9.97T ext. ref 2 (°C)	22.25length (m)	temperature (°C)	Stokes	anti-Stokes-747.200	-112.468	0.320	0.064
-746.185	-28.580	-0.182	-0.105
-745.171	800.000	0.022	-0.068
-744.156	-115.905	-0.200	0.037
-743.142	-142.829	0.192	0.019
-742.127	-26.293	-0.275	0.162
-741.112	-106.555	-0.199	0.044
-740.098	10.169	0.089	0.068
-739.083	10.046	-0.225	0.172
-738.069	418.691	0.097	0.208
-737.054	-60.193	-0.362	0.155
-736.039	142.517	-0.099	-0.132
-735.025	-2.189	0.129	0.091
-734.010	99.408	-0.074	0.086
-732.996	-200.000	-0.050	0.240
-731.981	228.020	0.142	-0.232
-730.966	800.000	0.031	-0.092
-729.952	-188.878	0.040	0.000
-728.937	-200.000	-0.009	-0.227
-727.923	-21.767	-0.224	-0.137
-726.908	800.000	-0.085	-0.274
-725.894	366.533	-0.060	-0.121
-724.879	800.000	0.109	0.431
-723.864	12.324	0.006	0.004
-722.850	152.895	-0.354	-0.486
-721.835	-41.199	0.032	-0.017
-720.821	1.586	-0.041	0.029
-719.806	-200.000	0.029	0.266
-718.791	800.000	0.047	-0.158
-717.777	-132.093	0.301	-0.039
-716.762	-142.827	-0.203	0.020
-715.748	800.000	0.072	-0.228
-714.733	131.447	-0.145	-0.187
-713.718	800.000	-0.094	-0.378
-712.704	-200.000	0.011	-0.154
-711.689	-61.441	-0.058	0.025
-710.675	118.386	0.050	0.062
-709.660	467.349	-0.073	0.163
-708.645	323.255	-0.098	-0.188
-707.631	-200.000	-0.079	0.375
-706.616	-63.620	0.453	0.186
-705.602	172.244	0.159	-0.229
-704.587	249.703	0.072	0.122
-703.572	-200.000	-0.018	0.116
-702.558	295.470	0.129	0.236
-701.543	-112.891	0.252	-0.050
-700.529	72.729	-0.140	-0.147
-699.514	800.000	-0.027	-0.118
-698.499	-128.330	-0.124	-0.018
-697.485	25.880	0.140	0.117
-696.470	-200.000	-0.042	-0.550
-695.456	-51.327	-0.139	-0.065
-694.441	-200.000	-0.002	0.007
-693.426	-200.000	0.034	-0.194
-692.412	800.000	0.027	0.076
-691.397	800.000	-0.088	0.333
-690.383	800.000	-0.052	0.145
-689.368	800.000	0.073	0.204
-688.354	-91.688	0.060	0.017
-687.339	5.682	0.203	0.150
-686.324	-140.172	0.210	0.022
-685.310	800.000	0.016	0.046
-684.295	5.470	-0.209	-0.155
-683.281	97.467	0.170	0.196
-682.266	-75.909	-0.067	0.024
-681.251	800.000	-0.093	0.360
-680.237	-20.641	-0.204	-0.125
-679.222	361.761	0.035	-0.070
-678.208	148.824	0.101	-0.137
-677.193	30.350	0.120	-0.103
-676.178	35.401	-0.215	0.189
-675.164	-54.706	-0.140	0.063
-674.149	-139.090	-0.380	-0.041
-673.135	208.502	0.047	-0.074
-672.120	-7.438	-0.153	-0.104
-671.105	26.617	0.064	-0.054
-670.091	741.813	-0.126	-0.339
-669.076	35.598	0.163	-0.144
-668.062	548.490	-0.114	-0.272
-667.047	-200.000	-0.003	0.153
-666.032	726.994	0.039	0.105
-665.018	-96.628	0.181	-0.048
-664.003	18.774	-0.191	0.153
-662.989	800.000	-0.085	0.368
-661.974	58.103	-0.094	-0.093
-660.959	-174.867	-0.096	0.003
-659.945	-200.000	-0.102	0.000
-658.930	162.993	0.288	-0.405
-657.916	558.552	-0.027	0.064
-656.901	41.983	-0.082	0.074
-655.886	186.748	-0.197	-0.293
-654.872	-76.171	-0.057	0.020
-653.857	238.451	-0.226	-0.376
-652.843	54.602	0.151	-0.145
-651.828	-125.669	0.256	0.039
-650.814	-118.890	0.138	-0.024
-649.799	-97.908	-0.135	-0.035
-648.784	-11.950	-0.242	-0.158
-647.770	56.388	0.205	-0.199
-646.755	-200.000	-0.020	-0.205
-645.741	163.223	0.081	0.114
-644.726	-200.000	-0.001	0.068
-643.711	-200.000	-0.025	-0.313
-642.697	-114.799	0.144	-0.027
-641.682	-200.000	0.050	0.279
-640.668	-192.749	0.157	-0.001
-639.653	139.954	0.174	0.229
-638.638	-4.835	-0.295	0.204
-637.624	189.715	0.114	0.171
-636.609	58.023	-0.144	-0.141
-635.595	-200.000	0.024	0.326
-634.580	-200.000	0.016	-0.076
-633.565	-96.417	-0.171	-0.045
-632.551	-158.233	-0.229	0.013
-631.536	-110.074	0.054	-0.011
-630.522	-2.630	0.394	0.275
-629.507	800.000	-0.059	0.246
-628.492	-43.199	-0.399	0.202
-627.478	-45.210	0.191	-0.095
-626.463	-71.866	0.257	-0.095
-625.449	42.161	-0.068	-0.062
-624.434	-41.165	0.060	0.031
-623.419	-47.254	0.051	-0.025
-622.405	61.308	-0.122	0.121
-621.390	168.103	0.059	-0.084
-620.376	-94.019	-0.224	-0.062
-619.361	39.357	0.338	-0.303
-618.346	-153.826	-0.338	-0.023
-617.332	368.278	0.128	0.258
-616.317	-49.837	-0.155	0.073
-615.303	-49.017	-0.293	-0.140
-614.288	-17.586	0.280	-0.176
-613.273	-200.000	-0.018	0.179
-612.259	-200.000	0.023	-0.117
-611.244	50.073	-0.206	-0.194
-610.230	55.987	-0.016	-0.016
-609.215	-131.283	-0.258	0.034
-608.201	-44.005	-0.095	-0.048
-607.186	-200.000	-0.086	0.452
-606.171	-131.488	0.108	0.014
-605.157	800.000	-0.150	-0.451
-604.142	-174.259	-0.309	0.009
-603.128	670.510	-0.028	-0.074
-602.113	-68.340	-0.386	0.150
-601.098	43.115	-0.204	-0.186
-600.084	401.692	0.080	-0.167
-599.069	205.025	-0.097	-0.151
-598.055	91.749	0.213	0.239
-597.040	-200.000	-0.019	-0.173
-596.025	79.586	0.298	-0.319
-595.011	36.471	0.115	0.101
-593.996	-98.569	0.447	-0.114
-592.982	-197.385	-0.153	-0.001
-591.967	-33.696	0.104	0.057
-590.952	-63.678	-0.293	0.120
-589.938	-155.425	-0.486	-0.031
-588.923	-39.798	-0.239	-0.124
-587.909	-112.306	-0.211	0.042
-586.894	158.339	-0.117	0.162
-585.879	800.000	0.063	0.220
-584.865	17.844	-0.305	-0.243
-583.850	-200.000	0.024	-0.163
-582.836	-91.613	0.448	0.127
-581.821	18.354	-0.178	0.142
-580.806	-200.000	-0.035	-0.345
-579.792	106.626	0.067	-0.079
-578.777	54.498	0.208	-0.200
-577.763	800.000	-0.022	0.078
-576.748	130.641	-0.227	-0.290
-575.733	81.164	-0.082	-0.088
-574.719	-77.469	0.143	0.049
-573.704	-200.000	-0.027	-0.379
-572.690	3.061	-0.155	0.113
-571.675	-56.935	-0.292	0.129
-570.661	23.628	-0.176	-0.144
-569.646	516.145	-0.093	-0.216
-568.631	79.113	0.193	-0.206
-567.617	205.852	-0.025	-0.039
-566.602	-139.268	0.178	-0.019
-565.588	6.370	0.190	0.140
-564.573	-193.533	0.390	0.003
-563.558	18.320	0.133	0.106
-562.544	-200.000	0.012	0.145
-561.529	239.954	0.169	-0.281
-560.515	76.346	-0.342	0.361
-559.500	-176.001	-0.459	-0.012
-558.485	314.119	-0.135	-0.252
-557.471	180.838	-0.294	-0.430
-556.456	-131.039	-0.057	-0.008
-555.442	800.000	-0.056	-0.208
-554.427	-200.000	0.023	0.281
-553.412	-38.539	0.130	0.068
-552.398	-200.000	0.013	-0.138
-551.383	165.716	0.122	0.172
-550.369	-100.021	-0.126	-0.031
-549.354	-191.822	0.293	0.003
-548.339	-83.789	-0.111	0.035
-547.325	-200.000	0.045	-0.231
-546.310	227.761	0.087	0.140
-545.296	-122.344	0.168	0.027
-544.281	676.490	0.157	-0.407
-543.266	-24.328	-0.346	-0.206
-542.252	52.942	0.193	0.184
-541.237	5.322	-0.213	0.157
-540.223	800.000	0.083	0.354
-539.208	-200.000	0.014	-0.135
-538.193	-200.000	-0.021	0.215
-537.179	457.915	0.098	0.216
-536.164	-23.193	-0.133	0.080
-535.150	-105.875	0.286	-0.064
-534.135	-200.000	0.007	-0.097
-533.121	-25.403	-0.259	-0.152
-532.106	-47.471	-0.295	0.143
-531.091	-200.000	-0.005	0.252
-530.077	134.794	0.207	0.268
-529.062	-200.000	-0.022	0.196
-528.048	113.187	-0.053	-0.064
-527.033	-113.042	0.381	-0.075
-526.018	790.078	-0.050	-0.135
-525.004	124.902	-0.203	-0.254
-523.989	-18.880	-0.116	-0.072
-522.975	800.000	0.172	-0.556
-521.960	-10.494	0.131	-0.087
-520.945	35.381	0.095	0.083
-519.931	-121.972	-0.230	0.038
-518.916	6.107	-0.168	-0.124
-517.902	-50.152	0.153	0.072
-516.887	539.962	-0.045	-0.105
-515.872	63.522	0.141	0.141
-514.858	800.000	-0.096	0.264
-513.843	66.935	-0.095	0.097
-512.829	-163.955	-0.159	-0.007
-511.814	-64.048	0.302	-0.123
-510.799	-200.000	-0.034	-0.269
-509.785	187.777	-0.160	0.238
-508.770	54.007	0.036	0.034
-507.756	-71.479	-0.301	-0.112
-506.741	-200.000	0.033	0.345
-505.726	-51.663	-0.145	0.067
-504.712	-119.196	-0.160	0.028
-503.697	800.000	0.074	-0.206
-502.683	29.517	0.285	0.241
-501.668	60.948	-0.183	0.181
-500.653	-77.481	-0.450	-0.155
-499.639	-34.289	-0.219	-0.119
-498.624	-200.000	-0.009	-0.140
-497.610	408.603	-0.028	-0.058
-496.595	-36.470	0.214	0.114
-495.581	800.000	-0.044	-0.122
-494.566	423.042	0.152	-0.324
-493.551	-200.000	-0.045	-0.238
-492.537	144.936	0.093	0.123
-491.522	-100.480	0.166	0.041
-490.508	586.654	0.087	-0.213
-489.493	92.264	0.054	-0.060
-488.478	-55.555	0.143	-0.064
-487.464	-38.982	-0.167	0.087
-486.449	19.990	-0.166	-0.133
-485.435	88.740	-0.302	-0.334
-484.420	140.936	0.029	-0.038
-483.405	298.136	0.106	0.195
-482.391	121.127	0.201	-0.249
-481.376	12.903	0.155	0.119
-480.362	-109.383	0.171	0.036
-479.347	214.067	-0.085	-0.134
-478.332	-129.306	0.164	0.023
-477.318	-200.000	-0.008	-0.065
-476.303	-200.000	-0.012	0.068
-475.289	-34.582	0.274	-0.149
-474.274	-200.000	-0.014	-0.087
-473.259	718.308	0.033	-0.086
-472.245	309.499	-0.113	0.210
-471.230	81.330	-0.233	-0.251
-470.216	68.608	-0.170	-0.174
-469.201	74.415	-0.154	-0.161
-468.186	-200.000	-0.021	0.188
-467.172	-52.050	0.341	-0.157
-466.157	-10.247	0.178	-0.118
-465.143	-2.035	-0.155	-0.108
-464.128	73.021	-0.237	0.246
-463.113	255.118	0.164	0.279
-462.099	-200.000	-0.023	-0.213
-461.084	-132.625	-0.307	-0.039
-460.070	-23.954	0.117	0.070
-459.055	800.000	-0.113	0.455
-458.040	-200.000	-0.025	0.286
-457.026	713.481	-0.118	0.310
-456.011	-110.609	-0.058	-0.012
-454.997	-200.000	-0.012	0.229
-453.982	-200.000	-0.010	-0.100
-452.968	-12.829	-0.082	0.053
-451.953	-88.126	0.293	-0.087
-450.938	4.301	0.089	-0.065
-449.924	-68.502	-0.535	0.206
-448.909	-200.000	0.115	0.579
-447.895	-101.941	0.043	-0.010
-446.880	-200.000	-0.050	-0.314
-445.865	305.296	0.145	0.267
-444.851	-81.291	-0.384	-0.126
-443.836	-81.309	0.195	0.064
-442.822	-200.000	0.013	0.060
-441.807	-80.800	0.192	0.063
-440.792	-29.873	0.244	-0.138
-439.778	-92.761	0.196	0.054
-438.763	-117.976	0.123	0.022
-437.749	-55.009	0.214	-0.096
-436.734	9.113	-0.343	-0.257
-435.719	137.906	-0.008	-0.010
-434.705	-14.372	0.297	0.190
-433.690	800.000	0.095	-0.344
-432.676	-84.027	0.067	-0.021
-431.661	-136.716	-0.127	0.015
-430.646	-10.579	-0.057	-0.037
-429.632	800.000	-0.090	-0.306
-428.617	281.493	0.129	-0.229
-427.603	800.000	-0.041	-0.135
-426.588	211.317	-0.162	0.253
-425.573	301.672	-0.217	-0.398
-424.559	143.899	0.203	-0.269
-423.544	30.043	0.149	0.126
-422.530	384.562	-0.088	-0.181
-421.515	239.283	-0.056	0.092
-420.500	-200.000	-0.069	0.308
-419.486	298.047	0.179	0.327
-418.471	193.134	-0.095	-0.143
-417.457	-119.248	0.068	0.012
-416.442	4.413	0.289	-0.210
-415.428	-89.133	-0.356	-0.104
-414.413	-200.000	-0.005	0.187
-413.398	-200.000	0.004	0.145
-412.384	304.436	0.028	0.052
-411.369	-92.144	-0.210	-0.059
-410.355	-15.524	-0.137	-0.087
-409.340	-67.407	0.100	0.039
-408.325	434.701	0.044	-0.095
-407.311	150.940	0.027	-0.036
-406.296	63.030	-0.027	0.027
-405.282	-70.339	-0.236	-0.089
-404.267	251.589	0.152	-0.256
-403.252	340.959	0.194	0.376
-402.238	-118.932	0.113	-0.020
-401.223	37.974	0.130	0.115
-400.209	800.000	0.073	0.243
-399.194	-108.698	-0.186	-0.040
-398.179	-134.274	0.234	-0.029
-397.165	153.484	0.176	0.239
-396.150	22.217	0.098	0.079
-395.136	130.782	0.098	0.125
-394.121	-200.000	0.039	0.332
-393.106	-200.000	-0.026	0.150
-392.092	800.000	0.109	-0.402
-391.077	297.036	0.133	-0.242
-390.063	-200.000	-0.037	-0.230
-389.048	-27.238	0.191	0.110
-388.033	162.711	0.062	0.087
-387.019	-167.002	-0.241	-0.010
-386.004	-77.039	0.071	-0.025
-384.990	39.014	-0.136	-0.120
-383.975	112.330	0.173	-0.208
-382.960	800.000	-0.065	0.178
-381.946	133.405	0.094	-0.120
-380.931	-99.697	0.115	0.029
-379.917	107.425	0.142	-0.167
-378.902	-200.000	-0.007	-0.123
-377.888	41.525	0.066	-0.059
-376.873	12.122	0.101	-0.077
-375.858	-157.090	0.058	-0.003
-374.844	512.309	-0.049	0.112
-373.829	-126.938	0.131	0.019
-372.815	-104.168	-0.102	-0.024
-371.800	800.000	-0.107	-0.304
-370.785	219.124	-0.032	0.050
-369.771	-13.650	0.246	-0.158
-368.756	-93.199	-0.070	0.019
-367.742	-78.590	0.027	0.009
-366.727	-84.399	0.362	-0.113
-365.712	800.000	0.044	0.132
-364.698	72.608	-0.217	-0.224
-363.683	-86.915	0.355	0.107
-362.669	26.485	-0.187	-0.154
-361.654	300.843	-0.146	-0.266
-360.639	-113.660	0.282	0.054
-359.625	46.510	-0.062	-0.057
-358.610	800.000	-0.100	-0.293
-357.596	118.991	0.020	-0.025
-356.581	-99.580	-0.121	-0.030
-355.566	364.130	0.085	-0.170
-354.552	7.209	-0.078	-0.058
-353.537	39.554	0.097	0.086
-352.523	-24.490	0.357	0.210
-351.508	-200.000	-0.017	0.083
-350.493	-200.000	-0.014	0.075
-349.479	-81.291	0.114	-0.037
-348.464	-55.958	-0.197	-0.087
-347.450	-199.204	-0.181	-0.001
-346.435	-200.000	-0.015	-0.137
-345.420	-25.216	-0.280	0.164
-344.406	-77.981	0.184	-0.063
-343.391	-103.751	-0.113	0.026
-342.377	361.683	-0.153	0.303
-341.362	-97.973	0.451	-0.115
-340.348	776.209	0.072	-0.194
-339.333	178.250	0.117	-0.169
-338.318	431.491	-0.261	0.559
-337.304	169.939	0.257	0.363
-336.289	390.360	-0.124	0.253
-335.275	-200.000	0.022	-0.279
-334.260	-141.924	-0.198	-0.020
-333.245	92.971	-0.108	-0.120
-332.231	-86.195	0.165	0.050
-331.216	45.158	-0.173	-0.158
-330.202	-58.382	0.137	0.059
-329.187	2.782	-0.288	-0.206
-328.172	-68.807	-0.320	-0.122
-327.158	221.950	-0.108	0.172
-326.143	610.283	0.052	0.130
-325.129	800.000	0.048	0.157
-324.114	255.147	0.141	-0.238
-323.099	800.000	0.048	0.157
-322.085	430.615	-0.063	-0.135
-321.070	-110.467	-0.023	0.005
-320.056	-1.983	0.295	0.204
-319.041	286.035	-0.067	-0.120
-318.026	24.635	0.159	-0.130
-317.012	-200.000	0.019	0.370
-315.997	-47.232	-0.069	-0.033
-314.983	-35.876	0.158	0.084
-313.968	50.990	0.197	-0.184
-312.953	600.558	-0.156	-0.382
-311.939	450.670	0.119	0.259
-310.924	491.824	0.081	0.182
-309.910	-140.086	0.293	0.030
-308.895	544.043	-0.086	0.202
-307.880	800.000	0.039	-0.116
-306.866	228.981	0.139	0.223
-305.851	-180.987	0.271	0.005
-304.837	-133.327	-0.267	0.033
-303.822	-153.902	-0.116	-0.008
-302.807	-42.057	-0.240	0.121
-301.793	-138.355	0.407	-0.044
-300.778	50.739	0.147	0.138
-299.764	-73.824	-0.092	0.033
-298.749	-200.000	0.008	-0.337
-297.735	-165.207	-0.343	-0.015
-296.720	405.969	-0.081	0.169
-295.705	-20.021	0.285	0.174
-294.691	-142.021	-0.313	-0.031
-293.676	-200.000	-0.020	0.313
-292.662	-48.265	-0.071	-0.034
-291.647	93.012	-0.152	-0.170
-290.632	-78.202	-0.198	0.067
-289.618	800.000	-0.090	0.287
-288.603	-144.580	0.077	-0.007
-287.589	24.472	0.158	-0.129
-286.574	-200.000	0.008	-0.230
-285.559	-112.107	-0.238	-0.047
-284.545	361.295	-0.121	0.240
-283.530	316.376	0.268	-0.500
-282.516	220.123	0.143	-0.226
-281.501	-5.112	-0.159	0.108
-280.486	77.343	0.246	0.258
-279.472	-42.568	-0.261	0.131
-278.457	5.822	0.239	-0.174
-277.443	-10.197	-0.335	0.220
-276.428	-191.324	-0.081	-0.001
-275.413	-73.137	0.353	0.128
-274.399	27.204	-0.086	0.071
-273.384	610.555	0.100	-0.247
-272.370	-73.042	-0.035	-0.013
-271.355	-149.119	0.457	-0.036
-270.340	-62.868	0.201	0.082
-269.326	111.900	-0.201	0.239
-268.311	-33.067	-0.113	0.062
-267.297	309.306	0.061	0.113
-266.282	9.370	-0.015	0.011
-265.267	-178.249	-0.133	-0.003
-264.253	236.126	-0.100	0.163
-263.238	-200.000	0.089	0.390
-262.224	-0.798	0.152	-0.106
-261.209	-28.295	0.119	-0.068
-260.195	614.828	-0.094	0.231
-259.180	-104.723	-0.252	0.057
-258.165	115.883	0.068	-0.082
-257.151	-159.575	-0.226	0.012
-256.136	-54.578	0.116	0.052
-255.122	800.000	0.027	-0.096
-254.107	800.000	0.077	-0.259
-253.092	-110.895	-0.126	0.026
-252.078	86.054	-0.171	0.185
-251.063	-31.470	0.182	0.101
-250.049	-108.348	-0.216	0.046
-249.034	-200.000	0.024	-0.115
-248.019	-3.239	0.088	0.060
-247.005	-60.380	0.138	0.058
-245.990	112.374	0.192	0.229
-244.976	-200.000	-0.045	0.263
-243.961	-33.484	0.257	-0.140
-242.946	-128.906	-0.047	-0.006
-241.932	228.744	0.077	-0.124
-240.917	20.485	0.152	0.121
-239.903	-151.340	0.148	-0.011
-238.888	-200.000	-0.037	-0.370
-237.873	-38.650	-0.234	0.122
-236.859	-52.694	-0.041	0.019
-235.844	78.394	-0.129	0.136
-234.830	285.886	-0.173	-0.307
-233.815	74.730	-0.081	-0.084
-232.800	415.140	0.110	-0.231
-231.786	-169.146	0.055	0.002
-230.771	310.749	0.091	-0.167
-229.757	-200.000	0.003	0.186
-228.742	256.889	0.053	0.089
-227.727	108.430	0.113	-0.132
-226.713	-200.000	-0.039	-0.174
-225.698	445.146	-0.028	-0.061
-224.684	-74.267	-0.204	0.073
-223.669	-86.298	-0.162	0.049
-222.655	-200.000	0.021	-0.250
-221.640	47.624	0.283	-0.260
-220.625	182.892	0.039	0.056
-219.611	-166.661	0.180	-0.007
-218.596	-200.000	-0.001	0.402
-217.582	119.784	0.181	0.221
-216.567	-46.515	0.297	0.143
-215.552	-13.885	0.095	-0.060
-214.538	82.995	0.095	0.101
-213.523	48.720	0.159	-0.147
-212.509	1.544	-0.301	0.213
-211.494	49.685	-0.144	0.133
-210.479	-165.233	-0.115	-0.005
-209.465	-95.434	0.145	-0.038
-208.450	38.535	-0.042	0.037
-207.436	-109.677	0.203	0.042
-206.421	94.402	-0.090	-0.100
-205.406	689.988	0.030	0.076
-204.392	-64.901	-0.021	0.008
-203.377	385.653	-0.077	-0.156
-202.363	210.595	0.074	-0.114
-201.348	663.320	0.127	-0.322
-200.333	-47.680	0.103	-0.049
-199.319	87.240	-0.155	0.168
-198.304	-157.707	0.056	0.003
-197.290	141.189	-0.095	0.124
-196.275	-25.568	-0.190	0.110
-195.260	51.962	-0.114	0.107
-194.246	-181.717	-0.382	-0.007
-193.231	-91.594	-0.364	0.102
-192.217	237.363	-0.171	0.278
-191.202	-151.226	0.277	0.020
-190.187	221.795	-0.074	0.117
-189.173	2.175	-0.172	0.122
-188.158	-200.000	-0.019	0.185
-187.144	-10.780	0.238	0.154
-186.129	182.405	-0.061	0.088
-185.114	139.083	0.038	-0.050
-184.100	-69.806	0.245	0.092
-183.085	24.045	-0.225	-0.182
-182.071	800.000	-0.077	-0.313
-181.056	-129.392	-0.087	-0.012
-180.042	800.000	-0.029	0.117
-179.027	-137.422	-0.350	-0.039
-178.012	67.398	0.247	0.247
-176.998	74.733	0.208	0.215
-175.983	-161.349	0.456	0.023
-174.969	-200.000	0.034	0.310
-173.954	121.848	-0.094	0.116
-172.939	17.198	-0.416	0.324
-171.925	205.306	0.027	0.041
-170.910	696.540	0.090	-0.232
-169.896	680.844	0.089	-0.227
-168.881	-43.668	0.130	-0.064
-167.866	-27.493	-0.218	0.124
-166.852	283.807	-0.082	-0.145
-165.837	40.480	-0.206	-0.182
-164.823	435.436	0.110	0.234
-163.808	-90.497	0.164	-0.047
-162.793	60.723	-0.252	0.245
-161.779	166.766	0.110	0.154
-160.764	-10.077	-0.117	-0.076
-159.750	758.463	-0.071	0.188
-158.735	-148.849	0.457	-0.036
-157.720	-160.742	0.031	-0.002
-156.706	800.000	0.069	-0.254
-155.691	-32.980	0.139	-0.076
-154.677	800.000	-0.019	0.079
-153.662	220.431	-0.185	0.290
-152.647	800.000	-0.056	0.196
-151.633	17.551	0.440	-0.343
-150.618	337.178	-0.104	-0.197
-149.604	8.820	-0.300	0.222
-148.589	153.827	-0.020	-0.026
-147.574	-112.644	0.300	-0.059
-146.560	490.107	0.100	-0.225
-145.545	233.982	0.230	-0.372
-144.531	602.346	-0.042	-0.102
-143.516	-130.983	0.250	-0.033
-142.502	-200.000	0.007	-0.120
-141.487	-63.964	0.184	0.074
-140.472	245.704	-0.048	0.080
-139.458	800.000	0.100	-0.280
-138.443	110.634	0.146	-0.172
-137.429	-200.000	0.023	-0.132
-136.414	-169.536	0.388	-0.014
-135.399	-119.682	0.319	-0.054
-134.385	800.000	-0.037	0.147
-133.370	100.790	-0.230	0.262
-132.356	-112.647	0.177	0.034
-131.341	-52.545	-0.130	-0.059
-130.326	188.879	0.068	-0.099
-129.312	357.003	0.084	-0.164
-128.297	-72.671	0.409	0.148
-127.283	92.901	-0.221	0.244
-126.268	-200.000	-0.003	-0.374
-125.253	-200.000	-0.037	-0.228
-124.239	-72.641	0.061	-0.022
-123.224	31.320	0.100	0.084
-122.210	122.854	-0.150	-0.184
-121.195	-200.000	-0.056	0.333
