DTS Sentinel unit serial number:	SN413079Multiplexer serial number:	ORYXHardware model number:	OX4-SRSoftware version number:	ORYX F/W v4.00 Oryx Data Collector v3.7.2.0data status	okinstallation	princeton_trtdifferential loss correction	single-endedforward channel	channel 3reverse channel	N/Adate	2019/09/16time	02:28:34forward acquisition time	60.00reverse acquisition time	0.00gamma	496.2192k internal	0.2335k external	0.2335temperature offset calibration	0.9950default loss term (dB/km)	0.3790temperature slope calibration	1.0000multiplexer offset coefficient	1.0000multiplexer slope coefficient	1.0000fibre end	0.00T internal ref (°C)	27.64T ext. ref 1 (°C)	10.27T ext. ref 2 (°C)	22.67length (m)	temperature (°C)	Stokes	anti-Stokes-747.200	-116.966	-0.239	0.044
-746.185	199.204	0.327	0.503
-745.171	-87.139	-0.074	-0.023
-744.156	-143.916	-0.225	-0.021
-743.142	-26.589	0.049	-0.029
-742.127	122.295	-0.145	-0.182
-741.112	-77.907	0.458	0.159
-740.098	29.212	-0.270	0.230
-739.083	-200.000	0.012	-0.123
-738.069	-122.485	0.230	-0.038
-737.054	185.073	-0.054	-0.081
-736.039	-63.541	0.114	-0.047
-735.025	3.497	0.499	0.365
-734.010	29.835	-0.242	0.207
-732.996	800.000	-0.129	-0.549
-731.981	67.410	-0.135	0.138
-730.966	157.355	-0.013	-0.018
-729.952	800.000	0.061	-0.264
-728.937	417.195	-0.117	0.250
-727.923	-24.387	0.195	-0.117
-726.908	-153.507	0.044	0.003
-725.894	85.535	-0.290	-0.319
-724.879	98.150	0.234	-0.270
-723.864	-54.318	-0.285	0.130
-722.850	51.286	0.157	-0.150
-721.835	800.000	-0.052	-0.200
-720.821	52.647	-0.336	-0.322
-719.806	-30.132	0.150	0.086
-718.791	23.190	-0.097	-0.080
-717.777	-200.000	0.118	-0.528
-716.762	-11.738	-0.111	0.073
-715.748	-200.000	-0.009	0.060
-714.733	800.000	0.109	-0.322
-713.718	21.707	0.261	-0.213
-712.704	-200.000	0.007	0.126
-711.689	9.278	0.213	-0.161
-710.675	-92.504	-0.119	-0.034
-709.660	-33.139	0.238	-0.132
-708.645	-200.000	-0.017	0.076
-707.631	-181.740	0.097	0.002
-706.616	-74.540	0.092	-0.033
-705.602	400.319	0.025	0.052
-704.587	180.122	0.145	-0.213
-703.572	-86.396	0.234	-0.072
-702.558	800.000	-0.132	-0.443
-701.543	262.082	-0.128	0.222
-700.529	459.312	-0.089	0.199
-699.514	-200.000	-0.003	-0.183
-698.499	34.926	0.224	-0.197
-697.485	800.000	-0.027	-0.109
-696.470	-200.000	-0.011	-0.309
-695.456	67.631	0.034	0.034
-694.441	-27.690	0.227	-0.132
-693.426	231.573	-0.106	0.174
-692.412	-200.000	0.057	0.253
-691.397	768.241	0.084	0.229
-690.383	726.886	0.073	-0.195
-689.368	-91.636	0.181	-0.052
-688.354	-200.000	-0.001	0.110
-687.339	800.000	-0.094	-0.259
-686.324	-56.460	-0.172	0.076
-685.310	28.630	0.032	0.027
-684.295	-200.000	-0.006	0.105
-683.281	-103.376	-0.091	-0.021
-682.266	615.618	-0.052	-0.130
-681.251	-200.000	0.016	0.182
-680.237	-200.000	0.001	0.069
-679.222	-200.000	-0.022	-0.209
-678.208	-200.000	-0.004	-0.070
-677.193	-117.061	0.389	0.071
-676.178	-75.073	-0.102	-0.037
-675.164	106.028	0.160	0.190
-674.149	86.721	-0.120	-0.132
-673.135	-53.289	-0.254	0.117
-672.120	800.000	0.010	-0.032
-671.105	41.042	0.171	-0.155
-670.091	199.752	0.089	0.137
-669.076	-139.893	0.457	0.048
-668.062	120.582	-0.147	0.183
-667.047	38.796	-0.230	0.205
-666.032	-185.574	0.268	-0.004
-665.018	652.340	0.120	0.308
-664.003	110.798	0.236	-0.284
-662.989	800.000	0.078	0.225
-661.974	-200.000	0.042	0.409
-660.959	190.805	-0.191	0.288
-659.945	-1.470	-0.086	-0.061
-658.930	-100.747	0.315	0.078
-657.916	-107.566	0.345	-0.076
-656.901	-200.000	0.002	0.023
-655.886	-76.842	-0.509	0.178
-654.872	-8.585	0.100	0.067
-653.857	-200.000	-0.010	0.242
-652.843	24.467	0.170	0.140
-651.828	626.278	-0.009	-0.022
-650.814	-105.061	0.106	-0.024
-649.799	148.039	-0.141	0.191
-648.784	412.674	-0.146	0.311
-647.770	-30.436	-0.269	0.153
-646.755	-161.891	0.192	0.010
-645.741	41.745	0.111	-0.101
-644.726	-6.993	-0.091	-0.062
-643.711	239.798	0.059	0.098
-642.697	-72.785	0.361	-0.133
-641.682	-200.000	0.002	0.181
-640.668	-200.000	-0.003	0.218
-639.653	301.760	-0.171	0.317
-638.638	-1.383	0.081	-0.057
-637.624	800.000	0.037	0.110
-636.609	79.697	-0.295	0.316
-635.595	463.018	0.189	-0.423
-634.580	-200.000	0.008	-0.072
-633.565	-11.508	-0.180	-0.119
-632.551	1.932	-0.148	-0.107
-631.536	97.203	0.198	0.227
-630.522	-99.789	0.212	0.053
-629.507	-29.608	0.131	0.075
-628.492	-111.592	-0.296	-0.060
-627.478	-200.000	-0.013	-0.145
-626.463	269.040	-0.085	0.149
-625.449	-200.000	0.049	-0.511
-624.434	252.604	0.137	-0.233
-623.419	-200.000	-0.037	-0.253
-622.405	-6.378	0.194	0.133
-621.390	-200.000	0.011	-0.062
-620.376	-71.582	0.111	-0.042
-619.361	-119.434	0.193	-0.033
-618.346	-127.884	-0.239	0.034
-617.332	6.160	-0.174	0.129
-616.317	-200.000	0.048	0.427
-615.303	21.365	0.115	-0.094
-614.288	-200.000	0.015	-0.286
-613.273	366.602	0.257	-0.518
-612.259	318.880	-0.082	0.155
-611.244	800.000	-0.010	0.033
-610.230	-98.119	0.081	0.021
-609.215	-150.283	0.277	-0.021
-608.201	-200.000	0.026	-0.154
-607.186	-200.000	-0.030	-0.568
-606.171	-43.071	-0.262	-0.133
-605.157	755.519	0.016	0.044
-604.142	800.000	-0.033	-0.129
-603.128	55.344	0.128	-0.124
-602.113	46.638	-0.149	-0.138
-601.098	448.553	0.212	0.467
-600.084	3.816	0.092	-0.067
-599.069	-200.000	0.042	-0.210
-598.055	-62.201	0.294	0.122
-597.040	190.309	-0.169	0.254
-596.025	-33.736	-0.266	0.146
-595.011	-102.480	0.219	-0.052
-593.996	-13.333	0.345	0.223
-592.982	-158.136	-0.495	-0.029
-591.967	-200.000	0.024	0.133
-590.952	-200.000	0.004	-0.135
-589.938	800.000	0.071	0.207
-588.923	-200.000	0.016	0.175
-587.909	-200.000	-0.006	-0.134
-586.894	94.367	0.330	-0.374
-585.879	-200.000	0.047	0.229
-584.865	-47.822	-0.246	0.119
-583.850	-105.103	-0.706	0.161
-582.836	-148.851	0.251	0.020
-581.821	-78.507	-0.140	0.048
-580.806	-200.000	-0.278	-0.001
-579.792	-153.322	0.038	0.003
-578.777	674.392	-0.044	0.115
-577.763	-46.822	0.067	-0.033
-576.748	-96.373	-0.258	0.068
-575.733	-46.227	-0.239	0.117
-574.719	28.077	0.080	0.068
-573.704	12.882	0.129	0.099
-572.690	800.000	-0.072	0.294
-571.675	144.062	-0.137	0.183
-570.661	-55.283	0.317	0.142
-569.646	38.224	-0.298	0.265
-568.631	-146.444	-0.079	-0.007
-567.617	-111.567	-0.303	0.061
-566.602	-21.309	-0.217	0.133
-565.588	763.081	0.046	-0.124
-564.573	-61.017	0.310	0.131
-563.558	400.043	0.079	-0.165
-562.544	5.989	-0.105	-0.077
-561.529	-130.783	-0.177	-0.024
-560.515	310.867	-0.073	0.136
-559.500	367.868	0.080	0.160
-558.485	-108.576	-0.229	0.049
-557.471	64.640	0.103	-0.104
-556.456	343.202	0.044	-0.087
-555.442	72.904	0.213	-0.222
-554.427	93.233	0.051	-0.058
-553.412	-88.075	0.618	-0.185
-552.398	54.348	-0.324	-0.311
-551.383	153.772	0.020	0.027
-550.369	3.987	0.324	0.237
-549.354	-62.640	0.202	-0.083
-548.339	-2.487	-0.162	-0.113
-547.325	-58.608	0.112	0.048
-546.310	579.157	-0.073	-0.177
-545.296	-99.818	0.139	-0.035
-544.281	-30.227	-0.120	0.068
-543.266	-98.518	0.215	-0.055
-542.252	672.064	0.140	0.361
-541.237	-137.165	0.200	-0.023
-540.223	-30.715	-0.228	0.129
-539.208	-78.039	0.305	0.105
-538.193	800.000	0.011	0.044
-537.179	256.957	0.127	0.217
-536.164	-200.000	-0.009	0.079
-535.150	-200.000	-0.003	0.118
-534.135	-33.079	-0.263	-0.145
-533.121	52.410	0.263	-0.250
-532.106	-3.238	-0.221	0.154
-531.091	65.968	0.118	0.119
-530.077	95.873	0.128	0.146
-529.062	15.257	0.413	0.323
-528.048	-111.249	0.247	0.050
-527.033	-116.145	0.201	-0.037
-526.018	13.215	0.039	0.030
-525.004	-200.000	0.012	-0.161
-523.989	-200.000	0.006	-0.277
-522.975	-200.000	-0.065	-0.351
-521.960	-200.000	0.027	-0.212
-520.945	200.343	-0.270	-0.413
-519.931	-55.167	-0.375	-0.168
-518.916	-13.975	0.143	-0.092
-517.902	-113.766	-0.124	0.024
-516.887	495.565	-0.156	0.356
-515.872	-98.452	-0.263	0.067
-514.858	-200.000	0.080	-0.356
-513.843	-16.873	-0.254	-0.160
-512.829	-33.530	-0.107	0.059
-511.814	415.361	-0.065	-0.138
-510.799	36.800	-0.203	0.179
-509.785	800.000	0.050	-0.180
-508.770	-182.321	-0.134	0.002
-507.756	-47.899	-0.412	-0.198
-506.741	-118.054	-0.119	-0.021
-505.726	-156.726	0.230	-0.014
-504.712	-126.000	-0.186	0.028
-503.697	152.684	0.296	-0.403
-502.683	4.453	-0.289	-0.211
-501.668	-91.175	0.418	0.119
-500.653	38.907	-0.181	0.161
-499.639	-78.835	-0.202	-0.069
-498.624	3.567	0.300	-0.218
-497.610	75.918	-0.008	0.008
-496.595	56.830	-0.204	0.198
-495.581	718.521	0.129	0.342
-494.566	-85.828	0.244	0.075
-493.551	131.071	0.080	-0.102
-492.537	27.372	0.331	-0.276
-491.522	-200.000	-0.011	-0.086
-490.508	698.714	0.076	-0.198
-489.493	-47.202	0.093	0.045
-488.478	274.760	0.194	0.343
-487.464	143.932	-0.047	-0.062
-486.449	136.470	-0.234	0.304
-485.435	175.538	0.053	0.076
-484.420	800.000	0.024	-0.070
-483.405	-200.000	0.059	-0.383
-482.391	313.719	-0.085	-0.158
-481.376	209.340	-0.232	0.362
-480.362	74.393	0.129	-0.134
-479.347	746.871	-0.206	-0.553
-478.332	800.000	0.110	0.446
-477.318	800.000	0.071	0.290
-476.303	244.487	0.043	0.071
-475.289	800.000	0.031	-0.101
-474.274	41.501	-0.280	-0.252
-473.259	77.336	-0.223	-0.236
-472.245	-149.708	-0.186	-0.015
-471.230	-115.046	0.560	0.106
-470.216	446.850	0.065	0.141
-469.201	308.165	0.104	0.193
-468.186	-81.462	-0.016	-0.005
-467.172	47.638	0.230	0.213
-466.157	-140.064	0.169	-0.018
-465.143	-112.286	-0.072	-0.014
-464.128	-85.688	0.144	-0.045
-463.113	-200.000	0.006	-0.145
-462.099	54.545	0.143	0.137
-461.084	-77.551	0.014	-0.005
-460.070	-200.000	0.002	-0.017
-459.055	-55.783	-0.163	0.072
-458.040	230.658	-0.085	0.137
-457.026	-200.000	0.021	-0.238
-456.011	-200.000	0.083	-0.524
-454.997	-200.000	-0.001	-0.033
-453.982	351.161	-0.079	0.156
-452.968	93.531	0.057	-0.065
-451.953	-160.029	-0.291	-0.016
-450.938	-34.266	-0.195	0.106
-449.924	-13.261	-0.198	-0.128
-448.909	-200.000	-0.098	-0.437
-447.895	-12.189	0.253	0.164
-446.880	-43.983	-0.311	-0.155
-445.865	800.000	0.081	0.313
-444.851	-200.000	0.013	-0.268
-443.836	-200.000	-0.015	-0.182
-442.822	-49.883	0.224	-0.106
-441.807	-200.000	-0.008	0.173
-440.792	315.000	-0.029	-0.055
-439.778	-109.532	0.294	-0.062
-438.763	321.402	0.103	-0.195
-437.749	657.747	-0.119	-0.304
-436.734	416.441	-0.122	0.259
-435.719	-96.028	0.309	0.082
-434.705	360.663	-0.171	-0.340
-433.690	-200.000	-0.008	0.171
-432.676	65.829	-0.157	0.158
-431.661	-200.000	-0.039	0.294
-430.646	606.074	-0.167	0.413
-429.632	-83.669	-0.478	0.152
-428.617	491.269	0.061	0.138
-427.603	-200.000	0.082	0.405
-426.588	-10.177	-0.200	0.132
-425.573	800.000	0.092	0.363
-424.559	169.534	-0.035	-0.050
-423.544	21.460	0.104	-0.084
-422.530	-126.954	0.356	0.052
-421.515	-200.000	-0.018	0.238
-420.500	69.069	-0.476	0.485
-419.486	-25.038	0.066	-0.039
-418.471	34.644	0.071	-0.062
-417.457	800.000	-0.076	-0.283
-416.442	18.137	0.172	0.136
-415.428	-141.485	0.048	-0.005
-414.413	423.794	-0.075	-0.161
-413.398	-25.396	-0.210	-0.123
-412.384	8.680	-0.190	-0.142
-411.369	510.006	0.086	0.198
-410.355	-132.311	0.232	-0.030
-409.340	-1.886	0.086	-0.060
-408.325	-200.000	-0.009	-0.123
-407.311	-52.106	0.134	0.062
-406.296	114.276	-0.085	-0.102
-405.282	-93.896	0.061	-0.017
-404.267	278.877	0.214	0.379
-403.252	-200.000	-0.008	-0.102
-402.238	55.287	0.280	0.269
-401.223	-54.575	-0.317	-0.142
-400.209	-1.955	-0.219	0.153
-399.194	800.000	-0.034	-0.139
-398.179	168.384	-0.066	0.093
-397.165	-200.000	0.005	0.032
-396.150	139.930	-0.151	-0.197
-395.136	-5.896	-0.221	0.150
-394.121	-200.000	-0.026	-0.144
-393.106	-93.508	-0.421	-0.115
-392.092	218.991	-0.093	0.147
-391.077	-45.775	-0.190	-0.093
-390.063	76.032	0.117	-0.123
-389.048	-200.000	-0.038	-0.301
-388.033	39.294	0.147	-0.130
-387.019	-34.133	0.267	0.145
-386.004	-110.811	-0.085	-0.017
-384.990	57.497	0.180	-0.174
-383.975	-169.074	0.477	0.018
-382.960	-5.425	0.137	0.094
-381.946	14.480	0.253	0.196
-380.931	-48.894	0.171	0.081
-379.917	800.000	0.063	0.216
-378.902	-31.952	0.148	0.082
-377.888	101.079	0.123	0.142
-376.873	-200.000	0.049	0.284
-375.858	357.853	-0.073	-0.145
-374.844	-102.204	-0.169	0.040
-373.829	256.775	-0.079	0.134
-372.815	47.146	-0.247	-0.228
-371.800	-200.000	-0.003	0.098
-370.785	-200.000	0.007	0.051
-369.771	-200.000	0.032	0.370
-368.756	228.656	-0.134	-0.216
-367.742	185.661	0.149	0.220
-366.727	27.950	-0.283	0.236
-365.712	227.428	0.144	0.231
-364.698	-123.149	-0.127	-0.020
-363.683	158.676	0.156	-0.214
-362.669	2.923	-0.151	-0.108
-361.654	-94.418	-0.171	0.046
-360.639	-155.349	-0.229	-0.015
-359.625	-200.000	-0.045	-0.255
-358.610	285.366	0.276	-0.493
-357.596	27.645	0.160	-0.133
-356.581	319.568	-0.075	0.141
-355.566	163.333	-0.309	-0.430
-354.552	-200.000	-0.012	-0.069
-353.537	192.481	-0.047	-0.071
-352.523	800.000	0.093	-0.283
-351.508	-200.000	0.016	0.097
-350.493	184.037	0.060	-0.088
-349.479	-200.000	0.033	0.177
-348.464	339.504	0.110	-0.213
-347.450	-72.373	0.119	0.043
-346.435	127.856	0.144	0.181
-345.420	-200.000	0.039	-0.266
-344.406	800.000	0.035	-0.115
-343.391	800.000	-0.048	-0.134
-342.377	106.954	-0.185	0.217
-341.362	134.045	-0.168	-0.215
-340.348	135.509	-0.145	-0.187
-339.333	55.640	-0.179	-0.171
-338.318	31.375	-0.320	0.271
-337.304	-13.596	0.376	0.241
-336.289	590.102	-0.066	-0.162
-335.275	413.616	-0.087	0.182
-334.260	67.186	-0.122	0.123
-333.245	57.098	0.160	0.154
-332.231	49.355	-0.109	-0.102
-331.216	197.032	0.042	-0.064
-330.202	526.600	-0.080	-0.186
-329.187	-200.000	0.018	0.290
-328.172	141.510	-0.128	0.167
-327.158	307.498	-0.162	0.298
-326.143	410.687	-0.147	0.309
-325.129	-200.000	0.006	0.089
-324.114	800.000	-0.034	0.132
-323.099	800.000	-0.093	0.345
-322.085	-200.000	0.006	0.253
-321.070	44.283	-0.053	0.048
-320.056	216.940	-0.089	0.140
-319.041	800.000	-0.048	-0.174
-318.026	800.000	-0.024	-0.096
-317.012	270.455	-0.044	0.076
-315.997	800.000	-0.049	-0.212
-314.983	-200.000	-0.124	-0.610
-313.968	-200.000	-0.051	-0.400
-312.953	219.183	-0.014	-0.022
-311.939	433.189	-0.014	-0.030
-310.924	-63.771	0.352	-0.142
-309.910	-200.000	0.007	-0.047
-308.895	-6.002	-0.216	0.146
-307.880	-200.000	0.063	0.469
-306.866	135.650	0.125	0.161
-305.851	-151.432	0.215	0.016
-304.837	222.995	-0.131	0.208
-303.822	-75.481	0.157	0.055
-302.807	800.000	0.070	0.202
-301.793	-200.000	-0.035	-0.301
-300.778	33.811	0.100	-0.086
-299.764	-50.057	-0.156	-0.073
-298.749	12.485	0.036	-0.028
-297.735	-200.000	0.006	0.103
-296.720	800.000	0.034	0.135
-295.705	-48.292	-0.216	0.103
-294.691	800.000	0.040	-0.120
-293.676	12.286	-0.108	-0.082
-292.662	16.270	0.290	0.226
-291.647	109.080	0.036	-0.043
-290.632	-91.732	0.244	-0.068
-289.618	78.468	-0.080	-0.084
-288.603	147.191	-0.085	-0.112
-287.589	15.475	0.132	0.102
-286.574	-16.584	0.201	0.126
-285.559	-200.000	0.048	0.513
-284.545	115.772	0.183	0.221
-283.530	800.000	0.076	0.254
-282.516	48.881	0.093	0.087
-281.501	-200.000	0.038	-0.192
-280.486	-136.789	-0.232	0.026
-279.472	-91.659	-0.332	-0.093
-278.457	-28.004	0.096	0.055
-277.443	-200.000	0.004	-0.020
-276.428	800.000	0.043	0.121
-275.413	2.571	0.145	-0.104
-274.399	-149.430	-0.101	-0.008
-273.384	-136.848	-0.314	-0.036
-272.370	-27.366	-0.310	-0.178
-271.355	22.513	0.253	-0.204
-270.340	-124.948	-0.101	0.015
-269.326	76.330	0.118	0.123
-268.311	-2.810	0.177	0.122
-267.297	-200.000	-0.009	-0.085
-266.282	-38.638	-0.391	-0.204
-265.267	297.522	0.074	0.135
-264.253	145.337	0.168	0.222
-263.238	-200.000	0.010	0.091
-262.224	236.845	-0.095	-0.155
-261.209	-85.555	0.164	0.050
-260.195	78.802	-0.064	0.067
-259.180	92.033	0.142	0.158
-258.165	196.320	0.091	-0.136
-257.151	-63.253	-0.332	0.135
-256.136	33.664	0.202	-0.173
-255.122	-109.274	0.336	-0.070
-254.107	-104.041	0.129	0.030
-253.092	-108.493	-0.158	-0.034
-252.078	800.000	-0.045	-0.178
-251.063	31.627	0.038	0.033
-250.049	800.000	-0.085	-0.237
-249.034	-156.117	-0.060	-0.004
-248.019	115.608	0.056	0.068
-247.005	-200.000	0.017	0.301
-245.990	-163.959	-0.206	0.009
-244.976	-200.000	0.001	-0.116
-243.961	89.514	0.131	0.144
-242.946	-200.000	0.026	0.269
-241.932	77.303	-0.231	0.243
-240.917	266.427	0.129	-0.222
-239.903	-200.000	-0.016	-0.176
-238.888	-107.357	-0.133	0.029
-237.873	-103.535	-0.099	-0.023
-236.859	-124.317	-0.137	-0.021
-235.844	84.151	-0.189	-0.204
-234.830	156.067	-0.094	0.127
-233.815	-36.320	-0.244	0.130
-232.800	-105.697	-0.204	0.045
-231.786	23.797	0.074	-0.060
-230.771	-46.983	-0.123	0.059
-229.757	-163.261	-0.105	-0.005
-228.742	800.000	0.148	-0.510
-227.727	-17.478	0.157	-0.097
-226.713	-109.785	0.215	0.045
-225.698	-86.995	-0.018	0.005
-224.684	-123.849	-0.131	0.020
-223.669	-80.081	0.440	0.145
-222.655	-175.312	-0.059	0.002
-221.640	35.952	0.126	0.109
-220.625	800.000	-0.125	0.377
-219.611	-200.000	0.051	-0.224
-218.596	158.533	0.107	0.146
-217.582	382.112	-0.069	-0.140
-216.567	-188.912	0.365	-0.004
-215.552	488.663	-0.048	0.107
-214.538	-104.541	0.057	-0.013
-213.523	89.541	0.190	0.209
-212.509	-8.577	-0.103	-0.068
-211.494	-182.879	-0.072	0.001
-210.479	800.000	-0.120	-0.390
-209.465	7.659	0.043	-0.032
-208.450	21.578	0.178	-0.143
-207.436	31.073	0.233	0.197
-206.421	-200.000	-0.001	0.149
-205.406	267.761	-0.096	-0.165
-204.392	-200.000	0.015	0.093
-203.377	-162.964	-0.449	-0.021
-202.363	-200.000	-0.015	-0.168
-201.348	167.219	0.091	-0.127
-200.333	-200.000	-0.008	-0.136
-199.319	-118.779	0.165	-0.029
-198.304	-164.032	-0.170	-0.008
-197.290	-200.000	0.012	0.082
-196.275	57.951	-0.178	-0.171
-195.260	306.826	-0.148	-0.270
-194.246	-200.000	0.039	-0.262
-193.231	-200.000	-0.059	-0.271
-192.217	13.019	0.167	-0.127
-191.202	-49.430	0.231	0.108
-190.187	800.000	0.035	-0.102
-189.173	-67.040	0.290	0.113
-188.158	-100.925	0.173	0.042
-187.144	92.029	0.146	-0.162
-186.129	-162.212	0.174	0.009
-185.114	35.785	-0.243	0.210
-184.100	-181.608	-0.254	0.005
-183.085	406.057	-0.065	0.135
-182.071	213.640	-0.259	-0.402
-181.056	89.562	0.182	-0.199
-180.042	-105.462	0.056	0.013
-179.027	-123.503	0.143	-0.022
-178.012	371.407	0.233	-0.465
-176.998	-44.026	-0.229	-0.113
-175.983	-158.233	-0.094	-0.005
-174.969	72.312	0.121	0.124
-173.954	695.826	-0.041	0.105
-172.939	-177.820	0.123	0.003
-171.925	800.000	-0.141	0.448
-170.910	-200.000	0.050	0.265
-169.896	-200.000	0.065	-0.460
-168.881	-200.000	-0.000	0.284
-167.866	-33.863	0.121	0.066
-166.852	307.760	-0.078	0.143
-165.837	-152.213	0.222	0.016
-164.823	-54.046	-0.070	-0.031
-163.808	-10.415	0.236	-0.154
-162.793	-102.244	-0.163	0.038
-161.779	-65.621	-0.118	-0.047
-160.764	-200.000	-0.014	-0.083
-159.750	-5.544	-0.119	-0.080
-158.735	3.314	-0.097	-0.069
-157.720	24.034	0.233	0.189
-156.706	6.215	0.190	-0.138
-155.691	-200.000	-0.002	-0.334
-154.677	-169.697	-0.215	0.008
-153.662	51.688	0.293	-0.274
-152.647	40.355	-0.222	0.196
-151.633	477.197	0.024	0.054
-150.618	-200.000	-0.001	-0.365
-149.604	-132.184	-0.205	0.026
-148.589	-131.214	0.454	0.059
-147.574	107.112	0.172	-0.201
-146.560	4.650	-0.136	-0.098
-145.545	96.775	0.143	-0.161
-144.531	-28.653	0.119	-0.067
-143.516	-112.317	0.285	-0.056
-142.502	-150.303	0.208	-0.016
-141.487	-5.906	0.316	-0.213
-140.472	23.137	-0.128	-0.103
-139.458	418.817	0.120	0.253
-138.443	-42.213	-0.141	-0.071
-137.429	-200.000	-0.098	0.450
-136.414	-125.450	-0.049	0.007
-135.399	123.141	0.042	-0.051
-134.385	-200.000	0.015	-0.086
-133.370	10.533	0.281	0.210
-132.356	489.417	-0.114	-0.256
-131.341	-65.695	0.129	0.051
-130.326	177.118	-0.183	-0.262
-129.312	-200.000	0.032	-0.217
-128.297	-86.367	0.221	-0.067
-127.283	53.724	-0.414	0.390
-126.268	-61.989	-0.303	0.124
-125.253	-132.030	0.141	-0.018
-124.239	480.206	-0.215	-0.478
-123.224	338.006	0.027	0.051
-122.210	454.217	0.166	0.360
-121.195	-47.477	0.164	-0.078
-120.180	-200.000	0.025	-0.455
