DTS Sentinel unit serial number:	SN413079Multiplexer serial number:	ORYXHardware model number:	OX4-SRSoftware version number:	ORYX F/W v4.00 Oryx Data Collector v3.7.2.0data status	okinstallation	princeton_trtdifferential loss correction	single-endedforward channel	channel 3reverse channel	N/Adate	2019/09/16time	16:28:35forward acquisition time	60.00reverse acquisition time	0.00gamma	496.2192k internal	0.2294k external	0.2294temperature offset calibration	0.9945default loss term (dB/km)	0.3790temperature slope calibration	1.0000multiplexer offset coefficient	1.0000multiplexer slope coefficient	1.0000fibre end	0.00T internal ref (°C)	40.25T ext. ref 1 (°C)	15.08T ext. ref 2 (°C)	33.99length (m)	temperature (°C)	Stokes	anti-Stokes-747.200	-115.437	0.059	-0.011
-746.185	-144.596	-0.338	0.032
-745.171	-95.045	0.159	0.044
-744.156	-115.722	-0.125	-0.024
-743.142	-95.536	0.152	0.042
-742.127	-200.000	0.033	0.164
-741.112	-52.610	-0.422	0.199
-740.098	800.000	-0.163	0.543
-739.083	431.065	0.062	0.137
-738.069	14.828	-0.051	0.041
-737.054	-33.248	-0.305	0.173
-736.039	800.000	-0.035	0.121
-735.025	42.375	0.176	0.163
-734.010	485.556	0.188	-0.438
-732.996	-26.198	-0.099	-0.060
-731.981	189.253	0.112	0.172
-730.966	-151.559	-0.173	0.013
-729.952	277.133	-0.062	0.113
-728.937	-200.000	-0.042	-0.402
-727.923	-5.487	-0.096	-0.067
-726.908	4.333	-0.206	0.155
-725.894	-66.035	-0.227	-0.092
-724.879	39.029	0.066	0.061
-723.864	19.382	-0.043	-0.035
-722.850	72.258	0.092	-0.098
-721.835	-5.648	0.194	-0.136
-720.821	334.023	0.094	0.185
-719.806	-193.912	-0.158	-0.001
-718.791	32.125	0.226	-0.199
-717.777	-200.000	-0.003	-0.239
-716.762	-200.000	0.028	-0.132
-715.748	78.588	-0.295	-0.322
-714.733	800.000	0.104	0.317
-713.718	-200.000	0.015	0.205
-712.704	518.273	0.112	-0.268
-711.689	405.758	0.017	-0.038
-710.675	27.640	-0.207	0.178
-709.660	-120.061	-0.308	-0.054
-708.645	-55.919	0.315	-0.144
-707.631	-41.346	0.061	0.032
-706.616	498.489	0.029	0.068
-705.602	-200.000	-0.008	-0.041
-704.587	503.448	0.197	-0.465
-703.572	194.020	0.121	-0.187
-702.558	222.706	0.063	-0.104
-701.543	-69.042	0.083	-0.033
-700.529	-31.363	-0.076	0.044
-699.514	48.816	0.174	-0.166
-698.499	348.910	-0.066	-0.133
-697.485	513.540	-0.084	0.200
-696.470	258.151	0.058	0.103
-695.456	229.456	-0.077	-0.128
-694.441	-200.000	-0.064	-0.297
-693.426	3.508	0.163	0.121
-692.412	-200.000	-0.026	-0.185
-691.397	-102.922	-0.058	0.014
-690.383	800.000	0.048	-0.213
-689.368	54.422	-0.032	0.031
-688.354	345.725	0.126	0.254
-687.339	211.696	0.126	0.202
-686.324	800.000	0.020	0.061
-685.310	220.503	0.070	-0.114
-684.295	153.651	-0.140	0.195
-683.281	768.398	-0.031	0.086
-682.266	630.510	-0.115	-0.296
-681.251	41.699	-0.177	-0.164
-680.237	754.412	0.210	-0.580
-679.222	-200.000	-0.021	-0.153
-678.208	-186.244	-0.262	0.004
-677.193	282.805	-0.105	-0.192
-676.178	10.618	-0.228	0.178
-675.164	262.377	0.067	0.118
-674.149	800.000	0.050	0.140
-673.135	82.774	-0.035	-0.039
-672.120	432.159	-0.086	-0.190
-671.105	-67.125	-0.134	0.054
-670.091	-200.000	0.015	-0.130
-669.076	-58.264	-0.041	-0.018
-668.062	784.425	0.055	0.154
-667.047	372.630	0.095	0.197
-666.032	-52.917	0.174	-0.082
-665.018	-100.017	-0.285	-0.072
-664.003	255.630	0.108	0.190
-662.989	800.000	0.062	-0.222
-661.974	-149.267	-0.399	-0.032
-660.959	32.175	0.323	-0.284
-659.945	-1.540	0.050	-0.036
-658.930	176.364	-0.216	0.319
-657.916	-105.836	0.157	0.036
-656.901	-87.086	0.182	-0.057
-655.886	200.111	-0.165	-0.258
-654.872	-195.889	-0.142	0.001
-653.857	-134.582	-0.198	0.025
-652.843	-165.842	0.200	-0.009
-651.828	-154.267	-0.352	0.024
-650.814	-68.817	-0.156	0.061
-649.799	4.026	-0.309	-0.230
-648.784	-120.661	-0.411	0.071
-647.770	-87.604	-0.217	0.067
-646.755	19.286	0.176	0.144
-645.741	-12.020	-0.385	0.257
-644.726	110.205	-0.069	0.085
-643.711	68.985	-0.072	-0.076
-642.697	12.279	0.171	0.134
-641.682	-200.000	0.047	-0.260
-640.668	-20.302	0.167	-0.105
-639.653	-66.532	-0.108	0.044
-638.638	-16.463	-0.133	0.086
-637.624	-165.083	0.141	-0.006
-636.609	-16.228	0.373	0.241
-635.595	-32.428	-0.113	-0.064
-634.580	800.000	-0.026	0.115
-633.565	461.311	0.054	-0.123
-632.551	-7.708	-0.258	-0.177
-631.536	-200.000	0.054	-0.359
-630.522	-200.000	-0.002	-0.199
-629.507	169.572	0.234	0.340
-628.492	179.587	-0.142	0.212
-627.478	60.214	0.118	0.118
-626.463	-200.000	-0.051	-0.325
-625.449	-41.165	0.041	-0.021
-624.434	11.216	-0.070	-0.055
-623.419	19.906	0.279	-0.229
-622.405	-34.496	-0.137	0.076
-621.390	-76.425	-0.384	0.138
-620.376	95.066	-0.039	-0.045
-619.361	0.461	0.337	0.245
-618.346	-14.589	-0.063	-0.041
-617.332	218.479	-0.118	-0.192
-616.317	-200.000	0.017	0.292
-615.303	-200.000	-0.019	-0.123
-614.288	-99.485	-0.227	-0.058
-613.273	-200.000	-0.016	-0.206
-612.259	78.171	-0.053	0.057
-611.244	329.899	0.069	-0.135
-610.230	2.383	-0.316	-0.233
-609.215	-200.000	-0.007	-0.230
-608.201	-54.609	0.168	-0.077
-607.186	474.959	0.075	-0.173
-606.171	98.735	-0.130	-0.153
-605.157	-105.849	-0.275	-0.063
-604.142	-200.000	0.030	0.422
-603.128	-200.000	-0.008	0.056
-602.113	-200.000	0.002	0.043
-601.098	-200.000	0.059	0.321
-600.084	800.000	-0.017	0.058
-599.069	-6.337	0.073	-0.051
-598.055	100.357	-0.286	-0.337
-597.040	142.430	-0.232	-0.314
-596.025	-167.136	0.083	-0.003
-595.011	800.000	-0.103	-0.348
-593.996	-1.672	-0.043	-0.031
-592.982	75.731	0.142	-0.153
-591.967	-26.296	0.226	-0.135
-590.952	105.854	-0.149	0.179
-589.938	-200.000	0.060	-0.398
-588.923	-66.846	-0.098	0.039
-587.909	800.000	-0.030	-0.107
-586.894	-102.407	0.071	-0.017
-585.879	117.290	-0.232	-0.290
-584.865	-38.190	0.115	-0.062
-583.850	-200.000	-0.051	-0.297
-582.836	-99.774	-0.185	-0.047
-581.821	-200.000	-0.013	-0.270
-580.806	-200.000	0.007	-0.158
-579.792	-38.263	0.160	-0.086
-578.777	448.803	0.049	0.109
-577.763	104.320	-0.080	0.096
-576.748	263.054	0.162	-0.285
-575.733	-200.000	-0.024	-0.122
-574.719	14.646	0.198	-0.157
-573.704	800.000	0.074	0.222
-572.690	-200.000	0.023	-0.359
-571.675	-61.751	0.228	-0.097
-570.661	800.000	-0.122	-0.415
-569.646	-200.000	-0.008	0.068
-568.631	383.532	-0.118	0.246
-567.617	154.494	-0.116	-0.162
-566.602	-46.278	-0.306	-0.153
-565.588	70.946	-0.400	0.421
-564.573	-200.000	-0.050	0.295
-563.558	-200.000	-0.041	0.267
-562.544	800.000	-0.043	0.175
-561.529	27.044	0.174	-0.148
-560.515	-200.000	-0.020	-0.135
-559.500	-134.992	0.274	-0.034
-558.485	-130.923	-0.172	-0.023
-557.471	-127.437	0.098	-0.014
-556.456	-101.284	0.111	-0.028
-555.442	-162.723	-0.630	-0.031
-554.427	-200.000	0.036	-0.187
-553.412	-200.000	0.075	0.472
-552.398	334.916	0.144	0.282
-551.383	37.687	-0.178	0.160
-550.369	800.000	-0.121	0.399
-549.354	-200.000	0.009	-0.073
-548.339	-152.811	-0.247	-0.018
-547.325	800.000	-0.023	-0.081
-546.310	-70.251	0.295	-0.114
-545.296	447.511	-0.068	-0.152
-544.281	315.263	0.059	0.112
-543.266	128.879	-0.038	-0.049
-542.252	-200.000	-0.083	0.439
-541.237	67.777	0.350	0.363
-540.223	110.456	-0.231	0.282
-539.208	-83.530	0.223	-0.072
-538.193	800.000	-0.044	-0.141
-537.179	122.482	-0.105	0.133
-536.164	-92.605	0.251	-0.071
-535.150	-138.725	0.293	0.032
-534.135	151.053	-0.142	-0.196
-533.121	-200.000	-0.016	-0.350
-532.106	155.049	0.094	0.131
-531.091	-118.455	0.063	0.011
-530.077	625.190	0.058	0.149
-529.062	532.325	-0.089	0.215
-528.048	-29.504	-0.139	-0.081
-527.033	-200.000	-0.018	0.143
-526.018	-73.489	0.193	0.072
-525.004	-93.374	0.104	-0.029
-523.989	-102.147	-0.177	0.043
-522.975	477.053	0.098	-0.226
-521.960	-146.836	-0.321	0.028
-520.945	-158.150	-0.210	0.012
-519.931	-200.000	-0.039	0.363
-518.916	1.374	-0.161	-0.117
-517.902	-100.158	-0.105	-0.026
-516.887	50.309	-0.104	-0.099
-515.872	211.320	0.191	0.304
-514.858	-200.000	-0.056	0.300
-513.843	-30.055	0.173	0.100
-512.829	416.384	0.085	-0.184
-511.814	800.000	0.061	-0.218
-510.799	-200.000	0.053	0.428
-509.785	104.794	0.249	-0.297
-508.770	800.000	0.161	-0.535
-507.756	177.976	-0.178	-0.262
-506.741	314.889	0.124	0.237
-505.726	-34.998	0.363	-0.200
-504.712	100.256	-0.039	0.046
-503.697	800.000	0.057	0.191
-502.683	-200.000	0.003	0.035
-501.668	-5.758	0.211	-0.146
-500.653	-169.101	-0.169	0.006
-499.639	175.532	-0.125	-0.184
-498.624	76.489	0.136	0.146
-497.610	-148.173	0.438	-0.037
-496.595	-63.389	0.051	0.021
-495.581	800.000	0.063	-0.177
-494.566	-70.757	0.159	0.061
-493.551	591.937	0.095	0.236
-492.537	-22.391	0.112	0.069
-491.522	-65.591	-0.177	0.072
-490.508	-90.829	-0.334	0.097
-489.493	338.986	-0.146	0.289
-488.478	-33.236	-0.057	-0.032
-487.464	800.000	-0.146	0.427
-486.449	-94.834	0.027	-0.007
-485.435	800.000	0.092	-0.280
-484.420	352.335	0.097	-0.195
-483.405	103.739	-0.128	-0.152
-482.391	-39.175	-0.122	-0.065
-481.376	-3.196	0.105	-0.074
-480.362	-45.489	-0.177	-0.089
-479.347	104.653	-0.034	0.040
-478.332	-33.020	-0.216	0.121
-477.318	-77.477	-0.109	-0.038
-476.303	600.424	0.064	-0.162
-475.289	-7.299	-0.303	0.208
-474.274	-119.655	0.142	0.025
-473.259	71.648	0.289	-0.304
-472.245	-94.322	0.308	-0.085
-471.230	-63.410	-0.134	-0.056
-470.216	169.045	0.146	-0.210
-469.201	-80.059	0.197	-0.067
-468.186	-47.056	0.146	-0.072
-467.172	-200.000	0.042	0.287
-466.157	-16.872	-0.108	-0.069
-465.143	-58.352	-0.226	0.099
-464.128	85.711	-0.043	-0.048
-463.113	-121.953	-0.113	-0.019
-462.099	-62.060	0.139	-0.059
-461.084	627.072	-0.118	0.301
-460.070	347.577	0.131	-0.262
-459.055	-23.129	0.088	0.053
-458.040	-17.132	0.285	0.182
-457.026	50.426	0.144	0.138
-456.011	-105.867	-0.185	-0.042
-454.997	-69.417	-0.119	0.046
-453.982	-41.321	-0.397	0.207
-452.968	-2.762	-0.055	0.039
-451.953	-118.185	0.133	-0.024
-450.938	182.794	-0.140	0.208
-449.924	800.000	-0.113	-0.382
-448.909	147.127	-0.117	0.160
-447.895	99.309	0.251	-0.294
-446.880	800.000	0.019	0.068
-445.865	29.208	0.215	0.184
-444.851	-92.990	-0.335	-0.095
-443.836	-146.620	-0.326	0.029
-442.822	-200.000	-0.003	0.146
-441.807	89.756	-0.090	0.101
-440.792	172.039	0.007	-0.011
-439.778	-10.374	-0.114	0.076
-438.763	450.573	0.100	-0.223
-437.749	93.080	0.262	0.299
-436.734	253.017	-0.087	-0.151
-435.719	52.987	-0.074	0.072
-434.705	-200.000	0.028	-0.202
-433.690	196.691	0.171	0.264
-432.676	-7.221	-0.378	-0.259
-431.661	143.463	-0.279	0.375
-430.646	486.783	0.102	0.236
-429.632	-62.982	0.225	-0.094
-428.617	37.170	0.161	0.144
-427.603	15.966	0.053	0.042
-426.588	444.574	0.110	-0.243
-425.573	216.394	0.139	-0.222
-424.559	-183.712	0.274	-0.005
-423.544	304.821	0.064	0.120
-422.530	166.706	0.191	0.274
-421.515	-200.000	-0.015	-0.159
-420.500	-135.533	-0.147	0.018
-419.486	-28.692	-0.400	-0.233
-418.471	-200.000	0.020	0.145
-417.457	-200.000	-0.008	-0.127
-416.442	-89.539	0.189	0.056
-415.428	212.701	0.175	-0.278
-414.413	-10.930	-0.263	0.175
-413.398	252.165	-0.151	-0.260
-412.384	800.000	0.030	-0.098
-411.369	-60.631	-0.124	0.053
-410.355	-200.000	-0.034	0.335
-409.340	-154.115	0.284	-0.019
-408.325	99.328	-0.226	0.263
-407.311	-113.210	-0.028	-0.006
-406.296	-31.494	0.141	0.080
-405.282	-7.251	0.262	-0.179
-404.267	44.500	-0.222	0.206
-403.252	-161.436	0.573	-0.030
-402.238	-63.298	0.145	0.060
-401.223	-52.326	-0.124	-0.058
-400.209	19.938	-0.012	-0.010
-399.194	-13.644	0.197	-0.129
-398.179	-93.605	0.211	-0.059
-397.165	-155.885	0.160	-0.010
-396.150	19.886	-0.197	-0.160
-395.136	-1.785	0.163	0.116
-394.121	-84.780	0.200	-0.063
-393.106	-144.506	-0.259	-0.024
-392.092	-187.420	-0.196	-0.003
-391.077	800.000	-0.033	0.111
-390.063	-94.147	0.207	0.057
-389.048	28.586	-0.198	0.169
-388.033	38.885	-0.096	-0.087
-387.019	-113.741	-0.121	-0.024
-386.004	239.541	-0.047	0.079
-384.990	268.385	-0.057	-0.100
-383.975	-200.000	0.028	-0.180
-382.960	38.253	0.063	-0.057
-381.946	64.094	-0.110	-0.112
-380.931	20.482	0.166	0.135
-379.917	98.492	-0.226	-0.262
-378.902	74.542	0.021	-0.023
-377.888	-200.000	-0.013	0.418
-376.873	800.000	0.057	0.189
-375.858	-30.574	-0.054	0.031
-374.844	800.000	-0.028	-0.080
-373.829	-200.000	-0.050	0.223
-372.815	-20.732	0.106	-0.066
-371.800	55.675	-0.133	0.130
-370.785	-59.113	-0.219	-0.095
-369.771	-23.090	0.327	-0.198
-368.756	-200.000	-0.010	0.050
-367.742	-134.270	-0.195	0.024
-366.727	126.350	-0.143	-0.183
-365.712	-90.881	0.161	0.047
-364.698	9.623	0.235	0.179
-363.683	113.213	0.066	0.080
-362.669	-63.056	0.143	-0.060
-361.654	-45.816	-0.340	0.169
-360.639	3.143	0.236	0.173
-359.625	-100.694	0.241	0.060
-358.610	-157.068	-0.092	0.006
-357.596	-6.010	0.132	-0.091
-356.581	-50.790	-0.240	0.114
-355.566	44.551	-0.300	-0.278
-354.552	190.831	-0.109	0.164
-353.537	-200.000	-0.028	-0.184
-352.523	-10.731	0.127	-0.084
-351.508	5.682	0.098	0.073
-350.493	164.108	0.057	-0.080
-349.479	-91.271	-0.163	0.047
-348.464	-200.000	-0.039	-0.220
-347.450	-74.904	0.362	-0.131
-346.435	-120.202	-0.129	-0.022
-345.420	-81.536	-0.386	0.128
-344.406	726.627	0.015	-0.040
-343.391	-200.000	0.039	0.190
-342.377	-175.518	-0.131	-0.004
-341.362	-200.000	-0.036	-0.213
-340.348	-200.000	-0.036	-0.276
-339.333	-111.603	0.384	0.079
-338.318	707.383	0.112	0.297
-337.304	-93.093	0.154	0.043
-336.289	86.931	0.111	-0.124
-335.275	207.913	0.140	0.220
-334.260	72.649	-0.094	-0.098
-333.245	800.000	-0.038	-0.126
-332.231	800.000	-0.060	0.190
-331.216	800.000	0.033	0.092
-330.202	517.275	-0.067	0.157
-329.187	-200.000	-0.030	0.272
-328.172	-130.550	0.154	0.021
-327.158	89.465	-0.091	-0.102
-326.143	-14.890	-0.347	0.224
-325.129	118.283	0.214	0.266
-324.114	-68.119	-0.123	-0.048
-323.099	31.981	-0.258	0.223
-322.085	-56.023	0.183	-0.082
-321.070	800.000	0.038	-0.117
-320.056	-20.245	-0.085	-0.053
-319.041	-30.954	-0.387	-0.220
-318.026	86.847	0.045	-0.050
-317.012	-190.447	0.107	-0.001
-315.997	-136.912	0.172	0.020
-314.983	-200.000	0.035	0.317
-313.968	63.214	-0.065	0.065
-312.953	57.694	-0.257	0.253
-311.939	-28.815	0.164	-0.095
-310.924	-200.000	-0.015	-0.069
-309.910	64.320	0.174	-0.176
-308.895	-200.000	0.086	-0.471
-307.880	11.105	-0.066	-0.051
-306.866	124.866	0.148	-0.188
-305.851	-55.869	0.112	-0.050
-304.837	354.343	0.137	0.273
-303.822	-92.599	0.203	0.057
-302.807	-182.232	0.483	0.009
-301.793	-199.510	-0.258	-0.001
-300.778	800.000	-0.045	0.153
-299.764	127.707	-0.167	-0.213
-298.749	5.464	0.158	0.117
-297.735	-90.042	-0.646	0.189
-296.720	-92.348	0.161	-0.046
-295.705	181.499	0.240	0.355
-294.691	-50.659	-0.141	0.067
-293.676	-200.000	-0.008	-0.362
-292.662	-200.000	0.011	0.079
-291.647	44.830	-0.209	-0.194
-290.632	57.093	-0.061	-0.060
-289.618	361.544	-0.103	0.208
-288.603	-200.000	0.350	-0.001
-287.589	226.964	0.147	0.240
-286.574	676.993	0.010	0.025
-285.559	-113.740	0.256	0.050
-284.545	800.000	-0.083	-0.236
-283.530	131.808	0.256	0.330
-282.516	-54.756	-0.210	0.095
-281.501	-83.848	0.150	0.048
-280.486	-25.202	0.350	-0.208
-279.472	-118.420	-0.236	0.042
-278.457	800.000	0.090	0.257
-277.443	-27.563	-0.122	-0.071
-276.428	-161.927	0.196	0.010
-275.413	626.304	-0.018	0.045
-274.399	-120.634	0.247	0.042
-273.384	800.000	0.061	-0.206
-272.370	-27.810	-0.144	-0.084
-271.355	800.000	-0.048	0.186
-270.340	-53.340	0.228	0.105
-269.326	-200.000	0.019	0.275
-268.311	323.213	0.043	-0.081
-267.297	503.980	0.061	0.141
-266.282	99.650	-0.226	0.263
-265.267	20.333	-0.232	0.188
-264.253	398.529	-0.063	0.132
-263.238	-200.000	-0.005	0.172
-262.224	800.000	-0.031	-0.106
-261.209	-98.141	-0.139	0.036
-260.195	-117.795	0.168	-0.030
-259.180	-200.000	0.020	0.128
-258.165	46.974	-0.069	0.064
-257.151	-64.855	0.377	-0.153
-256.136	18.863	-0.150	-0.120
-255.122	505.987	0.051	0.118
-254.107	-69.847	-0.053	0.020
-253.092	-2.404	-0.263	-0.185
-252.078	-50.899	-0.155	0.073
-251.063	202.573	0.130	0.202
-250.049	-61.173	0.414	-0.175
-249.034	-200.000	-0.022	-0.211
-248.019	-200.000	-0.009	-0.149
-247.005	54.584	0.123	-0.118
-245.990	-113.883	-0.301	-0.059
-244.976	-200.000	-0.018	-0.122
-243.961	-130.163	-0.179	-0.024
-242.946	800.000	-0.049	-0.187
-241.932	69.333	0.141	-0.145
-240.917	87.485	0.187	0.208
-239.903	347.193	-0.030	0.060
-238.888	-37.415	-0.165	0.088
-237.873	-24.969	0.220	-0.131
-236.859	240.338	0.124	0.207
-235.844	800.000	-0.084	0.320
-234.830	81.639	0.239	0.260
-233.815	-198.975	0.295	-0.002
-232.800	209.561	0.036	0.057
-231.786	-78.642	0.267	0.091
-230.771	493.167	0.113	-0.260
-229.757	-17.100	-0.138	-0.087
-228.742	800.000	-0.037	0.104
-227.727	-200.000	0.033	0.164
-226.713	-58.077	-0.059	-0.026
-225.698	-10.041	-0.225	0.150
-224.684	-200.000	-0.047	-0.295
-223.669	-200.000	0.016	-0.202
-222.655	-57.391	-0.167	0.074
-221.640	32.640	-0.198	-0.172
-220.625	20.856	0.498	-0.404
-219.611	800.000	-0.047	0.182
-218.596	82.759	-0.064	0.070
-217.582	-141.428	0.281	-0.028
-216.567	414.471	-0.072	0.154
-215.552	800.000	-0.016	-0.063
-214.538	-200.000	0.026	-0.267
-213.523	81.295	-0.083	0.090
-212.509	477.745	0.227	-0.515
-211.494	198.176	-0.045	-0.069
-210.479	-200.000	0.049	-0.224
-209.465	-149.154	-0.250	-0.020
-208.450	-200.000	-0.044	-0.194
-207.436	-200.000	0.025	-0.225
-206.421	-200.000	0.040	0.335
-205.406	152.422	0.287	-0.393
-204.392	715.651	-0.157	0.417
-203.377	-200.000	-0.008	-0.075
-202.363	575.496	-0.050	-0.123
-201.348	-32.497	0.171	0.095
-200.333	-24.179	0.040	-0.024
-199.319	-77.097	-0.297	-0.104
-198.304	-200.000	0.032	0.173
-197.290	262.245	0.169	0.294
-196.275	-200.000	0.047	-0.248
-195.260	800.000	0.070	-0.197
-194.246	464.056	0.077	-0.172
-193.231	-200.000	-0.064	-0.573
-192.217	-85.492	-0.353	-0.110
-191.202	-200.000	0.020	-0.364
-190.187	407.996	0.051	0.108
-189.173	46.874	-0.205	-0.190
-188.158	-200.000	-0.056	-0.271
-187.144	14.152	0.174	0.136
-186.129	351.072	0.147	0.292
-185.114	-13.862	0.137	0.088
-184.100	-194.613	0.186	0.001
-183.085	-200.000	-0.010	0.114
-182.071	593.459	0.106	0.263
-181.056	-200.000	0.015	0.145
-180.042	-200.000	-0.026	0.160
-179.027	362.833	0.091	-0.183
-178.012	-200.000	-0.034	0.173
-176.998	180.047	0.096	-0.141
-175.983	-163.836	0.120	0.006
-174.969	38.922	-0.147	0.131
-173.954	163.836	-0.084	0.119
-172.939	-200.000	0.004	-0.097
-171.925	29.726	-0.244	0.208
-170.910	42.365	0.142	-0.129
-169.896	-149.768	0.270	0.021
-168.881	233.667	0.174	0.286
-167.866	17.155	-0.203	0.161
-166.852	151.768	-0.050	0.068
-165.837	-108.698	-0.308	-0.066
-164.823	-194.193	-0.216	-0.002
-163.808	-19.888	0.053	0.033
-162.793	361.605	-0.049	-0.098
-161.779	62.119	-0.079	0.079
-160.764	800.000	-0.043	0.165
-159.750	800.000	0.062	0.177
-158.735	768.825	-0.043	0.118
-157.720	-141.045	-0.165	-0.017
-156.706	-200.000	-0.007	0.085
-155.691	-11.638	-0.075	0.049
-154.677	207.844	-0.162	-0.252
-153.662	289.091	0.177	-0.321
-152.647	-48.508	0.095	0.046
-151.633	-58.109	-0.209	0.091
-150.618	138.936	-0.062	-0.081
-149.604	143.528	-0.081	0.107
-148.589	-128.552	0.301	-0.043
-147.574	800.000	-0.044	-0.134
-146.560	-100.468	-0.105	0.026
-145.545	529.420	0.035	-0.083
-144.531	64.989	-0.261	-0.264
-143.516	-84.842	0.102	-0.032
-142.502	65.458	-0.214	-0.216
-141.487	-53.746	-0.039	-0.018
-140.472	-200.000	0.034	0.191
-139.458	67.846	-0.213	0.218
-138.443	586.778	0.095	0.233
-137.429	-101.617	0.073	0.018
-136.414	-62.133	0.120	0.050
-135.399	67.982	0.031	0.031
-134.385	377.871	-0.110	0.224
-133.370	74.994	-0.201	0.212
-132.356	464.320	0.035	-0.077
-131.341	116.929	-0.069	-0.084
-130.326	800.000	0.055	0.232
-129.312	-111.417	-0.329	0.067
-128.297	460.713	0.040	0.089
-127.283	-200.000	0.063	0.424
-126.268	-70.882	0.430	0.162
-125.253	2.922	-0.485	0.351
-124.239	-141.942	0.526	0.052
-123.224	-153.496	-0.114	0.008
-122.210	130.656	-0.179	-0.229
-121.195	-200.000	-0.010	0.285
