DTS Sentinel unit serial number:	SN413079Multiplexer serial number:	ORYXHardware model number:	OX4-SRSoftware version number:	ORYX F/W v4.00 Oryx Data Collector v3.7.2.0data status	okinstallation	princeton_trtdifferential loss correction	single-endedforward channel	channel 3reverse channel	N/Adate	2019/09/14time	14:48:34forward acquisition time	60.00reverse acquisition time	0.00gamma	496.2192k internal	0.2293k external	0.2293temperature offset calibration	1.0055default loss term (dB/km)	0.3790temperature slope calibration	1.0000multiplexer offset coefficient	1.0000multiplexer slope coefficient	1.0000fibre end	0.00T internal ref (°C)	39.19T ext. ref 1 (°C)	4.96T ext. ref 2 (°C)	33.83length (m)	temperature (°C)	Stokes	anti-Stokes-747.200	-0.567	-0.186	0.135
-746.185	305.538	0.170	-0.323
-745.171	-25.019	0.188	-0.114
-744.156	116.069	0.101	0.126
-743.142	40.713	-0.216	0.200
-742.127	-37.238	0.308	0.168
-741.112	-1.673	0.100	0.072
-740.098	-142.358	0.057	-0.006
-739.083	-70.278	0.416	-0.162
-738.069	247.919	0.114	0.197
-737.054	653.100	0.169	0.442
-736.039	-162.320	-0.318	0.016
-735.025	-200.000	-0.009	0.154
-734.010	-69.908	-0.262	-0.102
-732.996	-14.758	0.219	-0.144
-731.981	244.650	-0.090	0.155
-730.966	-111.794	-0.137	0.028
-729.952	-40.020	-0.440	-0.235
-728.937	751.855	-0.086	0.236
-727.923	-113.060	-0.268	0.054
-726.908	93.483	-0.111	0.129
-725.894	37.947	-0.249	-0.226
-724.879	-200.000	0.126	0.000
-723.864	-200.000	-0.039	-0.214
-722.850	-108.067	-0.162	0.036
-721.835	-130.449	-0.332	-0.046
-720.821	17.761	0.141	-0.114
-719.806	-42.489	0.374	-0.195
-718.791	800.000	0.027	0.081
-717.777	345.804	-0.126	0.254
-716.762	-16.515	0.208	0.135
-715.748	736.888	0.068	0.186
-714.733	-163.184	-0.267	-0.013
-713.718	-94.992	0.154	-0.043
-712.704	-200.000	0.051	-0.332
-711.689	71.552	0.240	-0.255
-710.675	441.638	0.069	-0.153
-709.660	-100.877	0.224	-0.056
-708.645	-21.540	0.033	0.020
-707.631	125.709	-0.024	-0.031
-706.616	-42.025	-0.108	0.057
-705.602	-28.486	-0.147	0.087
-704.587	98.138	0.159	0.187
-703.572	622.301	-0.064	0.164
-702.558	-145.277	-0.176	0.016
-701.543	-173.483	0.141	0.004
-700.529	-119.856	-0.207	0.036
-699.514	56.990	-0.102	0.102
-698.499	-200.000	0.003	-0.124
-697.485	-128.237	-0.086	0.013
-696.470	636.180	0.064	-0.166
-695.456	-40.625	0.133	0.071
-694.441	800.000	0.043	-0.186
-693.426	-55.908	0.112	0.051
-692.412	800.000	0.121	-0.357
-691.397	92.788	0.078	-0.090
-690.383	-59.396	0.069	0.030
-689.368	-83.496	-0.065	0.021
-688.354	-133.326	0.223	0.029
-687.339	-200.000	0.032	-0.358
-686.324	275.073	-0.232	-0.420
-685.310	-34.112	0.210	0.118
-684.295	444.019	0.077	0.172
-683.281	79.106	-0.024	0.026
-682.266	163.373	-0.043	-0.062
-681.251	-73.357	0.139	-0.052
-680.237	-134.625	-0.270	0.034
-679.222	228.669	-0.095	0.157
-678.208	800.000	0.029	0.101
-677.193	-127.212	-0.083	0.012
-676.178	306.835	-0.285	-0.542
-675.164	800.000	0.028	-0.119
-674.149	800.000	-0.017	0.071
-673.135	333.216	0.162	-0.319
-672.120	-62.094	-0.159	0.068
-671.105	333.071	-0.053	-0.105
-670.091	-15.161	-0.164	-0.107
-669.076	-200.000	0.028	-0.156
-668.062	-8.725	0.115	0.079
-667.047	-93.157	0.053	0.015
-666.032	130.374	-0.228	-0.297
-665.018	677.624	0.055	-0.145
-664.003	616.397	-0.115	0.294
-662.989	367.987	0.047	0.096
-661.974	-93.858	0.059	0.017
-660.959	-28.580	0.199	-0.117
-659.945	151.078	0.148	0.205
-658.930	375.854	-0.146	-0.304
-657.916	358.489	-0.057	0.115
-656.901	-161.268	-0.133	0.007
-655.886	-39.044	0.113	0.060
-654.872	105.642	0.219	0.264
-653.857	-121.901	-0.453	0.076
-652.843	135.797	-0.108	0.143
-651.828	-151.625	-0.210	0.016
-650.814	-5.500	-0.122	-0.086
-649.799	123.343	-0.111	0.141
-648.784	-93.718	0.074	0.021
-647.770	-87.946	0.105	-0.032
-646.755	-50.413	-0.276	0.133
-645.741	-46.348	0.123	0.062
-644.726	233.578	-0.221	0.370
-643.711	60.796	-0.133	-0.135
-642.697	-136.471	0.181	0.021
-641.682	800.000	-0.095	0.290
-640.668	-52.211	0.200	-0.094
-639.653	16.167	0.133	-0.107
-638.638	10.738	-0.200	-0.155
-637.624	119.432	0.118	-0.148
-636.609	109.945	-0.076	-0.092
-635.595	165.564	0.280	-0.403
-634.580	800.000	0.076	-0.249
-633.565	-200.000	-0.003	-0.034
-632.551	-58.765	0.181	-0.080
-631.536	-33.087	-0.172	0.097
-630.522	-116.635	0.132	0.025
-629.507	-85.762	0.111	-0.035
-628.492	81.328	-0.176	-0.194
-627.478	800.000	0.075	-0.247
-626.463	-18.670	-0.087	-0.055
-625.449	9.384	-0.203	0.156
-624.434	-182.219	0.153	-0.003
-623.419	-61.144	0.103	-0.044
-622.405	-150.816	-0.198	0.015
-621.390	68.598	-0.150	0.156
-620.376	-62.366	-0.132	-0.056
-619.361	-200.000	-0.002	0.117
-618.346	-190.318	-0.488	-0.005
-617.332	-22.237	0.218	-0.134
-616.317	62.244	-0.059	-0.059
-615.303	-68.563	0.211	0.083
-614.288	-200.000	0.002	0.324
-613.273	161.345	0.025	-0.036
-612.259	65.410	0.070	-0.072
-611.244	-200.000	-0.073	0.345
-610.230	800.000	0.044	0.163
-609.215	-63.979	0.271	-0.113
-608.201	-152.273	0.133	-0.010
-607.186	289.618	0.027	0.051
-606.171	800.000	0.085	-0.306
-605.157	-76.806	-0.111	-0.039
-604.142	-200.000	0.040	0.204
-603.128	55.551	0.044	0.043
-602.113	13.580	-0.360	-0.284
-601.098	-120.848	0.219	0.037
-600.084	-114.333	-0.147	-0.029
-599.069	272.977	-0.040	0.072
-598.055	219.973	-0.091	0.148
-597.040	-200.000	0.054	0.363
-596.025	61.277	-0.234	0.236
-595.011	-44.840	-0.152	0.077
-593.996	-91.133	0.407	0.119
-592.982	603.839	0.169	0.428
-591.967	-97.956	-0.261	0.068
-590.952	-200.000	0.035	0.429
-589.938	-94.550	-0.445	0.123
-588.923	494.896	0.085	-0.198
-587.909	-78.038	0.151	-0.053
-586.894	102.967	0.208	-0.247
-585.879	207.052	-0.094	-0.149
-584.865	-200.000	-0.039	-0.332
-583.850	5.062	-0.039	-0.029
-582.836	-160.183	0.180	0.010
-581.821	248.558	-0.127	-0.219
-580.806	-200.000	-0.049	0.237
-579.792	-200.000	0.009	-0.098
-578.777	-200.000	-0.022	0.269
-577.763	-67.600	0.176	-0.070
-576.748	7.525	0.280	0.213
-575.733	43.302	0.312	-0.290
-574.719	-77.291	-0.363	-0.128
-573.704	543.224	0.060	-0.144
-572.690	-145.882	0.472	-0.043
-571.675	101.343	0.107	0.127
-570.661	-64.500	-0.102	0.042
-569.646	-200.000	0.033	0.211
-568.631	-64.004	0.073	-0.030
-567.617	-69.324	-0.345	-0.135
-566.602	-78.317	0.197	0.069
-565.588	-21.841	0.138	0.086
-564.573	-119.893	0.088	-0.015
-563.558	-58.962	0.369	-0.162
-562.544	735.613	0.012	-0.032
-561.529	72.553	0.109	0.116
-560.515	-200.000	0.019	-0.181
-559.500	800.000	-0.077	-0.323
-558.485	-82.798	-0.383	-0.126
-557.471	-24.054	0.164	0.099
-556.456	10.706	-0.188	0.146
-555.442	-200.000	0.013	0.200
-554.427	127.668	-0.103	-0.133
-553.412	-143.827	-0.111	-0.011
-552.398	-90.922	0.373	0.109
-551.383	198.334	-0.115	0.179
-550.369	-200.000	0.019	0.139
-549.354	-58.803	-0.133	0.059
-548.339	-200.000	-0.028	0.127
-547.325	179.950	-0.102	0.152
-546.310	-89.005	0.113	0.034
-545.296	-89.514	-0.503	-0.150
-544.281	-99.632	-0.420	-0.107
-543.266	-132.087	0.147	0.019
-542.252	-200.000	-0.042	-0.191
-541.237	-46.834	0.274	-0.136
-540.223	-200.000	0.004	0.103
-539.208	4.985	-0.249	0.186
-538.193	800.000	0.035	0.121
-537.179	-200.000	0.045	0.240
-536.164	167.179	-0.224	0.323
-535.150	7.168	0.212	-0.160
-534.135	-200.000	-0.041	0.281
-533.121	-102.834	-0.275	0.066
-532.106	-145.781	0.198	0.018
-531.091	800.000	0.059	-0.205
-530.077	800.000	0.027	0.109
-529.062	-200.000	0.046	0.308
-528.048	-30.189	0.027	0.016
-527.033	-49.364	-0.260	-0.126
-526.018	56.824	-0.076	0.075
-525.004	-127.490	0.214	-0.032
-523.989	255.654	-0.047	-0.083
-522.975	-71.959	0.080	0.030
-521.960	-12.786	-0.014	0.009
-520.945	-200.000	0.042	0.264
-519.931	-10.092	-0.031	0.021
-518.916	43.434	-0.182	-0.169
-517.902	140.602	-0.246	-0.330
-516.887	762.662	-0.068	0.186
-515.872	800.000	-0.029	-0.120
-514.858	-200.000	0.005	-0.210
-513.843	98.546	0.130	0.152
-512.829	3.505	0.232	-0.172
-511.814	-36.156	-0.111	-0.061
-510.799	14.506	0.296	0.234
-509.785	-12.476	0.151	-0.100
-508.770	42.638	0.113	-0.104
-507.756	-200.000	0.006	-0.082
-506.741	800.000	-0.094	-0.308
-505.726	-200.000	-0.012	-0.276
-504.712	-67.271	-0.202	-0.081
-503.697	-111.625	-0.132	-0.027
-502.683	-88.119	0.293	-0.089
-501.668	110.788	-0.145	0.176
-500.653	2.035	-0.100	-0.073
-499.639	-83.493	0.085	-0.027
-498.624	-156.791	-0.274	0.017
-497.610	-200.000	-0.002	-0.088
-496.595	800.000	0.071	-0.304
-495.581	-200.000	-0.005	0.083
-494.566	-200.000	-0.006	0.089
-493.551	111.664	-0.080	-0.098
-492.537	209.107	-0.272	0.431
-491.522	-88.208	-0.434	-0.132
-490.508	-147.006	0.137	0.012
-489.493	94.593	0.108	-0.124
-488.478	800.000	-0.006	0.019
-487.464	-87.205	-0.159	-0.049
-486.449	800.000	0.115	-0.389
-485.435	-200.000	0.142	-0.649
-484.420	98.467	0.211	-0.246
-483.405	800.000	0.086	-0.314
-482.391	396.394	-0.073	0.154
-481.376	-157.867	-0.201	-0.012
-480.362	42.516	-0.057	0.052
-479.347	246.124	0.068	0.117
-478.332	-21.072	0.259	-0.160
-477.318	-112.428	-0.356	-0.072
-476.303	-10.251	-0.614	-0.412
-475.289	379.411	-0.172	-0.357
-474.274	-200.000	-0.066	0.330
-473.259	-107.502	-0.323	-0.072
-472.245	-90.979	-0.201	0.058
-471.230	225.888	-0.283	-0.464
-470.216	194.198	0.081	0.124
-469.201	394.898	-0.114	-0.240
-468.186	639.026	0.082	-0.211
-467.172	-200.000	-0.595	0.002
-466.157	-200.000	-0.021	-0.273
-465.143	365.500	0.058	-0.118
-464.128	184.956	-0.166	-0.249
-463.113	-200.000	-0.013	0.323
-462.099	-135.851	-0.197	0.023
-461.084	-170.812	-0.217	0.008
-460.070	-200.000	0.040	-0.195
-459.055	368.039	0.025	0.051
-458.040	-84.731	0.217	0.069
-457.026	-200.000	-0.024	-0.185
-456.011	483.865	0.130	0.298
-454.997	-159.754	0.268	0.015
-453.982	-53.738	0.237	-0.109
-452.968	506.241	-0.012	0.029
-451.953	407.021	0.040	-0.085
-450.938	121.708	-0.051	0.064
-449.924	-200.000	-0.016	-0.272
-448.909	-200.000	0.025	-0.279
-447.895	-18.245	0.219	-0.138
-446.880	-67.805	-0.157	-0.062
-445.865	-200.000	0.008	0.241
-444.851	163.712	0.107	-0.153
-443.836	-116.647	0.034	-0.006
-442.822	105.288	-0.101	0.120
-441.807	34.635	0.242	0.214
-440.792	-97.733	0.303	-0.079
-439.778	43.997	0.213	0.197
-438.763	-108.924	0.370	0.080
-437.749	-117.361	0.128	-0.023
-436.734	510.395	0.089	-0.210
-435.719	-47.094	-0.139	0.068
-434.705	-200.000	0.058	0.358
-433.690	-127.505	0.063	0.009
-432.676	-47.531	-0.209	-0.103
-431.661	80.830	-0.102	0.111
-430.646	-111.280	-0.476	0.098
-429.632	143.582	-0.090	0.121
-428.617	-92.792	0.295	0.083
-427.603	-28.177	-0.158	-0.092
-426.588	2.081	0.300	0.219
-425.573	414.385	0.090	-0.193
-424.559	-200.000	-0.005	0.348
-423.544	-4.183	0.158	-0.110
-422.530	800.000	0.036	-0.117
-421.515	-118.255	0.178	0.032
-420.500	190.738	-0.043	0.065
-419.486	-158.173	-0.341	-0.020
-418.471	119.414	-0.138	0.173
-417.457	432.533	-0.088	0.193
-416.442	-148.588	-0.179	-0.015
-415.428	-200.000	0.005	-0.234
-414.413	-103.058	-0.326	0.078
-413.398	730.470	0.114	0.308
-412.384	-38.651	-0.274	0.146
-411.369	210.124	0.122	0.194
-410.355	800.000	-0.047	-0.197
-409.340	440.305	-0.071	-0.156
-408.325	-200.000	-0.021	0.343
-407.311	7.458	0.113	0.085
-406.296	24.718	-0.139	-0.116
-405.282	-66.068	0.183	-0.074
-404.267	128.391	-0.218	-0.280
-403.252	-200.000	-0.013	0.091
-402.238	-90.592	0.320	-0.094
-401.223	17.001	0.254	0.203
-400.209	-200.000	-0.012	0.161
-399.194	-23.401	0.330	-0.200
-398.179	768.205	-0.065	-0.179
-397.165	-14.897	-0.177	-0.114
-396.150	-200.000	-0.042	-0.218
-395.136	-116.100	0.072	-0.014
-394.121	-106.074	0.087	0.020
-393.106	-38.613	-0.209	-0.111
-392.092	-32.997	-0.159	-0.089
-391.077	-13.621	-0.167	0.109
-390.063	-110.263	0.385	0.081
-389.048	-200.000	0.036	0.385
-388.033	543.723	-0.040	0.095
-387.019	13.304	0.027	0.021
-386.004	123.102	-0.144	-0.182
-384.990	-36.072	0.125	-0.068
-383.975	-200.000	-0.032	0.000
-382.960	419.393	-0.047	0.102
-381.946	-200.000	-0.033	-0.192
-380.931	-200.000	-0.067	0.359
-379.917	55.403	-0.115	-0.112
-378.902	20.390	0.050	0.041
-377.888	800.000	0.032	0.117
-376.873	-165.691	-0.223	-0.010
-375.858	-27.118	0.567	0.333
-374.844	-84.683	0.202	0.064
-373.829	148.254	0.190	-0.259
-372.815	-112.996	0.093	0.018
-371.800	-148.394	-0.283	0.023
-370.785	-129.194	-0.176	0.025
-369.771	107.776	0.073	-0.088
-368.756	-71.535	-0.136	0.051
-367.742	-200.000	-0.051	0.296
-366.727	11.346	0.300	-0.232
-365.712	-200.000	0.029	-0.349
-364.698	-29.960	0.135	-0.078
-363.683	9.369	0.167	0.127
-362.669	-164.591	0.265	-0.012
-361.654	-63.344	-0.310	0.128
-360.639	-79.015	0.349	0.120
-359.625	220.135	0.053	-0.086
-358.610	-200.000	0.048	0.000
-357.596	-200.000	0.015	0.123
-356.581	16.203	-0.384	0.305
-355.566	-38.351	0.151	0.081
-354.552	-200.000	0.019	0.136
-353.537	-71.328	0.159	-0.060
-352.523	-200.000	0.008	0.099
-351.508	99.649	-0.120	0.140
-350.493	-200.000	-0.032	-0.309
-349.479	148.774	0.153	0.209
-348.464	800.000	-0.110	-0.359
-347.450	-200.000	0.018	-0.124
-346.435	86.087	-0.182	0.202
-345.420	-200.000	-0.059	0.327
-344.406	176.599	-0.095	-0.139
-343.391	-200.000	0.036	-0.171
-342.377	-200.000	0.036	-0.219
-341.362	148.575	0.036	0.049
-340.348	15.813	-0.148	-0.117
-339.333	-44.438	-0.290	0.146
-338.318	376.922	0.022	-0.046
-337.304	-21.673	0.116	-0.071
-336.289	760.992	-0.089	-0.243
-335.275	33.367	-0.159	0.139
-334.260	-200.000	-0.005	-0.245
-333.245	413.089	0.122	0.261
-332.231	-66.156	0.173	-0.069
-331.216	-31.879	0.280	0.158
-330.202	-71.423	0.205	0.077
-329.187	-179.554	0.113	0.002
-328.172	295.640	-0.177	0.326
-327.158	-104.568	0.292	0.068
-326.143	-200.000	0.002	0.021
-325.129	-200.000	0.037	0.303
-324.114	-200.000	-0.004	0.069
-323.099	-147.404	0.154	0.013
-322.085	-27.012	-0.032	-0.019
-321.070	-144.052	-0.150	0.014
-320.056	800.000	-0.035	-0.117
-319.041	46.885	-0.242	-0.226
-318.026	-200.000	0.048	0.372
-317.012	-172.122	-0.323	0.010
-315.997	-200.000	-0.041	0.326
-314.983	-142.577	-0.190	-0.019
-313.968	-200.000	0.047	0.299
-312.953	-200.000	-0.012	-0.295
-311.939	0.891	0.135	0.097
-310.924	-182.133	-0.061	0.001
-309.910	28.946	0.451	-0.385
-308.895	-19.876	0.056	-0.035
-307.880	-153.985	0.350	-0.024
-306.866	-7.352	0.081	0.055
-305.851	92.045	0.246	-0.278
-304.837	719.011	0.084	0.224
-303.822	23.514	-0.172	0.142
-302.807	-200.000	-0.018	-0.400
-301.793	172.856	-0.157	0.228
-300.778	235.860	-0.134	-0.223
-299.764	-2.917	-0.161	-0.113
-298.749	-57.549	0.170	0.075
-297.735	-153.420	-0.166	0.012
-296.720	-57.286	0.182	-0.080
-295.705	-111.665	-0.100	0.020
-294.691	-106.283	0.155	0.035
-293.676	-74.828	-0.271	0.098
-292.662	344.504	-0.022	0.043
-291.647	-109.179	0.066	0.014
-290.632	800.000	0.094	0.284
-289.618	800.000	0.117	0.432
-288.603	-127.163	-0.195	-0.029
-287.589	40.050	0.029	0.027
-286.574	304.286	0.089	-0.165
-285.559	714.561	-0.068	-0.182
-284.545	291.512	0.054	0.099
-283.530	88.896	0.294	0.328
-282.516	-200.000	-0.048	-0.320
-281.501	-65.417	0.079	0.032
-280.486	497.682	-0.065	0.149
-279.472	-116.909	0.399	-0.073
-278.457	53.690	-0.086	-0.083
-277.443	-120.415	-0.132	0.023
-276.428	800.000	0.048	0.197
-275.413	116.309	-0.069	-0.085
-274.399	-166.455	-0.384	0.016
-273.384	44.023	0.186	0.171
-272.370	-138.622	0.631	0.069
-271.355	460.981	-0.155	-0.348
-270.340	14.164	0.207	0.162
-269.326	40.706	-0.193	0.175
-268.311	14.484	0.179	0.141
-267.297	-92.411	0.153	0.043
-266.282	-64.582	0.375	-0.153
-265.267	50.369	0.193	0.183
-264.253	154.789	0.071	-0.098
-263.238	-98.760	0.100	-0.026
-262.224	800.000	-0.050	0.158
-261.209	-200.000	0.016	-0.106
-260.195	-167.587	0.248	0.010
-259.180	-144.884	-0.185	-0.017
-258.165	8.197	-0.174	0.131
-257.151	228.204	0.060	0.098
-256.136	136.842	-0.144	-0.188
-255.122	254.127	-0.085	0.146
-254.107	80.370	-0.121	0.131
-253.092	-150.797	-0.208	-0.016
-252.078	-31.358	0.241	0.136
-251.063	-200.000	-0.005	-0.109
-250.049	800.000	0.068	-0.200
-249.034	-149.176	-0.156	-0.013
-248.019	-99.764	-0.172	0.043
-247.005	687.683	0.068	-0.180
-245.990	800.000	0.089	-0.393
-244.976	87.170	0.170	0.188
-243.961	800.000	-0.049	-0.142
-242.946	-105.423	0.210	-0.048
-241.932	-31.366	0.048	-0.027
-240.917	-152.311	-0.458	0.033
-239.903	-52.255	-0.183	0.085
-238.888	-107.621	0.338	-0.074
-237.873	-26.833	0.096	0.056
-236.859	-200.000	0.003	-0.026
-235.844	-81.452	0.175	-0.058
-234.830	800.000	-0.084	-0.311
-233.815	60.943	-0.138	-0.137
-232.800	183.787	0.108	-0.160
-231.786	319.826	0.054	0.103
-230.771	-24.631	0.114	-0.068
-229.757	39.292	-0.132	0.119
-228.742	-132.944	0.318	-0.041
-227.727	-200.000	-0.035	0.302
-226.713	-200.000	0.046	-0.263
-225.698	800.000	0.054	0.154
-224.684	-162.286	-0.681	0.034
-223.669	-132.843	-0.131	-0.017
-222.655	-200.000	-0.039	-0.266
-221.640	-67.522	0.187	-0.074
-220.625	-143.890	-0.376	0.036
-219.611	-200.000	0.028	-0.186
-218.596	-35.056	0.166	-0.091
-217.582	-111.278	0.350	-0.072
-216.567	-25.732	-0.140	0.083
-215.552	-200.000	-0.025	0.229
-214.538	228.109	-0.168	-0.274
-213.523	-91.877	-0.027	-0.008
-212.509	263.755	0.095	0.165
-211.494	12.399	-0.273	-0.211
-210.479	50.080	-0.186	0.176
-209.465	273.270	0.093	0.165
-208.450	102.388	-0.242	-0.284
-207.436	-55.269	0.224	-0.101
-206.421	280.334	-0.059	0.106
-205.406	-200.000	-0.031	0.311
-204.392	-109.586	0.234	-0.050
-203.377	-173.072	-0.478	-0.015
-202.363	-200.000	0.077	-0.363
-201.348	152.637	-0.091	-0.124
-200.333	34.570	0.102	-0.089
-199.319	742.826	0.089	0.239
-198.304	-154.424	0.196	-0.013
-197.290	-200.000	-0.029	0.174
-196.275	-200.000	0.042	0.228
-195.260	21.109	-0.120	-0.098
-194.246	95.505	0.212	-0.243
-193.231	-105.423	0.125	-0.028
-192.217	-77.184	-0.482	-0.168
-191.202	111.600	0.075	0.091
-190.187	-200.000	-0.039	0.183
-189.173	800.000	-0.057	0.184
-188.158	-154.471	0.195	0.013
-187.144	800.000	-0.053	-0.156
-186.129	-25.675	0.295	0.174
-185.114	447.558	-0.111	-0.245
-184.100	800.000	0.046	0.158
-183.085	-34.831	-0.292	-0.160
-182.071	125.322	-0.124	0.156
-181.056	-107.187	-0.207	-0.046
-180.042	-15.246	-0.109	0.069
-179.027	689.347	0.012	0.031
-178.012	800.000	-0.036	0.121
-176.998	-200.000	-0.012	0.085
-175.983	-200.000	-0.038	0.294
-174.969	297.033	0.011	0.021
-173.954	376.384	-0.093	0.190
-172.939	-101.649	0.216	-0.053
-171.925	-200.000	-0.035	-0.236
-170.910	-200.000	-0.038	0.229
-169.896	71.505	-0.233	0.242
-168.881	-6.291	0.334	0.228
-167.866	22.831	-0.256	0.210
-166.852	-200.000	0.020	-0.234
-165.837	-55.711	0.441	0.197
-164.823	219.101	-0.105	-0.168
-163.808	48.917	0.407	-0.382
-162.793	-167.836	0.135	0.005
-161.779	-122.089	0.093	0.015
-160.764	-3.224	0.263	-0.184
-159.750	-166.835	-0.261	0.011
-158.735	-98.944	-0.099	-0.025
-157.720	260.431	0.090	0.155
-156.706	800.000	0.051	-0.181
-155.691	105.594	-0.061	-0.072
-154.677	-51.744	-0.124	-0.058
-153.662	-97.096	-0.274	0.072
-152.647	-113.825	0.015	-0.003
-151.633	-136.422	0.036	0.004
-150.618	-186.388	-0.358	0.005
-149.604	401.923	-0.030	0.064
-148.589	212.406	-0.249	0.393
-147.574	-48.900	0.149	-0.072
-146.560	329.549	0.014	0.027
-145.545	47.908	0.118	-0.110
-144.531	-54.737	0.042	-0.019
-143.516	800.000	-0.167	0.568
-142.502	627.070	-0.061	0.154
-141.487	506.186	-0.072	-0.167
-140.472	800.000	0.033	-0.125
-139.458	-23.008	-0.288	0.173
-138.443	335.548	0.154	-0.298
-137.429	247.416	-0.095	-0.160
-136.414	-200.000	0.001	-0.322
-135.399	-200.000	0.017	-0.164
-134.385	-113.690	-0.180	0.035
-133.370	182.840	-0.029	-0.042
-132.356	-118.954	-0.161	0.028
-131.341	-200.000	0.002	0.151
-130.326	-83.338	0.389	-0.125
-129.312	94.639	0.029	0.033
-128.297	48.825	-0.378	-0.355
-127.283	-104.524	0.445	0.103
-126.268	-121.982	0.180	0.029
-125.253	675.358	-0.074	-0.193
-124.239	-156.165	-0.291	-0.018
-123.224	800.000	-0.059	-0.182
-122.210	-200.000	-0.011	-0.099
