DTS Sentinel unit serial number:	SN413079Multiplexer serial number:	ORYXHardware model number:	OX4-SRSoftware version number:	ORYX F/W v4.00 Oryx Data Collector v3.7.2.0data status	okinstallation	princeton_trtdifferential loss correction	single-endedforward channel	channel 3reverse channel	N/Adate	2019/09/11time	02:06:10forward acquisition time	60.00reverse acquisition time	0.00gamma	496.2192k internal	0.2332k external	0.2332temperature offset calibration	0.9916default loss term (dB/km)	0.3790temperature slope calibration	1.0000multiplexer offset coefficient	1.0000multiplexer slope coefficient	1.0000fibre end	0.00T internal ref (°C)	29.19T ext. ref 1 (°C)	-0.29T ext. ref 2 (°C)	23.08length (m)	temperature (°C)	Stokes	anti-Stokes-747.200	-91.112	-0.317	-0.092
-746.185	421.406	0.047	0.102
-745.171	-21.206	0.035	0.022
-744.156	-103.734	0.142	-0.033
-743.142	145.022	0.110	-0.147
-742.127	-200.000	-0.002	0.154
-741.112	-200.000	-0.001	-0.220
-740.098	-135.777	0.192	0.023
-739.083	800.000	-0.104	-0.323
-738.069	-75.055	-0.159	0.057
-737.054	800.000	-0.046	-0.132
-736.039	-8.933	-0.151	-0.101
-735.025	-54.970	0.199	-0.090
-734.010	-82.687	-0.261	0.085
-732.996	-200.000	-0.013	0.169
-731.981	-26.789	0.280	0.164
-730.966	-107.688	-0.253	-0.056
-729.952	-51.250	-0.463	-0.218
-728.937	-200.000	0.053	0.237
-727.923	-57.952	0.258	0.113
-726.908	-90.330	-0.266	0.078
-725.894	800.000	-0.028	-0.121
-724.879	108.412	0.081	-0.097
-723.864	-200.000	0.001	-0.458
-722.850	111.006	0.122	-0.148
-721.835	-125.097	0.187	-0.029
-720.821	-56.441	-0.123	-0.055
-719.806	-67.425	0.216	0.085
-718.791	-93.916	-0.331	-0.091
-717.777	3.287	-0.260	-0.190
-716.762	800.000	0.089	0.297
-715.748	-200.000	-0.017	-0.251
-714.733	-200.000	-0.011	-0.345
-713.718	-85.270	0.116	0.036
-712.704	-200.000	-0.058	-0.437
-711.689	62.695	-0.119	-0.120
-710.675	275.169	-0.066	-0.117
-709.660	-12.956	0.213	-0.139
-708.645	-82.113	0.197	-0.065
-707.631	158.738	0.083	0.116
-706.616	800.000	0.069	0.201
-705.602	141.254	-0.079	0.105
-704.587	124.799	0.028	0.035
-703.572	-91.607	-0.134	-0.038
-702.558	-149.190	-0.074	-0.006
-701.543	-200.000	-0.009	-0.254
-700.529	-200.000	0.018	0.143
-699.514	-93.180	-0.294	0.082
-698.499	-110.742	-0.238	-0.049
-697.485	800.000	0.035	0.123
-696.470	800.000	0.056	-0.233
-695.456	-200.000	-0.004	-0.165
-694.441	-200.000	0.007	0.045
-693.426	3.059	0.077	0.056
-692.412	-200.000	-0.007	0.130
-691.397	-101.898	-0.362	0.088
-690.383	-150.031	-0.227	0.018
-689.368	-101.694	0.083	0.020
-688.354	800.000	-0.113	0.316
-687.339	-5.816	-0.140	0.097
-686.324	-146.436	-0.168	-0.015
-685.310	-66.865	-0.279	0.111
-684.295	-200.000	0.019	0.165
-683.281	368.595	-0.043	0.088
-682.266	354.882	0.105	0.210
-681.251	800.000	0.110	-0.467
-680.237	-152.952	-0.434	-0.031
-679.222	18.249	0.224	0.179
-678.208	-141.233	-0.085	-0.009
-677.193	583.017	-0.028	-0.069
-676.178	219.813	-0.102	-0.163
-675.164	53.085	-0.380	-0.365
-674.149	83.542	-0.114	-0.125
-673.135	126.529	-0.095	-0.121
-672.120	-106.673	-0.381	0.085
-671.105	-200.000	0.040	-0.367
-670.091	-143.820	-0.206	0.020
-669.076	-41.980	0.115	0.059
-668.062	53.159	-0.140	0.135
-667.047	-100.249	-0.279	0.069
-666.032	13.846	-0.174	-0.135
-665.018	396.849	0.068	0.142
-664.003	-56.936	-0.194	-0.086
-662.989	-76.597	-0.348	0.122
-661.974	800.000	-0.019	-0.073
-660.959	800.000	0.064	-0.188
-659.945	-111.290	-0.192	-0.039
-658.930	219.631	-0.180	0.289
-657.916	1.108	0.139	-0.100
-656.901	-58.376	0.149	-0.065
-655.886	-134.978	-0.316	-0.038
-654.872	-100.284	0.334	0.083
-653.857	-41.314	-0.185	-0.096
-652.843	-129.661	-0.142	-0.020
-651.828	-127.264	0.278	0.041
-650.814	800.000	-0.088	-0.336
-649.799	-200.000	0.044	-0.406
-648.784	517.104	-0.162	-0.380
-647.770	7.928	0.384	0.288
-646.755	28.781	-0.081	-0.069
-645.741	-82.468	-0.288	-0.094
-644.726	-185.862	-0.189	0.003
-643.711	-200.000	-0.078	-0.462
-642.697	119.215	0.067	0.083
-641.682	56.442	-0.054	0.052
-640.668	54.260	-0.201	0.194
-639.653	584.076	0.156	0.383
-638.638	634.068	-0.134	0.340
-637.624	800.000	-0.080	-0.252
-636.609	-140.195	-0.485	-0.051
-635.595	471.626	-0.070	0.158
-634.580	-200.000	0.029	0.178
-633.565	-59.969	0.195	-0.084
-632.551	-200.000	0.004	-0.285
-631.536	61.876	-0.305	0.304
-630.522	363.686	0.104	-0.210
-629.507	-200.000	0.028	-0.455
-628.492	67.209	-0.167	0.170
-627.478	553.217	-0.030	0.072
-626.463	-78.160	-0.138	0.048
-625.449	681.630	0.039	0.102
-624.434	-58.937	-0.170	-0.074
-623.419	-200.000	0.053	0.484
-622.405	-200.000	0.006	0.038
-621.390	800.000	0.064	0.199
-620.376	142.141	-0.103	-0.137
-619.361	-161.611	-0.378	0.019
-618.346	-200.000	-0.042	0.615
-617.332	461.166	0.161	0.358
-616.317	263.699	0.119	-0.206
-615.303	347.274	0.101	-0.199
-614.288	-90.668	0.443	-0.128
-613.273	55.499	-0.350	0.339
-612.259	-57.890	0.163	0.071
-611.244	-200.000	0.019	-0.358
-610.230	-117.562	-0.068	-0.012
-609.215	-27.433	-0.459	-0.267
-608.201	-200.000	-0.035	-0.242
-607.186	39.715	-0.070	0.063
-606.171	128.143	0.140	0.178
-605.157	97.448	0.207	0.237
-604.142	-35.551	0.329	-0.179
-603.128	800.000	0.027	0.088
-602.113	141.999	0.112	-0.148
-601.098	-70.905	0.233	-0.088
-600.084	20.719	-0.260	0.211
-599.069	-200.000	0.017	0.223
-598.055	-79.520	0.122	0.041
-597.040	-143.511	-0.187	-0.018
-596.025	-126.738	-0.108	-0.016
-595.011	88.583	-0.190	-0.212
-593.996	-49.205	0.242	-0.116
-592.982	48.084	-0.162	-0.151
-591.967	572.415	-0.089	-0.217
-590.952	-71.631	0.084	0.031
-589.938	-200.000	-0.020	0.220
-588.923	-65.668	-0.154	-0.062
-587.909	-12.734	-0.180	-0.117
-586.894	800.000	0.041	0.145
-585.879	176.030	-0.120	0.174
-584.865	-15.097	-0.147	-0.094
-583.850	-64.368	0.214	0.087
-582.836	800.000	0.100	0.277
-581.821	-146.639	0.299	0.026
-580.806	800.000	-0.081	0.227
-579.792	-50.709	-0.177	0.083
-578.777	-200.000	0.083	-0.385
-577.763	-171.355	-0.297	0.010
-576.748	282.084	0.057	0.102
-575.733	109.673	0.126	0.151
-574.719	352.731	-0.287	0.569
-573.704	108.111	-0.191	-0.228
-572.690	800.000	0.050	-0.178
-571.675	-178.754	0.130	-0.003
-570.661	-47.139	-0.225	-0.109
-569.646	-200.000	-0.032	-0.402
-568.631	180.672	0.081	-0.119
-567.617	196.671	0.217	0.330
-566.602	-170.295	-0.260	0.009
-565.588	28.172	0.103	-0.087
-564.573	-63.822	-0.012	0.005
-563.558	-62.779	0.315	0.131
-562.544	28.566	-0.106	0.089
-561.529	-5.561	0.183	-0.125
-560.515	-52.975	-0.395	0.182
-559.500	206.830	0.274	0.427
-558.485	36.723	-0.083	-0.073
-557.471	166.236	0.103	0.146
-556.456	-87.431	0.129	0.039
-555.442	-130.108	-0.221	-0.030
-554.427	102.634	0.088	0.103
-553.412	-107.291	-0.341	-0.075
-552.398	133.710	0.153	0.198
-551.383	22.320	0.120	0.098
-550.369	26.401	0.319	0.266
-549.354	61.821	-0.058	0.058
-548.339	800.000	0.084	0.271
-547.325	-147.116	0.085	0.007
-546.310	47.321	0.181	-0.169
-545.296	-136.988	0.392	0.045
-544.281	-99.764	0.111	0.028
-543.266	67.573	-0.152	0.155
-542.252	24.201	0.107	0.088
-541.237	-200.000	0.030	0.163
-540.223	-200.000	0.074	-0.338
-539.208	-27.111	-0.202	-0.117
-538.193	-27.362	-0.250	-0.145
-537.179	258.843	-0.052	-0.090
-536.164	-200.000	-0.055	-0.289
-535.150	-27.670	0.419	0.243
-534.135	-200.000	0.001	0.011
-533.121	-200.000	0.007	-0.120
-532.106	-55.000	0.037	-0.017
-531.091	113.669	0.144	0.175
-530.077	589.317	-0.147	-0.362
-529.062	288.411	0.095	-0.171
-528.048	379.424	0.088	0.181
-527.033	43.157	-0.144	0.131
-526.018	-200.000	-0.004	-0.053
-525.004	-112.264	0.240	-0.048
-523.989	-50.912	-0.162	0.076
-522.975	800.000	-0.088	0.250
-521.960	-200.000	-0.047	-0.248
-520.945	-8.966	0.132	-0.088
-519.931	-138.190	-0.073	0.008
-518.916	-109.217	-0.302	-0.064
-517.902	47.763	0.277	0.258
-516.887	-105.338	-0.381	-0.086
-515.872	-137.818	-0.185	-0.021
-514.858	-90.175	-0.160	-0.047
-513.843	126.280	-0.128	-0.161
-512.829	-184.662	-0.203	-0.003
-511.814	800.000	0.048	0.188
-510.799	-200.000	0.005	-0.159
-509.785	-41.174	-0.132	-0.068
-508.770	226.259	-0.216	0.350
-507.756	-200.000	0.003	-0.125
-506.741	6.886	-0.247	0.183
-505.726	43.387	0.130	0.118
-504.712	800.000	0.023	0.064
-503.697	-103.112	-0.295	-0.070
-502.683	-108.412	0.394	-0.085
-501.668	-162.846	0.463	0.023
-500.653	89.811	-0.247	-0.275
-499.639	-200.000	0.073	-0.397
-498.624	-147.267	-0.116	0.010
-497.610	-83.906	-0.174	0.055
-496.595	403.094	-0.061	0.128
-495.581	-106.072	-0.204	0.046
-494.566	-113.474	-0.235	-0.046
-493.551	-150.520	0.274	-0.021
-492.537	152.625	-0.111	-0.151
-491.522	148.012	0.130	-0.175
-490.508	-104.062	0.153	0.036
-489.493	347.400	0.152	0.298
-488.478	42.494	-0.243	0.221
-487.464	20.520	-0.093	-0.075
-486.449	-200.000	0.014	-0.166
-485.435	542.683	-0.096	0.227
-484.420	314.632	-0.034	-0.064
-483.405	636.576	-0.173	0.437
-482.391	-32.003	-0.170	-0.095
-481.376	-131.671	0.263	-0.034
-480.362	25.256	0.183	0.151
-479.347	21.184	-0.105	0.085
-478.332	419.650	-0.042	0.090
-477.318	-135.606	0.064	0.008
-476.303	-14.524	0.262	0.168
-475.289	239.379	-0.046	-0.076
-474.274	-83.204	0.247	0.079
-473.259	-73.427	-0.430	0.156
-472.245	186.774	0.195	-0.289
-471.230	259.470	0.061	-0.104
-470.216	-200.000	0.046	-0.243
-469.201	244.871	0.075	-0.126
-468.186	-3.387	0.189	0.131
-467.172	-86.430	0.120	0.037
-466.157	-139.798	-0.105	-0.011
-465.143	800.000	0.045	0.158
-464.128	-200.000	-0.029	-0.211
-463.113	800.000	-0.058	-0.172
-462.099	281.334	-0.027	-0.049
-461.084	-200.000	0.003	0.432
-460.070	-10.928	0.207	0.136
-459.055	468.296	-0.212	0.474
-458.040	80.936	0.089	0.096
-457.026	242.725	-0.082	-0.137
-456.011	-200.000	-0.022	-0.254
-454.997	-79.189	0.153	-0.051
-453.982	-124.709	0.210	0.032
-452.968	-34.977	0.079	-0.043
-451.953	-28.307	-0.231	-0.133
-450.938	161.924	0.170	-0.237
-449.924	676.778	-0.142	-0.367
-448.909	100.206	-0.144	-0.166
-447.895	18.906	0.210	0.167
-446.880	-200.000	-0.006	-0.274
-445.865	800.000	0.055	-0.194
-444.851	219.893	0.179	-0.284
-443.836	-200.000	-0.021	-0.227
-442.822	12.488	0.264	-0.202
-441.807	19.943	0.044	0.035
-440.792	-105.866	0.091	-0.020
-439.778	605.502	-0.060	-0.148
-438.763	-122.298	-0.318	-0.052
-437.749	24.317	-0.057	-0.047
-436.734	140.508	0.182	-0.238
-435.719	183.566	-0.189	-0.277
-434.705	-142.955	-0.100	0.010
-433.690	-65.589	0.176	0.070
-432.676	-178.596	0.092	-0.002
-431.661	345.047	0.063	-0.123
-430.646	-74.430	0.179	0.064
-429.632	-22.609	0.341	-0.205
-428.617	800.000	0.023	0.084
-427.603	632.315	0.023	0.057
-426.588	-98.511	0.075	-0.019
-425.573	-113.269	-0.258	0.050
-424.559	739.905	-0.094	-0.252
-423.544	72.243	-0.217	0.224
-422.530	-96.741	0.122	-0.032
-421.515	-9.584	0.167	0.111
-420.500	-63.151	0.197	0.081
-419.486	-200.000	0.026	-0.213
-418.471	-200.000	0.026	-0.208
-417.457	-113.269	-0.064	0.012
-416.442	-200.000	-0.000	0.237
-415.428	65.003	0.103	-0.103
-414.413	-200.000	0.031	0.191
-413.398	-75.615	-0.209	-0.074
-412.384	166.001	-0.304	-0.427
-411.369	-121.855	0.302	0.049
-410.355	-54.106	-0.119	0.054
-409.340	-135.860	0.247	-0.029
-408.325	218.395	-0.194	-0.308
-407.311	-10.590	0.039	0.026
-406.296	275.366	-0.073	0.129
-405.282	93.676	0.116	-0.130
-404.267	81.223	0.117	-0.126
-403.252	-94.509	0.202	0.055
-402.238	590.933	-0.080	-0.196
-401.223	79.429	0.127	-0.135
-400.209	375.316	-0.118	0.239
-399.194	-102.848	0.113	0.027
-398.179	16.568	-0.078	-0.061
-397.165	-58.330	0.108	0.047
-396.150	800.000	0.077	0.330
-395.136	152.689	0.067	-0.091
-394.121	28.681	-0.151	0.127
-393.106	-62.128	-0.285	0.118
-392.092	39.900	0.077	-0.069
-391.077	55.648	-0.123	-0.118
-390.063	-84.946	-0.027	0.008
-389.048	-76.648	0.102	-0.035
-388.033	-110.213	-0.271	-0.056
-387.019	-77.403	-0.145	0.050
-386.004	-2.278	-0.101	-0.070
-384.990	-31.434	0.107	0.059
-383.975	-54.661	-0.406	0.182
-382.960	-200.000	-0.058	-0.462
-381.946	187.764	0.130	-0.192
-380.931	111.588	-0.099	-0.119
-379.917	-101.479	0.276	0.067
-378.902	-163.090	-0.133	0.006
-377.888	-158.121	0.174	-0.010
-376.873	800.000	0.037	0.118
-375.858	-3.644	0.104	0.071
-374.844	-156.580	-0.084	0.005
-373.829	12.747	-0.102	0.078
-372.815	-200.000	0.099	0.000
-371.800	-22.012	-0.124	0.074
-370.785	-96.022	0.143	-0.038
-369.771	-144.064	-0.168	-0.016
-368.756	-72.640	-0.185	-0.067
-367.742	800.000	0.096	0.282
-366.727	800.000	-0.026	0.094
-365.712	432.738	0.147	-0.317
-364.698	-150.835	-0.146	0.011
-363.683	297.428	-0.222	-0.403
-362.669	71.862	-0.221	0.228
-361.654	-200.000	-0.027	0.154
-360.639	-64.518	0.179	-0.072
-359.625	-35.874	-0.031	0.017
-358.610	-65.211	0.076	-0.030
-357.596	-146.064	-0.158	-0.014
-356.581	800.000	-0.003	0.012
-355.566	72.299	0.155	0.160
-354.552	77.699	-0.345	0.364
-353.537	251.533	-0.153	0.258
-352.523	-75.542	0.117	-0.041
-351.508	506.897	0.108	-0.249
-350.493	-176.689	0.229	0.006
-349.479	-155.139	-0.094	-0.006
-348.464	-200.000	-0.040	-0.179
-347.450	-51.330	-0.141	0.065
-346.435	353.262	-0.066	0.130
-345.420	27.579	0.182	0.152
-344.406	-200.000	0.038	-0.205
-343.391	800.000	0.018	-0.072
-342.377	-104.534	0.010	-0.002
-341.362	-200.000	-0.009	0.140
-340.348	-200.000	-0.085	0.436
-339.333	-23.867	0.174	-0.103
-338.318	17.840	-0.271	0.213
-337.304	5.516	-0.248	0.181
-336.289	800.000	-0.065	-0.204
-335.275	3.592	0.170	0.123
-334.260	441.961	-0.039	-0.084
-333.245	-65.941	0.310	0.123
-332.231	519.581	0.156	-0.362
-331.216	-17.754	-0.169	-0.105
-330.202	-53.845	0.189	-0.085
-329.187	-86.995	0.209	0.063
-328.172	-113.490	0.072	-0.014
-327.158	37.067	-0.170	0.149
-326.143	-76.392	-0.517	-0.180
-325.129	800.000	0.137	0.429
-324.114	132.431	0.046	0.059
-323.099	2.442	-0.298	0.213
-322.085	337.765	0.174	0.335
-321.070	-161.307	-0.030	-0.002
-320.056	46.228	0.160	0.147
-319.041	-200.000	0.005	0.210
-318.026	-123.140	-0.095	0.015
-317.012	-200.000	0.011	0.101
-315.997	326.510	0.052	0.098
-314.983	-125.775	0.159	-0.024
-313.968	229.397	-0.150	0.241
-312.953	-103.772	0.285	0.066
-311.939	12.071	0.098	0.074
-310.924	87.154	0.205	-0.225
-309.910	288.116	-0.188	-0.337
-308.895	-200.000	-0.001	-0.107
-307.880	-174.473	-0.105	0.003
-306.866	474.908	-0.082	0.183
-305.851	-200.000	0.009	0.073
-304.837	45.056	-0.109	0.099
-303.822	-49.980	0.200	-0.094
-302.807	-111.325	-0.069	-0.014
-301.793	-48.967	-0.335	0.159
-300.778	-200.000	-0.020	0.304
-299.764	31.193	-0.006	-0.005
-298.749	-102.409	-0.091	0.021
-297.735	11.656	0.268	0.203
-296.720	800.000	0.089	-0.302
-295.705	-39.184	0.264	-0.137
-294.691	-106.867	-0.171	-0.038
-293.676	800.000	-0.101	-0.281
-292.662	-200.000	0.039	-0.181
-291.647	-79.539	0.143	0.048
-290.632	-102.377	0.170	0.040
-289.618	-200.000	-0.050	-0.377
-288.603	73.562	0.209	-0.216
-287.589	-200.000	0.031	0.155
-286.574	800.000	-0.057	-0.178
-285.559	-34.566	0.158	0.085
-284.545	-200.000	-0.016	0.210
-283.530	-111.006	-0.284	0.058
-282.516	38.127	-0.171	0.150
-281.501	-97.009	0.072	-0.019
-280.486	-165.729	0.241	-0.010
-279.472	-100.448	0.142	0.035
-278.457	565.000	-0.102	0.244
-277.443	84.681	-0.187	0.202
-276.428	-123.610	-0.163	0.026
-275.413	800.000	-0.056	0.170
-274.399	-55.520	-0.131	0.058
-273.384	7.298	-0.049	0.036
-272.370	-200.000	-0.006	-0.237
-271.355	-154.803	0.265	-0.017
-270.340	800.000	-0.085	-0.235
-269.326	-101.246	0.084	0.020
-268.311	-200.000	-0.061	-0.337
-267.297	-135.356	-0.225	0.027
-266.282	121.626	0.155	0.191
-265.267	-150.746	-0.425	0.032
-264.253	-200.000	-0.055	-0.253
-263.238	-107.469	0.295	0.064
-262.224	-25.446	0.175	-0.102
-261.209	-102.166	0.037	0.009
-260.195	244.969	-0.091	-0.151
-259.180	-103.667	0.035	0.008
-258.165	-200.000	-0.034	0.228
-257.151	-36.906	-0.108	-0.057
-256.136	-200.000	0.007	0.083
-255.122	106.351	-0.174	-0.203
-254.107	-82.945	0.321	-0.102
-253.092	800.000	0.056	0.221
-252.078	-200.000	-0.032	0.141
-251.063	-153.324	0.351	-0.024
-250.049	1.654	-0.156	0.111
-249.034	-116.384	0.124	0.023
-248.019	-82.632	0.383	-0.123
-247.005	-65.086	-0.312	-0.124
-245.990	245.906	-0.041	0.069
-244.976	-200.000	0.050	0.363
-243.961	232.008	-0.094	-0.152
-242.946	-200.000	0.034	0.359
-241.932	60.709	-0.355	0.347
-240.917	-36.613	-0.085	0.045
-239.903	405.229	0.125	-0.261
-238.888	11.466	0.197	-0.149
-237.873	800.000	0.006	-0.022
-236.859	126.796	0.228	-0.285
-235.844	-200.000	-0.016	-0.171
-234.830	360.706	-0.110	-0.218
-233.815	-200.000	0.071	0.344
-232.800	-82.151	-0.214	0.069
-231.786	323.313	0.096	0.180
-230.771	41.119	-0.099	0.089
-229.757	-110.500	0.273	0.056
-228.742	-200.000	-0.059	-0.404
-227.727	788.182	-0.068	0.184
-226.713	-28.654	0.322	-0.183
-225.698	19.557	-0.107	-0.085
-224.684	27.732	-0.289	0.240
-223.669	800.000	-0.047	0.146
-222.655	800.000	0.037	0.133
-221.640	800.000	-0.074	0.313
-220.625	299.502	-0.066	-0.120
-219.611	800.000	-0.044	-0.138
-218.596	198.257	-0.201	0.303
-217.582	762.495	-0.083	0.222
-216.567	-151.301	0.167	-0.012
-215.552	289.385	-0.138	0.247
-214.538	171.358	-0.150	-0.212
-213.523	-77.035	0.150	-0.051
-212.509	-49.070	0.194	0.092
-211.494	-86.258	0.033	-0.010
-210.479	-200.000	-0.019	0.224
-209.465	-200.000	-0.000	-0.241
-208.450	55.839	-0.087	0.083
-207.436	800.000	-0.064	-0.260
-206.421	-101.130	0.184	-0.044
-205.406	-83.536	0.174	0.055
-204.392	7.216	-0.331	-0.243
-203.377	-99.988	0.095	-0.023
-202.363	99.667	0.098	0.111
-201.348	-200.000	-0.011	0.227
-200.333	290.801	-0.071	0.127
-199.319	146.507	-0.053	-0.070
-198.304	-200.000	-0.032	0.320
-197.290	-131.442	-0.179	-0.023
-196.275	12.863	0.285	-0.217
-195.260	106.780	0.231	-0.271
-194.246	655.614	-0.114	0.289
-193.231	96.653	0.253	-0.285
-192.217	-32.574	-0.213	0.117
-191.202	136.472	0.121	-0.155
-190.187	-76.024	0.085	0.030
-189.173	-141.132	0.071	-0.007
-188.158	-200.000	0.007	-0.242
-187.144	-53.800	-0.136	-0.061
-186.129	27.230	-0.214	0.177
-185.114	-72.372	0.465	-0.169
-184.100	49.046	0.017	0.016
-183.085	452.540	-0.058	-0.127
-182.071	-3.453	-0.207	-0.142
-181.056	11.920	0.165	-0.125
-180.042	-115.262	0.277	-0.052
-179.027	-200.000	0.018	0.257
-178.012	158.390	-0.059	-0.080
-176.998	-200.000	0.032	-0.144
-175.983	-83.515	0.114	0.036
-174.969	800.000	0.133	-0.488
-173.954	45.328	0.210	0.190
-172.939	800.000	-0.028	-0.097
-171.925	100.564	0.195	0.223
-170.910	-124.974	0.310	-0.047
-169.896	-200.000	0.010	-0.164
-168.881	428.996	-0.122	0.259
-167.866	125.413	-0.124	-0.153
-166.852	-93.895	-0.191	-0.052
-165.837	-49.155	-0.235	-0.110
-164.823	101.747	-0.135	-0.155
-163.808	-1.679	0.158	-0.110
-162.793	59.004	-0.044	-0.043
-161.779	-130.033	0.301	0.040
-160.764	-84.976	0.159	-0.049
-159.750	363.944	0.121	0.239
-158.735	86.257	-0.093	-0.101
-157.720	-200.000	-0.031	-0.253
-156.706	-150.312	0.193	0.015
-155.691	-200.000	-0.029	-0.260
-154.677	-171.554	0.085	0.003
-153.662	-41.218	-0.294	0.149
-152.647	15.124	0.202	-0.155
-151.633	-141.447	0.066	-0.007
-150.618	-56.275	-0.267	0.117
-149.604	133.100	0.180	0.229
-148.589	800.000	0.065	-0.260
-147.574	-9.394	-0.239	-0.157
-146.560	-169.436	-0.331	-0.012
-145.545	-35.183	0.155	0.083
-144.531	-128.233	0.056	0.008
-143.516	-116.532	0.183	-0.033
-142.502	725.175	0.085	-0.223
-141.487	-114.604	-0.245	0.046
-140.472	718.984	-0.162	0.423
-139.458	-7.781	0.201	-0.134
-138.443	-200.000	0.003	0.029
-137.429	-67.730	-0.180	0.069
-136.414	-200.000	0.001	-0.009
-135.399	-190.220	-0.451	-0.005
-134.385	77.972	-0.163	-0.171
-133.370	-53.744	-0.296	-0.133
-132.356	-40.992	0.450	-0.229
-131.341	200.066	-0.204	-0.308
-130.326	169.036	0.074	-0.104
-129.312	-200.000	0.025	0.199
-128.297	33.762	0.059	-0.050
-127.283	14.446	0.101	-0.077
-126.268	-62.148	0.412	0.169
-125.253	-38.792	-0.187	0.097
-124.239	151.070	0.258	0.345
-123.224	43.017	0.108	-0.096
-122.210	-79.648	0.128	0.042
