DTS Sentinel unit serial number:	SN413079Multiplexer serial number:	ORYXHardware model number:	OX4-SRSoftware version number:	ORYX F/W v4.00 Oryx Data Collector v3.7.2.0data status	okinstallation	princeton_trtdifferential loss correction	single-endedforward channel	channel 3reverse channel	N/Adate	2019/09/17time	07:56:34forward acquisition time	60.00reverse acquisition time	0.00gamma	496.2192k internal	0.2334k external	0.2334temperature offset calibration	0.9939default loss term (dB/km)	0.3790temperature slope calibration	1.0000multiplexer offset coefficient	1.0000multiplexer slope coefficient	1.0000fibre end	0.00T internal ref (°C)	27.22T ext. ref 1 (°C)	0.12T ext. ref 2 (°C)	22.29length (m)	temperature (°C)	Stokes	anti-Stokes-747.200	165.243	0.138	-0.196
-746.185	-200.000	-0.007	0.171
-745.171	-35.252	-0.009	0.005
-744.156	79.756	-0.108	0.117
-743.142	-118.676	-0.146	-0.026
-742.127	-129.603	0.149	0.021
-741.112	-173.830	-0.267	-0.008
-740.098	205.130	-0.147	-0.230
-739.083	143.987	0.141	-0.189
-738.069	20.305	0.206	-0.168
-737.054	719.978	-0.118	0.315
-736.039	-200.000	-0.025	-0.178
-735.025	147.110	0.121	-0.164
-734.010	-200.000	-0.030	-0.256
-732.996	344.660	0.076	-0.151
-731.981	-68.554	-0.074	-0.029
-730.966	46.044	-0.123	-0.114
-729.952	-105.592	-0.310	-0.071
-728.937	413.389	-0.121	-0.259
-727.923	-181.626	0.135	-0.003
-726.908	-200.000	0.017	-0.225
-725.894	800.000	0.056	0.197
-724.879	-186.403	0.231	0.003
-723.864	800.000	-0.063	0.214
-722.850	229.871	0.092	-0.151
-721.835	642.047	-0.040	0.102
-720.821	234.027	-0.235	-0.389
-719.806	-86.131	-0.214	0.066
-718.791	-200.000	-0.077	-0.346
-717.777	-200.000	0.040	-0.233
-716.762	-200.000	-0.059	-0.280
-715.748	-125.143	0.069	0.011
-714.733	146.701	-0.068	-0.092
-713.718	-200.000	0.006	-0.364
-712.704	5.168	0.226	0.167
-711.689	149.873	-0.311	-0.423
-710.675	35.772	0.076	0.067
-709.660	-149.624	0.077	0.006
-708.645	30.826	-0.188	0.162
-707.631	-116.805	0.225	-0.041
-706.616	40.377	0.054	0.049
-705.602	-200.000	0.069	-0.304
-704.587	118.696	-0.099	-0.122
-703.572	11.823	-0.127	-0.098
-702.558	800.000	-0.105	-0.377
-701.543	602.032	-0.056	-0.140
-700.529	-200.000	0.289	0.001
-699.514	-35.041	0.401	-0.219
-698.499	117.658	0.115	-0.142
-697.485	36.831	-0.052	0.046
-696.470	-122.509	-0.230	-0.037
-695.456	12.553	0.285	-0.220
-694.441	-139.243	-0.073	0.008
-693.426	-35.091	0.112	-0.061
-692.412	800.000	-0.014	0.052
-691.397	-62.931	0.139	-0.058
-690.383	-45.512	0.081	-0.040
-689.368	210.883	0.059	-0.093
-688.354	124.162	-0.170	-0.215
-687.339	-200.000	0.017	-0.273
-686.324	-10.973	-0.056	-0.037
-685.310	-200.000	-0.034	-0.235
-684.295	-25.227	-0.112	-0.067
-683.281	-153.860	-0.226	-0.016
-682.266	-200.000	-0.167	0.000
-681.251	-200.000	-0.015	-0.088
-680.237	800.000	0.069	0.294
-679.222	-30.422	0.195	0.111
-678.208	-21.042	-0.250	-0.154
-677.193	-109.704	0.124	-0.026
-676.178	-200.000	0.075	-0.423
-675.164	157.803	0.073	0.101
-674.149	-171.923	0.139	-0.005
-673.135	800.000	-0.028	-0.108
-672.120	-200.000	0.004	0.212
-671.105	-38.891	-0.104	-0.055
-670.091	-200.000	-0.049	-0.580
-669.076	14.394	-0.159	-0.124
-668.062	-133.323	-0.391	-0.049
-667.047	-70.805	0.248	0.094
-666.032	218.495	-0.099	-0.158
-665.018	130.099	-0.098	0.125
-664.003	393.441	-0.152	-0.317
-662.989	-68.643	-0.131	-0.051
-661.974	-200.000	0.036	0.279
-660.959	229.949	-0.120	-0.197
-659.945	253.298	-0.079	-0.134
-658.930	39.197	-0.281	-0.252
-657.916	167.824	-0.068	-0.097
-656.901	65.123	0.029	0.030
-655.886	32.014	0.020	-0.017
-654.872	45.112	-0.143	0.132
-653.857	65.127	-0.098	-0.100
-652.843	-123.651	-0.375	-0.060
-651.828	212.096	0.157	-0.247
-650.814	-47.621	0.199	-0.097
-649.799	-130.641	0.103	-0.014
-648.784	106.328	0.104	0.124
-647.770	-55.307	-0.234	-0.105
-646.755	535.378	-0.053	-0.126
-645.741	-200.000	-0.040	-0.583
-644.726	-22.253	0.275	0.167
-643.711	800.000	0.097	0.271
-642.697	219.996	-0.021	0.033
-641.682	-162.163	-0.052	0.003
-640.668	34.826	0.133	0.117
-639.653	73.885	-0.122	0.128
-638.638	272.702	-0.098	-0.174
-637.624	-11.899	-0.136	-0.089
-636.609	80.200	0.223	0.240
-635.595	154.281	-0.135	-0.185
-634.580	232.236	0.118	-0.194
-633.565	-200.000	0.005	0.231
-632.551	0.227	-0.045	-0.032
-631.536	-100.873	-0.284	-0.070
-630.522	-57.579	-0.178	-0.078
-629.507	-200.000	0.024	-0.456
-628.492	14.335	0.103	-0.081
-627.478	-181.066	0.330	-0.007
-626.463	60.055	-0.218	-0.216
-625.449	76.909	0.257	-0.273
-624.434	65.011	-0.120	-0.122
-623.419	323.472	-0.049	-0.094
-622.405	-49.063	-0.125	0.060
-621.390	-200.000	0.014	-0.080
-620.376	-97.113	0.119	0.031
-619.361	-44.376	-0.300	-0.150
-618.346	-200.000	0.004	-0.078
-617.332	-13.344	0.173	0.112
-616.317	-142.578	0.047	0.005
-615.303	-22.509	0.116	-0.070
-614.288	344.117	-0.089	0.174
-613.273	21.076	-0.202	0.164
-612.259	-4.415	0.017	-0.012
-611.244	282.451	-0.132	-0.238
-610.230	-95.190	-0.242	-0.065
-609.215	222.043	0.070	0.112
-608.201	300.362	0.165	-0.305
-607.186	-200.000	0.000	-0.014
-606.171	-19.423	-0.105	0.065
-605.157	-83.422	0.221	-0.071
-604.142	197.065	0.180	-0.275
-603.128	-68.646	-0.155	-0.060
-602.113	-200.000	0.001	0.207
-601.098	-200.000	-0.044	-0.194
-600.084	-3.079	-0.210	0.146
-599.069	-26.490	-0.290	0.170
-598.055	-73.687	-0.155	0.056
-597.040	316.148	-0.113	-0.213
-596.025	-19.920	0.131	-0.081
-595.011	-200.000	-0.003	0.083
-593.996	-13.451	0.213	0.138
-592.982	-200.000	-0.060	-0.413
-591.967	-191.297	0.411	0.004
-590.952	-191.451	0.139	0.001
-589.938	13.044	-0.137	-0.106
-588.923	147.809	-0.069	-0.093
-587.909	131.162	-0.161	0.206
-586.894	243.487	-0.066	-0.110
-585.879	-141.359	-0.088	0.009
-584.865	17.189	0.144	0.114
-583.850	-37.313	0.324	-0.173
-582.836	-138.011	-0.437	-0.049
-581.821	-55.492	0.154	-0.069
-580.806	-163.987	-0.286	-0.013
-579.792	800.000	0.063	0.218
-578.777	21.748	-0.116	0.094
-577.763	124.715	-0.093	-0.117
-576.748	29.204	-0.160	0.135
-575.733	754.610	-0.066	0.178
-574.719	-10.168	-0.131	0.087
-573.704	-200.000	-0.022	-0.515
-572.690	-69.526	-0.122	0.046
-571.675	344.083	0.059	-0.116
-570.661	-143.701	0.208	-0.020
-569.646	-50.497	-0.242	-0.114
-568.631	249.517	0.077	0.130
-567.617	-74.941	-0.109	-0.039
-566.602	187.859	-0.084	0.125
-565.588	-39.625	-0.349	-0.182
-564.573	-200.000	-0.021	0.128
-563.558	93.659	-0.207	-0.234
-562.544	-148.951	0.110	0.009
-561.529	-58.862	0.201	-0.087
-560.515	-200.000	0.024	0.413
-559.500	75.641	-0.147	-0.155
-558.485	675.156	-0.089	-0.232
-557.471	272.523	-0.069	-0.122
-556.456	-97.975	0.153	0.039
-555.442	85.564	0.245	-0.269
-554.427	534.402	-0.138	0.327
-553.412	-200.000	0.007	-0.116
-552.398	-200.000	-0.005	0.023
-551.383	-109.333	0.219	-0.046
-550.369	80.462	0.311	0.334
-549.354	-74.817	-0.018	-0.006
-548.339	800.000	0.076	0.302
-547.325	-200.000	-0.001	-0.134
-546.310	244.705	-0.186	-0.311
-545.296	-83.062	-0.047	0.015
-544.281	-111.568	-0.116	-0.024
-543.266	206.543	-0.222	0.344
-542.252	-132.282	0.282	-0.036
-541.237	-153.433	0.102	-0.007
-540.223	-57.752	0.025	0.011
-539.208	-6.229	-0.181	-0.123
-538.193	-92.850	0.199	0.056
-537.179	476.151	0.122	0.274
-536.164	510.342	0.096	-0.224
-535.150	800.000	0.043	-0.142
-534.135	800.000	0.124	0.354
-533.121	0.683	0.300	0.214
-532.106	-200.000	-0.006	-0.142
-531.091	290.998	0.140	-0.253
-530.077	-10.776	-0.259	-0.170
-529.062	-105.774	-0.328	-0.074
-528.048	361.842	-0.075	0.151
-527.033	69.036	0.229	0.235
-526.018	444.557	0.049	0.106
-525.004	-200.000	0.088	0.447
-523.989	5.785	0.242	0.178
-522.975	-200.000	0.023	0.222
-521.960	-200.000	-0.002	0.247
-520.945	-32.061	-0.051	-0.028
-519.931	7.421	-0.200	0.149
-518.916	-138.124	0.134	0.015
-517.902	-85.652	-0.313	-0.097
-516.887	-26.239	-0.182	-0.107
-515.872	-27.727	0.213	0.123
-514.858	-30.787	-0.245	0.138
-513.843	-137.566	0.116	-0.013
-512.829	-69.556	-0.314	-0.120
-511.814	800.000	-0.057	-0.217
-510.799	-45.127	-0.369	-0.183
-509.785	798.113	0.094	-0.258
-508.770	-200.000	0.002	0.236
-507.756	-200.000	-0.061	0.286
-506.741	-137.217	-0.285	0.032
-505.726	34.558	0.099	-0.086
-504.712	6.867	0.410	0.304
-503.697	-200.000	0.021	0.165
-502.683	89.411	0.168	0.186
-501.668	187.973	-0.089	-0.133
-500.653	-54.404	-0.273	-0.123
-499.639	378.209	-0.052	-0.105
-498.624	27.622	0.213	-0.179
-497.610	136.665	0.166	0.215
-496.595	26.045	0.141	0.117
-495.581	338.334	-0.158	0.305
-494.566	140.793	0.216	-0.285
-493.551	-35.041	0.358	0.194
-492.537	-77.498	0.168	-0.058
-491.522	435.438	-0.063	0.137
-490.508	-200.000	-0.027	-0.304
-489.493	-200.000	-0.010	-0.309
-488.478	-94.401	0.284	-0.077
-487.464	27.231	0.079	-0.066
-486.449	237.790	-0.106	-0.174
-485.435	83.741	0.111	-0.121
-484.420	-200.000	0.012	-0.255
-483.405	-53.436	0.213	0.097
-482.391	-35.696	0.265	0.143
-481.376	-31.359	-0.086	-0.048
-480.362	800.000	0.048	-0.152
-479.347	613.596	-0.066	-0.165
-478.332	64.484	0.205	0.205
-477.318	14.269	-0.193	0.150
-476.303	372.286	-0.101	0.203
-475.289	224.791	0.150	0.241
-474.274	800.000	-0.039	0.129
-473.259	800.000	-0.103	0.313
-472.245	42.378	0.203	-0.183
-471.230	-181.265	0.200	-0.004
-470.216	-98.569	0.235	-0.060
-469.201	-59.968	0.096	0.041
-468.186	-25.383	-0.246	0.145
-467.172	-67.881	0.134	-0.052
-466.157	-200.000	-0.027	0.382
-465.143	-140.498	0.016	0.002
-464.128	459.194	0.084	-0.186
-463.113	60.173	0.131	-0.129
-462.099	157.776	-0.109	0.151
-461.084	-62.659	0.137	-0.056
-460.070	197.920	-0.089	0.135
-459.055	-104.061	-0.016	-0.004
-458.040	368.878	0.064	0.129
-457.026	120.688	0.074	0.091
-456.011	44.235	-0.153	0.140
-454.997	41.524	0.363	0.326
-453.982	-24.075	-0.255	0.152
-452.968	180.453	0.194	-0.284
-451.953	-200.000	0.021	-0.103
-450.938	-200.000	0.012	-0.194
-449.924	70.316	0.089	-0.091
-448.909	37.557	0.067	0.059
-447.895	56.437	0.173	0.167
-446.880	788.846	0.085	-0.232
-445.865	-21.341	0.399	-0.242
-444.851	98.708	0.284	0.325
-443.836	-56.747	0.266	-0.117
-442.822	-200.000	-0.025	0.214
-441.807	8.708	-0.109	0.082
-440.792	-116.812	-0.093	0.017
-439.778	189.848	0.045	-0.067
-438.763	290.253	0.062	-0.112
-437.749	800.000	-0.071	-0.206
-436.734	-57.502	0.170	-0.074
-435.719	9.403	-0.159	-0.119
-434.705	297.265	-0.124	0.227
-433.690	184.825	-0.113	0.167
-432.676	-200.000	-0.007	-0.278
-431.661	-152.135	0.211	-0.015
-430.646	-85.112	-0.297	0.092
-429.632	800.000	-0.045	-0.165
-428.617	-36.861	0.183	-0.097
-427.603	178.551	-0.030	-0.043
-426.588	800.000	0.026	-0.081
-425.573	692.925	-0.055	0.144
-424.559	311.372	0.091	0.170
-423.544	-68.961	-0.133	0.051
-422.530	302.467	0.130	-0.239
-421.515	-46.718	-0.295	-0.144
-420.500	-13.048	-0.087	-0.056
-419.486	-8.876	-0.149	0.099
-418.471	-129.501	0.049	-0.007
-417.457	800.000	-0.022	0.067
-416.442	-200.000	0.000	-0.043
-415.428	800.000	-0.076	0.293
-414.413	400.935	-0.204	-0.426
-413.398	800.000	-0.035	-0.118
-412.384	800.000	0.070	0.248
-411.369	166.090	-0.231	0.325
-410.355	-200.000	-0.021	0.252
-409.340	-106.519	-0.223	0.049
-408.325	711.819	-0.061	-0.161
-407.311	-37.320	0.231	-0.122
-406.296	348.405	0.181	-0.355
-405.282	-200.000	-0.027	-0.329
-404.267	800.000	0.012	-0.053
-403.252	-158.836	-0.197	0.011
-402.238	-154.684	0.157	-0.010
-401.223	-200.000	-0.191	-0.000
-400.209	-73.459	0.158	-0.057
-399.194	106.120	0.362	0.425
-398.179	81.427	-0.239	0.256
-397.165	-83.653	0.309	-0.098
-396.150	76.686	-0.097	0.102
-395.136	410.870	-0.103	-0.216
-394.121	800.000	0.137	-0.471
-393.106	33.591	-0.159	-0.137
-392.092	-105.083	0.244	0.055
-391.077	-101.732	0.342	-0.082
-390.063	800.000	0.019	0.063
-389.048	-42.876	-0.113	0.057
-388.033	-28.467	0.122	0.069
-387.019	-200.000	0.079	-0.369
-386.004	81.618	-0.207	-0.222
-384.990	48.027	0.256	-0.237
-383.975	333.084	0.263	0.503
-382.960	-63.620	-0.164	0.067
-381.946	-75.790	0.224	0.079
-380.931	-32.952	-0.110	0.060
-379.917	-200.000	0.092	0.417
-378.902	-12.210	0.126	0.082
-377.888	724.702	0.117	0.310
-376.873	-53.016	-0.127	0.058
-375.858	-200.000	-0.040	-0.182
-374.844	800.000	-0.047	-0.156
-373.829	-118.500	0.141	-0.025
-372.815	153.305	0.278	-0.377
-371.800	255.534	0.120	-0.204
-370.785	-63.555	-0.116	-0.047
-369.771	336.346	-0.043	-0.083
-368.756	-102.823	0.240	-0.056
-367.742	-21.158	0.281	-0.170
-366.727	87.043	-0.109	-0.120
-365.712	49.970	-0.052	-0.048
-364.698	-118.249	0.277	0.049
-363.683	800.000	0.006	0.022
-362.669	-200.000	0.008	0.207
-361.654	-73.071	0.246	-0.089
-360.639	-200.000	-0.063	0.303
-359.625	-68.550	0.133	0.051
-358.610	-57.703	0.145	0.063
-357.596	86.828	-0.089	0.097
-356.581	-1.415	-0.157	0.110
-355.566	-171.089	-0.126	-0.004
-354.552	-200.000	-0.017	0.144
-353.537	237.147	-0.152	0.249
-352.523	-200.000	-0.043	0.261
-351.508	107.566	-0.194	-0.229
-350.493	248.430	-0.239	-0.401
-349.479	-19.454	0.139	0.085
-348.464	735.035	0.049	0.131
-347.450	-81.936	-0.198	-0.064
-346.435	-200.000	0.026	0.443
-345.420	-73.551	-0.052	-0.019
-344.406	8.288	0.113	-0.084
-343.391	800.000	-0.078	0.232
-342.377	790.267	-0.100	0.273
-341.362	-200.000	0.001	0.143
-340.348	-21.466	0.085	-0.051
-339.333	-200.000	-0.025	0.195
-338.318	9.933	0.153	0.115
-337.304	177.745	-0.174	0.251
-336.289	-130.191	-0.100	0.014
-335.275	-65.994	-0.368	0.146
-334.260	-40.648	0.027	0.014
-333.245	-200.000	0.037	-0.203
-332.231	-144.577	-0.303	-0.028
-331.216	-94.226	-0.290	0.078
-330.202	-134.774	0.199	-0.024
-329.187	499.896	0.103	0.234
-328.172	-146.762	-0.081	-0.007
-327.158	-46.726	-0.147	-0.071
-326.143	2.682	0.313	-0.225
-325.129	800.000	-0.098	-0.271
-324.114	800.000	-0.039	-0.168
-323.099	-87.245	0.060	-0.018
-322.085	-101.504	-0.185	-0.044
-321.070	-103.012	0.384	-0.090
-320.056	3.917	-0.157	-0.114
-319.041	-200.000	-0.034	-0.152
-318.026	-168.897	0.495	-0.018
-317.012	2.142	0.125	-0.089
-315.997	199.863	0.013	-0.020
-314.983	36.056	-0.292	-0.254
-313.968	-125.754	-0.354	-0.053
-312.953	104.769	-0.184	-0.215
-311.939	90.798	-0.191	-0.211
-310.924	800.000	-0.049	0.154
-309.910	800.000	0.056	-0.173
-308.895	199.318	-0.089	-0.135
-307.880	-25.371	0.130	0.076
-306.866	126.276	0.059	0.073
-305.851	100.215	-0.257	-0.295
-304.837	116.646	-0.062	0.075
-303.822	233.678	0.111	-0.181
-302.807	296.564	0.193	-0.351
-301.793	-41.451	-0.029	-0.015
-300.778	-152.881	-0.468	0.033
-299.764	-200.000	0.051	0.312
-298.749	-108.224	-0.163	0.035
-297.735	800.000	-0.074	0.204
-296.720	-200.000	-0.040	-0.187
-295.705	107.417	0.142	-0.166
-294.691	59.086	-0.015	-0.015
-293.676	-39.912	0.027	-0.014
-292.662	-138.484	0.295	0.032
-291.647	1.718	-0.145	0.103
-290.632	70.117	-0.267	0.272
-289.618	-129.425	-0.103	0.014
-288.603	61.297	0.222	0.218
-287.589	-113.752	0.329	0.063
-286.574	800.000	0.070	0.242
-285.559	247.411	-0.193	0.322
-284.545	800.000	0.091	0.319
-283.530	-46.774	-0.016	-0.008
-282.516	-200.000	-0.009	-0.143
-281.501	-48.299	-0.289	-0.138
-280.486	800.000	0.083	0.251
-279.472	427.385	0.089	0.189
-278.457	789.287	0.047	0.127
-277.443	466.908	-0.045	0.100
-276.428	117.610	-0.082	0.100
-275.413	236.060	0.010	-0.016
-274.399	800.000	-0.019	-0.070
-273.384	-59.615	0.188	0.080
-272.370	-64.899	-0.117	0.047
-271.355	-89.327	-0.347	0.101
-270.340	-200.000	-0.059	0.278
-269.326	126.150	-0.128	0.159
-268.311	5.689	0.068	0.050
-267.297	-27.197	0.163	0.094
-266.282	800.000	0.011	0.045
-265.267	27.408	0.182	-0.151
-264.253	178.094	-0.124	-0.178
-263.238	800.000	-0.065	0.185
-262.224	-200.000	0.021	-0.249
-261.209	414.656	0.013	0.027
-260.195	-200.000	0.027	0.259
-259.180	-72.956	-0.090	-0.033
-258.165	-171.074	-0.282	-0.009
-257.151	-136.751	0.183	0.021
-256.136	-105.289	-0.264	0.059
-255.122	-200.000	-0.046	0.240
-254.107	-119.312	-0.286	-0.049
-253.092	800.000	-0.054	-0.169
-252.078	-200.000	-0.003	0.357
-251.063	641.656	-0.088	0.220
-250.049	-26.583	-0.150	-0.087
-249.034	-200.000	0.005	0.235
-248.019	-167.096	0.080	-0.003
-247.005	-18.726	0.078	0.048
-245.990	-11.968	-0.085	-0.055
-244.976	-27.656	-0.053	0.030
-243.961	505.909	-0.065	-0.149
-242.946	709.034	-0.174	-0.454
-241.932	632.226	-0.065	-0.162
-240.917	77.692	0.155	-0.163
-239.903	474.767	0.129	-0.286
-238.888	-84.197	0.019	0.006
-237.873	-22.523	0.234	-0.139
-236.859	150.208	0.094	0.126
-235.844	-162.193	0.260	0.013
-234.830	161.935	0.117	-0.162
-233.815	345.728	0.211	0.409
-232.800	2.946	0.328	0.234
-231.786	-200.000	0.036	-0.265
-230.771	375.768	-0.038	-0.075
-229.757	112.728	0.064	0.077
-228.742	566.260	-0.174	0.416
-227.727	26.550	-0.173	-0.142
-226.713	29.382	-0.050	-0.042
-225.698	-168.206	-0.227	0.009
-224.684	-152.770	0.146	-0.010
-223.669	-117.226	-0.184	0.033
-222.655	6.580	-0.251	0.184
-221.640	-97.630	-0.219	-0.056
-220.625	158.762	0.118	0.162
-219.611	800.000	0.125	-0.466
-218.596	-97.076	0.254	-0.065
-217.582	-169.878	0.145	0.005
-216.567	11.151	0.252	-0.190
-215.552	-200.000	-0.009	-0.059
-214.538	31.113	-0.139	-0.117
-213.523	-83.522	-0.310	-0.098
-212.509	-200.000	-0.028	-0.211
-211.494	-200.000	0.002	-0.151
-210.479	-116.304	-0.144	0.026
-209.465	-200.000	0.001	-0.370
-208.450	800.000	-0.053	-0.222
-207.436	185.143	0.165	-0.240
-206.421	-62.302	0.304	-0.125
-205.406	-100.922	0.281	-0.068
-204.392	614.248	-0.099	0.244
-203.377	-139.258	-0.216	0.023
-202.363	-13.388	0.135	-0.086
-201.348	-173.031	-0.266	0.008
-200.333	-138.264	-0.239	-0.026
-199.319	65.896	0.136	0.136
-198.304	-130.307	0.133	0.018
-197.290	775.084	0.057	-0.152
-196.275	-79.652	-0.109	0.036
-195.260	-75.494	0.183	-0.064
-194.246	-106.178	0.230	-0.051
-193.231	-153.061	0.130	-0.009
-192.217	238.068	0.150	-0.245
-191.202	-44.406	-0.075	0.037
-190.187	-156.699	0.080	-0.005
-189.173	-200.000	-0.004	-0.202
-188.158	-200.000	0.005	0.179
-187.144	-151.900	0.292	-0.021
-186.129	389.755	-0.011	0.022
-185.114	-28.185	0.244	0.139
-184.100	-30.528	-0.348	-0.194
-183.085	359.460	-0.085	-0.168
-182.071	-200.000	-0.023	-0.123
-181.056	152.155	-0.196	0.263
-180.042	800.000	0.017	-0.051
-179.027	-200.000	-0.023	0.194
-178.012	130.268	-0.102	0.128
-176.998	680.549	-0.034	-0.088
-175.983	-50.543	-0.333	-0.154
-174.969	800.000	-0.018	0.051
-173.954	-89.443	-0.033	0.010
-172.939	800.000	0.144	-0.400
-171.925	57.229	0.118	0.113
-170.910	-200.000	0.000	-0.026
-169.896	371.204	-0.015	-0.030
-168.881	203.858	-0.143	-0.218
-167.866	36.724	-0.230	-0.200
-166.852	-29.522	0.125	-0.070
-165.837	800.000	-0.034	0.116
-164.823	-200.000	-0.047	0.294
-163.808	-125.042	-0.189	0.029
-162.793	-53.040	-0.039	-0.018
-161.779	430.006	-0.072	0.153
-160.764	-67.237	-0.439	0.170
-159.750	70.812	0.168	0.170
-158.735	223.176	0.032	-0.051
-157.720	340.017	0.103	0.198
-156.706	5.401	0.234	0.170
-155.691	-145.849	-0.080	0.007
-154.677	-200.000	-0.057	0.333
-153.662	499.108	0.065	0.147
-152.647	493.013	-0.052	0.116
-151.633	176.938	-0.244	0.349
-150.618	-142.660	-0.453	0.044
-149.604	-164.190	0.332	0.015
-148.589	-9.925	-0.164	0.107
-147.574	-132.782	0.257	0.032
-146.560	-200.000	-0.014	0.155
-145.545	-1.058	0.405	0.281
-144.531	-200.000	-0.002	-0.050
-143.516	78.462	-0.030	0.032
-142.502	-200.000	0.005	0.079
-141.487	282.061	-0.081	0.143
-140.472	-79.959	-0.165	0.054
-139.458	-138.471	0.455	0.049
-138.443	404.003	-0.045	0.094
-137.429	-46.967	0.157	0.075
-136.414	-63.171	-0.156	0.063
-135.399	-200.000	-0.019	-0.266
-134.385	-103.649	-0.100	-0.023
-133.370	-40.944	-0.211	0.107
-132.356	-200.000	0.033	0.147
-131.341	800.000	0.085	-0.318
-130.326	-155.556	-0.407	0.026
-129.312	-154.450	-0.253	0.017
-128.297	800.000	0.080	-0.217
-127.283	-9.581	-0.178	0.116
-126.268	19.229	-0.017	-0.013
-125.253	120.846	-0.168	0.206
-124.239	348.703	0.155	-0.300
-123.224	800.000	0.029	0.096
-122.210	800.000	0.081	0.340
