DTS Sentinel unit serial number:	SN413079Multiplexer serial number:	ORYXHardware model number:	OX4-SRSoftware version number:	ORYX F/W v4.00 Oryx Data Collector v3.7.2.0data status	okinstallation	princeton_trtdifferential loss correction	single-endedforward channel	channel 3reverse channel	N/Adate	2019/09/16time	16:08:35forward acquisition time	60.00reverse acquisition time	0.00gamma	496.2192k internal	0.2293k external	0.2293temperature offset calibration	0.9942default loss term (dB/km)	0.3790temperature slope calibration	1.0000multiplexer offset coefficient	1.0000multiplexer slope coefficient	1.0000fibre end	0.00T internal ref (°C)	40.81T ext. ref 1 (°C)	14.94T ext. ref 2 (°C)	35.00length (m)	temperature (°C)	Stokes	anti-Stokes-747.200	800.000	0.044	-0.164
-746.185	38.128	0.030	-0.027
-745.171	-141.653	0.325	0.033
-744.156	-200.000	-0.082	0.440
-743.142	-49.490	-0.329	0.160
-742.127	399.949	0.063	0.135
-741.112	-200.000	-0.015	0.197
-740.098	-151.005	0.281	-0.022
-739.083	211.117	-0.192	0.310
-738.069	-7.776	-0.288	0.199
-737.054	492.309	0.005	0.012
-736.039	-40.617	-0.295	-0.157
-735.025	-134.000	0.332	0.042
-734.010	45.120	0.094	0.088
-732.996	114.660	0.043	-0.053
-731.981	-200.000	-0.011	0.083
-730.966	800.000	-0.038	0.125
-729.952	72.257	-0.196	0.209
-728.937	55.975	0.263	-0.261
-727.923	-200.000	-0.069	-0.371
-726.908	166.069	-0.250	-0.361
-725.894	-33.243	0.132	0.075
-724.879	-178.665	-0.500	0.012
-723.864	-62.278	-0.188	-0.080
-722.850	-149.096	0.049	-0.004
-721.835	237.158	0.096	0.162
-720.821	19.225	-0.124	0.102
-719.806	19.354	0.320	-0.263
-718.791	-146.964	-0.190	-0.017
-717.777	-24.398	-0.302	0.184
-716.762	-39.509	0.184	0.099
-715.748	-145.248	0.151	0.014
-714.733	213.569	-0.051	0.083
-713.718	454.691	0.083	-0.189
-712.704	800.000	0.023	0.082
-711.689	604.663	-0.035	-0.090
-710.675	518.813	0.141	-0.337
-709.660	-200.000	-0.040	-0.270
-708.645	673.339	-0.113	0.298
-707.631	188.067	0.154	0.236
-706.616	-149.365	0.186	0.015
-705.602	-200.000	-0.034	0.199
-704.587	110.094	0.190	0.233
-703.572	-200.000	0.285	0.001
-702.558	460.784	-0.017	-0.038
-701.543	49.602	0.106	-0.102
-700.529	-104.550	-0.105	-0.025
-699.514	-109.750	0.319	0.068
-698.499	-172.880	0.402	0.013
-697.485	-163.614	-0.188	0.009
-696.470	-124.827	0.074	0.012
-695.456	69.851	0.145	0.152
-694.441	-97.713	0.224	0.059
-693.426	800.000	0.056	0.207
-692.412	-200.000	0.001	0.022
-691.397	-109.218	-0.307	0.067
-690.383	-200.000	0.002	-0.024
-689.368	353.545	-0.046	0.093
-688.354	37.345	-0.045	-0.041
-687.339	-47.784	0.231	0.114
-686.324	800.000	0.106	-0.371
-685.310	-39.443	-0.210	-0.112
-684.295	800.000	0.073	-0.309
-683.281	-200.000	-0.052	-0.377
-682.266	64.420	-0.414	-0.425
-681.251	64.218	0.037	0.038
-680.237	170.387	0.112	-0.164
-679.222	800.000	0.019	0.056
-678.208	-122.010	-0.045	-0.008
-677.193	-200.000	0.021	-0.144
-676.178	140.684	0.044	-0.059
-675.164	369.859	0.066	-0.137
-674.149	-200.000	0.021	0.286
-673.135	101.482	0.328	0.390
-672.120	-200.000	0.001	-0.247
-671.105	-30.265	0.007	0.004
-670.091	69.288	0.261	-0.274
-669.076	-69.325	-0.293	-0.115
-668.062	-103.306	-0.419	-0.101
-667.047	60.437	0.026	0.027
-666.032	-45.882	0.189	-0.095
-665.018	-61.859	0.039	0.017
-664.003	-185.978	-0.148	0.002
-662.989	89.245	0.155	0.177
-661.974	34.940	0.186	-0.166
-660.959	800.000	0.021	-0.072
-659.945	800.000	-0.019	-0.061
-658.930	-200.000	0.006	-0.067
-657.916	22.539	-0.105	0.087
-656.901	106.095	0.138	0.167
-655.886	1.352	0.188	-0.138
-654.872	-200.000	-0.041	-0.215
-653.857	38.436	0.203	0.185
-652.843	106.167	-0.159	-0.192
-651.828	-200.000	-0.004	0.090
-650.814	384.740	0.019	-0.039
-649.799	800.000	0.058	-0.166
-648.784	-39.535	0.258	-0.138
-647.770	1.234	0.062	-0.045
-646.755	138.228	-0.090	0.121
-645.741	95.409	0.063	-0.074
-644.726	-200.000	0.003	-0.086
-643.711	25.626	0.143	-0.121
-642.697	800.000	0.042	0.153
-641.682	-15.967	0.109	-0.071
-640.668	94.103	0.269	-0.311
-639.653	-200.000	-0.008	-0.219
-638.638	2.065	0.180	0.132
-637.624	12.017	0.143	-0.112
-636.609	-69.814	-0.162	-0.063
-635.595	-85.897	-0.066	-0.021
-634.580	8.992	0.164	-0.126
-633.565	175.249	-0.012	0.018
-632.551	-45.438	0.326	-0.164
-631.536	0.167	0.192	0.140
-630.522	-79.767	-0.136	-0.047
-629.507	101.367	-0.162	-0.192
-628.492	-68.178	0.142	0.056
-627.478	-200.000	-0.015	0.566
-626.463	331.033	0.050	0.098
-625.449	-200.000	-0.038	-0.232
-624.434	800.000	0.043	0.172
-623.419	150.483	0.145	-0.201
-622.405	83.868	-0.287	-0.319
-621.390	-200.000	0.023	-0.129
-620.376	-106.046	-0.062	0.014
-619.361	-200.000	-0.060	0.314
-618.346	-200.000	0.023	-0.172
-617.332	-17.190	-0.118	-0.076
-616.317	53.458	-0.036	-0.035
-615.303	70.452	-0.207	0.217
-614.288	-144.478	0.206	0.019
-613.273	349.513	-0.157	-0.316
-612.259	-200.000	0.023	0.235
-611.244	86.559	-0.257	0.288
-610.230	-168.197	0.195	0.008
-609.215	22.734	-0.173	-0.144
-608.201	-87.800	-0.066	-0.020
-607.186	-88.101	-0.180	-0.055
-606.171	-6.811	0.331	0.229
-605.157	122.567	-0.160	-0.204
-604.142	-200.000	0.009	-0.294
-603.128	-102.106	-0.142	0.035
-602.113	183.173	0.034	0.052
-601.098	47.845	-0.161	-0.153
-600.084	209.267	-0.164	-0.261
-599.069	-58.521	-0.187	0.083
-598.055	-110.067	0.271	0.058
-597.040	-200.000	0.021	0.138
-596.025	-19.779	-0.163	-0.102
-595.011	-94.079	0.108	-0.030
-593.996	800.000	-0.091	-0.286
-592.982	-80.712	-0.428	-0.145
-591.967	-90.286	-0.113	0.033
-590.952	-58.576	0.255	0.113
-589.938	-200.000	-0.035	0.381
-588.923	-69.878	-0.158	0.061
-587.909	-200.000	-0.040	-0.399
-586.894	-56.450	0.198	-0.089
-585.879	34.714	-0.154	-0.137
-584.865	-149.426	-0.305	-0.025
-583.850	340.525	0.100	-0.198
-582.836	-109.943	-0.242	0.052
-581.821	553.745	-0.109	-0.266
-580.806	50.873	-0.081	0.078
-579.792	-163.365	0.398	0.019
-578.777	229.574	-0.090	0.149
-577.763	-19.417	-0.192	0.121
-576.748	100.809	-0.131	0.155
-575.733	-77.379	0.253	-0.089
-574.719	-160.611	0.381	0.021
-573.704	-103.307	-0.115	-0.027
-572.690	-30.606	-0.336	-0.193
-571.675	-43.166	0.181	-0.093
-570.661	342.780	0.228	-0.454
-569.646	-200.000	-0.013	-0.230
-568.631	800.000	-0.044	-0.145
-567.617	800.000	-0.016	-0.069
-566.602	537.770	-0.065	-0.157
-565.588	-71.318	0.018	0.007
-564.573	-200.000	0.315	-0.000
-563.558	-200.000	-0.002	-0.115
-562.544	291.674	-0.207	0.382
-561.529	12.918	0.382	0.300
-560.515	-131.150	-0.262	0.035
-559.500	291.084	-0.120	-0.222
-558.485	-55.284	0.068	-0.031
-557.471	247.255	-0.079	0.136
-556.456	-200.000	-0.030	-0.187
-555.442	739.762	0.132	0.361
-554.427	-139.622	-0.311	0.034
-553.412	-124.994	0.156	0.024
-552.398	-73.887	0.310	0.114
-551.383	-93.141	-0.238	0.067
-550.369	-79.269	-0.146	0.050
-549.354	-92.098	-0.171	-0.049
-548.339	-184.982	0.334	-0.005
-547.325	-147.779	-0.107	-0.009
-546.310	800.000	0.036	0.160
-545.296	3.248	0.328	0.242
-544.281	800.000	-0.096	0.358
-543.266	-200.000	0.265	-0.001
-542.252	-166.123	-0.121	0.005
-541.237	-200.000	-0.001	-0.126
-540.223	768.857	0.083	0.230
-539.208	334.677	-0.181	-0.356
-538.193	152.864	-0.015	-0.020
-537.179	229.272	0.166	-0.274
-536.164	800.000	0.074	-0.250
-535.150	494.350	-0.071	-0.166
-534.135	252.162	-0.189	-0.327
-533.121	-56.717	-0.116	-0.052
-532.106	171.607	0.085	-0.123
-531.091	-200.000	0.001	-0.132
-530.077	-37.853	0.173	0.093
-529.062	-200.000	-0.024	0.220
-528.048	341.181	-0.075	0.148
-527.033	549.451	0.012	-0.028
-526.018	198.214	-0.117	-0.182
-525.004	376.222	-0.168	-0.348
-523.989	287.627	-0.110	0.201
-522.975	800.000	0.053	0.213
-521.960	-20.090	-0.150	0.094
-520.945	173.211	-0.203	-0.297
-519.931	-158.222	-0.100	-0.006
-518.916	800.000	-0.069	0.222
-517.902	-182.954	0.303	0.005
-516.887	201.822	-0.208	-0.325
-515.872	-113.597	-0.196	-0.039
-514.858	-200.000	-0.001	-0.265
-513.843	475.976	-0.093	0.214
-512.829	58.276	0.078	-0.077
-511.814	-112.868	0.033	0.007
-510.799	-200.000	0.012	0.206
-509.785	68.209	0.089	0.093
-508.770	-35.689	-0.228	0.125
-507.756	-63.986	0.302	-0.125
-506.741	-77.938	-0.123	-0.043
-505.726	-14.107	0.145	0.095
-504.712	800.000	0.058	0.213
-503.697	222.832	-0.066	0.108
-502.683	-140.044	-0.253	0.027
-501.668	309.069	0.105	-0.199
-500.653	-200.000	0.046	-0.234
-499.639	104.663	-0.181	0.217
-498.624	370.047	0.058	-0.120
-497.610	800.000	0.102	0.305
-496.595	-80.080	-0.268	0.091
-495.581	-28.909	-0.145	0.084
-494.566	523.426	0.049	-0.116
-493.551	-48.035	0.393	0.193
-492.537	113.112	-0.235	0.288
-491.522	800.000	-0.074	0.283
-490.508	553.281	-0.102	-0.248
-489.493	-200.000	-0.035	0.304
-488.478	21.161	0.186	-0.153
-487.464	-75.153	-0.244	-0.089
-486.449	3.904	0.007	0.005
-485.435	-107.807	0.175	-0.039
-484.420	-102.940	0.140	-0.034
-483.405	207.362	0.162	-0.256
-482.391	-134.882	0.178	0.022
-481.376	-58.043	0.102	-0.045
-480.362	55.653	0.071	-0.070
-479.347	800.000	0.064	-0.213
-478.332	195.542	-0.105	0.162
-477.318	-16.573	-0.141	-0.091
-476.303	-200.000	0.029	-0.654
-475.289	-200.000	0.008	-0.454
-474.274	-200.000	0.075	0.339
-473.259	13.635	0.149	-0.117
-472.245	741.127	-0.158	0.430
-471.230	188.093	0.136	0.205
-470.216	-65.394	-0.113	0.046
-469.201	-200.000	0.006	0.154
-468.186	-200.000	0.002	-0.192
-467.172	-55.026	-0.108	0.049
-466.157	-43.543	0.470	0.240
-465.143	-160.780	0.288	0.015
-464.128	-129.953	-0.378	-0.052
-463.113	52.781	-0.219	0.212
-462.099	-28.631	-0.177	-0.103
-461.084	-134.042	0.371	-0.046
-460.070	-125.001	-0.117	-0.018
-459.055	206.137	-0.192	-0.302
-458.040	194.499	0.103	0.157
-457.026	-54.370	0.209	-0.096
-456.011	-135.218	-0.032	-0.004
-454.997	305.038	0.118	0.222
-453.982	362.673	0.056	-0.114
-452.968	234.283	0.257	-0.428
-451.953	800.000	-0.054	-0.210
-450.938	-40.690	0.224	0.117
-449.924	800.000	0.049	-0.153
-448.909	144.344	-0.200	0.270
-447.895	800.000	-0.053	0.184
-446.880	85.170	0.198	0.220
-445.865	-200.000	0.013	0.090
-444.851	-86.051	-0.565	-0.176
-443.836	-47.462	-0.363	0.178
-442.822	-200.000	-0.041	-0.209
-441.807	433.567	0.158	0.346
-440.792	-200.000	0.023	0.408
-439.778	305.946	0.091	-0.171
-438.763	-81.043	-0.447	0.150
-437.749	-106.886	0.223	0.050
-436.734	800.000	-0.059	-0.230
-435.719	416.195	0.108	0.233
-434.705	162.124	0.081	0.115
-433.690	-200.000	0.034	0.176
-432.676	800.000	-0.045	-0.168
-431.661	322.814	-0.012	0.022
-430.646	-53.683	-0.099	0.046
-429.632	-87.871	0.115	-0.035
-428.617	-200.000	0.010	0.116
-427.603	-141.843	0.112	-0.011
-426.588	142.909	-0.048	-0.065
-425.573	-17.616	-0.282	0.179
-424.559	0.077	0.040	-0.029
-423.544	-6.625	-0.141	-0.097
-422.530	-36.890	0.283	-0.153
-421.515	413.741	-0.072	-0.154
-420.500	-106.286	-0.012	0.003
-419.486	-200.000	0.003	0.080
-418.471	623.966	-0.078	-0.197
-417.457	-52.942	0.292	-0.136
-416.442	-74.384	0.070	-0.025
-415.428	-200.000	0.008	-0.176
-414.413	203.571	0.077	0.120
-413.398	-69.992	0.095	-0.037
-412.384	800.000	0.026	0.089
-411.369	49.582	-0.215	0.205
-410.355	568.017	-0.041	0.101
-409.340	126.780	-0.148	0.189
-408.325	466.459	0.135	0.306
-407.311	800.000	0.050	-0.183
-406.296	63.507	0.067	0.068
-405.282	-162.255	-0.307	-0.015
-404.267	-200.000	-0.011	-0.134
-403.252	-200.000	-0.009	-0.098
-402.238	-133.472	-0.500	-0.063
-401.223	800.000	0.028	-0.113
-400.209	-169.047	0.099	-0.004
-399.194	800.000	-0.123	0.536
-398.179	545.235	0.072	-0.173
-397.165	-184.378	0.125	0.002
-396.150	800.000	-0.065	0.191
-395.136	499.299	0.088	0.205
-394.121	800.000	0.080	0.242
-393.106	800.000	0.034	0.101
-392.092	800.000	0.111	-0.461
-391.077	170.638	-0.092	0.133
-390.063	5.130	-0.078	0.058
-389.048	30.696	-0.114	-0.098
-388.033	-40.842	-0.334	0.174
-387.019	-153.888	0.295	-0.020
-386.004	-5.320	-0.134	-0.093
-384.990	255.872	-0.098	0.170
-383.975	-149.141	-0.209	-0.017
-382.960	-74.086	0.068	-0.025
-381.946	800.000	-0.049	0.217
-380.931	8.927	0.192	0.146
-379.917	443.519	0.070	-0.154
-378.902	-95.875	-0.038	-0.010
-377.888	800.000	0.040	0.177
-376.873	6.562	-0.244	0.183
-375.858	-80.928	0.099	0.033
-374.844	800.000	-0.015	0.052
-373.829	-137.990	0.127	0.014
-372.815	163.408	-0.141	0.200
-371.800	800.000	0.073	-0.309
-370.785	-119.214	-0.154	0.027
-369.771	-11.381	0.067	-0.044
-368.756	72.566	-0.208	-0.219
-367.742	39.503	-0.268	-0.242
-366.727	800.000	-0.071	-0.219
-365.712	24.979	0.139	-0.116
-364.698	-32.671	0.242	0.136
-363.683	-130.553	-0.172	0.023
-362.669	615.706	0.082	-0.208
-361.654	-72.432	0.207	-0.077
-360.639	-200.000	0.068	0.489
-359.625	800.000	0.071	-0.265
-358.610	-89.811	0.307	-0.091
-357.596	800.000	-0.083	0.244
-356.581	161.963	-0.239	0.338
-355.566	-200.000	-0.055	-0.314
-354.552	-132.357	0.031	-0.004
-353.537	34.410	-0.122	0.107
-352.523	-200.000	-0.044	0.292
-351.508	800.000	0.096	-0.419
-350.493	28.693	0.007	-0.006
-349.479	-121.063	-0.200	-0.034
-348.464	-103.673	-0.300	-0.071
-347.450	-33.411	0.108	0.060
-346.435	70.157	0.207	-0.215
-345.420	-200.000	-0.030	-0.327
-344.406	-200.000	0.013	-0.160
-343.391	-200.000	-0.035	0.202
-342.377	-75.700	-0.293	-0.105
-341.362	-70.135	0.324	-0.124
-340.348	1.232	0.303	0.219
-339.333	-119.278	0.096	-0.017
-338.318	-32.585	0.240	0.135
-337.304	-102.158	0.280	0.068
-336.289	-88.860	-0.016	0.005
-335.275	-200.000	-0.012	0.378
-334.260	196.823	0.104	-0.159
-333.245	800.000	-0.026	0.080
-332.231	77.681	0.110	0.118
-331.216	-72.438	0.342	-0.127
-330.202	800.000	0.028	0.089
-329.187	86.475	-0.142	-0.157
-328.172	-96.730	-0.179	-0.047
-327.158	-200.000	-0.004	0.228
-326.143	-60.572	0.150	0.064
-325.129	-69.265	0.184	0.071
-324.114	-150.467	-0.117	-0.009
-323.099	48.762	-0.241	0.228
-322.085	62.195	0.099	0.099
-321.070	-47.943	-0.125	-0.061
-320.056	-92.043	0.257	-0.073
-319.041	357.574	-0.154	-0.310
-318.026	-200.000	0.002	-0.134
-317.012	307.724	-0.100	-0.187
-315.997	-51.670	0.239	0.112
-314.983	-88.898	0.096	0.029
-313.968	-200.000	0.002	-0.361
-312.953	-200.000	0.022	0.288
-311.939	-17.535	0.070	-0.044
-310.924	174.367	-0.166	0.241
-309.910	18.839	-0.069	-0.055
-308.895	-184.379	-0.153	-0.003
-307.880	23.953	-0.218	-0.181
-306.866	-90.105	0.146	-0.043
-305.851	60.956	0.080	-0.080
-304.837	-26.903	-0.189	0.111
-303.822	53.010	-0.153	-0.147
-302.807	359.310	0.111	-0.223
-301.793	63.412	-0.158	-0.159
-300.778	104.969	-0.069	-0.081
-299.764	26.853	-0.124	-0.105
-298.749	134.787	-0.192	-0.250
-297.735	-68.863	0.235	-0.091
-296.720	-113.901	-0.361	0.071
-295.705	48.188	0.235	0.221
-294.691	498.389	-0.155	0.360
-293.676	120.752	0.031	0.038
-292.662	-18.752	0.393	0.246
-291.647	43.578	-0.223	0.205
-290.632	353.693	0.068	0.135
-289.618	-54.263	0.253	0.115
-288.603	800.000	0.077	-0.281
-287.589	-94.754	0.338	-0.092
-286.574	-6.127	-0.181	0.124
-285.559	800.000	0.107	-0.333
-284.545	-176.348	-0.369	-0.010
-283.530	-200.000	-0.007	0.230
-282.516	-137.706	0.224	0.025
-281.501	-161.484	-0.072	-0.004
-280.486	-200.000	0.030	0.256
-279.472	-99.015	0.207	0.053
-278.457	228.670	-0.262	0.428
-277.443	29.027	0.221	0.188
-276.428	-200.000	0.011	-0.086
-275.413	144.615	-0.034	-0.045
-274.399	-97.045	-0.226	0.060
-273.384	-78.159	-0.429	0.148
-272.370	-105.424	0.213	-0.049
-271.355	-9.123	0.229	0.154
-270.340	-200.000	0.023	-0.137
-269.326	-200.000	-0.046	-0.268
-268.311	-13.584	-0.101	0.066
-267.297	800.000	-0.108	0.317
-266.282	800.000	-0.118	-0.383
-265.267	686.997	-0.055	0.144
-264.253	710.721	0.061	-0.163
-263.238	229.510	0.154	-0.252
-262.224	239.538	-0.148	-0.247
-261.209	-45.906	-0.215	0.106
-260.195	19.689	-0.294	0.238
-259.180	-181.658	0.122	0.002
-258.165	113.533	0.123	0.150
-257.151	-47.618	-0.056	-0.027
-256.136	45.562	-0.065	0.060
-255.122	9.615	-0.243	0.184
-254.107	272.252	-0.158	0.280
-253.092	-13.999	-0.164	-0.106
-252.078	37.036	0.275	0.244
-251.063	-200.000	-0.021	-0.100
-250.049	-109.726	0.284	0.060
-249.034	-93.681	-0.213	-0.059
-248.019	-65.625	-0.073	0.029
-247.005	-123.681	0.073	-0.012
-245.990	-47.712	-0.045	-0.022
-244.976	-13.601	-0.256	0.166
-243.961	-200.000	0.038	0.260
-242.946	-165.098	-0.007	-0.000
-241.932	-33.977	0.205	-0.113
-240.917	800.000	0.032	0.099
-239.903	-93.721	0.192	0.053
-238.888	-200.000	-0.009	0.066
-237.873	-15.839	-0.214	0.137
-236.859	53.769	0.045	-0.043
-235.844	-200.000	0.004	0.128
-234.830	73.775	-0.162	0.170
-233.815	65.037	0.034	-0.034
-232.800	7.442	-0.204	0.153
-231.786	-27.238	0.178	-0.104
-230.771	47.355	0.046	0.043
-229.757	-200.000	0.007	0.171
-228.742	-200.000	0.003	0.058
-227.727	7.764	0.107	-0.081
-226.713	41.574	-0.122	-0.111
-225.698	-23.716	0.492	0.296
-224.684	264.063	-0.118	0.205
-223.669	115.896	0.029	0.035
-222.655	-63.371	-0.066	-0.027
-221.640	-42.429	-0.040	0.020
-220.625	800.000	0.045	0.149
-219.611	601.119	0.051	0.127
-218.596	105.189	0.254	-0.300
-217.582	-32.341	0.210	-0.117
-216.567	-35.600	-0.073	-0.040
-215.552	679.466	0.134	-0.348
-214.538	291.317	-0.086	0.157
-213.523	-200.000	-0.044	-0.227
-212.509	800.000	0.078	0.218
-211.494	-200.000	-0.015	-0.323
-210.479	-106.785	-0.139	0.031
-209.465	-200.000	0.039	0.173
-208.450	327.614	-0.022	0.043
-207.436	-200.000	0.029	0.151
-206.421	-179.320	-0.334	0.007
-205.406	-200.000	0.027	-0.135
-204.392	72.384	0.064	-0.067
-203.377	716.782	0.108	-0.288
-202.363	-145.236	0.015	-0.001
-201.348	-200.000	-0.022	0.189
-200.333	487.263	-0.051	0.116
-199.319	800.000	-0.079	0.241
-198.304	-200.000	0.008	-0.083
-197.290	-200.000	0.002	0.128
-196.275	134.173	0.178	-0.230
-195.260	-29.613	-0.194	-0.111
-194.246	98.125	-0.157	0.181
-193.231	44.562	-0.149	-0.137
-192.217	210.755	-0.104	0.164
-191.202	105.156	-0.033	0.039
-190.187	67.140	-0.144	0.147
-189.173	369.766	0.076	0.154
-188.158	321.996	-0.108	-0.206
-187.144	79.523	0.040	0.043
-186.129	261.294	0.044	-0.077
-185.114	-77.707	-0.111	-0.038
-184.100	95.114	0.160	0.182
-183.085	-42.889	0.312	0.159
-182.071	-54.591	-0.290	0.131
-181.056	168.115	0.086	0.123
-180.042	-80.991	0.148	0.049
-179.027	-128.958	0.618	-0.087
-178.012	-37.756	0.182	-0.097
-176.998	-32.733	0.304	-0.169
-175.983	-166.858	0.318	-0.013
-174.969	800.000	0.064	0.278
-173.954	-88.997	-0.256	-0.076
-172.939	216.249	0.172	-0.274
-171.925	51.734	-0.286	-0.272
-170.910	277.391	-0.187	-0.333
-169.896	-200.000	0.008	0.088
-168.881	-14.938	-0.199	0.128
-167.866	-147.810	0.432	-0.036
-166.852	-77.822	0.028	-0.010
-165.837	102.481	0.111	0.130
-164.823	-6.795	0.431	-0.293
-163.808	-20.738	-0.174	0.107
-162.793	27.034	-0.185	-0.155
-161.779	-175.240	0.361	-0.010
-160.764	-200.000	0.011	-0.103
-159.750	800.000	-0.054	-0.210
-158.735	-200.000	0.012	-0.105
-157.720	-109.426	-0.118	0.025
-156.706	-41.131	-0.087	-0.045
-155.691	-102.135	0.167	-0.040
-154.677	56.050	0.040	-0.039
-153.662	-145.972	-0.237	-0.021
-152.647	-200.000	0.000	0.016
-151.633	36.086	0.064	0.056
-150.618	53.164	0.003	0.003
-149.604	-17.325	0.298	0.187
-148.589	-122.262	-0.128	0.021
-147.574	-59.720	0.228	0.098
-146.560	-200.000	-0.029	-0.211
-145.545	128.590	0.210	0.267
-144.531	14.070	-0.275	0.214
-143.516	-200.000	0.017	0.365
-142.502	-103.130	0.259	-0.061
-141.487	-138.804	0.474	0.052
-140.472	-134.704	-0.403	-0.049
-139.458	-22.593	-0.182	0.110
-138.443	-200.000	-0.005	0.078
-137.429	-85.685	-0.159	0.049
-136.414	-200.000	-0.005	0.227
-135.399	96.903	0.271	0.310
-134.385	-200.000	0.061	0.405
-133.370	-79.279	0.148	0.050
-132.356	179.135	-0.084	-0.123
-131.341	318.286	-0.042	-0.079
-130.326	24.073	0.055	-0.045
-129.312	15.615	0.121	-0.095
-128.297	266.874	0.047	-0.082
-127.283	259.579	0.167	-0.287
-126.268	103.187	0.050	0.058
-125.253	-128.310	0.361	-0.051
-124.239	406.293	-0.044	0.093
-123.224	-30.509	0.171	-0.097
-122.210	80.662	0.103	0.111
-121.195	-141.514	0.177	-0.018
-120.180	-30.472	-0.259	0.147
