DTS Sentinel unit serial number:	SN413079Multiplexer serial number:	ORYXHardware model number:	OX4-SRSoftware version number:	ORYX F/W v4.00 Oryx Data Collector v3.7.2.0data status	okinstallation	princeton_trtdifferential loss correction	single-endedforward channel	channel 3reverse channel	N/Adate	2019/09/14time	09:20:35forward acquisition time	60.00reverse acquisition time	0.00gamma	496.2192k internal	0.2322k external	0.2322temperature offset calibration	1.0055default loss term (dB/km)	0.3790temperature slope calibration	1.0000multiplexer offset coefficient	1.0000multiplexer slope coefficient	1.0000fibre end	0.00T internal ref (°C)	30.98T ext. ref 1 (°C)	3.81T ext. ref 2 (°C)	28.79length (m)	temperature (°C)	Stokes	anti-Stokes-747.200	-200.000	0.008	0.071
-746.185	800.000	-0.167	0.654
-745.171	-39.931	0.242	0.128
-744.156	-2.887	-0.200	0.141
-743.142	142.110	0.174	-0.234
-742.127	-69.227	0.108	0.042
-741.112	-92.474	-0.167	0.047
-740.098	-60.348	0.156	0.067
-739.083	-83.432	0.056	0.018
-738.069	260.968	-0.081	-0.142
-737.054	68.247	0.178	-0.184
-736.039	-56.783	0.254	-0.114
-735.025	237.453	0.102	0.171
-734.010	775.417	-0.039	0.108
-732.996	45.779	0.272	-0.254
-731.981	180.331	-0.022	-0.033
-730.966	-23.897	-0.463	-0.280
-729.952	-200.000	0.030	-0.312
-728.937	-71.873	-0.181	0.068
-727.923	-200.000	0.005	0.129
-726.908	-74.989	-0.282	-0.102
-725.894	297.705	-0.073	0.135
-724.879	800.000	0.051	-0.208
-723.864	-200.000	-0.021	-0.114
-722.850	186.568	0.070	0.105
-721.835	1.932	-0.086	0.063
-720.821	137.447	-0.282	0.373
-719.806	-104.563	0.253	0.059
-718.791	191.123	0.127	0.192
-717.777	-14.653	0.051	0.033
-716.762	-200.000	-0.001	0.099
-715.748	-200.000	-0.015	-0.188
-714.733	444.413	-0.175	-0.387
-713.718	76.040	-0.084	-0.090
-712.704	-95.042	-0.364	-0.099
-711.689	-111.928	-0.447	0.091
-710.675	355.747	0.211	-0.425
-709.660	-4.084	-0.203	-0.142
-708.645	-120.297	-0.125	0.022
-707.631	-200.000	-0.036	0.175
-706.616	-189.462	-0.369	0.004
-705.602	169.602	-0.310	0.447
-704.587	-67.991	-0.245	-0.096
-703.572	37.224	-0.114	-0.102
-702.558	249.417	0.153	-0.262
-701.543	47.376	0.272	-0.255
-700.529	134.368	0.057	0.075
-699.514	-95.541	-0.397	-0.107
-698.499	-200.000	0.008	-0.289
-697.485	793.542	0.065	-0.182
-696.470	-70.416	-0.197	0.075
-695.456	587.073	0.138	-0.343
-694.441	-180.731	0.236	-0.005
-693.426	115.073	-0.058	0.072
-692.412	-2.874	0.345	-0.243
-691.397	-200.000	-0.040	-0.204
-690.383	240.417	0.108	0.181
-689.368	-200.000	-0.001	0.026
-688.354	38.746	-0.094	-0.085
-687.339	-48.346	-0.226	-0.110
-686.324	-153.815	0.211	0.015
-685.310	-62.807	0.138	0.058
-684.295	-101.102	-0.203	-0.050
-683.281	493.829	0.122	-0.282
-682.266	15.580	-0.249	0.197
-681.251	-111.911	-0.153	-0.031
-680.237	10.438	-0.275	-0.211
-679.222	428.697	-0.102	-0.223
-678.208	-29.735	-0.081	0.047
-677.193	-13.867	0.137	0.089
-676.178	-63.377	-0.199	-0.082
-675.164	566.477	-0.028	0.069
-674.149	-167.762	-0.355	0.014
-673.135	-200.000	-0.048	-0.214
-672.120	800.000	0.061	-0.173
-671.105	143.011	-0.045	0.061
-670.091	211.112	0.123	-0.194
-669.076	-135.395	-0.209	0.025
-668.062	-75.247	-0.242	0.087
-667.047	800.000	0.082	-0.245
-666.032	-40.271	0.136	0.071
-665.018	59.505	0.155	-0.154
-664.003	163.525	-0.196	0.278
-662.989	-83.619	-0.194	0.062
-661.974	-71.992	-0.087	-0.032
-660.959	-144.723	-0.246	-0.023
-659.945	800.000	-0.051	-0.180
-658.930	-200.000	0.014	0.081
-657.916	65.819	-0.032	-0.033
-656.901	2.253	0.097	0.071
-655.886	126.677	-0.189	-0.240
-654.872	159.163	-0.073	-0.102
-653.857	-107.110	0.352	-0.078
-652.843	-88.192	-0.079	-0.024
-651.828	66.772	-0.142	-0.146
-650.814	-34.119	0.093	-0.052
-649.799	317.238	-0.219	0.417
-648.784	-163.532	-0.179	0.009
-647.770	55.366	-0.228	-0.222
-646.755	95.900	-0.139	0.160
-645.741	-200.000	-0.025	0.118
-644.726	800.000	-0.060	0.225
-643.711	-102.446	-0.341	0.082
-642.697	-14.066	0.174	0.113
-641.682	791.473	-0.086	-0.237
-640.668	-200.000	0.050	0.353
-639.653	321.854	-0.154	-0.296
-638.638	-200.000	-0.017	-0.170
-637.624	-200.000	0.025	0.276
-636.609	-18.946	-0.091	0.057
-635.595	-70.469	0.258	-0.098
-634.580	-200.000	0.006	0.072
-633.565	-15.169	-0.398	-0.256
-632.551	243.843	0.121	-0.205
-631.536	102.541	0.057	0.067
-630.522	3.977	-0.143	0.105
-629.507	-200.000	0.015	-0.293
-628.492	-9.451	0.223	-0.150
-627.478	-200.000	-0.024	-0.365
-626.463	-23.227	0.269	-0.162
-625.449	-35.448	0.149	-0.081
-624.434	800.000	0.030	-0.117
-623.419	226.298	-0.029	-0.047
-622.405	-93.510	0.161	-0.045
-621.390	47.921	0.291	0.273
-620.376	-200.000	0.006	0.028
-619.361	-69.320	-0.090	0.035
-618.346	577.690	-0.034	0.083
-617.332	-91.863	-0.369	-0.105
-616.317	-200.000	-0.036	-0.167
-615.303	-13.136	0.258	0.169
-614.288	283.995	-0.060	0.108
-613.273	-87.403	0.081	0.025
-612.259	-77.837	0.296	-0.103
-611.244	269.665	0.232	-0.409
-610.230	-200.000	-0.013	0.231
-609.215	-127.337	-0.300	0.044
-608.201	72.123	0.063	-0.066
-607.186	-127.689	-0.264	-0.038
-606.171	6.704	0.120	0.090
-605.157	66.668	0.186	0.190
-604.142	-51.598	0.270	0.126
-603.128	374.328	-0.106	0.217
-602.113	310.865	0.136	0.256
-601.098	-200.000	0.034	-0.154
-600.084	176.900	0.185	0.270
-599.069	800.000	0.099	0.334
-598.055	45.823	-0.079	-0.073
-597.040	-73.944	0.046	-0.017
-596.025	223.102	0.164	0.266
-595.011	-200.000	-0.058	-0.292
-593.996	-80.870	0.295	0.098
-592.982	734.229	-0.085	0.229
-591.967	800.000	-0.099	-0.315
-590.952	78.736	0.030	-0.033
-589.938	93.182	-0.102	0.115
-588.923	156.716	0.107	0.149
-587.909	456.061	0.089	0.197
-586.894	186.340	0.116	0.173
-585.879	96.015	-0.249	-0.285
-584.865	213.362	0.086	0.136
-583.850	166.899	0.047	-0.067
-582.836	-200.000	0.004	-0.186
-581.821	-86.190	-0.452	0.140
-580.806	-51.074	-0.175	-0.082
-579.792	320.590	-0.105	-0.200
-578.777	-200.000	0.047	0.222
-577.763	72.243	-0.123	0.129
-576.748	338.027	-0.065	-0.128
-575.733	-171.377	0.277	0.009
-574.719	491.197	0.047	-0.107
-573.704	192.860	0.096	0.146
-572.690	-200.000	0.003	0.325
-571.675	192.157	-0.117	0.177
-570.661	-60.458	0.290	0.124
-569.646	800.000	-0.115	-0.368
-568.631	69.436	-0.140	0.145
-567.617	100.570	-0.377	-0.439
-566.602	800.000	0.063	-0.178
-565.588	-111.283	-0.286	-0.059
-564.573	56.346	0.050	0.048
-563.558	-104.497	-0.091	0.021
-562.544	-200.000	-0.162	-0.001
-561.529	57.027	0.064	-0.062
-560.515	-5.081	0.129	0.089
-559.500	75.636	-0.129	0.137
-558.485	539.305	0.068	-0.162
-557.471	-99.844	0.293	-0.074
-556.456	28.579	0.251	-0.213
-555.442	784.458	0.054	-0.150
-554.427	-63.928	0.237	-0.097
-553.412	34.597	-0.166	-0.146
-552.398	-10.836	-0.196	-0.130
-551.383	-55.983	-0.067	-0.030
-550.369	-33.727	-0.312	0.172
-549.354	147.483	0.010	-0.013
-548.339	-31.445	0.304	0.171
-547.325	37.800	-0.128	-0.114
-546.310	-200.000	-0.014	0.120
-545.296	53.267	0.255	0.245
-544.281	66.556	0.148	-0.151
-543.266	-98.223	0.109	0.028
-542.252	-200.000	0.084	0.467
-541.237	-200.000	-0.035	0.283
-540.223	-200.000	-0.014	-0.085
-539.208	-35.451	0.405	0.221
-538.193	432.018	-0.043	0.093
-537.179	-26.340	-0.248	-0.146
-536.164	410.805	-0.062	0.132
-535.150	-133.080	-0.596	0.076
-534.135	-174.290	-0.114	0.003
-533.121	-40.282	-0.132	-0.069
-532.106	-44.861	-0.221	0.110
-531.091	-200.000	0.014	-0.094
-530.077	101.197	-0.184	-0.214
-529.062	-200.000	0.076	0.483
-528.048	0.624	-0.271	-0.194
-527.033	-157.490	0.056	0.003
-526.018	800.000	-0.048	0.167
-525.004	-50.530	-0.262	0.124
-523.989	8.701	0.312	0.236
-522.975	106.672	-0.041	0.048
-521.960	-149.324	-0.303	-0.024
-520.945	-89.253	0.270	-0.080
-519.931	107.492	0.222	0.265
-518.916	-136.723	0.264	-0.030
-517.902	800.000	0.090	0.344
-516.887	-200.000	0.026	-0.198
-515.872	509.655	-0.124	-0.288
-514.858	-68.138	0.392	0.153
-513.843	800.000	-0.083	0.287
-512.829	-200.000	-0.111	-0.493
-511.814	-65.213	0.052	0.021
-510.799	668.713	0.107	-0.277
-509.785	-92.975	-0.269	-0.075
-508.770	800.000	0.109	0.392
-507.756	343.469	-0.248	-0.487
-506.741	-65.868	0.110	-0.044
-505.726	-200.000	-0.012	0.105
-504.712	-99.955	0.356	-0.089
-503.697	800.000	0.068	-0.201
-502.683	-200.000	-0.010	0.081
-501.668	-0.159	0.322	-0.229
-500.653	28.466	-0.200	0.169
-499.639	100.005	0.202	0.235
-498.624	102.793	0.031	0.036
-497.610	800.000	0.023	0.096
-496.595	-200.000	-0.056	0.250
-495.581	204.689	-0.014	-0.021
-494.566	-145.023	0.180	0.016
-493.551	249.399	-0.057	-0.097
-492.537	134.263	-0.135	0.175
-491.522	519.266	0.112	-0.263
-490.508	-80.624	-0.254	-0.085
-489.493	800.000	-0.037	-0.133
-488.478	-100.123	-0.162	0.040
-487.464	-97.834	-0.506	0.131
-486.449	-200.000	0.018	-0.099
-485.435	87.402	-0.135	0.150
-484.420	-95.190	0.125	0.034
-483.405	322.324	0.107	0.203
-482.391	220.223	0.017	-0.028
-481.376	373.874	0.191	-0.388
-480.362	-102.572	-0.261	0.062
-479.347	8.411	0.185	-0.139
-478.332	-100.926	-0.149	-0.037
-477.318	-16.667	-0.098	0.062
-476.303	-123.652	0.093	0.015
-475.289	7.202	0.195	-0.145
-474.274	171.108	0.010	-0.014
-473.259	-160.485	-0.425	0.023
-472.245	42.828	0.199	-0.181
-471.230	614.336	-0.055	0.138
-470.216	349.059	0.078	-0.154
-469.201	-200.000	0.022	-0.403
-468.186	-33.805	0.172	-0.095
-467.172	-200.000	-0.034	-0.314
-466.157	46.623	-0.317	0.294
-465.143	800.000	0.033	0.106
-464.128	-105.295	-0.492	-0.112
-463.113	-32.765	-0.067	-0.037
-462.099	-167.817	-0.246	-0.010
-461.084	69.679	0.152	-0.156
-460.070	-200.000	-0.017	-0.152
-459.055	-200.000	-0.154	-0.000
-458.040	-200.000	-0.034	0.225
-457.026	-136.748	-0.072	-0.008
-456.011	189.991	-0.198	-0.297
-454.997	-46.314	0.141	-0.069
-453.982	-54.637	-0.124	0.056
-452.968	61.382	0.112	0.111
-451.953	3.948	0.155	-0.113
-450.938	800.000	-0.011	-0.035
-449.924	108.563	0.186	0.221
-448.909	-164.560	-0.248	-0.011
-447.895	-200.000	-0.027	-0.120
-446.880	800.000	-0.024	-0.081
-445.865	697.050	-0.036	0.095
-444.851	123.136	0.117	-0.146
-443.836	56.806	0.271	-0.263
-442.822	-200.000	0.036	0.330
-441.807	800.000	-0.073	0.255
-440.792	-68.610	0.074	-0.029
-439.778	-77.388	0.348	0.120
-438.763	-200.000	-0.039	0.187
-437.749	552.411	-0.058	0.139
-436.734	-5.783	0.080	0.055
-435.719	387.928	-0.072	-0.148
-434.705	-200.000	0.014	0.145
-433.690	660.505	-0.071	0.182
-432.676	-200.000	0.025	0.321
-431.661	84.886	-0.076	0.083
-430.646	144.775	-0.140	-0.187
-429.632	-90.530	-0.127	0.037
-428.617	87.226	0.136	0.150
-427.603	340.007	0.021	-0.040
-426.588	-200.000	-0.097	0.431
-425.573	-200.000	0.003	-0.204
-424.559	-18.033	-0.391	-0.244
-423.544	67.297	0.099	0.101
-422.530	22.354	0.155	0.127
-421.515	162.873	0.056	0.078
-420.500	-41.067	-0.334	-0.172
-419.486	184.621	-0.118	-0.174
-418.471	-200.000	0.034	0.378
-417.457	-48.918	0.152	-0.073
-416.442	-76.936	0.353	-0.123
-415.428	800.000	0.072	-0.210
-414.413	238.192	0.069	0.115
-413.398	54.057	-0.140	-0.134
-412.384	104.706	-0.157	-0.185
-411.369	21.532	0.220	-0.179
-410.355	-200.000	-0.025	-0.167
-409.340	31.703	0.205	-0.176
-408.325	232.315	0.095	0.155
-407.311	657.755	0.086	-0.220
-406.296	296.125	-0.110	0.201
-405.282	681.665	-0.022	0.057
-404.267	-200.000	-0.060	0.270
-403.252	46.443	0.155	-0.143
-402.238	483.953	-0.044	0.099
-401.223	156.350	-0.060	0.082
-400.209	-114.454	0.275	0.053
-399.194	-23.690	-0.373	-0.223
-398.179	-132.795	0.305	0.039
-397.165	235.370	0.133	-0.219
-396.150	321.577	0.033	0.062
-395.136	-10.416	0.134	-0.089
-394.121	-200.000	-0.001	-0.321
-393.106	-73.881	0.161	-0.058
-392.092	-93.608	-0.195	0.054
-391.077	-163.388	-0.170	-0.008
-390.063	-163.499	0.343	0.016
-389.048	137.371	-0.047	-0.061
-388.033	-24.143	0.249	-0.148
-387.019	-42.215	-0.136	-0.069
-386.004	-77.604	-0.114	-0.039
-384.990	-200.000	-0.018	-0.098
-383.975	-18.051	-0.145	-0.091
-382.960	62.935	0.108	0.108
-381.946	88.168	0.197	0.218
-380.931	-39.325	0.096	0.050
-379.917	252.009	-0.056	-0.095
-378.902	800.000	0.015	0.044
-377.888	-61.388	-0.074	-0.031
-376.873	-200.000	0.003	-0.171
-375.858	301.528	-0.094	0.173
-374.844	704.562	-0.101	0.266
-373.829	322.603	-0.103	-0.196
-372.815	-27.939	-0.212	0.122
-371.800	98.879	-0.051	-0.059
-370.785	9.869	0.201	-0.152
-369.771	-200.000	-0.019	-0.171
-368.756	-134.561	0.254	0.031
-367.742	-200.000	0.020	0.253
-366.727	-102.728	-0.404	0.096
-365.712	-67.308	0.035	0.014
-364.698	512.692	0.176	0.409
-363.683	533.475	0.137	-0.323
-362.669	-37.183	0.230	0.122
-361.654	55.345	0.252	0.243
-360.639	5.592	0.170	0.125
-359.625	-54.807	0.287	-0.129
-358.610	-73.044	0.096	-0.035
-357.596	800.000	-0.018	-0.073
-356.581	-200.000	0.003	0.098
-355.566	800.000	0.046	0.198
-354.552	-30.014	-0.114	0.065
-353.537	-135.325	-0.126	-0.015
-352.523	67.015	-0.189	-0.192
-351.508	-200.000	0.012	0.088
-350.493	618.510	-0.091	0.227
-349.479	-50.963	0.147	0.069
-348.464	155.349	0.051	0.069
-347.450	-24.668	0.334	-0.198
-346.435	343.197	-0.122	0.237
-345.420	-136.901	-0.085	0.010
-344.406	-100.012	0.200	-0.050
-343.391	-190.674	-0.123	-0.001
-342.377	57.458	0.022	0.021
-341.362	-19.479	-0.051	-0.032
-340.348	58.589	0.141	-0.137
-339.333	-120.568	0.157	-0.026
-338.318	-35.094	-0.207	-0.112
-337.304	-4.864	-0.288	0.197
-336.289	-153.655	-0.032	0.002
-335.275	-12.537	0.082	0.053
-334.260	-200.000	-0.009	0.050
-333.245	-36.985	-0.241	0.128
-332.231	-128.803	0.252	0.035
-331.216	2.649	-0.160	-0.115
-330.202	24.345	-0.074	-0.061
-329.187	-66.396	0.108	0.043
-328.172	141.283	-0.128	-0.169
-327.158	183.690	0.069	-0.102
-326.143	800.000	0.050	0.150
-325.129	176.568	0.181	0.261
-324.114	-34.684	0.190	0.103
-323.099	-200.000	-0.012	-0.141
-322.085	-200.000	-0.047	-0.278
-321.070	203.421	-0.206	-0.317
-320.056	694.348	0.054	-0.140
-319.041	-49.126	0.311	-0.148
-318.026	-4.240	0.210	0.145
-317.012	800.000	-0.071	-0.213
-315.997	-63.998	0.187	-0.076
-314.983	15.627	0.072	-0.056
-313.968	-94.440	-0.219	-0.059
-312.953	-200.000	0.004	-0.094
-311.939	-200.000	-0.008	-0.065
-310.924	-9.683	0.543	-0.360
-309.910	-200.000	-0.049	0.250
-308.895	-31.644	-0.250	0.140
-307.880	-116.045	-0.186	0.034
-306.866	800.000	0.038	-0.122
-305.851	-7.497	-0.223	0.150
-304.837	-71.549	0.238	0.088
-303.822	-1.652	0.198	-0.138
-302.807	-8.325	0.131	0.087
-301.793	-49.815	0.114	0.054
-300.778	-28.451	-0.023	0.013
-299.764	800.000	0.053	0.180
-298.749	-130.028	0.022	-0.003
-297.735	512.107	0.103	-0.238
-296.720	692.193	0.040	-0.104
-295.705	800.000	0.041	-0.124
-294.691	31.120	0.136	0.116
-293.676	47.748	-0.308	-0.285
-292.662	-29.993	-0.202	-0.114
-291.647	-200.000	0.002	0.074
-290.632	-89.811	-0.507	0.147
-289.618	800.000	-0.046	-0.145
-288.603	-25.421	-0.219	0.129
-287.589	-35.972	0.188	-0.101
-286.574	-185.126	0.165	0.003
-285.559	-68.599	0.331	-0.127
-284.545	259.705	0.039	-0.066
-283.530	-64.983	-0.238	-0.096
-282.516	161.411	-0.164	0.227
-281.501	800.000	0.051	0.183
-280.486	800.000	0.091	0.263
-279.472	490.058	-0.088	0.199
-278.457	336.688	-0.070	-0.136
-277.443	-27.585	-0.188	0.108
-276.428	-200.000	0.019	-0.086
-275.413	62.694	0.028	-0.028
-274.399	-9.999	-0.138	-0.091
-273.384	72.929	0.064	-0.066
-272.370	-130.102	0.241	-0.033
-271.355	-87.391	-0.187	0.056
-270.340	-121.571	0.222	0.037
-269.326	-200.000	-0.018	-0.127
-268.311	-121.054	-0.235	0.039
-267.297	-181.543	-0.197	0.004
-266.282	-200.000	0.032	-0.162
-265.267	-28.491	0.147	-0.084
-264.253	45.342	-0.105	-0.096
-263.238	-200.000	0.097	-0.475
-262.224	593.844	0.049	0.120
-261.209	280.444	-0.070	0.124
-260.195	-46.757	-0.155	0.075
-259.180	-74.021	-0.125	-0.045
-258.165	-200.000	-0.015	0.201
-257.151	800.000	0.037	0.103
-256.136	-64.305	0.178	0.072
-255.122	-125.002	0.252	-0.038
-254.107	474.934	-0.031	-0.070
-253.092	117.376	-0.103	-0.125
-252.078	451.136	0.112	-0.246
-251.063	137.251	-0.273	-0.354
-250.049	40.196	-0.292	-0.260
-249.034	-200.000	0.012	-0.281
-248.019	800.000	0.052	-0.189
-247.005	800.000	0.128	0.390
-245.990	-34.422	0.001	0.001
-244.976	-200.000	0.064	0.320
-243.961	-104.869	0.485	0.110
-242.946	-200.000	-0.014	0.267
-241.932	274.137	-0.101	0.176
-240.917	121.144	0.078	0.096
-239.903	800.000	0.060	0.212
-238.888	-200.000	0.028	0.222
-237.873	-200.000	0.018	0.131
-236.859	-90.608	-0.236	0.067
-235.844	-18.338	-0.094	-0.058
-234.830	-96.389	0.254	-0.066
-233.815	-200.000	0.308	0.001
-232.800	85.496	-0.129	-0.141
-231.786	87.025	-0.186	-0.203
-230.771	-81.595	0.166	0.054
-229.757	144.883	0.025	0.033
-228.742	-113.228	0.107	0.021
-227.727	-48.561	0.171	0.082
-226.713	34.376	0.284	0.245
-225.698	235.436	0.096	0.156
-224.684	-151.051	-0.111	0.008
-223.669	774.122	-0.063	-0.169
-222.655	125.731	0.088	-0.110
-221.640	-35.293	-0.118	-0.064
-220.625	69.378	-0.219	-0.223
-219.611	-93.293	0.233	-0.064
-218.596	-57.367	0.237	-0.103
-217.582	-200.000	-0.005	0.072
-216.567	800.000	0.030	0.130
-215.552	408.810	-0.077	-0.162
-214.538	136.472	0.054	0.070
-213.523	-50.150	0.282	-0.132
-212.509	-200.000	0.023	0.288
-211.494	-42.615	-0.103	0.052
-210.479	-200.000	-0.052	-0.344
-209.465	-22.681	-0.197	0.118
-208.450	-110.336	-0.141	0.029
-207.436	800.000	0.030	0.097
-206.421	-200.000	-0.001	-0.085
-205.406	-200.000	0.001	0.061
-204.392	68.397	0.048	-0.049
-203.377	-200.000	0.005	0.121
-202.363	-67.049	0.011	0.004
-201.348	-119.773	0.264	-0.045
-200.333	-12.467	-0.107	0.069
-199.319	118.247	0.124	-0.151
-198.304	800.000	-0.056	0.169
-197.290	259.945	0.101	-0.172
-196.275	-150.486	-0.185	-0.014
-195.260	491.182	-0.128	-0.290
-194.246	383.172	0.061	0.123
-193.231	-116.290	-0.478	0.087
-192.217	-200.000	0.071	-0.370
-191.202	-107.844	0.185	-0.040
-190.187	-129.277	-0.198	-0.027
-189.173	-200.000	-0.071	-0.483
-188.158	-120.908	-0.323	0.054
-187.144	-4.193	-0.433	0.296
-186.129	-115.349	-0.258	0.048
-185.114	-200.000	-0.013	-0.065
-184.100	-88.730	0.206	0.061
-183.085	-36.839	0.051	0.027
-182.071	-200.000	-0.014	-0.130
-181.056	192.487	0.065	0.097
-180.042	71.433	-0.221	-0.227
-179.027	800.000	-0.180	-0.584
-178.012	191.388	-0.173	0.258
-176.998	185.010	-0.150	0.220
-175.983	22.386	-0.257	-0.208
-174.969	-200.000	-0.002	0.201
-173.954	277.186	0.012	0.022
-172.939	800.000	-0.036	0.144
-171.925	-128.637	0.121	0.017
-170.910	-35.992	0.187	-0.100
-169.896	-159.339	-0.130	-0.007
-168.881	-48.467	0.160	-0.076
-167.866	306.178	0.207	0.380
-166.852	-37.227	-0.483	0.255
-165.837	-34.410	0.308	-0.167
-164.823	285.472	0.227	0.403
-163.808	86.919	-0.161	-0.176
-162.793	163.690	0.163	-0.227
-161.779	-200.000	-0.009	-0.451
-160.764	265.809	-0.072	-0.124
-159.750	-23.608	-0.198	0.117
-158.735	-200.000	0.027	0.206
-157.720	-200.000	-0.040	0.189
-156.706	800.000	0.059	0.221
-155.691	297.036	0.100	0.182
-154.677	-200.000	-0.002	0.107
-153.662	-33.950	-0.212	-0.115
-152.647	800.000	-0.055	-0.202
-151.633	50.151	0.317	0.295
-150.618	-53.053	0.356	0.162
-149.604	800.000	-0.085	-0.244
-148.589	112.324	-0.125	-0.150
-147.574	-18.958	0.230	0.141
-146.560	800.000	-0.072	-0.226
-145.545	-48.142	-0.267	-0.127
-144.531	-100.423	-0.196	0.048
-143.516	146.889	-0.113	-0.150
-142.502	-200.000	-0.087	-0.453
-141.487	-200.000	0.026	-0.127
-140.472	-27.248	0.046	-0.026
-139.458	8.237	-0.083	-0.062
-138.443	-97.774	-0.225	0.057
-137.429	81.639	-0.273	0.291
-136.414	-200.000	-0.029	-0.310
-135.399	-92.000	0.097	-0.027
-134.385	491.449	0.178	-0.403
-133.370	800.000	0.045	0.132
-132.356	-83.836	-0.105	0.033
-131.341	-3.350	0.172	-0.118
-130.326	-128.621	0.282	0.039
-129.312	648.501	0.141	0.356
-128.297	-157.844	-0.353	-0.021
-127.283	-200.000	-0.038	0.284
-126.268	-200.000	0.019	-0.194
-125.253	20.572	0.577	0.460
-124.239	128.529	0.123	0.155
-123.224	196.522	-0.057	-0.085
-122.210	158.047	0.053	-0.073
-121.195	33.114	-0.127	-0.109
