DTS Sentinel unit serial number:	SN413079Multiplexer serial number:	ORYXHardware model number:	OX4-SRSoftware version number:	ORYX F/W v4.00 Oryx Data Collector v3.7.2.0data status	okinstallation	princeton_trtdifferential loss correction	single-endedforward channel	channel 3reverse channel	N/Adate	2019/09/17time	20:32:35forward acquisition time	60.00reverse acquisition time	0.00gamma	496.2192k internal	0.2329k external	0.2329temperature offset calibration	0.9954default loss term (dB/km)	0.3790temperature slope calibration	1.0000multiplexer offset coefficient	1.0000multiplexer slope coefficient	1.0000fibre end	0.00T internal ref (°C)	30.47T ext. ref 1 (°C)	0.21T ext. ref 2 (°C)	21.17length (m)	temperature (°C)	Stokes	anti-Stokes-747.200	800.000	0.036	0.138
-746.185	-35.099	0.531	0.291
-745.171	-200.000	-0.004	-0.284
-744.156	91.889	0.156	0.177
-743.142	-34.190	-0.062	0.034
-742.127	89.805	-0.165	-0.185
-741.112	4.147	0.220	-0.162
-740.098	646.419	-0.140	0.361
-739.083	302.852	0.050	-0.093
-738.069	-200.000	-0.064	0.365
-737.054	320.150	0.125	0.239
-736.039	-122.148	-0.305	0.050
-735.025	186.573	0.235	0.352
-734.010	-10.818	-0.045	-0.030
-732.996	-57.443	-0.233	0.103
-731.981	165.561	0.143	-0.203
-730.966	248.203	-0.116	-0.198
-729.952	800.000	-0.107	-0.312
-728.937	-200.000	-0.028	-0.126
-727.923	163.208	-0.119	-0.169
-726.908	20.573	-0.196	0.160
-725.894	36.038	-0.157	0.139
-724.879	-67.107	-0.077	0.030
-723.864	446.352	0.100	0.222
-722.850	-47.689	0.390	0.190
-721.835	-63.728	0.134	0.055
-720.821	749.459	-0.111	0.302
-719.806	66.631	-0.099	0.102
-718.791	-104.892	0.190	-0.044
-717.777	-112.569	-0.248	-0.050
-716.762	-86.660	-0.066	0.020
-715.748	800.000	0.067	-0.187
-714.733	-200.000	-0.003	0.131
-713.718	312.854	0.123	0.233
-712.704	160.295	-0.084	-0.118
-711.689	55.155	-0.022	0.022
-710.675	46.142	-0.117	-0.109
-709.660	-64.987	0.338	-0.137
-708.645	24.393	-0.239	-0.199
-707.631	-200.000	0.009	0.062
-706.616	-200.000	0.033	0.449
-705.602	-155.302	0.182	0.012
-704.587	338.530	-0.091	-0.178
-703.572	-200.000	-0.007	0.266
-702.558	-2.019	-0.218	-0.154
-701.543	800.000	0.093	-0.297
-700.529	-51.567	0.484	0.227
-699.514	-154.356	0.129	-0.009
-698.499	458.908	0.105	0.235
-697.485	491.944	0.022	0.050
-696.470	79.184	-0.091	0.098
-695.456	-200.000	-0.006	0.330
-694.441	25.764	0.364	-0.304
-693.426	800.000	0.047	0.131
-692.412	-28.895	-0.103	-0.060
-691.397	-172.788	-0.261	0.008
-690.383	-200.000	0.014	-0.080
-689.368	34.554	-0.303	-0.266
-688.354	38.550	-0.113	0.101
-687.339	26.659	0.237	-0.199
-686.324	-132.296	0.169	-0.022
-685.310	372.527	-0.139	-0.283
-684.295	75.485	-0.227	-0.241
-683.281	12.117	0.299	-0.231
-682.266	-138.732	-0.422	0.046
-681.251	-200.000	-0.019	-0.115
-680.237	-172.418	0.177	0.006
-679.222	98.906	0.096	-0.111
-678.208	43.867	-0.273	0.251
-677.193	-200.000	0.002	0.120
-676.178	9.759	0.221	0.168
-675.164	-200.000	-0.003	-0.084
-674.149	-69.413	-0.229	-0.088
-673.135	17.237	0.090	0.071
-672.120	86.609	-0.106	0.117
-671.105	121.010	-0.168	-0.210
-670.091	-42.176	0.231	0.119
-669.076	800.000	0.062	-0.179
-668.062	-30.743	-0.169	0.096
-667.047	-200.000	0.005	0.086
-666.032	2.928	0.094	-0.069
-665.018	-63.096	-0.302	-0.125
-664.003	129.188	0.134	-0.172
-662.989	46.135	0.192	0.178
-661.974	-32.289	0.287	-0.161
-660.959	-200.000	-0.014	0.204
-659.945	-200.000	-0.007	-0.170
-658.930	38.566	-0.229	-0.205
-657.916	40.176	-0.091	-0.082
-656.901	124.550	0.215	-0.271
-655.886	800.000	-0.012	-0.048
-654.872	620.724	0.180	0.455
-653.857	81.760	-0.153	-0.166
-652.843	-200.000	0.029	0.297
-651.828	-111.963	-0.203	0.041
-650.814	-200.000	-0.039	0.450
-649.799	206.161	-0.021	0.033
-648.784	476.621	0.103	0.233
-647.770	-200.000	-0.031	0.286
-646.755	-109.712	-0.152	-0.032
-645.741	-61.807	0.159	-0.067
-644.726	75.628	0.179	-0.190
-643.711	-46.355	0.192	0.094
-642.697	-91.594	-0.072	-0.020
-641.682	800.000	0.043	0.133
-640.668	-118.697	-0.248	-0.044
-639.653	-102.364	0.166	-0.040
-638.638	-69.540	-0.251	-0.096
-637.624	-109.522	0.139	0.029
-636.609	-80.070	0.174	0.059
-635.595	-26.741	0.302	-0.177
-634.580	-44.258	0.120	0.061
-633.565	-200.000	-0.020	-0.117
-632.551	383.388	0.086	0.177
-631.536	462.207	0.054	-0.121
-630.522	-87.113	-0.233	0.071
-629.507	64.962	0.081	0.082
-628.492	14.647	0.126	0.098
-627.478	-200.000	0.084	0.476
-626.463	800.000	-0.063	0.217
-625.449	-43.888	-0.302	-0.152
-624.434	-200.000	0.015	-0.133
-623.419	13.005	-0.276	0.214
-622.405	56.505	0.128	0.125
-621.390	771.657	-0.079	-0.215
-620.376	-49.467	-0.355	0.169
-619.361	-200.000	0.010	-0.203
-618.346	-89.221	0.182	0.054
-617.332	238.316	0.084	0.139
-616.317	298.029	0.085	0.156
-615.303	20.873	-0.317	-0.257
-614.288	-15.270	0.204	-0.131
-613.273	-197.453	0.141	-0.001
-612.259	290.812	0.020	-0.036
-611.244	-96.180	-0.417	0.111
-610.230	319.551	-0.028	-0.053
-609.215	132.428	0.015	0.019
-608.201	744.199	-0.189	0.509
-607.186	800.000	0.025	0.074
-606.171	123.166	0.116	-0.145
-605.157	65.212	0.173	0.175
-604.142	146.427	0.215	0.289
-603.128	88.836	0.121	-0.135
-602.113	-88.550	-0.315	-0.094
-601.098	-94.592	0.206	0.056
-600.084	26.801	0.211	0.177
-599.069	-72.581	-0.130	0.048
-598.055	800.000	0.086	0.285
-597.040	64.298	0.293	-0.295
-596.025	-200.000	-0.073	0.336
-595.011	626.050	0.045	0.114
-593.996	-54.952	0.381	0.172
-592.982	84.206	-0.076	0.083
-591.967	27.645	-0.296	0.249
-590.952	304.656	-0.070	-0.130
-589.938	-86.830	0.188	0.057
-588.923	-111.125	0.341	0.070
-587.909	-79.507	-0.083	-0.028
-586.894	-162.283	0.362	-0.018
-585.879	376.130	-0.011	-0.023
-584.865	87.904	0.243	-0.270
-583.850	26.110	0.062	0.052
-582.836	-200.000	-0.021	0.168
-581.821	-148.738	-0.131	-0.011
-580.806	800.000	0.025	0.103
-579.792	-200.000	0.072	-0.324
-578.777	-35.595	0.270	-0.147
-577.763	5.570	0.136	-0.101
-576.748	-146.802	-0.287	-0.025
-575.733	-92.916	-0.160	-0.045
-574.719	673.443	-0.149	-0.387
-573.704	-200.000	0.052	0.255
-572.690	800.000	-0.066	0.252
-571.675	-10.711	0.171	0.113
-570.661	-136.333	-0.054	0.006
-569.646	-101.398	-0.378	-0.092
-568.631	446.610	0.152	0.334
-567.617	-79.134	0.232	0.079
-566.602	-84.372	0.351	-0.111
-565.588	-22.112	-0.245	-0.149
-564.573	-200.000	-0.013	-0.195
-563.558	-12.708	0.375	-0.244
-562.544	-96.176	-0.144	-0.038
-561.529	-200.000	-0.047	0.345
-560.515	707.244	-0.089	-0.235
-559.500	89.433	-0.151	-0.169
-558.485	800.000	-0.053	-0.206
-557.471	-200.000	0.037	-0.241
-556.456	-97.099	-0.218	-0.057
-555.442	-200.000	0.022	-0.120
-554.427	-200.000	-0.023	0.140
-553.412	193.183	0.030	-0.045
-552.398	-200.000	0.011	-0.120
-551.383	-43.064	0.195	-0.099
-550.369	216.954	0.082	-0.131
-549.354	107.692	0.285	-0.339
-548.339	-82.493	0.202	-0.066
-547.325	800.000	0.124	-0.526
-546.310	-200.000	0.011	-0.070
-545.296	-75.616	0.099	-0.035
-544.281	-200.000	-0.013	-0.121
-543.266	263.397	0.163	0.283
-542.252	-200.000	0.027	-0.172
-541.237	800.000	0.084	0.240
-540.223	78.610	0.150	0.160
-539.208	-200.000	0.050	-0.334
-538.193	234.535	0.028	-0.047
-537.179	-200.000	-0.052	-0.544
-536.164	229.473	0.091	-0.148
-535.150	-200.000	0.005	0.104
-534.135	-102.316	-0.327	0.078
-533.121	-102.733	-0.194	0.046
-532.106	304.307	-0.186	-0.345
-531.091	800.000	0.104	-0.345
-530.077	30.759	0.210	-0.180
-529.062	-86.851	-0.409	0.125
-528.048	-76.032	-0.234	0.083
-527.033	-112.445	-0.144	-0.029
-526.018	-200.000	-0.012	0.627
-525.004	4.665	-0.120	-0.088
-523.989	8.108	-0.320	0.240
-522.975	-167.047	0.160	-0.007
-521.960	57.036	-0.139	0.135
-520.945	800.000	-0.054	-0.169
-519.931	62.263	0.095	-0.095
-518.916	143.084	-0.150	0.199
-517.902	83.162	-0.033	-0.035
-516.887	-18.359	0.251	-0.156
-515.872	-40.224	0.206	-0.107
-514.858	-96.055	-0.051	0.014
-513.843	800.000	-0.048	-0.155
-512.829	-200.000	-0.013	-0.285
-511.814	9.540	0.107	-0.081
-510.799	559.160	0.095	-0.228
-509.785	-27.292	0.124	-0.072
-508.770	-53.375	0.025	0.011
-507.756	54.078	0.115	-0.111
-506.741	-19.905	-0.201	0.124
-505.726	-200.000	-0.011	-0.083
-504.712	152.276	-0.100	0.137
-503.697	-41.683	0.493	0.253
-502.683	61.286	-0.091	0.090
-501.668	800.000	0.075	-0.260
-500.653	5.646	0.092	0.068
-499.639	-200.000	-0.000	0.167
-498.624	94.579	0.136	-0.155
-497.610	-50.309	-0.305	-0.144
-496.595	-15.401	-0.341	0.218
-495.581	219.072	0.170	-0.271
-494.566	151.348	0.090	-0.122
-493.551	-9.378	-0.251	-0.167
-492.537	179.658	0.145	0.212
-491.522	413.666	0.099	-0.211
-490.508	-200.000	0.000	-0.060
-489.493	-27.267	-0.229	0.133
-488.478	25.882	0.165	-0.137
-487.464	-19.860	0.235	-0.145
-486.449	48.236	-0.364	-0.340
-485.435	178.454	0.223	-0.324
-484.420	164.979	0.230	0.324
-483.405	-20.086	-0.154	-0.094
-482.391	182.042	-0.218	-0.320
-481.376	0.844	-0.152	-0.109
-480.362	706.176	0.094	0.247
-479.347	-80.270	-0.200	0.067
-478.332	-70.789	-0.299	0.113
-477.318	-200.000	0.007	0.086
-476.303	64.649	-0.051	0.051
-475.289	506.822	0.024	-0.055
-474.274	-17.881	0.202	0.127
-473.259	-27.986	-0.171	-0.099
-472.245	-200.000	-0.005	0.366
-471.230	60.634	0.261	0.258
-470.216	-200.000	0.002	0.368
-469.201	-200.000	-0.031	-0.171
-468.186	-19.479	0.038	-0.023
-467.172	592.888	-0.037	0.091
-466.157	-98.649	-0.188	-0.048
-465.143	-200.000	0.012	0.434
-464.128	203.978	-0.162	-0.249
-463.113	800.000	0.057	-0.247
-462.099	-200.000	-0.055	-0.401
-461.084	-78.112	-0.132	0.045
-460.070	-129.829	0.169	-0.023
-459.055	66.767	-0.087	-0.088
-458.040	139.121	0.099	-0.130
-457.026	-78.753	0.355	0.121
-456.011	30.296	0.042	0.036
-454.997	-200.000	-0.037	0.283
-453.982	-138.536	0.238	-0.026
-452.968	144.308	-0.210	0.280
-451.953	3.848	-0.050	-0.037
-450.938	-61.640	0.116	-0.048
-449.924	-200.000	0.017	-0.317
-448.909	12.834	-0.168	0.130
-447.895	-16.842	0.202	-0.127
-446.880	652.718	-0.118	0.302
-445.865	-200.000	-0.021	0.124
-444.851	800.000	0.032	0.097
-443.836	-162.922	0.227	0.011
-442.822	-15.293	-0.286	0.182
-441.807	167.128	0.202	-0.285
-440.792	800.000	0.084	-0.296
-439.778	-69.076	0.060	0.023
-438.763	-103.288	0.076	0.018
-437.749	74.572	0.262	0.274
-436.734	800.000	-0.023	0.098
-435.719	348.847	-0.151	-0.296
-434.705	293.584	-0.065	0.119
-433.690	-81.445	0.158	0.052
-432.676	182.862	0.048	0.071
-431.661	800.000	0.001	-0.004
-430.646	800.000	-0.098	0.356
-429.632	-200.000	-0.019	0.366
-428.617	-142.486	0.141	0.014
-427.603	9.150	-0.035	0.027
-426.588	513.590	-0.091	0.212
-425.573	-85.916	-0.320	0.099
-424.559	-109.245	0.075	0.016
-423.544	684.566	0.055	0.144
-422.530	-86.527	0.199	-0.061
-421.515	-39.064	-0.019	0.010
-420.500	147.564	0.246	0.330
-419.486	383.527	0.046	-0.094
-418.471	-42.779	-0.070	0.036
-417.457	268.828	-0.149	-0.260
-416.442	-200.000	0.003	-0.092
-415.428	-114.029	-0.266	0.051
-414.413	-200.000	-0.024	-0.164
-413.398	-100.416	0.225	0.055
-412.384	-58.460	0.179	-0.077
-411.369	219.150	-0.068	0.108
-410.355	-12.989	-0.129	-0.084
-409.340	-69.994	0.198	-0.075
-408.325	-200.000	-0.058	-0.349
-407.311	-28.699	-0.174	-0.100
-406.296	-200.000	-0.035	-0.457
-405.282	-40.042	0.325	-0.168
-404.267	-161.740	-0.096	-0.005
-403.252	221.790	-0.158	-0.252
-402.238	-200.000	0.059	-0.412
-401.223	800.000	-0.055	0.217
-400.209	275.843	-0.034	0.059
-399.194	-200.000	0.014	-0.200
-398.179	161.134	-0.138	-0.192
-397.165	95.131	0.010	-0.012
-396.150	-121.161	0.127	0.021
-395.136	-36.044	0.184	-0.099
-394.121	-156.974	0.290	-0.018
-393.106	117.067	0.118	-0.145
-392.092	800.000	-0.116	0.366
-391.077	-116.399	0.111	-0.020
-390.063	-116.635	-0.159	0.029
-389.048	-200.000	0.013	-0.137
-388.033	-3.964	-0.120	-0.083
-387.019	-91.776	-0.281	-0.079
-386.004	51.355	0.123	0.116
-384.990	373.292	-0.017	-0.033
-383.975	469.357	-0.111	-0.248
-382.960	101.307	-0.181	-0.209
-381.946	-200.000	-0.008	-0.326
-380.931	42.568	-0.098	-0.088
-379.917	-76.859	-0.114	0.040
-378.902	343.557	0.056	0.108
-377.888	37.824	-0.068	-0.060
-376.873	86.869	0.173	-0.189
-375.858	151.462	0.198	-0.268
-374.844	-200.000	-0.037	-0.271
-373.829	-15.417	0.138	0.088
-372.815	146.459	0.077	-0.103
-371.800	282.763	-0.102	-0.181
-370.785	800.000	-0.036	0.107
-369.771	55.045	-0.191	-0.183
-368.756	251.612	-0.113	-0.190
-367.742	-200.000	-0.045	0.234
-366.727	800.000	-0.030	0.106
-365.712	-200.000	0.011	0.248
-364.698	800.000	0.019	-0.054
-363.683	346.777	-0.040	-0.079
-362.669	-88.065	-0.228	-0.068
-361.654	347.622	-0.137	0.268
-360.639	501.460	0.077	0.176
-359.625	67.824	-0.195	-0.198
-358.610	697.356	0.091	-0.237
-357.596	782.657	0.113	0.308
-356.581	-27.916	-0.102	-0.058
-355.566	-171.817	0.077	-0.003
-354.552	800.000	0.102	-0.341
-353.537	-193.101	-0.220	0.002
-352.523	-25.731	0.301	0.176
-351.508	-72.261	0.414	-0.152
-350.493	430.267	-0.087	0.186
-349.479	88.527	0.332	-0.366
-348.464	-200.000	0.010	-0.472
-347.450	-200.000	-0.028	-0.350
-346.435	-61.442	-0.124	0.052
-345.420	-158.276	-0.131	-0.008
-344.406	-100.918	0.170	0.041
-343.391	207.885	0.026	-0.041
-342.377	-176.330	-0.103	-0.003
-341.362	199.053	-0.154	0.234
-340.348	43.104	-0.017	0.016
-339.333	10.129	-0.150	0.113
-338.318	642.828	-0.048	0.122
-337.304	-149.492	0.181	0.014
-336.289	87.592	0.160	-0.175
-335.275	691.726	-0.078	-0.203
-334.260	-200.000	-0.010	0.120
-333.245	90.996	0.171	-0.190
-332.231	-200.000	-0.056	0.379
-331.216	608.928	0.078	-0.193
-330.202	-129.265	-0.257	-0.035
-329.187	-57.512	0.081	0.035
-328.172	-63.246	-0.233	-0.095
-327.158	800.000	-0.043	-0.135
-326.143	-200.000	-0.075	0.510
-325.129	206.854	0.098	0.152
-324.114	-200.000	-0.072	0.347
-323.099	-22.382	0.209	-0.126
-322.085	-40.053	0.160	0.082
-321.070	-200.000	0.026	0.177
-320.056	-91.923	0.453	-0.127
-319.041	800.000	0.029	0.110
-318.026	-135.469	-0.017	-0.002
-317.012	-65.855	0.109	0.043
-315.997	75.780	-0.081	-0.085
-314.983	-89.328	-0.179	-0.052
-313.968	-25.883	-0.157	0.092
-312.953	-200.000	-0.041	0.203
-311.939	-200.000	-0.057	0.288
-310.924	-200.000	0.121	-0.000
-309.910	-200.000	0.000	0.088
-308.895	-43.507	-0.136	-0.068
-307.880	53.204	0.206	0.195
-306.866	-200.000	0.002	-0.330
-305.851	-48.896	-0.247	-0.117
-304.837	656.808	-0.040	0.101
-303.822	-80.595	0.356	-0.117
-302.807	-112.406	-0.239	-0.047
-301.793	-200.000	0.021	0.255
-300.778	19.590	0.181	0.144
-299.764	-99.968	0.129	0.032
-298.749	-107.118	0.115	0.025
-297.735	-88.476	0.090	-0.027
-296.720	-111.575	-0.209	-0.042
-295.705	215.253	-0.091	0.143
-294.691	353.860	-0.161	0.317
-293.676	800.000	0.059	-0.168
-292.662	7.921	-0.087	-0.065
-291.647	46.558	-0.223	-0.204
-290.632	-55.854	-0.148	0.065
-289.618	-63.740	0.232	-0.094
-288.603	-72.334	-0.093	-0.034
-287.589	-101.164	-0.173	-0.042
-286.574	21.960	-0.109	0.088
-285.559	-200.000	0.002	0.220
-284.545	-27.290	0.243	-0.140
-283.530	-200.000	-0.002	0.250
-282.516	-200.000	-0.006	0.182
-281.501	800.000	-0.052	-0.148
-280.486	-159.743	-0.348	-0.019
-279.472	-200.000	0.037	-0.240
-278.457	162.029	-0.242	0.336
-277.443	146.825	-0.159	0.211
-276.428	608.987	0.064	0.158
-275.413	800.000	-0.037	-0.133
-274.399	-13.975	-0.315	-0.201
-273.384	-200.000	0.004	-0.176
-272.370	-129.619	-0.196	-0.027
-271.355	-154.663	0.039	0.003
-270.340	800.000	0.072	-0.278
-269.326	-115.596	0.141	0.026
-268.311	102.474	-0.139	-0.160
-267.297	800.000	-0.049	0.192
-266.282	11.221	0.230	0.174
-265.267	379.980	0.089	0.180
-264.253	800.000	0.128	-0.352
-263.238	135.126	-0.119	-0.152
-262.224	59.799	-0.147	-0.143
-261.209	-200.000	0.014	-0.231
-260.195	27.281	0.234	-0.194
-259.180	-116.192	0.132	-0.024
-258.165	65.625	0.143	0.144
-257.151	132.531	-0.152	-0.193
-256.136	-69.329	-0.136	-0.052
-255.122	275.189	-0.129	-0.226
-254.107	-83.570	-0.273	0.086
-253.092	-80.365	0.413	0.136
-252.078	-136.912	0.174	-0.020
-251.063	28.748	0.119	0.100
-250.049	-73.961	0.034	0.012
-249.034	595.060	0.081	-0.198
-248.019	244.256	-0.240	0.399
-247.005	180.499	0.129	-0.187
-245.990	199.160	-0.230	0.347
-244.976	251.180	-0.096	0.161
-243.961	25.975	0.094	-0.078
-242.946	-200.000	-0.019	0.138
-241.932	-87.459	0.430	-0.129
-240.917	-200.000	-0.003	0.069
-239.903	97.088	0.048	0.054
-238.888	227.022	-0.151	0.242
-237.873	-200.000	0.024	0.292
-236.859	800.000	-0.055	0.156
-235.844	275.308	-0.175	-0.306
-234.830	-200.000	-0.011	-0.119
-233.815	-109.110	-0.193	0.040
-232.800	603.828	0.077	-0.189
-231.786	161.947	0.199	0.275
-230.771	-80.251	-0.274	0.090
-229.757	-145.934	-0.181	-0.016
-228.742	21.175	-0.180	0.144
-227.727	529.180	-0.079	0.183
-226.713	-80.604	-0.390	-0.128
-225.698	14.042	0.151	-0.116
-224.684	728.713	-0.096	0.252
-223.669	456.210	0.095	0.208
-222.655	-131.001	-0.678	-0.089
-221.640	406.656	0.169	-0.351
-220.625	-18.092	0.212	0.131
-219.611	-88.496	-0.241	-0.071
-218.596	-200.000	0.022	-0.146
-217.582	118.397	-0.042	-0.051
-216.567	-43.652	0.311	0.155
-215.552	-91.175	-0.164	0.046
-214.538	214.668	0.058	-0.091
-213.523	-36.894	-0.201	-0.106
-212.509	-127.025	-0.228	0.033
-211.494	-49.677	-0.081	0.038
-210.479	-200.000	0.050	-0.277
-209.465	50.667	0.222	0.207
-208.450	449.798	-0.054	0.117
-207.436	-33.661	0.290	0.158
-206.421	-14.983	0.017	0.011
-205.406	-136.573	-0.458	-0.052
-204.392	-23.863	0.330	-0.195
-203.377	800.000	0.067	0.190
-202.363	-39.494	0.075	-0.039
-201.348	-57.168	0.341	0.148
-200.333	-68.774	0.123	-0.047
-199.319	775.967	-0.168	0.454
-198.304	274.101	0.051	0.088
-197.290	-200.000	-0.037	0.198
-196.275	-200.000	-0.001	-0.098
-195.260	800.000	0.100	0.326
-194.246	-121.284	0.376	-0.062
-193.231	-80.335	-0.292	-0.096
-192.217	800.000	-0.095	0.302
-191.202	-108.015	0.196	-0.042
-190.187	409.282	0.142	-0.296
-189.173	-119.000	-0.215	0.037
-188.158	-200.000	-0.036	0.302
-187.144	-182.733	0.423	-0.008
-186.129	-90.346	-0.214	0.061
-185.114	-53.260	-0.017	-0.008
-184.100	-77.454	-0.235	-0.080
-183.085	-56.314	0.111	0.049
-182.071	520.340	0.150	-0.347
-181.056	-200.000	0.020	-0.136
-180.042	-73.364	0.044	0.016
-179.027	575.086	0.055	0.133
-178.012	-200.000	0.068	0.432
-176.998	92.225	0.139	0.154
-175.983	-110.637	-0.186	0.038
-174.969	-117.779	-0.123	-0.022
-173.954	-135.150	0.233	0.028
-172.939	-25.309	-0.158	0.092
-171.925	267.669	0.149	0.256
-170.910	218.658	-0.144	-0.226
-169.896	-135.644	-0.024	-0.003
-168.881	403.547	-0.011	-0.022
-167.866	-82.700	-0.352	-0.112
-166.852	-77.480	0.128	-0.044
-165.837	131.900	-0.102	0.129
-164.823	-200.000	0.006	0.101
-163.808	214.648	-0.137	0.214
-162.793	-69.104	-0.334	0.127
-161.779	-158.408	-0.382	0.022
-160.764	-200.000	-0.055	0.243
-159.750	-137.562	0.302	0.034
-158.735	800.000	0.106	-0.313
-157.720	209.744	-0.228	0.352
-156.706	-124.755	0.289	0.044
-155.691	786.662	0.031	-0.083
-154.677	-200.000	0.000	0.277
-153.662	800.000	0.074	0.286
-152.647	-42.048	-0.177	-0.089
-151.633	14.966	-0.249	-0.192
-150.618	-13.124	0.221	0.142
-149.604	-32.195	-0.230	0.127
-148.589	431.308	0.056	-0.119
-147.574	60.777	0.145	-0.142
-146.560	167.066	-0.120	-0.167
-145.545	463.966	-0.145	0.318
-144.531	-122.872	-0.262	0.042
-143.516	-67.454	0.517	-0.200
-142.502	63.579	0.170	-0.168
-141.487	156.965	-0.037	0.051
-140.472	99.401	-0.141	-0.160
-139.458	37.903	0.079	0.069
-138.443	-156.239	0.129	-0.008
-137.429	800.000	0.044	0.135
-136.414	-30.264	-0.182	-0.102
-135.399	139.528	-0.081	-0.105
-134.385	-200.000	-0.083	0.400
-133.370	364.920	-0.155	-0.306
-132.356	488.195	-0.123	0.276
-131.341	-200.000	0.000	-0.102
-130.326	12.738	-0.271	0.206
-129.312	-97.190	-0.203	0.052
-128.297	-11.862	-0.269	-0.174
-127.283	-200.000	0.015	-0.069
-126.268	-83.312	0.016	0.005
-125.253	800.000	-0.018	0.071
-124.239	-112.729	-0.170	0.033
-123.224	-138.309	0.344	0.037
-122.210	255.272	-0.087	0.147
-121.195	-144.965	0.200	-0.018
