DTS Sentinel unit serial number:	SN413079Multiplexer serial number:	ORYXHardware model number:	OX4-SRSoftware version number:	ORYX F/W v4.00 Oryx Data Collector v3.7.2.0data status	okinstallation	princeton_trtdifferential loss correction	single-endedforward channel	channel 3reverse channel	N/Adate	2019/09/14time	19:40:35forward acquisition time	60.00reverse acquisition time	0.00gamma	496.2192k internal	0.2313k external	0.2313temperature offset calibration	1.0014default loss term (dB/km)	0.3790temperature slope calibration	1.0000multiplexer offset coefficient	1.0000multiplexer slope coefficient	1.0000fibre end	0.00T internal ref (°C)	34.53T ext. ref 1 (°C)	4.87T ext. ref 2 (°C)	28.77length (m)	temperature (°C)	Stokes	anti-Stokes-747.200	-200.000	-0.021	-0.109
-746.185	-48.561	-0.221	-0.108
-745.171	-151.109	0.391	-0.030
-744.156	537.410	-0.069	-0.167
-743.142	100.876	0.239	-0.282
-742.127	-200.000	0.034	0.171
-741.112	-200.000	-0.005	0.108
-740.098	-83.737	0.170	0.055
-739.083	-177.988	0.164	-0.004
-738.069	241.264	-0.124	-0.210
-737.054	-53.110	-0.295	-0.138
-736.039	-87.659	-0.230	-0.070
-735.025	-118.135	0.307	-0.056
-734.010	-19.635	-0.339	0.213
-732.996	-83.190	0.123	-0.040
-731.981	-1.102	-0.222	-0.160
-730.966	12.416	0.069	0.054
-729.952	-200.000	0.021	-0.174
-728.937	-177.562	-0.023	-0.001
-727.923	0.738	-0.074	-0.054
-726.908	-56.055	-0.136	-0.062
-725.894	139.834	-0.140	-0.187
-724.879	-121.325	0.462	-0.078
-723.864	-135.801	0.332	-0.040
-722.850	311.438	-0.102	0.193
-721.835	30.936	-0.285	-0.247
-720.821	-200.000	0.043	-0.285
-719.806	-200.000	-0.065	-0.319
-718.791	800.000	0.072	-0.238
-717.777	-57.438	-0.150	0.067
-716.762	800.000	-0.054	0.234
-715.748	-200.000	-0.008	0.149
-714.733	-98.257	-0.179	0.046
-713.718	106.981	0.110	-0.132
-712.704	-200.000	-0.031	0.184
-711.689	-95.759	-0.115	-0.031
-710.675	-200.000	-0.019	-0.132
-709.660	18.860	-0.182	0.148
-708.645	292.988	-0.124	-0.229
-707.631	206.408	0.122	0.192
-706.616	-27.640	-0.099	-0.058
-705.602	140.693	0.165	0.221
-704.587	-82.232	0.178	-0.059
-703.572	-200.000	0.036	-0.218
-702.558	16.865	0.154	0.123
-701.543	45.842	-0.116	-0.109
-700.529	-95.103	0.243	0.066
-699.514	203.337	-0.051	-0.080
-698.499	-200.000	0.038	-0.337
-697.485	-142.063	0.018	-0.002
-696.470	-96.886	0.237	-0.063
-695.456	-15.798	0.170	0.110
-694.441	-200.000	0.033	0.173
-693.426	-13.361	0.149	-0.098
-692.412	69.506	-0.124	-0.130
-691.397	-97.171	0.286	-0.076
-690.383	800.000	-0.057	0.252
-689.368	441.263	-0.080	-0.178
-688.354	-38.780	-0.229	-0.122
-687.339	184.662	-0.034	0.050
-686.324	-55.569	0.272	-0.123
-685.310	71.307	-0.072	0.075
-684.295	-80.214	0.125	-0.042
-683.281	-200.000	0.028	-0.439
-682.266	-200.000	0.021	-0.111
-681.251	-106.159	0.042	0.010
-680.237	-200.000	0.037	-0.435
-679.222	9.312	0.157	0.120
-678.208	299.359	-0.065	0.122
-677.193	-99.628	0.122	0.031
-676.178	-45.121	-0.130	-0.065
-675.164	-97.466	0.058	-0.015
-674.149	33.437	0.104	0.092
-673.135	678.552	-0.159	0.420
-672.120	536.093	0.062	-0.149
-671.105	-114.933	-0.358	0.069
-670.091	-183.031	0.196	-0.004
-669.076	-155.687	-0.157	-0.010
-668.062	527.587	0.111	-0.265
-667.047	275.566	-0.121	0.217
-666.032	-3.871	0.039	-0.028
-665.018	-68.685	0.157	0.062
-664.003	-65.623	0.116	0.047
-662.989	-12.013	0.283	-0.188
-661.974	-111.186	0.146	-0.030
-660.959	-177.103	0.079	0.002
-659.945	-200.000	0.024	0.138
-658.930	227.178	0.151	-0.248
-657.916	-200.000	0.008	0.331
-656.901	228.616	-0.157	-0.259
-655.886	148.715	0.025	-0.034
-654.872	-55.456	0.425	0.193
-653.857	-27.907	-0.065	-0.038
-652.843	-15.950	0.222	0.143
-651.828	753.416	0.072	-0.198
-650.814	-126.185	-0.197	0.030
-649.799	800.000	-0.025	0.108
-648.784	-92.804	-0.440	-0.125
-647.770	89.059	0.178	-0.200
-646.755	183.569	0.074	-0.110
-645.741	-83.675	-0.179	0.058
-644.726	-200.000	0.029	-0.176
-643.711	133.428	-0.064	-0.083
-642.697	800.000	-0.042	-0.143
-641.682	178.125	-0.078	-0.115
-640.668	-48.967	0.373	0.181
-639.653	-48.390	-0.098	-0.048
-638.638	123.869	0.212	-0.268
-637.624	-76.252	-0.140	0.050
-636.609	-200.000	0.020	-0.365
-635.595	-132.655	-0.225	-0.029
-634.580	-172.307	0.190	0.006
-633.565	-200.000	0.038	0.359
-632.551	-70.216	-0.372	-0.143
-631.536	100.495	0.098	-0.115
-630.522	612.844	-0.170	0.428
-629.507	-67.467	-0.160	0.064
-628.492	-156.391	-0.297	0.019
-627.478	-200.000	-0.017	-0.400
-626.463	515.318	0.074	-0.174
-625.449	-200.000	0.013	0.167
-624.434	22.567	0.577	-0.476
-623.419	71.140	0.087	0.091
-622.405	5.463	-0.074	-0.055
-621.390	-30.508	-0.374	-0.214
-620.376	-29.263	0.281	0.162
-619.361	215.488	0.045	0.072
-618.346	-35.808	-0.254	0.139
-617.332	-163.025	0.179	-0.009
-616.317	-42.149	-0.188	-0.097
-615.303	-136.685	-0.173	-0.020
-614.288	800.000	-0.042	0.143
-613.273	-200.000	0.057	0.426
-612.259	800.000	-0.037	0.112
-611.244	-48.535	0.154	0.075
-610.230	-56.499	-0.323	0.145
-609.215	23.656	0.038	-0.031
-608.201	478.804	0.033	-0.076
-607.186	-45.849	0.377	-0.188
-606.171	87.814	-0.229	-0.256
-605.157	140.406	0.037	0.050
-604.142	-200.000	0.043	0.316
-603.128	-200.000	-0.045	0.280
-602.113	74.291	0.189	-0.200
-601.098	-166.236	-0.145	-0.006
-600.084	-186.571	-0.047	-0.001
-599.069	166.977	-0.124	0.178
-598.055	-133.660	-0.096	-0.012
-597.040	800.000	0.048	0.160
-596.025	-200.000	0.011	0.088
-595.011	-200.000	0.040	-0.299
-593.996	-200.000	-0.006	-0.091
-592.982	-200.000	0.054	-0.289
-591.967	-48.062	-0.078	0.038
-590.952	-19.273	-0.141	0.088
-589.938	-99.133	-0.140	0.036
-588.923	47.498	-0.082	0.077
-587.909	-131.638	0.379	0.050
-586.894	-176.259	-0.412	0.011
-585.879	111.242	-0.095	0.116
-584.865	308.626	0.060	0.112
-583.850	800.000	0.102	-0.432
-582.836	800.000	-0.028	0.098
-581.821	800.000	0.026	-0.098
-580.806	-135.972	0.194	0.023
-579.792	413.062	0.039	-0.083
-578.777	-148.371	0.118	-0.010
-577.763	-26.159	-0.109	0.065
-576.748	-157.164	0.112	0.007
-575.733	-200.000	-0.024	0.125
-574.719	-200.000	-0.014	-0.090
-573.704	62.919	0.221	0.223
-572.690	60.205	0.081	-0.081
-571.675	54.665	-0.213	0.207
-570.661	-47.212	0.264	-0.130
-569.646	800.000	0.088	0.281
-568.631	-67.769	-0.187	0.074
-567.617	87.044	-0.095	-0.106
-566.602	-200.000	-0.003	0.300
-565.588	90.906	0.110	0.124
-564.573	800.000	-0.016	0.059
-563.558	-34.907	-0.227	0.125
-562.544	491.918	0.103	0.237
-561.529	-200.000	-0.049	0.246
-560.515	-200.000	-0.006	0.072
-559.500	194.689	-0.097	-0.148
-558.485	-200.000	-0.014	-0.097
-557.471	-64.555	0.381	-0.156
-556.456	-114.173	0.184	0.036
-555.442	169.584	-0.063	-0.091
-554.427	158.969	0.087	-0.121
-553.412	-45.270	-0.337	0.168
-552.398	800.000	-0.128	-0.556
-551.383	537.561	0.127	-0.304
-550.369	-197.441	0.160	-0.001
-549.354	175.856	0.130	-0.190
-548.339	-102.178	-0.297	-0.072
-547.325	-89.975	-0.286	-0.084
-546.310	-200.000	-0.032	-0.213
-545.296	148.929	0.041	-0.055
-544.281	108.086	-0.205	0.247
-543.266	-200.000	-0.040	-0.234
-542.252	-200.000	-0.039	0.460
-541.237	117.244	0.192	-0.238
-540.223	-200.000	0.030	-0.200
-539.208	146.734	0.193	0.261
-538.193	-200.000	-0.034	-0.275
-537.179	800.000	-0.073	-0.285
-536.164	23.053	0.152	-0.126
-535.150	-64.980	-0.267	-0.108
-534.135	-68.383	-0.345	0.135
-533.121	-3.404	0.214	0.150
-532.106	-83.714	0.296	-0.095
-531.091	-77.163	-0.039	-0.014
-530.077	-21.885	-0.288	-0.176
-529.062	262.015	0.186	0.325
-528.048	119.198	0.131	-0.163
-527.033	61.332	0.072	-0.072
-526.018	800.000	0.020	0.056
-525.004	800.000	0.080	-0.310
-523.989	-200.000	-0.025	-0.118
-522.975	275.605	0.210	0.375
-521.960	-40.123	0.024	0.012
-520.945	19.507	-0.139	-0.112
-519.931	-21.200	0.308	0.189
-518.916	-200.000	0.033	-0.171
-517.902	142.195	0.035	-0.046
-516.887	306.244	-0.191	0.357
-515.872	-200.000	0.053	0.306
-514.858	41.269	0.357	0.325
-513.843	-147.859	-0.320	0.027
-512.829	99.996	-0.119	-0.138
-511.814	142.919	-0.070	-0.094
-510.799	30.682	0.089	0.077
-509.785	32.448	-0.150	-0.130
-508.770	-123.925	-0.207	0.033
-507.756	52.611	0.048	-0.046
-506.741	-111.402	0.263	-0.054
-505.726	-83.279	-0.142	0.046
-504.712	-160.089	-0.316	0.017
-503.697	-42.830	0.321	-0.164
-502.683	6.482	0.048	0.036
-501.668	-148.750	-0.053	0.004
-500.653	-35.397	-0.215	0.117
-499.639	129.452	0.020	-0.026
-498.624	-200.000	0.022	0.276
-497.610	133.865	0.051	-0.066
-496.595	-58.428	-0.321	-0.140
-495.581	-200.000	0.064	-0.315
-494.566	800.000	0.026	-0.089
-493.551	-19.910	-0.116	0.072
-492.537	-77.066	-0.081	0.029
-491.522	-71.861	-0.143	-0.054
-490.508	164.503	-0.068	-0.096
-489.493	676.919	-0.054	-0.141
-488.478	-60.301	0.319	0.136
-487.464	-6.641	0.168	-0.115
-486.449	-56.845	-0.123	0.055
-485.435	800.000	0.014	0.053
-484.420	-200.000	0.049	-0.317
-483.405	-200.000	-0.021	-0.181
-482.391	-59.661	-0.203	-0.087
-481.376	47.572	-0.073	-0.069
-480.362	-104.107	0.261	-0.061
-479.347	800.000	-0.089	0.314
-478.332	21.723	0.185	0.152
-477.318	-138.188	-0.413	-0.046
-476.303	800.000	-0.086	0.256
-475.289	648.270	0.067	-0.171
-474.274	-87.916	-0.187	0.056
-473.259	-200.000	-0.030	0.265
-472.245	-200.000	0.038	-0.388
-471.230	679.627	-0.181	-0.473
-470.216	-127.484	0.298	0.044
-469.201	731.479	0.020	0.054
-468.186	-182.758	0.167	0.003
-467.172	-80.922	-0.144	-0.048
-466.157	-92.924	-0.146	-0.041
-465.143	-107.016	0.316	0.070
-464.128	-109.692	0.175	-0.037
-463.113	-21.357	-0.333	0.204
-462.099	-200.000	-0.067	0.344
-461.084	449.559	0.041	0.091
-460.070	800.000	0.162	0.459
-459.055	-72.550	-0.099	-0.037
-458.040	20.915	-0.208	-0.169
-457.026	-200.000	0.025	-0.183
-456.011	-126.843	0.194	-0.029
-454.997	561.987	0.079	-0.192
-453.982	-174.391	0.233	0.007
-452.968	-151.600	-0.156	0.012
-451.953	-110.979	0.299	-0.062
-450.938	404.254	-0.119	-0.252
-449.924	-3.416	0.028	0.020
-448.909	69.045	-0.253	0.260
-447.895	-200.000	0.030	0.333
-446.880	800.000	0.070	0.209
-445.865	-124.586	0.310	0.048
-444.851	754.712	0.157	0.425
-443.836	-173.533	-0.332	0.010
-442.822	2.188	0.193	-0.140
-441.807	800.000	-0.041	0.178
-440.792	-155.418	0.189	-0.012
-439.778	-135.231	-0.120	-0.014
-438.763	-135.661	0.214	-0.025
-437.749	-165.364	-0.268	0.012
-436.734	-117.506	-0.142	0.026
-435.719	800.000	0.042	0.177
-434.705	-52.227	0.151	-0.070
-433.690	-200.000	-0.027	-0.235
-432.676	-200.000	0.020	-0.179
-431.661	12.060	-0.162	-0.125
-430.646	173.825	-0.034	0.049
-429.632	800.000	0.027	0.112
-428.617	-107.689	-0.189	-0.041
-427.603	-95.912	-0.346	-0.092
-426.588	800.000	-0.030	0.115
-425.573	-89.324	-0.050	0.015
-424.559	-83.794	0.260	-0.083
-423.544	-200.000	-0.056	0.271
-422.530	-106.115	-0.156	0.035
-421.515	-12.464	0.142	0.093
-420.500	65.786	0.054	0.055
-419.486	800.000	0.054	-0.189
-418.471	-115.618	-0.177	0.033
-417.457	429.314	-0.147	0.319
-416.442	-122.212	0.079	-0.013
-415.428	-64.913	0.344	0.139
-414.413	67.832	0.181	-0.185
-413.398	800.000	0.098	-0.287
-412.384	51.999	-0.235	-0.224
-411.369	-200.000	0.015	-0.176
-410.355	-62.510	-0.332	0.138
-409.340	55.583	0.171	-0.166
-408.325	-200.000	0.067	0.315
-407.311	-83.811	0.240	-0.076
-406.296	427.996	0.191	-0.412
-405.282	30.627	0.223	0.191
-404.267	-42.842	-0.246	-0.125
-403.252	-10.200	-0.027	0.018
-402.238	147.552	-0.094	-0.127
-401.223	800.000	-0.095	0.308
-400.209	800.000	-0.072	-0.250
-399.194	-200.000	-0.052	-0.268
-398.179	143.038	0.215	-0.286
-397.165	154.966	-0.013	0.018
-396.150	-200.000	-0.004	0.262
-395.136	-200.000	-0.024	0.405
-394.121	-200.000	-0.033	0.214
-393.106	-24.247	0.116	-0.069
-392.092	800.000	0.069	-0.221
-391.077	-46.447	-0.454	-0.223
-390.063	-200.000	-0.003	-0.111
-389.048	140.898	-0.106	0.140
-388.033	-200.000	-0.019	-0.141
-387.019	-166.597	0.148	-0.006
-386.004	800.000	-0.100	-0.316
-384.990	-35.441	-0.420	-0.228
-383.975	154.908	-0.165	0.227
-382.960	-94.260	0.050	-0.014
-381.946	-200.000	0.016	-0.115
-380.931	-67.399	0.093	0.036
-379.917	-200.000	0.021	-0.116
-378.902	800.000	0.113	0.479
-377.888	-52.687	-0.173	0.080
-376.873	-200.000	0.028	0.437
-375.858	-200.000	-0.047	0.278
-374.844	-200.000	-0.054	-0.458
-373.829	153.811	0.188	0.258
-372.815	-78.094	-0.161	0.055
-371.800	184.383	-0.082	0.122
-370.785	-166.279	0.206	-0.009
-369.771	-200.000	0.099	-0.536
-368.756	497.725	0.133	-0.306
-367.742	443.809	0.060	0.132
-366.727	80.291	0.082	-0.088
-365.712	800.000	-0.022	0.062
-364.698	-30.513	-0.103	0.058
-363.683	-154.565	0.489	-0.033
-362.669	-13.860	0.052	-0.034
-361.654	-81.141	0.072	-0.024
-360.639	-200.000	-0.018	-0.284
-359.625	800.000	-0.059	-0.250
-358.610	-42.313	0.200	-0.102
-357.596	-200.000	-0.002	-0.185
-356.581	146.400	0.120	-0.161
-355.566	-146.696	-0.188	-0.016
-354.552	54.492	-0.166	-0.159
-353.537	17.676	0.227	0.181
-352.523	401.450	0.202	0.424
-351.508	-28.468	-0.105	0.060
-350.493	31.406	0.145	-0.125
-349.479	-12.552	-0.184	-0.120
-348.464	-200.000	0.008	-0.287
-347.450	-154.419	-0.352	-0.024
-346.435	-67.580	-0.116	0.046
-345.420	261.300	0.041	-0.071
-344.406	513.740	0.089	0.207
-343.391	-200.000	-0.012	0.131
-342.377	-72.576	0.109	-0.040
-341.362	800.000	0.039	-0.166
-340.348	-28.977	0.115	0.066
-339.333	-200.000	0.035	0.303
-338.318	-127.934	-0.247	-0.035
-337.304	597.185	-0.042	0.103
-336.289	-125.884	-0.194	0.029
-335.275	800.000	-0.062	0.176
-334.260	23.384	0.176	0.145
-333.245	525.419	0.065	-0.152
-332.231	-25.504	-0.059	0.035
-331.216	52.195	-0.130	-0.124
-330.202	-200.000	0.015	0.068
-329.187	-64.765	-0.222	0.090
-328.172	469.651	0.039	-0.087
-327.158	0.262	-0.172	-0.122
-326.143	800.000	-0.060	-0.254
-325.129	453.617	0.079	-0.175
-324.114	-200.000	-0.015	-0.081
-323.099	216.840	0.272	0.432
-322.085	-200.000	0.036	0.202
-321.070	-200.000	-0.003	-0.132
-320.056	-136.109	0.153	-0.018
-319.041	-83.692	0.045	-0.014
-318.026	-200.000	-0.006	0.136
-317.012	-200.000	0.005	0.189
-315.997	-84.186	-0.119	0.038
-314.983	-79.177	0.220	0.074
-313.968	-200.000	0.042	0.206
-312.953	5.991	-0.253	0.187
-311.939	80.406	-0.095	-0.102
-310.924	-200.000	0.002	0.035
-309.910	-74.554	-0.383	-0.138
-308.895	489.061	-0.038	-0.088
-307.880	148.488	0.186	-0.251
-306.866	800.000	0.075	0.283
-305.851	800.000	-0.066	0.191
-304.837	90.662	0.284	-0.317
-303.822	345.942	0.133	-0.261
-302.807	276.097	0.128	-0.227
-301.793	-142.813	-0.128	-0.012
-300.778	-65.962	-0.177	0.070
-299.764	-200.000	-0.028	-0.243
-298.749	-75.648	-0.084	0.030
-297.735	800.000	0.027	-0.105
-296.720	106.057	0.026	0.031
-295.705	48.392	-0.102	0.095
-294.691	-134.134	-0.052	0.006
-293.676	-200.000	0.007	-0.102
-292.662	499.175	-0.083	0.190
-291.647	-170.829	0.293	-0.010
-290.632	-77.270	-0.131	0.045
-289.618	34.736	-0.206	-0.179
-288.603	-200.000	-0.065	-0.356
-287.589	-172.622	0.187	0.006
-286.574	347.884	0.121	-0.237
-285.559	-89.041	0.260	-0.077
-284.545	-46.615	0.034	0.016
-283.530	-200.000	-0.011	0.459
-282.516	149.863	0.179	-0.241
-281.501	-200.000	0.009	-0.073
-280.486	-200.000	0.006	-0.232
-279.472	-84.648	-0.250	-0.078
-278.457	800.000	-0.018	0.053
-277.443	-131.310	-0.184	0.024
-276.428	45.931	0.173	0.159
-275.413	83.207	0.177	0.192
-274.399	125.485	0.122	0.154
-273.384	-123.584	-0.283	-0.045
-272.370	156.338	-0.138	0.189
-271.355	800.000	0.025	0.102
-270.340	800.000	0.038	0.127
-269.326	800.000	-0.064	0.276
-268.311	-200.000	-0.028	0.195
-267.297	-4.751	0.197	-0.136
-266.282	-200.000	-0.000	-0.178
-265.267	40.746	0.047	0.042
-264.253	43.707	0.041	0.037
-263.238	468.701	-0.075	0.168
-262.224	-200.000	0.083	0.380
-261.209	-200.000	-0.040	-0.265
-260.195	-200.000	0.029	-0.148
-259.180	800.000	-0.116	0.368
-258.165	-93.783	0.263	0.072
-257.151	21.540	-0.160	-0.130
-256.136	248.892	-0.109	0.183
-255.122	-111.574	0.408	-0.083
-254.107	407.839	0.083	-0.175
-253.092	800.000	-0.062	-0.213
-252.078	71.271	0.260	0.268
-251.063	20.777	-0.075	-0.060
-250.049	-70.925	0.360	0.135
-249.034	144.136	-0.200	-0.265
-248.019	800.000	-0.019	0.070
-247.005	-200.000	0.033	0.255
-245.990	-200.000	0.026	0.233
-244.976	295.277	-0.036	0.065
-243.961	800.000	0.065	0.190
-242.946	-147.838	-0.206	0.017
-241.932	51.768	0.076	0.072
-240.917	302.285	0.047	-0.087
-239.903	-65.416	-0.089	-0.035
-238.888	496.847	0.110	0.251
-237.873	6.912	0.260	-0.192
-236.859	-200.000	-0.006	-0.044
-235.844	265.949	0.106	0.184
-234.830	800.000	-0.034	0.113
-233.815	36.975	0.086	-0.076
-232.800	-17.061	-0.349	-0.219
-231.786	-64.664	0.099	-0.040
-230.771	-187.514	-0.196	-0.003
-229.757	-124.095	0.094	0.015
-228.742	800.000	0.044	0.153
-227.727	-126.266	0.092	0.014
-226.713	-34.948	-0.118	0.064
-225.698	8.428	-0.303	-0.227
-224.684	800.000	-0.084	-0.353
-223.669	-84.031	0.094	0.030
-222.655	341.673	0.057	0.111
-221.640	708.220	-0.085	0.224
-220.625	410.664	0.032	-0.067
-219.611	-78.067	0.244	-0.084
-218.596	-200.000	0.050	-0.369
-217.582	34.819	0.104	0.090
-216.567	-109.642	0.238	-0.050
-215.552	53.765	0.120	-0.114
-214.538	242.268	0.265	0.440
-213.523	800.000	-0.029	-0.125
-212.509	-88.096	0.199	-0.059
-211.494	92.166	0.113	0.126
-210.479	-120.668	0.266	0.045
-209.465	-57.351	0.356	0.155
-208.450	-59.123	0.133	-0.057
-207.436	214.108	-0.072	0.113
-206.421	-125.133	-0.181	-0.028
-205.406	-103.690	-0.356	0.083
-204.392	239.967	-0.124	-0.206
-203.377	28.654	-0.191	0.160
-202.363	-17.517	0.188	0.118
-201.348	-197.629	-0.297	0.002
-200.333	-43.689	-0.421	-0.211
-199.319	82.655	-0.105	0.114
-198.304	0.443	-0.053	-0.038
-197.290	65.844	-0.308	-0.311
-196.275	-94.952	0.521	0.140
-195.260	-22.991	0.139	-0.083
-194.246	267.859	0.087	0.152
-193.231	119.077	0.102	0.125
-192.217	141.647	0.116	-0.153
-191.202	-200.000	-0.018	-0.125
-190.187	-75.402	-0.198	-0.070
-189.173	-154.874	-0.173	0.011
-188.158	-115.466	0.184	-0.034
-187.144	185.101	0.200	0.294
-186.129	-30.289	-0.204	0.115
-185.114	70.759	-0.060	0.061
-184.100	188.948	0.121	0.180
-183.085	219.104	0.060	0.095
-182.071	-36.249	-0.174	0.093
-181.056	-149.373	-0.114	-0.009
-180.042	3.319	0.158	-0.114
-179.027	133.842	-0.132	0.169
-178.012	800.000	0.075	-0.241
-176.998	-200.000	-0.001	0.136
-175.983	-50.998	-0.035	-0.016
-174.969	-99.365	-0.397	-0.099
-173.954	-93.475	-0.274	-0.075
-172.939	422.850	0.193	-0.412
-171.925	-200.000	-0.083	-0.399
-170.910	-91.285	0.240	-0.068
-169.896	45.005	-0.104	0.095
-168.881	-178.176	0.164	-0.004
-167.866	800.000	-0.055	0.152
-166.852	-89.232	0.311	0.091
-165.837	-200.000	-0.017	0.562
-164.823	-200.000	0.006	0.166
-163.808	-200.000	0.052	0.480
-162.793	-136.846	0.253	-0.029
-161.779	621.981	-0.025	0.062
-160.764	38.687	-0.236	-0.209
-159.750	-58.961	-0.374	0.160
-158.735	-200.000	-0.000	0.089
-157.720	800.000	0.122	-0.359
-156.706	-63.503	-0.164	-0.067
-155.691	21.796	-0.199	-0.161
-154.677	185.110	0.045	-0.066
-153.662	800.000	0.085	-0.252
-152.647	413.927	0.184	0.389
-151.633	183.854	0.209	0.307
-150.618	160.598	0.129	0.179
-149.604	800.000	0.096	-0.281
-148.589	-200.000	0.002	0.178
-147.574	-200.000	0.000	-0.104
-146.560	-200.000	0.022	-0.197
-145.545	-109.477	-0.390	-0.082
-144.531	28.053	-0.216	-0.180
-143.516	800.000	0.024	0.087
-142.502	-51.529	-0.029	-0.013
-141.487	-18.802	0.149	-0.092
-140.472	-54.210	0.094	0.042
-139.458	-50.612	-0.284	-0.133
-138.443	-200.000	0.014	-0.218
-137.429	-79.911	-0.214	0.071
-136.414	-187.490	0.289	-0.004
-135.399	-74.995	0.150	-0.053
-134.385	0.841	-0.197	0.139
-133.370	-123.407	-0.111	0.018
-132.356	547.689	-0.111	0.262
-131.341	-131.840	-0.148	-0.019
-130.326	30.722	-0.100	0.085
-129.312	-67.904	-0.124	-0.048
-128.297	131.259	0.123	0.157
-127.283	-200.000	0.036	-0.187
-126.268	-200.000	0.023	-0.205
-125.253	-200.000	0.001	-0.044
-124.239	-139.585	-0.052	0.006
-123.224	619.838	0.152	-0.379
-122.210	-28.441	0.288	0.164
