DTS Sentinel unit serial number:	SN413079Multiplexer serial number:	ORYXHardware model number:	OX4-SRSoftware version number:	ORYX F/W v4.00 Oryx Data Collector v3.7.2.0data status	okinstallation	princeton_trtdifferential loss correction	single-endedforward channel	channel 3reverse channel	N/Adate	2019/09/15time	23:32:35forward acquisition time	60.00reverse acquisition time	0.00gamma	496.2192k internal	0.2335k external	0.2335temperature offset calibration	0.9947default loss term (dB/km)	0.3790temperature slope calibration	1.0000multiplexer offset coefficient	1.0000multiplexer slope coefficient	1.0000fibre end	0.00T internal ref (°C)	28.16T ext. ref 1 (°C)	9.19T ext. ref 2 (°C)	22.03length (m)	temperature (°C)	Stokes	anti-Stokes-747.200	119.704	-0.205	-0.256
-746.185	509.729	-0.067	0.156
-745.171	-76.104	-0.200	0.071
-744.156	-200.000	-0.008	0.534
-743.142	110.751	-0.099	0.120
-742.127	-156.289	-0.266	-0.017
-741.112	-67.396	-0.251	-0.099
-740.098	178.312	-0.075	-0.110
-739.083	-50.996	-0.213	0.100
-738.069	77.454	-0.233	-0.249
-737.054	-74.438	-0.184	-0.066
-736.039	-68.936	-0.210	-0.082
-735.025	-65.414	0.371	0.150
-734.010	-147.715	0.182	-0.015
-732.996	-108.325	-0.450	-0.098
-731.981	-176.533	0.293	0.008
-730.966	90.908	-0.138	0.156
-729.952	-102.527	-0.448	0.108
-728.937	-149.230	-0.214	-0.017
-727.923	102.937	0.063	0.074
-726.908	-88.479	-0.332	-0.099
-725.894	800.000	0.043	-0.177
-724.879	800.000	-0.017	-0.069
-723.864	-200.000	0.026	-0.163
-722.850	-200.000	-0.052	-0.309
-721.835	-200.000	-0.014	-0.123
-720.821	-156.986	-0.355	-0.022
-719.806	-18.200	0.164	0.103
-718.791	800.000	0.177	-0.575
-717.777	278.992	-0.078	0.139
-716.762	289.778	0.116	0.211
-715.748	800.000	0.106	-0.341
-714.733	276.532	-0.125	0.223
-713.718	-200.000	0.035	-0.199
-712.704	-58.698	0.145	-0.063
-711.689	-87.552	-0.026	-0.008
-710.675	120.522	-0.056	-0.070
-709.660	196.808	0.262	-0.400
-708.645	-200.000	0.019	-0.143
-707.631	-82.886	-0.083	0.027
-706.616	546.539	-0.064	-0.154
-705.602	609.582	-0.057	0.144
-704.587	-123.231	-0.367	-0.059
-703.572	-10.511	-0.085	0.057
-702.558	-60.680	-0.234	0.100
-701.543	-36.124	-0.293	-0.158
-700.529	56.745	0.206	0.201
-699.514	-200.000	0.026	0.238
-698.499	800.000	0.022	0.085
-697.485	-91.522	0.083	-0.024
-696.470	-53.311	-0.235	-0.108
-695.456	55.259	0.083	-0.080
-694.441	39.965	-0.354	-0.319
-693.426	10.620	-0.033	-0.026
-692.412	-200.000	-0.000	-0.061
-691.397	577.257	-0.131	0.322
-690.383	-200.000	-0.016	0.081
-689.368	43.554	0.285	-0.262
-688.354	800.000	0.056	0.163
-687.339	395.450	0.074	-0.154
-686.324	43.083	-0.048	0.044
-685.310	-200.000	-0.042	-0.229
-684.295	-200.000	-0.096	-0.465
-683.281	-20.959	0.037	0.022
-682.266	-200.000	-0.010	-0.094
-681.251	-51.476	-0.133	-0.062
-680.237	800.000	-0.062	-0.252
-679.222	-56.617	0.323	-0.143
-678.208	-103.332	0.168	0.040
-677.193	719.624	-0.219	-0.583
-676.178	-122.267	-0.227	0.037
-675.164	-185.134	0.114	0.002
-674.149	-200.000	0.004	-0.050
-673.135	800.000	0.134	0.419
-672.120	-110.511	0.466	0.097
-671.105	-60.986	-0.273	0.116
-670.091	536.922	-0.161	-0.383
-669.076	-200.000	-0.004	0.165
-668.062	393.107	0.150	0.312
-667.047	-200.000	-0.058	-0.297
-666.032	-173.761	-0.101	0.003
-665.018	-75.704	0.255	0.091
-664.003	-200.000	0.002	0.102
-662.989	-200.000	-0.019	-0.264
-661.974	-200.000	0.023	-0.185
-660.959	9.081	0.156	0.118
-659.945	-64.484	0.422	-0.172
-658.930	-200.000	0.010	-0.309
-657.916	208.994	-0.190	0.297
-656.901	-200.000	-0.042	0.187
-655.886	-78.222	-0.432	-0.149
-654.872	-116.648	0.241	0.044
-653.857	96.797	0.229	0.262
-652.843	800.000	0.035	0.110
-651.828	-200.000	-0.012	-0.311
-650.814	-111.803	-0.096	0.019
-649.799	-139.677	-0.227	-0.024
-648.784	154.014	0.161	0.221
-647.770	23.396	-0.119	-0.098
-646.755	800.000	-0.075	0.272
-645.741	-136.551	0.164	-0.019
-644.726	56.815	0.216	-0.211
-643.711	-82.580	0.223	0.072
-642.697	-200.000	-0.019	-0.153
-641.682	22.660	0.276	0.226
-640.668	-30.249	0.329	-0.187
-639.653	716.803	0.091	0.241
-638.638	-78.498	0.075	0.026
-637.624	800.000	0.054	-0.151
-636.609	800.000	-0.057	-0.170
-635.595	-200.000	-0.050	-0.327
-634.580	-181.361	-0.264	0.005
-633.565	-200.000	-0.004	0.296
-632.551	-107.497	0.200	0.044
-631.536	34.865	0.209	-0.183
-630.522	-38.235	-0.175	-0.093
-629.507	253.872	-0.118	0.202
-628.492	402.897	0.134	0.281
-627.478	-200.000	-0.013	-0.197
-626.463	425.266	-0.184	-0.397
-625.449	-15.734	0.327	0.208
-624.434	-151.806	-0.223	0.016
-623.419	-21.986	0.200	0.122
-622.405	-101.334	0.337	0.082
-621.390	-123.593	-0.251	0.040
-620.376	167.095	-0.168	-0.238
-619.361	-200.000	0.045	0.306
-618.346	-200.000	0.043	-0.230
-617.332	-200.000	-0.040	-0.260
-616.317	-33.343	-0.214	-0.118
-615.303	133.068	-0.183	-0.236
-614.288	261.076	0.026	-0.045
-613.273	182.743	-0.120	0.177
-612.259	782.955	0.053	0.144
-611.244	-142.245	-0.236	0.023
-610.230	800.000	0.014	-0.042
-609.215	39.570	0.048	0.043
-608.201	-131.178	0.246	0.033
-607.186	-200.000	-0.029	0.207
-606.171	-101.000	0.184	0.045
-605.157	138.563	-0.160	-0.210
-604.142	-126.681	0.059	0.009
-603.128	-163.781	0.304	-0.014
-602.113	61.026	-0.123	0.122
-601.098	94.072	-0.117	-0.132
-600.084	-200.000	-0.020	-0.118
-599.069	40.403	0.162	0.145
-598.055	150.531	0.051	-0.069
-597.040	-200.000	-0.007	0.088
-596.025	-96.945	0.138	0.036
-595.011	-58.416	-0.180	-0.078
-593.996	-200.000	0.007	-0.166
-592.982	754.190	0.122	-0.331
-591.967	142.621	-0.102	-0.135
-590.952	505.061	-0.122	0.282
-589.938	-200.000	-0.053	-0.301
-588.923	117.061	0.193	-0.236
-587.909	163.048	0.140	-0.197
-586.894	-136.227	-0.348	-0.041
-585.879	184.502	-0.129	-0.191
-584.865	84.671	-0.163	0.178
-583.850	800.000	0.053	-0.213
-582.836	-101.669	-0.124	-0.030
-581.821	-116.447	0.097	0.018
-580.806	-120.723	-0.127	0.021
-579.792	-21.280	-0.175	-0.107
-578.777	-63.801	-0.019	-0.008
-577.763	786.664	0.141	0.385
-576.748	21.286	0.123	-0.100
-575.733	-122.965	0.263	-0.042
-574.719	-127.558	0.188	-0.027
-573.704	800.000	-0.054	0.213
-572.690	-39.429	-0.136	-0.071
-571.675	-200.000	-0.066	-0.347
-570.661	109.193	0.067	-0.080
-569.646	-9.933	-0.277	0.184
-568.631	-200.000	-0.095	-0.577
-567.617	-10.320	0.170	0.113
-566.602	-14.225	0.268	-0.172
-565.588	451.830	0.026	0.058
-564.573	800.000	-0.026	-0.081
-563.558	-118.543	0.129	-0.023
-562.544	800.000	-0.054	0.177
-561.529	-102.527	-0.319	-0.076
-560.515	85.320	0.045	-0.050
-559.500	-200.000	0.035	-0.236
-558.485	-159.545	0.199	0.011
-557.471	-16.328	-0.191	0.121
-556.456	-123.561	-0.437	0.069
-555.442	-200.000	0.031	0.262
-554.427	800.000	0.017	-0.062
-553.412	-66.050	0.414	0.165
-552.398	621.343	0.036	-0.089
-551.383	139.843	0.015	0.020
-550.369	800.000	0.173	-0.569
-549.354	800.000	0.160	-0.524
-548.339	746.860	0.078	0.210
-547.325	-200.000	0.016	0.190
-546.310	-67.676	-0.314	0.123
-545.296	-148.380	0.151	-0.012
-544.281	662.105	0.050	0.130
-543.266	129.556	0.097	-0.124
-542.252	-185.773	-0.217	-0.003
-541.237	-130.178	-0.279	0.038
-540.223	-45.788	-0.152	-0.075
-539.208	95.670	-0.131	0.149
-538.193	469.441	0.104	-0.233
-537.179	-200.000	-0.027	-0.155
-536.164	279.788	0.111	-0.198
-535.150	-200.000	0.025	-0.186
-534.135	431.882	-0.181	0.392
-533.121	164.851	-0.131	0.185
-532.106	-200.000	0.041	-0.283
-531.091	800.000	-0.047	-0.158
-530.077	588.946	0.115	0.282
-529.062	-200.000	0.014	-0.262
-528.048	-104.305	-0.487	0.112
-527.033	-56.670	-0.048	0.021
-526.018	-78.979	-0.246	0.083
-525.004	-200.000	0.013	-0.150
-523.989	185.805	-0.074	-0.110
-522.975	-84.948	0.225	-0.070
-521.960	126.551	-0.127	0.160
-520.945	-159.072	-0.480	-0.027
-519.931	140.359	0.201	0.264
-518.916	457.610	-0.116	0.257
-517.902	800.000	0.102	0.407
-516.887	10.530	-0.281	-0.213
-515.872	-1.726	0.257	-0.180
-514.858	791.461	-0.041	-0.111
-513.843	-94.648	0.378	-0.102
-512.829	-200.000	0.030	-0.159
-511.814	112.236	0.048	0.058
-510.799	800.000	-0.048	-0.203
-509.785	-30.732	0.170	0.096
-508.770	-47.520	0.299	-0.145
-507.756	391.898	-0.111	0.230
-506.741	399.618	-0.184	0.383
-505.726	-200.000	0.012	-0.271
-504.712	58.814	0.088	-0.086
-503.697	672.027	0.038	-0.099
-502.683	32.002	-0.216	-0.185
-501.668	-62.510	-0.273	-0.113
-500.653	93.147	-0.165	0.186
-499.639	-48.506	-0.107	0.051
-498.624	405.543	-0.146	-0.307
-497.610	800.000	0.035	-0.105
-496.595	800.000	-0.071	0.222
-495.581	215.930	0.137	-0.216
-494.566	-200.000	0.035	0.183
-493.551	-200.000	0.001	-0.239
-492.537	434.872	-0.085	0.184
-491.522	28.048	-0.250	0.210
-490.508	36.505	0.217	-0.191
-489.493	-123.329	-0.094	0.015
-488.478	800.000	-0.111	-0.400
-487.464	539.967	-0.063	0.148
-486.449	-160.180	-0.190	-0.010
-485.435	-200.000	-0.054	0.432
-484.420	9.286	-0.153	0.115
-483.405	800.000	-0.040	0.138
-482.391	748.786	-0.027	-0.074
-481.376	-200.000	-0.014	0.091
-480.362	502.501	0.092	0.211
-479.347	-43.908	-0.282	0.141
-478.332	-10.116	-0.489	0.323
-477.318	-57.221	-0.100	0.044
-476.303	-148.645	0.139	0.011
-475.289	-88.780	0.213	0.063
-474.274	-88.465	-0.261	0.078
-473.259	-200.000	-0.006	-0.109
-472.245	410.921	0.037	0.078
-471.230	-8.313	0.037	-0.025
-470.216	133.038	0.069	-0.088
-469.201	-121.883	0.116	0.019
-468.186	170.773	0.181	-0.258
-467.172	-45.327	0.297	-0.146
-466.157	-21.751	-0.188	0.114
-465.143	-24.555	0.080	-0.047
-464.128	189.690	-0.053	-0.079
-463.113	102.280	-0.180	-0.208
-462.099	211.802	-0.169	0.264
-461.084	-200.000	-0.014	0.095
-460.070	39.575	-0.087	-0.077
-459.055	677.898	0.079	-0.205
-458.040	-81.306	-0.122	-0.040
-457.026	-97.666	0.354	0.091
-456.011	362.652	-0.052	0.103
-454.997	76.094	-0.266	-0.280
-453.982	-145.675	0.510	0.045
-452.968	54.182	-0.370	-0.353
-451.953	-185.219	0.241	-0.004
-450.938	-182.703	-0.257	0.005
-449.924	229.051	0.118	-0.191
-448.909	225.590	0.168	-0.270
-447.895	-48.648	-0.088	0.042
-446.880	-122.073	0.229	-0.037
-445.865	145.179	0.146	0.195
-444.851	23.323	0.103	-0.084
-443.836	-37.612	0.418	-0.221
-442.822	-23.849	0.295	-0.175
-441.807	-200.000	0.014	0.219
-440.792	-94.696	0.151	0.041
-439.778	153.889	0.038	0.052
-438.763	-136.733	-0.314	0.036
-437.749	-200.000	0.026	0.179
-436.734	800.000	-0.032	0.098
-435.719	44.931	0.248	0.227
-434.705	-200.000	-0.030	-0.178
-433.690	-51.829	0.260	0.120
-432.676	-92.661	-0.154	0.043
-431.661	-200.000	0.076	0.403
-430.646	800.000	-0.022	-0.077
-429.632	-75.495	-0.077	-0.027
-428.617	-200.000	-0.045	-0.467
-427.603	168.517	-0.088	-0.124
-426.588	189.903	-0.091	-0.136
-425.573	-37.489	-0.283	-0.150
-424.559	-24.716	0.288	0.170
-423.544	51.896	0.126	-0.119
-422.530	-200.000	0.006	0.028
-421.515	-0.109	-0.041	0.029
-420.500	320.339	0.031	0.059
-419.486	-48.759	0.165	0.078
-418.471	39.564	-0.164	-0.146
-417.457	-25.142	0.303	0.178
-416.442	564.965	0.100	-0.241
-415.428	307.439	-0.183	-0.337
-414.413	102.167	0.176	-0.204
-413.398	-200.000	-0.014	0.269
-412.384	70.936	0.059	-0.061
-411.369	91.998	-0.254	0.284
-410.355	800.000	0.065	0.277
-409.340	-200.000	-0.046	0.277
-408.325	-40.874	-0.219	0.112
-407.311	10.259	0.009	0.007
-406.296	484.632	-0.131	-0.296
-405.282	-39.065	-0.377	-0.196
-404.267	82.116	0.394	-0.423
-403.252	-53.572	-0.237	0.107
-402.238	128.341	0.250	0.315
-401.223	-200.000	-0.019	-0.204
-400.209	-200.000	-0.003	0.128
-399.194	-200.000	-0.049	0.376
-398.179	146.997	0.288	-0.384
-397.165	-66.771	-0.050	-0.019
-396.150	800.000	0.098	0.405
-395.136	35.107	0.014	-0.012
-394.121	-52.647	0.126	-0.058
-393.106	508.088	-0.172	-0.395
-392.092	70.984	-0.032	-0.032
-391.077	-136.631	0.119	-0.014
-390.063	-200.000	-0.029	0.141
-389.048	-200.000	0.325	0.000
-388.033	-23.891	-0.136	-0.081
-387.019	13.049	0.052	0.040
-386.004	-81.290	0.323	-0.106
-384.990	-117.197	0.090	-0.016
-383.975	76.784	-0.079	0.083
-382.960	609.381	0.025	-0.062
-381.946	-137.711	-0.110	0.012
-380.931	-200.000	0.004	0.157
-379.917	800.000	0.111	0.349
-378.902	29.997	0.164	0.139
-377.888	-200.000	-0.012	-0.152
-376.873	-153.163	0.338	0.023
-375.858	800.000	0.031	0.107
-374.844	-200.000	-0.044	-0.349
-373.829	-180.405	0.153	0.003
-372.815	-23.517	-0.089	0.053
-371.800	98.814	-0.287	0.328
-370.785	-37.008	0.139	-0.074
-369.771	-78.553	0.136	0.046
-368.756	709.657	-0.035	0.091
-367.742	123.649	0.160	0.198
-366.727	1.210	0.181	-0.128
-365.712	63.030	-0.049	0.048
-364.698	-138.134	-0.151	-0.017
-363.683	-76.363	0.062	0.022
-362.669	-131.579	-0.091	-0.012
-361.654	-200.000	-0.035	-0.233
-360.639	63.033	-0.066	-0.065
-359.625	-200.000	0.011	-0.187
-358.610	305.918	-0.143	-0.264
-357.596	800.000	-0.086	0.255
-356.581	363.073	0.095	0.189
-355.566	130.197	-0.005	0.006
-354.552	-8.941	-0.214	-0.142
-353.537	157.491	0.114	0.156
-352.523	800.000	0.054	0.179
-351.508	-30.901	-0.154	0.086
-350.493	800.000	-0.039	0.150
-349.479	-101.295	0.257	-0.062
-348.464	-200.000	0.038	-0.213
-347.450	-68.266	-0.320	-0.123
-346.435	-160.202	-0.227	0.012
-345.420	-200.000	0.031	0.298
-344.406	-38.692	-0.098	-0.051
-343.391	800.000	-0.051	-0.195
-342.377	431.061	-0.079	0.168
-341.362	-200.000	0.025	-0.296
-340.348	-105.864	0.297	-0.066
-339.333	128.640	-0.191	-0.240
-338.318	-200.000	-0.011	0.076
-337.304	709.165	-0.028	-0.073
-336.289	-11.406	0.284	-0.185
-335.275	4.392	-0.089	-0.064
-334.260	-200.000	-0.013	-0.068
-333.245	25.049	-0.061	0.050
-332.231	-100.189	-0.089	-0.022
-331.216	800.000	-0.044	-0.181
-330.202	117.578	0.159	0.193
-329.187	489.343	-0.130	0.293
-328.172	-157.643	-0.098	-0.006
-327.158	-126.821	0.300	0.044
-326.143	-22.647	0.079	-0.047
-325.129	-33.212	0.111	-0.061
-324.114	243.305	0.318	0.527
-323.099	2.757	0.119	-0.085
-322.085	-151.461	-0.170	0.012
-321.070	174.483	-0.154	0.221
-320.056	160.318	0.117	-0.162
-319.041	-34.521	0.068	-0.037
-318.026	-2.133	0.095	0.066
-317.012	492.664	0.037	-0.083
-315.997	476.495	-0.063	-0.141
-314.983	33.095	0.245	0.209
-313.968	99.381	0.045	0.051
-312.953	246.519	-0.100	0.166
-311.939	27.599	0.128	0.107
-310.924	-65.248	-0.220	0.088
-309.910	800.000	0.040	-0.160
-308.895	-145.870	0.175	0.015
-307.880	-27.099	0.213	0.123
-306.866	319.196	-0.115	-0.214
-305.851	-45.902	-0.253	-0.123
-304.837	-117.622	-0.342	0.061
-303.822	-40.394	-0.344	0.177
-302.807	-144.305	0.268	0.025
-301.793	-124.236	0.211	0.033
-300.778	-99.974	-0.331	-0.082
-299.764	-200.000	-0.029	0.232
-298.749	98.380	0.095	0.108
-297.735	-84.677	-0.254	0.079
-296.720	117.446	-0.093	0.113
-295.705	158.491	-0.150	0.205
-294.691	7.175	-0.117	-0.086
-293.676	2.093	0.163	0.116
-292.662	800.000	0.064	0.244
-291.647	176.120	0.191	0.273
-290.632	800.000	-0.039	0.125
-289.618	229.980	-0.179	-0.289
-288.603	-33.310	-0.216	0.118
-287.589	-200.000	-0.012	-0.322
-286.574	396.369	0.108	-0.223
-285.559	-63.333	-0.125	0.051
-284.545	92.682	0.101	0.113
-283.530	-92.718	0.158	0.044
-282.516	20.823	0.057	0.045
-281.501	-200.000	-0.031	0.300
-280.486	112.351	0.107	-0.127
-279.472	-71.066	-0.316	0.117
-278.457	-200.000	-0.012	-0.241
-277.443	-118.105	0.255	-0.045
-276.428	-200.000	-0.053	-0.303
-275.413	-200.000	0.022	-0.105
-274.399	-93.776	-0.254	0.069
-273.384	800.000	0.049	-0.191
-272.370	-184.530	-0.086	0.001
-271.355	-22.245	-0.350	0.209
-270.340	469.219	-0.067	0.149
-269.326	-145.926	0.042	0.004
-268.311	26.521	-0.214	-0.177
-267.297	-200.000	0.041	0.273
-266.282	305.310	0.067	0.122
-265.267	-200.000	-0.002	-0.178
-264.253	-200.000	-0.031	0.262
-263.238	515.741	-0.112	0.259
-262.224	32.488	0.222	-0.189
-261.209	-95.204	-0.239	-0.064
-260.195	-70.416	0.033	-0.012
-259.180	86.523	0.161	-0.174
-258.165	215.335	-0.196	-0.306
-257.151	-25.757	0.237	-0.138
-256.136	-29.870	-0.281	0.158
-255.122	-98.239	-0.194	-0.049
-254.107	-57.882	-0.308	0.133
-253.092	-143.857	0.123	0.011
-252.078	45.281	0.287	-0.261
-251.063	147.601	-0.086	0.114
-250.049	9.286	0.323	0.240
-249.034	315.275	-0.120	0.223
-248.019	-3.270	0.244	0.167
-247.005	-200.000	0.015	-0.364
-245.990	-132.039	0.121	0.015
-244.976	-75.994	0.184	0.064
-243.961	-84.842	0.253	-0.078
-242.946	-168.596	-0.329	0.012
-241.932	-88.054	0.155	0.046
-240.917	-65.848	0.158	0.062
-239.903	-72.649	0.362	0.131
-238.888	38.523	-0.017	-0.015
-237.873	-137.187	0.351	0.039
-236.859	-91.271	0.536	-0.151
-235.844	4.748	-0.127	-0.092
-234.830	96.590	0.127	-0.143
-233.815	800.000	-0.012	-0.034
-232.800	-105.321	0.473	-0.106
-231.786	-67.430	0.281	-0.109
-230.771	619.323	-0.060	-0.150
-229.757	-75.035	-0.429	0.151
-228.742	-59.614	-0.339	0.143
-227.727	800.000	-0.153	-0.447
-226.713	800.000	0.135	-0.398
-225.698	384.271	0.142	0.288
-224.684	201.688	0.066	-0.100
-223.669	800.000	-0.055	0.204
-222.655	386.004	-0.137	-0.278
-221.640	-165.149	-0.246	0.011
-220.625	9.149	0.139	-0.103
-219.611	287.065	-0.111	0.198
-218.596	-66.132	-0.023	-0.009
-217.582	-200.000	-0.009	0.239
-216.567	-72.215	-0.218	0.080
-215.552	320.420	0.086	0.160
-214.538	36.477	-0.204	0.177
-213.523	85.420	-0.099	-0.107
-212.509	22.279	-0.190	0.153
-211.494	-200.000	0.024	0.217
-210.479	234.098	0.043	-0.070
-209.465	-152.337	-0.255	-0.018
-208.450	-141.174	-0.078	-0.008
-207.436	-200.000	-0.006	0.174
-206.421	56.816	-0.042	-0.041
-205.406	-33.032	0.318	-0.173
-204.392	163.124	0.067	0.093
-203.377	800.000	-0.079	0.298
-202.363	97.599	-0.025	0.028
-201.348	-13.134	-0.130	0.083
-200.333	145.554	-0.031	0.041
-199.319	800.000	0.044	-0.173
-198.304	800.000	-0.029	0.125
-197.290	-200.000	-0.013	0.234
-196.275	48.107	-0.105	0.097
-195.260	800.000	0.026	-0.088
-194.246	394.242	0.077	0.158
-193.231	45.595	-0.281	0.255
-192.217	-95.376	-0.331	-0.087
-191.202	-41.764	-0.304	-0.153
-190.187	-200.000	-0.015	0.169
-189.173	5.294	0.421	-0.305
-188.158	-150.707	-0.367	0.027
-187.144	551.331	-0.150	-0.354
-186.129	800.000	-0.078	0.225
-185.114	-200.000	0.025	0.288
-184.100	14.281	-0.105	0.081
-183.085	21.776	-0.036	0.029
-182.071	-120.975	0.476	0.079
-181.056	-94.672	0.205	0.055
-180.042	150.086	-0.191	-0.254
-179.027	150.353	0.236	0.315
-178.012	175.108	0.155	-0.221
-176.998	-111.334	-0.278	0.056
-175.983	-43.954	0.246	0.122
-174.969	-103.522	0.165	-0.038
-173.954	-20.031	0.176	-0.106
-172.939	-74.702	0.149	0.053
-171.925	475.782	-0.036	-0.080
-170.910	-117.707	-0.543	0.096
-169.896	-200.000	-0.019	0.333
-168.881	-200.000	0.045	-0.323
-167.866	-200.000	-0.023	0.150
-166.852	136.003	0.082	0.105
-165.837	-94.771	-0.322	-0.086
-164.823	137.839	-0.039	0.050
-163.808	-143.680	0.054	0.005
-162.793	-200.000	0.030	-0.159
-161.779	378.847	0.149	-0.299
-160.764	-20.164	0.188	0.113
-159.750	49.394	0.140	0.129
-158.735	-150.838	0.219	-0.016
-157.720	-127.120	0.407	-0.059
-156.706	192.783	0.062	0.091
-155.691	280.019	-0.092	0.161
-154.677	127.768	-0.150	0.187
-153.662	800.000	-0.079	0.284
-152.647	-13.410	-0.198	-0.126
-151.633	-200.000	0.007	0.145
-150.618	-109.183	0.118	-0.025
-149.604	304.420	-0.081	0.147
-148.589	243.805	0.239	-0.393
-147.574	-92.347	0.180	0.050
-146.560	-143.179	0.202	-0.019
-145.545	-69.070	-0.119	0.045
-144.531	126.949	-0.158	0.196
-143.516	-44.556	0.165	0.081
-142.502	395.852	0.157	0.322
-141.487	-17.946	0.311	-0.191
-140.472	291.389	0.094	0.168
-139.458	-139.731	-0.132	-0.014
-138.443	800.000	-0.033	-0.103
-137.429	-48.992	0.322	-0.151
-136.414	-66.054	-0.151	-0.059
-135.399	-200.000	0.022	0.175
-134.385	-172.368	0.357	0.011
-133.370	210.294	0.067	-0.103
-132.356	642.196	0.073	-0.181
-131.341	17.496	-0.322	-0.251
-130.326	255.664	-0.162	0.272
-129.312	96.762	0.242	-0.271
-128.297	244.288	-0.199	-0.327
-127.283	58.455	0.145	0.140
-126.268	2.172	0.252	-0.179
-125.253	-200.000	-0.005	0.183
-124.239	433.336	-0.147	0.313
-123.224	-200.000	0.019	-0.101
-122.210	-79.553	0.250	-0.083
